DTS Sentinel unit serial number:	SN413079Multiplexer serial number:	ORYXHardware model number:	OX4-SRSoftware version number:	ORYX F/W v4.00 Oryx Data Collector v3.7.2.0data status	okinstallation	princeton_trtdifferential loss correction	single-endedforward channel	channel 1reverse channel	N/Adate	2019/09/18time	06:02:35forward acquisition time	60.00reverse acquisition time	0.00gamma	496.2192k internal	0.2339k external	0.2339temperature offset calibration	0.9972default loss term (dB/km)	0.3790temperature slope calibration	1.0000multiplexer offset coefficient	1.0000multiplexer slope coefficient	1.0000fibre end	0.00T internal ref (°C)	23.19T ext. ref 1 (°C)	0.18T ext. ref 2 (°C)	17.66length (m)	temperature (°C)	Stokes	anti-Stokes-747.200	103.052	-0.121	0.142
-746.185	-157.173	-0.373	-0.023
-745.171	17.948	0.270	-0.215
-744.156	106.847	-0.138	-0.164
-743.142	-19.279	0.173	0.108
-742.127	-200.000	0.007	-0.078
-741.112	527.901	-0.111	0.261
-740.098	75.497	-0.326	0.345
-739.083	-200.000	0.018	0.339
-738.069	123.617	-0.107	0.135
-737.054	18.020	0.132	-0.105
-736.039	-9.272	-0.337	0.226
-735.025	-120.627	0.371	-0.063
-734.010	-29.517	-0.351	-0.201
-732.996	126.106	0.097	0.123
-731.981	-152.319	-0.223	0.016
-730.966	800.000	-0.087	-0.346
-729.952	-2.154	0.236	0.166
-728.937	-151.254	0.285	-0.021
-727.923	-103.107	0.161	0.038
-726.908	2.522	0.237	-0.172
-725.894	-59.286	-0.111	0.048
-724.879	800.000	-0.081	-0.299
-723.864	-147.910	-0.049	0.004
-722.850	-200.000	0.007	-0.204
-721.835	254.603	-0.117	0.200
-720.821	372.590	-0.090	0.182
-719.806	-115.171	0.210	-0.040
-718.791	-200.000	0.006	-0.106
-717.777	113.162	-0.111	0.134
-716.762	-91.889	-0.277	-0.079
-715.748	-122.655	0.211	-0.034
-714.733	-7.903	-0.234	-0.158
-713.718	163.003	-0.207	-0.291
-712.704	-51.078	0.148	-0.069
-711.689	-156.399	0.101	0.006
-710.675	158.472	-0.183	0.254
-709.660	-147.646	0.190	0.016
-708.645	800.000	0.126	0.419
-707.631	800.000	0.045	-0.140
-706.616	-115.987	0.241	0.045
-705.602	-126.605	0.087	0.013
-704.587	-172.248	0.328	0.011
-703.572	800.000	-0.102	-0.334
-702.558	78.443	0.091	-0.097
-701.543	768.538	0.046	-0.126
-700.529	-200.000	0.003	0.033
-699.514	-200.000	-0.020	0.396
-698.499	-107.070	-0.178	0.039
-697.485	-32.738	-0.420	-0.234
-696.470	-60.337	-0.465	-0.198
-695.456	-200.000	0.014	-0.308
-694.441	-19.496	-0.202	-0.125
-693.426	-200.000	0.043	0.326
-692.412	129.036	0.165	0.211
-691.397	800.000	0.070	-0.284
-690.383	-121.872	-0.346	0.057
-689.368	170.345	0.235	-0.337
-688.354	-9.466	-0.305	-0.204
-687.339	0.170	-0.172	-0.122
-686.324	-85.672	-0.406	-0.126
-685.310	184.014	0.279	0.414
-684.295	-200.000	-0.012	0.080
-683.281	-200.000	-0.011	0.344
-682.266	15.108	0.336	-0.264
-681.251	704.965	-0.064	-0.169
-680.237	58.209	0.040	0.040
-679.222	-200.000	0.020	0.353
-678.208	-85.513	-0.361	-0.112
-677.193	-200.000	-0.087	0.510
-676.178	36.860	0.052	0.046
-675.164	-104.046	-0.434	0.101
-674.149	70.960	-0.158	-0.163
-673.135	96.302	0.162	-0.185
-672.120	58.188	0.114	0.111
-671.105	-137.801	0.185	0.021
-670.091	7.060	0.099	-0.074
-669.076	110.962	0.072	0.087
-668.062	256.583	-0.171	-0.294
-667.047	439.189	0.019	0.042
-666.032	-101.520	0.333	0.081
-665.018	-108.873	-0.142	0.030
-664.003	-53.665	0.114	0.052
-662.989	800.000	-0.109	-0.321
-661.974	-94.736	0.083	0.022
-660.959	-48.994	0.108	0.051
-659.945	-33.374	-0.131	-0.072
-658.930	24.431	-0.119	0.098
-657.916	134.156	0.100	0.129
-656.901	718.451	-0.075	0.200
-655.886	224.669	-0.086	0.138
-654.872	-87.631	0.127	0.038
-653.857	-30.898	-0.273	0.154
-652.843	-26.358	0.426	0.250
-651.828	-51.964	-0.331	-0.154
-650.814	-200.000	0.002	-0.157
-649.799	-200.000	-0.005	-0.273
-648.784	-73.307	-0.179	-0.065
-647.770	-52.043	-0.542	0.252
-646.755	-163.405	-0.299	0.014
-645.741	-93.621	-0.044	-0.012
-644.726	-17.298	-0.100	-0.063
-643.711	-57.943	-0.252	0.110
-642.697	-109.218	0.272	-0.058
-641.682	-77.023	-0.147	-0.051
-640.668	-45.129	0.085	0.042
-639.653	-200.000	0.027	0.117
-638.638	-200.000	0.061	0.268
-637.624	-47.792	-0.233	-0.113
-636.609	800.000	-0.167	-0.466
-635.595	-200.000	0.050	0.319
-634.580	-200.000	0.006	0.143
-633.565	-200.000	-0.009	-0.072
-632.551	108.686	-0.111	-0.133
-631.536	409.075	0.041	-0.087
-630.522	-92.093	-0.201	0.057
-629.507	-86.203	0.209	0.064
-628.492	-150.904	-0.069	-0.005
-627.478	-64.451	-0.082	-0.033
-626.463	-156.681	0.062	0.004
-625.449	-111.238	0.180	-0.037
-624.434	-117.014	0.226	-0.041
-623.419	-79.656	-0.219	0.074
-622.405	-53.697	0.357	0.163
-621.390	-131.490	-0.309	0.041
-620.376	-200.000	0.012	-0.175
-619.361	-51.191	-0.088	-0.041
-618.346	239.404	-0.052	0.086
-617.332	800.000	0.143	-0.411
-616.317	89.946	-0.104	0.116
-615.303	336.668	-0.079	-0.154
-614.288	112.079	-0.273	-0.329
-613.273	522.611	0.040	-0.094
-612.259	-200.000	-0.051	-0.221
-611.244	-45.790	-0.164	0.081
-610.230	636.279	-0.140	-0.353
-609.215	-103.815	0.256	-0.060
-608.201	409.403	-0.158	0.333
-607.186	-81.716	0.267	-0.087
-606.171	-113.961	0.153	-0.030
-605.157	-52.097	-0.174	0.081
-604.142	12.740	-0.165	0.127
-603.128	-57.984	0.161	0.070
-602.113	466.074	0.110	-0.246
-601.098	-71.121	-0.054	-0.020
-600.084	-35.338	-0.142	-0.077
-599.069	-200.000	-0.039	0.358
-598.055	-93.774	0.080	0.022
-597.040	800.000	-0.106	0.349
-596.025	-156.108	-0.197	0.012
-595.011	241.082	-0.050	-0.083
-593.996	13.860	-0.298	0.231
-592.982	-46.288	0.048	0.024
-591.967	493.368	-0.035	0.080
-590.952	-74.497	0.175	0.063
-589.938	-33.416	-0.236	-0.130
-588.923	-131.575	0.122	-0.016
-587.909	-69.611	-0.270	0.103
-586.894	-54.391	0.159	-0.072
-585.879	-99.569	-0.035	-0.009
-584.865	-109.900	-0.234	-0.049
-583.850	-1.564	0.172	0.121
-582.836	228.034	0.052	-0.084
-581.821	-18.409	0.099	-0.061
-580.806	-55.078	-0.425	0.191
-579.792	-68.008	0.107	0.042
-578.777	-170.281	-0.182	-0.006
-577.763	-200.000	0.021	-0.122
-576.748	-200.000	-0.001	-0.221
-575.733	464.870	-0.036	0.079
-574.719	144.596	-0.070	-0.093
-573.704	-21.029	0.101	0.062
-572.690	800.000	-0.076	0.221
-571.675	-55.316	-0.120	0.054
-570.661	800.000	-0.064	-0.241
-569.646	447.380	-0.130	0.284
-568.631	-71.654	0.173	-0.064
-567.617	15.751	0.135	0.105
-566.602	-200.000	-0.033	0.154
-565.588	-200.000	0.009	0.199
-564.573	274.775	0.122	-0.216
-563.558	-200.000	-0.033	-0.347
-562.544	800.000	-0.044	-0.157
-561.529	15.877	0.154	-0.121
-560.515	-23.176	-0.117	-0.070
-559.500	-200.000	0.013	-0.210
-558.485	43.466	-0.154	-0.141
-557.471	417.381	-0.060	-0.128
-556.456	138.644	-0.049	0.064
-555.442	32.397	-0.077	0.066
-554.427	800.000	0.075	-0.279
-553.412	-107.932	0.085	-0.018
-552.398	800.000	-0.103	-0.370
-551.383	137.027	0.047	-0.061
-550.369	564.307	-0.141	-0.339
-549.354	60.052	-0.043	0.042
-548.339	-200.000	-0.048	0.241
-547.325	800.000	0.080	0.315
-546.310	-200.000	-0.027	0.177
-545.296	-13.817	0.314	0.202
-544.281	-200.000	-0.023	0.159
-543.266	-69.034	0.207	0.080
-542.252	54.854	-0.134	0.128
-541.237	-200.000	0.009	-0.076
-540.223	-29.335	-0.176	0.100
-539.208	-69.298	0.157	-0.060
-538.193	-200.000	-0.025	-0.225
-537.179	800.000	0.079	-0.226
-536.164	492.246	-0.162	-0.369
-535.150	26.680	-0.142	0.118
-534.135	-20.623	0.345	-0.211
-533.121	426.705	-0.095	-0.203
-532.106	800.000	-0.121	-0.351
-531.091	303.288	0.067	-0.123
-530.077	49.747	-0.278	0.260
-529.062	-57.161	-0.295	0.129
-528.048	341.712	0.105	0.204
-527.033	-170.281	0.137	-0.005
-526.018	800.000	0.149	0.465
-525.004	-60.849	0.160	0.067
-523.989	-66.131	-0.169	0.067
-522.975	156.110	0.103	0.141
-521.960	-200.000	0.021	0.188
-520.945	5.203	-0.121	-0.088
-519.931	-178.240	-0.127	0.003
-518.916	-123.985	0.111	-0.017
-517.902	-164.407	-0.271	0.012
-516.887	-112.919	0.237	0.047
-515.872	239.182	0.123	-0.203
-514.858	-163.129	0.382	-0.018
-513.843	-106.779	-0.184	-0.041
-512.829	-200.000	-0.047	-0.264
-511.814	71.620	-0.272	-0.281
-510.799	-200.000	0.052	0.250
-509.785	800.000	0.055	0.216
-508.770	43.875	-0.139	-0.127
-507.756	394.399	-0.221	-0.458
-506.741	239.157	-0.219	0.362
-505.726	-141.415	0.074	0.007
-504.712	557.031	0.009	0.021
-503.697	-200.000	-0.013	0.155
-502.683	-200.000	0.048	0.262
-501.668	-200.000	-0.053	0.322
-500.653	144.440	0.093	-0.123
-499.639	8.943	0.389	-0.292
-498.624	-30.684	-0.290	-0.163
-497.610	-98.073	-0.170	0.043
-496.595	-61.375	0.093	0.039
-495.581	-122.917	-0.134	0.021
-494.566	-62.679	0.383	-0.158
-493.551	-184.003	-0.143	-0.002
-492.537	38.256	0.059	0.052
-491.522	-155.927	0.125	-0.008
-490.508	513.028	-0.090	0.207
-489.493	-5.364	0.231	0.157
-488.478	-88.474	-0.124	0.037
-487.464	-69.535	0.100	-0.038
-486.449	59.744	0.141	-0.138
-485.435	228.409	-0.145	0.234
-484.420	-113.097	-0.082	-0.016
-483.405	-190.861	0.256	-0.003
-482.391	800.000	0.086	0.250
-481.376	83.831	0.115	-0.125
-480.362	-200.000	0.023	-0.236
-479.347	-133.389	0.250	-0.031
-478.332	-147.645	0.126	0.011
-477.318	800.000	0.168	0.526
-476.303	-4.403	0.222	0.152
-475.289	-7.451	0.230	-0.154
-474.274	-149.017	0.128	0.010
-473.259	800.000	0.049	-0.162
-472.245	-69.074	-0.261	0.100
-471.230	-4.951	-0.052	-0.036
-470.216	254.542	0.086	-0.145
-469.201	-200.000	0.022	0.228
-468.186	-200.000	-0.003	-0.025
-467.172	-138.540	-0.162	-0.018
-466.157	800.000	0.070	-0.217
-465.143	-76.895	0.250	-0.087
-464.128	-200.000	-0.009	-0.061
-463.113	800.000	0.052	-0.178
-462.099	-200.000	0.040	0.296
-461.084	-107.602	-0.168	-0.036
-460.070	21.655	0.103	-0.083
-459.055	187.948	-0.194	-0.287
-458.040	-134.222	0.384	-0.047
-457.026	103.438	-0.120	0.140
-456.011	98.152	0.060	0.069
-454.997	800.000	0.010	-0.040
-453.982	794.470	0.183	0.501
-452.968	34.412	-0.300	0.259
-451.953	-72.268	-0.150	-0.055
-450.938	304.478	0.079	-0.146
-449.924	800.000	-0.045	-0.128
-448.909	-92.201	0.163	-0.046
-447.895	-10.950	0.249	-0.163
-446.880	-52.406	-0.256	-0.118
-445.865	-166.631	0.163	-0.007
-444.851	-62.667	0.145	0.060
-443.836	-109.070	-0.300	-0.063
-442.822	654.474	0.059	-0.150
-441.807	800.000	0.031	0.123
-440.792	-58.097	0.089	0.038
-439.778	381.056	0.057	0.115
-438.763	-200.000	0.022	-0.312
-437.749	-200.000	0.021	-0.151
-436.734	-141.098	0.227	-0.023
-435.719	800.000	-0.084	0.280
-434.705	-200.000	0.015	0.112
-433.690	39.901	0.056	0.050
-432.676	-14.009	0.186	-0.119
-431.661	-200.000	0.077	-0.427
-430.646	-149.959	0.129	0.010
-429.632	-200.000	-0.019	0.153
-428.617	-200.000	-0.005	-0.449
-427.603	-10.204	-0.274	0.180
-426.588	3.748	0.285	-0.206
-425.573	29.177	0.118	-0.100
-424.559	-164.595	-0.211	0.009
-423.544	-28.421	0.156	0.089
-422.530	50.746	0.060	0.057
-421.515	800.000	-0.060	0.179
-420.500	427.498	0.042	0.089
-419.486	800.000	-0.099	-0.423
-418.471	-9.496	0.208	-0.137
-417.457	-200.000	-0.014	0.086
-416.442	-200.000	-0.019	-0.275
-415.428	800.000	0.051	-0.161
-414.413	-8.275	-0.269	-0.179
-413.398	464.551	-0.068	-0.151
-412.384	800.000	0.155	0.578
-411.369	31.549	-0.123	0.105
-410.355	137.981	0.102	0.132
-409.340	-106.662	0.135	-0.030
-408.325	190.559	0.175	0.261
-407.311	-93.318	0.305	-0.084
-406.296	-23.022	-0.043	0.026
-405.282	-200.000	0.007	0.227
-404.267	30.213	0.283	-0.239
-403.252	453.209	-0.128	-0.280
-402.238	800.000	-0.022	0.083
-401.223	449.976	-0.067	0.147
-400.209	443.241	-0.111	0.240
-399.194	27.629	-0.082	0.069
-398.179	800.000	0.033	0.120
-397.165	-200.000	-0.012	0.320
-396.150	13.996	-0.305	0.235
-395.136	-92.413	-0.142	-0.040
-394.121	72.675	-0.246	-0.254
-393.106	-200.000	-0.038	0.213
-392.092	-19.211	0.164	0.101
-391.077	-140.979	-0.234	0.024
-390.063	-47.791	0.147	-0.071
-389.048	-200.000	-0.038	0.393
-388.033	-200.000	0.063	0.286
-387.019	-200.000	-0.022	-0.181
-386.004	119.630	0.181	0.222
-384.990	-46.940	0.189	0.091
-383.975	398.136	0.079	-0.163
-382.960	-0.138	0.220	-0.155
-381.946	-6.599	-0.191	0.128
-380.931	151.795	-0.109	0.146
-379.917	-133.605	-0.217	-0.027
-378.902	123.376	-0.161	0.199
-377.888	-3.827	0.021	0.014
-376.873	76.452	0.219	0.230
-375.858	800.000	-0.111	0.304
-374.844	800.000	0.086	0.358
-373.829	3.270	-0.050	-0.036
-372.815	1.891	-0.137	0.098
-371.800	127.433	-0.116	-0.145
-370.785	31.972	0.304	-0.259
-369.771	45.095	-0.051	0.046
-368.756	120.507	-0.156	0.192
-367.742	-25.919	-0.213	-0.124
-366.727	-200.000	0.073	0.529
-365.712	349.931	0.070	-0.137
-364.698	28.058	0.121	-0.100
-363.683	289.080	0.162	-0.291
-362.669	50.259	-0.164	0.153
-361.654	44.783	-0.097	0.088
-360.639	7.949	0.199	-0.147
-359.625	-125.085	0.177	0.027
-358.610	250.497	-0.091	0.153
-357.596	-90.832	-0.194	-0.055
-356.581	-42.896	0.099	0.050
-355.566	-7.204	0.233	-0.156
-354.552	-0.721	0.055	0.039
-353.537	123.375	0.154	0.190
-352.523	-123.397	0.140	-0.022
-351.508	-84.392	-0.271	-0.085
-350.493	-200.000	0.006	-0.262
-349.479	77.919	0.174	-0.183
-348.464	-116.519	-0.235	0.043
-347.450	800.000	0.092	0.367
-346.435	152.346	-0.165	0.223
-345.420	-90.805	-0.247	-0.070
-344.406	-199.838	-0.365	-0.002
-343.391	82.004	0.138	-0.148
-342.377	185.627	-0.135	0.198
-341.362	79.515	0.142	-0.151
-340.348	-116.500	-0.373	-0.068
-339.333	-104.479	0.188	0.043
-338.318	-51.224	-0.503	-0.233
-337.304	-17.620	0.110	-0.068
-336.289	198.328	-0.296	-0.446
-335.275	800.000	0.145	0.417
-334.260	-200.000	-0.035	-0.229
-333.245	-54.411	0.349	0.156
-332.231	104.129	-0.205	0.237
-331.216	-200.000	0.043	-0.186
-330.202	198.140	0.254	0.384
-329.187	-106.491	0.262	0.058
-328.172	-134.595	0.146	-0.018
-327.158	34.955	0.095	0.082
-326.143	-200.000	0.013	-0.190
-325.129	-0.516	-0.252	0.177
-324.114	91.286	-0.198	0.219
-323.099	90.569	0.052	-0.058
-322.085	-200.000	0.017	-0.287
-321.070	-82.648	0.255	0.081
-320.056	-83.100	0.409	0.130
-319.041	-200.000	-0.083	-0.481
-318.026	800.000	-0.071	-0.252
-317.012	99.315	-0.075	-0.086
-315.997	7.147	0.108	-0.079
-314.983	-50.690	0.294	-0.136
-313.968	-6.124	0.167	-0.112
-312.953	800.000	0.047	-0.139
-311.939	-200.000	-0.005	0.066
-310.924	70.910	-0.051	-0.052
-309.910	-200.000	0.011	-0.178
-308.895	34.343	-0.111	-0.096
-307.880	-145.068	-0.363	-0.033
-306.866	94.571	-0.122	0.137
-305.851	30.792	-0.075	-0.064
-304.837	-130.921	0.246	0.032
-303.822	-101.962	0.152	0.036
-302.807	215.517	-0.164	-0.256
-301.793	-91.146	0.093	-0.026
-300.778	133.868	-0.202	-0.258
-299.764	-118.279	0.144	0.025
-298.749	-135.448	0.129	0.015
-297.735	-46.545	0.151	0.073
-296.720	800.000	-0.117	0.411
-295.705	-200.000	-0.010	0.073
-294.691	219.880	-0.310	0.489
-293.676	-50.370	0.268	0.125
-292.662	35.995	-0.055	-0.048
-291.647	-71.557	0.043	-0.016
-290.632	489.635	-0.076	0.170
-289.618	-66.169	0.316	-0.124
-288.603	-200.000	0.019	0.143
-287.589	800.000	-0.118	0.324
-286.574	312.343	0.056	-0.103
-285.559	-200.000	0.030	0.150
-284.545	25.048	-0.152	0.124
-283.530	648.771	-0.019	0.047
-282.516	473.143	0.075	-0.166
-281.501	28.820	0.136	0.113
-280.486	800.000	-0.055	-0.168
-279.472	-200.000	0.001	0.046
-278.457	7.928	0.132	-0.098
-277.443	-117.670	-0.241	0.043
-276.428	78.319	0.118	-0.124
-275.413	-8.485	0.101	-0.067
-274.399	-73.476	0.343	0.123
-273.384	800.000	0.040	0.149
-272.370	-139.365	-0.204	0.022
-271.355	-200.000	-0.005	-0.106
-270.340	-64.743	0.327	-0.130
-269.326	19.528	0.174	-0.138
-268.311	59.054	0.161	0.156
-267.297	497.220	0.129	0.292
-266.282	-25.259	-0.126	-0.073
-265.267	-200.000	0.073	-0.445
-264.253	3.271	-0.105	-0.076
-263.238	167.244	0.186	-0.260
-262.224	-113.425	-0.336	0.065
-261.209	175.623	0.179	-0.255
-260.195	800.000	0.043	0.125
-259.180	290.380	-0.081	-0.144
-258.165	476.490	0.042	-0.093
-257.151	411.822	-0.050	-0.105
-256.136	118.415	-0.178	0.217
-255.122	-200.000	-0.050	0.327
-254.107	-45.097	0.182	0.089
-253.092	-200.000	0.098	0.422
-252.078	-87.725	-0.230	-0.068
-251.063	506.401	-0.145	-0.331
-250.049	-200.000	0.027	0.179
-249.034	-200.000	-0.043	0.267
-248.019	124.455	0.077	0.095
-247.005	-85.850	-0.294	0.089
-245.990	-200.000	0.008	0.187
-244.976	17.786	-0.143	-0.112
-243.961	434.370	0.008	-0.017
-242.946	524.077	-0.030	-0.071
-241.932	-84.897	0.206	0.064
-240.917	393.648	0.083	-0.170
-239.903	130.400	-0.086	0.108
-238.888	-64.115	-0.098	0.039
-237.873	196.074	-0.098	0.147
-236.859	-200.000	-0.068	-0.331
-235.844	186.125	0.172	-0.252
-234.830	140.043	0.137	0.178
-233.815	191.259	0.210	-0.311
-232.800	454.925	-0.059	-0.129
-231.786	268.142	-0.032	0.055
-230.771	40.873	0.200	-0.177
-229.757	-200.000	0.009	0.078
-228.742	17.611	0.253	0.198
-227.727	-177.761	-0.144	0.003
-226.713	42.448	0.236	0.211
-225.698	-200.000	-0.043	-0.264
-224.684	800.000	-0.024	0.075
-223.669	-200.000	0.001	0.010
-222.655	-138.275	0.241	0.026
-221.640	104.931	0.132	0.152
-220.625	800.000	-0.067	-0.277
-219.611	-161.072	-0.167	-0.009
-218.596	262.964	-0.111	0.189
-217.582	-118.502	0.231	-0.040
-216.567	-104.757	0.092	0.021
-215.552	-76.725	-0.340	0.117
-214.538	-200.000	0.056	0.344
-213.523	101.165	0.212	-0.243
-212.509	123.321	-0.179	0.220
-211.494	160.743	-0.262	0.360
-210.479	86.413	-0.114	0.123
-209.465	-86.769	-0.202	0.061
-208.450	800.000	0.049	-0.173
-207.436	12.806	0.131	0.100
-206.421	-200.000	-0.016	0.244
-205.406	154.309	0.225	0.304
-204.392	-102.603	0.216	0.051
-203.377	-188.447	-0.205	0.003
-202.363	180.864	0.123	-0.177
-201.348	800.000	0.029	0.122
-200.333	-61.005	-0.083	-0.034
-199.319	-200.000	0.013	0.305
-198.304	10.762	0.288	0.216
-197.290	137.300	0.259	0.333
-196.275	-200.000	0.022	-0.390
-195.260	-200.000	-0.006	0.097
-194.246	61.400	-0.317	0.309
-193.231	-92.529	0.248	0.068
-192.217	-16.330	-0.121	0.076
-191.202	147.922	-0.285	0.377
-190.187	22.045	-0.160	-0.128
-189.173	214.630	0.215	-0.334
-188.158	-121.152	0.291	-0.048
-187.144	33.135	0.038	-0.032
-186.129	-91.539	-0.204	0.057
-185.114	-200.000	0.190	0.001
-184.100	22.609	-0.220	0.176
-183.085	-107.370	-0.176	-0.038
-182.071	800.000	0.110	-0.468
-181.056	157.197	-0.049	-0.067
-180.042	-142.985	-0.063	-0.006
-179.027	-56.044	0.142	-0.062
-178.012	800.000	0.064	-0.177
-176.998	-200.000	-0.007	0.264
-175.983	127.204	-0.088	0.109
-174.969	-84.029	-0.423	-0.132
-173.954	-200.000	0.014	-0.519
-172.939	205.986	-0.172	0.263
-171.925	-127.021	-0.109	0.016
-170.910	-29.769	-0.208	0.116
-169.896	-141.213	-0.269	-0.027
-168.881	47.785	0.148	-0.135
-167.866	800.000	-0.102	-0.343
-166.852	800.000	0.045	0.122
-165.837	134.635	-0.168	-0.213
-164.823	393.205	0.016	0.033
-163.808	24.692	-0.257	-0.209
-162.793	214.865	0.170	-0.264
-161.779	-72.072	0.050	0.018
-160.764	800.000	0.064	-0.204
-159.750	800.000	0.097	-0.351
-158.735	171.514	-0.217	-0.306
-157.720	-200.000	-0.002	-0.199
-156.706	287.772	0.192	-0.340
-155.691	-87.390	-0.242	-0.072
-154.677	-154.043	0.274	-0.018
-153.662	-111.418	-0.129	-0.026
-152.647	-159.200	0.280	-0.015
-151.633	136.970	0.037	-0.048
-150.618	800.000	-0.059	-0.205
-149.604	800.000	0.081	-0.250
-148.589	46.528	-0.265	-0.241
-147.574	308.379	0.166	0.303
-146.560	348.453	0.038	-0.074
-145.545	72.162	0.117	-0.119
-144.531	800.000	0.068	0.255
-143.516	107.017	-0.105	-0.122
-142.502	-116.563	0.128	0.023
-141.487	800.000	0.058	0.234
-140.472	-116.082	0.358	0.065
-139.458	-49.351	-0.336	0.157
-138.443	-114.338	-0.161	0.030
-137.429	-8.376	0.335	0.220
-136.414	132.415	-0.096	-0.121
-135.399	-141.356	-0.177	-0.018
-134.385	800.000	-0.062	0.243
-133.370	-75.127	0.336	0.118
-132.356	-5.390	0.204	-0.137
-131.341	-16.900	-0.203	0.125
-130.326	-165.416	-0.163	0.007
-129.312	370.124	0.046	0.091
-128.297	43.326	-0.102	-0.091
-127.283	14.276	-0.077	-0.059
-126.268	-200.000	0.054	0.343
-125.253	-200.000	0.011	0.084
-124.239	144.568	-0.342	-0.448
-123.224	800.000	0.057	-0.165
-122.210	113.609	-0.048	0.057
-121.195	-200.000	-0.034	0.266
