DTS Sentinel unit serial number:	SN413079Multiplexer serial number:	ORYXHardware model number:	OX4-SRSoftware version number:	ORYX F/W v4.00 Oryx Data Collector v3.7.2.0data status	okinstallation	princeton_trtdifferential loss correction	single-endedforward channel	channel 1reverse channel	N/Adate	2019/09/17time	13:26:35forward acquisition time	60.00reverse acquisition time	0.00gamma	496.2192k internal	0.2308k external	0.2308temperature offset calibration	0.9971default loss term (dB/km)	0.3790temperature slope calibration	1.0000multiplexer offset coefficient	1.0000multiplexer slope coefficient	1.0000fibre end	0.00T internal ref (°C)	34.44T ext. ref 1 (°C)	0.42T ext. ref 2 (°C)	31.35length (m)	temperature (°C)	Stokes	anti-Stokes-747.200	-56.453	0.272	0.123
-746.185	43.075	-0.254	0.236
-745.171	-200.000	-0.010	0.196
-744.156	8.186	0.341	0.260
-743.142	268.855	0.095	0.170
-742.127	800.000	0.050	0.166
-741.112	-200.000	-0.017	0.110
-740.098	-20.120	0.178	0.111
-739.083	-52.979	-0.281	-0.131
-738.069	169.930	0.060	0.087
-737.054	299.843	0.142	0.265
-736.039	-200.000	-0.012	-0.125
-735.025	215.643	-0.234	0.377
-734.010	800.000	0.088	0.292
-732.996	464.601	-0.024	-0.055
-731.981	0.619	-0.287	0.209
-730.966	-200.000	-0.016	0.230
-729.952	86.663	0.162	-0.181
-728.937	-200.000	-0.010	-0.093
-727.923	-200.000	0.060	0.293
-726.908	800.000	0.096	-0.286
-725.894	74.119	-0.145	0.154
-724.879	-200.000	-0.416	-0.002
-723.864	12.932	-0.113	-0.089
-722.850	-102.958	-0.220	0.053
-721.835	-200.000	0.010	0.082
-720.821	-81.674	-0.081	-0.027
-719.806	-98.920	-0.059	-0.015
-718.791	800.000	-0.069	-0.216
-717.777	386.948	0.182	-0.381
-716.762	-5.016	0.093	-0.065
-715.748	388.527	0.033	-0.069
-714.733	-200.000	-0.070	-0.363
-713.718	-74.822	0.117	-0.043
-712.704	-33.924	-0.193	-0.108
-711.689	-41.595	-0.081	-0.042
-710.675	-168.695	0.150	0.006
-709.660	800.000	0.098	-0.351
-708.645	-159.960	-0.201	-0.011
-707.631	32.070	0.138	-0.121
-706.616	-191.811	0.327	0.003
-705.602	348.956	0.110	0.221
-704.587	-200.000	-0.033	-0.390
-703.572	-200.000	-0.010	-0.129
-702.558	800.000	0.061	-0.186
-701.543	102.517	0.099	0.117
-700.529	-43.069	-0.128	-0.066
-699.514	-200.000	-0.040	0.263
-698.499	36.931	-0.093	-0.083
-697.485	-9.745	-0.242	-0.163
-696.470	-200.000	-0.000	0.021
-695.456	-200.000	0.039	0.229
-694.441	-108.931	-0.330	-0.072
-693.426	-139.744	-0.196	0.021
-692.412	112.820	-0.064	-0.079
-691.397	-84.483	-0.213	0.068
-690.383	-29.229	-0.122	-0.071
-689.368	281.253	0.235	-0.426
-688.354	35.701	0.235	-0.210
-687.339	-80.767	0.173	0.058
-686.324	29.042	-0.027	0.023
-685.310	25.723	0.104	-0.088
-684.295	-42.374	0.338	-0.175
-683.281	-11.386	0.174	0.116
-682.266	-200.000	-0.039	0.210
-681.251	-68.238	-0.366	-0.144
-680.237	-81.154	-0.254	-0.085
-679.222	18.758	-0.302	-0.245
-678.208	-139.895	0.206	-0.022
-677.193	-106.562	-0.091	0.021
-676.178	-150.181	0.265	0.021
-675.164	-195.735	0.167	0.001
-674.149	-81.779	0.204	0.068
-673.135	177.058	0.048	0.070
-672.120	-23.868	-0.234	0.142
-671.105	-94.408	-0.182	-0.050
-670.091	-42.425	-0.158	-0.082
-669.076	-41.958	-0.279	-0.145
-668.062	800.000	-0.050	-0.152
-667.047	63.770	-0.199	-0.202
-666.032	-200.000	0.000	-0.103
-665.018	148.030	0.077	0.106
-664.003	-200.000	-0.020	-0.352
-662.989	499.145	-0.057	-0.133
-661.974	159.106	0.145	-0.204
-660.959	-28.299	0.327	-0.191
-659.945	514.096	0.079	-0.187
-658.930	-200.000	-0.005	-0.108
-657.916	715.767	0.111	0.299
-656.901	800.000	0.065	-0.204
-655.886	-72.956	0.151	0.056
-654.872	-49.399	0.129	-0.062
-653.857	296.876	-0.302	-0.562
-652.843	-41.865	-0.131	-0.068
-651.828	-200.000	0.010	-0.158
-650.814	-85.322	-0.095	0.030
-649.799	-200.000	-0.046	-0.335
-648.784	-52.213	0.193	-0.091
-647.770	-21.247	0.169	0.104
-646.755	-29.000	-0.141	0.082
-645.741	-200.000	-0.016	-0.385
-644.726	411.764	-0.120	0.257
-643.711	-62.433	0.315	0.133
-642.697	-89.966	-0.119	0.035
-641.682	-123.757	0.273	-0.044
-640.668	-200.000	0.003	0.074
-639.653	-20.792	-0.104	-0.064
-638.638	-138.535	-0.120	-0.013
-637.624	-200.000	0.001	0.122
-636.609	197.220	-0.024	-0.037
-635.595	62.833	-0.140	0.142
-634.580	74.541	0.116	0.123
-633.565	784.205	0.049	0.135
-632.551	29.894	-0.206	0.178
-631.536	-200.000	0.027	0.245
-630.522	-28.282	0.188	-0.110
-629.507	653.171	-0.042	0.108
-628.492	6.706	-0.072	0.054
-627.478	-200.000	0.005	-0.149
-626.463	-155.991	0.138	-0.009
-625.449	-200.000	0.026	-0.269
-624.434	-200.000	-0.034	-0.200
-623.419	-9.268	-0.344	-0.233
-622.405	-167.080	0.123	0.005
-621.390	-10.510	-0.116	-0.078
-620.376	2.576	0.029	0.022
-619.361	-200.000	-0.016	0.158
-618.346	-130.692	0.064	-0.009
-617.332	-38.073	0.461	-0.248
-616.317	-200.000	0.027	0.133
-615.303	183.079	-0.223	0.332
-614.288	155.358	-0.159	0.221
-613.273	-73.319	0.234	-0.086
-612.259	-162.777	-0.381	-0.019
-611.244	-27.045	0.322	0.190
-610.230	800.000	-0.053	-0.211
-609.215	-18.060	0.193	-0.122
-608.201	-55.197	-0.019	0.008
-607.186	-200.000	-0.032	-0.243
-606.171	42.985	-0.073	0.068
-605.157	328.127	-0.105	-0.205
-604.142	800.000	0.103	-0.290
-603.128	-121.897	0.276	-0.046
-602.113	800.000	0.096	-0.313
-601.098	-72.331	-0.125	-0.047
-600.084	17.256	-0.088	-0.071
-599.069	-200.000	0.011	0.306
-598.055	-200.000	-0.003	0.027
-597.040	-71.655	0.087	0.033
-596.025	134.183	-0.192	0.251
-595.011	269.791	-0.077	-0.136
-593.996	-42.262	-0.445	0.230
-592.982	800.000	-0.045	-0.165
-591.967	-52.609	-0.234	0.109
-590.952	418.079	0.030	-0.065
-589.938	184.761	0.033	0.050
-588.923	22.181	-0.255	-0.210
-587.909	-51.548	-0.202	0.095
-586.894	800.000	0.096	0.281
-585.879	-25.346	0.017	-0.010
-584.865	506.695	0.099	0.231
-583.850	-92.035	-0.207	0.059
-582.836	-200.000	0.005	-0.067
-581.821	-92.868	0.358	0.101
-580.806	-0.987	0.084	-0.060
-579.792	-80.329	-0.139	-0.047
-578.777	-39.611	0.310	-0.164
-577.763	-39.523	0.312	-0.165
-576.748	331.239	-0.173	-0.336
-575.733	-32.898	-0.171	-0.096
-574.719	116.096	-0.225	0.278
-573.704	55.811	-0.165	0.161
-572.690	-147.400	-0.043	0.004
-571.675	66.742	-0.141	-0.145
-570.661	23.568	0.044	-0.037
-569.646	-200.000	0.012	0.194
-568.631	42.374	0.304	0.279
-567.617	-200.000	0.001	-0.049
-566.602	-132.309	0.422	-0.055
-565.588	59.381	0.078	0.077
-564.573	9.867	-0.240	0.184
-563.558	800.000	-0.040	-0.114
-562.544	-58.589	-0.117	0.051
-561.529	-119.268	0.367	0.065
-560.515	-120.923	0.130	-0.022
-559.500	-43.539	-0.118	-0.060
-558.485	800.000	0.039	0.112
-557.471	271.389	0.143	0.255
-556.456	-200.000	0.336	0.001
-555.442	42.115	0.041	0.037
-554.427	-176.637	-0.218	0.006
-553.412	-200.000	-0.007	0.038
-552.398	28.621	-0.192	-0.164
-551.383	-68.394	-0.219	-0.086
-550.369	-81.193	-0.049	-0.016
-549.354	-133.902	-0.142	0.018
-548.339	86.673	-0.112	-0.124
-547.325	62.648	0.139	-0.140
-546.310	-69.620	0.388	0.150
-545.296	-200.000	0.023	-0.188
-544.281	-157.328	-0.422	-0.026
-543.266	-200.000	0.016	-0.085
-542.252	53.925	0.248	-0.240
-541.237	-73.667	0.109	0.040
-540.223	800.000	-0.059	-0.213
-539.208	11.615	0.160	-0.124
-538.193	-13.742	-0.224	-0.146
-537.179	-77.179	-0.274	-0.096
-536.164	-200.000	0.001	0.136
-535.150	-200.000	-0.015	-0.112
-534.135	-200.000	-0.002	0.245
-533.121	74.447	0.352	0.373
-532.106	-200.000	0.032	-0.221
-531.091	179.174	0.086	-0.127
-530.077	-50.405	-0.152	0.072
-529.062	241.689	-0.088	-0.148
-528.048	-77.201	-0.349	-0.122
-527.033	800.000	-0.024	0.088
-526.018	192.090	-0.062	-0.095
-525.004	-9.517	-0.159	-0.107
-523.989	540.547	-0.117	-0.281
-522.975	-200.000	0.055	-0.545
-521.960	14.442	-0.146	0.115
-520.945	-200.000	-0.010	0.144
-519.931	9.957	-0.103	-0.079
-518.916	-150.050	-0.211	0.017
-517.902	8.644	0.209	-0.159
-516.887	800.000	-0.045	-0.142
-515.872	300.465	-0.050	0.092
-514.858	410.215	0.072	0.155
-513.843	-61.376	-0.324	0.137
-512.829	66.961	-0.103	-0.106
-511.814	220.545	-0.034	-0.056
-510.799	15.905	-0.161	0.128
-509.785	66.765	-0.178	-0.182
-508.770	419.556	-0.021	0.046
-507.756	-87.954	0.442	0.134
-506.741	196.968	0.189	-0.291
-505.726	-163.930	0.104	0.005
-504.712	315.622	-0.084	-0.159
-503.697	800.000	0.024	0.082
-502.683	-116.249	-0.238	-0.044
-501.668	-49.032	-0.144	0.070
-500.653	-200.000	-0.004	-0.273
-499.639	-200.000	0.027	0.262
-498.624	800.000	-0.031	-0.107
-497.610	800.000	0.015	-0.054
-496.595	82.128	0.153	-0.166
-495.581	-200.000	0.025	-0.173
-494.566	-42.324	0.115	-0.059
-493.551	-80.547	0.278	-0.093
-492.537	-7.824	-0.209	0.142
-491.522	-105.160	-0.404	-0.093
-490.508	-200.000	-0.002	0.209
-489.493	-4.426	0.148	0.103
-488.478	374.294	-0.135	-0.276
-487.464	291.762	-0.147	-0.270
-486.449	202.594	0.125	0.194
-485.435	79.322	-0.077	0.083
-484.420	800.000	-0.011	-0.045
-483.405	95.070	0.122	0.139
-482.391	323.531	-0.031	-0.059
-481.376	-145.075	-0.079	0.007
-480.362	-26.772	0.251	0.148
-479.347	110.540	-0.051	0.062
-478.332	442.562	0.110	-0.242
-477.318	-36.731	0.131	0.071
-476.303	-200.000	0.032	-0.176
-475.289	-69.379	0.077	0.030
-474.274	800.000	-0.037	-0.133
-473.259	-200.000	-0.032	-0.194
-472.245	212.250	-0.180	0.286
-471.230	206.360	-0.135	0.211
-470.216	-139.064	0.423	0.046
-469.201	-124.276	-0.256	-0.040
-468.186	50.373	-0.214	0.203
-467.172	47.744	-0.234	-0.219
-466.157	54.913	-0.066	-0.064
-465.143	-200.000	0.001	-0.217
-464.128	-194.138	-0.058	0.000
-463.113	24.639	0.262	-0.218
-462.099	-30.557	-0.164	-0.093
-461.084	-200.000	0.002	0.054
-460.070	-1.364	-0.486	0.345
-459.055	-109.304	-0.359	-0.076
-458.040	-10.859	0.382	0.253
-457.026	295.509	0.077	-0.141
-456.011	261.204	0.101	0.176
-454.997	115.919	0.105	0.129
-453.982	-26.845	0.262	0.154
-452.968	-85.997	-0.114	0.035
-451.953	40.718	0.090	0.081
-450.938	-36.559	-0.436	0.236
-449.924	-30.134	-0.394	-0.225
-448.909	-200.000	-0.006	-0.196
-447.895	68.133	-0.073	-0.075
-446.880	14.790	0.029	-0.023
-445.865	184.102	0.203	-0.301
-444.851	249.016	-0.035	-0.060
-443.836	-71.212	0.176	0.066
-442.822	800.000	0.189	0.563
-441.807	-149.504	-0.112	-0.009
-440.792	-200.000	0.030	0.376
-439.778	-118.149	0.125	0.022
-438.763	156.065	0.151	0.209
-437.749	-66.479	-0.063	-0.025
-436.734	-106.276	-0.206	0.046
-435.719	-200.000	0.003	0.203
-434.705	-200.000	0.012	0.058
-433.690	509.839	0.075	-0.176
-432.676	-200.000	-0.013	0.239
-431.661	96.763	0.178	0.205
-430.646	-25.455	0.255	0.151
-429.632	-200.000	-0.008	0.194
-428.617	-12.246	0.081	-0.053
-427.603	206.906	0.064	0.101
-426.588	8.076	0.316	-0.238
-425.573	473.406	-0.080	-0.181
-424.559	148.066	-0.164	0.222
-423.544	85.918	0.188	0.208
-422.530	800.000	0.047	-0.134
-421.515	-200.000	-0.032	0.233
-420.500	251.302	-0.141	0.241
-419.486	-200.000	0.008	0.049
-418.471	336.938	0.128	0.249
-417.457	216.227	0.146	-0.233
-416.442	800.000	0.031	0.123
-415.428	785.146	-0.098	0.271
-414.413	53.005	0.152	0.146
-413.398	-154.942	-0.371	0.025
-412.384	-118.423	-0.156	-0.028
-411.369	-39.245	0.137	-0.072
-410.355	112.519	-0.151	-0.183
-409.340	-44.558	0.128	-0.064
-408.325	125.230	0.169	-0.214
-407.311	584.902	-0.147	0.362
-406.296	445.200	0.065	-0.143
-405.282	151.600	-0.103	0.140
-404.267	-200.000	0.021	-0.233
-403.252	69.486	0.142	0.146
-402.238	-200.000	0.026	-0.158
-401.223	-200.000	0.008	-0.276
-400.209	364.058	0.094	-0.189
-399.194	-45.083	0.265	-0.132
-398.179	-200.000	0.026	-0.154
-397.165	149.008	-0.157	-0.213
-396.150	35.451	0.113	-0.100
-395.136	-62.284	0.510	0.213
-394.121	94.169	-0.169	0.192
-393.106	-121.034	0.172	0.029
-392.092	410.048	-0.102	0.217
-391.077	-200.000	-0.023	-0.173
-390.063	-109.640	-0.478	-0.101
-389.048	-144.217	-0.189	0.018
-388.033	-129.256	0.259	-0.036
-387.019	9.250	-0.230	0.174
-386.004	-106.381	-0.043	-0.010
-384.990	114.555	-0.167	-0.204
-383.975	237.191	0.249	-0.414
-382.960	-40.206	-0.160	0.083
-381.946	54.146	0.258	-0.249
-380.931	125.220	-0.150	0.189
-379.917	40.149	0.317	0.285
-378.902	-149.553	0.086	-0.007
-377.888	580.613	-0.102	0.250
-376.873	-200.000	-0.026	-0.165
-375.858	-3.462	0.040	0.028
-374.844	800.000	0.044	-0.184
-373.829	270.242	0.056	-0.098
-372.815	-200.000	-0.085	-0.426
-371.800	140.499	0.364	-0.481
-370.785	191.555	0.053	-0.080
-369.771	-200.000	-0.029	0.170
-368.756	304.476	-0.100	-0.185
-367.742	-127.025	0.402	-0.059
-366.727	-200.000	-0.003	-0.203
-365.712	-55.714	-0.232	-0.104
-364.698	-150.719	-0.451	-0.034
-363.683	-74.657	-0.153	-0.055
-362.669	-200.000	-0.016	0.139
-361.654	257.807	0.143	0.247
-360.639	138.554	0.047	0.061
-359.625	-61.954	-0.109	-0.045
-358.610	-200.000	0.006	0.063
-357.596	81.003	0.168	0.182
-356.581	800.000	0.031	0.094
-355.566	-200.000	0.024	0.121
-354.552	-200.000	-0.021	0.194
-353.537	-200.000	0.031	0.295
-352.523	-41.132	0.073	-0.038
-351.508	-63.339	-0.165	0.068
-350.493	-200.000	0.027	0.233
-349.479	-200.000	0.011	0.075
-348.464	-142.690	0.328	0.032
-347.450	-127.634	0.173	-0.025
-346.435	-200.000	0.010	0.068
-345.420	446.153	0.032	0.069
-344.406	-151.861	-0.127	-0.009
-343.391	262.741	-0.122	-0.213
-342.377	713.602	-0.109	-0.288
-341.362	-14.263	0.123	0.079
-340.348	-38.354	-0.100	-0.053
-339.333	-200.000	0.007	-0.228
-338.318	-200.000	-0.048	0.338
-337.304	174.683	-0.227	0.328
-336.289	17.628	0.178	-0.142
-335.275	228.927	0.021	-0.034
-334.260	-155.545	-0.352	-0.023
-333.245	156.148	-0.102	-0.141
-332.231	168.260	0.154	0.219
-331.216	61.711	-0.207	0.206
-330.202	792.782	-0.031	0.086
-329.187	136.642	-0.148	-0.193
-328.172	-14.729	0.232	-0.149
-327.158	798.605	-0.137	-0.377
-326.143	-200.000	-0.043	-0.327
-325.129	-144.507	-0.332	-0.031
-324.114	32.002	0.151	0.130
-323.099	-67.835	-0.133	0.052
-322.085	-157.593	0.086	-0.005
-321.070	-166.623	-0.232	-0.010
-320.056	-200.000	0.052	0.372
-319.041	-9.420	-0.048	0.032
-318.026	96.126	0.166	-0.190
-317.012	283.237	-0.047	0.084
-315.997	236.898	-0.093	0.154
-314.983	-200.000	-0.024	-0.219
-313.968	800.000	-0.013	-0.042
-312.953	433.874	-0.155	-0.336
-311.939	-67.180	-0.146	-0.057
-310.924	-63.935	-0.124	-0.051
-309.910	-162.913	-0.263	0.013
-308.895	195.914	-0.017	-0.025
-307.880	-72.638	-0.109	-0.040
-306.866	-137.517	-0.133	0.015
-305.851	-146.970	0.344	-0.030
-304.837	-154.749	0.114	0.008
-303.822	739.234	0.070	-0.187
-302.807	206.662	-0.122	0.191
-301.793	-77.652	0.153	0.053
-300.778	-132.939	0.285	0.036
-299.764	41.232	0.218	0.197
-298.749	607.156	-0.109	0.270
-297.735	5.486	0.119	0.087
-296.720	33.935	0.214	-0.186
-295.705	434.430	-0.173	0.376
-294.691	82.432	0.123	0.133
-293.676	256.355	-0.104	0.178
-292.662	-200.000	-0.000	-0.064
-291.647	800.000	0.078	-0.254
-290.632	-80.611	-0.114	-0.038
-289.618	-90.873	0.135	-0.039
-288.603	-143.634	-0.106	-0.010
-287.589	769.130	-0.092	-0.249
-286.574	-200.000	0.028	-0.163
-285.559	-200.000	-0.069	-0.353
-284.545	590.122	0.133	0.327
-283.530	-73.490	0.175	0.064
-282.516	166.228	-0.141	-0.200
-281.501	-138.980	0.292	-0.032
-280.486	-123.224	-0.215	0.034
-279.472	-124.116	-0.133	-0.021
-278.457	37.037	-0.022	0.019
-277.443	-72.974	0.160	0.059
-276.428	-200.000	0.007	0.079
-275.413	-200.000	0.031	-0.225
-274.399	-103.707	0.317	-0.074
-273.384	-78.674	0.327	0.111
-272.370	57.366	-0.162	0.157
-271.355	-48.321	0.096	0.046
-270.340	27.690	0.206	0.173
-269.326	-71.401	-0.222	0.083
-268.311	-13.831	0.279	0.180
-267.297	83.007	-0.118	0.128
-266.282	-132.339	0.299	0.039
-265.267	-68.158	0.253	-0.098
-264.253	-98.886	-0.247	0.063
-263.238	-58.117	-0.423	0.184
-262.224	800.000	0.055	-0.178
-261.209	-200.000	0.007	-0.054
-260.195	-72.779	0.398	0.146
-259.180	266.090	0.058	0.101
-258.165	674.991	0.069	-0.180
-257.151	800.000	0.184	-0.607
-256.136	-188.027	-0.393	0.005
-255.122	-200.000	-0.011	0.054
-254.107	-4.421	0.042	0.029
-253.092	-200.000	0.011	-0.153
-252.078	-200.000	-0.000	0.073
-251.063	-3.363	-0.428	-0.297
-250.049	-133.828	-0.230	0.028
-249.034	-71.362	0.156	0.058
-248.019	49.733	-0.159	0.150
-247.005	689.153	0.042	0.111
-245.990	-200.000	0.020	-0.374
-244.976	5.161	0.291	0.214
-243.961	-39.963	0.302	-0.157
-242.946	448.920	0.131	0.287
-241.932	415.856	0.096	0.203
-240.917	37.206	-0.184	-0.163
-239.903	-36.120	0.366	0.197
-238.888	-84.247	0.077	0.024
-237.873	800.000	0.049	0.158
-236.859	-28.756	-0.280	0.160
-235.844	-19.707	0.394	-0.243
-234.830	79.184	-0.202	-0.216
-233.815	-200.000	0.029	-0.559
-232.800	-200.000	0.029	0.254
-231.786	81.715	-0.228	0.245
-230.771	5.088	0.305	0.223
-229.757	206.081	-0.063	0.098
-228.742	36.675	0.113	-0.099
-227.727	-200.000	0.029	-0.211
-226.713	-36.070	-0.132	0.071
-225.698	-81.089	0.112	0.037
-224.684	-200.000	0.026	-0.277
-223.669	-129.757	0.109	0.015
-222.655	-200.000	-0.015	0.165
-221.640	-30.416	-0.257	-0.145
-220.625	-200.000	-0.031	-0.223
-219.611	237.013	0.065	-0.108
-218.596	63.312	0.160	0.160
-217.582	-157.743	-0.035	0.002
-216.567	-135.120	0.094	0.011
-215.552	-40.021	-0.053	0.028
-214.538	-98.977	0.126	0.032
-213.523	178.641	-0.095	0.138
-212.509	123.947	-0.020	-0.025
-211.494	-126.549	-0.163	0.024
-210.479	-135.933	-0.085	-0.010
-209.465	746.093	0.066	-0.177
-208.450	-200.000	0.016	-0.272
-207.436	-200.000	-0.053	0.284
-206.421	-158.385	0.295	-0.017
-205.406	-94.670	-0.383	-0.104
-204.392	24.349	0.377	0.310
-203.377	136.691	0.165	0.214
-202.363	142.378	0.149	0.197
-201.348	701.211	0.123	-0.323
-200.333	-200.000	-0.041	-0.211
-199.319	800.000	0.035	0.150
-198.304	236.625	0.048	-0.079
-197.290	-70.259	0.053	-0.020
-196.275	-86.806	-0.285	0.087
-195.260	166.403	0.219	0.309
-194.246	243.975	-0.202	-0.338
-193.231	-99.367	-0.293	0.073
-192.217	-200.000	-0.013	-0.192
-191.202	-1.382	-0.238	0.167
-190.187	-42.718	0.171	-0.086
-189.173	237.435	-0.137	-0.227
-188.158	-200.000	-0.034	-0.163
-187.144	-95.518	-0.247	0.066
-186.129	78.341	-0.068	0.072
-185.114	-200.000	0.013	0.369
-184.100	53.070	-0.159	0.151
-183.085	800.000	0.085	0.272
-182.071	-184.613	0.063	-0.001
-181.056	135.496	0.092	-0.119
-180.042	-155.788	0.351	0.022
-179.027	133.008	-0.089	-0.115
-178.012	-55.298	-0.283	-0.126
-176.998	7.397	-0.075	0.056
-175.983	-200.000	0.000	-0.232
-174.969	2.478	-0.047	0.034
-173.954	196.152	0.163	0.247
-172.939	800.000	0.036	-0.132
-171.925	-23.071	0.142	-0.085
-170.910	-6.777	-0.148	0.100
-169.896	201.609	-0.225	0.345
-168.881	800.000	0.088	0.269
-167.866	-45.136	-0.449	0.222
-166.852	-59.505	0.037	-0.016
-165.837	-200.000	0.029	-0.236
-164.823	-200.000	-0.011	-0.190
-163.808	188.651	0.120	0.178
-162.793	-151.412	-0.113	-0.008
-161.779	-25.071	-0.026	0.015
-160.764	276.414	-0.048	-0.085
-159.750	-78.600	-0.556	0.189
-158.735	-7.982	0.052	0.035
-157.720	395.766	0.128	-0.265
-156.706	-92.727	0.082	-0.023
-155.691	-60.903	0.189	0.079
-154.677	-200.000	0.054	0.264
-153.662	-162.154	0.242	0.012
-152.647	111.273	0.162	0.194
-151.633	78.351	0.162	0.172
-150.618	160.347	0.107	-0.149
-149.604	800.000	-0.035	0.101
-148.589	76.616	0.197	-0.207
-147.574	800.000	-0.092	0.257
-146.560	-198.407	0.208	0.001
-145.545	-158.803	0.157	0.009
-144.531	527.961	0.141	-0.329
-143.516	64.601	0.178	0.178
-142.502	285.919	0.056	0.101
-141.487	-16.454	-0.169	-0.106
-140.472	-200.000	-0.069	-0.431
-139.458	-68.245	-0.195	0.075
-138.443	-200.000	0.009	-0.196
-137.429	47.618	0.340	-0.315
-136.414	-50.260	-0.283	0.133
-135.399	-68.581	0.161	-0.062
-134.385	193.756	0.156	0.234
-133.370	413.596	-0.113	-0.238
-132.356	-200.000	0.005	-0.048
-131.341	-7.278	-0.083	-0.056
-130.326	41.771	0.213	0.192
-129.312	79.691	-0.090	0.095
-128.297	-1.083	-0.148	-0.104
-127.283	-47.954	0.206	-0.099
-126.268	-153.905	0.114	-0.008
-125.253	608.191	0.091	0.225
-124.239	-33.957	0.039	-0.021
-123.224	10.546	0.254	0.192
-122.210	156.970	-0.113	0.155
-121.195	49.714	0.168	-0.157
