DTS Sentinel unit serial number:	SN413079Multiplexer serial number:	ORYXHardware model number:	OX4-SRSoftware version number:	ORYX F/W v4.00 Oryx Data Collector v3.7.2.0data status	okinstallation	princeton_trtdifferential loss correction	single-endedforward channel	channel 1reverse channel	N/Adate	2019/09/13time	11:54:35forward acquisition time	60.00reverse acquisition time	0.00gamma	496.2192k internal	0.2312k external	0.2312temperature offset calibration	1.0164default loss term (dB/km)	0.3790temperature slope calibration	1.0000multiplexer offset coefficient	1.0000multiplexer slope coefficient	1.0000fibre end	0.00T internal ref (°C)	33.44T ext. ref 1 (°C)	4.57T ext. ref 2 (°C)	30.35length (m)	temperature (°C)	Stokes	anti-Stokes-747.200	110.428	-0.251	0.306
-746.185	305.217	0.111	0.209
-745.171	-200.000	-0.340	0.000
-744.156	151.806	-0.156	-0.215
-743.142	60.245	-0.151	0.152
-742.127	800.000	-0.025	0.089
-741.112	800.000	0.077	0.330
-740.098	0.345	0.081	0.058
-739.083	-9.983	0.177	0.119
-738.069	-94.698	-0.333	0.092
-737.054	649.531	-0.060	0.156
-736.039	379.646	-0.102	0.212
-735.025	-137.466	0.085	0.010
-734.010	-200.000	0.012	-0.306
-732.996	-162.469	-0.233	0.012
-731.981	-199.378	-0.089	0.000
-730.966	-107.919	-0.116	-0.026
-729.952	209.069	-0.088	-0.139
-728.937	27.231	-0.030	0.026
-727.923	-32.949	-0.339	0.191
-726.908	-59.829	-0.290	-0.126
-725.894	9.223	-0.240	-0.184
-724.879	-5.135	-0.141	0.099
-723.864	-63.334	-0.360	-0.150
-722.850	241.655	-0.025	0.042
-721.835	187.909	-0.141	-0.213
-720.821	686.700	0.076	-0.201
-719.806	-122.947	0.135	0.022
-718.791	-27.823	0.130	-0.076
-717.777	-200.000	0.012	0.186
-716.762	-200.000	0.039	-0.188
-715.748	279.444	0.145	0.263
-714.733	40.877	-0.122	-0.111
-713.718	-26.118	-0.103	-0.061
-712.704	-27.018	-0.412	-0.244
-711.689	800.000	-0.072	-0.253
-710.675	63.037	0.291	0.296
-709.660	503.612	-0.037	-0.087
-708.645	-200.000	-0.005	0.082
-707.631	333.809	-0.129	-0.253
-706.616	-18.292	-0.073	0.046
-705.602	-200.000	0.026	-0.159
-704.587	70.624	-0.036	0.038
-703.572	625.137	0.026	0.067
-702.558	276.670	0.062	0.112
-701.543	-101.852	0.090	0.022
-700.529	-87.516	-0.198	0.061
-699.514	-126.796	0.059	0.009
-698.499	-80.586	-0.106	0.036
-697.485	673.988	0.061	-0.159
-696.470	800.000	-0.067	-0.282
-695.456	650.694	0.112	-0.291
-694.441	-22.730	-0.200	0.122
-693.426	-82.237	0.233	-0.077
-692.412	-18.954	0.233	0.147
-691.397	-200.000	0.046	-0.298
-690.383	-200.000	-0.027	-0.142
-689.368	195.065	0.159	-0.245
-688.354	31.756	0.080	0.069
-687.339	225.285	-0.180	-0.295
-686.324	747.804	-0.032	0.088
-685.310	77.007	0.113	0.122
-684.295	0.351	0.056	-0.041
-683.281	64.097	0.113	-0.115
-682.266	76.639	-0.229	0.246
-681.251	-200.000	0.012	0.064
-680.237	-17.962	-0.187	0.119
-679.222	-110.707	-0.118	-0.025
-678.208	-200.000	0.008	-0.050
-677.193	-16.722	-0.271	0.173
-676.178	235.054	-0.071	-0.119
-675.164	-50.704	0.240	-0.114
-674.149	-125.527	-0.384	-0.059
-673.135	-112.867	-0.046	-0.009
-672.120	-200.000	0.002	0.238
-671.105	800.000	0.046	-0.181
-670.091	149.210	0.179	-0.245
-669.076	592.531	0.050	0.126
-668.062	-85.627	0.446	-0.140
-667.047	-124.088	-0.190	-0.030
-666.032	53.093	0.225	-0.218
-665.018	153.119	0.163	0.225
-664.003	-200.000	0.014	0.276
-662.989	284.116	-0.178	0.323
-661.974	-54.490	-0.245	-0.112
-660.959	-200.000	0.070	0.327
-659.945	272.646	-0.138	-0.247
-658.930	35.657	-0.108	-0.096
-657.916	-83.423	-0.080	-0.026
-656.901	-49.186	0.170	-0.082
-655.886	-200.000	-0.005	-0.279
-654.872	800.000	-0.113	0.327
-653.857	-200.000	-0.033	-0.170
-652.843	-23.508	0.032	-0.020
-651.828	800.000	0.012	0.038
-650.814	-80.189	-0.069	-0.023
-649.799	-62.752	-0.117	0.049
-648.784	-200.000	-0.040	-0.195
-647.770	-22.686	-0.266	0.162
-646.755	-200.000	-0.053	0.284
-645.741	-53.400	0.317	0.147
-644.726	10.913	0.329	-0.254
-643.711	106.132	0.130	0.155
-642.697	-16.909	-0.201	-0.128
-641.682	-200.000	-0.023	-0.291
-640.668	-200.000	-0.015	-0.146
-639.653	-81.775	-0.175	0.058
-638.638	-6.207	0.142	0.098
-637.624	345.142	-0.137	-0.271
-636.609	-200.000	0.039	0.402
-635.595	-81.118	0.089	-0.030
-634.580	-18.195	0.269	-0.170
-633.565	-73.132	-0.117	-0.043
-632.551	-155.592	0.253	-0.016
-631.536	-118.982	-0.259	-0.046
-630.522	-132.392	0.100	-0.013
-629.507	316.758	0.025	-0.048
-628.492	-200.000	-0.082	-0.369
-627.478	-59.619	-0.157	0.068
-626.463	-123.396	-0.022	0.004
-625.449	-14.860	-0.354	-0.230
-624.434	125.457	-0.098	0.125
-623.419	440.013	-0.059	0.129
-622.405	190.246	0.125	0.190
-621.390	800.000	-0.015	0.051
-620.376	-30.781	-0.100	0.057
-619.361	-38.158	-0.068	0.036
-618.346	263.321	-0.157	-0.275
-617.332	65.697	0.215	0.219
-616.317	-200.000	0.025	0.335
-615.303	30.762	-0.200	-0.173
-614.288	-200.000	-0.001	0.008
-613.273	800.000	-0.047	0.188
-612.259	248.797	-0.100	-0.171
-611.244	-103.204	-0.107	-0.026
-610.230	-71.019	-0.181	0.069
-609.215	-41.266	0.158	-0.082
-608.201	300.888	0.081	-0.151
-607.186	717.345	-0.112	-0.300
-606.171	-95.762	-0.281	0.076
-605.157	-94.146	0.106	0.029
-604.142	800.000	0.068	-0.240
-603.128	800.000	0.046	0.195
-602.113	235.824	-0.105	0.175
-601.098	-45.872	0.266	-0.133
-600.084	-33.037	-0.088	0.049
-599.069	6.172	-0.079	0.059
-598.055	-200.000	-0.055	-0.300
-597.040	-195.835	-0.166	-0.001
-596.025	144.819	0.309	-0.417
-595.011	74.492	0.145	0.154
-593.996	53.315	-0.131	-0.127
-592.982	-101.076	-0.262	-0.065
-591.967	226.477	0.175	-0.286
-590.952	-186.014	0.249	0.004
-589.938	800.000	0.030	-0.085
-588.923	46.972	0.208	0.195
-587.909	-200.000	0.019	0.168
-586.894	-52.080	-0.295	-0.138
-585.879	-200.000	-0.013	0.062
-584.865	-57.239	0.285	-0.126
-583.850	145.222	-0.162	0.218
-582.836	-200.000	-0.030	0.136
-581.821	-94.302	-0.133	-0.037
-580.806	-140.427	-0.199	0.021
-579.792	-200.000	-0.059	0.269
-578.777	200.083	0.089	-0.138
-577.763	-200.000	-0.024	-0.179
-576.748	800.000	0.097	-0.319
-575.733	800.000	0.107	-0.315
-574.719	83.931	0.147	-0.161
-573.704	-200.000	-0.074	-0.362
-572.690	547.812	0.084	-0.202
-571.675	21.806	0.240	0.197
-570.661	-40.638	-0.064	0.034
-569.646	-200.000	-0.002	-0.258
-568.631	-31.690	0.296	0.168
-567.617	15.936	-0.203	0.161
-566.602	-182.240	0.283	0.005
-565.588	-74.011	0.135	-0.049
-564.573	-71.720	-0.207	-0.078
-563.558	800.000	0.052	0.186
-562.544	-124.329	0.126	-0.020
-561.529	-181.278	-0.203	0.004
-560.515	16.102	-0.047	-0.037
-559.500	10.024	0.103	0.079
-558.485	-200.000	0.039	-0.279
-557.471	-152.504	-0.222	-0.016
-556.456	-117.589	0.316	-0.057
-555.442	36.737	0.189	-0.168
-554.427	-138.961	0.153	0.017
-553.412	-132.916	-0.340	0.044
-552.398	489.283	-0.040	-0.091
-551.383	-181.761	-0.285	0.006
-550.369	278.084	0.101	0.181
-549.354	-200.000	0.041	-0.215
-548.339	-200.000	0.038	0.340
-547.325	183.892	-0.052	0.078
-546.310	800.000	0.035	-0.126
-545.296	-46.757	-0.192	-0.095
-544.281	-101.286	-0.401	-0.099
-543.266	-52.277	0.347	0.162
-542.252	208.575	0.050	-0.079
-541.237	77.767	0.136	0.146
-540.223	125.783	-0.130	0.166
-539.208	-75.368	-0.317	0.114
-538.193	191.635	-0.255	-0.387
-537.179	183.799	-0.086	-0.129
-536.164	136.415	-0.146	0.192
-535.150	189.378	0.070	0.106
-534.135	-98.769	-0.060	-0.015
-533.121	-200.000	-0.002	-0.080
-532.106	38.773	0.244	-0.219
-531.091	304.815	0.065	0.121
-530.077	-116.084	-0.164	-0.031
-529.062	-109.267	-0.185	-0.039
-528.048	-35.826	0.419	0.228
-527.033	-190.134	0.157	-0.002
-526.018	-86.527	-0.071	0.022
-525.004	800.000	0.069	0.208
-523.989	800.000	0.059	0.188
-522.975	-43.217	-0.179	-0.091
-521.960	-72.008	-0.074	0.028
-520.945	-25.701	-0.149	-0.088
-519.931	170.925	-0.215	-0.309
-518.916	62.850	0.139	-0.140
-517.902	11.806	0.021	-0.016
-516.887	-11.423	0.195	-0.129
-515.872	800.000	-0.080	-0.267
-514.858	-200.000	-0.024	-0.121
-513.843	-200.000	0.010	-0.118
-512.829	-69.711	-0.255	0.098
-511.814	156.276	-0.087	-0.121
-510.799	-200.000	0.004	0.135
-509.785	-96.262	0.237	-0.063
-508.770	93.710	0.168	-0.191
-507.756	-141.780	0.118	0.012
-506.741	-2.799	-0.095	-0.066
-505.726	-90.383	0.226	-0.066
-504.712	-200.000	0.049	-0.293
-503.697	-68.241	-0.214	0.084
-502.683	35.717	0.039	-0.035
-501.668	-200.000	0.051	0.433
-500.653	146.631	0.108	-0.145
-499.639	800.000	0.037	0.123
-498.624	-200.000	-0.002	0.220
-497.610	-83.647	-0.230	-0.074
-496.595	-87.459	0.125	-0.038
-495.581	138.771	0.059	-0.079
-494.566	123.232	0.058	-0.073
-493.551	-200.000	-0.012	0.107
-492.537	-123.854	0.195	-0.031
-491.522	-46.002	0.580	0.287
-490.508	-200.000	0.031	-0.154
-489.493	334.390	-0.050	-0.096
-488.478	-200.000	0.034	-0.249
-487.464	75.296	-0.206	0.218
-486.449	204.191	0.097	0.151
-485.435	-9.209	0.203	0.136
-484.420	386.147	-0.136	-0.282
-483.405	-5.953	0.176	-0.121
-482.391	-42.269	0.198	-0.102
-481.376	-6.639	-0.108	0.074
-480.362	-200.000	0.029	0.171
-479.347	-176.342	0.114	-0.003
-478.332	-92.804	0.317	0.089
-477.318	-200.000	-0.015	-0.322
-476.303	-200.000	0.040	0.193
-475.289	122.796	-0.223	0.280
-474.274	222.409	-0.088	0.142
-473.259	-15.001	0.137	0.088
-472.245	-88.891	-0.076	0.023
-471.230	82.506	0.164	0.178
-470.216	-22.047	0.314	0.192
-469.201	800.000	-0.028	0.094
-468.186	-105.688	0.368	0.084
-467.172	-159.711	-0.048	-0.003
-466.157	-148.230	-0.167	0.014
-465.143	-135.897	0.243	0.029
-464.128	-21.977	-0.110	-0.067
-463.113	74.603	-0.098	0.103
-462.099	-56.658	0.230	-0.102
-461.084	-33.812	0.192	-0.106
-460.070	-200.000	0.024	0.325
-459.055	-126.941	0.496	0.073
-458.040	-28.445	-0.151	-0.088
-457.026	77.184	0.175	-0.186
-456.011	139.775	-0.110	-0.145
-454.997	-154.411	-0.166	-0.011
-453.982	508.018	0.049	-0.114
-452.968	217.444	-0.161	0.257
-451.953	-200.000	-0.007	-0.035
-450.938	800.000	-0.084	-0.251
-449.924	10.195	-0.210	-0.161
-448.909	96.070	-0.141	0.161
-447.895	-162.629	-0.186	-0.009
-446.880	-71.519	-0.175	0.066
-445.865	296.355	-0.132	-0.243
-444.851	-97.934	-0.245	-0.063
-443.836	-164.207	-0.267	0.012
-442.822	-200.000	-0.007	-0.301
-441.807	596.514	0.066	0.163
-440.792	-14.122	0.137	0.089
-439.778	179.563	0.093	-0.136
-438.763	-181.034	-0.296	-0.006
-437.749	-200.000	-0.016	-0.101
-436.734	-89.944	-0.121	0.035
-435.719	-87.417	0.346	0.105
-434.705	144.991	0.167	-0.224
-433.690	-165.512	0.181	0.008
-432.676	-190.388	0.515	0.006
-431.661	131.891	-0.121	-0.156
-430.646	-200.000	0.062	-0.379
-429.632	-200.000	0.011	0.196
-428.617	300.294	-0.219	0.405
-427.603	-49.803	0.119	0.057
-426.588	-57.903	0.073	0.032
-425.573	23.588	0.049	0.040
-424.559	-200.000	-0.012	-0.415
-423.544	-182.929	-0.288	-0.005
-422.530	-90.172	0.130	-0.038
-421.515	727.390	0.064	0.171
-420.500	-200.000	0.017	-0.161
-419.486	-200.000	0.020	0.152
-418.471	65.821	0.318	-0.323
-417.457	800.000	0.034	-0.130
-416.442	-10.087	-0.514	-0.342
-415.428	41.076	-0.178	0.161
-414.413	-200.000	0.002	0.100
-413.398	110.947	-0.201	0.243
-412.384	-165.123	0.157	0.007
-411.369	-200.000	0.016	-0.123
-410.355	232.494	0.123	0.202
-409.340	-108.474	-0.243	0.052
-408.325	-200.000	-0.014	0.303
-407.311	-200.000	-0.312	0.001
-406.296	-183.998	-0.107	-0.002
-405.282	-66.463	-0.252	0.100
-404.267	49.639	0.222	0.209
-403.252	-111.841	0.162	0.033
-402.238	135.829	0.161	-0.210
-401.223	-55.551	0.269	0.121
-400.209	-143.765	-0.041	-0.004
-399.194	31.662	-0.167	0.144
-398.179	-200.000	-0.014	-0.157
-397.165	-86.214	0.283	0.087
-396.150	550.369	0.095	0.227
-395.136	-200.000	-0.024	0.288
-394.121	800.000	0.107	-0.368
-393.106	273.292	-0.262	-0.464
-392.092	-13.918	-0.228	-0.148
-391.077	-109.204	0.166	0.035
-390.063	72.733	-0.166	-0.174
-389.048	236.211	-0.119	0.197
-388.033	-200.000	0.094	0.461
-387.019	-44.894	0.349	0.174
-386.004	110.123	-0.105	0.126
-384.990	190.144	0.032	0.049
-383.975	-107.002	-0.256	-0.057
-382.960	-3.391	-0.085	0.059
-381.946	-20.751	0.144	-0.089
-380.931	-200.000	-0.008	-0.102
-379.917	-52.549	0.143	-0.066
-378.902	-200.000	0.017	-0.237
-377.888	-78.414	-0.211	0.072
-376.873	800.000	0.051	-0.212
-375.858	223.475	-0.174	-0.281
-374.844	-106.863	-0.387	0.086
-373.829	-200.000	0.163	0.000
-372.815	89.603	0.074	-0.083
-371.800	74.029	-0.116	0.122
-370.785	741.611	0.054	0.144
-369.771	-135.542	0.150	0.018
-368.756	88.980	-0.118	0.132
-367.742	-7.514	-0.286	0.194
-366.727	-10.396	-0.049	0.033
-365.712	-149.612	0.312	0.025
-364.698	112.764	-0.160	-0.194
-363.683	48.309	-0.199	-0.186
-362.669	7.213	0.356	0.266
-361.654	175.160	-0.036	-0.053
-360.639	14.880	0.407	0.318
-359.625	-200.000	0.003	-0.269
-358.610	-200.000	0.013	-0.369
-357.596	338.310	-0.142	-0.276
-356.581	-200.000	-0.000	-0.039
-355.566	-200.000	-0.006	0.047
-354.552	-28.192	-0.395	0.228
-353.537	449.480	0.074	0.163
-352.523	59.969	0.185	-0.183
-351.508	-122.666	0.235	0.038
-350.493	-126.904	-0.211	-0.031
-349.479	-200.000	0.038	-0.221
-348.464	-200.000	0.042	0.209
-347.450	154.302	0.103	0.141
-346.435	735.291	0.042	0.112
-345.420	30.587	0.138	0.118
-344.406	-117.447	0.226	-0.041
-343.391	91.001	0.310	-0.347
-342.377	-168.755	0.127	0.005
-341.362	-200.000	-0.007	0.078
-340.348	-21.848	-0.274	-0.166
-339.333	-200.000	0.002	-0.056
-338.318	534.491	0.106	0.251
-337.304	-39.600	0.213	-0.111
-336.289	637.046	0.029	0.073
-335.275	-60.124	0.262	-0.112
-334.260	-42.220	0.237	-0.121
-333.245	22.643	0.128	-0.105
-332.231	-186.302	-0.300	0.004
-331.216	-73.740	-0.343	0.125
-330.202	227.472	-0.067	0.109
-329.187	488.407	0.141	0.322
-328.172	33.763	-0.062	0.054
-327.158	281.311	0.112	0.200
-326.143	-200.000	0.018	-0.248
-325.129	-103.872	-0.127	0.030
-324.114	-20.008	0.210	0.129
-323.099	800.000	0.115	0.454
-322.085	262.369	-0.040	-0.069
-321.070	730.469	-0.121	-0.323
-320.056	-13.014	-0.333	0.216
-319.041	800.000	-0.054	0.215
-318.026	800.000	-0.161	0.459
-317.012	-200.000	-0.007	0.484
-315.997	-200.000	-0.010	-0.114
-314.983	-200.000	-0.038	-0.190
-313.968	458.908	0.240	0.532
-312.953	-39.423	-0.211	-0.111
-311.939	116.822	-0.354	-0.434
-310.924	-76.822	0.240	-0.084
-309.910	-80.282	0.290	-0.097
-308.895	-162.472	-0.126	-0.006
-307.880	-182.739	-0.204	-0.004
-306.866	-14.419	-0.072	0.046
-305.851	-146.529	0.279	0.024
-304.837	792.927	-0.083	0.229
-303.822	682.976	0.158	0.412
-302.807	800.000	-0.114	0.422
-301.793	-15.122	0.249	0.159
-300.778	78.217	0.123	-0.131
-299.764	115.269	-0.232	-0.283
-298.749	-200.000	0.056	-0.263
-297.735	-200.000	0.008	-0.049
-296.720	577.758	0.111	0.271
-295.705	-25.491	-0.062	0.036
-294.691	-73.435	0.156	0.057
-293.676	1.003	0.110	0.078
-292.662	260.810	-0.083	0.144
-291.647	-48.600	-0.260	-0.124
-290.632	-59.759	-0.250	0.107
-289.618	-88.843	0.126	0.037
-288.603	272.736	-0.031	0.055
-287.589	-98.485	-0.354	-0.090
-286.574	108.817	0.137	0.163
-285.559	-97.054	0.304	0.079
-284.545	136.194	0.044	0.057
-283.530	94.141	-0.160	0.181
-282.516	8.093	0.031	0.023
-281.501	-45.451	-0.228	-0.112
-280.486	200.000	0.277	0.424
-279.472	76.966	-0.145	0.154
-278.457	-122.954	-0.157	-0.025
-277.443	800.000	-0.043	-0.123
-276.428	-200.000	0.019	-0.246
-275.413	434.962	0.063	0.137
-274.399	-93.838	-0.213	-0.058
-273.384	-200.000	-0.038	0.269
-272.370	-200.000	0.025	0.217
-271.355	-200.000	0.001	0.283
-270.340	26.119	0.110	0.091
-269.326	-119.412	0.322	-0.056
-268.311	37.270	0.153	0.135
-267.297	415.299	0.047	0.099
-266.282	-163.075	-0.333	0.016
-265.267	-73.143	-0.079	0.029
-264.253	92.914	0.196	0.221
-263.238	796.268	-0.039	-0.108
-262.224	-200.000	0.019	-0.168
-261.209	-143.973	0.198	0.019
-260.195	-148.381	-0.262	-0.021
-259.180	6.198	-0.199	-0.147
-258.165	97.439	0.116	0.133
-257.151	435.383	-0.135	0.293
-256.136	-67.258	-0.255	0.100
-255.122	-56.717	0.078	0.034
-254.107	24.874	0.287	-0.237
-253.092	-94.361	0.199	0.054
-252.078	-65.455	0.183	-0.073
-251.063	84.442	-0.086	-0.094
-250.049	45.450	0.111	0.102
-249.034	-43.609	0.434	-0.218
-248.019	-200.000	-0.018	-0.237
-247.005	-158.960	0.292	0.017
-245.990	-200.000	-0.014	0.081
-244.976	-22.377	0.231	0.140
-243.961	800.000	-0.030	-0.108
-242.946	-200.000	-0.081	-0.364
-241.932	-34.190	0.190	-0.104
-240.917	-164.707	-0.208	-0.009
-239.903	457.295	-0.033	-0.073
-238.888	-200.000	-0.024	0.158
-237.873	753.135	-0.113	0.302
-236.859	-117.606	0.313	0.056
-235.844	-200.000	0.026	-0.385
-234.830	591.912	-0.046	-0.113
-233.815	800.000	-0.057	-0.215
-232.800	-200.000	-0.012	-0.078
-231.786	115.234	0.022	0.027
-230.771	-98.903	-0.233	0.059
-229.757	-163.829	0.306	-0.014
-228.742	105.586	-0.268	-0.315
-227.727	46.582	-0.054	0.050
-226.713	118.234	-0.132	-0.162
-225.698	42.636	0.023	0.021
-224.684	432.719	-0.050	-0.109
-223.669	220.275	-0.053	-0.084
-222.655	-200.000	-0.027	-0.291
-221.640	523.368	-0.156	-0.366
-220.625	-162.066	-0.038	-0.002
-219.611	223.564	-0.176	0.283
-218.596	-120.445	0.240	0.041
-217.582	-200.000	-0.037	0.206
-216.567	-200.000	0.044	0.550
-215.552	71.672	0.077	0.080
-214.538	260.693	0.049	-0.083
-213.523	-200.000	0.017	-0.194
-212.509	-89.481	-0.102	0.030
-211.494	26.661	-0.197	0.164
-210.479	23.877	-0.124	-0.102
-209.465	441.115	-0.095	0.207
-208.450	-69.950	-0.059	0.022
-207.436	-93.098	-0.288	-0.080
-206.421	368.587	0.131	-0.264
-205.406	-200.000	-0.005	-0.238
-204.392	-200.000	0.021	0.102
-203.377	-97.714	-0.242	0.062
-202.363	99.426	0.183	0.210
-201.348	-157.690	-0.166	-0.010
-200.333	-40.262	-0.331	0.171
-199.319	800.000	0.128	-0.418
-198.304	690.576	-0.101	-0.264
-197.290	117.599	-0.285	-0.348
-196.275	-200.000	-0.001	0.100
-195.260	800.000	-0.068	0.281
-194.246	-200.000	-0.007	-0.113
-193.231	-200.000	0.041	-0.216
-192.217	-200.000	-0.005	0.069
-191.202	-53.500	0.128	-0.058
-190.187	-146.453	-0.388	0.034
-189.173	-46.044	0.118	0.058
-188.158	209.128	0.118	-0.183
-187.144	-200.000	0.032	0.453
-186.129	143.405	-0.211	-0.279
-185.114	440.515	0.063	0.137
-184.100	137.972	-0.169	-0.220
-183.085	-105.347	-0.477	-0.108
-182.071	99.961	-0.174	0.200
-181.056	122.578	0.125	-0.155
-180.042	-200.000	0.061	0.354
-179.027	-56.104	-0.336	0.149
-178.012	61.057	0.070	-0.069
-176.998	76.989	-0.117	0.124
-175.983	105.053	-0.028	0.033
-174.969	-83.416	0.155	0.049
-173.954	130.597	-0.085	0.108
-172.939	-200.000	0.022	0.173
-171.925	93.051	0.165	0.186
-170.910	800.000	0.044	-0.163
-169.896	800.000	0.103	-0.414
-168.881	800.000	0.047	0.197
-167.866	147.680	0.116	0.155
-166.852	-122.513	0.051	0.008
-165.837	-200.000	-0.002	-0.405
-164.823	-200.000	0.021	0.170
-163.808	800.000	0.042	0.129
-162.793	-91.593	-0.107	-0.030
-161.779	-106.225	0.084	-0.019
-160.764	-200.000	-0.019	0.108
-159.750	71.462	0.182	0.187
-158.735	-2.094	-0.125	-0.087
-157.720	-126.761	-0.107	-0.016
-156.706	-27.076	0.074	0.043
-155.691	-69.786	0.442	-0.168
-154.677	-69.559	-0.165	-0.063
-153.662	-172.791	0.058	0.002
-152.647	-32.506	-0.236	-0.130
-151.633	668.113	0.099	0.253
-150.618	14.364	0.254	-0.197
-149.604	9.723	-0.201	0.151
-148.589	-38.671	-0.117	-0.061
-147.574	27.684	-0.285	-0.238
-146.560	-200.000	0.030	-0.432
-145.545	2.335	0.275	-0.197
-144.531	-200.000	-0.016	0.282
-143.516	-25.882	0.290	-0.169
-142.502	800.000	0.089	-0.274
-141.487	278.997	-0.147	-0.261
-140.472	-174.714	0.228	-0.006
-139.458	-111.116	0.232	-0.047
-138.443	800.000	0.154	0.510
-137.429	70.748	-0.107	-0.110
-136.414	-83.701	-0.267	-0.085
-135.399	32.610	0.195	-0.167
-134.385	-95.620	-0.581	0.154
-133.370	-29.628	0.149	-0.084
-132.356	800.000	0.068	0.208
-131.341	800.000	0.105	-0.296
-130.326	414.048	-0.065	0.137
-129.312	-34.073	-0.175	0.095
-128.297	-65.881	-0.279	0.110
-127.283	753.852	0.057	-0.152
-126.268	-112.643	-0.163	0.032
-125.253	179.664	-0.107	-0.155
-124.239	-100.820	-0.044	0.011
-123.224	-134.846	0.094	0.011
-122.210	800.000	0.101	0.289
