DTS Sentinel unit serial number:	SN413079Multiplexer serial number:	ORYXHardware model number:	OX4-SRSoftware version number:	ORYX F/W v4.00 Oryx Data Collector v3.7.2.0data status	okinstallation	princeton_trtdifferential loss correction	single-endedforward channel	channel 1reverse channel	N/Adate	2019/09/17time	00:50:35forward acquisition time	60.00reverse acquisition time	0.00gamma	496.2192k internal	0.2324k external	0.2324temperature offset calibration	0.9963default loss term (dB/km)	0.3790temperature slope calibration	1.0000multiplexer offset coefficient	1.0000multiplexer slope coefficient	1.0000fibre end	0.00T internal ref (°C)	29.44T ext. ref 1 (°C)	0.10T ext. ref 2 (°C)	24.08length (m)	temperature (°C)	Stokes	anti-Stokes-747.200	-200.000	-0.047	-0.282
-746.185	-10.722	-0.394	0.263
-745.171	-128.188	-0.262	0.038
-744.156	-200.000	0.028	0.202
-743.142	-96.542	0.192	0.051
-742.127	122.932	-0.250	0.315
-741.112	-127.432	-0.146	0.022
-740.098	-13.314	-0.156	0.102
-739.083	-126.106	0.280	-0.042
-738.069	-41.565	0.176	0.092
-737.054	-200.000	-0.033	0.323
-736.039	-81.975	-0.257	-0.085
-735.025	-200.000	-0.028	-0.214
-734.010	-200.000	-0.022	-0.330
-732.996	250.620	-0.070	0.120
-731.981	-93.916	0.114	0.032
-730.966	-200.000	0.267	-0.001
-729.952	184.606	0.169	-0.253
-728.937	-200.000	-0.009	-0.203
-727.923	37.484	-0.303	0.271
-726.908	-200.000	0.008	0.054
-725.894	5.132	0.154	0.115
-724.879	-160.459	-0.329	0.018
-723.864	787.185	0.107	0.296
-722.850	800.000	-0.038	0.168
-721.835	-128.107	0.050	-0.007
-720.821	177.679	0.163	0.239
-719.806	342.882	0.138	0.273
-718.791	-200.000	0.042	0.275
-717.777	128.515	-0.130	-0.167
-716.762	-1.086	0.215	-0.153
-715.748	223.093	-0.072	-0.116
-714.733	-55.618	0.271	-0.122
-713.718	406.366	0.024	-0.051
-712.704	120.216	-0.069	0.087
-711.689	475.041	0.137	-0.311
-710.675	242.974	0.062	0.104
-709.660	-74.452	-0.131	0.048
-708.645	800.000	-0.096	-0.282
-707.631	-107.269	0.192	-0.043
-706.616	97.178	0.175	0.203
-705.602	-145.431	0.130	-0.012
-704.587	71.194	-0.267	0.279
-703.572	-200.000	0.039	0.299
-702.558	-200.000	-0.009	0.053
-701.543	534.112	-0.032	-0.077
-700.529	-1.827	0.200	-0.142
-699.514	-200.000	-0.017	-0.116
-698.499	-97.720	0.153	-0.040
-697.485	800.000	0.084	0.249
-696.470	-200.000	-0.000	-0.054
-695.456	188.586	-0.143	-0.215
-694.441	-170.062	0.175	-0.006
-693.426	800.000	-0.104	0.321
-692.412	762.163	-0.160	0.438
-691.397	800.000	0.072	-0.304
-690.383	-200.000	-0.062	0.318
-689.368	0.009	0.382	0.274
-688.354	-178.475	0.272	0.006
-687.339	302.241	0.126	0.236
-686.324	137.766	0.075	0.099
-685.310	-79.547	0.290	-0.099
-684.295	-197.547	0.123	-0.001
-683.281	-3.627	-0.074	0.051
-682.266	67.296	-0.263	0.270
-681.251	707.177	-0.108	-0.287
-680.237	158.476	-0.121	-0.169
-679.222	-200.000	-0.068	0.400
-678.208	-200.000	0.007	0.104
-677.193	93.283	0.225	-0.256
-676.178	-9.548	-0.282	-0.189
-675.164	288.125	0.074	-0.136
-674.149	-200.000	-0.059	-0.332
-673.135	140.732	0.123	0.163
-672.120	-43.772	0.274	0.139
-671.105	800.000	-0.065	-0.182
-670.091	800.000	-0.067	0.267
-669.076	-200.000	0.021	-0.194
-668.062	119.836	-0.161	-0.200
-667.047	-60.736	0.160	-0.068
-666.032	-80.147	0.281	-0.095
-665.018	-7.306	-0.286	-0.195
-664.003	-23.495	-0.288	0.174
-662.989	-23.401	-0.114	0.069
-661.974	15.119	-0.148	0.117
-660.959	486.620	-0.049	0.112
-659.945	142.153	-0.165	0.220
-658.930	364.112	-0.153	-0.309
-657.916	-145.986	-0.161	0.014
-656.901	-200.000	0.035	-0.346
-655.886	-49.445	0.081	-0.039
-654.872	232.626	0.076	-0.126
-653.857	800.000	0.010	0.032
-652.843	-19.468	0.242	-0.151
-651.828	-33.835	0.075	0.042
-650.814	699.552	-0.108	0.287
-649.799	800.000	-0.058	0.203
-648.784	659.173	0.226	0.584
-647.770	-168.903	0.043	0.002
-646.755	62.376	-0.238	-0.239
-645.741	48.121	0.032	0.030
-644.726	-140.363	-0.415	-0.044
-643.711	82.506	0.138	0.150
-642.697	-92.645	-0.242	0.068
-641.682	-200.000	-0.050	-0.226
-640.668	-17.077	-0.151	0.096
-639.653	-29.698	-0.244	-0.140
-638.638	-5.018	0.051	-0.035
-637.624	593.188	-0.048	0.118
-636.609	219.667	0.054	0.087
-635.595	155.856	0.165	0.228
-634.580	800.000	0.185	-0.536
-633.565	117.240	-0.143	0.176
-632.551	-200.000	-0.003	-0.257
-631.536	109.959	0.019	-0.023
-630.522	-200.000	-0.023	0.119
-629.507	483.107	-0.189	-0.432
-628.492	-200.000	-0.026	0.149
-627.478	549.372	-0.092	0.221
-626.463	-87.930	-0.405	-0.122
-625.449	-200.000	0.027	-0.170
-624.434	-200.000	0.082	-0.389
-623.419	0.498	-0.180	-0.129
-622.405	-39.124	-0.087	-0.046
-621.390	-144.270	0.090	0.008
-620.376	261.004	0.109	0.189
-619.361	0.751	-0.254	0.183
-618.346	800.000	0.145	-0.488
-617.332	-200.000	-0.040	-0.198
-616.317	452.481	0.078	0.174
-615.303	94.908	-0.208	0.238
-614.288	98.286	0.123	0.142
-613.273	14.574	-0.342	0.268
-612.259	86.043	0.241	-0.267
-611.244	15.622	-0.198	0.156
-610.230	-32.447	-0.303	-0.170
-609.215	249.709	0.119	-0.202
-608.201	38.622	-0.344	-0.308
-607.186	-13.210	0.102	0.067
-606.171	215.268	-0.131	0.208
-605.157	-36.370	0.220	-0.119
-604.142	-126.236	0.376	0.056
-603.128	-132.802	0.168	0.022
-602.113	-36.692	0.167	-0.090
-601.098	617.493	0.056	-0.141
-600.084	800.000	0.075	-0.261
-599.069	284.231	-0.148	0.268
-598.055	55.373	0.100	-0.097
-597.040	800.000	-0.056	-0.187
-596.025	3.562	-0.201	0.147
-595.011	367.202	-0.227	0.459
-593.996	-40.805	-0.193	-0.100
-592.982	800.000	-0.047	0.134
-591.967	73.967	0.091	0.095
-590.952	-70.289	-0.161	0.061
-589.938	-80.289	0.132	-0.044
-588.923	800.000	0.056	-0.229
-587.909	-200.000	-0.075	-0.429
-586.894	-16.542	-0.138	0.088
-585.879	-25.265	-0.138	-0.082
-584.865	326.284	-0.086	0.166
-583.850	-132.317	0.150	-0.019
-582.836	-83.136	-0.369	0.119
-581.821	-200.000	0.049	0.401
-580.806	-3.952	-0.279	-0.194
-579.792	-26.834	0.093	-0.054
-578.777	-200.000	-0.061	0.402
-577.763	127.750	0.127	0.161
-576.748	72.526	0.078	0.082
-575.733	800.000	-0.080	0.274
-574.719	484.931	-0.112	-0.256
-573.704	107.871	0.072	0.086
-572.690	-83.648	-0.160	0.051
-571.675	55.069	0.252	0.244
-570.661	65.088	-0.066	-0.067
-569.646	47.085	-0.232	0.216
-568.631	435.587	0.157	-0.343
-567.617	-114.239	0.523	-0.101
-566.602	-34.694	0.300	0.164
-565.588	-200.000	-0.146	0.000
-564.573	-200.000	0.021	0.274
-563.558	54.028	0.123	0.118
-562.544	-200.000	0.058	-0.309
-561.529	-78.776	0.310	-0.106
-560.515	334.468	0.057	0.110
-559.500	800.000	-0.032	0.121
-558.485	-157.782	-0.173	-0.010
-557.471	199.046	0.179	-0.275
-556.456	-34.229	-0.198	-0.109
-555.442	800.000	0.053	-0.147
-554.427	-0.205	0.284	-0.203
-553.412	-126.796	-0.181	0.027
-552.398	-108.018	-0.193	-0.042
-551.383	-200.000	0.005	-0.163
-550.369	-125.412	0.118	-0.018
-549.354	-200.000	0.049	0.279
-548.339	144.842	-0.126	-0.169
-547.325	-139.561	-0.334	0.036
-546.310	-139.942	0.097	-0.010
-545.296	-200.000	-0.006	0.174
-544.281	-128.782	0.492	0.069
-543.266	613.358	-0.024	-0.060
-542.252	-200.000	-0.012	0.321
-541.237	123.917	0.084	-0.106
-540.223	-5.312	-0.142	0.098
-539.208	-200.000	-0.022	-0.411
-538.193	-72.397	0.287	-0.106
-537.179	-82.630	-0.144	0.047
-536.164	35.963	0.167	0.147
-535.150	-200.000	0.030	-0.466
-534.135	-33.297	-0.373	-0.207
-533.121	35.004	0.175	-0.154
-532.106	800.000	0.061	-0.207
-531.091	-27.573	-0.202	-0.117
-530.077	-180.056	-0.264	0.006
-529.062	-132.965	0.161	0.020
-528.048	-4.041	-0.234	0.162
-527.033	800.000	0.087	0.256
-526.018	-127.755	0.375	0.054
-525.004	-200.000	0.004	-0.175
-523.989	197.291	-0.028	-0.043
-522.975	-52.400	0.229	-0.106
-521.960	-33.503	-0.078	-0.043
-520.945	332.040	0.166	0.320
-519.931	-200.000	0.059	0.293
-518.916	-120.639	-0.115	-0.019
-517.902	-63.346	0.339	0.140
-516.887	-200.000	-0.010	-0.256
-515.872	499.737	0.117	-0.271
-514.858	628.902	-0.085	-0.215
-513.843	-200.000	-0.072	0.404
-512.829	-61.601	0.187	-0.079
-511.814	130.413	0.059	-0.075
-510.799	-130.956	0.208	-0.028
-509.785	606.136	0.081	0.202
-508.770	-6.648	0.156	0.106
-507.756	-200.000	-0.034	0.244
-506.741	54.992	0.339	-0.327
-505.726	72.364	0.079	-0.082
-504.712	-72.836	-0.103	-0.038
-503.697	-86.790	0.416	-0.127
-502.683	-94.358	-0.138	0.038
-501.668	-17.128	-0.330	0.208
-500.653	-56.313	0.440	-0.195
-499.639	-41.540	0.395	-0.203
-498.624	800.000	0.050	-0.199
-497.610	239.572	-0.115	-0.192
-496.595	-178.104	0.156	0.004
-495.581	800.000	-0.069	0.240
-494.566	348.457	-0.029	-0.058
-493.551	-6.289	0.029	0.020
-492.537	-146.442	-0.123	-0.011
-491.522	93.153	-0.289	-0.327
-490.508	-84.214	0.123	-0.039
-489.493	-200.000	0.044	-0.228
-488.478	-200.000	-0.007	-0.498
-487.464	32.643	-0.106	0.091
-486.449	43.708	0.304	-0.278
-485.435	-97.758	0.170	0.044
-484.420	92.171	-0.093	-0.105
-483.405	-48.844	-0.086	-0.041
-482.391	215.336	0.082	-0.130
-481.376	800.000	0.103	-0.288
-480.362	-13.753	0.212	-0.137
-479.347	88.379	0.081	-0.089
-478.332	17.941	-0.040	0.032
-477.318	-200.000	0.004	0.080
-476.303	800.000	-0.059	0.168
-475.289	262.397	0.061	-0.106
-474.274	-50.732	-0.201	0.095
-473.259	-159.253	-0.352	-0.020
-472.245	224.420	0.045	0.073
-471.230	183.822	-0.107	0.158
-470.216	-37.087	-0.124	-0.066
-469.201	323.291	-0.306	-0.582
-468.186	800.000	0.037	0.121
-467.172	-168.535	-0.110	-0.004
-466.157	139.170	0.189	0.248
-465.143	-82.480	-0.210	0.068
-464.128	-126.561	-0.223	0.033
-463.113	-200.000	0.039	0.273
-462.099	-115.870	-0.275	-0.051
-461.084	10.602	-0.107	0.082
-460.070	-26.173	-0.236	-0.139
-459.055	-38.528	-0.270	-0.143
-458.040	-99.220	-0.503	0.127
-457.026	24.486	-0.309	0.255
-456.011	62.769	0.178	0.177
-454.997	-200.000	-0.063	-0.312
-453.982	-26.099	0.072	0.042
-452.968	-124.372	0.110	-0.017
-451.953	408.369	-0.126	-0.265
-450.938	-200.000	-0.013	-0.235
-449.924	293.656	-0.053	-0.097
-448.909	-105.012	0.265	-0.061
-447.895	-200.000	0.020	-0.135
-446.880	21.121	-0.153	0.124
-445.865	-108.527	0.123	-0.026
-444.851	-51.188	0.213	-0.100
-443.836	800.000	0.036	0.146
-442.822	256.463	0.029	-0.050
-441.807	-200.000	-0.031	0.201
-440.792	182.178	-0.116	-0.170
-439.778	-200.000	0.030	-0.233
-438.763	-24.280	0.174	-0.103
-437.749	-200.000	-0.205	-0.000
-436.734	545.366	-0.040	-0.096
-435.719	-3.688	-0.108	0.075
-434.705	-9.282	-0.062	0.041
-433.690	41.826	0.077	-0.069
-432.676	-139.666	-0.137	0.015
-431.661	-200.000	0.021	0.277
-430.646	-103.505	0.366	-0.086
-429.632	800.000	-0.071	-0.211
-428.617	-139.140	-0.267	0.029
-427.603	-126.376	-0.150	-0.022
-426.588	111.578	-0.223	-0.268
-425.573	-44.342	-0.102	0.051
-424.559	61.567	-0.176	0.175
-423.544	251.340	0.102	-0.172
-422.530	-34.516	-0.156	-0.085
-421.515	-200.000	0.029	0.187
-420.500	651.292	-0.089	0.226
-419.486	-5.797	0.242	0.165
-418.471	800.000	0.045	-0.150
-417.457	394.125	-0.148	0.308
-416.442	127.377	0.232	0.293
-415.428	-19.361	-0.261	0.161
-414.413	302.814	-0.087	0.161
-413.398	-126.459	0.061	-0.009
-412.384	-84.093	0.197	0.062
-411.369	-128.119	0.173	0.025
-410.355	91.199	0.138	0.154
-409.340	-156.822	-0.347	-0.021
-408.325	-23.910	-0.159	-0.095
-407.311	-97.506	-0.142	0.037
-406.296	533.376	0.135	-0.319
-405.282	159.422	0.066	-0.091
-404.267	-156.356	-0.135	0.008
-403.252	510.346	-0.055	-0.127
-402.238	-120.692	0.341	-0.057
-401.223	81.876	0.125	-0.135
-400.209	-200.000	-0.009	0.129
-399.194	33.668	0.229	0.198
-398.179	71.922	0.167	-0.173
-397.165	3.691	-0.286	-0.208
-396.150	-200.000	-0.003	-0.182
-395.136	491.695	0.104	0.238
-394.121	-38.932	-0.370	-0.194
-393.106	163.882	-0.167	0.234
-392.092	-90.424	0.365	-0.105
-391.077	-15.348	-0.153	0.098
-390.063	-200.000	-0.030	0.322
-389.048	-102.887	-0.390	-0.092
-388.033	767.292	0.102	-0.275
-387.019	11.457	-0.025	-0.019
-386.004	-200.000	-0.017	-0.096
-384.990	15.466	-0.162	0.127
-383.975	800.000	-0.120	-0.396
-382.960	127.524	0.094	-0.118
-381.946	22.571	-0.299	0.243
-380.931	10.724	-0.127	0.097
-379.917	696.556	-0.082	-0.215
-378.902	609.589	-0.094	0.235
-377.888	13.253	0.166	0.128
-376.873	-98.620	-0.074	0.019
-375.858	11.932	-0.096	0.073
-374.844	-200.000	-0.009	-0.155
-373.829	-43.037	-0.273	-0.138
-372.815	-133.635	0.124	0.015
-371.800	-90.838	0.153	-0.044
-370.785	-30.984	0.154	-0.086
-369.771	-200.000	0.053	0.621
-368.756	77.891	0.258	0.274
-367.742	-49.730	-0.176	-0.083
-366.727	379.440	-0.130	0.265
-365.712	-122.228	0.337	0.055
-364.698	-91.555	0.116	-0.033
-363.683	-90.191	0.136	0.039
-362.669	55.043	-0.107	-0.103
-361.654	180.091	-0.137	0.200
-360.639	124.344	0.144	0.180
-359.625	636.656	-0.115	-0.290
-358.610	-39.697	-0.074	-0.038
-357.596	60.727	-0.074	-0.073
-356.581	748.232	0.142	0.381
-355.566	31.943	-0.102	0.087
-354.552	186.472	0.109	0.161
-353.537	15.388	-0.217	0.170
-352.523	116.790	0.175	0.213
-351.508	-126.936	0.177	-0.026
-350.493	149.280	-0.076	-0.103
-349.479	-50.561	-0.068	0.032
-348.464	-200.000	-0.011	-0.061
-347.450	46.046	0.057	0.053
-346.435	40.079	0.084	-0.075
-345.420	-179.387	0.155	0.003
-344.406	25.255	-0.241	0.199
-343.391	800.000	-0.126	0.356
-342.377	-77.135	-0.426	0.148
-341.362	161.254	0.095	-0.132
-340.348	-200.000	0.078	0.378
-339.333	-73.233	0.084	0.031
-338.318	-121.405	-0.174	0.029
-337.304	-200.000	-0.007	0.198
-336.289	-34.088	-0.183	0.100
-335.275	293.349	0.091	0.165
-334.260	-73.765	-0.069	-0.025
-333.245	122.565	0.242	-0.300
-332.231	-63.405	0.079	0.032
-331.216	-200.000	-0.027	0.130
-330.202	660.530	-0.124	-0.318
-329.187	-17.661	0.196	-0.122
-328.172	-200.000	-0.012	-0.102
-327.158	424.305	-0.150	-0.320
-326.143	-20.342	0.259	0.158
-325.129	800.000	0.066	0.194
-324.114	6.289	0.218	0.160
-323.099	-54.685	0.142	0.064
-322.085	-77.817	0.331	-0.114
-321.070	-79.451	0.262	0.088
-320.056	800.000	-0.088	0.263
-319.041	-155.789	0.224	0.014
-318.026	36.356	-0.224	0.196
-317.012	-69.042	0.528	0.202
-315.997	-116.053	-0.182	0.034
-314.983	800.000	0.152	0.450
-313.968	-55.957	-0.288	0.128
-312.953	46.352	-0.120	-0.110
-311.939	-200.000	-0.001	0.159
-310.924	-200.000	0.023	0.457
-309.910	73.696	-0.105	0.110
-308.895	-136.342	-0.309	0.036
-307.880	104.995	-0.080	0.094
-306.866	-143.540	0.291	-0.027
-305.851	-48.303	0.170	-0.081
-304.837	730.662	-0.080	-0.212
-303.822	-21.476	0.150	-0.091
-302.807	800.000	-0.056	-0.242
-301.793	650.056	-0.029	-0.073
-300.778	-164.600	0.136	-0.006
-299.764	769.142	0.091	-0.246
-298.749	201.348	-0.186	-0.284
-297.735	-200.000	0.036	-0.441
-296.720	353.197	0.167	0.328
-295.705	-132.847	-0.307	0.039
-294.691	-24.809	0.145	0.085
-293.676	-71.077	0.067	-0.025
-292.662	-87.703	0.212	0.064
-291.647	-200.000	0.049	0.245
-290.632	800.000	0.053	-0.193
-289.618	-200.000	0.022	0.323
-288.603	-96.413	-0.247	-0.065
-287.589	-4.732	0.187	0.128
-286.574	-70.788	0.098	0.037
-285.559	-21.496	0.100	0.060
-284.545	131.660	-0.039	0.050
-283.530	-200.000	0.019	0.098
-282.516	68.503	-0.272	0.277
-281.501	-26.630	-0.184	-0.107
-280.486	-84.387	0.213	0.067
-279.472	-7.211	0.074	-0.049
-278.457	10.836	-0.229	0.174
-277.443	7.868	-0.187	-0.139
-276.428	50.036	0.122	0.114
-275.413	-101.063	0.233	0.057
-274.399	-16.333	0.236	-0.149
-273.384	800.000	-0.060	-0.172
-272.370	-169.286	-0.239	0.009
-271.355	-8.871	0.357	0.237
-270.340	48.640	0.043	-0.040
-269.326	196.914	-0.146	0.220
-268.311	-200.000	-0.030	0.234
-267.297	800.000	-0.051	-0.208
-266.282	-200.000	-0.019	0.103
-265.267	-43.160	0.107	-0.053
-264.253	-200.000	0.036	-0.160
-263.238	-16.681	-0.299	0.188
-262.224	-73.008	-0.065	-0.024
-261.209	265.679	0.106	-0.182
-260.195	-49.250	0.072	0.034
-259.180	732.304	-0.075	0.198
-258.165	-141.061	0.246	-0.025
-257.151	-200.000	-0.033	0.267
-256.136	345.670	-0.202	0.393
-255.122	363.244	-0.058	0.115
-254.107	-110.303	-0.445	-0.092
-253.092	196.428	-0.082	-0.124
-252.078	-82.617	-0.254	-0.081
-251.063	77.208	0.123	-0.129
-250.049	-150.318	0.309	0.024
-249.034	46.941	-0.123	0.113
-248.019	-132.055	0.272	0.035
-247.005	-39.935	0.265	-0.137
-245.990	-200.000	0.001	-0.115
-244.976	-200.000	-0.022	-0.247
-243.961	800.000	0.030	0.118
-242.946	176.370	-0.106	-0.152
-241.932	119.635	-0.175	-0.215
-240.917	216.272	0.115	0.181
-239.903	800.000	0.077	-0.231
-238.888	403.439	0.085	0.177
-237.873	-93.536	0.384	0.105
-236.859	800.000	0.052	0.146
-235.844	-200.000	-0.005	0.156
-234.830	-200.000	-0.009	-0.100
-233.815	800.000	0.074	0.267
-232.800	-200.000	-0.018	-0.170
-231.786	-130.909	0.162	-0.021
-230.771	-65.951	-0.291	0.115
-229.757	-71.497	-0.253	-0.094
-228.742	-160.207	-0.350	-0.019
-227.727	-20.738	0.290	-0.176
-226.713	-104.973	-0.169	0.038
-225.698	-141.116	0.096	-0.010
-224.684	-62.188	-0.172	0.071
-223.669	-115.100	0.255	-0.048
-222.655	-200.000	0.028	-0.154
-221.640	102.203	0.039	0.045
-220.625	54.907	0.141	0.135
-219.611	-200.000	0.023	0.118
-218.596	14.349	-0.186	0.144
-217.582	-200.000	0.005	-0.055
-216.567	800.000	-0.079	-0.292
-215.552	-200.000	0.001	0.062
-214.538	-200.000	-0.016	-0.282
-213.523	-123.599	-0.044	0.007
-212.509	-200.000	-0.057	0.392
-211.494	-200.000	-0.048	0.208
-210.479	392.445	0.091	-0.186
-209.465	-200.000	0.061	-0.280
-208.450	-25.096	-0.054	-0.031
-207.436	-97.957	-0.314	-0.080
-206.421	81.799	0.128	-0.137
-205.406	147.293	-0.216	-0.287
-204.392	-137.399	-0.292	-0.033
-203.377	-10.805	0.389	0.254
-202.363	34.109	0.316	0.272
-201.348	-38.772	-0.318	0.166
-200.333	-105.896	0.464	0.103
-199.319	287.224	0.127	0.228
-198.304	-44.369	0.223	-0.110
-197.290	130.309	0.086	-0.109
-196.275	184.313	0.165	0.242
-195.260	-121.782	-0.325	0.053
-194.246	800.000	-0.037	0.135
-193.231	-121.787	0.140	0.023
-192.217	15.658	0.068	-0.053
-191.202	108.298	0.122	-0.143
-190.187	-23.456	-0.255	-0.151
-189.173	171.225	-0.081	-0.115
-188.158	-200.000	0.024	0.377
-187.144	-200.000	0.019	0.151
-186.129	-31.453	0.099	-0.055
-185.114	16.510	-0.131	-0.102
-184.100	-19.639	-0.061	0.037
-183.085	8.838	0.097	0.072
-182.071	596.285	0.096	-0.235
-181.056	-165.171	-0.258	0.011
-180.042	587.450	0.015	-0.036
-179.027	-125.865	0.171	0.026
-178.012	-200.000	0.014	0.181
-176.998	29.486	0.074	-0.063
-175.983	-20.115	-0.196	-0.119
-174.969	174.135	-0.022	-0.031
-173.954	57.925	-0.072	-0.069
-172.939	86.895	-0.141	-0.154
-171.925	-72.104	0.197	-0.072
-170.910	302.269	0.073	-0.133
-169.896	-153.639	-0.031	-0.002
-168.881	-126.125	0.238	-0.035
-167.866	13.791	0.061	0.047
-166.852	346.010	-0.198	-0.385
-165.837	800.000	0.111	-0.318
-164.823	-55.451	0.144	-0.064
-163.808	258.851	0.016	0.027
-162.793	-77.136	-0.244	-0.084
-161.779	-45.895	0.294	-0.143
-160.764	-6.072	0.369	-0.249
-159.750	136.480	-0.199	-0.256
-158.735	-96.897	0.346	-0.090
-157.720	-161.096	0.107	-0.006
-156.706	137.081	0.179	-0.231
-155.691	800.000	0.069	0.230
-154.677	21.567	-0.029	-0.023
-153.662	-94.389	-0.223	0.060
-152.647	-139.514	-0.186	-0.020
-151.633	-24.594	0.284	0.167
-150.618	800.000	0.095	-0.361
-149.604	505.637	0.075	0.172
-148.589	-200.000	-0.074	0.410
-147.574	-187.702	0.151	-0.002
-146.560	-124.085	-0.250	0.039
-145.545	87.855	0.147	0.161
-144.531	-36.290	-0.157	0.084
-143.516	369.877	-0.050	0.101
-142.502	112.182	0.384	-0.458
-141.487	221.801	0.128	0.202
-140.472	800.000	-0.040	-0.169
-139.458	-43.973	0.209	-0.103
-138.443	63.541	-0.144	-0.142
-137.429	800.000	0.033	-0.105
-136.414	800.000	0.035	-0.105
-135.399	-85.767	-0.251	0.077
-134.385	206.044	0.143	0.219
-133.370	-200.000	-0.024	0.282
-132.356	-45.804	0.284	0.138
-131.341	-200.000	0.031	-0.284
-130.326	-200.000	-0.014	0.095
-129.312	-200.000	0.005	0.339
-128.297	21.927	-0.151	0.122
-127.283	227.721	0.316	-0.506
-126.268	-55.986	0.119	-0.052
-125.253	800.000	-0.089	0.249
-124.239	16.582	0.204	-0.159
-123.224	-200.000	-0.037	0.192
-122.210	-4.800	-0.011	0.007
-121.195	800.000	0.047	0.160
