DTS Sentinel unit serial number:	SN413079Multiplexer serial number:	ORYXHardware model number:	OX4-SRSoftware version number:	ORYX F/W v4.00 Oryx Data Collector v3.7.2.0data status	okinstallation	princeton_trtdifferential loss correction	single-endedforward channel	channel 1reverse channel	N/Adate	2019/09/15time	15:46:35forward acquisition time	60.00reverse acquisition time	0.00gamma	496.2192k internal	0.2292k external	0.2292temperature offset calibration	0.9941default loss term (dB/km)	0.3790temperature slope calibration	1.0000multiplexer offset coefficient	1.0000multiplexer slope coefficient	1.0000fibre end	0.00T internal ref (°C)	41.98T ext. ref 1 (°C)	5.23T ext. ref 2 (°C)	40.51length (m)	temperature (°C)	Stokes	anti-Stokes-747.200	800.000	0.071	0.279
-746.185	17.457	-0.255	0.208
-745.171	800.000	0.092	-0.262
-744.156	228.856	-0.143	0.239
-743.142	-59.850	-0.318	0.139
-742.127	442.199	0.086	0.193
-741.112	225.174	-0.153	0.254
-740.098	-59.103	-0.224	0.099
-739.083	-57.559	0.466	0.209
-738.069	608.247	-0.139	0.355
-737.054	-20.061	-0.104	-0.066
-736.039	-174.775	0.183	0.005
-735.025	7.680	-0.222	0.170
-734.010	269.789	-0.123	-0.221
-732.996	-200.000	0.038	-0.184
-731.981	467.277	-0.115	-0.263
-730.966	-200.000	-0.035	-0.270
-729.952	800.000	-0.046	-0.158
-728.937	506.330	-0.046	-0.109
-727.923	84.041	-0.105	-0.117
-726.908	788.632	0.164	0.460
-725.894	-200.000	-0.122	-0.548
-724.879	124.272	-0.284	-0.365
-723.864	23.661	0.140	-0.118
-722.850	99.464	0.089	0.105
-721.835	-51.616	-0.093	-0.044
-720.821	156.209	0.026	0.036
-719.806	800.000	0.105	-0.339
-718.791	343.206	0.046	-0.092
-717.777	150.751	0.143	-0.199
-716.762	-88.741	0.390	-0.118
-715.748	-46.064	-0.147	0.074
-714.733	-124.627	0.130	-0.021
-713.718	28.414	-0.075	0.065
-712.704	-1.157	0.126	-0.091
-711.689	800.000	-0.049	0.143
-710.675	-61.341	-0.067	-0.029
-709.660	1.764	-0.125	-0.092
-708.645	147.551	-0.113	0.156
-707.631	800.000	-0.077	-0.274
-706.616	752.110	-0.083	-0.229
-705.602	-200.000	0.025	-0.316
-704.587	324.838	0.054	-0.105
-703.572	-117.600	-0.355	0.065
-702.558	-200.000	-0.055	-0.280
-701.543	-200.000	-0.025	-0.264
-700.529	-116.319	-0.092	0.017
-699.514	800.000	-0.091	-0.376
-698.499	-154.307	0.146	0.010
-697.485	-71.609	-0.114	0.043
-696.470	206.504	0.069	0.109
-695.456	219.431	0.182	0.298
-694.441	800.000	-0.037	0.115
-693.426	-96.491	0.423	-0.114
-692.412	-74.981	0.202	-0.074
-691.397	-59.157	0.188	0.083
-690.383	94.726	0.055	0.064
-689.368	65.287	-0.323	-0.334
-688.354	800.000	-0.068	-0.246
-687.339	-77.962	0.144	-0.051
-686.324	-61.126	0.032	-0.014
-685.310	-200.000	0.022	-0.103
-684.295	800.000	-0.092	-0.363
-683.281	1.951	-0.240	-0.177
-682.266	12.456	0.222	-0.175
-681.251	800.000	0.108	-0.388
-680.237	-110.114	0.305	0.065
-679.222	-156.110	0.179	0.012
-678.208	-77.920	-0.499	-0.176
-677.193	118.759	0.029	0.037
-676.178	-200.000	0.004	-0.177
-675.164	800.000	-0.106	-0.319
-674.149	258.929	0.127	-0.224
-673.135	-116.770	-0.062	0.012
-672.120	-106.940	-0.437	0.099
-671.105	268.564	0.091	-0.163
-670.091	224.689	0.138	-0.228
-669.076	-179.435	0.169	0.004
-668.062	557.068	0.029	-0.071
-667.047	-89.191	-0.171	0.052
-666.032	-16.360	0.193	0.125
-665.018	-39.251	0.186	-0.100
-664.003	-200.000	-0.026	-0.294
-662.989	800.000	0.016	0.059
-661.974	-178.810	-0.215	0.005
-660.959	493.428	0.034	-0.079
-659.945	-90.591	0.390	-0.115
-658.930	410.598	0.086	0.187
-657.916	-9.714	-0.145	0.099
-656.901	-86.937	-0.501	-0.156
-655.886	-30.929	-0.061	0.035
-654.872	288.554	0.168	0.310
-653.857	-163.335	0.172	-0.008
-652.843	64.718	-0.138	-0.142
-651.828	-14.971	0.239	-0.156
-650.814	800.000	-0.078	0.252
-649.799	27.173	-0.045	0.039
-648.784	25.887	-0.186	0.158
-647.770	218.492	0.075	0.122
-646.755	-49.063	-0.258	-0.126
-645.741	-200.000	-0.002	0.117
-644.726	-87.178	0.300	-0.093
-643.711	-4.482	0.279	0.197
-642.697	-148.243	0.174	-0.015
-641.682	678.667	0.100	-0.265
-640.668	-64.546	0.324	-0.134
-639.653	244.212	-0.157	-0.270
-638.638	-200.000	0.012	0.164
-637.624	-200.000	0.043	-0.275
-636.609	219.901	-0.074	-0.120
-635.595	-81.447	0.244	0.082
-634.580	58.663	-0.280	0.281
-633.565	186.793	0.157	0.239
-632.551	-200.000	-0.001	-0.175
-631.536	-133.314	-0.298	0.038
-630.522	-119.515	0.190	-0.034
-629.507	185.958	-0.047	-0.072
-628.492	101.515	-0.029	-0.034
-627.478	-113.188	-0.233	0.047
-626.463	-66.561	0.280	0.113
-625.449	-71.699	0.244	-0.093
-624.434	50.087	-0.015	-0.015
-623.419	-200.000	0.047	0.408
-622.405	-21.636	-0.280	0.174
-621.390	187.668	0.129	0.196
-620.376	-72.016	0.093	0.035
-619.361	-62.435	-0.119	0.050
-618.346	-200.000	-0.257	-0.000
-617.332	-57.574	-0.132	-0.059
-616.317	-41.657	0.061	-0.032
-615.303	306.944	-0.094	-0.179
-614.288	156.709	-0.075	-0.106
-613.273	-119.319	-0.420	0.074
-612.259	87.800	0.126	0.142
-611.244	-200.000	0.065	-0.348
-610.230	106.793	-0.031	-0.037
-609.215	15.526	-0.352	-0.282
-608.201	-64.319	0.266	0.110
-607.186	22.517	0.111	0.093
-606.171	-200.000	0.214	0.001
-605.157	60.175	0.152	0.153
-604.142	-84.547	-0.184	-0.059
-603.128	715.791	0.054	-0.147
-602.113	5.858	-0.252	0.190
-601.098	755.680	-0.046	-0.126
-600.084	-36.972	0.336	0.183
-599.069	-68.652	0.147	-0.058
-598.055	134.135	-0.185	0.244
-597.040	256.374	0.029	-0.051
-596.025	133.070	0.128	-0.168
-595.011	367.094	-0.190	-0.390
-593.996	-77.065	-0.135	0.048
-592.982	-26.977	-0.267	-0.159
-591.967	-200.000	0.193	-0.001
-590.952	-18.729	-0.266	0.169
-589.938	85.301	-0.132	0.148
-588.923	-95.475	-0.349	-0.095
-587.909	39.651	0.050	-0.045
-586.894	800.000	0.050	0.168
-585.879	-200.000	-0.033	-0.172
-584.865	-200.000	-0.058	-0.286
-583.850	145.961	0.159	-0.217
-582.836	426.788	-0.188	-0.413
-581.821	27.333	-0.222	-0.190
-580.806	-200.000	0.020	0.281
-579.792	-22.586	-0.136	-0.084
-578.777	-200.000	0.061	-0.285
-577.763	-68.226	0.205	0.081
-576.748	708.815	-0.140	0.376
-575.733	-43.829	-0.148	0.076
-574.719	70.825	0.179	0.189
-573.704	-133.167	0.186	0.024
-572.690	19.664	-0.061	0.050
-571.675	64.184	0.075	-0.077
-570.661	-6.004	-0.335	0.233
-569.646	-41.718	0.487	0.254
-568.631	-200.000	-0.011	0.094
-567.617	-106.879	-0.190	0.043
-566.602	794.027	-0.112	0.314
-565.588	800.000	0.039	0.142
-564.573	268.937	-0.065	-0.115
-563.558	219.877	0.158	0.258
-562.544	-184.294	0.234	-0.004
-561.529	-107.913	-0.182	0.040
-560.515	-125.198	-0.212	0.033
-559.500	-125.192	-0.229	0.036
-558.485	-111.726	0.339	0.070
-557.471	800.000	0.031	-0.098
-556.456	-29.064	-0.154	0.090
-555.442	-13.885	0.183	0.121
-554.427	-93.677	-0.203	0.057
-553.412	21.351	-0.280	-0.231
-552.398	-100.396	-0.388	0.098
-551.383	-200.000	-0.021	0.369
-550.369	150.698	-0.284	-0.392
-549.354	-50.404	-0.229	0.110
-548.339	123.788	0.222	0.283
-547.325	-200.000	0.006	-0.210
-546.310	-200.000	0.011	0.085
-545.296	-120.908	0.377	0.065
-544.281	330.390	-0.129	-0.253
-543.266	87.432	-0.199	-0.224
-542.252	-88.558	-0.060	-0.018
-541.237	-200.000	-0.001	-0.013
-540.223	-143.944	-0.068	0.006
-539.208	-159.097	-0.128	0.007
-538.193	37.259	-0.259	0.233
-537.179	477.257	-0.118	-0.272
-536.164	-188.102	-0.324	-0.004
-535.150	168.103	0.143	-0.207
-534.135	-72.431	0.336	-0.126
-533.121	103.618	0.039	-0.047
-532.106	145.137	0.206	-0.280
-531.091	-200.000	-0.003	0.106
-530.077	-117.819	-0.149	-0.027
-529.062	86.686	0.232	-0.260
-528.048	540.540	0.049	0.117
-527.033	-17.593	0.074	-0.047
-526.018	94.586	-0.019	-0.022
-525.004	152.434	-0.159	-0.220
-523.989	-34.754	-0.150	0.083
-522.975	105.976	0.223	0.268
-521.960	140.351	-0.144	0.193
-520.945	-119.153	0.289	0.051
-519.931	-103.120	0.368	0.088
-518.916	54.925	0.134	-0.131
-517.902	-13.081	0.188	0.124
-516.887	-86.045	-0.201	0.063
-515.872	140.249	-0.173	0.231
-514.858	-116.377	0.426	-0.080
-513.843	-166.419	-0.261	0.011
-512.829	20.959	-0.058	-0.047
-511.814	-100.410	0.427	-0.107
-510.799	800.000	-0.099	-0.288
-509.785	99.089	-0.111	-0.131
-508.770	-200.000	-0.008	0.178
-507.756	311.337	0.090	0.171
-506.741	-137.674	-0.290	0.033
-505.726	199.655	-0.040	0.062
-504.712	-200.000	0.024	-0.318
-503.697	-99.546	-0.130	0.033
-502.683	-33.165	0.114	0.064
-501.668	148.652	0.139	-0.190
-500.653	96.948	0.272	0.316
-499.639	-200.000	0.034	0.214
-498.624	391.975	-0.100	0.210
-497.610	162.890	0.209	-0.298
-496.595	-125.678	0.100	-0.015
-495.581	-126.472	0.352	0.053
-494.566	800.000	0.026	0.114
-493.551	-134.692	-0.407	-0.050
-492.537	-40.444	0.221	-0.116
-491.522	-113.544	-0.108	0.021
-490.508	53.575	0.087	0.085
-489.493	-105.543	0.422	-0.097
-488.478	-200.000	0.034	-0.230
-487.464	-200.000	-0.011	0.165
-486.449	40.131	-0.097	-0.088
-485.435	800.000	-0.039	0.152
-484.420	800.000	0.030	0.116
-483.405	-144.734	0.236	-0.022
-482.391	321.279	-0.175	0.337
-481.376	800.000	0.097	0.288
-480.362	-117.916	0.314	0.057
-479.347	-200.000	-0.022	0.171
-478.332	438.671	-0.050	-0.110
-477.318	800.000	0.034	-0.101
-476.303	-74.408	-0.357	0.130
-475.289	-61.690	0.436	-0.185
-474.274	117.401	-0.130	0.162
-473.259	-200.000	-0.008	-0.045
-472.245	-55.261	-0.226	0.103
-471.230	717.878	0.065	-0.176
-470.216	-200.000	0.026	0.246
-469.201	-102.789	-0.074	0.018
-468.186	-5.578	-0.069	0.048
-467.172	-200.000	0.010	0.317
-466.157	133.903	-0.141	0.185
-465.143	-200.000	0.075	-0.582
-464.128	800.000	0.046	0.145
-463.113	-200.000	0.023	0.160
-462.099	800.000	-0.053	-0.209
-461.084	-0.559	0.096	-0.069
-460.070	800.000	0.148	0.523
-459.055	800.000	-0.047	0.136
-458.040	286.779	0.086	0.158
-457.026	-42.128	0.278	0.144
-456.011	-35.987	-0.162	-0.089
-454.997	-118.285	-0.133	-0.024
-453.982	91.689	-0.055	0.063
-452.968	-200.000	-0.009	0.332
-451.953	800.000	-0.083	-0.336
-450.938	86.385	0.218	-0.243
-449.924	166.622	0.229	-0.329
-448.909	-96.891	0.152	-0.040
-447.895	43.320	-0.218	-0.201
-446.880	800.000	0.081	-0.300
-445.865	194.905	-0.122	0.188
-444.851	-200.000	0.004	0.083
-443.836	-109.946	-0.136	-0.029
-442.822	-200.000	-0.004	-0.066
-441.807	-15.438	0.314	0.203
-440.792	-42.966	-0.083	0.042
-439.778	-200.000	0.029	0.326
-438.763	338.687	0.058	0.113
-437.749	10.778	0.065	0.050
-436.734	232.710	0.188	-0.313
-435.719	-81.625	0.261	0.087
-434.705	-166.275	0.217	-0.009
-433.690	9.885	-0.113	-0.087
-432.676	-112.958	-0.223	0.045
-431.661	-115.844	-0.187	-0.035
-430.646	-36.152	0.221	-0.121
-429.632	-9.169	-0.379	-0.256
-428.617	-200.000	-0.010	0.183
-427.603	382.336	-0.013	0.027
-426.588	-9.619	0.368	-0.248
-425.573	9.743	-0.290	-0.223
-424.559	-104.617	0.047	-0.011
-423.544	193.603	0.181	0.277
-422.530	282.913	0.199	0.362
-421.515	153.115	-0.156	0.216
-420.500	445.181	-0.088	-0.196
-419.486	-57.828	-0.244	-0.108
-418.471	-200.000	0.019	0.221
-417.457	6.629	-0.271	0.204
-416.442	428.121	-0.145	-0.315
-415.428	165.365	0.165	-0.235
-414.413	-200.000	-0.008	-0.172
-413.398	42.356	0.209	-0.192
-412.384	-1.228	0.129	0.092
-411.369	41.471	0.068	0.062
-410.355	163.755	0.150	-0.213
-409.340	71.663	-0.170	-0.178
-408.325	800.000	0.071	0.268
-407.311	-140.822	-0.310	0.032
-406.296	800.000	0.073	-0.244
-405.282	-200.000	-0.016	0.204
-404.267	-75.281	-0.253	-0.091
-403.252	-34.777	-0.098	-0.054
-402.238	84.294	0.197	-0.218
-401.223	-200.000	0.001	-0.058
-400.209	800.000	-0.061	0.216
-399.194	-200.000	0.013	-0.455
-398.179	-200.000	0.004	0.094
-397.165	683.028	0.094	0.247
-396.150	43.900	-0.116	0.108
-395.136	408.087	-0.037	-0.079
-394.121	-128.421	0.227	-0.033
-393.106	-100.707	-0.187	0.047
-392.092	-75.851	-0.141	0.050
-391.077	604.124	0.015	-0.039
-390.063	-200.000	0.009	-0.099
-389.048	-102.467	-0.047	-0.011
-388.033	-9.137	0.250	-0.169
-387.019	-200.000	-0.037	-0.379
-386.004	-43.122	0.258	-0.132
-384.990	-5.455	-0.213	0.147
-383.975	-48.810	0.122	-0.059
-382.960	-4.945	-0.213	-0.148
-381.946	106.196	0.021	-0.025
-380.931	-200.000	0.003	0.170
-379.917	-119.056	-0.172	0.030
-378.902	78.766	-0.179	-0.194
-377.888	476.921	-0.096	0.219
-376.873	-12.551	0.166	-0.109
-375.858	19.864	0.146	-0.119
-374.844	-88.468	0.313	0.094
-373.829	-200.000	-0.005	0.247
-372.815	-44.518	-0.302	0.153
-371.800	87.864	0.192	0.215
-370.785	-143.562	-0.312	0.030
-369.771	-200.000	0.007	0.407
-368.756	297.471	0.121	0.224
-367.742	191.024	0.077	0.117
-366.727	-99.407	-0.067	-0.017
-365.712	-110.555	-0.388	-0.081
-364.698	-46.428	-0.134	-0.066
-363.683	-200.000	0.004	0.073
-362.669	598.843	0.124	-0.311
-361.654	-200.000	-0.047	0.282
-360.639	-78.049	0.124	0.043
-359.625	-33.051	0.205	-0.115
-358.610	-113.819	0.034	-0.007
-357.596	-132.049	0.237	0.031
-356.581	-200.000	0.302	0.001
-355.566	800.000	-0.083	-0.249
-354.552	-45.239	-0.239	-0.120
-353.537	158.440	0.101	-0.141
-352.523	-106.156	0.120	-0.027
-351.508	463.129	-0.158	-0.356
-350.493	105.511	-0.147	-0.175
-349.479	-200.000	0.002	0.171
-348.464	452.641	0.089	0.200
-347.450	52.699	-0.120	0.116
-346.435	-200.000	0.029	-0.140
-345.420	266.197	0.089	-0.157
-344.406	-150.279	-0.070	-0.005
-343.391	-154.769	-0.099	0.007
-342.377	-200.000	-0.094	0.494
-341.362	197.437	-0.073	-0.112
-340.348	175.042	0.200	0.292
-339.333	-0.239	-0.223	-0.160
-338.318	-54.246	-0.174	-0.080
-337.304	-157.303	-0.159	-0.010
-336.289	71.812	-0.081	-0.085
-335.275	-119.603	0.076	-0.013
-334.260	-136.855	0.121	-0.014
-333.245	111.795	0.393	-0.477
-332.231	-32.545	0.332	-0.187
-331.216	667.137	0.056	0.147
-330.202	16.006	-0.175	0.139
-329.187	800.000	-0.027	-0.084
-328.172	-81.984	0.108	0.035
-327.158	-117.072	0.401	0.074
-326.143	-200.000	0.044	0.200
-325.129	-200.000	-0.003	0.393
-324.114	-47.626	0.156	0.076
-323.099	88.772	0.218	0.244
-322.085	-126.350	-0.190	-0.029
-321.070	-200.000	-0.020	-0.298
-320.056	-200.000	-0.007	0.244
-319.041	75.659	0.056	0.059
-318.026	-102.773	0.226	0.054
-317.012	32.614	-0.122	-0.106
-315.997	223.088	0.123	0.199
-314.983	79.100	0.102	-0.110
-313.968	-200.000	0.040	0.296
-312.953	-138.203	-0.334	0.037
-311.939	-106.947	-0.070	-0.016
-310.924	379.857	-0.026	0.053
-309.910	-104.251	-0.303	-0.071
-308.895	-200.000	-0.002	-0.061
-307.880	413.340	-0.055	-0.117
-306.866	-25.886	0.147	-0.087
-305.851	-200.000	-0.041	-0.300
-304.837	800.000	-0.067	0.247
-303.822	-51.539	-0.124	-0.058
-302.807	-85.411	-0.237	-0.074
-301.793	-131.084	-0.184	-0.025
-300.778	-90.687	-0.240	0.070
-299.764	-26.167	0.335	0.198
-298.749	-97.146	0.246	-0.065
-297.735	-200.000	-0.012	0.246
-296.720	181.562	-0.038	-0.057
-295.705	800.000	-0.053	0.198
-294.691	-200.000	-0.018	0.356
-293.676	264.418	-0.117	-0.205
-292.662	800.000	-0.040	-0.152
-291.647	-10.783	-0.058	0.039
-290.632	610.615	0.076	0.192
-289.618	102.301	0.331	0.389
-288.603	800.000	0.152	-0.439
-287.589	-76.113	0.327	-0.116
-286.574	-21.284	0.264	-0.162
-285.559	800.000	-0.058	0.162
-284.545	-96.587	-0.427	0.113
-283.530	-200.000	-0.009	-0.048
-282.516	16.096	0.072	0.057
-281.501	731.469	0.072	-0.193
-280.486	70.962	0.217	-0.226
-279.472	363.000	-0.238	0.481
-278.457	82.256	-0.143	-0.156
-277.443	-57.624	0.045	-0.020
-276.428	-144.448	-0.205	-0.019
-275.413	-200.000	-0.041	-0.213
-274.399	33.955	0.029	0.025
-273.384	9.246	0.230	-0.175
-272.370	-83.355	0.144	0.046
-271.355	-79.180	0.103	0.035
-270.340	-3.429	-0.234	-0.164
-269.326	236.645	0.142	-0.236
-268.311	350.687	-0.084	0.166
-267.297	59.933	0.101	0.100
-266.282	364.469	-0.143	0.289
-265.267	402.410	-0.094	-0.198
-264.253	-40.314	-0.293	0.153
-263.238	7.548	0.147	-0.110
-262.224	-200.000	-0.006	-0.072
-261.209	-99.938	-0.398	-0.100
-260.195	52.799	-0.165	-0.158
-259.180	224.619	-0.153	-0.249
-258.165	250.604	0.067	-0.114
-257.151	10.981	-0.226	-0.174
-256.136	-133.457	-0.256	-0.032
-255.122	75.003	0.028	0.029
-254.107	-200.000	-0.016	0.104
-253.092	42.775	0.347	-0.318
-252.078	150.429	-0.026	-0.035
-251.063	146.861	0.047	-0.063
-250.049	-95.400	-0.300	0.081
-249.034	10.127	-0.376	0.287
-248.019	476.089	-0.029	0.065
-247.005	753.208	-0.058	0.156
-245.990	-68.316	0.368	-0.143
-244.976	6.529	0.276	0.206
-243.961	-191.250	-0.139	0.001
-242.946	38.337	-0.074	-0.066
-241.932	270.673	0.071	0.125
-240.917	290.454	0.216	-0.394
-239.903	293.836	0.054	0.099
-238.888	-101.806	-0.282	-0.069
-237.873	-200.000	-0.044	-0.360
-236.859	38.601	0.160	-0.144
-235.844	142.841	-0.116	0.154
-234.830	-31.945	-0.228	0.128
-233.815	800.000	0.042	-0.136
-232.800	-200.000	-0.006	-0.093
-231.786	79.093	0.136	-0.147
-230.771	739.351	0.054	-0.147
-229.757	509.366	-0.075	-0.174
-228.742	-200.000	-0.032	0.207
-227.727	800.000	0.045	0.190
-226.713	-200.000	-0.007	-0.263
-225.698	800.000	-0.130	0.476
-224.684	-75.623	0.223	0.079
-223.669	-42.843	0.147	-0.075
-222.655	129.810	-0.119	-0.152
-221.640	602.606	-0.066	0.166
-220.625	353.497	0.209	-0.416
-219.611	128.487	-0.015	0.019
-218.596	-16.137	0.215	-0.137
-217.582	-76.743	-0.256	-0.090
-216.567	800.000	0.121	0.521
-215.552	-80.874	-0.113	0.038
-214.538	-32.605	0.110	-0.061
-213.523	236.072	-0.131	-0.217
-212.509	-200.000	-0.004	-0.344
-211.494	-53.793	-0.104	-0.048
-210.479	3.488	0.070	-0.051
-209.465	412.989	0.077	0.164
-208.450	44.844	-0.011	-0.010
-207.436	28.597	0.084	-0.072
-206.421	262.632	0.099	0.171
-205.406	86.503	-0.139	0.153
-204.392	108.915	0.087	-0.105
-203.377	-200.000	-0.107	0.541
-202.363	-108.531	0.176	0.038
-201.348	7.303	0.287	0.215
-200.333	107.184	-0.075	0.090
-199.319	-200.000	0.013	-0.304
-198.304	730.071	0.123	-0.329
-197.290	-5.118	-0.170	-0.117
-196.275	134.289	-0.105	0.136
-195.260	-92.139	0.250	-0.071
-194.246	-7.928	-0.046	-0.031
-193.231	-1.261	-0.127	0.090
-192.217	-30.910	-0.103	-0.058
-191.202	-147.594	0.170	0.014
-190.187	-200.000	0.026	-0.148
-189.173	-86.892	0.044	0.014
-188.158	-11.384	-0.176	0.116
-187.144	-7.196	0.347	0.236
-186.129	121.181	0.175	-0.219
-185.114	-29.364	0.217	0.125
-184.100	-108.113	-0.165	0.036
-183.085	7.864	-0.326	-0.244
-182.071	193.580	-0.052	-0.079
-181.056	-200.000	-0.047	-0.350
-180.042	170.001	0.084	-0.120
-179.027	593.928	-0.133	0.328
-178.012	91.502	-0.106	0.119
-176.998	-104.507	0.339	0.078
-175.983	-130.208	-0.156	-0.021
-174.969	-82.749	-0.303	-0.098
-173.954	-104.813	0.106	-0.024
-172.939	-71.834	-0.091	0.034
-171.925	250.006	0.064	0.108
-170.910	-79.803	0.475	0.160
-169.896	189.905	0.006	0.009
-168.881	-200.000	-0.006	0.076
-167.866	584.889	-0.084	0.207
-166.852	349.872	-0.062	-0.122
-165.837	-200.000	0.034	0.306
-164.823	-200.000	-0.008	-0.054
-163.808	-200.000	0.033	-0.160
-162.793	78.862	-0.262	-0.280
-161.779	800.000	-0.039	-0.137
-160.764	479.518	-0.097	-0.220
-159.750	382.549	-0.026	0.053
-158.735	-200.000	0.033	0.173
-157.720	312.394	0.133	0.250
-156.706	69.532	-0.143	0.148
-155.691	72.292	-0.218	-0.227
-154.677	453.653	-0.099	-0.220
-153.662	-200.000	-0.045	-0.359
-152.647	-22.649	0.238	0.144
-151.633	-54.559	0.246	0.111
-150.618	-200.000	-0.051	-0.232
-149.604	-200.000	0.024	-0.401
-148.589	13.068	0.090	-0.070
-147.574	-121.529	-0.177	0.029
-146.560	-86.553	-0.066	-0.020
-145.545	31.394	0.186	0.159
-144.531	-21.301	0.148	0.090
-143.516	-65.165	-0.259	-0.104
-142.502	71.954	-0.096	-0.100
-141.487	-125.824	-0.102	-0.015
-140.472	-36.093	-0.190	0.103
-139.458	16.239	0.019	-0.015
-138.443	22.139	-0.258	-0.210
-137.429	-187.135	0.288	0.004
-136.414	20.295	-0.150	-0.121
-135.399	800.000	0.018	-0.058
-134.385	586.540	0.095	0.233
-133.370	-66.360	-0.088	-0.035
-132.356	-200.000	0.011	0.063
-131.341	303.779	0.183	-0.339
-130.326	800.000	-0.049	-0.192
-129.312	800.000	-0.052	0.224
-128.297	-77.052	-0.321	0.112
-127.283	-9.318	0.107	-0.072
-126.268	421.953	0.105	-0.225
-125.253	3.338	0.167	0.121
-124.239	-31.647	-0.234	0.131
-123.224	800.000	0.074	0.236
-122.210	-18.762	-0.115	0.072
-121.195	64.715	-0.077	-0.078
