DTS Sentinel unit serial number:	SN413079Multiplexer serial number:	ORYXHardware model number:	OX4-SRSoftware version number:	ORYX F/W v4.00 Oryx Data Collector v3.7.2.0data status	okinstallation	princeton_trtdifferential loss correction	single-endedforward channel	channel 1reverse channel	N/Adate	2019/09/12time	06:36:11forward acquisition time	60.00reverse acquisition time	0.00gamma	496.2192k internal	0.2320k external	0.2320temperature offset calibration	1.0047default loss term (dB/km)	0.3790temperature slope calibration	1.0000multiplexer offset coefficient	1.0000multiplexer slope coefficient	1.0000fibre end	0.00T internal ref (°C)	32.14T ext. ref 1 (°C)	1.57T ext. ref 2 (°C)	27.21length (m)	temperature (°C)	Stokes	anti-Stokes-747.200	-200.000	0.004	-0.105
-746.185	116.532	-0.053	0.066
-745.171	-63.195	0.075	0.031
-744.156	185.433	0.219	0.329
-743.142	-132.249	0.090	0.012
-742.127	-76.847	-0.093	0.033
-741.112	716.578	0.056	0.149
-740.098	715.711	-0.059	0.157
-739.083	-41.981	-0.149	0.077
-738.069	248.729	-0.083	0.142
-737.054	-192.900	0.159	-0.001
-736.039	-73.622	-0.359	0.132
-735.025	21.279	0.098	-0.081
-734.010	-200.000	-0.027	-0.173
-732.996	-62.796	-0.339	0.142
-731.981	314.908	0.111	0.212
-730.966	-9.909	-0.084	-0.056
-729.952	-21.515	0.110	-0.068
-728.937	-200.000	-0.015	-0.368
-727.923	-200.000	-0.042	0.190
-726.908	-32.397	0.261	-0.147
-725.894	112.329	-0.176	-0.215
-724.879	800.000	-0.039	-0.111
-723.864	-200.000	-0.006	-0.058
-722.850	-50.491	0.114	0.054
-721.835	-71.252	0.232	-0.088
-720.821	-40.667	-0.152	0.080
-719.806	-5.966	-0.222	-0.154
-718.791	267.965	0.097	0.171
-717.777	-151.835	0.137	-0.010
-716.762	-51.162	-0.138	0.065
-715.748	210.092	0.207	0.329
-714.733	146.765	0.188	-0.255
-713.718	800.000	0.050	-0.153
-712.704	-165.212	-0.021	0.001
-711.689	800.000	-0.027	0.080
-710.675	-105.887	0.174	0.040
-709.660	1.444	0.287	0.208
-708.645	-200.000	0.007	-0.033
-707.631	158.679	0.162	-0.227
-706.616	-67.443	0.358	0.142
-705.602	-200.000	0.044	0.196
-704.587	446.533	-0.106	-0.235
-703.572	-200.000	0.012	-0.068
-702.558	750.691	-0.127	-0.346
-701.543	-200.000	0.009	0.095
-700.529	-144.698	-0.220	-0.020
-699.514	298.778	-0.085	-0.158
-698.499	198.023	0.131	-0.202
-697.485	-5.533	0.257	0.178
-696.470	-200.000	-0.027	-0.264
-695.456	271.844	0.129	0.229
-694.441	-153.721	-0.233	-0.016
-693.426	-200.000	0.096	-0.473
-692.412	-43.488	-0.144	0.073
-691.397	-19.336	0.189	0.118
-690.383	-200.000	0.007	-0.250
-689.368	399.527	-0.143	0.303
-688.354	654.935	-0.038	-0.099
-687.339	-200.000	0.031	0.143
-686.324	-65.887	-0.175	-0.071
-685.310	-93.388	-0.269	-0.075
-684.295	800.000	-0.035	0.099
-683.281	800.000	0.100	-0.360
-682.266	-200.000	-0.014	0.113
-681.251	37.441	0.260	-0.232
-680.237	76.476	0.244	-0.261
-679.222	-70.948	-0.153	0.058
-678.208	-82.415	-0.151	0.049
-677.193	78.206	0.069	-0.074
-676.178	-117.313	0.147	-0.027
-675.164	-200.000	-0.005	0.136
-674.149	-200.000	-0.016	-0.167
-673.135	-200.000	0.010	-0.292
-672.120	23.166	0.191	0.159
-671.105	239.384	-0.068	0.113
-670.091	163.723	0.041	-0.059
-669.076	72.199	-0.117	0.123
-668.062	128.492	0.313	0.402
-667.047	-85.973	-0.139	-0.043
-666.032	26.530	0.231	-0.195
-665.018	-68.360	0.175	0.069
-664.003	800.000	-0.028	0.120
-662.989	-85.921	-0.186	-0.058
-661.974	-114.092	0.353	-0.069
-660.959	109.374	-0.162	0.196
-659.945	-200.000	-0.011	0.102
-658.930	353.574	0.091	-0.183
-657.916	-23.479	0.152	0.092
-656.901	-200.000	-0.010	-0.152
-655.886	-200.000	-0.045	0.373
-654.872	-50.719	-0.226	0.107
-653.857	-18.199	-0.367	0.231
-652.843	338.719	0.104	-0.204
-651.828	-200.000	-0.014	0.235
-650.814	278.287	0.098	0.175
-649.799	79.972	-0.109	-0.118
-648.784	12.261	-0.219	0.170
-647.770	286.723	-0.079	0.144
-646.755	-200.000	0.017	-0.429
-645.741	-126.106	-0.405	-0.061
-644.726	164.064	-0.172	-0.244
-643.711	6.132	-0.390	-0.291
-642.697	800.000	-0.095	-0.297
-641.682	-10.244	0.163	-0.109
-640.668	-74.984	-0.287	0.104
-639.653	800.000	0.035	-0.143
-638.638	-13.262	0.250	0.163
-637.624	-200.000	-0.036	0.259
-636.609	59.467	0.151	0.150
-635.595	-187.044	0.179	-0.002
-634.580	-42.913	-0.165	0.084
-633.565	-5.714	-0.131	-0.090
-632.551	89.439	-0.143	-0.161
-631.536	-200.000	-0.024	0.147
-630.522	595.613	-0.081	-0.202
-629.507	-166.179	0.241	0.010
-628.492	-54.360	0.263	-0.120
-627.478	-31.952	0.141	-0.080
-626.463	-24.454	-0.184	0.110
-625.449	58.658	-0.156	-0.154
-624.434	-200.000	-0.006	-0.147
-623.419	-46.731	0.388	-0.191
-622.405	-200.000	-0.035	0.203
-621.390	-14.657	0.199	-0.129
-620.376	-114.629	0.145	0.028
-619.361	283.397	-0.030	0.055
-618.346	800.000	0.105	-0.360
-617.332	-93.457	-0.187	-0.052
-616.317	-37.774	-0.332	-0.178
-615.303	800.000	0.025	0.080
-614.288	800.000	-0.032	-0.125
-613.273	-1.476	-0.271	0.192
-612.259	-165.414	-0.291	-0.013
-611.244	118.797	-0.082	-0.103
-610.230	-150.285	-0.349	-0.027
-609.215	800.000	0.059	-0.204
-608.201	800.000	0.098	-0.278
-607.186	-91.842	0.713	-0.204
-606.171	477.712	0.112	-0.254
-605.157	-144.108	0.079	0.007
-604.142	-43.937	0.233	-0.118
-603.128	-23.627	-0.462	-0.278
-602.113	-48.591	0.140	-0.067
-601.098	-59.878	-0.189	-0.081
-600.084	800.000	-0.066	0.238
-599.069	382.627	-0.279	0.577
-598.055	-200.000	-0.015	-0.230
-597.040	800.000	0.042	0.177
-596.025	459.349	-0.111	0.248
-595.011	337.213	-0.083	-0.162
-593.996	-200.000	0.023	0.361
-592.982	-73.067	-0.424	-0.156
-591.967	678.439	-0.079	0.206
-590.952	-71.321	-0.279	0.105
-589.938	-141.756	0.105	-0.011
-588.923	800.000	0.079	-0.345
-587.909	90.904	0.096	-0.109
-586.894	136.395	-0.022	-0.029
-585.879	328.971	0.107	0.208
-584.865	800.000	-0.051	0.169
-583.850	-137.144	-0.227	0.026
-582.836	69.240	-0.207	-0.214
-581.821	-65.342	0.030	0.012
-580.806	-100.220	-0.276	-0.069
-579.792	-19.867	0.263	0.163
-578.777	-200.000	0.027	0.203
-577.763	1.302	0.227	0.164
-576.748	-38.291	-0.128	0.068
-575.733	121.769	0.060	0.075
-574.719	174.676	0.163	-0.237
-573.704	6.760	-0.254	0.190
-572.690	-200.000	-0.013	0.115
-571.675	477.816	-0.082	-0.187
-570.661	-30.210	0.394	-0.225
-569.646	-200.000	-0.014	-0.162
-568.631	189.671	0.165	-0.249
-567.617	201.764	-0.078	-0.120
-566.602	-200.000	-0.069	-0.376
-565.588	193.657	0.037	-0.057
-564.573	38.704	-0.364	0.326
-563.558	147.454	0.095	0.128
-562.544	-120.734	0.237	-0.040
-561.529	-200.000	0.003	0.114
-560.515	-65.405	0.054	0.022
-559.500	-200.000	0.012	0.177
-558.485	111.064	-0.220	0.266
-557.471	-138.938	0.293	0.032
-556.456	-99.956	0.170	-0.043
-555.442	-10.013	-0.202	-0.135
-554.427	36.472	-0.265	0.235
-553.412	-189.158	-0.267	-0.003
-552.398	-87.990	-0.060	-0.018
-551.383	25.059	0.216	0.180
-550.369	67.050	0.154	-0.157
-549.354	-200.000	-0.042	-0.326
-548.339	77.940	-0.231	-0.247
-547.325	800.000	0.044	-0.145
-546.310	-129.751	-0.298	-0.041
-545.296	111.928	-0.133	0.161
-544.281	-200.000	-0.032	0.298
-543.266	-78.827	0.411	0.141
-542.252	111.407	-0.408	0.494
-541.237	-137.875	0.081	0.009
-540.223	-19.695	0.237	-0.147
-539.208	650.768	0.053	0.135
-538.193	95.034	0.117	-0.133
-537.179	-153.809	0.046	-0.003
-536.164	38.850	-0.157	-0.141
-535.150	287.077	-0.210	-0.381
-534.135	-135.245	-0.579	0.070
-533.121	41.093	0.190	-0.172
-532.106	-74.001	-0.213	0.078
-531.091	-168.032	-0.400	-0.016
-530.077	171.200	-0.088	0.126
-529.062	-48.853	-0.159	-0.077
-528.048	-26.044	-0.243	0.143
-527.033	-140.883	0.424	-0.044
-526.018	175.275	-0.104	0.151
-525.004	-65.409	0.024	-0.010
-523.989	-146.967	-0.132	-0.011
-522.975	800.000	0.077	-0.294
-521.960	-135.442	-0.255	0.030
-520.945	-68.459	0.181	-0.070
-519.931	330.509	0.061	-0.118
-518.916	-200.000	0.061	-0.335
-517.902	-46.165	-0.060	0.030
-516.887	178.546	0.080	-0.118
-515.872	694.290	-0.142	-0.375
-514.858	468.217	-0.136	-0.305
-513.843	-200.000	-0.036	0.268
-512.829	-52.318	0.323	0.150
-511.814	800.000	0.160	-0.522
-510.799	684.108	0.076	-0.198
-509.785	257.887	-0.045	-0.077
-508.770	-152.620	-0.273	0.020
-507.756	-30.130	-0.123	0.070
-506.741	-200.000	-0.054	0.497
-505.726	-38.626	-0.183	0.097
-504.712	-146.439	0.106	-0.009
-503.697	800.000	0.151	-0.419
-502.683	-194.367	-0.322	-0.003
-501.668	-33.479	-0.334	-0.185
-500.653	11.690	0.228	-0.175
-499.639	-118.789	-0.169	0.030
-498.624	-200.000	-0.041	-0.196
-497.610	-35.287	-0.125	0.068
-496.595	171.166	0.093	-0.134
-495.581	-68.400	0.173	0.067
-494.566	-158.418	-0.275	0.016
-493.551	30.241	-0.125	0.107
-492.537	657.165	-0.033	-0.086
-491.522	-200.000	-0.040	0.196
-490.508	-115.542	0.234	-0.044
-489.493	-5.993	0.101	-0.069
-488.478	776.119	0.095	-0.258
-487.464	800.000	-0.083	-0.266
-486.449	-200.000	0.021	-0.124
-485.435	-200.000	-0.065	-0.420
-484.420	33.758	-0.102	0.089
-483.405	3.920	0.148	-0.109
-482.391	-200.000	-0.002	0.166
-481.376	-200.000	0.039	0.185
-480.362	-33.674	0.018	0.010
-479.347	249.489	-0.117	0.199
-478.332	-200.000	-0.045	-0.230
-477.318	119.345	-0.133	0.164
-476.303	36.462	-0.224	-0.197
-475.289	623.119	0.085	-0.214
-474.274	-38.855	0.263	-0.139
-473.259	320.867	-0.034	-0.065
-472.245	-88.703	0.144	0.043
-471.230	225.000	-0.142	0.229
-470.216	183.078	-0.079	-0.116
-469.201	-18.624	0.337	0.210
-468.186	800.000	0.078	0.242
-467.172	83.968	-0.213	0.233
-466.157	174.004	0.054	-0.078
-465.143	-143.605	0.184	-0.017
-464.128	-57.796	0.086	0.037
-463.113	148.850	0.202	-0.274
-462.099	433.039	0.130	-0.283
-461.084	-6.955	-0.150	-0.102
-460.070	-22.841	0.138	-0.083
-459.055	-200.000	-0.016	-0.182
-458.040	-60.105	-0.309	0.132
-457.026	800.000	-0.065	-0.253
-456.011	1.397	-0.215	-0.154
-454.997	-97.359	0.273	0.071
-453.982	-103.769	0.209	-0.049
-452.968	-200.000	-0.026	-0.171
-451.953	97.950	0.089	-0.103
-450.938	-103.067	0.113	-0.027
-449.924	-115.829	-0.076	-0.014
-448.909	130.247	-0.171	-0.219
-447.895	179.616	-0.064	-0.093
-446.880	18.252	-0.273	0.218
-445.865	256.342	-0.133	-0.228
-444.851	-98.208	0.250	0.064
-443.836	-33.597	-0.067	-0.037
-442.822	-136.066	-0.117	-0.014
-441.807	456.716	0.132	0.293
-440.792	800.000	0.084	0.279
-439.778	-97.375	0.233	-0.061
-438.763	219.938	-0.082	-0.131
-437.749	-125.141	0.399	-0.061
-436.734	533.099	-0.169	0.400
-435.719	-58.936	-0.309	0.133
-434.705	-144.377	0.199	0.018
-433.690	-48.914	0.102	-0.049
-432.676	130.553	0.015	-0.019
-431.661	590.769	-0.054	0.134
-430.646	-66.200	-0.137	0.055
-429.632	585.368	-0.055	-0.135
-428.617	-93.349	-0.209	-0.058
-427.603	-200.000	-0.004	0.045
-426.588	248.528	-0.021	-0.036
-425.573	-91.864	-0.219	-0.062
-424.559	-200.000	-0.015	0.153
-423.544	-58.908	-0.100	-0.043
-422.530	572.649	-0.080	-0.194
-421.515	56.596	0.018	-0.018
-420.500	18.809	-0.175	-0.140
-419.486	107.047	0.087	-0.104
-418.471	133.858	-0.057	0.073
-417.457	-200.000	0.038	0.180
-416.442	-81.270	-0.211	-0.070
-415.428	-173.739	-0.132	0.004
-414.413	22.604	0.230	-0.188
-413.398	-127.070	-0.128	-0.019
-412.384	-99.545	0.319	-0.080
-411.369	-200.000	-0.014	0.073
-410.355	54.894	0.173	-0.167
-409.340	4.280	0.087	0.064
-408.325	36.171	-0.103	0.090
-407.311	150.768	0.099	-0.135
-406.296	800.000	-0.080	0.287
-405.282	512.175	0.150	0.348
-404.267	90.972	0.193	-0.215
-403.252	131.504	0.207	0.266
-402.238	-200.000	-0.017	-0.291
-401.223	-164.682	0.133	-0.006
-400.209	-34.608	-0.149	-0.082
-399.194	31.646	0.070	-0.060
-398.179	-200.000	0.079	0.395
-397.165	-96.904	0.408	-0.107
-396.150	77.636	0.063	-0.067
-395.136	-200.000	-0.006	0.037
-394.121	-200.000	-0.005	0.045
-393.106	-32.440	0.112	-0.062
-392.092	-77.449	-0.206	-0.071
-391.077	424.598	0.112	0.241
-390.063	-52.293	-0.069	0.032
-389.048	231.898	0.118	-0.194
-388.033	-104.502	-0.241	0.056
-387.019	469.930	-0.101	-0.227
-386.004	0.494	0.179	-0.128
-384.990	-155.088	-0.119	-0.008
-383.975	106.364	0.116	0.137
-382.960	99.656	0.279	-0.323
-381.946	385.768	-0.100	0.206
-380.931	-200.000	-0.052	-0.291
-379.917	-29.914	0.107	-0.061
-378.902	-88.784	-0.173	-0.051
-377.888	-146.622	0.214	-0.019
-376.873	166.284	0.117	0.165
-375.858	800.000	0.061	0.193
-374.844	475.398	0.085	0.191
-373.829	800.000	-0.038	0.160
-372.815	292.331	-0.096	-0.175
-371.800	-52.751	-0.105	-0.048
-370.785	-53.764	0.151	0.069
-369.771	-124.272	0.200	-0.031
-368.756	167.914	0.131	-0.186
-367.742	-115.028	-0.093	0.018
-366.727	716.199	-0.126	0.332
-365.712	-1.665	0.319	0.224
-364.698	6.873	-0.065	-0.048
-363.683	-118.810	0.196	-0.034
-362.669	-46.093	-0.129	-0.063
-361.654	239.397	-0.094	-0.155
-360.639	146.469	0.113	0.151
-359.625	148.356	0.091	-0.123
-358.610	-26.585	0.083	-0.048
-357.596	-9.016	0.066	0.044
-356.581	-200.000	-0.006	0.192
-355.566	655.653	-0.063	0.162
-354.552	-89.569	-0.062	-0.018
-353.537	589.989	-0.120	0.295
-352.523	-110.949	0.134	0.027
-351.508	452.057	0.183	0.404
-350.493	-126.766	0.332	-0.049
-349.479	60.219	0.180	-0.178
-348.464	44.621	-0.039	0.036
-347.450	32.435	0.175	0.151
-346.435	-22.761	-0.178	-0.107
-345.420	-14.685	-0.472	0.302
-344.406	-38.538	-0.269	0.142
-343.391	-26.272	0.143	0.083
-342.377	224.720	-0.298	0.480
-341.362	-0.949	-0.147	0.104
-340.348	-8.037	-0.298	0.200
-339.333	-85.097	0.400	0.125
-338.318	-16.219	0.335	0.212
-337.304	136.405	0.074	-0.097
-336.289	-192.541	0.248	0.002
-335.275	-200.000	0.041	-0.183
-334.260	-200.000	-0.008	-0.322
-333.245	1.481	0.181	-0.130
-332.231	24.021	0.244	0.200
-331.216	-200.000	0.004	-0.059
-330.202	-44.608	-0.290	0.144
-329.187	92.376	-0.045	-0.051
-328.172	214.138	0.080	0.127
-327.158	-190.847	0.477	-0.005
-326.143	84.004	0.257	0.279
-325.129	114.831	-0.086	-0.104
-324.114	8.024	-0.271	-0.202
-323.099	-61.932	0.334	-0.139
-322.085	16.905	0.202	0.159
-321.070	218.733	0.002	-0.004
-320.056	188.567	-0.231	-0.344
-319.041	800.000	0.046	-0.138
-318.026	266.651	0.102	-0.177
-317.012	-110.295	-0.183	-0.038
-315.997	101.839	0.135	0.156
-314.983	800.000	0.024	0.081
-313.968	-155.672	-0.271	0.017
-312.953	-91.602	0.254	0.072
-311.939	-200.000	-0.001	0.124
-310.924	-71.241	-0.043	0.016
-309.910	-35.578	0.210	-0.113
-308.895	-27.259	0.507	-0.294
-307.880	-120.908	-0.223	0.037
-306.866	-1.657	0.312	0.218
-305.851	364.829	-0.209	-0.418
-304.837	481.868	0.076	-0.171
-303.822	178.190	0.074	-0.107
-302.807	-200.000	-0.030	0.157
-301.793	800.000	-0.069	0.271
-300.778	51.905	0.070	-0.066
-299.764	-63.463	-0.085	0.035
-298.749	-114.147	0.060	0.012
-297.735	95.480	0.241	0.273
-296.720	138.067	-0.113	-0.147
-295.705	-200.000	-0.082	0.429
-294.691	117.818	0.169	0.207
-293.676	141.107	-0.083	-0.110
-292.662	123.214	-0.305	0.380
-291.647	-200.000	-0.043	0.296
-290.632	3.150	-0.076	-0.055
-289.618	508.125	0.038	0.088
-288.603	157.518	-0.018	0.025
-287.589	103.922	-0.098	0.114
-286.574	800.000	0.116	-0.366
-285.559	-141.173	0.354	-0.036
-284.545	67.159	0.095	0.096
-283.530	-200.000	-0.087	0.635
-282.516	-125.618	0.410	0.062
-281.501	-17.897	-0.197	0.123
-280.486	-81.821	0.049	-0.016
-279.472	-200.000	0.083	0.388
-278.457	-200.000	0.009	0.076
-277.443	800.000	0.049	0.143
-276.428	69.134	0.253	-0.259
-275.413	50.494	0.065	0.061
-274.399	150.760	0.236	0.319
-273.384	-200.000	-0.015	0.314
-272.370	41.276	-0.262	0.235
-271.355	63.220	-0.131	-0.130
-270.340	-200.000	0.052	0.247
-269.326	800.000	0.052	-0.148
-268.311	-200.000	0.018	0.127
-267.297	-120.126	-0.249	-0.042
-266.282	89.855	0.323	0.358
-265.267	-77.748	-0.471	0.162
-264.253	800.000	-0.039	0.132
-263.238	518.542	0.103	0.239
-262.224	192.432	0.237	-0.355
-261.209	-200.000	-0.002	-0.070
-260.195	-7.565	-0.303	-0.203
-259.180	-36.650	0.120	-0.064
-258.165	634.155	-0.035	0.087
-257.151	-105.318	-0.313	0.071
-256.136	800.000	-0.047	0.130
-255.122	132.024	0.213	0.272
-254.107	-165.197	0.092	0.004
-253.092	212.090	0.109	0.170
-252.078	-95.325	-0.135	0.036
-251.063	-200.000	0.000	-0.065
-250.049	-37.448	0.165	0.087
-249.034	-200.000	0.025	-0.306
-248.019	69.870	-0.052	-0.053
-247.005	705.582	0.162	0.425
-245.990	-199.976	-0.053	-0.000
-244.976	-200.000	-0.014	-0.203
-243.961	-200.000	0.027	-0.181
-242.946	11.410	-0.038	0.029
-241.932	380.314	-0.193	-0.392
-240.917	411.017	0.065	-0.137
-239.903	800.000	-0.073	0.248
-238.888	-146.671	0.044	-0.004
-237.873	-109.645	0.246	-0.051
-236.859	800.000	0.057	-0.203
-235.844	-48.642	0.203	-0.097
-234.830	-70.209	0.147	-0.055
-233.815	-79.570	-0.133	-0.044
-232.800	-200.000	0.003	-0.180
-231.786	800.000	-0.112	0.332
-230.771	-155.776	0.172	0.011
-229.757	32.143	-0.340	-0.291
-228.742	295.949	-0.195	-0.353
-227.727	800.000	0.094	0.324
-226.713	-51.182	0.152	0.071
-225.698	-200.000	0.026	-0.133
-224.684	9.854	-0.247	0.186
-223.669	-167.991	0.192	0.007
-222.655	-68.638	0.157	0.060
-221.640	-200.000	0.068	-0.413
-220.625	800.000	-0.024	0.082
-219.611	-114.995	0.169	-0.032
-218.596	800.000	0.078	-0.215
-217.582	-200.000	-0.010	-0.126
-216.567	-200.000	0.032	0.389
-215.552	-200.000	0.026	-0.287
-214.538	-200.000	-0.001	0.090
-213.523	-112.152	0.197	-0.039
-212.509	23.909	0.226	-0.185
-211.494	-116.710	-0.249	0.045
-210.479	-99.039	-0.182	0.046
-209.465	800.000	0.101	0.323
-208.450	-44.293	-0.422	0.209
-207.436	-159.191	0.450	0.025
-206.421	264.268	-0.124	-0.213
-205.406	-88.009	0.337	-0.100
-204.392	-200.000	-0.034	-0.428
-203.377	-200.000	-0.020	-0.519
-202.363	-80.048	0.266	0.088
-201.348	232.715	0.061	0.099
-200.333	-128.294	0.177	0.025
-199.319	-154.126	0.266	0.018
-198.304	-184.013	-0.139	0.002
-197.290	-157.445	-0.153	0.009
-196.275	-164.394	0.113	0.005
-195.260	800.000	0.040	0.136
-194.246	442.385	-0.110	-0.239
-193.231	-200.000	-0.036	-0.240
-192.217	14.273	-0.107	0.082
-191.202	800.000	-0.037	-0.105
-190.187	-200.000	-0.007	-0.067
-189.173	552.746	0.063	0.149
-188.158	-39.027	-0.266	-0.138
-187.144	-31.465	0.260	-0.145
-186.129	-200.000	0.026	0.246
-185.114	-175.269	-0.119	-0.003
-184.100	409.429	-0.233	0.487
-183.085	-108.307	-0.238	0.051
-182.071	-200.000	0.021	0.107
-181.056	-71.300	-0.517	0.192
-180.042	144.661	-0.274	0.362
-179.027	-60.169	0.245	0.103
-178.012	50.969	-0.284	-0.266
-176.998	800.000	0.057	0.175
-175.983	-79.948	-0.239	-0.079
-174.969	50.833	0.166	-0.155
-173.954	-200.000	-0.012	0.222
-172.939	499.079	-0.056	0.128
-171.925	-200.000	-0.008	-0.089
-170.910	800.000	0.058	0.203
-169.896	142.049	0.134	-0.175
-168.881	201.707	0.190	0.290
-167.866	800.000	-0.109	-0.304
-166.852	-200.000	0.027	-0.297
-165.837	-200.000	-0.005	-0.210
-164.823	-116.598	-0.359	0.065
-163.808	747.428	0.043	-0.113
-162.793	-200.000	0.058	0.353
-161.779	800.000	0.132	0.365
-160.764	73.184	-0.342	0.354
-159.750	-90.844	-0.256	0.073
-158.735	292.966	0.236	0.426
-157.720	6.114	0.149	-0.109
-156.706	115.835	-0.124	0.150
-155.691	412.350	0.190	0.399
-154.677	-40.537	0.157	-0.081
-153.662	94.689	0.173	0.195
-152.647	140.669	0.179	-0.233
-151.633	305.737	-0.160	-0.294
-150.618	800.000	0.077	-0.266
-149.604	22.250	0.184	0.149
-148.589	171.193	0.069	0.098
-147.574	2.301	-0.046	0.033
-146.560	800.000	-0.093	0.306
-145.545	-93.467	0.218	-0.060
-144.531	707.594	-0.103	-0.269
-143.516	-200.000	0.001	0.215
-142.502	41.701	0.122	-0.109
-141.487	136.509	-0.274	-0.353
-140.472	-65.548	-0.115	-0.046
-139.458	-200.000	0.015	0.204
-138.443	-121.876	0.215	0.035
-137.429	-59.262	0.170	0.072
-136.414	-38.822	0.257	0.134
-135.399	-175.247	0.079	0.002
-134.385	180.629	0.113	-0.164
-133.370	-173.889	0.491	-0.014
-132.356	800.000	0.074	0.213
-131.341	-200.000	0.006	-0.060
-130.326	-171.935	-0.151	-0.005
-129.312	-12.303	0.351	-0.227
-128.297	-14.110	-0.252	-0.160
-127.283	-2.013	-0.145	0.101
-126.268	13.919	-0.024	0.018
-125.253	-94.825	0.297	0.079
-124.239	432.687	-0.057	-0.122
-123.224	136.783	-0.238	-0.307
-122.210	69.376	-0.160	-0.163
