DTS Sentinel unit serial number:	SN413079Multiplexer serial number:	ORYXHardware model number:	OX4-SRSoftware version number:	ORYX F/W v4.00 Oryx Data Collector v3.7.2.0data status	okinstallation	princeton_trtdifferential loss correction	single-endedforward channel	channel 1reverse channel	N/Adate	2019/09/18time	16:18:35forward acquisition time	60.00reverse acquisition time	0.00gamma	496.2192k internal	0.2293k external	0.2293temperature offset calibration	0.9996default loss term (dB/km)	0.3790temperature slope calibration	1.0000multiplexer offset coefficient	1.0000multiplexer slope coefficient	1.0000fibre end	0.00T internal ref (°C)	38.61T ext. ref 1 (°C)	0.80T ext. ref 2 (°C)	35.78length (m)	temperature (°C)	Stokes	anti-Stokes-747.200	32.504	0.277	-0.245
-746.185	133.123	-0.185	-0.244
-745.171	182.004	-0.168	0.252
-744.156	182.414	-0.132	0.200
-743.142	-123.499	-0.110	-0.018
-742.127	800.000	0.038	0.143
-741.112	567.624	-0.115	0.285
-740.098	310.527	-0.151	0.289
-739.083	-80.242	-0.115	-0.039
-738.069	-200.000	0.013	0.150
-737.054	-138.517	-0.071	0.008
-736.039	-200.000	-0.006	-0.085
-735.025	111.528	-0.079	0.098
-734.010	-200.000	0.024	-0.236
-732.996	-21.297	-0.154	-0.096
-731.981	385.288	-0.119	0.250
-730.966	800.000	-0.066	-0.190
-729.952	-102.245	-0.105	-0.026
-728.937	-179.084	-0.336	-0.008
-727.923	-22.777	-0.388	-0.239
-726.908	-88.293	-0.113	0.035
-725.894	-200.000	-0.005	0.201
-724.879	612.750	-0.034	-0.087
-723.864	-200.000	-0.055	-0.330
-722.850	-21.594	-0.321	-0.200
-721.835	-23.893	0.350	-0.214
-720.821	-180.982	-0.246	0.005
-719.806	69.299	0.146	-0.154
-718.791	433.378	0.157	-0.347
-717.777	218.413	0.043	-0.069
-716.762	-200.000	-0.001	0.277
-715.748	-39.063	-0.135	0.073
-714.733	-0.093	0.339	-0.246
-713.718	98.767	0.182	0.214
-712.704	175.380	0.131	-0.194
-711.689	49.599	-0.154	0.148
-710.675	-158.067	0.393	-0.024
-709.660	207.349	-0.133	0.212
-708.645	-95.867	-0.083	0.023
-707.631	-55.357	0.413	-0.189
-706.616	38.302	0.206	-0.188
-705.602	16.774	-0.255	0.206
-704.587	-12.971	0.150	0.100
-703.572	98.055	0.065	0.077
-702.558	-85.620	0.154	-0.049
-701.543	-50.689	0.219	0.106
-700.529	689.540	0.070	0.186
-699.514	79.613	0.096	0.105
-698.499	-78.771	-0.035	-0.012
-697.485	-130.718	-0.235	0.032
-696.470	-1.542	-0.090	0.065
-695.456	53.687	-0.040	-0.039
-694.441	-117.137	-0.280	-0.052
-693.426	-172.621	-0.081	0.003
-692.412	-14.281	0.185	-0.122
-691.397	-134.670	0.088	0.011
-690.383	362.987	0.061	-0.125
-689.368	100.938	0.061	0.073
-688.354	427.252	-0.102	-0.224
-687.339	-73.191	-0.097	-0.036
-686.324	-63.165	0.117	0.049
-685.310	262.685	-0.149	-0.264
-684.295	52.211	-0.267	-0.260
-683.281	-200.000	-0.025	-0.438
-682.266	-200.000	0.024	-0.448
-681.251	281.631	0.103	0.189
-680.237	-200.000	-0.064	0.366
-679.222	800.000	-0.048	0.143
-678.208	-28.515	-0.259	-0.152
-677.193	800.000	-0.116	-0.335
-676.178	455.489	-0.021	0.047
-675.164	-106.173	0.304	-0.070
-674.149	-36.669	-0.173	-0.095
-673.135	526.442	-0.094	-0.225
-672.120	192.494	0.133	0.205
-671.105	172.410	0.023	0.033
-670.091	-40.415	0.215	0.114
-669.076	35.941	-0.273	0.245
-668.062	772.933	-0.036	-0.100
-667.047	84.854	-0.210	-0.235
-666.032	-59.991	-0.277	0.121
-665.018	751.010	0.052	-0.144
-664.003	209.323	-0.142	-0.226
-662.989	-200.000	0.040	0.193
-661.974	37.278	-0.200	-0.181
-660.959	108.347	-0.118	-0.144
-659.945	-143.236	0.168	0.016
-658.930	200.394	0.036	0.056
-657.916	-200.000	0.003	-0.056
-656.901	-21.154	-0.060	-0.037
-655.886	-39.252	0.128	0.068
-654.872	71.868	-0.319	0.339
-653.857	119.782	0.077	0.097
-652.843	-109.161	0.021	0.005
-651.828	-12.751	-0.071	-0.047
-650.814	-200.000	0.055	0.298
-649.799	-98.608	0.272	-0.071
-648.784	-84.207	0.313	-0.101
-647.770	-200.000	-0.022	-0.387
-646.755	-107.283	-0.229	-0.051
-645.741	800.000	0.038	0.142
-644.726	8.199	0.061	-0.047
-643.711	235.244	-0.193	-0.325
-642.697	257.321	0.122	-0.214
-641.682	142.275	0.145	0.197
-640.668	-80.020	-0.020	-0.007
-639.653	-149.864	-0.084	0.007
-638.638	-38.288	0.252	0.136
-637.624	16.234	-0.181	-0.145
-636.609	-140.661	0.395	0.042
-635.595	-200.000	0.007	0.197
-634.580	15.193	0.027	0.022
-633.565	-200.000	0.030	0.337
-632.551	110.644	0.231	0.283
-631.536	-200.000	-0.067	-0.302
-630.522	-147.781	-0.109	0.009
-629.507	-113.955	0.328	0.065
-628.492	235.279	-0.244	-0.410
-627.478	124.269	-0.140	-0.179
-626.463	262.521	0.120	-0.212
-625.449	-200.000	-0.022	-0.154
-624.434	125.379	-0.100	-0.129
-623.419	-142.329	-0.210	-0.021
-622.405	259.763	-0.099	-0.174
-621.390	-129.107	0.240	-0.034
-620.376	33.055	-0.154	0.136
-619.361	-200.000	0.045	-0.428
-618.346	-200.000	-0.009	0.121
-617.332	-106.692	-0.369	0.083
-616.317	45.148	-0.227	0.213
-615.303	69.446	-0.028	-0.029
-614.288	-200.000	0.056	-0.261
-613.273	-77.490	-0.357	-0.126
-612.259	-52.276	0.100	0.047
-611.244	228.911	0.134	0.222
-610.230	-200.000	-0.024	-0.123
-609.215	173.762	0.066	-0.097
-608.201	213.043	0.043	0.069
-607.186	-200.000	0.016	0.301
-606.171	-133.675	0.085	-0.011
-605.157	63.602	0.116	-0.118
-604.142	-65.461	0.276	0.113
-603.128	-155.522	-0.192	-0.013
-602.113	-36.045	0.362	-0.199
-601.098	451.169	-0.050	0.112
-600.084	-161.430	0.449	0.024
-599.069	-147.120	0.207	-0.018
-598.055	435.542	-0.096	0.212
-597.040	361.722	0.059	0.121
-596.025	-2.114	-0.253	-0.181
-595.011	-16.128	-0.234	-0.152
-593.996	55.725	-0.244	-0.240
-592.982	102.616	-0.075	-0.089
-591.967	-50.358	0.275	0.132
-590.952	342.692	0.066	0.131
-589.938	-189.865	0.189	0.002
-588.923	-38.922	-0.222	-0.119
-587.909	95.599	-0.099	0.115
-586.894	-200.000	0.002	0.089
-585.879	-68.151	0.159	0.063
-584.865	147.618	-0.363	0.497
-583.850	-200.000	-0.001	0.453
-582.836	-51.745	0.234	0.111
-581.821	800.000	0.054	0.158
-580.806	800.000	0.041	-0.150
-579.792	-200.000	0.073	0.335
-578.777	235.807	-0.076	-0.127
-577.763	-65.799	0.324	-0.132
-576.748	0.816	-0.084	0.061
-575.733	71.877	-0.161	0.170
-574.719	-200.000	-0.037	-0.169
-573.704	800.000	-0.088	-0.279
-572.690	-38.892	0.200	-0.107
-571.675	800.000	-0.054	0.185
-570.661	800.000	-0.050	-0.195
-569.646	-181.792	0.096	0.002
-568.631	31.919	-0.023	-0.020
-567.617	-200.000	-0.055	-0.438
-566.602	-38.926	-0.196	-0.105
-565.588	-187.290	-0.133	-0.002
-564.573	-3.693	-0.295	0.208
-563.558	179.613	-0.152	0.226
-562.544	-200.000	-0.180	0.001
-561.529	-200.000	0.027	0.204
-560.515	-41.048	-0.152	-0.080
-559.500	483.852	-0.081	0.188
-558.485	-196.105	0.145	-0.001
-557.471	367.298	0.124	-0.255
-556.456	-55.954	-0.140	-0.063
-555.442	-112.562	0.247	0.050
-554.427	94.748	-0.219	-0.253
-553.412	-68.832	-0.082	0.032
-552.398	800.000	-0.014	-0.044
-551.383	155.433	-0.336	0.470
-550.369	-200.000	0.057	0.263
-549.354	27.941	0.124	0.106
-548.339	-99.625	-0.389	0.099
-547.325	277.236	-0.090	0.163
-546.310	-37.724	-0.188	-0.102
-545.296	49.411	-0.346	0.330
-544.281	-200.000	0.034	0.188
-543.266	-143.642	-0.253	-0.024
-542.252	800.000	-0.060	-0.246
-541.237	416.347	-0.095	-0.206
-540.223	127.053	-0.173	0.222
-539.208	129.320	-0.252	-0.326
-538.193	17.903	0.173	-0.140
-537.179	245.540	-0.042	0.072
-536.164	304.658	-0.095	0.179
-535.150	-200.000	0.023	0.163
-534.135	203.664	0.045	-0.071
-533.121	-185.039	0.192	0.003
-532.106	628.483	-0.194	0.497
-531.091	-132.405	-0.368	0.048
-530.077	209.243	-0.293	-0.466
-529.062	-150.798	-0.186	0.014
-528.048	265.329	0.132	-0.233
-527.033	-138.877	-0.230	0.025
-526.018	613.178	-0.081	0.206
-525.004	-140.485	-0.152	-0.016
-523.989	-124.319	0.122	-0.019
-522.975	384.547	0.020	0.041
-521.960	800.000	-0.036	-0.126
-520.945	113.297	-0.156	0.192
-519.931	-30.576	0.359	-0.206
-518.916	-69.570	-0.152	-0.059
-517.902	118.695	0.046	0.058
-516.887	-60.730	-0.115	0.049
-515.872	36.976	-0.104	0.093
-514.858	800.000	0.051	-0.189
-513.843	38.577	-0.294	0.266
-512.829	24.925	0.172	0.145
-511.814	-111.154	0.053	-0.011
-510.799	-57.650	0.145	0.065
-509.785	-161.906	-0.125	0.006
-508.770	244.552	0.086	0.147
-507.756	285.420	-0.046	-0.083
-506.741	800.000	0.088	0.263
-505.726	-200.000	0.026	0.220
-504.712	-125.705	0.098	0.015
-503.697	800.000	-0.089	0.254
-502.683	230.028	-0.035	-0.059
-501.668	79.649	-0.243	0.264
-500.653	-91.718	0.340	0.098
-499.639	-200.000	0.003	0.094
-498.624	346.667	-0.151	-0.301
-497.610	45.134	-0.106	-0.099
-496.595	-6.742	0.055	0.038
-495.581	-144.033	0.236	0.022
-494.566	-200.000	0.012	-0.234
-493.551	-46.641	0.126	0.062
-492.537	-200.000	-0.003	0.110
-491.522	-104.560	-0.276	0.065
-490.508	71.396	0.130	0.137
-489.493	258.660	-0.097	-0.169
-488.478	197.622	-0.201	0.311
-487.464	-200.000	-0.018	-0.296
-486.449	48.085	-0.196	0.186
-485.435	800.000	-0.089	0.342
-484.420	-36.889	0.115	0.062
-483.405	800.000	-0.103	-0.363
-482.391	-200.000	-0.005	-0.081
-481.376	91.205	0.079	-0.090
-480.362	-50.928	-0.260	-0.124
-479.347	185.489	0.207	0.312
-478.332	-92.509	0.231	-0.066
-477.318	38.741	0.139	0.126
-476.303	295.139	0.035	-0.064
-475.289	-200.000	-0.030	-0.282
-474.274	355.164	0.146	-0.294
-473.259	-59.150	0.178	-0.078
-472.245	589.459	-0.084	0.210
-471.230	96.134	-0.150	0.174
-470.216	-200.000	-0.018	-0.157
-469.201	57.932	0.048	0.048
-468.186	133.476	0.111	-0.145
-467.172	164.503	0.058	-0.083
-466.157	186.775	0.050	0.076
-465.143	-95.409	0.161	-0.044
-464.128	-200.000	0.048	-0.265
-463.113	223.788	-0.046	0.075
-462.099	-72.233	0.004	0.002
-461.084	448.185	0.080	0.178
-460.070	-10.344	-0.051	0.035
-459.055	168.338	-0.120	-0.172
-458.040	63.031	-0.086	-0.088
-457.026	-200.000	0.004	-0.327
-456.011	-102.688	0.161	-0.039
-454.997	-200.000	0.025	-0.568
-453.982	-137.995	0.119	-0.013
-452.968	189.569	-0.080	0.122
-451.953	-200.000	-0.024	0.471
-450.938	377.053	0.065	0.134
-449.924	33.098	-0.095	0.084
-448.909	749.897	-0.059	0.160
-447.895	-200.000	0.048	-0.390
-446.880	-152.195	0.249	-0.018
-445.865	-89.932	0.292	0.086
-444.851	258.298	0.220	0.383
-443.836	114.979	0.100	-0.123
-442.822	37.476	0.314	0.281
-441.807	-135.485	0.151	-0.018
-440.792	71.927	-0.140	-0.147
-439.778	8.892	-0.078	0.059
-438.763	66.825	0.162	-0.166
-437.749	-113.605	-0.260	0.051
-436.734	-45.940	0.314	-0.157
-435.719	244.124	-0.058	-0.098
-434.705	71.492	0.278	-0.292
-433.690	147.952	0.188	-0.256
-432.676	-7.870	0.285	-0.194
-431.661	3.482	0.325	0.239
-430.646	44.288	-0.035	0.032
-429.632	-200.000	-0.084	-0.381
-428.617	-38.377	-0.333	-0.178
-427.603	107.474	-0.077	0.093
-426.588	-200.000	0.005	-0.064
-425.573	83.106	0.122	-0.134
-424.559	425.292	0.116	-0.253
-423.544	6.758	-0.064	0.048
-422.530	383.505	-0.166	0.346
-421.515	160.487	0.011	0.016
-420.500	-105.478	0.103	0.024
-419.486	-86.297	-0.021	-0.007
-418.471	800.000	-0.070	0.269
-417.457	-200.000	0.004	0.435
-416.442	-95.251	-0.136	-0.037
-415.428	-12.904	-0.155	0.102
-414.413	86.632	-0.053	-0.059
-413.398	-90.218	-0.188	0.055
-412.384	800.000	-0.059	-0.223
-411.369	-200.000	0.000	0.251
-410.355	-200.000	0.071	0.000
-409.340	-85.408	0.145	-0.046
-408.325	-138.362	0.116	-0.013
-407.311	-200.000	-0.026	-0.375
-406.296	-47.003	-0.224	0.111
-405.282	-41.580	-0.107	0.056
-404.267	156.336	0.349	0.486
-403.252	-51.151	-0.190	0.090
-402.238	-50.510	0.197	0.094
-401.223	-200.000	0.000	-0.061
-400.209	161.392	-0.039	-0.055
-399.194	-83.243	0.238	0.077
-398.179	48.079	0.225	-0.212
-397.165	-52.745	-0.194	-0.090
-396.150	-32.136	0.124	-0.070
-395.136	-72.460	-0.150	-0.056
-394.121	61.986	-0.023	-0.023
-393.106	-200.000	-0.001	-0.041
-392.092	-62.013	0.100	-0.042
-391.077	14.425	0.087	-0.068
-390.063	28.816	-0.052	0.045
-389.048	57.658	-0.147	-0.145
-388.033	-200.000	0.001	0.256
-387.019	-13.828	0.235	0.154
-386.004	475.503	-0.064	0.146
-384.990	236.869	-0.179	0.299
-383.975	-80.113	0.101	-0.034
-382.960	-200.000	-0.013	0.142
-381.946	29.091	-0.096	0.082
-380.931	-47.388	0.129	0.064
-379.917	-200.000	0.099	0.442
-378.902	-200.000	0.028	0.368
-377.888	209.274	0.047	0.075
-376.873	800.000	0.112	0.378
-375.858	203.672	0.101	-0.157
-374.844	-39.400	0.106	-0.056
-373.829	143.337	-0.288	-0.386
-372.815	-76.819	-0.350	-0.124
-371.800	-200.000	-0.033	0.504
-370.785	34.934	-0.013	-0.011
-369.771	-99.805	0.011	-0.003
-368.756	-43.224	-0.104	0.053
-367.742	-110.024	0.123	0.026
-366.727	-64.002	0.045	-0.019
-365.712	-37.620	-0.088	0.047
-364.698	-115.192	-0.176	-0.034
-363.683	-145.537	-0.214	0.019
-362.669	-189.044	0.315	0.004
-361.654	-122.396	0.318	0.052
-360.639	8.534	-0.316	0.239
-359.625	-153.234	-0.209	0.015
-358.610	-200.000	-0.004	0.036
-357.596	24.484	0.027	0.022
-356.581	541.387	-0.107	-0.258
-355.566	-177.067	0.089	0.002
-354.552	-35.902	0.198	0.108
-353.537	-135.144	-0.206	0.025
-352.523	-34.183	-0.269	-0.149
-351.508	134.371	-0.178	-0.232
-350.493	74.274	0.123	0.130
-349.479	78.220	0.201	-0.216
-348.464	-180.250	-0.208	0.004
-347.450	207.712	-0.162	0.255
-346.435	-145.839	0.143	-0.013
-345.420	260.007	0.136	-0.237
-344.406	800.000	-0.065	0.211
-343.391	338.885	0.020	-0.039
-342.377	-9.285	-0.068	-0.046
-341.362	800.000	0.020	0.073
-340.348	-20.165	0.147	-0.091
-339.333	-85.072	0.075	-0.024
-338.318	800.000	-0.071	-0.214
-337.304	-119.818	-0.286	-0.050
-336.289	-7.889	0.304	-0.206
-335.275	-200.000	-0.050	-0.277
-334.260	-20.646	0.273	-0.169
-333.245	512.450	-0.040	0.095
-332.231	-41.516	0.481	0.249
-331.216	-132.186	0.236	0.031
-330.202	-108.716	-0.315	-0.068
-329.187	-200.000	-0.021	0.277
-328.172	506.806	-0.079	0.185
-327.158	-31.721	-0.252	-0.142
-326.143	-171.414	-0.237	0.008
-325.129	-35.306	-0.089	0.049
-324.114	8.631	-0.146	-0.110
-323.099	800.000	-0.083	-0.328
-322.085	-102.803	-0.298	-0.071
-321.070	339.033	-0.151	-0.296
-320.056	800.000	-0.166	-0.464
-319.041	800.000	0.065	-0.231
-318.026	185.671	0.242	0.361
-317.012	-200.000	0.010	0.151
-315.997	-139.906	0.200	-0.021
-314.983	200.352	0.190	-0.294
-313.968	38.546	-0.217	-0.195
-312.953	-200.000	0.005	0.444
-311.939	-200.000	0.021	-0.242
-310.924	-29.314	0.390	-0.224
-309.910	-200.000	0.264	0.001
-308.895	34.937	-0.107	0.094
-307.880	160.429	0.083	-0.117
-306.866	38.378	0.133	-0.119
-305.851	-200.000	0.045	0.204
-304.837	-50.753	-0.219	0.104
-303.822	-84.236	0.376	-0.120
-302.807	-52.912	0.292	-0.135
-301.793	-102.935	-0.418	-0.100
-300.778	-200.000	0.021	-0.098
-299.764	0.065	0.315	-0.226
-298.749	-200.000	-0.034	-0.187
-297.735	-61.318	-0.262	0.111
-296.720	-91.798	-0.065	0.019
-295.705	381.247	-0.126	0.261
-294.691	-144.702	0.225	0.021
-293.676	-38.749	-0.099	0.053
-292.662	-161.629	0.179	0.009
-291.647	-122.383	-0.043	0.007
-290.632	195.755	0.152	-0.233
-289.618	800.000	0.092	-0.346
-288.603	800.000	-0.015	-0.054
-287.589	-156.632	0.268	-0.017
-286.574	-200.000	0.029	-0.222
-285.559	573.445	0.080	-0.195
-284.545	-23.576	-0.043	0.026
-283.530	-38.180	0.050	0.026
-282.516	383.378	-0.199	0.412
-281.501	-57.263	0.283	-0.125
-280.486	800.000	-0.061	0.177
-279.472	-200.000	0.068	-0.326
-278.457	-105.499	0.220	-0.050
-277.443	147.788	-0.149	0.202
-276.428	-80.013	-0.183	0.062
-275.413	-142.149	0.275	0.027
-274.399	-200.000	-0.022	0.229
-273.384	-171.326	-0.095	0.003
-272.370	258.646	0.073	0.126
-271.355	7.493	-0.020	0.015
-270.340	-200.000	0.043	0.238
-269.326	49.344	0.226	-0.213
-268.311	229.055	0.084	0.137
-267.297	-34.310	-0.120	0.066
-266.282	-76.897	0.170	-0.060
-265.267	18.700	-0.126	0.102
-264.253	88.193	0.100	-0.111
-263.238	-134.817	-0.258	-0.031
-262.224	-200.000	-0.101	0.469
-261.209	-166.684	0.134	0.006
-260.195	613.425	-0.064	-0.162
-259.180	-200.000	0.011	-0.195
-258.165	800.000	0.048	0.144
-257.151	-200.000	-0.026	0.432
-256.136	-200.000	0.011	-0.099
-255.122	-200.000	0.028	0.177
-254.107	238.222	-0.190	0.316
-253.092	-172.575	0.134	0.004
-252.078	-116.777	0.124	-0.023
-251.063	-64.834	0.212	-0.086
-250.049	800.000	0.121	0.399
-249.034	-200.000	0.005	0.114
-248.019	73.275	0.179	0.188
-247.005	-200.000	0.030	0.406
-245.990	199.450	0.088	-0.135
-244.976	-148.586	-0.246	-0.020
-243.961	-200.000	0.006	0.078
-242.946	-200.000	-0.028	-0.285
-241.932	108.444	-0.283	-0.339
-240.917	82.219	0.174	0.190
-239.903	122.133	-0.140	0.176
-238.888	159.467	-0.078	0.108
-237.873	107.970	-0.264	0.315
-236.859	238.796	-0.119	-0.199
-235.844	196.202	0.101	-0.155
-234.830	121.497	0.206	-0.257
-233.815	74.198	-0.263	0.277
-232.800	66.794	-0.104	-0.107
-231.786	-200.000	0.040	0.217
-230.771	800.000	-0.029	0.110
-229.757	-200.000	0.024	-0.292
-228.742	233.573	-0.131	-0.216
-227.727	132.766	-0.137	-0.178
-226.713	560.861	-0.069	0.167
-225.698	-143.190	-0.237	-0.023
-224.684	-45.401	-0.212	-0.105
-223.669	-103.423	-0.177	-0.042
-222.655	473.021	-0.047	-0.106
-221.640	-39.454	0.172	0.090
-220.625	800.000	0.119	-0.333
-219.611	-140.766	0.213	0.022
-218.596	-72.269	-0.125	-0.047
-217.582	108.943	-0.135	0.162
-216.567	111.025	-0.174	-0.210
-215.552	-153.231	0.250	-0.018
-214.538	800.000	0.074	-0.326
-213.523	-124.929	-0.040	0.006
-212.509	41.617	-0.130	0.118
-211.494	-77.868	-0.193	0.067
-210.479	282.568	0.151	0.272
-209.465	-200.000	-0.011	-0.177
-208.450	-68.149	0.103	-0.040
-207.436	-29.619	0.143	-0.082
-206.421	-131.790	0.155	0.020
-205.406	-32.610	0.259	0.145
-204.392	-200.000	-0.027	0.229
-203.377	9.818	0.186	0.141
-202.363	28.603	-0.109	-0.092
-201.348	800.000	-0.097	0.373
-200.333	-177.701	-0.286	0.007
-199.319	453.330	-0.049	0.108
-198.304	-200.000	-0.027	0.275
-197.290	-200.000	-0.029	-0.765
-196.275	-200.000	-0.050	-0.371
-195.260	-181.213	0.105	0.002
-194.246	-2.146	0.046	0.033
-193.231	-200.000	-0.061	0.298
-192.217	-200.000	0.055	-0.311
-191.202	564.117	-0.061	0.147
-190.187	-200.000	0.036	-0.447
-189.173	-91.161	0.207	0.060
-188.158	291.441	-0.162	0.295
-187.144	-82.692	-0.279	-0.090
-186.129	682.296	-0.069	-0.179
-185.114	117.651	0.242	-0.299
-184.100	-67.378	0.098	-0.039
-183.085	604.020	0.033	0.082
-182.071	-10.134	0.263	0.175
-181.056	28.642	-0.298	-0.253
-180.042	84.016	-0.266	0.291
-179.027	-200.000	-0.028	0.174
-178.012	-110.318	0.479	-0.100
-176.998	127.740	0.063	0.081
-175.983	27.589	-0.163	-0.137
-174.969	-191.102	0.458	-0.005
-173.954	-141.090	0.192	-0.020
-172.939	245.517	0.217	0.365
-171.925	-200.000	0.040	-0.400
-170.910	800.000	0.059	0.237
-169.896	13.838	0.031	0.024
-168.881	-47.346	0.171	-0.083
-167.866	-120.339	0.200	0.034
-166.852	40.796	-0.085	-0.077
-165.837	-125.827	-0.448	-0.068
-164.823	116.167	-0.041	-0.050
-163.808	-79.788	-0.534	0.180
-162.793	-168.281	0.157	-0.006
-161.779	241.220	0.145	0.242
-160.764	270.308	0.180	-0.317
-159.750	398.927	-0.120	0.252
-158.735	-200.000	-0.051	-0.385
-157.720	-21.747	0.190	0.116
-156.706	800.000	0.137	-0.396
-155.691	-77.535	-0.049	0.017
-154.677	-10.044	0.168	-0.112
-153.662	-99.401	0.060	-0.015
-152.647	-120.510	-0.263	0.045
-151.633	236.462	-0.184	-0.304
-150.618	-38.524	-0.216	-0.114
-149.604	-81.788	-0.309	0.101
-148.589	-200.000	-0.037	0.237
-147.574	-68.654	-0.204	-0.079
-146.560	-16.749	0.062	0.039
-145.545	691.659	-0.043	-0.114
-144.531	9.994	0.109	-0.082
-143.516	-77.794	-0.269	0.093
-142.502	-53.081	0.093	-0.043
-141.487	198.606	-0.114	0.174
-140.472	-100.544	0.085	0.021
-139.458	-116.729	-0.247	0.045
-138.443	-127.079	0.072	-0.011
-137.429	-138.316	-0.056	-0.006
-136.414	463.254	-0.154	0.343
-135.399	-78.427	-0.187	0.064
-134.385	-200.000	-0.044	0.209
-133.370	800.000	0.085	-0.270
-132.356	800.000	-0.081	-0.334
-131.341	-104.094	-0.021	0.005
-130.326	800.000	-0.039	0.117
-129.312	25.758	0.094	-0.078
-128.297	270.578	-0.181	-0.318
-127.283	-105.331	0.218	-0.050
-126.268	83.367	-0.177	-0.193
-125.253	20.456	0.039	0.032
-124.239	-67.983	0.203	0.079
-123.224	-200.000	0.014	0.136
-122.210	-200.000	-0.016	0.311
