DTS Sentinel unit serial number:	SN413079Multiplexer serial number:	ORYXHardware model number:	OX4-SRSoftware version number:	ORYX F/W v4.00 Oryx Data Collector v3.7.2.0data status	okinstallation	princeton_trtdifferential loss correction	single-endedforward channel	channel 1reverse channel	N/Adate	2019/09/13time	09:22:35forward acquisition time	60.00reverse acquisition time	0.00gamma	496.2192k internal	0.2325k external	0.2325temperature offset calibration	1.0158default loss term (dB/km)	0.3790temperature slope calibration	1.0000multiplexer offset coefficient	1.0000multiplexer slope coefficient	1.0000fibre end	0.00T internal ref (°C)	29.25T ext. ref 1 (°C)	4.41T ext. ref 2 (°C)	26.26length (m)	temperature (°C)	Stokes	anti-Stokes-747.200	61.951	-0.029	0.029
-746.185	-34.413	-0.429	0.237
-745.171	-46.200	-0.211	-0.105
-744.156	359.706	0.039	0.078
-743.142	-199.296	0.187	-0.001
-742.127	180.295	-0.158	0.234
-741.112	-34.145	0.073	0.041
-740.098	-48.401	0.126	-0.061
-739.083	800.000	0.082	-0.274
-738.069	-71.121	-0.043	0.016
-737.054	-200.000	0.019	0.353
-736.039	-123.788	-0.282	-0.045
-735.025	133.916	0.147	0.192
-734.010	800.000	-0.014	0.038
-732.996	60.289	-0.097	-0.097
-731.981	-114.739	0.241	0.047
-730.966	172.046	0.155	-0.225
-729.952	649.070	-0.079	-0.205
-728.937	800.000	-0.054	-0.187
-727.923	166.664	0.134	-0.191
-726.908	72.471	-0.120	-0.126
-725.894	-200.000	0.020	-0.127
-724.879	-108.996	0.060	0.013
-723.864	129.838	-0.017	0.022
-722.850	-200.000	0.040	-0.263
-721.835	533.743	0.068	0.163
-720.821	30.251	0.109	0.094
-719.806	121.853	-0.094	0.119
-718.791	430.855	0.078	0.171
-717.777	365.842	-0.175	0.356
-716.762	800.000	-0.052	0.164
-715.748	20.460	-0.157	0.128
-714.733	800.000	-0.115	-0.339
-713.718	-200.000	0.024	0.138
-712.704	800.000	-0.087	0.267
-711.689	-136.039	-0.201	-0.024
-710.675	184.135	0.074	0.110
-709.660	129.229	-0.141	0.181
-708.645	-200.000	0.007	0.254
-707.631	15.076	0.236	-0.186
-706.616	139.956	0.093	0.124
-705.602	-98.293	-0.156	-0.040
-704.587	-30.293	0.209	0.120
-703.572	800.000	-0.085	0.345
-702.558	-94.935	0.154	0.042
-701.543	372.610	-0.111	-0.227
-700.529	371.500	0.081	-0.165
-699.514	800.000	-0.036	-0.113
-698.499	800.000	0.042	-0.122
-697.485	91.055	-0.171	0.194
-696.470	-200.000	-0.074	-0.332
-695.456	95.527	0.117	-0.134
-694.441	-200.000	0.059	-0.264
-693.426	351.813	-0.024	-0.047
-692.412	-89.636	-0.185	0.055
-691.397	-48.233	-0.220	-0.107
-690.383	116.622	-0.062	-0.077
-689.368	-116.357	-0.047	-0.009
-688.354	431.622	0.052	-0.114
-687.339	-100.085	0.188	0.047
-686.324	-5.398	-0.156	-0.108
-685.310	-126.236	0.171	0.026
-684.295	19.093	-0.177	0.143
-683.281	-200.000	0.009	0.185
-682.266	-6.982	-0.393	0.269
-681.251	-113.036	-0.270	0.054
-680.237	-99.063	-0.228	-0.058
-679.222	29.778	0.150	0.129
-678.208	-200.000	0.032	-0.236
-677.193	692.503	0.052	-0.137
-676.178	-200.000	-0.038	0.189
-675.164	-59.706	0.136	-0.059
-674.149	-46.519	-0.102	-0.050
-673.135	291.449	0.180	0.330
-672.120	88.252	0.131	0.146
-671.105	-100.701	-0.236	0.059
-670.091	21.861	-0.197	0.161
-669.076	800.000	0.056	0.233
-668.062	740.525	0.197	-0.531
-667.047	335.425	-0.173	-0.338
-666.032	-200.000	0.022	0.196
-665.018	136.239	0.189	0.247
-664.003	25.963	-0.180	-0.151
-662.989	-200.000	-0.116	0.550
-661.974	249.768	0.014	-0.023
-660.959	50.131	0.197	-0.187
-659.945	342.683	0.162	-0.318
-658.930	220.107	0.012	-0.019
-657.916	521.837	0.110	0.260
-656.901	-155.450	-0.241	0.016
-655.886	82.628	-0.266	-0.291
-654.872	-159.359	0.297	0.017
-653.857	-200.000	-0.005	0.152
-652.843	188.517	0.161	-0.242
-651.828	468.033	-0.153	-0.345
-650.814	291.244	0.083	-0.151
-649.799	-15.826	-0.135	0.086
-648.784	-200.000	0.007	0.124
-647.770	197.171	-0.188	-0.288
-646.755	-89.749	0.259	0.076
-645.741	234.108	-0.125	0.206
-644.726	416.665	-0.068	-0.145
-643.711	-36.955	-0.111	-0.060
-642.697	-111.420	0.268	-0.055
-641.682	23.348	0.162	0.134
-640.668	-127.928	-0.401	0.058
-639.653	800.000	0.146	0.431
-638.638	-12.715	-0.406	-0.266
-637.624	113.080	0.249	-0.304
-636.609	-200.000	0.019	-0.312
-635.595	-73.701	0.281	-0.103
-634.580	404.192	0.109	-0.231
-633.565	51.551	0.195	-0.186
-632.551	800.000	-0.043	-0.131
-631.536	176.854	0.050	-0.073
-630.522	-200.000	-0.030	-0.137
-629.507	-92.846	0.071	-0.020
-628.492	81.678	0.112	-0.122
-627.478	-200.000	-0.004	0.175
-626.463	800.000	0.043	0.121
-625.449	-27.412	0.125	0.073
-624.434	800.000	0.034	-0.136
-623.419	-130.706	-0.178	0.024
-622.405	-19.409	0.121	0.075
-621.390	-141.556	0.139	0.014
-620.376	81.155	0.081	0.088
-619.361	-200.000	-0.003	0.097
-618.346	117.326	0.083	0.102
-617.332	-83.737	-0.334	0.107
-616.317	-153.121	-0.225	0.016
-615.303	63.847	-0.167	0.168
-614.288	4.092	0.045	-0.033
-613.273	-12.329	-0.193	0.127
-612.259	-200.000	-0.025	-0.198
-611.244	-6.432	-0.198	-0.135
-610.230	-155.243	0.013	0.001
-609.215	-135.066	0.136	0.017
-608.201	-200.000	-0.001	0.140
-607.186	273.205	0.144	0.256
-606.171	-114.573	-0.062	-0.012
-605.157	214.187	-0.081	-0.129
-604.142	280.351	0.125	-0.224
-603.128	658.158	0.158	-0.407
-602.113	-137.314	-0.073	-0.008
-601.098	-9.299	0.183	0.123
-600.084	-126.902	0.143	0.021
-599.069	5.465	0.356	0.263
-598.055	-13.649	0.179	-0.116
-597.040	141.689	0.109	-0.146
-596.025	-200.000	-0.068	-0.392
-595.011	71.021	-0.229	0.238
-593.996	-127.166	0.150	-0.022
-592.982	-73.191	0.120	0.044
-591.967	-116.722	-0.387	-0.071
-590.952	-72.351	0.109	-0.040
-589.938	-17.488	-0.362	-0.228
-588.923	800.000	0.033	-0.111
-587.909	800.000	-0.078	0.232
-586.894	30.674	0.172	0.148
-585.879	-200.000	0.019	-0.150
-584.865	82.738	0.152	-0.166
-583.850	281.354	-0.071	-0.127
-582.836	661.861	0.166	-0.428
-581.821	-124.534	-0.104	-0.016
-580.806	46.275	0.176	-0.164
-579.792	-102.751	-0.296	-0.071
-578.777	215.504	0.046	0.074
-577.763	-5.728	0.402	-0.276
-576.748	-39.739	0.091	-0.048
-575.733	-33.145	0.369	0.205
-574.719	800.000	0.146	-0.475
-573.704	30.063	-0.444	-0.380
-572.690	-200.000	-0.053	-0.343
-571.675	204.936	-0.067	-0.104
-570.661	56.406	-0.103	0.101
-569.646	324.291	-0.034	0.064
-568.631	800.000	-0.077	-0.258
-567.617	7.982	0.235	0.176
-566.602	627.583	-0.066	0.168
-565.588	800.000	0.029	-0.114
-564.573	237.341	-0.065	-0.108
-563.558	800.000	-0.022	0.076
-562.544	800.000	0.018	0.056
-561.529	46.085	-0.046	-0.042
-560.515	45.787	0.139	-0.129
-559.500	-200.000	-0.007	0.193
-558.485	-11.113	-0.224	-0.148
-557.471	188.732	0.151	0.226
-556.456	-200.000	-0.070	0.436
-555.442	-177.859	-0.033	-0.001
-554.427	123.833	-0.235	-0.296
-553.412	67.306	0.075	-0.076
-552.398	-79.248	-0.220	0.075
-551.383	-7.102	-0.205	0.139
-550.369	-116.198	-0.356	-0.066
-549.354	-102.783	-0.100	-0.024
-548.339	288.019	0.109	-0.198
-547.325	-22.050	-0.388	-0.236
-546.310	64.330	-0.116	-0.117
-545.296	-200.000	0.000	0.174
-544.281	-148.529	-0.092	-0.008
-543.266	34.384	-0.280	-0.245
-542.252	-105.105	0.317	-0.073
-541.237	-152.100	-0.189	0.014
-540.223	-200.000	0.039	0.529
-539.208	800.000	0.115	-0.326
-538.193	67.600	-0.239	0.244
-537.179	-200.000	-0.005	0.076
-536.164	800.000	0.055	0.196
-535.150	200.317	-0.103	0.159
-534.135	-200.000	0.001	0.137
-533.121	89.864	0.030	-0.034
-532.106	-85.707	-0.303	-0.094
-531.091	29.625	0.229	0.195
-530.077	-62.775	-0.153	0.064
-529.062	582.648	-0.077	0.190
-528.048	142.506	0.077	-0.102
-527.033	797.531	-0.051	0.141
-526.018	277.220	-0.191	0.340
-525.004	-25.555	-0.331	0.196
-523.989	160.723	-0.218	0.305
-522.975	30.215	-0.086	0.074
-521.960	-200.000	-0.033	-0.206
-520.945	-200.000	-0.024	0.129
-519.931	-200.000	0.079	0.369
-518.916	143.594	-0.069	-0.091
-517.902	-71.805	0.184	0.069
-516.887	146.508	-0.196	0.263
-515.872	800.000	0.081	0.291
-514.858	800.000	0.030	-0.115
-513.843	183.545	-0.103	-0.152
-512.829	343.503	0.046	-0.090
-511.814	-86.525	-0.283	-0.087
-510.799	-62.283	0.305	0.127
-509.785	-63.478	0.154	0.063
-508.770	26.353	-0.116	0.097
-507.756	-200.000	0.003	0.047
-506.741	-166.573	0.159	0.007
-505.726	-200.000	-0.004	-0.094
-504.712	800.000	-0.029	0.111
-503.697	-1.276	0.063	0.044
-502.683	-45.839	-0.038	0.019
-501.668	627.937	-0.120	0.304
-500.653	-131.141	0.125	0.017
-499.639	171.427	-0.187	0.268
-498.624	-147.527	0.320	0.027
-497.610	266.239	-0.077	0.134
-496.595	339.119	0.104	0.203
-495.581	-104.347	-0.417	-0.097
-494.566	-49.788	0.140	-0.067
-493.551	-26.835	-0.114	-0.067
-492.537	559.436	0.145	-0.350
-491.522	800.000	-0.087	-0.345
-490.508	-105.963	0.229	0.051
-489.493	15.240	0.045	0.035
-488.478	-60.913	-0.095	0.040
-487.464	-200.000	-0.027	-0.236
-486.449	-168.770	-0.451	0.017
-485.435	-92.369	0.491	-0.138
-484.420	339.663	0.024	-0.047
-483.405	568.151	0.066	-0.161
-482.391	-92.480	-0.204	-0.057
-481.376	-17.596	-0.148	-0.093
-480.362	-92.017	0.235	-0.066
-479.347	-63.611	-0.462	0.189
-478.332	-12.370	-0.215	-0.141
-477.318	800.000	0.107	-0.334
-476.303	-200.000	-0.028	-0.326
-475.289	800.000	-0.082	-0.266
-474.274	800.000	0.027	-0.075
-473.259	-200.000	-0.003	-0.294
-472.245	688.584	0.018	0.047
-471.230	103.239	0.157	-0.184
-470.216	-5.366	0.213	0.146
-469.201	-200.000	-0.014	0.157
-468.186	800.000	-0.018	-0.061
-467.172	800.000	0.059	-0.190
-466.157	-126.793	0.189	0.028
-465.143	-101.133	-0.323	0.079
-464.128	-32.409	-0.059	-0.033
-463.113	219.128	0.034	0.054
-462.099	-200.000	0.012	0.222
-461.084	14.602	0.266	0.207
-460.070	-72.942	-0.172	-0.063
-459.055	377.816	0.233	-0.475
-458.040	-200.000	-0.004	-0.201
-457.026	-200.000	0.006	0.127
-456.011	452.422	0.051	0.112
-454.997	-200.000	-0.000	0.187
-453.982	388.589	-0.040	0.082
-452.968	-159.759	0.034	-0.002
-451.953	488.898	-0.063	-0.144
-450.938	-103.499	0.125	0.029
-449.924	-25.895	-0.204	-0.120
-448.909	48.973	0.137	0.128
-447.895	-52.668	0.264	0.122
-446.880	-110.551	-0.216	0.045
-445.865	-200.000	-0.006	0.046
-444.851	240.296	0.184	0.307
-443.836	138.498	0.107	0.140
-442.822	191.008	-0.032	0.048
-441.807	-24.876	-0.060	-0.036
-440.792	-73.694	-0.368	-0.134
-439.778	-14.281	-0.148	0.095
-438.763	800.000	-0.068	0.206
-437.749	-200.000	-0.017	0.181
-436.734	800.000	0.067	-0.220
-435.719	-81.976	-0.229	-0.075
-434.705	-35.679	-0.057	0.031
-433.690	294.434	0.065	-0.119
-432.676	-200.000	0.007	-0.320
-431.661	371.696	0.092	-0.187
-430.646	800.000	0.088	0.289
-429.632	-128.431	-0.069	0.010
-428.617	39.101	0.268	-0.239
-427.603	141.558	-0.068	0.089
-426.588	-87.248	-0.208	0.063
-425.573	0.472	0.280	-0.199
-424.559	35.757	0.166	-0.146
-423.544	-91.579	0.123	0.035
-422.530	-29.158	0.101	0.057
-421.515	-179.422	-0.275	0.006
-420.500	-200.000	0.003	0.061
-419.486	-23.084	0.302	-0.181
-418.471	-200.000	-0.038	-0.227
-417.457	-92.530	-0.308	-0.086
-416.442	-82.308	-0.131	0.043
-415.428	-69.156	0.180	-0.069
-414.413	-109.296	-0.352	0.074
-413.398	295.282	0.062	0.113
-412.384	800.000	0.073	-0.292
-411.369	-68.512	0.443	-0.171
-410.355	800.000	0.019	-0.063
-409.340	-153.366	0.196	0.014
-408.325	0.355	-0.162	-0.116
-407.311	405.149	-0.105	-0.219
-406.296	-0.078	-0.146	-0.104
-405.282	380.254	-0.087	0.178
-404.267	358.073	-0.049	0.098
-403.252	458.355	-0.112	0.248
-402.238	800.000	0.015	-0.047
-401.223	372.725	0.149	-0.302
-400.209	-144.872	0.168	0.015
-399.194	21.476	0.208	-0.168
-398.179	17.121	-0.070	0.056
-397.165	0.978	0.283	-0.202
-396.150	256.417	-0.127	-0.217
-395.136	225.986	0.102	0.165
-394.121	-200.000	-0.013	0.057
-393.106	416.586	-0.093	0.197
-392.092	-200.000	0.013	-0.071
-391.077	10.199	0.349	0.264
-390.063	-200.000	-0.012	-0.208
-389.048	100.560	0.079	0.092
-388.033	800.000	-0.098	0.330
-387.019	397.288	-0.117	-0.244
-386.004	-83.356	0.229	-0.073
-384.990	800.000	0.062	-0.240
-383.975	-113.146	-0.327	-0.064
-382.960	-200.000	-0.000	0.135
-381.946	464.498	-0.060	-0.134
-380.931	-94.602	0.052	0.014
-379.917	-73.906	0.120	0.044
-378.902	55.878	0.076	-0.073
-377.888	299.695	-0.306	-0.561
-376.873	-135.230	-0.113	0.013
-375.858	182.469	-0.182	-0.267
-374.844	-7.470	0.099	0.067
-373.829	179.322	0.122	0.177
-372.815	-39.987	-0.429	0.223
-371.800	-200.000	-0.004	-0.144
-370.785	37.296	-0.230	0.202
-369.771	-200.000	0.017	0.173
-368.756	800.000	-0.022	-0.072
-367.742	-110.335	-0.120	-0.025
-366.727	50.881	-0.093	-0.087
-365.712	-25.711	-0.242	-0.142
-364.698	-42.935	0.078	0.039
-363.683	-200.000	0.030	0.287
-362.669	800.000	0.021	-0.073
-361.654	-27.140	0.104	-0.060
-360.639	-200.000	0.039	0.223
-359.625	79.926	0.207	0.222
-358.610	-144.597	-0.243	-0.022
-357.596	-125.941	0.098	-0.015
-356.581	-113.229	-0.026	-0.005
-355.566	-57.880	-0.479	0.208
-354.552	12.427	0.106	-0.081
-353.537	-11.851	-0.246	0.161
-352.523	-131.681	-0.367	0.048
-351.508	800.000	-0.024	0.072
-350.493	628.813	-0.021	0.054
-349.479	-16.213	-0.186	0.117
-348.464	-29.220	0.358	-0.204
-347.450	14.947	-0.044	-0.034
-346.435	-107.818	-0.428	-0.093
-345.420	-19.629	0.205	-0.126
-344.406	-102.821	0.070	0.017
-343.391	-53.702	-0.225	0.102
-342.377	-200.000	0.009	0.402
-341.362	-47.821	-0.267	0.128
-340.348	-133.947	-0.100	-0.012
-339.333	-56.461	-0.185	-0.081
-338.318	-168.971	0.317	-0.012
-337.304	26.800	-0.188	-0.156
-336.289	-56.765	-0.049	0.022
-335.275	-97.436	0.241	-0.062
-334.260	178.617	0.023	-0.034
-333.245	6.304	-0.188	0.139
-332.231	800.000	0.032	-0.106
-331.216	-63.265	0.062	-0.025
-330.202	-14.435	0.249	-0.159
-329.187	-200.000	0.001	0.124
-328.172	-138.450	-0.225	0.025
-327.158	15.483	0.124	0.096
-326.143	2.776	0.131	0.095
-325.129	115.011	0.221	0.267
-324.114	-200.000	-0.031	0.158
-323.099	253.083	-0.090	-0.152
-322.085	-82.396	0.117	0.038
-321.070	-70.344	0.042	-0.016
-320.056	-104.215	0.434	0.100
-319.041	800.000	-0.010	-0.030
-318.026	800.000	-0.007	0.024
-317.012	-18.596	0.311	0.193
-315.997	800.000	-0.048	0.167
-314.983	-133.081	-0.158	0.020
-313.968	28.870	-0.079	-0.067
-312.953	-200.000	-0.016	-0.159
-311.939	547.504	-0.090	0.215
-310.924	800.000	0.028	0.101
-309.910	800.000	-0.060	-0.218
-308.895	-76.908	-0.235	0.081
-307.880	-200.000	0.025	-0.141
-306.866	-129.620	0.228	0.031
-305.851	-64.889	-0.291	-0.117
-304.837	-200.000	-0.044	0.274
-303.822	-58.398	-0.149	0.064
-302.807	559.432	-0.060	-0.144
-301.793	-39.241	-0.486	0.253
-300.778	-200.000	0.034	0.365
-299.764	-100.625	-0.252	0.062
-298.749	-20.768	-0.211	0.128
-297.735	225.882	0.171	0.275
-296.720	-83.028	0.177	-0.057
-295.705	-200.000	0.008	0.319
-294.691	215.337	-0.228	0.359
-293.676	-200.000	-0.021	-0.377
-292.662	-71.903	0.210	-0.077
-291.647	699.030	0.092	0.240
-290.632	131.411	0.211	-0.269
-289.618	-114.602	-0.117	-0.022
-288.603	-49.156	0.072	-0.034
-287.589	1.291	-0.270	0.192
-286.574	800.000	0.044	-0.164
-285.559	-60.210	0.395	-0.167
-284.545	-97.193	0.312	-0.081
-283.530	62.009	-0.287	-0.283
-282.516	11.964	-0.199	-0.152
-281.501	-160.974	0.278	0.014
-280.486	-200.000	-0.007	-0.100
-279.472	-95.827	0.167	-0.044
-278.457	-151.390	0.144	-0.011
-277.443	-200.000	-0.046	0.211
-276.428	93.278	0.094	-0.106
-275.413	-101.382	0.342	-0.083
-274.399	-112.070	-0.139	0.028
-273.384	-200.000	-0.012	0.075
-272.370	-147.910	-0.133	-0.011
-271.355	-200.000	0.021	0.120
-270.340	800.000	0.036	-0.125
-269.326	103.979	0.196	-0.228
-268.311	800.000	0.044	0.146
-267.297	-143.354	-0.394	0.037
-266.282	-161.614	-0.162	0.008
-265.267	-129.632	-0.311	0.043
-264.253	217.604	-0.110	0.173
-263.238	-115.335	-0.434	0.081
-262.224	-6.605	-0.355	-0.239
-261.209	-67.708	0.205	0.079
-260.195	-16.484	-0.191	-0.120
-259.180	800.000	0.067	-0.206
-258.165	-68.533	-0.381	0.146
-257.151	782.749	-0.088	-0.238
-256.136	149.361	0.224	-0.300
-255.122	-29.740	0.193	-0.109
-254.107	-40.717	0.330	0.169
-253.092	121.084	-0.040	-0.049
-252.078	-10.425	-0.110	0.072
-251.063	-71.092	0.149	-0.055
-250.049	-200.000	0.037	0.193
-249.034	-200.000	-0.021	0.237
-248.019	-200.000	-0.007	0.280
-247.005	-59.393	-0.163	-0.069
-245.990	-119.363	-0.083	-0.014
-244.976	-200.000	0.005	0.172
-243.961	-200.000	-0.029	0.255
-242.946	-200.000	-0.010	0.153
-241.932	536.082	-0.091	-0.214
-240.917	-22.390	-0.140	0.084
-239.903	50.789	0.143	0.134
-238.888	-158.944	0.278	-0.016
-237.873	-13.786	0.292	-0.187
-236.859	40.474	-0.228	0.203
-235.844	-54.222	0.409	-0.184
-234.830	515.960	0.062	-0.143
-233.815	681.772	0.136	-0.350
-232.800	-199.009	0.313	-0.002
-231.786	800.000	0.066	0.182
-230.771	800.000	0.053	0.164
-229.757	-14.687	-0.194	0.123
-228.742	-148.160	0.200	-0.016
-227.727	-54.539	0.352	0.158
-226.713	-41.224	-0.124	0.063
-225.698	-10.892	0.161	0.105
-224.684	-2.441	0.113	0.079
-223.669	-112.369	-0.137	0.027
-222.655	-200.000	0.009	0.209
-221.640	-21.629	0.269	0.162
-220.625	800.000	-0.058	0.191
-219.611	-68.733	0.087	-0.033
-218.596	-104.729	0.056	0.013
-217.582	-67.209	0.401	-0.156
-216.567	-149.700	-0.209	0.016
-215.552	-28.625	-0.269	-0.153
-214.538	701.780	0.108	0.281
-213.523	-81.164	-0.076	0.025
-212.509	-200.000	0.027	0.125
-211.494	-162.703	0.310	0.015
-210.479	-136.128	0.037	0.004
-209.465	200.411	-0.085	-0.128
-208.450	-200.000	-0.010	0.139
-207.436	-200.000	0.031	0.238
-206.421	-77.122	0.221	0.076
-205.406	-200.000	0.002	0.160
-204.392	128.760	-0.057	0.072
-203.377	-13.325	0.273	0.175
-202.363	-137.834	0.244	0.027
-201.348	76.366	-0.058	0.060
-200.333	-0.125	-0.156	0.110
-199.319	224.157	0.109	0.174
-198.304	-26.532	0.286	0.165
-197.290	-130.117	-0.343	-0.046
-196.275	-124.199	0.174	-0.027
-195.260	-185.819	0.154	0.002
-194.246	-117.231	0.440	0.079
-193.231	-133.095	-0.090	-0.011
-192.217	242.585	0.121	-0.200
-191.202	71.754	-0.287	0.294
-190.187	5.690	0.347	0.253
-189.173	219.556	0.125	0.197
-188.158	-120.029	-0.266	-0.045
-187.144	69.151	0.126	-0.128
-186.129	6.677	-0.151	-0.111
-185.114	-6.578	0.215	0.145
-184.100	380.872	0.167	0.339
-183.085	104.196	-0.121	-0.141
-182.071	-102.341	-0.256	-0.061
-181.056	79.208	0.176	0.186
-180.042	-80.057	-0.058	0.019
-179.027	32.404	0.128	0.109
-178.012	4.211	0.102	-0.073
-176.998	63.559	0.065	-0.064
-175.983	-55.763	-0.205	-0.091
-174.969	767.397	0.096	0.259
-173.954	-200.000	-0.039	-0.185
-172.939	45.887	0.084	0.077
-171.925	147.055	-0.078	0.104
-170.910	800.000	-0.076	-0.318
-169.896	68.590	0.036	-0.037
-168.881	800.000	0.098	-0.270
-167.866	-200.000	0.044	-0.231
-166.852	-165.868	0.376	0.016
-165.837	-98.627	-0.151	0.038
-164.823	-90.878	0.210	-0.060
-163.808	-23.056	-0.138	0.082
-162.793	-94.525	0.086	0.023
-161.779	800.000	-0.016	0.056
-160.764	-200.000	0.095	-0.475
-159.750	-72.569	0.035	-0.013
-158.735	-62.771	-0.112	-0.046
-157.720	281.826	0.180	-0.318
-156.706	739.435	0.047	-0.124
-155.691	142.470	0.053	-0.069
-154.677	490.351	-0.024	0.055
-153.662	5.221	0.125	0.091
-152.647	-152.381	0.099	0.007
-151.633	169.792	-0.234	-0.330
-150.618	-90.741	-0.172	-0.049
-149.604	76.297	-0.229	0.239
-148.589	156.412	-0.116	0.158
-147.574	800.000	0.039	-0.125
-146.560	800.000	-0.032	-0.090
-145.545	70.741	-0.276	-0.281
-144.531	149.429	0.150	0.200
-143.516	23.455	0.167	0.136
-142.502	55.063	0.232	0.221
-141.487	-200.000	0.026	-0.374
-140.472	127.355	0.027	-0.034
-139.458	-200.000	0.023	0.103
-138.443	24.386	0.180	0.146
-137.429	800.000	0.051	-0.200
-136.414	124.232	0.131	-0.162
-135.399	-200.000	0.039	0.261
-134.385	124.508	0.115	0.142
-133.370	-135.088	-0.173	0.021
-132.356	-200.000	0.041	-0.196
-131.341	-74.362	-0.167	-0.059
-130.326	-200.000	0.008	-0.100
-129.312	59.077	0.169	-0.164
-128.297	-79.156	0.236	0.079
-127.283	-32.317	0.289	-0.159
-126.268	-144.338	0.081	-0.007
-125.253	50.245	-0.199	-0.185
-124.239	-131.386	0.271	0.035
-123.224	800.000	-0.030	-0.088
-122.210	-109.185	0.301	-0.063
-121.195	-200.000	0.020	0.220
