DTS Sentinel unit serial number:	SN413079Multiplexer serial number:	ORYXHardware model number:	OX4-SRSoftware version number:	ORYX F/W v4.00 Oryx Data Collector v3.7.2.0data status	okinstallation	princeton_trtdifferential loss correction	single-endedforward channel	channel 1reverse channel	N/Adate	2019/09/11time	07:08:11forward acquisition time	60.00reverse acquisition time	0.00gamma	496.2192k internal	0.2329k external	0.2329temperature offset calibration	0.9917default loss term (dB/km)	0.3790temperature slope calibration	1.0000multiplexer offset coefficient	1.0000multiplexer slope coefficient	1.0000fibre end	0.00T internal ref (°C)	30.31T ext. ref 1 (°C)	-0.10T ext. ref 2 (°C)	26.21length (m)	temperature (°C)	Stokes	anti-Stokes-747.200	86.271	-0.245	-0.272
-746.185	-171.038	-0.281	0.010
-745.171	-42.730	-0.078	-0.040
-744.156	428.180	-0.099	0.216
-743.142	-200.000	-0.030	0.290
-742.127	163.663	-0.210	0.298
-741.112	56.850	-0.056	0.055
-740.098	-56.380	-0.287	0.129
-739.083	-97.400	-0.439	0.115
-738.069	-37.251	0.211	0.114
-737.054	-200.000	0.032	0.388
-736.039	800.000	-0.168	0.631
-735.025	800.000	-0.084	0.321
-734.010	-138.498	-0.169	0.019
-732.996	-11.181	-0.259	-0.172
-731.981	800.000	0.040	-0.128
-730.966	32.143	-0.420	-0.365
-729.952	405.625	-0.117	0.248
-728.937	307.434	-0.066	0.124
-727.923	23.776	0.140	-0.116
-726.908	-113.536	-0.300	-0.059
-725.894	682.568	-0.056	-0.146
-724.879	50.318	-0.195	0.186
-723.864	-200.000	0.003	-0.157
-722.850	-78.334	-0.096	-0.033
-721.835	-1.566	-0.220	0.156
-720.821	-134.854	0.348	0.042
-719.806	-69.354	0.332	-0.128
-718.791	23.993	-0.077	0.064
-717.777	100.388	-0.138	-0.161
-716.762	-200.000	-0.034	0.254
-715.748	145.638	0.219	0.295
-714.733	-200.000	0.007	0.139
-713.718	-140.184	-0.268	0.028
-712.704	800.000	0.109	-0.382
-711.689	-91.143	-0.131	-0.038
-710.675	-200.000	-0.032	-0.261
-709.660	29.259	0.302	-0.258
-708.645	309.233	0.128	-0.240
-707.631	-156.099	-0.168	0.011
-706.616	73.743	-0.158	-0.166
-705.602	47.357	-0.245	0.230
-704.587	-99.559	-0.400	0.101
-703.572	-200.000	0.001	0.254
-702.558	-120.490	0.217	-0.037
-701.543	262.301	-0.130	0.228
-700.529	-70.824	-0.095	-0.036
-699.514	368.385	0.120	-0.244
-698.499	21.876	-0.200	-0.164
-697.485	38.551	0.278	-0.249
-696.470	-10.080	0.328	0.219
-695.456	136.357	-0.098	0.129
-694.441	-153.297	0.128	0.009
-693.426	-117.695	-0.382	0.069
-692.412	-133.863	0.147	0.018
-691.397	-136.997	-0.293	0.034
-690.383	327.607	0.087	-0.168
-689.368	800.000	0.061	0.213
-688.354	327.459	-0.091	-0.175
-687.339	242.519	0.073	0.123
-686.324	800.000	-0.056	0.226
-685.310	121.136	-0.103	-0.129
-684.295	-51.444	0.182	-0.086
-683.281	-111.680	-0.291	-0.059
-682.266	369.056	-0.044	-0.090
-681.251	-99.725	-0.280	-0.070
-680.237	800.000	-0.068	0.244
-679.222	28.412	0.222	-0.188
-678.208	-50.517	-0.309	0.146
-677.193	35.361	-0.247	-0.218
-676.178	-200.000	0.043	-0.336
-675.164	64.509	-0.261	0.264
-674.149	800.000	0.020	-0.066
-673.135	658.038	0.108	-0.279
-672.120	43.549	-0.291	-0.267
-671.105	56.889	-0.074	-0.072
-670.091	376.012	-0.049	0.100
-669.076	405.292	0.289	-0.613
-668.062	-73.540	-0.029	0.010
-667.047	62.179	0.047	0.047
-666.032	123.914	0.255	-0.321
-665.018	-132.668	-0.276	-0.036
-664.003	43.230	-0.288	-0.264
-662.989	-200.000	-0.411	-0.002
-661.974	-20.613	-0.106	-0.066
-660.959	433.335	-0.090	0.197
-659.945	119.456	-0.187	-0.233
-658.930	-112.664	-0.138	-0.027
-657.916	66.036	-0.213	-0.217
-656.901	-200.000	0.029	-0.238
-655.886	757.250	-0.096	-0.260
-654.872	-200.000	0.038	-0.279
-653.857	-36.653	0.103	0.056
-652.843	211.060	-0.118	0.186
-651.828	42.892	0.036	-0.033
-650.814	-13.869	-0.171	0.111
-649.799	-200.000	0.007	0.222
-648.784	-84.644	0.164	0.052
-647.770	109.357	0.060	-0.072
-646.755	-129.601	-0.447	-0.062
-645.741	-200.000	-0.012	0.142
-644.726	-200.000	-0.000	-0.100
-643.711	-8.820	0.071	-0.048
-642.697	-147.029	0.276	0.024
-641.682	-90.525	-0.379	-0.110
-640.668	-200.000	0.020	0.274
-639.653	219.165	-0.156	0.251
-638.638	-200.000	-0.009	0.083
-637.624	-82.142	-0.141	-0.046
-636.609	-91.683	-0.224	-0.064
-635.595	-97.764	0.160	0.042
-634.580	-200.000	-0.018	0.211
-633.565	-200.000	-0.002	0.081
-632.551	59.586	-0.081	0.080
-631.536	-23.195	-0.056	-0.034
-630.522	456.892	0.049	0.110
-629.507	-114.458	0.233	-0.045
-628.492	-81.001	-0.255	0.085
-627.478	175.305	-0.097	-0.141
-626.463	-4.998	0.233	0.161
-625.449	-200.000	0.042	0.186
-624.434	191.677	-0.114	0.173
-623.419	39.770	-0.114	0.103
-622.405	-200.000	-0.018	0.081
-621.390	109.409	-0.071	-0.085
-620.376	-113.409	-0.523	0.103
-619.361	-19.304	-0.150	0.093
-618.346	-102.972	0.070	0.017
-617.332	-154.589	-0.437	0.029
-616.317	-44.983	0.199	0.099
-615.303	-74.590	-0.123	-0.044
-614.288	-171.245	0.221	-0.007
-613.273	-200.000	-0.018	0.145
-612.259	-200.000	-0.065	0.550
-611.244	11.392	0.161	-0.124
-610.230	-200.000	0.023	-0.121
-609.215	-200.000	0.014	-0.198
-608.201	-138.630	-0.276	-0.030
-607.186	-142.815	0.448	-0.044
-606.171	-76.512	-0.047	-0.017
-605.157	24.786	-0.026	-0.021
-604.142	-130.370	-0.324	-0.044
-603.128	800.000	0.064	-0.237
-602.113	-107.606	0.237	-0.052
-601.098	-102.168	0.217	-0.052
-600.084	88.249	0.027	0.030
-599.069	-198.671	-0.281	0.002
-598.055	-200.000	-0.076	-0.425
-597.040	564.587	0.052	-0.127
-596.025	800.000	-0.050	-0.146
-595.011	172.613	0.069	-0.099
-593.996	42.502	0.064	-0.058
-592.982	21.272	0.098	0.079
-591.967	800.000	-0.032	-0.094
-590.952	800.000	-0.039	-0.121
-589.938	8.152	0.080	-0.060
-588.923	-121.128	-0.139	0.023
-587.909	-116.937	0.096	0.018
-586.894	251.226	-0.028	-0.048
-585.879	-58.505	-0.135	0.059
-584.865	800.000	0.056	0.222
-583.850	-69.481	-0.195	0.075
-582.836	-22.857	-0.109	0.066
-581.821	690.790	-0.102	-0.267
-580.806	48.292	-0.052	0.049
-579.792	537.884	0.035	-0.083
-578.777	-200.000	-0.052	-0.315
-577.763	-88.535	0.231	-0.069
-576.748	253.395	-0.204	0.349
-575.733	348.580	0.118	0.232
-574.719	-4.063	0.144	0.100
-573.704	-131.457	-0.233	-0.031
-572.690	-200.000	0.017	-0.281
-571.675	-121.260	-0.270	-0.045
-570.661	800.000	0.074	-0.219
-569.646	-80.061	0.249	-0.084
-568.631	69.044	0.096	-0.098
-567.617	83.051	0.195	-0.212
-566.602	33.103	0.135	-0.117
-565.588	211.707	-0.072	-0.114
-564.573	113.072	0.108	-0.130
-563.558	-200.000	0.078	-0.482
-562.544	213.011	0.109	0.172
-561.529	-200.000	0.013	-0.162
-560.515	-94.666	0.344	0.093
-559.500	158.470	-0.061	-0.085
-558.485	91.085	0.084	0.095
-557.471	-140.972	0.285	0.029
-556.456	-64.051	0.426	-0.174
-555.442	68.103	-0.120	0.123
-554.427	22.233	-0.150	-0.123
-553.412	193.828	-0.082	0.125
-552.398	362.421	-0.047	0.094
-551.383	143.465	-0.230	0.306
-550.369	-33.113	-0.158	0.088
-549.354	-200.000	-0.051	-0.271
-548.339	439.187	-0.038	0.082
-547.325	-99.530	0.122	-0.031
-546.310	-200.000	0.002	0.021
-545.296	-15.731	-0.262	0.167
-544.281	-20.508	-0.411	-0.252
-543.266	402.618	-0.154	0.324
-542.252	-78.012	-0.063	0.022
-541.237	-5.112	0.130	0.089
-540.223	184.152	0.107	0.158
-539.208	-200.000	0.003	-0.150
-538.193	-200.000	-0.078	-0.490
-537.179	144.051	0.134	-0.179
-536.164	-173.442	0.047	0.001
-535.150	800.000	-0.113	0.330
-534.135	800.000	-0.031	-0.100
-533.121	-112.841	-0.127	-0.025
-532.106	90.541	-0.271	0.304
-531.091	-66.685	0.166	-0.066
-530.077	-200.000	-0.044	0.220
-529.062	-200.000	-0.029	-0.236
-528.048	606.174	-0.062	-0.153
-527.033	-37.820	-0.305	0.162
-526.018	735.638	0.037	-0.100
-525.004	120.694	-0.036	0.045
-523.989	667.583	0.018	-0.045
-522.975	387.525	0.059	-0.121
-521.960	-62.927	0.141	0.058
-520.945	-200.000	-0.026	0.215
-519.931	44.175	-0.050	0.046
-518.916	236.191	0.107	0.176
-517.902	-118.111	-0.180	0.032
-516.887	275.241	-0.091	0.161
-515.872	-78.824	0.295	-0.100
-514.858	-58.301	-0.378	-0.164
-513.843	-200.000	0.002	-0.015
-512.829	-200.000	0.067	0.335
-511.814	352.316	-0.102	0.203
-510.799	10.562	-0.021	0.016
-509.785	316.544	-0.056	-0.105
-508.770	-124.190	-0.071	0.011
-507.756	800.000	-0.166	0.495
-506.741	-154.525	0.193	0.013
-505.726	-200.000	-0.049	0.244
-504.712	-10.437	0.373	0.247
-503.697	-95.135	0.188	-0.051
-502.683	-25.886	0.214	0.126
-501.668	110.950	0.151	0.182
-500.653	-200.000	0.015	-0.110
-499.639	-200.000	0.006	0.367
-498.624	-95.574	0.343	-0.092
-497.610	352.897	-0.118	0.234
-496.595	-93.627	-0.285	-0.078
-495.581	119.428	-0.314	0.388
-494.566	800.000	0.060	-0.263
-493.551	128.569	-0.174	0.221
-492.537	-97.513	0.187	0.049
-491.522	-31.972	-0.250	-0.140
-490.508	-0.419	0.129	0.091
-489.493	-102.292	0.235	0.056
-488.478	539.661	-0.078	-0.186
-487.464	-200.000	-0.054	-0.255
-486.449	800.000	0.054	-0.154
-485.435	71.444	0.107	0.111
-484.420	-7.982	0.195	-0.131
-483.405	-14.174	0.162	-0.104
-482.391	85.342	0.076	0.084
-481.376	715.307	-0.160	-0.423
-480.362	-76.882	0.121	-0.042
-479.347	14.746	-0.084	0.065
-478.332	-54.399	-0.300	0.136
-477.318	-67.197	-0.437	-0.172
-476.303	-170.067	-0.079	0.003
-475.289	713.015	0.208	-0.549
-474.274	-32.597	0.374	0.208
-473.259	379.388	-0.158	0.322
-472.245	-200.000	0.065	-0.315
-471.230	-47.912	0.194	0.094
-470.216	-91.915	-0.371	-0.105
-469.201	-136.665	0.104	-0.012
-468.186	-62.973	0.127	0.052
-467.172	13.089	0.167	-0.129
-466.157	-116.129	-0.048	-0.009
-465.143	800.000	-0.106	0.352
-464.128	-200.000	-0.006	-0.325
-463.113	91.622	-0.169	0.190
-462.099	-200.000	-0.006	0.075
-461.084	319.054	0.039	-0.073
-460.070	-141.037	-0.086	0.009
-459.055	-178.685	0.120	-0.003
-458.040	800.000	-0.129	0.379
-457.026	-200.000	0.028	-0.128
-456.011	-200.000	-0.031	-0.149
-454.997	321.510	0.328	-0.622
-453.982	-73.565	-0.192	-0.070
-452.968	34.964	-0.184	0.161
-451.953	-57.223	0.033	0.015
-450.938	356.133	0.037	-0.073
-449.924	-81.219	0.097	-0.032
-448.909	-35.801	-0.161	-0.087
-447.895	-200.000	0.015	-0.139
-446.880	32.609	0.238	-0.205
-445.865	800.000	0.010	-0.031
-444.851	467.494	-0.076	-0.170
-443.836	114.802	-0.119	-0.144
-442.822	75.604	0.249	0.262
-441.807	-200.000	-0.031	0.307
-440.792	-17.915	-0.229	0.143
-439.778	-200.000	0.060	-0.333
-438.763	411.942	-0.058	0.122
-437.749	205.922	0.091	0.141
-436.734	-38.143	-0.150	0.079
-435.719	-17.819	0.121	-0.076
-434.705	-128.255	-0.084	0.012
-433.690	800.000	0.116	0.356
-432.676	-123.221	0.281	-0.045
-431.661	312.112	-0.140	-0.261
-430.646	-160.490	0.183	0.010
-429.632	-15.531	-0.144	-0.091
-428.617	19.772	-0.097	-0.078
-427.603	-127.503	-0.094	0.014
-426.588	173.006	0.314	-0.450
-425.573	17.165	0.155	-0.122
-424.559	-145.088	-0.078	-0.007
-423.544	-200.000	0.010	0.137
-422.530	-158.976	-0.083	0.005
-421.515	170.795	0.081	0.115
-420.500	-175.831	0.204	0.005
-419.486	800.000	-0.116	0.345
-418.471	-104.326	0.093	-0.021
-417.457	800.000	0.076	-0.211
-416.442	86.760	-0.380	0.417
-415.428	140.155	-0.136	0.178
-414.413	96.181	0.138	0.157
-413.398	-51.090	-0.534	0.249
-412.384	-18.118	0.092	-0.058
-411.369	-200.000	-0.066	-0.310
-410.355	800.000	-0.064	-0.185
-409.340	561.884	0.139	-0.335
-408.325	-200.000	-0.057	-0.484
-407.311	-200.000	-0.027	-0.152
-406.296	-23.543	0.200	0.120
-405.282	-200.000	-0.040	0.181
-404.267	-81.740	0.023	0.008
-403.252	-3.691	-0.159	-0.110
-402.238	-30.360	0.190	-0.107
-401.223	135.533	0.107	0.138
-400.209	331.933	-0.069	-0.132
-399.194	-144.169	-0.225	0.021
-398.179	-39.885	0.041	-0.021
-397.165	191.028	-0.144	0.215
-396.150	-96.908	0.205	0.054
-395.136	-49.457	0.095	0.045
-394.121	136.338	-0.260	0.337
-393.106	-200.000	-0.035	0.183
-392.092	258.621	-0.055	-0.094
-391.077	166.709	-0.091	-0.129
-390.063	-91.558	0.152	0.043
-389.048	800.000	0.053	-0.154
-388.033	162.425	-0.053	0.074
-387.019	143.778	0.165	0.219
-386.004	-57.980	-0.044	-0.019
-384.990	136.741	-0.038	-0.049
-383.975	96.039	0.077	0.088
-382.960	286.884	0.061	0.110
-381.946	587.149	0.084	0.206
-380.931	-30.082	-0.135	-0.076
-379.917	-78.180	0.097	-0.033
-378.902	445.837	0.030	0.066
-377.888	272.905	-0.177	-0.311
-376.873	-200.000	0.032	-0.186
-375.858	-62.573	0.244	0.100
-374.844	-200.000	-0.052	-0.281
-373.829	800.000	-0.090	-0.344
-372.815	-51.996	0.394	-0.182
-371.800	-1.085	-0.062	-0.044
-370.785	81.972	-0.256	-0.276
-369.771	-161.647	-0.285	-0.014
-368.756	-19.937	0.217	-0.133
-367.742	-200.000	0.006	-0.132
-366.727	65.377	-0.181	0.181
-365.712	-200.000	0.004	-0.090
-364.698	-38.550	0.427	-0.224
-363.683	238.692	-0.185	-0.305
-362.669	121.355	0.147	0.182
-361.654	275.312	-0.161	-0.284
-360.639	-131.632	0.202	0.026
-359.625	252.342	-0.103	0.175
-358.610	-88.915	0.195	0.057
-357.596	455.045	0.103	-0.226
-356.581	-66.845	-0.390	-0.153
-355.566	-55.677	-0.307	-0.136
-354.552	-200.000	0.085	0.584
-353.537	538.841	0.088	0.207
-352.523	-118.112	-0.350	0.062
-351.508	-138.543	0.309	0.034
-350.493	83.506	-0.035	-0.038
-349.479	37.387	-0.163	0.143
-348.464	-200.000	-0.276	-0.000
-347.450	557.798	-0.018	-0.043
-346.435	57.791	-0.213	-0.206
-345.420	800.000	-0.040	-0.161
-344.406	76.410	0.192	0.201
-343.391	-183.421	-0.083	0.001
-342.377	194.862	-0.224	-0.337
-341.362	42.147	0.234	0.210
-340.348	-200.000	-0.027	0.229
-339.333	-139.681	0.091	-0.010
-338.318	-101.885	-0.077	0.018
-337.304	-109.555	0.273	-0.057
-336.289	174.654	-0.049	0.071
-335.275	-119.654	-0.232	0.040
-334.260	-200.000	0.053	-0.287
-333.245	107.611	0.087	-0.102
-332.231	-200.000	0.030	0.136
-331.216	472.421	0.134	-0.299
-330.202	-200.000	-0.014	-0.099
-329.187	20.179	0.020	0.016
-328.172	-6.968	0.387	-0.260
-327.158	-76.641	0.057	0.020
-326.143	-200.000	0.032	-0.186
-325.129	800.000	0.063	0.249
-324.114	0.592	0.309	-0.219
-323.099	-200.000	-0.113	-0.545
-322.085	-73.222	-0.060	-0.022
-321.070	-115.316	-0.323	0.061
-320.056	122.747	-0.207	-0.257
-319.041	-107.790	-0.263	-0.057
-318.026	105.452	-0.057	0.066
-317.012	-112.093	-0.113	0.023
-315.997	234.255	0.122	0.200
-314.983	-9.482	0.230	-0.152
-313.968	-200.000	0.056	0.416
-312.953	148.471	-0.214	0.286
-311.939	85.272	-0.105	-0.114
-310.924	-65.726	0.215	-0.085
-309.910	29.886	0.383	-0.324
-308.895	436.574	-0.099	-0.214
-307.880	-171.929	-0.511	0.016
-306.866	-51.025	0.066	-0.031
-305.851	-87.548	-0.320	0.096
-304.837	-200.000	-0.029	-0.153
-303.822	-200.000	0.081	0.353
-302.807	-81.045	-0.102	-0.033
-301.793	-200.000	0.008	0.047
-300.778	-200.000	-0.061	0.352
-299.764	-200.000	0.035	0.295
-298.749	198.856	0.186	-0.282
-297.735	-200.000	0.026	0.115
-296.720	74.715	-0.124	0.130
-295.705	-59.935	0.306	-0.129
-294.691	-200.000	-0.016	-0.144
-293.676	-200.000	-0.015	-0.180
-292.662	232.939	0.039	-0.063
-291.647	106.193	0.130	0.152
-290.632	67.672	0.415	-0.420
-289.618	-200.000	-0.005	-0.259
-288.603	61.116	-0.231	0.227
-287.589	26.174	0.046	-0.038
-286.574	25.417	-0.322	0.265
-285.559	-46.538	-0.360	0.175
-284.545	-65.597	0.237	-0.094
-283.530	-200.000	-0.011	-0.084
-282.516	177.703	0.048	0.069
-281.501	48.739	0.336	0.312
-280.486	143.081	-0.119	0.156
-279.472	211.729	-0.210	0.328
-278.457	-148.752	0.095	-0.008
-277.443	-100.278	-0.120	-0.030
-276.428	-78.168	-0.322	0.110
-275.413	-90.298	0.267	0.077
-274.399	12.827	-0.200	0.153
-273.384	738.585	-0.122	0.325
-272.370	324.578	-0.063	0.119
-271.355	-150.026	-0.332	-0.026
-270.340	-125.901	-0.226	0.034
-269.326	-88.791	0.176	-0.052
-268.311	-112.299	-0.218	0.043
-267.297	245.229	-0.094	0.157
-266.282	108.187	0.166	0.196
-265.267	12.212	0.222	0.169
-264.253	331.021	0.105	-0.201
-263.238	800.000	0.082	-0.240
-262.224	-200.000	0.026	0.203
-261.209	-151.824	-0.170	-0.012
-260.195	-140.154	-0.208	0.022
-259.180	29.231	0.183	-0.154
-258.165	-52.144	-0.033	0.015
-257.151	10.963	0.035	-0.027
-256.136	155.328	0.144	-0.196
-255.122	695.297	0.090	0.232
-254.107	-86.249	0.257	0.078
-253.092	89.780	0.253	-0.279
-252.078	-190.848	0.048	-0.001
-251.063	318.529	-0.024	-0.044
-250.049	-45.433	0.241	0.118
-249.034	-117.547	0.281	-0.050
-248.019	-44.960	0.228	-0.112
-247.005	2.697	0.070	0.050
-245.990	-200.000	-0.008	-0.244
-244.976	800.000	-0.024	0.099
-243.961	-149.748	0.358	-0.028
-242.946	-147.316	-0.335	-0.028
-241.932	-83.934	0.100	0.031
-240.917	469.868	0.066	-0.147
-239.903	-200.000	0.014	0.065
-238.888	-40.823	-0.263	0.135
-237.873	346.911	0.145	0.282
-236.859	800.000	0.087	-0.261
-235.844	-119.899	0.074	0.013
-234.830	-200.000	0.009	0.292
-233.815	229.956	-0.081	0.131
-232.800	800.000	-0.079	-0.226
-231.786	-144.473	-0.188	0.017
-230.771	57.331	0.358	-0.345
-229.757	-38.525	0.215	-0.112
-228.742	442.134	0.084	-0.182
-227.727	535.351	-0.022	0.052
-226.713	-69.456	0.166	0.063
-225.698	-136.592	-0.214	-0.024
-224.684	194.229	-0.091	-0.135
-223.669	800.000	-0.040	-0.165
-222.655	76.383	-0.166	0.174
-221.640	193.210	-0.090	-0.135
-220.625	-37.700	-0.210	-0.111
-219.611	194.229	-0.354	0.530
-218.596	94.076	0.124	0.138
-217.582	800.000	0.073	0.227
-216.567	800.000	-0.034	0.127
-215.552	65.964	-0.163	0.163
-214.538	-26.882	0.276	0.159
-213.523	235.686	0.175	0.285
-212.509	175.316	-0.210	0.300
-211.494	-0.728	-0.075	-0.053
-210.479	-14.001	-0.105	-0.067
-209.465	14.468	-0.280	0.215
-208.450	-200.000	-0.020	0.156
-207.436	-93.927	0.202	0.055
-206.421	-30.210	0.308	-0.173
-205.406	618.111	-0.086	-0.212
-204.392	365.877	0.069	0.138
-203.377	198.451	0.158	-0.238
-202.363	-200.000	-0.032	-0.270
-201.348	-200.000	0.022	-0.129
-200.333	255.924	0.133	0.224
-199.319	-44.412	-0.280	-0.138
-198.304	-94.506	0.150	-0.040
-197.290	-77.949	-0.104	0.035
-196.275	-37.271	-0.062	-0.033
-195.260	-111.802	-0.259	-0.052
-194.246	-120.430	0.528	-0.089
-193.231	689.518	-0.106	0.272
-192.217	34.251	-0.043	0.037
-191.202	43.994	0.243	-0.219
-190.187	-200.000	0.008	-0.260
-189.173	121.645	0.075	-0.093
-188.158	428.714	-0.048	-0.101
-187.144	-7.644	-0.042	-0.028
-186.129	534.037	0.046	0.108
-185.114	-59.402	0.077	0.033
-184.100	39.139	-0.255	0.225
-183.085	75.236	0.217	0.226
-182.071	-121.117	0.229	-0.038
-181.056	-200.000	-0.004	-0.098
-180.042	-43.797	0.153	-0.076
-179.027	531.373	0.222	0.517
-178.012	800.000	0.037	0.108
-176.998	-42.308	0.072	0.036
-175.983	-139.425	0.176	-0.019
-174.969	-84.163	-0.284	-0.089
-173.954	-200.000	0.017	-0.099
-172.939	-110.853	-0.147	0.030
-171.925	81.213	0.051	-0.054
-170.910	800.000	-0.038	-0.137
-169.896	-20.343	0.235	-0.142
-168.881	-94.636	0.249	-0.067
-167.866	800.000	-0.027	0.078
-166.852	-199.465	0.278	0.001
-165.837	82.579	0.080	0.086
-164.823	173.535	0.126	0.179
-163.808	5.216	-0.198	-0.144
-162.793	800.000	-0.128	-0.488
-161.779	-200.000	0.000	0.220
-160.764	164.976	0.223	0.310
-159.750	255.124	0.146	-0.247
-158.735	108.060	0.334	0.392
-157.720	-28.821	-0.200	0.113
-156.706	800.000	-0.022	-0.073
-155.691	40.739	-0.216	-0.192
-154.677	386.008	0.052	0.105
-153.662	-200.000	0.018	0.085
-152.647	-38.055	0.132	0.069
-151.633	223.432	-0.141	-0.224
-150.618	-80.053	0.172	-0.057
-149.604	-200.000	0.059	-0.361
-148.589	-96.433	0.191	0.050
-147.574	534.060	-0.200	0.466
-146.560	-81.188	-0.030	0.010
-145.545	-44.618	0.245	0.120
-144.531	-19.232	-0.458	0.280
-143.516	-43.899	0.235	-0.116
-142.502	-167.670	-0.291	-0.011
-141.487	116.767	0.209	0.253
-140.472	-52.564	-0.374	-0.170
-139.458	-82.450	-0.498	0.159
-138.443	481.766	0.041	0.092
-137.429	-33.102	0.051	0.028
-136.414	466.357	-0.134	0.295
-135.399	800.000	0.014	0.058
-134.385	-185.578	0.265	0.004
-133.370	-120.614	-0.263	-0.044
-132.356	82.395	0.177	0.189
-131.341	-96.409	-0.080	0.021
-130.326	-200.000	-0.012	-0.264
-129.312	698.774	0.130	0.336
-128.297	-87.886	0.194	-0.058
-127.283	158.647	-0.149	-0.203
-126.268	-105.067	0.124	0.028
-125.253	142.539	0.272	-0.356
-124.239	-200.000	-0.005	-0.216
-123.224	-93.985	0.414	-0.112
-122.210	-114.847	0.233	0.044
