DTS Sentinel unit serial number:	SN413079Multiplexer serial number:	ORYXHardware model number:	OX4-SRSoftware version number:	ORYX F/W v4.00 Oryx Data Collector v3.7.2.0data status	okinstallation	princeton_trtdifferential loss correction	single-endedforward channel	channel 1reverse channel	N/Adate	2019/09/18time	08:30:35forward acquisition time	60.00reverse acquisition time	0.00gamma	496.2192k internal	0.2337k external	0.2337temperature offset calibration	0.9975default loss term (dB/km)	0.3790temperature slope calibration	1.0000multiplexer offset coefficient	1.0000multiplexer slope coefficient	1.0000fibre end	0.00T internal ref (°C)	24.31T ext. ref 1 (°C)	0.22T ext. ref 2 (°C)	20.05length (m)	temperature (°C)	Stokes	anti-Stokes-747.200	-22.832	-0.286	-0.174
-746.185	2.364	0.322	-0.234
-745.171	227.959	-0.223	-0.364
-744.156	-72.786	0.189	-0.070
-743.142	-200.000	-0.064	0.318
-742.127	-122.226	0.507	0.083
-741.112	-200.000	-0.071	-0.343
-740.098	-200.000	-0.024	0.289
-739.083	119.154	0.081	0.100
-738.069	106.550	-0.176	0.210
-737.054	-124.088	-0.240	0.038
-736.039	-118.852	0.218	0.038
-735.025	-150.164	0.334	0.026
-734.010	-145.853	-0.343	-0.031
-732.996	137.961	-0.072	-0.095
-731.981	-122.932	-0.199	0.032
-730.966	-200.000	0.003	-0.029
-729.952	800.000	0.053	-0.231
-728.937	-182.302	-0.087	-0.002
-727.923	179.408	0.197	-0.289
-726.908	-96.071	-0.147	-0.039
-725.894	91.373	-0.166	0.187
-724.879	159.302	0.076	-0.106
-723.864	167.177	-0.195	-0.278
-722.850	134.273	0.033	0.043
-721.835	-103.153	-0.189	0.045
-720.821	-102.161	0.114	-0.027
-719.806	145.152	0.192	-0.257
-718.791	-101.662	-0.086	0.021
-717.777	28.083	-0.175	0.148
-716.762	17.211	-0.243	0.193
-715.748	43.927	0.075	-0.069
-714.733	-200.000	0.047	0.290
-713.718	-200.000	-0.012	-0.146
-712.704	-38.320	-0.101	-0.054
-711.689	331.694	0.105	-0.202
-710.675	-104.769	-0.175	0.040
-709.660	23.325	-0.369	0.304
-708.645	133.919	0.109	-0.142
-707.631	-200.000	-0.024	0.262
-706.616	-175.683	-0.258	-0.007
-705.602	-51.927	0.145	0.067
-704.587	-152.297	0.090	-0.007
-703.572	-87.591	-0.139	0.042
-702.558	-128.611	-0.125	0.018
-701.543	119.311	-0.113	-0.141
-700.529	115.667	0.168	0.206
-699.514	800.000	-0.091	0.355
-698.499	182.899	-0.146	-0.216
-697.485	424.121	-0.073	0.158
-696.470	144.719	-0.115	-0.154
-695.456	-90.672	-0.326	-0.094
-694.441	-200.000	0.004	-0.059
-693.426	800.000	-0.031	-0.096
-692.412	-25.049	-0.294	0.174
-691.397	-112.188	0.306	-0.062
-690.383	-200.000	0.042	-0.315
-689.368	169.421	0.140	-0.201
-688.354	-21.311	0.244	-0.149
-687.339	60.830	-0.133	0.132
-686.324	-85.751	0.189	0.059
-685.310	-166.395	-0.228	0.010
-684.295	800.000	0.080	-0.227
-683.281	404.890	-0.150	0.317
-682.266	-80.509	-0.285	-0.095
-681.251	13.107	-0.192	-0.149
-680.237	-82.093	-0.094	0.031
-679.222	271.710	0.112	0.198
-678.208	-89.390	0.027	0.008
-677.193	-34.369	-0.105	0.058
-676.178	800.000	0.064	-0.211
-675.164	408.364	0.105	0.223
-674.149	-200.000	-0.012	-0.057
-673.135	-200.000	0.032	-0.158
-672.120	14.920	0.327	0.256
-671.105	-66.990	-0.108	-0.043
-670.091	-86.725	-0.198	0.061
-669.076	475.809	0.109	-0.247
-668.062	-173.139	-0.319	-0.010
-667.047	-92.742	-0.293	-0.082
-666.032	104.812	0.093	0.110
-665.018	800.000	0.083	-0.315
-664.003	185.582	-0.127	-0.189
-662.989	17.352	0.099	0.078
-661.974	-76.381	-0.517	0.182
-660.959	229.582	-0.120	0.196
-659.945	1.036	0.078	0.056
-658.930	263.970	0.267	-0.464
-657.916	51.259	-0.158	-0.150
-656.901	81.630	-0.058	0.062
-655.886	800.000	-0.139	-0.387
-654.872	-200.000	-0.016	-0.195
-653.857	-200.000	0.032	-0.206
-652.843	188.110	-0.103	-0.154
-651.828	111.561	0.046	-0.056
-650.814	768.869	-0.088	-0.239
-649.799	-200.000	-0.005	0.223
-648.784	-44.445	0.311	-0.156
-647.770	-95.892	0.155	-0.041
-646.755	-163.700	0.371	0.017
-645.741	12.386	-0.209	0.161
-644.726	326.364	-0.066	-0.127
-643.711	1.111	-0.087	-0.062
-642.697	188.011	-0.199	0.298
-641.682	74.347	-0.148	0.155
-640.668	800.000	-0.078	-0.314
-639.653	-111.066	0.174	0.036
-638.638	-71.663	-0.120	0.045
-637.624	516.672	0.173	-0.403
-636.609	-200.000	-0.008	-0.230
-635.595	0.269	-0.270	0.193
-634.580	291.086	0.035	-0.064
-633.565	800.000	0.090	-0.251
-632.551	-50.466	0.097	0.046
-631.536	800.000	-0.016	-0.063
-630.522	-54.696	0.123	0.056
-629.507	-200.000	-0.006	0.029
-628.492	800.000	0.105	-0.326
-627.478	-50.559	-0.218	0.103
-626.463	539.521	-0.052	0.124
-625.449	-200.000	-0.040	0.194
-624.434	127.959	0.157	-0.199
-623.419	-200.000	0.004	0.098
-622.405	-155.345	-0.207	-0.013
-621.390	18.344	-0.398	0.317
-620.376	-200.000	0.021	-0.104
-619.361	440.028	0.098	-0.215
-618.346	-40.320	0.254	0.132
-617.332	-124.484	0.096	-0.015
-616.317	800.000	0.039	0.121
-615.303	800.000	0.053	-0.198
-614.288	546.876	0.103	-0.246
-613.273	124.086	-0.202	-0.254
-612.259	125.993	-0.018	-0.023
-611.244	3.497	-0.154	0.112
-610.230	-120.231	0.099	-0.017
-609.215	63.228	0.095	-0.095
-608.201	173.711	-0.060	-0.086
-607.186	102.358	0.205	0.239
-606.171	218.540	-0.094	0.150
-605.157	-73.101	-0.152	-0.056
-604.142	-82.457	-0.270	-0.087
-603.128	-151.830	-0.101	0.007
-602.113	74.354	0.206	-0.216
-601.098	-200.000	-0.026	-0.118
-600.084	-42.653	-0.129	-0.065
-599.069	8.771	-0.305	-0.230
-598.055	-45.240	0.330	-0.163
-597.040	128.606	0.212	-0.270
-596.025	-200.000	0.011	0.130
-595.011	133.474	0.098	0.126
-593.996	-127.230	-0.220	0.032
-592.982	501.828	0.043	0.099
-591.967	-87.766	0.373	-0.112
-590.952	800.000	-0.066	-0.210
-589.938	-18.952	-0.112	-0.070
-588.923	-30.140	-0.120	-0.068
-587.909	-2.757	-0.133	0.093
-586.894	-98.156	0.367	0.094
-585.879	-138.773	-0.411	-0.045
-584.865	-200.000	-0.002	0.255
-583.850	-200.000	-0.019	0.271
-582.836	49.173	0.213	-0.199
-581.821	562.190	-0.143	0.346
-580.806	800.000	-0.063	0.198
-579.792	-91.274	-0.230	-0.066
-578.777	415.060	0.235	-0.499
-577.763	52.967	0.088	-0.084
-576.748	-200.000	0.008	0.219
-575.733	786.580	0.065	0.178
-574.719	-200.000	-0.009	-0.060
-573.704	800.000	-0.198	-0.707
-572.690	-75.866	0.166	0.059
-571.675	-59.639	0.414	0.177
-570.661	112.608	-0.203	0.245
-569.646	-138.190	-0.288	-0.032
-568.631	269.661	-0.116	0.204
-567.617	-140.173	0.251	0.026
-566.602	-165.753	-0.331	0.014
-565.588	-1.579	-0.077	-0.054
-564.573	-97.532	-0.254	-0.066
-563.558	495.150	0.142	0.326
-562.544	-73.970	0.191	-0.069
-561.529	-110.635	-0.047	0.010
-560.515	800.000	0.145	0.399
-559.500	-121.716	-0.037	-0.006
-558.485	28.859	-0.106	0.090
-557.471	-64.803	0.194	0.078
-556.456	-39.559	-0.032	0.017
-555.442	-200.000	0.002	0.110
-554.427	-138.915	0.088	-0.009
-553.412	-183.020	0.215	0.004
-552.398	76.275	-0.141	-0.148
-551.383	335.933	0.064	0.125
-550.369	800.000	0.031	-0.097
-549.354	97.481	-0.094	0.107
-548.339	-139.369	-0.190	-0.020
-547.325	-200.000	-0.036	0.259
-546.310	2.767	0.270	-0.195
-545.296	200.246	-0.065	0.100
-544.281	-184.116	0.286	-0.005
-543.266	-145.149	-0.172	0.016
-542.252	800.000	0.058	0.187
-541.237	-200.000	-0.027	0.153
-540.223	38.344	-0.143	-0.127
-539.208	318.260	0.224	-0.422
-538.193	-135.918	0.106	-0.012
-537.179	172.601	0.150	0.215
-536.164	-34.139	-0.191	0.104
-535.150	-76.459	0.280	0.098
-534.135	51.226	0.192	-0.182
-533.121	334.592	-0.067	0.130
-532.106	24.436	-0.032	0.026
-531.091	-200.000	0.013	-0.134
-530.077	-134.922	0.440	0.053
-529.062	93.809	0.210	-0.237
-528.048	24.934	-0.074	-0.061
-527.033	69.622	-0.074	-0.076
-526.018	-131.608	-0.050	-0.007
-525.004	-200.000	0.002	-0.030
-523.989	-200.000	0.020	-0.100
-522.975	-53.609	-0.277	-0.126
-521.960	411.467	-0.058	0.122
-520.945	576.322	-0.117	-0.285
-519.931	239.992	0.062	-0.103
-518.916	265.551	-0.104	-0.180
-517.902	151.138	0.021	0.028
-516.887	143.858	0.234	-0.310
-515.872	-56.743	0.240	0.105
-514.858	-200.000	-0.016	0.179
-513.843	314.547	0.227	-0.425
-512.829	-112.758	0.136	0.027
-511.814	-200.000	0.006	-0.035
-510.799	-200.000	0.066	-0.336
-509.785	115.117	0.111	-0.135
-508.770	-84.209	-0.194	-0.061
-507.756	-200.000	-0.006	-0.278
-506.741	572.084	-0.101	0.244
-505.726	-65.327	-0.421	-0.168
-504.712	206.858	0.142	-0.220
-503.697	15.455	-0.159	-0.124
-502.683	213.422	-0.057	-0.089
-501.668	183.352	0.202	-0.297
-500.653	-200.000	-0.045	-0.293
-499.639	-32.251	-0.362	-0.201
-498.624	-4.172	0.267	0.184
-497.610	519.894	-0.057	-0.133
-496.595	424.687	0.107	0.230
-495.581	-68.028	0.088	0.034
-494.566	-200.000	0.050	0.388
-493.551	-36.555	0.073	-0.039
-492.537	-200.000	0.048	-0.398
-491.522	263.804	0.074	0.127
-490.508	458.459	-0.062	-0.137
-489.493	-200.000	0.020	0.121
-488.478	219.825	0.109	0.173
-487.464	-51.774	-0.187	-0.087
-486.449	800.000	0.089	0.290
-485.435	-83.480	-0.235	-0.075
-484.420	433.764	-0.160	-0.344
-483.405	-19.837	0.211	-0.130
-482.391	800.000	-0.033	0.118
-481.376	-124.367	0.172	0.027
-480.362	445.584	0.086	-0.187
-479.347	694.827	-0.147	-0.383
-478.332	-200.000	0.042	-0.257
-477.318	-200.000	-0.020	-0.332
-476.303	-112.229	0.313	0.062
-475.289	-200.000	0.017	-0.170
-474.274	137.591	0.283	0.368
-473.259	287.268	0.071	-0.127
-472.245	783.141	0.152	-0.415
-471.230	317.285	-0.067	0.126
-470.216	-129.879	0.237	-0.032
-469.201	-200.000	0.032	-0.357
-468.186	97.742	-0.172	0.196
-467.172	-144.404	-0.071	-0.007
-466.157	11.987	-0.085	0.065
-465.143	-33.932	-0.265	0.145
-464.128	-200.000	-0.007	0.308
-463.113	25.964	0.063	-0.052
-462.099	-139.647	0.162	-0.017
-461.084	65.298	0.092	-0.093
-460.070	35.844	0.051	0.045
-459.055	423.082	0.094	0.201
-458.040	106.337	-0.042	0.050
-457.026	-91.472	0.081	-0.023
-456.011	-200.000	-0.008	-0.050
-454.997	-45.561	0.109	-0.054
-453.982	29.312	0.089	0.075
-452.968	-22.013	0.233	0.141
-451.953	-18.494	-0.146	-0.091
-450.938	174.689	-0.058	0.083
-449.924	326.733	-0.079	0.151
-448.909	-164.324	-0.166	-0.008
-447.895	-73.288	-0.203	0.074
-446.880	-105.270	-0.332	0.075
-445.865	99.214	0.067	0.077
-444.851	82.085	-0.213	0.229
-443.836	-96.857	0.159	-0.041
-442.822	-119.823	0.135	0.023
-441.807	-200.000	-0.026	0.343
-440.792	-166.699	-0.358	0.015
-439.778	-50.707	-0.232	0.109
-438.763	-107.224	0.128	-0.028
-437.749	-65.882	0.233	0.092
-436.734	-8.119	0.102	0.068
-435.719	291.408	-0.025	0.045
-434.705	-144.477	-0.066	-0.006
-433.690	295.229	-0.071	-0.128
-432.676	800.000	-0.024	0.083
-431.661	509.489	-0.071	-0.163
-430.646	-100.224	0.086	0.021
-429.632	460.252	-0.050	-0.110
-428.617	-122.384	-0.162	-0.026
-427.603	39.384	0.092	0.082
-426.588	-69.952	0.213	0.080
-425.573	87.703	-0.035	0.038
-424.559	344.729	0.065	-0.127
-423.544	-98.124	0.205	-0.052
-422.530	-200.000	0.036	-0.350
-421.515	-64.992	0.171	0.068
-420.500	800.000	0.074	0.288
-419.486	301.943	-0.037	-0.068
-418.471	-20.803	0.112	-0.068
-417.457	59.341	0.281	0.275
-416.442	-200.000	-0.047	0.440
-415.428	-200.000	-0.005	0.063
-414.413	332.778	0.090	0.172
-413.398	5.896	-0.272	-0.199
-412.384	-21.878	-0.236	-0.142
-411.369	61.634	-0.096	0.095
-410.355	339.581	-0.198	0.383
-409.340	644.871	-0.117	0.296
-408.325	13.191	0.367	0.282
-407.311	-77.519	-0.156	-0.054
-406.296	-52.839	-0.304	0.139
-405.282	8.297	0.104	0.078
-404.267	-2.110	-0.168	-0.117
-403.252	0.596	0.126	-0.089
-402.238	-3.101	-0.220	-0.152
-401.223	-200.000	0.081	-0.483
-400.209	-55.623	-0.282	0.125
-399.194	83.293	0.216	0.233
-398.179	-103.279	-0.478	-0.112
-397.165	55.334	-0.206	-0.198
-396.150	344.656	-0.074	-0.145
-395.136	-80.976	-0.374	0.123
-394.121	-31.423	0.187	0.104
-393.106	740.564	-0.137	-0.363
-392.092	301.047	-0.174	0.318
-391.077	-99.233	0.317	0.079
-390.063	29.837	-0.182	0.153
-389.048	800.000	-0.059	-0.208
-388.033	-167.676	-0.280	0.011
-387.019	286.651	0.094	-0.168
-386.004	-200.000	-0.048	-0.353
-384.990	168.873	-0.093	0.131
-383.975	368.130	-0.192	0.384
-382.960	760.694	0.026	0.070
-381.946	-52.813	0.307	0.140
-380.931	35.311	0.287	-0.249
-379.917	-8.998	-0.175	0.116
-378.902	76.030	0.228	0.239
-377.888	-130.380	0.154	0.021
-376.873	800.000	-0.067	0.252
-375.858	-58.542	-0.232	0.100
-374.844	-135.674	-0.311	0.036
-373.829	-200.000	0.012	0.120
-372.815	800.000	-0.052	-0.213
-371.800	521.265	0.064	0.148
-370.785	57.923	-0.175	-0.170
-369.771	83.260	0.166	-0.179
-368.756	800.000	-0.043	-0.169
-367.742	79.953	0.175	-0.186
-366.727	292.730	-0.035	-0.063
-365.712	672.788	-0.046	0.117
-364.698	-29.329	0.425	-0.240
-363.683	93.379	0.010	0.011
-362.669	-200.000	0.069	0.416
-361.654	556.962	-0.118	0.281
-360.639	29.292	-0.062	-0.052
-359.625	-161.731	0.030	0.001
-358.610	308.077	-0.074	0.137
-357.596	64.889	-0.136	0.136
-356.581	-66.076	-0.354	-0.140
-355.566	197.901	0.122	0.185
-354.552	-186.046	-0.333	0.005
-353.537	-69.950	0.167	-0.063
-352.523	89.034	0.274	-0.302
-351.508	-1.674	0.168	-0.117
-350.493	-200.000	0.007	-0.251
-349.479	-200.000	-0.014	0.142
-348.464	-144.276	0.189	-0.017
-347.450	-168.106	-0.227	-0.009
-346.435	-3.758	-0.337	0.231
-345.420	225.481	0.119	-0.190
-344.406	26.702	-0.165	0.137
-343.391	68.756	-0.044	-0.045
-342.377	50.872	0.123	0.115
-341.362	-168.463	0.447	-0.017
-340.348	-94.171	-0.268	0.073
-339.333	-89.935	0.373	-0.108
-338.318	176.737	0.238	-0.342
-337.304	-179.196	-0.115	0.003
-336.289	-200.000	-0.012	0.051
-335.275	299.523	-0.080	-0.146
-334.260	685.104	0.116	-0.299
-333.245	-93.867	0.146	0.040
-332.231	107.876	-0.018	-0.021
-331.216	-200.000	-0.019	0.247
-330.202	800.000	0.072	-0.198
-329.187	-118.794	0.060	-0.010
-328.172	-71.924	-0.297	-0.109
-327.158	-200.000	0.000	-0.067
-326.143	-200.000	-0.079	0.409
-325.129	-116.009	0.085	-0.016
-324.114	-13.813	0.260	-0.166
-323.099	124.710	0.020	0.025
-322.085	95.118	0.040	0.045
-321.070	-200.000	0.048	-0.268
-320.056	153.385	0.230	0.311
-319.041	-200.000	0.001	-0.112
-318.026	315.758	-0.121	-0.225
-317.012	534.957	0.124	-0.289
-315.997	800.000	-0.088	0.350
-314.983	2.112	0.233	-0.166
-313.968	203.815	-0.035	0.054
-312.953	-69.491	0.182	-0.069
-311.939	-117.367	-0.471	-0.084
-310.924	-126.729	0.360	-0.053
-309.910	7.633	-0.275	0.203
-308.895	-66.204	-0.128	-0.050
-307.880	-74.198	-0.168	0.060
-306.866	365.270	-0.160	-0.319
-305.851	55.549	-0.284	0.271
-304.837	-15.958	0.239	-0.150
-303.822	418.731	0.087	-0.183
-302.807	10.523	-0.058	-0.043
-301.793	-55.876	0.102	0.045
-300.778	499.199	-0.033	0.076
-299.764	-71.671	-0.335	-0.123
-298.749	-200.000	-0.007	0.077
-297.735	-102.690	-0.013	-0.003
-296.720	-200.000	0.345	0.000
-295.705	-40.825	-0.110	0.056
-294.691	293.381	-0.132	0.237
-293.676	154.959	0.233	0.317
-292.662	-55.006	-0.301	0.134
-291.647	-200.000	-0.064	-0.291
-290.632	677.904	0.077	0.198
-289.618	-42.779	0.218	0.109
-288.603	106.604	-0.113	-0.132
-287.589	339.354	-0.104	-0.201
-286.574	361.558	0.115	0.227
-285.559	-92.076	-0.138	0.038
-284.545	-200.000	0.052	-0.275
-283.530	-20.668	0.159	0.096
-282.516	10.494	0.184	-0.138
-281.501	-200.000	0.061	0.394
-280.486	74.375	0.094	0.097
-279.472	800.000	-0.002	0.009
-278.457	73.096	0.349	-0.359
-277.443	10.185	-0.219	-0.164
-276.428	-200.000	0.419	-0.000
-275.413	-42.579	0.267	-0.134
-274.399	-123.498	-0.211	0.033
-273.384	49.893	-0.064	-0.059
-272.370	63.134	0.205	-0.202
-271.355	800.000	-0.054	0.150
-270.340	-200.000	-0.012	-0.116
-269.326	18.640	-0.132	0.104
-268.311	-92.954	0.295	-0.081
-267.297	-57.938	-0.288	0.124
-266.282	-39.826	0.254	-0.131
-265.267	124.885	-0.109	0.135
-264.253	-200.000	0.061	0.284
-263.238	-126.994	0.104	0.015
-262.224	800.000	0.092	0.324
-261.209	-200.000	-0.022	0.279
-260.195	252.002	0.138	0.232
-259.180	-49.631	0.175	-0.082
-258.165	327.817	-0.108	-0.205
-257.151	800.000	-0.144	0.535
-256.136	329.889	-0.169	0.320
-255.122	800.000	-0.098	0.311
-254.107	42.309	0.148	0.132
-253.092	172.614	-0.044	-0.063
-252.078	-50.344	0.255	0.119
-251.063	-147.612	-0.243	0.020
-250.049	229.590	-0.035	0.055
-249.034	38.973	0.107	0.094
-248.019	59.737	-0.338	0.329
-247.005	-78.454	0.144	-0.049
-245.990	-87.977	-0.262	-0.078
-244.976	321.889	-0.066	-0.123
-243.961	-19.826	0.230	-0.140
-242.946	-200.000	0.033	-0.198
-241.932	-114.356	-0.235	-0.045
-240.917	-181.254	0.193	-0.004
-239.903	33.052	0.184	-0.157
-238.888	-114.888	0.330	0.062
-237.873	277.881	0.169	-0.297
-236.859	68.411	-0.103	0.104
-235.844	800.000	-0.066	0.241
-234.830	-200.000	-0.014	-0.293
-233.815	306.835	-0.047	-0.087
-232.800	-200.000	-0.073	0.347
-231.786	-65.094	-0.210	0.083
-230.771	-200.000	-0.051	-0.290
-229.757	-151.319	-0.218	-0.016
-228.742	111.631	0.034	0.041
-227.727	-43.051	-0.166	0.083
-226.713	-100.278	0.056	0.014
-225.698	475.467	-0.124	0.276
-224.684	-117.614	0.089	0.016
-223.669	-200.000	0.010	0.381
-222.655	14.114	-0.204	-0.156
-221.640	-37.640	0.125	0.066
-220.625	-71.287	-0.596	-0.220
-219.611	-152.389	-0.572	-0.040
-218.596	-64.213	0.341	0.137
-217.582	135.113	-0.063	-0.081
-216.567	764.404	0.046	0.123
-215.552	-13.469	-0.157	-0.100
-214.538	16.169	0.057	0.044
-213.523	-123.258	-0.277	0.043
-212.509	800.000	-0.046	-0.164
-211.494	13.677	0.181	0.138
-210.479	446.967	-0.115	-0.249
-209.465	800.000	0.055	0.154
-208.450	-125.724	-0.055	0.008
-207.436	120.055	-0.072	-0.088
-206.421	-200.000	-0.086	-0.521
-205.406	-200.000	-0.064	-0.338
-204.392	-86.651	0.180	0.054
-203.377	800.000	0.022	-0.065
-202.363	800.000	-0.040	0.164
-201.348	-9.575	0.134	0.088
-200.333	374.316	-0.154	-0.307
-199.319	-180.206	0.114	-0.002
-198.304	-161.312	0.391	-0.020
-197.290	-200.000	-0.036	0.236
-196.275	28.607	-0.081	0.067
-195.260	800.000	-0.074	0.230
-194.246	101.240	0.129	-0.147
-193.231	443.688	0.072	0.156
-192.217	524.180	-0.186	0.429
-191.202	105.440	0.125	0.145
-190.187	242.560	-0.108	-0.177
-189.173	25.706	0.145	0.119
-188.158	-109.437	0.066	-0.014
-187.144	-118.554	0.281	-0.049
-186.129	-93.457	0.453	0.123
-185.114	167.012	0.119	0.166
-184.100	152.500	-0.071	-0.095
-183.085	-31.552	-0.166	-0.092
-182.071	-104.577	-0.111	0.025
-181.056	-200.000	0.016	-0.172
-180.042	-188.947	-0.259	0.003
-179.027	109.735	-0.046	0.055
-178.012	800.000	0.065	-0.190
-176.998	26.014	-0.229	-0.187
-175.983	-200.000	-0.036	-0.223
-174.969	-200.000	0.099	0.000
-173.954	-200.000	0.000	0.073
-172.939	53.096	0.102	0.096
-171.925	-88.205	-0.134	0.039
-170.910	0.148	-0.218	0.153
-169.896	-200.000	-0.034	0.228
-168.881	-200.000	0.065	-0.312
-167.866	800.000	0.066	0.189
-166.852	6.295	-0.171	0.124
-165.837	-200.000	-0.006	0.335
-164.823	-200.000	0.015	0.068
-163.808	381.735	-0.147	0.296
-162.793	-200.000	-0.008	0.116
-161.779	-116.607	0.162	-0.029
-160.764	86.619	-0.078	0.085
-159.750	-200.000	0.023	0.358
-158.735	-200.000	0.050	-0.264
-157.720	64.893	0.261	0.259
-156.706	-200.000	-0.032	-0.144
-155.691	7.301	-0.260	-0.191
-154.677	800.000	-0.090	0.311
-153.662	504.781	0.116	-0.264
-152.647	-200.000	0.060	-0.297
-151.633	304.352	-0.028	-0.051
-150.618	283.584	0.056	-0.099
-149.604	436.766	-0.111	-0.237
-148.589	14.502	-0.423	0.324
-147.574	-200.000	-0.012	-0.125
-146.560	-57.398	0.272	0.117
-145.545	-65.389	-0.304	0.120
-144.531	71.952	0.299	0.305
-143.516	35.362	-0.232	-0.199
-142.502	-53.840	0.139	0.062
-141.487	800.000	0.167	-0.492
-140.472	123.784	0.150	-0.185
-139.458	91.213	-0.164	0.180
-138.443	-200.000	-0.077	0.361
-137.429	-133.044	0.187	0.023
-136.414	800.000	0.064	0.186
-135.399	64.474	0.045	0.045
-134.385	-75.849	0.140	-0.049
-133.370	-200.000	-0.019	-0.122
-132.356	620.352	0.130	-0.320
-131.341	-84.707	-0.410	-0.127
-130.326	56.497	-0.033	0.032
-129.312	115.607	-0.107	0.128
-128.297	800.000	-0.139	-0.447
-127.283	800.000	-0.062	0.219
-126.268	-200.000	-0.012	-0.180
-125.253	-97.239	0.119	0.031
-124.239	800.000	-0.089	-0.247
-123.224	10.052	-0.037	-0.028
-122.210	-138.211	-0.091	-0.010
-121.195	-120.630	-0.367	-0.061
