DTS Sentinel unit serial number:	SN413079Multiplexer serial number:	ORYXHardware model number:	OX4-SRSoftware version number:	ORYX F/W v4.00 Oryx Data Collector v3.7.2.0data status	okinstallation	princeton_trtdifferential loss correction	single-endedforward channel	channel 1reverse channel	N/Adate	2019/09/18time	02:30:35forward acquisition time	60.00reverse acquisition time	0.00gamma	496.2192k internal	0.2341k external	0.2341temperature offset calibration	0.9979default loss term (dB/km)	0.3790temperature slope calibration	1.0000multiplexer offset coefficient	1.0000multiplexer slope coefficient	1.0000fibre end	0.00T internal ref (°C)	22.81T ext. ref 1 (°C)	0.16T ext. ref 2 (°C)	16.77length (m)	temperature (°C)	Stokes	anti-Stokes-747.200	-200.000	0.013	0.180
-746.185	242.262	-0.273	0.458
-745.171	800.000	-0.050	0.183
-744.156	-134.365	-0.181	-0.022
-743.142	-96.179	-0.318	0.084
-742.127	-88.542	0.371	-0.111
-741.112	800.000	0.099	-0.385
-740.098	277.707	0.040	0.071
-739.083	-200.000	0.026	-0.143
-738.069	-67.526	-0.071	-0.028
-737.054	-50.502	-0.285	-0.135
-736.039	14.906	-0.335	0.262
-735.025	522.479	0.056	-0.131
-734.010	-34.818	-0.148	0.081
-732.996	-200.000	0.019	-0.107
-731.981	-74.712	0.170	-0.061
-730.966	-130.850	0.315	0.042
-729.952	-156.292	0.379	-0.024
-728.937	-127.943	-0.359	0.052
-727.923	125.344	0.098	-0.124
-726.908	-144.546	-0.222	-0.021
-725.894	435.183	-0.071	0.154
-724.879	305.620	0.202	-0.375
-723.864	-92.759	-0.461	-0.129
-722.850	-16.705	0.088	0.056
-721.835	48.947	0.057	-0.053
-720.821	-113.308	-0.321	0.063
-719.806	213.647	-0.025	-0.040
-718.791	-92.375	-0.229	-0.064
-717.777	800.000	0.030	0.092
-716.762	205.931	0.148	0.231
-715.748	-200.000	0.006	-0.150
-714.733	-138.543	0.044	-0.005
-713.718	-200.000	0.064	0.288
-712.704	482.932	-0.076	-0.172
-711.689	118.568	-0.128	-0.158
-710.675	-10.764	-0.175	-0.116
-709.660	31.269	-0.070	-0.060
-708.645	-200.000	-0.000	0.287
-707.631	68.093	-0.133	0.136
-706.616	62.881	0.052	0.052
-705.602	-200.000	-0.038	0.325
-704.587	-79.129	-0.490	-0.166
-703.572	155.277	-0.110	0.151
-702.558	-32.306	0.149	0.083
-701.543	-50.225	-0.184	-0.087
-700.529	4.147	-0.037	-0.027
-699.514	-108.745	0.285	-0.061
-698.499	-200.000	-0.045	-0.197
-697.485	321.126	0.107	-0.204
-696.470	-43.341	-0.192	-0.097
-695.456	-5.655	0.126	0.086
-694.441	22.984	-0.112	0.092
-693.426	399.089	-0.193	-0.405
-692.412	89.210	0.227	-0.253
-691.397	6.035	0.017	-0.013
-690.383	260.280	0.028	-0.049
-689.368	-51.511	-0.236	-0.110
-688.354	-27.264	0.178	-0.104
-687.339	-58.916	0.178	0.077
-686.324	-9.420	-0.150	-0.100
-685.310	680.408	-0.131	0.341
-684.295	315.489	0.081	0.152
-683.281	-200.000	-0.047	-0.280
-682.266	-169.670	-0.273	-0.010
-681.251	-200.000	-0.088	0.000
-680.237	-200.000	-0.027	0.184
-679.222	118.734	0.165	0.203
-678.208	187.100	-0.093	0.138
-677.193	-200.000	-0.001	-0.171
-676.178	-200.000	-0.004	-0.282
-675.164	-29.781	-0.262	0.149
-674.149	-200.000	-0.025	-0.175
-673.135	-200.000	0.050	-0.286
-672.120	217.317	0.340	-0.542
-671.105	7.330	-0.179	-0.133
-670.091	-200.000	-0.007	-0.101
-669.076	-97.848	-0.152	-0.039
-668.062	52.748	-0.177	-0.169
-667.047	414.816	0.079	0.168
-666.032	-31.551	0.241	-0.135
-665.018	-89.630	-0.287	0.084
-664.003	772.507	0.065	-0.178
-662.989	32.424	-0.159	0.137
-661.974	-32.287	-0.082	-0.046
-660.959	-121.520	0.150	0.025
-659.945	-70.897	0.196	0.074
-658.930	757.847	-0.095	0.258
-657.916	-13.380	0.343	0.222
-656.901	279.168	0.060	-0.107
-655.886	-200.000	0.329	-0.001
-654.872	267.975	-0.189	-0.331
-653.857	228.095	0.054	-0.088
-652.843	800.000	-0.012	0.034
-651.828	-79.813	-0.164	-0.055
-650.814	-107.868	0.243	0.053
-649.799	800.000	-0.176	0.581
-648.784	-200.000	-0.001	-0.061
-647.770	-11.421	-0.422	-0.278
-646.755	403.016	-0.019	-0.040
-645.741	-42.784	-0.180	-0.091
-644.726	103.781	0.134	-0.157
-643.711	-134.529	-0.258	0.031
-642.697	28.467	-0.237	-0.200
-641.682	-24.381	-0.303	-0.180
-640.668	195.595	0.158	-0.240
-639.653	89.328	-0.235	0.261
-638.638	-41.835	0.222	-0.114
-637.624	-26.315	0.117	0.068
-636.609	800.000	0.034	-0.106
-635.595	29.820	-0.194	0.165
-634.580	10.325	0.500	-0.379
-633.565	-200.000	0.026	0.124
-632.551	-200.000	-0.075	0.381
-631.536	-29.894	-0.236	-0.134
-630.522	-200.000	-0.029	-0.254
-629.507	459.778	0.011	0.025
-628.492	84.896	-0.020	-0.022
-627.478	800.000	0.057	-0.210
-626.463	-200.000	-0.027	-0.195
-625.449	159.603	0.112	-0.155
-624.434	195.431	0.131	-0.199
-623.419	-166.273	0.348	-0.015
-622.405	28.580	-0.167	0.141
-621.390	-200.000	0.030	-0.171
-620.376	766.594	-0.062	0.168
-619.361	-101.185	0.121	0.029
-618.346	-75.270	0.188	-0.067
-617.332	182.678	0.120	0.177
-616.317	-50.789	-0.198	0.093
-615.303	0.534	0.172	-0.123
-614.288	-114.090	0.178	0.034
-613.273	311.266	0.057	0.106
-612.259	-30.149	-0.107	0.061
-611.244	-75.441	-0.036	-0.013
-610.230	65.649	-0.114	-0.115
-609.215	-161.016	-0.143	0.007
-608.201	-144.826	-0.147	-0.013
-607.186	-176.550	-0.183	-0.005
-606.171	455.614	-0.048	0.106
-605.157	-200.000	-0.035	-0.345
-604.142	-115.346	-0.213	0.040
-603.128	-5.783	0.247	-0.168
-602.113	794.679	-0.106	0.291
-601.098	-24.810	-0.088	0.052
-600.084	800.000	-0.048	0.143
-599.069	-200.000	0.004	0.159
-598.055	-45.247	-0.051	0.025
-597.040	-65.741	-0.192	-0.077
-596.025	-4.003	0.287	-0.199
-595.011	29.169	-0.118	0.100
-593.996	-200.000	0.039	-0.278
-592.982	-200.000	-0.052	-0.247
-591.967	-93.682	0.491	0.135
-590.952	-26.631	0.362	0.211
-589.938	-23.046	-0.095	0.057
-588.923	800.000	-0.073	0.277
-587.909	-108.324	0.031	0.007
-586.894	-5.577	-0.116	-0.079
-585.879	12.472	0.262	-0.201
-584.865	36.415	-0.123	0.108
-583.850	-84.189	0.435	-0.137
-582.836	-82.039	-0.235	0.077
-581.821	-19.216	0.549	0.340
-580.806	-45.011	-0.117	-0.058
-579.792	-200.000	-0.016	-0.211
-578.777	345.271	0.107	-0.209
-577.763	-150.879	-0.426	0.032
-576.748	-80.747	-0.192	0.064
-575.733	800.000	-0.047	-0.137
-574.719	135.396	-0.131	-0.170
-573.704	-154.204	-0.202	0.014
-572.690	189.678	-0.109	0.163
-571.675	129.705	-0.162	-0.207
-570.661	-73.886	0.258	0.093
-569.646	240.156	0.133	-0.220
-568.631	-7.024	-0.117	-0.079
-567.617	-5.186	0.109	0.075
-566.602	-1.952	-0.196	0.137
-565.588	312.695	0.055	-0.102
-564.573	-195.973	0.217	0.002
-563.558	-49.951	0.228	0.108
-562.544	-122.759	-0.380	0.061
-561.529	2.502	0.229	0.165
-560.515	-131.101	-0.157	0.021
-559.500	800.000	-0.058	0.193
-558.485	-130.195	0.166	-0.023
-557.471	-200.000	0.052	-0.302
-556.456	128.626	-0.154	0.195
-555.442	664.271	-0.053	0.136
-554.427	-5.609	-0.165	-0.113
-553.412	-69.923	-0.194	0.074
-552.398	-156.809	-0.110	0.007
-551.383	-73.602	-0.239	0.087
-550.369	-47.249	-0.243	0.118
-549.354	-44.244	0.341	0.170
-548.339	446.681	-0.084	-0.184
-547.325	-200.000	-0.011	0.052
-546.310	-167.927	0.138	0.005
-545.296	455.009	0.116	0.255
-544.281	337.376	0.172	-0.333
-543.266	9.746	-0.220	0.166
-542.252	13.237	-0.123	0.095
-541.237	-108.997	0.303	-0.064
-540.223	161.386	0.044	0.061
-539.208	-55.220	-0.069	0.031
-538.193	175.268	-0.096	0.139
-537.179	800.000	-0.064	0.185
-536.164	-36.373	0.193	0.103
-535.150	41.475	0.214	-0.193
-534.135	197.827	-0.027	0.041
-533.121	-136.699	-0.171	-0.020
-532.106	291.808	-0.042	-0.076
-531.091	134.273	0.123	0.159
-530.077	-200.000	-0.032	0.174
-529.062	-95.280	-0.061	0.016
-528.048	19.704	-0.189	-0.151
-527.033	229.064	0.089	0.145
-526.018	1.793	0.343	-0.245
-525.004	253.011	0.156	-0.264
-523.989	-81.480	-0.408	0.133
-522.975	309.184	-0.052	-0.097
-521.960	16.227	-0.227	-0.178
-520.945	-162.246	0.210	-0.010
-519.931	775.237	-0.057	0.154
-518.916	-200.000	0.026	-0.276
-517.902	-132.631	0.071	-0.009
-516.887	22.971	0.112	0.091
-515.872	-94.369	0.172	-0.047
-514.858	-108.567	-0.290	0.062
-513.843	-200.000	0.003	0.141
-512.829	207.973	0.112	0.173
-511.814	305.209	-0.068	0.126
-510.799	86.680	0.163	0.179
-509.785	-64.970	0.090	0.036
-508.770	800.000	0.028	-0.122
-507.756	-9.747	0.301	-0.199
-506.741	-59.429	-0.371	0.159
-505.726	25.087	0.161	-0.133
-504.712	800.000	0.034	-0.115
-503.697	120.847	0.089	-0.110
-502.683	-62.913	0.163	-0.067
-501.668	-200.000	-0.021	0.169
-500.653	-200.000	0.031	0.208
-499.639	-136.482	0.090	0.010
-498.624	-123.483	0.294	0.046
-497.610	-200.000	-0.005	-0.205
-496.595	-200.000	-0.563	-0.001
-495.581	-35.141	0.208	0.112
-494.566	140.287	0.218	-0.285
-493.551	800.000	-0.072	-0.256
-492.537	800.000	0.014	0.044
-491.522	-200.000	-0.008	-0.158
-490.508	67.682	0.097	-0.099
-489.493	-17.683	0.183	0.114
-488.478	800.000	-0.079	-0.244
-487.464	442.198	-0.125	0.272
-486.449	-63.439	-0.501	-0.204
-485.435	351.327	0.213	-0.418
-484.420	115.505	0.252	0.306
-483.405	-55.689	-0.261	-0.116
-482.391	105.261	0.168	0.196
-481.376	27.082	-0.217	-0.181
-480.362	800.000	0.044	0.122
-479.347	-175.554	-0.291	-0.008
-478.332	260.231	-0.011	0.020
-477.318	90.081	-0.231	0.256
-476.303	199.051	-0.078	-0.118
-475.289	-36.133	0.089	-0.048
-474.274	-132.946	0.203	-0.026
-473.259	-200.000	-0.031	0.157
-472.245	-57.449	-0.202	-0.088
-471.230	50.309	-0.129	0.121
-470.216	-70.635	-0.431	-0.161
-469.201	178.622	0.203	-0.294
-468.186	-200.000	-0.008	0.284
-467.172	800.000	-0.119	-0.493
-466.157	-22.473	0.260	0.156
-465.143	-200.000	0.001	0.016
-464.128	-74.569	0.295	-0.105
-463.113	110.607	0.125	-0.149
-462.099	800.000	-0.040	0.133
-461.084	-200.000	-0.027	-0.343
-460.070	-200.000	0.052	-0.248
-459.055	315.452	-0.173	-0.324
-458.040	-24.950	0.206	0.121
-457.026	41.744	0.369	-0.331
-456.011	141.794	-0.210	0.276
-454.997	-200.000	-0.029	0.231
-453.982	800.000	0.056	-0.242
-452.968	-109.142	0.216	-0.046
-451.953	-200.000	-0.025	0.240
-450.938	-27.105	0.107	0.062
-449.924	800.000	0.033	0.091
-448.909	-200.000	-0.035	-0.154
-447.895	55.879	-0.221	-0.212
-446.880	-91.813	0.116	-0.033
-445.865	-161.475	-0.106	-0.005
-444.851	14.550	0.176	-0.136
-443.836	-127.716	-0.065	-0.009
-442.822	800.000	0.046	-0.136
-441.807	-200.000	-0.048	0.304
-440.792	-58.527	0.111	-0.048
-439.778	-72.099	-0.341	0.125
-438.763	-200.000	0.280	-0.000
-437.749	800.000	-0.116	-0.372
-436.734	-200.000	-0.003	0.133
-435.719	-49.516	-0.328	-0.155
-434.705	800.000	0.041	0.126
-433.690	-42.357	0.446	0.225
-432.676	-200.000	-0.031	0.295
-431.661	122.352	-0.070	-0.087
-430.646	-163.786	0.482	-0.022
-429.632	211.845	-0.211	0.330
-428.617	-200.000	-0.039	-0.190
-427.603	-200.000	-0.006	-0.145
-426.588	-85.432	0.203	0.062
-425.573	-72.240	-0.301	-0.110
-424.559	104.430	-0.286	0.334
-423.544	24.032	-0.101	-0.083
-422.530	324.876	0.110	-0.209
-421.515	1.805	-0.184	0.132
-420.500	-200.000	0.024	-0.208
-419.486	-139.703	0.145	0.015
-418.471	440.132	-0.109	0.237
-417.457	17.502	-0.328	0.258
-416.442	29.454	-0.106	0.089
-415.428	356.040	-0.144	0.284
-414.413	-177.111	0.046	-0.001
-413.398	540.315	0.026	0.060
-412.384	114.445	0.161	0.194
-411.369	99.746	-0.234	-0.268
-410.355	21.702	-0.221	-0.178
-409.340	39.668	0.144	0.128
-408.325	88.207	-0.082	0.090
-407.311	250.715	0.200	-0.336
-406.296	-139.279	0.363	-0.039
-405.282	-60.763	0.148	0.062
-404.267	-92.426	-0.200	0.056
-403.252	-78.336	-0.249	0.084
-402.238	-137.567	-0.095	-0.011
-401.223	24.943	-0.201	0.165
-400.209	21.943	-0.144	0.116
-399.194	-98.580	0.138	-0.035
-398.179	409.734	0.188	-0.394
-397.165	499.478	-0.154	-0.351
-396.150	297.114	-0.272	0.493
-395.136	-7.852	0.400	-0.267
-394.121	174.766	-0.037	-0.052
-393.106	800.000	0.048	0.155
-392.092	110.470	0.165	0.196
-391.077	137.279	-0.115	-0.148
-390.063	-200.000	-0.004	0.482
-389.048	645.419	-0.082	-0.207
-388.033	-55.023	-0.093	0.041
-387.019	-112.603	0.201	0.040
-386.004	-59.656	0.024	0.010
-384.990	-91.238	-0.134	-0.038
-383.975	167.030	0.123	-0.173
-382.960	-98.458	-0.166	0.042
-381.946	-53.064	-0.176	-0.080
-380.931	-34.832	-0.070	0.038
-379.917	800.000	0.056	-0.179
-378.902	16.009	0.064	-0.050
-377.888	504.312	0.067	0.154
-376.873	-200.000	-0.022	-0.116
-375.858	257.007	-0.023	0.039
-374.844	-125.478	0.288	0.043
-373.829	-2.899	0.185	0.127
-372.815	-115.175	0.136	0.025
-371.800	-134.035	-0.168	0.021
-370.785	-13.857	0.074	-0.047
-369.771	175.141	-0.118	0.169
-368.756	487.035	0.097	0.220
-367.742	-19.370	0.151	0.092
-366.727	-133.065	0.347	0.043
-365.712	119.480	-0.177	0.216
-364.698	430.026	-0.081	0.172
-363.683	-200.000	-0.001	-0.172
-362.669	162.623	-0.267	-0.369
-361.654	-116.513	-0.274	-0.050
-360.639	-153.560	0.284	0.019
-359.625	33.082	0.233	-0.200
-358.610	-200.000	-0.102	-0.000
-357.596	12.054	0.130	-0.099
-356.581	502.317	-0.081	-0.184
-355.566	-131.857	-0.378	-0.049
-354.552	183.410	-0.247	-0.361
-353.537	133.473	-0.248	-0.317
-352.523	-166.278	0.472	-0.020
-351.508	-148.770	-0.118	-0.009
-350.493	700.695	0.095	0.246
-349.479	-200.000	-0.029	-0.163
-348.464	-200.000	-0.033	-0.233
-347.450	-200.000	-0.004	0.250
-346.435	-95.040	0.309	0.082
-345.420	62.191	0.214	0.211
-344.406	57.237	0.050	0.048
-343.391	262.198	0.129	0.222
-342.377	-21.566	-0.031	-0.018
-341.362	616.066	0.015	-0.037
-340.348	340.002	-0.069	0.132
-339.333	267.931	0.034	-0.058
-338.318	31.056	-0.109	-0.092
-337.304	800.000	0.052	-0.149
-336.289	336.583	-0.051	0.097
-335.275	-123.606	0.166	0.026
-334.260	270.779	-0.093	-0.161
-333.245	66.824	0.295	-0.296
-332.231	102.047	-0.097	0.112
-331.216	-56.191	-0.321	-0.141
-330.202	459.443	-0.155	-0.341
-329.187	-140.697	0.082	0.008
-328.172	192.611	-0.094	0.140
-327.158	403.171	0.158	-0.328
-326.143	10.865	-0.169	0.128
-325.129	-5.947	0.213	-0.144
-324.114	-74.377	0.144	0.051
-323.099	227.630	0.067	0.108
-322.085	-116.366	-0.139	-0.025
-321.070	149.614	0.216	0.289
-320.056	800.000	0.031	-0.121
-319.041	-47.002	0.132	0.064
-318.026	800.000	-0.029	0.085
-317.012	-200.000	-0.009	-0.271
-315.997	800.000	0.047	-0.191
-314.983	404.699	0.146	0.304
-313.968	-200.000	0.003	-0.214
-312.953	-154.884	-0.140	0.009
-311.939	83.830	-0.017	-0.018
-310.924	-73.889	0.196	-0.070
-309.910	-200.000	0.047	0.219
-308.895	-200.000	0.034	0.251
-307.880	-182.310	-0.392	-0.007
-306.866	-80.429	-0.213	0.070
-305.851	461.994	-0.137	0.302
-304.837	-200.000	-0.043	0.200
-303.822	582.837	0.168	-0.407
-302.807	-107.473	-0.032	0.007
-301.793	-73.485	-0.274	-0.099
-300.778	53.092	0.085	0.080
-299.764	-112.553	-0.278	0.055
-298.749	-121.649	-0.349	0.057
-297.735	194.451	0.137	0.205
-296.720	-200.000	-0.041	0.262
-295.705	1.153	0.139	-0.098
-294.691	116.439	-0.154	0.186
-293.676	306.732	-0.008	0.015
-292.662	800.000	-0.054	0.159
-291.647	-143.610	-0.201	0.019
-290.632	430.945	-0.027	-0.058
-289.618	-200.000	0.022	-0.096
-288.603	-200.000	0.019	-0.084
-287.589	-200.000	-0.016	-0.227
-286.574	-118.720	0.144	0.025
-285.559	-26.737	-0.080	-0.046
-284.545	-200.000	0.030	-0.264
-283.530	-127.129	0.165	-0.024
-282.516	-117.313	0.144	-0.026
-281.501	800.000	0.038	0.112
-280.486	-96.704	-0.237	0.061
-279.472	-200.000	-0.001	-0.130
-278.457	111.940	0.124	0.147
-277.443	-28.890	0.154	-0.087
-276.428	-133.090	0.347	-0.043
-275.413	5.032	0.077	-0.056
-274.399	11.840	-0.230	0.174
-273.384	-131.958	0.323	0.041
-272.370	800.000	-0.023	-0.091
-271.355	-11.737	-0.376	-0.243
-270.340	-200.000	-0.015	-0.277
-269.326	-200.000	0.013	-0.062
-268.311	231.778	-0.054	0.087
-267.297	800.000	0.012	0.037
-266.282	-200.000	0.001	-0.200
-265.267	-66.630	0.298	0.116
-264.253	-98.155	-0.342	0.087
-263.238	-56.304	-0.297	-0.130
-262.224	160.693	0.070	-0.096
-261.209	579.110	-0.030	-0.072
-260.195	6.520	-0.118	-0.086
-259.180	81.308	-0.444	-0.472
-258.165	-200.000	-0.061	0.342
-257.151	800.000	-0.021	0.069
-256.136	800.000	0.074	0.269
-255.122	-200.000	-0.084	0.381
-254.107	-111.858	0.325	0.065
-253.092	96.750	-0.196	0.221
-252.078	-148.546	0.290	-0.023
-251.063	73.453	0.257	0.264
-250.049	-25.225	0.171	-0.100
-249.034	-164.251	-0.073	-0.003
-248.019	112.244	-0.116	0.138
-247.005	-46.689	-0.032	-0.015
-245.990	-156.736	0.122	-0.007
-244.976	34.663	-0.099	-0.085
-243.961	-134.557	0.465	0.056
-242.946	27.664	-0.152	-0.125
-241.932	118.798	-0.225	0.273
-240.917	-163.497	-0.291	0.014
-239.903	-77.980	0.087	-0.029
-238.888	41.873	0.044	0.040
-237.873	557.048	-0.092	0.218
-236.859	17.289	0.172	0.134
-235.844	-200.000	-0.004	0.215
-234.830	-1.893	-0.123	0.085
-233.815	101.618	0.240	-0.275
-232.800	429.692	0.107	-0.227
-231.786	-165.579	-0.239	-0.010
-230.771	-200.000	0.009	-0.079
-229.757	12.336	0.053	0.040
-228.742	-105.216	-0.176	-0.039
-227.727	-88.471	0.453	-0.133
-226.713	-108.771	0.121	0.025
-225.698	306.499	-0.182	0.333
-224.684	677.242	-0.091	-0.232
-223.669	-92.507	0.265	0.073
-222.655	-200.000	-0.017	-0.075
-221.640	-124.918	-0.262	0.040
-220.625	488.869	0.047	0.106
-219.611	-82.953	-0.247	-0.078
-218.596	246.755	-0.192	-0.318
-217.582	-102.313	-0.372	0.088
-216.567	-200.000	0.014	0.091
-215.552	-108.272	0.059	-0.012
-214.538	-111.909	0.137	-0.027
-213.523	145.727	-0.180	-0.237
-212.509	517.881	-0.066	0.152
-211.494	262.379	-0.259	0.440
-210.479	-200.000	0.008	0.243
-209.465	800.000	-0.054	-0.177
-208.450	-155.446	-0.308	0.020
-207.436	-1.108	0.231	0.160
-206.421	204.689	0.057	-0.087
-205.406	-156.742	0.210	-0.013
-204.392	397.312	-0.180	0.369
-203.377	359.961	0.125	-0.245
-202.363	-200.000	0.023	0.338
-201.348	89.487	0.275	-0.301
-200.333	-197.773	-0.365	0.002
-199.319	800.000	0.073	0.222
-198.304	-74.848	0.076	-0.027
-197.290	26.564	0.201	-0.165
-196.275	176.236	0.160	0.228
-195.260	-200.000	0.072	0.412
-194.246	-200.000	0.055	0.245
-193.231	88.166	0.092	-0.100
-192.217	-128.877	-0.283	0.039
-191.202	-119.299	-0.127	-0.022
-190.187	25.012	-0.239	-0.195
-189.173	235.832	-0.080	-0.130
-188.158	-30.216	-0.238	0.132
-187.144	800.000	0.048	-0.159
-186.129	-92.138	0.191	0.053
-185.114	800.000	0.017	0.050
-184.100	-66.506	0.219	-0.085
-183.085	5.853	0.093	-0.067
-182.071	-149.276	0.224	-0.018
-181.056	-21.790	-0.344	0.205
-180.042	-200.000	0.113	0.549
-179.027	219.864	-0.125	-0.196
-178.012	663.199	0.092	0.233
-176.998	-200.000	0.005	0.035
-175.983	-69.310	0.219	-0.082
-174.969	-200.000	-0.030	-0.204
-173.954	16.245	-0.082	-0.063
-172.939	-105.794	-0.181	-0.040
-171.925	-15.927	0.144	0.090
-170.910	60.930	0.182	-0.177
-169.896	-22.088	0.249	0.148
-168.881	57.651	-0.102	0.098
-167.866	95.249	0.158	-0.177
-166.852	-30.306	0.311	0.173
-165.837	-98.508	0.095	-0.024
-164.823	-64.803	-0.046	0.018
-163.808	-200.000	-0.019	0.115
-162.793	111.900	-0.156	0.184
-161.779	-54.941	0.283	-0.125
-160.764	60.818	-0.130	0.126
-159.750	-200.000	-0.184	-0.000
-158.735	101.398	0.147	-0.168
-157.720	122.052	0.134	0.164
-156.706	-35.155	0.380	-0.203
-155.691	-14.870	0.219	-0.137
-154.677	4.987	0.297	-0.214
-153.662	-200.000	0.005	0.392
-152.647	416.405	-0.025	-0.053
-151.633	-58.670	0.102	-0.043
-150.618	-200.000	0.023	-0.266
-149.604	800.000	-0.079	0.231
-148.589	-99.567	-0.309	0.076
-147.574	-200.000	0.048	0.281
-146.560	530.798	0.159	0.367
-145.545	-200.000	-0.014	0.119
-144.531	800.000	0.088	-0.324
-143.516	8.213	0.341	0.251
-142.502	57.584	-0.113	0.108
-141.487	-74.278	-0.037	-0.013
-140.472	512.300	0.092	-0.210
-139.458	-74.266	-0.435	0.154
-138.443	-200.000	-0.015	0.164
-137.429	176.466	-0.143	-0.203
-136.414	-167.029	0.055	-0.002
-135.399	-102.300	0.260	-0.061
-134.385	-41.729	0.150	0.075
-133.370	-26.200	-0.236	0.136
-132.356	-24.742	-0.251	-0.146
-131.341	-200.000	-0.010	-0.181
-130.326	435.604	-0.064	0.137
-129.312	-46.530	-0.189	-0.091
-128.297	800.000	-0.019	-0.059
-127.283	516.136	0.073	-0.166
-126.268	-51.909	-0.188	0.085
-125.253	-200.000	-0.060	0.453
-124.239	-69.292	0.092	0.035
-123.224	800.000	-0.120	-0.362
-122.210	674.269	-0.085	-0.216
