DTS Sentinel unit serial number:	SN413079Multiplexer serial number:	ORYXHardware model number:	OX4-SRSoftware version number:	ORYX F/W v4.00 Oryx Data Collector v3.7.2.0data status	okinstallation	princeton_trtdifferential loss correction	single-endedforward channel	channel 1reverse channel	N/Adate	2019/09/16time	00:38:35forward acquisition time	60.00reverse acquisition time	0.00gamma	496.2192k internal	0.2334k external	0.2334temperature offset calibration	0.9972default loss term (dB/km)	0.3790temperature slope calibration	1.0000multiplexer offset coefficient	1.0000multiplexer slope coefficient	1.0000fibre end	0.00T internal ref (°C)	27.50T ext. ref 1 (°C)	9.60T ext. ref 2 (°C)	21.55length (m)	temperature (°C)	Stokes	anti-Stokes-747.200	-106.288	-0.281	0.063
-746.185	-64.528	-0.127	0.052
-745.171	-34.449	0.313	0.172
-744.156	105.219	0.289	-0.342
-743.142	108.470	0.046	-0.055
-742.127	38.428	-0.246	0.220
-741.112	800.000	0.037	0.133
-740.098	-87.013	-0.212	0.065
-739.083	523.237	0.105	0.249
-738.069	18.955	-0.322	0.259
-737.054	-200.000	0.032	0.171
-736.039	-82.652	-0.235	-0.077
-735.025	476.554	0.199	0.452
-734.010	-16.858	-0.334	-0.212
-732.996	49.389	-0.165	-0.156
-731.981	800.000	0.077	0.290
-730.966	-200.000	0.003	0.087
-729.952	-19.725	-0.229	-0.142
-728.937	-200.000	-0.003	-0.148
-727.923	166.435	0.176	-0.250
-726.908	-121.409	-0.175	-0.029
-725.894	-18.191	-0.424	0.267
-724.879	-76.912	-0.167	-0.059
-723.864	516.676	-0.126	0.297
-722.850	-200.000	-0.052	-0.412
-721.835	-200.000	0.024	-0.174
-720.821	-41.151	-0.264	0.137
-719.806	155.610	0.178	0.246
-718.791	242.540	0.113	0.191
-717.777	-38.209	-0.401	0.213
-716.762	49.518	0.150	-0.142
-715.748	-88.440	0.175	-0.052
-714.733	-169.449	0.183	-0.007
-713.718	-6.785	0.088	-0.060
-712.704	286.701	0.046	-0.084
-711.689	-41.075	-0.264	-0.137
-710.675	237.258	0.106	0.177
-709.660	84.443	-0.136	0.149
-708.645	41.766	0.163	0.148
-707.631	-102.096	0.059	-0.014
-706.616	-183.258	-0.315	-0.006
-705.602	800.000	-0.015	0.051
-704.587	-200.000	0.012	0.070
-703.572	174.426	0.160	-0.232
-702.558	-91.957	-0.251	-0.071
-701.543	-56.737	-0.341	0.151
-700.529	39.369	-0.276	-0.248
-699.514	-127.581	-0.433	-0.063
-698.499	-130.161	-0.159	0.022
-697.485	-200.000	0.179	0.000
-696.470	-67.839	0.210	-0.082
-695.456	-162.415	-0.046	-0.002
-694.441	-200.000	-0.002	0.166
-693.426	380.638	-0.042	0.087
-692.412	-200.000	0.026	0.238
-691.397	-167.175	-0.195	-0.008
-690.383	102.701	-0.172	-0.202
-689.368	-90.695	-0.240	0.069
-688.354	572.098	0.132	0.322
-687.339	-162.708	0.138	-0.007
-686.324	-57.233	0.180	0.080
-685.310	320.853	-0.157	0.298
-684.295	129.230	-0.175	-0.224
-683.281	-200.000	0.055	-0.519
-682.266	51.635	0.116	-0.111
-681.251	800.000	-0.106	-0.314
-680.237	-200.000	0.001	-0.213
-679.222	800.000	-0.059	0.220
-678.208	-170.685	-0.357	-0.012
-677.193	800.000	0.102	0.310
-676.178	313.706	0.026	-0.050
-675.164	237.027	0.087	0.145
-674.149	-3.847	0.091	-0.063
-673.135	-92.191	-0.163	0.046
-672.120	800.000	0.124	0.386
-671.105	6.771	-0.120	-0.090
-670.091	800.000	0.052	-0.149
-669.076	-157.871	0.294	-0.017
-668.062	-200.000	0.037	-0.191
-667.047	175.073	0.027	0.040
-666.032	231.727	-0.174	-0.286
-665.018	245.684	-0.175	-0.295
-664.003	-45.380	-0.245	0.122
-662.989	91.280	-0.094	-0.106
-661.974	800.000	-0.032	-0.101
-660.959	266.676	0.122	0.213
-659.945	2.261	0.078	0.057
-658.930	-200.000	0.028	-0.284
-657.916	-200.000	-0.108	-0.529
-656.901	32.750	0.233	0.202
-655.886	-200.000	0.007	-0.067
-654.872	57.691	0.158	-0.155
-653.857	-97.707	0.070	0.018
-652.843	-120.030	-0.191	-0.033
-651.828	-167.392	-0.035	0.001
-650.814	-142.046	0.240	0.024
-649.799	-134.227	0.141	0.017
-648.784	-200.000	0.037	0.191
-647.770	7.474	0.056	0.042
-646.755	-21.928	-0.122	-0.074
-645.741	-54.040	-0.145	0.066
-644.726	-200.000	-0.015	-0.151
-643.711	248.582	-0.045	-0.076
-642.697	-96.022	0.240	-0.064
-641.682	800.000	-0.151	-0.487
-640.668	290.648	-0.161	0.293
-639.653	26.724	0.260	-0.218
-638.638	-66.138	0.258	0.103
-637.624	-142.201	-0.246	0.024
-636.609	560.166	0.122	0.295
-635.595	-200.000	0.040	-0.566
-634.580	800.000	-0.087	0.293
-633.565	236.349	0.051	-0.084
-632.551	548.452	0.097	-0.232
-631.536	94.664	0.162	-0.184
-630.522	-52.878	-0.253	-0.116
-629.507	-40.053	0.037	-0.019
-628.492	-200.000	-0.006	0.152
-627.478	-200.000	0.018	0.302
-626.463	-114.698	0.296	0.057
-625.449	315.265	0.019	-0.035
-624.434	34.718	0.258	0.226
-623.419	-44.070	-0.141	-0.071
-622.405	-40.756	0.137	-0.071
-621.390	127.943	0.221	0.281
-620.376	-128.928	-0.181	0.025
-619.361	2.990	-0.030	0.022
-618.346	800.000	0.007	0.021
-617.332	252.892	0.126	0.215
-616.317	126.720	-0.277	0.351
-615.303	-141.880	0.250	-0.025
-614.288	-22.401	0.165	-0.100
-613.273	-200.000	-0.021	-0.133
-612.259	574.757	0.053	-0.129
-611.244	-163.046	-0.312	0.015
-610.230	-140.952	0.387	-0.040
-609.215	800.000	-0.092	-0.261
-608.201	-200.000	0.027	-0.343
-607.186	459.786	0.128	0.285
-606.171	150.611	-0.030	-0.041
-605.157	226.162	0.104	-0.169
-604.142	33.315	-0.172	-0.149
-603.128	700.015	-0.030	-0.079
-602.113	-200.000	0.042	0.250
-601.098	800.000	-0.082	-0.284
-600.084	-200.000	0.003	0.165
-599.069	-95.112	0.279	0.075
-598.055	-200.000	0.054	0.449
-597.040	252.209	0.124	-0.212
-596.025	104.045	0.187	-0.220
-595.011	734.425	-0.130	-0.348
-593.996	-200.000	0.018	-0.173
-592.982	509.615	0.055	-0.127
-591.967	800.000	-0.034	-0.104
-590.952	-69.634	-0.096	-0.037
-589.938	121.849	0.128	-0.160
-588.923	-16.177	0.142	0.090
-587.909	-53.167	0.109	-0.050
-586.894	-108.548	0.387	0.083
-585.879	-200.000	-0.053	-0.262
-584.865	-65.872	-0.077	-0.031
-583.850	-200.000	0.007	-0.070
-582.836	90.912	0.013	-0.015
-581.821	-79.629	-0.177	0.060
-580.806	800.000	-0.090	0.295
-579.792	-200.000	-0.022	-0.134
-578.777	145.647	-0.089	-0.119
-577.763	228.867	-0.046	0.076
-576.748	-116.589	-0.193	0.036
-575.733	-97.384	0.118	-0.031
-574.719	63.971	-0.119	-0.120
-573.704	71.840	-0.218	-0.226
-572.690	800.000	-0.062	-0.271
-571.675	249.986	-0.188	0.319
-570.661	-26.959	0.191	-0.112
-569.646	-104.422	-0.084	0.019
-568.631	4.029	-0.336	0.245
-567.617	-8.131	0.068	0.046
-566.602	26.735	-0.060	-0.050
-565.588	-180.204	0.280	-0.006
-564.573	-98.630	-0.170	-0.043
-563.558	48.712	0.134	-0.126
-562.544	32.193	-0.109	-0.094
-561.529	-68.516	0.125	0.048
-560.515	-136.295	-0.035	-0.004
-559.500	184.793	0.107	-0.158
-558.485	-11.096	0.273	0.179
-557.471	-200.000	0.015	-0.241
-556.456	-28.132	-0.231	-0.133
-555.442	-25.544	-0.081	0.048
-554.427	-3.038	0.144	0.100
-553.412	800.000	-0.057	0.247
-552.398	-36.790	0.052	-0.028
-551.383	-169.458	0.282	0.010
-550.369	-200.000	0.045	0.210
-549.354	-110.417	-0.252	0.052
-548.339	328.791	-0.122	0.234
-547.325	-98.104	-0.155	-0.040
-546.310	-200.000	0.039	0.198
-545.296	626.163	0.033	-0.082
-544.281	-91.369	-0.260	0.074
-543.266	62.305	0.267	0.266
-542.252	800.000	-0.054	-0.151
-541.237	-59.500	-0.187	0.080
-540.223	-44.593	0.048	-0.024
-539.208	47.436	0.105	0.098
-538.193	205.164	-0.146	0.226
-537.179	-200.000	0.048	0.251
-536.164	-90.053	-0.190	0.055
-535.150	-200.000	0.017	0.267
-534.135	-200.000	-0.034	0.202
-533.121	-55.635	-0.204	-0.091
-532.106	-11.525	0.215	0.141
-531.091	118.735	-0.236	-0.291
-530.077	314.248	0.153	0.286
-529.062	800.000	0.087	0.244
-528.048	19.242	-0.128	0.102
-527.033	-94.545	-0.187	-0.051
-526.018	-104.371	0.248	0.057
-525.004	-105.360	0.279	0.063
-523.989	-200.000	-0.047	0.268
-522.975	2.058	-0.334	0.240
-521.960	511.627	0.136	-0.316
-520.945	103.850	-0.291	0.341
-519.931	-200.000	-0.038	-0.203
-518.916	-139.538	-0.190	0.020
-517.902	-200.000	0.019	0.093
-516.887	-46.317	-0.276	-0.135
-515.872	-200.000	0.019	-0.232
-514.858	-24.162	-0.042	0.025
-513.843	-93.145	-0.302	0.084
-512.829	4.301	0.113	-0.082
-511.814	-200.000	-0.018	0.244
-510.799	-200.000	0.006	-0.153
-509.785	334.040	0.039	-0.076
-508.770	-200.000	-0.022	0.333
-507.756	-108.170	0.092	0.020
-506.741	139.029	-0.077	0.100
-505.726	-200.000	0.046	-0.224
-504.712	-87.713	0.135	-0.040
-503.697	-66.914	-0.420	-0.165
-502.683	-153.290	-0.157	-0.011
-501.668	-32.562	0.068	-0.038
-500.653	24.328	-0.203	0.167
-499.639	414.199	-0.044	0.093
-498.624	-171.225	0.170	0.006
-497.610	255.409	0.022	0.038
-496.595	-128.737	-0.080	-0.011
-495.581	-90.332	-0.176	0.051
-494.566	234.411	0.132	-0.216
-493.551	-200.000	0.000	-0.257
-492.537	94.422	-0.187	0.212
-491.522	-65.129	-0.410	-0.165
-490.508	-164.931	-0.468	0.021
-489.493	-200.000	0.065	0.549
-488.478	800.000	-0.005	-0.016
-487.464	61.851	-0.060	0.060
-486.449	206.012	-0.169	-0.261
-485.435	677.362	0.060	0.155
-484.420	102.340	-0.048	-0.056
-483.405	-150.820	0.359	0.027
-482.391	-130.172	0.075	0.010
-481.376	301.805	-0.016	-0.029
-480.362	-23.079	-0.210	-0.126
-479.347	-200.000	0.008	-0.152
-478.332	591.432	0.049	-0.120
-477.318	-91.865	0.085	-0.024
-476.303	-14.540	-0.194	0.124
-475.289	314.323	0.149	0.279
-474.274	-170.020	0.258	-0.009
-473.259	401.692	0.070	-0.145
-472.245	188.985	-0.225	-0.335
-471.230	106.589	0.321	-0.379
-470.216	172.531	0.164	-0.235
-469.201	-105.921	-0.164	-0.037
-468.186	38.696	0.306	0.271
-467.172	76.967	-0.085	-0.090
-466.157	67.209	-0.141	-0.143
-465.143	32.830	-0.357	-0.308
-464.128	-28.664	-0.128	-0.073
-463.113	-72.703	-0.353	-0.129
-462.099	800.000	0.049	0.203
-461.084	800.000	0.082	-0.270
-460.070	785.949	-0.035	0.094
-459.055	-55.080	0.234	0.105
-458.040	-200.000	-0.034	0.179
-457.026	120.399	0.067	-0.083
-456.011	-80.309	0.079	-0.026
-454.997	-62.693	-0.014	0.006
-453.982	-34.911	-0.158	0.086
-452.968	-26.034	0.276	-0.161
-451.953	-137.434	0.181	-0.020
-450.938	800.000	-0.076	-0.219
-449.924	-200.000	-0.012	0.112
-448.909	460.964	-0.092	-0.204
-447.895	-44.149	0.233	-0.116
-446.880	-63.744	-0.255	0.104
-445.865	-76.811	0.252	-0.088
-444.851	-73.693	0.208	-0.075
-443.836	-62.694	0.299	0.123
-442.822	800.000	0.038	-0.160
-441.807	-111.298	0.108	0.022
-440.792	94.382	0.145	-0.164
-439.778	-146.195	-0.227	0.020
-438.763	-184.631	-0.105	-0.002
-437.749	223.698	-0.076	0.122
-436.734	118.878	0.268	0.329
-435.719	-168.829	-0.117	-0.004
-434.705	-200.000	0.022	-0.264
-433.690	397.940	0.149	-0.309
-432.676	23.823	0.226	-0.185
-431.661	-200.000	-0.059	-0.292
-430.646	-20.105	0.113	0.069
-429.632	328.429	0.241	0.460
-428.617	-141.860	0.058	0.006
-427.603	37.037	0.199	0.175
-426.588	-161.029	-0.045	0.002
-425.573	29.928	-0.065	0.055
-424.559	244.223	-0.097	-0.162
-423.544	147.690	-0.058	-0.078
-422.530	339.415	0.141	-0.273
-421.515	46.914	0.153	-0.142
-420.500	645.409	-0.041	0.103
-419.486	-98.197	0.191	-0.049
-418.471	-50.628	-0.264	-0.123
-417.457	-200.000	-0.004	0.291
-416.442	23.987	0.214	0.175
-415.428	73.081	-0.199	0.207
-414.413	800.000	-0.128	-0.351
-413.398	46.755	-0.129	-0.118
-412.384	424.124	0.005	0.012
-411.369	800.000	0.020	-0.058
-410.355	678.809	-0.080	-0.208
-409.340	-72.422	-0.350	-0.128
-408.325	45.312	0.044	-0.041
-407.311	123.662	-0.164	0.204
-406.296	-200.000	-0.007	0.048
-405.282	800.000	0.086	0.311
-404.267	-200.000	0.007	0.328
-403.252	-200.000	-0.049	0.498
-402.238	800.000	0.050	0.215
-401.223	260.071	0.173	-0.297
-400.209	249.615	0.107	-0.181
-399.194	800.000	0.052	-0.207
-398.179	-200.000	-0.006	0.141
-397.165	185.661	-0.143	0.210
-396.150	-41.196	0.093	0.047
-395.136	-55.276	0.116	-0.052
-394.121	-130.544	-0.294	-0.039
-393.106	-200.000	0.012	0.068
-392.092	56.287	-0.160	-0.154
-391.077	7.806	-0.341	-0.253
-390.063	198.555	-0.078	0.118
-389.048	800.000	0.014	-0.043
-388.033	675.303	0.131	-0.337
-387.019	-56.238	0.118	-0.052
-386.004	-200.000	-0.046	-0.205
-384.990	-119.995	-0.304	0.052
-383.975	19.832	-0.262	-0.209
-382.960	-154.305	0.463	0.031
-381.946	-179.341	-0.165	-0.004
-380.931	-76.595	-0.265	-0.092
-379.917	-200.000	-0.020	-0.115
-378.902	16.578	0.208	0.163
-377.888	532.039	0.160	-0.375
-376.873	-54.772	-0.162	0.072
-375.858	242.494	0.054	-0.089
-374.844	-93.010	-0.263	-0.073
-373.829	-95.417	0.124	0.033
-372.815	446.648	-0.114	0.249
-371.800	-200.000	-0.000	0.418
-370.785	85.737	-0.063	0.069
-369.771	164.837	0.137	0.191
-368.756	-168.176	0.408	-0.016
-367.742	38.376	-0.261	0.230
-366.727	-200.000	-0.049	-0.579
-365.712	34.696	-0.169	0.146
-364.698	-200.000	-0.021	-0.201
-363.683	164.827	0.179	-0.250
-362.669	-200.000	0.026	0.157
-361.654	-128.907	0.161	0.022
-360.639	84.845	-0.164	0.178
-359.625	800.000	0.035	-0.132
-358.610	-130.336	-0.276	0.037
-357.596	-92.403	0.283	-0.079
-356.581	108.671	0.081	0.096
-355.566	-36.078	-0.146	-0.078
-354.552	-92.755	0.191	-0.053
-353.537	-21.931	0.110	-0.066
-352.523	9.913	0.177	-0.133
-351.508	-200.000	-0.001	-0.176
-350.493	-23.683	-0.412	-0.245
-349.479	143.734	0.122	0.161
-348.464	-188.097	-0.087	0.001
-347.450	-200.000	-0.008	0.047
-346.435	-13.766	0.353	-0.226
-345.420	-3.549	-0.243	-0.167
-344.406	-143.700	-0.167	0.016
-343.391	-200.000	0.000	-0.025
-342.377	-200.000	-0.084	-0.448
-341.362	21.332	0.256	0.206
-340.348	397.703	-0.040	0.082
-339.333	-200.000	0.003	0.279
-338.318	-134.288	0.293	0.036
-337.304	-200.000	0.005	0.172
-336.289	-48.745	0.153	0.073
-335.275	-27.309	-0.075	0.043
-334.260	72.550	-0.178	0.184
-333.245	-118.056	0.276	-0.049
-332.231	-69.013	0.052	0.020
-331.216	220.569	0.210	0.333
-330.202	118.380	0.282	0.344
-329.187	235.633	-0.196	0.321
-328.172	-125.594	-0.280	0.042
-327.158	-182.045	-0.178	-0.003
-326.143	446.861	0.087	0.189
-325.129	800.000	-0.100	-0.303
-324.114	-95.229	0.206	0.055
-323.099	222.804	0.124	0.197
-322.085	-200.000	-0.035	-0.209
-321.070	-8.981	0.234	0.155
-320.056	303.356	0.097	-0.178
-319.041	-200.000	-0.062	0.348
-318.026	-85.581	0.113	0.035
-317.012	80.341	0.196	0.209
-315.997	91.660	0.066	0.074
-314.983	-45.065	0.203	0.100
-313.968	-200.000	-0.011	0.084
-312.953	-44.352	0.435	-0.215
-311.939	-149.501	-0.196	-0.015
-310.924	-200.000	-0.002	0.339
-309.910	663.883	0.078	0.198
-308.895	-71.208	-0.089	0.033
-307.880	27.440	0.229	-0.190
-306.866	-200.000	-0.004	0.140
-305.851	-113.027	0.103	-0.020
-304.837	32.787	0.146	-0.125
-303.822	30.384	0.119	-0.100
-302.807	122.653	0.069	-0.085
-301.793	-44.065	-0.237	-0.117
-300.778	105.452	0.182	-0.212
-299.764	-114.727	-0.115	0.022
-298.749	-200.000	-0.031	0.139
-297.735	-109.984	-0.129	0.027
-296.720	800.000	-0.116	0.369
-295.705	-200.000	-0.017	0.180
-294.691	-80.325	-0.110	0.036
-293.676	-200.000	-0.039	-0.169
-292.662	193.807	0.088	-0.132
-291.647	800.000	-0.066	0.234
-290.632	-119.757	-0.133	0.023
-289.618	-103.904	0.086	0.020
-288.603	-12.974	-0.331	0.213
-287.589	47.539	-0.170	0.157
-286.574	-200.000	-0.025	-0.293
-285.559	86.803	-0.036	0.040
-284.545	-200.000	0.028	-0.177
-283.530	-4.593	0.210	-0.143
-282.516	-200.000	0.027	-0.215
-281.501	-15.269	-0.152	-0.096
-280.486	800.000	0.065	0.250
-279.472	-200.000	0.020	0.161
-278.457	117.331	-0.141	0.171
-277.443	-5.190	-0.178	0.121
-276.428	-200.000	0.010	0.092
-275.413	-200.000	0.043	-0.416
-274.399	-28.729	-0.180	-0.102
-273.384	548.490	0.139	0.329
-272.370	139.140	-0.098	0.127
-271.355	-155.833	-0.110	-0.007
-270.340	5.160	-0.260	-0.189
-269.326	-104.404	0.235	-0.054
-268.311	800.000	0.057	0.193
-267.297	50.649	0.110	-0.102
-266.282	439.601	-0.035	-0.075
-265.267	-200.000	-0.022	0.108
-264.253	-154.879	-0.249	-0.016
-263.238	-1.151	-0.146	0.102
-262.224	-8.092	-0.137	0.091
-261.209	-200.000	-0.027	0.197
-260.195	26.157	-0.241	-0.198
-259.180	-43.089	-0.202	-0.101
-258.165	366.437	0.083	0.165
-257.151	-42.379	0.038	-0.019
-256.136	45.583	0.152	-0.139
-255.122	-2.644	-0.425	-0.293
-254.107	800.000	0.162	-0.445
-253.092	800.000	-0.129	-0.380
-252.078	-72.421	0.256	0.093
-251.063	-159.029	0.087	-0.005
-250.049	-169.017	-0.167	-0.006
-249.034	-127.992	0.218	0.031
-248.019	-200.000	-0.016	0.139
-247.005	-39.358	0.076	-0.039
-245.990	800.000	0.086	0.259
-244.976	-80.628	-0.167	-0.055
-243.961	223.485	-0.085	0.134
-242.946	129.675	0.252	0.318
-241.932	-27.136	0.168	0.097
-240.917	-152.551	-0.165	-0.012
-239.903	-57.515	0.302	0.131
-238.888	-3.779	0.115	0.079
-237.873	-14.055	0.137	0.087
-236.859	7.334	-0.197	-0.145
-235.844	276.957	0.012	0.021
-234.830	-4.219	0.229	-0.156
-233.815	-83.512	-0.294	-0.093
-232.800	253.167	-0.085	-0.143
-231.786	800.000	0.067	0.251
-230.771	81.499	0.148	-0.157
-229.757	780.312	0.083	-0.223
-228.742	-106.103	0.410	0.091
-227.727	-43.293	-0.309	0.154
-226.713	294.775	-0.171	0.307
-225.698	-101.942	-0.115	-0.027
-224.684	-102.630	-0.356	-0.084
-223.669	-126.416	0.038	-0.006
-222.655	62.407	0.298	0.293
-221.640	-12.227	-0.106	-0.068
-220.625	-200.000	-0.001	-0.551
-219.611	-200.000	0.025	0.263
-218.596	355.684	0.161	-0.315
-217.582	-47.763	0.056	-0.027
-216.567	-200.000	0.031	0.264
-215.552	11.132	-0.196	0.148
-214.538	165.107	0.043	-0.060
-213.523	133.505	-0.055	-0.071
-212.509	-102.641	-0.300	-0.071
-211.494	56.954	-0.200	-0.192
-210.479	510.260	0.030	-0.070
-209.465	-74.904	0.230	-0.081
-208.450	215.478	0.295	0.461
-207.436	-200.000	-0.015	0.217
-206.421	800.000	-0.051	-0.152
-205.406	133.700	0.049	0.063
-204.392	-200.000	0.081	-0.529
-203.377	-2.734	-0.130	0.089
-202.363	-25.818	-0.289	-0.168
-201.348	219.293	0.108	-0.171
-200.333	800.000	0.147	0.453
-199.319	800.000	0.070	0.225
-198.304	69.867	0.140	0.142
-197.290	407.396	0.050	0.105
-196.275	-115.841	0.073	0.013
-195.260	-200.000	0.006	0.130
-194.246	800.000	0.036	-0.118
-193.231	116.635	-0.233	0.282
-192.217	800.000	0.078	0.265
-191.202	-200.000	0.002	0.113
-190.187	-200.000	0.023	-0.221
-189.173	-200.000	-0.032	-0.304
-188.158	-200.000	-0.007	0.213
-187.144	-102.428	-0.033	0.008
-186.129	34.669	0.191	-0.164
-185.114	800.000	-0.022	-0.082
-184.100	-200.000	0.003	0.117
-183.085	18.309	0.035	-0.027
-182.071	35.021	0.322	-0.277
-181.056	147.303	-0.205	-0.271
-180.042	-76.628	-0.404	-0.139
-179.027	800.000	-0.095	0.266
-178.012	800.000	-0.019	0.056
-176.998	-200.000	-0.009	0.225
-175.983	800.000	-0.036	0.098
-174.969	178.068	0.179	0.257
-173.954	-200.000	0.020	-0.162
-172.939	-200.000	0.013	-0.135
-171.925	258.540	-0.087	-0.148
-170.910	-61.186	0.135	0.056
-169.896	50.755	0.192	-0.179
-168.881	-57.149	0.082	0.036
-167.866	-200.000	0.048	0.233
-166.852	39.765	-0.233	0.205
-165.837	800.000	0.074	-0.242
-164.823	138.156	0.045	0.057
-163.808	-104.270	-0.439	0.100
-162.793	800.000	0.032	-0.106
-161.779	800.000	-0.079	-0.227
-160.764	800.000	0.079	-0.289
-159.750	-200.000	-0.009	-0.262
-158.735	107.665	0.240	0.281
-157.720	90.672	0.098	-0.107
-156.706	114.354	0.060	0.071
-155.691	800.000	-0.032	-0.101
-154.677	24.608	-0.227	-0.184
-153.662	4.889	0.142	0.103
-152.647	-200.000	0.019	0.155
-151.633	800.000	-0.041	-0.128
-150.618	-200.000	-0.015	-0.469
-149.604	-149.750	0.230	0.018
-148.589	77.798	-0.314	-0.329
-147.574	265.765	0.122	-0.209
-146.560	54.555	0.012	0.011
-145.545	378.427	-0.126	0.253
-144.531	800.000	0.075	0.226
-143.516	37.706	0.155	-0.135
-142.502	800.000	0.026	-0.093
-141.487	674.343	0.043	0.111
-140.472	-31.642	0.310	-0.171
-139.458	-38.220	0.088	0.046
-138.443	-126.565	0.479	-0.070
-137.429	-98.554	0.385	-0.097
-136.414	-200.000	0.019	0.101
-135.399	-137.048	0.159	-0.018
-134.385	-88.786	-0.192	0.056
-133.370	302.562	-0.083	0.150
-132.356	79.175	0.069	0.072
-131.341	45.251	-0.178	-0.161
-130.326	106.096	0.155	-0.180
-129.312	226.211	0.073	0.116
-128.297	-164.200	0.251	-0.011
-127.283	800.000	0.072	0.263
-126.268	800.000	0.063	-0.219
-125.253	165.834	-0.148	0.205
-124.239	767.117	0.045	0.120
-123.224	-57.679	-0.218	0.094
-122.210	-28.067	0.298	0.169
-121.195	800.000	-0.081	0.231
