DTS Sentinel unit serial number:	SN413079Multiplexer serial number:	ORYXHardware model number:	OX4-SRSoftware version number:	ORYX F/W v4.00 Oryx Data Collector v3.7.2.0data status	okinstallation	princeton_trtdifferential loss correction	single-endedforward channel	channel 1reverse channel	N/Adate	2019/09/19time	03:46:35forward acquisition time	60.00reverse acquisition time	0.00gamma	496.2192k internal	0.2343k external	0.2343temperature offset calibration	1.0019default loss term (dB/km)	0.3790temperature slope calibration	1.0000multiplexer offset coefficient	1.0000multiplexer slope coefficient	1.0000fibre end	0.00T internal ref (°C)	20.52T ext. ref 1 (°C)	0.64T ext. ref 2 (°C)	14.26length (m)	temperature (°C)	Stokes	anti-Stokes-747.200	42.422	0.049	-0.045
-746.185	-39.492	-0.205	-0.108
-745.171	-200.000	0.124	-0.587
-744.156	49.138	-0.122	0.115
-743.142	189.369	0.077	-0.116
-742.127	34.311	-0.150	0.131
-741.112	-123.507	0.343	0.055
-740.098	-200.000	0.003	0.138
-739.083	89.568	-0.134	0.150
-738.069	271.160	-0.156	0.275
-737.054	-60.702	0.222	-0.094
-736.039	291.476	0.016	0.028
-735.025	-200.000	0.058	0.436
-734.010	190.148	-0.067	-0.101
-732.996	41.437	0.255	0.231
-731.981	-200.000	0.022	-0.298
-730.966	39.164	-0.160	-0.143
-729.952	-200.000	0.068	-0.446
-728.937	-63.224	-0.121	-0.050
-727.923	202.561	-0.161	-0.248
-726.908	-71.624	0.296	-0.111
-725.894	-72.103	-0.328	-0.122
-724.879	-82.762	-0.190	-0.061
-723.864	800.000	-0.035	-0.125
-722.850	47.675	0.119	0.111
-721.835	238.735	-0.136	-0.226
-720.821	-164.345	-0.250	-0.011
-719.806	-137.127	-0.120	-0.014
-718.791	-109.167	-0.353	-0.075
-717.777	-72.410	0.363	-0.134
-716.762	-20.231	0.080	0.049
-715.748	-200.000	-0.042	-0.449
-714.733	-95.911	-0.419	0.112
-713.718	222.766	0.118	0.190
-712.704	-200.000	0.031	0.168
-711.689	-50.511	0.122	0.057
-710.675	-77.658	-0.141	-0.049
-709.660	-12.148	-0.110	-0.072
-708.645	57.769	-0.144	0.141
-707.631	511.645	0.246	0.573
-706.616	-200.000	-0.041	-0.389
-705.602	46.144	0.095	-0.088
-704.587	304.530	-0.135	-0.250
-703.572	-48.787	-0.123	-0.059
-702.558	-48.882	0.263	-0.126
-701.543	-200.000	-0.073	-0.328
-700.529	-99.750	-0.333	-0.083
-699.514	-107.078	0.283	0.063
-698.499	7.141	-0.225	0.168
-697.485	439.527	-0.158	0.344
-696.470	-62.550	-0.163	-0.068
-695.456	-42.046	-0.112	-0.057
-694.441	-31.862	0.360	-0.202
-693.426	-200.000	0.008	0.122
-692.412	-83.516	-0.072	0.023
-691.397	-200.000	-0.014	0.178
-690.383	-200.000	-0.019	-0.160
-689.368	-4.122	-0.285	-0.197
-688.354	-200.000	-0.002	-0.087
-687.339	-200.000	0.006	0.170
-686.324	10.158	-0.286	-0.217
-685.310	-115.181	0.316	-0.060
-684.295	800.000	-0.030	-0.129
-683.281	67.535	0.101	-0.103
-682.266	-200.000	-0.027	-0.234
-681.251	-23.025	-0.317	0.191
-680.237	232.514	0.200	0.328
-679.222	86.367	0.131	-0.144
-678.208	6.907	0.239	0.178
-677.193	800.000	-0.046	-0.176
-676.178	-77.561	0.103	-0.036
-675.164	-200.000	0.010	-0.149
-674.149	-147.873	0.295	0.025
-673.135	-156.017	-0.302	-0.019
-672.120	171.272	-0.060	0.086
-671.105	128.410	0.138	0.176
-670.091	800.000	-0.080	0.322
-669.076	-170.769	0.075	0.003
-668.062	-154.537	-0.086	0.006
-667.047	116.590	0.150	-0.184
-666.032	-190.295	-0.449	-0.005
-665.018	800.000	0.117	-0.351
-664.003	-76.975	0.209	-0.073
-662.989	41.567	-0.102	-0.092
-661.974	-117.095	-0.269	0.049
-660.959	75.096	-0.127	0.133
-659.945	800.000	0.043	-0.133
-658.930	467.757	-0.094	-0.210
-657.916	-82.664	0.264	-0.085
-656.901	-99.779	-0.327	-0.082
-655.886	-39.646	-0.394	0.206
-654.872	646.986	0.100	-0.256
-653.857	-200.000	-0.002	-0.215
-652.843	-130.914	-0.424	0.057
-651.828	-91.934	-0.262	0.074
-650.814	12.926	-0.155	-0.120
-649.799	-151.663	-0.209	0.015
-648.784	-125.351	-0.275	-0.042
-647.770	123.977	-0.152	0.191
-646.755	800.000	-0.043	-0.145
-645.741	-83.103	0.130	-0.042
-644.726	80.394	0.154	-0.165
-643.711	173.603	-0.175	0.252
-642.697	800.000	-0.043	-0.160
-641.682	-200.000	-0.022	0.129
-640.668	-48.847	-0.343	0.164
-639.653	-12.646	0.165	-0.107
-638.638	-137.603	-0.137	-0.015
-637.624	-176.415	-0.205	0.005
-636.609	125.222	-0.158	-0.199
-635.595	-67.065	0.245	0.096
-634.580	106.956	-0.148	-0.175
-633.565	2.833	0.197	0.143
-632.551	-63.203	-0.288	0.118
-631.536	136.753	-0.243	-0.316
-630.522	-200.000	0.020	0.108
-629.507	-200.000	0.019	-0.118
-628.492	-200.000	0.039	0.406
-627.478	-102.055	-0.235	0.056
-626.463	-9.982	0.127	0.084
-625.449	800.000	0.121	0.477
-624.434	-200.000	-0.037	-0.276
-623.419	-200.000	0.043	-0.324
-622.405	800.000	-0.040	0.168
-621.390	-2.203	0.227	-0.159
-620.376	-200.000	0.018	0.155
-619.361	-134.849	-0.194	-0.023
-618.346	-12.108	-0.405	-0.264
-617.332	83.925	0.145	0.158
-616.317	573.251	-0.075	-0.181
-615.303	-17.128	-0.124	-0.078
-614.288	-12.247	0.227	-0.148
-613.273	-150.909	-0.142	-0.011
-612.259	-91.691	0.197	0.056
-611.244	-200.000	-0.014	-0.133
-610.230	-200.000	-0.005	-0.131
-609.215	-22.084	-0.150	0.091
-608.201	-163.902	0.315	-0.015
-607.186	227.739	0.104	0.169
-606.171	-151.471	0.091	0.007
-605.157	-86.514	0.402	-0.123
-604.142	-45.239	0.174	-0.086
-603.128	286.112	-0.043	-0.077
-602.113	536.417	0.056	0.133
-601.098	77.226	0.145	-0.154
-600.084	658.768	0.111	0.285
-599.069	-74.611	0.106	-0.038
-598.055	46.817	0.087	0.080
-597.040	366.173	0.107	-0.216
-596.025	96.160	-0.096	-0.110
-595.011	-191.013	0.455	0.005
-593.996	103.305	0.022	0.026
-592.982	800.000	-0.060	0.166
-591.967	134.419	-0.216	-0.279
-590.952	465.672	-0.145	-0.323
-589.938	-76.721	0.154	-0.054
-588.923	76.123	0.045	-0.048
-587.909	70.167	0.057	-0.059
-586.894	-200.000	0.014	-0.186
-585.879	-35.501	0.265	-0.143
-584.865	-200.000	-0.005	-0.026
-583.850	-200.000	-0.031	0.270
-582.836	132.547	-0.312	0.401
-581.821	390.039	-0.042	-0.086
-580.806	-56.477	0.211	-0.093
-579.792	11.367	-0.215	-0.164
-578.777	-91.975	-0.253	-0.071
-577.763	-85.681	0.316	-0.098
-576.748	-113.114	-0.127	-0.025
-575.733	-153.436	-0.194	0.013
-574.719	-58.366	-0.038	-0.016
-573.704	413.924	-0.102	0.216
-572.690	800.000	-0.118	0.462
-571.675	800.000	-0.043	-0.188
-570.661	-54.934	-0.199	0.089
-569.646	223.076	-0.103	-0.166
-568.631	14.830	0.278	-0.216
-567.617	-20.365	0.106	0.065
-566.602	-151.929	0.436	0.032
-565.588	-175.477	-0.086	-0.002
-564.573	651.383	0.102	-0.259
-563.558	-112.888	0.054	0.011
-562.544	-200.000	0.006	0.041
-561.529	-200.000	-0.036	-0.243
-560.515	129.530	-0.012	-0.015
-559.500	-27.700	-0.249	-0.144
-558.485	-137.635	-0.203	-0.023
-557.471	39.933	0.175	0.156
-556.456	-126.716	-0.366	0.054
-555.442	457.783	-0.123	-0.273
-554.427	55.553	-0.284	-0.273
-553.412	-90.401	0.086	0.025
-552.398	56.370	0.064	-0.062
-551.383	-74.945	0.095	0.034
-550.369	-76.083	-0.456	0.160
-549.354	87.642	-0.038	-0.042
-548.339	534.731	-0.176	0.415
-547.325	226.671	0.122	0.196
-546.310	137.877	0.140	-0.182
-545.296	-200.000	-0.005	0.046
-544.281	76.715	0.186	0.197
-543.266	-110.298	0.247	-0.051
-542.252	-99.894	0.154	-0.038
-541.237	-200.000	0.065	-0.295
-540.223	79.185	0.169	-0.180
-539.208	87.972	-0.356	0.392
-538.193	-200.000	0.005	0.045
-537.179	431.195	-0.093	0.201
-536.164	-95.406	-0.090	-0.024
-535.150	473.918	-0.054	-0.120
-534.135	349.120	-0.054	0.105
-533.121	13.341	-0.061	-0.047
-532.106	262.013	-0.086	-0.148
-531.091	-122.158	0.174	0.028
-530.077	3.683	-0.104	-0.076
-529.062	-108.346	0.140	-0.030
-528.048	197.778	0.163	0.247
-527.033	-83.960	-0.076	-0.024
-526.018	-200.000	0.044	-0.349
-525.004	-44.204	-0.313	-0.156
-523.989	-114.100	0.063	0.012
-522.975	-200.000	-0.047	0.330
-521.960	-63.016	0.174	0.071
-520.945	-87.091	0.203	-0.061
-519.931	64.758	-0.075	0.075
-518.916	-167.840	0.130	0.005
-517.902	21.423	-0.095	0.076
-516.887	133.659	-0.263	-0.338
-515.872	20.252	-0.148	0.119
-514.858	-174.161	-0.168	-0.005
-513.843	21.582	-0.227	0.183
-512.829	7.390	-0.292	-0.217
-511.814	800.000	0.075	0.214
-510.799	-200.000	-0.014	0.117
-509.785	800.000	-0.058	-0.249
-508.770	-200.000	-0.069	0.321
-507.756	-20.353	-0.137	-0.084
-506.741	120.438	0.212	-0.261
-505.726	153.571	0.074	-0.100
-504.712	800.000	0.029	0.105
-503.697	800.000	-0.079	-0.294
-502.683	31.245	-0.103	-0.088
-501.668	258.180	0.189	-0.323
-500.653	800.000	0.092	-0.282
-499.639	-30.812	0.236	0.133
-498.624	-200.000	0.012	0.208
-497.610	-200.000	-0.019	-0.230
-496.595	-172.885	0.201	-0.006
-495.581	-200.000	0.003	-0.548
-494.566	-128.362	0.168	0.024
-493.551	42.785	-0.032	-0.029
-492.537	-2.573	-0.192	0.134
-491.522	592.509	0.057	-0.139
-490.508	-80.178	0.373	0.124
-489.493	2.516	-0.239	-0.172
-488.478	-4.825	0.141	0.096
-487.464	-200.000	0.052	-0.282
-486.449	-200.000	-0.007	0.100
-485.435	69.262	-0.119	0.121
-484.420	-138.549	0.059	0.006
-483.405	260.727	-0.119	0.204
-482.391	-200.000	0.002	0.037
-481.376	-53.423	-0.174	0.079
-480.362	41.394	0.107	-0.096
-479.347	83.651	0.077	0.083
-478.332	-105.074	0.286	-0.065
-477.318	-200.000	0.056	-0.300
-476.303	-200.000	-0.014	-0.266
-475.289	76.593	-0.190	0.199
-474.274	-200.000	-0.008	0.103
-473.259	92.883	0.152	0.170
-472.245	-114.465	0.176	0.034
-471.230	-50.960	-0.176	-0.082
-470.216	6.873	-0.234	0.172
-469.201	21.159	-0.122	0.098
-468.186	-58.558	-0.206	-0.088
-467.172	-118.006	-0.251	0.044
-466.157	9.907	-0.167	0.126
-465.143	-122.187	-0.187	0.030
-464.128	-200.000	-0.032	-0.218
-463.113	-89.451	0.122	0.035
-462.099	68.131	0.157	-0.159
-461.084	-19.356	0.128	-0.079
-460.070	38.732	0.057	-0.050
-459.055	-52.057	-0.207	-0.095
-458.040	-200.000	0.001	0.201
-457.026	800.000	0.046	-0.165
-456.011	-200.000	0.011	-0.390
-454.997	664.832	-0.028	0.072
-453.982	-74.715	0.672	-0.239
-452.968	800.000	-0.065	-0.186
-451.953	-51.303	-0.252	-0.117
-450.938	243.350	-0.048	0.080
-449.924	332.123	-0.112	0.214
-448.909	31.907	0.224	0.191
-447.895	800.000	0.050	0.165
-446.880	800.000	0.028	-0.084
-445.865	622.286	-0.054	0.135
-444.851	-17.719	-0.163	0.101
-443.836	-24.144	-0.221	-0.131
-442.822	10.248	-0.383	-0.288
-441.807	-46.140	-0.184	-0.090
-440.792	-114.738	-0.139	-0.026
-439.778	229.939	0.162	-0.262
-438.763	800.000	0.049	-0.141
-437.749	511.667	-0.028	-0.064
-436.734	-46.670	-0.178	-0.086
-435.719	8.457	-0.222	0.165
-434.705	-200.000	0.003	0.304
-433.690	488.770	-0.077	0.175
-432.676	124.780	-0.030	-0.038
-431.661	129.765	-0.246	0.311
-430.646	-200.000	0.098	0.447
-429.632	85.244	0.222	-0.241
-428.617	-200.000	-0.005	-0.355
-427.603	15.811	0.095	-0.074
-426.588	-103.494	-0.373	-0.087
-425.573	-200.000	-0.042	-0.227
-424.559	61.921	-0.196	0.193
-423.544	-171.992	-0.507	-0.016
-422.530	118.342	0.153	0.186
-421.515	-200.000	0.000	-0.045
-420.500	229.399	-0.018	-0.029
-419.486	-64.257	-0.406	0.164
-418.471	800.000	0.027	-0.114
-417.457	-200.000	-0.011	0.077
-416.442	17.480	-0.277	-0.217
-415.428	143.824	-0.047	0.062
-414.413	-47.581	-0.383	0.184
-413.398	-15.931	-0.315	0.198
-412.384	357.838	-0.067	0.132
-411.369	800.000	0.080	0.272
-410.355	-114.151	-0.080	-0.015
-409.340	-161.658	-0.268	0.014
-408.325	33.538	-0.208	-0.178
-407.311	-200.000	-0.018	-0.171
-406.296	246.906	-0.115	0.192
-405.282	-200.000	0.035	-0.615
-404.267	-200.000	0.064	-0.556
-403.252	55.049	-0.040	-0.038
-402.238	206.643	0.219	0.336
-401.223	179.284	0.147	-0.213
-400.209	-151.473	0.160	-0.012
-399.194	-62.543	0.082	0.034
-398.179	102.160	-0.099	0.114
-397.165	-200.000	-0.029	0.126
-396.150	-50.765	-0.212	-0.099
-395.136	-200.000	-0.005	0.170
-394.121	205.579	-0.311	0.477
-393.106	18.904	0.108	0.085
-392.092	-79.047	-0.322	-0.108
-391.077	64.047	0.298	-0.296
-390.063	284.364	0.054	-0.096
-389.048	-114.347	0.107	-0.020
-388.033	7.568	0.235	0.173
-387.019	-5.836	0.116	0.078
-386.004	-110.552	-0.105	0.021
-384.990	-193.715	-0.254	0.002
-383.975	412.279	-0.090	-0.189
-382.960	763.621	-0.123	0.329
-381.946	246.260	0.225	0.374
-380.931	355.804	-0.069	-0.136
-379.917	659.735	0.097	-0.247
-378.902	341.175	0.185	-0.357
-377.888	-110.343	0.103	0.021
-376.873	137.820	0.178	0.230
-375.858	800.000	0.046	0.184
-374.844	800.000	0.092	0.273
-373.829	800.000	-0.093	0.324
-372.815	-29.013	-0.146	-0.082
-371.800	800.000	0.022	0.092
-370.785	-37.496	0.138	-0.073
-369.771	685.106	-0.022	-0.058
-368.756	-137.377	-0.232	-0.026
-367.742	-49.129	-0.458	-0.216
-366.727	800.000	0.062	-0.227
-365.712	-166.552	0.372	-0.015
-364.698	122.672	0.090	0.111
-363.683	382.922	-0.154	-0.312
-362.669	63.061	-0.131	0.130
-361.654	542.483	-0.070	0.165
-360.639	105.689	0.099	-0.115
-359.625	116.754	-0.072	-0.087
-358.610	-200.000	0.020	-0.159
-357.596	-200.000	-0.030	-0.211
-356.581	-200.000	-0.002	-0.158
-355.566	-200.000	-0.048	0.241
-354.552	-147.519	-0.288	-0.024
-353.537	230.743	0.110	0.177
-352.523	800.000	0.060	0.173
-351.508	-179.964	0.199	-0.004
-350.493	-25.751	-0.122	-0.071
-349.479	-5.806	0.254	0.171
-348.464	298.533	-0.140	0.255
-347.450	577.407	-0.088	0.213
-346.435	489.459	0.020	0.045
-345.420	33.594	-0.255	-0.218
-344.406	47.506	0.056	-0.051
-343.391	152.385	0.079	-0.106
-342.377	-22.702	0.104	-0.062
-341.362	-7.419	-0.096	-0.064
-340.348	653.901	0.024	-0.060
-339.333	57.044	0.076	0.073
-338.318	-200.000	-0.039	0.320
-337.304	521.248	0.084	-0.194
-336.289	20.069	0.167	-0.133
-335.275	510.401	0.122	-0.280
-334.260	-200.000	0.026	-0.168
-333.245	180.696	0.041	-0.059
-332.231	48.212	0.054	0.050
-331.216	-200.000	0.013	0.255
-330.202	-200.000	0.006	0.211
-329.187	112.295	-0.142	0.170
-328.172	25.727	0.128	-0.105
-327.158	800.000	-0.030	0.116
-326.143	800.000	-0.056	0.178
-325.129	201.584	0.088	0.134
-324.114	-107.800	-0.275	0.059
-323.099	159.634	0.071	0.098
-322.085	374.581	0.055	0.111
-321.070	107.742	-0.034	-0.040
-320.056	-152.396	-0.301	-0.021
-319.041	614.152	-0.105	-0.258
-318.026	217.524	0.180	0.282
-317.012	-168.406	0.274	0.010
-315.997	-5.339	0.075	0.051
-314.983	-43.280	0.136	0.068
-313.968	-164.024	0.077	-0.004
-312.953	190.081	0.159	0.234
-311.939	-92.864	0.353	-0.097
-310.924	-55.499	0.043	0.019
-309.910	-200.000	-0.031	0.281
-308.895	-89.240	0.237	-0.069
-307.880	-149.990	-0.311	-0.024
-306.866	-200.000	0.026	0.285
-305.851	-51.543	0.085	0.039
-304.837	800.000	0.037	-0.134
-303.822	-47.655	0.342	0.163
-302.807	118.263	0.081	-0.098
-301.793	36.727	0.056	-0.049
-300.778	495.019	-0.053	0.121
-299.764	-10.222	-0.319	0.208
-298.749	-156.196	0.380	0.024
-297.735	-200.000	0.016	-0.081
-296.720	-66.098	0.090	-0.035
-295.705	149.348	0.194	-0.259
-294.691	353.087	0.074	0.144
-293.676	-200.000	-0.065	-0.354
-292.662	133.756	-0.174	0.221
-291.647	332.129	-0.136	0.258
-290.632	-142.943	0.215	-0.021
-289.618	-182.052	0.266	0.005
-288.603	-200.000	-0.024	-0.156
-287.589	369.766	-0.138	0.275
-286.574	-28.219	-0.031	0.018
-285.559	-112.406	0.156	0.031
-284.545	-73.127	-0.411	0.148
-283.530	-200.000	-0.030	0.282
-282.516	-200.000	-0.004	-0.230
-281.501	-59.608	-0.170	-0.072
-280.486	800.000	-0.063	-0.215
-279.472	800.000	-0.049	0.173
-278.457	655.974	-0.198	0.501
-277.443	196.080	0.094	-0.141
-276.428	-111.800	0.559	0.111
-275.413	-200.000	-0.067	-0.349
-274.399	800.000	0.052	0.145
-273.384	58.386	-0.144	0.139
-272.370	-200.000	0.107	0.467
-271.355	145.148	0.063	-0.083
-270.340	800.000	0.107	-0.387
-269.326	-54.678	-0.113	-0.050
-268.311	800.000	-0.062	-0.222
-267.297	800.000	0.102	0.293
-266.282	507.995	0.096	-0.219
-265.267	-200.000	0.027	0.140
-264.253	-200.000	-0.014	0.119
-263.238	234.983	0.075	0.121
-262.224	255.430	0.123	-0.208
-261.209	-112.817	0.378	0.074
-260.195	-12.929	-0.188	-0.120
-259.180	-200.000	0.048	-0.251
-258.165	-14.547	0.162	-0.103
-257.151	-43.000	-0.244	0.122
-256.136	800.000	-0.030	-0.084
-255.122	84.977	0.269	0.290
-254.107	-64.007	-0.113	0.045
-253.092	-22.309	0.079	0.047
-252.078	109.177	0.109	0.128
-251.063	173.107	0.255	0.361
-250.049	-136.694	-0.184	0.021
-249.034	800.000	-0.051	-0.182
-248.019	-126.664	0.239	0.035
-247.005	-93.253	-0.141	-0.039
-245.990	75.620	0.193	-0.200
-244.976	-200.000	0.015	-0.113
-243.961	198.730	0.090	0.135
-242.946	436.192	0.040	0.086
-241.932	-101.395	0.027	0.006
-240.917	-200.000	0.030	-0.205
-239.903	232.766	0.137	-0.221
-238.888	-46.371	0.039	0.019
-237.873	283.152	-0.312	-0.550
-236.859	-200.000	-0.024	-0.390
-235.844	800.000	0.045	0.130
-234.830	-67.526	0.154	-0.059
-233.815	5.250	0.055	0.040
-232.800	419.288	-0.085	0.178
-231.786	785.094	0.060	0.161
-230.771	-69.202	-0.258	-0.097
-229.757	56.586	0.227	0.216
-228.742	129.307	-0.102	0.128
-227.727	-50.586	0.261	-0.120
-226.713	-200.000	-0.011	-0.077
-225.698	119.224	-0.187	-0.227
-224.684	-200.000	0.002	-0.036
-223.669	-200.000	-0.027	-0.142
-222.655	239.797	0.098	0.161
-221.640	-40.502	0.273	-0.139
-220.625	-4.323	-0.149	-0.101
-219.611	-129.052	0.219	0.030
-218.596	-130.072	0.267	0.036
-217.582	-197.391	-0.551	0.003
-216.567	-141.420	0.211	0.021
-215.552	-176.176	0.427	-0.011
-214.538	384.102	-0.063	0.127
-213.523	800.000	-0.062	0.245
-212.509	-200.000	0.021	-0.096
-211.494	-73.346	0.223	-0.080
-210.479	59.389	-0.275	0.266
-209.465	99.907	0.077	-0.087
-208.450	550.469	0.181	0.426
-207.436	409.384	-0.174	0.361
-206.421	53.492	0.203	-0.190
-205.406	-200.000	0.048	0.245
-204.392	-121.056	-0.134	-0.022
-203.377	-160.756	0.178	-0.009
-202.363	-19.489	-0.168	-0.102
-201.348	-68.422	0.371	0.141
-200.333	-6.776	-0.040	0.027
-199.319	72.553	0.235	-0.240
-198.304	117.050	0.119	-0.143
-197.290	-39.142	-0.133	-0.069
-196.275	9.467	0.082	0.061
-195.260	-63.211	0.082	-0.033
-194.246	-46.357	-0.260	-0.125
-193.231	-200.000	-0.015	0.122
-192.217	-138.030	0.530	-0.058
-191.202	-14.210	-0.069	0.044
-190.187	109.919	-0.087	0.103
-189.173	-112.502	-0.355	0.069
-188.158	-114.184	0.068	0.013
-187.144	-200.000	0.003	0.186
-186.129	-136.695	0.057	0.006
-185.114	685.226	-0.083	0.211
-184.100	-148.047	-0.128	0.010
-183.085	-109.707	-0.188	-0.039
-182.071	-77.581	-0.180	-0.061
-181.056	-44.991	0.218	0.106
-180.042	-130.386	-0.020	0.003
-179.027	-76.095	0.026	0.009
-178.012	-69.300	0.408	-0.154
-176.998	-123.310	0.157	-0.025
-175.983	121.046	0.157	0.191
-174.969	61.763	0.042	0.041
-173.954	800.000	0.041	0.126
-172.939	-2.414	0.284	-0.195
-171.925	-138.943	-0.325	0.035
-170.910	37.178	-0.181	0.157
-169.896	38.834	0.258	-0.225
-168.881	800.000	0.020	0.085
-167.866	-27.363	-0.241	-0.137
-166.852	-128.959	-0.122	-0.017
-165.837	245.886	-0.058	-0.095
-164.823	800.000	0.041	0.147
-163.808	-20.081	0.248	0.150
-162.793	-154.190	0.239	0.016
-161.779	-118.732	0.056	-0.010
-160.764	81.613	0.215	-0.228
-159.750	-55.005	0.142	0.063
-158.735	-179.757	-0.055	0.001
-157.720	154.335	0.095	0.127
-156.706	-200.000	0.013	-0.128
-155.691	-55.577	-0.241	-0.106
-154.677	-200.000	0.012	-0.161
-153.662	119.938	0.041	-0.050
-152.647	-200.000	0.058	0.286
-151.633	614.865	-0.137	0.335
-150.618	-159.115	-0.288	-0.016
-149.604	498.471	0.027	-0.060
-148.589	-200.000	-0.039	0.199
-147.574	-200.000	-0.034	-0.180
-146.560	-46.537	-0.105	-0.051
-145.545	-76.328	-0.259	-0.089
-144.531	-129.347	-0.202	-0.027
-143.516	107.992	0.207	-0.241
-142.502	-15.984	0.171	0.106
-141.487	-200.000	0.028	0.305
-140.472	367.965	-0.157	0.311
-139.458	88.947	-0.148	0.161
-138.443	-200.000	0.015	-0.279
-137.429	-57.210	0.319	0.137
-136.414	800.000	0.029	0.106
-135.399	-143.927	0.259	-0.024
-134.385	15.709	-0.125	0.096
-133.370	-14.802	-0.157	0.098
-132.356	800.000	0.049	0.192
-131.341	-54.786	0.166	-0.073
-130.326	634.369	0.204	-0.506
-129.312	242.672	-0.168	-0.275
-128.297	285.452	0.121	-0.212
-127.283	-200.000	-0.036	0.173
-126.268	800.000	0.113	-0.356
-125.253	150.032	0.098	-0.130
-124.239	800.000	0.095	0.283
-123.224	-200.000	-0.044	0.244
-122.210	-58.017	0.346	0.148
