DTS Sentinel unit serial number:	SN413079Multiplexer serial number:	ORYXHardware model number:	OX4-SRSoftware version number:	ORYX F/W v4.00 Oryx Data Collector v3.7.2.0data status	okinstallation	princeton_trtdifferential loss correction	single-endedforward channel	channel 1reverse channel	N/Adate	2019/09/16time	23:22:35forward acquisition time	60.00reverse acquisition time	0.00gamma	496.2192k internal	0.2326k external	0.2326temperature offset calibration	0.9961default loss term (dB/km)	0.3790temperature slope calibration	1.0000multiplexer offset coefficient	1.0000multiplexer slope coefficient	1.0000fibre end	0.00T internal ref (°C)	30.00T ext. ref 1 (°C)	0.09T ext. ref 2 (°C)	23.65length (m)	temperature (°C)	Stokes	anti-Stokes-747.200	-200.000	-0.034	0.222
-746.185	-159.282	-0.124	-0.007
-745.171	338.117	-0.070	0.137
-744.156	190.082	0.124	-0.188
-743.142	225.111	-0.145	0.237
-742.127	-93.314	-0.368	-0.103
-741.112	-200.000	0.013	0.296
-740.098	146.163	-0.031	-0.042
-739.083	345.730	0.066	0.130
-738.069	-3.294	-0.239	0.168
-737.054	-200.000	-0.000	0.120
-736.039	420.667	-0.101	-0.218
-735.025	800.000	-0.083	0.296
-734.010	-8.042	-0.300	-0.204
-732.996	800.000	-0.080	-0.261
-731.981	800.000	-0.023	-0.091
-730.966	-157.035	-0.309	-0.019
-729.952	-48.082	-0.311	-0.151
-728.937	187.739	0.133	-0.200
-727.923	-88.351	-0.185	-0.056
-726.908	46.723	-0.349	0.327
-725.894	145.786	-0.246	-0.332
-724.879	3.062	-0.116	-0.085
-723.864	332.935	-0.187	-0.363
-722.850	-200.000	0.005	0.027
-721.835	-57.106	0.509	-0.226
-720.821	-13.996	-0.327	-0.213
-719.806	-45.808	-0.403	-0.200
-718.791	-200.000	-0.005	0.070
-717.777	-74.331	0.558	0.203
-716.762	-200.000	0.017	0.134
-715.748	-58.723	-0.183	-0.080
-714.733	-56.842	0.210	0.094
-713.718	-200.000	-0.125	0.586
-712.704	-31.653	0.278	-0.157
-711.689	33.362	-0.072	-0.063
-710.675	269.820	0.201	-0.356
-709.660	196.059	-0.091	-0.139
-708.645	-76.888	-0.141	0.050
-707.631	800.000	0.125	-0.427
-706.616	53.858	-0.108	-0.105
-705.602	-200.000	-0.091	-0.420
-704.587	52.542	0.362	-0.348
-703.572	143.706	0.130	-0.175
-702.558	396.933	-0.067	-0.140
-701.543	-62.295	-0.128	-0.054
-700.529	11.230	-0.296	-0.228
-699.514	-200.000	0.001	-0.184
-698.499	-200.000	-0.011	0.080
-697.485	418.287	-0.050	-0.107
-696.470	-49.010	0.361	-0.174
-695.456	81.158	-0.140	-0.152
-694.441	-200.000	-0.002	0.305
-693.426	226.996	-0.083	-0.136
-692.412	474.780	-0.138	-0.314
-691.397	-49.447	0.166	-0.080
-690.383	127.308	-0.110	-0.140
-689.368	519.018	0.049	0.116
-688.354	-54.077	0.379	-0.174
-687.339	176.675	0.181	-0.265
-686.324	657.045	0.054	0.139
-685.310	-141.911	-0.219	-0.022
-684.295	-124.539	0.145	-0.023
-683.281	-44.381	0.171	-0.086
-682.266	145.962	0.259	0.350
-681.251	-156.947	0.038	0.002
-680.237	-77.884	-0.276	-0.096
-679.222	201.069	-0.129	-0.200
-678.208	-18.010	-0.042	-0.026
-677.193	267.057	-0.150	-0.264
-676.178	-200.000	0.005	0.099
-675.164	60.076	0.263	-0.261
-674.149	-0.889	0.091	0.065
-673.135	201.089	-0.073	-0.113
-672.120	-76.921	-0.326	0.114
-671.105	-200.000	0.004	0.307
-670.091	-26.008	-0.108	0.064
-669.076	74.002	-0.191	-0.202
-668.062	26.415	-0.147	-0.124
-667.047	60.272	-0.228	-0.227
-666.032	-40.655	-0.180	0.094
-665.018	-29.342	0.136	-0.079
-664.003	570.050	-0.031	0.076
-662.989	113.183	0.097	-0.118
-661.974	-94.942	-0.171	-0.047
-660.959	241.751	-0.159	0.268
-659.945	325.706	0.183	0.352
-658.930	800.000	0.029	-0.112
-657.916	-200.000	-0.001	0.148
-656.901	145.840	0.041	-0.055
-655.886	225.621	-0.031	-0.050
-654.872	155.839	-0.211	-0.292
-653.857	-21.216	0.129	0.079
-652.843	-187.018	0.224	0.003
-651.828	-94.136	0.209	-0.058
-650.814	341.012	-0.084	-0.164
-649.799	800.000	-0.075	-0.301
-648.784	314.350	-0.049	-0.093
-647.770	-28.775	0.145	-0.084
-646.755	-200.000	0.029	0.370
-645.741	-117.992	0.140	0.025
-644.726	800.000	-0.092	0.281
-643.711	-120.991	-0.256	0.043
-642.697	29.437	-0.077	0.066
-641.682	-200.000	-0.009	0.053
-640.668	184.684	-0.013	0.020
-639.653	104.000	0.296	-0.350
-638.638	479.331	-0.191	-0.436
-637.624	-200.000	-0.007	0.039
-636.609	-200.000	0.173	-0.000
-635.595	-200.000	0.026	-0.154
-634.580	-200.000	0.027	0.141
-633.565	-133.897	-0.150	0.019
-632.551	800.000	-0.113	0.431
-631.536	279.194	-0.077	0.139
-630.522	-3.724	0.200	-0.139
-629.507	45.522	0.127	-0.118
-628.492	-200.000	0.049	0.232
-627.478	307.691	0.143	-0.267
-626.463	-200.000	0.030	-0.247
-625.449	305.661	0.242	0.451
-624.434	800.000	-0.046	-0.169
-623.419	294.852	0.105	-0.193
-622.405	-200.000	0.040	-0.329
-621.390	-200.000	-0.043	-0.446
-620.376	122.906	-0.118	0.148
-619.361	-165.788	0.051	0.002
-618.346	800.000	0.091	-0.261
-617.332	-36.804	0.088	-0.047
-616.317	-62.593	0.145	-0.060
-615.303	89.596	-0.069	-0.077
-614.288	36.361	0.207	0.183
-613.273	-38.144	-0.089	0.048
-612.259	-100.487	-0.170	-0.042
-611.244	768.171	-0.074	-0.203
-610.230	124.783	0.090	-0.114
-609.215	-179.018	-0.163	0.004
-608.201	-200.000	0.025	-0.142
-607.186	323.416	-0.298	-0.570
-606.171	-151.982	-0.268	0.020
-605.157	-3.792	0.214	-0.149
-604.142	-122.819	-0.024	0.004
-603.128	-41.300	0.110	0.057
-602.113	60.306	-0.255	-0.253
-601.098	-124.268	-0.274	-0.043
-600.084	-200.000	-0.005	-0.176
-599.069	-200.000	-0.022	0.350
-598.055	187.351	-0.153	0.228
-597.040	800.000	0.039	-0.111
-596.025	756.806	-0.037	-0.101
-595.011	-200.000	0.002	0.047
-593.996	494.158	-0.085	0.196
-592.982	-77.554	-0.392	-0.136
-591.967	494.942	0.127	-0.293
-590.952	-49.238	-0.086	-0.041
-589.938	123.379	0.415	0.521
-588.923	-200.000	0.042	-0.240
-587.909	800.000	-0.032	0.118
-586.894	-22.589	-0.228	0.138
-585.879	-200.000	-0.025	-0.117
-584.865	-164.743	0.237	-0.011
-583.850	-143.202	0.243	-0.023
-582.836	-200.000	0.001	0.225
-581.821	-66.517	0.176	0.070
-580.806	-200.000	-0.067	-0.302
-579.792	-200.000	-0.015	-0.228
-578.777	-21.691	-0.074	-0.045
-577.763	-124.418	0.266	0.042
-576.748	412.741	0.096	-0.205
-575.733	-99.028	0.088	0.022
-574.719	-66.475	-0.076	0.030
-573.704	-200.000	0.007	-0.035
-572.690	-77.499	-0.094	-0.033
-571.675	-200.000	-0.017	0.268
-570.661	202.461	0.130	-0.200
-569.646	-200.000	0.006	0.319
-568.631	236.684	0.132	0.219
-567.617	195.833	0.134	-0.204
-566.602	-85.395	-0.283	-0.088
-565.588	-200.000	-0.028	-0.155
-564.573	-129.950	0.117	-0.016
-563.558	204.103	0.096	-0.149
-562.544	306.233	-0.160	-0.299
-561.529	800.000	0.098	0.401
-560.515	-200.000	-0.041	0.233
-559.500	42.975	-0.149	0.136
-558.485	-64.646	0.257	0.104
-557.471	-19.754	0.275	-0.170
-556.456	218.979	-0.178	-0.285
-555.442	-58.539	-0.364	-0.158
-554.427	-200.000	0.026	-0.140
-553.412	-81.834	0.250	0.082
-552.398	53.603	-0.142	-0.136
-551.383	323.795	0.088	0.169
-550.369	123.137	0.280	-0.352
-549.354	67.390	-0.159	-0.163
-548.339	800.000	-0.137	-0.427
-547.325	-200.000	0.037	-0.164
-546.310	80.211	0.113	0.121
-545.296	800.000	0.065	0.236
-544.281	76.033	-0.267	0.283
-543.266	11.160	-0.146	-0.112
-542.252	800.000	-0.032	-0.104
-541.237	99.186	0.217	-0.251
-540.223	4.249	0.256	-0.188
-539.208	-130.536	-0.161	0.022
-538.193	-63.284	-0.151	-0.062
-537.179	8.059	0.101	0.076
-536.164	-111.822	-0.195	-0.039
-535.150	-42.577	-0.234	-0.119
-534.135	-142.458	0.140	0.014
-533.121	800.000	0.114	0.411
-532.106	477.315	0.077	0.175
-531.091	-200.000	-0.022	0.155
-530.077	-45.658	-0.221	-0.109
-529.062	373.766	-0.098	-0.199
-528.048	800.000	-0.096	-0.318
-527.033	-111.751	-0.345	-0.070
-526.018	800.000	0.081	-0.292
-525.004	-4.552	-0.062	-0.043
-523.989	-54.827	-0.219	0.099
-522.975	-16.246	-0.244	-0.155
-521.960	585.062	0.062	0.152
-520.945	-58.397	0.179	-0.078
-519.931	499.420	0.028	-0.064
-518.916	-200.000	-0.010	-0.138
-517.902	111.596	0.112	0.135
-516.887	-200.000	-0.000	-0.215
-515.872	-1.802	-0.202	0.142
-514.858	7.728	0.162	-0.122
-513.843	73.152	0.101	-0.106
-512.829	-55.447	0.151	-0.068
-511.814	-8.986	-0.331	-0.222
-510.799	78.382	-0.222	-0.237
-509.785	-200.000	0.048	0.521
-508.770	533.573	0.130	0.309
-507.756	11.402	0.342	-0.262
-506.741	-146.047	-0.215	-0.019
-505.726	-96.570	0.350	-0.092
-504.712	109.827	-0.183	0.220
-503.697	-200.000	-0.044	0.315
-502.683	260.741	0.078	0.134
-501.668	374.205	-0.158	0.322
-500.653	800.000	0.043	0.140
-499.639	-35.708	0.168	-0.091
-498.624	77.483	-0.228	0.242
-497.610	-56.936	0.377	-0.166
-496.595	-180.495	-0.387	0.008
-495.581	68.561	-0.146	0.150
-494.566	-78.996	0.104	0.035
-493.551	50.297	-0.140	0.132
-492.537	-50.949	-0.052	-0.025
-491.522	142.550	0.167	-0.222
-490.508	535.230	-0.058	0.136
-489.493	176.460	-0.130	0.189
-488.478	127.983	0.131	-0.166
-487.464	31.242	-0.175	-0.150
-486.449	111.715	0.145	-0.174
-485.435	-136.693	0.381	-0.044
-484.420	38.852	0.089	-0.080
-483.405	-30.615	0.039	0.022
-482.391	46.889	-0.212	-0.197
-481.376	-41.136	0.164	-0.085
-480.362	301.052	-0.103	0.190
-479.347	-148.939	0.203	-0.016
-478.332	-22.560	-0.230	0.139
-477.318	-20.375	0.416	-0.256
-476.303	-98.680	0.060	-0.015
-475.289	-200.000	0.019	-0.340
-474.274	257.626	-0.019	-0.033
-473.259	-52.061	-0.118	0.055
-472.245	-62.917	0.168	0.069
-471.230	-70.159	-0.216	-0.082
-470.216	-132.339	0.138	0.018
-469.201	55.201	0.112	0.108
-468.186	77.817	0.070	0.074
-467.172	-154.213	-0.308	0.021
-466.157	-75.797	-0.199	-0.071
-465.143	40.544	-0.143	-0.129
-464.128	130.314	-0.077	0.098
-463.113	-115.457	-0.312	-0.059
-462.099	732.056	0.159	-0.424
-461.084	-42.680	-0.192	-0.097
-460.070	251.718	-0.093	-0.159
-459.055	-23.528	0.416	-0.249
-458.040	-4.364	0.213	-0.147
-457.026	-67.409	-0.110	0.043
-456.011	-200.000	-0.007	-0.102
-454.997	51.172	0.107	0.101
-453.982	-124.440	0.242	-0.038
-452.968	-83.442	0.258	0.082
-451.953	749.270	0.109	-0.294
-450.938	228.320	0.074	-0.120
-449.924	-97.203	-0.163	-0.042
-448.909	-200.000	0.090	-0.402
-447.895	-140.646	-0.341	0.035
-446.880	110.909	-0.174	0.209
-445.865	474.293	0.109	0.246
-444.851	-21.259	0.086	0.053
-443.836	132.612	-0.138	-0.178
-442.822	415.826	-0.110	-0.233
-441.807	-92.764	0.208	0.058
-440.792	-42.588	-0.039	0.020
-439.778	-96.589	0.250	0.066
-438.763	-27.373	0.156	-0.090
-437.749	-200.000	-0.003	-0.118
-436.734	382.276	-0.101	-0.207
-435.719	-170.919	0.069	0.002
-434.705	800.000	0.015	-0.061
-433.690	-25.274	0.169	0.100
-432.676	150.625	-0.161	-0.218
-431.661	164.384	0.044	0.062
-430.646	253.119	-0.078	0.132
-429.632	-200.000	0.037	-0.215
-428.617	800.000	0.093	0.280
-427.603	-74.636	0.383	0.137
-426.588	-152.820	-0.284	-0.020
-425.573	-71.178	0.074	-0.028
-424.559	-55.408	-0.312	0.140
-423.544	-113.348	-0.341	0.067
-422.530	188.675	0.107	-0.160
-421.515	-76.592	0.045	0.016
-420.500	531.788	-0.017	0.041
-419.486	800.000	0.116	-0.350
-418.471	-33.077	0.037	-0.020
-417.457	-66.913	0.459	0.181
-416.442	59.174	0.352	0.345
-415.428	-200.000	0.025	-0.235
-414.413	-200.000	-0.002	-0.080
-413.398	-200.000	-0.031	-0.161
-412.384	162.735	0.193	0.270
-411.369	11.879	0.183	-0.140
-410.355	800.000	0.128	-0.462
-409.340	-178.948	0.349	0.008
-408.325	311.490	-0.160	0.299
-407.311	-42.183	0.089	0.045
-406.296	-200.000	0.004	0.047
-405.282	341.612	0.105	-0.203
-404.267	-35.490	-0.155	-0.084
-403.252	115.389	0.075	0.092
-402.238	779.911	0.089	0.242
-401.223	-96.027	-0.080	0.021
-400.209	-200.000	-0.028	-0.194
-399.194	-17.679	0.276	0.173
-398.179	-47.983	-0.132	-0.064
-397.165	111.501	0.108	-0.130
-396.150	-78.759	-0.167	-0.057
-395.136	-200.000	-0.018	-0.182
-394.121	800.000	-0.046	0.135
-393.106	-189.077	0.113	-0.001
-392.092	-86.777	-0.235	0.071
-391.077	800.000	0.041	0.171
-390.063	800.000	-0.047	0.177
-389.048	233.932	-0.051	-0.084
-388.033	-200.000	0.013	0.200
-387.019	-200.000	-0.025	0.313
-386.004	800.000	-0.053	0.199
-384.990	695.105	-0.035	0.091
-383.975	-200.000	-0.017	0.257
-382.960	-96.780	0.102	0.027
-381.946	-200.000	-0.053	0.240
-380.931	-200.000	0.019	0.432
-379.917	-1.406	-0.179	-0.126
-378.902	-82.399	-0.299	0.096
-377.888	-200.000	0.004	-0.138
-376.873	61.832	0.078	-0.077
-375.858	48.214	0.108	0.100
-374.844	800.000	-0.072	0.306
-373.829	63.149	-0.032	0.032
-372.815	-200.000	-0.002	0.081
-371.800	56.725	-0.082	0.080
-370.785	-54.950	-0.264	0.118
-369.771	-25.471	0.322	0.189
-368.756	214.307	-0.103	-0.162
-367.742	108.030	0.046	-0.054
-366.727	-39.602	-0.325	0.169
-365.712	-120.456	0.230	-0.039
-364.698	74.109	0.068	0.071
-363.683	654.304	-0.028	-0.072
-362.669	-176.954	-0.250	-0.006
-361.654	-7.643	-0.051	-0.034
-360.639	-156.770	0.102	0.006
-359.625	49.921	-0.260	0.243
-358.610	58.734	-0.100	0.098
-357.596	800.000	0.097	-0.287
-356.581	-200.000	0.072	0.396
-355.566	-174.719	0.296	-0.008
-354.552	800.000	-0.052	-0.209
-353.537	-200.000	-0.063	0.298
-352.523	-200.000	-0.034	-0.164
-351.508	800.000	-0.058	0.212
-350.493	-119.862	0.275	-0.047
-349.479	158.988	-0.096	0.133
-348.464	119.383	0.144	-0.177
-347.450	394.723	0.035	-0.072
-346.435	-70.617	-0.108	-0.041
-345.420	13.176	0.245	0.188
-344.406	-125.045	0.159	0.024
-343.391	-3.391	-0.118	0.082
-342.377	531.502	0.222	-0.520
-341.362	-200.000	-0.006	0.164
-340.348	515.099	0.080	-0.186
-339.333	800.000	0.059	0.202
-338.318	103.086	-0.092	0.107
-337.304	-143.525	-0.186	0.018
-336.289	-200.000	-0.044	0.211
-335.275	800.000	0.053	-0.200
-334.260	351.557	-0.008	0.016
-333.245	800.000	0.106	0.332
-332.231	-50.543	-0.140	0.065
-331.216	-41.415	-0.316	0.161
-330.202	800.000	-0.019	0.066
-329.187	-200.000	-0.012	-0.250
-328.172	-117.152	-0.199	-0.036
-327.158	-121.754	0.086	-0.014
-326.143	-200.000	0.020	-0.134
-325.129	800.000	0.060	-0.249
-324.114	-80.549	0.273	-0.090
-323.099	-139.060	-0.315	0.034
-322.085	-200.000	0.014	0.459
-321.070	-109.483	-0.263	0.055
-320.056	-61.351	-0.128	0.053
-319.041	800.000	-0.063	-0.221
-318.026	-27.677	-0.073	-0.042
-317.012	-200.000	0.023	0.281
-315.997	106.320	-0.172	0.203
-314.983	616.185	-0.041	-0.103
-313.968	93.139	-0.242	-0.272
-312.953	252.412	-0.073	-0.123
-311.939	-131.854	-0.083	-0.011
-310.924	272.446	-0.070	-0.123
-309.910	-192.256	-0.172	0.002
-308.895	-73.411	-0.087	-0.032
-307.880	224.058	0.185	-0.297
-306.866	-193.336	0.157	-0.001
-305.851	800.000	-0.132	0.444
-304.837	-200.000	0.005	-0.075
-303.822	-123.074	-0.350	-0.056
-302.807	800.000	-0.057	0.193
-301.793	800.000	-0.076	-0.227
-300.778	-82.854	-0.256	-0.082
-299.764	187.137	0.001	0.002
-298.749	-200.000	0.032	-0.211
-297.735	92.992	-0.103	0.115
-296.720	-6.658	0.090	0.061
-295.705	-200.000	0.059	-0.258
-294.691	226.300	-0.245	-0.395
-293.676	-200.000	-0.025	-0.143
-292.662	-48.984	-0.179	0.085
-291.647	93.755	0.247	0.278
-290.632	-200.000	0.010	-0.168
-289.618	466.412	0.119	0.265
-288.603	-200.000	-0.006	0.221
-287.589	52.118	-0.229	-0.216
-286.574	-200.000	-0.018	0.388
-285.559	-44.083	-0.083	-0.041
-284.545	-183.274	0.289	0.005
-283.530	232.543	-0.137	0.222
-282.516	800.000	0.054	0.180
-281.501	-72.857	0.230	0.084
-280.486	414.007	-0.031	-0.066
-279.472	267.548	-0.081	0.141
-278.457	-99.715	-0.246	0.061
-277.443	800.000	0.088	-0.368
-276.428	57.020	0.048	-0.046
-275.413	260.855	0.020	0.035
-274.399	-31.219	-0.231	0.129
-273.384	160.953	-0.039	0.055
-272.370	150.900	0.229	0.308
-271.355	198.888	-0.081	0.123
-270.340	-130.452	0.150	0.020
-269.326	87.589	0.185	0.202
-268.311	-106.658	0.257	0.057
-267.297	151.226	0.094	-0.127
-266.282	399.930	0.087	0.180
-265.267	79.777	-0.176	-0.187
-264.253	-200.000	0.012	0.130
-263.238	-200.000	0.019	0.092
-262.224	401.526	0.128	0.266
-261.209	-56.115	-0.301	-0.133
-260.195	13.518	0.300	-0.230
-259.180	246.127	-0.221	-0.369
-258.165	104.761	0.143	-0.167
-257.151	-54.574	-0.111	0.050
-256.136	-160.120	0.193	0.010
-255.122	517.449	-0.041	-0.094
-254.107	-144.157	-0.077	-0.007
-253.092	-35.098	0.117	0.063
-252.078	45.542	0.109	0.100
-251.063	299.840	0.178	-0.324
-250.049	-200.000	-0.015	0.229
-249.034	-200.000	0.014	-0.113
-248.019	-200.000	-0.039	0.000
-247.005	-7.009	-0.081	-0.055
-245.990	125.410	-0.098	0.122
-244.976	800.000	-0.018	0.077
-243.961	181.362	0.207	0.302
-242.946	-165.260	-0.269	0.012
-241.932	-84.609	0.211	-0.066
-240.917	800.000	0.014	0.053
-239.903	10.973	0.072	0.054
-238.888	110.866	0.046	0.055
-237.873	-50.161	-0.270	0.127
-236.859	516.844	-0.065	0.150
-235.844	747.239	0.094	-0.251
-234.830	214.286	0.167	0.262
-233.815	511.308	-0.031	0.072
-232.800	-183.813	0.203	0.003
-231.786	277.247	0.119	0.209
-230.771	-200.000	0.010	-0.138
-229.757	387.534	0.094	0.193
-228.742	-5.181	-0.088	-0.060
-227.727	741.853	-0.077	0.206
-226.713	800.000	0.064	0.228
-225.698	11.289	0.124	-0.094
-224.684	-153.799	-0.342	0.023
-223.669	800.000	0.050	0.148
-222.655	-131.416	0.267	0.035
-221.640	-200.000	-0.020	0.303
-220.625	31.263	-0.085	0.072
-219.611	116.307	0.117	-0.142
-218.596	102.702	0.262	0.303
-217.582	69.198	0.141	0.144
-216.567	169.924	-0.081	-0.115
-215.552	-200.000	-0.012	0.082
-214.538	66.080	0.213	0.213
-213.523	-168.486	0.361	0.014
-212.509	800.000	0.038	-0.163
-211.494	120.155	-0.137	0.168
-210.479	63.698	-0.133	0.132
-209.465	36.318	-0.099	-0.087
-208.450	800.000	-0.052	0.183
-207.436	-192.743	0.063	0.001
-206.421	-42.757	0.103	-0.052
-205.406	-81.482	-0.216	0.070
-204.392	-173.658	0.388	-0.011
-203.377	-92.732	0.049	-0.014
-202.363	-45.756	-0.244	0.119
-201.348	3.087	-0.161	0.116
-200.333	800.000	-0.074	-0.303
-199.319	-112.994	-0.122	0.024
-198.304	-19.981	0.218	-0.133
-197.290	-69.101	0.184	0.070
-196.275	154.433	0.139	0.188
-195.260	-200.000	-0.019	0.327
-194.246	538.262	0.117	0.275
-193.231	-154.823	0.282	-0.018
-192.217	-44.823	-0.164	0.081
-191.202	800.000	0.016	-0.063
-190.187	-200.000	-0.003	0.275
-189.173	-167.843	-0.572	0.022
-188.158	237.266	-0.274	-0.449
-187.144	2.898	-0.192	-0.138
-186.129	665.223	0.130	-0.330
-185.114	-200.000	0.014	-0.203
-184.100	-200.000	0.007	-0.083
-183.085	-141.629	-0.304	0.030
-182.071	800.000	-0.131	-0.462
-181.056	-94.996	0.294	-0.079
-180.042	430.598	-0.126	-0.269
-179.027	800.000	-0.068	0.227
-178.012	125.756	-0.173	0.216
-176.998	411.859	-0.141	0.296
-175.983	363.570	-0.139	0.275
-174.969	11.097	0.162	0.122
-173.954	40.500	-0.425	0.377
-172.939	70.215	0.101	-0.103
-171.925	304.684	0.173	-0.318
-170.910	290.241	0.117	0.210
-169.896	30.372	-0.085	-0.071
-168.881	23.132	-0.134	0.108
-167.866	18.264	0.105	-0.082
-166.852	296.255	-0.070	-0.126
-165.837	187.490	-0.099	0.145
-164.823	-109.220	0.248	-0.052
-163.808	-96.967	-0.156	-0.040
-162.793	-200.000	0.006	0.059
-161.779	800.000	-0.066	0.258
-160.764	-200.000	-0.072	-0.410
-159.750	-27.732	-0.152	-0.087
-158.735	-120.008	0.367	-0.062
-157.720	-128.031	0.457	-0.065
-156.706	-113.291	-0.194	0.038
-155.691	1.292	0.393	0.279
-154.677	-63.657	0.119	-0.048
-153.662	-108.520	-0.360	0.076
-152.647	647.282	-0.047	-0.120
-151.633	10.726	0.063	0.047
-150.618	-136.797	0.063	0.007
-149.604	-122.574	0.243	-0.039
-148.589	-35.001	0.315	0.169
-147.574	-200.000	-0.011	-0.089
-146.560	-49.139	0.336	-0.158
-145.545	800.000	-0.049	0.172
-144.531	-150.385	0.394	-0.030
-143.516	-49.838	0.092	-0.043
-142.502	-132.169	-0.183	0.023
-141.487	166.254	0.107	0.149
-140.472	-200.000	0.014	0.135
-139.458	186.020	0.185	0.271
-138.443	701.796	-0.103	0.267
-137.429	-200.000	0.009	0.217
-136.414	529.033	0.055	-0.127
-135.399	-200.000	-0.010	0.062
-134.385	-49.264	-0.227	-0.107
-133.370	138.902	0.060	0.078
-132.356	-95.902	0.233	0.061
-131.341	800.000	-0.078	0.268
-130.326	66.157	0.271	0.271
-129.312	-64.712	0.350	0.140
-128.297	-200.000	0.054	-0.294
-127.283	4.896	-0.130	-0.094
-126.268	242.867	-0.033	-0.055
-125.253	-200.000	0.024	0.153
-124.239	63.098	0.233	0.229
-123.224	-97.035	0.232	0.060
-122.210	-7.589	0.125	-0.083
