DTS Sentinel unit serial number:	SN413079Multiplexer serial number:	ORYXHardware model number:	OX4-SRSoftware version number:	ORYX F/W v4.00 Oryx Data Collector v3.7.2.0data status	okinstallation	princeton_trtdifferential loss correction	single-endedforward channel	channel 1reverse channel	N/Adate	2019/09/14time	19:18:36forward acquisition time	60.00reverse acquisition time	0.00gamma	496.2192k internal	0.2311k external	0.2311temperature offset calibration	1.0028default loss term (dB/km)	0.3790temperature slope calibration	1.0000multiplexer offset coefficient	1.0000multiplexer slope coefficient	1.0000fibre end	0.00T internal ref (°C)	35.08T ext. ref 1 (°C)	4.87T ext. ref 2 (°C)	29.11length (m)	temperature (°C)	Stokes	anti-Stokes-747.200	56.279	0.270	0.266
-746.185	-6.660	0.173	0.119
-745.171	98.038	-0.143	0.167
-744.156	-46.290	0.119	0.059
-743.142	117.340	-0.141	0.176
-742.127	-17.420	0.226	0.144
-741.112	81.577	-0.156	0.172
-740.098	-200.000	-0.001	0.271
-739.083	224.687	-0.055	-0.091
-738.069	542.171	0.083	0.200
-737.054	477.236	0.018	-0.042
-736.039	44.339	-0.212	-0.197
-735.025	-83.920	0.304	0.098
-734.010	121.512	0.099	-0.125
-732.996	217.070	0.141	-0.227
-731.981	171.982	-0.118	-0.172
-730.966	-138.082	-0.156	-0.018
-729.952	-9.026	0.232	-0.157
-728.937	-126.524	0.172	0.026
-727.923	800.000	-0.055	0.186
-726.908	-200.000	0.003	0.089
-725.894	184.899	-0.112	-0.169
-724.879	-200.000	-0.336	0.001
-723.864	-60.228	-0.335	-0.145
-722.850	72.616	0.054	-0.057
-721.835	800.000	-0.020	0.087
-720.821	512.589	-0.028	0.067
-719.806	800.000	0.053	-0.172
-718.791	62.033	0.201	-0.203
-717.777	-23.715	-0.250	-0.152
-716.762	-152.218	-0.201	-0.015
-715.748	61.222	0.047	-0.048
-714.733	-87.385	-0.251	-0.077
-713.718	-71.150	-0.204	0.078
-712.704	85.865	-0.184	-0.205
-711.689	-200.000	0.069	-0.508
-710.675	1.876	0.072	-0.053
-709.660	-51.807	-0.088	0.042
-708.645	-152.669	0.352	-0.025
-707.631	45.474	-0.077	-0.072
-706.616	205.808	-0.103	0.162
-705.602	506.896	0.041	-0.097
-704.587	39.712	-0.165	0.150
-703.572	-70.746	0.175	-0.067
-702.558	-117.806	0.158	-0.029
-701.543	15.181	0.021	0.016
-700.529	-84.492	-0.232	0.074
-699.514	-155.756	0.316	0.020
-698.499	-193.498	-0.163	0.001
-697.485	-149.402	0.169	-0.014
-696.470	490.982	0.106	0.246
-695.456	37.889	0.156	-0.141
-694.441	-41.818	-0.254	-0.132
-693.426	750.668	-0.122	-0.335
-692.412	71.241	0.155	-0.163
-691.397	-160.907	0.437	0.023
-690.383	75.752	-0.072	0.077
-689.368	-200.000	0.052	0.275
-688.354	44.097	-0.113	-0.105
-687.339	800.000	0.039	-0.159
-686.324	135.063	0.251	0.330
-685.310	16.884	-0.185	0.149
-684.295	442.164	0.103	-0.229
-683.281	800.000	-0.132	-0.372
-682.266	800.000	-0.023	-0.071
-681.251	-10.976	-0.203	0.136
-680.237	-74.190	0.216	0.079
-679.222	-172.179	-0.346	-0.011
-678.208	-15.888	-0.354	0.228
-677.193	-24.508	-0.134	-0.081
-676.178	-88.956	-0.262	-0.079
-675.164	97.012	0.067	-0.077
-674.149	-49.022	-0.274	-0.133
-673.135	444.890	0.061	-0.136
-672.120	-84.557	0.170	-0.054
-671.105	271.564	-0.180	-0.321
-670.091	-15.420	0.085	0.055
-669.076	-200.000	0.031	-0.254
-668.062	168.737	0.100	0.144
-667.047	-36.254	0.326	0.178
-666.032	615.457	0.017	-0.043
-665.018	-16.659	0.158	-0.102
-664.003	800.000	-0.050	0.192
-662.989	79.200	0.237	-0.256
-661.974	-56.733	0.181	0.081
-660.959	101.397	-0.072	-0.085
-659.945	704.317	-0.089	-0.238
-658.930	13.749	-0.216	-0.169
-657.916	25.689	-0.111	0.094
-656.901	92.650	-0.085	-0.097
-655.886	123.196	0.064	0.081
-654.872	-132.841	0.072	-0.009
-653.857	-49.814	-0.203	0.097
-652.843	-86.446	0.296	0.092
-651.828	10.743	-0.225	0.174
-650.814	-180.946	0.299	0.006
-649.799	321.506	-0.147	-0.283
-648.784	-111.018	0.027	-0.006
-647.770	23.528	-0.296	-0.246
-646.755	9.198	0.359	-0.275
-645.741	-200.000	0.001	-0.125
-644.726	800.000	-0.078	0.234
-643.711	-200.000	-0.052	0.242
-642.697	-200.000	0.034	-0.223
-641.682	-58.913	0.017	0.007
-640.668	343.512	-0.179	0.355
-639.653	-200.000	-0.083	0.000
-638.638	544.484	0.159	-0.385
-637.624	289.508	0.087	-0.160
-636.609	-89.922	-0.364	-0.108
-635.595	-136.349	-0.157	-0.018
-634.580	365.397	0.057	0.117
-633.565	86.096	-0.205	0.229
-632.551	245.750	-0.148	-0.252
-631.536	-200.000	-0.012	0.084
-630.522	-30.813	-0.157	-0.090
-629.507	-71.216	0.264	0.100
-628.492	800.000	0.068	0.223
-627.478	-45.922	0.194	-0.097
-626.463	-200.000	0.001	0.014
-625.449	800.000	0.112	-0.376
-624.434	24.247	0.187	-0.156
-623.419	675.400	-0.098	0.258
-622.405	-200.000	0.031	0.383
-621.390	-200.000	-0.027	0.151
-620.376	683.114	0.083	-0.218
-619.361	-89.222	0.252	0.075
-618.346	-60.861	0.114	0.049
-617.332	232.391	0.058	0.096
-616.317	-200.000	-0.034	0.259
-615.303	800.000	0.007	-0.032
-614.288	-200.000	0.013	-0.169
-613.273	-74.427	-0.148	-0.054
-612.259	-90.924	-0.264	-0.077
-611.244	-200.000	-0.020	-0.288
-610.230	-200.000	-0.035	-0.177
-609.215	-130.401	-0.297	0.041
-608.201	-114.318	-0.207	0.040
-607.186	-59.878	0.215	-0.093
-606.171	176.779	-0.096	0.141
-605.157	800.000	0.007	0.028
-604.142	-93.290	0.233	-0.065
-603.128	-54.798	0.214	-0.098
-602.113	-200.000	0.005	-0.044
-601.098	800.000	0.146	-0.510
-600.084	97.656	0.101	-0.118
-599.069	-39.569	0.180	-0.095
-598.055	-100.133	-0.247	-0.062
-597.040	63.052	-0.125	0.126
-596.025	-130.487	-0.056	-0.008
-595.011	138.851	-0.040	-0.052
-593.996	174.144	-0.107	-0.156
-592.982	-200.000	0.007	0.065
-591.967	1.533	0.148	0.108
-590.952	214.064	0.106	0.170
-589.938	-200.000	0.030	-0.282
-588.923	800.000	-0.020	0.066
-587.909	363.616	-0.101	-0.206
-586.894	513.758	-0.097	-0.229
-585.879	-108.085	-0.160	0.035
-584.865	-20.435	-0.117	0.073
-583.850	-200.000	-0.001	-0.069
-582.836	-38.534	-0.136	0.072
-581.821	1.748	-0.134	-0.097
-580.806	-33.831	0.339	0.188
-579.792	203.404	-0.143	0.224
-578.777	87.160	-0.208	-0.232
-577.763	-59.255	-0.042	0.018
-576.748	-142.517	-0.242	-0.024
-575.733	800.000	-0.024	-0.081
-574.719	145.827	0.022	-0.030
-573.704	79.998	0.126	-0.137
-572.690	800.000	0.125	-0.441
-571.675	-23.631	0.213	0.129
-570.661	7.830	0.155	0.117
-569.646	-132.481	-0.147	-0.019
-568.631	-182.323	-0.075	-0.001
-567.617	-75.470	-0.284	0.102
-566.602	26.255	0.105	0.089
-565.588	-15.903	0.147	0.094
-564.573	-26.083	-0.222	-0.132
-563.558	-124.195	-0.458	0.072
-562.544	-200.000	-0.005	0.108
-561.529	-168.768	0.167	-0.006
-560.515	-200.000	0.018	-0.319
-559.500	332.146	-0.083	0.162
-558.485	-113.558	0.056	0.011
-557.471	-149.514	0.309	-0.025
-556.456	-68.939	-0.108	0.042
-555.442	-70.644	-0.097	0.037
-554.427	94.977	0.102	0.117
-553.412	-200.000	0.025	-0.143
-552.398	-41.258	0.131	-0.068
-551.383	43.518	-0.095	-0.088
-550.369	79.687	0.087	0.095
-549.354	-200.000	0.039	-0.259
-548.339	218.375	0.200	-0.322
-547.325	-140.213	-0.403	0.043
-546.310	-109.143	0.018	0.004
-545.296	127.181	0.050	-0.064
-544.281	29.141	-0.100	-0.086
-543.266	108.764	0.226	0.273
-542.252	-153.042	-0.261	-0.018
-541.237	800.000	0.102	-0.404
-540.223	23.203	-0.121	0.100
-539.208	-73.716	0.275	0.101
-538.193	653.158	0.076	0.195
-537.179	651.998	-0.130	-0.335
-536.164	46.752	-0.220	-0.206
-535.150	-84.799	0.251	0.080
-534.135	-160.887	0.267	-0.014
-533.121	-200.000	0.008	-0.245
-532.106	-38.061	0.070	-0.037
-531.091	38.340	-0.223	0.200
-530.077	13.310	0.211	0.165
-529.062	-155.934	0.120	-0.008
-528.048	339.581	0.049	-0.097
-527.033	800.000	0.070	-0.262
-526.018	-200.000	-0.059	-0.373
-525.004	-64.935	0.162	0.066
-523.989	-56.269	0.106	0.048
-522.975	40.117	0.063	0.057
-521.960	-151.179	0.131	-0.010
-520.945	-33.089	0.103	-0.057
-519.931	358.627	-0.049	-0.099
-518.916	-19.602	-0.159	-0.099
-517.902	800.000	-0.054	-0.203
-516.887	125.979	-0.197	-0.251
-515.872	107.324	-0.034	0.041
-514.858	-200.000	-0.031	0.207
-513.843	202.105	0.139	0.216
-512.829	-155.023	-0.011	-0.001
-511.814	-16.442	-0.275	0.175
-510.799	-200.000	0.025	-0.220
-509.785	-200.000	-0.048	-0.307
-508.770	13.657	0.233	-0.182
-507.756	52.702	-0.084	-0.081
-506.741	459.639	-0.047	-0.104
-505.726	800.000	-0.041	0.154
-504.712	-124.652	-0.223	-0.035
-503.697	800.000	-0.082	0.278
-502.683	279.731	0.041	0.075
-501.668	788.235	-0.144	0.397
-500.653	800.000	0.030	-0.092
-499.639	-123.507	0.073	0.012
-498.624	-200.000	0.025	-0.159
-497.610	16.277	0.260	0.207
-496.595	203.909	0.043	-0.067
-495.581	-113.427	0.178	-0.035
-494.566	103.519	0.202	0.238
-493.551	-200.000	0.224	0.001
-492.537	61.143	-0.286	-0.285
-491.522	800.000	0.038	0.140
-490.508	800.000	0.029	0.127
-489.493	242.740	-0.152	0.256
-488.478	-69.124	-0.215	0.083
-487.464	12.493	-0.090	-0.070
-486.449	800.000	0.104	0.324
-485.435	-35.419	-0.186	-0.101
-484.420	628.397	-0.137	0.347
-483.405	-47.054	0.206	-0.101
-482.391	-54.553	-0.341	-0.155
-481.376	-158.858	0.208	-0.012
-480.362	305.599	-0.067	0.125
-479.347	385.685	0.056	-0.116
-478.332	103.498	-0.034	0.040
-477.318	253.870	0.161	0.276
-476.303	800.000	-0.070	0.210
-475.289	-200.000	-0.025	0.132
-474.274	-147.804	-0.216	0.018
-473.259	800.000	0.079	0.237
-472.245	144.855	-0.120	0.161
-471.230	-166.681	-0.398	0.017
-470.216	-91.790	0.162	0.046
-469.201	14.331	0.035	-0.027
-468.186	-66.277	0.170	0.068
-467.172	800.000	-0.091	-0.357
-466.157	-158.820	-0.236	0.014
-465.143	-120.707	0.244	0.041
-464.128	201.959	0.107	0.166
-463.113	-200.000	-0.030	-0.223
-462.099	-122.078	0.169	0.028
-461.084	-95.857	-0.263	-0.070
-460.070	211.981	-0.056	-0.089
-459.055	-200.000	-0.034	-0.181
-458.040	95.961	0.111	0.127
-457.026	-45.643	-0.191	-0.095
-456.011	-200.000	-0.000	-0.077
-454.997	-46.727	0.167	0.082
-453.982	800.000	-0.026	0.073
-452.968	-87.593	-0.207	0.063
-451.953	-179.701	0.219	0.005
-450.938	-55.296	0.302	-0.136
-449.924	-200.000	-0.070	0.448
-448.909	36.440	-0.226	0.200
-447.895	163.451	-0.048	0.067
-446.880	-39.609	-0.122	-0.064
-445.865	-71.760	-0.225	-0.084
-444.851	-200.000	-0.078	0.349
-443.836	140.881	-0.120	-0.160
-442.822	588.190	0.115	0.283
-441.807	95.725	-0.166	0.190
-440.792	1.046	0.209	-0.150
-439.778	52.938	0.109	-0.105
-438.763	-111.561	-0.181	0.037
-437.749	-117.984	-0.220	-0.039
-436.734	21.899	-0.177	0.145
-435.719	-67.588	0.077	0.030
-434.705	130.451	0.106	0.136
-433.690	-77.178	0.163	0.057
-432.676	19.552	-0.128	-0.103
-431.661	-200.000	-0.002	-0.045
-430.646	-152.094	-0.254	0.018
-429.632	98.661	-0.119	0.138
-428.617	800.000	-0.040	-0.142
-427.603	459.706	-0.162	0.362
-426.588	-94.941	0.209	0.057
-425.573	-68.257	-0.072	0.028
-424.559	-150.532	0.084	-0.006
-423.544	-14.107	0.204	0.132
-422.530	-138.952	0.190	0.021
-421.515	3.925	-0.148	-0.109
-420.500	138.003	-0.158	-0.208
-419.486	-138.924	0.059	0.006
-418.471	410.031	-0.151	-0.321
-417.457	-200.000	0.000	-0.118
-416.442	-71.298	0.244	0.092
-415.428	-200.000	0.017	-0.350
-414.413	-51.620	-0.056	-0.026
-413.398	-35.498	-0.086	-0.047
-412.384	-46.330	0.250	0.123
-411.369	-103.610	0.333	0.078
-410.355	-200.000	-0.028	0.168
-409.340	800.000	0.091	0.286
-408.325	-123.141	-0.242	0.039
-407.311	-200.000	0.050	-0.232
-406.296	-200.000	0.013	-0.127
-405.282	450.311	0.093	-0.205
-404.267	-160.190	0.264	-0.014
-403.252	52.038	-0.050	-0.048
-402.238	-108.736	0.048	-0.010
-401.223	-60.525	-0.064	0.027
-400.209	443.055	-0.114	0.250
-399.194	-60.687	0.139	0.059
-398.179	-200.000	-0.036	-0.190
-397.165	227.638	-0.182	-0.296
-396.150	81.355	0.014	-0.015
-395.136	-195.984	-0.359	0.003
-394.121	-127.275	0.303	-0.044
-393.106	-148.184	-0.317	-0.026
-392.092	-119.291	0.106	0.018
-391.077	290.008	-0.064	0.116
-390.063	-68.835	0.366	0.141
-389.048	200.273	-0.161	0.247
-388.033	129.149	-0.283	-0.362
-387.019	-38.643	0.237	-0.125
-386.004	37.876	-0.160	-0.142
-384.990	5.248	-0.118	0.087
-383.975	764.805	-0.078	0.212
-382.960	-200.000	-0.044	-0.240
-381.946	-1.375	0.165	-0.116
-380.931	-84.928	0.340	0.107
-379.917	-10.978	0.288	0.190
-378.902	183.002	-0.238	-0.351
-377.888	800.000	-0.046	-0.134
-376.873	-49.456	-0.094	0.045
-375.858	800.000	-0.045	0.186
-374.844	-200.000	0.051	0.342
-373.829	487.343	-0.068	0.156
-372.815	105.413	-0.296	-0.350
-371.800	122.336	0.053	0.066
-370.785	-32.767	-0.186	-0.104
-369.771	-86.741	0.277	-0.085
-368.756	66.523	-0.085	0.086
-367.742	206.954	-0.065	0.101
-366.727	-124.367	-0.224	0.035
-365.712	-66.327	-0.154	0.061
-364.698	100.650	0.040	-0.046
-363.683	-200.000	0.003	-0.088
-362.669	-138.018	-0.333	-0.037
-361.654	-200.000	-0.025	0.310
-360.639	-200.000	0.010	-0.126
-359.625	-98.906	0.188	-0.048
-358.610	-200.000	0.002	-0.179
-357.596	29.391	-0.231	-0.196
-356.581	69.716	-0.067	0.069
-355.566	-200.000	-0.049	-0.376
-354.552	-60.948	0.193	0.082
-353.537	5.234	0.146	-0.108
-352.523	21.545	0.151	0.122
-351.508	-20.579	-0.227	-0.139
-350.493	-199.988	-0.177	-0.001
-349.479	-13.810	0.149	0.096
-348.464	-151.785	0.194	-0.014
-347.450	-80.442	0.083	0.028
-346.435	-110.817	0.247	0.051
-345.420	221.611	-0.061	0.098
-344.406	233.060	-0.073	0.119
-343.391	-200.000	0.014	0.217
-342.377	-32.502	0.443	0.247
-341.362	-200.000	-0.011	0.064
-340.348	-52.869	-0.402	-0.185
-339.333	-32.716	0.313	-0.174
-338.318	17.757	-0.093	0.074
-337.304	159.117	0.073	-0.102
-336.289	-39.735	0.263	-0.138
-335.275	-46.315	0.097	-0.048
-334.260	-4.399	-0.141	0.097
-333.245	-115.318	-0.295	-0.056
-332.231	-158.425	-0.302	-0.018
-331.216	-151.523	-0.498	-0.037
-330.202	225.618	-0.150	-0.243
-329.187	-200.000	0.041	0.298
-328.172	-149.840	0.135	0.011
-327.158	-173.319	0.080	-0.002
-326.143	83.154	-0.129	0.140
-325.129	405.407	0.139	-0.294
-324.114	132.034	-0.104	0.134
-323.099	-170.380	0.096	0.003
-322.085	-142.049	0.450	0.045
-321.070	800.000	-0.049	0.136
-320.056	-69.380	0.176	0.067
-319.041	141.947	0.196	-0.260
-318.026	48.039	-0.121	0.113
-317.012	755.950	-0.037	0.100
-315.997	47.597	-0.184	-0.171
-314.983	546.051	-0.052	-0.123
-313.968	800.000	-0.087	0.291
-312.953	-94.859	-0.154	-0.042
-311.939	331.005	-0.043	-0.082
-310.924	105.429	-0.187	-0.221
-309.910	-83.596	-0.134	-0.043
-308.895	127.035	0.126	-0.159
-307.880	11.980	0.233	-0.178
-306.866	129.685	0.100	0.127
-305.851	639.772	-0.077	0.195
-304.837	-200.000	0.004	-0.234
-303.822	-200.000	0.294	-0.000
-302.807	91.214	-0.157	0.176
-301.793	-43.864	0.338	-0.170
-300.778	40.677	-0.082	0.074
-299.764	27.423	0.140	-0.118
-298.749	-200.000	0.080	-0.349
-297.735	210.913	0.143	0.225
-296.720	-40.515	-0.330	-0.171
-295.705	-22.826	0.083	0.050
-294.691	-200.000	-0.034	0.255
-293.676	287.535	-0.098	0.177
-292.662	800.000	-0.101	0.419
-291.647	150.931	-0.070	-0.095
-290.632	88.704	-0.041	-0.045
-289.618	-167.786	0.286	-0.011
-288.603	-5.496	0.063	-0.043
-287.589	-52.227	0.162	0.075
-286.574	249.170	-0.109	-0.185
-285.559	36.602	-0.024	0.021
-284.545	800.000	0.064	0.232
-283.530	-200.000	-0.006	0.089
-282.516	287.769	-0.037	-0.068
-281.501	-200.000	-0.016	0.250
-280.486	-84.861	0.445	0.139
-279.472	226.545	0.099	-0.160
-278.457	-2.360	0.120	-0.084
-277.443	800.000	-0.021	0.058
-276.428	121.343	-0.233	-0.289
-275.413	283.396	-0.094	0.168
-274.399	-200.000	0.008	0.272
-273.384	14.687	0.199	0.155
-272.370	-200.000	-0.262	0.001
-271.355	-200.000	0.002	-0.131
-270.340	-37.400	0.164	0.087
-269.326	-120.024	0.246	-0.042
-268.311	-122.567	0.126	0.020
-267.297	61.798	-0.260	-0.258
-266.282	122.104	0.232	0.288
-265.267	-200.000	0.023	0.215
-264.253	-200.000	-0.043	0.371
-263.238	291.703	-0.071	0.129
-262.224	90.959	0.093	0.104
-261.209	38.396	-0.082	0.073
-260.195	70.732	0.177	-0.183
-259.180	-200.000	-0.018	0.086
-258.165	327.358	-0.074	-0.140
-257.151	-170.043	-0.293	0.010
-256.136	-87.494	-0.061	-0.018
-255.122	104.632	0.276	-0.324
-254.107	-121.009	-0.345	-0.058
-253.092	-97.236	0.316	-0.082
-252.078	-20.839	-0.103	0.063
-251.063	800.000	-0.037	-0.141
-250.049	5.806	-0.249	0.183
-249.034	-200.000	0.008	-0.070
-248.019	45.039	0.132	0.121
-247.005	-99.054	0.292	0.074
-245.990	-23.626	0.447	-0.267
-244.976	-149.763	0.023	0.002
-243.961	-200.000	0.010	0.108
-242.946	152.102	0.147	0.200
-241.932	-150.407	-0.183	-0.014
-240.917	134.373	0.085	0.109
-239.903	25.115	-0.395	-0.327
-238.888	-20.498	0.277	-0.169
-237.873	-200.000	-0.012	-0.067
-236.859	-19.458	-0.079	0.049
-235.844	800.000	-0.061	0.178
-234.830	-79.088	0.180	-0.061
-233.815	280.329	0.187	0.333
-232.800	-117.668	0.110	-0.020
-231.786	118.072	0.120	-0.147
-230.771	35.558	-0.185	-0.162
-229.757	800.000	0.068	0.208
-228.742	309.206	-0.185	-0.345
-227.727	4.291	-0.259	-0.189
-226.713	-59.844	0.182	0.077
-225.698	326.663	0.089	0.169
-224.684	183.984	-0.144	-0.212
-223.669	51.944	0.023	-0.021
-222.655	-86.984	0.236	-0.072
-221.640	277.519	-0.078	0.139
-220.625	519.000	0.158	-0.368
-219.611	179.921	-0.238	0.346
-218.596	-8.839	-0.416	0.277
-217.582	58.933	0.146	0.143
-216.567	-111.627	-0.098	0.020
-215.552	-0.816	-0.062	-0.044
-214.538	408.019	0.120	0.252
-213.523	-24.848	-0.142	0.084
-212.509	-45.683	0.203	-0.100
-211.494	124.745	-0.227	-0.284
-210.479	-82.903	-0.207	0.066
-209.465	-162.201	-0.246	0.012
-208.450	-36.419	0.064	0.034
-207.436	-7.584	-0.219	0.147
-206.421	800.000	0.046	-0.155
-205.406	-200.000	0.008	0.237
-204.392	553.426	0.111	-0.266
-203.377	-200.000	-0.003	0.166
-202.363	213.842	0.104	0.163
-201.348	-105.396	0.155	0.035
-200.333	-149.062	0.083	-0.007
-199.319	-115.777	-0.228	-0.042
-198.304	800.000	0.054	-0.225
-197.290	90.384	-0.190	-0.211
-196.275	-163.211	0.171	0.008
-195.260	-138.079	-0.350	0.039
-194.246	38.816	-0.253	0.224
-193.231	800.000	0.056	0.165
-192.217	-82.016	0.311	0.101
-191.202	103.132	0.239	-0.278
-190.187	112.337	0.168	0.202
-189.173	13.428	-0.127	-0.098
-188.158	800.000	0.047	-0.169
-187.144	-41.295	-0.203	0.104
-186.129	525.341	0.088	-0.206
-185.114	194.589	0.162	0.245
-184.100	-200.000	0.013	0.098
-183.085	-68.471	0.373	-0.144
-182.071	-200.000	0.002	-0.345
-181.056	704.083	-0.028	-0.072
-180.042	-3.994	-0.303	0.208
-179.027	88.657	-0.426	0.470
-178.012	675.336	-0.107	0.277
-176.998	-63.134	0.414	-0.170
-175.983	800.000	0.095	0.275
-174.969	-157.933	-0.237	-0.014
-173.954	673.702	0.105	0.272
-172.939	75.854	0.216	-0.227
-171.925	-200.000	0.009	0.207
-170.910	21.944	0.179	0.145
-169.896	152.579	-0.100	-0.135
-168.881	800.000	-0.028	-0.118
-167.866	-71.032	-0.096	0.036
-166.852	-139.884	0.084	0.009
-165.837	-37.795	0.112	-0.059
-164.823	75.568	0.140	0.147
-163.808	800.000	-0.106	0.340
-162.793	136.195	0.211	-0.273
-161.779	-200.000	-0.023	0.248
-160.764	-49.485	-0.143	0.068
-159.750	-110.484	0.077	-0.016
-158.735	-34.877	0.209	-0.113
-157.720	149.312	0.059	-0.079
-156.706	-83.559	0.379	0.120
-155.691	800.000	-0.044	-0.126
-154.677	-90.768	0.107	-0.031
-153.662	-75.912	0.191	0.067
-152.647	60.481	-0.099	0.097
-151.633	-140.092	0.125	-0.013
-150.618	800.000	0.043	0.169
-149.604	14.763	0.253	0.197
-148.589	97.726	0.155	-0.176
-147.574	139.782	-0.195	-0.255
-146.560	800.000	0.052	0.179
-145.545	121.962	-0.305	0.377
-144.531	-132.520	-0.346	-0.044
-143.516	433.152	0.072	0.155
-142.502	-46.494	0.250	0.121
-141.487	-4.902	-0.220	0.151
-140.472	185.432	0.091	0.134
-139.458	89.878	-0.314	-0.347
-138.443	-101.987	-0.207	0.050
-137.429	249.680	-0.275	0.462
-136.414	249.640	-0.221	-0.372
-135.399	-105.585	-0.124	0.028
-134.385	-106.914	-0.179	0.039
-133.370	-117.923	0.083	-0.015
-132.356	-132.750	0.171	-0.022
-131.341	-200.000	-0.020	-0.245
-130.326	102.165	-0.165	-0.191
-129.312	-200.000	-0.011	0.194
-128.297	-91.353	0.159	-0.045
-127.283	56.481	0.063	0.061
-126.268	-136.469	0.287	0.033
-125.253	90.691	0.246	-0.273
-124.239	-112.069	0.071	-0.014
-123.224	-200.000	0.052	0.264
-122.210	-121.874	-0.250	-0.041
-121.195	-3.270	0.110	-0.076
-120.180	-170.612	0.197	0.007
