DTS Sentinel unit serial number:	SN413079Multiplexer serial number:	ORYXHardware model number:	OX4-SRSoftware version number:	ORYX F/W v4.00 Oryx Data Collector v3.7.2.0data status	okinstallation	princeton_trtdifferential loss correction	single-endedforward channel	channel 1reverse channel	N/Adate	2019/09/19time	13:18:35forward acquisition time	60.00reverse acquisition time	0.00gamma	496.2192k internal	0.2327k external	0.2327temperature offset calibration	1.0015default loss term (dB/km)	0.3790temperature slope calibration	1.0000multiplexer offset coefficient	1.0000multiplexer slope coefficient	1.0000fibre end	0.00T internal ref (°C)	29.52T ext. ref 1 (°C)	0.95T ext. ref 2 (°C)	27.06length (m)	temperature (°C)	Stokes	anti-Stokes-747.200	-156.993	-0.214	-0.013
-746.185	414.468	0.090	0.194
-745.171	-200.000	0.006	0.351
-744.156	-66.618	-0.056	-0.022
-743.142	227.370	-0.035	0.057
-742.127	317.485	0.149	-0.285
-741.112	-200.000	-0.014	-0.157
-740.098	800.000	-0.145	0.457
-739.083	-56.452	0.305	-0.136
-738.069	-26.135	-0.291	0.172
-737.054	-137.154	-0.413	0.048
-736.039	272.229	-0.073	-0.129
-735.025	-18.056	0.190	0.120
-734.010	-51.574	-0.476	0.224
-732.996	503.236	-0.106	-0.247
-731.981	-27.108	-0.201	-0.118
-730.966	21.707	0.118	-0.097
-729.952	800.000	-0.020	-0.072
-728.937	-103.205	-0.320	0.076
-727.923	-200.000	0.062	-0.445
-726.908	318.246	-0.113	-0.216
-725.894	57.729	0.115	-0.114
-724.879	-200.000	-0.003	0.099
-723.864	-200.000	-0.023	0.177
-722.850	-94.659	-0.023	0.006
-721.835	352.051	0.249	-0.498
-720.821	251.097	-0.086	0.147
-719.806	-200.000	0.001	-0.083
-718.791	-67.829	0.156	-0.062
-717.777	-200.000	0.044	-0.262
-716.762	-129.259	-0.293	-0.041
-715.748	85.480	-0.235	0.260
-714.733	66.963	0.092	-0.094
-713.718	268.730	-0.122	-0.215
-712.704	-65.649	0.159	0.064
-711.689	-40.271	-0.366	0.192
-710.675	21.862	0.211	-0.173
-709.660	-62.122	-0.390	-0.164
-708.645	800.000	0.082	0.252
-707.631	-200.000	0.013	-0.413
-706.616	-26.083	-0.131	0.078
-705.602	-200.000	0.054	-0.337
-704.587	-200.000	0.040	0.180
-703.572	754.640	-0.021	0.057
-702.558	-9.283	0.223	0.150
-701.543	-67.763	0.276	-0.109
-700.529	-200.000	0.080	0.494
-699.514	-32.072	0.275	-0.155
-698.499	-22.937	-0.110	0.067
-697.485	800.000	0.106	-0.312
-696.470	-200.000	0.015	-0.294
-695.456	274.582	0.082	-0.145
-694.441	-200.000	0.076	-0.337
-693.426	-73.502	-0.247	0.091
-692.412	800.000	-0.022	0.080
-691.397	125.162	0.133	0.169
-690.383	185.885	-0.145	-0.217
-689.368	800.000	-0.113	0.479
-688.354	66.840	0.232	-0.238
-687.339	103.235	-0.247	-0.292
-686.324	385.777	-0.144	-0.300
-685.310	-181.998	0.397	-0.008
-684.295	-33.499	0.304	-0.169
-683.281	9.119	0.072	0.055
-682.266	338.708	0.014	0.027
-681.251	57.437	0.053	-0.052
-680.237	40.339	0.120	0.109
-679.222	229.288	-0.109	-0.179
-678.208	663.949	-0.073	0.190
-677.193	-158.731	-0.371	-0.021
-676.178	-62.006	-0.066	0.028
-675.164	486.358	0.093	-0.212
-674.149	44.472	0.109	-0.101
-673.135	466.140	-0.112	0.252
-672.120	-200.000	-0.006	0.028
-671.105	800.000	-0.090	-0.259
-670.091	80.575	0.348	0.377
-669.076	-98.935	-0.292	0.075
-668.062	-33.417	-0.033	0.018
-667.047	252.986	0.216	0.371
-666.032	107.415	-0.066	0.079
-665.018	-64.088	0.018	-0.008
-664.003	463.896	-0.154	0.346
-662.989	-179.715	0.225	-0.005
-661.974	-74.871	0.162	-0.058
-660.959	111.267	-0.137	0.165
-659.945	26.996	0.149	-0.126
-658.930	-138.361	-0.225	-0.025
-657.916	-41.948	-0.369	-0.190
-656.901	-111.910	0.214	0.043
-655.886	-200.000	-0.018	-0.113
-654.872	-200.000	-0.027	-0.132
-653.857	75.787	0.096	0.102
-652.843	68.877	0.241	0.249
-651.828	-91.333	0.157	-0.045
-650.814	25.492	-0.099	0.083
-649.799	-27.903	-0.053	-0.031
-648.784	-112.546	0.227	-0.045
-647.770	31.269	-0.214	0.184
-646.755	11.126	0.094	0.072
-645.741	800.000	-0.072	-0.219
-644.726	152.081	0.150	-0.206
-643.711	107.617	0.084	-0.101
-642.697	-122.525	-0.142	-0.023
-641.682	-77.109	0.168	0.059
-640.668	112.747	0.132	0.160
-639.653	-58.756	-0.237	-0.103
-638.638	-200.000	-0.013	-0.337
-637.624	49.538	0.117	-0.110
-636.609	-200.000	-0.005	0.102
-635.595	-128.075	0.089	0.013
-634.580	190.693	-0.278	0.419
-633.565	800.000	-0.057	0.217
-632.551	-200.000	-0.079	-0.367
-631.536	800.000	0.062	-0.187
-630.522	-121.536	-0.302	0.050
-629.507	14.969	-0.118	0.093
-628.492	134.926	-0.043	0.056
-627.478	800.000	0.061	0.189
-626.463	-58.599	-0.264	-0.115
-625.449	-101.983	0.319	0.077
-624.434	800.000	-0.022	-0.062
-623.419	-64.876	-0.249	0.101
-622.405	-94.271	0.524	-0.144
-621.390	800.000	0.036	-0.106
-620.376	129.339	0.109	-0.140
-619.361	-6.534	0.187	-0.128
-618.346	561.248	-0.038	-0.091
-617.332	602.439	-0.125	0.311
-616.317	800.000	-0.096	-0.331
-615.303	-200.000	-0.036	0.263
-614.288	-39.734	-0.167	0.088
-613.273	604.467	0.044	0.109
-612.259	218.428	0.172	-0.276
-611.244	-68.132	-0.065	-0.025
-610.230	89.645	-0.188	0.211
-609.215	-44.529	-0.140	0.070
-608.201	333.405	0.116	-0.226
-607.186	-150.618	0.058	0.004
-606.171	64.659	-0.236	-0.239
-605.157	-130.483	0.349	-0.047
-604.142	800.000	-0.065	0.230
-603.128	-200.000	0.038	0.173
-602.113	800.000	-0.058	-0.196
-601.098	143.463	0.193	-0.258
-600.084	-1.975	-0.334	-0.235
-599.069	-126.240	0.204	-0.031
-598.055	-200.000	-0.019	-0.441
-597.040	-142.507	-0.259	-0.026
-596.025	-173.032	-0.120	0.004
-595.011	-200.000	-0.057	-0.393
-593.996	188.652	-0.055	-0.083
-592.982	-83.239	-0.128	-0.041
-591.967	800.000	0.084	0.270
-590.952	-3.891	-0.173	-0.120
-589.938	-139.915	0.475	0.050
-588.923	-31.636	0.350	0.197
-587.909	16.513	-0.166	-0.131
-586.894	80.148	0.010	-0.010
-585.879	-80.136	-0.128	0.043
-584.865	800.000	-0.078	0.274
-583.850	95.259	0.158	0.180
-582.836	-200.000	0.045	0.312
-581.821	152.804	-0.107	0.147
-580.806	327.498	0.066	0.127
-579.792	-106.686	0.314	-0.070
-578.777	-200.000	-0.033	-0.236
-577.763	-200.000	0.033	0.219
-576.748	800.000	0.040	0.141
-575.733	-200.000	0.020	-0.140
-574.719	800.000	-0.110	0.466
-573.704	34.667	-0.041	0.036
-572.690	54.499	-0.162	0.157
-571.675	-200.000	-0.021	0.236
-570.661	-53.811	-0.162	0.074
-569.646	800.000	0.062	-0.208
-568.631	25.722	-0.116	-0.097
-567.617	-200.000	-0.022	0.306
-566.602	191.406	0.126	-0.190
-565.588	-131.886	-0.199	-0.026
-564.573	-26.326	0.181	0.107
-563.558	66.517	-0.333	0.339
-562.544	800.000	0.023	-0.079
-561.529	21.872	0.120	-0.098
-560.515	-106.872	0.078	0.017
-559.500	-30.482	0.168	-0.095
-558.485	800.000	-0.035	0.141
-557.471	2.941	0.243	0.177
-556.456	-200.000	0.040	-0.218
-555.442	800.000	-0.067	-0.193
-554.427	-40.768	-0.282	0.146
-553.412	103.161	-0.104	-0.122
-552.398	-200.000	-0.047	-0.351
-551.383	173.404	0.138	-0.198
-550.369	800.000	-0.085	-0.253
-549.354	-82.946	0.142	0.046
-548.339	177.202	0.168	-0.245
-547.325	-200.000	-0.018	0.142
-546.310	-200.000	0.015	-0.079
-545.296	-34.381	0.279	0.153
-544.281	-81.535	-0.296	0.098
-543.266	65.108	-0.248	-0.250
-542.252	-200.000	-0.020	-0.174
-541.237	-200.000	0.042	0.275
-540.223	-84.198	-0.495	0.157
-539.208	-200.000	-0.013	-0.115
-538.193	-81.834	0.257	0.084
-537.179	628.340	0.056	0.140
-536.164	226.419	-0.172	0.279
-535.150	509.815	-0.115	-0.268
-534.135	-107.777	-0.367	0.080
-533.121	5.828	0.261	-0.193
-532.106	-152.186	-0.084	0.006
-531.091	5.381	0.051	0.038
-530.077	-55.257	-0.191	-0.086
-529.062	-200.000	-0.201	-0.001
-528.048	-0.481	-0.369	-0.262
-527.033	-149.556	0.122	0.010
-526.018	-200.000	0.002	-0.246
-525.004	-200.000	-0.010	0.070
-523.989	218.800	-0.042	0.068
-522.975	-200.000	0.161	0.001
-521.960	-200.000	0.044	0.353
-520.945	380.513	-0.082	-0.168
-519.931	5.844	-0.044	-0.033
-518.916	-76.060	-0.026	-0.009
-517.902	377.846	-0.010	-0.020
-516.887	72.770	-0.258	-0.269
-515.872	115.276	-0.168	-0.205
-514.858	-85.818	-0.102	-0.032
-513.843	-127.668	0.162	-0.023
-512.829	-200.000	-0.013	0.334
-511.814	76.745	-0.126	0.133
-510.799	-30.424	-0.146	0.083
-509.785	-53.058	0.279	0.128
-508.770	-200.000	-0.018	-0.165
-507.756	800.000	-0.097	-0.341
-506.741	-200.000	-0.020	-0.193
-505.726	653.699	0.060	-0.153
-504.712	47.280	-0.151	0.140
-503.697	55.654	0.312	0.302
-502.683	597.370	0.135	0.335
-501.668	-69.874	-0.291	0.111
-500.653	-124.565	0.162	-0.025
-499.639	538.969	-0.124	0.295
-498.624	-140.968	-0.114	-0.012
-497.610	-105.321	-0.477	-0.109
-496.595	72.928	0.130	0.135
-495.581	125.593	0.177	-0.223
-494.566	-200.000	-0.021	0.126
-493.551	800.000	0.045	0.153
-492.537	-200.000	-0.008	-0.096
-491.522	285.632	-0.088	-0.158
-490.508	-53.423	0.018	0.008
-489.493	-103.426	0.283	0.067
-488.478	-89.012	-0.136	0.040
-487.464	-81.158	0.087	-0.029
-486.449	4.453	0.041	0.030
-485.435	148.226	0.030	-0.040
-484.420	-165.047	-0.080	0.004
-483.405	32.842	0.133	-0.115
-482.391	-125.080	-0.084	-0.013
-481.376	75.140	-0.333	-0.351
-480.362	-133.552	-0.169	-0.021
-479.347	-200.000	-0.057	0.447
-478.332	265.348	0.119	-0.206
-477.318	-75.101	-0.128	-0.046
-476.303	-200.000	-0.039	-0.314
-475.289	-55.287	-0.194	-0.087
-474.274	772.395	-0.010	-0.026
-473.259	69.837	-0.180	-0.185
-472.245	232.391	-0.041	0.067
-471.230	110.471	0.052	-0.063
-470.216	-200.000	0.045	0.311
-469.201	31.245	0.134	-0.115
-468.186	-114.513	0.091	-0.018
-467.172	747.140	0.097	0.261
-466.157	168.306	-0.076	0.109
-465.143	-89.558	0.291	0.085
-464.128	-200.000	0.012	0.153
-463.113	417.215	-0.105	-0.224
-462.099	-153.605	-0.019	-0.001
-461.084	-123.660	0.115	0.018
-460.070	81.658	-0.280	0.303
-459.055	-200.000	-0.015	0.110
-458.040	253.283	0.265	0.451
-457.026	800.000	0.066	0.185
-456.011	-114.477	-0.359	0.069
-454.997	202.811	-0.168	0.259
-453.982	261.550	0.069	-0.120
-452.968	606.449	-0.129	-0.322
-451.953	18.496	-0.120	0.095
-450.938	-129.651	-0.368	0.051
-449.924	309.616	-0.048	-0.090
-448.909	-100.107	0.209	-0.052
-447.895	190.005	-0.113	-0.168
-446.880	105.023	-0.268	-0.316
-445.865	-146.619	0.288	0.025
-444.851	-148.049	-0.201	-0.017
-443.836	12.433	0.173	-0.133
-442.822	-21.953	-0.152	0.092
-441.807	800.000	0.064	-0.181
-440.792	-137.514	-0.339	0.038
-439.778	-136.344	-0.216	0.025
-438.763	303.127	-0.114	-0.211
-437.749	-200.000	-0.009	0.167
-436.734	-18.483	-0.258	-0.161
-435.719	16.837	0.290	0.228
-434.705	48.708	-0.237	0.221
-433.690	159.794	0.182	0.252
-432.676	-89.760	0.202	0.059
-431.661	-55.718	0.096	0.043
-430.646	-200.000	-0.058	0.274
-429.632	507.373	-0.164	0.379
-428.617	-64.436	0.122	0.050
-427.603	-200.000	-0.009	-0.221
-426.588	-125.803	0.070	-0.011
-425.573	-200.000	-0.023	0.278
-424.559	100.605	0.133	0.153
-423.544	-34.737	-0.188	0.102
-422.530	-139.198	0.079	0.008
-421.515	-171.857	0.068	0.002
-420.500	310.519	-0.109	-0.202
-419.486	-200.000	0.009	-0.054
-418.471	-113.369	0.576	0.113
-417.457	-74.310	-0.230	0.083
-416.442	-5.603	0.159	0.108
-415.428	-138.892	0.245	0.027
-414.413	40.056	0.155	0.138
-413.398	414.322	-0.098	0.208
-412.384	-23.483	-0.168	-0.100
-411.369	800.000	0.071	-0.266
-410.355	626.525	0.088	0.221
-409.340	266.195	-0.106	0.184
-408.325	35.189	0.222	0.193
-407.311	-74.792	-0.081	0.029
-406.296	-154.560	0.186	0.012
-405.282	112.588	-0.064	-0.077
-404.267	-60.320	0.401	-0.170
-403.252	-200.000	0.019	-0.310
-402.238	-49.586	-0.068	-0.032
-401.223	239.796	0.063	0.104
-400.209	221.425	0.116	-0.185
-399.194	-49.089	0.254	-0.121
-398.179	-110.904	0.077	0.016
-397.165	-200.000	-0.023	-0.109
-396.150	800.000	0.083	-0.243
-395.136	385.401	-0.033	-0.068
-394.121	178.796	0.133	0.193
-393.106	-200.000	-0.028	0.266
-392.092	-89.600	-0.221	0.064
-391.077	-200.000	-0.021	-0.232
-390.063	72.013	-0.255	-0.264
-389.048	-151.464	0.167	0.012
-388.033	-200.000	-0.006	0.344
-387.019	-200.000	0.022	0.205
-386.004	-4.270	0.242	-0.167
-384.990	213.229	0.240	-0.377
-383.975	20.879	0.111	0.089
-382.960	-35.207	-0.236	0.128
-381.946	-25.300	-0.125	-0.074
-380.931	-153.149	-0.292	0.020
-379.917	-200.000	-0.024	-0.253
-378.902	-138.726	-0.394	0.043
-377.888	-70.156	0.255	-0.096
-376.873	-6.178	-0.116	0.079
-375.858	-106.565	-0.051	-0.011
-374.844	-200.000	0.041	-0.203
-373.829	125.001	0.170	-0.212
-372.815	800.000	0.088	-0.331
-371.800	-97.921	-0.028	-0.007
-370.785	-82.994	-0.296	0.095
-369.771	-34.269	0.329	0.179
-368.756	-65.423	-0.125	-0.050
-367.742	-200.000	-0.031	0.220
-366.727	800.000	0.153	0.528
-365.712	-3.768	-0.204	-0.140
-364.698	-200.000	-0.054	-0.280
-363.683	-8.137	0.156	0.105
-362.669	-113.833	-0.144	-0.028
-361.654	15.320	-0.081	-0.063
-360.639	-92.515	0.094	0.026
-359.625	-53.952	-0.216	-0.098
-358.610	-29.224	0.251	0.143
-357.596	-88.597	0.456	0.135
-356.581	800.000	0.053	-0.157
-355.566	-11.760	0.278	-0.181
-354.552	-200.000	-0.066	0.303
-353.537	800.000	-0.032	-0.094
-352.523	-56.996	-0.373	0.163
-351.508	-30.956	-0.090	-0.051
-350.493	89.365	0.058	-0.064
-349.479	-200.000	0.003	-0.050
-348.464	49.598	-0.114	-0.106
-347.450	-200.000	0.023	0.224
-346.435	800.000	-0.044	0.130
-345.420	-104.617	-0.196	0.045
-344.406	281.237	0.048	-0.085
-343.391	-76.455	0.057	-0.020
-342.377	57.466	-0.121	0.117
-341.362	-97.412	-0.080	-0.021
-340.348	-200.000	-0.011	0.509
-339.333	-123.227	0.230	0.037
-338.318	800.000	0.082	-0.281
-337.304	114.038	-0.136	0.164
-336.289	235.369	-0.111	-0.182
-335.275	-112.924	0.049	0.010
-334.260	-80.885	-0.092	-0.030
-333.245	107.880	0.106	-0.125
-332.231	-192.320	0.142	-0.001
-331.216	392.721	-0.126	0.260
-330.202	679.772	0.109	0.282
-329.187	-79.925	0.133	-0.044
-328.172	-142.961	-0.218	-0.021
-327.158	-200.000	0.046	0.336
-326.143	-151.010	-0.248	-0.019
-325.129	50.072	0.049	0.046
-324.114	545.089	0.097	0.231
-323.099	-20.163	-0.236	0.144
-322.085	-200.000	0.000	-0.228
-321.070	-200.000	0.023	-0.226
-320.056	37.288	0.140	0.123
-319.041	800.000	0.061	0.209
-318.026	-128.129	0.140	-0.020
-317.012	800.000	0.099	-0.320
-315.997	-64.727	0.156	-0.063
-314.983	-74.017	0.200	-0.072
-313.968	41.514	0.260	0.233
-312.953	0.064	0.125	-0.089
-311.939	-111.282	-0.270	-0.055
-310.924	-200.000	0.014	-0.325
-309.910	-20.459	-0.052	0.032
-308.895	-51.165	0.255	0.119
-307.880	-79.837	0.296	0.099
-306.866	800.000	-0.028	-0.094
-305.851	-97.212	-0.281	-0.073
-304.837	221.809	0.133	-0.211
-303.822	-113.036	-0.104	0.020
-302.807	293.826	-0.100	0.181
-301.793	-200.000	-0.033	0.191
-300.778	116.343	-0.262	0.318
-299.764	-200.000	0.018	0.126
-298.749	800.000	0.066	0.213
-297.735	172.121	0.132	-0.188
-296.720	-124.924	0.288	0.044
-295.705	-17.686	-0.159	-0.099
-294.691	9.824	-0.257	-0.193
-293.676	-12.536	-0.154	-0.100
-292.662	54.809	0.243	-0.232
-291.647	60.114	-0.098	0.096
-290.632	251.096	-0.146	-0.246
-289.618	-52.936	0.324	0.148
-288.603	-44.192	0.119	-0.059
-287.589	154.978	0.146	0.198
-286.574	-103.528	-0.212	-0.049
-285.559	426.675	0.042	-0.090
-284.545	-80.830	-0.066	-0.022
-283.530	-90.367	0.149	0.043
-282.516	-200.000	0.049	-0.458
-281.501	-200.000	-0.089	-0.438
-280.486	-200.000	-0.021	0.133
-279.472	-57.324	0.194	0.085
-278.457	-85.991	-0.322	-0.099
-277.443	800.000	-0.094	-0.265
-276.428	-13.447	-0.028	0.018
-275.413	-26.827	0.250	-0.145
-274.399	800.000	0.104	0.367
-273.384	-127.493	0.223	0.032
-272.370	-200.000	0.047	-0.236
-271.355	258.572	0.044	-0.075
-270.340	-126.485	0.148	0.022
-269.326	800.000	0.091	0.257
-268.311	800.000	-0.088	0.334
-267.297	144.034	0.131	-0.172
-266.282	-155.181	0.223	-0.014
-265.267	-95.897	-0.052	-0.014
-264.253	176.804	0.221	-0.318
-263.238	60.875	0.131	-0.129
-262.224	36.258	0.054	-0.048
-261.209	-132.152	0.210	0.027
-260.195	-21.689	-0.182	0.110
-259.180	-76.524	0.208	-0.072
-258.165	86.537	-0.117	0.128
-257.151	-117.060	0.240	0.043
-256.136	-200.000	0.008	0.096
-255.122	336.884	0.187	-0.359
-254.107	-200.000	-0.010	0.212
-253.092	81.214	0.244	0.261
-252.078	-200.000	0.075	-0.550
-251.063	-175.980	-0.158	-0.004
-250.049	137.272	-0.050	0.065
-249.034	59.601	0.104	0.102
-248.019	800.000	0.105	-0.299
-247.005	-51.650	0.215	-0.099
-245.990	-200.000	0.052	-0.289
-244.976	800.000	0.029	0.095
-243.961	-148.038	-0.137	0.011
-242.946	166.493	0.043	0.060
-241.932	75.480	0.143	-0.149
-240.917	-37.556	0.152	-0.080
-239.903	-12.363	-0.104	-0.067
-238.888	-127.358	-0.344	-0.050
-237.873	209.233	-0.061	-0.094
-236.859	0.352	-0.281	-0.199
-235.844	-63.647	0.213	0.086
-234.830	48.727	-0.201	0.186
-233.815	-145.492	-0.271	-0.024
-232.800	-153.104	0.158	0.011
-231.786	-135.299	0.157	-0.019
-230.771	146.041	-0.224	-0.297
-229.757	226.050	0.123	-0.197
-228.742	-200.000	0.042	-0.223
-227.727	-56.831	-0.359	-0.157
-226.713	20.839	0.088	-0.071
-225.698	800.000	0.085	0.254
-224.684	-107.838	-0.523	0.113
-223.669	272.137	0.102	0.178
-222.655	-200.000	0.042	0.225
-221.640	28.814	0.134	0.112
-220.625	-119.371	-0.253	-0.043
-219.611	675.383	-0.060	0.153
-218.596	6.364	0.258	0.190
-217.582	-105.342	-0.249	0.056
-216.567	800.000	0.026	0.076
-215.552	-145.081	0.334	-0.030
-214.538	32.142	-0.041	0.035
-213.523	37.419	-0.103	0.090
-212.509	124.304	-0.158	0.196
-211.494	-87.981	0.077	-0.023
-210.479	-113.050	0.145	-0.028
-209.465	21.678	0.109	0.088
-208.450	-43.410	0.096	0.048
-207.436	309.480	-0.082	0.152
-206.421	17.990	-0.185	-0.146
-205.406	192.681	0.138	-0.206
-204.392	-200.000	-0.018	-0.262
-203.377	-49.868	-0.318	-0.149
-202.363	-75.587	-0.049	0.017
-201.348	-75.032	-0.101	-0.036
-200.333	-200.000	-0.052	-0.373
-199.319	-149.684	0.113	-0.009
-198.304	-78.619	0.421	-0.142
-197.290	82.304	-0.164	0.175
-196.275	34.644	-0.349	-0.301
-195.260	-65.441	0.123	-0.049
-194.246	800.000	-0.077	0.214
-193.231	42.806	0.159	-0.143
-192.217	-68.276	0.017	0.007
-191.202	30.687	0.241	0.204
-190.187	-10.320	-0.209	0.137
-189.173	10.571	-0.229	-0.172
-188.158	-124.352	-0.210	0.032
-187.144	112.766	0.168	0.201
-186.129	47.048	-0.048	0.044
-185.114	50.341	-0.125	0.117
-184.100	217.568	0.123	0.194
-183.085	800.000	-0.039	0.127
-182.071	-200.000	0.049	0.248
-181.056	30.251	-0.016	0.014
-180.042	-12.479	0.345	0.222
-179.027	-48.087	0.085	-0.041
-178.012	-200.000	-0.000	-0.092
-176.998	75.975	0.128	0.133
-175.983	-71.068	0.315	0.117
-174.969	-200.000	-0.046	-0.354
-173.954	-200.000	0.026	-0.272
-172.939	-54.327	0.180	0.081
-171.925	226.611	0.069	-0.111
-170.910	-200.000	-0.015	0.161
-169.896	800.000	-0.056	0.205
-168.881	1.392	0.383	0.272
-167.866	-9.524	0.206	0.136
-166.852	-23.118	0.186	0.110
-165.837	-27.603	0.176	-0.101
-164.823	-27.534	-0.059	0.034
-163.808	800.000	-0.055	-0.194
-162.793	800.000	-0.048	0.196
-161.779	127.219	0.038	-0.047
-160.764	-68.843	0.234	0.089
-159.750	46.665	0.177	0.162
-158.735	205.346	-0.173	-0.265
-157.720	45.326	0.077	-0.070
-156.706	-105.340	-0.309	0.069
-155.691	206.759	-0.138	-0.213
-154.677	-122.119	-0.529	-0.086
-153.662	762.250	0.055	-0.148
-152.647	-200.000	0.021	-0.101
-151.633	11.641	-0.244	0.185
-150.618	-200.000	0.006	0.140
-149.604	-182.993	0.228	-0.004
-148.589	159.955	0.148	0.203
-147.574	-26.617	-0.021	-0.012
-146.560	-200.000	0.011	-0.102
-145.545	75.740	-0.059	-0.062
-144.531	-155.752	-0.408	0.026
-143.516	-4.095	-0.099	-0.068
-142.502	793.796	-0.098	-0.264
-141.487	-111.824	0.358	0.071
-140.472	-200.000	-0.004	-0.101
-139.458	-200.000	-0.010	-0.384
-138.443	89.414	-0.220	-0.241
-137.429	6.103	-0.044	0.032
-136.414	-8.019	-0.287	0.191
-135.399	60.254	0.144	-0.140
-134.385	-105.695	-0.139	0.031
-133.370	-200.000	0.025	-0.139
-132.356	-92.050	0.150	0.042
-131.341	163.285	-0.215	0.298
-130.326	-1.512	-0.408	0.283
-129.312	21.949	0.088	0.071
-128.297	224.528	-0.228	0.363
-127.283	163.545	0.082	0.114
-126.268	800.000	-0.056	-0.199
-125.253	-200.000	0.006	-0.281
-124.239	-200.000	0.006	0.096
-123.224	-200.000	0.002	0.150
-122.210	-118.474	-0.109	-0.019
-121.195	-200.000	-0.060	0.292
