DTS Sentinel unit serial number:	SN413079Multiplexer serial number:	ORYXHardware model number:	OX4-SRSoftware version number:	ORYX F/W v4.00 Oryx Data Collector v3.7.2.0data status	okinstallation	princeton_trtdifferential loss correction	single-endedforward channel	channel 1reverse channel	N/Adate	2019/09/19time	14:14:35forward acquisition time	60.00reverse acquisition time	0.00gamma	496.2192k internal	0.2322k external	0.2322temperature offset calibration	1.0013default loss term (dB/km)	0.3790temperature slope calibration	1.0000multiplexer offset coefficient	1.0000multiplexer slope coefficient	1.0000fibre end	0.00T internal ref (°C)	31.62T ext. ref 1 (°C)	1.04T ext. ref 2 (°C)	28.87length (m)	temperature (°C)	Stokes	anti-Stokes-747.200	-50.649	-0.105	-0.050
-746.185	141.807	-0.109	-0.146
-745.171	-71.789	0.192	0.072
-744.156	355.418	0.082	0.164
-743.142	-107.161	-0.040	-0.009
-742.127	525.012	-0.107	0.254
-741.112	-90.948	0.135	0.039
-740.098	677.497	0.076	-0.199
-739.083	-36.185	-0.264	0.144
-738.069	-49.350	-0.334	0.161
-737.054	242.635	-0.071	-0.120
-736.039	-104.585	-0.121	-0.028
-735.025	-60.024	0.122	0.053
-734.010	-172.206	-0.188	-0.006
-732.996	524.126	0.114	-0.270
-731.981	-9.830	0.258	0.174
-730.966	180.800	-0.080	-0.118
-729.952	-200.000	0.038	0.170
-728.937	38.650	0.164	0.148
-727.923	34.288	-0.209	0.184
-726.908	293.390	-0.183	-0.337
-725.894	-45.139	0.041	-0.021
-724.879	-114.432	-0.284	-0.055
-723.864	3.945	-0.217	-0.160
-722.850	-111.002	0.312	-0.065
-721.835	-17.419	-0.264	-0.168
-720.821	-100.278	0.376	-0.094
-719.806	-167.989	0.274	0.011
-718.791	164.398	-0.119	-0.170
-717.777	-200.000	-0.002	0.130
-716.762	800.000	-0.076	-0.285
-715.748	-47.586	-0.156	0.076
-714.733	199.378	-0.080	-0.124
-713.718	800.000	-0.013	-0.048
-712.704	-164.218	0.146	0.007
-711.689	63.119	-0.321	0.324
-710.675	87.598	0.207	-0.231
-709.660	-200.000	0.038	-0.324
-708.645	697.732	-0.101	0.267
-707.631	631.539	-0.035	-0.089
-706.616	7.798	0.102	0.077
-705.602	170.506	-0.203	0.294
-704.587	59.841	0.174	-0.173
-703.572	25.683	0.463	-0.389
-702.558	800.000	0.045	0.151
-701.543	279.856	-0.110	-0.199
-700.529	-200.000	0.024	0.271
-699.514	-164.633	-0.245	-0.011
-698.499	-200.000	0.011	-0.073
-697.485	-5.848	0.199	-0.137
-696.470	800.000	-0.091	0.271
-695.456	-110.461	0.065	0.014
-694.441	-97.509	0.215	0.056
-693.426	20.018	-0.087	0.071
-692.412	-200.000	-0.013	-0.070
-691.397	-68.701	0.285	0.111
-690.383	127.503	-0.136	-0.174
-689.368	1.707	-0.201	-0.146
-688.354	-200.000	0.041	-0.248
-687.339	-161.408	0.340	-0.018
-686.324	-18.533	0.253	-0.159
-685.310	113.441	-0.332	0.407
-684.295	-128.288	0.380	-0.055
-683.281	-124.839	0.185	0.029
-682.266	-54.146	-0.159	0.073
-681.251	47.775	0.159	0.149
-680.237	-161.439	-0.193	-0.010
-679.222	-119.422	-0.267	-0.047
-678.208	-191.755	0.084	0.001
-677.193	-23.384	-0.300	0.182
-676.178	-83.493	0.193	-0.062
-675.164	-35.758	0.297	0.162
-674.149	237.372	-0.045	0.076
-673.135	-59.675	-0.083	0.036
-672.120	562.440	0.080	0.194
-671.105	153.556	0.108	-0.148
-670.091	625.215	0.084	0.214
-669.076	155.903	0.272	0.378
-668.062	-120.062	0.256	0.044
-667.047	-200.000	0.015	0.082
-666.032	214.210	-0.167	-0.266
-665.018	-63.297	-0.060	0.025
-664.003	-145.039	0.480	-0.044
-662.989	-200.000	-0.009	0.198
-661.974	358.212	-0.098	-0.196
-660.959	800.000	-0.042	-0.179
-659.945	-113.971	-0.259	-0.051
-658.930	100.644	0.347	0.405
-657.916	77.755	-0.095	-0.102
-656.901	-6.126	-0.087	0.060
-655.886	-200.000	-0.006	0.409
-654.872	139.246	0.185	0.246
-653.857	46.064	0.120	-0.112
-652.843	39.852	-0.127	-0.115
-651.828	-19.388	0.221	-0.138
-650.814	-154.244	-0.243	-0.017
-649.799	800.000	-0.032	-0.116
-648.784	-200.000	0.044	-0.260
-647.770	800.000	-0.045	-0.171
-646.755	-41.609	-0.212	0.109
-645.741	516.382	-0.115	-0.270
-644.726	-200.000	0.011	-0.174
-643.711	800.000	0.038	0.157
-642.697	204.276	0.142	0.221
-641.682	169.668	-0.058	0.084
-640.668	36.218	0.067	0.060
-639.653	353.621	-0.102	0.203
-638.638	-32.455	-0.249	-0.140
-637.624	172.417	-0.102	0.147
-636.609	63.923	0.128	0.129
-635.595	98.545	0.067	-0.078
-634.580	115.996	0.230	0.284
-633.565	471.938	0.099	0.224
-632.551	-195.559	-0.301	0.002
-631.536	55.195	0.026	-0.025
-630.522	10.068	-0.338	-0.258
-629.507	-22.341	0.138	-0.084
-628.492	-57.288	-0.250	0.111
-627.478	-10.981	-0.256	0.170
-626.463	90.682	0.091	0.103
-625.449	800.000	0.100	0.309
-624.434	-200.000	-0.131	-0.001
-623.419	77.120	0.283	0.302
-622.405	17.015	-0.014	-0.011
-621.390	47.204	-0.116	0.109
-620.376	603.042	0.071	-0.179
-619.361	800.000	0.033	-0.136
-618.346	84.904	0.055	-0.061
-617.332	-200.000	0.005	-0.256
-616.317	259.373	-0.123	-0.213
-615.303	62.544	0.176	-0.176
-614.288	-200.000	-0.003	-0.050
-613.273	-35.988	-0.165	0.090
-612.259	-200.000	0.008	0.085
-611.244	162.297	-0.200	0.281
-610.230	800.000	-0.057	-0.177
-609.215	37.749	0.192	0.171
-608.201	513.555	0.101	-0.236
-607.186	646.772	-0.030	0.078
-606.171	511.126	0.049	-0.114
-605.157	800.000	0.064	-0.254
-604.142	800.000	0.018	-0.055
-603.128	-170.981	0.171	-0.006
-602.113	-187.376	0.265	-0.004
-601.098	105.948	0.076	-0.091
-600.084	-200.000	0.018	0.174
-599.069	159.586	-0.235	-0.328
-598.055	79.058	-0.203	-0.218
-597.040	-61.679	-0.228	-0.096
-596.025	-15.758	-0.213	0.136
-595.011	254.952	-0.220	0.378
-593.996	800.000	0.030	0.108
-592.982	4.758	0.198	0.146
-591.967	-65.094	0.121	-0.049
-590.952	-6.634	0.085	0.058
-589.938	-122.994	-0.077	-0.012
-588.923	49.746	0.245	-0.232
-587.909	94.910	-0.039	-0.044
-586.894	-74.405	0.344	-0.125
-585.879	-200.000	0.020	-0.213
-584.865	-126.977	0.269	0.040
-583.850	271.473	-0.034	0.060
-582.836	-147.728	-0.153	-0.013
-581.821	-35.475	0.268	-0.146
-580.806	36.588	-0.122	-0.108
-579.792	-200.000	0.004	-0.186
-578.777	39.684	0.044	-0.040
-577.763	800.000	0.074	-0.220
-576.748	-117.987	-0.365	-0.066
-575.733	-93.016	0.037	0.010
-574.719	-200.000	0.048	0.426
-573.704	87.561	0.120	0.133
-572.690	800.000	0.072	0.203
-571.675	-113.862	0.323	-0.063
-570.661	-104.552	0.265	0.061
-569.646	-175.489	0.396	0.011
-568.631	84.909	0.113	0.124
-567.617	-46.517	-0.134	0.066
-566.602	588.560	-0.035	0.087
-565.588	-200.000	-0.004	-0.178
-564.573	-65.407	-0.248	0.100
-563.558	-200.000	0.003	-0.326
-562.544	149.148	0.089	0.120
-561.529	297.170	-0.177	0.327
-560.515	-82.644	-0.152	0.049
-559.500	462.326	-0.102	0.229
-558.485	52.208	-0.052	-0.050
-557.471	-200.000	-0.005	0.119
-556.456	-200.000	0.042	0.355
-555.442	-18.629	-0.212	0.133
-554.427	110.190	-0.026	0.031
-553.412	-200.000	0.052	0.394
-552.398	800.000	0.069	0.260
-551.383	800.000	-0.022	0.095
-550.369	-161.383	-0.362	-0.019
-549.354	2.677	-0.242	-0.176
-548.339	293.998	0.098	-0.179
-547.325	544.707	0.126	-0.303
-546.310	-156.682	-0.207	-0.013
-545.296	431.088	0.145	-0.315
-544.281	595.694	-0.014	0.034
-543.266	138.784	-0.101	-0.132
-542.252	-50.368	0.269	0.127
-541.237	-120.871	0.151	0.026
-540.223	-55.553	-0.251	0.113
-539.208	-200.000	0.002	-0.135
-538.193	401.968	-0.178	0.374
-537.179	-200.000	-0.036	-0.366
-536.164	-95.085	0.207	-0.056
-535.150	191.429	-0.024	-0.036
-534.135	800.000	0.032	0.093
-533.121	-105.613	-0.077	-0.017
-532.106	318.834	0.019	0.036
-531.091	-109.992	-0.192	0.040
-530.077	-151.692	-0.190	0.014
-529.062	45.950	-0.119	-0.111
-528.048	-92.491	-0.387	-0.109
-527.033	-200.000	0.042	-0.287
-526.018	-200.000	-0.002	0.119
-525.004	-200.000	-0.033	0.226
-523.989	29.073	-0.256	-0.218
-522.975	800.000	-0.012	0.036
-521.960	-200.000	0.002	-0.168
-520.945	-72.777	0.213	-0.078
-519.931	-89.983	0.207	-0.061
-518.916	55.618	0.129	-0.125
-517.902	-62.590	-0.214	-0.089
-516.887	-30.077	-0.182	-0.104
-515.872	445.841	0.114	-0.250
-514.858	-44.866	0.302	-0.151
-513.843	210.217	0.032	-0.051
-512.829	190.920	0.055	0.082
-511.814	-25.535	-0.024	-0.014
-510.799	-200.000	0.028	-0.195
-509.785	148.516	-0.170	-0.230
-508.770	115.605	-0.067	-0.082
-507.756	-105.687	-0.153	0.035
-506.741	159.754	0.095	-0.132
-505.726	-200.000	-0.042	0.330
-504.712	35.653	0.073	-0.064
-503.697	-200.000	0.051	-0.320
-502.683	-103.840	0.224	-0.052
-501.668	639.042	0.170	-0.432
-500.653	-200.000	0.016	-0.172
-499.639	51.642	0.137	-0.131
-498.624	-200.000	0.005	0.072
-497.610	-200.000	0.016	-0.354
-496.595	29.375	0.260	0.221
-495.581	-200.000	0.006	-0.286
-494.566	-55.928	-0.127	-0.057
-493.551	-75.286	0.100	-0.036
-492.537	800.000	0.041	-0.124
-491.522	800.000	0.020	0.057
-490.508	-181.832	-0.232	0.004
-489.493	-108.473	-0.181	-0.039
-488.478	-32.501	-0.311	-0.173
-487.464	-11.244	0.255	0.168
-486.449	42.567	0.204	0.185
-485.435	-46.765	0.228	-0.112
-484.420	-200.000	0.004	-0.088
-483.405	28.285	0.173	-0.146
-482.391	-113.564	0.084	-0.016
-481.376	-200.000	-0.008	-0.147
-480.362	-115.129	-0.186	0.035
-479.347	-200.000	0.009	0.045
-478.332	-200.000	0.053	0.265
-477.318	-200.000	0.002	0.146
-476.303	-90.879	0.184	-0.053
-475.289	-141.616	0.182	0.018
-474.274	-67.668	0.153	0.060
-473.259	44.832	-0.108	-0.099
-472.245	-200.000	-0.007	0.049
-471.230	260.082	0.108	0.187
-470.216	-162.469	0.216	0.011
-469.201	163.207	-0.080	-0.112
-468.186	-88.121	0.080	0.024
-467.172	161.165	-0.207	-0.289
-466.157	-79.576	-0.160	0.054
-465.143	-200.000	-0.005	-0.247
-464.128	160.784	0.205	-0.286
-463.113	800.000	0.046	-0.130
-462.099	-139.975	-0.303	0.032
-461.084	800.000	-0.084	-0.355
-460.070	-127.094	0.292	-0.043
-459.055	-57.251	0.214	-0.094
-458.040	516.242	-0.080	-0.186
-457.026	343.522	0.179	-0.350
-456.011	-61.933	0.274	-0.115
-454.997	-80.874	0.178	-0.059
-453.982	797.795	0.056	-0.155
-452.968	-10.604	-0.077	0.051
-451.953	384.457	0.167	-0.343
-450.938	29.465	-0.208	-0.177
-449.924	208.953	-0.074	0.116
-448.909	85.130	0.081	-0.089
-447.895	-200.000	-0.020	0.137
-446.880	-200.000	-0.048	-0.308
-445.865	-101.576	0.149	0.036
-444.851	622.902	0.081	0.205
-443.836	-159.801	-0.279	-0.015
-442.822	5.606	-0.320	-0.236
-441.807	-171.357	0.161	-0.005
-440.792	-138.140	0.112	0.012
-439.778	-16.401	0.037	0.023
-438.763	107.508	-0.100	-0.119
-437.749	-41.036	-0.289	0.149
-436.734	540.333	0.069	0.164
-435.719	-23.914	0.205	0.123
-434.705	149.955	0.228	0.309
-433.690	-200.000	0.008	-0.044
-432.676	800.000	-0.045	-0.156
-431.661	122.673	0.092	0.115
-430.646	622.007	0.054	-0.136
-429.632	-34.254	0.093	-0.051
-428.617	-132.078	-0.216	0.028
-427.603	-176.700	0.088	-0.002
-426.588	-32.078	-0.246	0.137
-425.573	344.331	0.161	0.316
-424.559	-200.000	0.031	0.564
-423.544	77.460	0.121	-0.128
-422.530	240.164	-0.064	-0.107
-421.515	-140.467	-0.172	-0.018
-420.500	605.191	-0.079	-0.197
-419.486	-139.863	0.411	-0.043
-418.471	553.732	-0.064	0.153
-417.457	311.340	-0.134	0.251
-416.442	800.000	0.105	0.297
-415.428	-93.506	-0.357	0.099
-414.413	-63.876	0.084	-0.034
-413.398	-80.648	0.051	0.017
-412.384	-200.000	-0.004	-0.060
-411.369	-88.019	-0.033	-0.010
-410.355	-120.432	0.157	-0.027
-409.340	-56.007	-0.150	0.067
-408.325	73.388	-0.095	0.099
-407.311	100.826	0.118	-0.136
-406.296	306.852	0.170	-0.316
-405.282	165.759	-0.113	0.159
-404.267	-200.000	-0.018	-0.153
-403.252	26.926	0.222	-0.185
-402.238	-200.000	-0.009	0.416
-401.223	-200.000	-0.014	-0.122
-400.209	-95.149	-0.068	0.018
-399.194	-80.964	-0.312	-0.103
-398.179	-200.000	-0.017	0.146
-397.165	-150.987	-0.263	-0.020
-396.150	-72.545	0.116	-0.043
-395.136	39.147	-0.057	0.051
-394.121	-11.769	0.378	-0.247
-393.106	800.000	0.096	-0.351
-392.092	321.414	-0.106	-0.201
-391.077	-106.336	-0.173	0.039
-390.063	-200.000	0.036	0.261
-389.048	-115.486	-0.072	-0.014
-388.033	-10.571	-0.361	0.238
-387.019	800.000	0.041	0.164
-386.004	-142.990	-0.212	-0.020
-384.990	77.512	0.153	-0.162
-383.975	-199.962	-0.312	-0.002
-382.960	-61.311	0.396	-0.166
-381.946	-172.498	0.290	0.009
-380.931	121.967	-0.144	0.179
-379.917	-57.939	-0.102	0.045
-378.902	-111.091	0.420	0.086
-377.888	89.204	-0.277	0.307
-376.873	-83.261	-0.140	0.045
-375.858	62.988	-0.152	0.151
-374.844	-183.184	0.287	0.005
-373.829	-15.908	-0.177	-0.112
-372.815	-109.429	0.118	0.025
-371.800	800.000	-0.144	0.441
-370.785	-94.739	-0.230	-0.062
-369.771	-150.218	0.169	0.013
-368.756	-21.969	-0.145	0.088
-367.742	-144.869	0.186	-0.017
-366.727	800.000	-0.033	0.116
-365.712	42.523	-0.350	-0.317
-364.698	304.672	-0.039	0.072
-363.683	-32.994	0.117	-0.065
-362.669	72.391	-0.045	-0.047
-361.654	198.488	0.069	-0.105
-360.639	164.964	-0.182	0.256
-359.625	120.490	0.130	-0.160
-358.610	264.691	0.173	-0.299
-357.596	-62.187	-0.109	0.045
-356.581	-101.213	-0.486	-0.118
-355.566	747.606	-0.142	-0.380
-354.552	167.190	0.066	0.093
-353.537	66.723	-0.179	0.181
-352.523	36.402	-0.111	0.098
-351.508	-115.275	-0.296	0.056
-350.493	-60.052	0.282	-0.120
-349.479	538.003	0.022	-0.051
-348.464	-200.000	0.021	-0.319
-347.450	245.351	-0.071	0.120
-346.435	-200.000	0.027	0.252
-345.420	178.240	-0.101	0.147
-344.406	357.771	0.061	-0.120
-343.391	44.639	-0.231	0.211
-342.377	-200.000	-0.075	0.387
-341.362	-6.371	-0.138	0.094
-340.348	-200.000	-0.004	0.186
-339.333	-59.310	-0.234	0.100
-338.318	-49.799	0.254	0.120
-337.304	-200.000	-0.010	-0.178
-336.289	-73.858	-0.320	0.115
-335.275	-90.399	-0.194	0.056
-334.260	-200.000	0.004	0.083
-333.245	-44.642	-0.291	0.145
-332.231	-200.000	-0.014	0.262
-331.216	90.227	-0.189	0.210
-330.202	72.734	-0.139	0.145
-329.187	-46.424	-0.078	0.038
-328.172	-200.000	0.021	-0.150
-327.158	-92.079	0.334	0.094
-326.143	-184.739	0.197	-0.003
-325.129	-200.000	0.016	-0.083
-324.114	-200.000	0.036	-0.270
-323.099	-200.000	0.029	-0.141
-322.085	-125.353	0.169	-0.026
-321.070	649.535	-0.103	-0.262
-320.056	-52.399	0.132	0.061
-319.041	-30.956	0.063	0.035
-318.026	11.332	-0.066	-0.050
-317.012	-17.623	0.069	0.043
-315.997	-50.941	0.080	-0.037
-314.983	-10.615	-0.174	-0.114
-313.968	-11.169	-0.418	0.274
-312.953	137.656	0.184	-0.239
-311.939	-67.865	0.184	-0.071
-310.924	800.000	0.077	-0.249
-309.910	-157.485	0.117	0.007
-308.895	143.716	0.091	0.120
-307.880	-139.686	-0.081	0.009
-306.866	-200.000	-0.006	0.346
-305.851	-100.644	0.195	-0.048
-304.837	-12.129	-0.054	-0.035
-303.822	-134.287	-0.265	0.032
-302.807	4.638	0.180	0.131
-301.793	-5.164	-0.189	0.129
-300.778	313.240	-0.086	-0.160
-299.764	-200.000	-0.005	0.083
-298.749	800.000	0.032	-0.113
-297.735	-140.003	-0.203	0.021
-296.720	123.628	-0.201	-0.251
-295.705	-200.000	-0.027	-0.140
-294.691	329.616	0.069	0.131
-293.676	343.365	0.146	0.284
-292.662	134.725	0.220	-0.283
-291.647	-81.521	-0.087	0.028
-290.632	800.000	-0.033	0.124
-289.618	95.462	-0.169	0.192
-288.603	-163.621	0.211	-0.010
-287.589	-23.812	0.259	-0.154
-286.574	800.000	-0.036	-0.118
-285.559	-200.000	0.016	-0.097
-284.545	285.611	0.122	0.219
-283.530	-133.176	-0.120	-0.015
-282.516	-38.517	0.115	0.060
-281.501	-143.613	0.241	0.023
-280.486	-188.913	0.403	0.005
-279.472	-122.686	0.204	-0.033
-278.457	7.073	-0.284	-0.210
-277.443	-200.000	0.047	-0.395
-276.428	-131.575	0.106	-0.014
-275.413	32.181	-0.214	0.183
-274.399	800.000	0.093	0.315
-273.384	-200.000	-0.057	0.538
-272.370	800.000	0.030	-0.104
-271.355	-115.040	0.132	-0.025
-270.340	555.426	-0.086	0.205
-269.326	-79.687	0.025	0.008
-268.311	443.800	0.094	-0.205
-267.297	-135.148	0.210	-0.025
-266.282	209.167	-0.046	-0.071
-265.267	-200.000	-0.001	0.062
-264.253	-57.897	0.344	0.149
-263.238	-43.180	-0.266	-0.134
-262.224	37.301	0.362	0.318
-261.209	188.824	0.043	-0.063
-260.195	-9.751	-0.028	0.019
-259.180	15.735	-0.072	-0.056
-258.165	107.797	0.060	0.071
-257.151	-200.000	0.027	0.188
-256.136	17.624	-0.256	-0.201
-255.122	-200.000	-0.015	0.120
-254.107	-200.000	0.013	-0.217
-253.092	212.713	-0.055	-0.085
-252.078	-138.491	-0.163	-0.018
-251.063	-200.000	-0.028	0.212
-250.049	-158.632	0.101	0.006
-249.034	-70.098	-0.090	-0.034
-248.019	800.000	-0.141	0.391
-247.005	-112.156	-0.363	0.072
-245.990	-144.717	0.277	0.025
-244.976	-69.362	0.250	0.095
-243.961	-130.222	0.130	0.017
-242.946	-75.668	-0.118	0.041
-241.932	-18.048	0.243	-0.151
-240.917	-107.416	-0.366	0.079
-239.903	-200.000	0.001	-0.156
-238.888	5.445	0.237	0.173
-237.873	-200.000	0.040	-0.275
-236.859	-70.258	-0.326	-0.123
-235.844	-200.000	-0.005	0.041
-234.830	385.096	0.073	0.149
-233.815	661.163	-0.053	0.136
-232.800	-20.267	-0.311	0.189
-231.786	-109.183	0.094	0.020
-230.771	8.888	-0.080	0.060
-229.757	423.002	0.034	0.072
-228.742	376.882	0.100	-0.202
-227.727	128.961	-0.072	0.091
-226.713	96.099	0.024	-0.027
-225.698	78.212	0.203	-0.214
-224.684	38.589	-0.158	0.140
-223.669	-120.744	0.306	0.051
-222.655	214.612	0.190	-0.297
-221.640	160.565	0.220	-0.304
-220.625	631.260	0.059	-0.149
-219.611	-109.809	0.143	0.030
-218.596	-107.913	-0.150	-0.032
-217.582	-200.000	0.007	0.157
-216.567	-3.592	-0.199	-0.137
-215.552	800.000	0.043	-0.144
-214.538	-128.020	0.094	0.013
-213.523	-70.554	-0.354	-0.133
-212.509	-15.776	-0.122	0.077
-211.494	-41.182	-0.167	0.085
-210.479	280.786	0.056	0.100
-209.465	31.397	-0.320	0.272
-208.450	200.497	-0.027	0.041
-207.436	58.083	0.204	0.198
-206.421	-200.000	0.008	0.333
-205.406	217.887	-0.129	-0.203
-204.392	22.063	0.092	0.074
-203.377	20.267	0.253	0.202
-202.363	202.178	-0.092	-0.141
-201.348	650.311	-0.064	0.162
-200.333	-200.000	-0.010	-0.337
-199.319	-109.715	0.357	0.074
-198.304	-92.314	-0.265	0.074
-197.290	-130.653	0.209	-0.028
-196.275	-75.708	-0.157	0.055
-195.260	-115.273	-0.159	0.030
-194.246	-138.767	0.217	0.023
-193.231	76.307	-0.135	0.142
-192.217	-200.000	0.031	0.186
-191.202	800.000	0.057	0.236
-190.187	119.469	-0.173	-0.211
-189.173	-77.927	-0.292	0.100
-188.158	40.625	0.289	0.257
-187.144	130.492	0.007	0.009
-186.129	800.000	0.076	0.321
-185.114	100.883	0.304	0.350
-184.100	130.716	-0.133	0.169
-183.085	196.908	-0.055	0.083
-182.071	37.011	0.091	0.080
-181.056	-82.644	0.237	0.076
-180.042	800.000	0.056	0.212
-179.027	800.000	-0.051	0.207
-178.012	429.416	0.073	-0.155
-176.998	-81.072	-0.208	0.068
-175.983	-50.608	-0.321	-0.149
-174.969	800.000	0.069	-0.207
-173.954	-18.323	-0.293	0.181
-172.939	791.127	0.052	-0.141
-171.925	388.831	-0.047	0.096
-170.910	-52.687	0.268	-0.122
-169.896	-91.291	-0.010	0.003
-168.881	211.913	-0.205	-0.320
-167.866	-5.664	-0.235	0.159
-166.852	-200.000	-0.022	0.095
-165.837	-78.004	-0.155	0.053
-164.823	-64.876	0.194	-0.077
-163.808	575.811	0.097	-0.233
-162.793	236.760	0.094	-0.154
-161.779	-162.750	0.642	0.031
-160.764	-69.653	-0.344	0.130
-159.750	514.278	-0.062	0.142
-158.735	800.000	-0.022	-0.067
-157.720	198.825	0.042	-0.064
-156.706	48.033	0.242	-0.223
-155.691	-160.932	0.080	-0.004
-154.677	125.209	-0.084	-0.104
-153.662	-95.606	0.399	-0.106
-152.647	-76.166	-0.045	-0.016
-151.633	52.138	-0.075	0.071
-150.618	152.021	0.127	0.171
-149.604	-75.081	-0.223	0.079
-148.589	-36.727	0.196	-0.104
-147.574	190.784	0.224	0.333
-146.560	7.936	-0.280	0.207
-145.545	-41.171	-0.448	-0.228
-144.531	-41.768	-0.169	0.085
-143.516	-84.386	0.134	-0.042
-142.502	184.348	-0.134	-0.195
-141.487	12.018	0.148	-0.113
-140.472	59.385	0.126	0.123
-139.458	108.847	0.144	-0.170
-138.443	236.474	-0.021	-0.034
-137.429	800.000	0.079	-0.236
-136.414	-138.315	-0.275	-0.030
-135.399	211.694	-0.131	-0.204
-134.385	-33.550	0.294	-0.160
-133.370	-44.953	-0.085	0.042
-132.356	-115.627	-0.400	0.074
-131.341	150.850	-0.256	0.343
-130.326	-89.503	0.065	0.019
-129.312	206.597	-0.085	0.131
-128.297	204.845	-0.071	-0.108
-127.283	15.329	-0.137	0.106
-126.268	695.734	0.089	0.231
-125.253	-8.653	0.277	-0.184
-124.239	113.966	0.017	0.020
-123.224	-200.000	-0.005	0.131
-122.210	800.000	0.104	0.381
-121.195	-200.000	0.025	0.208
