DTS Sentinel unit serial number:	SN413079Multiplexer serial number:	ORYXHardware model number:	OX4-SRSoftware version number:	ORYX F/W v4.00 Oryx Data Collector v3.7.2.0data status	okinstallation	princeton_trtdifferential loss correction	single-endedforward channel	channel 1reverse channel	N/Adate	2019/09/12time	19:15:34forward acquisition time	15.00reverse acquisition time	0.00gamma	496.2192k internal	0.2321k external	0.2321temperature offset calibration	1.0115default loss term (dB/km)	0.3790temperature slope calibration	1.0000multiplexer offset coefficient	1.0000multiplexer slope coefficient	1.0000fibre end	0.00T internal ref (°C)	32.50T ext. ref 1 (°C)	3.20T ext. ref 2 (°C)	27.07length (m)	temperature (°C)	Stokes	anti-Stokes-747.200	-80.573	-0.442	-0.149
-746.185	10.607	0.606	-0.467
-745.171	-53.353	0.132	-0.061
-744.156	-200.000	-0.067	-0.474
-743.142	-200.000	0.146	0.653
-742.127	800.000	-0.122	0.427
-741.112	134.175	-0.169	-0.221
-740.098	6.121	0.094	-0.071
-739.083	151.042	-0.196	0.270
-738.069	-200.000	-0.114	0.904
-737.054	-51.360	-0.925	-0.437
-736.039	-200.000	0.008	0.424
-735.025	-200.000	0.039	0.297
-734.010	-67.516	-0.492	0.195
-732.996	156.040	-0.671	-0.934
-731.981	-111.289	-0.056	0.012
-730.966	-92.937	0.774	-0.218
-729.952	-54.402	-1.071	-0.491
-728.937	-130.549	-0.510	0.070
-727.923	-78.896	-0.279	0.096
-726.908	28.548	-0.209	0.179
-725.894	-53.464	0.237	-0.110
-724.879	-200.000	0.078	0.543
-723.864	233.141	-0.087	0.145
-722.850	-6.173	-0.057	-0.039
-721.835	14.331	-0.155	-0.122
-720.821	-59.025	0.751	-0.327
-719.806	8.697	-0.623	-0.474
-718.791	-83.698	-0.545	-0.176
-717.777	39.446	0.676	0.611
-716.762	-53.795	-0.670	0.309
-715.748	-200.000	-0.114	0.910
-714.733	-70.721	-0.389	-0.148
-713.718	-21.000	-0.244	0.151
-712.704	20.719	-0.477	0.390
-711.689	-200.000	0.074	0.619
-710.675	331.380	-0.172	0.335
-709.660	434.603	0.153	-0.336
-708.645	472.455	0.079	-0.180
-707.631	31.130	-0.129	0.112
-706.616	-200.000	-0.107	0.723
-705.602	800.000	0.228	-0.657
-704.587	-52.224	-0.076	0.036
-703.572	-200.000	-0.032	-0.499
-702.558	-53.951	-0.442	-0.203
-701.543	-70.020	-0.232	0.089
-700.529	-78.829	0.768	0.264
-699.514	-58.074	-0.877	-0.386
-698.499	-33.916	-0.607	-0.337
-697.485	50.297	0.332	-0.317
-696.470	800.000	0.089	-0.313
-695.456	-200.000	0.001	-0.114
-694.441	52.420	0.100	0.096
-693.426	-16.041	0.722	0.463
-692.412	-167.599	-1.447	0.058
-691.397	-164.357	-1.156	-0.053
-690.383	70.527	0.650	-0.678
-689.368	757.466	-0.250	-0.683
-688.354	-200.000	-0.093	0.456
-687.339	-141.012	0.412	-0.043
-686.324	26.007	0.281	0.237
-685.310	99.098	0.393	-0.458
-684.295	163.987	-0.301	-0.427
-683.281	48.789	-0.358	0.339
-682.266	-62.375	-0.126	-0.053
-681.251	222.312	-0.330	0.535
-680.237	405.240	-0.204	-0.433
-679.222	800.000	-0.229	0.715
-678.208	54.914	0.300	0.293
-677.193	-70.976	-0.330	0.125
-676.178	26.221	-0.233	-0.196
-675.164	252.757	0.290	0.498
-674.149	-152.436	-0.730	-0.053
-673.135	-200.000	-0.060	0.686
-672.120	101.687	0.203	0.239
-671.105	342.683	0.109	-0.215
-670.091	306.487	-0.237	-0.445
-669.076	140.154	-0.388	-0.516
-668.062	381.818	-0.141	0.291
-667.047	-139.642	1.187	-0.127
-666.032	580.392	0.164	0.406
-665.018	-107.216	0.606	-0.135
-664.003	593.341	0.060	-0.151
-662.989	-40.191	0.495	-0.260
-661.974	107.492	0.579	-0.694
-660.959	-200.000	-0.044	-0.217
-659.945	-84.190	0.283	0.091
-658.930	-200.000	-0.073	0.392
-657.916	-13.828	0.806	-0.525
-656.901	78.134	0.390	-0.420
-655.886	-71.653	-0.703	0.264
-654.872	-41.312	-0.192	0.100
-653.857	-200.000	0.029	-0.866
-652.843	800.000	-0.170	-0.566
-651.828	9.093	-0.692	0.527
-650.814	-156.607	-0.999	0.062
-649.799	-200.000	-0.103	-0.599
-648.784	360.333	0.403	0.812
-647.770	-85.011	0.422	0.133
-646.755	800.000	0.104	-0.396
-645.741	216.382	0.516	-0.826
-644.726	-200.000	0.049	-0.416
-643.711	800.000	0.202	0.630
-642.697	187.062	0.237	-0.355
-641.682	201.932	-0.306	0.475
-640.668	37.055	0.446	-0.398
-639.653	800.000	0.114	0.341
-638.638	-200.000	0.076	0.419
-637.624	16.479	0.536	0.427
-636.609	-46.329	-0.338	0.167
-635.595	-116.055	0.410	-0.077
-634.580	-85.822	0.429	-0.134
-633.565	134.275	-0.067	-0.087
-632.551	800.000	0.306	0.953
-631.536	492.152	0.257	-0.592
-630.522	-86.705	-0.764	0.235
-629.507	41.804	-0.228	0.208
-628.492	-200.000	0.020	-0.355
-627.478	16.088	-0.313	-0.248
-626.463	-200.000	-0.105	-0.494
-625.449	-83.104	-0.329	0.106
-624.434	-136.471	0.654	0.076
-623.419	13.601	-0.409	0.320
-622.405	-170.211	-0.337	0.012
-621.390	-91.186	0.214	0.062
-620.376	-200.000	0.156	-1.717
-619.361	297.765	-0.114	-0.211
-618.346	-75.739	-0.344	0.123
-617.332	-154.210	-0.337	0.023
-616.317	100.106	0.228	0.266
-615.303	23.674	-0.413	0.342
-614.288	-46.951	0.362	0.178
-613.273	339.096	-0.188	-0.367
-612.259	-200.000	0.038	0.272
-611.244	800.000	-0.202	0.703
-610.230	-200.000	-0.015	0.072
-609.215	-54.411	0.924	-0.421
-608.201	120.401	-0.231	0.288
-607.186	-200.000	-0.051	-0.534
-606.171	-200.000	-0.072	0.493
-605.157	-155.948	-0.336	-0.021
-604.142	-200.000	0.005	-0.925
-603.128	-118.748	-0.484	0.086
-602.113	-56.176	0.710	-0.318
-601.098	75.759	-0.598	-0.635
-600.084	800.000	-0.172	0.497
-599.069	-17.643	0.139	0.088
-598.055	-35.113	-0.550	-0.301
-597.040	454.713	-0.196	-0.436
-596.025	6.270	0.089	-0.066
-595.011	-119.354	-0.908	-0.159
-593.996	71.227	0.230	-0.240
-592.982	-200.000	-0.031	-0.157
-591.967	-99.919	0.917	0.230
-590.952	-104.415	0.727	-0.169
-589.938	-200.000	-0.095	-0.839
-588.923	-40.975	0.232	-0.121
-587.909	233.457	0.063	-0.105
-586.894	324.887	0.466	0.894
-585.879	800.000	0.332	-0.977
-584.865	-92.763	-0.747	-0.210
-583.850	124.890	-0.314	0.397
-582.836	-200.000	0.220	0.976
-581.821	-27.300	0.082	0.048
-580.806	320.454	-0.088	0.169
-579.792	-85.181	0.172	-0.054
-578.777	-81.911	1.027	-0.338
-577.763	290.596	0.371	-0.677
-576.748	-200.000	0.019	-0.176
-575.733	800.000	0.132	-0.407
-574.719	-98.686	0.264	-0.068
-573.704	53.799	-0.487	-0.469
-572.690	77.078	-0.395	0.422
-571.675	-200.000	-0.007	-0.460
-570.661	-29.530	-0.470	0.270
-569.646	800.000	0.087	0.282
-568.631	244.957	-0.349	0.589
-567.617	-15.905	-0.513	0.328
-566.602	-69.933	0.135	-0.052
-565.588	-126.489	-0.327	0.049
-564.573	-77.507	0.418	0.146
-563.558	375.059	-0.258	-0.529
-562.544	355.943	-0.130	0.259
-561.529	-94.280	-0.791	-0.217
-560.515	243.649	0.172	0.290
-559.500	-200.000	0.050	0.704
-558.485	-130.508	-0.147	-0.020
-557.471	-149.029	-0.684	-0.055
-556.456	53.008	0.549	-0.527
-555.442	78.089	0.197	-0.211
-554.427	-31.688	0.651	-0.367
-553.412	-24.141	-0.474	0.284
-552.398	800.000	0.092	0.312
-551.383	68.089	0.221	-0.227
-550.369	-200.000	-0.103	0.475
-549.354	-121.162	-0.370	-0.062
-548.339	-188.646	-0.340	0.004
-547.325	283.772	-0.403	-0.727
-546.310	-123.179	-0.923	0.148
-545.296	-84.780	-0.699	0.221
-544.281	-53.258	0.507	0.233
-543.266	-85.567	-0.639	0.199
-542.252	492.582	-0.382	-0.877
-541.237	-164.260	-0.503	0.023
-540.223	-104.607	0.417	-0.096
-539.208	-131.130	-0.837	-0.112
-538.193	-56.939	-0.608	0.269
-537.179	-200.000	0.195	-1.078
-536.164	-200.000	-0.027	0.363
-535.150	-200.000	-0.035	-0.257
-534.135	-39.466	-0.106	-0.056
-533.121	1.468	0.314	-0.226
-532.106	-200.000	-0.051	0.793
-531.091	-11.862	0.391	0.257
-530.077	-95.704	-0.554	-0.149
-529.062	-177.535	1.036	-0.025
-528.048	6.274	0.489	0.364
-527.033	193.887	-0.071	-0.107
-526.018	800.000	0.290	-0.983
-525.004	-200.000	-0.037	-0.634
-523.989	272.269	0.510	-0.902
-522.975	179.881	0.564	0.829
-521.960	-173.814	0.353	0.010
-520.945	185.072	0.371	-0.551
-519.931	-200.000	-0.130	-0.613
-518.916	-200.000	-0.013	-0.277
-517.902	149.860	-0.254	-0.345
-516.887	-200.000	-0.018	-0.292
-515.872	-111.374	1.186	-0.242
-514.858	24.491	-0.190	-0.158
-513.843	800.000	-0.173	-0.615
-512.829	536.440	0.179	-0.426
-511.814	165.048	0.524	0.741
-510.799	-200.000	0.041	0.715
-509.785	-200.000	-0.058	-0.312
-508.770	-119.087	-1.067	0.187
-507.756	-200.000	0.056	0.890
-506.741	-200.000	-0.115	0.578
-505.726	-58.851	0.716	0.310
-504.712	414.782	-0.338	0.722
-503.697	216.862	0.542	-0.865
-502.683	-82.008	-0.276	-0.090
-501.668	-73.249	-0.520	0.191
-500.653	-200.000	-0.006	-0.501
-499.639	-12.845	0.312	-0.203
-498.624	-103.713	-0.828	-0.194
-497.610	-5.859	-0.392	-0.269
-496.595	-44.631	0.443	-0.222
-495.581	-84.087	0.399	-0.127
-494.566	110.420	0.180	0.216
-493.551	475.448	0.282	-0.636
-492.537	231.304	0.338	-0.555
-491.522	159.268	-0.258	0.359
-490.508	-137.487	0.885	-0.100
-489.493	55.324	0.670	0.648
-488.478	540.344	-0.261	-0.621
-487.464	-86.528	-0.219	-0.067
-486.449	-164.741	0.186	0.008
-485.435	-76.721	-0.246	-0.086
-484.420	-200.000	-0.088	-0.727
-483.405	-9.093	0.519	-0.347
-482.391	562.311	0.346	0.837
-481.376	-69.339	-1.069	-0.411
-480.362	800.000	0.191	-0.692
-479.347	-117.060	0.392	0.071
-478.332	-200.000	-0.004	-0.022
-477.318	483.151	-0.346	-0.787
-476.303	-78.641	0.195	-0.067
-475.289	-200.000	-0.035	0.494
-474.274	-141.143	0.624	-0.064
-473.259	-200.000	0.065	1.094
-472.245	-200.000	0.019	0.750
-471.230	574.090	-0.206	-0.503
-470.216	-200.000	-0.096	-0.562
-469.201	60.997	0.361	0.358
-468.186	-71.125	1.089	0.409
-467.172	2.599	0.708	0.513
-466.157	683.506	0.234	0.611
-465.143	-200.000	0.054	-0.708
-464.128	-14.492	-0.265	-0.170
-463.113	-200.000	0.101	-0.686
-462.099	97.412	-0.552	-0.633
-461.084	270.791	0.431	-0.759
-460.070	133.791	-0.221	-0.286
-459.055	800.000	0.132	-0.455
-458.040	-59.623	0.620	0.266
-457.026	-45.642	0.305	-0.151
-456.011	-46.511	0.426	0.209
-454.997	84.969	0.299	-0.327
-453.982	-200.000	0.134	-0.927
-452.968	-97.436	0.543	0.141
-451.953	157.822	-0.150	0.208
-450.938	800.000	-0.067	-0.214
-449.924	-56.315	1.120	-0.498
-448.909	116.663	-0.238	0.291
-447.895	-19.755	0.494	-0.305
-446.880	-172.909	-0.468	-0.015
-445.865	34.795	-0.279	0.244
-444.851	36.788	0.657	-0.580
-443.836	-69.730	0.286	0.109
-442.822	151.919	-0.717	0.977
-441.807	471.708	-0.241	0.541
-440.792	-148.174	-0.278	0.023
-439.778	243.015	-0.222	-0.371
-438.763	-144.940	-0.313	0.029
-437.749	-7.836	0.467	-0.315
-436.734	119.827	-0.537	0.665
-435.719	77.498	-0.248	-0.263
-434.705	-200.000	-0.004	-0.075
-433.690	258.945	0.182	0.313
-432.676	112.863	0.548	0.663
-431.661	-39.344	0.550	0.288
-430.646	-63.330	0.803	-0.330
-429.632	160.496	0.347	-0.483
-428.617	-131.029	-0.675	0.090
-427.603	-200.000	0.058	-0.635
-426.588	-200.000	-0.085	-0.472
-425.573	-109.032	0.739	0.157
-424.559	27.616	0.823	0.692
-423.544	-59.229	-0.367	0.158
-422.530	165.062	0.337	-0.474
-421.515	-176.187	-1.032	-0.027
-420.500	162.842	-0.114	-0.160
-419.486	-102.929	0.660	-0.157
-418.471	-200.000	0.065	-0.670
-417.457	800.000	0.187	-0.650
-416.442	-200.000	-0.129	0.778
-415.428	-200.000	0.061	0.782
-414.413	430.231	0.127	-0.274
-413.398	-56.065	-0.719	0.320
-412.384	-109.754	-0.784	-0.165
-411.369	-22.481	-0.655	0.396
-410.355	292.731	0.315	-0.572
-409.340	73.536	0.471	0.493
-408.325	169.803	-0.233	-0.333
-407.311	-200.000	0.128	-0.911
-406.296	-200.000	-0.025	0.223
-405.282	37.395	0.393	0.348
-404.267	-200.000	0.088	0.703
-403.252	107.018	-0.380	0.450
-402.238	18.189	-0.687	0.547
-401.223	-33.848	-0.401	0.221
-400.209	97.468	0.287	-0.329
-399.194	800.000	0.178	0.576
-398.179	-142.071	-0.348	-0.034
-397.165	534.734	0.092	0.219
-396.150	-200.000	-0.092	-0.505
-395.136	-200.000	-0.163	0.811
-394.121	6.487	-0.702	0.520
-393.106	-31.880	0.289	-0.161
-392.092	-71.545	-0.136	0.051
-391.077	-47.761	-0.350	0.169
-390.063	-50.032	-0.238	-0.113
-389.048	-22.614	0.394	0.237
-388.033	800.000	-0.079	-0.236
-387.019	-200.000	0.026	-0.128
-386.004	-59.432	0.948	-0.406
-384.990	178.860	0.039	-0.057
-383.975	147.180	-0.294	-0.395
-382.960	-61.707	0.101	-0.042
-381.946	-200.000	0.074	-0.447
-380.931	-84.287	0.677	-0.214
-379.917	45.487	-0.437	-0.402
-378.902	-200.000	0.130	-0.801
-377.888	-121.218	0.905	-0.151
-376.873	196.941	-0.393	-0.597
-375.858	96.554	-0.554	-0.632
-374.844	-27.920	-0.512	-0.295
-373.829	128.206	-0.295	0.374
-372.815	231.328	-0.348	0.568
-371.800	90.573	0.090	0.101
-370.785	-200.000	-0.000	0.730
-369.771	-95.405	0.742	-0.199
-368.756	-141.708	0.640	-0.064
-367.742	800.000	0.299	-0.898
-366.727	-200.000	0.021	0.169
-365.712	-200.000	0.056	0.614
-364.698	-200.000	-0.084	0.421
-363.683	269.318	-0.087	-0.152
-362.669	800.000	0.161	-0.576
-361.654	-124.634	0.472	-0.073
-360.639	-200.000	0.027	-0.453
-359.625	-105.814	-0.916	0.206
-358.610	510.131	-0.244	-0.565
-357.596	366.609	-0.258	-0.518
-356.581	-77.107	0.372	0.129
-355.566	44.416	-0.629	0.575
-354.552	-51.034	0.531	0.248
-353.537	-59.575	-0.198	-0.085
-352.523	-26.715	0.487	-0.284
-351.508	-61.861	0.492	0.205
-350.493	23.066	0.816	0.666
-349.479	-200.000	-0.079	0.649
-348.464	-46.878	0.363	0.177
-347.450	65.936	-0.415	0.419
-346.435	-200.000	0.129	0.701
-345.420	800.000	-0.079	0.260
-344.406	-109.840	-0.624	0.130
-343.391	156.053	-0.226	0.311
-342.377	-139.058	0.476	0.051
-341.362	-103.326	0.410	0.096
-340.348	605.445	0.255	0.631
-339.333	42.783	-0.257	0.233
-338.318	5.950	-0.202	0.149
-337.304	-200.000	0.014	0.454
-336.289	-6.355	-0.092	0.062
-335.275	-142.145	-1.057	-0.104
-334.260	98.884	0.180	-0.206
-333.245	800.000	-0.094	-0.360
-332.231	-85.229	0.445	0.138
-331.216	643.544	0.260	-0.658
-330.202	-23.479	0.439	0.262
-329.187	-67.843	-0.733	0.285
-328.172	273.233	0.129	-0.227
-327.158	-32.778	0.170	0.094
-326.143	-200.000	0.176	-1.009
-325.129	24.512	0.344	-0.283
-324.114	-12.266	-0.478	-0.311
-323.099	-7.945	-0.173	0.116
-322.085	178.422	0.093	0.135
-321.070	800.000	0.025	0.092
-320.056	-158.105	-0.362	-0.021
-319.041	312.480	0.140	-0.262
-318.026	-200.000	0.090	0.522
-317.012	-94.746	-0.554	0.149
-315.997	1.568	-0.612	0.438
-314.983	23.924	0.441	-0.362
-313.968	-200.000	0.048	-0.889
-312.953	-83.618	-1.195	-0.380
-311.939	800.000	0.114	0.457
-310.924	-108.019	0.337	-0.073
-309.910	-144.605	-0.311	0.029
-308.895	322.055	0.303	0.574
-307.880	-54.601	-0.379	0.170
-306.866	800.000	-0.297	-0.862
-305.851	-99.926	1.351	0.335
-304.837	49.197	0.331	0.309
-303.822	-120.492	0.615	-0.104
-302.807	-173.268	0.446	0.014
-301.793	-22.537	-0.887	0.533
-300.778	-43.268	0.112	-0.056
-299.764	-64.987	-0.150	0.060
-298.749	541.820	-0.146	0.347
-297.735	-61.026	-0.903	-0.379
-296.720	-200.000	0.193	1.378
-295.705	-37.985	-0.560	-0.296
-294.691	5.116	-0.496	-0.363
-293.676	-200.000	0.011	0.100
-292.662	-49.916	0.664	0.313
-291.647	-146.310	0.659	0.057
-290.632	-200.000	0.010	-0.562
-289.618	-200.000	-0.020	-0.227
-288.603	-90.591	0.857	-0.246
-287.589	-90.852	0.258	0.074
-286.574	-92.301	0.127	-0.036
-285.559	800.000	0.088	0.266
-284.545	95.046	-0.829	-0.937
-283.530	-32.609	-0.627	-0.347
-282.516	-177.393	0.571	-0.014
-281.501	-200.000	-0.060	0.482
-280.486	713.381	0.114	0.299
-279.472	-200.000	0.056	0.637
-278.457	-200.000	0.017	-0.284
-277.443	104.566	-0.240	-0.281
-276.428	-200.000	-0.009	-0.506
-275.413	800.000	0.351	1.293
-274.399	44.483	-0.434	0.395
-273.384	-200.000	-0.160	0.836
-272.370	172.719	-0.162	-0.232
-271.355	-200.000	0.006	0.360
-270.340	-73.320	-0.997	0.362
-269.326	356.548	-0.198	0.391
-268.311	-65.450	-0.984	-0.392
-267.297	-121.038	-0.586	0.098
-266.282	-76.843	0.475	-0.165
-265.267	22.985	-0.219	0.178
-264.253	275.587	-0.668	1.176
-263.238	125.021	0.167	0.208
-262.224	-131.992	-0.527	-0.068
-261.209	-93.448	0.388	-0.107
-260.195	-110.449	0.306	-0.063
-259.180	800.000	0.155	0.584
-258.165	800.000	0.142	0.602
-257.151	-200.000	-0.095	0.438
-256.136	313.685	-0.654	1.221
-255.122	-200.000	0.153	0.892
-254.107	-137.396	-0.382	0.043
-253.092	186.972	-0.339	-0.501
-252.078	-200.000	-0.062	-0.848
-251.063	-16.918	-0.817	0.512
-250.049	-96.692	-0.900	-0.235
-249.034	-19.930	-0.968	0.593
-248.019	-113.051	0.676	-0.132
-247.005	336.392	0.295	0.569
-245.990	107.167	-0.319	0.376
-244.976	-17.695	0.285	-0.178
-243.961	42.491	-0.247	0.222
-242.946	359.776	-0.160	0.318
-241.932	53.763	0.509	0.484
-240.917	27.438	-0.261	-0.218
-239.903	-16.536	-0.312	0.196
-238.888	-21.182	0.334	0.202
-237.873	-83.504	0.177	0.056
-236.859	-3.911	-0.473	0.325
-235.844	-200.000	0.051	-0.346
-234.830	332.168	-0.249	-0.477
-233.815	106.325	0.543	-0.637
-232.800	-60.616	-0.612	0.257
-231.786	-200.000	0.011	-0.117
-230.771	-200.000	0.055	0.364
-229.757	-49.956	-0.283	-0.133
-228.742	32.724	-0.320	0.275
-227.727	287.919	0.304	-0.544
-226.713	114.235	-0.478	-0.576
-225.698	23.408	0.840	0.684
-224.684	-64.133	0.244	-0.099
-223.669	-112.042	0.465	-0.093
-222.655	-18.349	0.653	-0.404
-221.640	-110.827	0.290	0.059
-220.625	-34.997	-0.367	0.199
-219.611	-151.559	-0.911	0.067
-218.596	-118.993	0.365	0.063
-217.582	198.490	0.662	1.004
-216.567	-200.000	-0.096	0.768
-215.552	-133.623	0.475	-0.059
-214.538	1.224	0.481	0.342
-213.523	-11.101	0.851	-0.556
-212.509	-19.309	0.581	0.357
-211.494	-13.143	1.067	0.686
-210.479	-83.519	0.845	0.268
-209.465	65.489	-0.429	-0.430
-208.450	246.830	-0.179	0.298
-207.436	300.749	-0.470	0.859
-206.421	39.663	-0.462	0.410
-205.406	-200.000	-0.122	-0.793
-204.392	800.000	0.156	0.623
-203.377	-100.318	0.227	0.056
-202.363	180.659	0.803	1.167
-201.348	800.000	-0.152	-0.628
-200.333	44.453	0.611	-0.556
-199.319	-47.881	0.205	-0.098
-198.304	-200.000	0.005	0.234
-197.290	-121.788	-0.981	-0.160
-196.275	-200.000	0.174	-0.778
-195.260	-52.097	-0.530	0.244
-194.246	485.096	0.491	-1.107
-193.231	800.000	-0.179	-0.611
-192.217	-91.194	-0.549	-0.156
-191.202	-200.000	0.138	0.637
-190.187	-107.388	-0.815	-0.177
-189.173	104.976	0.773	-0.903
-188.158	308.652	-0.507	-0.936
-187.144	-31.888	-0.728	-0.403
-186.129	-155.320	-0.438	-0.028
-185.114	98.728	-0.487	-0.555
-184.100	122.078	-0.323	0.399
-183.085	-196.734	-0.316	-0.002
-182.071	-200.000	0.055	-0.700
-181.056	-83.478	0.666	0.211
-180.042	-200.000	0.178	0.835
-179.027	131.453	-0.165	0.209
-178.012	-3.871	0.571	0.392
-176.998	222.117	-0.461	0.733
-175.983	-65.074	0.400	-0.160
-174.969	-200.000	-0.092	0.998
-173.954	-70.044	0.710	-0.267
-172.939	-155.165	0.739	0.048
-171.925	-136.522	-0.723	-0.083
-170.910	707.962	0.254	0.662
-169.896	199.967	-0.265	-0.403
-168.881	-15.617	0.379	-0.239
-167.866	-174.434	0.232	0.007
-166.852	-71.500	-0.578	0.214
-165.837	162.509	-0.501	-0.694
-164.823	121.566	0.542	0.667
-163.808	800.000	-0.243	-0.672
-162.793	74.641	0.264	0.274
-161.779	-146.529	-1.477	0.127
-160.764	-29.553	-0.247	-0.140
-159.750	-130.930	-0.919	0.122
-158.735	67.094	0.624	0.628
-157.720	-200.000	0.024	-0.609
-156.706	-73.014	-0.565	-0.205
-155.691	-116.767	-0.219	0.040
-154.677	110.232	0.434	0.515
-153.662	-170.701	-0.963	0.033
-152.647	-200.000	-0.428	-0.001
-151.633	-200.000	0.050	-0.421
-150.618	-109.111	-0.475	-0.100
-149.604	-20.989	0.347	-0.210
-148.589	-31.834	0.763	-0.422
-147.574	-97.187	-0.231	0.060
-146.560	131.154	-0.787	-0.998
-145.545	82.341	-0.140	-0.150
-144.531	-152.191	0.697	-0.050
-143.516	800.000	-0.335	0.931
-142.502	-90.809	0.444	0.126
-141.487	777.149	-0.099	0.266
-140.472	-45.216	-0.074	0.036
-139.458	-20.403	-0.519	-0.315
-138.443	-200.000	-0.094	-0.495
-137.429	-200.000	0.004	0.802
-136.414	9.577	-0.384	-0.287
-135.399	-127.537	0.352	-0.050
-134.385	-200.000	0.101	-0.752
-133.370	-156.909	0.118	0.007
-132.356	-82.375	0.174	0.056
-131.341	121.619	-0.384	-0.472
-130.326	-99.625	-0.755	-0.187
-129.312	460.157	-0.245	0.539
-128.297	186.157	-0.129	0.189
-127.283	171.385	0.649	-0.919
-126.268	23.987	0.326	0.265
-125.253	-60.255	-0.318	-0.134
-124.239	-200.000	-0.042	0.269
-123.224	121.334	-0.379	-0.465
-122.210	171.062	-0.466	-0.660
