DTS Sentinel unit serial number:	SN413079Multiplexer serial number:	ORYXHardware model number:	OX4-SRSoftware version number:	ORYX F/W v4.00 Oryx Data Collector v3.7.2.0data status	okinstallation	princeton_trtdifferential loss correction	single-endedforward channel	channel 1reverse channel	N/Adate	2019/09/17time	04:18:35forward acquisition time	60.00reverse acquisition time	0.00gamma	496.2192k internal	0.2323k external	0.2323temperature offset calibration	0.9958default loss term (dB/km)	0.3790temperature slope calibration	1.0000multiplexer offset coefficient	1.0000multiplexer slope coefficient	1.0000fibre end	0.00T internal ref (°C)	29.80T ext. ref 1 (°C)	0.14T ext. ref 2 (°C)	24.24length (m)	temperature (°C)	Stokes	anti-Stokes-747.200	95.934	0.244	0.281
-746.185	-86.393	-0.372	0.115
-745.171	-85.986	-0.232	0.073
-744.156	-146.403	0.075	-0.007
-743.142	-83.550	0.196	-0.063
-742.127	-200.000	0.122	0.609
-741.112	294.105	-0.017	-0.032
-740.098	800.000	-0.074	-0.271
-739.083	33.693	0.107	-0.094
-738.069	-23.391	-0.282	0.171
-737.054	800.000	0.099	0.303
-736.039	-119.672	-0.072	-0.013
-735.025	-200.000	0.049	0.323
-734.010	-74.637	0.129	0.047
-732.996	13.456	-0.432	-0.339
-731.981	-53.369	-0.183	-0.085
-730.966	-12.924	0.214	0.140
-729.952	253.135	-0.224	-0.386
-728.937	-70.051	-0.312	-0.120
-727.923	41.627	-0.235	0.215
-726.908	-136.319	0.227	-0.027
-725.894	91.925	-0.294	-0.334
-724.879	-200.000	-0.009	0.127
-723.864	-73.227	-0.334	-0.123
-722.850	613.487	-0.121	0.305
-721.835	-200.000	0.064	0.360
-720.821	800.000	0.153	0.442
-719.806	35.732	0.093	0.082
-718.791	-192.703	0.275	-0.003
-717.777	-89.661	-0.229	-0.068
-716.762	165.349	-0.164	-0.233
-715.748	32.889	-0.238	-0.208
-714.733	677.202	0.058	0.151
-713.718	-131.620	-0.280	0.037
-712.704	-200.000	-0.014	-0.202
-711.689	-106.720	-0.259	-0.058
-710.675	-13.322	0.390	-0.255
-709.660	-200.000	0.023	-0.200
-708.645	-115.144	-0.209	0.040
-707.631	298.514	0.129	0.240
-706.616	-41.583	-0.073	0.038
-705.602	-127.379	-0.006	-0.001
-704.587	4.303	-0.166	0.123
-703.572	-200.000	0.038	-0.264
-702.558	704.740	-0.059	0.158
-701.543	-2.246	-0.309	-0.219
-700.529	29.614	-0.314	-0.270
-699.514	-200.000	0.002	0.074
-698.499	678.065	0.077	0.202
-697.485	605.287	0.111	-0.278
-696.470	-181.368	-0.231	0.005
-695.456	608.474	-0.123	-0.309
-694.441	-47.669	-0.412	-0.201
-693.426	46.192	-0.293	-0.273
-692.412	-200.000	-0.060	-0.296
-691.397	-200.000	0.000	0.235
-690.383	21.603	-0.008	-0.006
-689.368	-83.415	0.119	-0.038
-688.354	-200.000	0.013	0.056
-687.339	-74.638	-0.232	0.084
-686.324	-89.783	-0.136	-0.040
-685.310	-161.049	0.100	0.005
-684.295	310.703	-0.070	-0.131
-683.281	800.000	0.053	-0.181
-682.266	-30.617	0.188	-0.107
-681.251	-200.000	0.034	-0.462
-680.237	14.561	0.198	-0.156
-679.222	-20.688	0.067	-0.041
-678.208	-39.276	-0.342	-0.181
-677.193	-42.599	-0.112	0.058
-676.178	-131.501	-0.492	-0.065
-675.164	-200.000	0.050	-0.367
-674.149	-200.000	-0.044	-0.352
-673.135	194.278	-0.047	0.071
-672.120	-27.470	0.032	0.019
-671.105	800.000	0.092	0.255
-670.091	1.320	0.386	0.279
-669.076	800.000	0.081	-0.229
-668.062	0.738	0.169	0.122
-667.047	195.860	0.018	-0.027
-666.032	-59.115	-0.027	-0.012
-665.018	-13.126	0.085	-0.056
-664.003	-200.000	-0.027	-0.320
-662.989	154.641	-0.189	-0.261
-661.974	-200.000	-0.005	0.136
-660.959	12.892	-0.138	-0.107
-659.945	447.080	-0.092	0.203
-658.930	-33.330	0.261	0.145
-657.916	528.807	-0.015	-0.037
-656.901	109.370	-0.255	0.307
-655.886	-126.700	0.144	-0.021
-654.872	199.747	0.107	-0.166
-653.857	38.557	0.188	-0.169
-652.843	332.842	-0.033	-0.064
-651.828	-71.862	-0.215	-0.081
-650.814	-200.000	-0.029	-0.144
-649.799	800.000	0.008	0.024
-648.784	-160.389	0.396	0.021
-647.770	-100.914	0.088	-0.022
-646.755	119.955	0.135	0.168
-645.741	-82.077	-0.120	-0.039
-644.726	-83.096	-0.078	-0.025
-643.711	337.541	-0.042	0.081
-642.697	-152.016	-0.218	0.016
-641.682	-95.061	-0.061	0.017
-640.668	-200.000	-0.025	0.280
-639.653	-200.000	-0.072	-0.357
-638.638	299.943	-0.020	0.037
-637.624	73.047	0.227	-0.238
-636.609	800.000	0.081	-0.227
-635.595	-106.143	-0.109	-0.025
-634.580	-31.179	-0.134	0.076
-633.565	-43.545	-0.474	-0.241
-632.551	89.087	-0.223	-0.250
-631.536	-4.417	0.172	0.120
-630.522	181.110	0.163	-0.241
-629.507	-5.993	0.102	-0.070
-628.492	-9.073	0.094	-0.063
-627.478	-76.549	-0.385	-0.136
-626.463	-111.779	0.078	-0.016
-625.449	222.161	0.055	-0.089
-624.434	-200.000	-0.125	-0.595
-623.419	-69.791	-0.166	-0.064
-622.405	306.201	0.118	-0.221
-621.390	681.472	0.042	-0.111
-620.376	-200.000	-0.005	0.083
-619.361	-200.000	-0.006	0.175
-618.346	233.654	-0.182	0.302
-617.332	388.067	-0.193	0.402
-616.317	800.000	-0.032	0.119
-615.303	-76.578	0.064	0.023
-614.288	-52.232	-0.112	0.052
-613.273	-200.000	-0.305	0.001
-612.259	237.772	-0.073	0.122
-611.244	-160.832	-0.308	-0.016
-610.230	-200.000	-0.016	-0.342
-609.215	119.955	0.126	-0.157
-608.201	19.864	-0.088	0.071
-607.186	-20.043	-0.263	-0.163
-606.171	165.514	0.099	0.140
-605.157	-36.897	0.175	0.094
-604.142	-200.000	-0.007	-0.135
-603.128	-175.476	-0.202	-0.006
-602.113	278.129	0.084	0.150
-601.098	-200.000	-0.028	0.230
-600.084	17.832	0.139	-0.111
-599.069	4.715	-0.179	0.132
-598.055	-200.000	0.010	-0.113
-597.040	-46.143	0.145	-0.072
-596.025	-200.000	0.012	-0.213
-595.011	45.014	0.339	-0.314
-593.996	279.833	-0.138	-0.248
-592.982	413.803	-0.124	-0.265
-591.967	-200.000	-0.022	-0.249
-590.952	-200.000	0.004	0.023
-589.938	-148.888	0.306	0.025
-588.923	653.967	-0.079	-0.204
-587.909	-200.000	-0.004	0.354
-586.894	46.503	-0.030	0.028
-585.879	50.733	-0.179	0.170
-584.865	325.269	-0.068	0.131
-583.850	800.000	-0.029	-0.084
-582.836	94.876	-0.118	0.135
-581.821	800.000	-0.047	0.147
-580.806	800.000	0.103	-0.293
-579.792	163.679	-0.183	-0.258
-578.777	64.249	0.101	-0.102
-577.763	800.000	-0.040	0.147
-576.748	-200.000	0.019	-0.273
-575.733	406.972	0.145	0.308
-574.719	286.293	0.065	-0.117
-573.704	261.681	-0.039	0.067
-572.690	-200.000	-0.059	0.401
-571.675	800.000	0.081	0.260
-570.661	19.087	0.177	-0.142
-569.646	118.724	-0.176	-0.218
-568.631	206.011	0.091	-0.141
-567.617	-200.000	-0.012	-0.146
-566.602	-200.000	-0.065	-0.320
-565.588	-200.000	-0.019	0.144
-564.573	-90.992	-0.318	-0.092
-563.558	-200.000	-0.021	-0.246
-562.544	305.060	-0.168	-0.314
-561.529	217.370	0.075	0.120
-560.515	-101.312	0.406	0.099
-559.500	-76.584	-0.405	0.143
-558.485	-179.922	-0.206	0.004
-557.471	285.101	0.134	0.242
-556.456	-24.164	-0.275	0.164
-555.442	45.919	-0.196	-0.182
-554.427	800.000	-0.104	-0.306
-553.412	98.394	0.276	-0.318
-552.398	155.695	0.094	0.130
-551.383	800.000	-0.104	0.314
-550.369	-56.102	-0.137	-0.061
-549.354	679.297	-0.097	0.252
-548.339	242.140	0.222	-0.372
-547.325	384.247	-0.098	0.203
-546.310	800.000	0.041	-0.142
-545.296	-2.172	0.055	0.038
-544.281	-200.000	-0.044	0.387
-543.266	-75.190	-0.305	0.109
-542.252	127.514	0.030	-0.038
-541.237	130.669	0.052	-0.067
-540.223	-85.566	-0.334	-0.104
-539.208	-200.000	-0.055	0.332
-538.193	-86.814	0.263	-0.080
-537.179	92.616	-0.175	-0.198
-536.164	55.259	0.109	-0.106
-535.150	-40.337	0.198	-0.103
-534.135	-200.000	0.054	0.344
-533.121	25.467	0.146	-0.121
-532.106	-111.949	0.159	0.032
-531.091	729.532	-0.038	0.101
-530.077	-18.543	0.262	-0.164
-529.062	145.430	-0.030	-0.040
-528.048	60.070	-0.135	-0.134
-527.033	800.000	-0.099	-0.308
-526.018	800.000	-0.128	0.412
-525.004	219.547	0.239	-0.383
-523.989	24.424	-0.255	-0.211
-522.975	53.858	-0.358	-0.344
-521.960	-106.062	-0.152	-0.034
-520.945	213.220	0.148	0.233
-519.931	10.766	0.201	0.154
-518.916	-56.779	-0.243	0.107
-517.902	-101.598	-0.081	-0.020
-516.887	-186.316	0.303	-0.004
-515.872	48.719	-0.153	-0.144
-514.858	800.000	-0.025	-0.084
-513.843	288.443	-0.166	0.300
-512.829	164.787	-0.096	0.135
-511.814	288.863	-0.069	-0.126
-510.799	58.763	0.202	-0.199
-509.785	158.083	-0.150	0.207
-508.770	-65.105	-0.264	-0.106
-507.756	556.135	-0.106	-0.256
-506.741	41.284	-0.050	-0.045
-505.726	-130.929	0.318	0.043
-504.712	-12.310	0.217	0.142
-503.697	266.834	0.100	-0.175
-502.683	129.606	0.102	0.131
-501.668	168.022	0.066	0.094
-500.653	27.549	0.095	0.080
-499.639	-200.000	-0.005	-0.174
-498.624	569.888	0.022	-0.055
-497.610	129.721	0.109	0.140
-496.595	800.000	-0.044	0.131
-495.581	-2.733	0.075	0.053
-494.566	239.067	0.040	0.067
-493.551	-72.812	-0.319	-0.117
-492.537	98.206	-0.209	0.240
-491.522	62.893	-0.356	-0.357
-490.508	392.009	-0.108	-0.224
-489.493	-124.677	-0.113	0.017
-488.478	99.780	0.240	-0.278
-487.464	800.000	-0.087	-0.268
-486.449	-200.000	-0.016	-0.182
-485.435	-83.706	0.159	-0.051
-484.420	-200.000	-0.312	0.000
-483.405	-141.657	-0.296	0.030
-482.391	-2.917	-0.117	0.082
-481.376	800.000	-0.043	0.160
-480.362	-136.163	-0.210	-0.025
-479.347	8.914	0.172	0.129
-478.332	220.647	-0.033	0.054
-477.318	184.526	0.090	0.133
-476.303	800.000	0.011	0.036
-475.289	-200.000	-0.017	0.173
-474.274	-168.925	0.152	0.006
-473.259	-37.530	-0.103	-0.055
-472.245	100.065	-0.182	-0.211
-471.230	39.114	0.156	-0.140
-470.216	-3.735	0.191	-0.133
-469.201	473.252	-0.144	-0.325
-468.186	-121.717	0.230	-0.038
-467.172	190.558	-0.026	-0.039
-466.157	-31.408	-0.336	0.189
-465.143	-89.460	0.303	-0.089
-464.128	-200.000	0.006	-0.277
-463.113	90.993	-0.044	-0.049
-462.099	-200.000	0.023	0.371
-461.084	800.000	0.105	-0.369
-460.070	-93.957	0.258	-0.071
-459.055	-86.315	-0.143	0.044
-458.040	132.950	-0.167	0.215
-457.026	800.000	0.028	-0.079
-456.011	-175.483	0.357	0.010
-454.997	247.489	-0.149	0.251
-453.982	-200.000	-0.057	0.265
-452.968	19.365	-0.228	0.183
-451.953	20.646	-0.099	-0.080
-450.938	-35.073	0.101	0.055
-449.924	-53.125	-0.291	-0.133
-448.909	288.831	-0.183	-0.331
-447.895	-10.304	0.158	0.105
-446.880	-200.000	-0.015	0.160
-445.865	800.000	-0.040	0.155
-444.851	-170.168	0.269	-0.010
-443.836	-127.362	0.326	-0.047
-442.822	-99.810	0.296	0.074
-441.807	-177.243	-0.105	0.003
-440.792	-127.008	-0.197	-0.029
-439.778	52.479	-0.103	-0.098
-438.763	-127.796	-0.397	-0.057
-437.749	-72.726	0.117	-0.043
-436.734	800.000	-0.058	0.211
-435.719	800.000	-0.069	0.257
-434.705	343.698	0.138	-0.271
-433.690	-200.000	-0.072	-0.362
-432.676	-32.639	0.232	-0.129
-431.661	-200.000	-0.047	-0.319
-430.646	269.959	0.115	0.202
-429.632	-57.762	-0.115	-0.050
-428.617	656.988	0.141	0.363
-427.603	5.707	-0.172	0.127
-426.588	98.418	0.113	0.130
-425.573	800.000	0.131	0.461
-424.559	155.329	-0.240	0.330
-423.544	639.085	0.099	0.252
-422.530	0.500	-0.236	-0.168
-421.515	800.000	0.024	0.093
-420.500	18.181	-0.115	0.092
-419.486	-4.486	0.054	-0.037
-418.471	-21.705	-0.221	-0.134
-417.457	687.832	-0.049	0.128
-416.442	800.000	-0.012	0.040
-415.428	-200.000	-0.004	0.046
-414.413	102.969	-0.224	-0.261
-413.398	-136.620	0.228	0.026
-412.384	296.414	0.059	0.108
-411.369	78.250	-0.121	-0.128
-410.355	-18.526	0.297	0.185
-409.340	-108.383	0.183	-0.039
-408.325	178.795	-0.113	0.165
-407.311	161.284	-0.158	-0.221
-406.296	-120.525	0.240	0.041
-405.282	140.263	0.129	0.169
-404.267	-165.592	0.801	0.035
-403.252	-148.464	-0.190	0.016
-402.238	-54.797	-0.212	0.095
-401.223	-45.432	0.153	0.076
-400.209	-133.492	0.043	-0.005
-399.194	419.185	-0.075	0.160
-398.179	4.052	0.271	-0.197
-397.165	-100.264	0.166	0.041
-396.150	800.000	-0.079	-0.305
-395.136	472.401	0.069	0.154
-394.121	-177.655	0.183	0.004
-393.106	-200.000	-0.008	0.164
-392.092	63.411	0.178	-0.178
-391.077	-19.299	0.237	0.146
-390.063	800.000	0.073	-0.267
-389.048	158.539	-0.109	-0.151
-388.033	4.985	-0.260	-0.190
-387.019	-200.000	-0.024	-0.157
-386.004	92.106	0.321	-0.360
-384.990	-200.000	-0.007	-0.174
-383.975	-192.883	0.184	-0.002
-382.960	269.442	0.161	0.282
-381.946	54.014	0.039	-0.037
-380.931	-62.029	-0.070	0.029
-379.917	-150.139	0.371	-0.029
-378.902	-200.000	0.018	0.101
-377.888	-200.000	-0.026	0.229
-376.873	271.675	0.182	-0.319
-375.858	-118.457	-0.105	0.019
-374.844	54.588	0.168	0.162
-373.829	-124.998	0.150	0.023
-372.815	-200.000	-0.018	0.203
-371.800	212.126	0.179	-0.281
-370.785	800.000	-0.028	-0.098
-369.771	62.340	0.193	0.192
-368.756	800.000	0.042	-0.147
-367.742	-200.000	-0.057	-0.304
-366.727	227.242	-0.052	0.084
-365.712	487.147	0.074	-0.168
-364.698	55.102	0.303	-0.292
-363.683	-200.000	0.103	0.000
-362.669	-200.000	0.014	-0.220
-361.654	441.754	0.112	0.244
-360.639	25.080	0.259	0.213
-359.625	136.543	0.174	-0.226
-358.610	800.000	-0.017	0.066
-357.596	800.000	-0.033	0.113
-356.581	800.000	-0.121	-0.382
-355.566	-200.000	0.023	0.113
-354.552	-200.000	0.116	-0.513
-353.537	800.000	-0.131	-0.386
-352.523	64.823	0.083	-0.083
-351.508	-73.047	-0.222	0.081
-350.493	-21.290	0.024	0.014
-349.479	800.000	0.032	0.093
-348.464	-158.614	0.268	0.015
-347.450	-101.171	-0.326	0.079
-346.435	-22.277	-0.099	0.059
-345.420	-135.200	0.088	0.011
-344.406	48.918	0.317	-0.296
-343.391	638.720	-0.055	0.138
-342.377	78.871	-0.133	0.141
-341.362	-151.924	-0.092	-0.007
-340.348	40.031	0.357	-0.318
-339.333	-2.245	0.148	-0.103
-338.318	-143.381	0.163	0.016
-337.304	-154.177	0.109	-0.007
-336.289	-200.000	-0.038	-0.328
-335.275	-104.179	0.045	0.010
-334.260	-200.000	-0.004	-0.276
-333.245	268.805	0.088	0.154
-332.231	14.464	0.217	0.169
-331.216	-163.170	0.091	-0.004
-330.202	-200.000	0.007	0.280
-329.187	746.111	0.208	0.557
-328.172	800.000	-0.113	0.376
-327.158	9.838	0.124	-0.093
-326.143	-82.817	-0.193	-0.062
-325.129	124.154	0.166	0.207
-324.114	-96.496	-0.203	0.053
-323.099	7.436	0.277	-0.205
-322.085	-133.857	-0.284	-0.035
-321.070	-71.337	-0.096	0.036
-320.056	97.072	-0.032	0.036
-319.041	158.701	0.265	0.366
-318.026	69.995	-0.042	0.043
-317.012	33.088	-0.052	0.045
-315.997	33.972	-0.157	-0.136
-314.983	141.742	-0.180	0.236
-313.968	-200.000	0.009	-0.153
-312.953	117.582	-0.178	-0.218
-311.939	-38.707	0.314	0.165
-310.924	92.668	0.273	0.306
-309.910	-76.950	-0.183	0.064
-308.895	-77.043	0.133	0.046
-307.880	-4.004	0.297	0.204
-306.866	153.689	-0.107	0.146
-305.851	27.614	0.102	0.085
-304.837	-200.000	0.071	-0.333
-303.822	800.000	-0.102	0.298
-302.807	19.842	-0.156	0.125
-301.793	-200.000	-0.062	0.350
-300.778	24.740	-0.213	-0.175
-299.764	-39.682	-0.169	0.088
-298.749	-11.369	-0.032	0.021
-297.735	-90.011	0.282	0.082
-296.720	800.000	0.079	0.274
-295.705	-200.000	0.018	-0.094
-294.691	-17.509	0.287	-0.179
-293.676	738.825	0.187	0.497
-292.662	-200.000	-0.015	-0.115
-291.647	800.000	0.065	-0.248
-290.632	-169.383	0.187	0.007
-289.618	-39.183	-0.113	-0.059
-288.603	-85.091	0.124	0.038
-287.589	-51.652	0.397	0.184
-286.574	-62.813	0.256	0.105
-285.559	-47.790	0.071	0.034
-284.545	-200.000	0.003	0.186
-283.530	119.713	0.095	-0.117
-282.516	318.623	0.027	0.050
-281.501	515.623	-0.108	0.249
-280.486	-200.000	-0.002	0.048
-279.472	3.885	0.012	0.009
-278.457	-200.000	-0.049	0.235
-277.443	-5.158	0.405	0.276
-276.428	-168.606	-0.323	-0.012
-275.413	-72.644	-0.162	-0.059
-274.399	46.693	0.171	-0.157
-273.384	-200.000	0.014	-0.284
-272.370	36.710	0.239	0.210
-271.355	473.624	-0.080	-0.179
-270.340	193.487	-0.277	0.415
-269.326	800.000	0.050	0.191
-268.311	-200.000	0.041	-0.299
-267.297	-71.130	-0.118	-0.044
-266.282	-200.000	0.049	0.398
-265.267	800.000	-0.073	0.199
-264.253	-200.000	-0.019	0.196
-263.238	-200.000	0.001	0.256
-262.224	19.701	-0.267	0.213
-261.209	-200.000	-0.054	-0.289
-260.195	30.632	0.326	0.276
-259.180	-72.388	0.226	-0.083
-258.165	220.718	0.140	0.222
-257.151	311.249	-0.068	0.126
-256.136	-14.450	0.106	0.067
-255.122	57.060	-0.122	0.118
-254.107	39.683	-0.415	0.369
-253.092	-9.212	-0.029	0.019
-252.078	-78.960	-0.261	0.088
-251.063	231.567	0.063	0.103
-250.049	9.167	-0.121	-0.091
-249.034	-98.780	0.009	0.002
-248.019	-124.291	0.225	-0.035
-247.005	317.785	0.004	-0.008
-245.990	800.000	-0.012	0.039
-244.976	14.625	0.260	-0.201
-243.961	-44.217	0.191	0.095
-242.946	4.337	-0.177	-0.129
-241.932	450.470	0.194	0.424
-240.917	27.114	-0.196	-0.163
-239.903	284.634	-0.156	0.277
-238.888	22.865	-0.172	-0.140
-237.873	384.011	-0.094	0.192
-236.859	-200.000	-0.019	0.106
-235.844	-110.677	0.270	-0.055
-234.830	800.000	0.054	0.219
-233.815	-200.000	0.004	0.223
-232.800	-65.314	0.245	0.098
-231.786	544.561	-0.023	0.054
-230.771	106.206	-0.176	-0.206
-229.757	22.018	-0.136	-0.110
-228.742	504.512	-0.076	0.174
-227.727	800.000	-0.056	-0.188
-226.713	761.908	-0.123	0.330
-225.698	-137.561	0.173	0.019
-224.684	185.992	-0.192	-0.283
-223.669	338.011	-0.060	0.116
-222.655	-200.000	0.035	0.280
-221.640	-107.300	0.043	-0.009
-220.625	113.154	0.215	0.258
-219.611	-200.000	-0.003	-0.118
-218.596	646.357	0.054	-0.137
-217.582	-147.243	-0.290	0.024
-216.567	79.962	0.164	-0.175
-215.552	-200.000	0.020	-0.256
-214.538	781.541	-0.110	-0.298
-213.523	-20.592	-0.088	0.053
-212.509	-109.440	-0.172	-0.036
-211.494	-23.933	0.036	-0.022
-210.479	310.643	0.079	0.146
-209.465	-81.706	-0.156	-0.051
-208.450	261.043	0.118	-0.203
-207.436	-200.000	-0.269	-0.001
-206.421	-93.606	0.119	0.033
-205.406	-200.000	0.010	0.357
-204.392	104.563	0.073	-0.085
-203.377	-53.771	0.071	-0.032
-202.363	-200.000	-0.017	-0.423
-201.348	-197.263	0.265	-0.002
-200.333	182.666	0.083	-0.120
-199.319	-2.404	-0.250	0.173
-198.304	-200.000	0.029	0.160
-197.290	171.184	-0.076	-0.108
-196.275	313.371	-0.153	0.285
-195.260	-170.166	0.370	-0.013
-194.246	-200.000	-0.003	-0.228
-193.231	183.969	0.100	-0.146
-192.217	-23.880	0.052	0.031
-191.202	359.966	0.115	-0.227
-190.187	0.298	-0.209	0.148
-189.173	-48.039	-0.179	0.086
-188.158	311.673	0.058	-0.108
-187.144	-200.000	0.076	-0.363
-186.129	344.839	0.136	0.263
-185.114	98.988	-0.089	-0.102
-184.100	-41.193	-0.242	-0.123
-183.085	-169.886	-0.234	0.008
-182.071	800.000	0.082	-0.254
-181.056	-101.569	-0.098	0.024
-180.042	-19.417	-0.080	0.049
-179.027	-104.847	0.070	-0.016
-178.012	-166.213	0.392	0.016
-176.998	-73.686	-0.416	-0.150
-175.983	-107.644	-0.290	0.063
-174.969	96.692	0.104	-0.118
-173.954	-200.000	-0.334	0.001
-172.939	113.912	-0.102	-0.122
-171.925	-112.903	-0.041	0.008
-170.910	-98.396	-0.175	0.044
-169.896	-79.468	0.114	0.038
-168.881	166.004	0.185	0.258
-167.866	-74.151	-0.284	0.101
-166.852	555.709	-0.165	-0.392
-165.837	-200.000	0.038	-0.197
-164.823	-57.716	0.337	0.146
-163.808	73.235	-0.059	0.061
-162.793	-200.000	0.011	0.146
-161.779	-200.000	0.021	-0.449
-160.764	-119.274	0.204	-0.035
-159.750	425.262	-0.097	-0.205
-158.735	800.000	-0.082	0.263
-157.720	-108.550	-0.440	0.093
-156.706	800.000	-0.063	-0.233
-155.691	-175.144	-0.263	-0.007
-154.677	-54.317	0.159	-0.071
-153.662	17.073	-0.117	-0.092
-152.647	25.225	-0.328	0.269
-151.633	800.000	0.088	0.332
-150.618	505.940	-0.120	0.275
-149.604	-2.846	0.357	-0.246
-148.589	800.000	0.085	0.259
-147.574	-36.500	0.418	-0.222
-146.560	800.000	0.093	-0.335
-145.545	-12.685	0.136	-0.087
-144.531	-68.073	-0.066	-0.025
-143.516	141.910	0.187	0.244
-142.502	-72.663	0.171	0.062
-141.487	111.212	-0.078	0.093
-140.472	97.121	-0.131	0.148
-139.458	-200.000	-0.023	0.332
-138.443	403.231	0.191	0.396
-137.429	542.238	0.042	0.099
-136.414	-120.879	-0.270	-0.045
-135.399	-200.000	0.048	0.290
-134.385	169.212	-0.143	-0.201
-133.370	-59.944	0.367	-0.155
-132.356	-54.083	-0.098	0.044
-131.341	0.499	0.216	-0.152
-130.326	-147.687	-0.269	0.022
-129.312	-27.435	-0.119	0.068
-128.297	-48.928	-0.293	-0.139
-127.283	146.606	0.237	0.314
-126.268	-186.330	0.273	-0.004
-125.253	-123.923	0.363	-0.056
-124.239	117.693	0.197	0.239
-123.224	-153.645	-0.102	0.007
-122.210	-121.350	-0.174	0.029
-121.195	800.000	0.084	-0.255
