DTS Sentinel unit serial number:	SN413079Multiplexer serial number:	ORYXHardware model number:	OX4-SRSoftware version number:	ORYX F/W v4.00 Oryx Data Collector v3.7.2.0data status	okinstallation	princeton_trtdifferential loss correction	single-endedforward channel	channel 1reverse channel	N/Adate	2019/09/16time	00:06:35forward acquisition time	60.00reverse acquisition time	0.00gamma	496.2192k internal	0.2333k external	0.2333temperature offset calibration	0.9969default loss term (dB/km)	0.3790temperature slope calibration	1.0000multiplexer offset coefficient	1.0000multiplexer slope coefficient	1.0000fibre end	0.00T internal ref (°C)	27.81T ext. ref 1 (°C)	9.41T ext. ref 2 (°C)	21.75length (m)	temperature (°C)	Stokes	anti-Stokes-747.200	800.000	-0.010	0.035
-746.185	68.678	-0.298	0.307
-745.171	-110.179	0.069	0.015
-744.156	-200.000	-0.006	-0.066
-743.142	-2.993	0.158	0.111
-742.127	71.401	-0.265	0.277
-741.112	6.090	0.218	-0.163
-740.098	-200.000	-0.076	0.416
-739.083	143.403	0.121	0.161
-738.069	-84.085	0.263	0.084
-737.054	-183.873	-0.195	-0.003
-736.039	-136.709	-0.054	0.006
-735.025	-150.607	0.285	-0.022
-734.010	-134.110	-0.243	0.030
-732.996	-155.068	-0.354	-0.023
-731.981	800.000	-0.015	0.053
-730.966	54.990	-0.292	-0.283
-729.952	-200.000	-0.019	0.189
-728.937	219.211	-0.043	-0.068
-727.923	-96.622	-0.250	-0.066
-726.908	-50.057	0.182	0.087
-725.894	719.673	0.024	-0.064
-724.879	-16.652	-0.279	-0.177
-723.864	-200.000	-0.004	-0.161
-722.850	-175.559	-0.200	0.005
-721.835	-65.822	0.156	0.063
-720.821	-1.916	0.351	0.248
-719.806	416.975	-0.094	-0.201
-718.791	800.000	-0.108	-0.334
-717.777	-5.259	-0.195	-0.134
-716.762	626.022	-0.154	-0.391
-715.748	-25.033	0.203	0.121
-714.733	-200.000	0.011	0.119
-713.718	-126.195	0.156	-0.023
-712.704	784.958	-0.098	-0.271
-711.689	-200.000	0.037	0.308
-710.675	3.767	0.192	-0.141
-709.660	-8.901	0.101	0.068
-708.645	144.545	-0.046	0.061
-707.631	142.903	0.115	-0.153
-706.616	32.382	-0.388	-0.337
-705.602	238.370	0.032	0.053
-704.587	-113.623	0.480	0.094
-703.572	-200.000	-0.106	-0.000
-702.558	546.105	0.176	-0.422
-701.543	-128.048	0.334	0.048
-700.529	181.953	-0.213	0.315
-699.514	225.283	0.115	0.187
-698.499	-200.000	-0.059	0.301
-697.485	199.728	-0.195	0.301
-696.470	-200.000	0.014	-0.063
-695.456	800.000	0.023	0.095
-694.441	-200.000	-0.021	-0.272
-693.426	800.000	0.094	-0.291
-692.412	166.063	-0.259	-0.367
-691.397	-156.293	0.254	-0.016
-690.383	-153.119	0.108	-0.008
-689.368	209.231	0.058	-0.092
-688.354	70.962	-0.093	0.097
-687.339	-200.000	0.011	0.093
-686.324	-91.994	0.311	-0.088
-685.310	-200.000	0.032	0.235
-684.295	168.271	0.115	-0.165
-683.281	260.836	-0.062	-0.107
-682.266	489.955	-0.129	0.295
-681.251	-97.273	-0.300	-0.078
-680.237	190.829	0.195	0.294
-679.222	60.576	0.222	-0.220
-678.208	33.691	-0.120	-0.105
-677.193	95.796	0.035	-0.040
-676.178	282.302	0.209	-0.376
-675.164	21.421	-0.150	0.122
-674.149	-182.869	0.159	-0.003
-673.135	-33.035	-0.100	0.056
-672.120	83.678	0.077	-0.084
-671.105	-200.000	0.045	-0.359
-670.091	48.366	-0.232	-0.217
-669.076	-200.000	-0.004	-0.465
-668.062	-88.107	-0.522	-0.157
-667.047	349.124	0.098	-0.195
-666.032	-62.309	0.081	0.034
-665.018	-68.408	-0.239	-0.093
-664.003	-153.586	0.419	-0.029
-662.989	54.142	-0.121	-0.116
-661.974	-117.369	-0.168	-0.030
-660.959	9.902	-0.224	0.170
-659.945	323.665	-0.027	0.053
-658.930	-105.321	-0.370	-0.084
-657.916	800.000	-0.058	-0.195
-656.901	-200.000	0.035	-0.361
-655.886	-116.810	-0.283	0.052
-654.872	-200.000	0.003	-0.014
-653.857	800.000	0.089	0.358
-652.843	4.026	-0.245	-0.179
-651.828	176.937	0.169	-0.246
-650.814	800.000	-0.124	-0.382
-649.799	-200.000	0.068	0.370
-648.784	-99.073	0.201	0.051
-647.770	12.375	-0.093	-0.072
-646.755	305.935	-0.060	-0.113
-645.741	359.177	0.114	0.228
-644.726	800.000	0.080	0.264
-643.711	-200.000	0.062	-0.334
-642.697	77.400	-0.109	-0.116
-641.682	128.630	-0.222	-0.283
-640.668	-200.000	-0.078	0.378
-639.653	4.896	0.085	-0.063
-638.638	800.000	-0.061	0.255
-637.624	236.973	-0.189	0.314
-636.609	800.000	0.023	-0.094
-635.595	800.000	0.140	0.438
-634.580	211.872	0.130	0.205
-633.565	-200.000	0.028	-0.323
-632.551	-200.000	-0.094	-0.415
-631.536	-51.377	-0.197	0.092
-630.522	522.079	0.091	0.214
-629.507	800.000	-0.086	-0.312
-628.492	-64.636	-0.355	-0.144
-627.478	-156.857	-0.412	0.025
-626.463	-89.720	-0.340	-0.100
-625.449	-11.805	-0.031	-0.020
-624.434	103.850	0.095	0.111
-623.419	-200.000	-0.004	-0.126
-622.405	-85.131	-0.287	-0.090
-621.390	-92.472	0.259	0.073
-620.376	224.750	-0.030	-0.049
-619.361	800.000	0.095	-0.308
-618.346	-200.000	0.034	-0.516
-617.332	1.391	0.141	0.102
-616.317	-200.000	0.012	0.196
-615.303	271.080	-0.023	0.040
-614.288	800.000	-0.032	0.141
-613.273	12.724	-0.281	-0.217
-612.259	-50.866	0.233	0.110
-611.244	-39.172	-0.155	-0.081
-610.230	426.815	-0.144	0.310
-609.215	800.000	-0.067	0.201
-608.201	-166.624	-0.202	-0.008
-607.186	56.184	0.182	0.177
-606.171	22.655	-0.223	0.183
-605.157	51.499	0.144	0.137
-604.142	278.028	-0.070	0.124
-603.128	-111.749	0.163	0.033
-602.113	-74.794	0.193	-0.069
-601.098	383.891	0.068	0.139
-600.084	150.934	0.273	0.372
-599.069	8.879	-0.046	-0.034
-598.055	-24.533	-0.326	0.194
-597.040	-200.000	-0.031	-0.137
-596.025	17.214	-0.340	0.270
-595.011	130.405	0.118	0.152
-593.996	250.772	-0.157	-0.266
-592.982	794.647	-0.038	0.104
-591.967	-200.000	0.111	0.561
-590.952	1.072	-0.288	0.207
-589.938	22.517	-0.305	-0.250
-588.923	800.000	-0.043	0.130
-587.909	9.637	0.196	0.148
-586.894	-44.685	0.323	0.161
-585.879	-200.000	0.017	-0.264
-584.865	-200.000	-0.045	-0.316
-583.850	8.098	-0.312	0.234
-582.836	227.715	0.198	0.322
-581.821	-32.142	0.077	0.043
-580.806	-107.637	-0.297	0.065
-579.792	-137.277	0.023	0.003
-578.777	133.799	0.212	-0.274
-577.763	45.647	0.195	0.180
-576.748	-16.685	-0.095	0.060
-575.733	535.947	-0.040	0.094
-574.719	800.000	0.076	0.321
-573.704	90.336	-0.332	-0.371
-572.690	3.935	-0.333	-0.243
-571.675	-120.929	0.353	-0.059
-570.661	594.042	-0.117	0.289
-569.646	800.000	-0.088	0.284
-568.631	-153.038	-0.077	-0.005
-567.617	-200.000	-0.019	-0.433
-566.602	-200.000	-0.015	0.270
-565.588	219.713	0.037	-0.059
-564.573	-130.006	0.082	-0.011
-563.558	800.000	0.057	0.176
-562.544	-200.000	0.015	0.090
-561.529	48.414	0.255	0.238
-560.515	-129.680	-0.156	-0.021
-559.500	17.623	-0.041	0.033
-558.485	800.000	-0.046	-0.138
-557.471	774.383	-0.116	-0.315
-556.456	26.629	-0.349	0.291
-555.442	-92.898	-0.136	0.038
-554.427	170.434	-0.008	0.011
-553.412	28.613	-0.098	0.082
-552.398	59.421	0.087	-0.086
-551.383	469.502	0.094	0.212
-550.369	-200.000	0.029	0.163
-549.354	-43.182	0.118	0.059
-548.339	167.342	-0.122	0.172
-547.325	193.770	-0.070	0.105
-546.310	-142.221	0.191	0.019
-545.296	-200.000	0.009	0.113
-544.281	-200.000	0.046	0.204
-543.266	221.846	-0.028	0.044
-542.252	-200.000	-0.017	-0.120
-541.237	-200.000	-0.042	-0.190
-540.223	-200.000	0.002	-0.226
-539.208	800.000	-0.032	-0.137
-538.193	-142.705	-0.247	0.024
-537.179	-200.000	-0.060	-0.268
-536.164	-2.011	0.383	0.269
-535.150	-54.082	0.034	-0.015
-534.135	-124.366	0.095	0.015
-533.121	-200.000	0.045	0.253
-532.106	69.476	-0.099	0.101
-531.091	-152.100	-0.382	0.028
-530.077	800.000	0.094	-0.293
-529.062	241.084	-0.124	-0.206
-528.048	129.375	-0.125	0.160
-527.033	800.000	-0.054	-0.208
-526.018	-152.938	0.183	0.013
-525.004	-13.627	-0.186	-0.120
-523.989	-200.000	-0.001	-0.005
-522.975	131.369	0.215	-0.275
-521.960	-76.371	-0.162	0.057
-520.945	800.000	0.009	0.028
-519.931	-200.000	0.023	0.306
-518.916	800.000	-0.100	0.280
-517.902	356.837	-0.151	-0.300
-516.887	797.101	-0.138	-0.380
-515.872	495.118	0.107	-0.245
-514.858	-49.273	0.121	-0.057
-513.843	-200.000	0.024	0.209
-512.829	79.338	0.022	0.023
-511.814	-149.883	-0.051	0.004
-510.799	-200.000	0.015	0.074
-509.785	267.184	0.160	0.279
-508.770	-48.787	0.241	-0.115
-507.756	-92.420	-0.226	0.063
-506.741	-94.901	-0.107	-0.029
-505.726	622.950	-0.071	0.178
-504.712	10.872	0.252	-0.192
-503.697	-34.540	0.177	-0.097
-502.683	157.529	-0.334	-0.460
-501.668	553.585	-0.143	0.343
-500.653	-123.282	0.198	0.032
-499.639	-106.831	0.080	-0.018
-498.624	-57.208	-0.290	-0.127
-497.610	-80.612	-0.144	-0.048
-496.595	290.930	0.011	-0.020
-495.581	-105.302	0.040	-0.009
-494.566	278.797	0.123	0.218
-493.551	62.778	-0.319	-0.318
-492.537	-200.000	-0.055	0.302
-491.522	-200.000	0.015	-0.157
-490.508	313.592	0.040	-0.074
-489.493	54.191	-0.008	0.008
-488.478	-77.783	-0.271	0.093
-487.464	800.000	-0.114	0.334
-486.449	-114.619	0.131	0.025
-485.435	7.210	0.178	-0.132
-484.420	800.000	-0.074	-0.208
-483.405	-22.944	-0.240	-0.144
-482.391	719.842	0.041	0.109
-481.376	-200.000	0.038	0.210
-480.362	-159.752	-0.418	0.023
-479.347	800.000	-0.041	-0.175
-478.332	-43.649	0.292	-0.146
-477.318	-200.000	0.038	-0.184
-476.303	-200.000	-0.056	-0.281
-475.289	-25.821	-0.348	-0.204
-474.274	585.845	0.073	0.180
-473.259	196.960	-0.094	0.142
-472.245	-88.290	-0.221	0.066
-471.230	56.982	0.204	-0.198
-470.216	-63.631	0.181	0.074
-469.201	318.008	0.130	-0.245
-468.186	197.598	0.158	-0.240
-467.172	33.087	-0.160	-0.138
-466.157	127.747	0.154	0.195
-465.143	-200.000	0.010	-0.062
-464.128	-145.324	0.244	0.022
-463.113	120.595	0.187	-0.231
-462.099	-200.000	0.046	0.221
-461.084	164.028	-0.046	0.064
-460.070	-144.297	-0.181	-0.017
-459.055	-97.095	0.104	-0.027
-458.040	211.045	0.113	0.177
-457.026	6.730	0.065	-0.048
-456.011	-200.000	-0.019	0.103
-454.997	97.900	0.111	0.127
-453.982	-26.609	-0.121	-0.070
-452.968	146.372	-0.066	-0.088
-451.953	300.056	-0.099	0.182
-450.938	-81.273	0.212	0.069
-449.924	-192.176	-0.306	-0.003
-448.909	-8.825	0.114	0.076
-447.895	-48.830	0.081	0.039
-446.880	3.005	0.090	0.065
-445.865	72.967	-0.229	-0.238
-444.851	-86.184	-0.189	0.058
-443.836	452.933	0.087	0.190
-442.822	-33.367	0.120	-0.066
-441.807	800.000	-0.044	-0.133
-440.792	-26.090	-0.127	-0.074
-439.778	-28.313	-0.091	-0.052
-438.763	10.851	-0.242	0.184
-437.749	-200.000	0.002	0.126
-436.734	-172.913	0.264	0.008
-435.719	-116.379	0.263	-0.048
-434.705	649.009	0.152	-0.386
-433.690	-115.840	0.208	-0.039
-432.676	-200.000	0.026	0.134
-431.661	-179.546	0.018	-0.000
-430.646	-10.561	0.166	-0.109
-429.632	93.325	-0.128	0.144
-428.617	-141.963	0.517	0.051
-427.603	432.079	-0.051	-0.109
-426.588	334.678	0.107	0.206
-425.573	-72.694	0.333	0.122
-424.559	-80.687	0.206	0.068
-423.544	55.594	-0.190	-0.183
-422.530	127.341	-0.255	-0.321
-421.515	170.293	0.092	0.131
-420.500	-40.240	-0.118	-0.061
-419.486	211.444	0.013	-0.021
-418.471	800.000	0.020	0.071
-417.457	13.792	0.217	0.168
-416.442	146.580	0.206	-0.274
-415.428	453.756	0.136	-0.299
-414.413	-136.423	-0.263	0.030
-413.398	62.378	0.099	0.098
-412.384	-200.000	0.006	0.317
-411.369	-151.550	-0.222	-0.016
-410.355	180.433	-0.448	-0.653
-409.340	-200.000	-0.019	-0.174
-408.325	-6.443	-0.071	0.048
-407.311	-63.497	0.139	-0.057
-406.296	-158.885	-0.253	-0.014
-405.282	-70.833	-0.406	-0.152
-404.267	207.287	-0.066	-0.103
-403.252	-128.443	0.210	-0.030
-402.238	800.000	-0.126	0.384
-401.223	682.256	-0.117	0.303
-400.209	314.959	-0.145	-0.272
-399.194	-200.000	0.009	-0.224
-398.179	-16.422	0.106	-0.066
-397.165	-88.818	0.305	-0.090
-396.150	-200.000	-0.000	-0.215
-395.136	-50.370	-0.158	0.074
-394.121	-200.000	-0.003	-0.140
-393.106	-91.037	-0.186	-0.053
-392.092	-90.504	0.204	-0.059
-391.077	601.707	0.092	-0.228
-390.063	-200.000	-0.023	0.148
-389.048	-68.301	-0.084	0.032
-388.033	-0.697	-0.311	-0.219
-387.019	-200.000	-0.022	-0.158
-386.004	-120.370	0.121	0.020
-384.990	-58.929	-0.159	-0.068
-383.975	-42.209	0.150	0.076
-382.960	-37.980	0.125	-0.066
-381.946	141.010	-0.054	0.071
-380.931	322.171	-0.097	0.184
-379.917	212.697	0.110	-0.171
-378.902	-148.162	-0.429	-0.035
-377.888	298.408	0.097	0.178
-376.873	6.110	0.148	0.109
-375.858	-48.384	0.074	0.035
-374.844	-125.623	0.230	0.035
-373.829	234.122	0.114	0.187
-372.815	215.703	-0.165	-0.260
-371.800	-27.747	0.152	0.088
-370.785	-156.621	0.154	-0.009
-369.771	216.228	-0.064	-0.101
-368.756	1.612	-0.339	-0.242
-367.742	-156.528	0.345	-0.021
-366.727	-130.090	-0.376	-0.051
-365.712	-53.632	0.098	-0.044
-364.698	-145.606	0.378	-0.033
-363.683	-108.867	0.151	0.032
-362.669	-123.354	0.161	0.025
-361.654	800.000	-0.009	-0.033
-360.639	519.572	0.017	0.038
-359.625	-76.734	0.142	0.049
-358.610	-16.062	0.197	-0.124
-357.596	184.224	0.074	0.109
-356.581	-18.094	0.273	0.169
-355.566	-61.378	0.176	0.073
-354.552	152.803	-0.306	0.414
-353.537	-200.000	-0.026	-0.121
-352.523	800.000	-0.060	0.236
-351.508	-200.000	-0.001	0.080
-350.493	344.025	-0.116	-0.225
-349.479	-137.756	-0.171	0.019
-348.464	113.877	0.075	0.090
-347.450	226.322	0.035	-0.057
-346.435	44.777	0.186	-0.169
-345.420	-22.469	-0.170	-0.102
-344.406	16.183	0.098	0.077
-343.391	-120.079	-0.476	-0.081
-342.377	-160.501	0.256	0.014
-341.362	-99.142	0.265	-0.066
-340.348	103.865	0.111	-0.129
-339.333	448.776	-0.107	0.234
-338.318	452.124	-0.099	-0.217
-337.304	800.000	-0.063	0.268
-336.289	-184.444	0.216	0.003
-335.275	492.822	0.083	-0.189
-334.260	275.136	0.154	-0.270
-333.245	47.168	0.115	0.106
-332.231	800.000	0.052	-0.176
-331.216	-200.000	0.045	0.213
-330.202	120.179	-0.114	0.140
-329.187	-50.279	-0.201	-0.094
-328.172	236.816	0.184	-0.301
-327.158	12.460	0.073	-0.056
-326.143	-10.876	0.296	-0.193
-325.129	-124.978	-0.290	0.044
-324.114	-34.413	-0.081	0.044
-323.099	-200.000	-0.014	0.121
-322.085	800.000	-0.050	0.140
-321.070	-142.503	0.156	-0.015
-320.056	-200.000	0.033	0.332
-319.041	-98.697	0.202	-0.051
-318.026	356.493	0.155	-0.305
-317.012	-82.594	0.354	0.113
-315.997	-128.647	0.147	0.021
-314.983	-200.000	0.015	0.277
-313.968	-46.016	-0.188	0.092
-312.953	800.000	0.135	0.515
-311.939	159.306	0.266	0.366
-310.924	800.000	-0.091	0.248
-309.910	-103.864	-0.219	0.051
-308.895	800.000	0.008	-0.024
-307.880	800.000	0.037	-0.138
-306.866	-180.972	-0.510	-0.010
-305.851	-114.649	-0.117	-0.022
-304.837	222.140	-0.153	-0.243
-303.822	-91.931	0.346	-0.097
-302.807	-183.226	-0.327	-0.006
-301.793	79.917	-0.290	-0.308
-300.778	800.000	-0.082	-0.327
-299.764	-130.179	-0.334	-0.045
-298.749	23.026	0.205	-0.166
-297.735	400.556	0.100	-0.207
-296.720	-26.533	0.069	0.040
-295.705	31.335	-0.336	0.285
-294.691	-200.000	-0.055	-0.618
-293.676	800.000	0.063	-0.174
-292.662	-6.218	0.304	0.205
-291.647	-52.960	-0.158	0.072
-290.632	44.954	0.262	0.238
-289.618	422.618	-0.107	0.227
-288.603	-55.176	-0.319	0.142
-287.589	800.000	-0.104	-0.333
-286.574	40.731	0.115	-0.102
-285.559	57.535	0.046	0.045
-284.545	800.000	-0.019	0.057
-283.530	147.581	-0.222	0.295
-282.516	412.168	0.080	0.169
-281.501	-89.718	0.282	0.082
-280.486	123.435	-0.254	0.315
-279.472	-200.000	-0.003	0.262
-278.457	172.032	-0.213	0.302
-277.443	-200.000	-0.011	-0.090
-276.428	290.150	0.071	-0.127
-275.413	19.680	0.019	-0.015
-274.399	90.594	0.102	-0.112
-273.384	127.073	0.201	0.252
-272.370	-11.226	0.303	-0.197
-271.355	383.929	-0.124	0.253
-270.340	79.922	-0.265	-0.281
-269.326	800.000	-0.042	-0.117
-268.311	-106.614	-0.359	0.079
-267.297	-200.000	0.064	0.374
-266.282	800.000	0.026	-0.095
-265.267	446.788	0.107	0.232
-264.253	-59.858	-0.261	0.110
-263.238	202.303	0.083	-0.126
-262.224	-200.000	-0.005	-0.405
-261.209	-87.946	0.158	-0.047
-260.195	15.863	0.260	-0.202
-259.180	-200.000	-0.012	-0.074
-258.165	-59.876	0.347	0.146
-257.151	163.553	0.187	0.259
-256.136	-76.022	-0.408	-0.142
-255.122	-68.463	0.214	-0.082
-254.107	142.304	0.231	-0.302
-253.092	-159.172	-0.263	0.015
-252.078	-200.000	0.038	-0.336
-251.063	83.013	0.102	-0.110
-250.049	-26.737	-0.056	0.032
-249.034	-69.513	0.276	0.104
-248.019	-193.984	0.440	-0.004
-247.005	-200.000	-0.016	-0.188
-245.990	-4.222	0.343	-0.234
-244.976	-200.000	0.010	-0.156
-243.961	-200.000	-0.091	0.444
-242.946	-99.234	-0.176	-0.044
-241.932	-200.000	0.006	-0.216
-240.917	-200.000	0.012	0.290
-239.903	-57.472	0.136	-0.059
-238.888	-4.034	-0.264	0.180
-237.873	86.745	0.099	0.108
-236.859	154.680	0.115	-0.156
-235.844	70.041	-0.247	0.252
-234.830	359.679	0.048	0.096
-233.815	-76.273	0.100	0.035
-232.800	-86.682	0.397	-0.120
-231.786	-200.000	0.000	0.174
-230.771	800.000	0.052	-0.203
-229.757	-134.654	-0.175	0.021
-228.742	-200.000	-0.021	0.196
-227.727	208.587	-0.220	0.339
-226.713	96.119	0.040	-0.045
-225.698	103.703	0.143	0.165
-224.684	-53.124	-0.418	-0.189
-223.669	57.534	0.351	0.338
-222.655	70.562	0.306	0.312
-221.640	16.347	0.171	-0.133
-220.625	156.275	0.128	0.174
-219.611	-200.000	0.015	0.136
-218.596	-200.000	-0.009	-0.055
-217.582	424.299	0.164	-0.348
-216.567	800.000	0.056	0.208
-215.552	69.212	0.147	0.149
-214.538	-56.835	0.095	-0.042
-213.523	91.261	-0.185	0.205
-212.509	158.752	-0.114	-0.156
-211.494	84.358	-0.114	-0.123
-210.479	-200.000	0.063	0.309
-209.465	-200.000	0.017	0.083
-208.450	101.923	0.292	0.336
-207.436	-1.835	0.336	0.233
-206.421	-200.000	0.009	0.120
-205.406	-200.000	-0.027	-0.150
-204.392	-77.357	0.194	-0.066
-203.377	-124.467	-0.123	0.019
-202.363	-128.747	0.149	0.021
-201.348	-98.032	0.164	0.042
-200.333	-105.873	0.228	-0.051
-199.319	800.000	-0.187	0.545
-198.304	-87.060	-0.182	0.054
-197.290	11.695	0.327	-0.247
-196.275	-54.267	0.194	-0.087
-195.260	800.000	-0.040	-0.126
-194.246	672.931	-0.137	-0.350
-193.231	-200.000	-0.011	-0.113
-192.217	62.416	0.137	0.134
-191.202	-200.000	0.003	-0.060
-190.187	800.000	-0.041	-0.142
-189.173	-200.000	0.068	-0.375
-188.158	-200.000	-0.015	-0.079
-187.144	156.650	-0.144	-0.195
-186.129	-200.000	0.015	-0.069
-185.114	800.000	-0.034	-0.093
-184.100	-115.498	-0.515	-0.095
-183.085	47.434	-0.178	-0.163
-182.071	-55.079	0.314	-0.139
-181.056	-200.000	0.000	-0.055
-180.042	74.890	-0.070	0.072
-179.027	-59.369	-0.361	0.153
-178.012	-71.054	0.308	-0.114
-176.998	-121.785	0.061	-0.010
-175.983	-52.281	-0.197	-0.090
-174.969	-33.390	0.229	0.125
-173.954	-200.000	-0.018	-0.169
-172.939	48.041	-0.099	-0.091
-171.925	-178.312	0.461	0.011
-170.910	9.796	-0.282	-0.210
-169.896	143.827	-0.191	0.251
-168.881	-200.000	-0.018	-0.129
-167.866	-200.000	0.007	-0.064
-166.852	-26.211	-0.318	-0.184
-165.837	40.924	-0.155	-0.138
-164.823	218.239	0.203	-0.319
-163.808	-139.587	-0.199	-0.021
-162.793	385.107	-0.083	0.167
-161.779	-120.349	0.173	0.029
-160.764	-200.000	0.060	-0.335
-159.750	-137.001	0.352	-0.040
-158.735	301.346	-0.108	-0.195
-157.720	42.291	-0.144	-0.129
-156.706	731.648	0.119	-0.313
-155.691	-66.985	-0.337	-0.131
-154.677	-200.000	0.126	0.599
-153.662	362.438	0.064	-0.127
-152.647	62.451	0.022	-0.021
-151.633	3.920	-0.141	-0.101
-150.618	87.968	-0.244	0.266
-149.604	800.000	-0.093	0.274
-148.589	-85.617	0.055	-0.017
-147.574	-135.432	0.350	-0.041
-146.560	800.000	-0.060	-0.201
-145.545	-71.665	0.314	-0.115
-144.531	154.694	0.182	-0.246
-143.516	627.700	-0.056	0.138
-142.502	790.005	0.094	-0.253
-141.487	-200.000	-0.018	-0.239
-140.472	73.177	0.256	-0.263
-139.458	-200.000	0.004	0.285
-138.443	-142.022	-0.263	-0.026
-137.429	279.065	-0.276	0.483
-136.414	359.720	0.135	-0.266
-135.399	-200.000	-0.017	-0.127
-134.385	-200.000	-0.069	0.307
-133.370	800.000	-0.053	0.162
-132.356	-41.249	0.102	0.051
-131.341	800.000	-0.030	0.115
-130.326	-200.000	-0.046	-0.379
-129.312	139.596	-0.116	-0.150
-128.297	800.000	0.067	0.254
-127.283	278.669	-0.175	0.306
-126.268	-96.730	-0.213	-0.055
-125.253	-114.057	-0.310	0.059
-124.239	-189.168	0.334	-0.004
-123.224	-184.176	0.124	-0.002
-122.210	308.268	-0.111	0.204
-121.195	276.166	0.195	0.340
