DTS Sentinel unit serial number:	SN413079Multiplexer serial number:	ORYXHardware model number:	OX4-SRSoftware version number:	ORYX F/W v4.00 Oryx Data Collector v3.7.2.0data status	okinstallation	princeton_trtdifferential loss correction	single-endedforward channel	channel 1reverse channel	N/Adate	2019/09/15time	11:14:35forward acquisition time	60.00reverse acquisition time	0.00gamma	496.2192k internal	0.2308k external	0.2308temperature offset calibration	0.9992default loss term (dB/km)	0.3790temperature slope calibration	1.0000multiplexer offset coefficient	1.0000multiplexer slope coefficient	1.0000fibre end	0.00T internal ref (°C)	34.30T ext. ref 1 (°C)	5.03T ext. ref 2 (°C)	29.71length (m)	temperature (°C)	Stokes	anti-Stokes-747.200	-21.559	-0.263	-0.163
-746.185	119.573	-0.129	0.162
-745.171	800.000	0.084	-0.262
-744.156	124.396	-0.174	0.223
-743.142	34.930	0.153	0.136
-742.127	-179.988	-0.281	-0.006
-741.112	800.000	0.159	-0.482
-740.098	-80.960	-0.185	0.062
-739.083	13.572	-0.007	0.005
-738.069	-81.237	0.113	-0.038
-737.054	-55.381	0.145	0.066
-736.039	48.322	-0.229	-0.218
-735.025	-1.180	-0.028	0.020
-734.010	800.000	-0.076	-0.334
-732.996	-17.384	0.212	-0.136
-731.981	1.128	-0.174	-0.127
-730.966	-81.724	0.277	-0.092
-729.952	-200.000	-0.008	-0.067
-728.937	-47.059	-0.150	0.074
-727.923	-19.282	-0.111	-0.070
-726.908	-162.953	0.109	-0.005
-725.894	800.000	-0.090	-0.322
-724.879	-200.000	0.029	0.332
-723.864	-189.335	-0.136	-0.002
-722.850	-15.822	-0.115	0.075
-721.835	55.110	0.112	-0.110
-720.821	243.471	-0.054	-0.092
-719.806	-74.913	-0.193	0.070
-718.791	1.162	-0.416	-0.303
-717.777	409.981	0.047	-0.101
-716.762	25.803	0.050	-0.042
-715.748	-200.000	0.023	-0.292
-714.733	-85.230	-0.150	0.048
-713.718	-7.067	-0.123	0.085
-712.704	-94.443	-0.241	0.067
-711.689	-19.072	0.300	0.189
-710.675	-76.640	0.166	0.059
-709.660	364.838	-0.060	-0.124
-708.645	-61.323	-0.164	0.070
-707.631	-31.314	-0.327	-0.187
-706.616	-200.000	-0.008	0.244
-705.602	800.000	0.107	-0.322
-704.587	69.347	-0.196	0.205
-703.572	-200.000	0.042	0.250
-702.558	2.382	0.209	-0.153
-701.543	11.242	0.094	0.073
-700.529	-137.217	0.212	0.025
-699.514	52.622	0.130	0.126
-698.499	-73.685	-0.364	0.134
-697.485	311.812	0.232	-0.442
-696.470	800.000	-0.073	-0.235
-695.456	-200.000	-0.005	0.105
-694.441	-200.000	0.008	-0.236
-693.426	59.805	0.106	-0.106
-692.412	-117.079	-0.442	0.082
-691.397	800.000	-0.018	-0.063
-690.383	597.131	0.031	-0.078
-689.368	11.955	-0.108	-0.084
-688.354	-144.722	0.296	-0.028
-687.339	773.304	0.144	0.398
-686.324	-34.577	-0.138	-0.077
-685.310	-100.929	-0.258	0.064
-684.295	230.774	-0.144	0.240
-683.281	-41.466	-0.214	0.112
-682.266	-200.000	-0.041	-0.303
-681.251	800.000	0.016	0.064
-680.237	-81.780	0.123	-0.041
-679.222	800.000	0.041	-0.117
-678.208	68.797	0.063	-0.066
-677.193	-25.846	-0.095	-0.056
-676.178	-200.000	0.004	0.200
-675.164	-93.697	0.081	-0.023
-674.149	-200.000	-0.024	0.206
-673.135	-104.128	0.172	0.041
-672.120	-200.000	0.057	-0.296
-671.105	86.691	-0.188	0.210
-670.091	-109.773	0.205	0.044
-669.076	54.331	0.172	0.168
-668.062	-200.000	0.005	0.298
-667.047	-20.217	0.165	-0.103
-666.032	-40.056	-0.319	0.168
-665.018	-200.000	-0.008	0.151
-664.003	-37.701	-0.127	0.068
-662.989	-74.389	-0.435	-0.159
-661.974	-171.221	-0.074	-0.003
-660.959	174.794	-0.076	0.111
-659.945	97.431	-0.092	-0.108
-658.930	302.342	-0.153	0.286
-657.916	-200.000	0.031	-0.160
-656.901	-151.261	0.184	-0.014
-655.886	-105.303	0.106	-0.024
-654.872	-101.404	-0.193	-0.048
-653.857	-63.872	-0.176	-0.073
-652.843	-176.530	-0.307	-0.008
-651.828	-200.000	-0.025	0.210
-650.814	-200.000	0.012	-0.093
-649.799	-123.832	-0.138	0.022
-648.784	-143.289	0.209	0.020
-647.770	32.212	0.083	-0.073
-646.755	118.042	-0.144	-0.179
-645.741	-121.582	-0.100	0.017
-644.726	-70.885	0.045	-0.017
-643.711	800.000	0.055	0.171
-642.697	137.834	0.118	0.156
-641.682	-150.024	0.181	0.014
-640.668	-117.628	-0.117	0.021
-639.653	363.269	-0.116	-0.235
-638.638	800.000	0.055	-0.219
-637.624	78.324	0.160	-0.173
-636.609	-8.159	-0.143	-0.097
-635.595	489.345	0.031	0.072
-634.580	-200.000	0.023	-0.256
-633.565	-200.000	0.062	-0.372
-632.551	264.497	-0.221	0.390
-631.536	-62.124	-0.276	-0.116
-630.522	29.912	0.201	-0.173
-629.507	-18.439	0.184	0.116
-628.492	-8.201	-0.180	-0.123
-627.478	-34.957	-0.191	-0.105
-626.463	-119.768	-0.158	-0.027
-625.449	2.745	0.188	0.138
-624.434	-25.663	-0.221	-0.132
-623.419	-65.767	0.124	0.050
-622.405	-59.408	-0.242	0.105
-621.390	-168.351	0.198	0.008
-620.376	800.000	-0.059	-0.196
-619.361	131.622	0.241	-0.313
-618.346	178.231	-0.127	0.187
-617.332	100.787	-0.185	-0.218
-616.317	287.687	0.063	0.114
-615.303	306.708	-0.139	-0.263
-614.288	-46.614	0.171	0.085
-613.273	-21.743	-0.157	0.097
-612.259	626.913	-0.117	0.297
-611.244	-107.646	-0.206	0.045
-610.230	141.014	0.203	-0.272
-609.215	101.491	-0.104	0.122
-608.201	-111.290	0.258	-0.053
-607.186	268.256	0.148	0.262
-606.171	121.016	-0.242	-0.305
-605.157	-34.970	-0.219	-0.121
-604.142	17.699	0.127	0.103
-603.128	66.297	0.212	-0.218
-602.113	-200.000	-0.009	-0.079
-601.098	271.578	0.008	0.014
-600.084	-121.549	0.116	0.019
-599.069	-95.197	0.048	0.013
-598.055	-100.724	-0.140	-0.035
-597.040	321.776	-0.026	0.051
-596.025	-200.000	0.052	-0.402
-595.011	193.263	-0.240	-0.367
-593.996	601.020	0.033	-0.083
-592.982	-0.758	0.186	-0.133
-591.967	86.888	-0.167	0.186
-590.952	800.000	-0.181	-0.536
-589.938	-26.838	-0.245	0.144
-588.923	49.941	0.082	0.078
-587.909	103.861	0.087	-0.103
-586.894	-118.295	0.276	0.050
-585.879	348.407	-0.100	0.200
-584.865	-59.297	0.099	0.043
-583.850	-200.000	-0.052	0.287
-582.836	800.000	-0.052	-0.228
-581.821	-6.059	-0.197	0.136
-580.806	505.090	-0.033	0.076
-579.792	-46.856	0.146	-0.072
-578.777	-200.000	0.247	0.001
-577.763	-83.632	0.181	0.058
-576.748	-83.995	0.055	-0.018
-575.733	-76.234	0.366	-0.130
-574.719	-200.000	0.025	-0.197
-573.704	176.178	0.041	-0.061
-572.690	-184.888	0.176	0.003
-571.675	382.207	-0.019	-0.040
-570.661	-49.231	-0.204	0.098
-569.646	168.874	0.086	-0.124
-568.631	193.666	0.155	0.237
-567.617	-200.000	-0.034	0.325
-566.602	28.036	-0.295	-0.251
-565.588	49.688	-0.204	0.194
-564.573	269.055	0.061	0.108
-563.558	-200.000	0.019	0.103
-562.544	-200.000	0.022	-0.200
-561.529	-86.759	0.130	0.040
-560.515	-170.261	0.063	-0.002
-559.500	172.450	0.066	0.096
-558.485	-77.253	-0.049	0.017
-557.471	800.000	0.090	0.362
-556.456	633.852	-0.128	-0.328
-555.442	11.030	0.264	-0.203
-554.427	-30.100	-0.248	-0.142
-553.412	74.439	-0.257	0.273
-552.398	-200.000	-0.001	-0.037
-551.383	125.298	0.213	-0.271
-550.369	-75.162	0.109	0.039
-549.354	85.666	-0.053	-0.059
-548.339	-200.000	-0.045	-0.245
-547.325	-200.000	-0.013	0.097
-546.310	94.081	-0.145	0.166
-545.296	16.093	-0.230	0.183
-544.281	-143.889	-0.199	-0.019
-543.266	-142.545	-0.066	0.007
-542.252	800.000	-0.007	-0.029
-541.237	-91.381	-0.153	0.044
-540.223	82.079	-0.044	0.048
-539.208	-200.000	-0.003	-0.281
-538.193	390.554	-0.109	0.228
-537.179	-61.467	-0.269	0.114
-536.164	-19.006	0.118	0.074
-535.150	-200.000	0.018	-0.110
-534.135	-200.000	-0.024	0.130
-533.121	-114.024	-0.208	-0.041
-532.106	-200.000	-0.000	0.120
-531.091	735.435	-0.050	0.134
-530.077	-200.000	-0.031	0.316
-529.062	54.226	-0.364	0.353
-528.048	67.653	0.056	0.057
-527.033	0.945	0.271	0.196
-526.018	127.445	-0.123	-0.157
-525.004	51.219	-0.376	-0.359
-523.989	-38.671	0.153	0.082
-522.975	-59.105	-0.027	0.012
-521.960	-112.867	-0.328	-0.066
-520.945	-24.654	0.182	0.109
-519.931	-20.571	0.310	-0.192
-518.916	-104.620	-0.306	-0.071
-517.902	385.922	-0.109	0.227
-516.887	-200.000	0.064	0.317
-515.872	294.894	0.076	0.140
-514.858	73.152	0.128	-0.135
-513.843	-200.000	-0.010	-0.146
-512.829	-153.774	-0.269	-0.019
-511.814	800.000	-0.044	-0.165
-510.799	-106.543	0.252	0.057
-509.785	-200.000	0.034	-0.163
-508.770	800.000	-0.144	-0.410
-507.756	24.863	-0.099	-0.083
-506.741	-135.915	-0.197	0.023
-505.726	-87.378	0.281	-0.086
-504.712	85.101	-0.185	-0.204
-503.697	-129.792	0.210	0.029
-502.683	-200.000	0.028	-0.375
-501.668	-164.085	0.290	0.014
-500.653	14.190	0.381	-0.299
-499.639	4.463	-0.253	-0.187
-498.624	778.186	0.028	0.077
-497.610	448.346	0.068	-0.151
-496.595	800.000	0.007	0.024
-495.581	-61.644	0.420	0.177
-494.566	-200.000	0.030	0.134
-493.551	-74.695	-0.171	0.062
-492.537	800.000	-0.060	-0.181
-491.522	339.352	0.133	-0.262
-490.508	-191.442	0.321	-0.003
-489.493	33.716	0.195	0.171
-488.478	-65.396	0.108	-0.044
-487.464	143.633	0.089	-0.119
-486.449	442.265	-0.021	-0.046
-485.435	296.533	0.052	-0.096
-484.420	481.953	0.062	0.142
-483.405	276.131	-0.158	0.282
-482.391	81.678	-0.077	-0.083
-481.376	-200.000	0.090	0.489
-480.362	581.400	-0.095	0.233
-479.347	-46.117	-0.167	-0.083
-478.332	-200.000	0.004	-0.283
-477.318	-156.621	0.121	0.008
-476.303	437.264	0.059	0.129
-475.289	-161.167	-0.167	-0.009
-474.274	800.000	0.068	0.268
-473.259	-200.000	-0.004	0.233
-472.245	-194.223	0.108	-0.001
-471.230	91.740	0.235	-0.266
-470.216	752.614	-0.071	-0.194
-469.201	239.997	0.102	0.171
-468.186	-22.868	-0.201	0.122
-467.172	51.446	-0.283	-0.271
-466.157	215.057	0.066	-0.106
-465.143	128.013	-0.130	-0.166
-464.128	-119.831	0.318	0.055
-463.113	8.370	-0.053	-0.040
-462.099	169.068	-0.096	0.138
-461.084	-72.977	0.174	-0.064
-460.070	-200.000	0.026	-0.153
-459.055	-200.000	-0.024	-0.176
-458.040	-118.128	0.096	0.017
-457.026	40.776	-0.263	-0.238
-456.011	-85.573	0.007	0.002
-454.997	-168.238	-0.149	0.006
-453.982	143.762	0.100	-0.134
-452.968	127.976	0.159	-0.204
-451.953	248.220	0.080	0.135
-450.938	-24.180	-0.265	-0.159
-449.924	260.676	0.063	-0.110
-448.909	-81.450	0.097	0.032
-447.895	-200.000	0.005	-0.151
-446.880	161.055	0.111	-0.156
-445.865	48.482	-0.149	-0.141
-444.851	-115.358	-0.191	0.036
-443.836	800.000	0.111	0.398
-442.822	-74.125	-0.345	-0.125
-441.807	-47.504	-0.220	0.107
-440.792	-40.482	0.251	0.131
-439.778	-69.450	-0.127	-0.049
-438.763	110.034	-0.160	-0.193
-437.749	-111.724	0.198	0.040
-436.734	-167.935	-0.091	-0.004
-435.719	-200.000	0.001	0.195
-434.705	338.235	-0.074	0.144
-433.690	4.632	-0.266	-0.196
-432.676	-200.000	-0.015	-0.204
-431.661	-200.000	-0.031	0.190
-430.646	202.805	0.108	0.168
-429.632	186.270	-0.091	-0.136
-428.617	-98.139	-0.140	-0.036
-427.603	-90.788	0.168	-0.049
-426.588	8.553	0.367	0.277
-425.573	-88.963	0.064	0.019
-424.559	-79.425	0.052	-0.018
-423.544	103.698	0.168	-0.198
-422.530	573.045	0.113	0.277
-421.515	-39.961	-0.319	-0.167
-420.500	800.000	-0.034	0.127
-419.486	-64.393	0.231	-0.094
-418.471	-7.110	-0.181	-0.123
-417.457	486.633	-0.011	0.025
-416.442	-83.967	0.216	-0.069
-415.428	14.560	0.159	0.125
-414.413	531.505	0.077	-0.183
-413.398	37.197	-0.171	-0.152
-412.384	54.204	0.184	-0.178
-411.369	381.717	-0.070	0.145
-410.355	612.449	0.082	-0.205
-409.340	216.594	0.107	-0.171
-408.325	-200.000	-0.007	0.219
-407.311	158.758	-0.156	0.218
-406.296	616.435	-0.120	0.303
-405.282	-200.000	0.017	-0.196
-404.267	25.832	0.270	-0.225
-403.252	-200.000	0.077	0.000
-402.238	143.162	-0.119	0.159
-401.223	-15.304	0.056	0.036
-400.209	727.213	0.097	-0.259
-399.194	-76.783	0.362	-0.127
-398.179	-109.389	-0.158	0.034
-397.165	55.383	-0.100	0.097
-396.150	-200.000	-0.033	-0.312
-395.136	-109.684	0.134	-0.028
-394.121	-200.000	0.049	0.252
-393.106	-4.739	0.343	0.237
-392.092	-5.423	-0.229	-0.158
-391.077	-158.956	-0.078	-0.004
-390.063	231.615	0.109	0.180
-389.048	31.731	-0.290	0.250
-388.033	605.470	0.065	-0.162
-387.019	-119.427	0.270	-0.047
-386.004	307.543	-0.104	0.194
-384.990	-200.000	0.017	0.090
-383.975	139.727	0.201	-0.265
-382.960	-43.209	0.519	0.263
-381.946	-39.800	0.233	-0.122
-380.931	-93.846	-0.363	-0.100
-379.917	-122.757	-0.250	0.041
-378.902	17.929	-0.029	-0.023
-377.888	-31.641	0.121	-0.068
-376.873	56.881	-0.213	0.208
-375.858	211.235	0.060	0.095
-374.844	560.709	-0.145	0.351
-373.829	-6.728	-0.128	-0.087
-372.815	368.984	0.134	0.271
-371.800	-90.663	0.271	0.078
-370.785	598.587	-0.069	0.171
-369.771	-200.000	0.008	0.113
-368.756	-200.000	0.037	-0.227
-367.742	-147.660	0.078	-0.007
-366.727	-33.473	0.366	0.203
-365.712	800.000	0.056	0.204
-364.698	53.753	0.120	0.115
-363.683	-82.909	0.108	0.035
-362.669	-4.413	0.151	0.104
-361.654	37.521	0.163	-0.145
-360.639	-200.000	0.050	0.262
-359.625	42.002	0.141	0.128
-358.610	-99.470	-0.149	0.038
-357.596	-29.801	-0.168	0.096
-356.581	627.209	0.107	0.270
-355.566	800.000	-0.132	0.469
-354.552	62.245	0.151	-0.151
-353.537	-200.000	0.027	0.378
-352.523	574.989	-0.076	0.185
-351.508	-200.000	0.039	-0.173
-350.493	-88.132	0.122	-0.037
-349.479	-41.432	-0.194	-0.100
-348.464	800.000	0.049	-0.150
-347.450	-101.363	-0.129	0.031
-346.435	-200.000	0.007	-0.036
-345.420	-57.906	0.198	0.086
-344.406	370.546	0.007	0.013
-343.391	800.000	0.033	-0.111
-342.377	350.690	0.077	-0.153
-341.362	-73.634	-0.059	0.022
-340.348	223.822	0.052	-0.083
-339.333	-117.852	-0.166	-0.030
-338.318	-54.794	0.102	-0.046
-337.304	-200.000	0.047	-0.259
-336.289	-114.580	0.230	0.044
-335.275	756.991	-0.074	0.201
-334.260	800.000	0.010	-0.039
-333.245	800.000	-0.061	0.209
-332.231	-200.000	-0.034	-0.238
-331.216	325.056	-0.111	-0.211
-330.202	-82.019	0.149	0.049
-329.187	-32.842	-0.130	0.072
-328.172	-200.000	0.004	0.065
-327.158	-200.000	0.063	-0.277
-326.143	800.000	-0.034	0.110
-325.129	-200.000	-0.023	0.259
-324.114	-32.248	0.104	0.058
-323.099	391.289	-0.083	0.172
-322.085	-200.000	-0.027	-0.318
-321.070	-200.000	0.005	0.113
-320.056	-54.299	0.280	-0.127
-319.041	31.100	-0.118	-0.101
-318.026	-46.880	0.138	0.067
-317.012	-56.627	0.478	0.212
-315.997	-140.725	-0.259	-0.027
-314.983	-200.000	0.040	0.323
-313.968	85.630	-0.274	0.301
-312.953	118.687	-0.081	-0.100
-311.939	-17.142	-0.355	0.224
-310.924	6.783	-0.210	0.156
-309.910	-128.946	-0.256	-0.036
-308.895	800.000	-0.070	0.214
-307.880	51.303	-0.067	0.063
-306.866	100.050	-0.092	0.106
-305.851	-97.888	0.038	0.010
-304.837	-15.878	0.206	-0.131
-303.822	2.519	-0.226	0.163
-302.807	-129.013	-0.280	-0.039
-301.793	19.561	0.329	-0.264
-300.778	800.000	-0.030	0.106
-299.764	459.149	-0.093	0.207
-298.749	-111.843	-0.309	-0.062
-297.735	-93.819	-0.478	-0.131
-296.720	-34.315	-0.114	-0.063
-295.705	-22.369	-0.161	-0.097
-294.691	-43.046	0.165	-0.084
-293.676	53.797	-0.157	0.151
-292.662	-37.881	0.225	0.120
-291.647	199.400	-0.028	0.043
-290.632	-68.462	0.163	0.063
-289.618	800.000	0.068	-0.191
-288.603	-77.293	0.076	-0.026
-287.589	-89.678	-0.105	-0.031
-286.574	-200.000	-0.000	0.010
-285.559	99.907	0.183	0.212
-284.545	800.000	0.061	0.196
-283.530	52.249	-0.146	-0.139
-282.516	800.000	-0.077	0.251
-281.501	576.617	0.041	0.100
-280.486	500.808	0.058	-0.135
-279.472	-200.000	-0.007	-0.051
-278.457	-62.743	-0.246	0.102
-277.443	-200.000	0.032	-0.146
-276.428	-95.805	-0.504	0.134
-275.413	139.928	-0.179	-0.236
-274.399	-4.402	0.260	-0.179
-273.384	800.000	0.064	0.255
-272.370	62.789	0.241	0.241
-271.355	800.000	0.065	0.246
-270.340	-41.752	-0.352	0.180
-269.326	-200.000	-0.021	-0.115
-268.311	800.000	0.089	0.287
-267.297	49.176	-0.170	0.159
-266.282	248.160	-0.136	0.230
-265.267	-80.567	0.253	-0.084
-264.253	611.620	0.012	0.029
-263.238	-200.000	-0.017	-0.174
-262.224	133.826	0.101	-0.131
-261.209	633.964	-0.055	0.138
-260.195	-3.276	-0.351	0.244
-259.180	-200.000	-0.019	0.302
-258.165	-38.722	-0.104	-0.055
-257.151	-200.000	-0.242	-0.000
-256.136	-200.000	0.027	0.190
-255.122	-6.574	-0.129	0.088
-254.107	73.018	-0.055	0.058
-253.092	-43.128	0.212	-0.107
-252.078	-23.662	-0.073	0.043
-251.063	-11.312	-0.372	0.244
-250.049	-200.000	-0.039	0.241
-249.034	86.414	0.062	-0.068
-248.019	176.427	-0.240	-0.348
-247.005	-80.536	0.137	-0.046
-245.990	511.876	0.172	-0.400
-244.976	-37.938	-0.225	0.119
-243.961	-63.201	-0.296	0.122
-242.946	-32.892	0.331	0.183
-241.932	-200.000	-0.010	0.166
-240.917	-44.359	-0.193	0.096
-239.903	-10.706	0.118	0.078
-238.888	-200.000	0.008	-0.085
-237.873	-115.276	-0.102	0.019
-236.859	25.817	-0.183	0.152
-235.844	800.000	0.139	0.493
-234.830	201.169	0.111	-0.170
-233.815	14.550	0.184	-0.143
-232.800	-200.000	0.020	0.098
-231.786	-36.276	-0.135	-0.073
-230.771	354.012	0.125	0.247
-229.757	-21.329	0.082	0.050
-228.742	-49.786	0.256	-0.121
-227.727	-200.000	0.016	0.206
-226.713	-200.000	0.012	-0.412
-225.698	42.938	-0.271	0.246
-224.684	800.000	-0.065	-0.241
-223.669	180.775	-0.037	-0.054
-222.655	69.167	0.179	-0.183
-221.640	800.000	0.040	-0.160
-220.625	-116.831	0.117	-0.021
-219.611	-200.000	-0.002	-0.329
-218.596	538.480	-0.063	0.148
-217.582	-109.321	0.125	-0.026
-216.567	-115.507	-0.074	-0.014
-215.552	3.030	0.112	0.081
-214.538	-200.000	-0.063	-0.530
-213.523	-29.349	-0.120	-0.068
-212.509	296.113	-0.100	-0.183
-211.494	-112.833	0.145	-0.029
-210.479	-38.335	0.148	0.078
-209.465	800.000	0.077	0.274
-208.450	-200.000	-0.012	-0.127
-207.436	-87.257	0.130	-0.039
-206.421	-33.862	-0.217	0.119
-205.406	66.355	-0.234	0.236
-204.392	-3.359	-0.121	-0.084
-203.377	-87.143	0.208	-0.063
-202.363	-200.000	-0.032	0.490
-201.348	49.434	-0.087	-0.081
-200.333	664.517	0.084	-0.216
-199.319	-165.447	-0.284	-0.012
-198.304	-119.289	0.291	0.051
-197.290	55.004	-0.130	-0.125
-196.275	-200.000	-0.093	-0.484
-195.260	-50.075	0.153	0.072
-194.246	586.544	-0.046	0.113
-193.231	253.476	0.111	-0.189
-192.217	-200.000	0.236	0.001
-191.202	153.441	0.145	-0.198
-190.187	221.713	0.095	0.152
-189.173	51.475	0.205	0.194
-188.158	364.986	-0.042	-0.084
-187.144	-24.615	-0.169	-0.100
-186.129	-106.531	0.074	-0.016
-185.114	-97.646	0.159	-0.041
-184.100	369.836	0.076	-0.152
-183.085	119.349	-0.208	0.256
-182.071	800.000	0.067	-0.221
-181.056	226.344	-0.185	0.298
-180.042	139.009	0.069	-0.090
-179.027	45.634	0.146	0.134
-178.012	-4.267	0.326	-0.224
-176.998	368.716	0.063	-0.127
-175.983	282.895	0.122	-0.218
-174.969	618.050	-0.049	0.121
-173.954	51.514	-0.049	-0.046
-172.939	-200.000	-0.026	0.218
-171.925	176.601	0.032	-0.046
-170.910	107.589	0.123	-0.145
-169.896	-103.654	-0.172	-0.040
-168.881	800.000	0.025	-0.090
-167.866	-200.000	-0.030	0.140
-166.852	800.000	0.072	-0.230
-165.837	466.678	0.108	-0.241
-164.823	426.893	-0.025	-0.055
-163.808	-64.914	-0.315	0.126
-162.793	-59.203	0.290	-0.124
-161.779	321.193	-0.101	-0.191
-160.764	158.802	0.195	-0.269
-159.750	5.479	0.116	0.085
-158.735	-1.589	-0.092	0.064
-157.720	82.176	-0.115	0.124
-156.706	168.840	0.079	0.111
-155.691	-200.000	-0.223	-0.000
-154.677	-19.372	-0.152	-0.093
-153.662	-150.219	0.251	0.019
-152.647	17.740	0.036	-0.028
-151.633	307.980	0.064	-0.119
-150.618	680.756	0.202	0.523
-149.604	159.507	-0.078	0.107
-148.589	-127.938	-0.150	-0.021
-147.574	178.148	0.046	-0.067
-146.560	133.781	-0.233	-0.300
-145.545	800.000	0.043	-0.145
-144.531	-200.000	-0.046	0.276
-143.516	3.285	-0.168	0.121
-142.502	299.131	0.081	0.148
-141.487	-81.112	0.048	0.016
-140.472	-9.796	0.189	0.125
-139.458	-108.848	-0.108	-0.023
-138.443	168.438	-0.077	-0.110
-137.429	-200.000	-0.024	-0.121
-136.414	-200.000	-0.010	0.155
-135.399	28.322	0.162	0.136
-134.385	151.241	0.042	0.057
-133.370	120.984	0.077	0.095
-132.356	-78.654	-0.239	-0.081
-131.341	378.785	0.082	0.166
-130.326	-47.454	-0.599	-0.289
-129.312	661.066	0.107	0.275
-128.297	-200.000	-0.040	0.229
-127.283	-200.000	-0.023	0.172
-126.268	-6.243	0.223	0.151
-125.253	30.011	0.132	0.112
-124.239	7.497	0.210	-0.156
-123.224	35.155	-0.200	0.174
-122.210	-200.000	0.046	-0.291
-121.195	-47.275	0.211	0.102
-120.180	45.241	-0.278	0.254
