DTS Sentinel unit serial number:	SN413079Multiplexer serial number:	ORYXHardware model number:	OX4-SRSoftware version number:	ORYX F/W v4.00 Oryx Data Collector v3.7.2.0data status	okinstallation	princeton_trtdifferential loss correction	single-endedforward channel	channel 1reverse channel	N/Adate	2019/09/19time	04:34:35forward acquisition time	60.00reverse acquisition time	0.00gamma	496.2192k internal	0.2342k external	0.2342temperature offset calibration	1.0023default loss term (dB/km)	0.3790temperature slope calibration	1.0000multiplexer offset coefficient	1.0000multiplexer slope coefficient	1.0000fibre end	0.00T internal ref (°C)	20.06T ext. ref 1 (°C)	0.62T ext. ref 2 (°C)	13.12length (m)	temperature (°C)	Stokes	anti-Stokes-747.200	33.518	-0.370	0.322
-746.185	-200.000	0.019	0.239
-745.171	-104.697	0.175	0.040
-744.156	-81.649	0.122	-0.040
-743.142	209.509	0.096	0.151
-742.127	217.562	-0.061	-0.098
-741.112	-61.227	-0.257	-0.109
-740.098	179.264	0.047	0.069
-739.083	-124.053	0.179	0.028
-738.069	-113.305	-0.260	0.051
-737.054	26.392	0.141	0.118
-736.039	13.255	-0.180	-0.140
-735.025	745.020	-0.086	0.232
-734.010	181.491	0.107	0.158
-732.996	-200.000	0.024	-0.278
-731.981	-200.000	-0.022	-0.172
-730.966	342.699	-0.080	0.157
-729.952	-13.879	0.268	-0.173
-728.937	-101.515	0.158	0.038
-727.923	203.674	-0.226	-0.350
-726.908	210.273	-0.402	-0.632
-725.894	266.384	-0.151	-0.264
-724.879	33.640	-0.196	-0.171
-723.864	162.183	-0.174	-0.244
-722.850	109.335	0.124	-0.148
-721.835	-21.496	0.140	0.085
-720.821	610.291	-0.110	-0.275
-719.806	-107.080	-0.098	-0.022
-718.791	-1.765	-0.166	0.117
-717.777	296.971	-0.068	-0.125
-716.762	34.352	0.231	-0.202
-715.748	-101.745	0.140	0.034
-714.733	48.955	-0.109	0.102
-713.718	-200.000	0.006	0.417
-712.704	99.489	0.279	-0.323
-711.689	-200.000	-0.021	0.161
-710.675	-200.000	0.009	-0.130
-709.660	-44.247	-0.136	0.068
-708.645	-50.535	-0.122	-0.058
-707.631	34.419	0.150	0.131
-706.616	-91.037	-0.459	0.132
-705.602	-178.016	0.307	-0.007
-704.587	125.150	-0.113	-0.142
-703.572	-10.542	0.146	0.096
-702.558	504.148	0.119	-0.275
-701.543	766.454	-0.033	-0.090
-700.529	116.352	-0.028	0.034
-699.514	100.668	0.123	0.143
-698.499	-78.141	-0.165	-0.057
-697.485	110.467	0.171	-0.206
-696.470	-200.000	-0.032	-0.427
-695.456	800.000	-0.073	-0.264
-694.441	-4.792	-0.117	-0.081
-693.426	800.000	-0.010	0.035
-692.412	-62.335	0.220	0.091
-691.397	479.954	0.110	-0.250
-690.383	-164.131	-0.141	-0.007
-689.368	-22.873	-0.086	0.052
-688.354	800.000	-0.091	0.322
-687.339	205.481	-0.166	-0.257
-686.324	6.057	-0.153	0.113
-685.310	800.000	0.099	-0.403
-684.295	-200.000	0.013	-0.206
-683.281	-200.000	-0.007	-0.167
-682.266	49.026	0.082	0.077
-681.251	-200.000	0.031	-0.262
-680.237	-96.826	-0.229	0.060
-679.222	-200.000	0.042	-0.353
-678.208	-33.051	0.162	0.090
-677.193	-106.969	-0.042	0.009
-676.178	-81.704	0.139	0.046
-675.164	112.989	0.129	-0.157
-674.149	44.394	0.203	0.186
-673.135	236.853	-0.095	-0.158
-672.120	12.918	0.050	-0.039
-671.105	259.899	0.059	0.102
-670.091	-78.389	-0.394	0.135
-669.076	-200.000	-0.006	0.451
-668.062	-80.362	0.215	0.072
-667.047	134.416	-0.171	0.221
-666.032	-66.656	-0.156	-0.062
-665.018	102.871	-0.143	-0.167
-664.003	-200.000	0.009	0.050
-662.989	11.020	-0.202	0.154
-661.974	-43.269	-0.068	0.034
-660.959	-107.234	0.225	-0.050
-659.945	-102.307	0.065	-0.016
-658.930	-11.964	-0.364	-0.239
-657.916	-72.314	-0.285	0.106
-656.901	0.943	0.094	-0.067
-655.886	285.468	0.167	-0.300
-654.872	32.813	0.105	-0.091
-653.857	-200.000	0.012	-0.075
-652.843	-17.205	-0.245	-0.154
-651.828	68.656	-0.214	0.219
-650.814	-200.000	-0.013	-0.070
-649.799	800.000	-0.032	-0.137
-648.784	30.593	-0.263	0.224
-647.770	-136.215	0.175	0.020
-646.755	800.000	0.055	-0.175
-645.741	-200.000	-0.026	-0.154
-644.726	661.034	0.017	-0.044
-643.711	114.057	0.104	0.127
-642.697	36.461	0.122	-0.107
-641.682	-200.000	-0.008	-0.123
-640.668	-105.200	-0.305	0.070
-639.653	-54.560	0.167	0.075
-638.638	-200.000	-0.010	0.187
-637.624	800.000	-0.047	-0.139
-636.609	-61.836	0.105	-0.044
-635.595	265.618	0.308	-0.536
-634.580	43.034	0.070	0.064
-633.565	-62.204	0.075	0.031
-632.551	800.000	-0.055	-0.213
-631.536	-200.000	-0.009	-0.200
-630.522	-74.249	-0.114	0.041
-629.507	-48.350	0.207	-0.100
-628.492	-17.462	-0.311	-0.195
-627.478	-81.305	-0.278	-0.091
-626.463	70.154	-0.223	-0.230
-625.449	87.077	0.262	-0.289
-624.434	-200.000	0.024	-0.189
-623.419	508.393	-0.067	-0.155
-622.405	-200.000	0.002	-0.283
-621.390	800.000	0.087	-0.277
-620.376	157.426	0.037	-0.051
-619.361	-126.623	0.150	-0.022
-618.346	11.735	-0.083	-0.063
-617.332	-132.273	-0.200	-0.026
-616.317	215.141	0.194	-0.306
-615.303	240.301	0.150	-0.249
-614.288	142.814	0.025	0.034
-613.273	-200.000	0.022	0.134
-612.259	-200.000	0.049	-0.364
-611.244	96.252	0.038	-0.044
-610.230	107.526	0.158	-0.187
-609.215	-8.202	-0.316	-0.212
-608.201	-78.014	0.237	0.081
-607.186	-33.055	0.333	0.184
-606.171	197.761	0.057	-0.087
-605.157	229.860	-0.074	-0.120
-604.142	-91.391	0.521	-0.148
-603.128	30.606	-0.346	0.295
-602.113	-49.501	-0.097	0.046
-601.098	108.759	0.151	-0.179
-600.084	-31.490	-0.179	-0.100
-599.069	-4.023	0.040	-0.027
-598.055	133.920	0.174	0.224
-597.040	800.000	0.167	0.478
-596.025	130.303	-0.091	0.116
-595.011	800.000	-0.060	-0.208
-593.996	-2.087	-0.241	0.168
-592.982	-200.000	0.036	-0.346
-591.967	800.000	0.025	0.079
-590.952	-200.000	-0.014	0.170
-589.938	667.051	0.020	-0.052
-588.923	-103.647	0.292	-0.068
-587.909	-176.335	0.305	-0.008
-586.894	16.910	-0.094	-0.074
-585.879	-8.616	-0.061	0.041
-584.865	-93.682	-0.142	-0.039
-583.850	251.634	0.151	-0.256
-582.836	-200.000	0.021	-0.173
-581.821	-3.330	0.190	-0.132
-580.806	-83.620	-0.395	0.126
-579.792	-126.400	0.093	-0.014
-578.777	-122.034	-0.124	0.020
-577.763	186.561	0.169	-0.250
-576.748	274.523	0.129	-0.228
-575.733	-95.879	-0.042	-0.011
-574.719	-200.000	0.052	0.258
-573.704	63.111	0.109	-0.109
-572.690	-200.000	-0.016	-0.154
-571.675	45.611	-0.289	0.265
-570.661	219.762	0.131	-0.209
-569.646	-86.337	0.103	-0.032
-568.631	-200.000	0.049	-0.246
-567.617	-54.776	-0.421	-0.189
-566.602	-200.000	0.099	0.482
-565.588	-117.938	-0.173	-0.031
-564.573	265.854	0.115	0.200
-563.558	-200.000	0.024	0.265
-562.544	-61.028	0.103	-0.043
-561.529	-50.187	-0.104	0.049
-560.515	-110.063	0.276	-0.057
-559.500	-93.587	-0.278	-0.076
-558.485	401.170	0.033	-0.068
-557.471	146.487	0.118	-0.158
-556.456	49.820	-0.184	0.172
-555.442	-61.016	0.130	-0.055
-554.427	-200.000	-0.007	0.047
-553.412	-44.486	-0.093	-0.046
-552.398	46.646	-0.142	0.131
-551.383	395.238	-0.036	0.074
-550.369	96.086	-0.090	-0.102
-549.354	-29.531	0.036	-0.020
-548.339	-70.856	-0.318	0.119
-547.325	397.882	0.092	-0.192
-546.310	6.720	0.024	-0.018
-545.296	-100.338	0.205	-0.051
-544.281	33.426	-0.175	0.151
-543.266	-200.000	0.005	0.121
-542.252	-200.000	0.047	-0.297
-541.237	653.102	0.113	0.288
-540.223	32.954	0.213	0.184
-539.208	-16.823	-0.059	-0.037
-538.193	261.700	-0.156	0.268
-537.179	-34.483	0.174	-0.095
-536.164	-31.445	0.355	-0.198
-535.150	-42.990	-0.375	0.189
-534.135	-81.486	-0.089	-0.029
-533.121	-200.000	-0.019	0.165
-532.106	-24.228	0.054	-0.032
-531.091	198.804	0.130	0.198
-530.077	-55.224	-0.418	0.186
-529.062	-148.666	0.263	-0.021
-528.048	185.747	-0.077	0.114
-527.033	-200.000	0.019	0.100
-526.018	800.000	-0.036	-0.109
-525.004	-65.358	-0.081	0.033
-523.989	79.027	-0.107	0.114
-522.975	800.000	-0.101	0.288
-521.960	-20.866	0.102	-0.062
-520.945	553.482	-0.019	0.045
-519.931	-71.517	-0.264	0.098
-518.916	-136.539	-0.271	0.031
-517.902	-144.941	0.133	0.012
-516.887	-22.612	-0.101	-0.061
-515.872	-200.000	-0.033	0.301
-514.858	542.972	0.137	-0.324
-513.843	-118.886	-0.250	-0.044
-512.829	22.739	0.140	-0.114
-511.814	-33.469	-0.080	-0.044
-510.799	-200.000	-0.041	-0.325
-509.785	-73.377	-0.463	0.168
-508.770	-17.079	0.226	-0.141
-507.756	418.458	-0.048	0.102
-506.741	401.945	-0.055	0.115
-505.726	-107.835	-0.107	-0.023
-504.712	108.402	0.287	-0.340
-503.697	-165.255	0.123	0.005
-502.683	359.318	0.168	-0.333
-501.668	205.432	0.111	-0.171
-500.653	-26.397	-0.188	-0.110
-499.639	25.595	-0.253	-0.209
-498.624	-33.084	-0.347	0.191
-497.610	-200.000	0.009	-0.346
-496.595	-200.000	-0.045	0.278
-495.581	137.335	0.074	-0.097
-494.566	-77.608	-0.282	0.097
-493.551	215.443	-0.048	0.076
-492.537	-200.000	0.030	0.166
-491.522	-118.054	-0.169	0.030
-490.508	800.000	0.159	-0.544
-489.493	-51.437	-0.164	-0.076
-488.478	-78.755	-0.174	-0.059
-487.464	383.432	0.045	0.093
-486.449	480.567	-0.081	-0.182
-485.435	-164.031	-0.161	-0.007
-484.420	71.261	-0.112	-0.115
-483.405	48.202	-0.183	0.170
-482.391	800.000	-0.122	0.405
-481.376	-81.318	-0.224	-0.073
-480.362	300.142	-0.120	-0.220
-479.347	-200.000	0.011	-0.222
-478.332	-65.364	0.048	0.019
-477.318	-107.752	0.107	0.023
-476.303	18.350	0.075	-0.059
-475.289	156.986	0.140	-0.191
-474.274	576.737	-0.121	-0.292
-473.259	476.011	0.106	0.238
-472.245	-200.000	0.003	0.416
-471.230	-41.990	-0.155	0.079
-470.216	-200.000	0.062	-0.297
-469.201	231.274	0.119	0.193
-468.186	-180.421	0.398	-0.008
-467.172	-129.102	-0.306	0.042
-466.157	800.000	-0.086	0.364
-465.143	580.956	0.061	0.149
-464.128	-140.183	0.095	0.010
-463.113	-142.957	-0.110	0.011
-462.099	800.000	0.089	-0.255
-461.084	-105.945	0.206	-0.046
-460.070	-200.000	0.019	0.227
-459.055	-200.000	0.032	0.143
-458.040	-12.944	0.213	-0.137
-457.026	-64.095	-0.351	-0.142
-456.011	-48.067	-0.252	-0.121
-454.997	-200.000	-0.007	-0.057
-453.982	800.000	0.044	-0.144
-452.968	-200.000	-0.062	0.296
-451.953	252.604	-0.176	-0.297
-450.938	-150.204	0.256	0.020
-449.924	52.296	-0.069	0.065
-448.909	178.005	-0.150	-0.217
-447.895	-28.647	0.261	0.149
-446.880	-200.000	0.000	-0.073
-445.865	216.425	-0.138	0.218
-444.851	289.210	-0.089	0.160
-443.836	55.166	0.254	-0.243
-442.822	26.540	0.177	0.147
-441.807	-1.932	-0.145	0.101
-440.792	-200.000	-0.017	0.380
-439.778	50.639	0.145	0.136
-438.763	-136.804	-0.186	-0.021
-437.749	-144.402	-0.249	-0.023
-436.734	800.000	0.087	-0.260
-435.719	49.377	0.209	0.194
-434.705	71.604	-0.067	-0.068
-433.690	-200.000	0.002	-0.010
-432.676	77.226	0.120	-0.126
-431.661	-65.928	-0.287	0.113
-430.646	-192.701	0.345	0.003
-429.632	51.050	-0.221	0.208
-428.617	800.000	-0.054	-0.191
-427.603	-27.218	0.141	-0.081
-426.588	-200.000	0.013	0.205
-425.573	42.305	-0.144	-0.129
-424.559	-18.036	-0.158	-0.098
-423.544	343.432	0.137	-0.266
-422.530	34.248	0.038	0.032
-421.515	-44.853	-0.285	-0.141
-420.500	93.121	0.014	0.016
-419.486	160.770	0.196	0.270
-418.471	-74.650	-0.310	0.110
-417.457	-200.000	-0.022	-0.140
-416.442	-166.598	0.116	0.005
-415.428	265.588	-0.057	-0.099
-414.413	104.003	-0.057	-0.067
-413.398	-177.700	-0.365	0.009
-412.384	462.168	-0.061	-0.136
-411.369	-78.358	-0.176	0.060
-410.355	-61.609	0.422	-0.175
-409.340	163.198	0.103	-0.143
-408.325	624.977	-0.050	-0.125
-407.311	-200.000	0.031	-0.235
-406.296	-66.410	-0.114	0.045
-405.282	406.345	0.113	-0.236
-404.267	289.695	0.119	0.213
-403.252	-15.448	0.117	-0.074
-402.238	237.201	-0.269	-0.441
-401.223	-131.928	0.217	0.028
-400.209	-66.089	-0.135	-0.053
-399.194	-75.119	-0.135	0.048
-398.179	14.529	0.226	-0.175
-397.165	-5.548	-0.254	0.172
-396.150	-103.847	-0.189	-0.044
-395.136	-200.000	0.022	-0.321
-394.121	-200.000	-0.067	-0.298
-393.106	800.000	0.039	-0.119
-392.092	66.252	0.226	0.227
-391.077	483.075	-0.044	-0.099
-390.063	-141.094	-0.126	-0.013
-389.048	-25.897	0.201	-0.117
-388.033	-32.670	-0.084	-0.046
-387.019	-136.662	-0.099	-0.011
-386.004	-27.352	0.204	0.117
-384.990	-47.089	-0.289	0.139
-383.975	-200.000	-0.037	0.331
-382.960	-200.000	0.281	-0.001
-381.946	308.438	-0.190	-0.351
-380.931	-200.000	-0.027	0.137
-379.917	-74.461	0.305	0.109
-378.902	133.180	0.003	0.004
-377.888	-46.013	-0.341	0.166
-376.873	329.174	0.065	-0.124
-375.858	683.262	-0.046	-0.118
-374.844	-155.250	0.314	0.020
-373.829	-56.541	-0.061	-0.027
-372.815	-33.145	-0.130	-0.071
-371.800	-83.588	0.348	-0.110
-370.785	76.682	-0.042	0.044
-369.771	-200.000	-0.332	0.001
-368.756	-87.693	-0.287	0.085
-367.742	-24.110	0.177	-0.104
-366.727	-8.811	0.262	-0.173
-365.712	-109.192	-0.200	-0.042
-364.698	100.190	-0.279	0.320
-363.683	63.706	-0.178	-0.177
-362.669	-200.000	0.036	-0.190
-361.654	15.580	0.133	0.103
-360.639	-200.000	0.021	0.119
-359.625	-200.000	-0.077	0.384
-358.610	-200.000	0.013	-0.232
-357.596	-165.237	-0.198	-0.009
-356.581	183.132	0.057	0.083
-355.566	-116.386	-0.117	0.021
-354.552	800.000	-0.098	0.270
-353.537	21.781	0.359	0.289
-352.523	-14.490	-0.045	0.028
-351.508	156.750	0.344	0.469
-350.493	-127.866	0.158	-0.022
-349.479	800.000	-0.046	0.194
-348.464	379.871	-0.083	-0.167
-347.450	36.098	-0.042	-0.037
-346.435	76.049	-0.108	-0.112
-345.420	350.731	-0.102	-0.199
-344.406	92.855	0.110	0.123
-343.391	-200.000	0.007	0.416
-342.377	-200.000	-0.086	0.418
-341.362	-200.000	-0.025	0.125
-340.348	-141.987	-0.189	0.019
-339.333	15.946	0.185	0.144
-338.318	800.000	0.058	0.220
-337.304	245.271	0.049	0.081
-336.289	-16.028	-0.168	0.105
-335.275	-200.000	0.016	0.202
-334.260	141.379	-0.124	-0.161
-333.245	-200.000	0.017	0.171
-332.231	800.000	0.027	0.086
-331.216	-2.961	0.148	0.102
-330.202	327.898	-0.083	0.157
-329.187	701.197	-0.112	0.291
-328.172	58.708	0.099	-0.096
-327.158	-200.000	0.029	0.362
-326.143	317.350	0.021	-0.040
-325.129	-20.964	-0.324	-0.195
-324.114	-137.953	-0.078	0.009
-323.099	-140.738	-0.129	0.013
-322.085	651.829	0.048	0.122
-321.070	42.928	-0.101	-0.091
-320.056	250.368	-0.173	0.290
-319.041	657.231	0.054	-0.138
-318.026	-39.597	-0.088	-0.046
-317.012	127.811	-0.196	-0.245
-315.997	-200.000	0.026	0.190
-314.983	109.968	0.231	0.273
-313.968	800.000	-0.087	0.239
-312.953	-40.186	0.278	0.143
-311.939	800.000	-0.120	0.404
-310.924	-52.255	0.291	-0.133
-309.910	-182.434	0.162	0.003
-308.895	-159.342	0.245	-0.014
-307.880	-200.000	0.008	0.108
-306.866	-200.000	-0.003	0.096
-305.851	27.358	0.213	0.176
-304.837	-200.000	-0.009	-0.090
-303.822	200.533	0.045	0.068
-302.807	-200.000	0.031	-0.225
-301.793	-94.708	0.067	-0.018
-300.778	367.827	-0.034	0.067
-299.764	-197.335	-0.125	-0.001
-298.749	76.007	-0.146	0.152
-297.735	-200.000	0.052	-0.336
-296.720	552.673	0.113	0.267
-295.705	-47.779	-0.032	0.015
-294.691	800.000	0.084	-0.335
-293.676	-200.000	-0.004	0.233
-292.662	-200.000	-0.044	0.508
-291.647	-130.316	0.159	0.021
-290.632	405.426	0.079	-0.165
-289.618	-37.253	0.054	-0.028
-288.603	-58.494	0.151	-0.065
-287.589	-21.888	-0.164	0.098
-286.574	108.658	0.092	-0.109
-285.559	351.944	0.091	0.178
-284.545	62.703	-0.122	0.120
-283.530	9.803	0.231	0.173
-282.516	-200.000	-0.001	-0.028
-281.501	-110.238	-0.359	-0.074
-280.486	-200.000	-0.053	0.247
-279.472	21.712	0.114	0.091
-278.457	256.952	0.098	-0.165
-277.443	529.435	0.158	0.368
-276.428	800.000	-0.139	0.472
-275.413	778.531	-0.065	-0.174
-274.399	325.510	-0.033	-0.063
-273.384	-26.616	0.316	0.182
-272.370	-58.714	-0.068	0.029
-271.355	444.490	0.163	-0.351
-270.340	-40.374	0.115	0.059
-269.326	-123.154	0.153	0.024
-268.311	-90.488	0.069	0.020
-267.297	72.692	0.297	0.305
-266.282	800.000	0.112	-0.325
-265.267	-51.632	-0.228	0.105
-264.253	43.490	0.101	-0.091
-263.238	152.723	0.077	-0.103
-262.224	-138.886	0.435	-0.046
-261.209	-188.081	-0.151	0.002
-260.195	21.877	-0.128	0.103
-259.180	-182.672	0.201	-0.004
-258.165	373.897	0.121	-0.242
-257.151	-55.168	-0.100	0.044
-256.136	-162.760	0.078	0.004
-255.122	-15.210	-0.244	-0.154
-254.107	-200.000	-0.008	-0.262
-253.092	-36.137	-0.017	0.009
-252.078	-200.000	-0.039	-0.178
-251.063	47.038	0.095	0.086
-250.049	-200.000	-0.044	-0.195
-249.034	800.000	-0.086	-0.278
-248.019	-200.000	0.043	-0.266
-247.005	9.906	-0.152	-0.113
-245.990	-181.761	0.298	-0.006
-244.976	-15.390	0.200	-0.125
-243.961	79.853	-0.270	0.285
-242.946	-200.000	0.010	0.169
-241.932	-65.636	-0.118	0.046
-240.917	-179.950	-0.154	0.003
-239.903	-200.000	-0.005	0.289
-238.888	406.879	-0.146	0.304
-237.873	800.000	-0.105	-0.407
-236.859	16.673	0.231	0.179
-235.844	-44.182	-0.226	0.111
-234.830	-121.479	0.060	-0.010
-233.815	170.896	-0.283	-0.398
-232.800	-65.719	-0.127	0.050
-231.786	-46.268	0.309	-0.149
-230.771	-177.742	0.281	0.007
-229.757	648.877	-0.169	0.426
-228.742	-200.000	-0.025	0.119
-227.727	-26.248	-0.031	-0.018
-226.713	-37.938	-0.153	-0.080
-225.698	1.344	0.101	-0.071
-224.684	291.331	-0.101	-0.181
-223.669	-146.958	-0.328	0.028
-222.655	432.021	0.090	0.192
-221.640	-166.599	-0.291	0.012
-220.625	263.695	-0.221	0.378
-219.611	-86.222	0.120	-0.036
-218.596	140.736	0.165	-0.214
-217.582	98.283	0.018	-0.021
-216.567	800.000	-0.067	0.189
-215.552	-200.000	0.301	-0.001
-214.538	-200.000	0.005	0.043
-213.523	325.458	-0.120	0.225
-212.509	-12.434	0.099	0.064
-211.494	77.418	0.112	-0.117
-210.479	-62.895	-0.236	-0.096
-209.465	-106.586	-0.205	0.045
-208.450	512.294	0.055	-0.126
-207.436	50.635	0.166	-0.154
-206.421	-119.707	-0.198	-0.033
-205.406	-200.000	-0.054	0.328
-204.392	95.759	0.094	0.105
-203.377	80.222	-0.013	-0.013
-202.363	-200.000	-0.082	0.408
-201.348	-200.000	0.007	0.072
-200.333	34.772	-0.073	-0.063
-199.319	-1.418	0.235	-0.163
-198.304	-92.527	-0.086	-0.024
-197.290	124.115	0.101	-0.124
-196.275	241.034	0.156	-0.255
-195.260	7.118	0.324	-0.237
-194.246	-200.000	0.016	0.091
-193.231	-72.862	0.197	0.071
-192.217	-200.000	0.029	0.130
-191.202	0.410	-0.107	0.075
-190.187	-121.698	-0.125	-0.020
-189.173	-39.749	-0.283	-0.145
-188.158	15.087	0.126	0.097
-187.144	-96.181	-0.239	-0.062
-186.129	-74.800	-0.149	0.052
-185.114	206.389	-0.167	0.255
-184.100	800.000	-0.047	-0.149
-183.085	15.023	0.064	-0.049
-182.071	632.496	0.029	-0.073
-181.056	-171.392	0.036	-0.001
-180.042	35.465	0.429	-0.369
-179.027	-200.000	-0.034	-0.191
-178.012	74.237	0.389	0.401
-176.998	-200.000	0.054	0.330
-175.983	122.441	0.056	0.068
-174.969	-95.587	-0.262	0.069
-173.954	-200.000	-0.022	-0.096
-172.939	5.387	0.314	-0.227
-171.925	5.391	0.187	-0.135
-170.910	-97.058	0.267	-0.068
-169.896	17.542	-0.316	-0.246
-168.881	-154.433	0.360	-0.024
-167.866	-87.196	-0.311	0.093
-166.852	154.497	0.107	0.144
-165.837	-118.986	0.303	0.052
-164.823	7.792	-0.178	-0.131
-163.808	-200.000	0.003	0.012
-162.793	86.895	-0.123	-0.133
-161.779	8.302	-0.111	-0.082
-160.764	-200.000	-0.000	0.136
-159.750	68.080	0.091	0.091
-158.735	-200.000	0.010	0.129
-157.720	-91.149	0.369	-0.104
-156.706	-76.221	0.297	0.103
-155.691	-200.000	0.057	0.298
-154.677	9.176	0.211	0.156
-153.662	-6.308	-0.017	-0.011
-152.647	58.193	-0.151	0.145
-151.633	800.000	-0.026	0.093
-150.618	-150.368	0.497	0.037
-149.604	-77.292	-0.258	-0.088
-148.589	-76.910	-0.045	0.015
-147.574	215.100	-0.098	-0.152
-146.560	-175.497	-0.055	-0.001
-145.545	-88.970	0.310	0.090
-144.531	68.653	-0.315	-0.316
-143.516	-200.000	-0.051	-0.253
-142.502	704.943	-0.072	-0.187
-141.487	-200.000	-0.042	-0.257
-140.472	-26.878	-0.352	0.202
-139.458	210.863	-0.015	-0.023
-138.443	800.000	0.067	0.208
-137.429	24.135	-0.227	-0.184
-136.414	506.238	-0.107	-0.242
-135.399	800.000	0.147	0.553
-134.385	-200.000	-0.021	-0.208
-133.370	-181.295	-0.225	-0.004
-132.356	800.000	-0.106	0.321
-131.341	294.864	0.115	-0.205
-130.326	366.161	0.109	0.215
-129.312	-200.000	-0.039	0.311
-128.297	800.000	-0.014	0.056
-127.283	-200.000	0.016	-0.223
-126.268	303.157	-0.157	-0.285
-125.253	634.776	-0.121	-0.301
-124.239	-200.000	-0.017	-0.151
-123.224	-126.182	-0.078	0.011
-122.210	-88.698	-0.122	-0.035
