DTS Sentinel unit serial number:	SN413079Multiplexer serial number:	ORYXHardware model number:	OX4-SRSoftware version number:	ORYX F/W v4.00 Oryx Data Collector v3.7.2.0data status	okinstallation	princeton_trtdifferential loss correction	single-endedforward channel	channel 1reverse channel	N/Adate	2019/09/18time	23:02:35forward acquisition time	60.00reverse acquisition time	0.00gamma	496.2192k internal	0.2341k external	0.2341temperature offset calibration	1.0017default loss term (dB/km)	0.3790temperature slope calibration	1.0000multiplexer offset coefficient	1.0000multiplexer slope coefficient	1.0000fibre end	0.00T internal ref (°C)	24.00T ext. ref 1 (°C)	0.78T ext. ref 2 (°C)	17.95length (m)	temperature (°C)	Stokes	anti-Stokes-747.200	100.402	-0.063	-0.073
-746.185	329.857	-0.208	0.400
-745.171	-200.000	-0.003	0.294
-744.156	98.452	0.149	-0.172
-743.142	800.000	-0.041	0.119
-742.127	-160.546	0.332	-0.018
-741.112	-23.014	0.109	-0.066
-740.098	-105.921	-0.247	-0.056
-739.083	-154.617	0.043	-0.003
-738.069	-79.638	-0.283	-0.095
-737.054	800.000	0.078	-0.235
-736.039	-10.691	-0.347	0.230
-735.025	59.087	-0.167	0.164
-734.010	-176.466	0.208	0.005
-732.996	800.000	0.044	-0.125
-731.981	-200.000	-0.009	-0.111
-730.966	-200.000	-0.024	-0.232
-729.952	-166.207	-0.211	0.009
-728.937	139.866	-0.129	-0.170
-727.923	-200.000	0.066	0.368
-726.908	23.219	-0.352	0.290
-725.894	18.406	-0.353	0.283
-724.879	-57.017	-0.083	-0.037
-723.864	-114.544	-0.244	0.047
-722.850	-98.786	-0.067	-0.017
-721.835	-200.000	0.013	0.444
-720.821	639.543	-0.166	0.423
-719.806	586.557	-0.079	0.194
-718.791	583.304	-0.160	0.393
-717.777	166.199	0.079	-0.112
-716.762	127.173	-0.213	-0.271
-715.748	-144.470	0.386	0.036
-714.733	361.878	0.113	0.226
-713.718	-105.306	0.241	0.055
-712.704	371.269	0.198	-0.402
-711.689	-200.000	0.018	-0.260
-710.675	25.469	-0.252	-0.210
-709.660	182.060	-0.179	0.265
-708.645	800.000	-0.063	-0.192
-707.631	-200.000	0.033	-0.278
-706.616	-119.202	-0.253	0.044
-705.602	-123.308	0.297	-0.047
-704.587	800.000	0.099	-0.322
-703.572	-164.700	0.116	0.005
-702.558	343.727	-0.058	0.114
-701.543	303.946	0.163	0.302
-700.529	-12.540	-0.204	-0.133
-699.514	-200.000	0.181	0.001
-698.499	-200.000	0.009	-0.081
-697.485	-52.064	-0.083	0.039
-696.470	372.076	-0.014	-0.028
-695.456	-200.000	0.037	-0.306
-694.441	800.000	0.078	0.218
-693.426	79.744	-0.142	0.152
-692.412	-90.973	-0.225	-0.065
-691.397	24.098	0.100	0.082
-690.383	-76.500	0.259	-0.091
-689.368	12.483	0.169	0.130
-688.354	-200.000	-0.003	-0.113
-687.339	769.476	0.042	-0.113
-686.324	-193.965	0.295	-0.002
-685.310	77.883	-0.298	-0.317
-684.295	9.572	-0.064	0.049
-683.281	-48.458	-0.278	0.134
-682.266	-28.062	0.128	0.074
-681.251	420.058	0.067	-0.143
-680.237	800.000	-0.070	-0.221
-679.222	-80.483	-0.265	-0.089
-678.208	142.614	-0.088	-0.117
-677.193	99.302	0.210	0.243
-676.178	-181.677	-0.157	0.003
-675.164	14.050	-0.137	0.106
-674.149	800.000	0.017	-0.067
-673.135	79.941	0.102	-0.110
-672.120	45.758	-0.043	0.039
-671.105	557.092	-0.125	0.302
-670.091	800.000	-0.038	-0.138
-669.076	-84.111	0.446	0.142
-668.062	99.963	-0.185	-0.214
-667.047	-130.111	-0.173	0.024
-666.032	-106.263	-0.213	-0.048
-665.018	-112.633	-0.257	-0.051
-664.003	-200.000	-0.007	0.345
-662.989	-200.000	-0.033	0.379
-661.974	-133.633	-0.118	0.015
-660.959	207.848	-0.142	0.221
-659.945	-200.000	-0.006	-0.172
-658.930	-54.434	0.220	-0.100
-657.916	166.160	0.030	-0.043
-656.901	800.000	-0.031	-0.116
-655.886	34.208	0.123	0.107
-654.872	555.742	0.131	-0.316
-653.857	-44.559	0.078	0.039
-652.843	210.690	-0.084	-0.133
-651.828	190.591	-0.175	-0.262
-650.814	340.889	0.085	0.167
-649.799	243.776	0.079	0.132
-648.784	575.497	0.092	0.225
-647.770	800.000	0.074	0.239
-646.755	34.583	-0.126	-0.110
-645.741	800.000	0.045	-0.184
-644.726	601.540	-0.095	0.236
-643.711	-5.925	0.115	-0.079
-642.697	-162.452	-0.223	0.011
-641.682	-43.020	0.026	0.013
-640.668	414.506	-0.113	-0.240
-639.653	-200.000	-0.010	-0.100
-638.638	86.573	-0.242	0.267
-637.624	28.872	-0.362	-0.306
-636.609	539.859	-0.033	-0.079
-635.595	751.143	-0.123	-0.332
-634.580	-51.321	0.089	0.042
-633.565	800.000	-0.046	0.129
-632.551	-69.072	-0.089	-0.034
-631.536	-17.907	0.251	0.157
-630.522	-200.000	0.267	0.000
-629.507	-200.000	0.011	-0.236
-628.492	-115.146	0.252	-0.048
-627.478	11.218	-0.072	-0.055
-626.463	-200.000	-0.009	0.102
-625.449	193.247	-0.026	0.039
-624.434	578.234	0.128	0.313
-623.419	-69.846	0.204	0.078
-622.405	-47.646	0.099	-0.048
-621.390	-200.000	0.073	0.325
-620.376	-166.167	-0.094	-0.004
-619.361	-17.145	-0.353	-0.222
-618.346	-200.000	0.032	0.250
-617.332	-200.000	0.035	-0.207
-616.317	191.097	0.025	0.038
-615.303	78.653	-0.204	0.218
-614.288	-137.964	-0.313	0.035
-613.273	-200.000	-0.044	-0.322
-612.259	-114.001	0.390	0.075
-611.244	800.000	-0.079	-0.334
-610.230	439.444	0.211	-0.460
-609.215	73.326	-0.155	0.162
-608.201	-6.525	-0.231	0.157
-607.186	-67.181	-0.214	-0.084
-606.171	-78.987	0.209	0.071
-605.157	7.412	-0.391	-0.291
-604.142	44.995	0.030	-0.028
-603.128	-200.000	-0.013	-0.110
-602.113	13.804	-0.205	-0.159
-601.098	-48.143	0.082	-0.039
-600.084	-136.796	0.084	0.010
-599.069	800.000	-0.032	0.134
-598.055	501.649	0.071	0.162
-597.040	399.449	-0.135	-0.281
-596.025	-77.823	-0.576	-0.198
-595.011	-192.898	-0.106	0.001
-593.996	-151.246	0.052	0.004
-592.982	800.000	-0.050	0.161
-591.967	-115.005	-0.128	0.024
-590.952	132.163	-0.132	-0.170
-589.938	11.018	-0.205	-0.156
-588.923	-51.947	-0.216	0.100
-587.909	800.000	0.080	-0.342
-586.894	-181.851	-0.238	-0.005
-585.879	-31.603	0.142	0.080
-584.865	401.710	-0.095	-0.198
-583.850	-22.242	-0.346	0.209
-582.836	-118.819	-0.320	0.056
-581.821	-200.000	0.030	-0.333
-580.806	-103.548	-0.043	0.010
-579.792	436.436	0.109	-0.236
-578.777	-159.515	-0.267	-0.015
-577.763	-200.000	0.008	-0.062
-576.748	392.446	0.123	-0.255
-575.733	-200.000	0.002	-0.031
-574.719	-54.029	0.305	0.138
-573.704	800.000	-0.022	-0.066
-572.690	-147.373	0.113	-0.010
-571.675	-112.940	0.188	0.037
-570.661	-67.682	0.144	-0.056
-569.646	-2.951	0.260	-0.181
-568.631	27.985	0.281	-0.236
-567.617	800.000	0.051	-0.158
-566.602	800.000	-0.096	-0.386
-565.588	800.000	0.057	0.157
-564.573	-120.762	-0.208	0.035
-563.558	-200.000	0.015	0.095
-562.544	123.933	-0.215	-0.269
-561.529	-131.433	-0.218	0.029
-560.515	-127.483	-0.426	-0.062
-559.500	-158.540	-0.350	0.020
-558.485	800.000	0.124	0.355
-557.471	213.020	-0.216	-0.339
-556.456	-111.023	-0.295	-0.060
-555.442	-157.573	0.223	0.013
-554.427	521.287	0.089	0.208
-553.412	-17.522	-0.269	-0.168
-552.398	220.728	-0.141	0.225
-551.383	-137.366	-0.073	-0.008
-550.369	170.703	0.083	-0.118
-549.354	412.377	0.096	0.203
-548.339	23.467	0.087	0.071
-547.325	173.454	-0.085	0.122
-546.310	-16.765	0.176	-0.111
-545.296	-31.852	-0.141	0.079
-544.281	49.005	-0.103	0.096
-543.266	111.609	-0.117	-0.140
-542.252	-200.000	-0.053	0.261
-541.237	-81.409	-0.319	0.104
-540.223	-52.398	-0.016	0.007
-539.208	128.415	0.140	0.177
-538.193	-188.709	-0.213	-0.003
-537.179	-135.887	-0.345	-0.040
-536.164	78.947	0.150	-0.159
-535.150	-200.000	-0.056	0.396
-534.135	-178.260	-0.162	0.004
-533.121	-200.000	0.022	0.350
-532.106	-105.594	0.234	-0.053
-531.091	-26.435	0.169	0.098
-530.077	800.000	-0.047	-0.148
-529.062	-61.535	-0.118	-0.049
-528.048	-62.674	0.162	-0.067
-527.033	-84.977	0.366	-0.114
-526.018	-24.690	0.225	-0.133
-525.004	-200.000	-0.132	-0.000
-523.989	-108.514	0.229	-0.049
-522.975	10.357	-0.141	-0.106
-521.960	217.942	-0.100	-0.159
-520.945	130.582	0.127	0.161
-519.931	-154.249	0.244	0.016
-518.916	246.672	-0.083	-0.140
-517.902	-200.000	-0.006	-0.075
-516.887	-182.693	0.203	-0.004
-515.872	-143.775	-0.253	-0.024
-514.858	-200.000	0.028	0.172
-513.843	-200.000	-0.005	-0.329
-512.829	149.488	-0.120	-0.162
-511.814	-188.297	0.265	0.003
-510.799	-200.000	0.038	-0.196
-509.785	64.109	-0.147	-0.147
-508.770	-200.000	0.014	-0.102
-507.756	-28.636	0.167	-0.095
-506.741	7.691	0.074	0.055
-505.726	170.899	-0.072	-0.103
-504.712	-96.918	0.078	0.020
-503.697	-200.000	-0.007	-0.354
-502.683	336.238	-0.060	0.116
-501.668	50.120	0.114	-0.107
-500.653	270.031	-0.094	0.164
-499.639	400.307	-0.123	-0.256
-498.624	-132.400	-0.050	0.006
-497.610	565.067	0.140	-0.336
-496.595	-57.838	0.171	-0.074
-495.581	239.953	-0.041	-0.068
-494.566	-133.351	-0.270	-0.034
-493.551	166.753	-0.045	-0.063
-492.537	-105.849	0.316	-0.071
-491.522	48.743	0.181	0.168
-490.508	-97.059	0.344	-0.089
-489.493	119.926	0.126	0.155
-488.478	-142.507	0.289	-0.028
-487.464	-102.398	-0.487	0.116
-486.449	-1.064	0.058	0.041
-485.435	-67.083	0.136	0.053
-484.420	52.276	-0.113	-0.107
-483.405	-9.791	0.040	0.027
-482.391	-7.767	-0.058	0.039
-481.376	627.465	0.036	-0.091
-480.362	-200.000	-0.019	0.095
-479.347	-81.004	-0.277	0.091
-478.332	-51.568	0.334	0.155
-477.318	800.000	-0.051	0.165
-476.303	-84.517	0.233	0.073
-475.289	-167.670	-0.171	0.007
-474.274	-11.435	0.059	0.039
-473.259	-200.000	-0.012	0.113
-472.245	-58.312	-0.372	-0.161
-471.230	-89.882	0.277	-0.080
-470.216	-148.679	0.141	-0.011
-469.201	-66.417	0.143	-0.056
-468.186	-169.849	-0.124	-0.004
-467.172	116.919	-0.149	0.181
-466.157	-136.721	0.215	-0.025
-465.143	-200.000	-0.005	0.298
-464.128	800.000	0.061	-0.247
-463.113	44.702	-0.258	0.236
-462.099	27.659	0.184	0.153
-461.084	-99.110	0.165	0.041
-460.070	131.270	0.126	-0.160
-459.055	782.775	0.102	0.277
-458.040	-200.000	0.020	0.424
-457.026	-84.725	0.425	-0.133
-456.011	-49.197	-0.242	0.114
-454.997	800.000	0.046	0.161
-453.982	-200.000	0.008	0.188
-452.968	361.636	-0.103	-0.206
-451.953	-116.530	0.442	-0.081
-450.938	-200.000	0.024	0.160
-449.924	283.489	-0.054	0.096
-448.909	-200.000	-0.013	0.176
-447.895	164.328	0.063	0.088
-446.880	-25.823	-0.151	0.088
-445.865	800.000	0.081	0.308
-444.851	98.215	0.078	0.089
-443.836	-130.337	-0.189	0.025
-442.822	471.000	0.053	0.118
-441.807	215.623	0.080	0.126
-440.792	54.831	-0.208	0.199
-439.778	-200.000	0.047	-0.223
-438.763	-63.956	-0.172	-0.070
-437.749	-200.000	-0.030	0.273
-436.734	-200.000	-0.021	0.117
-435.719	-78.978	0.186	-0.063
-434.705	-137.493	0.223	0.025
-433.690	360.347	-0.098	0.194
-432.676	-200.000	0.089	0.000
-431.661	800.000	-0.136	-0.388
-430.646	800.000	-0.078	-0.281
-429.632	-200.000	0.066	0.471
-428.617	800.000	-0.126	0.367
-427.603	39.660	0.212	0.188
-426.588	61.062	-0.239	0.235
-425.573	-60.782	-0.143	0.060
-424.559	121.001	-0.045	-0.055
-423.544	-63.272	0.109	-0.044
-422.530	24.843	-0.058	-0.047
-421.515	-108.810	-0.182	0.039
-420.500	544.392	-0.002	0.005
-419.486	593.629	-0.182	0.444
-418.471	150.439	-0.119	0.160
-417.457	339.513	0.022	-0.042
-416.442	-114.926	-0.091	-0.017
-415.428	800.000	0.081	-0.263
-414.413	184.141	-0.082	0.120
-413.398	-200.000	-0.089	0.400
-412.384	-137.100	0.031	0.003
-411.369	-61.808	0.240	-0.099
-410.355	8.770	-0.154	0.115
-409.340	-152.000	0.374	-0.027
-408.325	-66.981	-0.372	-0.145
-407.311	-168.475	-0.362	0.014
-406.296	-200.000	0.001	0.104
-405.282	-200.000	-0.018	-0.278
-404.267	-200.000	-0.050	0.277
-403.252	-163.006	0.302	0.014
-402.238	-141.461	-0.244	0.024
-401.223	-9.630	-0.152	-0.100
-400.209	49.798	-0.070	0.065
-399.194	98.585	0.140	0.160
-398.179	-200.000	0.066	-0.377
-397.165	800.000	-0.028	0.098
-396.150	-200.000	0.007	0.140
-395.136	92.692	-0.024	0.027
-394.121	790.563	0.136	0.368
-393.106	-73.756	0.227	0.081
-392.092	-200.000	0.001	-0.017
-391.077	-163.375	-0.115	-0.005
-390.063	260.086	-0.223	-0.381
-389.048	200.777	-0.128	-0.195
-388.033	-27.580	0.255	0.147
-387.019	-200.000	0.013	0.215
-386.004	-123.317	0.321	-0.051
-384.990	734.908	-0.113	-0.299
-383.975	217.755	0.198	-0.311
-382.960	-131.327	-0.032	0.004
-381.946	-158.430	0.325	0.019
-380.931	-67.353	-0.159	0.062
-379.917	-47.443	-0.267	0.128
-378.902	-200.000	-0.007	0.101
-377.888	-134.329	0.276	-0.033
-376.873	-152.337	-0.116	-0.008
-375.858	-200.000	0.020	0.224
-374.844	-97.708	0.153	-0.039
-373.829	800.000	0.065	0.234
-372.815	223.504	0.111	-0.178
-371.800	-91.881	-0.275	-0.077
-370.785	-99.674	0.245	-0.061
-369.771	120.982	-0.157	0.193
-368.756	22.418	-0.196	-0.158
-367.742	6.616	-0.183	-0.134
-366.727	-9.234	0.068	0.045
-365.712	-200.000	0.000	0.168
-364.698	57.087	0.071	-0.069
-363.683	-52.727	-0.134	-0.061
-362.669	-70.686	-0.214	0.080
-361.654	766.732	-0.066	0.176
-360.639	-200.000	0.046	0.262
-359.625	-200.000	0.056	0.329
-358.610	-109.386	-0.369	-0.077
-357.596	123.116	0.222	-0.274
-356.581	637.930	0.076	0.190
-355.566	-200.000	0.012	0.067
-354.552	-30.006	-0.245	0.137
-353.537	-87.286	0.509	0.152
-352.523	327.451	-0.054	0.102
-351.508	-200.000	-0.041	0.313
-350.493	-101.818	0.229	-0.055
-349.479	-136.391	0.129	-0.015
-348.464	-21.075	-0.255	-0.154
-347.450	166.671	0.170	-0.238
-346.435	24.412	-0.196	-0.160
-345.420	-24.272	0.081	0.048
-344.406	191.661	0.067	-0.100
-343.391	96.202	0.170	0.192
-342.377	-200.000	-0.004	-0.450
-341.362	-92.381	-0.170	-0.047
-340.348	800.000	-0.026	0.074
-339.333	157.206	-0.241	0.329
-338.318	-80.338	-0.328	0.108
-337.304	162.203	0.185	0.256
-336.289	50.462	0.236	-0.220
-335.275	111.711	-0.225	-0.268
-334.260	-19.401	0.054	-0.033
-333.245	-200.000	0.065	-0.315
-332.231	-200.000	0.060	0.273
-331.216	13.638	0.338	0.259
-330.202	-104.492	0.210	0.048
-329.187	-139.662	0.249	0.026
-328.172	41.814	0.222	-0.199
-327.158	774.195	0.097	0.260
-326.143	-73.017	0.213	-0.077
-325.129	223.590	0.055	-0.088
-324.114	-54.933	-0.170	0.075
-323.099	-40.230	0.211	-0.108
-322.085	-23.601	0.194	-0.115
-321.070	232.552	0.086	0.140
-320.056	-200.000	-0.006	0.085
-319.041	-200.000	0.005	-0.089
-318.026	244.529	0.059	0.097
-317.012	800.000	-0.076	-0.265
-315.997	59.554	0.020	-0.020
-314.983	-87.783	-0.141	-0.042
-313.968	800.000	-0.141	-0.459
-312.953	-63.424	0.075	-0.030
-311.939	-200.000	0.010	0.351
-310.924	-103.071	-0.077	0.018
-309.910	-200.000	0.018	-0.114
-308.895	800.000	-0.045	0.133
-307.880	-57.126	-0.294	-0.128
-306.866	11.230	0.148	-0.111
-305.851	151.121	0.091	-0.122
-304.837	-57.220	0.275	-0.119
-303.822	-58.826	-0.109	0.047
-302.807	-200.000	0.061	0.350
-301.793	-51.668	-0.237	-0.109
-300.778	155.611	0.123	-0.166
-299.764	-200.000	0.080	-0.652
-298.749	-164.617	-0.188	-0.008
-297.735	399.509	-0.150	0.309
-296.720	336.296	0.117	0.225
-295.705	-141.019	-0.289	-0.029
-294.691	153.081	0.075	-0.101
-293.676	-93.876	-0.319	-0.086
-292.662	-145.314	0.171	-0.015
-291.647	-200.000	-0.024	-0.311
-290.632	-15.093	0.170	0.107
-289.618	115.782	0.127	-0.153
-288.603	211.423	0.066	-0.102
-287.589	-22.427	0.109	-0.065
-286.574	-169.446	-0.175	-0.006
-285.559	229.405	-0.202	0.324
-284.545	-138.859	0.199	0.021
-283.530	76.086	0.199	0.207
-282.516	-161.652	0.119	0.006
-281.501	800.000	-0.121	-0.485
-280.486	-36.939	0.282	0.149
-279.472	-140.223	0.028	0.003
-278.457	67.321	-0.079	0.079
-277.443	-32.457	0.088	-0.048
-276.428	-137.823	-0.239	0.026
-275.413	-149.137	-0.176	0.014
-274.399	-115.599	0.208	0.038
-273.384	-11.831	0.274	0.177
-272.370	-200.000	0.057	0.288
-271.355	123.644	0.203	-0.250
-270.340	-200.000	-0.004	0.055
-269.326	800.000	0.191	0.532
-268.311	800.000	0.148	-0.446
-267.297	-57.451	-0.233	-0.101
-266.282	-91.332	0.260	-0.073
-265.267	38.477	-0.056	-0.050
-264.253	800.000	-0.034	0.104
-263.238	-122.714	-0.283	0.045
-262.224	-144.778	0.234	0.021
-261.209	-200.000	0.025	-0.220
-260.195	145.401	-0.149	-0.196
-259.180	-149.249	-0.156	0.012
-258.165	-11.177	-0.099	-0.064
-257.151	0.508	-0.278	-0.195
-256.136	-107.425	0.314	0.068
-255.122	800.000	-0.092	-0.301
-254.107	-100.588	-0.215	-0.052
-253.092	-200.000	-0.024	-0.348
-252.078	-200.000	-0.053	-0.234
-251.063	56.571	0.004	0.004
-250.049	246.022	0.071	-0.117
-249.034	-200.000	0.004	-0.220
-248.019	168.880	0.152	-0.214
-247.005	-10.840	0.358	0.233
-245.990	-200.000	0.015	0.505
-244.976	167.922	-0.036	-0.050
-243.961	-76.486	0.184	-0.064
-242.946	11.433	0.158	-0.119
-241.932	-131.035	0.118	0.015
-240.917	-81.365	0.254	-0.082
-239.903	125.117	-0.126	-0.156
-238.888	70.781	-0.170	0.173
-237.873	-31.011	-0.050	-0.028
-236.859	386.451	0.053	0.107
-235.844	-18.206	-0.203	-0.125
-234.830	1.882	0.250	-0.177
-233.815	45.432	0.252	-0.228
-232.800	-186.312	-0.205	-0.003
-231.786	133.773	0.197	0.251
-230.771	-41.731	0.177	0.089
-229.757	-200.000	0.003	0.215
-228.742	141.258	0.041	-0.054
-227.727	127.551	-0.113	0.141
-226.713	800.000	-0.033	0.100
-225.698	11.804	-0.157	-0.119
-224.684	189.477	-0.126	-0.186
-223.669	-81.585	0.028	-0.009
-222.655	800.000	0.068	0.247
-221.640	-19.735	0.298	-0.181
-220.625	-15.727	0.266	0.167
-219.611	734.351	0.117	0.309
-218.596	-98.945	-0.190	-0.047
-217.582	800.000	0.043	-0.155
-216.567	292.099	-0.063	-0.113
-215.552	800.000	0.033	0.139
-214.538	-200.000	-0.075	0.403
-213.523	8.956	-0.133	0.099
-212.509	-76.768	0.383	0.132
-211.494	-152.054	-0.169	-0.012
-210.479	-86.855	0.126	0.038
-209.465	46.189	0.236	0.214
-208.450	-43.526	-0.150	-0.074
-207.436	-200.000	0.014	0.314
-206.421	-170.431	0.110	0.004
-205.406	-16.535	0.095	-0.059
-204.392	232.506	0.137	0.221
-203.377	-161.868	0.291	0.014
-202.363	-200.000	0.059	-0.276
-201.348	-200.000	-0.183	0.000
-200.333	299.295	-0.040	0.072
-199.319	167.826	-0.142	-0.199
-198.304	216.003	-0.035	-0.055
-197.290	800.000	-0.083	0.290
-196.275	-41.061	0.123	0.063
-195.260	-200.000	0.033	-0.213
-194.246	-15.663	0.380	0.238
-193.231	-17.138	-0.070	0.044
-192.217	220.030	-0.059	0.093
-191.202	-100.183	-0.144	0.035
-190.187	27.409	-0.257	-0.212
-189.173	57.479	-0.123	-0.118
-188.158	380.075	-0.095	-0.192
-187.144	752.227	-0.119	-0.316
-186.129	800.000	0.060	0.200
-185.114	312.878	-0.069	0.127
-184.100	-7.463	-0.168	0.111
-183.085	-126.569	0.052	0.008
-182.071	14.368	-0.245	0.188
-181.056	-74.563	-0.146	-0.052
-180.042	6.917	-0.279	0.203
-179.027	-105.584	-0.264	-0.059
-178.012	800.000	0.105	-0.378
-176.998	-171.696	-0.117	-0.004
-175.983	800.000	-0.069	-0.293
-174.969	800.000	-0.058	-0.196
-173.954	388.085	0.151	0.307
-172.939	31.348	0.377	0.317
-171.925	-88.279	0.094	0.028
-170.910	-200.000	-0.011	0.192
-169.896	438.170	0.067	-0.142
-168.881	35.609	0.232	-0.200
-167.866	-200.000	0.038	0.319
-166.852	-162.140	0.252	-0.012
-165.837	-118.277	-0.118	-0.021
-164.823	-86.396	-0.118	-0.036
-163.808	18.127	0.262	-0.205
-162.793	800.000	0.022	-0.073
-161.779	-114.523	0.203	-0.038
-160.764	-38.183	-0.319	0.166
-159.750	-163.095	0.484	0.023
-158.735	505.726	0.108	-0.246
-157.720	800.000	-0.051	-0.162
-156.706	76.020	-0.083	-0.086
-155.691	-7.056	-0.332	0.221
-154.677	-150.010	-0.190	-0.014
-153.662	6.167	-0.335	-0.243
-152.647	-65.315	-0.210	0.083
-151.633	-200.000	-0.015	0.131
-150.618	453.964	0.052	0.113
-149.604	-31.790	0.136	0.075
-148.589	-4.517	0.372	0.251
-147.574	58.846	-0.155	0.149
-146.560	118.001	-0.104	-0.126
-145.545	800.000	0.135	0.457
-144.531	17.730	-0.207	0.161
-143.516	-200.000	-0.023	-0.249
-142.502	-30.307	0.242	0.134
-141.487	356.326	0.242	0.472
-140.472	373.755	0.106	0.212
-139.458	-31.708	0.176	0.097
-138.443	-40.886	-0.078	-0.040
-137.429	-134.221	0.363	-0.044
-136.414	111.479	-0.230	-0.271
-135.399	-14.337	0.361	0.228
-134.385	-78.696	-0.289	0.097
-133.370	-200.000	-0.017	-0.252
-132.356	-127.194	0.240	-0.034
-131.341	800.000	0.043	0.131
-130.326	293.105	0.182	-0.325
-129.312	12.116	0.114	0.086
-128.297	-114.524	0.201	-0.038
-127.283	-173.855	-0.038	0.001
-126.268	800.000	0.077	-0.285
-125.253	-29.913	0.218	0.121
-124.239	-175.671	0.279	-0.007
-123.224	-200.000	-0.020	-0.143
-122.210	18.174	0.040	0.031
