DTS Sentinel unit serial number:	SN413079Multiplexer serial number:	ORYXHardware model number:	OX4-SRSoftware version number:	ORYX F/W v4.00 Oryx Data Collector v3.7.2.0data status	okinstallation	princeton_trtdifferential loss correction	single-endedforward channel	channel 1reverse channel	N/Adate	2019/09/15time	20:50:35forward acquisition time	60.00reverse acquisition time	0.00gamma	496.2192k internal	0.2326k external	0.2326temperature offset calibration	0.9963default loss term (dB/km)	0.3790temperature slope calibration	1.0000multiplexer offset coefficient	1.0000multiplexer slope coefficient	1.0000fibre end	0.00T internal ref (°C)	32.27T ext. ref 1 (°C)	7.99T ext. ref 2 (°C)	24.46length (m)	temperature (°C)	Stokes	anti-Stokes-747.200	-200.000	0.031	0.152
-746.185	-114.441	0.476	-0.092
-745.171	143.438	-0.107	-0.144
-744.156	279.351	0.125	0.224
-743.142	800.000	-0.001	0.005
-742.127	-106.490	0.287	0.065
-741.112	340.802	0.065	0.127
-740.098	-172.865	-0.352	0.011
-739.083	-200.000	-0.002	-0.316
-738.069	594.347	-0.158	-0.393
-737.054	-39.975	0.106	-0.056
-736.039	-58.678	0.340	0.149
-735.025	493.697	0.108	0.250
-734.010	-158.291	-0.191	-0.011
-732.996	-18.258	-0.273	0.172
-731.981	-200.000	0.002	-0.142
-730.966	800.000	-0.110	-0.308
-729.952	-108.166	-0.274	0.060
-728.937	-96.648	-0.281	-0.075
-727.923	-74.783	0.248	0.090
-726.908	-7.377	-0.065	0.044
-725.894	27.767	0.062	-0.052
-724.879	-200.000	-0.004	0.141
-723.864	486.300	0.094	0.216
-722.850	800.000	0.037	0.125
-721.835	-126.535	-0.063	-0.009
-720.821	-200.000	0.022	-0.139
-719.806	230.163	-0.102	-0.168
-718.791	758.578	-0.075	-0.206
-717.777	-200.000	0.032	0.150
-716.762	203.484	-0.107	0.166
-715.748	-144.339	0.375	-0.035
-714.733	-98.018	-0.331	0.086
-713.718	-163.412	0.317	0.015
-712.704	6.399	0.229	-0.171
-711.689	300.918	-0.191	0.356
-710.675	-159.604	0.229	-0.013
-709.660	101.843	-0.137	0.161
-708.645	-36.508	-0.210	0.114
-707.631	59.278	-0.206	0.205
-706.616	2.966	0.139	-0.102
-705.602	-200.000	0.021	-0.227
-704.587	-42.270	0.124	-0.064
-703.572	-200.000	-0.005	-0.310
-702.558	28.884	-0.230	0.196
-701.543	68.141	-0.111	-0.115
-700.529	-49.875	0.210	0.101
-699.514	631.243	0.051	0.130
-698.499	-107.514	0.090	0.020
-697.485	800.000	0.064	-0.200
-696.470	53.076	0.099	0.096
-695.456	-47.726	-0.150	0.073
-694.441	-200.000	0.002	0.134
-693.426	-53.881	0.104	0.048
-692.412	-200.000	-0.033	0.157
-691.397	-0.563	-0.097	-0.069
-690.383	-61.774	0.141	0.059
-689.368	299.679	-0.057	0.106
-688.354	-200.000	-0.007	-0.035
-687.339	-200.000	0.037	-0.286
-686.324	49.937	0.290	-0.275
-685.310	800.000	-0.049	0.151
-684.295	503.677	-0.029	0.067
-683.281	28.460	0.085	0.072
-682.266	502.065	-0.079	0.184
-681.251	800.000	0.065	0.268
-680.237	258.662	-0.048	-0.083
-679.222	800.000	-0.041	-0.170
-678.208	-29.186	0.111	-0.064
-677.193	205.504	0.076	0.118
-676.178	-200.000	0.065	0.299
-675.164	-23.951	0.072	-0.043
-674.149	-109.366	-0.214	0.046
-673.135	800.000	0.062	0.174
-672.120	-60.801	0.289	-0.123
-671.105	-200.000	0.040	-0.189
-670.091	114.003	-0.159	-0.194
-669.076	-200.000	-0.006	0.080
-668.062	-67.797	-0.325	0.128
-667.047	232.221	-0.064	0.106
-666.032	-76.259	-0.093	-0.033
-665.018	-0.765	0.154	-0.110
-664.003	185.173	0.184	0.275
-662.989	-68.854	0.097	0.038
-661.974	-123.478	-0.294	-0.047
-660.959	-89.888	-0.140	0.041
-659.945	6.664	-0.185	-0.138
-658.930	-49.394	0.184	0.088
-657.916	103.137	0.072	0.085
-656.901	-30.428	-0.410	0.234
-655.886	105.742	-0.107	-0.127
-654.872	-16.662	-0.067	0.043
-653.857	-200.000	0.039	0.184
-652.843	-43.536	-0.151	-0.077
-651.828	-171.018	-0.270	-0.009
-650.814	800.000	0.073	0.211
-649.799	-183.252	-0.279	-0.005
-648.784	-200.000	0.013	-0.143
-647.770	-200.000	0.011	-0.062
-646.755	90.644	0.065	0.073
-645.741	159.559	-0.223	-0.312
-644.726	800.000	0.044	-0.172
-643.711	119.890	-0.124	-0.154
-642.697	-200.000	-0.008	-0.324
-641.682	66.827	-0.177	0.181
-640.668	177.358	-0.088	0.129
-639.653	-78.024	0.384	0.133
-638.638	161.558	-0.073	-0.103
-637.624	800.000	0.066	-0.191
-636.609	-200.000	0.003	-0.082
-635.595	-200.000	-0.005	0.216
-634.580	-107.952	-0.218	0.048
-633.565	267.071	0.040	0.070
-632.551	-200.000	-0.011	-0.274
-631.536	0.090	0.146	-0.105
-630.522	800.000	-0.048	0.190
-629.507	-200.000	0.012	-0.133
-628.492	-200.000	0.045	0.366
-627.478	312.664	0.067	0.126
-626.463	31.404	0.173	0.149
-625.449	-200.000	0.019	-0.094
-624.434	-133.672	-0.288	-0.036
-623.419	-89.281	-0.242	-0.072
-622.405	443.219	-0.048	0.105
-621.390	-46.210	-0.265	-0.131
-620.376	238.506	-0.184	0.306
-619.361	-81.772	-0.109	-0.036
-618.346	100.080	0.122	-0.142
-617.332	-142.173	-0.113	0.011
-616.317	71.576	0.155	-0.162
-615.303	21.853	-0.134	-0.109
-614.288	162.707	-0.208	-0.293
-613.273	-130.701	-0.232	-0.031
-612.259	-33.446	0.257	-0.142
-611.244	800.000	-0.017	0.055
-610.230	-134.767	0.141	0.017
-609.215	-185.581	-0.077	0.001
-608.201	-200.000	-0.070	-0.318
-607.186	-200.000	-0.000	0.075
-606.171	57.527	-0.092	0.090
-605.157	429.140	0.151	0.326
-604.142	744.245	-0.158	-0.427
-603.128	-8.512	-0.116	0.078
-602.113	353.978	0.180	0.358
-601.098	-48.028	-0.220	-0.107
-600.084	63.697	0.067	-0.067
-599.069	128.744	0.154	0.197
-598.055	-48.021	-0.153	-0.074
-597.040	11.281	-0.308	-0.237
-596.025	-73.272	-0.061	0.022
-595.011	-200.000	0.011	-0.181
-593.996	-153.907	-0.158	-0.011
-592.982	-163.157	-0.068	-0.003
-591.967	38.705	0.180	-0.161
-590.952	-68.332	0.375	-0.146
-589.938	-67.219	0.058	0.023
-588.923	132.851	0.167	0.216
-587.909	325.982	0.209	0.402
-586.894	-103.663	0.342	0.080
-585.879	-162.391	-0.184	-0.009
-584.865	-0.343	0.037	0.027
-583.850	66.143	-0.035	-0.036
-582.836	-200.000	0.057	-0.295
-581.821	83.178	0.103	-0.113
-580.806	-200.000	0.008	0.198
-579.792	-35.450	-0.050	-0.027
-578.777	209.456	0.168	0.264
-577.763	158.959	-0.241	-0.335
-576.748	-200.000	-0.199	0.000
-575.733	-43.983	0.045	0.022
-574.719	800.000	0.106	0.356
-573.704	800.000	-0.049	0.184
-572.690	-200.000	-0.021	0.188
-571.675	-15.083	0.081	0.052
-570.661	50.644	-0.203	0.193
-569.646	-81.592	0.205	-0.068
-568.631	67.609	0.205	-0.210
-567.617	646.175	0.081	-0.206
-566.602	206.171	-0.093	0.145
-565.588	-34.325	-0.441	-0.242
-564.573	-94.828	0.362	0.098
-563.558	-149.812	0.154	0.012
-562.544	-200.000	0.008	-0.396
-561.529	495.189	0.052	-0.120
-560.515	-63.647	0.023	0.009
-559.500	-31.400	0.121	-0.068
-558.485	800.000	0.111	0.312
-557.471	-133.929	-0.293	-0.036
-556.456	-190.220	-0.042	-0.000
-555.442	-43.653	-0.198	-0.100
-554.427	-94.428	-0.017	-0.005
-553.412	74.179	0.097	-0.102
-552.398	-52.746	-0.185	-0.086
-551.383	-130.881	0.047	-0.006
-550.369	-51.818	0.112	0.052
-549.354	-107.045	-0.337	0.075
-548.339	-151.143	0.145	-0.011
-547.325	-200.000	0.035	-0.446
-546.310	219.834	-0.117	0.188
-545.296	-81.299	-0.103	0.034
-544.281	84.226	-0.366	-0.401
-543.266	-200.000	0.040	-0.318
-542.252	-82.235	-0.138	-0.045
-541.237	-110.806	0.138	0.028
-540.223	180.686	0.231	-0.340
-539.208	424.933	-0.141	0.304
-538.193	787.876	-0.091	-0.250
-537.179	-15.561	0.301	-0.192
-536.164	-18.796	0.289	0.180
-535.150	31.078	-0.159	0.137
-534.135	163.830	0.083	0.117
-533.121	81.007	0.143	0.155
-532.106	-200.000	0.012	-0.330
-531.091	-146.772	0.252	0.022
-530.077	-31.236	-0.260	0.146
-529.062	-42.733	0.087	0.044
-528.048	13.555	-0.232	0.180
-527.033	-82.045	0.113	-0.037
-526.018	-200.000	-0.027	-0.134
-525.004	135.369	0.163	0.211
-523.989	637.026	0.028	0.071
-522.975	151.548	0.154	-0.210
-521.960	800.000	-0.126	-0.422
-520.945	39.947	-0.044	0.040
-519.931	-86.202	-0.399	-0.123
-518.916	-78.366	-0.142	0.049
-517.902	-72.499	-0.264	-0.098
-516.887	-7.952	0.104	0.070
-515.872	291.279	-0.090	-0.164
-514.858	151.344	0.053	0.072
-513.843	146.569	-0.264	0.355
-512.829	800.000	0.122	0.512
-511.814	-97.438	-0.323	0.084
-510.799	-42.552	-0.236	0.120
-509.785	90.084	-0.104	0.116
-508.770	12.333	0.131	-0.101
-507.756	-145.210	-0.225	0.020
-506.741	-200.000	-0.016	0.136
-505.726	-200.000	-0.064	0.355
-504.712	-50.842	0.110	0.052
-503.697	147.208	-0.159	0.214
-502.683	-200.000	0.073	0.409
-501.668	322.053	-0.022	-0.042
-500.653	-85.115	-0.056	-0.018
-499.639	-81.317	0.274	0.090
-498.624	146.258	0.109	-0.146
-497.610	162.524	0.035	0.049
-496.595	-48.055	-0.181	0.087
-495.581	-200.000	-0.021	0.362
-494.566	-96.396	-0.242	-0.064
-493.551	104.996	-0.148	-0.174
-492.537	75.901	0.090	0.095
-491.522	-44.474	0.203	-0.102
-490.508	-89.309	0.158	-0.046
-489.493	33.543	-0.315	-0.274
-488.478	5.203	0.203	0.149
-487.464	85.477	0.047	0.052
-486.449	-128.905	0.281	0.039
-485.435	35.400	0.157	-0.138
-484.420	-6.619	-0.319	0.217
-483.405	325.167	-0.148	0.282
-482.391	310.071	-0.127	-0.237
-481.376	-88.957	-0.131	0.039
-480.362	-67.897	-0.254	-0.099
-479.347	14.972	-0.040	-0.031
-478.332	-41.805	0.087	0.045
-477.318	-72.602	-0.160	0.059
-476.303	-146.928	0.100	-0.009
-475.289	178.596	0.209	-0.305
-474.274	-55.180	0.096	-0.043
-473.259	800.000	-0.065	0.222
-472.245	-200.000	0.003	-0.147
-471.230	-12.847	-0.271	0.176
-470.216	39.422	0.115	0.103
-469.201	225.072	0.164	0.266
-468.186	-108.107	0.257	0.055
-467.172	27.405	-0.093	-0.078
-466.157	-163.427	-0.212	-0.010
-465.143	247.057	0.111	0.187
-464.128	-85.181	-0.015	0.005
-463.113	-105.900	-0.116	-0.026
-462.099	-132.485	-0.066	-0.008
-461.084	618.905	-0.095	0.237
-460.070	163.154	-0.051	0.071
-459.055	347.367	-0.065	-0.128
-458.040	-45.439	-0.146	0.072
-457.026	-139.528	-0.226	-0.024
-456.011	-33.724	0.204	0.112
-454.997	38.176	0.161	-0.143
-453.982	-75.851	0.098	-0.035
-452.968	-200.000	-0.007	0.076
-451.953	-150.362	0.206	0.016
-450.938	-81.013	-0.285	0.094
-449.924	-52.533	0.121	0.056
-448.909	50.194	0.090	0.084
-447.895	-137.775	0.188	-0.021
-446.880	-84.541	0.125	0.039
-445.865	122.252	-0.150	-0.186
-444.851	-27.227	0.226	-0.132
-443.836	-200.000	0.005	-0.237
-442.822	-28.802	0.086	-0.049
-441.807	588.970	0.091	0.223
-440.792	25.605	0.253	0.210
-439.778	-42.394	-0.342	0.174
-438.763	-200.000	-0.043	-0.253
-437.749	-59.126	-0.079	0.034
-436.734	-148.902	0.126	-0.010
-435.719	-138.450	-0.192	-0.021
-434.705	-200.000	-0.051	0.310
-433.690	-4.314	-0.364	-0.251
-432.676	-151.001	0.158	-0.012
-431.661	57.772	0.170	0.166
-430.646	332.539	0.061	-0.118
-429.632	383.903	0.065	0.133
-428.617	800.000	0.101	0.320
-427.603	68.051	-0.024	-0.024
-426.588	-189.948	0.067	-0.001
-425.573	-138.880	0.100	0.011
-424.559	-16.818	0.325	-0.205
-423.544	66.677	-0.113	-0.114
-422.530	-200.000	-0.182	-0.001
-421.515	239.308	-0.045	-0.075
-420.500	240.703	0.131	0.218
-419.486	-156.231	0.388	-0.024
-418.471	202.469	0.103	-0.159
-417.457	165.911	0.150	-0.211
-416.442	40.772	-0.065	0.059
-415.428	-93.388	-0.306	0.085
-414.413	530.390	-0.125	0.294
-413.398	800.000	0.055	0.206
-412.384	-47.692	0.122	-0.059
-411.369	45.732	0.129	0.118
-410.355	-69.715	0.160	-0.061
-409.340	347.976	-0.111	-0.219
-408.325	-52.848	0.181	-0.083
-407.311	800.000	-0.069	-0.272
-406.296	-19.703	-0.156	-0.096
-405.282	-6.408	0.243	0.165
-404.267	299.407	-0.102	-0.187
-403.252	800.000	-0.054	-0.205
-402.238	-200.000	-0.063	0.379
-401.223	106.135	0.121	0.142
-400.209	-51.253	-0.263	-0.123
-399.194	364.138	-0.123	0.246
-398.179	-200.000	-0.009	0.265
-397.165	-200.000	0.031	0.187
-396.150	-35.455	0.051	-0.028
-395.136	110.842	-0.099	-0.118
-394.121	-9.305	-0.050	0.033
-393.106	-84.042	0.033	0.010
-392.092	-98.516	-0.422	0.107
-391.077	-200.000	0.064	0.434
-390.063	-200.000	0.049	0.244
-389.048	332.211	-0.051	-0.098
-388.033	99.960	0.180	-0.207
-387.019	-21.572	-0.099	0.060
-386.004	-65.277	-0.179	-0.072
-384.990	-111.970	0.279	0.056
-383.975	-200.000	0.055	-0.339
-382.960	138.935	-0.149	-0.194
-381.946	37.530	0.074	-0.066
-380.931	8.741	-0.142	0.107
-379.917	-48.225	0.229	0.110
-378.902	-18.982	-0.195	-0.121
-377.888	-88.974	0.149	-0.044
-376.873	647.025	-0.052	-0.133
-375.858	800.000	-0.098	0.281
-374.844	-107.516	0.360	0.078
-373.829	-151.322	-0.126	-0.009
-372.815	343.048	0.083	0.161
-371.800	20.425	0.188	-0.151
-370.785	418.403	-0.222	0.472
-369.771	580.309	0.063	0.153
-368.756	53.057	0.146	-0.139
-367.742	-200.000	0.070	0.320
-366.727	405.080	0.118	0.247
-365.712	-60.492	0.107	0.045
-364.698	429.181	-0.127	0.272
-363.683	-200.000	-0.011	-0.156
-362.669	-98.669	-0.267	-0.068
-361.654	376.042	0.156	0.317
-360.639	3.920	0.060	-0.044
-359.625	800.000	0.142	-0.451
-358.610	-84.809	0.107	0.033
-357.596	-200.000	-0.009	0.173
-356.581	-75.145	-0.087	0.031
-355.566	766.967	-0.118	-0.319
-354.552	-78.925	-0.268	0.091
-353.537	-151.764	0.472	-0.034
-352.523	-106.953	-0.272	-0.060
-351.508	800.000	-0.098	-0.330
-350.493	-47.284	0.181	0.088
-349.479	-131.756	0.356	0.046
-348.464	800.000	-0.027	-0.114
-347.450	291.715	0.028	-0.051
-346.435	-200.000	0.020	-0.326
-345.420	-99.989	-0.037	0.009
-344.406	-40.453	0.251	0.129
-343.391	282.593	-0.032	-0.058
-342.377	-55.605	0.264	-0.117
-341.362	13.594	-0.023	0.018
-340.348	800.000	-0.135	-0.381
-339.333	18.618	0.126	0.100
-338.318	-80.848	0.094	-0.031
-337.304	110.682	0.110	-0.132
-336.289	-129.691	0.154	-0.021
-335.275	-45.615	-0.187	0.092
-334.260	-200.000	0.008	0.078
-333.245	101.691	0.068	0.078
-332.231	210.444	-0.078	-0.122
-331.216	-200.000	-0.001	-0.008
-330.202	294.580	-0.086	0.155
-329.187	187.343	0.177	-0.262
-328.172	-200.000	0.004	-0.054
-327.158	-122.233	-0.347	-0.056
-326.143	-123.890	0.162	0.025
-325.129	-154.797	0.206	-0.014
-324.114	-109.990	-0.050	-0.010
-323.099	-200.000	0.012	-0.068
-322.085	261.716	-0.136	-0.233
-321.070	-200.000	0.013	-0.136
-320.056	-94.603	-0.213	-0.058
-319.041	-119.841	0.279	-0.048
-318.026	-200.000	-0.024	0.183
-317.012	-123.968	0.288	-0.045
-315.997	-117.637	0.081	-0.015
-314.983	477.505	-0.036	0.081
-313.968	42.481	-0.117	-0.105
-312.953	-200.000	0.023	-0.111
-311.939	285.757	0.037	-0.065
-310.924	190.392	0.138	-0.206
-309.910	113.042	-0.015	-0.018
-308.895	-87.651	0.079	0.024
-307.880	-63.657	-0.139	-0.057
-306.866	-129.136	0.184	-0.025
-305.851	-15.423	0.082	-0.052
-304.837	645.131	0.173	0.438
-303.822	255.360	-0.260	-0.442
-302.807	246.159	0.100	0.168
-301.793	659.916	0.094	0.239
-300.778	9.187	0.125	-0.094
-299.764	229.805	0.072	0.117
-298.749	-53.165	-0.417	0.190
-297.735	1.471	0.232	0.166
-296.720	75.125	-0.040	0.042
-295.705	-146.491	0.395	0.034
-294.691	15.666	-0.055	0.043
-293.676	177.444	0.129	0.186
-292.662	-2.426	-0.161	-0.112
-291.647	110.193	-0.088	-0.104
-290.632	115.523	-0.073	0.089
-289.618	116.164	0.076	-0.092
-288.603	-146.977	-0.227	-0.019
-287.589	336.091	-0.149	0.287
-286.574	193.416	-0.200	0.300
-285.559	-71.303	-0.383	-0.142
-284.545	-91.992	-0.287	0.081
-283.530	-118.917	-0.294	-0.051
-282.516	161.252	-0.097	0.135
-281.501	419.948	-0.020	0.042
-280.486	-80.468	-0.154	0.051
-279.472	800.000	0.070	0.223
-278.457	800.000	-0.015	0.042
-277.443	-86.125	0.222	-0.068
-276.428	196.072	-0.003	0.004
-275.413	122.551	0.119	0.147
-274.399	-200.000	0.046	0.324
-273.384	-6.809	-0.207	0.139
-272.370	-158.392	-0.150	-0.009
-271.355	-144.636	0.246	0.022
-270.340	323.343	0.218	-0.412
-269.326	-200.000	0.013	0.157
-268.311	-200.000	0.039	-0.240
-267.297	-200.000	0.033	-0.470
-266.282	-50.453	0.132	0.062
-265.267	-181.617	0.300	-0.006
-264.253	-200.000	-0.011	0.069
-263.238	-108.722	-0.316	-0.067
-262.224	-57.747	0.146	0.063
-261.209	-96.526	-0.267	0.070
-260.195	-89.057	-0.204	0.060
-259.180	-200.000	0.025	0.159
-258.165	-143.757	0.082	0.008
-257.151	-32.899	-0.190	0.104
-256.136	-142.173	0.433	-0.043
-255.122	-200.000	-0.044	0.229
-254.107	-118.797	-0.201	0.035
-253.092	44.797	-0.127	-0.116
-252.078	-130.081	-0.310	-0.042
-251.063	-200.000	0.054	0.314
-250.049	-47.756	0.152	-0.073
-249.034	29.601	0.166	0.140
-248.019	31.113	0.028	-0.023
-247.005	220.764	-0.262	-0.415
-245.990	-200.000	-0.009	-0.129
-244.976	800.000	0.013	0.037
-243.961	800.000	0.091	0.262
-242.946	800.000	-0.042	0.139
-241.932	-172.431	0.218	-0.007
-240.917	2.304	-0.143	0.102
-239.903	-84.163	0.189	-0.059
-238.888	-81.018	0.389	-0.127
-237.873	733.661	-0.052	0.139
-236.859	800.000	0.094	0.402
-235.844	9.636	0.093	0.070
-234.830	-200.000	0.026	0.124
-233.815	566.900	-0.061	0.146
-232.800	-14.857	0.164	-0.104
-231.786	707.530	0.068	-0.178
-230.771	-103.927	0.163	-0.038
-229.757	-93.291	-0.218	-0.060
-228.742	120.351	-0.114	-0.141
-227.727	247.406	0.044	-0.074
-226.713	263.657	-0.070	0.120
-225.698	88.163	0.189	0.207
-224.684	-47.603	0.360	0.173
-223.669	-20.876	-0.395	-0.239
-222.655	774.993	-0.123	-0.332
-221.640	-200.000	-0.055	-0.272
-220.625	254.863	0.120	0.203
-219.611	54.088	-0.137	-0.130
-218.596	-137.675	0.210	-0.023
-217.582	-200.000	0.078	-0.596
-216.567	-200.000	0.033	0.175
-215.552	-200.000	-0.013	-0.147
-214.538	800.000	-0.017	-0.067
-213.523	-37.180	-0.209	-0.111
-212.509	800.000	0.033	-0.098
-211.494	52.221	0.190	0.179
-210.479	251.857	0.006	-0.010
-209.465	-6.366	-0.133	0.090
-208.450	0.488	-0.260	0.184
-207.436	-133.934	-0.053	-0.007
-206.421	467.073	-0.040	-0.089
-205.406	108.911	0.207	0.244
-204.392	380.482	-0.119	0.240
-203.377	747.987	-0.082	-0.218
-202.363	-10.375	-0.083	-0.054
-201.348	-200.000	0.010	-0.223
-200.333	-71.604	-0.106	0.039
-199.319	-74.763	0.237	-0.084
-198.304	-9.042	0.510	-0.337
-197.290	-200.000	0.026	-0.122
-196.275	-42.427	0.296	-0.149
-195.260	-42.349	0.244	0.123
-194.246	5.392	-0.256	0.187
-193.231	-200.000	-0.004	-0.047
-192.217	800.000	0.084	-0.331
-191.202	243.628	0.140	-0.232
-190.187	-200.000	-0.014	0.257
-189.173	131.347	0.047	0.060
-188.158	291.297	0.065	-0.116
-187.144	-126.289	0.161	-0.024
-186.129	153.084	0.154	-0.208
-185.114	-152.984	-0.244	-0.017
-184.100	-200.000	0.008	-0.159
-183.085	800.000	0.163	0.476
-182.071	182.186	-0.245	0.356
-181.056	514.787	-0.102	-0.235
-180.042	800.000	-0.038	-0.113
-179.027	-90.283	0.049	0.014
-178.012	-200.000	-0.050	-0.297
-176.998	123.274	0.155	-0.191
-175.983	-200.000	-0.025	-0.232
-174.969	232.311	-0.052	0.084
-173.954	34.395	0.310	0.267
-172.939	205.546	0.015	-0.023
-171.925	159.265	-0.089	0.122
-170.910	800.000	0.057	0.167
-169.896	800.000	0.080	-0.225
-168.881	-134.394	-0.109	-0.013
-167.866	-200.000	0.006	-0.067
-166.852	612.157	-0.101	-0.248
-165.837	460.612	-0.087	-0.191
-164.823	388.713	-0.098	-0.201
-163.808	-0.944	-0.226	0.158
-162.793	-83.026	0.188	0.060
-161.779	-68.463	-0.213	0.081
-160.764	-200.000	-0.041	0.226
-159.750	488.552	-0.127	-0.287
-158.735	-30.768	0.521	0.290
-157.720	452.234	-0.131	0.286
-156.706	800.000	-0.095	-0.305
-155.691	335.947	-0.033	-0.063
-154.677	800.000	-0.050	-0.161
-153.662	800.000	-0.062	-0.235
-152.647	-194.377	-0.058	-0.000
-151.633	-200.000	0.013	0.080
-150.618	-86.175	-0.163	0.050
-149.604	-89.912	-0.100	0.029
-148.589	-103.247	0.096	0.022
-147.574	0.950	0.094	-0.066
-146.560	141.352	-0.198	-0.258
-145.545	474.854	0.061	-0.136
-144.531	104.754	0.165	-0.192
-143.516	300.560	-0.051	0.093
-142.502	-200.000	-0.047	0.209
-141.487	409.625	-0.061	-0.127
-140.472	3.920	-0.184	0.133
-139.458	-200.000	-0.039	-0.180
-138.443	293.682	0.158	0.284
-137.429	-91.623	0.164	0.046
-136.414	221.009	-0.258	-0.408
-135.399	564.181	-0.032	-0.077
-134.385	-35.288	0.180	0.096
-133.370	95.118	-0.120	0.134
-132.356	77.573	-0.139	-0.146
-131.341	-200.000	-0.002	0.555
-130.326	22.125	0.395	0.318
-129.312	-137.376	-0.108	0.012
-128.297	-200.000	0.005	0.193
-127.283	800.000	0.022	-0.078
-126.268	72.453	0.096	-0.098
-125.253	158.522	0.090	-0.123
-124.239	-55.633	0.120	-0.053
-123.224	-102.928	0.060	0.014
-122.210	800.000	0.101	-0.310
-121.195	800.000	0.102	-0.354
