DTS Sentinel unit serial number:	SN413079Multiplexer serial number:	ORYXHardware model number:	OX4-SRSoftware version number:	ORYX F/W v4.00 Oryx Data Collector v3.7.2.0data status	okinstallation	princeton_trtdifferential loss correction	single-endedforward channel	channel 1reverse channel	N/Adate	2019/09/10time	23:28:11forward acquisition time	60.00reverse acquisition time	0.00gamma	496.2192k internal	0.2331k external	0.2331temperature offset calibration	0.9936default loss term (dB/km)	0.3790temperature slope calibration	1.0000multiplexer offset coefficient	1.0000multiplexer slope coefficient	1.0000fibre end	0.00T internal ref (°C)	29.73T ext. ref 1 (°C)	-0.31T ext. ref 2 (°C)	23.10length (m)	temperature (°C)	Stokes	anti-Stokes-747.200	71.519	0.068	0.071
-746.185	-200.000	0.011	0.071
-745.171	800.000	-0.054	0.199
-744.156	128.106	-0.144	0.185
-743.142	-65.851	-0.078	0.032
-742.127	-200.000	-0.031	-0.139
-741.112	-91.631	0.156	-0.045
-740.098	-71.734	0.076	-0.029
-739.083	755.659	-0.063	0.171
-738.069	-8.764	-0.065	0.044
-737.054	-200.000	0.004	-0.209
-736.039	158.815	-0.126	-0.176
-735.025	-9.755	-0.136	0.091
-734.010	-28.816	-0.320	-0.185
-732.996	-51.624	-0.359	-0.169
-731.981	475.409	-0.077	-0.176
-730.966	-8.581	0.311	0.210
-729.952	-39.048	-0.303	0.160
-728.937	-200.000	-0.051	0.541
-727.923	-156.298	-0.239	-0.015
-726.908	800.000	0.099	-0.308
-725.894	-200.000	0.000	-0.412
-724.879	-200.000	0.034	0.191
-723.864	407.251	0.168	-0.356
-722.850	-200.000	0.005	-0.252
-721.835	223.884	-0.083	0.134
-720.821	-40.574	-0.192	-0.100
-719.806	-137.566	-0.096	-0.011
-718.791	-118.570	-0.288	0.051
-717.777	-68.594	0.251	-0.098
-716.762	44.118	-0.408	-0.376
-715.748	-76.012	0.355	-0.126
-714.733	-81.824	-0.172	-0.057
-713.718	-163.436	-0.179	-0.009
-712.704	-200.000	-0.003	-0.022
-711.689	41.852	0.221	-0.201
-710.675	-186.808	-0.109	0.002
-709.660	-150.918	-0.404	-0.031
-708.645	-64.516	0.277	-0.113
-707.631	112.002	-0.055	-0.067
-706.616	-128.001	-0.133	0.019
-705.602	-200.000	0.021	-0.197
-704.587	19.393	0.202	-0.163
-703.572	303.365	0.015	-0.028
-702.558	-200.000	0.014	0.151
-701.543	-162.697	0.113	-0.006
-700.529	-127.869	-0.138	0.020
-699.514	105.990	0.057	-0.067
-698.499	-200.000	0.004	0.127
-697.485	237.442	-0.223	-0.372
-696.470	-5.939	-0.147	0.101
-695.456	-56.592	-0.190	-0.084
-694.441	-146.863	0.551	0.048
-693.426	-41.201	-0.355	-0.184
-692.412	-85.358	0.227	0.071
-691.397	163.915	-0.065	-0.092
-690.383	-118.317	-0.332	-0.059
-689.368	-165.162	-0.081	0.004
-688.354	-73.224	0.216	0.079
-687.339	299.528	-0.165	-0.305
-686.324	-200.000	-0.017	0.263
-685.310	696.110	-0.078	-0.206
-684.295	193.792	0.072	-0.110
-683.281	73.783	0.091	0.095
-682.266	-200.000	-0.002	0.009
-681.251	478.631	-0.115	-0.262
-680.237	-63.412	0.155	-0.064
-679.222	-6.503	-0.323	0.221
-678.208	58.224	0.077	0.076
-677.193	328.364	-0.031	0.059
-676.178	-44.786	0.528	-0.265
-675.164	-192.482	-0.338	0.003
-674.149	-200.000	0.030	-0.236
-673.135	204.446	0.132	0.206
-672.120	800.000	0.037	-0.120
-671.105	33.612	0.146	0.128
-670.091	-26.452	0.153	-0.090
-669.076	246.952	-0.038	0.065
-668.062	19.465	-0.136	0.110
-667.047	53.771	-0.095	0.092
-666.032	-151.937	-0.319	-0.023
-665.018	-138.681	0.064	0.007
-664.003	-190.760	-0.269	0.003
-662.989	51.117	0.042	-0.040
-661.974	-200.000	-0.061	-0.374
-660.959	-41.360	-0.182	0.094
-659.945	347.643	0.069	0.135
-658.930	-30.385	-0.200	0.114
-657.916	33.365	0.074	0.064
-656.901	-42.700	-0.305	0.155
-655.886	-76.193	-0.346	-0.122
-654.872	-28.810	-0.363	-0.209
-653.857	-95.304	-0.361	0.097
-652.843	570.212	0.076	0.186
-651.828	68.029	-0.184	-0.189
-650.814	378.308	0.158	0.325
-649.799	-18.425	-0.246	-0.154
-648.784	-200.000	-0.001	0.145
-647.770	316.074	0.133	-0.252
-646.755	-200.000	-0.065	0.318
-645.741	75.299	-0.075	0.079
-644.726	30.538	-0.208	-0.178
-643.711	10.014	-0.282	-0.214
-642.697	-55.810	-0.148	0.066
-641.682	800.000	-0.038	0.134
-640.668	88.976	-0.096	0.107
-639.653	-200.000	0.030	0.143
-638.638	-111.779	-0.164	-0.033
-637.624	18.405	-0.195	-0.156
-636.609	78.607	-0.179	-0.192
-635.595	-14.588	0.335	0.216
-634.580	-200.000	0.014	0.437
-633.565	155.369	-0.057	-0.078
-632.551	554.509	-0.091	-0.218
-631.536	-98.876	-0.046	0.012
-630.522	284.721	0.129	-0.233
-629.507	259.552	-0.064	0.110
-628.492	256.768	0.097	0.167
-627.478	-40.757	-0.107	0.055
-626.463	-200.000	0.012	0.368
-625.449	-200.000	-0.007	0.376
-624.434	-74.052	0.288	0.104
-623.419	87.026	-0.149	0.165
-622.405	-200.000	-0.044	0.411
-621.390	28.954	0.095	0.081
-620.376	-54.604	0.283	0.128
-619.361	-39.608	0.101	0.053
-618.346	-169.657	0.154	-0.006
-617.332	-200.000	-0.046	-0.288
-616.317	724.482	-0.090	0.240
-615.303	-200.000	0.015	0.124
-614.288	-156.693	-0.172	-0.011
-613.273	119.565	-0.326	-0.405
-612.259	-200.000	-0.010	-0.338
-611.244	-38.806	0.197	-0.104
-610.230	-158.712	0.293	0.017
-609.215	381.450	-0.160	0.328
-608.201	80.924	-0.168	0.182
-607.186	141.000	-0.073	0.097
-606.171	74.542	-0.338	0.356
-605.157	-34.083	0.240	0.132
-604.142	47.050	0.096	-0.090
-603.128	-3.046	0.113	0.079
-602.113	-200.000	0.012	-0.129
-601.098	62.528	-0.178	0.178
-600.084	-113.696	0.392	0.077
-599.069	295.891	-0.083	0.153
-598.055	2.993	0.083	0.060
-597.040	66.078	-0.279	0.284
-596.025	-46.942	-0.249	-0.122
-595.011	413.728	0.007	0.015
-593.996	-147.691	-0.024	-0.002
-592.982	-200.000	-0.005	-0.085
-591.967	199.609	-0.167	0.256
-590.952	-200.000	-0.020	0.138
-589.938	137.448	0.161	-0.211
-588.923	800.000	0.018	0.060
-587.909	196.975	-0.177	-0.270
-586.894	-200.000	-0.071	-0.430
-585.879	-13.319	-0.249	-0.161
-584.865	-39.655	-0.272	0.142
-583.850	-84.757	0.109	0.034
-582.836	-102.680	-0.356	0.085
-581.821	-49.699	-0.127	0.061
-580.806	-200.000	0.000	-0.082
-579.792	-130.624	0.175	-0.024
-578.777	800.000	0.155	0.480
-577.763	-89.634	-0.063	-0.018
-576.748	94.615	-0.197	0.224
-575.733	216.520	-0.059	0.094
-574.719	-67.229	-0.033	-0.013
-573.704	-200.000	-0.015	0.175
-572.690	60.007	0.349	-0.345
-571.675	-161.466	0.305	-0.016
-570.661	-200.000	0.054	-0.410
-569.646	88.743	-0.150	-0.167
-568.631	-22.352	-0.228	-0.138
-567.617	-116.001	-0.311	-0.058
-566.602	97.162	0.078	0.089
-565.588	143.334	0.038	-0.050
-564.573	-200.000	0.039	0.184
-563.558	-142.681	-0.132	-0.013
-562.544	800.000	0.055	-0.181
-561.529	-106.144	-0.358	0.080
-560.515	73.811	0.191	-0.200
-559.500	21.374	-0.244	-0.198
-558.485	-69.753	0.065	0.025
-557.471	-200.000	0.009	-0.049
-556.456	80.787	-0.072	-0.077
-555.442	-200.000	-0.005	-0.129
-554.427	-10.053	-0.185	-0.123
-553.412	4.313	0.241	0.177
-552.398	473.304	-0.045	-0.102
-551.383	85.003	-0.305	-0.334
-550.369	-184.343	0.157	0.003
-549.354	-141.188	-0.229	0.023
-548.339	-200.000	0.025	-0.117
-547.325	-200.000	0.035	-0.486
-546.310	6.020	-0.117	-0.086
-545.296	104.164	-0.190	-0.223
-544.281	67.150	-0.077	-0.079
-543.266	-200.000	-0.052	0.421
-542.252	-95.961	0.192	-0.051
-541.237	-107.943	0.205	0.044
-540.223	-200.000	-0.025	-0.108
-539.208	-93.346	-0.282	0.078
-538.193	221.578	-0.044	0.071
-537.179	468.246	-0.019	-0.043
-536.164	-200.000	0.002	-0.063
-535.150	-200.000	0.047	-0.236
-534.135	-44.633	-0.151	0.075
-533.121	37.450	-0.136	-0.120
-532.106	-200.000	0.000	0.091
-531.091	113.434	-0.188	0.228
-530.077	25.321	0.290	-0.241
-529.062	545.238	0.089	0.213
-528.048	24.100	0.112	-0.092
-527.033	-76.086	0.250	0.088
-526.018	-120.926	0.423	-0.071
-525.004	441.151	0.147	0.321
-523.989	20.257	0.105	-0.084
-522.975	-200.000	-0.031	-0.192
-521.960	82.903	-0.205	-0.223
-520.945	26.839	0.058	0.048
-519.931	-55.040	0.234	0.105
-518.916	-188.604	0.281	0.003
-517.902	13.407	0.350	0.271
-516.887	122.685	-0.080	0.099
-515.872	800.000	-0.100	0.304
-514.858	139.968	-0.092	-0.122
-513.843	123.901	0.094	0.118
-512.829	-43.090	-0.108	0.055
-511.814	-200.000	-0.030	-0.250
-510.799	275.808	0.059	0.104
-509.785	543.852	-0.024	-0.057
-508.770	74.637	0.140	-0.147
-507.756	-85.668	-0.494	-0.153
-506.741	184.046	-0.142	0.209
-505.726	-83.918	0.074	0.023
-504.712	-200.000	0.009	-0.152
-503.697	-200.000	0.035	-0.205
-502.683	41.916	0.147	0.133
-501.668	34.576	-0.157	-0.137
-500.653	49.078	0.082	0.077
-499.639	-126.687	-0.330	0.049
-498.624	100.507	-0.237	-0.274
-497.610	800.000	0.056	-0.211
-496.595	-200.000	0.004	0.099
-495.581	-54.343	0.186	-0.084
-494.566	-48.915	0.322	-0.154
-493.551	-63.529	0.239	0.098
-492.537	-200.000	0.024	-0.160
-491.522	325.060	-0.129	0.245
-490.508	166.987	-0.171	-0.241
-489.493	800.000	0.025	-0.110
-488.478	-141.468	-0.219	-0.022
-487.464	-72.889	0.387	-0.142
-486.449	-19.531	0.215	-0.133
-485.435	-3.694	-0.185	-0.128
-484.420	-79.589	-0.298	0.100
-483.405	-63.388	-0.111	0.045
-482.391	-144.245	-0.118	-0.011
-481.376	-200.000	-0.032	-0.299
-480.362	-27.796	-0.065	0.038
-479.347	61.403	-0.123	0.122
-478.332	-200.000	-0.023	0.307
-477.318	-200.000	0.019	0.165
-476.303	-87.363	-0.289	0.087
-475.289	-4.257	-0.103	0.071
-474.274	-2.766	-0.220	0.153
-473.259	-118.907	-0.183	0.032
-472.245	-200.000	0.050	0.321
-471.230	-84.060	-0.083	0.026
-470.216	-200.000	-0.010	0.076
-469.201	-200.000	0.023	0.117
-468.186	7.700	-0.053	0.040
-467.172	-200.000	0.035	-0.198
-466.157	-48.078	-0.260	-0.125
-465.143	800.000	0.104	0.287
-464.128	-103.210	0.274	0.064
-463.113	-54.835	0.233	-0.105
-462.099	-96.968	0.198	0.052
-461.084	53.992	0.232	0.222
-460.070	800.000	0.015	-0.044
-459.055	-200.000	0.020	-0.151
-458.040	-70.524	-0.371	0.140
-457.026	-200.000	-0.002	-0.273
-456.011	-8.881	-0.191	0.128
-454.997	-142.901	-0.353	-0.034
-453.982	-115.138	0.144	-0.027
-452.968	-200.000	-0.030	0.146
-451.953	-44.543	-0.087	0.043
-450.938	-58.909	0.016	-0.007
-449.924	-84.881	0.249	0.078
-448.909	-34.104	0.100	0.055
-447.895	800.000	0.038	0.118
-446.880	333.132	-0.146	-0.280
-445.865	86.032	-0.160	-0.175
-444.851	267.249	0.141	0.245
-443.836	-0.639	-0.125	-0.088
-442.822	-99.950	-0.072	0.018
-441.807	-99.336	0.234	-0.059
-440.792	800.000	0.059	-0.174
-439.778	688.062	0.083	-0.217
-438.763	9.107	-0.403	0.302
-437.749	-94.921	-0.182	-0.049
-436.734	800.000	-0.053	-0.153
-435.719	-200.000	0.076	0.386
-434.705	199.965	-0.080	0.123
-433.690	93.810	-0.120	0.135
-432.676	22.900	-0.352	0.287
-431.661	-200.000	0.013	-0.212
-430.646	-146.433	0.100	0.009
-429.632	-200.000	-0.016	-0.075
-428.617	800.000	0.032	-0.115
-427.603	451.181	0.047	-0.103
-426.588	71.051	-0.046	-0.047
-425.573	-200.000	0.007	0.133
-424.559	-200.000	-0.001	-0.353
-423.544	-82.662	0.126	-0.041
-422.530	-23.655	0.091	0.054
-421.515	-200.000	0.026	-0.274
-420.500	548.131	0.035	-0.083
-419.486	47.513	-0.059	0.055
-418.471	-86.349	-0.150	-0.046
-417.457	-200.000	-0.099	0.431
-416.442	277.945	0.051	0.091
-415.428	129.724	0.203	0.257
-414.413	800.000	0.037	-0.128
-413.398	-200.000	0.043	-0.258
-412.384	432.495	-0.160	-0.346
-411.369	-86.434	0.081	0.025
-410.355	79.910	0.301	0.321
-409.340	-148.366	0.281	-0.023
-408.325	-119.883	0.371	-0.063
-407.311	-200.000	0.046	-0.240
-406.296	-68.958	0.145	-0.055
-405.282	-200.000	-0.032	0.188
-404.267	-200.000	0.016	0.239
-403.252	-65.127	0.090	-0.036
-402.238	150.029	-0.104	0.139
-401.223	-96.480	-0.087	0.023
-400.209	-83.407	-0.231	0.074
-399.194	-200.000	0.006	-0.133
-398.179	-36.964	0.131	0.070
-397.165	110.389	0.024	-0.029
-396.150	-145.425	-0.231	0.021
-395.136	-47.060	0.166	0.080
-394.121	55.142	-0.191	0.183
-393.106	79.286	-0.169	-0.180
-392.092	-200.000	-0.002	0.026
-391.077	11.263	0.328	0.249
-390.063	-17.606	-0.254	-0.158
-389.048	-159.632	0.183	-0.010
-388.033	-15.700	-0.078	-0.050
-387.019	71.406	0.316	0.325
-386.004	-130.445	-0.329	-0.044
-384.990	-200.000	-0.008	-0.120
-383.975	-23.356	-0.113	0.068
-382.960	-115.827	0.258	0.048
-381.946	499.948	-0.088	-0.202
-380.931	-127.529	0.114	0.016
-379.917	92.046	-0.035	0.040
-378.902	-200.000	-0.018	0.271
-377.888	87.995	0.188	0.207
-376.873	-98.910	0.057	0.014
-375.858	-32.809	0.182	0.100
-374.844	-55.420	0.109	-0.049
-373.829	-120.684	-0.068	-0.011
-372.815	800.000	-0.122	-0.384
-371.800	144.008	-0.081	-0.107
-370.785	800.000	-0.074	-0.288
-369.771	800.000	0.049	-0.152
-368.756	35.902	-0.308	-0.269
-367.742	-94.055	-0.294	0.080
-366.727	-126.204	-0.232	0.034
-365.712	305.406	0.048	-0.088
-364.698	160.904	-0.153	0.211
-363.683	800.000	-0.036	0.127
-362.669	-89.187	0.605	-0.177
-361.654	101.780	-0.161	0.187
-360.639	66.295	-0.107	-0.107
-359.625	109.780	-0.094	0.112
-358.610	420.447	0.018	0.037
-357.596	800.000	-0.043	-0.181
-356.581	-6.482	0.202	-0.136
-355.566	95.640	-0.155	-0.175
-354.552	-47.561	-0.119	0.058
-353.537	76.000	0.169	-0.177
-352.523	-59.132	-0.238	0.102
-351.508	1.472	0.180	0.128
-350.493	800.000	0.058	0.207
-349.479	-200.000	-0.042	0.191
-348.464	149.095	0.127	-0.170
-347.450	56.760	0.111	0.107
-346.435	-85.801	0.210	0.065
-345.420	77.062	-0.235	-0.248
-344.406	-84.198	-0.053	-0.017
-343.391	-73.349	-0.111	-0.040
-342.377	-200.000	-0.021	0.147
-341.362	800.000	-0.084	-0.262
-340.348	-14.040	-0.172	-0.110
-339.333	27.732	0.324	0.270
-338.318	-176.992	0.312	0.008
-337.304	-117.970	-0.188	-0.033
-336.289	-87.481	-0.284	0.085
-335.275	-171.081	-0.145	-0.005
-334.260	-180.551	-0.114	-0.002
-333.245	82.763	0.108	0.117
-332.231	-77.061	-0.136	-0.047
-331.216	600.711	0.110	0.270
-330.202	-200.000	-0.007	0.115
-329.187	-18.823	-0.280	-0.173
-328.172	800.000	0.101	-0.347
-327.158	-57.430	-0.142	0.062
-326.143	-156.183	-0.071	-0.004
-325.129	471.924	-0.101	0.225
-324.114	434.265	0.078	-0.167
-323.099	14.252	-0.161	-0.124
-322.085	324.263	-0.035	-0.066
-321.070	32.370	-0.179	0.153
-320.056	-102.214	-0.240	-0.057
-319.041	-55.489	-0.262	-0.116
-318.026	-124.495	-0.184	0.028
-317.012	-200.000	-0.030	-0.144
-315.997	-89.780	-0.260	-0.075
-314.983	32.826	-0.170	0.146
-313.968	-200.000	-0.013	-0.069
-312.953	-200.000	-0.001	-0.063
-311.939	-147.754	0.121	-0.010
-310.924	-200.000	0.033	-0.366
-309.910	761.047	-0.002	-0.005
-308.895	-200.000	0.006	-0.185
-307.880	-200.000	-0.033	0.308
-306.866	-106.661	-0.178	0.039
-305.851	203.497	-0.170	0.260
-304.837	-44.273	-0.140	0.069
-303.822	25.506	-0.081	-0.067
-302.807	723.185	-0.041	0.108
-301.793	-0.081	0.192	0.135
-300.778	191.739	0.266	0.396
-299.764	231.348	-0.088	0.143
-298.749	372.570	-0.141	-0.283
-297.735	37.531	-0.109	-0.096
-296.720	800.000	-0.025	-0.098
-295.705	-87.829	-0.306	0.091
-294.691	102.508	0.113	-0.131
-293.676	-200.000	0.045	-0.331
-292.662	69.639	0.302	-0.308
-291.647	-88.646	0.276	-0.081
-290.632	-3.690	-0.194	-0.133
-289.618	-200.000	-0.007	0.067
-288.603	-45.513	0.152	0.075
-287.589	-200.000	-0.028	0.170
-286.574	50.686	0.397	-0.372
-285.559	77.181	0.171	-0.180
-284.545	-8.409	-0.093	0.062
-283.530	-9.294	0.148	-0.098
-282.516	-92.946	0.061	-0.017
-281.501	-113.215	0.011	-0.002
-280.486	57.177	-0.224	0.216
-279.472	800.000	0.030	0.084
-278.457	613.816	0.061	-0.150
-277.443	-200.000	0.015	0.162
-276.428	-58.447	0.126	0.054
-275.413	800.000	0.102	-0.289
-274.399	33.201	0.214	0.184
-273.384	-124.042	0.103	-0.016
-272.370	-133.805	-0.038	0.005
-271.355	-27.455	-0.287	0.165
-270.340	188.398	0.037	0.055
-269.326	-112.617	0.128	-0.025
-268.311	104.820	0.106	-0.123
-267.297	158.231	0.058	-0.079
-266.282	800.000	-0.039	0.139
-265.267	71.646	0.164	0.169
-264.253	-130.875	0.238	0.032
-263.238	-44.725	-0.073	0.036
-262.224	-200.000	-0.005	-0.506
-261.209	475.691	0.064	0.143
-260.195	-57.922	0.180	0.078
-259.180	-40.959	0.211	-0.108
-258.165	-40.924	0.500	0.255
-257.151	5.155	0.056	-0.041
-256.136	-92.448	-0.252	0.070
-255.122	-200.000	-0.020	0.427
-254.107	139.741	-0.135	0.176
-253.092	-16.131	0.167	0.105
-252.078	-141.016	0.171	-0.017
-251.063	120.002	-0.216	-0.264
-250.049	32.107	0.060	-0.051
-249.034	424.517	-0.057	-0.121
-248.019	291.550	-0.053	0.095
-247.005	-56.366	0.012	0.005
-245.990	-89.365	0.210	-0.061
-244.976	-200.000	-0.010	-0.315
-243.961	111.881	0.297	-0.353
-242.946	234.811	-0.231	0.377
-241.932	-29.046	-0.109	0.062
-240.917	-200.000	0.018	-0.285
-239.903	216.610	-0.108	-0.169
-238.888	30.506	-0.043	-0.036
-237.873	565.203	0.027	0.063
-236.859	-41.334	0.383	-0.195
-235.844	-119.752	-0.207	0.035
-234.830	-75.320	-0.089	-0.031
-233.815	-174.340	0.400	-0.011
-232.800	-200.000	-0.009	0.298
-231.786	-130.109	-0.119	0.016
-230.771	188.890	0.173	-0.256
-229.757	800.000	-0.072	-0.223
-228.742	800.000	-0.041	0.131
-227.727	82.299	0.242	-0.259
-226.713	-200.000	-0.061	-0.531
-225.698	180.240	0.097	-0.141
-224.684	21.244	0.282	-0.226
-223.669	-41.456	0.257	0.130
-222.655	-105.051	0.163	0.037
-221.640	-151.322	0.291	0.021
-220.625	-30.680	0.126	0.070
-219.611	-200.000	-0.024	-0.237
-218.596	-83.184	0.319	0.101
-217.582	70.917	-0.122	-0.124
-216.567	-200.000	-0.014	-0.063
-215.552	285.766	0.288	0.513
-214.538	-97.197	0.080	0.021
-213.523	-200.000	0.006	0.383
-212.509	-31.133	0.157	-0.087
-211.494	-87.045	-0.237	0.071
-210.479	800.000	0.054	0.190
-209.465	800.000	0.085	0.360
-208.450	379.525	-0.003	-0.005
-207.436	-75.800	-0.225	-0.078
-206.421	-129.422	-0.267	-0.036
-205.406	-200.000	-0.007	0.073
-204.392	25.811	-0.085	-0.070
-203.377	179.537	0.088	0.128
-202.363	-1.951	0.154	-0.107
-201.348	134.050	0.042	-0.054
-200.333	800.000	-0.003	-0.008
-199.319	54.838	0.098	0.093
-198.304	155.987	-0.061	-0.082
-197.290	543.531	0.089	-0.210
-196.275	5.918	-0.152	-0.111
-195.260	-200.000	-0.060	0.307
-194.246	162.360	-0.105	0.145
-193.231	781.824	-0.149	-0.402
-192.217	30.684	0.319	-0.269
-191.202	-186.446	0.371	0.005
-190.187	-47.633	0.080	0.038
-189.173	-109.294	0.097	0.020
-188.158	408.153	-0.121	-0.252
-187.144	800.000	0.043	-0.132
-186.129	-69.596	-0.220	-0.083
-185.114	800.000	0.058	0.201
-184.100	-42.693	0.080	-0.040
-183.085	-200.000	0.007	-0.031
-182.071	-83.171	-0.312	-0.099
-181.056	187.436	-0.127	0.187
-180.042	-200.000	-0.015	0.227
-179.027	-9.152	0.043	-0.028
-178.012	800.000	-0.044	0.150
-176.998	-133.485	-0.227	0.028
-175.983	-12.360	0.213	-0.137
-174.969	-200.000	-0.004	0.091
-173.954	-200.000	0.066	-0.299
-172.939	-83.378	0.264	0.083
-171.925	-200.000	0.010	-0.235
-170.910	51.016	0.149	0.139
-169.896	184.198	0.042	0.061
-168.881	-13.589	-0.050	0.032
-167.866	163.779	-0.116	-0.160
-166.852	-65.397	0.296	-0.117
-165.837	249.944	0.110	0.184
-164.823	8.971	-0.039	0.029
-163.808	83.339	-0.068	0.073
-162.793	-186.442	0.393	0.006
-161.779	235.021	0.019	0.031
-160.764	174.912	-0.073	0.104
-159.750	374.572	-0.059	-0.119
-158.735	-176.112	0.239	-0.006
-157.720	-159.277	0.536	0.030
-156.706	-22.393	0.216	0.128
-155.691	-200.000	-0.007	0.149
-154.677	-200.000	-0.007	0.182
-153.662	133.385	0.126	0.161
-152.647	-111.324	-0.042	0.008
-151.633	-200.000	0.010	0.245
-150.618	91.614	0.146	0.161
-149.604	120.971	-0.214	-0.262
-148.589	-72.262	0.216	-0.079
-147.574	25.217	-0.199	0.163
-146.560	-64.375	-0.077	-0.031
-145.545	-200.000	-0.025	0.118
-144.531	50.756	-0.104	-0.097
-143.516	236.535	0.061	0.099
-142.502	-79.384	0.345	0.115
-141.487	528.591	-0.087	0.202
-140.472	-200.000	0.012	0.072
-139.458	617.932	-0.059	0.145
-138.443	18.680	0.124	-0.098
-137.429	129.855	0.238	-0.299
-136.414	319.523	0.061	-0.113
-135.399	-18.593	-0.085	-0.052
-134.385	334.985	-0.161	-0.306
-133.370	75.496	0.279	0.289
-132.356	24.059	-0.082	0.067
-131.341	75.707	0.235	-0.244
-130.326	-48.692	0.479	-0.226
-129.312	800.000	-0.144	0.451
-128.297	-57.813	0.116	-0.050
-127.283	-170.669	0.093	0.003
-126.268	-97.447	0.117	-0.030
-125.253	9.328	0.157	0.116
-124.239	-200.000	-0.010	-0.107
-123.224	-120.034	-0.048	0.008
-122.210	-200.000	-0.001	0.090
-121.195	800.000	-0.044	0.170
