DTS Sentinel unit serial number:	SN413079Multiplexer serial number:	ORYXHardware model number:	OX4-SRSoftware version number:	ORYX F/W v4.00 Oryx Data Collector v3.7.2.0data status	okinstallation	princeton_trtdifferential loss correction	single-endedforward channel	channel 1reverse channel	N/Adate	2019/09/14time	02:26:35forward acquisition time	60.00reverse acquisition time	0.00gamma	496.2192k internal	0.2336k external	0.2336temperature offset calibration	1.0078default loss term (dB/km)	0.3790temperature slope calibration	1.0000multiplexer offset coefficient	1.0000multiplexer slope coefficient	1.0000fibre end	0.00T internal ref (°C)	26.52T ext. ref 1 (°C)	3.21T ext. ref 2 (°C)	21.50length (m)	temperature (°C)	Stokes	anti-Stokes-747.200	151.119	0.012	0.017
-746.185	-200.000	-0.020	0.112
-745.171	-111.414	-0.239	0.049
-744.156	-200.000	-0.089	0.431
-743.142	800.000	-0.119	0.416
-742.127	-200.000	-0.002	-0.070
-741.112	-17.851	0.342	-0.216
-740.098	318.469	-0.124	-0.236
-739.083	-160.008	0.141	-0.008
-738.069	-74.671	-0.343	0.124
-737.054	23.109	-0.144	-0.118
-736.039	-190.231	-0.224	-0.002
-735.025	121.108	0.125	0.156
-734.010	-23.149	-0.177	0.107
-732.996	-87.834	-0.077	-0.023
-731.981	90.294	-0.307	-0.345
-730.966	-28.055	-0.271	-0.157
-729.952	-28.425	0.189	-0.109
-728.937	76.284	-0.101	-0.107
-727.923	-200.000	-0.028	-0.475
-726.908	275.609	0.069	0.122
-725.894	-200.000	0.008	0.134
-724.879	-150.156	0.477	-0.037
-723.864	244.818	-0.129	-0.218
-722.850	-43.053	0.246	-0.125
-721.835	-200.000	0.010	-0.162
-720.821	172.001	-0.044	-0.063
-719.806	-200.000	-0.021	0.236
-718.791	260.473	-0.261	-0.453
-717.777	25.104	-0.134	0.112
-716.762	-200.000	-0.035	-0.291
-715.748	800.000	-0.036	-0.112
-714.733	-136.016	-0.205	-0.024
-713.718	84.797	-0.265	-0.291
-712.704	-121.948	-0.222	0.037
-711.689	-45.723	-0.415	-0.206
-710.675	127.836	-0.241	0.307
-709.660	-55.613	0.076	0.034
-708.645	-106.861	0.150	0.033
-707.631	-94.776	-0.268	-0.073
-706.616	-52.180	-0.182	-0.085
-705.602	-24.261	-0.272	-0.163
-704.587	-43.655	-0.261	0.132
-703.572	-135.545	-0.288	0.034
-702.558	139.798	-0.191	0.253
-701.543	-54.546	-0.380	0.172
-700.529	-97.067	-0.284	-0.075
-699.514	800.000	-0.045	-0.124
-698.499	37.650	-0.195	-0.173
-697.485	595.518	-0.083	0.207
-696.470	-200.000	-0.001	0.060
-695.456	-49.579	0.186	0.089
-694.441	-144.271	0.067	0.006
-693.426	189.231	0.073	0.110
-692.412	15.636	-0.059	-0.046
-691.397	-142.726	-0.505	-0.049
-690.383	-97.935	-0.394	-0.102
-689.368	40.166	-0.132	-0.119
-688.354	80.532	-0.223	0.241
-687.339	608.221	0.049	0.122
-686.324	286.244	-0.124	-0.225
-685.310	558.813	-0.023	-0.056
-684.295	800.000	-0.068	0.205
-683.281	539.553	-0.097	0.231
-682.266	-101.215	-0.164	-0.040
-681.251	-200.000	0.002	0.018
-680.237	800.000	0.056	0.166
-679.222	51.050	-0.088	-0.084
-678.208	250.324	-0.155	0.263
-677.193	-153.079	-0.095	0.007
-676.178	62.440	0.088	-0.088
-675.164	-81.343	0.040	-0.013
-674.149	-84.312	0.239	-0.076
-673.135	-200.000	-0.005	-0.025
-672.120	155.751	-0.166	-0.228
-671.105	-84.846	-0.308	-0.097
-670.091	-88.584	0.176	-0.053
-669.076	-200.000	-0.034	0.174
-668.062	-142.062	-0.130	-0.013
-667.047	54.264	0.127	-0.122
-666.032	-159.615	-0.064	-0.004
-665.018	-158.450	0.090	0.005
-664.003	-161.727	-0.148	0.008
-662.989	123.026	-0.145	0.182
-661.974	-164.353	0.201	0.009
-660.959	-39.382	-0.142	-0.075
-659.945	138.114	-0.148	-0.194
-658.930	199.502	-0.211	0.323
-657.916	-130.552	0.230	0.031
-656.901	800.000	-0.098	0.275
-655.886	115.528	-0.050	-0.061
-654.872	31.352	0.072	0.062
-653.857	-193.892	-0.124	0.001
-652.843	800.000	0.083	0.293
-651.828	213.984	-0.315	-0.499
-650.814	355.298	0.112	0.224
-649.799	800.000	-0.044	0.152
-648.784	800.000	0.024	-0.104
-647.770	-47.906	-0.129	-0.063
-646.755	-107.301	0.507	0.112
-645.741	-137.722	0.229	-0.026
-644.726	545.763	-0.017	0.041
-643.711	-111.232	0.145	0.030
-642.697	-200.000	-0.040	-0.196
-641.682	-200.000	-0.024	0.242
-640.668	-200.000	-0.100	0.454
-639.653	-90.538	0.199	-0.058
-638.638	800.000	0.072	-0.262
-637.624	-172.156	-0.161	-0.005
-636.609	177.653	0.190	-0.277
-635.595	-7.912	0.155	-0.105
-634.580	52.002	-0.175	0.167
-633.565	-123.824	-0.398	-0.063
-632.551	-158.598	-0.300	0.017
-631.536	-135.380	0.364	-0.043
-630.522	-44.768	-0.127	-0.063
-629.507	205.954	-0.053	-0.082
-628.492	-44.865	-0.171	0.085
-627.478	-76.851	0.109	-0.038
-626.463	-143.192	0.266	0.026
-625.449	50.690	0.160	0.151
-624.434	-200.000	-0.027	-0.242
-623.419	-16.411	0.078	0.049
-622.405	429.434	-0.047	0.101
-621.390	49.137	-0.072	-0.067
-620.376	-144.731	0.153	-0.014
-619.361	-20.486	-0.128	-0.078
-618.346	800.000	-0.054	-0.235
-617.332	-126.000	-0.248	-0.037
-616.317	800.000	-0.061	-0.174
-615.303	-134.403	0.399	-0.049
-614.288	800.000	0.042	-0.169
-613.273	-155.098	0.120	-0.008
-612.259	182.896	0.069	0.101
-611.244	-200.000	-0.003	-0.050
-610.230	488.833	-0.162	-0.370
-609.215	-200.000	-0.047	-0.266
-608.201	-143.221	0.176	-0.017
-607.186	-153.741	0.294	-0.020
-606.171	800.000	-0.169	0.567
-605.157	-28.625	0.253	0.145
-604.142	112.971	-0.073	0.089
-603.128	186.164	-0.088	0.130
-602.113	203.815	-0.083	0.128
-601.098	-72.929	0.176	-0.065
-600.084	-200.000	0.008	0.096
-599.069	-200.000	0.237	-0.000
-598.055	1.106	0.211	-0.151
-597.040	6.504	-0.050	0.037
-596.025	317.281	0.184	-0.347
-595.011	11.482	-0.244	-0.187
-593.996	56.343	0.192	0.186
-592.982	299.006	0.106	-0.194
-591.967	40.541	-0.029	-0.026
-590.952	-76.991	-0.070	-0.024
-589.938	472.817	-0.005	0.011
-588.923	5.483	-0.148	-0.109
-587.909	-200.000	0.023	0.283
-586.894	-46.521	0.235	0.115
-585.879	-200.000	0.016	0.078
-584.865	-178.087	-0.188	0.004
-583.850	26.824	-0.216	-0.181
-582.836	303.974	-0.206	-0.381
-581.821	-25.245	-0.267	-0.158
-580.806	-0.408	-0.117	-0.083
-579.792	747.206	-0.059	0.157
-578.777	-153.998	-0.415	0.028
-577.763	86.426	-0.240	0.265
-576.748	51.425	0.070	-0.067
-575.733	-200.000	0.011	0.234
-574.719	6.898	0.187	-0.139
-573.704	470.317	0.109	0.244
-572.690	-200.000	-0.006	0.075
-571.675	-96.438	0.201	-0.053
-570.661	-15.390	0.176	0.112
-569.646	62.897	-0.409	-0.408
-568.631	95.213	-0.233	-0.264
-567.617	291.474	0.169	0.307
-566.602	-129.450	-0.183	-0.025
-565.588	-70.928	0.353	-0.133
-564.573	-59.274	0.303	-0.130
-563.558	-160.866	0.180	-0.009
-562.544	652.814	-0.038	-0.098
-561.529	-200.000	-0.017	-0.171
-560.515	-81.009	0.106	0.035
-559.500	280.590	-0.265	-0.473
-558.485	-200.000	-0.045	0.204
-557.471	-121.845	0.239	-0.039
-556.456	88.566	-0.068	0.076
-555.442	706.645	-0.052	-0.137
-554.427	25.791	-0.216	-0.179
-553.412	-200.000	0.002	-0.050
-552.398	40.185	-0.151	-0.135
-551.383	-200.000	-0.014	-0.112
-550.369	-200.000	-0.002	0.221
-549.354	-56.195	0.173	0.077
-548.339	800.000	-0.044	0.153
-547.325	661.804	0.083	0.213
-546.310	800.000	-0.018	0.061
-545.296	6.394	-0.179	-0.132
-544.281	-142.930	-0.280	0.027
-543.266	-172.034	-0.222	0.007
-542.252	-200.000	-0.011	0.276
-541.237	4.883	-0.064	0.047
-540.223	800.000	-0.094	-0.265
-539.208	617.977	0.108	-0.270
-538.193	122.421	-0.120	-0.149
-537.179	800.000	0.011	-0.046
-536.164	-24.625	-0.155	-0.092
-535.150	-166.557	0.231	-0.010
-534.135	-200.000	0.016	-0.078
-533.121	189.125	0.106	-0.158
-532.106	487.398	-0.048	-0.108
-531.091	-177.875	-0.228	-0.005
-530.077	-155.324	-0.161	0.010
-529.062	442.779	-0.105	0.229
-528.048	278.138	-0.193	-0.343
-527.033	-200.000	0.005	-0.225
-526.018	-10.801	-0.033	-0.022
-525.004	-132.044	-0.215	0.028
-523.989	-156.888	-0.053	0.003
-522.975	-200.000	0.009	-0.310
-521.960	-200.000	0.035	-0.205
-520.945	-103.508	0.018	-0.004
-519.931	-5.469	-0.254	0.173
-518.916	800.000	0.021	-0.089
-517.902	-188.693	-0.036	-0.000
-516.887	-32.411	0.028	0.016
-515.872	-162.917	-0.040	-0.002
-514.858	-55.133	0.135	0.061
-513.843	-88.176	0.196	-0.058
-512.829	-200.000	-0.021	0.136
-511.814	-200.000	0.017	0.075
-510.799	-200.000	0.024	0.142
-509.785	-134.219	0.304	-0.037
-508.770	109.284	0.212	0.253
-507.756	800.000	0.027	0.104
-506.741	-112.798	-0.129	0.025
-505.726	-86.647	-0.177	-0.054
-504.712	35.224	0.219	0.191
-503.697	800.000	0.007	0.023
-502.683	22.816	0.331	0.270
-501.668	-200.000	-0.020	-0.252
-500.653	102.043	-0.175	0.203
-499.639	37.860	0.245	-0.217
-498.624	-105.008	0.223	-0.051
-497.610	10.695	-0.153	-0.116
-496.595	-99.335	-0.357	-0.089
-495.581	769.148	-0.066	-0.180
-494.566	-200.000	0.042	-0.214
-493.551	-26.713	-0.181	-0.105
-492.537	-39.509	0.166	0.086
-491.522	-90.003	0.065	-0.019
-490.508	-85.487	-0.251	-0.078
-489.493	58.848	0.287	0.281
-488.478	-51.470	-0.318	-0.148
-487.464	255.854	-0.111	0.189
-486.449	-98.088	-0.193	0.049
-485.435	-200.000	-0.005	-0.109
-484.420	-16.112	-0.223	-0.141
-483.405	239.495	-0.134	-0.222
-482.391	10.064	-0.282	-0.213
-481.376	800.000	0.037	-0.109
-480.362	47.682	-0.391	-0.362
-479.347	800.000	0.008	0.028
-478.332	800.000	-0.065	-0.210
-477.318	800.000	0.041	0.149
-476.303	-47.284	-0.133	0.065
-475.289	-81.439	0.135	0.044
-474.274	-67.438	0.130	-0.051
-473.259	-200.000	0.030	0.168
-472.245	-23.106	0.123	-0.073
-471.230	-98.194	0.252	-0.064
-470.216	-159.521	-0.311	-0.017
-469.201	209.519	-0.131	-0.204
-468.186	-80.659	0.337	0.111
-467.172	800.000	0.013	-0.047
-466.157	274.899	-0.140	0.246
-465.143	-200.000	-0.007	-0.369
-464.128	53.665	0.249	-0.238
-463.113	-139.597	-0.394	0.042
-462.099	-88.950	0.143	-0.042
-461.084	175.109	-0.080	-0.115
-460.070	-104.732	0.197	0.045
-459.055	209.261	0.198	-0.308
-458.040	-66.911	-0.267	0.105
-457.026	142.260	0.124	0.163
-456.011	-11.705	0.048	-0.031
-454.997	-19.470	-0.332	0.204
-453.982	-31.322	0.181	-0.101
-452.968	800.000	0.126	0.451
-451.953	-161.129	0.101	0.005
-450.938	32.951	0.110	0.095
-449.924	483.770	0.156	0.352
-448.909	-200.000	-0.006	0.029
-447.895	-200.000	0.077	0.548
-446.880	-200.000	0.011	-0.127
-445.865	-200.000	0.003	-0.147
-444.851	-65.240	0.273	0.109
-443.836	53.836	0.172	-0.164
-442.822	-37.378	0.218	-0.115
-441.807	659.427	0.182	0.464
-440.792	-114.877	-0.377	0.071
-439.778	-64.585	-0.104	0.042
-438.763	115.195	0.028	0.033
-437.749	-186.862	0.261	0.004
-436.734	-10.304	-0.151	-0.100
-435.719	59.114	0.179	0.175
-434.705	-22.327	-0.168	0.101
-433.690	-104.412	-0.287	-0.066
-432.676	-124.554	0.217	0.033
-431.661	55.901	0.249	0.240
-430.646	800.000	0.107	0.301
-429.632	-122.179	-0.121	0.020
-428.617	25.177	-0.366	0.302
-427.603	800.000	-0.015	-0.046
-426.588	-47.177	-0.187	-0.090
-425.573	-200.000	-0.017	-0.433
-424.559	-9.659	-0.215	0.142
-423.544	800.000	-0.051	-0.209
-422.530	-123.813	0.175	-0.027
-421.515	-200.000	0.000	-0.291
-420.500	-115.009	0.275	0.052
-419.486	-141.414	0.191	0.019
-418.471	-25.385	0.201	-0.118
-417.457	-12.955	0.347	0.224
-416.442	6.757	0.102	-0.076
-415.428	-81.746	-0.128	-0.042
-414.413	52.487	0.082	-0.078
-413.398	800.000	0.047	-0.163
-412.384	11.264	0.084	0.063
-411.369	-118.843	0.176	0.031
-410.355	-18.786	-0.191	0.118
-409.340	167.826	0.189	0.267
-408.325	-69.400	0.186	0.071
-407.311	496.632	-0.027	-0.062
-406.296	-200.000	-0.050	0.421
-405.282	-80.228	-0.133	0.044
-404.267	-112.746	-0.243	-0.048
-403.252	607.552	0.107	0.265
-402.238	-77.024	0.270	0.093
-401.223	-65.605	0.068	-0.027
-400.209	272.715	-0.188	-0.329
-399.194	-108.223	-0.123	0.026
-398.179	-200.000	0.026	-0.196
-397.165	215.997	0.101	0.159
-396.150	-47.228	-0.263	0.127
-395.136	648.313	0.091	-0.231
-394.121	800.000	0.062	0.212
-393.106	388.237	0.088	-0.180
-392.092	-105.780	-0.118	0.026
-391.077	-200.000	-0.027	-0.433
-390.063	230.782	-0.090	-0.146
-389.048	26.282	-0.019	-0.016
-388.033	416.010	0.139	-0.295
-387.019	410.019	-0.140	0.295
-386.004	-173.354	-0.104	0.003
-384.990	-175.355	0.244	-0.007
-383.975	-13.265	-0.212	0.136
-382.960	39.735	0.130	-0.116
-381.946	460.126	0.140	-0.309
-380.931	-200.000	0.014	0.084
-379.917	-12.057	0.100	-0.065
-378.902	-110.029	0.221	-0.046
-377.888	-172.380	0.099	0.003
-376.873	-77.789	0.414	-0.142
-375.858	-56.996	0.047	0.020
-374.844	-9.452	-0.212	-0.140
-373.829	25.860	-0.299	-0.247
-372.815	-106.180	0.205	0.046
-371.800	-200.000	0.044	-0.219
-370.785	-167.765	-0.044	-0.002
-369.771	800.000	0.098	0.320
-368.756	-200.000	0.040	0.200
-367.742	238.827	0.073	-0.119
-366.727	-79.610	0.129	-0.043
-365.712	236.794	-0.197	-0.323
-364.698	-111.277	-0.274	-0.055
-363.683	19.664	0.248	-0.198
-362.669	354.167	-0.062	0.123
-361.654	-74.703	-0.209	-0.075
-360.639	-41.939	-0.238	0.121
-359.625	415.603	0.070	-0.148
-358.610	-200.000	-0.019	0.168
-357.596	-200.000	0.014	0.076
-356.581	33.665	-0.221	-0.190
-355.566	229.635	0.070	0.113
-354.552	-81.831	-0.071	0.023
-353.537	91.601	0.197	0.219
-352.523	-28.522	0.040	-0.023
-351.508	74.153	0.264	0.275
-350.493	58.439	0.165	-0.160
-349.479	-79.044	-0.100	0.034
-348.464	92.263	-0.215	0.240
-347.450	137.953	-0.190	0.247
-346.435	550.135	0.094	-0.224
-345.420	-200.000	-0.028	0.188
-344.406	35.704	-0.128	-0.111
-343.391	-98.715	-0.266	0.067
-342.377	86.968	0.047	-0.051
-341.362	26.248	0.140	-0.116
-340.348	-200.000	0.004	0.206
-339.333	-91.629	0.156	0.044
-338.318	327.158	0.241	0.456
-337.304	549.624	-0.057	0.136
-336.289	-200.000	0.013	0.242
-335.275	195.736	-0.223	-0.335
-334.260	-124.513	-0.201	-0.031
-333.245	-103.194	0.090	-0.021
-332.231	30.840	-0.185	0.156
-331.216	192.624	0.030	-0.045
-330.202	-120.971	-0.157	0.026
-329.187	-40.059	0.153	-0.079
-328.172	-79.409	-0.235	0.078
-327.158	128.754	-0.126	0.159
-326.143	25.482	0.137	-0.113
-325.129	800.000	-0.059	0.185
-324.114	-200.000	0.021	-0.244
-323.099	172.943	0.174	0.248
-322.085	-131.186	0.211	0.028
-321.070	800.000	0.102	-0.377
-320.056	-90.999	0.346	0.098
-319.041	-130.260	0.252	0.034
-318.026	-11.255	-0.189	0.123
-317.012	-200.000	-0.056	-0.455
-315.997	497.835	0.034	0.076
-314.983	80.281	0.135	0.144
-313.968	-91.305	0.250	0.071
-312.953	-200.000	0.008	0.081
-311.939	298.479	-0.081	-0.147
-310.924	706.429	-0.084	0.220
-309.910	27.080	-0.262	0.217
-308.895	81.887	-0.185	-0.198
-307.880	133.659	0.333	-0.425
-306.866	-65.545	-0.054	-0.021
-305.851	761.563	-0.089	-0.237
-304.837	800.000	-0.049	0.197
-303.822	20.125	-0.095	0.076
-302.807	800.000	-0.072	-0.309
-301.793	-40.146	0.135	-0.069
-300.778	87.935	-0.092	0.101
-299.764	-200.000	-0.016	0.113
-298.749	-200.000	-0.025	0.251
-297.735	572.220	0.019	0.046
-296.720	766.998	0.004	-0.010
-295.705	-180.254	0.110	0.002
-294.691	-129.667	-0.316	-0.043
-293.676	-200.000	-0.008	0.054
-292.662	-94.835	-0.184	0.049
-291.647	512.344	-0.093	-0.215
-290.632	-200.000	-0.008	0.067
-289.618	-22.104	-0.100	0.060
-288.603	-47.025	0.310	0.149
-287.589	270.339	0.104	-0.180
-286.574	-200.000	0.009	-0.175
-285.559	-200.000	-0.000	-0.084
-284.545	80.554	0.138	-0.146
-283.530	14.903	-0.182	0.140
-282.516	800.000	-0.064	-0.261
-281.501	316.984	0.099	-0.184
-280.486	-51.708	0.215	0.099
-279.472	-38.021	-0.129	0.068
-278.457	42.112	-0.130	-0.116
-277.443	-35.235	0.123	-0.066
-276.428	-44.359	0.105	0.052
-275.413	69.761	0.042	0.043
-274.399	541.397	0.077	-0.180
-273.384	5.987	-0.254	0.185
-272.370	800.000	-0.100	0.292
-271.355	63.443	-0.300	0.297
-270.340	237.126	-0.238	0.389
-269.326	-147.673	-0.111	-0.009
-268.311	-173.689	0.202	-0.006
-267.297	-200.000	0.021	-0.218
-266.282	18.070	-0.273	0.214
-265.267	265.934	0.227	-0.391
-264.253	499.254	0.011	-0.026
-263.238	-200.000	-0.046	0.435
-262.224	-199.963	-0.090	-0.000
-261.209	232.801	0.107	0.174
-260.195	-152.308	0.367	-0.026
-259.180	68.634	0.171	0.173
-258.165	78.022	-0.308	0.324
-257.151	-41.272	0.054	-0.027
-256.136	-24.035	0.190	-0.112
-255.122	-23.512	-0.068	-0.040
-254.107	-16.490	-0.319	0.199
-253.092	205.338	0.079	-0.122
-252.078	425.307	-0.073	-0.154
-251.063	23.004	0.117	0.095
-250.049	178.519	-0.187	-0.268
-249.034	391.557	-0.105	0.215
-248.019	51.002	0.058	-0.054
-247.005	800.000	-0.011	-0.031
-245.990	-68.009	0.243	0.093
-244.976	-200.000	0.086	0.381
-243.961	-53.359	-0.370	0.167
-242.946	-200.000	0.039	-0.193
-241.932	106.379	0.093	0.108
-240.917	-96.920	-0.042	-0.011
-239.903	-122.513	0.210	-0.034
-238.888	-200.000	0.030	-0.193
-237.873	312.823	-0.097	-0.179
-236.859	393.069	-0.121	0.248
-235.844	395.957	-0.090	-0.185
-234.830	-125.397	-0.260	0.039
-233.815	34.117	-0.026	-0.023
-232.800	-200.000	-0.001	-0.139
-231.786	2.501	0.220	-0.157
-230.771	-110.225	0.282	-0.058
-229.757	800.000	0.132	0.543
-228.742	586.221	0.080	0.195
-227.727	34.724	0.287	0.247
-226.713	-200.000	0.008	-0.327
-225.698	800.000	0.012	-0.048
-224.684	-143.421	-0.229	0.022
-223.669	-39.889	0.012	-0.006
-222.655	-94.970	0.187	0.050
-221.640	-73.753	-0.092	-0.033
-220.625	-8.304	0.048	0.032
-219.611	-28.998	0.264	0.149
-218.596	-200.000	0.027	0.168
-217.582	146.927	-0.150	-0.198
-216.567	-123.447	-0.484	0.076
-215.552	105.533	0.177	0.206
-214.538	-87.865	-0.315	-0.093
-213.523	-200.000	0.043	0.206
-212.509	-59.808	0.260	-0.109
-211.494	23.416	-0.112	0.091
-210.479	30.565	-0.181	-0.152
-209.465	595.799	0.147	-0.358
-208.450	28.907	0.188	-0.157
-207.436	242.103	-0.165	0.271
-206.421	10.462	-0.277	0.208
-205.406	-125.074	0.143	-0.022
-204.392	-2.626	-0.214	0.147
-203.377	-37.322	-0.250	0.132
-202.363	-35.447	0.362	-0.193
-201.348	-200.000	0.011	-0.126
-200.333	232.750	0.070	0.113
-199.319	-200.000	-0.021	0.277
-198.304	-137.726	0.165	-0.018
-197.290	280.614	0.136	-0.239
-196.275	-25.000	-0.247	0.144
-195.260	800.000	-0.076	-0.264
-194.246	-31.114	0.284	0.157
-193.231	-59.536	0.165	-0.070
-192.217	-200.000	-0.016	0.155
-191.202	305.058	0.172	0.315
-190.187	-14.571	-0.065	0.041
-189.173	-200.000	0.044	0.424
-188.158	490.270	-0.008	-0.019
-187.144	-60.479	0.146	0.061
-186.129	-64.684	-0.258	0.103
-185.114	76.595	-0.091	-0.095
-184.100	-200.000	0.038	0.299
-183.085	80.832	-0.220	-0.234
-182.071	75.323	-0.250	-0.259
-181.056	-154.654	0.184	0.012
-180.042	-200.000	-0.003	-0.173
-179.027	81.406	0.161	0.171
-178.012	249.385	-0.165	-0.274
-176.998	-162.643	-0.314	0.015
-175.983	22.381	0.062	-0.050
-174.969	-106.895	0.271	0.059
-173.954	-179.117	0.333	0.007
-172.939	56.365	-0.086	-0.082
-171.925	-200.000	-0.003	-0.106
-170.910	24.939	0.387	0.315
-169.896	-200.000	0.017	-0.272
-168.881	-17.153	0.189	-0.117
-167.866	13.161	-0.088	-0.067
-166.852	800.000	0.015	0.056
-165.837	-111.438	-0.322	0.064
-164.823	193.370	0.095	-0.141
-163.808	424.000	-0.053	-0.113
-162.793	47.220	-0.259	0.237
-161.779	-98.362	-0.230	0.058
-160.764	-86.845	-0.235	0.071
-159.750	217.522	-0.234	0.366
-158.735	-5.831	-0.012	-0.008
-157.720	82.831	0.090	0.096
-156.706	800.000	0.050	0.143
-155.691	-127.004	0.245	0.035
-154.677	15.046	-0.094	0.072
-153.662	-81.338	-0.113	-0.036
-152.647	-143.313	0.232	-0.022
-151.633	52.039	-0.159	-0.148
-150.618	800.000	0.034	0.105
-149.604	-200.000	-0.010	-0.156
-148.589	488.215	-0.066	-0.147
-147.574	131.471	0.231	-0.292
-146.560	107.421	-0.169	-0.197
-145.545	-200.000	0.054	0.239
-144.531	428.407	-0.048	-0.101
-143.516	800.000	0.133	0.405
-142.502	56.417	0.041	0.039
-141.487	800.000	0.078	-0.214
-140.472	-30.305	-0.108	-0.060
-139.458	229.980	0.096	-0.153
-138.443	357.724	-0.255	-0.499
-137.429	60.652	-0.072	-0.070
-136.414	800.000	0.077	-0.220
-135.399	-200.000	0.052	0.266
-134.385	201.184	0.219	0.330
-133.370	-8.041	0.065	0.043
-132.356	169.106	-0.134	-0.187
-131.341	800.000	-0.047	-0.150
-130.326	-78.541	0.141	-0.047
-129.312	-200.000	0.026	0.207
-128.297	389.498	0.144	0.292
-127.283	278.588	0.066	0.116
-126.268	-107.698	-0.069	0.015
-125.253	-96.185	-0.200	0.052
-124.239	-103.362	0.219	-0.051
-123.224	-200.000	-0.065	0.474
-122.210	800.000	-0.053	0.159
