DTS Sentinel unit serial number:	SN413079Multiplexer serial number:	ORYXHardware model number:	OX4-SRSoftware version number:	ORYX F/W v4.00 Oryx Data Collector v3.7.2.0data status	okinstallation	princeton_trtdifferential loss correction	single-endedforward channel	channel 1reverse channel	N/Adate	2019/09/17time	16:34:35forward acquisition time	60.00reverse acquisition time	0.00gamma	496.2192k internal	0.2292k external	0.2292temperature offset calibration	0.9956default loss term (dB/km)	0.3790temperature slope calibration	1.0000multiplexer offset coefficient	1.0000multiplexer slope coefficient	1.0000fibre end	0.00T internal ref (°C)	41.73T ext. ref 1 (°C)	0.37T ext. ref 2 (°C)	38.49length (m)	temperature (°C)	Stokes	anti-Stokes-747.200	-95.436	-0.190	0.052
-746.185	800.000	-0.022	0.065
-745.171	-107.406	0.300	-0.067
-744.156	113.950	-0.176	-0.220
-743.142	3.956	0.113	-0.085
-742.127	13.625	-0.158	-0.125
-741.112	-200.000	0.013	0.084
-740.098	800.000	0.035	-0.105
-739.083	75.722	0.301	-0.325
-738.069	52.320	0.155	0.151
-737.054	274.358	0.135	-0.244
-736.039	-25.688	-0.256	-0.155
-735.025	235.190	0.064	-0.108
-734.010	800.000	-0.176	-0.586
-732.996	334.269	-0.118	0.234
-731.981	253.960	0.057	-0.099
-730.966	97.032	0.181	-0.212
-729.952	30.182	-0.408	-0.356
-728.937	-93.115	0.343	0.098
-727.923	-133.143	-0.283	0.037
-726.908	-103.521	0.205	0.049
-725.894	-200.000	0.020	-0.184
-724.879	800.000	-0.054	-0.218
-723.864	13.189	-0.060	0.047
-722.850	-154.455	0.158	-0.011
-721.835	587.548	-0.071	-0.178
-720.821	-5.807	-0.046	0.032
-719.806	-52.145	0.197	0.093
-718.791	-83.302	0.329	-0.108
-717.777	-200.000	-0.031	-0.412
-716.762	-200.000	-0.038	-0.223
-715.748	-112.956	0.282	0.057
-714.733	-67.647	-0.306	0.122
-713.718	95.030	0.073	0.084
-712.704	-22.879	0.344	-0.212
-711.689	-82.174	-0.295	-0.098
-710.675	-11.666	-0.280	0.188
-709.660	12.845	0.307	-0.242
-708.645	800.000	0.032	-0.092
-707.631	655.640	-0.094	-0.246
-706.616	-24.579	0.234	-0.142
-705.602	-172.849	-0.276	0.009
-704.587	48.828	0.218	0.209
-703.572	133.418	0.225	-0.298
-702.558	398.752	0.058	0.124
-701.543	-126.789	0.355	0.054
-700.529	284.274	0.076	0.139
-699.514	-69.239	-0.180	-0.071
-698.499	111.693	-0.099	-0.122
-697.485	-43.732	-0.138	0.071
-696.470	-117.601	0.081	-0.015
-695.456	97.189	-0.144	0.169
-694.441	-46.973	0.039	0.020
-693.426	-52.566	-0.234	-0.110
-692.412	53.410	-0.171	0.168
-691.397	-53.488	-0.049	0.023
-690.383	99.035	0.097	-0.115
-689.368	390.037	-0.125	-0.264
-688.354	-61.906	0.212	0.091
-687.339	115.294	0.056	-0.070
-686.324	-50.257	-0.309	0.149
-685.310	-57.310	-0.162	-0.073
-684.295	67.316	-0.224	0.234
-683.281	800.000	0.032	-0.094
-682.266	-200.000	-0.048	-0.465
-681.251	-87.590	0.207	-0.064
-680.237	800.000	-0.049	0.171
-679.222	-29.848	-0.317	-0.185
-678.208	29.630	0.198	-0.172
-677.193	354.218	0.048	0.097
-676.178	-131.888	-0.253	0.034
-675.164	-118.540	-0.321	-0.058
-674.149	-200.000	-0.034	-0.244
-673.135	-200.000	0.046	0.221
-672.120	-83.755	-0.124	-0.040
-671.105	176.658	0.127	-0.188
-670.091	-57.913	0.154	0.069
-669.076	287.138	-0.125	0.230
-668.062	439.963	-0.091	-0.204
-667.047	-14.751	0.142	-0.093
-666.032	65.548	-0.135	0.140
-665.018	-112.098	-0.288	-0.059
-664.003	160.078	0.069	0.098
-662.989	42.744	0.263	-0.244
-661.974	-19.866	-0.076	0.048
-660.959	305.766	-0.026	-0.050
-659.945	800.000	-0.067	0.258
-658.930	-200.000	-0.040	-0.282
-657.916	315.636	0.050	-0.096
-656.901	16.670	-0.094	-0.076
-655.886	267.361	0.068	0.121
-654.872	344.313	-0.214	0.429
-653.857	-200.000	-0.001	0.036
-652.843	737.699	-0.117	-0.321
-651.828	50.612	0.120	-0.115
-650.814	329.537	0.108	0.211
-649.799	51.342	-0.229	0.221
-648.784	331.520	0.151	0.297
-647.770	306.904	-0.111	-0.211
-646.755	800.000	-0.125	-0.425
-645.741	130.615	-0.247	-0.323
-644.726	347.718	-0.048	-0.097
-643.711	-200.000	-0.027	-0.149
-642.697	-51.419	0.109	-0.052
-641.682	-200.000	-0.002	-0.023
-640.668	-72.517	0.051	-0.019
-639.653	108.657	-0.200	-0.243
-638.638	-72.365	-0.193	-0.073
-637.624	34.018	0.056	0.050
-636.609	800.000	0.011	-0.040
-635.595	673.081	-0.069	-0.181
-634.580	-86.960	-0.499	-0.155
-633.565	-77.749	0.178	0.063
-632.551	-118.124	-0.061	0.011
-631.536	-161.374	-0.175	-0.009
-630.522	789.071	0.097	-0.271
-629.507	-72.287	-0.170	0.064
-628.492	-200.000	-0.019	-0.392
-627.478	800.000	-0.058	0.172
-626.463	19.353	-0.063	-0.052
-625.449	-200.000	-0.024	-0.131
-624.434	-200.000	0.057	-0.364
-623.419	-73.908	0.083	0.031
-622.405	-200.000	-0.020	0.128
-621.390	123.306	-0.135	0.172
-620.376	265.839	-0.143	-0.255
-619.361	-12.305	0.137	0.092
-618.346	-74.271	-0.236	-0.087
-617.332	249.209	-0.198	0.343
-616.317	800.000	0.088	-0.391
-615.303	-68.056	0.287	-0.114
-614.288	-200.000	-0.040	0.188
-613.273	121.071	0.060	0.076
-612.259	-200.000	-0.030	0.320
-611.244	67.433	-0.227	0.236
-610.230	800.000	0.008	0.027
-609.215	658.434	0.028	-0.073
-608.201	-87.821	-0.079	-0.024
-607.186	30.439	-0.272	-0.237
-606.171	-61.671	0.284	0.121
-605.157	-110.440	0.145	0.031
-604.142	534.494	0.102	0.246
-603.128	-27.601	0.170	0.100
-602.113	1.927	0.266	0.196
-601.098	-77.357	-0.191	-0.068
-600.084	-16.734	-0.016	-0.011
-599.069	396.458	0.085	-0.180
-598.055	173.903	-0.072	0.106
-597.040	338.792	0.053	-0.105
-596.025	578.453	-0.142	0.355
-595.011	-103.798	0.189	-0.045
-593.996	-172.586	-0.078	-0.002
-592.982	159.263	0.110	0.156
-591.967	-120.649	-0.339	-0.058
-590.952	-8.818	0.064	0.044
-589.938	156.419	0.033	-0.046
-588.923	217.133	0.092	-0.148
-587.909	800.000	-0.056	0.167
-586.894	339.537	-0.152	-0.301
-585.879	-28.078	-0.429	0.252
-584.865	334.088	0.064	-0.125
-583.850	109.682	-0.213	0.259
-582.836	8.870	0.160	0.122
-581.821	-61.776	-0.440	0.187
-580.806	-26.660	-0.202	-0.120
-579.792	-106.171	-0.064	-0.015
-578.777	-98.939	0.246	-0.064
-577.763	-63.566	0.124	-0.052
-576.748	287.969	-0.113	-0.207
-575.733	201.702	-0.037	-0.059
-574.719	-63.005	0.072	0.030
-573.704	31.092	-0.188	0.164
-572.690	230.355	0.052	-0.086
-571.675	-99.242	-0.137	-0.035
-570.661	160.532	-0.137	0.195
-569.646	-200.000	-0.030	-0.201
-568.631	-119.408	-0.055	-0.010
-567.617	-59.365	-0.129	-0.056
-566.602	149.991	-0.202	-0.278
-565.588	362.362	0.073	-0.150
-564.573	321.052	0.051	-0.099
-563.558	-200.000	0.016	0.090
-562.544	-200.000	-0.011	-0.164
-561.529	800.000	0.012	0.039
-560.515	-93.852	-0.058	-0.016
-559.500	-65.590	0.165	0.067
-558.485	-11.179	-0.124	-0.083
-557.471	-200.000	0.001	0.032
-556.456	-200.000	-0.020	0.109
-555.442	-60.756	0.197	0.085
-554.427	-105.638	-0.107	0.025
-553.412	-200.000	0.022	-0.227
-552.398	164.448	-0.029	0.041
-551.383	-66.864	0.388	0.156
-550.369	-38.723	-0.118	-0.064
-549.354	-88.471	0.309	0.094
-548.339	-81.493	-0.053	0.018
-547.325	800.000	0.036	-0.107
-546.310	116.554	0.119	0.148
-545.296	-56.654	-0.299	0.134
-544.281	-187.946	0.314	0.004
-543.266	-28.034	0.352	0.207
-542.252	325.712	-0.071	-0.138
-541.237	800.000	0.018	0.071
-540.223	74.614	-0.095	-0.101
-539.208	104.093	0.264	-0.315
-538.193	75.695	0.110	-0.118
-537.179	-200.000	0.051	0.299
-536.164	800.000	0.029	-0.107
-535.150	-86.342	-0.187	-0.058
-534.135	800.000	0.057	0.221
-533.121	152.696	-0.116	-0.162
-532.106	-200.000	-0.016	-0.133
-531.091	-85.802	0.261	-0.082
-530.077	-112.150	0.398	-0.081
-529.062	22.705	0.084	-0.070
-528.048	-200.000	0.002	-0.103
-527.033	-200.000	-0.041	0.461
-526.018	32.081	0.050	0.044
-525.004	800.000	-0.122	-0.369
-523.989	123.474	0.219	0.279
-522.975	-125.370	-0.239	-0.037
-521.960	61.998	0.046	0.047
-520.945	-200.000	-0.018	0.211
-519.931	-78.164	0.166	0.058
-518.916	46.391	-0.088	-0.083
-517.902	800.000	-0.028	0.120
-516.887	44.624	0.112	0.104
-515.872	32.059	-0.204	0.179
-514.858	155.174	-0.156	0.217
-513.843	18.092	0.161	0.130
-512.829	148.657	-0.038	0.052
-511.814	-131.340	-0.245	-0.033
-510.799	-96.131	-0.120	0.032
-509.785	-159.088	-0.163	0.009
-508.770	-105.308	0.337	-0.078
-507.756	-91.685	-0.186	-0.054
-506.741	133.655	-0.076	-0.099
-505.726	-83.262	-0.026	0.009
-504.712	800.000	-0.062	0.218
-503.697	27.043	-0.089	0.076
-502.683	-200.000	-0.027	0.165
-501.668	-93.014	0.089	-0.025
-500.653	-200.000	0.013	-0.252
-499.639	-139.877	-0.080	-0.009
-498.624	-152.798	-0.257	-0.019
-497.610	-107.032	-0.438	0.098
-496.595	-71.058	-0.061	-0.023
-495.581	-200.000	0.002	-0.064
-494.566	-200.000	0.005	-0.364
-493.551	-48.144	-0.183	0.089
-492.537	184.521	-0.073	-0.109
-491.522	-200.000	-0.242	0.001
-490.508	800.000	-0.048	0.142
-489.493	-200.000	0.001	0.061
-488.478	448.545	-0.075	-0.168
-487.464	-53.362	-0.125	0.058
-486.449	-43.229	-0.128	0.066
-485.435	297.399	0.102	0.189
-484.420	5.580	0.312	-0.233
-483.405	654.001	-0.092	-0.240
-482.391	134.779	0.141	0.186
-481.376	-200.000	0.004	0.181
-480.362	-6.563	-0.219	-0.151
-479.347	-200.000	0.062	0.283
-478.332	726.940	-0.135	0.366
-477.318	88.425	0.056	-0.062
-476.303	800.000	0.041	-0.134
-475.289	-2.008	0.238	-0.170
-474.274	110.961	0.061	0.074
-473.259	-56.337	-0.218	0.098
-472.245	-49.178	-0.199	0.096
-471.230	-45.173	0.326	0.164
-470.216	-136.641	-0.137	-0.016
-469.201	-133.181	-0.444	-0.057
-468.186	165.120	-0.040	0.057
-467.172	8.565	0.160	0.122
-466.157	207.873	-0.174	-0.275
-465.143	-101.611	-0.182	-0.045
-464.128	-200.000	0.065	-0.429
-463.113	142.456	0.088	-0.118
-462.099	-101.317	-0.583	0.144
-461.084	-200.000	0.043	-0.257
-460.070	-147.918	-0.253	-0.021
-459.055	160.917	-0.116	0.164
-458.040	34.526	0.153	-0.135
-457.026	-61.263	0.017	0.007
-456.011	-135.444	0.151	-0.018
-454.997	206.908	-0.023	0.036
-453.982	2.012	0.174	0.127
-452.968	-57.016	0.169	-0.075
-451.953	-3.029	-0.135	-0.096
-450.938	264.491	0.081	-0.142
-449.924	-157.374	-0.099	-0.006
-448.909	-122.722	0.168	0.028
-447.895	-77.726	0.130	0.045
-446.880	370.477	-0.043	-0.088
-445.865	-9.675	0.136	0.091
-444.851	-126.233	0.130	-0.020
-443.836	800.000	-0.096	0.279
-442.822	-39.945	0.089	0.047
-441.807	373.492	-0.067	-0.137
-440.792	-85.513	0.098	0.031
-439.778	-117.766	-0.271	0.049
-438.763	288.320	0.069	0.127
-437.749	-127.974	0.050	-0.007
-436.734	800.000	0.052	-0.145
-435.719	-200.000	-0.033	-0.230
-434.705	-70.502	0.391	-0.150
-433.690	515.762	-0.065	-0.153
-432.676	722.839	0.084	0.227
-431.661	800.000	-0.088	-0.250
-430.646	100.291	0.154	0.181
-429.632	206.616	-0.070	-0.110
-428.617	-122.446	-0.083	-0.014
-427.603	11.834	0.156	0.121
-426.588	787.157	0.084	-0.233
-425.573	594.613	-0.138	0.345
-424.559	-200.000	-0.010	0.133
-423.544	-106.123	0.188	0.043
-422.530	800.000	-0.024	-0.095
-421.515	-111.604	-0.103	-0.021
-420.500	-178.770	0.213	-0.005
-419.486	189.259	-0.128	0.194
-418.471	-105.792	-0.375	0.086
-417.457	-133.676	-0.208	-0.026
-416.442	755.047	-0.112	-0.306
-415.428	-73.893	-0.195	-0.071
-414.413	-86.017	0.061	-0.019
-413.398	-200.000	0.007	0.107
-412.384	-200.000	0.020	0.172
-411.369	-106.424	-0.251	0.057
-410.355	256.598	0.124	0.215
-409.340	-135.732	-0.429	0.051
-408.325	425.704	0.041	0.089
-407.311	200.895	0.122	-0.189
-406.296	-22.396	-0.266	0.162
-405.282	-19.189	-0.181	-0.114
-404.267	-200.000	-0.037	0.320
-403.252	9.500	0.274	-0.210
-402.238	-130.988	0.192	0.026
-401.223	-65.928	-0.165	0.067
-400.209	-200.000	-0.001	-0.183
-399.194	-30.106	-0.032	0.019
-398.179	124.619	0.191	-0.242
-397.165	91.726	0.119	-0.135
-396.150	800.000	-0.024	-0.070
-395.136	7.251	-0.150	-0.113
-394.121	-50.810	-0.196	-0.093
-393.106	-200.000	-0.030	0.270
-392.092	141.067	0.215	0.286
-391.077	673.716	-0.024	0.063
-390.063	50.836	0.303	0.290
-389.048	-200.000	0.028	0.194
-388.033	79.164	-0.072	-0.078
-387.019	-67.070	0.078	0.031
-386.004	-20.998	0.299	0.185
-384.990	330.815	-0.196	-0.381
-383.975	-101.529	0.372	0.091
-382.960	-66.795	0.128	0.051
-381.946	800.000	-0.004	0.016
-380.931	-108.544	0.259	-0.056
-379.917	-64.328	0.331	0.136
-378.902	-96.312	-0.233	-0.062
-377.888	228.553	0.162	-0.266
-376.873	-74.607	0.062	-0.023
-375.858	-45.175	0.130	0.065
-374.844	-150.350	0.449	0.035
-373.829	800.000	0.084	-0.249
-372.815	800.000	-0.108	0.331
-371.800	800.000	-0.022	0.071
-370.785	149.689	0.039	0.053
-369.771	800.000	0.064	0.248
-368.756	-0.932	-0.196	0.140
-367.742	-121.712	0.139	0.023
-366.727	217.761	0.111	-0.178
-365.712	360.684	0.041	-0.084
-364.698	-86.747	-0.116	-0.036
-363.683	201.285	-0.093	-0.145
-362.669	-200.000	0.020	0.138
-361.654	110.159	-0.217	0.263
-360.639	-26.649	0.209	-0.123
-359.625	339.138	-0.061	0.119
-358.610	297.736	-0.127	0.236
-357.596	-3.954	-0.015	-0.011
-356.581	203.279	0.217	-0.338
-355.566	523.270	0.054	0.127
-354.552	417.693	-0.114	-0.245
-353.537	-154.801	0.125	-0.008
-352.523	-90.116	0.272	-0.080
-351.508	-35.486	-0.078	0.043
-350.493	-154.892	-0.279	0.019
-349.479	800.000	0.078	-0.279
-348.464	359.153	0.088	-0.178
-347.450	306.561	0.092	-0.172
-346.435	800.000	-0.050	-0.165
-345.420	-76.339	-0.228	0.081
-344.406	-190.557	0.079	-0.001
-343.391	-61.171	-0.093	0.039
-342.377	-200.000	0.014	0.282
-341.362	15.983	-0.222	0.176
-340.348	-5.050	0.253	-0.175
-339.333	-200.000	-0.009	-0.174
-338.318	-143.301	-0.456	0.044
-337.304	-29.843	-0.172	-0.099
-336.289	203.198	-0.099	0.154
-335.275	800.000	0.077	-0.285
-334.260	-13.655	-0.154	0.100
-333.245	704.275	0.022	0.060
-332.231	-19.452	0.193	0.120
-331.216	401.678	0.033	0.069
-330.202	-119.941	0.136	0.024
-329.187	3.594	0.065	-0.048
-328.172	378.347	0.084	0.173
-327.158	163.929	-0.204	0.290
-326.143	-96.007	0.142	0.038
-325.129	219.571	0.179	0.289
-324.114	489.353	0.086	0.198
-323.099	800.000	-0.037	0.108
-322.085	127.161	0.133	-0.169
-321.070	520.593	0.015	-0.035
-320.056	38.546	0.200	0.180
-319.041	-126.621	-0.241	-0.036
-318.026	-200.000	0.049	0.253
-317.012	800.000	-0.066	0.219
-315.997	4.827	0.222	-0.164
-314.983	800.000	0.061	0.262
-313.968	800.000	-0.124	-0.474
-312.953	515.504	-0.082	-0.192
-311.939	-101.532	-0.068	-0.017
-310.924	-112.312	0.191	-0.038
-309.910	707.575	-0.026	-0.068
-308.895	333.912	-0.099	-0.192
-307.880	-1.014	-0.274	0.195
-306.866	91.379	-0.208	0.235
-305.851	7.095	0.393	0.295
-304.837	-200.000	-0.012	-0.532
-303.822	800.000	0.070	0.216
-302.807	800.000	-0.053	-0.156
-301.793	124.632	-0.107	-0.135
-300.778	-50.304	0.149	-0.071
-299.764	198.842	0.102	0.157
-298.749	800.000	0.082	0.293
-297.735	212.496	-0.205	0.325
-296.720	800.000	0.092	-0.268
-295.705	-47.783	0.163	0.079
-294.691	451.728	-0.097	-0.215
-293.676	-43.403	0.380	0.193
-292.662	-2.197	0.183	-0.129
-291.647	-80.271	0.420	-0.141
-290.632	21.347	0.053	-0.043
-289.618	213.661	0.068	0.108
-288.603	202.776	0.248	-0.385
-287.589	-141.762	0.083	0.008
-286.574	499.194	-0.096	0.222
-285.559	-134.127	-0.260	0.032
-284.545	4.128	0.154	-0.114
-283.530	-200.000	0.035	-0.238
-282.516	-200.000	-0.015	0.088
-281.501	800.000	0.127	-0.371
-280.486	66.846	-0.154	0.157
-279.472	-58.290	-0.207	-0.090
-278.457	-176.183	-0.327	-0.009
-277.443	187.949	-0.165	-0.247
-276.428	111.511	-0.074	0.089
-275.413	2.088	-0.042	0.030
-274.399	-44.723	0.092	-0.046
-273.384	446.083	0.074	0.164
-272.370	56.105	-0.209	-0.204
-271.355	800.000	-0.071	-0.285
-270.340	225.715	-0.091	0.148
-269.326	-117.144	0.339	0.062
-268.311	-200.000	-0.057	-0.280
-267.297	-200.000	-0.040	0.201
-266.282	177.957	-0.231	0.339
-265.267	-200.000	0.036	-0.209
-264.253	-200.000	-0.046	-0.286
-263.238	1.492	0.172	-0.124
-262.224	800.000	-0.037	0.122
-261.209	135.561	-0.250	-0.327
-260.195	93.296	0.089	0.101
-259.180	-12.467	-0.208	0.136
-258.165	419.990	-0.081	-0.175
-257.151	36.360	0.108	-0.096
-256.136	-77.504	0.129	-0.045
-255.122	-200.000	-0.004	-0.154
-254.107	-158.240	-0.324	0.019
-253.092	-136.017	-0.166	-0.020
-252.078	-200.000	0.030	0.137
-251.063	-8.360	0.272	0.184
-250.049	-200.000	0.020	0.243
-249.034	-4.326	-0.196	-0.136
-248.019	-128.737	-0.076	0.011
-247.005	55.853	0.406	0.395
-245.990	40.691	0.167	-0.151
-244.976	-200.000	-0.065	-0.332
-243.961	92.258	-0.075	-0.085
-242.946	-26.399	0.314	-0.185
-241.932	77.475	0.069	0.074
-240.917	-68.474	0.220	0.085
-239.903	310.514	-0.118	0.223
-238.888	0.741	-0.128	0.092
-237.873	-91.209	-0.079	0.023
-236.859	-11.028	-0.224	0.149
-235.844	-31.761	-0.211	-0.119
-234.830	-200.000	-0.008	0.253
-233.815	202.992	-0.153	-0.237
-232.800	-43.634	0.356	-0.180
-231.786	-4.629	-0.124	-0.086
-230.771	-116.171	0.117	-0.022
-229.757	-200.000	0.038	-0.319
-228.742	-129.861	0.284	0.039
-227.727	402.006	0.151	-0.318
-226.713	225.328	-0.089	0.144
-225.698	-27.319	0.107	0.063
-224.684	-164.260	-0.136	0.006
-223.669	-80.799	0.172	-0.057
-222.655	800.000	-0.020	-0.086
-221.640	-200.000	0.044	-0.313
-220.625	-200.000	0.008	0.088
-219.611	-200.000	-0.031	0.197
-218.596	-99.404	0.321	0.081
-217.582	81.528	0.066	0.072
-216.567	-29.157	-0.198	-0.114
-215.552	-200.000	0.014	0.090
-214.538	-185.572	-0.262	-0.004
-213.523	-163.726	0.255	-0.012
-212.509	61.645	-0.183	0.183
-211.494	-182.983	-0.009	-0.000
-210.479	-89.737	0.222	0.065
-209.465	-200.000	0.002	0.363
-208.450	-129.736	-0.190	-0.026
-207.436	-35.918	-0.193	0.105
-206.421	2.322	0.297	-0.216
-205.406	-125.626	-0.275	0.042
-204.392	-57.450	-0.042	0.018
-203.377	-15.557	-0.112	-0.072
-202.363	20.467	-0.105	0.085
-201.348	-200.000	-0.053	-0.269
-200.333	-65.012	0.303	0.123
-199.319	517.124	0.185	0.433
-198.304	129.378	0.055	-0.070
-197.290	-117.016	0.197	-0.036
-196.275	-200.000	0.022	0.105
-195.260	-14.954	-0.138	-0.089
-194.246	-108.669	-0.122	0.026
-193.231	-177.654	0.140	0.003
-192.217	314.923	-0.143	-0.269
-191.202	683.452	0.051	0.133
-190.187	800.000	0.141	0.482
-189.173	130.775	0.275	0.353
-188.158	-38.116	0.058	0.031
-187.144	-47.566	0.125	-0.061
-186.129	800.000	0.072	0.214
-185.114	-42.418	-0.145	0.074
-184.100	-36.670	-0.216	0.116
-183.085	235.909	0.105	-0.173
-182.071	-73.587	0.146	0.053
-181.056	-200.000	0.043	0.224
-180.042	62.925	0.123	-0.123
-179.027	-89.818	-0.259	-0.076
-178.012	-200.000	-0.001	0.086
-176.998	100.276	-0.142	0.165
-175.983	-77.756	0.095	-0.033
-174.969	-13.034	0.139	0.090
-173.954	-109.770	0.311	0.065
-172.939	21.169	0.181	-0.147
-171.925	256.808	0.061	0.105
-170.910	-200.000	0.030	0.180
-169.896	133.395	0.133	-0.172
-168.881	-59.070	0.196	0.085
-167.866	645.542	-0.090	0.230
-166.852	-88.145	0.045	0.014
-165.837	-121.104	0.186	-0.031
-164.823	-200.000	-0.008	-0.083
-163.808	239.951	0.081	-0.135
-162.793	-200.000	0.031	0.204
-161.779	358.084	0.127	-0.253
-160.764	108.926	-0.122	-0.146
-159.750	-77.648	-0.317	-0.110
-158.735	-7.447	-0.333	-0.225
-157.720	-180.676	0.306	0.006
-156.706	-200.000	-0.030	0.155
-155.691	-60.271	0.260	-0.111
-154.677	-140.639	-0.041	0.004
-153.662	6.635	0.122	0.091
-152.647	461.299	0.072	-0.161
-151.633	-200.000	0.028	-0.153
-150.618	-26.419	0.145	-0.085
-149.604	-146.770	0.140	-0.012
-148.589	800.000	-0.024	-0.096
-147.574	65.271	0.117	-0.118
-146.560	-124.717	0.328	-0.051
-145.545	-118.463	-0.331	-0.059
-144.531	43.423	-0.195	-0.178
-143.516	800.000	-0.060	0.213
-142.502	-36.888	-0.133	0.071
-141.487	356.687	-0.233	-0.464
-140.472	24.496	0.041	-0.034
-139.458	674.185	-0.078	-0.202
-138.443	-109.708	0.061	0.013
-137.429	-200.000	0.005	0.108
-136.414	734.904	0.059	0.159
-135.399	800.000	-0.089	-0.342
-134.385	308.781	0.132	-0.246
-133.370	-99.657	-0.115	-0.029
-132.356	-128.797	-0.210	-0.030
-131.341	800.000	0.019	0.064
-130.326	-6.287	0.183	-0.125
-129.312	289.126	0.100	0.181
-128.297	156.413	0.080	-0.111
-127.283	800.000	-0.104	-0.347
-126.268	-145.440	-0.122	0.011
-125.253	-110.385	0.289	0.060
-124.239	163.806	-0.206	0.289
-123.224	800.000	0.080	0.234
-122.210	150.287	0.239	0.325
-121.195	395.256	0.198	0.412
