DTS Sentinel unit serial number:	SN413079Multiplexer serial number:	ORYXHardware model number:	OX4-SRSoftware version number:	ORYX F/W v4.00 Oryx Data Collector v3.7.2.0data status	okinstallation	princeton_trtdifferential loss correction	single-endedforward channel	channel 1reverse channel	N/Adate	2019/09/11time	00:24:11forward acquisition time	60.00reverse acquisition time	0.00gamma	496.2192k internal	0.2331k external	0.2331temperature offset calibration	0.9933default loss term (dB/km)	0.3790temperature slope calibration	1.0000multiplexer offset coefficient	1.0000multiplexer slope coefficient	1.0000fibre end	0.00T internal ref (°C)	29.25T ext. ref 1 (°C)	-0.31T ext. ref 2 (°C)	22.83length (m)	temperature (°C)	Stokes	anti-Stokes-747.200	-38.314	0.282	0.150
-746.185	-106.480	-0.144	0.032
-745.171	-164.668	-0.233	0.011
-744.156	-42.986	0.103	-0.052
-743.142	800.000	0.057	0.242
-742.127	-200.000	0.016	0.340
-741.112	-1.892	-0.091	-0.064
-740.098	7.181	-0.203	0.152
-739.083	5.972	-0.275	0.205
-738.069	800.000	-0.036	0.151
-737.054	800.000	-0.137	0.418
-736.039	376.722	0.064	0.132
-735.025	-200.000	0.006	-0.078
-734.010	378.583	-0.045	0.093
-732.996	-37.655	0.247	0.132
-731.981	-200.000	-0.031	-0.254
-730.966	310.325	0.032	-0.060
-729.952	800.000	0.181	-0.695
-728.937	-54.006	-0.256	-0.117
-727.923	53.509	0.285	-0.275
-726.908	76.915	-0.302	-0.323
-725.894	800.000	0.066	0.259
-724.879	94.135	-0.022	-0.025
-723.864	-166.800	-0.244	-0.010
-722.850	-162.789	0.126	-0.006
-721.835	31.424	-0.134	0.116
-720.821	-200.000	-0.020	-0.288
-719.806	-177.872	-0.340	-0.008
-718.791	-0.877	-0.240	-0.171
-717.777	-75.700	-0.246	-0.088
-716.762	-31.094	-0.301	-0.171
-715.748	0.832	0.088	-0.064
-714.733	-26.753	-0.248	-0.146
-713.718	-200.000	-0.040	-0.280
-712.704	79.748	-0.255	-0.275
-711.689	508.175	-0.032	-0.074
-710.675	168.870	0.170	-0.244
-709.660	-133.894	0.498	0.062
-708.645	-33.431	-0.353	-0.196
-707.631	525.733	-0.102	0.241
-706.616	-84.570	-0.210	-0.067
-705.602	-200.000	0.019	-0.121
-704.587	-125.357	0.178	0.027
-703.572	70.116	-0.057	0.059
-702.558	98.791	0.246	0.285
-701.543	520.149	-0.047	0.111
-700.529	123.932	-0.205	-0.259
-699.514	-82.391	0.215	0.070
-698.499	-33.639	0.135	0.075
-697.485	123.497	0.166	-0.209
-696.470	-200.000	0.008	0.105
-695.456	59.368	-0.171	0.169
-694.441	-83.444	0.199	-0.064
-693.426	-69.396	-0.061	-0.024
-692.412	-1.852	-0.191	0.135
-691.397	107.882	0.096	-0.115
-690.383	32.093	0.161	0.140
-689.368	127.476	0.102	-0.130
-688.354	475.924	0.063	-0.143
-687.339	-165.273	0.251	0.011
-686.324	-85.681	-0.152	0.047
-685.310	213.698	0.249	-0.395
-684.295	142.744	0.067	0.090
-683.281	45.039	-0.121	-0.112
-682.266	-200.000	0.003	-0.041
-681.251	-23.741	0.287	0.173
-680.237	800.000	0.026	-0.096
-679.222	-58.401	-0.212	0.093
-678.208	10.922	0.074	0.057
-677.193	40.126	-0.153	0.138
-676.178	-131.334	-0.333	0.044
-675.164	-34.338	0.072	-0.039
-674.149	71.613	-0.206	-0.215
-673.135	-200.000	0.017	0.145
-672.120	65.128	-0.065	0.066
-671.105	-14.612	-0.073	0.047
-670.091	-52.359	0.056	-0.026
-669.076	-86.939	0.166	-0.051
-668.062	148.137	-0.137	-0.185
-667.047	-200.000	-0.024	0.302
-666.032	-72.250	0.715	0.266
-665.018	299.220	0.065	-0.121
-664.003	-106.220	0.106	-0.024
-662.989	800.000	0.012	0.037
-661.974	-75.856	-0.159	0.057
-660.959	-156.683	-0.293	-0.018
-659.945	-156.325	-0.044	-0.003
-658.930	-32.464	-0.190	-0.106
-657.916	283.694	-0.125	-0.225
-656.901	106.815	-0.015	0.018
-655.886	119.399	-0.148	-0.184
-654.872	-6.657	-0.259	0.177
-653.857	117.201	0.134	0.165
-652.843	-200.000	-0.025	0.692
-651.828	800.000	0.039	0.151
-650.814	800.000	-0.079	-0.250
-649.799	193.788	-0.149	-0.227
-648.784	-14.219	-0.173	0.112
-647.770	489.929	-0.126	-0.289
-646.755	23.120	-0.074	0.061
-645.741	-75.062	-0.155	0.056
-644.726	-200.000	0.059	-0.333
-643.711	501.507	-0.104	-0.240
-642.697	602.842	-0.075	-0.186
-641.682	-62.710	0.202	-0.084
-640.668	3.066	0.079	0.058
-639.653	-41.002	-0.279	-0.145
-638.638	-31.115	0.142	0.080
-637.624	-51.406	0.454	-0.213
-636.609	-128.580	-0.401	0.057
-635.595	-69.112	0.383	0.148
-634.580	-200.000	0.007	0.093
-633.565	-47.989	0.130	-0.063
-632.551	75.149	0.119	0.126
-631.536	292.781	-0.117	0.213
-630.522	-55.878	-0.075	0.033
-629.507	-200.000	0.046	-0.249
-628.492	-120.901	0.150	0.025
-627.478	-200.000	0.040	-0.365
-626.463	-29.821	-0.194	-0.111
-625.449	70.090	0.211	-0.218
-624.434	-30.898	0.217	0.123
-623.419	169.683	0.113	0.161
-622.405	-79.813	-0.039	0.013
-621.390	-47.599	0.205	-0.100
-620.376	-105.022	-0.216	-0.050
-619.361	-165.645	-0.262	-0.011
-618.346	-200.000	-0.079	0.498
-617.332	-200.000	0.002	0.371
-616.317	341.308	-0.135	0.265
-615.303	99.397	0.145	-0.168
-614.288	371.157	-0.171	-0.348
-613.273	613.107	0.036	0.090
-612.259	-41.378	0.184	0.095
-611.244	-200.000	0.019	0.106
-610.230	-63.297	-0.207	0.085
-609.215	46.601	-0.205	-0.191
-608.201	800.000	-0.061	-0.220
-607.186	800.000	0.012	-0.036
-606.171	-0.344	-0.105	0.075
-605.157	0.639	0.260	0.187
-604.142	-78.881	-0.340	0.116
-603.128	-61.511	-0.315	0.132
-602.113	-34.076	-0.231	-0.127
-601.098	-137.202	-0.444	-0.051
-600.084	-176.128	0.174	0.005
-599.069	-130.532	-0.266	-0.036
-598.055	528.604	-0.110	0.261
-597.040	-111.681	0.142	0.029
-596.025	-200.000	0.010	0.152
-595.011	-155.188	0.215	0.014
-593.996	-156.041	-0.408	0.026
-592.982	235.548	0.176	0.291
-591.967	-13.753	0.143	0.092
-590.952	-46.146	-0.232	-0.114
-589.938	-94.136	0.242	0.066
-588.923	-200.000	-0.035	0.299
-587.909	-28.327	-0.055	0.032
-586.894	416.785	-0.126	-0.268
-585.879	-8.642	0.226	0.152
-584.865	154.624	-0.122	0.168
-583.850	100.033	0.245	0.284
-582.836	-200.000	-0.010	0.099
-581.821	-80.968	-0.151	-0.050
-580.806	112.735	-0.158	0.192
-579.792	-200.000	0.016	0.376
-578.777	-121.568	0.112	-0.019
-577.763	-45.383	-0.147	0.073
-576.748	-200.000	0.045	0.210
-575.733	456.568	0.078	-0.173
-574.719	-53.290	-0.317	-0.146
-573.704	-31.661	-0.103	0.058
-572.690	35.800	0.124	-0.109
-571.675	132.473	-0.243	-0.313
-570.661	60.389	-0.124	0.123
-569.646	-200.000	0.016	-0.457
-568.631	477.032	-0.057	-0.129
-567.617	468.500	0.074	0.165
-566.602	409.145	0.137	-0.291
-565.588	-170.217	-0.273	0.010
-564.573	-142.486	0.031	-0.003
-563.558	-17.830	0.541	-0.339
-562.544	367.916	0.082	-0.166
-561.529	751.633	0.113	-0.304
-560.515	-10.862	0.200	0.132
-559.500	-126.607	-0.383	-0.057
-558.485	-101.007	-0.066	0.016
-557.471	-107.544	-0.183	-0.040
-556.456	-21.310	0.133	0.081
-555.442	800.000	-0.080	-0.287
-554.427	-200.000	0.055	0.497
-553.412	-200.000	0.011	0.090
-552.398	123.350	-0.283	-0.355
-551.383	-17.793	-0.187	-0.117
-550.369	800.000	0.131	-0.442
-549.354	-19.913	-0.125	-0.077
-548.339	-89.197	-0.340	-0.100
-547.325	800.000	0.065	0.189
-546.310	-95.733	0.249	-0.066
-545.296	757.559	0.137	-0.371
-544.281	69.784	0.099	-0.102
-543.266	-95.979	0.054	-0.014
-542.252	-200.000	0.050	-0.290
-541.237	800.000	-0.037	0.120
-540.223	-200.000	-0.029	-0.165
-539.208	-69.712	0.192	-0.073
-538.193	-128.551	-0.188	0.027
-537.179	558.129	-0.062	0.150
-536.164	624.965	0.070	-0.176
-535.150	800.000	-0.115	0.333
-534.135	-200.000	-0.005	0.084
-533.121	-200.000	0.025	0.324
-532.106	-131.852	-0.385	-0.050
-531.091	-163.814	0.269	0.013
-530.077	-108.780	-0.293	-0.063
-529.062	-48.965	0.166	0.080
-528.048	-91.709	-0.158	-0.045
-527.033	-61.181	0.221	-0.093
-526.018	-146.391	-0.179	0.016
-525.004	-62.655	0.263	0.109
-523.989	-181.016	-0.331	-0.007
-522.975	267.546	-0.052	0.091
-521.960	26.360	-0.095	0.079
-520.945	2.121	0.158	0.114
-519.931	-37.891	0.235	-0.125
-518.916	-200.000	-0.006	-0.140
-517.902	-200.000	-0.010	-0.233
-516.887	800.000	-0.056	-0.210
-515.872	-123.271	-0.175	0.028
-514.858	800.000	-0.048	-0.158
-513.843	-52.972	-0.300	0.137
-512.829	277.428	0.185	-0.329
-511.814	-200.000	-0.030	0.136
-510.799	-42.843	-0.101	0.051
-509.785	-88.960	0.156	-0.046
-508.770	-80.995	0.149	-0.049
-507.756	769.946	-0.011	0.031
-506.741	717.026	-0.111	0.294
-505.726	82.451	0.233	0.252
-504.712	-48.276	-0.156	-0.075
-503.697	-200.000	-0.034	0.208
-502.683	-58.621	-0.315	0.136
-501.668	-144.999	0.174	0.016
-500.653	483.201	0.147	0.334
-499.639	-200.000	-0.009	-0.344
-498.624	75.050	-0.226	-0.237
-497.610	107.741	-0.154	-0.183
-496.595	63.598	0.315	-0.315
-495.581	-200.000	0.043	0.202
-494.566	729.509	-0.188	-0.500
-493.551	-64.431	-0.140	0.057
-492.537	800.000	-0.047	0.131
-491.522	157.488	-0.016	0.022
-490.508	-49.497	-0.107	-0.051
-489.493	-72.975	-0.340	0.125
-488.478	88.890	-0.095	-0.106
-487.464	-200.000	-0.070	0.322
-486.449	800.000	-0.132	0.369
-485.435	59.174	0.214	0.210
-484.420	-55.468	-0.251	0.112
-483.405	278.218	-0.111	0.197
-482.391	-84.081	0.096	-0.030
-481.376	93.414	-0.197	-0.223
-480.362	-200.000	-0.037	-0.281
-479.347	45.441	0.219	0.201
-478.332	-200.000	-0.091	0.493
-477.318	17.347	0.211	-0.166
-476.303	27.650	-0.101	-0.084
-475.289	303.388	-0.180	0.332
-474.274	-200.000	-0.006	0.175
-473.259	-156.154	0.358	0.022
-472.245	-87.638	-0.213	-0.064
-471.230	6.071	-0.108	0.079
-470.216	800.000	0.082	0.225
-469.201	-144.484	0.176	0.016
-468.186	-200.000	-0.010	-0.067
-467.172	-200.000	0.037	-0.309
-466.157	-25.075	0.152	-0.090
-465.143	-129.680	0.128	-0.018
-464.128	-174.091	0.297	-0.009
-463.113	-47.097	0.149	-0.072
-462.099	412.985	0.107	-0.227
-461.084	-5.043	-0.095	-0.065
-460.070	-128.815	-0.218	0.031
-459.055	-157.094	0.335	-0.020
-458.040	117.833	0.076	0.094
-457.026	-150.650	0.159	0.012
-456.011	46.476	0.069	0.064
-454.997	-0.007	0.159	-0.113
-453.982	63.770	0.370	-0.370
-452.968	118.924	-0.082	0.100
-451.953	119.633	-0.054	0.066
-450.938	115.968	0.086	0.105
-449.924	38.705	0.076	-0.068
-448.909	-200.000	0.044	-0.320
-447.895	327.455	0.108	0.205
-446.880	185.425	-0.074	0.110
-445.865	140.284	0.238	0.312
-444.851	-76.328	-0.186	-0.065
-443.836	-196.936	-0.247	0.002
-442.822	87.573	0.096	-0.106
-441.807	68.859	0.412	-0.420
-440.792	796.338	-0.077	0.212
-439.778	800.000	0.050	0.151
-438.763	-138.604	-0.180	0.020
-437.749	-57.754	0.125	-0.055
-436.734	-200.000	-0.023	-0.101
-435.719	15.788	0.090	-0.070
-434.705	11.941	-0.232	-0.178
-433.690	-27.128	0.239	-0.139
-432.676	9.928	0.216	-0.163
-431.661	-200.000	0.037	-0.186
-430.646	-158.781	0.083	-0.005
-429.632	152.674	0.109	-0.148
-428.617	40.033	-0.139	0.124
-427.603	-64.135	0.260	0.106
-426.588	103.451	-0.163	0.190
-425.573	-68.532	0.159	0.061
-424.559	-10.074	0.072	-0.048
-423.544	-40.802	0.222	-0.114
-422.530	-60.214	-0.094	-0.040
-421.515	-55.230	-0.285	0.127
-420.500	-118.056	0.037	0.007
-419.486	-81.044	-0.217	0.071
-418.471	-61.536	0.263	0.110
-417.457	196.409	0.098	0.149
-416.442	-81.080	0.262	-0.086
-415.428	800.000	-0.064	-0.194
-414.413	215.182	-0.129	0.204
-413.398	322.081	0.105	-0.199
-412.384	-91.143	-0.130	0.037
-411.369	-200.000	0.008	0.077
-410.355	151.847	-0.201	0.273
-409.340	301.722	0.056	0.102
-408.325	135.832	0.059	0.077
-407.311	-8.334	-0.201	-0.134
-406.296	-141.166	-0.062	0.006
-405.282	800.000	0.101	0.344
-404.267	-122.585	0.171	0.028
-403.252	-151.185	-0.515	0.038
-402.238	800.000	-0.110	-0.313
-401.223	-200.000	0.019	0.281
-400.209	-158.215	0.114	0.007
-399.194	113.448	0.136	-0.164
-398.179	192.488	0.111	-0.166
-397.165	-165.387	0.334	0.015
-396.150	-78.497	-0.358	0.122
-395.136	800.000	-0.033	0.097
-394.121	-160.484	0.205	0.011
-393.106	-152.022	0.120	-0.009
-392.092	-86.731	-0.238	-0.072
-391.077	38.520	-0.091	0.081
-390.063	-200.000	-0.021	0.312
-389.048	800.000	0.051	0.143
-388.033	-200.000	0.019	0.503
-387.019	144.249	-0.186	0.247
-386.004	-174.381	0.066	-0.002
-384.990	-105.712	-0.292	0.066
-383.975	-200.000	-0.038	0.362
-382.960	800.000	-0.070	-0.281
-381.946	179.195	-0.189	0.275
-380.931	800.000	0.034	0.123
-379.917	-38.910	-0.095	-0.050
-378.902	-200.000	-0.071	0.335
-377.888	-146.237	0.327	-0.028
-376.873	-36.062	-0.156	-0.084
-375.858	-13.280	0.114	-0.073
-374.844	-92.813	0.506	-0.140
-373.829	800.000	-0.053	-0.182
-372.815	178.713	-0.017	0.025
-371.800	-104.784	-0.227	-0.052
-370.785	-25.032	0.116	-0.068
-369.771	800.000	0.046	-0.150
-368.756	157.210	0.160	-0.220
-367.742	-106.690	0.159	0.035
-366.727	488.776	0.082	0.186
-365.712	-113.557	0.191	-0.037
-364.698	144.254	-0.143	-0.189
-363.683	-58.636	-0.269	0.115
-362.669	-200.000	0.040	-0.351
-361.654	-62.305	-0.197	-0.081
-360.639	-66.584	-0.216	0.085
-359.625	-200.000	0.017	-0.237
-358.610	800.000	-0.040	0.116
-357.596	-50.232	0.103	0.048
-356.581	-200.000	0.001	0.110
-355.566	-19.636	-0.078	0.048
-354.552	-200.000	0.011	0.105
-353.537	-200.000	0.000	0.025
-352.523	-82.225	0.328	-0.106
-351.508	-10.297	-0.104	0.068
-350.493	618.870	0.033	-0.082
-349.479	550.788	-0.066	0.156
-348.464	-200.000	0.017	-0.254
-347.450	89.495	0.305	0.337
-346.435	-79.402	-0.029	-0.010
-345.420	-67.897	0.358	-0.138
-344.406	-30.792	0.235	-0.132
-343.391	-38.695	0.259	-0.136
-342.377	9.701	-0.227	-0.171
-341.362	46.828	-0.056	0.051
-340.348	197.866	-0.208	-0.315
-339.333	-200.000	0.028	-0.374
-338.318	409.572	-0.139	-0.292
-337.304	-172.007	0.108	0.003
-336.289	20.428	-0.087	-0.070
-335.275	156.132	0.055	0.075
-334.260	-200.000	0.031	-0.335
-333.245	-200.000	-0.028	0.219
-332.231	363.956	0.042	0.084
-331.216	-21.534	0.122	0.074
-330.202	-99.273	0.141	-0.035
-329.187	533.213	-0.151	0.354
-328.172	-12.549	0.072	-0.047
-327.158	-66.793	-0.201	0.079
-326.143	-172.344	-0.382	-0.012
-325.129	-100.534	0.126	-0.031
-324.114	800.000	0.072	-0.223
-323.099	-200.000	0.039	-0.173
-322.085	-144.021	-0.223	0.021
-321.070	-50.030	0.200	-0.094
-320.056	110.844	-0.166	0.197
-319.041	-90.662	0.376	0.108
-318.026	-73.361	0.265	-0.096
-317.012	800.000	0.051	0.167
-315.997	-52.387	-0.082	-0.037
-314.983	-116.948	-0.131	-0.024
-313.968	46.579	0.199	0.183
-312.953	800.000	0.068	0.280
-311.939	800.000	-0.015	0.045
-310.924	-84.723	0.231	0.072
-309.910	34.908	-0.047	0.041
-308.895	-200.000	0.027	-0.326
-307.880	139.730	-0.130	0.170
-306.866	-200.000	-0.008	0.042
-305.851	-106.090	0.236	0.052
-304.837	-170.985	-0.235	0.008
-303.822	-153.365	0.315	0.022
-302.807	174.577	-0.157	0.225
-301.793	-107.009	-0.271	0.059
-300.778	69.672	0.120	-0.123
-299.764	-200.000	-0.005	-0.161
-298.749	-200.000	-0.071	-0.690
-297.735	-200.000	-0.020	-0.194
-296.720	-57.946	-0.157	0.068
-295.705	-162.831	0.070	0.003
-294.691	0.368	-0.215	-0.152
-293.676	800.000	0.068	-0.283
-292.662	29.627	0.163	0.137
-291.647	598.835	0.114	0.279
-290.632	-88.440	0.233	0.069
-289.618	55.839	-0.159	-0.153
-288.603	22.537	0.157	-0.127
-287.589	-118.434	0.154	-0.027
-286.574	474.037	-0.088	-0.197
-285.559	8.111	-0.263	-0.195
-284.545	150.356	-0.099	0.132
-283.530	-117.768	-0.205	0.036
-282.516	-44.216	-0.122	-0.060
-281.501	-15.857	-0.233	-0.147
-280.486	-47.978	0.247	-0.118
-279.472	190.143	-0.129	0.191
-278.457	171.463	0.117	-0.166
-277.443	320.578	0.107	0.201
-276.428	-200.000	0.002	0.168
-275.413	295.856	-0.099	-0.180
-274.399	800.000	-0.090	-0.359
-273.384	-99.956	0.370	-0.091
-272.370	-72.637	-0.082	-0.030
-271.355	-157.565	-0.159	-0.009
-270.340	376.822	0.065	-0.131
-269.326	-54.026	0.108	-0.049
-268.311	-128.472	-0.201	-0.028
-267.297	111.395	-0.032	-0.039
-266.282	123.603	0.259	-0.321
-265.267	-200.000	0.006	0.099
-264.253	316.650	-0.143	-0.266
-263.238	-97.392	0.121	-0.031
-262.224	-117.365	-0.048	0.009
-261.209	155.740	-0.294	0.400
-260.195	-169.259	-0.141	-0.005
-259.180	-116.733	0.237	0.043
-258.165	792.629	0.139	0.377
-257.151	94.265	0.125	0.141
-256.136	-200.000	-0.005	-0.029
-255.122	-8.218	-0.091	-0.061
-254.107	441.571	0.080	0.173
-253.092	-200.000	-0.051	-0.337
-252.078	1.418	-0.073	0.052
-251.063	800.000	-0.148	0.491
-250.049	68.594	0.253	-0.256
-249.034	-98.207	-0.313	0.079
-248.019	325.933	0.089	-0.168
-247.005	87.803	-0.106	-0.115
-245.990	20.084	0.095	0.076
-244.976	-32.301	-0.035	-0.019
-243.961	-200.000	-0.023	0.285
-242.946	-129.601	-0.137	-0.019
-241.932	-200.000	0.020	0.278
-240.917	-36.470	-0.549	0.292
-239.903	10.707	0.319	-0.240
-238.888	348.684	-0.146	0.284
-237.873	-110.525	0.388	0.079
-236.859	-126.402	0.409	0.060
-235.844	-200.000	0.019	0.234
-234.830	107.727	-0.143	-0.168
-233.815	218.948	0.094	0.149
-232.800	-17.100	0.167	-0.104
-231.786	36.266	0.193	-0.168
-230.771	-26.329	0.257	-0.149
-229.757	-35.821	-0.225	0.120
-228.742	-81.722	-0.009	-0.003
-227.727	34.044	0.224	-0.193
-226.713	261.362	-0.030	0.051
-225.698	239.124	0.015	-0.024
-224.684	-58.894	0.248	0.106
-223.669	81.628	-0.067	0.072
-222.655	274.397	0.073	0.127
-221.640	94.559	-0.062	0.069
-220.625	-200.000	-0.002	-0.154
-219.611	-200.000	-0.004	0.020
-218.596	-67.065	-0.399	-0.155
-217.582	48.979	0.103	0.096
-216.567	-200.000	0.023	0.159
-215.552	-136.277	0.185	0.021
-214.538	105.301	0.033	0.038
-213.523	-40.837	-0.332	-0.170
-212.509	-200.000	0.036	-0.221
-211.494	482.780	-0.116	-0.261
-210.479	-113.731	0.085	-0.016
-209.465	75.856	-0.212	0.221
-208.450	273.022	-0.029	0.050
-207.436	370.033	-0.037	0.074
-206.421	-200.000	-0.043	0.331
-205.406	38.742	-0.048	0.042
-204.392	-124.259	0.239	0.037
-203.377	283.355	-0.087	0.154
-202.363	-94.369	0.328	-0.088
-201.348	-9.555	0.094	-0.062
-200.333	800.000	0.070	-0.239
-199.319	-157.186	0.224	0.013
-198.304	-92.443	-0.285	0.079
-197.290	89.602	-0.261	-0.287
-196.275	-48.566	-0.168	-0.079
-195.260	-200.000	0.062	0.354
-194.246	355.240	0.153	0.299
-193.231	-200.000	0.014	0.290
-192.217	-169.590	-0.208	-0.007
-191.202	-200.000	-0.015	-0.101
-190.187	-200.000	-0.072	0.323
-189.173	-4.025	0.034	-0.023
-188.158	-34.220	0.187	0.101
-187.144	-78.844	-0.254	0.085
-186.129	800.000	-0.068	-0.235
-185.114	-87.115	-0.128	-0.038
-184.100	-68.651	0.089	0.034
-183.085	39.162	-0.152	0.134
-182.071	-12.284	0.456	-0.294
-181.056	-98.808	0.403	-0.101
-180.042	800.000	0.089	-0.371
-179.027	-200.000	0.016	0.176
-178.012	108.923	-0.299	0.352
-176.998	800.000	0.060	-0.222
-175.983	98.923	0.031	0.035
-174.969	800.000	-0.043	-0.181
-173.954	116.248	-0.104	-0.126
-172.939	-141.325	-0.178	-0.018
-171.925	98.576	-0.115	-0.131
-170.910	-178.854	-0.263	-0.006
-169.896	-87.147	0.124	0.037
-168.881	-36.997	-0.160	-0.084
-167.866	-200.000	0.037	-0.243
-166.852	800.000	0.062	0.211
-165.837	-200.000	0.038	0.238
-164.823	78.016	-0.232	0.244
-163.808	177.477	0.073	0.104
-162.793	-116.695	0.292	-0.053
-161.779	-104.342	-0.120	0.027
-160.764	-137.453	-0.129	0.014
-159.750	-66.675	0.190	-0.074
-158.735	-124.008	0.080	0.012
-157.720	83.107	0.091	0.097
-156.706	-147.806	0.107	0.009
-155.691	2.948	0.090	-0.064
-154.677	-31.232	-0.159	0.088
-153.662	81.728	0.088	0.094
-152.647	-161.858	-0.096	0.005
-151.633	14.646	0.269	0.206
-150.618	-37.014	0.020	-0.011
-149.604	467.927	0.059	0.130
-148.589	336.938	0.067	-0.127
-147.574	-200.000	-0.018	-0.098
-146.560	-200.000	-0.002	-0.151
-145.545	220.964	-0.222	0.351
-144.531	425.071	0.110	0.233
-143.516	238.977	0.141	0.230
-142.502	-101.415	-0.066	0.016
-141.487	23.569	-0.297	0.240
-140.472	800.000	-0.106	0.451
-139.458	800.000	0.031	-0.130
-138.443	-162.509	0.259	-0.013
-137.429	-200.000	0.003	-0.032
-136.414	-33.322	0.163	-0.088
-135.399	-100.613	-0.206	0.050
-134.385	166.778	0.136	-0.189
-133.370	72.745	-0.079	-0.081
-132.356	6.939	-0.210	-0.153
-131.341	-85.886	-0.169	0.051
-130.326	-142.554	-0.409	0.039
-129.312	-200.000	0.020	-0.146
-128.297	25.012	-0.332	0.270
-127.283	108.918	-0.075	0.088
-126.268	32.948	0.112	-0.095
-125.253	800.000	0.066	-0.268
-124.239	507.797	-0.037	-0.085
-123.224	355.296	0.068	-0.133
-122.210	66.675	0.078	-0.078
-121.195	-24.564	0.142	-0.083
