DTS Sentinel unit serial number:	SN413079Multiplexer serial number:	ORYXHardware model number:	OX4-SRSoftware version number:	ORYX F/W v4.00 Oryx Data Collector v3.7.2.0data status	okinstallation	princeton_trtdifferential loss correction	single-endedforward channel	channel 1reverse channel	N/Adate	2019/09/16time	08:58:35forward acquisition time	60.00reverse acquisition time	0.00gamma	496.2192k internal	0.2325k external	0.2325temperature offset calibration	0.9973default loss term (dB/km)	0.3790temperature slope calibration	1.0000multiplexer offset coefficient	1.0000multiplexer slope coefficient	1.0000fibre end	0.00T internal ref (°C)	30.39T ext. ref 1 (°C)	12.04T ext. ref 2 (°C)	28.10length (m)	temperature (°C)	Stokes	anti-Stokes-747.200	-17.331	-0.177	0.112
-746.185	22.037	0.112	0.092
-745.171	435.427	-0.018	-0.040
-744.156	-126.055	0.229	-0.035
-743.142	209.510	0.149	-0.235
-742.127	-116.948	-0.225	-0.042
-741.112	-200.000	-0.002	-0.183
-740.098	-111.113	-0.157	-0.032
-739.083	123.815	-0.146	0.184
-738.069	800.000	0.065	0.230
-737.054	226.685	0.252	0.413
-736.039	800.000	-0.086	-0.297
-735.025	800.000	0.063	0.242
-734.010	4.194	-0.347	0.256
-732.996	421.913	-0.104	-0.225
-731.981	-90.174	-0.098	-0.029
-730.966	167.936	-0.193	0.278
-729.952	68.310	0.144	0.148
-728.937	-10.474	0.120	-0.080
-727.923	-40.842	0.026	-0.014
-726.908	-64.072	0.255	0.105
-725.894	-200.000	-0.021	-0.200
-724.879	-65.613	0.120	-0.048
-723.864	800.000	0.062	-0.218
-722.850	19.925	0.159	-0.129
-721.835	-200.000	-0.012	-0.396
-720.821	-200.000	-0.010	-0.188
-719.806	390.084	0.103	-0.216
-718.791	51.840	-0.067	-0.064
-717.777	249.470	-0.153	-0.261
-716.762	471.230	0.120	-0.272
-715.748	249.389	-0.071	0.121
-714.733	-200.000	0.045	-0.285
-713.718	800.000	0.060	-0.239
-712.704	-7.981	-0.380	-0.258
-711.689	-92.503	0.415	-0.118
-710.675	-15.023	0.230	0.148
-709.660	512.282	-0.017	0.040
-708.645	46.649	-0.093	0.087
-707.631	118.444	-0.120	-0.149
-706.616	-55.785	-0.157	-0.071
-705.602	-200.000	-0.032	0.243
-704.587	247.085	0.060	-0.102
-703.572	-144.026	-0.056	-0.005
-702.558	118.687	-0.037	0.046
-701.543	229.478	0.182	-0.299
-700.529	-70.180	0.191	-0.073
-699.514	-47.820	0.296	-0.144
-698.499	800.000	0.055	0.240
-697.485	-109.064	-0.084	-0.018
-696.470	-200.000	0.013	-0.231
-695.456	800.000	-0.058	-0.179
-694.441	-7.657	0.268	0.182
-693.426	161.470	-0.124	0.175
-692.412	102.342	0.108	0.127
-691.397	-23.265	0.299	-0.181
-690.383	-200.000	-0.041	0.195
-689.368	-52.518	0.227	0.106
-688.354	504.105	-0.072	-0.167
-687.339	28.956	-0.092	-0.079
-686.324	800.000	0.088	-0.363
-685.310	-131.273	-0.171	-0.023
-684.295	798.715	-0.097	0.268
-683.281	-109.586	-0.310	0.066
-682.266	-200.000	-0.007	0.235
-681.251	34.398	0.118	0.104
-680.237	231.375	-0.074	-0.123
-679.222	10.570	0.129	-0.099
-678.208	-191.196	0.418	-0.004
-677.193	800.000	0.034	-0.124
-676.178	800.000	0.062	-0.242
-675.164	-112.322	0.186	-0.037
-674.149	504.906	0.009	0.021
-673.135	-38.115	0.215	0.115
-672.120	-144.281	0.079	-0.007
-671.105	-68.810	-0.158	-0.061
-670.091	-200.000	0.042	-0.396
-669.076	-119.370	-0.134	-0.023
-668.062	183.847	-0.061	0.091
-667.047	534.136	-0.052	0.124
-666.032	-108.242	0.262	0.057
-665.018	-200.000	0.002	0.189
-664.003	-67.080	-0.179	-0.071
-662.989	158.112	0.075	-0.104
-661.974	753.891	-0.026	-0.071
-660.959	800.000	-0.027	-0.085
-659.945	638.571	0.029	-0.073
-658.930	-24.842	0.086	0.051
-657.916	-200.000	-0.037	-0.196
-656.901	-27.602	-0.242	-0.141
-655.886	260.929	-0.156	0.272
-654.872	-200.000	0.064	0.323
-653.857	768.704	-0.078	-0.213
-652.843	-200.000	0.037	-0.237
-651.828	331.476	-0.095	0.184
-650.814	158.071	-0.195	-0.272
-649.799	164.889	-0.083	-0.118
-648.784	-200.000	-0.008	0.047
-647.770	-193.167	-0.402	-0.004
-646.755	110.713	-0.208	-0.252
-645.741	-9.103	-0.438	-0.295
-644.726	-156.892	-0.404	0.025
-643.711	78.643	-0.238	0.256
-642.697	-67.912	-0.112	0.044
-641.682	800.000	-0.136	0.379
-640.668	-200.000	-0.011	-0.261
-639.653	246.350	0.114	-0.194
-638.638	-27.868	0.197	-0.114
-637.624	-123.459	-0.059	-0.009
-636.609	-86.388	0.154	-0.048
-635.595	318.991	0.156	-0.297
-634.580	326.660	0.270	0.520
-633.565	-85.640	-0.313	-0.098
-632.551	-200.000	-0.020	0.115
-631.536	338.925	0.044	-0.086
-630.522	-70.866	0.283	0.107
-629.507	69.639	-0.074	0.077
-628.492	298.731	-0.112	0.207
-627.478	21.914	0.288	-0.236
-626.463	-66.647	-0.068	0.027
-625.449	50.759	-0.119	-0.113
-624.434	82.116	-0.265	-0.288
-623.419	-200.000	0.087	0.422
-622.405	-32.112	0.233	-0.131
-621.390	303.485	0.039	-0.073
-620.376	-34.095	-0.294	-0.162
-619.361	-24.593	-0.121	0.072
-618.346	-128.972	-0.253	-0.036
-617.332	-200.000	0.005	-0.132
-616.317	-80.026	0.100	0.034
-615.303	-160.840	0.252	-0.013
-614.288	293.300	-0.124	-0.228
-613.273	-103.445	0.291	0.069
-612.259	226.633	0.125	-0.203
-611.244	359.881	-0.037	-0.075
-610.230	-200.000	-0.030	0.253
-609.215	-200.000	-0.007	0.306
-608.201	-37.671	0.225	0.121
-607.186	154.738	-0.207	-0.285
-606.171	114.518	-0.145	0.177
-605.157	136.944	-0.210	0.275
-604.142	192.099	-0.125	0.190
-603.128	-53.693	-0.113	0.052
-602.113	639.422	-0.206	-0.526
-601.098	114.165	-0.344	-0.420
-600.084	173.021	0.165	-0.239
-599.069	-200.000	-0.033	-0.237
-598.055	47.192	0.166	-0.155
-597.040	259.135	0.211	0.365
-596.025	800.000	0.031	-0.094
-595.011	58.530	0.130	0.128
-593.996	-200.000	-0.057	0.300
-592.982	-77.531	-0.151	0.053
-591.967	244.177	0.101	-0.170
-590.952	-200.000	-0.023	-0.183
-589.938	217.148	-0.182	-0.291
-588.923	-196.495	0.676	0.005
-587.909	-200.000	-0.053	0.359
-586.894	-41.279	-0.497	0.257
-585.879	78.379	0.109	-0.116
-584.865	-171.326	-0.199	-0.007
-583.850	666.794	0.113	-0.292
-582.836	66.419	0.082	0.084
-581.821	183.272	0.056	-0.084
-580.806	36.144	-0.098	0.087
-579.792	-89.008	-0.207	-0.061
-578.777	68.849	-0.063	0.064
-577.763	11.513	-0.166	0.128
-576.748	-97.669	-0.422	-0.110
-575.733	95.047	0.114	0.130
-574.719	-74.460	0.212	0.077
-573.704	-92.573	-0.488	0.137
-572.690	88.900	-0.064	0.071
-571.675	-200.000	0.005	-0.160
-570.661	23.501	-0.143	0.118
-569.646	72.344	0.171	-0.178
-568.631	140.970	0.164	-0.217
-567.617	-54.989	-0.137	0.062
-566.602	-50.874	0.170	0.080
-565.588	-28.904	-0.424	0.244
-564.573	-65.263	0.313	0.126
-563.558	776.501	0.091	-0.248
-562.544	-61.672	-0.167	-0.070
-561.529	227.083	-0.180	-0.293
-560.515	-93.050	0.189	0.053
-559.500	-83.043	-0.207	0.067
-558.485	-138.635	0.170	0.019
-557.471	90.956	0.278	0.313
-556.456	-84.966	-0.176	-0.055
-555.442	51.435	-0.305	-0.290
-554.427	-114.350	-0.125	0.024
-553.412	-128.620	0.218	-0.031
-552.398	17.403	-0.225	0.179
-551.383	-92.774	0.172	-0.048
-550.369	395.190	0.204	0.425
-549.354	83.085	-0.226	0.246
-548.339	-68.713	-0.261	0.101
-547.325	-152.096	-0.422	-0.031
-546.310	40.835	-0.182	0.164
-545.296	265.650	-0.084	0.147
-544.281	37.558	0.327	-0.290
-543.266	-134.672	-0.262	0.032
-542.252	-68.526	0.160	0.062
-541.237	-79.258	0.474	0.161
-540.223	-120.269	0.228	0.039
-539.208	800.000	0.027	-0.087
-538.193	416.512	-0.117	-0.250
-537.179	29.564	-0.141	-0.120
-536.164	182.945	0.089	-0.131
-535.150	-200.000	0.065	-0.312
-534.135	78.459	0.180	-0.192
-533.121	-79.637	-0.225	-0.076
-532.106	12.491	-0.080	-0.062
-531.091	5.444	-0.195	0.144
-530.077	-19.242	-0.082	0.051
-529.062	-48.043	-0.218	-0.105
-528.048	20.912	0.211	-0.171
-527.033	99.849	0.038	-0.044
-526.018	800.000	0.014	0.055
-525.004	-111.139	-0.216	-0.044
-523.989	800.000	0.091	-0.271
-522.975	58.723	0.027	-0.026
-521.960	150.797	-0.246	-0.334
-520.945	261.958	0.104	-0.181
-519.931	-119.926	-0.205	-0.035
-518.916	138.934	0.244	-0.320
-517.902	-74.859	-0.346	0.124
-516.887	-113.575	-0.193	-0.038
-515.872	332.621	0.253	0.489
-514.858	227.443	0.108	-0.175
-513.843	-200.000	-0.023	-0.296
-512.829	-200.000	-0.016	-0.363
-511.814	-17.671	-0.142	0.089
-510.799	228.390	-0.063	0.103
-509.785	18.204	0.251	-0.200
-508.770	-11.233	-0.237	-0.156
-507.756	-67.222	0.373	-0.147
-506.741	3.202	-0.150	-0.109
-505.726	-57.773	0.184	-0.080
-504.712	-14.812	0.039	0.025
-503.697	800.000	-0.044	0.141
-502.683	48.727	0.092	0.087
-501.668	-53.600	0.280	0.128
-500.653	283.782	0.134	-0.240
-499.639	800.000	-0.037	0.103
-498.624	19.123	0.024	-0.019
-497.610	121.159	0.107	0.134
-496.595	229.433	0.137	0.223
-495.581	148.032	0.153	-0.206
-494.566	147.330	-0.060	-0.080
-493.551	108.939	-0.037	0.044
-492.537	284.698	-0.076	0.137
-491.522	8.059	-0.105	0.078
-490.508	105.217	-0.204	0.240
-489.493	23.926	-0.031	-0.025
-488.478	87.402	-0.198	-0.218
-487.464	87.913	0.251	0.278
-486.449	-104.666	-0.205	0.047
-485.435	-200.000	0.001	-0.119
-484.420	-200.000	-0.005	-0.119
-483.405	-60.118	-0.137	0.058
-482.391	-8.549	-0.430	-0.289
-481.376	-200.000	0.023	0.109
-480.362	0.118	0.192	0.136
-479.347	-200.000	0.037	-0.399
-478.332	276.557	-0.026	0.046
-477.318	-138.450	0.310	0.034
-476.303	-101.631	0.289	-0.070
-475.289	800.000	-0.085	-0.253
-474.274	-43.237	-0.222	-0.112
-473.259	91.835	0.297	-0.334
-472.245	107.990	-0.089	-0.106
-471.230	90.918	0.230	-0.257
-470.216	154.217	-0.165	-0.227
-469.201	-96.645	-0.247	0.065
-468.186	-53.123	-0.145	-0.066
-467.172	153.888	-0.144	-0.197
-466.157	-19.571	0.196	0.121
-465.143	84.498	0.074	-0.080
-464.128	-120.783	-0.049	0.008
-463.113	-92.834	-0.098	-0.027
-462.099	42.832	0.197	-0.179
-461.084	227.372	0.029	-0.047
-460.070	-200.000	-0.030	0.265
-459.055	142.466	0.067	-0.088
-458.040	88.336	-0.069	-0.076
-457.026	-32.226	-0.188	0.105
-456.011	-200.000	-0.030	0.194
-454.997	-200.000	-0.027	-0.363
-453.982	-71.433	0.175	-0.065
-452.968	65.501	0.129	0.130
-451.953	-55.705	-0.166	0.074
-450.938	91.370	0.161	-0.181
-449.924	704.224	0.094	-0.246
-448.909	800.000	-0.088	-0.339
-447.895	-67.704	-0.090	-0.035
-446.880	63.483	-0.088	0.088
-445.865	-200.000	0.010	0.098
-444.851	-200.000	-0.030	-0.251
-443.836	-148.244	0.280	-0.023
-442.822	254.524	-0.191	0.327
-441.807	776.738	-0.116	-0.315
-440.792	328.070	0.101	-0.194
-439.778	-170.204	-0.261	-0.009
-438.763	301.641	-0.097	0.179
-437.749	-144.073	-0.062	0.006
-436.734	800.000	-0.119	0.389
-435.719	338.574	0.110	0.214
-434.705	-26.702	-0.028	-0.016
-433.690	438.759	-0.048	0.104
-432.676	-110.776	0.117	0.024
-431.661	400.754	0.032	0.068
-430.646	-74.645	0.337	-0.121
-429.632	512.070	-0.029	0.068
-428.617	-133.100	-0.106	-0.013
-427.603	800.000	-0.037	-0.150
-426.588	-97.095	0.408	-0.106
-425.573	200.012	0.139	-0.212
-424.559	-117.542	-0.121	-0.022
-423.544	-200.000	-0.029	-0.138
-422.530	-40.063	-0.010	-0.005
-421.515	53.785	0.186	0.178
-420.500	-13.608	0.185	-0.120
-419.486	439.353	0.104	0.226
-418.471	612.434	0.142	0.354
-417.457	-101.568	0.266	0.064
-416.442	-200.000	-0.033	0.180
-415.428	87.008	-0.049	-0.054
-414.413	-6.717	0.042	-0.029
-413.398	-200.000	0.030	0.180
-412.384	800.000	0.025	0.095
-411.369	-200.000	0.059	0.442
-410.355	-76.897	0.148	0.051
-409.340	-128.686	0.366	0.052
-408.325	76.774	-0.129	0.137
-407.311	-200.000	-0.007	0.074
-406.296	-200.000	-0.021	-0.281
-405.282	-73.162	0.210	0.077
-404.267	-85.825	0.175	0.054
-403.252	-160.151	-0.052	0.003
-402.238	-144.724	-0.078	-0.007
-401.223	477.703	-0.031	0.069
-400.209	-101.570	-0.582	0.141
-399.194	21.177	0.057	-0.046
-398.179	-52.961	-0.084	-0.038
-397.165	634.085	-0.066	-0.167
-396.150	119.314	-0.283	-0.349
-395.136	87.633	-0.371	0.409
-394.121	129.906	-0.266	-0.339
-393.106	800.000	-0.039	-0.111
-392.092	87.740	0.150	-0.166
-391.077	-200.000	-0.017	-0.087
-390.063	4.132	0.182	0.133
-389.048	-101.816	-0.269	0.065
-388.033	800.000	-0.030	0.106
-387.019	97.085	-0.110	-0.126
-386.004	-116.731	-0.445	-0.081
-384.990	800.000	0.045	0.168
-383.975	-19.197	-0.111	0.068
-382.960	800.000	-0.057	-0.206
-381.946	565.007	0.120	-0.288
-380.931	-16.365	0.315	-0.199
-379.917	75.881	-0.091	-0.095
-378.902	-75.000	-0.119	-0.042
-377.888	800.000	-0.059	-0.180
-376.873	-147.646	0.034	0.003
-375.858	-200.000	-0.027	-0.378
-374.844	-68.979	0.238	-0.091
-373.829	-66.741	-0.223	-0.088
-372.815	-9.012	0.286	-0.190
-371.800	107.830	-0.341	0.404
-370.785	-20.625	0.202	0.123
-369.771	304.816	-0.157	0.291
-368.756	-200.000	-0.013	0.106
-367.742	36.031	-0.309	0.270
-366.727	163.672	0.045	-0.063
-365.712	-66.226	0.337	-0.133
-364.698	-119.196	0.459	-0.080
-363.683	725.936	-0.003	-0.007
-362.669	-200.000	-0.054	0.309
-361.654	-200.000	0.040	0.190
-360.639	-200.000	0.027	-0.242
-359.625	-200.000	-0.040	-0.220
-358.610	212.560	0.188	-0.295
-357.596	-200.000	0.001	0.342
-356.581	-34.415	-0.260	-0.142
-355.566	800.000	-0.054	0.167
-354.552	-91.503	0.091	0.026
-353.537	-200.000	0.007	0.095
-352.523	337.081	0.246	0.475
-351.508	181.987	0.050	0.073
-350.493	-200.000	0.027	0.302
-349.479	624.802	0.142	0.356
-348.464	-129.250	-0.269	0.037
-347.450	87.170	-0.262	-0.288
-346.435	-136.971	-0.265	-0.030
-345.420	610.377	-0.057	0.142
-344.406	800.000	-0.091	0.293
-343.391	285.860	-0.055	-0.099
-342.377	1.227	-0.124	0.088
-341.362	800.000	0.068	0.288
-340.348	800.000	0.043	0.123
-339.333	800.000	0.022	-0.072
-338.318	254.706	0.103	-0.175
-337.304	800.000	-0.004	0.013
-336.289	28.792	-0.268	0.225
-335.275	495.400	-0.090	-0.206
-334.260	-187.191	0.284	-0.004
-333.245	-200.000	-0.028	0.194
-332.231	213.446	-0.211	-0.331
-331.216	-24.509	0.098	0.058
-330.202	29.722	0.153	-0.130
-329.187	-200.000	0.010	0.156
-328.172	53.549	0.041	0.039
-327.158	-10.899	0.070	-0.046
-326.143	169.385	0.086	0.122
-325.129	-200.000	0.001	0.227
-324.114	104.042	0.132	-0.153
-323.099	214.261	0.147	-0.231
-322.085	-200.000	0.010	0.151
-321.070	449.894	0.143	0.313
-320.056	-108.962	0.247	-0.052
-319.041	800.000	-0.051	0.210
-318.026	-200.000	0.027	0.264
-317.012	800.000	0.059	0.220
-315.997	402.177	-0.051	0.106
-314.983	418.503	-0.109	-0.231
-313.968	-71.343	0.300	0.111
-312.953	270.313	0.058	-0.101
-311.939	-94.309	0.233	-0.063
-310.924	534.699	0.112	0.263
-309.910	84.456	-0.140	-0.151
-308.895	-89.414	-0.209	-0.061
-307.880	-64.507	-0.159	0.064
-306.866	-50.252	0.021	0.010
-305.851	193.098	0.201	-0.302
-304.837	-200.000	-0.022	0.307
-303.822	147.947	-0.031	0.042
-302.807	123.067	0.095	0.118
-301.793	-33.349	0.155	-0.085
-300.778	-200.000	-0.012	-0.386
-299.764	-24.750	-0.196	0.116
-298.749	-200.000	0.071	-0.319
-297.735	179.425	0.084	0.122
-296.720	-3.607	-0.194	0.134
-295.705	273.110	0.088	-0.155
-294.691	125.199	-0.022	0.027
-293.676	800.000	-0.154	0.453
-292.662	-61.834	-0.074	-0.031
-291.647	-147.536	0.499	0.042
-290.632	-200.000	0.050	0.355
-289.618	-120.395	0.254	0.043
-288.603	-112.248	0.148	0.029
-287.589	70.246	0.012	-0.012
-286.574	-36.712	-0.093	-0.050
-285.559	-59.319	-0.122	-0.052
-284.545	157.761	-0.167	-0.230
-283.530	303.743	0.172	0.316
-282.516	800.000	0.030	0.128
-281.501	800.000	-0.064	-0.197
-280.486	158.083	0.004	-0.006
-279.472	-103.612	-0.137	0.032
-278.457	1.619	-0.233	-0.166
-277.443	-51.136	-0.250	0.116
-276.428	163.062	0.169	0.235
-275.413	-200.000	0.044	-0.283
-274.399	127.815	-0.388	-0.489
-273.384	-64.464	-0.169	0.068
-272.370	769.837	0.126	0.340
-271.355	60.124	-0.198	0.194
-270.340	-37.874	0.292	-0.154
-269.326	91.951	-0.281	0.313
-268.311	-126.321	-0.539	0.080
-267.297	73.465	0.376	0.390
-266.282	-122.347	0.309	-0.050
-265.267	-45.360	0.169	0.083
-264.253	70.275	-0.100	0.102
-263.238	527.714	0.129	0.302
-262.224	-71.816	0.074	0.027
-261.209	384.310	-0.113	-0.231
-260.195	226.005	0.113	-0.181
-259.180	-59.078	0.466	-0.199
-258.165	-102.834	-0.148	-0.035
-257.151	689.734	0.084	-0.217
-256.136	40.931	-0.137	0.123
-255.122	800.000	-0.112	-0.360
-254.107	597.969	0.124	0.303
-253.092	-88.348	0.095	-0.028
-252.078	-62.790	-0.124	0.051
-251.063	-142.192	-0.257	-0.025
-250.049	-28.764	-0.343	0.195
-249.034	-43.872	0.150	-0.074
-248.019	408.364	0.065	0.136
-247.005	747.882	0.078	-0.207
-245.990	-106.528	0.206	0.045
-244.976	-75.590	0.449	-0.158
-243.961	346.246	0.112	-0.217
-242.946	-200.000	0.109	0.498
-241.932	-200.000	0.014	0.078
-240.917	87.620	-0.106	0.116
-239.903	751.098	0.081	-0.215
-238.888	-200.000	0.097	-0.000
-237.873	-162.739	-0.147	-0.007
-236.859	-187.403	0.290	-0.004
-235.844	235.646	-0.146	0.239
-234.830	-81.179	0.093	-0.030
-233.815	-92.479	0.350	0.097
-232.800	-65.741	0.112	0.044
-231.786	-200.000	0.001	-0.287
-230.771	237.575	-0.093	0.153
-229.757	-37.572	-0.132	0.069
-228.742	2.676	-0.198	0.142
-227.727	-200.000	-0.012	-0.236
-226.713	114.343	0.163	0.196
-225.698	-66.150	0.163	-0.064
-224.684	-200.000	0.063	-0.283
-223.669	223.326	0.185	-0.294
-222.655	-90.066	0.101	-0.029
-221.640	10.131	-0.185	0.139
-220.625	143.226	0.302	0.397
-219.611	173.255	0.212	0.303
-218.596	-117.638	-0.085	0.015
-217.582	-200.000	-0.000	0.159
-216.567	-34.655	0.127	-0.069
-215.552	257.562	-0.067	0.114
-214.538	-169.782	0.212	-0.008
-213.523	-128.433	-0.436	-0.061
-212.509	-67.064	-0.182	-0.071
-211.494	-64.734	-0.131	-0.052
-210.479	66.542	-0.096	-0.097
-209.465	-76.224	-0.267	0.093
-208.450	18.087	0.187	-0.147
-207.436	800.000	0.067	-0.185
-206.421	800.000	-0.005	0.017
-205.406	-142.476	0.370	0.036
-204.392	-92.296	-0.121	0.034
-203.377	-33.284	0.129	-0.071
-202.363	800.000	-0.106	-0.324
-201.348	-133.648	0.159	0.020
-200.333	-200.000	0.013	0.140
-199.319	89.370	0.245	-0.270
-198.304	646.480	0.022	0.055
-197.290	116.903	0.132	0.160
-196.275	-200.000	-0.014	0.313
-195.260	-11.856	0.501	-0.325
-194.246	41.168	0.172	0.154
-193.231	800.000	0.023	0.091
-192.217	-78.171	-0.115	0.039
-191.202	-139.311	0.141	0.015
-190.187	96.767	-0.074	0.083
-189.173	-200.000	0.000	0.047
-188.158	-151.094	-0.168	0.012
-187.144	437.828	0.100	-0.214
-186.129	-162.867	-0.136	-0.007
-185.114	-153.695	0.238	0.016
-184.100	-56.648	-0.032	0.014
-183.085	-153.282	-0.237	-0.016
-182.071	-85.489	0.181	-0.056
-181.056	-3.636	-0.053	0.036
-180.042	114.771	-0.053	0.063
-179.027	-95.794	0.195	-0.051
-178.012	-200.000	0.070	0.380
-176.998	23.427	-0.095	0.077
-175.983	-15.112	-0.227	0.144
-174.969	41.960	0.100	0.089
-173.954	-200.000	-0.015	0.143
-172.939	126.566	0.141	-0.176
-171.925	-68.121	-0.063	0.024
-170.910	-42.619	-0.172	0.087
-169.896	601.663	0.134	0.330
-168.881	800.000	-0.041	0.154
-167.866	-200.000	0.043	0.233
-166.852	-135.771	0.242	0.028
-165.837	-26.447	-0.152	-0.088
-164.823	21.160	0.133	-0.107
-163.808	351.785	-0.022	-0.043
-162.793	112.217	0.168	0.200
-161.779	348.330	0.081	-0.158
-160.764	-41.801	0.130	0.066
-159.750	-49.314	0.127	-0.060
-158.735	-200.000	-0.021	-0.197
-157.720	64.466	-0.348	-0.346
-156.706	800.000	0.006	0.020
-155.691	14.679	-0.172	-0.133
-154.677	62.220	-0.106	0.105
-153.662	-82.411	0.327	0.105
-152.647	304.416	0.069	0.126
-151.633	-62.067	-0.238	-0.098
-150.618	431.204	0.100	0.213
-149.604	521.826	0.099	0.230
-148.589	-6.739	0.325	0.218
-147.574	-1.804	0.366	-0.254
-146.560	58.349	-0.118	0.114
-145.545	174.888	-0.287	0.409
-144.531	800.000	0.031	0.122
-143.516	-200.000	0.002	-0.306
-142.502	-200.000	-0.047	-0.394
-141.487	800.000	-0.077	-0.298
-140.472	180.097	0.065	-0.093
-139.458	800.000	0.094	0.270
-138.443	92.195	0.148	0.164
-137.429	-12.877	-0.063	-0.040
-136.414	-200.000	-0.030	0.408
-135.399	84.706	-0.100	-0.108
-134.385	800.000	0.046	0.180
-133.370	194.911	0.094	0.141
-132.356	-200.000	0.036	-0.235
-131.341	133.283	-0.038	0.049
-130.326	553.141	0.072	0.170
-129.312	223.425	0.141	0.224
-128.297	-29.798	0.389	0.219
-127.283	-200.000	0.006	0.224
-126.268	-200.000	-0.027	0.276
-125.253	-184.418	0.101	-0.002
-124.239	113.169	-0.024	-0.029
-123.224	463.330	-0.046	0.100
-122.210	82.891	-0.316	0.338
-121.195	-200.000	-0.005	-0.324
