DTS Sentinel unit serial number:	SN413079Multiplexer serial number:	ORYXHardware model number:	OX4-SRSoftware version number:	ORYX F/W v4.00 Oryx Data Collector v3.7.2.0data status	okinstallation	princeton_trtdifferential loss correction	single-endedforward channel	channel 1reverse channel	N/Adate	2019/09/15time	14:42:35forward acquisition time	60.00reverse acquisition time	0.00gamma	496.2192k internal	0.2290k external	0.2290temperature offset calibration	0.9955default loss term (dB/km)	0.3790temperature slope calibration	1.0000multiplexer offset coefficient	1.0000multiplexer slope coefficient	1.0000fibre end	0.00T internal ref (°C)	39.69T ext. ref 1 (°C)	4.86T ext. ref 2 (°C)	36.69length (m)	temperature (°C)	Stokes	anti-Stokes-747.200	800.000	-0.058	0.166
-746.185	800.000	0.062	0.178
-745.171	-200.000	0.027	0.297
-744.156	-6.980	0.116	0.081
-743.142	247.416	0.131	0.226
-742.127	781.625	0.065	0.181
-741.112	-40.230	-0.145	-0.077
-740.098	511.403	-0.179	-0.426
-739.083	738.714	-0.078	0.215
-738.069	800.000	0.115	0.421
-737.054	9.159	-0.076	-0.059
-736.039	-29.166	-0.015	-0.009
-735.025	520.317	0.061	0.147
-734.010	-200.000	0.028	-0.443
-732.996	-8.129	-0.092	-0.064
-731.981	-49.338	0.155	0.076
-730.966	24.382	-0.238	-0.202
-729.952	17.133	-0.360	-0.293
-728.937	70.976	-0.089	-0.094
-727.923	-12.972	-0.168	0.112
-726.908	-23.552	0.082	-0.050
-725.894	-200.000	-0.125	-0.000
-724.879	-63.485	-0.205	0.086
-723.864	156.789	-0.145	-0.205
-722.850	800.000	0.107	-0.404
-721.835	-17.617	-0.135	0.087
-720.821	241.351	0.074	0.126
-719.806	110.730	-0.235	-0.289
-718.791	-65.916	-0.213	-0.087
-717.777	-200.000	0.010	-0.393
-716.762	-52.808	-0.165	-0.078
-715.748	-9.646	-0.187	-0.128
-714.733	-102.032	-0.351	0.087
-713.718	-166.699	0.138	-0.006
-712.704	-50.698	-0.274	0.132
-711.689	6.705	-0.180	0.137
-710.675	-166.010	-0.222	-0.010
-709.660	800.000	-0.033	-0.105
-708.645	-200.000	-0.000	-0.116
-707.631	112.460	-0.143	-0.177
-706.616	800.000	0.063	-0.186
-705.602	-12.246	0.213	-0.142
-704.587	138.111	-0.153	0.205
-703.572	-12.703	0.157	0.105
-702.558	-170.626	0.102	-0.004
-701.543	-115.400	-0.278	-0.054
-700.529	800.000	0.039	-0.156
-699.514	800.000	0.120	0.391
-698.499	135.420	0.095	-0.126
-697.485	-200.000	0.006	0.161
-696.470	-200.000	0.001	0.254
-695.456	-200.000	0.009	0.097
-694.441	-78.950	-0.281	-0.098
-693.426	76.899	-0.159	0.172
-692.412	-70.768	-0.197	0.076
-691.397	-200.000	0.010	0.166
-690.383	-200.000	-0.018	0.081
-689.368	800.000	-0.055	0.156
-688.354	25.122	-0.120	-0.102
-687.339	800.000	-0.028	-0.102
-686.324	-149.899	-0.268	-0.021
-685.310	334.444	-0.043	-0.085
-684.295	88.346	0.088	-0.100
-683.281	-200.000	0.013	-0.097
-682.266	171.238	-0.015	-0.023
-681.251	398.944	-0.118	0.252
-680.237	-200.000	0.014	-0.213
-679.222	-200.000	-0.056	-0.267
-678.208	-37.718	0.287	0.156
-677.193	505.976	-0.055	-0.130
-676.178	-200.000	0.025	0.372
-675.164	-156.227	-0.184	-0.012
-674.149	-200.000	0.014	-0.170
-673.135	-200.000	0.018	-0.285
-672.120	-151.050	0.038	0.003
-671.105	-152.064	0.359	0.027
-670.091	-127.402	-0.139	0.021
-669.076	-63.741	-0.247	0.103
-668.062	317.515	0.014	0.027
-667.047	12.730	-0.097	0.076
-666.032	273.453	0.075	-0.135
-665.018	69.402	-0.126	0.132
-664.003	-200.000	0.008	-0.080
-662.989	453.821	0.103	-0.232
-661.974	781.605	-0.024	-0.068
-660.959	34.395	0.360	-0.321
-659.945	-200.000	-0.007	-0.036
-658.930	-200.000	-0.019	-0.138
-657.916	-200.000	-0.023	0.136
-656.901	-63.398	-0.143	0.060
-655.886	-200.000	0.002	0.244
-654.872	-200.000	0.015	0.394
-653.857	-200.000	-0.017	-0.165
-652.843	-200.000	0.017	0.153
-651.828	-78.761	0.173	0.060
-650.814	-137.309	0.095	-0.011
-649.799	-51.183	0.091	0.043
-648.784	362.027	0.044	-0.091
-647.770	-200.000	0.025	-0.168
-646.755	253.043	0.110	-0.192
-645.741	76.291	-0.324	0.350
-644.726	-200.000	-0.018	-0.242
-643.711	188.097	-0.205	-0.313
-642.697	-7.864	0.225	-0.155
-641.682	-200.000	0.013	-0.246
-640.668	79.703	-0.073	-0.080
-639.653	11.634	-0.074	0.058
-638.638	-33.388	0.183	0.103
-637.624	-130.750	0.172	-0.024
-636.609	37.633	-0.381	-0.345
-635.595	-200.000	0.068	-0.376
-634.580	-86.888	0.077	-0.024
-633.565	-200.000	-0.010	-0.223
-632.551	-200.000	-0.012	-0.090
-631.536	-200.000	0.038	0.400
-630.522	-61.007	-0.126	-0.054
-629.507	-101.186	-0.235	-0.059
-628.492	-23.409	-0.161	0.099
-627.478	800.000	-0.031	-0.092
-626.463	-200.000	0.018	0.231
-625.449	-200.000	0.043	-0.496
-624.434	800.000	0.079	-0.230
-623.419	-200.000	-0.046	-0.210
-622.405	186.734	-0.125	-0.189
-621.390	800.000	-0.097	0.279
-620.376	-79.049	0.139	0.048
-619.361	-125.476	0.107	0.017
-618.346	-147.339	0.118	-0.010
-617.332	-136.491	0.290	0.034
-616.317	194.877	-0.103	-0.159
-615.303	117.332	0.098	0.123
-614.288	-200.000	-0.031	-0.171
-613.273	-116.756	0.260	-0.049
-612.259	54.823	-0.196	0.193
-611.244	9.132	-0.156	0.120
-610.230	-74.398	0.085	-0.031
-609.215	31.851	-0.138	0.121
-608.201	-144.944	0.060	-0.006
-607.186	7.322	-0.142	0.108
-606.171	-62.624	0.265	-0.112
-605.157	-200.000	0.035	-0.257
-604.142	-69.157	-0.316	-0.124
-603.128	-94.398	0.136	0.038
-602.113	-168.537	-0.128	0.005
-601.098	800.000	0.014	-0.054
-600.084	-200.000	-0.015	0.084
-599.069	231.200	-0.119	-0.199
-598.055	151.552	0.206	0.286
-597.040	142.919	-0.080	0.108
-596.025	37.727	-0.037	-0.033
-595.011	-200.000	0.001	0.088
-593.996	-109.634	-0.393	-0.084
-592.982	-200.000	-0.001	0.171
-591.967	203.226	-0.121	-0.190
-590.952	-86.618	0.490	-0.153
-589.938	800.000	-0.086	-0.259
-588.923	-64.563	-0.084	-0.035
-587.909	-91.826	-0.438	0.126
-586.894	800.000	-0.035	-0.147
-585.879	153.926	0.132	0.184
-584.865	-92.658	0.180	-0.051
-583.850	7.125	-0.104	0.079
-582.836	-50.173	-0.071	0.034
-581.821	-76.919	-0.051	-0.018
-580.806	800.000	0.067	-0.252
-579.792	698.254	0.060	-0.161
-578.777	92.282	0.282	-0.324
-577.763	-167.497	-0.126	0.005
-576.748	-200.000	-0.009	-0.147
-575.733	668.547	-0.090	0.237
-574.719	-200.000	0.032	0.272
-573.704	-48.477	-0.227	0.111
-572.690	-200.000	0.044	-0.345
-571.675	367.610	0.127	0.261
-570.661	-99.686	0.251	0.064
-569.646	-132.348	-0.244	0.032
-568.631	255.093	0.218	0.379
-567.617	17.317	0.330	-0.267
-566.602	-200.000	0.015	-0.140
-565.588	-200.000	0.083	-0.377
-564.573	800.000	0.055	-0.178
-563.558	-62.527	0.310	-0.131
-562.544	582.206	0.102	0.256
-561.529	-133.239	-0.129	0.017
-560.515	-200.000	-0.066	-0.337
-559.500	627.639	0.143	-0.368
-558.485	22.230	-0.178	0.148
-557.471	-89.423	0.151	-0.045
-556.456	69.332	0.277	-0.289
-555.442	567.270	0.086	0.212
-554.427	-200.000	0.027	0.244
-553.412	68.093	-0.077	-0.080
-552.398	800.000	0.045	0.186
-551.383	352.755	-0.156	0.315
-550.369	-200.000	-0.052	0.357
-549.354	-52.921	0.178	-0.083
-548.339	-17.179	-0.044	-0.028
-547.325	53.185	0.164	-0.160
-546.310	-53.698	0.213	-0.099
-545.296	-110.093	0.122	-0.026
-544.281	800.000	0.071	-0.212
-543.266	-165.606	0.318	-0.014
-542.252	65.184	-0.238	0.245
-541.237	800.000	0.075	0.330
-540.223	73.574	-0.223	0.238
-539.208	-41.335	0.200	-0.104
-538.193	308.697	-0.025	-0.048
-537.179	-75.612	0.087	-0.031
-536.164	-200.000	0.029	0.230
-535.150	91.476	-0.064	0.073
-534.135	-200.000	0.012	0.264
-533.121	-150.107	0.157	0.012
-532.106	153.158	0.263	0.366
-531.091	135.618	-0.047	0.062
-530.077	-200.000	0.023	-0.133
-529.062	-57.691	-0.139	0.062
-528.048	-15.233	-0.383	0.249
-527.033	243.994	-0.139	0.237
-526.018	9.772	-0.159	0.123
-525.004	-28.780	-0.230	0.134
-523.989	-104.683	-0.259	0.061
-522.975	110.948	-0.176	0.216
-521.960	246.465	-0.115	0.196
-520.945	-133.948	-0.229	-0.029
-519.931	-125.299	-0.233	0.036
-518.916	800.000	0.035	-0.140
-517.902	121.353	0.162	-0.205
-516.887	-200.000	-0.013	-0.101
-515.872	-113.692	-0.065	-0.013
-514.858	452.482	0.058	0.131
-513.843	-200.000	0.007	0.057
-512.829	-99.544	-0.085	0.022
-511.814	268.268	-0.125	0.222
-510.799	560.744	-0.058	0.141
-509.785	159.699	0.047	-0.066
-508.770	-200.000	0.014	0.227
-507.756	-200.000	0.022	0.203
-506.741	19.347	0.338	0.275
-505.726	25.775	0.050	0.043
-504.712	-200.000	-0.048	0.237
-503.697	-73.885	0.201	-0.074
-502.683	-148.905	-0.093	-0.008
-501.668	-137.603	0.102	-0.012
-500.653	-35.182	-0.189	0.104
-499.639	734.963	-0.086	0.233
-498.624	-170.630	0.188	-0.007
-497.610	-200.000	-0.059	-0.348
-496.595	-35.528	-0.220	-0.121
-495.581	1.369	-0.079	-0.058
-494.566	40.286	0.033	-0.030
-493.551	-200.000	0.012	0.254
-492.537	34.434	0.162	0.144
-491.522	-123.867	-0.503	-0.081
-490.508	-200.000	0.013	0.076
-489.493	-124.551	-0.420	-0.066
-488.478	-28.246	0.148	-0.087
-487.464	-2.685	-0.287	-0.204
-486.449	195.316	0.355	0.547
-485.435	-39.479	-0.323	0.171
-484.420	-87.364	0.371	-0.114
-483.405	-63.475	0.283	-0.118
-482.391	521.423	-0.076	-0.181
-481.376	-200.000	-0.007	0.175
-480.362	-133.830	0.208	0.026
-479.347	-115.785	-0.348	-0.066
-478.332	641.238	-0.043	-0.111
-477.318	800.000	0.031	0.090
-476.303	-200.000	-0.032	-0.248
-475.289	54.223	-0.113	-0.110
-474.274	-48.968	-0.150	0.073
-473.259	4.434	0.173	0.128
-472.245	-200.000	-0.031	-0.222
-471.230	800.000	-0.048	0.157
-470.216	11.134	0.040	-0.031
-469.201	-18.288	-0.256	-0.162
-468.186	37.376	-0.211	-0.190
-467.172	-171.110	-0.232	0.008
-466.157	-124.470	0.284	0.045
-465.143	-200.000	-0.049	-0.395
-464.128	800.000	0.042	-0.139
-463.113	-53.003	0.375	-0.175
-462.099	183.435	0.056	-0.084
-461.084	39.116	-0.103	0.093
-460.070	-81.942	0.314	0.104
-459.055	49.208	-0.019	0.018
-458.040	-11.217	-0.334	-0.223
-457.026	6.463	-0.350	0.263
-456.011	-200.000	-0.011	0.389
-454.997	145.588	0.164	-0.222
-453.982	-200.000	-0.031	-0.277
-452.968	-200.000	-0.025	0.114
-451.953	240.907	0.023	-0.040
-450.938	800.000	0.062	-0.260
-449.924	-79.941	-0.270	0.092
-448.909	-52.284	-0.114	0.054
-447.895	6.272	0.236	0.177
-446.880	-102.902	-0.248	0.060
-445.865	575.482	0.025	0.062
-444.851	-13.060	0.178	0.117
-443.836	-200.000	-0.003	0.219
-442.822	-200.000	-0.007	0.164
-441.807	-200.000	0.000	0.144
-440.792	270.099	-0.152	-0.271
-439.778	-112.066	0.055	0.011
-438.763	12.029	0.198	0.154
-437.749	69.352	-0.022	0.023
-436.734	53.392	0.022	0.021
-435.719	541.230	-0.052	-0.126
-434.705	-200.000	-0.031	0.279
-433.690	78.886	-0.056	-0.060
-432.676	-6.333	-0.311	0.215
-431.661	6.680	-0.464	0.349
-430.646	-18.801	0.125	-0.079
-429.632	118.005	-0.018	0.022
-428.617	144.530	-0.166	-0.224
-427.603	97.475	-0.076	0.089
-426.588	136.838	0.177	-0.233
-425.573	-113.922	-0.308	-0.061
-424.559	-32.783	0.320	0.180
-423.544	-167.658	0.313	0.013
-422.530	477.887	0.033	0.076
-421.515	130.160	0.106	-0.137
-420.500	170.886	0.202	0.292
-419.486	800.000	0.054	-0.191
-418.471	-142.839	0.135	-0.013
-417.457	323.635	0.096	-0.186
-416.442	-26.469	0.242	0.143
-415.428	-85.773	0.103	-0.032
-414.413	2.830	-0.221	0.162
-413.398	-200.000	-0.021	-0.125
-412.384	282.186	-0.060	0.110
-411.369	-69.674	0.200	0.077
-410.355	-62.257	0.244	-0.103
-409.340	-59.575	-0.142	-0.062
-408.325	-132.304	0.086	0.011
-407.311	69.542	-0.261	-0.271
-406.296	-143.659	-0.359	-0.034
-405.282	-17.819	-0.207	0.131
-404.267	40.388	0.225	0.204
-403.252	675.363	0.074	0.195
-402.238	-111.901	-0.186	0.038
-401.223	-200.000	-0.019	-0.325
-400.209	-187.785	-0.243	0.003
-399.194	35.797	-0.102	-0.091
-398.179	396.422	0.011	0.024
-397.165	202.453	0.067	0.105
-396.150	-21.622	-0.128	-0.079
-395.136	-27.180	0.172	0.101
-394.121	-100.294	-0.279	-0.070
-393.106	-200.000	0.004	-0.046
-392.092	-31.685	0.295	-0.167
-391.077	112.387	-0.294	-0.359
-390.063	-12.699	0.179	0.118
-389.048	67.364	-0.175	0.180
-388.033	800.000	-0.073	-0.247
-387.019	404.919	-0.093	-0.198
-386.004	71.684	-0.107	0.112
-384.990	-122.589	-0.254	0.042
-383.975	800.000	0.056	0.157
-382.960	-200.000	0.039	0.235
-381.946	-47.532	0.156	0.077
-380.931	-200.000	0.019	0.382
-379.917	3.044	-0.284	-0.209
-378.902	219.132	0.127	-0.205
-377.888	-70.441	0.267	-0.102
-376.873	-87.714	-0.402	-0.123
-375.858	-200.000	0.024	-0.114
-374.844	-77.756	0.173	0.060
-373.829	-18.433	-0.037	0.023
-372.815	-5.255	-0.062	0.043
-371.800	800.000	-0.050	-0.209
-370.785	201.544	-0.073	-0.113
-369.771	129.392	0.295	0.380
-368.756	-148.166	-0.149	-0.012
-367.742	-134.628	0.220	-0.027
-366.727	-73.686	0.324	-0.119
-365.712	800.000	0.039	-0.127
-364.698	72.655	-0.219	-0.231
-363.683	-189.564	0.289	0.003
-362.669	16.529	0.114	0.091
-361.654	-78.030	-0.073	0.025
-360.639	-107.239	-0.210	0.047
-359.625	-200.000	-0.014	-0.366
-358.610	3.765	-0.089	0.066
-357.596	-17.106	-0.141	-0.090
-356.581	-200.000	-0.030	-0.381
-355.566	74.654	-0.157	0.166
-354.552	-70.681	0.187	-0.071
-353.537	-200.000	-0.045	-0.540
-352.523	800.000	-0.028	-0.100
-351.508	-200.000	-0.023	-0.178
-350.493	-200.000	0.010	-0.135
-349.479	-200.000	-0.037	0.328
-348.464	199.291	-0.047	-0.072
-347.450	353.298	0.013	-0.026
-346.435	-14.675	0.296	0.192
-345.420	427.892	0.221	0.481
-344.406	-70.892	0.033	-0.012
-343.391	82.023	-0.049	-0.053
-342.377	-77.001	0.341	-0.120
-341.362	266.635	-0.164	-0.290
-340.348	-200.000	-0.012	0.235
-339.333	-48.385	0.149	0.073
-338.318	170.401	0.158	0.228
-337.304	-32.204	0.331	0.186
-336.289	-145.986	0.127	0.011
-335.275	-151.232	-0.129	-0.010
-334.260	-69.112	-0.128	-0.050
-333.245	-0.393	-0.465	-0.333
-332.231	117.535	0.164	-0.203
-331.216	162.033	-0.057	0.080
-330.202	108.159	-0.038	-0.046
-329.187	-69.427	-0.276	-0.107
-328.172	-130.247	-0.176	-0.024
-327.158	-17.838	-0.224	-0.142
-326.143	-60.323	0.269	0.115
-325.129	163.879	-0.127	-0.180
-324.114	379.589	-0.014	0.028
-323.099	-130.458	0.030	0.004
-322.085	260.501	-0.076	0.133
-321.070	71.271	-0.287	-0.300
-320.056	579.505	0.072	0.178
-319.041	-200.000	0.011	0.060
-318.026	-200.000	0.007	0.133
-317.012	284.837	-0.136	0.246
-315.997	-102.296	-0.201	-0.049
-314.983	-115.787	0.221	0.042
-313.968	-200.000	-0.002	-0.141
-312.953	-200.000	-0.005	0.193
-311.939	404.123	0.138	-0.292
-310.924	-61.412	-0.139	0.059
-309.910	103.110	-0.249	0.294
-308.895	-200.000	0.051	-0.258
-307.880	-180.748	0.119	0.002
-306.866	800.000	0.077	-0.261
-305.851	-79.391	0.233	-0.079
-304.837	-102.259	-0.105	0.025
-303.822	-157.366	-0.285	-0.017
-302.807	701.170	0.059	-0.157
-301.793	-99.094	0.161	0.041
-300.778	114.605	0.239	0.294
-299.764	-104.692	-0.361	0.084
-298.749	21.464	0.384	-0.314
-297.735	-87.226	-0.131	-0.040
-296.720	-200.000	0.102	0.605
-295.705	169.198	0.086	0.124
-294.691	-55.268	0.214	0.097
-293.676	-109.702	-0.408	0.087
-292.662	275.956	-0.140	0.250
-291.647	78.267	-0.094	-0.101
-290.632	83.493	-0.152	0.166
-289.618	217.978	0.067	-0.107
-288.603	-200.000	0.013	-0.233
-287.589	-67.048	0.075	0.030
-286.574	-140.798	0.307	0.032
-285.559	-38.985	0.189	0.100
-284.545	-200.000	-0.070	-0.418
-283.530	-200.000	0.102	0.000
-282.516	431.921	-0.082	0.179
-281.501	346.323	-0.111	0.220
-280.486	270.726	-0.193	-0.342
-279.472	-50.356	-0.193	0.092
-278.457	6.906	0.163	-0.122
-277.443	3.929	0.255	-0.188
-276.428	589.135	0.066	0.164
-275.413	-136.795	0.179	-0.021
-274.399	-65.271	0.061	0.025
-273.384	-1.603	0.170	0.120
-272.370	800.000	0.024	0.104
-271.355	-141.545	0.172	0.017
-270.340	800.000	0.091	0.297
-269.326	22.599	-0.129	0.106
-268.311	-77.635	0.107	0.037
-267.297	-98.831	-0.430	0.110
-266.282	21.529	0.142	0.116
-265.267	160.109	0.290	0.406
-264.253	155.086	-0.269	0.372
-263.238	521.968	-0.079	0.187
-262.224	5.121	-0.056	-0.041
-261.209	-200.000	0.087	0.439
-260.195	690.915	-0.071	-0.186
-259.180	-81.810	-0.132	-0.044
-258.165	-170.977	-0.409	-0.014
-257.151	408.637	-0.061	0.129
-256.136	-139.265	-0.204	-0.022
-255.122	5.044	0.189	0.140
-254.107	126.858	-0.173	0.220
-253.092	800.000	-0.112	0.314
-252.078	-41.414	0.108	0.056
-251.063	800.000	-0.031	-0.114
-250.049	800.000	-0.045	-0.133
-249.034	-102.745	-0.150	0.036
-248.019	-61.464	-0.297	0.125
-247.005	-15.168	-0.017	0.011
-245.990	31.508	-0.261	-0.225
-244.976	34.853	0.097	-0.085
-243.961	800.000	0.098	-0.311
-242.946	202.278	0.201	-0.312
-241.932	-63.823	0.043	0.018
-240.917	203.950	0.261	-0.407
-239.903	-200.000	0.001	-0.146
-238.888	231.463	-0.058	0.095
-237.873	417.094	0.141	-0.303
-236.859	800.000	0.003	-0.012
-235.844	-15.446	-0.069	-0.044
-234.830	-37.668	-0.014	0.008
-233.815	78.713	0.008	-0.009
-232.800	800.000	-0.084	-0.343
-231.786	9.117	0.203	-0.154
-230.771	595.623	-0.071	0.177
-229.757	37.017	0.270	0.240
-228.742	783.126	-0.101	-0.278
-227.727	223.260	0.174	-0.282
-226.713	207.761	-0.204	-0.320
-225.698	-22.796	0.268	0.163
-224.684	-147.133	0.055	0.005
-223.669	-91.920	-0.088	0.025
-222.655	382.361	0.100	-0.205
-221.640	-58.151	0.324	0.142
-220.625	-105.884	-0.104	0.024
-219.611	102.451	0.222	0.261
-218.596	800.000	0.043	0.174
-217.582	-200.000	-0.028	0.143
-216.567	-161.749	-0.213	-0.011
-215.552	362.543	-0.058	-0.116
-214.538	452.948	-0.109	-0.241
-213.523	-52.225	0.039	-0.018
-212.509	-200.000	0.008	0.197
-211.494	74.316	-0.085	0.089
-210.479	-17.896	-0.177	-0.111
-209.465	-200.000	0.001	0.250
-208.450	-200.000	0.042	0.242
-207.436	99.960	0.278	0.323
-206.421	36.442	0.088	0.078
-205.406	800.000	-0.037	0.128
-204.392	-200.000	-0.060	0.393
-203.377	-145.007	0.217	0.020
-202.363	65.102	0.065	-0.065
-201.348	-200.000	-0.048	-0.449
-200.333	-107.916	-0.127	0.028
-199.319	41.773	0.022	0.020
-198.304	128.507	0.266	0.339
-197.290	-44.861	-0.181	0.090
-196.275	184.076	-0.116	0.172
-195.260	10.845	0.112	0.085
-194.246	-200.000	0.042	0.216
-193.231	-200.000	-0.005	-0.213
-192.217	-110.129	0.265	0.055
-191.202	-79.537	-0.201	0.068
-190.187	-152.993	-0.268	-0.019
-189.173	-200.000	0.041	-0.219
-188.158	-200.000	0.004	-0.120
-187.144	54.144	0.267	0.258
-186.129	800.000	-0.038	-0.158
-185.114	-37.296	0.059	0.032
-184.100	800.000	-0.025	0.073
-183.085	800.000	0.097	-0.304
-182.071	-57.859	0.243	0.106
-181.056	193.030	-0.041	-0.062
-180.042	25.196	0.220	0.183
-179.027	-91.526	0.212	-0.061
-178.012	-152.074	0.189	0.014
-176.998	0.275	0.151	-0.108
-175.983	-200.000	-0.012	-0.153
-174.969	800.000	0.073	-0.311
-173.954	-200.000	0.013	0.095
-172.939	-53.147	0.120	0.055
-171.925	-18.677	0.347	-0.217
-170.910	109.949	-0.121	0.145
-169.896	-98.117	-0.225	-0.058
-168.881	-94.760	-0.077	-0.021
-167.866	-154.036	0.171	-0.012
-166.852	55.152	-0.107	0.104
-165.837	9.384	-0.121	0.092
-164.823	-56.293	0.505	-0.225
-163.808	-145.201	0.130	-0.012
-162.793	800.000	-0.079	0.281
-161.779	-200.000	-0.048	0.291
-160.764	481.089	0.094	-0.215
-159.750	245.338	-0.107	-0.180
-158.735	128.390	-0.031	-0.040
-157.720	-200.000	0.088	-0.485
-156.706	172.570	-0.043	0.062
-155.691	420.332	-0.050	0.108
-154.677	119.411	-0.140	-0.173
-153.662	-41.756	0.213	-0.109
-152.647	328.744	-0.118	0.227
-151.633	800.000	0.062	-0.241
-150.618	-39.548	0.358	-0.188
-149.604	-124.842	0.223	0.034
-148.589	-200.000	-0.013	0.137
-147.574	96.203	0.187	0.214
-146.560	-116.215	-0.185	-0.034
-145.545	13.856	-0.158	-0.123
-144.531	12.974	-0.474	-0.367
-143.516	-200.000	0.068	-0.388
-142.502	-52.714	0.360	-0.166
-141.487	25.669	-0.130	-0.108
-140.472	-150.507	0.187	0.014
-139.458	-55.944	-0.278	0.124
-138.443	122.509	0.049	-0.062
-137.429	-45.174	0.070	-0.035
-136.414	-23.990	0.111	0.066
-135.399	91.308	-0.030	-0.034
-134.385	-117.141	0.325	-0.059
-133.370	66.824	-0.206	0.210
-132.356	-200.000	0.045	0.353
-131.341	800.000	0.061	0.199
-130.326	-40.445	-0.185	0.096
-129.312	102.085	-0.143	-0.167
-128.297	415.726	-0.040	0.086
-127.283	92.160	0.051	-0.058
-126.268	105.882	-0.017	-0.021
-125.253	-200.000	-0.077	0.373
-124.239	-95.396	-0.119	0.032
-123.224	124.261	0.130	0.163
-122.210	-4.853	0.234	0.161
-121.195	-97.499	-0.147	0.038
