DTS Sentinel unit serial number:	SN413079Multiplexer serial number:	ORYXHardware model number:	OX4-SRSoftware version number:	ORYX F/W v4.00 Oryx Data Collector v3.7.2.0data status	okinstallation	princeton_trtdifferential loss correction	single-endedforward channel	channel 1reverse channel	N/Adate	2019/09/11time	04:44:11forward acquisition time	60.00reverse acquisition time	0.00gamma	496.2192k internal	0.2331k external	0.2331temperature offset calibration	0.9928default loss term (dB/km)	0.3790temperature slope calibration	1.0000multiplexer offset coefficient	1.0000multiplexer slope coefficient	1.0000fibre end	0.00T internal ref (°C)	29.50T ext. ref 1 (°C)	-0.25T ext. ref 2 (°C)	23.39length (m)	temperature (°C)	Stokes	anti-Stokes-747.200	-200.000	-0.023	-0.654
-746.185	212.050	-0.040	-0.063
-745.171	1.854	0.217	-0.158
-744.156	-169.523	-0.130	0.005
-743.142	12.094	0.231	0.179
-742.127	185.196	-0.199	0.298
-741.112	238.009	-0.127	-0.211
-740.098	594.489	0.039	0.098
-739.083	-106.979	0.107	-0.024
-738.069	303.723	0.045	-0.085
-737.054	407.470	0.098	0.208
-736.039	-133.375	-0.314	-0.040
-735.025	-63.973	0.286	0.118
-734.010	-68.273	-0.402	0.157
-732.996	-86.225	-0.089	0.028
-731.981	-46.074	-0.106	-0.052
-730.966	-17.011	0.103	0.066
-729.952	-116.773	-0.432	0.080
-728.937	238.548	-0.187	-0.313
-727.923	-200.000	-0.046	-0.209
-726.908	42.874	0.069	-0.063
-725.894	-36.902	-0.184	-0.099
-724.879	-162.591	0.130	-0.006
-723.864	-73.895	0.267	0.098
-722.850	45.688	0.110	-0.103
-721.835	-22.485	-0.231	0.141
-720.821	18.230	-0.041	0.033
-719.806	-116.041	0.398	-0.075
-718.791	77.144	-0.348	-0.372
-717.777	-86.861	-0.153	-0.047
-716.762	-200.000	0.088	-0.491
-715.748	133.717	-0.003	-0.004
-714.733	-200.000	0.238	-0.000
-713.718	452.472	-0.095	0.212
-712.704	-5.249	0.102	-0.071
-711.689	161.915	0.149	-0.210
-710.675	-9.384	0.133	0.089
-709.660	195.068	0.049	0.074
-708.645	189.100	-0.088	0.133
-707.631	249.543	-0.172	0.294
-706.616	37.270	-0.207	0.184
-705.602	-67.061	0.109	-0.043
-704.587	-18.944	0.206	0.129
-703.572	15.328	0.107	0.084
-702.558	-200.000	0.006	0.034
-701.543	-92.938	-0.338	-0.095
-700.529	-175.392	0.179	-0.005
-699.514	800.000	-0.045	0.177
-698.499	143.415	0.080	0.107
-697.485	3.021	-0.304	-0.222
-696.470	-200.000	-0.022	0.114
-695.456	-49.496	-0.269	0.129
-694.441	46.517	0.164	0.153
-693.426	-108.554	-0.030	0.007
-692.412	385.538	-0.087	-0.181
-691.397	-200.000	0.030	0.185
-690.383	789.788	0.038	0.106
-689.368	-200.000	-0.016	0.085
-688.354	-14.834	0.145	-0.093
-687.339	394.879	0.073	0.153
-686.324	147.425	-0.146	0.197
-685.310	-200.000	-0.019	-0.244
-684.295	306.262	-0.149	0.279
-683.281	145.164	-0.091	-0.122
-682.266	-140.314	0.266	-0.028
-681.251	-78.781	-0.275	-0.094
-680.237	-200.000	-0.012	0.091
-679.222	-61.574	0.283	-0.119
-678.208	-152.391	-0.276	-0.020
-677.193	-200.000	-0.007	-0.177
-676.178	-61.900	0.265	0.111
-675.164	-115.937	-0.053	0.010
-674.149	352.548	0.095	0.189
-673.135	800.000	0.036	0.120
-672.120	267.677	-0.103	0.182
-671.105	-144.027	-0.249	-0.023
-670.091	-34.591	0.174	-0.096
-669.076	217.353	0.091	-0.145
-668.062	-105.156	0.192	0.044
-667.047	-97.013	0.180	0.047
-666.032	54.584	-0.092	-0.089
-665.018	47.070	-0.212	0.198
-664.003	107.653	-0.039	0.047
-662.989	9.310	-0.165	0.125
-661.974	800.000	0.041	0.140
-660.959	-200.000	0.019	-0.094
-659.945	-200.000	0.006	0.083
-658.930	105.946	0.234	-0.278
-657.916	-200.000	-0.003	-0.355
-656.901	-6.395	-0.145	0.099
-655.886	-61.439	0.310	-0.131
-654.872	-200.000	-0.004	-0.109
-653.857	143.687	0.082	0.109
-652.843	-200.000	-0.030	0.395
-651.828	183.951	0.142	-0.210
-650.814	491.683	-0.119	0.274
-649.799	-96.033	-0.207	-0.055
-648.784	-200.000	0.050	0.276
-647.770	-42.882	0.118	-0.060
-646.755	353.565	0.078	-0.156
-645.741	205.491	-0.177	0.276
-644.726	-43.328	-0.064	0.032
-643.711	-200.000	0.019	0.195
-642.697	80.626	-0.305	-0.329
-641.682	800.000	-0.052	-0.175
-640.668	-0.302	0.098	0.070
-639.653	192.841	-0.109	-0.166
-638.638	35.261	-0.266	0.234
-637.624	68.331	-0.120	-0.123
-636.609	-0.610	-0.188	-0.134
-635.595	448.449	0.043	0.096
-634.580	800.000	0.054	0.201
-633.565	140.327	-0.138	0.182
-632.551	257.615	0.148	-0.254
-631.536	-167.727	-0.106	-0.004
-630.522	9.966	0.181	0.138
-629.507	800.000	-0.047	-0.152
-628.492	-63.492	-0.368	0.151
-627.478	-58.856	0.153	-0.066
-626.463	-60.958	0.064	-0.027
-625.449	685.434	0.060	0.157
-624.434	-13.000	0.145	0.095
-623.419	190.345	-0.175	-0.263
-622.405	-43.621	-0.168	-0.085
-621.390	93.417	-0.145	-0.165
-620.376	800.000	-0.071	-0.311
-619.361	192.273	-0.275	0.416
-618.346	-178.440	0.127	-0.003
-617.332	110.682	-0.107	0.129
-616.317	-200.000	-0.018	-0.164
-615.303	9.489	-0.253	0.192
-614.288	-200.000	-0.021	-0.253
-613.273	581.805	0.066	0.162
-612.259	-160.274	-0.519	0.028
-611.244	800.000	0.082	-0.240
-610.230	-143.189	-0.125	0.012
-609.215	-123.922	-0.232	0.037
-608.201	-143.102	0.129	0.012
-607.186	-141.691	-0.180	0.018
-606.171	272.419	0.090	-0.159
-605.157	326.516	0.105	0.202
-604.142	-43.243	-0.179	0.091
-603.128	-200.000	0.004	-0.144
-602.113	-168.225	-0.315	0.012
-601.098	-6.333	0.208	0.142
-600.084	-200.000	-0.050	0.251
-599.069	800.000	0.078	0.222
-598.055	800.000	0.046	-0.140
-597.040	115.565	-0.157	-0.192
-596.025	424.877	-0.099	0.212
-595.011	-200.000	0.018	-0.180
-593.996	-188.329	0.235	-0.003
-592.982	800.000	-0.029	-0.091
-591.967	21.236	0.025	0.020
-590.952	-200.000	0.091	-0.550
-589.938	749.683	-0.046	-0.124
-588.923	-57.008	0.255	-0.113
-587.909	23.741	-0.171	-0.141
-586.894	68.292	-0.116	0.119
-585.879	-65.502	0.125	0.050
-584.865	53.400	-0.154	0.148
-583.850	147.954	0.182	0.245
-582.836	141.676	0.017	-0.023
-581.821	3.353	0.072	-0.053
-580.806	-137.050	-0.092	-0.011
-579.792	51.355	-0.169	-0.160
-578.777	502.292	0.023	-0.054
-577.763	77.828	0.192	0.205
-576.748	-200.000	0.015	-0.298
-575.733	414.468	-0.064	-0.137
-574.719	185.626	0.036	0.054
-573.704	123.714	0.195	-0.244
-572.690	240.404	0.253	0.422
-571.675	-200.000	-0.036	0.159
-570.661	-128.473	0.217	0.031
-569.646	-87.429	0.195	-0.059
-568.631	-200.000	-0.012	-0.308
-567.617	140.941	-0.097	-0.128
-566.602	414.311	0.063	-0.133
-565.588	197.134	-0.057	-0.086
-564.573	427.691	0.120	0.258
-563.558	-31.016	0.194	0.109
-562.544	-200.000	-0.006	-0.128
-561.529	-35.335	0.303	0.164
-560.515	-200.000	0.005	0.184
-559.500	46.541	-0.076	-0.070
-558.485	800.000	0.070	0.291
-557.471	-53.072	-0.049	-0.023
-556.456	283.625	0.188	-0.338
-555.442	-200.000	0.005	-0.148
-554.427	-200.000	-0.013	0.125
-553.412	-200.000	0.048	0.297
-552.398	53.765	-0.009	0.009
-551.383	-10.645	0.098	-0.065
-550.369	-33.280	0.252	-0.139
-549.354	-27.295	0.173	-0.101
-548.339	-105.754	0.167	-0.038
-547.325	624.794	0.077	-0.193
-546.310	295.308	0.145	-0.266
-545.296	-200.000	0.014	0.260
-544.281	53.115	0.025	-0.024
-543.266	800.000	0.055	0.167
-542.252	-97.469	0.061	0.016
-541.237	-200.000	-0.068	-0.439
-540.223	-200.000	-0.017	-0.080
-539.208	-48.921	0.086	0.041
-538.193	-200.000	-0.055	-0.252
-537.179	-179.080	0.067	0.001
-536.164	800.000	0.029	-0.111
-535.150	-200.000	0.020	-0.110
-534.135	-17.227	-0.173	0.109
-533.121	-46.627	0.241	0.118
-532.106	-22.365	-0.195	0.118
-531.091	16.857	-0.081	0.064
-530.077	105.150	-0.044	-0.052
-529.062	249.033	-0.111	0.187
-528.048	-143.562	-0.239	0.023
-527.033	-200.000	0.127	-0.000
-526.018	-200.000	-0.047	0.288
-525.004	-14.757	-0.230	0.147
-523.989	-94.504	0.243	-0.066
-522.975	-5.947	-0.120	-0.082
-521.960	800.000	0.110	-0.333
-520.945	1.590	0.287	-0.206
-519.931	290.212	-0.227	0.411
-518.916	53.771	0.337	0.323
-517.902	-83.736	0.225	0.072
-516.887	-124.306	0.104	-0.016
-515.872	183.371	-0.057	-0.084
-514.858	800.000	-0.144	0.442
-513.843	-200.000	0.013	0.261
-512.829	116.033	-0.114	0.139
-511.814	133.302	-0.173	0.223
-510.799	-29.461	-0.195	0.111
-509.785	-86.103	0.234	0.072
-508.770	-200.000	-0.006	0.047
-507.756	86.595	0.062	-0.068
-506.741	121.847	-0.197	-0.245
-505.726	-82.001	0.232	-0.076
-504.712	47.589	0.416	-0.387
-503.697	-114.286	0.217	-0.042
-502.683	800.000	-0.068	-0.207
-501.668	800.000	0.014	-0.053
-500.653	127.300	-0.185	0.235
-499.639	-150.637	-0.219	-0.017
-498.624	-200.000	-0.028	0.246
-497.610	-200.000	-0.047	0.276
-496.595	800.000	-0.074	0.220
-495.581	-200.000	0.052	0.322
-494.566	-0.569	-0.264	0.187
-493.551	800.000	-0.031	-0.114
-492.537	-115.040	0.347	0.066
-491.522	-200.000	0.025	0.455
-490.508	155.917	0.179	0.246
-489.493	282.209	0.103	-0.184
-488.478	-86.916	0.156	-0.047
-487.464	101.693	-0.088	0.103
-486.449	-29.837	0.079	0.045
-485.435	137.121	0.055	0.071
-484.420	-111.049	-0.251	-0.051
-483.405	-200.000	-0.043	0.264
-482.391	38.487	0.193	0.171
-481.376	-165.254	-0.023	0.001
-480.362	-65.999	-0.260	-0.104
-479.347	800.000	-0.046	0.144
-478.332	136.461	0.059	-0.077
-477.318	-106.165	0.065	0.015
-476.303	800.000	0.062	0.173
-475.289	3.979	-0.041	0.030
-474.274	-88.799	-0.113	0.033
-473.259	-153.858	-0.183	0.012
-472.245	-200.000	-0.020	0.104
-471.230	80.696	-0.106	0.114
-470.216	-140.592	-0.250	0.026
-469.201	-168.089	0.398	0.015
-468.186	120.606	0.289	0.357
-467.172	435.911	-0.091	0.197
-466.157	85.630	-0.162	-0.178
-465.143	393.255	-0.086	-0.177
-464.128	-89.760	-0.152	0.044
-463.113	-200.000	0.019	0.155
-462.099	14.634	0.162	-0.126
-461.084	170.409	0.040	-0.057
-460.070	-74.815	-0.151	0.054
-459.055	-27.233	0.269	0.156
-458.040	361.390	-0.095	-0.190
-457.026	-200.000	0.007	-0.263
-456.011	-29.293	-0.168	0.096
-454.997	-200.000	0.027	0.000
-453.982	42.256	-0.082	0.074
-452.968	121.994	0.301	-0.373
-451.953	389.315	-0.104	-0.214
-450.938	-120.218	-0.102	0.017
-449.924	-128.960	-0.121	0.017
-448.909	800.000	0.107	-0.373
-447.895	180.705	0.072	-0.105
-446.880	-62.174	0.141	0.059
-445.865	-90.798	0.279	0.080
-444.851	-200.000	0.008	-0.106
-443.836	-119.027	-0.214	0.037
-442.822	40.677	-0.186	0.167
-441.807	-117.005	0.178	-0.032
-440.792	-44.317	-0.140	-0.070
-439.778	381.323	0.178	-0.363
-438.763	140.333	0.211	-0.277
-437.749	-200.000	0.011	-0.107
-436.734	-68.762	-0.130	-0.050
-435.719	-12.789	0.145	0.094
-434.705	434.654	0.042	0.091
-433.690	800.000	-0.061	-0.236
-432.676	89.303	0.065	0.072
-431.661	52.021	-0.149	0.141
-430.646	800.000	-0.108	0.457
-429.632	293.577	-0.237	0.430
-428.617	-46.599	-0.146	0.071
-427.603	249.793	0.215	0.363
-426.588	129.018	-0.190	-0.241
-425.573	199.922	-0.160	-0.245
-424.559	167.571	-0.050	0.070
-423.544	-99.083	-0.047	0.012
-422.530	800.000	-0.082	0.229
-421.515	-38.850	-0.172	0.090
-420.500	124.120	0.138	-0.172
-419.486	128.931	0.038	-0.048
-418.471	-66.092	0.350	-0.139
-417.457	800.000	-0.089	-0.287
-416.442	318.761	-0.055	-0.104
-415.428	-116.331	-0.240	0.044
-414.413	28.104	0.101	-0.084
-413.398	-130.677	0.241	0.032
-412.384	-62.371	-0.315	0.130
-411.369	-200.000	-0.039	0.194
-410.355	800.000	-0.010	-0.033
-409.340	16.172	-0.235	-0.184
-408.325	26.865	-0.033	-0.028
-407.311	-200.000	0.007	0.202
-406.296	204.130	0.047	0.073
-405.282	619.594	0.042	-0.105
-404.267	-200.000	0.001	0.148
-403.252	-56.088	-0.252	0.111
-402.238	288.015	0.051	-0.091
-401.223	-108.163	0.358	-0.077
-400.209	646.769	-0.097	0.246
-399.194	-200.000	-0.091	-0.439
-398.179	14.199	0.308	-0.238
-397.165	553.261	0.070	-0.166
-396.150	-33.056	0.095	0.052
-395.136	55.276	-0.086	0.082
-394.121	553.532	-0.129	-0.308
-393.106	-70.220	-0.090	-0.034
-392.092	-162.936	0.104	0.005
-391.077	-105.217	0.112	0.025
-390.063	-200.000	0.067	0.423
-389.048	-147.441	-0.221	-0.019
-388.033	800.000	-0.023	0.080
-387.019	-22.277	-0.379	-0.228
-386.004	108.646	-0.081	-0.097
-384.990	128.516	-0.145	-0.183
-383.975	-200.000	-0.039	-0.182
-382.960	289.060	0.044	0.080
-381.946	-112.010	-0.186	0.037
-380.931	-95.517	0.279	0.074
-379.917	-92.635	-0.366	-0.102
-378.902	-200.000	0.020	-0.155
-377.888	-200.000	-0.051	-0.381
-376.873	-69.201	-0.533	0.203
-375.858	800.000	0.076	0.226
-374.844	-200.000	0.036	0.317
-373.829	-200.000	0.046	-0.204
-372.815	352.804	0.086	0.169
-371.800	59.183	-0.219	0.214
-370.785	-120.188	-0.271	0.046
-369.771	-4.677	-0.074	-0.051
-368.756	-91.932	0.178	0.050
-367.742	-117.930	0.250	-0.044
-366.727	256.237	0.129	-0.219
-365.712	292.801	0.086	0.155
-364.698	-58.705	-0.134	-0.058
-363.683	172.633	0.143	0.204
-362.669	676.827	0.078	-0.201
-361.654	800.000	-0.053	-0.200
-360.639	-59.677	-0.406	-0.172
-359.625	-200.000	-0.007	-0.126
-358.610	-95.599	-0.199	0.053
-357.596	22.199	0.441	0.357
-356.581	99.952	0.200	-0.229
-355.566	800.000	-0.068	-0.262
-354.552	2.241	0.348	-0.249
-353.537	-66.215	0.052	0.021
-352.523	-200.000	0.010	0.405
-351.508	-15.208	0.335	-0.213
-350.493	124.599	0.084	-0.105
-349.479	67.334	0.327	-0.330
-348.464	15.361	0.333	0.259
-347.450	800.000	-0.044	0.160
-346.435	-200.000	0.029	0.252
-345.420	-3.303	-0.233	0.161
-344.406	562.201	-0.109	-0.262
-343.391	-47.124	-0.061	0.030
-342.377	-200.000	-0.035	0.364
-341.362	-200.000	0.066	-0.311
-340.348	430.303	-0.072	-0.155
-339.333	-200.000	0.017	-0.110
-338.318	306.930	-0.102	0.188
-337.304	-12.977	-0.133	-0.085
-336.289	661.433	-0.062	-0.159
-335.275	-200.000	-0.030	-0.252
-334.260	800.000	0.088	-0.271
-333.245	462.492	-0.068	0.151
-332.231	800.000	-0.029	0.111
-331.216	91.543	0.030	-0.033
-330.202	-145.844	0.194	0.017
-329.187	-200.000	-0.003	-0.044
-328.172	-186.493	0.064	0.001
-327.158	-4.620	0.234	0.160
-326.143	577.705	0.064	0.155
-325.129	174.824	0.178	-0.255
-324.114	67.377	0.143	-0.144
-323.099	655.688	-0.114	0.290
-322.085	-66.948	-0.128	0.050
-321.070	-200.000	0.011	0.260
-320.056	302.130	0.195	0.357
-319.041	41.432	0.057	0.051
-318.026	51.379	-0.263	0.247
-317.012	204.620	0.147	-0.226
-315.997	364.909	0.041	-0.082
-314.983	-109.137	-0.055	-0.012
-313.968	-72.349	0.214	-0.078
-312.953	-58.877	-0.238	-0.102
-311.939	223.624	0.102	-0.163
-310.924	411.173	-0.121	0.253
-309.910	52.180	0.134	0.126
-308.895	-104.314	0.197	0.045
-307.880	206.014	0.261	-0.402
-306.866	486.885	-0.115	-0.260
-305.851	-5.287	-0.104	-0.070
-304.837	104.877	0.112	0.130
-303.822	55.456	0.133	0.127
-302.807	800.000	-0.111	0.446
-301.793	529.861	-0.107	0.251
-300.778	165.598	-0.244	-0.342
-299.764	800.000	0.057	-0.212
-298.749	-85.866	-0.343	-0.105
-297.735	-77.023	0.118	0.041
-296.720	-161.056	0.181	-0.009
-295.705	-26.498	-0.177	0.103
-294.691	800.000	0.022	0.073
-293.676	800.000	-0.119	-0.479
-292.662	1.982	-0.081	0.058
-291.647	575.686	0.175	-0.424
-290.632	-13.546	-0.136	0.087
-289.618	-117.280	0.251	0.045
-288.603	-12.032	-0.121	0.079
-287.589	109.711	0.184	-0.219
-286.574	-200.000	0.034	0.153
-285.559	-14.732	0.203	0.129
-284.545	-200.000	-0.004	-0.122
-283.530	-72.143	-0.269	-0.099
-282.516	350.363	0.167	0.327
-281.501	739.851	0.068	0.181
-280.486	-162.926	-0.157	0.008
-279.472	-113.729	-0.159	-0.031
-278.457	-24.361	-0.229	-0.135
-277.443	-104.401	0.318	-0.073
-276.428	-200.000	-0.044	-0.241
-275.413	-58.067	-0.235	-0.101
-274.399	-151.880	-0.290	-0.021
-273.384	320.892	0.111	-0.208
-272.370	-53.363	0.182	-0.082
-271.355	-200.000	-0.053	0.467
-270.340	-8.927	-0.295	-0.195
-269.326	50.453	0.118	-0.110
-268.311	-200.000	-0.016	0.152
-267.297	800.000	0.047	-0.164
-266.282	-85.275	-0.175	-0.054
-265.267	209.838	0.048	0.075
-264.253	-1.167	0.285	0.199
-263.238	-88.739	0.201	0.059
-262.224	-10.279	-0.106	-0.070
-261.209	-200.000	-0.035	-0.256
-260.195	-77.559	0.198	-0.068
-259.180	184.261	0.122	0.179
-258.165	-165.364	-0.151	-0.007
-257.151	-76.900	0.118	0.041
-256.136	-200.000	-0.006	-0.099
-255.122	-200.000	-0.040	0.256
-254.107	-200.000	0.035	0.334
-253.092	5.934	0.315	0.230
-252.078	-200.000	0.008	-0.128
-251.063	-200.000	0.001	0.078
-250.049	437.319	0.047	-0.101
-249.034	528.922	0.122	-0.285
-248.019	-50.137	-0.047	0.022
-247.005	-193.071	-0.252	-0.002
-245.990	116.589	-0.052	0.063
-244.976	-77.560	0.276	-0.094
-243.961	-62.437	0.060	0.024
-242.946	-82.471	0.126	0.040
-241.932	-177.606	-0.129	0.003
-240.917	143.367	-0.079	-0.104
-239.903	98.210	-0.181	-0.206
-238.888	115.224	0.109	0.131
-237.873	54.948	-0.178	0.170
-236.859	38.330	-0.292	-0.257
-235.844	86.782	-0.100	-0.108
-234.830	-200.000	-0.008	-0.159
-233.815	251.537	-0.154	-0.259
-232.800	-104.950	-0.225	0.051
-231.786	-58.576	0.128	-0.055
-230.771	-19.816	-0.169	-0.103
-229.757	-200.000	0.031	-0.240
-228.742	-7.669	0.128	0.086
-227.727	46.929	-0.112	-0.102
-226.713	800.000	-0.093	-0.278
-225.698	0.735	0.117	-0.083
-224.684	-5.990	0.195	-0.131
-223.669	800.000	-0.068	0.243
-222.655	-9.119	-0.143	0.094
-221.640	100.213	0.222	0.254
-220.625	-148.266	0.470	0.038
-219.611	-200.000	0.025	-0.229
-218.596	-105.433	0.182	-0.041
-217.582	-200.000	0.026	0.147
-216.567	-83.711	0.101	0.032
-215.552	-64.873	-0.295	0.118
-214.538	-200.000	-0.052	0.263
-213.523	95.689	0.066	0.074
-212.509	215.953	-0.074	-0.116
-211.494	-155.622	-0.215	0.014
-210.479	91.416	0.150	0.166
-209.465	733.109	-0.046	-0.120
-208.450	-134.714	-0.356	0.043
-207.436	-31.934	-0.086	0.048
-206.421	-120.534	-0.213	-0.036
-205.406	-168.298	0.478	-0.018
-204.392	115.868	-0.043	-0.052
-203.377	-94.778	0.128	0.034
-202.363	-95.900	0.263	-0.069
-201.348	273.040	-0.028	-0.048
-200.333	800.000	0.092	0.329
-199.319	800.000	0.028	-0.082
-198.304	2.698	0.252	0.180
-197.290	-200.000	-0.003	0.149
-196.275	-4.673	-0.134	-0.091
-195.260	800.000	-0.041	-0.173
-194.246	-129.636	-0.326	-0.044
-193.231	-85.419	0.390	-0.120
-192.217	202.975	0.128	0.195
-191.202	-19.208	0.042	0.026
-190.187	627.564	-0.116	-0.288
-189.173	-200.000	0.038	0.364
-188.158	243.254	-0.040	0.067
-187.144	116.113	0.255	-0.307
-186.129	-200.000	0.007	0.068
-185.114	88.296	0.078	0.086
-184.100	-200.000	-0.002	0.321
-183.085	-134.177	0.476	-0.058
-182.071	800.000	-0.038	-0.112
-181.056	-115.584	0.071	-0.013
-180.042	301.311	0.118	-0.215
-179.027	-143.702	0.264	0.025
-178.012	-93.990	-0.204	0.055
-176.998	306.469	0.070	-0.128
-175.983	561.485	-0.101	-0.241
-174.969	-28.922	-0.127	0.072
-173.954	-137.022	-0.070	0.008
-172.939	-107.899	-0.231	0.049
-171.925	-25.533	-0.278	-0.161
-170.910	-66.907	0.372	0.145
-169.896	26.321	0.021	-0.017
-168.881	-83.005	-0.429	-0.136
-167.866	208.600	-0.095	0.145
-166.852	-109.554	-0.285	-0.059
-165.837	62.056	0.126	-0.124
-164.823	88.203	0.201	0.219
-163.808	599.389	0.148	0.361
-162.793	64.070	-0.322	-0.319
-161.779	96.658	-0.280	0.316
-160.764	-200.000	-0.013	0.131
-159.750	92.503	-0.073	0.081
-158.735	-200.000	-0.024	0.135
-157.720	138.915	-0.016	0.020
-156.706	347.794	-0.095	-0.185
-155.691	-200.000	-0.093	-0.607
-154.677	-200.000	0.028	-0.142
-153.662	-108.708	0.267	0.056
-152.647	-200.000	-0.017	0.255
-151.633	800.000	-0.022	0.087
-150.618	-88.648	0.250	0.073
-149.604	30.549	-0.116	-0.097
-148.589	14.948	-0.140	0.108
-147.574	800.000	0.061	-0.242
-146.560	-137.484	-0.189	-0.021
-145.545	248.299	-0.278	0.462
-144.531	-200.000	0.011	-0.243
-143.516	261.297	-0.086	-0.146
-142.502	-168.646	-0.222	0.008
-141.487	-13.260	-0.171	-0.109
-140.472	-4.768	-0.182	0.123
-139.458	-200.000	0.007	0.200
-138.443	92.758	-0.102	0.113
-137.429	-94.253	0.162	0.044
-136.414	124.262	-0.142	-0.176
-135.399	53.847	-0.093	0.088
-134.385	334.205	0.031	0.059
-133.370	-200.000	0.001	0.089
-132.356	-200.000	-0.266	0.001
-131.341	-61.502	-0.117	-0.048
-130.326	100.125	-0.206	-0.235
-129.312	-200.000	-0.019	-0.104
-128.297	-200.000	0.014	-0.075
-127.283	32.866	0.148	-0.126
-126.268	80.366	0.225	0.238
-125.253	373.265	0.064	0.127
-124.239	487.228	-0.044	0.099
-123.224	106.234	0.100	0.116
-122.210	74.313	-0.165	0.170
-121.195	-60.106	-0.017	-0.007
