DTS Sentinel unit serial number:	SN413079Multiplexer serial number:	ORYXHardware model number:	OX4-SRSoftware version number:	ORYX F/W v4.00 Oryx Data Collector v3.7.2.0data status	okinstallation	princeton_trtdifferential loss correction	single-endedforward channel	channel 1reverse channel	N/Adate	2019/09/12time	05:52:11forward acquisition time	60.00reverse acquisition time	0.00gamma	496.2192k internal	0.2321k external	0.2321temperature offset calibration	1.0042default loss term (dB/km)	0.3790temperature slope calibration	1.0000multiplexer offset coefficient	1.0000multiplexer slope coefficient	1.0000fibre end	0.00T internal ref (°C)	32.06T ext. ref 1 (°C)	1.57T ext. ref 2 (°C)	27.51length (m)	temperature (°C)	Stokes	anti-Stokes-747.200	5.564	0.163	0.122
-746.185	800.000	-0.088	0.319
-745.171	-154.853	0.312	-0.021
-744.156	22.492	-0.561	0.464
-743.142	-52.001	0.171	0.080
-742.127	-98.031	-0.136	0.035
-741.112	-12.483	-0.138	0.091
-740.098	-64.822	-0.173	-0.071
-739.083	63.529	0.095	-0.096
-738.069	-200.000	0.020	0.407
-737.054	-46.740	-0.247	-0.122
-736.039	-157.918	-0.399	-0.024
-735.025	101.164	0.253	-0.298
-734.010	800.000	-0.062	0.231
-732.996	72.739	-0.293	0.309
-731.981	-80.881	-0.301	-0.101
-730.966	7.637	-0.260	0.197
-729.952	800.000	-0.098	0.383
-728.937	-144.097	-0.332	0.031
-727.923	789.089	-0.163	0.453
-726.908	-67.742	-0.378	0.149
-725.894	22.826	-0.217	-0.180
-724.879	-200.000	0.015	-0.220
-723.864	-200.000	0.003	-0.049
-722.850	-72.397	0.298	0.112
-721.835	800.000	0.097	0.419
-720.821	-18.101	-0.184	-0.116
-719.806	268.996	0.152	0.269
-718.791	-81.087	-0.351	0.117
-717.777	518.924	-0.045	0.105
-716.762	53.851	-0.100	0.097
-715.748	-200.000	-0.027	-0.134
-714.733	64.813	0.126	-0.129
-713.718	-98.950	-0.625	-0.160
-712.704	-13.292	0.379	-0.249
-711.689	7.425	0.104	-0.078
-710.675	-167.682	0.318	0.013
-709.660	-11.950	0.208	-0.138
-708.645	-200.000	-0.001	0.019
-707.631	-159.983	0.354	-0.020
-706.616	-200.000	0.011	-0.208
-705.602	-200.000	0.030	0.395
-704.587	8.295	-0.115	0.087
-703.572	-89.965	0.215	0.063
-702.558	374.742	0.116	0.238
-701.543	386.899	0.141	-0.293
-700.529	-106.875	0.187	-0.042
-699.514	-41.904	0.120	-0.062
-698.499	530.572	-0.050	-0.120
-697.485	800.000	0.097	0.308
-696.470	-16.958	0.272	-0.174
-695.456	91.770	-0.062	-0.070
-694.441	-7.879	-0.078	0.053
-693.426	296.484	-0.128	-0.237
-692.412	-196.960	0.300	-0.002
-691.397	252.386	-0.097	0.167
-690.383	196.515	-0.036	0.055
-689.368	67.957	0.166	0.171
-688.354	800.000	-0.039	0.149
-687.339	210.938	-0.092	0.146
-686.324	-200.000	-0.005	0.075
-685.310	-200.000	-0.001	0.224
-684.295	800.000	-0.098	-0.326
-683.281	102.330	-0.331	-0.390
-682.266	800.000	-0.076	0.254
-681.251	-200.000	-0.024	0.130
-680.237	-200.000	0.002	-0.308
-679.222	169.095	0.081	0.116
-678.208	-200.000	-0.019	0.218
-677.193	6.208	-0.031	0.023
-676.178	-25.645	-0.298	-0.177
-675.164	-16.318	-0.157	-0.100
-674.149	800.000	0.015	-0.059
-673.135	-5.576	0.120	0.083
-672.120	-93.238	-0.385	-0.108
-671.105	-120.581	-0.152	-0.026
-670.091	202.462	-0.110	-0.171
-669.076	-200.000	0.041	-0.204
-668.062	85.921	-0.180	0.199
-667.047	800.000	-0.072	0.235
-666.032	-87.869	0.207	-0.063
-665.018	-30.662	0.327	-0.187
-664.003	507.503	0.060	-0.140
-662.989	217.066	0.081	-0.130
-661.974	-161.225	0.172	0.009
-660.959	-200.000	-0.028	0.191
-659.945	174.306	0.093	0.136
-658.930	-200.000	-0.017	-0.247
-657.916	-200.000	-0.041	-0.208
-656.901	79.734	-0.081	0.087
-655.886	-200.000	-0.028	-0.270
-654.872	27.272	0.101	0.085
-653.857	72.979	-0.038	-0.040
-652.843	-135.596	0.040	-0.005
-651.828	-200.000	0.014	0.158
-650.814	-200.000	-0.019	-0.112
-649.799	-80.366	-0.157	-0.053
-648.784	-103.550	-0.069	0.016
-647.770	-155.629	0.185	0.012
-646.755	106.047	0.241	-0.287
-645.741	205.570	0.033	-0.052
-644.726	-200.000	0.011	0.110
-643.711	-55.968	-0.139	-0.063
-642.697	800.000	0.168	0.515
-641.682	221.874	-0.225	0.364
-640.668	333.450	-0.083	-0.161
-639.653	-106.510	-0.261	0.059
-638.638	-5.722	-0.360	-0.249
-637.624	48.698	-0.186	0.176
-636.609	800.000	0.039	-0.166
-635.595	119.437	-0.035	-0.044
-634.580	146.928	-0.182	-0.246
-633.565	-200.000	0.006	-0.415
-632.551	152.955	-0.091	-0.126
-631.536	-92.228	0.262	-0.074
-630.522	408.801	-0.054	0.115
-629.507	-91.305	0.091	-0.026
-628.492	333.157	0.066	0.128
-627.478	-69.495	-0.048	0.018
-626.463	-154.031	-0.251	0.017
-625.449	-186.155	0.068	0.001
-624.434	20.228	0.106	-0.087
-623.419	119.421	0.176	-0.219
-622.405	418.809	-0.069	-0.148
-621.390	800.000	-0.104	0.415
-620.376	-197.229	0.173	-0.001
-619.361	142.347	0.063	-0.084
-618.346	45.494	0.166	-0.154
-617.332	207.107	-0.081	-0.127
-616.317	-8.465	0.178	0.120
-615.303	800.000	-0.034	-0.107
-614.288	105.013	0.041	-0.049
-613.273	-86.566	-0.167	-0.052
-612.259	-83.423	-0.400	0.129
-611.244	800.000	-0.105	-0.355
-610.230	697.438	-0.148	-0.392
-609.215	800.000	0.030	-0.101
-608.201	-42.771	-0.153	0.078
-607.186	-136.151	0.307	0.036
-606.171	38.873	-0.179	0.160
-605.157	-88.849	0.087	-0.026
-604.142	-200.000	-0.012	-0.471
-603.128	-155.154	-0.229	-0.015
-602.113	64.182	0.145	-0.146
-601.098	105.496	-0.115	0.136
-600.084	40.560	0.023	-0.021
-599.069	-43.723	0.073	-0.037
-598.055	482.899	-0.073	0.166
-597.040	800.000	-0.071	0.206
-596.025	800.000	0.066	-0.260
-595.011	16.094	-0.118	-0.093
-593.996	215.431	0.241	0.384
-592.982	43.465	-0.115	0.106
-591.967	-200.000	0.021	-0.097
-590.952	-200.000	0.015	-0.124
-589.938	-200.000	0.006	0.394
-588.923	303.923	-0.183	0.340
-587.909	25.700	-0.111	0.093
-586.894	94.914	0.218	0.250
-585.879	152.822	-0.199	-0.273
-584.865	-164.116	-0.325	0.015
-583.850	226.080	-0.159	0.259
-582.836	240.741	0.200	-0.336
-581.821	800.000	-0.072	0.257
-580.806	600.063	0.043	0.107
-579.792	-32.506	0.211	-0.118
-578.777	800.000	0.014	-0.046
-577.763	90.870	-0.086	0.096
-576.748	800.000	0.047	0.143
-575.733	244.157	0.124	0.209
-574.719	800.000	-0.006	0.023
-573.704	-192.693	-0.200	-0.002
-572.690	10.413	0.187	-0.143
-571.675	192.391	0.088	0.134
-570.661	-200.000	-0.005	0.207
-569.646	88.900	-0.090	-0.101
-568.631	-86.104	0.201	-0.062
-567.617	-74.002	0.057	-0.021
-566.602	94.449	0.203	-0.232
-565.588	-129.299	0.135	0.019
-564.573	1.646	-0.276	0.200
-563.558	-200.000	0.029	0.191
-562.544	-200.000	0.006	0.071
-561.529	-106.770	0.112	0.025
-560.515	800.000	-0.108	0.316
-559.500	-179.942	0.212	0.005
-558.485	-85.968	0.059	-0.018
-557.471	149.589	-0.210	-0.286
-556.456	-25.403	0.300	0.178
-555.442	17.615	-0.173	-0.138
-554.427	-37.423	0.084	-0.045
-553.412	142.700	0.150	-0.201
-552.398	-1.640	0.223	-0.158
-551.383	-200.000	-0.019	-0.325
-550.369	38.033	0.287	-0.256
-549.354	-19.934	-0.403	0.249
-548.339	197.213	-0.099	-0.151
-547.325	36.492	-0.315	0.279
-546.310	-33.287	-0.233	-0.129
-545.296	-82.825	0.184	0.059
-544.281	33.033	-0.132	0.115
-543.266	-80.116	-0.505	0.170
-542.252	-104.895	0.424	0.098
-541.237	253.536	-0.052	0.089
-540.223	278.142	0.119	-0.212
-539.208	-105.572	-0.180	-0.041
-538.193	-200.000	0.005	0.150
-537.179	49.249	-0.079	0.075
-536.164	-95.271	-0.093	-0.025
-535.150	195.971	-0.191	-0.292
-534.135	71.976	0.133	0.139
-533.121	-100.485	-0.459	-0.114
-532.106	-200.000	0.111	-0.502
-531.091	800.000	0.070	-0.229
-530.077	110.313	-0.278	-0.335
-529.062	207.886	0.064	-0.101
-528.048	63.390	0.130	0.131
-527.033	617.746	0.147	0.370
-526.018	800.000	-0.021	0.077
-525.004	-200.000	-0.015	-0.094
-523.989	43.947	0.161	0.147
-522.975	-63.883	0.126	-0.051
-521.960	-119.470	-0.054	0.009
-520.945	-23.275	0.175	0.106
-519.931	800.000	0.080	0.239
-518.916	82.300	-0.161	-0.175
-517.902	41.053	-0.207	-0.188
-516.887	402.724	-0.119	-0.250
-515.872	-85.499	-0.055	0.017
-514.858	-200.000	-0.028	-0.486
-513.843	-200.000	0.084	-0.000
-512.829	-200.000	0.050	0.715
-511.814	-2.628	-0.166	0.116
-510.799	-118.995	0.166	-0.029
-509.785	-63.637	0.111	0.045
-508.770	707.966	0.107	-0.284
-507.756	-200.000	-0.014	-0.205
-506.741	800.000	0.056	0.168
-505.726	-80.432	0.254	-0.085
-504.712	-95.749	0.156	-0.042
-503.697	-200.000	-0.007	0.260
-502.683	582.117	-0.087	-0.214
-501.668	800.000	0.048	-0.207
-500.653	277.118	-0.089	-0.159
-499.639	800.000	-0.057	0.160
-498.624	-200.000	-0.021	0.121
-497.610	242.233	-0.084	-0.141
-496.595	187.596	0.167	-0.249
-495.581	-1.170	-0.161	-0.114
-494.566	57.498	-0.206	0.201
-493.551	489.076	-0.071	-0.162
-492.537	22.759	0.095	0.078
-491.522	0.193	-0.227	-0.162
-490.508	8.075	0.366	0.275
-489.493	694.056	0.057	0.149
-488.478	-141.003	0.248	0.025
-487.464	94.782	0.084	-0.096
-486.449	206.460	-0.157	-0.244
-485.435	-52.624	0.140	-0.065
-484.420	-98.065	0.396	-0.102
-483.405	-76.136	0.287	0.101
-482.391	11.267	0.184	-0.141
-481.376	800.000	-0.090	-0.278
-480.362	107.562	-0.160	-0.190
-479.347	-55.498	-0.117	-0.053
-478.332	90.831	-0.199	0.223
-477.318	74.403	0.190	0.200
-476.303	546.586	-0.173	-0.415
-475.289	75.293	-0.152	-0.160
-474.274	41.775	-0.160	-0.145
-473.259	51.858	-0.055	-0.052
-472.245	-1.754	-0.298	-0.210
-471.230	1.058	0.080	0.057
-470.216	17.533	0.103	-0.082
-469.201	-127.615	-0.571	0.083
-468.186	42.764	0.186	0.169
-467.172	-112.917	0.207	-0.041
-466.157	-184.565	0.106	0.002
-465.143	29.244	0.060	-0.051
-464.128	-21.188	-0.175	0.107
-463.113	-73.227	-0.320	-0.117
-462.099	-108.973	0.081	-0.017
-461.084	44.750	-0.077	-0.071
-460.070	-165.958	-0.325	-0.014
-459.055	-18.016	0.227	0.142
-458.040	800.000	0.120	-0.376
-457.026	-200.000	-0.002	-0.173
-456.011	-141.736	0.235	0.024
-454.997	-117.843	0.083	0.015
-453.982	800.000	-0.131	-0.451
-452.968	8.180	-0.019	0.014
-451.953	41.772	0.113	-0.102
-450.938	-4.554	0.275	0.190
-449.924	-72.613	-0.422	0.156
-448.909	-137.305	-0.197	-0.022
-447.895	-141.662	0.101	0.010
-446.880	-101.595	-0.357	-0.087
-445.865	12.386	0.227	-0.175
-444.851	800.000	0.074	-0.298
-443.836	89.438	0.166	-0.185
-442.822	169.209	0.057	0.081
-441.807	-200.000	-0.002	0.066
-440.792	-44.684	-0.212	-0.106
-439.778	-131.342	0.032	-0.004
-438.763	-200.000	-0.057	-0.263
-437.749	-200.000	0.006	0.095
-436.734	52.815	0.064	0.061
-435.719	-200.000	-0.035	0.336
-434.705	-99.005	0.203	-0.051
-433.690	417.448	-0.071	-0.151
-432.676	67.064	-0.309	0.315
-431.661	-80.388	-0.248	0.083
-430.646	-106.104	0.132	-0.030
-429.632	-30.871	-0.024	-0.014
-428.617	-172.510	-0.278	-0.009
-427.603	-60.053	-0.065	0.028
-426.588	-34.829	0.122	-0.066
-425.573	-200.000	0.018	0.127
-424.559	337.522	-0.063	0.123
-423.544	-116.520	-0.353	0.065
-422.530	-200.000	-0.053	0.735
-421.515	-200.000	-0.020	0.263
-420.500	367.842	-0.070	0.142
-419.486	178.362	0.059	0.085
-418.471	-130.825	-0.124	0.017
-417.457	31.448	0.236	0.203
-416.442	314.006	-0.151	0.284
-415.428	-200.000	-0.019	0.158
-414.413	185.033	-0.218	-0.322
-413.398	800.000	0.137	0.520
-412.384	-75.194	-0.218	-0.078
-411.369	-75.839	0.201	-0.071
-410.355	91.179	0.089	-0.100
-409.340	800.000	-0.043	0.129
-408.325	-88.732	0.208	0.062
-407.311	-200.000	0.011	-0.231
-406.296	800.000	-0.110	-0.316
-405.282	800.000	-0.016	-0.054
-404.267	-17.549	-0.135	-0.084
-403.252	486.394	-0.087	0.199
-402.238	111.901	-0.162	0.195
-401.223	-200.000	0.022	-0.301
-400.209	-14.776	0.064	0.041
-399.194	-113.320	-0.138	-0.027
-398.179	-200.000	0.076	-0.451
-397.165	-24.005	-0.380	0.227
-396.150	-101.812	0.095	0.023
-395.136	-157.387	-0.251	-0.015
-394.121	-174.298	-0.109	-0.003
-393.106	-163.752	0.185	-0.009
-392.092	385.580	-0.069	-0.142
-391.077	-8.983	-0.429	0.287
-390.063	129.106	-0.049	0.062
-389.048	-12.753	-0.027	0.018
-388.033	311.432	-0.051	-0.095
-387.019	-200.000	-0.045	0.436
-386.004	-70.727	-0.299	0.113
-384.990	155.735	0.253	-0.348
-383.975	-135.706	0.280	0.033
-382.960	-159.198	0.118	-0.007
-381.946	-200.000	-0.000	-0.016
-380.931	-39.474	0.094	0.049
-379.917	-126.346	-0.302	0.045
-378.902	209.923	0.147	-0.229
-377.888	-43.686	0.436	0.219
-376.873	207.843	-0.172	0.267
-375.858	-65.169	-0.215	-0.086
-374.844	-72.938	-0.155	0.057
-373.829	-43.592	0.292	0.147
-372.815	-200.000	0.023	-0.171
-371.800	-11.025	-0.175	0.115
-370.785	79.543	0.128	-0.137
-369.771	585.813	0.130	-0.317
-368.756	-200.000	0.021	0.305
-367.742	-4.640	-0.123	-0.084
-366.727	21.268	-0.063	-0.051
-365.712	484.702	0.149	-0.338
-364.698	-182.825	0.253	0.005
-363.683	-200.000	0.092	-0.460
-362.669	-175.636	-0.300	-0.008
-361.654	-200.000	-0.051	-0.225
-360.639	-200.000	0.002	0.450
-359.625	-65.176	0.202	0.081
-358.610	-102.411	0.379	0.090
-357.596	-200.000	0.001	-0.244
-356.581	-167.813	0.294	0.012
-355.566	224.559	0.080	0.129
-354.552	-200.000	0.011	0.133
-353.537	-71.907	-0.232	0.086
-352.523	-129.689	-0.019	-0.003
-351.508	-186.018	0.362	0.005
-350.493	155.470	-0.061	0.083
-349.479	15.987	0.190	0.149
-348.464	167.779	-0.046	0.065
-347.450	-200.000	-0.005	0.324
-346.435	1.817	0.145	0.104
-345.420	-124.097	0.111	-0.017
-344.406	-96.812	-0.051	-0.013
-343.391	-53.550	-0.357	0.162
-342.377	-32.604	0.148	0.082
-341.362	800.000	-0.027	0.095
-340.348	-200.000	0.022	-0.110
-339.333	800.000	0.079	0.280
-338.318	800.000	0.089	-0.325
-337.304	-200.000	0.002	-0.047
-336.289	671.396	-0.113	0.293
-335.275	146.260	0.138	-0.185
-334.260	-200.000	0.015	0.135
-333.245	-13.839	0.197	0.127
-332.231	-9.522	-0.150	0.099
-331.216	-54.708	-0.319	-0.143
-330.202	141.286	-0.177	0.233
-329.187	-200.000	0.010	0.588
-328.172	-200.000	0.032	-0.280
-327.158	-200.000	0.006	0.329
-326.143	119.005	-0.118	-0.145
-325.129	176.427	0.147	-0.212
-324.114	-51.833	0.160	-0.074
-323.099	99.518	-0.206	0.237
-322.085	800.000	-0.048	-0.179
-321.070	-136.796	0.102	0.012
-320.056	113.779	-0.111	-0.134
-319.041	252.848	-0.074	0.125
-318.026	-29.118	-0.104	0.059
-317.012	-200.000	-0.046	-0.205
-315.997	124.293	-0.170	0.212
-314.983	702.108	0.081	0.212
-313.968	-6.281	0.229	-0.155
-312.953	-125.938	-0.196	-0.029
-311.939	-83.233	0.264	-0.084
-310.924	81.520	0.130	0.140
-309.910	-103.203	-0.125	0.029
-308.895	-200.000	0.000	-0.054
-307.880	-200.000	-0.043	0.340
-306.866	104.850	-0.089	-0.105
-305.851	-136.962	0.226	0.026
-304.837	330.955	-0.087	-0.166
-303.822	35.427	0.177	0.154
-302.807	-42.560	-0.201	-0.101
-301.793	-200.000	-0.068	-0.444
-300.778	383.553	-0.059	0.121
-299.764	-200.000	0.087	-0.515
-298.749	800.000	0.033	-0.132
-297.735	-200.000	0.057	0.431
-296.720	-74.780	0.047	0.017
-295.705	76.189	0.088	-0.092
-294.691	800.000	-0.071	-0.286
-293.676	-39.491	0.613	-0.319
-292.662	-28.855	0.134	-0.076
-291.647	-108.315	0.327	0.070
-290.632	-104.665	-0.267	-0.061
-289.618	-134.053	0.372	0.046
-288.603	-101.327	0.503	0.122
-287.589	-200.000	0.000	-0.253
-286.574	202.723	-0.172	-0.264
-285.559	644.779	-0.121	0.306
-284.545	-84.673	0.081	0.025
-283.530	315.397	0.040	-0.075
-282.516	-8.611	0.269	-0.179
-281.501	-69.295	0.072	0.027
-280.486	177.211	-0.063	-0.091
-279.472	800.000	0.096	0.320
-278.457	-129.632	-0.170	0.023
-277.443	534.527	-0.067	0.158
-276.428	203.720	-0.141	-0.216
-275.413	-2.414	-0.213	0.148
-274.399	-79.850	0.385	-0.129
-273.384	-17.858	-0.051	0.032
-272.370	-28.205	0.238	0.136
-271.355	354.064	-0.147	0.289
-270.340	-200.000	-0.007	-0.143
-269.326	-200.000	-0.063	0.382
-268.311	-52.604	0.364	-0.167
-267.297	800.000	-0.187	-0.582
-266.282	-200.000	-0.052	-0.261
-265.267	-10.121	0.185	-0.122
-264.253	34.494	0.347	-0.300
-263.238	-71.758	-0.305	-0.113
-262.224	-70.724	-0.430	0.161
-261.209	800.000	-0.136	-0.461
-260.195	227.245	0.103	-0.166
-259.180	148.879	0.035	-0.046
-258.165	584.673	0.086	-0.210
-257.151	-0.212	-0.063	0.045
-256.136	-48.106	0.496	-0.238
-255.122	-128.597	-0.177	-0.025
-254.107	115.087	0.148	-0.179
-253.092	-41.619	-0.316	-0.161
-252.078	-200.000	0.023	0.199
-251.063	336.755	0.087	0.167
-250.049	800.000	-0.030	-0.102
-249.034	433.534	0.135	0.290
-248.019	-117.655	0.172	-0.031
-247.005	153.012	0.076	-0.103
-245.990	-8.370	-0.201	0.134
-244.976	-111.453	-0.081	-0.016
-243.961	102.781	0.165	-0.192
-242.946	-141.201	-0.163	0.016
-241.932	-183.412	-0.205	0.004
-240.917	-17.101	0.232	-0.145
-239.903	678.784	-0.146	0.377
-238.888	-200.000	0.014	0.293
-237.873	800.000	0.106	0.321
-236.859	720.254	-0.053	-0.140
-235.844	-53.860	0.238	0.108
-234.830	-84.034	0.164	0.052
-233.815	-200.000	0.006	-0.054
-232.800	-86.799	0.234	0.071
-231.786	160.154	0.098	0.135
-230.771	262.742	0.082	-0.142
-229.757	143.606	0.097	-0.128
-228.742	-200.000	-0.005	0.118
-227.727	-91.287	0.014	-0.004
-226.713	-19.965	-0.225	0.137
-225.698	-200.000	-0.050	0.279
-224.684	508.479	-0.068	0.158
-223.669	-200.000	-0.072	0.351
-222.655	233.684	0.169	0.276
-221.640	195.425	-0.129	0.194
-220.625	272.318	-0.089	-0.156
-219.611	19.575	-0.042	0.034
-218.596	-92.356	-0.050	-0.014
-217.582	292.590	-0.033	0.059
-216.567	-118.325	0.376	0.066
-215.552	51.359	0.261	-0.245
-214.538	-200.000	0.012	-0.270
-213.523	-200.000	-0.044	-0.371
-212.509	-171.085	-0.281	-0.009
-211.494	171.946	-0.116	0.164
-210.479	-150.687	0.241	0.018
-209.465	184.903	-0.054	-0.080
-208.450	210.790	0.148	-0.230
-207.436	-82.733	-0.141	-0.045
-206.421	72.080	-0.066	-0.068
-205.406	-200.000	0.044	0.468
-204.392	-200.000	-0.039	-0.177
-203.377	210.416	-0.072	0.112
-202.363	473.628	-0.115	0.257
-201.348	299.625	0.026	0.047
-200.333	129.858	0.067	0.085
-199.319	-99.546	-0.143	0.035
-198.304	-120.646	-0.164	0.027
-197.290	-5.210	-0.211	0.144
-196.275	149.100	0.041	-0.055
-195.260	-120.080	-0.137	0.023
-194.246	23.254	0.106	-0.086
-193.231	-131.872	-0.161	0.021
-192.217	-21.567	0.299	0.180
-191.202	89.929	0.191	-0.211
-190.187	187.054	-0.050	-0.074
-189.173	-117.800	0.104	0.019
-188.158	95.664	0.120	0.135
-187.144	80.281	-0.315	0.336
-186.129	-25.492	-0.042	0.025
-185.114	-53.170	0.158	-0.072
-184.100	81.457	-0.207	0.221
-183.085	565.327	0.053	0.127
-182.071	98.441	0.230	0.262
-181.056	187.236	-0.147	0.217
-180.042	-85.512	0.061	0.019
-179.027	-200.000	-0.045	0.336
-178.012	-177.117	0.238	0.006
-176.998	800.000	0.135	0.466
-175.983	800.000	0.070	-0.246
-174.969	33.562	0.291	0.250
-173.954	-84.796	0.237	-0.074
-172.939	-200.000	0.019	-0.088
-171.925	-69.845	0.055	0.021
-170.910	-41.030	-0.281	-0.144
-169.896	227.889	-0.109	-0.176
-168.881	12.684	-0.294	-0.224
-167.866	-200.000	-0.040	-0.327
-166.852	-127.057	0.291	-0.042
-165.837	82.615	0.115	0.123
-164.823	800.000	-0.044	-0.126
-163.808	-85.348	-0.212	0.065
-162.793	18.859	-0.133	0.105
-161.779	708.837	0.047	0.123
-160.764	167.654	-0.076	-0.107
-159.750	-200.000	0.008	-0.232
-158.735	800.000	0.077	0.254
-157.720	222.844	0.065	0.103
-156.706	296.457	0.070	0.128
-155.691	383.891	-0.089	-0.181
-154.677	-97.530	0.174	-0.045
-153.662	395.084	-0.091	0.187
-152.647	376.644	-0.061	0.124
-151.633	-143.953	0.145	-0.013
-150.618	800.000	0.058	-0.226
-149.604	-102.289	0.055	-0.013
-148.589	590.529	0.123	0.300
-147.574	258.471	-0.067	-0.114
-146.560	571.870	0.052	-0.126
-145.545	310.851	-0.116	0.215
-144.531	48.333	-0.113	-0.105
-143.516	10.390	-0.234	0.176
-142.502	-146.766	0.112	-0.010
-141.487	-13.611	-0.268	0.171
-140.472	149.429	0.275	0.367
-139.458	-67.071	0.318	0.124
-138.443	389.502	-0.130	0.266
-137.429	119.089	0.290	0.354
-136.414	-200.000	-0.017	-0.092
-135.399	-37.099	0.115	0.061
-134.385	59.249	0.245	0.239
-133.370	-138.253	-0.327	0.036
-132.356	-125.062	-0.132	0.020
-131.341	107.542	0.022	-0.025
-130.326	-168.713	0.041	-0.002
-129.312	93.535	-0.142	0.159
-128.297	-123.009	-0.147	-0.023
-127.283	82.252	0.077	-0.083
-126.268	-40.024	0.257	0.132
-125.253	138.950	0.117	0.152
-124.239	-200.000	0.019	-0.223
-123.224	575.457	0.093	0.224
-122.210	-200.000	0.027	-0.202
-121.195	142.710	0.063	-0.082
