DTS Sentinel unit serial number:	SN413079Multiplexer serial number:	ORYXHardware model number:	OX4-SRSoftware version number:	ORYX F/W v4.00 Oryx Data Collector v3.7.2.0data status	okinstallation	princeton_trtdifferential loss correction	single-endedforward channel	channel 1reverse channel	N/Adate	2019/09/12time	12:20:11forward acquisition time	60.00reverse acquisition time	0.00gamma	496.2192k internal	0.2292k external	0.2292temperature offset calibration	1.0043default loss term (dB/km)	0.3790temperature slope calibration	1.0000multiplexer offset coefficient	1.0000multiplexer slope coefficient	1.0000fibre end	0.00T internal ref (°C)	40.62T ext. ref 1 (°C)	1.99T ext. ref 2 (°C)	35.10length (m)	temperature (°C)	Stokes	anti-Stokes-747.200	-78.437	-0.115	-0.040
-746.185	-34.333	0.267	0.150
-745.171	-103.141	0.274	-0.066
-744.156	-136.338	0.150	-0.018
-743.142	800.000	-0.082	-0.351
-742.127	-121.066	-0.153	-0.026
-741.112	-96.677	0.080	0.021
-740.098	79.343	-0.041	0.045
-739.083	800.000	-0.046	-0.166
-738.069	-200.000	0.279	0.001
-737.054	-200.000	-0.098	-0.459
-736.039	-26.786	-0.347	-0.208
-735.025	-115.683	0.048	0.009
-734.010	-200.000	-0.027	-0.142
-732.996	41.519	0.192	-0.178
-731.981	273.633	0.133	0.241
-730.966	-200.000	-0.030	0.154
-729.952	-1.687	0.175	0.126
-728.937	-125.443	-0.118	0.018
-727.923	-38.912	0.191	-0.103
-726.908	800.000	0.012	-0.051
-725.894	422.957	-0.069	0.152
-724.879	-29.830	-0.244	-0.142
-723.864	-200.000	-0.038	-0.269
-722.850	473.517	-0.130	-0.300
-721.835	246.157	-0.110	-0.190
-720.821	585.348	0.103	-0.258
-719.806	-59.109	-0.111	-0.049
-718.791	518.358	0.116	-0.277
-717.777	233.718	-0.079	0.132
-716.762	-54.767	-0.070	0.032
-715.748	611.619	-0.078	-0.199
-714.733	129.106	0.159	-0.208
-713.718	-85.495	-0.169	0.054
-712.704	258.518	-0.124	-0.218
-711.689	-44.339	-0.091	-0.047
-710.675	-200.000	0.005	0.406
-709.660	-90.047	0.218	-0.065
-708.645	161.461	-0.050	-0.071
-707.631	-200.000	-0.069	-0.356
-706.616	-171.509	-0.175	-0.006
-705.602	216.311	0.123	-0.199
-704.587	-84.929	-0.339	0.109
-703.572	-47.063	-0.175	-0.087
-702.558	800.000	-0.018	-0.068
-701.543	148.075	0.243	0.335
-700.529	-99.633	0.190	0.049
-699.514	397.243	-0.062	-0.132
-698.499	-84.078	-0.085	-0.027
-697.485	-88.808	-0.255	-0.077
-696.470	-14.641	-0.212	0.139
-695.456	800.000	0.101	0.396
-694.441	-33.861	-0.259	0.146
-693.426	-35.771	-0.006	0.003
-692.412	-200.000	-0.026	0.124
-691.397	-118.553	0.226	-0.041
-690.383	-47.726	-0.256	-0.127
-689.368	49.078	0.224	-0.215
-688.354	67.594	-0.042	0.044
-687.339	-189.427	-0.140	-0.002
-686.324	-53.318	-0.076	-0.035
-685.310	-115.729	0.101	0.019
-684.295	13.464	0.100	-0.079
-683.281	-134.872	-0.208	-0.026
-682.266	601.976	0.106	-0.269
-681.251	249.105	0.033	-0.057
-680.237	-117.508	-0.100	-0.018
-679.222	-111.695	0.168	-0.035
-678.208	645.484	-0.062	-0.163
-677.193	12.440	-0.210	0.165
-676.178	13.698	0.191	-0.152
-675.164	800.000	-0.097	0.289
-674.149	15.194	-0.163	-0.130
-673.135	-49.643	0.341	-0.166
-672.120	28.692	-0.106	0.092
-671.105	-162.283	-0.266	0.014
-670.091	355.269	0.050	-0.101
-669.076	-11.375	-0.093	0.062
-668.062	-156.281	-0.151	0.010
-667.047	800.000	0.030	-0.090
-666.032	498.145	-0.108	-0.254
-665.018	-137.071	-0.294	0.034
-664.003	-30.550	-0.035	0.020
-662.989	-122.104	0.176	-0.029
-661.974	115.512	0.147	-0.184
-660.959	-113.907	0.091	0.018
-659.945	-47.968	-0.315	0.155
-658.930	217.764	-0.086	-0.140
-657.916	800.000	-0.071	-0.263
-656.901	244.287	-0.212	-0.363
-655.886	-149.184	0.104	-0.008
-654.872	724.268	0.093	0.253
-653.857	-142.228	0.075	-0.008
-652.843	126.945	0.245	0.317
-651.828	-158.924	-0.387	-0.022
-650.814	-200.000	0.002	-0.513
-649.799	800.000	0.004	0.014
-648.784	-200.000	0.024	0.115
-647.770	-200.000	-0.010	0.113
-646.755	-73.646	-0.310	0.115
-645.741	55.789	-0.289	-0.285
-644.726	60.951	-0.032	-0.032
-643.711	582.039	0.089	0.222
-642.697	800.000	-0.117	-0.330
-641.682	-200.000	-0.021	-0.136
-640.668	-50.533	0.319	-0.153
-639.653	-200.000	-0.023	-0.183
-638.638	-92.722	0.226	-0.065
-637.624	48.384	-0.160	0.153
-636.609	104.807	-0.189	-0.227
-635.595	-136.523	-0.089	0.011
-634.580	-34.909	0.179	0.099
-633.565	-103.744	-0.058	-0.014
-632.551	682.825	0.057	0.151
-631.536	-22.629	-0.312	-0.192
-630.522	-3.738	0.121	-0.085
-629.507	-86.802	0.312	0.097
-628.492	93.879	-0.144	-0.167
-627.478	282.729	-0.063	-0.115
-626.463	800.000	0.021	-0.091
-625.449	-122.365	-0.248	0.041
-624.434	246.684	0.010	-0.018
-623.419	-153.483	0.143	0.010
-622.405	-128.066	-0.156	0.023
-621.390	-200.000	0.001	-0.057
-620.376	800.000	-0.087	-0.321
-619.361	54.017	0.250	-0.245
-618.346	-44.509	0.090	-0.046
-617.332	-94.066	-0.183	-0.051
-616.317	150.594	-0.133	0.185
-615.303	-200.000	0.043	0.278
-614.288	-81.121	-0.104	-0.035
-613.273	82.493	-0.309	-0.342
-612.259	800.000	0.022	0.078
-611.244	-200.000	0.001	-0.044
-610.230	-144.335	-0.204	0.019
-609.215	-200.000	0.033	-0.168
-608.201	-60.294	-0.149	0.065
-607.186	255.613	0.117	-0.204
-606.171	-200.000	0.071	-0.388
-605.157	-89.256	0.185	-0.056
-604.142	-10.247	-0.221	0.149
-603.128	33.326	0.088	-0.077
-602.113	631.707	-0.128	-0.330
-601.098	-200.000	-0.046	0.258
-600.084	800.000	-0.032	0.118
-599.069	190.163	-0.057	-0.087
-598.055	632.269	0.115	0.296
-597.040	-200.000	-0.006	0.464
-596.025	99.770	-0.116	0.137
-595.011	1.358	-0.117	0.086
-593.996	-72.557	-0.198	-0.074
-592.982	131.827	0.163	0.214
-591.967	800.000	-0.085	0.244
-590.952	800.000	0.045	-0.160
-589.938	800.000	-0.051	-0.165
-588.923	322.285	0.006	0.012
-587.909	-188.548	-0.144	-0.002
-586.894	-51.808	0.198	-0.094
-585.879	-107.923	0.193	-0.043
-584.865	-170.529	-0.265	0.009
-583.850	119.675	0.129	0.163
-582.836	-62.815	-0.139	0.059
-581.821	800.000	0.031	-0.096
-580.806	-200.000	-0.015	0.078
-579.792	361.302	0.067	0.137
-578.777	58.990	0.096	0.096
-577.763	800.000	-0.087	-0.255
-576.748	-90.043	-0.212	0.063
-575.733	-200.000	0.016	0.099
-574.719	800.000	-0.027	0.102
-573.704	41.492	-0.034	-0.031
-572.690	-200.000	0.001	0.115
-571.675	163.991	0.032	-0.046
-570.661	87.900	-0.145	-0.164
-569.646	-7.367	0.162	0.111
-568.631	255.762	0.102	-0.178
-567.617	312.984	0.143	-0.272
-566.602	242.829	0.184	-0.313
-565.588	16.147	0.021	-0.017
-564.573	-53.322	0.403	0.188
-563.558	-56.226	-0.247	0.111
-562.544	-200.000	0.004	0.089
-561.529	382.607	-0.207	0.433
-560.515	-200.000	0.060	0.382
-559.500	32.569	0.283	0.248
-558.485	-28.026	0.076	-0.045
-557.471	-200.000	0.001	-0.240
-556.456	-200.000	-0.011	-0.167
-555.442	-200.000	0.017	0.151
-554.427	-138.363	-0.111	-0.012
-553.412	-142.482	-0.136	-0.014
-552.398	-39.716	0.126	-0.067
-551.383	-169.146	0.224	-0.008
-550.369	136.360	-0.233	-0.308
-549.354	-77.092	-0.298	-0.106
-548.339	12.533	0.234	0.183
-547.325	321.298	-0.014	-0.026
-546.310	543.671	-0.013	0.032
-545.296	16.455	-0.136	0.109
-544.281	116.415	-0.124	-0.154
-543.266	-11.524	0.028	-0.019
-542.252	175.253	-0.167	-0.246
-541.237	26.849	-0.179	0.152
-540.223	79.517	-0.070	0.076
-539.208	800.000	0.014	-0.043
-538.193	800.000	0.082	-0.351
-537.179	-102.810	0.222	-0.054
-536.164	569.098	0.106	0.263
-535.150	228.900	0.155	0.257
-534.135	-200.000	0.008	0.089
-533.121	709.904	0.161	-0.431
-532.106	-71.682	0.116	-0.044
-531.091	85.323	-0.134	-0.149
-530.077	-73.837	0.183	0.068
-529.062	-200.000	0.017	-0.160
-528.048	85.158	-0.113	-0.126
-527.033	-127.554	-0.168	-0.025
-526.018	88.746	0.132	0.149
-525.004	-200.000	-0.083	0.000
-523.989	-58.217	0.174	0.077
-522.975	-141.593	-0.124	-0.013
-521.960	800.000	-0.082	0.261
-520.945	800.000	-0.029	-0.102
-519.931	-200.000	0.017	-0.092
-518.916	92.913	0.114	0.130
-517.902	-200.000	-0.041	0.316
-516.887	-137.770	0.190	-0.022
-515.872	-96.968	-0.228	-0.061
-514.858	-200.000	0.008	-0.272
-513.843	12.923	0.035	-0.027
-512.829	0.215	0.355	-0.257
-511.814	276.867	0.146	-0.263
-510.799	544.684	0.119	-0.288
-509.785	-98.088	-0.161	0.042
-508.770	262.586	-0.163	-0.286
-507.756	-20.911	0.153	0.095
-506.741	-92.768	-0.158	0.045
-505.726	-48.141	0.116	0.057
-504.712	39.980	-0.210	0.191
-503.697	-61.118	-0.206	-0.088
-502.683	8.921	0.193	-0.148
-501.668	161.358	0.125	0.177
-500.653	-47.255	0.140	0.069
-499.639	-200.000	-0.002	0.161
-498.624	-4.247	0.209	0.147
-497.610	4.803	-0.146	-0.109
-496.595	311.696	0.119	0.226
-495.581	-200.000	0.023	0.301
-494.566	557.928	-0.046	0.112
-493.551	-36.447	0.200	-0.109
-492.537	-194.132	-0.349	0.003
-491.522	-120.811	0.269	0.046
-490.508	-200.000	0.027	0.122
-489.493	-25.034	0.231	-0.139
-488.478	800.000	-0.095	0.326
-487.464	-200.000	0.014	-0.257
-486.449	-71.435	0.195	0.074
-485.435	-24.758	0.146	0.088
-484.420	-69.339	-0.099	0.039
-483.405	440.594	0.059	0.132
-482.391	-10.451	0.179	0.120
-481.376	-96.589	-0.132	-0.035
-480.362	303.162	0.111	-0.208
-479.347	800.000	0.061	-0.250
-478.332	-97.712	-0.127	-0.033
-477.318	233.989	-0.147	-0.245
-476.303	219.705	0.130	-0.211
-475.289	7.088	0.248	-0.188
-474.274	58.579	0.063	0.062
-473.259	484.769	0.029	-0.066
-472.245	-93.313	-0.222	-0.062
-471.230	-85.617	0.242	-0.076
-470.216	800.000	-0.098	-0.350
-469.201	442.510	0.089	-0.197
-468.186	-167.864	0.283	-0.011
-467.172	154.670	0.155	-0.215
-466.157	800.000	-0.093	0.305
-465.143	63.644	0.186	-0.189
-464.128	-39.399	-0.068	0.036
-463.113	-200.000	0.019	-0.135
-462.099	12.864	-0.175	-0.137
-461.084	17.720	0.007	-0.006
-460.070	92.634	-0.064	-0.073
-459.055	236.731	-0.138	-0.230
-458.040	800.000	-0.062	-0.209
-457.026	800.000	0.082	-0.321
-456.011	-37.813	0.114	-0.062
-454.997	-200.000	-0.020	-0.193
-453.982	800.000	0.022	0.080
-452.968	-125.428	-0.273	0.042
-451.953	800.000	-0.027	-0.088
-450.938	394.899	0.080	-0.168
-449.924	800.000	-0.097	-0.365
-448.909	109.079	-0.102	-0.124
-447.895	136.995	0.193	0.255
-446.880	281.214	-0.106	-0.193
-445.865	312.959	0.068	0.129
-444.851	-200.000	-0.036	0.447
-443.836	-20.105	-0.130	-0.081
-442.822	-200.000	0.003	0.027
-441.807	-200.000	-0.023	0.152
-440.792	-53.467	-0.106	0.049
-439.778	-16.218	0.160	-0.103
-438.763	-11.762	0.055	-0.036
-437.749	-200.000	-0.038	-0.257
-436.734	72.091	0.148	-0.156
-435.719	-200.000	-0.068	-0.437
-434.705	-156.573	0.358	-0.022
-433.690	-200.000	-0.017	0.229
-432.676	-200.000	-0.013	0.179
-431.661	217.764	0.078	0.126
-430.646	-40.264	-0.109	-0.057
-429.632	-104.531	-0.202	-0.047
-428.617	-200.000	-0.009	-0.284
-427.603	484.968	-0.119	-0.274
-426.588	233.641	0.162	0.269
-425.573	-49.194	-0.328	0.159
-424.559	63.440	0.316	-0.320
-423.544	-200.000	0.076	0.363
-422.530	-64.356	-0.413	-0.170
-421.515	800.000	0.052	-0.190
-420.500	-200.000	0.032	-0.266
-419.486	722.663	-0.091	-0.246
-418.471	1.245	0.066	0.048
-417.457	800.000	0.060	0.256
-416.442	-34.029	-0.188	-0.105
-415.428	784.574	0.120	-0.331
-414.413	-81.009	0.135	0.045
-413.398	71.572	0.168	-0.176
-412.384	15.416	-0.164	0.130
-411.369	-15.956	0.137	0.088
-410.355	800.000	0.045	0.130
-409.340	-100.958	-0.093	0.023
-408.325	155.064	-0.068	0.095
-407.311	-83.812	0.039	0.013
-406.296	-7.611	-0.188	-0.129
-405.282	133.654	-0.303	0.396
-404.267	191.013	-0.189	0.287
-403.252	-200.000	-0.022	0.198
-402.238	-188.584	0.326	0.004
-401.223	800.000	0.035	0.109
-400.209	87.377	0.027	-0.031
-399.194	-200.000	-0.006	0.111
-398.179	-69.294	0.409	-0.159
-397.165	73.643	-0.111	-0.118
-396.150	141.709	-0.240	0.320
-395.136	343.456	-0.188	0.372
-394.121	800.000	-0.041	0.173
-393.106	313.371	0.091	0.172
-392.092	-70.401	0.209	0.080
-391.077	-22.558	-0.337	0.206
-390.063	292.435	-0.078	-0.144
-389.048	487.266	-0.115	-0.266
-388.033	707.058	0.078	0.207
-387.019	218.812	-0.111	-0.180
-386.004	420.955	-0.096	0.207
-384.990	-200.000	-0.007	-0.085
-383.975	40.977	-0.094	0.086
-382.960	-200.000	-0.017	0.292
-381.946	77.288	-0.243	0.261
-380.931	4.433	-0.117	-0.087
-379.917	-100.020	-0.183	-0.046
-378.902	-171.682	0.371	0.012
-377.888	-45.006	-0.405	0.203
-376.873	226.872	-0.100	0.163
-375.858	45.498	-0.206	0.192
-374.844	800.000	0.046	0.163
-373.829	-158.811	-0.142	-0.008
-372.815	5.289	-0.045	0.033
-371.800	334.780	-0.125	0.244
-370.785	213.690	0.211	0.336
-369.771	133.450	-0.226	-0.295
-368.756	245.249	-0.039	0.067
-367.742	-20.938	0.246	-0.152
-366.727	-95.066	-0.102	0.028
-365.712	-160.717	-0.115	0.006
-364.698	164.039	0.130	-0.185
-363.683	-116.951	-0.383	-0.071
-362.669	-98.649	0.234	0.060
-361.654	-126.958	0.463	0.069
-360.639	524.848	0.072	0.171
-359.625	-200.000	-0.006	-0.083
-358.610	119.025	0.165	-0.206
-357.596	418.996	-0.088	0.189
-356.581	-151.020	0.271	0.021
-355.566	-200.000	0.030	0.563
-354.552	175.782	-0.168	0.246
-353.537	-200.000	-0.021	0.387
-352.523	316.550	0.096	0.183
-351.508	-66.290	0.235	-0.094
-350.493	-174.081	0.127	-0.004
-349.479	35.047	-0.214	0.189
-348.464	-115.598	-0.070	-0.013
-347.450	-200.000	0.042	0.482
-346.435	135.823	0.048	-0.063
-345.420	433.104	0.038	0.084
-344.406	14.817	0.123	0.097
-343.391	203.397	0.080	0.125
-342.377	-167.334	-0.267	-0.011
-341.362	-169.299	-0.355	-0.013
-340.348	308.445	-0.061	-0.115
-339.333	49.132	0.348	-0.329
-338.318	-180.103	-0.217	-0.005
-337.304	165.963	-0.180	-0.256
-336.289	-142.622	-0.059	-0.006
-335.275	-40.966	-0.511	-0.266
-334.260	-200.000	-0.004	0.274
-333.245	64.218	-0.172	-0.174
-332.231	-138.454	0.215	-0.024
-331.216	-69.716	0.150	0.058
-330.202	-52.373	0.376	0.175
-329.187	-200.000	-0.021	-0.171
-328.172	-130.850	-0.122	-0.016
-327.158	-79.311	0.276	0.094
-326.143	209.087	0.267	-0.421
-325.129	-76.195	-0.274	0.097
-324.114	55.415	-0.161	0.157
-323.099	193.076	-0.145	-0.221
-322.085	-177.492	-0.199	-0.005
-321.070	800.000	0.076	0.298
-320.056	-15.563	0.113	-0.072
-319.041	184.922	-0.127	-0.190
-318.026	31.051	-0.113	-0.097
-317.012	164.699	-0.044	0.062
-315.997	-9.458	-0.162	0.109
-314.983	96.502	-0.081	0.093
-313.968	355.901	-0.045	0.090
-312.953	800.000	0.100	0.416
-311.939	-200.000	-0.026	-0.470
-310.924	-131.113	-0.304	-0.041
-309.910	-200.000	0.008	-0.115
-308.895	64.393	0.281	-0.285
-307.880	458.569	0.116	-0.258
-306.866	398.125	0.015	0.031
-305.851	-119.652	-0.093	0.016
-304.837	-200.000	0.055	0.243
-303.822	-37.345	0.277	-0.149
-302.807	-136.557	-0.250	-0.029
-301.793	-7.801	0.371	-0.252
-300.778	-107.890	0.383	0.084
-299.764	-7.987	0.177	0.120
-298.749	-152.804	0.249	-0.018
-297.735	-136.920	-0.427	0.049
-296.720	123.960	-0.078	-0.098
-295.705	-200.000	0.045	0.242
-294.691	800.000	0.095	0.303
-293.676	16.907	0.152	0.121
-292.662	332.546	-0.133	-0.258
-291.647	46.438	0.148	-0.138
-290.632	-49.720	-0.161	0.077
-289.618	-200.000	0.051	-0.234
-288.603	-147.033	0.164	0.014
-287.589	-22.138	0.129	-0.079
-286.574	184.940	-0.178	0.265
-285.559	800.000	0.091	0.268
-284.545	-45.749	0.206	-0.102
-283.530	-88.595	0.362	-0.108
-282.516	-83.961	0.218	-0.070
-281.501	-41.939	0.470	0.242
-280.486	-186.023	-0.076	0.001
-279.472	-137.637	-0.176	0.020
-278.457	413.109	-0.069	0.147
-277.443	-181.267	-0.151	-0.003
-276.428	76.293	0.142	-0.151
-275.413	-200.000	-0.013	-0.259
-274.399	-200.000	-0.031	0.143
-273.384	104.993	0.230	0.272
-272.370	611.710	-0.008	0.020
-271.355	-200.000	-0.023	0.374
-270.340	-39.392	-0.215	-0.113
-269.326	-62.105	-0.145	-0.061
-268.311	-200.000	-0.024	0.303
-267.297	-200.000	-0.020	-0.406
-266.282	-127.095	0.144	0.021
-265.267	70.050	-0.282	0.292
-264.253	70.608	-0.299	-0.310
-263.238	-200.000	-0.066	-0.322
-262.224	-13.528	-0.330	-0.215
-261.209	364.081	0.055	0.111
-260.195	-113.175	0.238	0.047
-259.180	-200.000	0.002	-0.405
-258.165	-50.188	-0.103	-0.049
-257.151	369.113	0.081	0.164
-256.136	-200.000	-0.038	0.237
-255.122	-200.000	-0.028	-0.139
-254.107	-30.039	-0.049	-0.028
-253.092	-200.000	-0.009	-0.266
-252.078	-37.313	-0.385	-0.207
-251.063	-200.000	-0.023	-0.322
-250.049	-200.000	-0.001	-0.115
-249.034	74.307	-0.142	-0.150
-248.019	30.884	0.116	0.100
-247.005	-200.000	0.001	0.154
-245.990	800.000	-0.117	-0.458
-244.976	-92.244	0.195	-0.055
-243.961	-200.000	0.030	0.341
-242.946	-76.645	0.055	0.019
-241.932	-122.747	0.245	-0.040
-240.917	-63.268	-0.092	0.038
-239.903	-200.000	-0.010	0.106
-238.888	286.498	-0.160	0.290
-237.873	18.750	0.064	0.052
-236.859	-179.518	0.267	0.006
-235.844	800.000	0.018	-0.075
-234.830	-200.000	0.027	0.133
-233.815	-200.000	0.009	-0.210
-232.800	331.085	0.092	0.179
-231.786	-143.257	-0.088	0.009
-230.771	-6.648	-0.239	0.163
-229.757	57.705	0.299	0.293
-228.742	-144.053	0.240	-0.023
-227.727	800.000	-0.055	-0.191
-226.713	158.365	-0.201	-0.280
-225.698	114.829	0.096	-0.118
-224.684	-10.409	-0.215	0.143
-223.669	92.639	0.187	0.212
-222.655	-200.000	0.008	0.099
-221.640	-200.000	-0.089	0.418
-220.625	-101.177	-0.453	0.111
-219.611	122.938	-0.090	-0.112
-218.596	-157.202	-0.352	-0.021
-217.582	-200.000	-0.023	0.175
-216.567	-200.000	0.097	0.483
-215.552	-77.010	0.185	0.065
-214.538	-116.155	0.361	-0.067
-213.523	-166.010	0.288	0.012
-212.509	-166.972	0.368	-0.015
-211.494	90.419	-0.130	0.146
-210.479	-200.000	-0.044	0.339
-209.465	474.883	0.156	-0.353
-208.450	417.257	-0.240	0.514
-207.436	-200.000	0.003	0.015
-206.421	65.041	-0.186	-0.188
-205.406	-158.431	-0.164	0.010
-204.392	71.312	-0.024	-0.025
-203.377	-200.000	0.030	-0.206
-202.363	357.984	0.129	-0.257
-201.348	217.881	0.251	-0.402
-200.333	-91.978	0.306	0.087
-199.319	-140.743	-0.205	0.021
-198.304	-200.000	0.008	0.286
-197.290	-19.267	-0.175	0.109
-196.275	-51.316	-0.119	0.056
-195.260	660.022	0.062	0.160
-194.246	-200.000	0.050	0.315
-193.231	376.807	-0.106	-0.217
-192.217	58.010	0.205	-0.202
-191.202	25.121	0.269	-0.223
-190.187	-200.000	-0.020	0.190
-189.173	515.602	0.093	0.218
-188.158	-118.037	0.282	-0.050
-187.144	0.956	0.044	-0.032
-186.129	-200.000	0.038	-0.207
-185.114	27.792	-0.148	0.125
-184.100	-200.000	-0.032	0.376
-183.085	-200.000	0.012	0.087
-182.071	-200.000	-0.008	-0.315
-181.056	-200.000	-0.047	0.250
-180.042	-200.000	0.036	0.277
-179.027	-32.122	0.083	-0.046
-178.012	-51.585	0.212	-0.099
-176.998	412.951	0.084	0.178
-175.983	1.134	-0.131	-0.094
-174.969	800.000	0.079	-0.335
-173.954	372.057	-0.063	-0.127
-172.939	-200.000	-0.042	-0.212
-171.925	-164.205	-0.081	-0.004
-170.910	208.732	0.123	0.192
-169.896	-95.198	0.116	-0.031
-168.881	800.000	0.047	-0.184
-167.866	-168.660	-0.413	-0.016
-166.852	12.026	-0.135	-0.104
-165.837	313.427	0.046	-0.087
-164.823	94.891	0.204	0.232
-163.808	-200.000	0.004	0.300
-162.793	-161.746	0.450	0.023
-161.779	112.540	-0.154	-0.186
-160.764	-40.855	-0.402	-0.208
-159.750	121.874	-0.078	0.097
-158.735	140.352	-0.193	0.255
-157.720	37.473	0.250	-0.222
-156.706	-200.000	-0.052	0.309
-155.691	229.196	0.097	0.159
-154.677	92.919	-0.115	-0.130
-153.662	64.063	-0.286	-0.288
-152.647	-23.168	0.176	0.106
-151.633	144.124	0.090	-0.120
-150.618	-117.313	-0.088	0.016
-149.604	-127.371	0.081	0.012
-148.589	190.182	-0.132	0.198
-147.574	196.167	0.105	-0.160
-146.560	298.287	0.137	0.252
-145.545	800.000	-0.086	0.242
-144.531	5.207	0.104	-0.076
-143.516	263.470	-0.104	0.181
-142.502	-114.098	-0.344	-0.067
-141.487	50.679	-0.134	0.127
-140.472	-200.000	-0.035	0.363
-139.458	541.381	0.156	0.372
-138.443	232.225	-0.075	-0.123
-137.429	-200.000	-0.034	-0.246
-136.414	-88.339	-0.065	0.019
-135.399	142.334	-0.135	0.179
-134.385	234.588	-0.251	0.414
-133.370	-77.307	0.180	-0.063
-132.356	-115.646	-0.210	-0.039
-131.341	179.229	0.023	0.034
-130.326	-43.993	0.071	-0.036
-129.312	-88.924	0.312	-0.092
-128.297	-200.000	-0.042	0.244
-127.283	-200.000	-0.042	0.252
-126.268	764.591	-0.112	0.305
-125.253	800.000	-0.055	-0.191
-124.239	-168.573	0.234	-0.009
-123.224	-14.844	0.079	-0.051
