DTS Sentinel unit serial number:	SN413079Multiplexer serial number:	ORYXHardware model number:	OX4-SRSoftware version number:	ORYX F/W v4.00 Oryx Data Collector v3.7.2.0data status	okinstallation	princeton_trtdifferential loss correction	single-endedforward channel	channel 1reverse channel	N/Adate	2019/09/16time	16:06:35forward acquisition time	60.00reverse acquisition time	0.00gamma	496.2192k internal	0.2293k external	0.2293temperature offset calibration	0.9953default loss term (dB/km)	0.3790temperature slope calibration	1.0000multiplexer offset coefficient	1.0000multiplexer slope coefficient	1.0000fibre end	0.00T internal ref (°C)	40.87T ext. ref 1 (°C)	14.93T ext. ref 2 (°C)	35.02length (m)	temperature (°C)	Stokes	anti-Stokes-747.200	-179.252	0.085	0.002
-746.185	-200.000	-0.015	0.125
-745.171	25.888	-0.102	0.087
-744.156	-200.000	-0.007	0.105
-743.142	-29.955	-0.289	0.168
-742.127	-99.192	0.576	0.149
-741.112	50.931	-0.152	0.147
-740.098	190.241	-0.210	0.323
-739.083	-200.000	-0.034	0.211
-738.069	-200.000	-0.016	0.285
-737.054	-8.925	-0.119	-0.082
-736.039	27.290	-0.019	0.016
-735.025	-69.573	-0.075	0.030
-734.010	74.288	-0.182	-0.196
-732.996	-29.857	-0.189	0.110
-731.981	-116.112	-0.099	-0.019
-730.966	106.235	-0.145	0.175
-729.952	-200.000	0.048	-0.245
-728.937	-83.328	-0.182	0.060
-727.923	800.000	-0.103	0.349
-726.908	-200.000	-0.020	-0.452
-725.894	-200.000	0.000	-0.243
-724.879	76.554	0.140	-0.152
-723.864	-49.172	-0.246	-0.120
-722.850	-200.000	-0.032	-0.160
-721.835	-200.000	-0.071	0.349
-720.821	-48.157	0.056	-0.028
-719.806	-115.593	-0.328	0.063
-718.791	-115.464	-0.167	-0.032
-717.777	-15.031	-0.243	-0.159
-716.762	-94.357	0.288	-0.080
-715.748	180.126	0.093	0.140
-714.733	-85.827	0.369	0.117
-713.718	-200.000	0.011	-0.174
-712.704	-68.897	0.233	-0.092
-711.689	108.051	-0.239	-0.291
-710.675	116.274	-0.111	0.139
-709.660	56.022	0.212	-0.211
-708.645	58.038	-0.190	0.190
-707.631	-52.326	0.171	0.081
-706.616	-102.809	-0.082	0.020
-705.602	-86.989	0.120	0.037
-704.587	800.000	0.045	0.139
-703.572	800.000	-0.035	-0.125
-702.558	16.588	-0.142	-0.115
-701.543	439.967	-0.075	-0.167
-700.529	53.692	-0.085	-0.084
-699.514	800.000	0.010	-0.043
-698.499	63.678	0.169	0.173
-697.485	800.000	0.051	0.214
-696.470	-120.643	-0.219	0.038
-695.456	800.000	-0.100	0.412
-694.441	82.561	-0.140	-0.155
-693.426	-93.600	-0.330	0.093
-692.412	-110.653	0.115	0.024
-691.397	-11.535	-0.134	0.090
-690.383	-8.866	0.189	-0.129
-689.368	255.090	-0.286	-0.500
-688.354	-34.935	0.173	0.096
-687.339	-163.126	-0.183	0.009
-686.324	-200.000	0.001	0.125
-685.310	97.990	-0.225	-0.265
-684.295	800.000	-0.022	0.093
-683.281	-200.000	-0.034	0.158
-682.266	-28.187	-0.163	-0.096
-681.251	-161.779	0.333	0.017
-680.237	622.217	-0.069	0.177
-679.222	-145.379	-0.151	-0.014
-678.208	70.479	-0.371	-0.391
-677.193	-200.000	0.035	-0.350
-676.178	392.619	-0.109	0.232
-675.164	-200.000	0.000	0.410
-674.149	-136.447	-0.197	0.023
-673.135	82.172	-0.063	-0.070
-672.120	17.026	-0.283	0.229
-671.105	-104.656	-0.266	0.063
-670.091	34.678	-0.033	-0.030
-669.076	171.273	-0.072	0.105
-668.062	800.000	0.103	-0.294
-667.047	-200.000	-0.024	-0.254
-666.032	800.000	0.076	0.232
-665.018	-107.263	-0.088	-0.020
-664.003	338.900	0.152	-0.303
-662.989	-95.909	-0.213	0.058
-661.974	-9.575	0.237	-0.161
-660.959	107.991	-0.230	-0.280
-659.945	-99.152	0.242	-0.063
-658.930	-200.000	-0.021	0.103
-657.916	255.925	-0.120	-0.210
-656.901	-62.129	-0.067	0.029
-655.886	110.943	-0.123	-0.151
-654.872	-149.709	-0.144	-0.012
-653.857	-200.000	0.062	0.361
-652.843	-19.728	0.084	0.053
-651.828	-0.297	-0.152	-0.110
-650.814	-138.700	-0.182	0.020
-649.799	-200.000	-0.029	-0.304
-648.784	83.915	-0.152	-0.169
-647.770	800.000	0.008	0.028
-646.755	-110.927	-0.182	0.038
-645.741	400.485	0.090	-0.192
-644.726	-197.086	-0.373	0.002
-643.711	41.731	0.153	-0.142
-642.697	800.000	-0.043	-0.145
-641.682	146.614	-0.117	-0.160
-640.668	436.446	0.090	-0.199
-639.653	-200.000	0.033	-0.180
-638.638	263.513	0.169	-0.299
-637.624	-119.550	-0.123	0.022
-636.609	800.000	0.091	-0.321
-635.595	217.797	0.073	0.119
-634.580	566.434	0.199	0.492
-633.565	-16.106	0.139	-0.090
-632.551	221.533	0.053	0.086
-631.536	13.869	-0.208	-0.165
-630.522	-26.620	0.134	0.080
-629.507	-68.968	0.251	-0.098
-628.492	316.439	0.089	-0.171
-627.478	-42.800	-0.054	0.028
-626.463	150.247	-0.118	0.163
-625.449	327.660	-0.191	-0.373
-624.434	-200.000	0.002	-0.290
-623.419	45.702	-0.172	-0.162
-622.405	-117.808	0.150	0.027
-621.390	-72.463	-0.270	-0.102
-620.376	-200.000	-0.020	0.121
-619.361	-200.000	0.003	0.124
-618.346	-103.393	0.112	-0.027
-617.332	-200.000	0.283	-0.001
-616.317	277.785	0.065	0.117
-615.303	388.328	0.162	0.341
-614.288	-125.933	-0.136	0.021
-613.273	787.759	-0.076	0.213
-612.259	114.523	-0.033	-0.042
-611.244	-176.733	-0.057	0.001
-610.230	-200.000	0.089	0.481
-609.215	170.222	0.154	0.224
-608.201	-200.000	0.005	0.305
-607.186	308.796	0.230	0.437
-606.171	24.341	-0.306	0.258
-605.157	44.751	-0.263	-0.246
-604.142	-200.000	-0.000	-0.290
-603.128	-200.000	0.018	-0.098
-602.113	-200.000	-0.001	0.015
-601.098	-121.909	-0.156	0.026
-600.084	-200.000	-0.017	0.144
-599.069	20.362	-0.166	0.137
-598.055	627.401	0.011	-0.028
-597.040	800.000	0.082	-0.278
-596.025	317.581	-0.046	-0.088
-595.011	398.911	0.072	-0.154
-593.996	-62.927	0.108	0.046
-592.982	-101.415	-0.140	0.035
-591.967	-200.000	-0.030	0.174
-590.952	800.000	-0.063	-0.234
-589.938	-173.838	-0.318	-0.010
-588.923	-119.582	-0.073	0.013
-587.909	-200.000	0.058	0.380
-586.894	499.968	0.047	-0.109
-585.879	-200.000	-0.041	-0.378
-584.865	88.870	0.121	-0.137
-583.850	-200.000	-0.002	-0.065
-582.836	-69.777	0.116	0.045
-581.821	-66.627	0.100	0.040
-580.806	800.000	-0.019	-0.077
-579.792	-80.278	-0.119	0.041
-578.777	-96.690	-0.057	-0.015
-577.763	122.691	0.066	-0.083
-576.748	-77.830	0.084	-0.030
-575.733	529.847	-0.144	-0.345
-574.719	126.699	-0.126	0.162
-573.704	-119.591	-0.224	-0.039
-572.690	101.098	-0.205	-0.242
-571.675	21.907	0.162	-0.134
-570.661	-92.445	0.085	-0.024
-569.646	90.038	-0.200	0.228
-568.631	800.000	-0.145	0.430
-567.617	-68.651	-0.188	-0.074
-566.602	591.205	0.136	-0.341
-565.588	77.574	0.336	0.364
-564.573	-53.680	0.273	0.127
-563.558	-85.607	0.136	-0.043
-562.544	216.857	0.081	0.131
-561.529	-200.000	0.025	-0.132
-560.515	-96.382	-0.012	-0.003
-559.500	800.000	0.103	-0.360
-558.485	-90.617	0.288	-0.084
-557.471	-150.850	0.042	-0.003
-556.456	235.092	0.131	-0.220
-555.442	-104.613	-0.275	0.064
-554.427	-183.966	0.113	0.002
-553.412	800.000	-0.031	-0.117
-552.398	-200.000	-0.003	0.244
-551.383	-145.821	-0.234	0.021
-550.369	230.204	0.231	0.384
-549.354	-155.192	0.010	0.001
-548.339	-86.912	-0.072	-0.022
-547.325	10.735	0.227	0.176
-546.310	800.000	-0.055	-0.161
-545.296	-90.540	0.024	0.007
-544.281	-59.356	0.163	0.071
-543.266	549.198	-0.072	0.175
-542.252	-155.741	-0.222	0.014
-541.237	-200.000	-0.007	0.214
-540.223	-1.428	-0.070	0.050
-539.208	360.374	0.122	0.247
-538.193	51.240	-0.102	0.098
-537.179	-115.839	-0.025	-0.005
-536.164	-200.000	0.005	0.237
-535.150	468.140	0.092	-0.211
-534.135	800.000	-0.092	0.336
-533.121	-200.000	-0.013	-0.157
-532.106	-87.407	0.369	-0.113
-531.091	325.627	-0.187	-0.364
-530.077	-1.441	0.066	0.047
-529.062	118.173	-0.126	-0.157
-528.048	-200.000	0.065	-0.382
-527.033	27.234	0.196	-0.167
-526.018	-200.000	-0.039	-0.224
-525.004	-43.788	0.099	-0.051
-523.989	29.916	-0.110	-0.095
-522.975	-116.014	-0.223	-0.042
-521.960	192.237	-0.122	-0.186
-520.945	139.434	0.158	-0.211
-519.931	-38.068	-0.191	-0.103
-518.916	-89.300	-0.497	0.148
-517.902	800.000	0.107	0.321
-516.887	-7.593	-0.237	-0.163
-515.872	-123.518	0.296	-0.048
-514.858	83.957	0.133	0.147
-513.843	124.997	0.072	-0.092
-512.829	59.348	-0.118	-0.118
-511.814	434.182	-0.046	-0.101
-510.799	110.216	-0.154	-0.188
-509.785	-52.946	-0.316	-0.147
-508.770	-10.696	0.166	0.111
-507.756	-200.000	0.001	0.341
-506.741	773.469	0.178	0.491
-505.726	-17.353	-0.245	-0.157
-504.712	800.000	0.101	-0.423
-503.697	-176.396	-0.293	0.008
-502.683	-137.842	-0.037	-0.004
-501.668	-105.236	0.285	0.066
-500.653	-31.242	0.033	-0.019
-499.639	6.788	-0.148	0.111
-498.624	800.000	0.106	-0.341
-497.610	-63.291	-0.112	0.047
-496.595	474.149	0.046	0.106
-495.581	-13.366	0.483	-0.317
-494.566	-200.000	0.026	0.127
-493.551	-44.081	0.204	-0.104
-492.537	-200.000	-0.063	-0.279
-491.522	300.690	0.198	-0.370
-490.508	167.420	-0.065	-0.093
-489.493	145.029	0.217	0.294
-488.478	95.253	-0.178	0.206
-487.464	-22.421	-0.261	0.160
-486.449	-200.000	-0.037	0.220
-485.435	5.000	-0.289	0.215
-484.420	553.727	-0.031	-0.075
-483.405	315.085	-0.157	0.300
-482.391	143.716	0.254	-0.343
-481.376	73.554	0.049	-0.052
-480.362	-127.554	-0.185	0.027
-479.347	800.000	0.048	-0.158
-478.332	634.309	0.123	-0.317
-477.318	800.000	0.096	0.273
-476.303	-84.627	0.286	0.091
-475.289	462.367	0.142	0.320
-474.274	271.537	0.066	-0.117
-473.259	-98.132	-0.238	0.062
-472.245	379.788	0.198	0.411
-471.230	160.020	0.045	0.063
-470.216	-200.000	0.050	0.256
-469.201	179.794	-0.155	0.229
-468.186	720.198	-0.073	0.196
-467.172	800.000	0.071	0.209
-466.157	-200.000	-0.010	0.169
-465.143	-66.131	-0.158	0.064
-464.128	445.168	0.040	0.088
-463.113	-72.186	-0.179	-0.067
-462.099	254.285	0.060	0.104
-461.084	-23.164	0.301	-0.183
-460.070	354.105	0.138	0.277
-459.055	-8.610	0.188	-0.128
-458.040	354.125	-0.085	0.171
-457.026	-200.000	-0.020	0.181
-456.011	800.000	0.072	-0.287
-454.997	65.978	0.126	-0.129
-453.982	-133.657	0.295	0.037
-452.968	721.946	0.124	-0.333
-451.953	242.789	-0.084	-0.142
-450.938	-80.236	0.320	0.108
-449.924	-92.015	-0.385	-0.110
-448.909	-172.168	0.205	-0.007
-447.895	-106.333	-0.427	0.097
-446.880	205.182	-0.236	-0.370
-445.865	800.000	0.042	-0.121
-444.851	97.685	-0.147	0.171
-443.836	81.196	-0.247	-0.269
-442.822	-200.000	0.022	0.126
-441.807	-54.480	0.116	0.053
-440.792	569.874	-0.065	0.160
-439.778	-51.058	0.155	0.074
-438.763	162.249	-0.074	-0.105
-437.749	517.243	-0.065	0.153
-436.734	185.975	0.132	0.198
-435.719	-110.139	-0.183	0.039
-434.705	160.328	0.130	0.183
-433.690	8.428	0.170	0.130
-432.676	-104.289	0.212	-0.050
-431.661	-200.000	0.015	-0.076
-430.646	-183.977	-0.254	0.004
-429.632	5.708	-0.202	0.151
-428.617	-200.000	-0.030	-0.138
-427.603	109.346	0.059	-0.072
-426.588	211.054	-0.111	0.177
-425.573	27.684	-0.063	-0.053
-424.559	-130.225	0.067	0.009
-423.544	-121.202	-0.069	0.012
-422.530	56.321	0.170	-0.167
-421.515	169.108	-0.297	-0.429
-420.500	-200.000	0.001	-0.136
-419.486	-101.446	0.117	-0.029
-418.471	-176.642	-0.184	0.005
-417.457	146.477	-0.021	0.028
-416.442	0.704	-0.382	0.276
-415.428	-101.701	0.231	-0.057
-414.413	-86.385	-0.300	-0.093
-413.398	-92.457	0.183	0.052
-412.384	67.878	0.173	-0.178
-411.369	255.623	0.131	-0.227
-410.355	354.082	-0.066	-0.133
-409.340	800.000	0.023	0.093
-408.325	666.726	-0.079	0.207
-407.311	33.178	0.267	-0.233
-406.296	-24.852	-0.323	0.194
-405.282	-40.352	-0.109	-0.057
-404.267	141.875	0.066	0.088
-403.252	4.261	-0.366	0.271
-402.238	-56.862	-0.320	-0.143
-401.223	402.131	-0.170	-0.360
-400.209	-200.000	-0.012	0.127
-399.194	25.017	-0.174	0.145
-398.179	-111.999	0.321	0.065
-397.165	-99.859	0.237	0.060
-396.150	-58.611	-0.278	0.122
-395.136	16.206	-0.308	-0.245
-394.121	282.826	-0.059	0.106
-393.106	-104.357	-0.097	0.023
-392.092	-200.000	-0.002	-0.272
-391.077	59.168	0.226	0.224
-390.063	600.594	0.076	0.189
-389.048	-200.000	0.005	0.066
-388.033	-92.510	-0.098	0.028
-387.019	-107.188	-0.288	-0.064
-386.004	145.307	-0.194	-0.262
-384.990	-200.000	-0.017	-0.113
-383.975	-200.000	-0.031	0.211
-382.960	306.087	0.149	0.280
-381.946	11.145	0.056	-0.043
-380.931	10.948	-0.066	0.051
-379.917	-155.899	0.238	-0.015
-378.902	800.000	-0.065	0.279
-377.888	-94.933	0.234	0.064
-376.873	-200.000	-0.041	0.254
-375.858	417.346	0.081	-0.175
-374.844	-50.745	-0.080	0.038
-373.829	-200.000	-0.034	0.174
-372.815	-68.872	0.102	0.040
-371.800	-71.505	-0.056	-0.021
-370.785	800.000	0.070	0.197
-369.771	-68.055	0.269	0.106
-368.756	224.201	-0.108	-0.176
-367.742	-11.152	0.196	-0.130
-366.727	-61.125	-0.277	0.118
-365.712	-200.000	0.020	0.375
-364.698	-200.000	-0.003	0.226
-363.683	485.874	0.029	0.066
-362.669	-183.294	0.147	-0.003
-361.654	-200.000	0.043	-0.216
-360.639	800.000	0.116	0.390
-359.625	239.879	0.118	0.198
-358.610	-46.656	-0.185	0.091
-357.596	-17.721	-0.163	-0.103
-356.581	-200.000	-0.020	-0.212
-355.566	7.143	-0.192	-0.144
-354.552	-200.000	-0.015	-0.160
-353.537	-200.000	-0.007	-0.056
-352.523	-71.985	-0.416	0.156
-351.508	-8.546	-0.091	0.062
-350.493	16.812	0.149	0.119
-349.479	800.000	0.049	0.184
-348.464	71.668	-0.099	0.103
-347.450	-184.891	-0.316	-0.005
-346.435	63.509	0.067	0.067
-345.420	16.244	0.068	0.054
-344.406	-21.967	0.318	-0.195
-343.391	800.000	-0.003	-0.014
-342.377	311.376	0.191	-0.361
-341.362	-2.936	0.153	0.107
-340.348	-33.517	-0.163	-0.091
-339.333	-55.066	0.076	-0.035
-338.318	800.000	-0.048	-0.148
-337.304	645.381	-0.085	-0.219
-336.289	-34.997	0.174	0.096
-335.275	17.707	0.199	-0.160
-334.260	-200.000	0.029	0.171
-333.245	800.000	0.076	-0.222
-332.231	346.721	0.037	-0.073
-331.216	262.371	0.217	0.379
-330.202	-127.881	0.143	0.021
-329.187	-1.519	-0.157	0.111
-328.172	68.926	-0.275	0.285
-327.158	-82.229	0.035	-0.011
-326.143	-94.658	0.038	0.010
-325.129	153.753	-0.070	-0.097
-324.114	47.555	0.083	0.077
-323.099	-150.728	0.388	-0.030
-322.085	81.786	0.239	0.260
-321.070	85.231	-0.134	-0.148
-320.056	800.000	0.020	0.057
-319.041	-171.875	-0.213	-0.007
-318.026	-69.985	0.221	-0.085
-317.012	180.301	0.153	-0.226
-315.997	-200.000	0.021	-0.175
-314.983	475.578	0.195	0.444
-313.968	-200.000	0.145	0.001
-312.953	-77.316	0.217	0.076
-311.939	607.826	-0.122	0.306
-310.924	89.301	-0.045	0.051
-309.910	138.281	0.021	0.028
-308.895	-200.000	-0.027	0.330
-307.880	-120.058	0.170	0.029
-306.866	-102.233	0.178	-0.043
-305.851	-58.780	-0.079	0.034
-304.837	-44.078	-0.379	0.191
-303.822	-70.191	0.070	0.027
-302.807	-75.771	0.488	-0.174
-301.793	73.903	-0.261	-0.275
-300.778	59.962	-0.227	-0.226
-299.764	271.532	0.038	-0.066
-298.749	-133.169	0.153	0.019
-297.735	-92.618	0.164	-0.046
-296.720	-145.817	0.173	-0.015
-295.705	61.719	0.297	-0.297
-294.691	1.774	0.323	0.234
-293.676	-44.199	0.198	0.100
-292.662	-200.000	0.001	-0.269
-291.647	-124.117	-0.319	-0.050
-290.632	-120.657	-0.136	0.023
-289.618	-200.000	0.024	-0.253
-288.603	-34.015	-0.130	0.072
-287.589	252.226	0.167	0.285
-286.574	-142.959	0.267	0.026
-285.559	-57.186	0.134	-0.059
-284.545	-80.260	-0.085	0.029
-283.530	139.218	-0.116	0.154
-282.516	800.000	-0.053	-0.168
-281.501	201.459	0.142	-0.220
-280.486	503.547	0.037	0.086
-279.472	-75.029	-0.333	-0.120
-278.457	-200.000	-0.030	0.354
-277.443	-100.787	-0.075	-0.019
-276.428	-143.452	0.161	0.015
-275.413	-33.697	-0.304	0.168
-274.399	-80.982	-0.103	-0.034
-273.384	187.555	-0.019	0.029
-272.370	-200.000	-0.061	0.292
-271.355	122.153	0.191	0.239
-270.340	800.000	-0.093	0.281
-269.326	-200.000	-0.009	0.283
-268.311	-37.740	0.208	-0.111
-267.297	-16.234	-0.095	-0.060
-266.282	800.000	0.099	-0.314
-265.267	-65.501	0.291	0.117
-264.253	128.703	0.074	0.095
-263.238	-41.092	0.106	0.055
-262.224	16.151	0.061	0.048
-261.209	79.249	0.062	-0.067
-260.195	-116.998	-0.262	0.048
-259.180	-38.994	0.294	-0.155
-258.165	165.828	-0.074	0.105
-257.151	-200.000	-0.039	-0.232
-256.136	800.000	0.036	0.153
-255.122	-149.728	-0.219	-0.017
-254.107	-152.932	0.136	-0.010
-253.092	80.312	-0.257	-0.278
-252.078	-171.134	-0.162	-0.005
-251.063	14.272	0.108	0.084
-250.049	65.607	-0.199	-0.202
-249.034	-87.210	-0.359	0.109
-248.019	39.618	-0.154	-0.139
-247.005	514.329	0.113	-0.264
-245.990	-25.615	-0.244	-0.144
-244.976	-38.416	-0.182	-0.096
-243.961	54.653	-0.179	0.173
-242.946	533.515	0.065	-0.154
-241.932	-2.539	-0.155	0.109
-240.917	800.000	0.076	-0.286
-239.903	-43.371	-0.258	-0.131
-238.888	-43.534	-0.066	-0.033
-237.873	441.323	-0.059	0.130
-236.859	289.303	0.123	-0.223
-235.844	-77.899	-0.205	0.071
-234.830	206.894	0.080	0.125
-233.815	127.708	0.277	-0.353
-232.800	-200.000	0.030	0.157
-231.786	-82.738	-0.278	0.090
-230.771	-135.387	-0.343	0.041
-229.757	342.955	0.093	0.182
-228.742	634.762	0.104	0.264
-227.727	392.959	0.113	-0.236
-226.713	-54.753	-0.099	0.045
-225.698	152.551	-0.192	-0.264
-224.684	-139.640	-0.300	0.032
-223.669	800.000	-0.116	-0.392
-222.655	123.438	-0.192	-0.241
-221.640	-124.415	-0.252	-0.039
-220.625	12.678	0.116	0.090
-219.611	800.000	-0.135	-0.525
-218.596	-200.000	0.019	0.087
-217.582	-200.000	-0.002	-0.028
-216.567	-137.399	0.198	-0.023
-215.552	-200.000	-0.032	-0.180
-214.538	-141.291	0.106	-0.011
-213.523	800.000	-0.030	0.087
-212.509	31.905	0.210	0.181
-211.494	-107.593	-0.280	-0.061
-210.479	377.821	0.105	-0.215
-209.465	-88.218	0.156	0.047
-208.450	-200.000	0.021	0.194
-207.436	-141.615	-0.138	0.014
-206.421	96.988	-0.052	-0.060
-205.406	56.492	-0.249	0.243
-204.392	-107.163	0.310	0.069
-203.377	-42.614	0.208	-0.106
-202.363	-200.000	0.072	-0.363
-201.348	8.332	0.196	0.147
-200.333	800.000	0.043	-0.138
-199.319	-102.300	-0.330	0.079
-198.304	63.552	-0.231	-0.232
-197.290	-2.488	-0.140	-0.098
-196.275	33.320	0.260	-0.226
-195.260	-191.090	-0.100	0.001
-194.246	408.994	-0.175	0.372
-193.231	-160.823	-0.258	0.014
-192.217	-101.968	-0.065	0.016
-191.202	-168.836	0.095	-0.004
-190.187	-164.538	0.132	-0.006
-189.173	-50.011	0.240	0.114
-188.158	-42.299	0.254	0.130
-187.144	89.658	0.232	-0.259
-186.129	359.374	0.028	-0.057
-185.114	-98.341	0.253	-0.065
-184.100	3.981	0.098	0.072
-183.085	-34.710	-0.116	0.063
-182.071	184.794	0.162	0.240
-181.056	-126.865	-0.109	-0.016
-180.042	256.377	-0.022	-0.037
-179.027	-42.446	0.396	-0.202
-178.012	5.660	0.099	-0.073
-176.998	-41.105	0.081	0.042
-175.983	-122.099	0.223	0.037
-174.969	150.000	0.178	-0.242
-173.954	-97.012	0.198	0.052
-172.939	4.170	0.139	0.102
-171.925	-200.000	0.045	-0.232
-170.910	800.000	0.075	0.253
-169.896	-100.577	-0.217	-0.054
-168.881	210.071	0.221	0.347
-167.866	-147.625	0.087	-0.007
-166.852	800.000	0.078	-0.266
-165.837	-200.000	-0.064	0.302
-164.823	-110.609	0.082	-0.017
-163.808	800.000	-0.082	0.325
-162.793	-200.000	0.003	0.039
-161.779	-32.656	-0.114	-0.063
-160.764	186.850	-0.055	-0.083
-159.750	-24.734	-0.057	-0.034
-158.735	-22.894	0.114	0.069
-157.720	-90.728	0.196	-0.057
-156.706	-29.914	-0.211	-0.120
-155.691	-200.000	0.008	-0.119
-154.677	-2.636	-0.317	0.222
-153.662	21.289	-0.130	-0.105
-152.647	7.286	0.038	-0.028
-151.633	53.225	-0.101	0.097
-150.618	-200.000	0.050	0.264
-149.604	13.784	0.146	0.113
-148.589	-50.899	0.330	-0.155
-147.574	-93.771	-0.141	-0.039
-146.560	800.000	0.043	-0.131
-145.545	-138.924	-0.236	-0.026
-144.531	800.000	0.109	-0.451
-143.516	35.446	-0.018	0.016
-142.502	-200.000	0.064	-0.330
-141.487	-80.996	-0.020	0.007
-140.472	279.082	-0.185	0.329
-139.458	195.535	-0.086	-0.131
-138.443	800.000	0.116	-0.321
-137.429	139.080	0.086	0.112
-136.414	800.000	-0.057	-0.196
-135.399	58.556	0.163	-0.159
-134.385	321.546	0.038	-0.073
-133.370	-38.895	-0.193	0.102
-132.356	268.504	0.035	0.061
-131.341	114.732	-0.105	0.128
-130.326	-23.457	-0.139	0.083
-129.312	-99.772	-0.201	-0.050
-128.297	261.307	-0.132	0.228
-127.283	-200.000	0.063	0.371
-126.268	60.033	0.203	0.200
-125.253	-52.394	-0.195	0.090
-124.239	318.552	0.034	0.064
-123.224	205.473	-0.080	0.125
-122.210	626.032	0.105	0.264
-121.195	-114.762	0.134	-0.026
