DTS Sentinel unit serial number:	SN413079Multiplexer serial number:	ORYXHardware model number:	OX4-SRSoftware version number:	ORYX F/W v4.00 Oryx Data Collector v3.7.2.0data status	okinstallation	princeton_trtdifferential loss correction	single-endedforward channel	channel 1reverse channel	N/Adate	2019/09/15time	01:26:35forward acquisition time	60.00reverse acquisition time	0.00gamma	496.2192k internal	0.2321k external	0.2321temperature offset calibration	0.9982default loss term (dB/km)	0.3790temperature slope calibration	1.0000multiplexer offset coefficient	1.0000multiplexer slope coefficient	1.0000fibre end	0.00T internal ref (°C)	31.91T ext. ref 1 (°C)	4.49T ext. ref 2 (°C)	26.75length (m)	temperature (°C)	Stokes	anti-Stokes-747.200	-200.000	-0.006	-0.125
-746.185	-41.946	-0.253	-0.131
-745.171	2.927	0.206	0.151
-744.156	464.950	0.087	0.196
-743.142	-200.000	-0.022	0.108
-742.127	175.338	-0.101	-0.148
-741.112	367.069	-0.125	-0.255
-740.098	170.848	0.115	0.167
-739.083	-133.896	0.229	-0.029
-738.069	216.873	-0.259	0.416
-737.054	275.057	-0.084	0.150
-736.039	205.980	-0.175	-0.275
-735.025	-200.000	-0.009	0.235
-734.010	-200.000	0.027	-0.244
-732.996	359.440	0.123	0.248
-731.981	-44.270	-0.405	-0.205
-730.966	-66.933	-0.328	0.131
-729.952	281.709	-0.165	0.298
-728.937	800.000	0.071	-0.268
-727.923	21.763	-0.220	-0.181
-726.908	-100.181	-0.180	0.045
-725.894	21.978	-0.079	-0.065
-724.879	-129.385	-0.508	-0.071
-723.864	-26.262	0.139	0.082
-722.850	-69.215	-0.276	-0.107
-721.835	-45.842	-0.147	0.073
-720.821	125.947	0.069	-0.088
-719.806	-158.416	-0.312	-0.018
-718.791	800.000	0.097	-0.389
-717.777	331.343	0.081	-0.157
-716.762	800.000	-0.091	0.356
-715.748	-105.704	0.052	0.012
-714.733	-120.755	0.104	0.018
-713.718	-82.328	0.264	0.087
-712.704	117.737	-0.327	0.406
-711.689	619.296	-0.082	0.208
-710.675	-200.000	-0.009	-0.127
-709.660	-122.989	0.109	0.018
-708.645	33.983	-0.142	0.125
-707.631	-99.319	0.350	-0.089
-706.616	800.000	-0.033	0.140
-705.602	-104.696	0.294	0.068
-704.587	293.060	-0.165	-0.304
-703.572	53.750	0.225	-0.218
-702.558	800.000	-0.060	-0.178
-701.543	-91.918	0.087	0.025
-700.529	-119.905	-0.518	-0.090
-699.514	800.000	0.047	0.131
-698.499	-200.000	0.027	-0.121
-697.485	-171.076	-0.422	0.014
-696.470	229.288	-0.083	-0.137
-695.456	-200.000	0.021	-0.372
-694.441	-200.000	0.023	0.122
-693.426	-91.296	0.044	-0.013
-692.412	800.000	-0.038	0.128
-691.397	730.814	-0.041	0.111
-690.383	702.887	-0.026	-0.069
-689.368	347.980	0.069	0.137
-688.354	-200.000	-0.029	-0.132
-687.339	358.451	0.021	-0.042
-686.324	-20.860	-0.261	-0.161
-685.310	778.407	0.055	-0.151
-684.295	185.611	-0.055	-0.083
-683.281	404.301	-0.063	0.133
-682.266	-200.000	-0.041	0.205
-681.251	-52.720	0.210	0.097
-680.237	800.000	0.080	-0.237
-679.222	165.896	-0.117	0.167
-678.208	-200.000	0.021	-0.313
-677.193	-104.100	0.177	-0.042
-676.178	-200.000	0.041	0.194
-675.164	800.000	0.062	-0.239
-674.149	-200.000	-0.027	0.310
-673.135	45.267	-0.285	-0.265
-672.120	-58.069	0.155	0.068
-671.105	-146.507	-0.386	-0.034
-670.091	98.870	-0.176	0.204
-669.076	-69.181	0.250	0.097
-668.062	-151.088	0.117	-0.009
-667.047	-200.000	0.036	-0.367
-666.032	1.465	0.077	0.056
-665.018	-14.549	0.128	-0.083
-664.003	-188.646	-0.208	-0.003
-662.989	79.089	0.150	-0.162
-661.974	4.059	0.296	0.218
-660.959	-200.000	-0.057	0.273
-659.945	-82.877	-0.307	-0.100
-658.930	242.683	0.194	0.327
-657.916	-163.314	0.384	-0.018
-656.901	-9.086	0.154	-0.104
-655.886	-53.240	-0.246	-0.114
-654.872	279.306	0.174	0.312
-653.857	369.947	0.117	-0.239
-652.843	-1.106	-0.202	-0.144
-651.828	500.752	-0.081	0.189
-650.814	-200.000	-0.047	0.250
-649.799	-200.000	-0.002	-0.311
-648.784	389.122	0.031	-0.065
-647.770	-66.942	-0.188	-0.075
-646.755	382.745	0.102	0.212
-645.741	-25.871	-0.438	-0.260
-644.726	-200.000	-0.002	-0.088
-643.711	91.520	0.190	0.215
-642.697	647.412	0.065	0.167
-641.682	191.325	-0.245	0.372
-640.668	800.000	0.062	0.242
-639.653	-102.072	0.133	-0.032
-638.638	83.662	0.244	0.268
-637.624	742.264	0.054	-0.147
-636.609	-200.000	-0.008	-0.251
-635.595	41.396	0.264	0.240
-634.580	502.311	0.068	0.158
-633.565	-82.534	-0.138	-0.045
-632.551	756.872	0.070	-0.190
-631.536	-69.728	-0.220	-0.085
-630.522	-34.948	0.200	-0.110
-629.507	507.275	-0.014	0.033
-628.492	118.292	0.249	-0.309
-627.478	247.497	-0.128	-0.217
-626.463	-75.903	0.131	-0.047
-625.449	464.240	0.165	0.371
-624.434	800.000	-0.073	0.292
-623.419	-105.867	-0.400	0.091
-622.405	-169.193	-0.143	-0.005
-621.390	102.518	0.140	0.165
-620.376	17.713	-0.084	0.067
-619.361	279.087	-0.018	0.033
-618.346	302.394	0.145	-0.270
-617.332	-91.369	-0.197	-0.057
-616.317	-57.060	-0.163	-0.072
-615.303	800.000	-0.084	0.249
-614.288	-66.179	-0.164	0.066
-613.273	65.087	-0.158	-0.161
-612.259	179.694	0.123	-0.180
-611.244	-194.541	-0.197	0.002
-610.230	-9.520	0.033	-0.022
-609.215	645.718	-0.129	-0.332
-608.201	-200.000	0.043	0.221
-607.186	-124.432	0.180	0.028
-606.171	800.000	0.028	-0.113
-605.157	-63.100	0.386	0.160
-604.142	-71.644	0.179	-0.067
-603.128	-97.422	-0.162	-0.042
-602.113	2.549	0.084	-0.061
-601.098	127.581	0.089	-0.113
-600.084	-114.806	0.032	-0.006
-599.069	0.421	-0.292	-0.209
-598.055	-200.000	-0.057	-0.272
-597.040	51.833	0.119	0.114
-596.025	-200.000	-0.004	-0.078
-595.011	-200.000	0.003	0.103
-593.996	70.343	-0.252	-0.262
-592.982	5.433	-0.036	0.026
-591.967	780.159	0.076	0.209
-590.952	618.990	0.064	0.162
-589.938	-61.605	-0.377	0.159
-588.923	-120.608	0.391	0.066
-587.909	-88.924	0.105	0.031
-586.894	70.360	-0.114	0.118
-585.879	10.220	-0.170	0.130
-584.865	800.000	-0.061	-0.208
-583.850	35.262	-0.460	0.405
-582.836	-117.443	-0.049	-0.009
-581.821	-72.420	0.291	-0.108
-580.806	88.048	0.042	-0.046
-579.792	203.650	0.103	-0.160
-578.777	-102.214	-0.324	0.078
-577.763	-144.360	0.099	0.009
-576.748	-6.164	-0.223	-0.153
-575.733	-176.006	-0.200	-0.005
-574.719	-107.157	-0.097	-0.021
-573.704	-56.666	-0.121	0.054
-572.690	49.024	0.255	-0.240
-571.675	800.000	-0.058	0.189
-570.661	531.077	-0.010	-0.023
-569.646	-200.000	-0.014	-0.239
-568.631	-28.101	-0.278	0.162
-567.617	-14.738	0.079	0.051
-566.602	-140.562	-0.132	0.014
-565.588	-66.162	0.149	0.060
-564.573	-148.984	-0.293	-0.024
-563.558	-170.690	0.325	-0.011
-562.544	332.356	-0.096	-0.187
-561.529	96.250	-0.132	-0.151
-560.515	75.969	0.140	-0.149
-559.500	240.811	0.025	0.042
-558.485	-58.524	-0.131	0.057
-557.471	-128.242	0.414	0.059
-556.456	-25.336	0.039	0.023
-555.442	-37.742	0.226	0.121
-554.427	120.796	-0.220	0.274
-553.412	517.893	-0.054	0.127
-552.398	64.329	0.074	0.075
-551.383	274.041	-0.044	0.078
-550.369	-76.176	-0.255	-0.090
-549.354	179.659	0.025	0.037
-548.339	-28.436	0.160	-0.093
-547.325	104.570	-0.115	0.136
-546.310	-42.836	0.122	0.062
-545.296	15.962	0.201	0.159
-544.281	-194.629	0.255	0.002
-543.266	-7.597	-0.262	0.178
-542.252	7.190	-0.429	-0.321
-541.237	-35.889	-0.284	-0.154
-540.223	-151.933	-0.112	-0.008
-539.208	-85.196	0.066	-0.021
-538.193	800.000	0.012	0.047
-537.179	-30.394	0.111	0.063
-536.164	-44.060	-0.199	-0.100
-535.150	-63.843	-0.294	0.121
-534.135	-200.000	0.001	0.208
-533.121	-61.919	0.203	-0.085
-532.106	-92.783	0.281	0.079
-531.091	-119.789	-0.228	0.039
-530.077	268.034	0.056	-0.099
-529.062	13.832	-0.108	0.084
-528.048	-114.592	-0.226	0.043
-527.033	61.028	0.113	-0.113
-526.018	-188.983	-0.118	0.001
-525.004	-84.686	-0.182	-0.057
-523.989	-112.813	0.182	-0.036
-522.975	-119.817	-0.104	0.018
-521.960	-200.000	-0.008	0.094
-520.945	-116.901	-0.422	0.077
-519.931	-33.038	0.178	-0.099
-518.916	27.835	-0.075	0.063
-517.902	237.725	-0.186	0.309
-516.887	-32.313	0.268	-0.150
-515.872	-77.962	0.308	-0.106
-514.858	171.332	0.184	0.264
-513.843	-49.134	0.398	-0.191
-512.829	800.000	0.071	-0.279
-511.814	-200.000	0.032	0.178
-510.799	774.153	0.056	-0.153
-509.785	-120.983	0.107	0.018
-508.770	172.959	-0.091	-0.132
-507.756	73.193	0.104	0.109
-506.741	-47.218	-0.144	-0.070
-505.726	20.453	-0.095	-0.077
-504.712	-7.030	0.195	0.133
-503.697	-63.002	0.328	0.136
-502.683	800.000	0.036	0.142
-501.668	-123.180	0.216	0.035
-500.653	800.000	0.034	-0.101
-499.639	409.938	0.187	-0.396
-498.624	-33.913	-0.420	0.232
-497.610	-200.000	-0.020	0.264
-496.595	-200.000	0.001	-0.017
-495.581	-125.132	0.173	-0.027
-494.566	374.635	0.040	0.081
-493.551	-164.482	0.628	0.029
-492.537	656.817	-0.105	0.269
-491.522	27.694	0.276	0.233
-490.508	331.760	-0.062	0.119
-489.493	-200.000	0.019	-0.100
-488.478	616.726	-0.076	-0.191
-487.464	800.000	0.040	-0.149
-486.449	29.490	0.173	-0.147
-485.435	-133.297	-0.325	0.041
-484.420	-9.257	-0.265	-0.177
-483.405	-200.000	-0.019	-0.141
-482.391	-200.000	-0.081	0.405
-481.376	114.779	0.094	-0.115
-480.362	533.059	-0.029	-0.068
-479.347	123.235	-0.213	0.267
-478.332	800.000	-0.018	0.051
-477.318	45.184	-0.118	0.109
-476.303	92.199	0.013	-0.014
-475.289	-200.000	-0.001	0.254
-474.274	137.542	-0.076	-0.100
-473.259	-200.000	-0.035	-0.206
-472.245	510.152	-0.092	0.214
-471.230	36.061	-0.189	-0.166
-470.216	-200.000	-0.004	0.097
-469.201	-83.104	0.319	-0.103
-468.186	159.204	-0.242	0.337
-467.172	-182.373	-0.284	-0.005
-466.157	205.822	0.128	0.198
-465.143	-200.000	0.020	-0.301
-464.128	142.735	-0.105	0.139
-463.113	-101.695	0.160	-0.039
-462.099	-200.000	-0.035	-0.248
-461.084	354.162	0.128	0.254
-460.070	800.000	-0.018	0.051
-459.055	-126.733	-0.089	-0.013
-458.040	278.889	-0.148	-0.264
-457.026	37.818	0.139	0.123
-456.011	322.176	-0.133	0.252
-454.997	-149.627	-0.210	0.017
-453.982	-23.096	0.229	0.138
-452.968	516.970	-0.064	-0.149
-451.953	-31.472	0.252	0.141
-450.938	-41.808	-0.164	0.084
-449.924	3.552	0.299	-0.218
-448.909	-131.580	-0.094	0.012
-447.895	608.389	0.096	-0.240
-446.880	800.000	0.059	-0.259
-445.865	-200.000	-0.013	-0.308
-444.851	-200.000	-0.014	0.081
-443.836	203.058	0.205	-0.317
-442.822	-74.246	0.261	0.094
-441.807	324.263	-0.048	0.091
-440.792	-113.588	0.128	0.025
-439.778	325.262	-0.148	0.282
-438.763	-200.000	0.048	-0.212
-437.749	-31.588	0.268	-0.150
-436.734	69.971	0.113	0.117
-435.719	35.369	-0.187	-0.164
-434.705	214.901	0.074	0.117
-433.690	418.353	-0.074	-0.157
-432.676	324.667	0.080	-0.152
-431.661	63.129	0.226	0.226
-430.646	800.000	0.022	0.079
-429.632	-87.736	0.433	-0.130
-428.617	-135.375	-0.327	-0.039
-427.603	107.891	-0.039	-0.046
-426.588	379.615	0.018	-0.037
-425.573	47.986	0.181	-0.169
-424.559	-65.102	-0.154	0.062
-423.544	-86.526	0.370	-0.113
-422.530	-54.010	-0.561	0.255
-421.515	-196.039	0.039	-0.000
-420.500	137.962	0.207	-0.270
-419.486	-200.000	0.030	-0.239
-418.471	607.437	-0.096	-0.238
-417.457	195.446	-0.119	0.181
-416.442	-143.607	-0.168	-0.016
-415.428	282.667	0.211	-0.378
-414.413	-48.024	-0.090	0.043
-413.398	-82.779	-0.154	0.050
-412.384	-145.694	-0.198	-0.018
-411.369	-134.273	-0.263	0.032
-410.355	-141.395	-0.430	-0.043
-409.340	29.109	0.309	-0.261
-408.325	-200.000	-0.041	-0.201
-407.311	-115.311	0.285	-0.054
-406.296	-200.000	0.062	0.303
-405.282	76.056	-0.167	0.176
-404.267	-200.000	0.017	0.154
-403.252	253.321	0.080	0.136
-402.238	116.712	-0.040	-0.050
-401.223	-14.112	0.058	0.037
-400.209	76.896	0.266	-0.282
-399.194	-146.664	-0.390	-0.034
-398.179	240.580	0.062	0.104
-397.165	-25.614	-0.119	0.070
-396.150	-103.421	-0.399	-0.094
-395.136	89.282	0.269	0.299
-394.121	-64.858	-0.055	-0.022
-393.106	112.986	-0.229	0.277
-392.092	312.364	0.205	-0.384
-391.077	70.191	0.187	-0.192
-390.063	236.573	-0.144	-0.238
-389.048	359.864	-0.183	-0.365
-388.033	-100.109	-0.086	0.021
-387.019	19.110	0.136	-0.108
-386.004	-88.184	0.198	-0.059
-384.990	102.965	0.159	-0.186
-383.975	-26.226	0.178	-0.104
-382.960	-46.704	-0.178	0.087
-381.946	126.493	-0.093	-0.117
-380.931	295.937	-0.134	0.244
-379.917	-200.000	0.040	-0.203
-378.902	70.358	0.011	0.011
-377.888	24.492	-0.409	0.337
-376.873	7.017	-0.221	-0.164
-375.858	73.647	0.190	-0.199
-374.844	128.652	0.096	0.121
-373.829	800.000	0.073	0.252
-372.815	-155.470	0.092	-0.006
-371.800	-81.236	0.101	-0.033
-370.785	-79.088	-0.064	-0.022
-369.771	160.097	-0.227	-0.315
-368.756	-200.000	0.046	-0.348
-367.742	-156.385	-0.242	0.015
-366.727	453.504	-0.124	0.273
-365.712	-200.000	-0.367	0.000
-364.698	800.000	-0.074	0.279
-363.683	437.993	-0.236	0.511
-362.669	-42.250	0.015	-0.008
-361.654	-34.786	-0.230	-0.125
-360.639	-154.434	-0.049	0.003
-359.625	-200.000	-0.037	-0.255
-358.610	168.912	0.025	0.035
-357.596	399.216	-0.024	0.049
-356.581	328.107	0.018	-0.035
-355.566	-200.000	-0.031	0.288
-354.552	-200.000	0.048	0.227
-353.537	800.000	-0.014	0.044
-352.523	125.106	-0.179	0.225
-351.508	-60.341	0.309	0.131
-350.493	225.184	-0.085	0.137
-349.479	423.442	0.150	-0.322
-348.464	-140.113	0.289	0.030
-347.450	-200.000	0.024	-0.210
-346.435	-200.000	0.107	-0.525
-345.420	-163.948	-0.130	0.006
-344.406	-32.722	-0.172	-0.095
-343.391	35.849	0.044	-0.039
-342.377	79.714	0.046	0.049
-341.362	106.889	0.147	-0.173
-340.348	800.000	-0.040	0.129
-339.333	-21.028	-0.134	0.082
-338.318	-35.941	-0.090	0.049
-337.304	-25.461	-0.142	-0.084
-336.289	518.288	-0.206	-0.479
-335.275	-98.450	0.180	0.046
-334.260	31.218	-0.231	-0.198
-333.245	159.110	0.198	-0.274
-332.231	-200.000	0.020	-0.133
-331.216	-8.638	-0.299	-0.199
-330.202	-20.043	-0.181	0.111
-329.187	-84.400	0.202	-0.063
-328.172	190.770	-0.198	-0.296
-327.158	239.541	-0.063	0.104
-326.143	-171.094	0.114	-0.004
-325.129	-200.000	0.004	-0.452
-324.114	-96.080	-0.405	0.107
-323.099	519.345	-0.145	-0.337
-322.085	-48.306	-0.243	0.116
-321.070	-200.000	0.613	-0.000
-320.056	52.471	-0.160	-0.152
-319.041	154.045	0.164	0.224
-318.026	-169.837	0.174	-0.006
-317.012	-191.540	-0.083	0.001
-315.997	226.221	0.129	-0.208
-314.983	381.549	0.056	-0.115
-313.968	103.758	-0.266	-0.311
-312.953	800.000	0.091	-0.300
-311.939	35.318	0.315	-0.274
-310.924	-200.000	-0.007	0.141
-309.910	-53.965	0.110	-0.050
-308.895	86.225	0.295	0.322
-307.880	-148.609	0.248	0.020
-306.866	132.610	0.071	-0.091
-305.851	-107.813	0.096	0.021
-304.837	-72.931	-0.317	0.116
-303.822	-82.740	-0.200	0.064
-302.807	113.851	-0.060	0.072
-301.793	409.592	0.123	0.259
-300.778	-200.000	-0.027	0.207
-299.764	97.274	0.172	0.196
-298.749	-200.000	-0.044	0.284
-297.735	104.852	-0.109	0.127
-296.720	37.102	-0.211	-0.186
-295.705	-90.741	0.182	-0.052
-294.691	-39.955	0.137	-0.071
-293.676	28.563	0.190	-0.159
-292.662	330.340	0.040	-0.076
-291.647	-120.408	-0.110	0.019
-290.632	-144.360	0.328	0.030
-289.618	11.448	-0.207	-0.157
-288.603	-78.760	0.442	0.150
-287.589	193.924	0.018	-0.027
-286.574	-21.195	-0.161	0.098
-285.559	-80.904	-0.114	0.038
-284.545	-108.134	-0.052	0.011
-283.530	111.326	-0.092	-0.110
-282.516	23.809	0.253	0.207
-281.501	-75.249	0.136	-0.048
-280.486	-200.000	0.009	-0.127
-279.472	800.000	-0.075	-0.291
-278.457	512.842	-0.069	0.160
-277.443	-200.000	-0.013	0.097
-276.428	47.483	0.226	0.209
-275.413	-200.000	0.045	0.250
-274.399	-73.620	-0.141	0.051
-273.384	-120.866	-0.157	-0.026
-272.370	-180.282	0.176	0.004
-271.355	-200.000	0.001	-0.310
-270.340	-200.000	0.051	0.240
-269.326	187.642	-0.125	-0.185
-268.311	-75.588	-0.062	0.022
-267.297	284.145	0.092	-0.165
-266.282	-124.887	0.289	-0.044
-265.267	800.000	0.088	-0.291
-264.253	535.674	0.063	0.149
-263.238	37.990	-0.127	-0.112
-262.224	-12.589	0.135	0.087
-261.209	800.000	0.082	0.242
-260.195	250.899	0.047	0.080
-259.180	-177.321	-0.122	0.003
-258.165	232.591	0.089	-0.145
-257.151	48.598	0.044	0.041
-256.136	-200.000	-0.018	-0.120
-255.122	-200.000	0.018	-0.230
-254.107	26.656	0.164	0.136
-253.092	742.946	-0.131	0.348
-252.078	800.000	0.010	0.042
-251.063	1.124	-0.319	-0.227
-250.049	-200.000	-0.009	0.165
-249.034	800.000	0.054	0.222
-248.019	232.380	-0.209	0.340
-247.005	0.439	0.071	-0.050
-245.990	-133.677	0.090	0.011
-244.976	-77.187	-0.450	-0.155
-243.961	-200.000	-0.037	0.176
-242.946	800.000	-0.071	0.235
-241.932	-200.000	-0.043	0.207
-240.917	800.000	0.067	0.260
-239.903	-121.647	0.108	0.018
-238.888	-200.000	-0.021	0.148
-237.873	-120.166	-0.099	0.017
-236.859	-48.602	-0.134	0.064
-235.844	82.775	-0.205	0.221
-234.830	186.587	0.093	-0.137
-233.815	-200.000	0.001	0.366
-232.800	-15.481	0.302	0.191
-231.786	-19.502	0.410	-0.251
-230.771	31.833	0.127	0.108
-229.757	800.000	0.080	-0.301
-228.742	97.059	0.232	-0.263
-227.727	-200.000	0.023	-0.184
-226.713	80.126	0.142	0.151
-225.698	47.586	-0.272	0.251
-224.684	-200.000	0.053	0.237
-223.669	178.548	0.080	-0.116
-222.655	-200.000	-0.009	-0.196
-221.640	17.687	0.125	-0.099
-220.625	-86.720	-0.107	-0.032
-219.611	67.241	0.429	0.433
-218.596	300.055	0.087	0.159
-217.582	-200.000	-0.076	-0.372
-216.567	688.946	0.080	0.207
-215.552	172.013	-0.080	-0.114
-214.538	-6.329	0.117	-0.079
-213.523	459.005	0.071	0.156
-212.509	480.269	-0.064	-0.143
-211.494	-72.536	-0.059	0.021
-210.479	117.114	-0.225	0.274
-209.465	-1.386	0.139	-0.097
-208.450	317.205	-0.098	-0.184
-207.436	15.615	-0.281	-0.218
-206.421	-200.000	-0.082	0.622
-205.406	-200.000	-0.002	0.102
-204.392	-34.772	0.185	-0.100
-203.377	-11.179	-0.263	-0.172
-202.363	-200.000	-0.005	-0.056
-201.348	-65.202	0.165	0.066
-200.333	41.958	0.332	-0.298
-199.319	225.191	0.123	-0.197
-198.304	34.991	-0.255	0.221
-197.290	-30.487	0.088	-0.050
-196.275	-34.453	0.363	-0.197
-195.260	138.037	0.083	-0.108
-194.246	-189.861	0.077	-0.001
-193.231	343.082	-0.048	0.093
-192.217	-70.961	0.096	0.036
-191.202	24.241	0.119	0.097
-190.187	800.000	-0.023	0.084
-189.173	59.427	0.281	-0.274
-188.158	-52.218	0.092	0.042
-187.144	-118.630	0.246	-0.043
-186.129	-46.263	-0.215	0.105
-185.114	-200.000	-0.003	0.077
-184.100	800.000	-0.110	0.324
-183.085	-200.000	0.000	-0.126
-182.071	196.787	-0.195	0.294
-181.056	800.000	-0.056	-0.174
-180.042	89.657	-0.266	-0.294
-179.027	-50.866	-0.142	-0.066
-178.012	-200.000	0.005	-0.213
-176.998	-200.000	-0.039	0.303
-175.983	-200.000	-0.004	-0.083
-174.969	40.958	0.079	-0.070
-173.954	-91.032	-0.240	-0.068
-172.939	537.899	-0.124	0.292
-171.925	-200.000	-0.018	-0.259
-170.910	800.000	0.063	0.255
-169.896	-13.857	0.020	-0.013
-168.881	-200.000	0.039	0.509
-167.866	33.888	0.075	0.065
-166.852	-43.962	0.083	-0.041
-165.837	-35.432	-0.037	0.020
-164.823	-71.942	0.347	-0.128
-163.808	137.175	0.339	-0.438
-162.793	-65.013	-0.263	0.105
-161.779	-73.539	0.082	0.029
-160.764	148.442	-0.059	0.079
-159.750	-6.208	0.288	0.195
-158.735	-120.655	-0.206	0.034
-157.720	800.000	0.133	0.410
-156.706	224.441	-0.238	-0.381
-155.691	39.450	0.133	0.117
-154.677	137.588	-0.179	0.231
-153.662	-200.000	-0.060	0.264
-152.647	-72.106	0.064	0.024
-151.633	703.160	-0.028	-0.072
-150.618	205.664	0.046	-0.070
-149.604	-61.163	0.136	0.056
-148.589	63.731	-0.053	0.052
-147.574	-26.658	0.296	-0.171
-146.560	465.259	-0.120	-0.264
-145.545	179.841	-0.152	0.221
-144.531	9.386	-0.426	0.318
-143.516	13.464	0.055	-0.042
-142.502	-138.106	-0.392	-0.043
-141.487	80.726	-0.185	-0.197
-140.472	112.508	0.065	0.078
-139.458	-200.000	-0.006	0.207
-138.443	-21.309	-0.056	0.034
-137.429	1.671	-0.319	-0.227
-136.414	124.028	0.288	0.357
-135.399	72.465	0.231	-0.238
-134.385	57.886	0.082	0.079
-133.370	42.193	-0.360	-0.323
-132.356	-107.883	0.415	-0.089
-131.341	-31.057	-0.216	0.121
-130.326	-49.744	0.214	0.100
-129.312	-20.024	0.052	-0.032
-128.297	-173.856	0.185	-0.005
-127.283	121.199	-0.100	0.122
-126.268	63.722	0.050	-0.049
-125.253	567.846	-0.127	0.304
-124.239	-200.000	-0.032	-0.177
-123.224	-9.030	-0.385	0.254
-122.210	-82.236	0.196	0.063
-121.195	42.657	0.071	0.064
-120.180	800.000	0.168	-0.596
