DTS Sentinel unit serial number:	SN413079Multiplexer serial number:	ORYXHardware model number:	OX4-SRSoftware version number:	ORYX F/W v4.00 Oryx Data Collector v3.7.2.0data status	okinstallation	princeton_trtdifferential loss correction	single-endedforward channel	channel 1reverse channel	N/Adate	2019/09/16time	22:18:35forward acquisition time	60.00reverse acquisition time	0.00gamma	496.2192k internal	0.2324k external	0.2324temperature offset calibration	0.9952default loss term (dB/km)	0.3790temperature slope calibration	1.0000multiplexer offset coefficient	1.0000multiplexer slope coefficient	1.0000fibre end	0.00T internal ref (°C)	30.94T ext. ref 1 (°C)	0.07T ext. ref 2 (°C)	24.66length (m)	temperature (°C)	Stokes	anti-Stokes-747.200	800.000	0.104	-0.402
-746.185	-39.079	0.190	0.101
-745.171	800.000	-0.005	-0.016
-744.156	266.867	-0.245	0.433
-743.142	-65.916	0.394	0.159
-742.127	-200.000	-0.091	0.626
-741.112	-130.924	0.106	0.014
-740.098	-101.069	-0.221	0.055
-739.083	24.419	0.171	-0.143
-738.069	-43.669	0.094	0.048
-737.054	800.000	-0.042	0.149
-736.039	-93.960	-0.344	0.095
-735.025	-200.000	-0.134	0.748
-734.010	800.000	-0.077	0.277
-732.996	18.067	-0.137	0.111
-731.981	88.195	-0.126	0.141
-730.966	234.786	0.175	0.291
-729.952	40.997	-0.222	-0.202
-728.937	62.634	-0.184	-0.186
-727.923	2.327	-0.253	0.185
-726.908	-84.314	0.113	0.036
-725.894	-3.501	-0.286	-0.200
-724.879	36.628	0.292	-0.260
-723.864	208.658	-0.060	-0.095
-722.850	800.000	0.090	0.265
-721.835	256.463	-0.094	-0.163
-720.821	-127.693	0.308	0.045
-719.806	800.000	0.038	0.128
-718.791	601.843	0.036	0.089
-717.777	-200.000	0.028	-0.133
-716.762	-48.119	0.154	-0.075
-715.748	-33.284	0.145	0.081
-714.733	29.460	0.123	0.106
-713.718	-167.461	-0.165	-0.007
-712.704	800.000	0.022	-0.089
-711.689	-78.879	-0.066	-0.023
-710.675	800.000	-0.025	-0.080
-709.660	-41.839	-0.056	0.029
-708.645	-18.566	0.104	0.066
-707.631	-125.270	-0.115	0.018
-706.616	609.824	-0.075	-0.189
-705.602	507.940	0.025	-0.057
-704.587	37.231	-0.293	0.262
-703.572	-108.934	0.290	0.062
-702.558	800.000	0.024	0.105
-701.543	800.000	0.013	-0.051
-700.529	94.990	-0.132	0.152
-699.514	-165.921	0.309	-0.013
-698.499	-200.000	0.022	0.233
-697.485	299.301	-0.061	0.113
-696.470	-137.483	0.091	0.010
-695.456	-57.943	-0.274	0.121
-694.441	-121.466	-0.251	-0.042
-693.426	-122.855	0.060	0.010
-692.412	371.005	0.037	-0.075
-691.397	-200.000	0.024	-0.121
-690.383	0.991	0.128	-0.093
-689.368	35.524	0.119	-0.105
-688.354	101.152	-0.197	-0.231
-687.339	-200.000	0.016	-0.111
-686.324	373.008	0.021	-0.043
-685.310	37.200	0.251	0.224
-684.295	151.751	-0.095	-0.130
-683.281	-200.000	-0.005	0.154
-682.266	-200.000	0.044	-0.460
-681.251	-111.707	-0.278	-0.057
-680.237	78.208	-0.085	-0.091
-679.222	68.744	0.217	0.224
-678.208	364.066	-0.044	0.088
-677.193	466.247	-0.102	0.231
-676.178	-121.176	0.168	-0.028
-675.164	39.573	0.129	0.117
-674.149	-65.221	-0.367	0.149
-673.135	311.254	-0.128	0.241
-672.120	230.223	0.065	0.107
-671.105	800.000	-0.128	-0.357
-670.091	-127.198	0.554	-0.082
-669.076	-59.357	0.480	-0.208
-668.062	-41.533	-0.146	0.076
-667.047	800.000	0.026	0.080
-666.032	71.929	0.209	-0.219
-665.018	800.000	-0.043	0.119
-664.003	-103.270	0.288	0.068
-662.989	269.796	0.168	0.298
-661.974	-72.962	0.410	-0.152
-660.959	701.409	-0.052	0.138
-659.945	-54.478	0.176	-0.080
-658.930	-85.416	-0.254	-0.080
-657.916	-200.000	-0.032	0.151
-656.901	103.921	0.156	-0.184
-655.886	-127.565	-0.003	0.000
-654.872	-200.000	-0.008	0.168
-653.857	54.784	0.192	-0.186
-652.843	154.878	0.082	0.113
-651.828	-47.413	0.184	-0.090
-650.814	-36.715	-0.176	-0.095
-649.799	100.165	0.148	-0.173
-648.784	509.499	0.054	0.126
-647.770	-114.285	-0.196	-0.038
-646.755	146.909	-0.073	0.099
-645.741	-139.025	0.153	-0.017
-644.726	-200.000	-0.007	0.189
-643.711	-148.581	0.168	0.014
-642.697	-200.000	0.035	0.356
-641.682	-133.033	-0.114	0.015
-640.668	-167.714	-0.174	-0.007
-639.653	-14.501	-0.260	-0.168
-638.638	562.924	0.088	-0.214
-637.624	-65.815	-0.121	0.049
-636.609	-151.429	0.121	-0.009
-635.595	-42.570	0.094	-0.048
-634.580	-17.420	-0.096	-0.061
-633.565	-38.291	-0.128	0.068
-632.551	-200.000	-0.001	-0.259
-631.536	31.436	-0.323	-0.279
-630.522	533.908	0.102	-0.242
-629.507	-132.785	0.186	-0.024
-628.492	-39.299	-0.248	0.131
-627.478	-40.990	-0.080	-0.041
-626.463	213.356	-0.127	-0.202
-625.449	-200.000	0.055	-0.520
-624.434	-13.428	-0.238	0.155
-623.419	185.173	-0.310	0.463
-622.405	-98.966	0.261	-0.067
-621.390	-200.000	-0.137	-0.001
-620.376	-200.000	-0.029	-0.368
-619.361	-200.000	0.032	-0.194
-618.346	14.391	-0.256	-0.200
-617.332	-200.000	0.013	-0.175
-616.317	71.121	-0.214	0.223
-615.303	80.536	0.189	0.204
-614.288	228.779	0.051	0.083
-613.273	800.000	-0.026	-0.108
-612.259	-41.822	-0.294	0.151
-611.244	-95.479	-0.204	0.055
-610.230	166.511	0.204	-0.290
-609.215	800.000	0.079	0.234
-608.201	-200.000	-0.013	-0.214
-607.186	800.000	0.086	0.272
-606.171	-200.000	-0.055	0.293
-605.157	-177.591	-0.166	-0.004
-604.142	-173.637	-0.105	0.003
-603.128	800.000	-0.030	-0.109
-602.113	-101.465	-0.256	-0.062
-601.098	-141.108	0.184	-0.019
-600.084	-72.766	0.376	-0.139
-599.069	-90.838	0.099	-0.029
-598.055	-117.793	0.174	0.031
-597.040	-200.000	-0.016	0.316
-596.025	-86.519	-0.383	-0.118
-595.011	38.971	0.151	0.135
-593.996	100.562	-0.140	0.164
-592.982	-200.000	-0.004	0.234
-591.967	639.972	0.137	-0.351
-590.952	-91.285	0.163	-0.047
-589.938	611.194	-0.069	0.173
-588.923	60.060	-0.106	0.105
-587.909	11.712	0.220	-0.169
-586.894	-17.900	0.310	-0.195
-585.879	-71.491	0.321	-0.120
-584.865	109.067	-0.116	-0.139
-583.850	-98.711	0.341	0.087
-582.836	39.184	0.029	-0.026
-581.821	-189.025	0.280	-0.003
-580.806	-59.002	0.294	0.127
-579.792	546.231	-0.068	-0.163
-578.777	-178.608	0.127	0.003
-577.763	11.974	0.316	-0.244
-576.748	-96.100	0.065	-0.017
-575.733	-95.798	0.202	0.054
-574.719	-42.188	-0.040	-0.021
-573.704	-200.000	-0.063	-0.305
-572.690	517.474	0.098	0.229
-571.675	-66.090	-0.185	0.074
-570.661	-5.534	-0.074	0.051
-569.646	-9.118	0.050	0.033
-568.631	-185.106	-0.253	0.004
-567.617	-200.000	0.017	0.194
-566.602	-116.879	0.194	-0.036
-565.588	-35.808	-0.308	-0.167
-564.573	-108.106	0.460	0.100
-563.558	159.559	0.370	-0.517
-562.544	800.000	-0.105	-0.299
-561.529	-68.074	0.107	-0.042
-560.515	-200.000	-0.063	0.449
-559.500	104.419	0.098	0.116
-558.485	-115.534	0.324	0.061
-557.471	-200.000	0.081	-0.390
-556.456	800.000	0.059	-0.243
-555.442	468.427	-0.175	0.394
-554.427	-65.429	-0.283	0.114
-553.412	800.000	0.037	-0.126
-552.398	-73.121	-0.142	0.052
-551.383	-86.521	0.135	0.041
-550.369	144.606	-0.014	0.018
-549.354	-103.085	-0.294	0.070
-548.339	153.603	-0.132	0.181
-547.325	-157.856	-0.252	-0.015
-546.310	-11.843	-0.190	-0.125
-545.296	-137.947	0.305	-0.034
-544.281	-101.560	-0.441	0.107
-543.266	51.283	-0.138	-0.132
-542.252	-200.000	0.009	-0.080
-541.237	-127.817	0.174	0.025
-540.223	77.072	0.256	0.273
-539.208	-6.486	-0.234	-0.160
-538.193	-87.444	0.250	0.076
-537.179	71.988	-0.273	-0.285
-536.164	-100.955	0.351	-0.086
-535.150	197.297	-0.232	0.355
-534.135	-5.619	-0.064	0.044
-533.121	247.292	0.118	0.199
-532.106	-64.367	0.234	-0.095
-531.091	-200.000	0.000	-0.403
-530.077	-26.197	-0.134	-0.079
-529.062	101.076	0.206	-0.240
-528.048	-29.142	-0.137	0.079
-527.033	-200.000	0.006	0.212
-526.018	1.135	-0.138	-0.099
-525.004	774.476	0.035	-0.097
-523.989	129.116	0.029	-0.038
-522.975	800.000	-0.148	-0.476
-521.960	-63.864	-0.148	0.061
-520.945	26.028	-0.147	-0.123
-519.931	-44.687	-0.226	-0.113
-518.916	-200.000	-0.013	-0.198
-517.902	-74.552	0.175	-0.063
-516.887	45.162	-0.225	-0.208
-515.872	-200.000	0.027	0.349
-514.858	-105.904	-0.156	0.035
-513.843	800.000	-0.027	0.081
-512.829	-200.000	0.077	-0.412
-511.814	-72.198	0.091	-0.034
-510.799	-57.296	0.293	0.129
-509.785	-132.503	-0.112	0.014
-508.770	800.000	-0.126	0.356
-507.756	800.000	0.093	0.262
-506.741	-36.234	0.300	-0.162
-505.726	800.000	0.105	-0.315
-504.712	-12.063	0.220	0.144
-503.697	-38.062	0.041	0.022
-502.683	-70.736	-0.086	0.033
-501.668	-13.970	-0.131	0.085
-500.653	-200.000	0.015	0.187
-499.639	-85.026	0.600	-0.188
-498.624	-140.125	0.137	0.014
-497.610	800.000	-0.059	0.204
-496.595	-114.209	0.175	0.034
-495.581	-26.881	-0.177	0.104
-494.566	-200.000	0.006	0.300
-493.551	150.231	-0.178	-0.242
-492.537	800.000	-0.044	0.140
-491.522	-102.136	0.175	0.042
-490.508	-79.819	-0.050	0.017
-489.493	246.053	-0.007	-0.011
-488.478	153.025	0.140	0.191
-487.464	-85.878	-0.211	-0.065
-486.449	-161.917	-0.529	0.027
-485.435	149.994	0.270	0.366
-484.420	31.316	0.067	0.057
-483.405	-29.345	-0.244	0.140
-482.391	45.715	-0.320	-0.295
-481.376	-105.596	-0.181	-0.041
-480.362	358.393	0.107	0.214
-479.347	-44.986	-0.176	-0.088
-478.332	-89.817	0.266	-0.078
-477.318	-72.537	0.223	-0.082
-476.303	756.711	-0.059	-0.159
-475.289	96.004	-0.139	0.158
-474.274	-110.870	-0.181	0.037
-473.259	-117.533	-0.794	0.143
-472.245	-33.223	-0.096	-0.053
-471.230	13.457	0.118	0.092
-470.216	-200.000	0.008	0.064
-469.201	-62.747	0.062	-0.026
-468.186	-200.000	-0.152	-0.001
-467.172	-77.331	-0.180	-0.062
-466.157	-200.000	-0.000	0.129
-465.143	-101.786	-0.107	0.026
-464.128	800.000	-0.027	-0.112
-463.113	800.000	-0.041	0.125
-462.099	-9.557	-0.066	-0.044
-461.084	-200.000	0.005	0.203
-460.070	-79.738	0.034	-0.011
-459.055	107.739	-0.126	-0.150
-458.040	-122.363	0.217	0.035
-457.026	217.781	-0.090	0.143
-456.011	-151.164	-0.169	0.013
-454.997	117.632	-0.154	-0.189
-453.982	37.886	-0.111	0.098
-452.968	-79.251	0.055	-0.018
-451.953	-54.113	0.057	-0.026
-450.938	-150.683	0.139	-0.011
-449.924	65.188	0.042	-0.042
-448.909	154.518	-0.202	-0.277
-447.895	-53.346	-0.274	0.125
-446.880	-200.000	0.003	0.208
-445.865	6.968	-0.399	-0.296
-444.851	69.832	0.121	0.124
-443.836	35.425	-0.196	0.172
-442.822	-86.486	0.126	0.039
-441.807	435.147	-0.112	0.243
-440.792	277.385	0.207	-0.367
-439.778	-16.502	-0.170	0.108
-438.763	8.478	-0.225	0.169
-437.749	800.000	-0.031	0.099
-436.734	800.000	0.099	-0.318
-435.719	51.994	0.116	0.110
-434.705	-26.190	0.130	-0.076
-433.690	-182.338	-0.054	-0.001
-432.676	-108.088	-0.251	0.054
-431.661	-109.555	0.300	-0.063
-430.646	432.482	0.052	-0.112
-429.632	800.000	0.020	-0.070
-428.617	800.000	-0.109	0.322
-427.603	-98.973	0.195	0.049
-426.588	76.401	-0.079	0.084
-425.573	225.107	-0.250	0.403
-424.559	800.000	0.098	-0.368
-423.544	800.000	0.073	-0.280
-422.530	-1.677	-0.261	-0.183
-421.515	71.399	-0.144	0.149
-420.500	-46.557	0.178	0.087
-419.486	-115.305	0.199	0.037
-418.471	-183.011	-0.278	-0.005
-417.457	-126.353	0.236	0.035
-416.442	-59.833	-0.265	0.113
-415.428	-200.000	0.026	-0.151
-414.413	-13.933	-0.154	0.099
-413.398	-121.400	0.128	-0.021
-412.384	-56.296	-0.057	-0.025
-411.369	-98.760	-0.024	-0.006
-410.355	-142.804	0.390	0.038
-409.340	-200.000	0.017	-0.203
-408.325	-200.000	-0.012	-0.121
-407.311	800.000	-0.065	0.268
-406.296	-152.254	-0.135	0.010
-405.282	68.368	-0.200	-0.204
-404.267	-200.000	0.016	-0.163
-403.252	142.703	0.110	-0.145
-402.238	-31.494	-0.086	-0.048
-401.223	115.363	-0.150	0.183
-400.209	29.387	0.379	0.321
-399.194	489.160	-0.104	0.236
-398.179	-56.225	0.304	-0.135
-397.165	-156.825	0.388	0.024
-396.150	-200.000	0.016	-0.076
-395.136	476.217	0.073	-0.164
-394.121	-58.944	-0.076	0.033
-393.106	800.000	-0.111	-0.395
-392.092	-120.536	-0.220	-0.037
-391.077	179.320	0.233	-0.340
-390.063	800.000	0.022	-0.072
-389.048	-16.678	-0.081	0.051
-388.033	412.247	0.031	-0.065
-387.019	-174.320	-0.109	0.003
-386.004	569.655	0.024	0.059
-384.990	-156.938	-0.345	-0.021
-383.975	-200.000	0.004	0.245
-382.960	290.321	0.128	0.232
-381.946	318.403	0.165	-0.312
-380.931	50.781	-0.197	0.186
-379.917	633.170	0.051	-0.127
-378.902	17.353	0.376	0.297
-377.888	-53.596	0.087	-0.040
-376.873	353.392	0.214	0.424
-375.858	40.315	-0.164	-0.147
-374.844	5.904	-0.300	0.221
-373.829	45.907	0.282	-0.259
-372.815	-31.552	0.288	-0.161
-371.800	574.724	0.130	0.315
-370.785	24.610	-0.270	-0.222
-369.771	-185.730	-0.360	-0.005
-368.756	-21.392	0.215	0.130
-367.742	-106.261	0.360	-0.080
-366.727	-81.544	-0.165	0.054
-365.712	117.189	0.236	-0.288
-364.698	191.643	0.159	0.238
-363.683	-156.225	0.080	0.005
-362.669	361.019	0.057	-0.114
-361.654	-80.537	-0.169	0.056
-360.639	800.000	0.131	0.476
-359.625	-121.795	-0.143	0.024
-358.610	-85.612	-0.118	0.037
-357.596	-72.481	0.284	0.104
-356.581	800.000	-0.043	-0.162
-355.566	-110.888	0.315	0.065
-354.552	74.264	-0.039	0.040
-353.537	-109.530	-0.195	0.041
-352.523	-200.000	-0.005	0.051
-351.508	-200.000	0.014	-0.197
-350.493	21.776	-0.181	0.147
-349.479	-67.415	0.242	0.094
-348.464	-67.494	-0.049	-0.019
-347.450	-200.000	0.032	0.406
-346.435	6.676	-0.219	0.162
-345.420	-94.628	0.208	0.056
-344.406	-45.785	-0.150	-0.074
-343.391	-184.366	-0.134	0.002
-342.377	295.217	0.049	0.088
-341.362	183.921	0.051	-0.075
-340.348	800.000	0.037	-0.130
-339.333	34.784	0.108	-0.094
-338.318	-166.213	0.155	-0.006
-337.304	-190.797	0.088	-0.001
-336.289	-131.642	0.328	0.043
-335.275	111.230	0.155	0.185
-334.260	108.191	0.166	-0.196
-333.245	147.245	-0.087	0.116
-332.231	-32.451	-0.140	0.078
-331.216	-71.187	-0.154	-0.057
-330.202	40.007	0.041	-0.036
-329.187	-17.689	0.054	-0.034
-328.172	24.194	-0.132	0.108
-327.158	-200.000	-0.003	-0.175
-326.143	-128.429	-0.269	-0.038
-325.129	-1.174	0.214	-0.150
-324.114	-14.889	-0.242	-0.154
-323.099	-51.383	-0.281	-0.130
-322.085	95.894	0.053	-0.060
-321.070	221.085	-0.061	-0.097
-320.056	-109.350	0.456	-0.096
-319.041	4.549	0.121	0.088
-318.026	38.454	-0.142	0.126
-317.012	-19.562	-0.276	-0.169
-315.997	-91.549	0.141	-0.040
-314.983	-34.394	0.205	0.111
-313.968	-81.925	-0.391	-0.127
-312.953	800.000	0.070	0.243
-311.939	800.000	0.088	-0.317
-310.924	2.860	-0.147	-0.106
-309.910	509.677	-0.128	0.296
-308.895	800.000	0.063	-0.182
-307.880	151.439	0.064	-0.086
-306.866	210.404	-0.072	-0.112
-305.851	-55.753	0.216	0.096
-304.837	-200.000	-0.075	-0.477
-303.822	170.667	0.082	0.117
-302.807	180.631	0.286	0.416
-301.793	-200.000	-0.003	0.195
-300.778	2.561	0.203	-0.146
-299.764	377.045	-0.109	-0.220
-298.749	63.187	0.215	0.214
-297.735	-129.929	0.116	0.016
-296.720	800.000	-0.032	0.120
-295.705	47.874	0.234	0.217
-294.691	-12.764	-0.133	-0.086
-293.676	635.682	-0.039	-0.097
-292.662	228.532	-0.181	-0.293
-291.647	-82.420	0.147	-0.047
-290.632	-82.467	-0.225	0.072
-289.618	216.345	0.279	0.440
-288.603	581.301	0.036	0.086
-287.589	800.000	-0.084	0.338
-286.574	800.000	0.072	0.271
-285.559	800.000	-0.025	-0.076
-284.545	-127.404	0.053	-0.008
-283.530	-200.000	0.030	-0.164
-282.516	-28.931	0.012	0.007
-281.501	-49.298	-0.037	-0.017
-280.486	8.671	-0.365	0.273
-279.472	-4.567	0.028	0.019
-278.457	-147.223	0.277	0.023
-277.443	-33.662	0.286	-0.157
-276.428	-145.975	0.091	0.008
-275.413	-27.573	-0.156	-0.090
-274.399	800.000	-0.079	0.239
-273.384	41.314	-0.024	0.021
-272.370	-56.460	-0.302	-0.133
-271.355	-43.589	-0.335	0.167
-270.340	-60.576	-0.224	-0.094
-269.326	800.000	0.006	0.021
-268.311	-142.608	0.176	-0.017
-267.297	-51.207	-0.184	-0.086
-266.282	388.592	0.139	-0.285
-265.267	-21.943	-0.189	-0.114
-264.253	-87.293	-0.119	0.036
-263.238	-165.713	-0.207	-0.009
-262.224	224.163	-0.271	-0.434
-261.209	106.815	-0.015	0.017
-260.195	-19.168	0.219	0.134
-259.180	-200.000	0.002	0.123
-258.165	62.856	-0.232	0.230
-257.151	800.000	-0.109	0.358
-256.136	96.988	-0.197	-0.223
-255.122	800.000	0.053	-0.216
-254.107	800.000	0.085	0.307
-253.092	-200.000	0.005	-0.226
-252.078	-25.768	-0.100	-0.058
-251.063	231.814	-0.203	0.329
-250.049	-21.878	-0.190	0.115
-249.034	208.776	-0.047	-0.073
-248.019	800.000	-0.112	-0.405
-247.005	5.513	0.256	-0.187
-245.990	32.432	0.158	-0.135
-244.976	-200.000	-0.002	-0.176
-243.961	80.812	-0.076	-0.081
-242.946	-19.418	-0.244	-0.150
-241.932	140.510	0.021	-0.028
-240.917	-29.291	0.118	0.067
-239.903	46.855	0.153	0.141
-238.888	456.800	-0.067	-0.148
-237.873	306.770	-0.080	-0.147
-236.859	500.780	-0.039	0.089
-235.844	-200.000	0.013	-0.331
-234.830	18.590	0.200	0.158
-233.815	16.815	0.342	-0.267
-232.800	-200.000	0.027	-0.179
-231.786	800.000	0.122	-0.354
-230.771	-54.430	0.135	-0.061
-229.757	539.434	0.060	0.142
-228.742	64.377	-0.276	0.275
-227.727	488.897	-0.028	0.062
-226.713	343.578	0.066	0.128
-225.698	800.000	0.048	0.166
-224.684	-200.000	0.008	0.309
-223.669	-84.741	-0.074	-0.023
-222.655	93.310	-0.135	0.152
-221.640	-32.830	0.390	-0.214
-220.625	-75.649	0.238	0.084
-219.611	-200.000	-0.003	-0.157
-218.596	111.888	-0.193	-0.231
-217.582	-200.000	0.010	0.239
-216.567	450.320	-0.218	-0.475
-215.552	-13.710	0.046	-0.029
-214.538	-103.733	0.214	-0.050
-213.523	210.254	-0.119	0.184
-212.509	-125.174	-0.315	0.048
-211.494	-75.348	-0.099	0.035
-210.479	204.882	-0.060	-0.092
-209.465	343.267	-0.094	-0.182
-208.450	-110.092	0.308	0.064
-207.436	43.391	0.101	-0.091
-206.421	-143.523	-0.175	0.017
-205.406	-200.000	-0.021	0.250
-204.392	282.110	-0.076	0.135
-203.377	800.000	-0.048	-0.156
-202.363	-200.000	-0.007	-0.081
-201.348	-62.968	0.266	0.109
-200.333	-194.505	0.316	-0.002
-199.319	-162.060	0.235	0.012
-198.304	800.000	-0.035	-0.139
-197.290	-80.826	-0.213	-0.070
-196.275	-23.241	0.308	-0.183
-195.260	325.025	-0.119	0.226
-194.246	361.393	0.231	0.457
-193.231	-96.015	0.157	0.041
-192.217	383.717	0.179	0.365
-191.202	-72.291	-0.147	-0.054
-190.187	93.662	-0.004	0.005
-189.173	176.969	-0.049	0.071
-188.158	800.000	-0.025	-0.072
-187.144	-76.302	0.213	0.074
-186.129	86.816	0.243	0.265
-185.114	80.303	-0.030	-0.032
-184.100	-171.593	0.144	-0.005
-183.085	-118.101	0.234	-0.041
-182.071	-86.429	-0.330	-0.100
-181.056	-52.208	-0.131	0.060
-180.042	800.000	0.063	0.241
-179.027	-39.784	-0.152	0.078
-178.012	-197.696	0.167	-0.001
-176.998	-57.466	-0.135	0.059
-175.983	-154.749	0.292	-0.019
-174.969	-75.706	-0.261	-0.091
-173.954	116.960	0.072	-0.088
-172.939	-46.686	-0.231	0.112
-171.925	239.282	0.080	-0.131
-170.910	-200.000	0.013	0.549
-169.896	340.542	0.106	0.204
-168.881	139.907	0.068	-0.088
-167.866	4.679	-0.231	0.167
-166.852	-35.849	-0.411	0.219
-165.837	-9.018	-0.138	0.091
-164.823	-125.239	0.219	0.033
-163.808	54.098	0.124	-0.118
-162.793	98.907	0.103	-0.118
-161.779	177.831	-0.245	-0.353
-160.764	-200.000	-0.027	-0.319
-159.750	-85.045	-0.113	-0.035
-158.735	-72.072	0.333	0.122
-157.720	-66.428	0.128	0.050
-156.706	-200.000	0.000	0.297
-155.691	-200.000	0.008	-0.177
-154.677	-76.298	-0.266	-0.092
-153.662	-146.470	0.368	0.032
-152.647	-25.441	0.314	-0.183
-151.633	459.296	0.078	0.171
-150.618	92.486	-0.244	0.272
-149.604	-182.191	-0.219	0.004
-148.589	-12.085	0.342	-0.221
-147.574	-38.119	-0.207	0.108
-146.560	800.000	-0.059	-0.202
-145.545	-42.119	-0.199	0.101
-144.531	92.605	0.105	-0.117
-143.516	400.632	-0.106	0.218
-142.502	350.722	0.116	0.226
-141.487	146.056	0.187	-0.248
-140.472	-200.000	-0.014	0.150
-139.458	106.842	-0.132	-0.154
-138.443	516.529	0.065	-0.150
-137.429	-22.013	0.374	0.224
-136.414	800.000	0.043	-0.138
-135.399	269.154	0.116	-0.200
-134.385	103.616	-0.073	-0.085
-133.370	-33.612	-0.166	0.090
-132.356	336.865	0.067	-0.127
-131.341	171.590	-0.082	0.116
-130.326	-200.000	0.018	0.168
-129.312	11.610	0.088	0.066
-128.297	263.552	-0.129	-0.221
-127.283	-37.804	0.101	0.053
-126.268	-200.000	0.008	-0.068
-125.253	32.891	-0.160	-0.136
-124.239	205.861	0.098	-0.151
-123.224	800.000	-0.084	0.229
-122.210	492.076	-0.067	-0.152
-121.195	-155.412	-0.162	-0.010
