DTS Sentinel unit serial number:	SN413079Multiplexer serial number:	ORYXHardware model number:	OX4-SRSoftware version number:	ORYX F/W v4.00 Oryx Data Collector v3.7.2.0data status	okinstallation	princeton_trtdifferential loss correction	single-endedforward channel	channel 1reverse channel	N/Adate	2019/09/14time	04:34:35forward acquisition time	60.00reverse acquisition time	0.00gamma	496.2192k internal	0.2334k external	0.2334temperature offset calibration	1.0081default loss term (dB/km)	0.3790temperature slope calibration	1.0000multiplexer offset coefficient	1.0000multiplexer slope coefficient	1.0000fibre end	0.00T internal ref (°C)	26.80T ext. ref 1 (°C)	3.35T ext. ref 2 (°C)	21.98length (m)	temperature (°C)	Stokes	anti-Stokes-747.200	-116.562	0.176	0.033
-746.185	-200.000	-0.031	0.221
-745.171	-94.638	-0.267	-0.073
-744.156	589.260	0.076	0.188
-743.142	-98.009	0.224	-0.058
-742.127	-200.000	-0.008	-0.121
-741.112	220.732	0.033	0.054
-740.098	800.000	-0.034	0.094
-739.083	-200.000	0.430	0.001
-738.069	51.741	0.164	-0.157
-737.054	-83.074	-0.205	-0.066
-736.039	-51.866	-0.067	0.031
-735.025	-200.000	-0.021	0.270
-734.010	78.560	-0.183	-0.197
-732.996	-200.000	0.071	0.424
-731.981	514.294	0.006	-0.014
-730.966	94.612	0.220	-0.252
-729.952	-94.284	-0.070	-0.019
-728.937	800.000	-0.066	-0.213
-727.923	-200.000	-0.002	-0.047
-726.908	-104.412	-0.628	-0.146
-725.894	442.334	-0.081	-0.178
-724.879	6.395	-0.182	-0.136
-723.864	-152.949	-0.306	0.022
-722.850	73.533	-0.276	0.290
-721.835	-50.085	0.107	0.051
-720.821	39.883	0.045	-0.040
-719.806	-128.467	-0.216	-0.031
-718.791	-153.055	-0.367	-0.026
-717.777	340.354	-0.095	-0.187
-716.762	-58.201	0.341	-0.149
-715.748	198.884	-0.110	0.169
-714.733	80.537	-0.009	0.009
-713.718	-73.510	-0.171	0.063
-712.704	-200.000	0.002	0.063
-711.689	15.422	0.049	-0.038
-710.675	-200.000	0.048	0.275
-709.660	-200.000	0.025	-0.148
-708.645	-14.804	-0.117	0.076
-707.631	121.888	0.197	0.247
-706.616	-132.732	0.067	-0.009
-705.602	-69.118	-0.376	0.145
-704.587	140.355	0.111	0.147
-703.572	603.455	0.087	0.218
-702.558	-20.686	-0.213	-0.131
-701.543	40.958	0.042	-0.038
-700.529	258.502	0.054	-0.093
-699.514	800.000	0.088	-0.319
-698.499	-83.030	-0.267	-0.086
-697.485	-108.090	-0.154	-0.033
-696.470	800.000	0.007	0.026
-695.456	-200.000	-0.036	-0.244
-694.441	-95.290	-0.172	0.047
-693.426	800.000	-0.053	0.166
-692.412	-40.694	0.233	0.121
-691.397	-1.441	0.144	-0.102
-690.383	800.000	-0.049	-0.183
-689.368	319.155	-0.158	-0.300
-688.354	-21.157	0.080	0.049
-687.339	738.189	0.131	-0.351
-686.324	279.640	-0.132	-0.235
-685.310	-200.000	0.045	0.215
-684.295	-30.851	-0.442	0.250
-683.281	-38.074	-0.300	0.159
-682.266	800.000	0.089	-0.335
-681.251	-21.782	0.076	0.046
-680.237	-33.393	0.074	0.041
-679.222	546.456	0.011	-0.026
-678.208	256.097	0.227	-0.391
-677.193	127.742	0.035	0.044
-676.178	-99.679	-0.164	-0.041
-675.164	682.407	-0.039	-0.102
-674.149	800.000	-0.017	-0.060
-673.135	207.386	-0.029	-0.045
-672.120	-87.745	-0.147	0.044
-671.105	-84.979	-0.336	0.106
-670.091	-184.504	0.076	0.001
-669.076	-91.096	-0.537	-0.154
-668.062	483.848	0.049	0.112
-667.047	234.038	0.124	0.204
-666.032	475.189	-0.115	-0.260
-665.018	800.000	0.098	0.333
-664.003	-12.011	0.134	-0.088
-662.989	-200.000	-0.031	-0.159
-661.974	58.973	0.218	-0.215
-660.959	-200.000	0.007	-0.376
-659.945	-200.000	0.005	-0.091
-658.930	800.000	-0.100	-0.287
-657.916	209.485	-0.154	0.242
-656.901	651.168	-0.085	0.219
-655.886	-200.000	-0.016	0.220
-654.872	-58.244	-0.102	0.045
-653.857	800.000	0.026	0.074
-652.843	800.000	0.049	-0.175
-651.828	60.945	-0.068	-0.067
-650.814	170.968	0.217	0.311
-649.799	634.179	0.123	-0.311
-648.784	800.000	0.080	0.248
-647.770	-200.000	-0.034	0.263
-646.755	41.676	-0.021	-0.019
-645.741	315.342	0.113	0.213
-644.726	-83.415	0.131	0.042
-643.711	83.782	-0.132	0.144
-642.697	-135.976	-0.352	0.041
-641.682	-127.567	0.274	-0.040
-640.668	277.478	-0.093	0.166
-639.653	72.282	-0.246	0.257
-638.638	-200.000	-0.036	-0.197
-637.624	-36.240	-0.362	-0.196
-636.609	130.772	0.123	-0.157
-635.595	-123.975	-0.218	0.034
-634.580	-18.282	-0.393	-0.246
-633.565	268.028	0.051	0.090
-632.551	-168.329	0.242	0.009
-631.536	285.283	-0.030	0.054
-630.522	800.000	0.014	-0.049
-629.507	87.493	-0.084	-0.094
-628.492	670.969	0.113	-0.292
-627.478	-125.272	0.269	0.041
-626.463	-98.126	-0.401	-0.103
-625.449	257.610	-0.184	-0.317
-624.434	399.258	0.078	0.164
-623.419	285.553	0.137	0.247
-622.405	-63.899	-0.027	-0.011
-621.390	12.777	-0.289	-0.224
-620.376	-173.016	-0.376	-0.012
-619.361	30.464	-0.069	0.059
-618.346	-110.520	0.203	-0.042
-617.332	16.401	0.196	-0.155
-616.317	-65.203	0.237	0.096
-615.303	-63.244	0.288	0.119
-614.288	8.674	-0.362	0.273
-613.273	192.769	-0.127	-0.192
-612.259	-18.324	0.331	-0.207
-611.244	-35.244	0.128	0.070
-610.230	438.454	0.014	-0.031
-609.215	10.135	-0.136	0.104
-608.201	91.741	0.160	-0.180
-607.186	-152.016	-0.209	0.015
-606.171	173.463	0.058	0.084
-605.157	81.753	-0.288	-0.312
-604.142	61.672	0.144	0.144
-603.128	800.000	0.140	0.490
-602.113	11.868	-0.046	0.035
-601.098	58.168	-0.136	-0.133
-600.084	-132.559	-0.289	-0.037
-599.069	-107.195	0.071	0.016
-598.055	337.656	0.099	0.192
-597.040	-200.000	0.061	0.373
-596.025	-200.000	0.042	-0.193
-595.011	-185.549	-0.228	0.003
-593.996	-34.627	-0.077	0.042
-592.982	-42.060	0.368	-0.188
-591.967	-136.647	-0.090	-0.010
-590.952	-200.000	-0.043	0.264
-589.938	9.641	-0.259	-0.196
-588.923	56.332	-0.172	-0.167
-587.909	57.975	0.249	0.243
-586.894	73.530	-0.123	-0.129
-585.879	-95.773	0.269	-0.072
-584.865	-113.204	0.078	0.015
-583.850	-122.090	-0.242	-0.040
-582.836	16.867	-0.139	0.110
-581.821	-200.000	-0.020	-0.228
-580.806	342.697	0.112	-0.218
-579.792	-199.039	-0.140	-0.001
-578.777	-126.646	0.226	0.033
-577.763	19.312	0.303	-0.243
-576.748	41.759	0.010	-0.009
-575.733	47.741	-0.183	-0.171
-574.719	-55.696	-0.207	-0.093
-573.704	-127.061	-0.127	-0.019
-572.690	669.188	-0.074	0.192
-571.675	-150.674	-0.297	-0.023
-570.661	-58.243	-0.121	0.053
-569.646	72.719	-0.199	0.207
-568.631	-118.338	-0.354	-0.063
-567.617	183.941	-0.173	-0.256
-566.602	-65.311	-0.143	-0.057
-565.588	-200.000	-0.012	-0.077
-564.573	-164.386	0.134	0.006
-563.558	785.159	0.089	0.244
-562.544	800.000	-0.035	0.099
-561.529	109.337	-0.226	-0.270
-560.515	-46.187	0.331	0.163
-559.500	-200.000	0.021	-0.122
-558.485	-177.654	0.090	-0.002
-557.471	271.493	0.089	0.157
-556.456	91.621	-0.145	-0.163
-555.442	363.895	0.029	0.059
-554.427	85.695	0.051	0.056
-553.412	-110.448	0.070	-0.015
-552.398	203.755	-0.068	-0.105
-551.383	163.874	-0.091	0.128
-550.369	800.000	-0.051	0.200
-549.354	-139.316	0.173	-0.019
-548.339	-81.390	0.317	0.104
-547.325	145.254	-0.078	0.105
-546.310	452.701	0.134	-0.295
-545.296	-15.611	0.148	0.094
-544.281	-69.992	-0.147	-0.056
-543.266	-110.964	0.304	0.062
-542.252	800.000	-0.065	-0.188
-541.237	68.281	0.160	0.164
-540.223	52.620	-0.162	-0.154
-539.208	-7.314	-0.265	0.179
-538.193	-81.660	0.312	-0.102
-537.179	171.606	-0.225	0.323
-536.164	800.000	-0.037	-0.102
-535.150	-166.906	-0.119	0.005
-534.135	-200.000	0.001	0.064
-533.121	-200.000	-0.020	0.120
-532.106	282.915	0.101	-0.180
-531.091	800.000	-0.100	-0.358
-530.077	476.798	-0.047	-0.106
-529.062	764.332	-0.155	0.418
-528.048	-66.057	0.244	-0.097
-527.033	148.083	-0.109	0.147
-526.018	167.390	-0.194	-0.274
-525.004	463.869	-0.071	0.158
-523.989	800.000	0.041	0.164
-522.975	6.510	-0.372	0.276
-521.960	48.045	-0.151	-0.141
-520.945	334.468	0.049	-0.095
-519.931	25.364	-0.156	0.129
-518.916	-18.848	0.184	-0.114
-517.902	-200.000	0.087	0.392
-516.887	82.634	0.136	-0.147
-515.872	102.597	-0.089	0.103
-514.858	-64.412	0.176	0.071
-513.843	-200.000	0.014	-0.162
-512.829	629.931	0.140	-0.353
-511.814	537.765	0.096	-0.228
-510.799	-200.000	-0.021	-0.222
-509.785	-200.000	-0.018	0.100
-508.770	800.000	-0.124	-0.344
-507.756	-69.781	-0.182	0.069
-506.741	-39.098	-0.122	0.064
-505.726	-200.000	0.008	0.177
-504.712	180.045	0.102	-0.148
-503.697	-36.426	-0.288	-0.155
-502.683	-200.000	0.039	0.181
-501.668	-26.010	0.325	0.190
-500.653	800.000	0.069	-0.201
-499.639	-109.847	-0.426	-0.089
-498.624	-63.654	0.326	0.133
-497.610	27.587	-0.193	-0.162
-496.595	-65.907	0.294	0.117
-495.581	-27.204	0.067	0.039
-494.566	21.660	0.120	-0.097
-493.551	169.053	-0.091	0.129
-492.537	64.173	-0.394	-0.394
-491.522	-115.697	-0.294	-0.055
-490.508	-42.508	0.145	0.074
-489.493	-52.442	-0.125	0.058
-488.478	57.587	0.215	0.209
-487.464	-91.881	0.387	-0.109
-486.449	-200.000	-0.001	0.039
-485.435	-5.727	0.249	0.170
-484.420	250.137	0.094	-0.159
-483.405	-9.929	0.472	-0.312
-482.391	-127.999	0.149	0.021
-481.376	35.757	0.179	-0.157
-480.362	113.358	0.169	0.203
-479.347	-51.183	-0.387	-0.181
-478.332	-131.624	-0.166	-0.022
-477.318	-0.389	-0.219	-0.155
-476.303	61.036	0.043	-0.043
-475.289	800.000	0.021	-0.078
-474.274	7.197	0.171	-0.127
-473.259	800.000	0.024	0.067
-472.245	-200.000	-0.030	0.285
-471.230	-80.047	0.163	-0.054
-470.216	-35.567	-0.260	0.140
-469.201	114.117	0.131	0.158
-468.186	77.918	-0.042	0.044
-467.172	106.151	0.132	0.156
-466.157	-76.666	-0.220	0.077
-465.143	-18.846	-0.166	0.103
-464.128	-200.000	-0.013	-0.068
-463.113	239.737	-0.138	-0.228
-462.099	152.173	-0.174	0.236
-461.084	-147.416	0.165	-0.014
-460.070	435.751	0.083	-0.179
-459.055	-78.734	-0.264	0.089
-458.040	800.000	-0.066	-0.206
-457.026	20.369	-0.250	0.201
-456.011	121.379	-0.172	-0.213
-454.997	191.501	-0.033	-0.049
-453.982	451.302	-0.113	0.249
-452.968	-200.000	-0.003	-0.144
-451.953	-107.439	0.226	0.049
-450.938	-200.000	-0.027	-0.250
-449.924	231.458	-0.117	0.191
-448.909	116.241	0.139	-0.169
-447.895	-200.000	-0.042	-0.197
-446.880	-200.000	0.032	0.383
-445.865	-126.625	-0.220	0.032
-444.851	-106.676	-0.153	0.034
-443.836	-200.000	-0.018	0.162
-442.822	-200.000	0.002	0.239
-441.807	-97.199	0.125	-0.033
-440.792	-180.248	-0.368	-0.008
-439.778	800.000	0.072	0.229
-438.763	-86.651	-0.118	-0.036
-437.749	34.547	-0.236	-0.205
-436.734	-145.723	0.162	-0.014
-435.719	575.587	-0.016	0.038
-434.705	-200.000	0.009	-0.176
-433.690	-107.620	-0.142	0.031
-432.676	-200.000	-0.032	0.210
-431.661	-200.000	-0.016	0.100
-430.646	-66.358	0.404	-0.160
-429.632	76.835	0.144	0.152
-428.617	204.828	-0.008	-0.013
-427.603	-2.597	0.138	-0.096
-426.588	41.998	-0.141	0.127
-425.573	134.282	-0.313	0.403
-424.559	93.875	-0.126	-0.142
-423.544	91.123	0.185	-0.206
-422.530	-200.000	-0.025	-0.337
-421.515	-61.839	-0.184	0.076
-420.500	36.628	-0.167	-0.146
-419.486	-200.000	0.025	0.183
-418.471	-148.071	0.144	-0.012
-417.457	214.953	0.070	-0.110
-416.442	-101.126	0.213	-0.052
-415.428	800.000	-0.047	0.140
-414.413	61.535	0.133	-0.131
-413.398	-184.100	0.118	-0.002
-412.384	-47.553	-0.135	0.065
-411.369	126.514	-0.262	0.329
-410.355	96.441	0.039	-0.044
-409.340	-200.000	-0.034	0.195
-408.325	-11.313	-0.089	0.058
-407.311	-39.405	-0.192	-0.100
-406.296	-200.000	0.017	-0.074
-405.282	-95.195	-0.365	0.098
-404.267	-157.090	-0.377	0.023
-403.252	9.380	0.227	-0.170
-402.238	800.000	-0.093	-0.271
-401.223	257.148	-0.070	0.118
-400.209	-113.405	-0.195	-0.038
-399.194	-13.396	-0.097	-0.062
-398.179	-59.506	-0.326	0.139
-397.165	47.150	0.234	-0.216
-396.150	-14.923	-0.045	0.029
-395.136	-153.347	-0.220	-0.015
-394.121	-181.167	0.304	0.006
-393.106	111.292	0.285	-0.340
-392.092	-121.290	-0.053	-0.009
-391.077	215.852	0.182	0.287
-390.063	460.875	0.131	-0.289
-389.048	521.786	-0.046	-0.108
-388.033	271.955	-0.131	0.229
-387.019	273.195	0.167	-0.293
-386.004	-170.581	0.111	-0.004
-384.990	-200.000	0.019	0.159
-383.975	-200.000	-0.038	-0.224
-382.960	225.479	-0.087	-0.139
-381.946	15.707	-0.136	-0.106
-380.931	289.857	0.107	0.192
-379.917	-200.000	-0.006	-0.231
-378.902	800.000	-0.049	-0.164
-377.888	-200.000	0.036	-0.437
-376.873	-34.270	0.080	-0.044
-375.858	-91.019	-0.108	-0.031
-374.844	800.000	-0.132	-0.402
-373.829	-23.608	-0.287	-0.170
-372.815	800.000	0.041	-0.178
-371.800	800.000	0.034	0.135
-370.785	-9.481	0.120	0.079
-369.771	-200.000	-0.145	-0.000
-368.756	152.724	0.178	-0.241
-367.742	553.023	0.002	-0.004
-366.727	-151.992	0.101	-0.007
-365.712	-87.962	0.379	0.113
-364.698	-116.680	0.398	0.072
-363.683	229.917	-0.104	-0.168
-362.669	-200.000	-0.074	-0.410
-361.654	-9.943	-0.146	-0.096
-360.639	800.000	0.062	0.174
-359.625	-144.199	-0.378	0.035
-358.610	11.219	-0.193	0.146
-357.596	238.042	0.109	0.179
-356.581	-176.569	-0.088	-0.002
-355.566	-149.701	0.242	-0.019
-354.552	-200.000	-0.027	-0.181
-353.537	-1.250	-0.132	-0.092
-352.523	-118.337	-0.249	0.044
-351.508	-19.523	-0.194	-0.119
-350.493	-141.382	0.204	0.020
-349.479	268.921	0.129	-0.224
-348.464	414.038	-0.109	-0.230
-347.450	168.545	-0.265	0.374
-346.435	-78.205	0.407	-0.139
-345.420	-200.000	-0.025	0.222
-344.406	-48.188	0.093	0.044
-343.391	800.000	-0.072	-0.241
-342.377	-3.562	-0.152	0.105
-341.362	402.586	0.118	0.246
-340.348	-98.794	0.037	0.009
-339.333	-10.525	-0.044	-0.029
-338.318	-169.468	0.185	-0.007
-337.304	-200.000	-0.004	-0.079
-336.289	-200.000	-0.007	-0.091
-335.275	289.013	0.055	0.099
-334.260	200.952	-0.191	0.291
-333.245	-70.657	0.212	0.079
-332.231	-69.941	-0.179	0.067
-331.216	-29.130	0.331	0.188
-330.202	-49.875	0.214	0.100
-329.187	-86.105	0.159	-0.049
-328.172	17.604	0.107	-0.085
-327.158	144.706	0.173	0.229
-326.143	-4.213	0.296	-0.203
-325.129	-124.616	0.288	0.044
-324.114	-111.625	-0.197	-0.040
-323.099	-57.795	0.372	0.161
-322.085	-137.365	-0.085	0.009
-321.070	122.036	0.139	-0.171
-320.056	-159.568	-0.354	0.019
-319.041	-200.000	-0.012	-0.166
-318.026	13.157	0.062	-0.048
-317.012	15.436	-0.328	0.255
-315.997	193.192	0.183	-0.274
-314.983	-200.000	0.014	-0.264
-313.968	-45.063	-0.230	-0.113
-312.953	593.914	-0.065	-0.158
-311.939	-99.507	0.258	0.064
-310.924	-200.000	-0.029	0.385
-309.910	132.360	-0.138	0.176
-308.895	-115.241	0.116	-0.022
-307.880	762.492	0.143	-0.384
-306.866	-66.850	0.276	-0.108
-305.851	113.269	-0.006	0.007
-304.837	-200.000	0.000	0.284
-303.822	-152.281	0.054	-0.004
-302.807	-128.884	-0.186	0.026
-301.793	-67.155	0.154	-0.060
-300.778	-1.566	0.031	-0.021
-299.764	-0.864	0.032	0.022
-298.749	176.867	0.131	0.188
-297.735	59.188	0.197	0.192
-296.720	36.773	0.142	0.124
-295.705	-190.302	-0.399	-0.004
-294.691	162.569	0.159	-0.220
-293.676	-104.248	0.131	0.030
-292.662	284.715	0.054	-0.096
-291.647	800.000	-0.057	0.214
-290.632	800.000	-0.068	0.199
-289.618	-200.000	-0.001	-0.068
-288.603	159.773	-0.051	0.070
-287.589	301.317	-0.090	0.165
-286.574	-50.411	-0.147	-0.069
-285.559	196.798	-0.109	-0.165
-284.545	127.168	-0.097	-0.122
-283.530	170.177	0.252	-0.356
-282.516	-109.667	-0.200	-0.042
-281.501	704.271	0.086	0.223
-280.486	-39.807	0.242	-0.125
-279.472	-200.000	0.091	0.458
-278.457	-200.000	-0.019	0.205
-277.443	-118.293	0.210	-0.037
-276.428	-184.815	-0.400	0.006
-275.413	303.110	0.063	-0.116
-274.399	-55.383	0.126	0.056
-273.384	164.883	-0.089	-0.124
-272.370	151.245	0.177	0.237
-271.355	800.000	0.094	-0.281
-270.340	355.130	-0.014	-0.028
-269.326	97.709	-0.201	0.228
-268.311	-59.599	0.269	0.114
-267.297	470.963	0.142	0.315
-266.282	-175.000	0.333	-0.009
-265.267	124.538	-0.095	0.118
-264.253	-155.055	-0.164	0.011
-263.238	-69.558	0.304	0.115
-262.224	-98.841	0.066	-0.016
-261.209	54.572	-0.226	0.215
-260.195	-200.000	0.005	0.119
-259.180	-169.102	0.183	-0.007
-258.165	322.621	-0.117	-0.219
-257.151	205.575	-0.064	-0.098
-256.136	52.691	0.095	0.090
-255.122	-28.102	-0.260	-0.148
-254.107	-117.145	-0.290	-0.052
-253.092	-5.814	0.062	-0.042
-252.078	-28.192	0.352	0.200
-251.063	171.761	0.107	-0.152
-250.049	24.117	0.083	0.067
-249.034	-105.110	0.216	0.049
-248.019	46.613	-0.271	0.248
-247.005	110.117	0.113	0.133
-245.990	800.000	0.023	-0.065
-244.976	-68.842	-0.510	0.194
-243.961	33.646	-0.165	-0.141
-242.946	-88.793	0.241	0.071
-241.932	106.524	-0.139	-0.163
-240.917	63.039	0.191	0.188
-239.903	39.161	0.210	0.186
-238.888	-149.397	0.194	-0.015
-237.873	-30.246	-0.109	0.061
-236.859	82.574	-0.032	-0.034
-235.844	-53.883	0.398	0.179
-234.830	363.475	-0.098	0.195
-233.815	309.256	-0.193	0.355
-232.800	325.141	0.054	0.103
-231.786	-27.092	0.356	0.205
-230.771	666.193	-0.069	-0.175
-229.757	746.833	0.132	0.351
-228.742	-133.815	0.176	-0.022
-227.727	139.014	0.135	0.175
-226.713	-86.697	-0.266	0.080
-225.698	274.729	-0.106	0.185
-224.684	-112.402	-0.026	0.005
-223.669	-48.447	0.138	-0.065
-222.655	160.639	-0.230	-0.316
-221.640	-132.735	0.061	-0.008
-220.625	-28.575	0.152	0.086
-219.611	-200.000	-0.116	-0.001
-218.596	-52.345	0.246	0.112
-217.582	192.323	-0.360	-0.535
-216.567	-173.560	0.316	0.009
-215.552	-200.000	-0.009	-0.158
-214.538	336.963	-0.124	0.238
-213.523	-4.115	0.079	-0.054
-212.509	-27.293	-0.183	-0.105
-211.494	-32.338	0.095	0.052
-210.479	204.983	0.123	-0.188
-209.465	-200.000	-0.066	-0.299
-208.450	315.769	0.089	-0.165
-207.436	109.341	-0.121	-0.142
-206.421	-200.000	0.062	-0.288
-205.406	800.000	0.018	-0.074
-204.392	-200.000	0.009	-0.119
-203.377	-114.260	-0.288	0.055
-202.363	-45.187	0.155	0.076
-201.348	-61.034	0.388	0.161
-200.333	42.675	0.329	0.295
-199.319	607.263	0.061	0.149
-198.304	-200.000	0.049	0.490
-197.290	800.000	-0.141	-0.426
-196.275	-180.816	0.097	-0.002
-195.260	80.603	0.208	0.221
-194.246	103.157	-0.126	0.145
-193.231	392.558	0.045	0.092
-192.217	-200.000	-0.051	-0.308
-191.202	167.178	-0.103	0.143
-190.187	126.851	0.087	0.109
-189.173	30.819	-0.132	-0.111
-188.158	-200.000	-0.050	-0.347
-187.144	560.482	-0.101	-0.240
-186.129	-55.976	0.177	-0.078
-185.114	800.000	0.070	-0.199
-184.100	87.690	0.062	0.067
-183.085	-200.000	-0.005	0.037
-182.071	-54.155	-0.289	-0.129
-181.056	-200.000	0.016	-0.272
-180.042	800.000	-0.075	-0.221
-179.027	82.505	0.126	0.134
-178.012	83.445	0.079	0.085
-176.998	-54.298	-0.292	-0.130
-175.983	-74.182	-0.185	0.066
-174.969	-200.000	-0.001	-0.208
-173.954	55.076	-0.286	0.272
-172.939	317.432	0.242	0.450
-171.925	-83.874	-0.276	0.086
-170.910	-24.171	0.222	0.130
-169.896	-149.752	0.158	0.012
-168.881	800.000	0.109	0.371
-167.866	-58.762	-0.234	0.100
-166.852	187.913	-0.133	0.195
-165.837	485.448	0.123	-0.275
-164.823	-200.000	0.009	-0.107
-163.808	800.000	0.025	-0.073
-162.793	-200.000	0.024	0.125
-161.779	-98.054	0.193	-0.049
-160.764	-19.308	0.314	-0.191
-159.750	-92.897	-0.098	-0.027
-158.735	358.652	0.096	0.188
-157.720	-125.379	0.223	-0.033
-156.706	-200.000	0.046	0.446
-155.691	658.489	-0.116	0.294
-154.677	40.830	0.168	-0.148
-153.662	56.224	0.071	0.067
-152.647	-91.602	0.314	-0.088
-151.633	-77.089	-0.285	-0.097
-150.618	-27.016	-0.132	0.076
-149.604	-42.574	0.264	-0.132
-148.589	-129.916	0.078	0.010
-147.574	-200.000	-0.045	-0.428
-146.560	272.315	0.081	0.141
-145.545	433.880	0.086	-0.183
-144.531	-127.864	-0.237	-0.034
-143.516	800.000	0.150	0.637
-142.502	15.990	-0.312	0.242
-141.487	-200.000	-0.057	-0.283
-140.472	-200.000	0.022	-0.207
-139.458	59.813	-0.215	-0.208
-138.443	278.677	0.116	-0.203
-137.429	-12.146	0.351	0.225
-136.414	392.554	-0.173	0.352
-135.399	-93.114	0.312	0.085
-134.385	576.157	-0.092	0.221
-133.370	-54.515	-0.263	0.117
-132.356	-200.000	0.001	0.002
-131.341	-79.390	0.096	-0.032
-130.326	294.247	0.149	0.267
-129.312	-200.000	0.039	0.195
-128.297	-82.662	0.131	-0.042
-127.283	800.000	0.072	0.223
-126.268	192.046	-0.133	0.197
-125.253	-106.261	-0.197	-0.043
-124.239	800.000	-0.101	0.334
-123.224	172.762	-0.189	0.266
-122.210	266.049	0.047	-0.080
-121.195	800.000	0.021	0.066
