DTS Sentinel unit serial number:	SN413079Multiplexer serial number:	ORYXHardware model number:	OX4-SRSoftware version number:	ORYX F/W v4.00 Oryx Data Collector v3.7.2.0data status	okinstallation	princeton_trtdifferential loss correction	single-endedforward channel	channel 1reverse channel	N/Adate	2019/09/11time	21:28:11forward acquisition time	60.00reverse acquisition time	0.00gamma	496.2192k internal	0.2309k external	0.2309temperature offset calibration	1.0048default loss term (dB/km)	0.3790temperature slope calibration	1.0000multiplexer offset coefficient	1.0000multiplexer slope coefficient	1.0000fibre end	0.00T internal ref (°C)	36.05T ext. ref 1 (°C)	1.61T ext. ref 2 (°C)	29.98length (m)	temperature (°C)	Stokes	anti-Stokes-747.200	181.029	-0.059	0.088
-746.185	-139.374	-0.286	0.031
-745.171	2.263	0.076	0.056
-744.156	71.828	0.221	0.233
-743.142	126.101	0.137	0.176
-742.127	-200.000	0.043	0.203
-741.112	800.000	-0.076	0.322
-740.098	-4.431	0.152	-0.106
-739.083	58.713	-0.139	0.139
-738.069	-131.991	-0.256	-0.034
-737.054	-26.883	0.344	0.204
-736.039	-131.228	-0.159	-0.021
-735.025	800.000	0.077	0.275
-734.010	-200.000	0.019	0.277
-732.996	-137.006	-0.508	-0.059
-731.981	56.211	-0.235	-0.232
-730.966	-0.271	-0.260	0.187
-729.952	800.000	-0.042	-0.187
-728.937	-2.651	-0.198	-0.141
-727.923	252.386	-0.227	-0.393
-726.908	800.000	-0.026	0.096
-725.894	-200.000	0.010	0.188
-724.879	-127.626	-0.208	0.031
-723.864	8.492	0.400	-0.306
-722.850	800.000	-0.087	0.367
-721.835	-200.000	-0.001	-0.159
-720.821	-163.428	0.167	0.008
-719.806	-200.000	-0.035	-0.198
-718.791	-0.738	-0.188	-0.135
-717.777	136.587	0.071	0.094
-716.762	-7.723	0.067	0.046
-715.748	395.823	-0.099	0.209
-714.733	-200.000	0.009	-0.256
-713.718	4.521	-0.139	0.103
-712.704	-21.144	0.483	-0.300
-711.689	800.000	0.030	0.097
-710.675	-30.959	-0.344	0.197
-709.660	47.732	0.104	0.098
-708.645	800.000	-0.075	-0.285
-707.631	-14.822	-0.259	-0.169
-706.616	596.590	-0.039	-0.099
-705.602	-200.000	0.003	0.156
-704.587	161.915	-0.204	-0.290
-703.572	-110.678	-0.140	0.029
-702.558	-200.000	0.059	0.456
-701.543	-200.000	-0.037	-0.280
-700.529	124.160	0.333	0.425
-699.514	-23.932	0.210	-0.127
-698.499	52.098	-0.216	0.209
-697.485	-47.269	0.439	0.217
-696.470	-200.000	-0.128	-0.000
-695.456	-200.000	-0.022	-0.145
-694.441	800.000	0.111	0.350
-693.426	103.357	0.169	0.201
-692.412	406.806	0.162	0.347
-691.397	738.066	-0.023	-0.061
-690.383	367.865	0.032	-0.066
-689.368	-146.209	0.202	-0.018
-688.354	437.887	0.232	0.513
-687.339	-200.000	0.004	-0.137
-686.324	-185.392	0.532	-0.008
-685.310	800.000	-0.073	0.220
-684.295	39.792	-0.121	-0.110
-683.281	-54.385	0.219	-0.100
-682.266	-53.655	0.221	0.102
-681.251	342.370	-0.137	0.271
-680.237	800.000	-0.092	0.323
-679.222	231.761	0.076	-0.127
-678.208	-200.000	-0.021	0.144
-677.193	800.000	0.019	-0.073
-676.178	-32.737	0.238	-0.134
-675.164	13.157	0.101	-0.079
-674.149	-110.387	0.212	-0.045
-673.135	332.852	0.123	0.240
-672.120	17.499	0.278	0.224
-671.105	-200.000	0.018	-0.112
-670.091	93.697	0.023	-0.027
-669.076	-165.801	-0.269	0.012
-668.062	-70.272	0.084	0.032
-667.047	74.824	-0.166	-0.177
-666.032	800.000	-0.074	-0.305
-665.018	669.710	-0.057	-0.150
-664.003	418.067	-0.175	-0.379
-662.989	-101.031	-0.265	0.066
-661.974	502.226	0.106	0.247
-660.959	-200.000	0.023	-0.401
-659.945	-96.607	-0.054	-0.014
-658.930	220.354	-0.053	-0.085
-657.916	506.027	0.110	0.258
-656.901	-200.000	-0.028	-0.159
-655.886	-90.789	-0.148	-0.043
-654.872	223.730	-0.244	0.399
-653.857	-200.000	-0.023	0.196
-652.843	-30.602	0.323	0.185
-651.828	597.477	-0.059	0.148
-650.814	38.608	0.184	-0.166
-649.799	-82.506	0.116	-0.038
-648.784	67.586	0.259	-0.268
-647.770	245.667	-0.143	-0.244
-646.755	-35.327	-0.180	-0.099
-645.741	-191.728	0.049	0.000
-644.726	-44.652	-0.084	-0.042
-643.711	-117.288	-0.216	-0.040
-642.697	139.538	0.235	-0.314
-641.682	-200.000	-0.021	-0.131
-640.668	-9.286	0.267	-0.180
-639.653	15.887	-0.334	-0.266
-638.638	319.949	0.220	-0.422
-637.624	425.879	-0.051	0.111
-636.609	41.410	0.461	-0.422
-635.595	-30.700	-0.070	-0.040
-634.580	201.214	0.181	0.282
-633.565	17.788	-0.219	-0.176
-632.551	-134.689	0.233	0.029
-631.536	-114.480	0.182	0.035
-630.522	54.841	-0.074	0.072
-629.507	-96.362	0.089	0.024
-628.492	83.700	-0.160	0.176
-627.478	58.483	-0.158	0.156
-626.463	-200.000	-0.013	-0.313
-625.449	-88.522	-0.163	-0.049
-624.434	104.788	-0.275	-0.328
-623.419	-191.337	-0.249	0.003
-622.405	220.754	-0.054	-0.087
-621.390	-200.000	0.015	0.072
-620.376	161.274	-0.182	-0.257
-619.361	-200.000	-0.008	-0.133
-618.346	-200.000	0.001	-0.181
-617.332	800.000	0.028	-0.091
-616.317	147.496	0.145	-0.198
-615.303	-200.000	-0.007	-0.257
-614.288	-200.000	-0.004	-0.205
-613.273	-200.000	0.043	-0.281
-612.259	-69.827	0.192	-0.074
-611.244	9.704	-0.128	0.098
-610.230	-23.549	-0.140	-0.085
-609.215	-200.000	-0.018	-0.272
-608.201	283.576	-0.137	0.248
-607.186	800.000	-0.038	0.108
-606.171	-129.141	0.434	-0.061
-605.157	363.536	-0.060	0.123
-604.142	-85.507	0.066	0.021
-603.128	181.580	0.123	-0.183
-602.113	800.000	0.098	0.395
-601.098	-69.133	-0.194	-0.076
-600.084	413.903	-0.121	-0.261
-599.069	-107.874	0.067	-0.015
-598.055	103.350	0.044	-0.052
-597.040	100.918	-0.160	0.188
-596.025	-200.000	0.005	0.087
-595.011	-200.000	0.030	-0.161
-593.996	-89.661	-0.399	-0.118
-592.982	65.307	-0.162	-0.165
-591.967	63.652	0.105	0.106
-590.952	-95.785	-0.284	-0.077
-589.938	147.246	-0.251	-0.341
-588.923	357.373	0.111	-0.224
-587.909	-49.414	-0.361	-0.174
-586.894	-200.000	-0.024	-0.135
-585.879	-76.794	-0.262	-0.092
-584.865	-78.297	0.279	-0.097
-583.850	89.047	0.171	0.192
-582.836	800.000	0.114	0.389
-581.821	445.405	0.068	0.151
-580.806	-200.000	-0.011	-0.153
-579.792	-115.840	0.037	-0.007
-578.777	203.617	0.176	-0.274
-577.763	800.000	0.087	-0.351
-576.748	800.000	-0.035	-0.136
-575.733	-25.420	0.215	0.128
-574.719	800.000	-0.145	-0.473
-573.704	-39.177	-0.128	0.068
-572.690	-150.366	0.292	-0.023
-571.675	56.505	-0.166	0.163
-570.661	-98.668	-0.196	-0.050
-569.646	709.908	-0.145	0.387
-568.631	649.922	-0.082	0.213
-567.617	177.811	0.067	-0.099
-566.602	-200.000	-0.029	0.266
-565.588	-200.000	-0.001	-0.124
-564.573	86.574	-0.127	-0.141
-563.558	800.000	-0.010	0.042
-562.544	-76.380	0.253	-0.090
-561.529	80.859	-0.137	0.149
-560.515	174.228	-0.168	-0.245
-559.500	303.301	-0.172	0.322
-558.485	-131.707	0.252	0.033
-557.471	-1.710	-0.106	0.075
-556.456	-200.000	-0.018	-0.186
-555.442	-62.106	0.172	0.072
-554.427	-175.077	0.454	-0.013
-553.412	-113.530	-0.021	0.004
-552.398	-200.000	0.025	-0.279
-551.383	352.776	0.071	0.141
-550.369	14.014	0.095	-0.075
-549.354	77.566	-0.122	-0.131
-548.339	-200.000	0.029	0.260
-547.325	-158.037	0.328	0.019
-546.310	11.356	0.034	0.026
-545.296	28.009	0.479	0.407
-544.281	144.699	0.118	0.159
-543.266	-121.662	-0.213	0.035
-542.252	-200.000	0.041	-0.433
-541.237	409.804	0.074	0.159
-540.223	88.543	0.031	0.034
-539.208	-151.734	0.394	-0.029
-538.193	-161.193	0.273	-0.014
-537.179	-46.878	0.305	0.150
-536.164	-103.292	-0.317	0.075
-535.150	800.000	-0.030	-0.087
-534.135	-200.000	-0.005	-0.095
-533.121	333.824	-0.107	-0.209
-532.106	-107.916	0.500	0.110
-531.091	80.366	-0.195	0.212
-530.077	800.000	0.076	0.228
-529.062	-101.323	-0.222	0.054
-528.048	161.482	0.158	0.223
-527.033	-164.193	0.224	0.010
-526.018	110.076	0.095	-0.115
-525.004	422.082	0.037	-0.081
-523.989	44.631	-0.199	0.184
-522.975	-200.000	-0.023	0.225
-521.960	35.609	0.051	-0.045
-520.945	-133.309	-0.353	0.045
-519.931	800.000	-0.052	-0.156
-518.916	-95.574	-0.114	0.031
-517.902	800.000	0.080	0.332
-516.887	45.852	0.343	-0.320
-515.872	-200.000	-0.005	-0.073
-514.858	-200.000	0.029	0.227
-513.843	800.000	0.034	0.117
-512.829	-34.566	-0.261	0.144
-511.814	427.821	-0.096	-0.209
-510.799	800.000	0.078	-0.293
-509.785	400.750	-0.103	0.217
-508.770	33.210	-0.395	0.345
-507.756	76.314	0.086	-0.091
-506.741	-86.079	-0.046	0.014
-505.726	-200.000	0.025	-0.378
-504.712	273.825	0.082	-0.146
-503.697	-14.817	-0.367	0.237
-502.683	98.104	-0.070	0.081
-501.668	104.063	-0.049	0.058
-500.653	261.349	-0.260	-0.454
-499.639	-62.962	0.211	-0.088
-498.624	-105.440	-0.099	0.023
-497.610	-200.000	-0.054	0.287
-496.595	800.000	-0.051	0.152
-495.581	196.223	-0.015	0.023
-494.566	57.426	-0.126	-0.124
-493.551	800.000	-0.164	0.461
-492.537	-178.527	0.083	-0.002
-491.522	27.839	0.200	-0.169
-490.508	-84.354	0.089	-0.028
-489.493	-200.000	-0.088	0.421
-488.478	-124.781	-0.179	-0.028
-487.464	351.599	0.104	0.207
-486.449	170.263	0.042	-0.060
-485.435	-200.000	-0.002	0.052
-484.420	-157.437	-0.189	0.011
-483.405	172.178	0.214	0.310
-482.391	394.784	0.218	-0.456
-481.376	-73.883	-0.108	0.039
-480.362	-71.411	0.219	-0.082
-479.347	800.000	-0.043	-0.171
-478.332	-114.375	-0.182	-0.035
-477.318	-200.000	0.049	0.218
-476.303	20.418	-0.181	-0.147
-475.289	250.747	0.178	-0.305
-474.274	119.336	-0.077	0.095
-473.259	-92.776	0.111	0.031
-472.245	129.245	0.189	-0.243
-471.230	36.428	-0.183	0.163
-470.216	-110.796	0.283	-0.059
-469.201	162.771	0.127	0.180
-468.186	-40.970	0.163	0.085
-467.172	-73.143	-0.246	0.091
-466.157	-154.645	0.049	-0.003
-465.143	253.227	-0.288	0.494
-464.128	-160.155	0.161	0.009
-463.113	800.000	0.124	-0.347
-462.099	17.917	0.193	0.154
-461.084	800.000	-0.049	0.202
-460.070	-60.210	-0.243	0.104
-459.055	-114.241	0.367	-0.071
-458.040	34.979	-0.294	-0.259
-457.026	-68.020	0.254	-0.100
-456.011	-200.000	-0.011	-0.099
-454.997	5.115	-0.146	-0.108
-453.982	-1.579	0.129	-0.091
-452.968	10.049	-0.326	-0.248
-451.953	58.322	-0.195	-0.192
-450.938	286.388	0.018	0.033
-449.924	-41.099	-0.213	-0.110
-448.909	-200.000	-0.073	0.409
-447.895	-68.784	0.063	0.024
-446.880	-200.000	0.003	0.076
-445.865	702.570	0.085	0.225
-444.851	-174.943	-0.431	-0.012
-443.836	540.245	-0.147	-0.351
-442.822	-138.433	-0.121	0.013
-441.807	112.108	0.121	0.147
-440.792	-6.073	-0.199	-0.137
-439.778	800.000	-0.070	0.273
-438.763	-200.000	-0.007	0.082
-437.749	-200.000	-0.012	-0.320
-436.734	366.512	0.135	-0.274
-435.719	35.793	0.092	0.081
-434.705	-200.000	-0.013	0.000
-433.690	-48.376	-0.293	0.142
-432.676	-3.450	0.149	0.104
-431.661	800.000	0.148	0.540
-430.646	-149.853	-0.208	0.016
-429.632	455.928	-0.196	-0.436
-428.617	-32.559	-0.061	0.034
-427.603	578.677	-0.072	0.177
-426.588	-80.127	-0.151	-0.051
-425.573	-114.919	0.259	0.049
-424.559	-200.000	-0.012	-0.300
-423.544	314.398	0.160	0.301
-422.530	800.000	0.077	-0.268
-421.515	356.556	0.030	-0.061
-420.500	-43.490	0.169	0.086
-419.486	122.152	0.078	-0.098
-418.471	800.000	0.087	0.371
-417.457	-60.155	-0.090	0.039
-416.442	193.309	0.207	0.314
-415.428	-122.782	0.362	0.059
-414.413	66.476	0.322	-0.328
-413.398	21.500	0.167	-0.136
-412.384	800.000	0.068	0.253
-411.369	-64.045	0.209	0.086
-410.355	409.677	0.213	-0.453
-409.340	15.784	0.231	-0.182
-408.325	-200.000	-0.217	0.000
-407.311	800.000	0.054	0.223
-406.296	33.327	-0.055	0.048
-405.282	201.069	-0.082	-0.127
-404.267	-162.262	-0.248	-0.012
-403.252	-200.000	-0.051	-0.227
-402.238	-57.136	-0.296	-0.131
-401.223	-4.427	-0.127	0.088
-400.209	-88.323	0.074	-0.022
-399.194	778.443	0.109	-0.297
-398.179	333.157	0.067	-0.130
-397.165	-11.675	-0.310	0.204
-396.150	44.367	-0.191	-0.176
-395.136	-147.632	-0.056	-0.005
-394.121	154.007	0.148	-0.203
-393.106	-89.412	0.134	-0.039
-392.092	-122.713	0.046	-0.007
-391.077	-200.000	0.003	-0.143
-390.063	32.867	0.371	0.322
-389.048	-18.493	-0.393	0.246
-388.033	570.993	-0.124	-0.302
-387.019	293.410	0.075	0.138
-386.004	16.101	0.149	-0.118
-384.990	-150.153	-0.214	0.017
-383.975	800.000	-0.041	-0.136
-382.960	762.346	0.033	0.089
-381.946	-123.715	0.275	0.044
-380.931	-128.688	-0.103	0.015
-379.917	-48.829	-0.128	-0.062
-378.902	18.474	0.042	-0.034
-377.888	105.206	0.311	-0.368
-376.873	-33.581	-0.174	0.096
-375.858	-91.458	-0.360	0.103
-374.844	-73.495	-0.228	-0.083
-373.829	243.350	0.199	-0.335
-372.815	737.448	0.008	-0.022
-371.800	39.209	-0.079	-0.071
-370.785	800.000	0.132	-0.370
-369.771	-140.598	-0.310	-0.032
-368.756	-200.000	0.053	-0.418
-367.742	130.227	-0.047	0.060
-366.727	-99.960	-0.279	-0.070
-365.712	40.717	0.154	-0.139
-364.698	-200.000	0.002	-0.091
-363.683	-118.404	-0.107	0.019
-362.669	-116.880	-0.100	-0.018
-361.654	-54.387	0.148	0.067
-360.639	-49.288	0.248	0.119
-359.625	-20.961	-0.230	0.141
-358.610	263.862	0.222	0.386
-357.596	-15.435	-0.135	-0.086
-356.581	-200.000	0.109	-0.000
-355.566	-14.964	-0.206	0.132
-354.552	-67.754	-0.051	0.020
-353.537	66.647	-0.049	0.050
-352.523	1.361	0.258	-0.186
-351.508	-153.754	0.130	0.009
-350.493	-36.153	-0.422	0.228
-349.479	-78.859	0.185	0.063
-348.464	-19.989	-0.066	-0.041
-347.450	7.919	-0.110	-0.083
-346.435	-92.609	-0.210	0.059
-345.420	257.049	-0.131	-0.225
-344.406	-79.155	-0.331	0.112
-343.391	-167.003	-0.093	-0.004
-342.377	166.916	-0.067	0.096
-341.362	243.821	0.060	0.101
-340.348	-56.935	0.336	0.148
-339.333	-125.311	0.179	0.027
-338.318	-31.582	0.255	-0.143
-337.304	1.937	-0.069	0.050
-336.289	-56.550	0.447	0.198
-335.275	207.218	-0.171	0.266
-334.260	340.592	-0.149	0.292
-333.245	-142.227	-0.351	0.035
-332.231	-76.056	0.206	0.073
-331.216	145.935	0.173	-0.232
-330.202	800.000	-0.067	-0.275
-329.187	135.895	0.239	0.311
-328.172	-200.000	0.009	0.253
-327.158	-200.000	-0.029	0.145
-326.143	-200.000	-0.020	0.126
-325.129	-170.657	-0.151	0.005
-324.114	65.667	0.180	0.182
-323.099	-200.000	-0.015	-0.141
-322.085	-113.857	-0.160	0.031
-321.070	-200.000	-0.001	-0.027
-320.056	-40.710	-0.113	0.059
-319.041	-19.772	0.161	0.099
-318.026	-85.319	-0.181	-0.057
-317.012	40.753	-0.101	0.091
-315.997	-58.061	-0.325	-0.141
-314.983	-115.469	-0.120	0.023
-313.968	-77.360	0.071	-0.025
-312.953	-200.000	-0.010	-0.054
-311.939	48.902	0.254	-0.239
-310.924	-35.933	-0.153	0.083
-309.910	-17.846	0.235	0.147
-308.895	27.994	-0.145	-0.122
-307.880	-118.106	0.283	-0.050
-306.866	61.132	-0.155	-0.153
-305.851	-117.585	0.194	0.035
-304.837	-98.402	-0.418	-0.107
-303.822	-200.000	-0.036	0.199
-302.807	-47.826	-0.236	0.114
-301.793	94.049	0.085	0.096
-300.778	75.165	0.188	0.198
-299.764	79.709	0.245	0.263
-298.749	-118.739	0.123	0.022
-297.735	-50.872	-0.248	0.116
-296.720	-87.967	-0.115	-0.034
-295.705	-200.000	0.004	0.094
-294.691	800.000	0.125	0.353
-293.676	-101.377	0.296	-0.072
-292.662	-93.040	-0.348	0.097
-291.647	-46.570	0.050	0.024
-290.632	-150.190	0.211	-0.016
-289.618	-37.884	-0.345	-0.183
-288.603	-200.000	0.072	0.340
-287.589	-200.000	-0.001	0.113
-286.574	73.195	0.120	-0.125
-285.559	180.649	0.214	0.314
-284.545	800.000	-0.103	-0.418
-283.530	-200.000	0.040	-0.194
-282.516	-200.000	0.033	0.248
-281.501	-0.917	0.047	0.033
-280.486	-152.361	0.311	-0.022
-279.472	-103.681	-0.227	0.053
-278.457	179.872	-0.267	0.390
-277.443	-88.736	-0.388	-0.115
-276.428	25.065	-0.064	-0.053
-275.413	151.377	-0.136	0.184
-274.399	582.601	-0.102	0.249
-273.384	-200.000	0.021	-0.241
-272.370	-200.000	0.028	0.135
-271.355	-16.275	0.067	0.042
-270.340	-34.447	0.080	0.044
-269.326	-57.019	-0.408	0.180
-268.311	-54.209	0.322	-0.146
-267.297	85.441	0.108	0.118
-266.282	800.000	0.056	-0.191
-265.267	-200.000	-0.018	-0.291
-264.253	-200.000	-0.006	0.215
-263.238	-200.000	-0.024	-0.198
-262.224	-57.767	0.249	0.109
-261.209	-82.523	-0.319	0.103
-260.195	-103.953	0.131	0.030
-259.180	578.279	-0.062	-0.151
-258.165	155.534	-0.300	-0.412
-257.151	800.000	0.101	0.336
-256.136	-85.910	0.158	-0.049
-255.122	-200.000	-0.044	-0.371
-254.107	-59.528	0.406	0.174
-253.092	-120.489	-0.243	-0.041
-252.078	64.955	0.227	0.229
-251.063	800.000	-0.053	0.199
-250.049	-200.000	-0.006	0.043
-249.034	800.000	-0.044	-0.183
-248.019	368.033	0.111	0.223
-247.005	-12.531	-0.299	0.195
-245.990	0.101	-0.132	-0.094
-244.976	5.835	-0.137	-0.101
-243.961	102.964	0.213	0.249
-242.946	80.838	0.217	-0.233
-241.932	51.711	-0.020	0.019
-240.917	175.763	-0.045	0.066
-239.903	-22.053	0.095	0.057
-238.888	-200.000	-0.012	0.246
-237.873	-174.085	0.274	-0.008
-236.859	39.041	0.316	-0.281
-235.844	-107.976	-0.320	-0.069
-234.830	13.080	0.096	-0.074
-233.815	73.518	0.180	0.187
-232.800	800.000	-0.015	-0.046
-231.786	-71.630	0.231	-0.086
-230.771	-143.118	0.150	-0.014
-229.757	-81.797	0.193	0.063
-228.742	-60.127	-0.091	-0.038
-227.727	800.000	0.037	-0.138
-226.713	-9.054	-0.244	-0.162
-225.698	136.492	0.081	-0.105
-224.684	68.211	-0.292	0.297
-223.669	-200.000	-0.060	0.304
-222.655	89.310	0.020	-0.022
-221.640	-19.519	0.183	0.113
-220.625	34.784	-0.315	0.274
-219.611	511.067	0.070	0.163
-218.596	137.956	0.200	-0.260
-217.582	50.667	-0.245	-0.230
-216.567	278.731	-0.175	0.311
-215.552	-180.473	-0.192	-0.004
-214.538	-23.356	0.206	0.123
-213.523	317.843	-0.068	-0.129
-212.509	84.202	-0.190	0.207
-211.494	222.768	-0.145	-0.232
-210.479	20.028	0.172	0.138
-209.465	195.725	-0.089	0.135
-208.450	-23.677	-0.120	-0.072
-207.436	12.018	-0.138	-0.106
-206.421	800.000	0.158	0.536
-205.406	430.313	0.211	0.454
-204.392	278.133	0.065	-0.115
-203.377	114.404	0.293	-0.355
-202.363	-74.295	0.334	0.120
-201.348	-200.000	-0.012	0.188
-200.333	-15.976	0.113	-0.071
-199.319	-200.000	0.004	0.208
-198.304	-75.203	-0.384	0.137
-197.290	800.000	-0.053	-0.190
-196.275	-19.661	0.253	0.156
-195.260	187.329	-0.151	0.225
-194.246	-50.543	0.298	0.140
-193.231	46.211	0.052	-0.048
-192.217	-200.000	0.002	0.139
-191.202	363.530	0.114	-0.227
-190.187	86.130	0.135	-0.148
-189.173	-200.000	-0.013	-0.061
-188.158	4.502	-0.139	-0.101
-187.144	185.711	-0.185	0.274
-186.129	267.116	-0.079	-0.138
-185.114	-76.732	-0.295	0.103
-184.100	348.010	0.091	-0.179
-183.085	-87.650	-0.023	-0.007
-182.071	800.000	0.090	0.319
-181.056	278.525	0.339	0.600
-180.042	237.526	0.057	-0.093
-179.027	630.873	0.133	0.335
-178.012	117.515	0.119	0.146
-176.998	-150.851	0.169	-0.013
-175.983	-200.000	-0.099	0.471
-174.969	-63.464	-0.269	-0.110
-173.954	139.619	0.074	0.097
-172.939	-179.262	0.311	0.007
-171.925	230.627	0.012	0.019
-170.910	-200.000	-0.011	0.074
-169.896	-32.892	-0.471	-0.260
-168.881	153.473	0.236	-0.321
-167.866	455.338	-0.125	-0.275
-166.852	101.729	0.037	0.043
-165.837	12.148	0.139	0.106
-164.823	488.261	-0.114	0.258
-163.808	-200.000	0.013	-0.064
-162.793	785.138	0.027	0.072
-161.779	-30.945	0.221	-0.124
-160.764	-200.000	0.074	-0.330
-159.750	-157.347	0.151	-0.009
-158.735	4.799	-0.171	-0.125
-157.720	-2.223	-0.165	-0.115
-156.706	-200.000	0.008	-0.070
-155.691	-200.000	-0.011	0.116
-154.677	-126.299	-0.306	-0.045
-153.662	-177.919	0.325	0.008
-152.647	800.000	-0.089	-0.309
-151.633	150.722	-0.087	-0.118
-150.618	-200.000	-0.004	-0.294
-149.604	257.867	-0.058	0.099
-148.589	220.499	0.130	-0.207
-147.574	101.849	-0.198	0.229
-146.560	99.303	0.271	0.310
-145.545	456.231	0.106	-0.232
-144.531	76.001	0.211	0.221
-143.516	-121.180	0.203	0.034
-142.502	-62.474	0.336	-0.138
-141.487	665.612	-0.141	-0.361
-140.472	-200.000	0.037	0.232
-139.458	800.000	0.020	-0.060
-138.443	-130.478	0.182	-0.024
-137.429	-142.086	-0.221	-0.022
-136.414	-80.944	0.300	-0.099
-135.399	-54.188	0.282	-0.127
-134.385	-200.000	-0.014	0.414
-133.370	-79.082	0.200	0.067
-132.356	349.354	0.121	0.237
-131.341	800.000	0.100	-0.403
-130.326	131.302	0.080	-0.101
-129.312	152.588	0.170	-0.231
-128.297	281.551	-0.150	-0.266
-127.283	34.403	0.013	-0.012
-126.268	-133.423	0.381	0.048
-125.253	-47.465	0.248	-0.120
-124.239	-134.685	0.109	0.013
-123.224	-63.559	0.095	-0.039
-122.210	-59.116	-0.071	0.030
-121.195	-200.000	0.012	-0.127
