DTS Sentinel unit serial number:	SN413079Multiplexer serial number:	ORYXHardware model number:	OX4-SRSoftware version number:	ORYX F/W v4.00 Oryx Data Collector v3.7.2.0data status	okinstallation	princeton_trtdifferential loss correction	single-endedforward channel	channel 1reverse channel	N/Adate	2019/09/13time	01:34:35forward acquisition time	60.00reverse acquisition time	0.00gamma	496.2192k internal	0.2330k external	0.2330temperature offset calibration	1.0146default loss term (dB/km)	0.3790temperature slope calibration	1.0000multiplexer offset coefficient	1.0000multiplexer slope coefficient	1.0000fibre end	0.00T internal ref (°C)	27.78T ext. ref 1 (°C)	3.75T ext. ref 2 (°C)	22.41length (m)	temperature (°C)	Stokes	anti-Stokes-747.200	-22.740	-0.146	-0.089
-746.185	-84.204	-0.283	0.090
-745.171	-56.604	0.137	-0.061
-744.156	334.315	0.056	-0.109
-743.142	-6.191	-0.286	-0.196
-742.127	-200.000	0.012	-0.062
-741.112	326.048	0.064	-0.123
-740.098	-92.550	-0.340	0.096
-739.083	800.000	-0.048	0.172
-738.069	-24.883	-0.227	0.136
-737.054	447.978	-0.170	-0.376
-736.039	-127.823	-0.352	0.051
-735.025	-106.251	0.079	0.018
-734.010	800.000	-0.063	-0.276
-732.996	-200.000	-0.009	0.200
-731.981	-96.236	-0.411	0.110
-730.966	-52.976	0.144	0.066
-729.952	51.063	-0.076	-0.072
-728.937	53.185	-0.292	-0.281
-727.923	-200.000	0.019	-0.409
-726.908	-200.000	0.060	0.292
-725.894	21.627	-0.416	-0.341
-724.879	-165.668	-0.088	0.004
-723.864	171.567	0.124	-0.179
-722.850	82.000	0.186	-0.203
-721.835	-200.000	-0.017	-0.364
-720.821	-101.131	-0.206	-0.051
-719.806	579.822	-0.183	-0.450
-718.791	-200.000	-0.025	-0.160
-717.777	484.423	0.237	-0.542
-716.762	598.803	0.030	-0.075
-715.748	800.000	0.075	-0.223
-714.733	156.393	-0.172	-0.239
-713.718	-96.585	-0.091	0.024
-712.704	-92.193	-0.234	0.066
-711.689	-10.154	-0.240	0.160
-710.675	-2.660	0.131	0.092
-709.660	-30.651	0.032	0.018
-708.645	-83.573	-0.168	0.054
-707.631	800.000	-0.068	0.267
-706.616	800.000	0.117	-0.359
-705.602	152.176	0.126	0.173
-704.587	-200.000	0.056	-0.281
-703.572	800.000	0.060	-0.261
-702.558	424.465	0.167	-0.361
-701.543	168.675	0.112	-0.161
-700.529	-200.000	-0.010	-0.089
-699.514	67.523	0.095	-0.097
-698.499	128.142	0.152	-0.194
-697.485	-115.364	0.400	-0.076
-696.470	-115.063	0.198	-0.038
-695.456	97.998	0.114	-0.131
-694.441	-163.390	-0.106	-0.005
-693.426	161.529	-0.113	-0.159
-692.412	-200.000	0.052	-0.441
-691.397	27.550	0.132	-0.111
-690.383	94.277	-0.168	0.192
-689.368	-200.000	-0.031	-0.202
-688.354	-58.550	-0.085	-0.037
-687.339	-74.538	0.177	-0.064
-686.324	800.000	0.034	0.144
-685.310	685.952	-0.099	-0.259
-684.295	686.319	-0.018	0.048
-683.281	36.356	-0.052	0.046
-682.266	-200.000	-0.046	0.223
-681.251	267.493	-0.021	-0.037
-680.237	12.734	-0.061	-0.047
-679.222	31.483	-0.188	0.162
-678.208	-78.907	-0.143	-0.049
-677.193	131.201	0.238	-0.307
-676.178	448.140	0.030	0.067
-675.164	200.465	0.124	0.192
-674.149	-54.231	-0.147	-0.067
-673.135	-200.000	0.007	0.042
-672.120	-136.135	-0.349	0.041
-671.105	92.219	-0.081	0.091
-670.091	106.067	-0.100	0.119
-669.076	-166.683	-0.224	-0.009
-668.062	-98.824	-0.236	0.060
-667.047	24.472	-0.271	0.225
-666.032	-151.238	-0.235	0.018
-665.018	-73.067	-0.244	-0.090
-664.003	120.726	-0.119	0.148
-662.989	31.404	-0.099	-0.086
-661.974	-28.709	0.080	-0.046
-660.959	-146.932	-0.128	0.011
-659.945	252.469	-0.028	0.049
-658.930	-77.486	-0.305	0.106
-657.916	-200.000	-0.009	-0.300
-656.901	423.911	-0.084	-0.180
-655.886	199.625	0.098	0.151
-654.872	-128.656	-0.165	-0.023
-653.857	-200.000	-0.014	-0.254
-652.843	-1.281	-0.195	-0.138
-651.828	346.255	-0.046	0.091
-650.814	-166.154	0.172	0.007
-649.799	-200.000	0.001	-0.208
-648.784	276.324	-0.100	-0.178
-647.770	-95.144	0.303	0.082
-646.755	-200.000	0.075	0.338
-645.741	-90.233	0.213	-0.062
-644.726	34.856	0.191	0.167
-643.711	-136.460	-0.122	0.014
-642.697	-200.000	0.037	-0.208
-641.682	-142.721	0.393	0.038
-640.668	7.357	-0.336	-0.251
-639.653	237.660	0.043	0.072
-638.638	-54.600	0.172	0.078
-637.624	-54.401	-0.263	-0.120
-636.609	88.575	-0.110	-0.123
-635.595	233.495	-0.097	-0.160
-634.580	-92.332	0.149	-0.042
-633.565	-200.000	0.000	0.067
-632.551	-200.000	0.113	0.626
-631.536	-200.000	0.022	-0.115
-630.522	139.402	-0.049	0.065
-629.507	98.058	-0.252	0.291
-628.492	-200.000	0.042	-0.269
-627.478	-200.000	0.061	-0.370
-626.463	-44.254	-0.132	-0.066
-625.449	-200.000	-0.037	-0.237
-624.434	-163.341	0.318	-0.015
-623.419	-101.315	-0.163	-0.040
-622.405	-99.228	-0.077	-0.020
-621.390	187.548	-0.116	-0.173
-620.376	-75.663	0.117	0.042
-619.361	-108.716	0.268	-0.057
-618.346	275.233	0.070	0.124
-617.332	-85.046	-0.130	0.041
-616.317	-200.000	0.025	0.115
-615.303	-190.521	0.190	0.002
-614.288	16.711	-0.293	0.232
-613.273	-39.881	-0.233	0.122
-612.259	636.142	0.109	-0.277
-611.244	375.449	0.071	0.146
-610.230	-200.000	0.061	-0.407
-609.215	-200.000	-0.003	-0.022
-608.201	-166.301	0.247	0.010
-607.186	-84.708	-0.413	-0.130
-606.171	64.703	-0.157	-0.158
-605.157	-200.000	-0.027	-0.325
-604.142	-200.000	-0.057	-0.295
-603.128	466.220	-0.112	0.252
-602.113	-135.900	0.070	0.008
-601.098	-119.001	0.092	0.016
-600.084	-200.000	-0.033	0.244
-599.069	-101.143	0.146	-0.036
-598.055	-161.828	0.354	0.018
-597.040	-200.000	-0.022	-0.415
-596.025	-200.000	-0.026	-0.154
-595.011	-171.174	-0.216	-0.007
-593.996	326.355	-0.054	-0.104
-592.982	-200.000	-0.020	-0.166
-591.967	800.000	-0.036	-0.152
-590.952	-200.000	0.045	-0.338
-589.938	-5.746	-0.089	-0.061
-588.923	800.000	-0.023	-0.089
-587.909	800.000	0.095	-0.340
-586.894	800.000	-0.062	-0.198
-585.879	-45.889	0.116	-0.057
-584.865	-200.000	-0.003	0.204
-583.850	44.297	-0.304	-0.279
-582.836	-81.340	0.336	0.111
-581.821	-159.224	-0.292	-0.016
-580.806	-81.873	-0.445	0.146
-579.792	89.481	0.093	0.104
-578.777	226.718	0.181	-0.295
-577.763	800.000	-0.163	-0.473
-576.748	800.000	0.032	0.131
-575.733	-200.000	0.032	-0.287
-574.719	-200.000	-0.003	0.283
-573.704	68.333	-0.184	-0.189
-572.690	-34.840	-0.286	-0.156
-571.675	-125.818	0.085	0.013
-570.661	-146.772	-0.177	-0.015
-569.646	-158.130	-0.359	-0.021
-568.631	637.913	0.140	-0.357
-567.617	-83.489	0.179	-0.057
-566.602	-50.570	0.197	-0.093
-565.588	-107.119	0.208	-0.046
-564.573	-58.301	0.227	-0.099
-563.558	-200.000	0.075	-0.425
-562.544	-56.103	0.371	0.165
-561.529	458.261	0.134	0.297
-560.515	15.466	0.258	-0.202
-559.500	71.000	-0.289	0.299
-558.485	-200.000	-0.018	-0.461
-557.471	80.953	0.151	-0.163
-556.456	-200.000	-0.007	0.095
-555.442	-184.788	-0.295	-0.005
-554.427	-200.000	0.030	0.217
-553.412	-59.254	0.117	0.051
-552.398	273.964	0.221	0.390
-551.383	-200.000	0.059	0.304
-550.369	114.772	0.054	-0.065
-549.354	-200.000	0.005	-0.127
-548.339	800.000	0.061	-0.174
-547.325	52.373	0.157	0.150
-546.310	371.513	-0.125	-0.253
-545.296	-200.000	0.054	0.307
-544.281	91.138	-0.047	0.053
-543.266	-118.730	0.225	-0.040
-542.252	-200.000	-0.059	0.314
-541.237	800.000	0.027	0.084
-540.223	-200.000	-0.050	-0.328
-539.208	-61.191	0.063	-0.026
-538.193	-72.075	0.084	-0.031
-537.179	131.794	-0.144	0.185
-536.164	-200.000	-0.005	-0.110
-535.150	-200.000	0.005	-0.180
-534.135	-3.491	-0.180	0.125
-533.121	7.781	-0.191	0.143
-532.106	-38.928	0.356	-0.187
-531.091	800.000	-0.025	-0.085
-530.077	-87.717	-0.123	0.037
-529.062	-82.313	-0.284	0.092
-528.048	484.462	-0.107	0.242
-527.033	-200.000	0.018	-0.084
-526.018	-27.053	-0.283	0.165
-525.004	-59.869	0.188	-0.080
-523.989	167.564	-0.335	-0.476
-522.975	4.632	0.171	-0.125
-521.960	38.995	-0.324	0.289
-520.945	79.769	0.050	0.054
-519.931	-179.151	-0.068	-0.002
-518.916	-200.000	-0.004	-0.216
-517.902	-2.300	-0.201	0.141
-516.887	54.556	-0.146	0.141
-515.872	53.743	-0.063	0.061
-514.858	-200.000	-0.015	-0.110
-513.843	-143.453	-0.442	0.042
-512.829	-61.130	0.288	0.121
-511.814	-32.161	-0.296	0.165
-510.799	-179.741	0.223	0.005
-509.785	21.938	0.191	-0.155
-508.770	-129.843	0.082	0.011
-507.756	451.497	-0.073	0.161
-506.741	28.833	-0.114	0.096
-505.726	135.135	0.032	0.041
-504.712	800.000	-0.024	-0.088
-503.697	203.760	-0.041	-0.064
-502.683	57.749	0.098	-0.096
-501.668	-200.000	-0.081	-0.411
-500.653	22.922	-0.104	0.085
-499.639	800.000	-0.106	-0.344
-498.624	-120.210	0.237	0.040
-497.610	-141.370	0.313	-0.032
-496.595	35.786	0.149	0.130
-495.581	58.076	-0.056	0.055
-494.566	-200.000	0.033	0.238
-493.551	-200.000	0.003	0.159
-492.537	-100.293	-0.187	0.046
-491.522	-160.010	0.166	0.009
-490.508	468.925	0.119	0.266
-489.493	181.772	-0.164	-0.241
-488.478	126.038	0.075	-0.094
-487.464	186.000	0.245	-0.363
-486.449	800.000	0.015	0.058
-485.435	276.636	-0.033	0.059
-484.420	-106.985	0.315	-0.069
-483.405	6.968	0.114	0.085
-482.391	-200.000	-0.007	0.293
-481.376	243.165	0.135	0.225
-480.362	83.052	-0.092	0.100
-479.347	-90.436	0.235	0.068
-478.332	23.692	0.277	-0.227
-477.318	235.903	0.078	0.129
-476.303	-42.953	0.063	0.032
-475.289	-200.000	-0.004	0.077
-474.274	-200.000	0.016	-0.215
-473.259	-97.457	0.384	-0.099
-472.245	6.777	0.213	-0.158
-471.230	-114.484	-0.159	-0.030
-470.216	201.855	-0.209	0.321
-469.201	120.389	-0.045	0.055
-468.186	73.461	0.068	0.071
-467.172	171.714	-0.143	0.204
-466.157	365.327	0.020	-0.040
-465.143	101.513	0.131	-0.152
-464.128	365.547	-0.133	-0.267
-463.113	-84.025	-0.334	-0.106
-462.099	-90.581	0.214	-0.062
-461.084	-103.819	-0.201	-0.047
-460.070	220.710	0.107	-0.170
-459.055	204.298	-0.115	0.178
-458.040	-200.000	0.070	-0.383
-457.026	800.000	0.148	0.423
-456.011	-8.607	-0.112	-0.075
-454.997	-200.000	0.079	-0.384
-453.982	-178.439	-0.426	0.010
-452.968	-52.377	-0.052	-0.024
-451.953	195.026	-0.084	0.127
-450.938	-200.000	0.036	0.279
-449.924	-41.293	-0.139	-0.071
-448.909	-142.662	-0.255	-0.025
-447.895	-200.000	-0.016	-0.113
-446.880	12.028	0.284	-0.217
-445.865	-71.612	0.266	-0.099
-444.851	378.231	-0.134	-0.273
-443.836	116.994	-0.038	0.047
-442.822	-127.971	0.238	0.034
-441.807	-123.707	-0.265	0.042
-440.792	-82.088	0.153	-0.050
-439.778	-60.123	-0.300	-0.127
-438.763	-81.647	-0.119	0.039
-437.749	43.245	-0.126	0.114
-436.734	-200.000	0.043	-0.196
-435.719	-200.000	0.018	0.106
-434.705	103.424	-0.052	0.060
-433.690	-50.074	0.138	-0.065
-432.676	-97.729	-0.286	0.074
-431.661	240.743	-0.126	-0.210
-430.646	20.421	0.250	0.201
-429.632	117.534	0.199	0.243
-428.617	-53.378	-0.313	-0.143
-427.603	-134.701	-0.116	0.014
-426.588	-163.587	0.198	0.009
-425.573	-29.919	-0.348	-0.197
-424.559	192.918	0.226	0.339
-423.544	25.337	0.187	0.154
-422.530	800.000	0.017	-0.066
-421.515	48.022	-0.129	-0.119
-420.500	371.953	0.042	0.084
-419.486	40.861	0.208	0.187
-418.471	-58.863	-0.260	0.112
-417.457	-108.447	0.125	-0.027
-416.442	-109.331	0.312	-0.066
-415.428	82.848	0.027	-0.029
-414.413	28.070	0.223	-0.187
-413.398	33.840	0.072	-0.062
-412.384	-200.000	0.010	0.266
-411.369	387.725	-0.130	0.268
-410.355	-200.000	0.049	-0.228
-409.340	-52.591	0.261	0.120
-408.325	-84.433	0.199	0.062
-407.311	-200.000	0.025	0.190
-406.296	-112.241	0.263	0.052
-405.282	-80.954	-0.230	0.076
-404.267	55.816	0.191	0.184
-403.252	-62.357	0.156	-0.064
-402.238	-200.000	0.007	0.085
-401.223	-49.383	-0.141	-0.067
-400.209	-49.198	-0.112	-0.053
-399.194	-41.314	-0.228	-0.116
-398.179	-1.209	0.041	0.028
-397.165	-48.112	0.134	-0.064
-396.150	-19.441	0.125	0.077
-395.136	400.894	0.013	0.028
-394.121	359.840	-0.124	-0.247
-393.106	157.709	-0.277	-0.380
-392.092	-200.000	0.028	0.218
-391.077	-113.702	-0.470	-0.091
-390.063	75.161	-0.195	0.204
-389.048	7.374	-0.206	-0.153
-388.033	-61.045	0.233	-0.098
-387.019	-95.229	-0.288	-0.077
-386.004	133.962	0.230	0.296
-384.990	140.883	-0.200	0.262
-383.975	-103.097	0.215	-0.050
-382.960	239.598	0.110	-0.181
-381.946	-117.566	0.557	0.100
-380.931	-200.000	0.085	0.371
-379.917	23.827	-0.176	-0.144
-378.902	-52.396	0.088	0.040
-377.888	94.809	0.151	0.171
-376.873	-32.433	-0.125	-0.069
-375.858	237.712	-0.088	0.145
-374.844	96.565	0.071	-0.080
-373.829	-118.485	-0.287	-0.050
-372.815	-200.000	0.069	0.616
-371.800	-200.000	0.025	0.399
-370.785	-189.690	0.057	0.001
-369.771	-49.728	-0.147	0.069
-368.756	358.099	-0.095	-0.188
-367.742	-200.000	-0.018	-0.125
-366.727	-200.000	-0.012	0.093
-365.712	238.324	0.097	-0.160
-364.698	-44.583	-0.232	0.115
-363.683	-200.000	-0.074	0.422
-362.669	-75.190	-0.391	-0.138
-361.654	520.564	-0.128	-0.297
-360.639	456.588	0.040	-0.089
-359.625	-132.419	0.302	0.039
-358.610	800.000	0.062	0.231
-357.596	-44.730	-0.233	0.115
-356.581	-96.821	-0.040	0.010
-355.566	-200.000	0.060	0.295
-354.552	800.000	0.048	-0.136
-353.537	-114.396	-0.460	0.088
-352.523	137.273	-0.333	0.432
-351.508	177.070	-0.091	0.132
-350.493	16.501	-0.221	0.173
-349.479	-90.449	-0.265	0.076
-348.464	594.394	0.032	0.079
-347.450	-13.860	0.309	0.198
-346.435	-64.280	0.149	-0.060
-345.420	-199.006	0.216	0.001
-344.406	-200.000	-0.020	-0.092
-343.391	-200.000	-0.020	-0.131
-342.377	-86.414	0.309	0.094
-341.362	202.067	0.062	0.095
-340.348	-163.013	-0.165	0.008
-339.333	-114.849	-0.111	0.021
-338.318	-200.000	-0.016	-0.107
-337.304	-6.636	0.244	-0.164
-336.289	-112.449	0.447	-0.088
-335.275	800.000	0.106	-0.314
-334.260	-200.000	-0.039	-0.227
-333.245	-124.225	-0.419	0.065
-332.231	102.585	0.129	0.150
-331.216	-200.000	-0.011	0.185
-330.202	-35.360	-0.144	0.077
-329.187	497.181	0.123	-0.279
-328.172	-124.090	0.212	0.033
-327.158	-62.313	0.300	-0.124
-326.143	-200.000	0.033	-0.297
-325.129	44.270	0.248	-0.225
-324.114	800.000	0.109	-0.346
-323.099	-158.309	-0.430	-0.025
-322.085	-71.740	-0.151	0.056
-321.070	-190.273	-0.139	-0.002
-320.056	157.120	0.207	0.284
-319.041	-107.887	0.265	-0.057
-318.026	9.153	-0.203	0.152
-317.012	-74.500	-0.276	0.098
-315.997	-37.604	0.077	0.041
-314.983	-36.709	0.007	-0.004
-313.968	77.240	0.226	-0.238
-312.953	-90.420	0.244	-0.070
-311.939	125.412	0.156	-0.194
-310.924	-24.568	-0.219	0.129
-309.910	-11.341	0.379	0.247
-308.895	29.720	-0.243	0.205
-307.880	-88.697	0.310	0.091
-306.866	-200.000	-0.063	0.346
-305.851	-200.000	0.000	0.150
-304.837	-200.000	-0.024	0.135
-303.822	-51.038	0.131	0.061
-302.807	-200.000	-0.023	0.129
-301.793	-139.880	-0.024	-0.002
-300.778	-200.000	0.072	0.361
-299.764	-95.431	-0.176	-0.047
-298.749	44.108	-0.224	0.203
-297.735	13.167	-0.040	-0.031
-296.720	228.523	-0.118	0.191
-295.705	175.939	-0.074	0.107
-294.691	61.562	-0.055	0.054
-293.676	-200.000	-0.002	-0.289
-292.662	499.704	0.126	-0.288
-291.647	800.000	0.042	0.157
-290.632	-200.000	-0.018	-0.107
-289.618	283.673	0.144	-0.255
-288.603	800.000	0.085	0.277
-287.589	-61.207	-0.108	-0.045
-286.574	-48.430	0.089	0.043
-285.559	-200.000	0.062	0.327
-284.545	11.109	-0.174	-0.131
-283.530	-97.685	0.106	-0.027
-282.516	800.000	0.040	0.161
-281.501	64.609	0.108	-0.108
-280.486	-109.031	0.130	-0.027
-279.472	35.950	0.096	0.084
-278.457	-37.939	0.238	-0.125
-277.443	84.360	0.159	-0.172
-276.428	-200.000	0.005	-0.194
-275.413	84.824	-0.214	0.231
-274.399	66.139	-0.146	0.147
-273.384	561.242	-0.117	-0.280
-272.370	200.480	0.080	-0.122
-271.355	384.309	0.048	0.097
-270.340	-161.067	-0.243	0.013
-269.326	-58.607	-0.328	-0.140
-268.311	-51.273	-0.208	0.096
-267.297	650.065	-0.092	0.233
-266.282	202.838	0.072	0.110
-265.267	-5.808	-0.365	0.247
-264.253	64.786	-0.138	0.138
-263.238	800.000	0.019	0.081
-262.224	-200.000	-0.022	-0.152
-261.209	196.643	0.176	-0.266
-260.195	4.169	-0.281	-0.203
-259.180	-10.942	0.271	-0.177
-258.165	-180.860	-0.491	-0.010
-257.151	-14.972	0.168	-0.107
-256.136	-41.141	0.321	0.164
-255.122	-69.191	-0.350	0.133
-254.107	105.058	0.159	-0.185
-253.092	27.239	0.320	0.265
-252.078	-200.000	0.023	0.250
-251.063	8.706	-0.073	0.054
-250.049	-118.282	0.167	0.029
-249.034	334.237	-0.118	-0.225
-248.019	149.824	0.145	0.195
-247.005	-200.000	0.024	0.335
-245.990	535.517	0.098	-0.230
-244.976	-116.557	0.206	-0.037
-243.961	185.089	0.165	-0.242
-242.946	-60.165	-0.268	0.113
-241.932	-29.332	0.302	-0.171
-240.917	-50.313	0.109	0.051
-239.903	51.938	0.252	-0.237
-238.888	-186.108	0.188	0.003
-237.873	-159.369	0.333	0.018
-236.859	44.811	-0.389	0.353
-235.844	8.968	0.062	0.046
-234.830	117.106	-0.081	-0.098
-233.815	-71.590	-0.379	-0.140
-232.800	-77.383	-0.392	0.135
-231.786	754.946	-0.071	0.190
-230.771	-166.568	0.182	0.007
-229.757	-58.425	-0.195	-0.084
-228.742	64.062	-0.302	-0.300
-227.727	-77.310	-0.285	-0.098
-226.713	477.291	0.097	-0.217
-225.698	-200.000	-0.025	-0.183
-224.684	257.367	-0.101	-0.172
-223.669	55.421	-0.028	-0.026
-222.655	800.000	-0.102	-0.327
-221.640	44.314	0.241	0.218
-220.625	103.702	-0.080	0.093
-219.611	16.263	-0.328	-0.255
-218.596	-87.801	-0.122	0.036
-217.582	-152.316	-0.298	0.021
-216.567	-33.655	0.136	0.074
-215.552	-156.161	0.086	0.005
-214.538	123.882	0.079	0.098
-213.523	-123.530	-0.286	0.045
-212.509	-5.837	-0.112	-0.075
-211.494	-33.974	-0.210	-0.114
-210.479	52.728	0.222	-0.209
-209.465	211.494	-0.074	-0.115
-208.450	362.574	-0.147	0.290
-207.436	800.000	0.055	-0.236
-206.421	-135.853	-0.217	0.025
-205.406	-108.326	-0.261	-0.056
-204.392	-114.831	0.291	-0.055
-203.377	-156.733	-0.339	0.021
-202.363	-71.269	-0.264	0.098
-201.348	24.572	0.026	0.021
-200.333	-70.633	-0.135	-0.050
-199.319	-131.199	0.247	0.032
-198.304	-200.000	0.011	-0.216
-197.290	66.699	-0.066	0.067
-196.275	-200.000	-0.033	0.151
-195.260	498.390	0.160	0.363
-194.246	-69.205	-0.189	0.072
-193.231	150.050	0.098	-0.131
-192.217	420.405	0.077	0.163
-191.202	-200.000	0.048	0.229
-190.187	-200.000	-0.007	0.158
-189.173	-53.876	0.075	0.034
-188.158	92.054	0.282	0.313
-187.144	-200.000	0.028	0.238
-186.129	800.000	0.061	0.197
-185.114	98.417	0.058	0.065
-184.100	-13.656	0.492	-0.313
-183.085	-37.839	-0.093	0.049
-182.071	-43.314	-0.213	0.106
-181.056	-99.552	0.232	-0.057
-180.042	-170.944	-0.065	-0.002
-179.027	108.144	0.038	0.044
-178.012	148.900	-0.033	-0.043
-176.998	-139.912	0.237	-0.025
-175.983	416.491	-0.108	0.226
-174.969	-161.673	0.172	-0.009
-173.954	56.764	0.123	-0.118
-172.939	100.852	-0.135	0.154
-171.925	-135.849	-0.353	0.041
-170.910	338.101	-0.083	0.159
-169.896	-200.000	-0.062	0.345
-168.881	-118.196	0.081	0.014
-167.866	-53.614	0.230	-0.104
-166.852	-90.948	0.272	-0.077
-165.837	92.294	-0.126	-0.140
-164.823	189.645	0.113	-0.166
-163.808	-63.821	-0.130	0.052
-162.793	-98.091	-0.226	-0.057
-161.779	211.638	0.169	0.261
-160.764	-12.474	0.230	0.148
-159.750	-169.247	0.186	-0.007
-158.735	56.983	-0.193	-0.186
-157.720	106.473	0.107	-0.124
-156.706	-20.711	-0.315	-0.190
-155.691	-76.522	0.170	0.059
-154.677	-94.526	0.387	0.104
-153.662	-25.993	0.074	-0.043
-152.647	800.000	-0.054	0.202
-151.633	-65.507	0.069	-0.027
-150.618	592.966	0.073	-0.176
-149.604	-0.540	-0.263	-0.183
-148.589	-200.000	0.032	-0.223
-147.574	-167.093	-0.225	-0.009
-146.560	-36.359	0.058	0.031
-145.545	138.677	-0.174	-0.225
-144.531	-87.682	-0.211	-0.063
-143.516	-65.054	0.219	-0.087
-142.502	32.106	-0.159	-0.135
-141.487	60.751	0.186	0.181
-140.472	-72.246	-0.145	0.053
-139.458	800.000	0.049	0.154
-138.443	28.165	-0.075	0.062
-137.429	-29.113	0.099	0.056
-136.414	-14.265	-0.304	-0.193
-135.399	339.920	-0.031	-0.060
-134.385	800.000	-0.040	0.143
-133.370	-103.893	0.393	0.090
-132.356	35.021	0.142	0.122
-131.341	342.143	-0.108	-0.208
-130.326	-200.000	0.012	-0.155
-129.312	265.364	-0.040	0.068
-128.297	300.028	0.104	0.188
-127.283	-177.080	0.304	0.007
-126.268	18.459	0.077	0.061
-125.253	384.187	0.084	0.170
-124.239	503.303	-0.096	-0.219
-123.224	173.029	-0.177	-0.250
-122.210	13.760	-0.127	0.097
-121.195	269.486	-0.098	-0.169
