DTS Sentinel unit serial number:	SN413079Multiplexer serial number:	ORYXHardware model number:	OX4-SRSoftware version number:	ORYX F/W v4.00 Oryx Data Collector v3.7.2.0data status	okinstallation	princeton_trtdifferential loss correction	single-endedforward channel	channel 1reverse channel	N/Adate	2019/09/16time	18:50:35forward acquisition time	60.00reverse acquisition time	0.00gamma	496.2192k internal	0.2308k external	0.2308temperature offset calibration	0.9946default loss term (dB/km)	0.3790temperature slope calibration	1.0000multiplexer offset coefficient	1.0000multiplexer slope coefficient	1.0000fibre end	0.00T internal ref (°C)	35.94T ext. ref 1 (°C)	0.07T ext. ref 2 (°C)	29.24length (m)	temperature (°C)	Stokes	anti-Stokes-747.200	-98.692	-0.263	-0.068
-746.185	476.003	0.199	0.457
-745.171	144.735	0.046	0.062
-744.156	33.819	-0.320	-0.283
-743.142	13.943	0.023	0.018
-742.127	-140.832	0.473	-0.050
-741.112	39.979	-0.107	-0.098
-740.098	-102.840	-0.153	-0.037
-739.083	35.341	-0.043	0.038
-738.069	109.128	0.059	-0.071
-737.054	531.342	-0.131	-0.316
-736.039	800.000	0.044	0.177
-735.025	482.482	0.070	0.162
-734.010	-200.000	0.005	0.098
-732.996	795.290	-0.028	0.077
-731.981	800.000	-0.046	-0.143
-730.966	768.925	0.082	-0.225
-729.952	192.846	-0.127	0.195
-728.937	800.000	-0.114	0.325
-727.923	-194.847	-0.221	-0.002
-726.908	-200.000	0.023	0.113
-725.894	-200.000	0.023	-0.234
-724.879	86.623	-0.133	-0.149
-723.864	324.663	-0.027	-0.053
-722.850	-72.687	-0.210	-0.079
-721.835	417.819	-0.090	0.196
-720.821	-68.452	0.230	0.090
-719.806	800.000	-0.052	-0.225
-718.791	-172.467	0.207	0.007
-717.777	-50.816	0.099	0.047
-716.762	-64.846	-0.245	-0.101
-715.748	-63.214	-0.150	0.063
-714.733	46.070	-0.188	-0.176
-713.718	800.000	-0.071	-0.253
-712.704	-28.992	0.262	0.153
-711.689	800.000	0.044	0.187
-710.675	-200.000	-0.011	-0.346
-709.660	44.171	-0.131	0.122
-708.645	64.487	-0.266	-0.272
-707.631	785.847	-0.061	0.169
-706.616	172.937	0.080	0.116
-705.602	726.107	-0.107	0.290
-704.587	-200.000	-0.005	-0.148
-703.572	-11.012	-0.210	0.141
-702.558	-78.550	0.142	0.049
-701.543	-200.000	-0.050	-0.525
-700.529	-200.000	-0.006	-0.413
-699.514	-200.000	-0.012	0.080
-698.499	623.719	-0.073	0.188
-697.485	800.000	0.025	0.071
-696.470	102.207	0.127	0.150
-695.456	-93.120	-0.260	0.073
-694.441	-200.000	0.036	-0.443
-693.426	337.754	-0.073	0.145
-692.412	800.000	-0.170	-0.661
-691.397	167.591	0.052	-0.076
-690.383	-200.000	0.006	0.166
-689.368	473.929	-0.090	-0.207
-688.354	-68.329	0.107	0.042
-687.339	160.345	-0.070	-0.099
-686.324	-125.708	-0.331	-0.051
-685.310	-67.411	-0.044	0.018
-684.295	-32.186	-0.417	0.236
-683.281	-56.405	0.020	0.009
-682.266	-200.000	0.005	0.075
-681.251	-97.036	0.126	0.033
-680.237	-200.000	-0.062	-0.428
-679.222	52.182	0.130	0.125
-678.208	-177.607	-0.272	-0.007
-677.193	800.000	-0.058	-0.222
-676.178	398.233	0.023	-0.048
-675.164	-53.248	-0.129	0.060
-674.149	-200.000	-0.005	-0.062
-673.135	-200.000	-0.026	0.233
-672.120	448.996	-0.080	-0.178
-671.105	-200.000	0.039	-0.335
-670.091	-200.000	-0.007	0.279
-669.076	800.000	-0.016	-0.057
-668.062	-200.000	-0.023	0.220
-667.047	-96.221	-0.084	-0.023
-666.032	309.325	0.050	0.095
-665.018	95.283	-0.317	-0.366
-664.003	111.859	0.044	-0.054
-662.989	323.356	-0.015	-0.030
-661.974	800.000	-0.054	-0.195
-660.959	162.849	-0.200	0.285
-659.945	-200.000	-0.015	0.299
-658.930	-0.888	0.100	-0.071
-657.916	255.172	-0.104	0.180
-656.901	-23.250	0.280	-0.171
-655.886	800.000	-0.036	-0.115
-654.872	800.000	-0.022	-0.092
-653.857	158.165	-0.040	0.056
-652.843	-99.688	0.472	-0.120
-651.828	-74.879	0.376	0.137
-650.814	-200.000	0.054	-0.349
-649.799	-200.000	0.010	0.097
-648.784	68.608	-0.268	0.278
-647.770	-118.128	-0.330	0.060
-646.755	-125.480	-0.168	-0.026
-645.741	-26.680	0.127	0.075
-644.726	-130.420	-0.180	0.025
-643.711	800.000	-0.032	-0.091
-642.697	-156.711	-0.377	-0.024
-641.682	-33.938	0.199	0.111
-640.668	-6.464	0.213	0.147
-639.653	63.278	-0.229	0.232
-638.638	-76.735	0.204	-0.072
-637.624	29.062	0.207	-0.178
-636.609	800.000	-0.013	0.042
-635.595	-85.021	0.145	0.046
-634.580	800.000	-0.060	-0.258
-633.565	132.328	-0.141	-0.184
-632.551	-153.985	-0.105	-0.007
-631.536	-163.389	-0.219	-0.011
-630.522	-128.825	-0.369	0.053
-629.507	511.464	0.064	-0.151
-628.492	205.643	-0.126	-0.198
-627.478	129.816	-0.138	-0.179
-626.463	-76.586	-0.069	0.025
-625.449	800.000	-0.048	-0.186
-624.434	-200.000	0.024	0.120
-623.419	800.000	0.102	-0.349
-622.405	-33.265	0.347	0.194
-621.390	23.367	0.091	0.075
-620.376	-154.430	-0.123	0.008
-619.361	-42.153	0.336	0.174
-618.346	-200.000	-0.006	0.292
-617.332	0.100	0.354	-0.255
-616.317	401.499	-0.145	0.307
-615.303	256.726	-0.099	0.172
-614.288	-200.000	0.007	0.134
-613.273	25.897	-0.321	0.270
-612.259	692.129	0.076	0.201
-611.244	800.000	0.041	0.118
-610.230	-200.000	0.001	0.019
-609.215	-86.472	-0.109	-0.034
-608.201	-74.249	0.074	0.027
-607.186	-34.839	-0.093	0.051
-606.171	-200.000	0.022	0.144
-605.157	-93.632	-0.201	-0.056
-604.142	-200.000	-0.038	-0.326
-603.128	-200.000	0.039	0.258
-602.113	-136.224	0.337	0.040
-601.098	-200.000	-0.030	0.247
-600.084	-200.000	0.018	0.107
-599.069	167.165	0.149	0.213
-598.055	-85.587	0.253	0.080
-597.040	-200.000	-0.014	0.369
-596.025	47.268	0.187	0.176
-595.011	-33.663	-0.236	0.132
-593.996	-200.000	-0.018	-0.148
-592.982	118.388	-0.188	0.234
-591.967	-200.000	-0.018	0.266
-590.952	800.000	-0.159	0.445
-589.938	23.029	0.177	-0.147
-588.923	-69.938	-0.370	0.143
-587.909	-18.728	-0.161	0.101
-586.894	-200.000	0.004	-0.091
-585.879	5.569	-0.239	-0.179
-584.865	-103.014	-0.062	-0.015
-583.850	-200.000	-0.002	0.216
-582.836	311.318	0.038	-0.072
-581.821	-87.844	-0.268	0.081
-580.806	253.434	0.104	0.179
-579.792	239.754	-0.095	0.160
-578.777	736.677	-0.112	-0.303
-577.763	-56.835	-0.132	0.059
-576.748	172.296	0.033	-0.048
-575.733	-200.000	0.032	-0.232
-574.719	-200.000	0.045	-0.386
-573.704	-57.817	0.084	-0.037
-572.690	-109.340	-0.314	0.067
-571.675	264.408	-0.032	-0.056
-570.661	-187.203	-0.333	0.005
-569.646	-200.000	0.022	0.123
-568.631	681.390	0.140	-0.368
-567.617	-12.502	-0.409	-0.270
-566.602	-164.778	0.163	0.007
-565.588	-200.000	-0.026	-0.161
-564.573	-18.162	0.228	0.144
-563.558	-200.000	-0.006	-0.166
-562.544	253.482	-0.118	0.204
-561.529	-76.142	-0.364	0.130
-560.515	87.984	-0.075	-0.084
-559.500	707.146	0.083	-0.222
-558.485	83.769	0.058	-0.064
-557.471	408.351	-0.103	-0.219
-556.456	-200.000	0.020	-0.209
-555.442	384.950	0.119	0.248
-554.427	209.001	0.037	0.058
-553.412	105.775	0.105	-0.125
-552.398	-200.000	-0.001	-0.232
-551.383	145.948	-0.250	-0.338
-550.369	-129.192	-0.122	0.017
-549.354	-122.094	-0.225	-0.037
-548.339	89.380	0.080	0.090
-547.325	82.618	0.099	0.108
-546.310	-200.000	-0.015	-0.283
-545.296	800.000	-0.077	-0.232
-544.281	-200.000	0.020	0.135
-543.266	800.000	-0.097	-0.288
-542.252	-115.382	-0.484	-0.092
-541.237	-47.751	0.140	-0.068
-540.223	-200.000	-0.008	-0.170
-539.208	800.000	-0.096	-0.348
-538.193	51.449	-0.176	-0.168
-537.179	130.295	-0.114	-0.148
-536.164	160.902	0.060	0.084
-535.150	-53.815	-0.090	-0.041
-534.135	45.965	0.236	-0.220
-533.121	471.533	0.203	-0.461
-532.106	-150.588	-0.262	0.020
-531.091	800.000	0.032	-0.127
-530.077	-200.000	-0.006	0.380
-529.062	640.072	0.036	0.092
-528.048	25.348	-0.254	-0.213
-527.033	-200.000	-0.001	0.240
-526.018	-200.000	0.061	0.411
-525.004	-157.549	-0.218	-0.013
-523.989	-131.055	-0.228	-0.031
-522.975	-200.000	0.045	0.215
-521.960	234.680	-0.043	-0.072
-520.945	434.376	0.096	0.209
-519.931	109.214	0.066	-0.079
-518.916	-200.000	-0.013	0.393
-517.902	-135.405	0.238	0.029
-516.887	-161.553	-0.135	0.007
-515.872	141.246	-0.195	0.259
-514.858	-80.347	0.141	0.047
-513.843	355.873	0.033	0.067
-512.829	392.130	0.135	0.283
-511.814	-126.089	-0.123	-0.019
-510.799	-96.536	0.257	-0.068
-509.785	419.165	0.031	0.066
-508.770	-99.468	-0.146	0.037
-507.756	-200.000	0.008	-0.179
-506.741	84.250	-0.111	-0.122
-505.726	150.630	0.141	-0.193
-504.712	-53.562	-0.109	0.050
-503.697	-118.656	-0.320	-0.057
-502.683	-107.184	0.300	-0.067
-501.668	-188.842	-0.304	-0.004
-500.653	-200.000	-0.010	0.194
-499.639	187.554	-0.122	-0.184
-498.624	-200.000	0.062	-0.448
-497.610	-200.000	0.006	-0.192
-496.595	134.088	0.130	-0.170
-495.581	-200.000	0.025	-0.125
-494.566	21.909	-0.066	0.054
-493.551	4.154	-0.323	-0.238
-492.537	229.698	-0.170	-0.279
-491.522	-28.058	-0.118	-0.069
-490.508	-200.000	-0.023	0.231
-489.493	-70.588	-0.317	-0.121
-488.478	-32.948	0.178	-0.099
-487.464	-120.260	0.040	0.007
-486.449	-164.877	0.162	0.007
-485.435	66.796	0.240	0.246
-484.420	294.758	-0.158	-0.292
-483.405	-69.394	-0.067	-0.026
-482.391	-62.898	-0.046	-0.019
-481.376	615.332	-0.048	0.120
-480.362	-122.920	0.167	-0.027
-479.347	-144.506	-0.234	0.022
-478.332	-24.910	0.260	0.155
-477.318	447.845	0.015	0.032
-476.303	22.553	0.184	0.151
-475.289	-200.000	0.082	-0.381
-474.274	448.253	-0.115	0.254
-473.259	800.000	0.127	-0.354
-472.245	-177.635	0.275	0.007
-471.230	258.086	0.108	0.187
-470.216	-200.000	0.053	0.278
-469.201	-104.999	-0.124	-0.029
-468.186	-112.573	-0.276	0.055
-467.172	132.173	0.142	-0.184
-466.157	800.000	0.031	0.135
-465.143	-17.665	0.224	0.142
-464.128	-45.102	0.184	0.092
-463.113	800.000	0.057	0.173
-462.099	-122.805	-0.177	0.029
-461.084	800.000	-0.085	0.248
-460.070	49.962	-0.148	-0.140
-459.055	198.147	-0.149	-0.229
-458.040	800.000	-0.082	-0.352
-457.026	-159.352	0.137	0.008
-456.011	-155.763	0.092	-0.006
-454.997	800.000	-0.057	0.204
-453.982	-108.715	-0.160	0.034
-452.968	-200.000	0.011	-0.184
-451.953	-200.000	0.001	0.425
-450.938	126.695	-0.109	0.138
-449.924	-102.667	-0.184	-0.044
-448.909	158.814	0.177	-0.247
-447.895	-125.642	-0.180	0.027
-446.880	1.838	-0.148	0.107
-445.865	28.012	-0.015	-0.013
-444.851	45.497	0.084	0.078
-443.836	-200.000	0.015	0.204
-442.822	132.235	0.171	0.221
-441.807	160.321	0.212	0.297
-440.792	-200.000	-0.018	0.213
-439.778	-200.000	0.004	-0.199
-438.763	-118.337	-0.166	-0.030
-437.749	-14.068	-0.084	-0.055
-436.734	-86.310	0.131	-0.041
-435.719	-38.361	-0.169	-0.090
-434.705	344.327	-0.158	-0.311
-433.690	112.534	0.255	0.310
-432.676	46.139	-0.037	0.034
-431.661	-18.343	0.207	-0.130
-430.646	-200.000	0.016	0.106
-429.632	274.694	-0.111	-0.197
-428.617	-200.000	0.033	-0.298
-427.603	-200.000	-0.013	0.241
-426.588	88.766	0.130	-0.146
-425.573	-63.115	-0.207	-0.086
-424.559	-147.973	-0.229	0.019
-423.544	-74.007	-0.126	0.046
-422.530	330.668	-0.087	-0.169
-421.515	-31.990	0.167	0.094
-420.500	-49.930	-0.084	-0.040
-419.486	25.977	-0.098	0.082
-418.471	-25.776	-0.176	0.104
-417.457	80.241	0.168	-0.181
-416.442	-95.614	0.114	0.031
-415.428	-105.170	0.277	0.064
-414.413	-200.000	-0.019	0.163
-413.398	-72.622	-0.260	-0.096
-412.384	64.170	0.251	-0.253
-411.369	67.096	-0.058	0.060
-410.355	-70.946	0.042	0.016
-409.340	111.117	-0.043	0.052
-408.325	159.250	-0.128	-0.179
-407.311	-61.410	-0.193	-0.081
-406.296	-144.257	0.331	0.031
-405.282	-69.064	-0.078	-0.030
-404.267	-84.529	-0.228	-0.072
-403.252	194.226	-0.031	-0.047
-402.238	21.137	0.293	-0.239
-401.223	-23.403	-0.237	0.143
-400.209	-150.573	0.137	0.011
-399.194	-88.570	-0.148	0.044
-398.179	-64.122	0.180	-0.074
-397.165	-141.925	0.352	-0.035
-396.150	101.430	0.131	-0.153
-395.136	57.133	-0.098	-0.096
-394.121	151.692	0.046	-0.062
-393.106	445.718	-0.091	0.201
-392.092	146.951	0.094	-0.127
-391.077	-52.783	0.210	0.097
-390.063	98.719	-0.225	-0.260
-389.048	81.437	-0.078	0.084
-388.033	0.101	-0.430	0.307
-387.019	800.000	-0.043	-0.190
-386.004	-36.973	0.320	-0.172
-384.990	31.676	0.187	-0.161
-383.975	-144.819	-0.263	0.024
-382.960	113.580	-0.217	-0.264
-381.946	-200.000	0.050	0.249
-380.931	310.587	0.205	0.385
-379.917	-114.419	0.186	-0.036
-378.902	228.073	-0.030	0.048
-377.888	113.026	-0.080	0.097
-376.873	-200.000	0.004	-0.028
-375.858	356.487	-0.092	0.184
-374.844	272.449	0.022	0.039
-373.829	-64.987	0.323	-0.131
-372.815	37.497	-0.093	-0.082
-371.800	15.334	-0.025	-0.020
-370.785	-162.915	0.347	-0.017
-369.771	3.601	-0.050	0.036
-368.756	146.951	0.129	0.174
-367.742	-70.146	-0.278	0.106
-366.727	106.361	0.283	-0.336
-365.712	63.040	0.053	0.053
-364.698	100.501	0.087	-0.101
-363.683	66.919	-0.245	0.250
-362.669	-51.251	0.443	-0.208
-361.654	-88.481	0.190	-0.057
-360.639	-148.758	0.332	-0.027
-359.625	27.912	0.153	0.129
-358.610	762.896	-0.017	0.047
-357.596	-200.000	-0.021	-0.166
-356.581	-102.972	0.377	-0.090
-355.566	-200.000	-0.062	0.341
-354.552	-11.334	0.147	0.097
-353.537	-15.197	-0.174	0.112
-352.523	-200.000	0.001	-0.052
-351.508	544.473	0.137	-0.328
-350.493	-200.000	-0.093	-0.000
-349.479	-102.301	-0.245	-0.059
-348.464	-8.743	0.113	0.076
-347.450	-200.000	-0.016	0.276
-346.435	-19.350	-0.181	-0.112
-345.420	98.204	-0.104	0.120
-344.406	-6.539	-0.016	0.011
-343.391	309.842	-0.203	0.380
-342.377	140.458	0.083	-0.110
-341.362	40.255	0.240	-0.216
-340.348	-200.000	0.048	-0.215
-339.333	-200.000	0.007	-0.064
-338.318	28.185	0.155	-0.131
-337.304	-69.995	0.272	-0.104
-336.289	-156.340	-0.111	-0.007
-335.275	800.000	0.113	0.347
-334.260	506.690	-0.055	-0.127
-333.245	-30.740	0.278	0.157
-332.231	-75.267	-0.275	0.098
-331.216	-14.777	-0.050	0.032
-330.202	-51.490	-0.248	0.116
-329.187	-5.166	-0.204	-0.140
-328.172	93.024	-0.150	-0.169
-327.158	20.164	-0.407	-0.329
-326.143	-200.000	-0.010	-0.101
-325.129	69.523	0.316	0.325
-324.114	24.371	-0.134	0.111
-323.099	-89.851	0.229	0.067
-322.085	-200.000	0.048	-0.226
-321.070	-77.315	0.624	-0.217
-320.056	365.559	0.011	0.022
-319.041	75.534	-0.280	0.296
-318.026	-99.682	0.407	0.102
-317.012	-32.119	0.159	-0.089
-315.997	800.000	-0.106	0.439
-314.983	391.867	-0.071	0.147
-313.968	-115.818	0.138	-0.026
-312.953	-174.051	0.092	-0.003
-311.939	53.778	0.070	-0.067
-310.924	26.280	0.163	0.136
-309.910	-200.000	-0.075	-0.389
-308.895	2.806	0.280	-0.203
-307.880	-200.000	0.041	-0.327
-306.866	-109.433	0.166	0.035
-305.851	-0.174	0.263	-0.187
-304.837	-68.554	-0.050	-0.019
-303.822	800.000	0.082	-0.264
-302.807	-198.994	0.277	-0.002
-301.793	-148.754	0.209	0.017
-300.778	68.751	-0.151	0.155
-299.764	11.725	0.178	0.136
-298.749	98.485	0.110	-0.127
-297.735	-84.363	0.366	0.116
-296.720	84.035	-0.080	0.087
-295.705	511.825	0.093	0.215
-294.691	225.995	0.224	0.362
-293.676	-191.611	0.093	0.001
-292.662	42.297	-0.188	0.171
-291.647	-121.671	0.076	0.012
-290.632	-10.187	0.172	0.114
-289.618	360.467	-0.174	-0.349
-288.603	252.165	0.080	0.136
-287.589	-150.206	-0.252	0.019
-286.574	362.621	0.159	-0.318
-285.559	-21.591	0.056	-0.034
-284.545	-200.000	-0.025	-0.216
-283.530	-114.200	-0.093	-0.018
-282.516	-125.012	-0.171	-0.026
-281.501	139.856	0.123	0.161
-280.486	186.982	0.179	-0.266
-279.472	55.375	-0.093	-0.090
-278.457	152.195	0.235	0.320
-277.443	125.081	-0.106	-0.133
-276.428	-1.750	0.096	0.068
-275.413	800.000	0.144	-0.435
-274.399	214.401	0.034	-0.054
-273.384	-91.142	-0.158	-0.045
-272.370	162.956	0.058	0.082
-271.355	-200.000	0.007	0.044
-270.340	-200.000	-0.019	-0.257
-269.326	36.333	-0.175	0.154
-268.311	800.000	0.040	0.116
-267.297	634.756	0.071	-0.181
-266.282	-106.401	0.110	-0.024
-265.267	5.162	-0.243	-0.179
-264.253	800.000	-0.061	-0.196
-263.238	800.000	-0.054	0.158
-262.224	-166.930	-0.211	-0.009
-261.209	479.050	-0.066	-0.149
-260.195	-200.000	-0.005	-0.037
-259.180	-24.644	0.312	-0.185
-258.165	30.085	0.140	0.119
-257.151	239.133	-0.117	0.194
-256.136	43.558	-0.227	-0.207
-255.122	19.922	-0.121	0.097
-254.107	800.000	-0.055	0.211
-253.092	37.436	-0.214	0.189
-252.078	56.597	0.439	-0.425
-251.063	104.424	0.238	-0.279
-250.049	-200.000	0.014	-0.256
-249.034	-74.244	0.253	-0.091
-248.019	-200.000	0.008	0.252
-247.005	27.757	-0.058	-0.049
-245.990	800.000	0.131	-0.515
-244.976	16.017	-0.229	-0.180
-243.961	-172.806	-0.173	-0.005
-242.946	5.215	-0.347	0.255
-241.932	-200.000	-0.007	-0.147
-240.917	-63.239	-0.039	-0.016
-239.903	43.603	0.192	-0.175
-238.888	-54.417	-0.207	-0.094
-237.873	-200.000	0.017	0.108
-236.859	-4.050	0.165	-0.114
-235.844	-76.044	0.154	-0.054
-234.830	-190.818	0.243	0.003
-233.815	-200.000	-0.028	0.339
-232.800	-200.000	-0.005	0.045
-231.786	-37.824	0.347	0.184
-230.771	-70.438	-0.174	-0.066
-229.757	203.693	0.100	0.154
-228.742	-200.000	0.035	-0.189
-227.727	317.264	-0.079	0.149
-226.713	-43.174	0.315	0.159
-225.698	-200.000	-0.016	-0.182
-224.684	225.661	-0.100	0.161
-223.669	54.594	-0.105	0.101
-222.655	-40.717	0.278	-0.143
-221.640	203.910	-0.120	-0.185
-220.625	-117.689	0.051	0.009
-219.611	141.067	-0.063	-0.083
-218.596	561.269	-0.036	0.087
-217.582	-200.000	0.002	0.494
-216.567	-94.432	-0.080	-0.022
-215.552	-200.000	-0.031	-0.423
-214.538	-138.827	0.052	0.006
-213.523	51.392	-0.188	-0.177
-212.509	800.000	0.041	-0.139
-211.494	-49.658	0.085	0.040
-210.479	94.750	-0.102	0.116
-209.465	-40.359	-0.134	0.069
-208.450	-200.000	0.003	0.317
-207.436	-200.000	-0.019	-0.261
-206.421	-61.241	0.244	0.102
-205.406	326.230	0.217	-0.414
-204.392	115.833	-0.269	0.327
-203.377	-84.515	0.201	0.063
-202.363	-50.978	0.027	0.013
-201.348	167.866	0.171	0.242
-200.333	137.262	0.250	0.326
-199.319	-200.000	0.065	-0.423
-198.304	-33.064	-0.036	-0.020
-197.290	41.230	-0.271	0.244
-196.275	132.577	-0.114	0.146
-195.260	165.602	0.045	-0.063
-194.246	342.633	-0.125	0.243
-193.231	-99.419	-0.153	0.038
-192.217	86.914	0.167	0.183
-191.202	-88.981	0.198	-0.058
-190.187	-112.246	0.167	-0.033
-189.173	-143.363	-0.198	-0.019
-188.158	-54.599	-0.259	0.117
-187.144	-200.000	-0.031	0.213
-186.129	189.729	-0.084	-0.126
-185.114	-74.950	0.137	0.049
-184.100	-124.652	-0.227	-0.035
-183.085	192.682	0.158	0.238
-182.071	45.951	-0.036	-0.033
-181.056	-13.967	0.234	0.150
-180.042	-95.185	0.266	0.071
-179.027	-200.000	0.008	0.145
-178.012	800.000	-0.067	0.197
-176.998	-51.849	-0.303	0.140
-175.983	-40.475	-0.202	-0.104
-174.969	-200.000	-0.017	-0.100
-173.954	64.054	-0.090	0.090
-172.939	448.070	-0.078	-0.172
-171.925	-114.648	-0.104	0.020
-170.910	-115.856	-0.297	0.055
-169.896	-121.181	0.328	0.055
-168.881	-63.928	-0.100	-0.041
-167.866	-50.951	-0.020	0.009
-166.852	95.534	0.157	0.178
-165.837	475.753	-0.056	-0.125
-164.823	800.000	-0.090	0.307
-163.808	75.119	-0.125	0.131
-162.793	21.492	0.244	-0.197
-161.779	-13.146	-0.134	0.086
-160.764	735.389	0.038	-0.102
-159.750	271.061	-0.056	-0.097
-158.735	-155.482	0.160	-0.010
-157.720	-136.246	-0.065	-0.008
-156.706	205.455	0.059	0.091
-155.691	-200.000	0.000	-0.233
-154.677	-100.047	-0.242	0.060
-153.662	-200.000	0.001	0.181
-152.647	367.647	0.129	0.259
-151.633	-95.441	0.308	0.082
-150.618	-10.895	0.106	0.070
-149.604	475.502	-0.042	-0.093
-148.589	323.037	0.058	0.109
-147.574	-200.000	0.090	0.408
-146.560	262.866	-0.056	-0.096
-145.545	108.843	-0.040	0.048
-144.531	-17.583	-0.279	-0.174
-143.516	-200.000	-0.018	0.140
-142.502	-118.917	-0.390	-0.068
-141.487	68.212	-0.061	0.062
-140.472	-200.000	0.020	0.199
-139.458	-22.336	0.061	-0.036
-138.443	58.228	-0.192	-0.186
-137.429	31.677	0.123	0.105
-136.414	-13.609	0.207	0.133
-135.399	60.305	0.232	0.228
-134.385	-81.504	-0.170	-0.056
-133.370	354.390	-0.048	-0.094
-132.356	-200.000	-0.026	-0.198
-131.341	800.000	-0.046	-0.198
-130.326	765.403	-0.035	0.096
-129.312	-124.577	-0.300	-0.046
-128.297	800.000	0.057	0.186
-127.283	-124.613	0.066	-0.010
-126.268	215.407	0.112	-0.176
-125.253	-61.795	-0.081	0.034
-124.239	-200.000	-0.003	0.098
-123.224	274.246	-0.179	0.314
-122.210	-128.303	0.081	-0.011
