DTS Sentinel unit serial number:	SN413079Multiplexer serial number:	ORYXHardware model number:	OX4-SRSoftware version number:	ORYX F/W v4.00 Oryx Data Collector v3.7.2.0data status	okinstallation	princeton_trtdifferential loss correction	single-endedforward channel	channel 1reverse channel	N/Adate	2019/09/12time	07:20:11forward acquisition time	60.00reverse acquisition time	0.00gamma	496.2192k internal	0.2319k external	0.2319temperature offset calibration	1.0044default loss term (dB/km)	0.3790temperature slope calibration	1.0000multiplexer offset coefficient	1.0000multiplexer slope coefficient	1.0000fibre end	0.00T internal ref (°C)	32.31T ext. ref 1 (°C)	1.61T ext. ref 2 (°C)	28.57length (m)	temperature (°C)	Stokes	anti-Stokes-747.200	-106.689	0.242	-0.055
-746.185	99.815	-0.109	0.127
-745.171	648.251	0.108	0.278
-744.156	383.112	-0.131	0.273
-743.142	24.665	-0.094	-0.079
-742.127	54.380	-0.235	-0.229
-741.112	-71.283	0.238	0.090
-740.098	-200.000	-0.022	0.304
-739.083	68.885	0.108	0.112
-738.069	800.000	0.062	0.183
-737.054	-162.594	0.218	0.011
-736.039	751.069	-0.117	0.320
-735.025	-29.967	0.301	0.173
-734.010	-200.000	-0.024	-0.177
-732.996	647.255	-0.171	0.443
-731.981	512.742	0.068	0.161
-730.966	-200.000	0.005	0.236
-729.952	-118.207	-0.243	-0.044
-728.937	14.313	-0.323	-0.254
-727.923	800.000	-0.095	-0.408
-726.908	800.000	0.084	0.366
-725.894	264.984	-0.185	-0.326
-724.879	6.807	0.163	0.123
-723.864	107.055	0.116	-0.140
-722.850	-72.911	0.046	0.017
-721.835	169.696	0.154	0.223
-720.821	21.798	-0.074	0.061
-719.806	-81.774	0.200	0.066
-718.791	-111.087	0.384	0.080
-717.777	-161.999	0.050	-0.003
-716.762	171.220	-0.104	-0.151
-715.748	-200.000	-0.061	-0.365
-714.733	-122.467	-0.409	0.067
-713.718	-45.321	0.351	0.176
-712.704	-200.000	0.024	-0.371
-711.689	-54.861	0.167	-0.076
-710.675	-7.921	-0.095	0.064
-709.660	16.274	0.139	-0.111
-708.645	800.000	0.142	0.477
-707.631	800.000	-0.094	0.359
-706.616	800.000	0.091	0.284
-705.602	-89.756	-0.119	-0.035
-704.587	-46.053	-0.069	-0.034
-703.572	-170.911	0.111	0.004
-702.558	17.448	0.091	-0.073
-701.543	49.629	0.114	-0.109
-700.529	22.210	-0.261	0.215
-699.514	110.791	0.226	-0.275
-698.499	-200.000	0.014	-0.159
-697.485	-117.855	0.112	-0.020
-696.470	787.822	-0.071	0.196
-695.456	800.000	0.075	0.280
-694.441	-52.352	-0.239	0.112
-693.426	800.000	0.085	-0.276
-692.412	238.663	-0.223	-0.374
-691.397	-82.878	0.382	-0.125
-690.383	-151.500	-0.107	0.008
-689.368	-107.159	-0.449	-0.100
-688.354	-200.000	-0.008	-0.136
-687.339	-200.000	0.054	-0.360
-686.324	800.000	-0.099	-0.277
-685.310	588.173	-0.058	0.145
-684.295	-200.000	-0.015	-0.193
-683.281	-26.184	-0.183	0.108
-682.266	5.794	0.396	-0.295
-681.251	-92.073	0.399	0.114
-680.237	74.511	0.122	0.129
-679.222	254.454	-0.114	-0.197
-678.208	601.460	-0.152	0.381
-677.193	301.004	0.182	0.338
-676.178	1.479	-0.266	0.193
-675.164	-200.000	0.033	-0.237
-674.149	-200.000	0.014	0.132
-673.135	-109.039	-0.143	0.031
-672.120	-159.757	-0.441	0.025
-671.105	59.652	0.138	-0.137
-670.091	651.586	-0.130	-0.336
-669.076	704.653	0.079	-0.211
-668.062	105.583	-0.135	-0.161
-667.047	-127.381	-0.187	0.027
-666.032	-19.656	0.151	-0.094
-665.018	102.147	0.244	-0.288
-664.003	302.204	-0.136	0.254
-662.989	38.833	-0.093	0.084
-661.974	-200.000	-0.009	0.080
-660.959	109.960	0.213	-0.258
-659.945	-200.000	0.051	-0.319
-658.930	-200.000	-0.010	-0.185
-657.916	-33.761	0.091	-0.051
-656.901	307.897	-0.131	-0.246
-655.886	-200.000	-0.024	-0.131
-654.872	-14.043	-0.596	0.388
-653.857	429.835	-0.040	0.087
-652.843	217.244	-0.013	0.022
-651.828	256.768	-0.057	0.099
-650.814	514.258	-0.136	0.320
-649.799	616.482	-0.060	0.152
-648.784	-76.091	0.054	-0.019
-647.770	800.000	-0.020	-0.080
-646.755	-200.000	-0.004	0.360
-645.741	244.198	0.178	-0.301
-644.726	-100.627	0.172	0.043
-643.711	-7.746	-0.274	0.187
-642.697	-93.668	-0.133	0.037
-641.682	-115.050	-0.402	0.077
-640.668	-91.453	0.167	-0.048
-639.653	642.928	-0.109	0.280
-638.638	256.391	-0.068	0.118
-637.624	-121.966	-0.249	-0.041
-636.609	44.900	0.238	-0.221
-635.595	-200.000	0.060	-0.286
-634.580	-200.000	0.004	0.134
-633.565	-12.659	-0.161	-0.106
-632.551	278.529	-0.119	-0.214
-631.536	746.039	0.069	-0.187
-630.522	653.989	-0.141	-0.365
-629.507	-52.320	-0.168	-0.079
-628.492	-48.843	0.337	-0.163
-627.478	-200.000	0.052	-0.344
-626.463	154.151	-0.148	0.205
-625.449	18.178	-0.009	0.007
-624.434	-200.000	-0.020	-0.203
-623.419	327.011	0.041	-0.079
-622.405	800.000	0.106	-0.298
-621.390	-200.000	0.022	-0.330
-620.376	-159.425	-0.209	-0.012
-619.361	316.306	-0.066	-0.125
-618.346	800.000	0.109	-0.468
-617.332	-200.000	-0.002	0.038
-616.317	206.372	-0.180	-0.282
-615.303	-72.550	0.184	-0.068
-614.288	344.262	0.085	0.169
-613.273	118.980	0.087	-0.108
-612.259	122.921	-0.183	-0.231
-611.244	461.383	-0.128	-0.287
-610.230	235.421	0.026	-0.043
-609.215	-32.283	0.069	-0.039
-608.201	-138.776	-0.202	-0.022
-607.186	60.105	0.027	0.027
-606.171	800.000	-0.108	-0.305
-605.157	-3.900	-0.182	0.127
-604.142	795.356	-0.087	0.242
-603.128	800.000	0.035	-0.146
-602.113	-87.333	-0.573	-0.175
-601.098	-83.534	0.123	-0.039
-600.084	-111.498	0.230	0.047
-599.069	116.244	-0.097	0.119
-598.055	-200.000	-0.012	-0.088
-597.040	-200.000	-0.005	0.247
-596.025	314.452	0.043	-0.081
-595.011	489.806	0.048	-0.111
-593.996	-95.531	0.262	0.071
-592.982	25.496	0.384	-0.322
-591.967	-200.000	-0.028	-0.434
-590.952	285.612	-0.222	-0.403
-589.938	-112.582	-0.148	-0.030
-588.923	87.122	-0.118	0.131
-587.909	-38.616	-0.178	0.095
-586.894	61.782	0.123	0.123
-585.879	-200.000	0.026	0.183
-584.865	-98.434	-0.170	0.044
-583.850	-132.435	-0.438	0.057
-582.836	-102.710	-0.202	0.048
-581.821	-200.000	-0.030	-0.429
-580.806	223.958	0.032	-0.051
-579.792	-127.682	0.126	-0.018
-578.777	102.065	-0.078	0.092
-577.763	-42.769	0.134	0.068
-576.748	-64.330	-0.219	0.090
-575.733	252.266	0.162	-0.277
-574.719	-42.149	0.145	0.075
-573.704	800.000	0.009	0.027
-572.690	291.406	0.065	-0.119
-571.675	-165.275	0.259	-0.011
-570.661	-200.000	0.019	-0.310
-569.646	-103.475	0.149	0.035
-568.631	-4.066	0.161	0.112
-567.617	90.109	-0.063	-0.071
-566.602	-47.994	0.408	0.198
-565.588	621.378	0.074	-0.187
-564.573	800.000	0.037	0.146
-563.558	7.038	0.020	-0.015
-562.544	800.000	0.096	0.325
-561.529	-55.635	0.174	0.078
-560.515	2.077	0.048	-0.035
-559.500	800.000	0.056	0.163
-558.485	800.000	0.039	0.136
-557.471	-165.796	-0.090	-0.004
-556.456	655.232	0.064	-0.165
-555.442	-9.296	-0.210	0.141
-554.427	-1.227	-0.113	-0.080
-553.412	-66.605	0.043	0.017
-552.398	2.754	0.247	-0.180
-551.383	71.069	0.150	0.156
-550.369	-3.347	0.159	-0.111
-549.354	-12.099	0.255	-0.167
-548.339	118.590	0.108	0.134
-547.325	-138.995	-0.156	-0.017
-546.310	-61.609	0.389	0.164
-545.296	800.000	0.068	-0.207
-544.281	-200.000	-0.061	-0.627
-543.266	-132.102	-0.167	-0.022
-542.252	-200.000	0.016	-0.321
-541.237	-120.679	-0.316	-0.054
-540.223	-43.943	-0.273	-0.138
-539.208	-74.723	0.093	0.034
-538.193	-200.000	0.152	0.000
-537.179	-76.348	0.325	0.115
-536.164	458.634	-0.087	-0.195
-535.150	-72.660	-0.138	0.051
-534.135	-200.000	-0.013	0.072
-533.121	-79.235	-0.286	-0.097
-532.106	755.980	-0.065	-0.177
-531.091	-200.000	0.050	-0.227
-530.077	-200.000	-0.056	0.361
-529.062	-27.395	0.183	-0.107
-528.048	-44.452	-0.227	-0.114
-527.033	-84.108	-0.165	0.053
-526.018	208.799	-0.112	0.175
-525.004	800.000	0.119	0.331
-523.989	-200.000	0.040	-0.339
-522.975	-6.404	0.300	-0.205
-521.960	41.197	-0.096	0.087
-520.945	-37.570	0.289	-0.154
-519.931	72.512	-0.153	-0.160
-518.916	50.927	-0.082	0.078
-517.902	25.292	-0.202	-0.168
-516.887	-118.766	-0.084	0.015
-515.872	-101.820	0.114	0.028
-514.858	800.000	0.090	0.365
-513.843	-24.100	0.196	0.117
-512.829	-69.338	-0.346	-0.133
-511.814	274.119	0.164	-0.290
-510.799	-200.000	0.001	-0.039
-509.785	421.179	0.031	0.066
-508.770	800.000	-0.136	-0.404
-507.756	33.155	0.071	0.062
-506.741	800.000	-0.057	-0.160
-505.726	40.379	-0.138	-0.124
-504.712	-169.064	-0.313	0.012
-503.697	29.477	0.203	-0.173
-502.683	-17.654	-0.300	-0.189
-501.668	-82.952	0.012	-0.004
-500.653	-82.777	-0.321	0.104
-499.639	-64.572	-0.137	0.056
-498.624	-200.000	0.012	-0.135
-497.610	52.834	-0.233	-0.223
-496.595	117.999	0.158	-0.195
-495.581	800.000	-0.039	-0.112
-494.566	-200.000	0.041	-0.250
-493.551	-70.789	0.385	-0.145
-492.537	395.227	-0.173	0.361
-491.522	-145.613	-0.169	0.015
-490.508	-200.000	0.060	0.400
-489.493	800.000	0.056	-0.208
-488.478	-200.000	0.017	0.342
-487.464	60.715	-0.217	0.215
-486.449	-65.751	-0.109	-0.044
-485.435	800.000	-0.037	-0.107
-484.420	800.000	-0.041	0.177
-483.405	800.000	0.064	-0.183
-482.391	107.733	0.046	0.055
-481.376	130.369	0.166	0.213
-480.362	-110.686	0.161	0.033
-479.347	-192.048	-0.217	0.002
-478.332	-33.037	0.301	0.167
-477.318	-4.425	-0.154	-0.106
-476.303	-78.705	0.114	0.039
-475.289	619.514	0.056	0.140
-474.274	-9.194	0.248	-0.166
-473.259	-161.800	0.248	-0.013
-472.245	-63.428	-0.231	-0.095
-471.230	-89.980	0.320	0.093
-470.216	9.846	-0.268	0.203
-469.201	-86.587	0.175	0.054
-468.186	403.453	-0.117	0.247
-467.172	-42.897	0.129	0.066
-466.157	-127.127	0.169	0.025
-465.143	-56.052	-0.177	-0.079
-464.128	86.736	-0.141	0.155
-463.113	131.772	0.178	-0.229
-462.099	800.000	-0.034	0.143
-461.084	-200.000	0.058	0.291
-460.070	-56.590	0.215	0.095
-459.055	-115.232	-0.362	-0.068
-458.040	-67.845	0.172	-0.067
-457.026	-200.000	-0.028	-0.169
-456.011	-18.831	0.290	-0.181
-454.997	116.584	0.152	0.186
-453.982	267.514	-0.127	0.222
-452.968	800.000	-0.068	0.199
-451.953	113.596	0.095	0.116
-450.938	177.962	0.075	0.110
-449.924	130.572	0.136	0.175
-448.909	799.200	-0.088	0.242
-447.895	-200.000	0.008	-0.089
-446.880	-151.489	0.048	-0.004
-445.865	239.348	-0.053	-0.088
-444.851	-200.000	-0.006	0.185
-443.836	-200.000	0.003	-0.067
-442.822	-200.000	-0.018	0.299
-441.807	56.261	0.132	-0.128
-440.792	36.302	-0.210	-0.185
-439.778	800.000	0.091	0.309
-438.763	-116.678	0.167	-0.031
-437.749	376.390	-0.207	-0.423
-436.734	800.000	0.025	-0.084
-435.719	-122.672	0.416	0.067
-434.705	-141.066	-0.164	0.017
-433.690	-177.465	0.108	0.003
-432.676	-200.000	0.026	0.150
-431.661	157.005	-0.082	0.113
-430.646	-200.000	-0.058	0.410
-429.632	-200.000	-0.022	0.365
-428.617	-119.565	-0.521	0.090
-427.603	31.535	-0.151	-0.129
-426.588	-184.905	0.168	-0.003
-425.573	272.461	-0.091	-0.160
-424.559	204.899	-0.085	0.132
-423.544	74.826	-0.130	-0.136
-422.530	-66.977	-0.254	0.100
-421.515	800.000	0.048	-0.143
-420.500	396.762	0.083	-0.174
-419.486	42.989	0.120	0.109
-418.471	28.075	-0.063	-0.053
-417.457	227.528	0.219	-0.355
-416.442	238.449	-0.228	-0.378
-415.428	-200.000	0.027	0.384
-414.413	297.969	-0.117	0.215
-413.398	-133.919	-0.277	0.034
-412.384	-14.457	-0.062	-0.040
-411.369	800.000	-0.053	-0.148
-410.355	45.211	0.339	-0.312
-409.340	-19.588	0.131	0.081
-408.325	-78.631	-0.074	-0.025
-407.311	-69.733	-0.336	-0.128
-406.296	-67.161	-0.169	-0.067
-405.282	-94.862	0.113	0.031
-404.267	-109.833	0.213	0.045
-403.252	95.355	-0.111	0.126
-402.238	142.810	-0.177	0.235
-401.223	277.886	-0.138	0.246
-400.209	-82.325	0.296	0.096
-399.194	-73.003	0.188	0.069
-398.179	-200.000	-0.020	-0.096
-397.165	634.393	-0.052	0.132
-396.150	116.441	0.170	0.208
-395.136	-57.352	-0.208	-0.091
-394.121	668.131	-0.061	0.159
-393.106	791.173	-0.075	0.207
-392.092	9.747	0.255	-0.193
-391.077	50.133	-0.124	0.117
-390.063	623.512	0.064	0.162
-389.048	-128.879	-0.062	0.009
-388.033	-25.358	-0.024	0.014
-387.019	-131.390	0.162	0.021
-386.004	-96.327	0.104	0.027
-384.990	114.531	-0.108	-0.131
-383.975	-168.053	-0.301	-0.012
-382.960	-31.088	-0.366	0.206
-381.946	-73.157	0.056	0.020
-380.931	467.748	-0.153	0.343
-379.917	-200.000	-0.008	0.259
-378.902	126.734	0.083	-0.105
-377.888	-200.000	-0.030	0.142
-376.873	-200.000	-0.030	-0.228
-375.858	-97.184	-0.141	-0.037
-374.844	2.754	-0.166	0.120
-373.829	800.000	0.050	-0.166
-372.815	98.697	0.156	0.180
-371.800	-114.000	-0.324	0.063
-370.785	212.898	0.042	0.067
-369.771	120.191	0.164	0.202
-368.756	-200.000	-0.001	0.195
-367.742	27.041	0.171	0.143
-366.727	-200.000	0.039	0.384
-365.712	-60.671	0.239	-0.101
-364.698	158.569	0.294	-0.407
-363.683	-64.349	0.221	0.090
-362.669	20.644	0.318	-0.256
-361.654	6.415	-0.259	0.191
-360.639	-142.089	0.164	-0.016
-359.625	-145.686	0.169	0.015
-358.610	-200.000	0.025	0.347
-357.596	800.000	0.080	0.225
-356.581	-200.000	-0.001	0.033
-355.566	29.062	0.178	0.151
-354.552	-2.460	-0.060	-0.042
-353.537	-200.000	0.046	-0.309
-352.523	48.472	0.048	-0.045
-351.508	288.116	-0.035	0.063
-350.493	154.840	0.083	0.114
-349.479	-200.000	-0.005	0.073
-348.464	-6.225	0.166	-0.113
-347.450	180.041	-0.094	0.137
-346.435	-200.000	-0.040	0.304
-345.420	-200.000	0.007	0.372
-344.406	-200.000	0.023	0.132
-343.391	-40.923	-0.197	-0.102
-342.377	-103.029	-0.171	-0.040
-341.362	220.261	0.112	0.179
-340.348	-200.000	-0.037	0.203
-339.333	79.586	0.236	0.252
-338.318	115.876	-0.204	0.248
-337.304	-90.885	0.274	-0.079
-336.289	-121.473	-0.142	0.023
-335.275	-200.000	-0.029	-0.304
-334.260	-184.023	0.479	0.008
-333.245	78.259	-0.043	0.046
-332.231	103.035	-0.383	-0.446
-331.216	-200.000	-0.048	-0.270
-330.202	310.579	0.012	0.022
-329.187	-200.000	0.036	0.202
-328.172	-18.904	-0.193	0.119
-327.158	127.685	0.141	-0.179
-326.143	-140.768	0.265	-0.027
-325.129	94.935	0.157	-0.177
-324.114	-50.462	0.341	-0.160
-323.099	-200.000	0.029	-0.226
-322.085	-92.895	-0.005	-0.001
-321.070	-200.000	0.016	0.118
-320.056	501.614	0.140	0.322
-319.041	235.305	-0.140	-0.230
-318.026	-176.811	0.442	-0.011
-317.012	-200.000	0.000	0.160
-315.997	-65.426	-0.282	0.113
-314.983	150.646	0.182	0.246
-313.968	800.000	-0.032	-0.096
-312.953	100.857	0.144	0.167
-311.939	-200.000	0.030	0.265
-310.924	77.439	-0.115	0.122
-309.910	800.000	-0.129	-0.383
-308.895	11.160	0.173	0.132
-307.880	-75.666	-0.196	-0.069
-306.866	800.000	0.082	-0.339
-305.851	-200.000	-0.016	-0.620
-304.837	147.992	0.224	0.300
-303.822	-200.000	-0.018	-0.282
-302.807	-200.000	0.012	-0.136
-301.793	259.523	-0.123	0.211
-300.778	-76.255	-0.139	-0.049
-299.764	-118.070	-0.169	0.030
-298.749	305.442	-0.141	0.260
-297.735	168.220	0.144	0.204
-296.720	-200.000	0.014	-0.122
-295.705	246.491	-0.161	0.269
-294.691	145.307	0.132	-0.176
-293.676	-200.000	0.086	-0.403
-292.662	-58.659	0.164	-0.071
-291.647	-165.967	-0.139	0.006
-290.632	61.579	-0.222	0.220
-289.618	-147.839	0.278	-0.023
-288.603	173.570	0.118	0.169
-287.589	-200.000	0.021	0.348
-286.574	2.633	0.383	-0.276
-285.559	-46.374	0.240	-0.117
-284.545	-120.550	-0.335	0.056
-283.530	-200.000	-0.037	0.303
-282.516	366.796	-0.075	0.151
-281.501	-200.000	0.035	0.271
-280.486	329.455	0.118	-0.226
-279.472	-80.903	0.318	-0.105
-278.457	45.937	0.147	0.135
-277.443	-200.000	0.065	-0.517
-276.428	-200.000	0.014	-0.238
-275.413	-52.138	0.133	0.061
-274.399	-200.000	0.027	-0.202
-273.384	252.734	0.142	0.240
-272.370	115.782	0.110	-0.133
-271.355	-54.554	-0.167	-0.075
-270.340	-200.000	-0.011	0.206
-269.326	-81.394	0.264	-0.086
-268.311	800.000	0.042	0.118
-267.297	36.717	-0.089	0.078
-266.282	-64.255	-0.392	-0.158
-265.267	-1.512	0.262	0.183
-264.253	27.083	-0.288	-0.240
-263.238	197.463	0.140	-0.212
-262.224	-16.423	0.039	-0.025
-261.209	5.833	-0.147	-0.108
-260.195	-25.175	-0.188	0.110
-259.180	-98.983	-0.201	-0.051
-258.165	94.290	0.150	0.169
-257.151	132.284	0.080	0.102
-256.136	70.707	-0.159	-0.163
-255.122	-200.000	-0.015	0.205
-254.107	164.623	0.107	0.149
-253.092	-200.000	-0.009	0.160
-252.078	-33.579	-0.142	0.078
-251.063	-200.000	0.017	-0.292
-250.049	-15.197	-0.201	0.128
-249.034	-22.635	0.044	-0.026
-248.019	-200.000	-0.090	0.518
-247.005	-73.689	0.060	-0.022
-245.990	565.006	-0.161	0.386
-244.976	-200.000	0.011	0.449
-243.961	-33.614	-0.266	0.146
-242.946	9.362	-0.500	-0.376
-241.932	-35.873	-0.238	-0.128
-240.917	-67.917	0.076	-0.029
-239.903	-151.980	-0.131	-0.009
-238.888	494.145	-0.066	0.151
-237.873	-107.631	0.171	-0.037
-236.859	-200.000	-0.001	-0.086
-235.844	88.581	-0.022	-0.024
-234.830	-200.000	0.047	-0.403
-233.815	-155.848	-0.228	-0.014
-232.800	-13.922	-0.064	-0.041
-231.786	11.845	0.211	-0.161
-230.771	157.421	-0.149	-0.205
-229.757	646.235	0.137	-0.347
-228.742	-71.304	0.325	-0.121
-227.727	722.728	0.117	-0.309
-226.713	-200.000	0.013	0.120
-225.698	79.600	-0.109	-0.116
-224.684	-11.389	0.080	-0.052
-223.669	-109.269	0.253	0.053
-222.655	164.549	-0.259	0.362
-221.640	-119.593	-0.349	-0.060
-220.625	-153.899	0.369	-0.025
-219.611	505.710	0.105	0.241
-218.596	-200.000	0.068	0.342
-217.582	-45.787	0.338	-0.165
-216.567	250.449	-0.162	0.273
-215.552	800.000	0.088	0.327
-214.538	784.370	-0.075	0.204
-213.523	-53.642	-0.226	0.102
-212.509	200.043	-0.168	-0.256
-211.494	-200.000	-0.063	0.297
-210.479	-106.985	-0.313	-0.069
-209.465	-1.196	0.349	0.244
-208.450	-78.076	-0.344	-0.117
-207.436	-61.520	0.113	0.047
-206.421	-127.319	-0.245	-0.035
-205.406	-106.187	0.120	-0.027
-204.392	476.052	0.046	0.104
-203.377	70.376	0.289	-0.296
-202.363	-166.089	0.190	0.008
-201.348	-101.850	-0.100	-0.024
-200.333	-200.000	0.018	-0.139
-199.319	-38.438	0.117	-0.061
-198.304	333.123	-0.109	-0.208
-197.290	136.056	0.177	-0.228
-196.275	-147.676	-0.283	-0.024
-195.260	800.000	0.029	-0.101
-194.246	127.112	0.136	-0.171
-193.231	54.417	0.157	0.150
-192.217	251.284	-0.063	-0.105
-191.202	-55.388	0.103	-0.046
-190.187	-200.000	0.003	0.096
-189.173	-90.991	-0.046	-0.013
-188.158	235.342	0.100	0.163
-187.144	-176.628	-0.263	-0.007
-186.129	-134.045	0.305	-0.037
-185.114	44.196	-0.179	0.162
-184.100	-98.127	0.049	-0.013
-183.085	122.105	-0.218	-0.270
-182.071	72.438	-0.036	0.037
-181.056	18.051	-0.144	0.114
-180.042	-187.983	-0.067	0.001
-179.027	800.000	-0.078	0.217
-178.012	153.869	-0.190	0.257
-176.998	-200.000	-0.032	-0.284
-175.983	-200.000	0.023	0.219
-174.969	757.505	-0.052	0.139
-173.954	-39.849	-0.326	-0.169
-172.939	181.289	0.072	0.105
-171.925	800.000	0.096	-0.296
-170.910	-111.754	0.154	0.031
-169.896	800.000	0.135	0.515
-168.881	460.999	-0.078	0.172
-167.866	-200.000	-0.016	-0.077
-166.852	217.555	0.220	0.347
-165.837	-200.000	-0.028	-0.171
-164.823	800.000	-0.011	0.041
-163.808	800.000	0.045	-0.126
-162.793	540.403	-0.077	-0.181
-161.779	-200.000	0.026	0.370
-160.764	800.000	-0.059	0.167
-159.750	-112.694	0.217	-0.043
-158.735	49.219	-0.235	0.218
-157.720	337.793	0.082	0.158
-156.706	-112.469	-0.191	-0.038
-155.691	389.332	-0.099	-0.202
-154.677	543.506	-0.082	-0.193
-153.662	-200.000	0.026	-0.192
-152.647	800.000	-0.053	-0.183
-151.633	10.578	0.249	0.188
-150.618	537.720	-0.086	0.202
-149.604	-200.000	-0.006	-0.177
-148.589	60.469	0.179	0.175
-147.574	-142.085	0.042	0.004
-146.560	123.742	0.103	0.127
-145.545	-12.396	-0.136	-0.088
-144.531	-98.764	0.058	-0.015
-143.516	-200.000	0.180	-0.000
-142.502	800.000	-0.024	-0.088
-141.487	103.103	-0.174	0.201
-140.472	-200.000	-0.016	0.335
-139.458	800.000	0.122	0.395
-138.443	188.083	-0.057	0.084
-137.429	-87.450	-0.237	-0.071
-136.414	-8.556	-0.441	0.293
-135.399	240.384	0.024	0.040
-134.385	349.437	-0.107	0.208
-133.370	78.803	-0.207	-0.219
-132.356	83.186	0.063	0.068
-131.341	-142.492	0.418	0.041
-130.326	48.879	0.077	0.071
-129.312	471.189	-0.083	0.184
-128.297	800.000	0.017	-0.062
-127.283	-94.191	0.449	-0.121
-126.268	60.336	0.376	-0.368
-125.253	114.977	-0.160	-0.192
-124.239	800.000	-0.121	0.354
-123.224	-63.273	-0.082	0.034
-122.210	-200.000	-0.013	0.172
-121.195	271.218	0.167	-0.290
