DTS Sentinel unit serial number:	SN413079Multiplexer serial number:	ORYXHardware model number:	OX4-SRSoftware version number:	ORYX F/W v4.00 Oryx Data Collector v3.7.2.0data status	okinstallation	princeton_trtdifferential loss correction	single-endedforward channel	channel 1reverse channel	N/Adate	2019/09/18time	04:54:35forward acquisition time	60.00reverse acquisition time	0.00gamma	496.2192k internal	0.2339k external	0.2339temperature offset calibration	0.9976default loss term (dB/km)	0.3790temperature slope calibration	1.0000multiplexer offset coefficient	1.0000multiplexer slope coefficient	1.0000fibre end	0.00T internal ref (°C)	23.50T ext. ref 1 (°C)	0.18T ext. ref 2 (°C)	17.92length (m)	temperature (°C)	Stokes	anti-Stokes-747.200	800.000	-0.040	-0.174
-746.185	-200.000	0.051	0.357
-745.171	-44.370	0.176	0.088
-744.156	124.312	-0.150	-0.190
-743.142	800.000	0.023	0.095
-742.127	-97.085	-0.344	-0.090
-741.112	11.791	0.252	0.194
-740.098	800.000	0.044	-0.175
-739.083	93.878	-0.200	0.227
-738.069	544.714	0.144	0.344
-737.054	-200.000	0.024	0.165
-736.039	21.540	-0.400	0.326
-735.025	26.690	0.259	0.218
-734.010	-33.764	0.041	-0.023
-732.996	-10.681	0.160	-0.106
-731.981	-200.000	-0.043	0.199
-730.966	-49.928	0.221	-0.105
-729.952	-200.000	-0.007	-0.135
-728.937	38.876	-0.261	-0.234
-727.923	-24.583	-0.152	0.091
-726.908	57.950	-0.350	-0.343
-725.894	16.824	0.087	0.069
-724.879	-200.000	0.013	-0.340
-723.864	800.000	-0.127	-0.393
-722.850	-49.413	0.129	-0.062
-721.835	800.000	-0.064	-0.274
-720.821	19.826	-0.055	-0.045
-719.806	-7.404	-0.323	0.219
-718.791	427.732	-0.021	-0.045
-717.777	-29.535	-0.097	0.056
-716.762	-200.000	-0.060	-0.283
-715.748	71.357	0.022	-0.023
-714.733	256.329	0.071	-0.122
-713.718	-94.645	-0.124	-0.034
-712.704	-200.000	0.023	-0.265
-711.689	-78.527	0.348	-0.119
-710.675	-62.208	0.107	-0.045
-709.660	162.100	-0.111	-0.156
-708.645	-200.000	0.015	0.105
-707.631	452.150	-0.061	-0.136
-706.616	-36.158	-0.341	-0.185
-705.602	-200.000	-0.004	-0.128
-704.587	-89.400	-0.364	-0.107
-703.572	64.837	-0.110	0.111
-702.558	-52.269	0.172	-0.080
-701.543	20.228	-0.074	-0.060
-700.529	-200.000	-0.007	-0.090
-699.514	613.794	-0.119	-0.298
-698.499	-200.000	0.026	-0.186
-697.485	-27.647	0.192	0.112
-696.470	-20.883	-0.143	-0.088
-695.456	75.815	-0.128	-0.136
-694.441	800.000	-0.027	-0.095
-693.426	-87.542	0.085	-0.026
-692.412	800.000	0.097	0.373
-691.397	315.597	0.159	0.300
-690.383	-200.000	0.010	-0.099
-689.368	-101.627	-0.108	0.026
-688.354	150.029	-0.227	0.308
-687.339	-79.639	-0.077	-0.026
-686.324	79.965	0.135	0.145
-685.310	-98.125	-0.362	-0.093
-684.295	-111.803	-0.320	0.065
-683.281	-200.000	0.019	0.109
-682.266	-162.033	0.142	-0.007
-681.251	51.046	0.145	-0.138
-680.237	87.257	-0.171	0.189
-679.222	800.000	0.070	-0.289
-678.208	2.742	0.071	-0.051
-677.193	543.405	-0.098	-0.233
-676.178	-18.632	0.335	-0.209
-675.164	70.374	-0.101	0.104
-674.149	-50.148	-0.376	-0.178
-673.135	-200.000	0.014	0.179
-672.120	22.482	-0.122	-0.100
-671.105	80.416	0.193	-0.208
-670.091	800.000	-0.075	-0.263
-669.076	-200.000	-0.010	0.460
-668.062	81.678	-0.133	0.144
-667.047	800.000	-0.127	0.383
-666.032	453.222	-0.108	0.240
-665.018	-200.000	0.014	0.121
-664.003	-200.000	-0.040	0.215
-662.989	-87.052	0.406	0.124
-661.974	-200.000	0.013	-0.064
-660.959	-64.185	0.125	-0.051
-659.945	63.117	0.087	0.087
-658.930	239.202	-0.066	-0.110
-657.916	-68.052	-0.130	-0.051
-656.901	-100.460	0.085	0.021
-655.886	-16.092	-0.071	-0.045
-654.872	-79.340	0.117	-0.040
-653.857	-200.000	-0.097	0.446
-652.843	-177.637	0.385	0.009
-651.828	-65.554	0.250	-0.100
-650.814	-118.905	-0.085	0.015
-649.799	-170.348	-0.187	-0.007
-648.784	-200.000	-0.004	-0.165
-647.770	-86.462	-0.079	0.024
-646.755	437.943	0.124	-0.271
-645.741	297.469	-0.144	0.264
-644.726	-149.853	-0.229	0.018
-643.711	800.000	0.144	0.404
-642.697	-89.768	0.234	-0.068
-641.682	490.463	0.067	-0.154
-640.668	-49.741	0.234	-0.111
-639.653	800.000	-0.058	-0.205
-638.638	28.172	-0.136	0.115
-637.624	-159.751	0.176	-0.010
-636.609	-200.000	0.037	0.363
-635.595	800.000	-0.004	-0.010
-634.580	32.826	0.111	0.096
-633.565	196.270	-0.133	-0.202
-632.551	230.306	0.146	-0.238
-631.536	-200.000	0.006	-0.026
-630.522	-69.315	-0.347	0.133
-629.507	-93.721	-0.238	0.065
-628.492	184.913	0.195	0.288
-627.478	209.479	-0.121	-0.190
-626.463	178.332	-0.093	0.135
-625.449	-200.000	0.014	0.081
-624.434	45.704	0.135	0.125
-623.419	800.000	0.041	0.122
-622.405	42.186	-0.292	0.264
-621.390	338.622	-0.184	0.358
-620.376	800.000	0.046	-0.188
-619.361	-187.152	0.084	0.001
-618.346	416.874	-0.074	0.158
-617.332	-115.030	-0.065	0.012
-616.317	-200.000	-0.023	-0.205
-615.303	8.910	0.334	0.251
-614.288	97.422	-0.041	-0.047
-613.273	-200.000	-0.019	0.109
-612.259	-84.032	-0.169	0.053
-611.244	-121.453	-0.292	0.049
-610.230	-15.094	0.127	0.081
-609.215	417.190	0.033	0.071
-608.201	-74.857	-0.200	0.072
-607.186	-105.623	0.217	0.049
-606.171	800.000	0.064	-0.192
-605.157	-16.635	0.291	0.184
-604.142	-153.352	0.177	0.012
-603.128	-133.480	-0.092	-0.011
-602.113	-154.711	0.249	0.016
-601.098	800.000	0.063	0.204
-600.084	800.000	-0.040	-0.118
-599.069	52.831	0.047	-0.044
-598.055	-98.543	0.355	0.090
-597.040	800.000	0.048	0.162
-596.025	184.939	-0.117	0.173
-595.011	-153.491	0.244	0.017
-593.996	-6.484	-0.228	-0.155
-592.982	800.000	0.062	0.259
-591.967	-35.234	-0.161	0.088
-590.952	20.875	0.119	-0.096
-589.938	-200.000	0.044	-0.342
-588.923	-31.667	-0.086	-0.048
-587.909	160.064	0.122	0.170
-586.894	800.000	0.067	0.251
-585.879	-200.000	0.053	0.434
-584.865	-150.237	0.181	0.014
-583.850	-200.000	-0.003	-0.232
-582.836	800.000	0.050	0.140
-581.821	-91.297	0.139	0.040
-580.806	-32.313	-0.106	-0.059
-579.792	479.046	0.117	0.265
-578.777	103.868	-0.097	-0.114
-577.763	-138.592	-0.163	0.018
-576.748	-76.257	0.404	-0.142
-575.733	103.219	0.154	0.180
-574.719	-64.279	0.208	-0.084
-573.704	-133.750	-0.512	0.064
-572.690	47.620	-0.237	0.220
-571.675	-200.000	0.002	-0.037
-570.661	53.461	0.075	-0.072
-569.646	-200.000	0.023	-0.116
-568.631	-20.094	0.073	-0.045
-567.617	-58.652	0.043	0.019
-566.602	273.174	0.084	-0.147
-565.588	-144.604	-0.377	-0.035
-564.573	-115.588	-0.295	-0.055
-563.558	-200.000	-0.047	-0.370
-562.544	-36.376	-0.154	-0.083
-561.529	607.609	0.197	-0.490
-560.515	335.840	-0.070	-0.135
-559.500	-70.494	-0.049	-0.019
-558.485	-200.000	-0.032	0.178
-557.471	42.541	-0.206	0.186
-556.456	800.000	0.032	0.105
-555.442	342.499	-0.019	-0.037
-554.427	-200.000	0.037	-0.325
-553.412	662.631	0.092	-0.236
-552.398	-159.007	-0.485	-0.027
-551.383	60.240	0.207	0.204
-550.369	94.040	-0.154	-0.174
-549.354	-179.859	-0.077	-0.002
-548.339	173.228	0.215	0.309
-547.325	-70.166	-0.112	0.042
-546.310	-35.913	0.234	-0.126
-545.296	-200.000	0.018	-0.498
-544.281	-34.304	-0.301	0.165
-543.266	-65.850	0.376	0.150
-542.252	443.640	-0.095	-0.208
-541.237	-47.032	0.204	-0.099
-540.223	-96.749	0.397	-0.104
-539.208	-81.646	-0.234	0.076
-538.193	-112.896	-0.181	0.036
-537.179	52.570	-0.107	0.102
-536.164	-68.483	-0.163	-0.063
-535.150	260.563	-0.032	0.055
-534.135	-200.000	0.020	-0.203
-533.121	60.929	0.187	0.184
-532.106	-200.000	-0.003	0.045
-531.091	1.687	0.123	0.088
-530.077	800.000	0.175	0.541
-529.062	-54.590	-0.214	0.097
-528.048	29.966	0.064	-0.054
-527.033	64.965	0.156	0.157
-526.018	-68.361	-0.291	-0.112
-525.004	800.000	0.018	-0.049
-523.989	-159.750	0.041	-0.002
-522.975	200.147	-0.057	-0.087
-521.960	-97.702	0.163	-0.042
-520.945	800.000	-0.058	0.214
-519.931	800.000	0.025	0.069
-518.916	-126.161	-0.332	0.049
-517.902	-200.000	-0.005	0.058
-516.887	-200.000	-0.043	0.376
-515.872	82.459	-0.055	-0.059
-514.858	-40.108	-0.230	0.119
-513.843	-200.000	-0.049	0.238
-512.829	-14.073	0.319	-0.205
-511.814	-164.649	-0.210	0.009
-510.799	-200.000	0.007	-0.102
-509.785	221.817	-0.017	0.026
-508.770	-25.528	0.255	0.150
-507.756	-66.223	0.158	-0.063
-506.741	-200.000	0.020	0.153
-505.726	-200.000	0.081	-0.000
-504.712	468.209	-0.115	0.256
-503.697	-200.000	0.016	-0.271
-502.683	558.758	0.139	-0.333
-501.668	-200.000	0.077	-0.474
-500.653	-200.000	0.004	0.212
-499.639	-107.813	-0.074	-0.016
-498.624	-13.796	0.349	-0.224
-497.610	189.107	-0.136	-0.203
-496.595	-47.986	0.420	0.202
-495.581	-2.566	0.304	0.212
-494.566	164.621	-0.044	0.062
-493.551	-46.750	-0.171	-0.083
-492.537	-200.000	-0.015	0.137
-491.522	-2.962	-0.114	0.079
-490.508	118.173	-0.049	0.060
-489.493	420.673	0.215	-0.457
-488.478	-110.182	-0.224	-0.046
-487.464	397.441	-0.121	-0.250
-486.449	-12.585	-0.011	-0.007
-485.435	134.437	-0.271	-0.349
-484.420	-200.000	0.079	-0.355
-483.405	-200.000	0.027	0.152
-482.391	8.644	-0.033	0.025
-481.376	118.682	-0.191	0.235
-480.362	16.035	0.048	-0.038
-479.347	236.389	-0.159	-0.262
-478.332	-76.698	-0.148	-0.051
-477.318	800.000	0.057	0.206
-476.303	12.813	0.113	0.087
-475.289	64.874	-0.152	-0.153
-474.274	84.986	0.123	0.133
-473.259	23.192	-0.235	0.191
-472.245	104.864	-0.017	0.020
-471.230	21.900	-0.322	-0.260
-470.216	249.344	0.025	0.041
-469.201	-7.936	-0.008	-0.005
-468.186	251.446	-0.046	-0.078
-467.172	56.825	-0.162	0.156
-466.157	-89.237	-0.133	-0.039
-465.143	-45.758	-0.121	-0.059
-464.128	-55.544	0.329	-0.146
-463.113	-30.788	0.103	-0.058
-462.099	-30.156	0.264	0.149
-461.084	-82.499	0.183	-0.059
-460.070	12.167	0.293	-0.224
-459.055	135.249	-0.234	0.302
-458.040	-116.273	0.143	0.026
-457.026	301.734	-0.106	0.194
-456.011	-200.000	0.024	-0.113
-454.997	800.000	-0.074	-0.204
-453.982	19.745	-0.078	0.062
-452.968	-15.836	0.275	0.174
-451.953	-61.480	0.595	0.248
-450.938	-93.459	0.293	-0.081
-449.924	388.482	-0.012	0.025
-448.909	800.000	0.030	0.086
-447.895	-200.000	-0.066	0.383
-446.880	-158.111	-0.170	0.010
-445.865	-12.205	0.179	-0.116
-444.851	-155.313	0.230	0.015
-443.836	-75.136	-0.100	-0.035
-442.822	-72.649	0.183	-0.067
-441.807	800.000	-0.121	0.456
-440.792	-57.217	-0.135	-0.059
-439.778	-84.358	-0.191	-0.060
-438.763	-54.650	0.328	0.147
-437.749	364.828	-0.047	-0.094
-436.734	800.000	-0.042	-0.143
-435.719	-63.663	-0.072	0.029
-434.705	-200.000	0.052	0.247
-433.690	487.982	0.158	0.357
-432.676	55.652	-0.133	-0.128
-431.661	-17.830	-0.190	0.118
-430.646	20.037	-0.427	-0.341
-429.632	-96.179	0.270	-0.071
-428.617	-133.133	0.201	0.025
-427.603	-200.000	-0.055	-0.274
-426.588	23.240	0.104	-0.085
-425.573	-146.041	0.110	0.010
-424.559	800.000	0.077	0.328
-423.544	-53.602	-0.411	0.186
-422.530	-200.000	0.059	0.327
-421.515	-167.610	-0.090	0.004
-420.500	800.000	-0.096	0.360
-419.486	-138.748	-0.273	0.030
-418.471	686.608	0.031	0.080
-417.457	-200.000	0.018	-0.248
-416.442	191.483	0.078	0.116
-415.428	195.882	-0.079	-0.119
-414.413	325.742	-0.076	-0.145
-413.398	-148.009	-0.262	0.022
-412.384	-109.983	-0.405	0.084
-411.369	392.177	0.012	-0.025
-410.355	-98.166	-0.147	-0.037
-409.340	-42.502	0.210	-0.106
-408.325	-18.685	0.151	-0.093
-407.311	-39.741	-0.315	-0.163
-406.296	84.011	-0.224	-0.242
-405.282	-160.825	0.344	-0.018
-404.267	30.327	-0.126	-0.106
-403.252	50.205	0.374	0.350
-402.238	-156.679	0.096	0.006
-401.223	40.369	-0.125	-0.111
-400.209	-106.592	0.249	-0.055
-399.194	7.821	-0.079	0.058
-398.179	-67.004	0.265	0.103
-397.165	-200.000	-0.049	-0.219
-396.150	-65.672	0.125	-0.050
-395.136	190.341	-0.044	-0.066
-394.121	-16.665	0.299	0.187
-393.106	715.375	0.080	-0.209
-392.092	-110.092	-0.112	-0.023
-391.077	42.121	0.186	0.167
-390.063	71.329	-0.283	0.290
-389.048	-100.045	0.260	-0.064
-388.033	-200.000	-0.020	-0.091
-387.019	800.000	0.072	0.236
-386.004	-136.758	-0.185	-0.021
-384.990	723.914	0.051	-0.135
-383.975	800.000	0.032	-0.126
-382.960	-49.743	-0.187	0.088
-381.946	12.669	0.406	0.310
-380.931	589.157	0.085	0.208
-379.917	101.642	0.178	-0.205
-378.902	126.331	0.049	0.062
-377.888	800.000	-0.052	-0.147
-376.873	-88.962	0.099	-0.029
-375.858	-200.000	-0.012	0.370
-374.844	54.788	-0.184	0.176
-373.829	-106.940	0.512	-0.112
-372.815	-130.783	-0.301	0.040
-371.800	55.715	0.232	-0.222
-370.785	193.943	-0.110	-0.165
-369.771	9.624	-0.228	0.170
-368.756	-200.000	0.009	0.284
-367.742	66.980	0.213	0.214
-366.727	-27.066	0.100	-0.058
-365.712	175.495	-0.240	-0.344
-364.698	-200.000	-0.011	0.282
-363.683	-101.041	0.149	0.036
-362.669	183.923	-0.083	-0.121
-361.654	-79.944	-0.587	-0.195
-360.639	-200.000	-0.008	0.056
-359.625	193.886	-0.102	-0.153
-358.610	402.214	0.073	-0.152
-357.596	-90.853	0.128	-0.036
-356.581	-119.598	-0.494	-0.084
-355.566	-200.000	-0.011	-0.106
-354.552	-33.090	-0.264	0.144
-353.537	-29.114	-0.192	-0.109
-352.523	-200.000	0.028	0.266
-351.508	800.000	0.113	0.371
-350.493	353.373	0.158	-0.310
-349.479	-91.823	0.194	0.054
-348.464	800.000	-0.064	0.183
-347.450	97.784	-0.159	0.181
-346.435	-105.771	0.109	0.024
-345.420	800.000	0.048	0.179
-344.406	75.960	0.100	-0.104
-343.391	307.766	-0.265	0.488
-342.377	-24.200	-0.269	-0.159
-341.362	39.981	0.287	0.254
-340.348	-200.000	-0.015	0.288
-339.333	-57.814	-0.100	0.043
-338.318	465.662	-0.099	-0.220
-337.304	42.845	0.233	0.209
-336.289	-131.407	-0.347	-0.045
-335.275	-200.000	-0.017	-0.093
-334.260	170.507	0.164	0.231
-333.245	-78.855	0.228	-0.077
-332.231	-115.847	-0.150	-0.028
-331.216	30.930	0.360	0.305
-330.202	-68.304	0.237	-0.091
-329.187	207.736	-0.080	-0.123
-328.172	112.006	0.176	-0.210
-327.158	-200.000	0.049	-0.291
-326.143	-46.772	-0.395	-0.191
-325.129	800.000	-0.058	0.206
-324.114	530.501	0.063	-0.146
-323.099	-200.000	-0.044	-0.303
-322.085	-170.906	0.272	0.009
-321.070	800.000	-0.048	-0.179
-320.056	-200.000	-0.055	-0.357
-319.041	-78.494	0.093	0.031
-318.026	-6.365	0.143	-0.096
-317.012	-53.841	-0.023	0.011
-315.997	-200.000	0.007	0.095
-314.983	-136.780	0.143	0.016
-313.968	61.572	0.104	-0.102
-312.953	-105.684	0.476	0.106
-311.939	86.049	-0.155	-0.168
-310.924	-159.723	-0.124	-0.007
-309.910	25.387	-0.235	0.193
-308.895	5.110	-0.063	-0.046
-307.880	410.631	-0.022	-0.046
-306.866	-200.000	0.011	0.100
-305.851	240.792	-0.018	-0.029
-304.837	-109.299	0.334	0.070
-303.822	800.000	0.070	-0.291
-302.807	708.461	-0.090	-0.235
-301.793	2.646	0.370	-0.264
-300.778	-115.362	-0.408	0.076
-299.764	800.000	-0.015	0.062
-298.749	800.000	0.048	-0.173
-297.735	52.390	0.340	-0.320
-296.720	-56.360	0.189	-0.083
-295.705	22.101	0.081	-0.065
-294.691	-200.000	-0.026	-0.123
-293.676	32.497	-0.165	0.141
-292.662	-101.669	-0.406	-0.097
-291.647	404.968	0.099	0.206
-290.632	155.584	-0.182	0.246
-289.618	800.000	0.091	-0.371
-288.603	-30.614	-0.114	-0.064
-287.589	74.098	-0.135	0.139
-286.574	211.880	-0.081	-0.126
-285.559	3.294	-0.283	-0.203
-284.545	699.898	0.074	-0.193
-283.530	214.846	0.131	0.204
-282.516	152.983	0.021	0.029
-281.501	-200.000	0.030	0.174
-280.486	-200.000	0.015	-0.106
-279.472	155.588	-0.203	-0.275
-278.457	-200.000	-0.030	-0.198
-277.443	-200.000	-0.015	0.066
-276.428	-125.111	0.234	-0.035
-275.413	-154.137	-0.055	0.004
-274.399	-200.000	-0.049	0.424
-273.384	-133.835	-0.302	0.037
-272.370	-103.979	-0.147	0.034
-271.355	-200.000	0.007	0.252
-270.340	-200.000	-0.015	0.071
-269.326	609.566	-0.060	-0.147
-268.311	800.000	0.024	0.096
-267.297	-56.558	-0.264	0.115
-266.282	7.582	-0.308	-0.227
-265.267	800.000	0.021	-0.076
-264.253	-148.851	0.395	0.031
-263.238	24.730	0.164	0.133
-262.224	134.207	0.067	-0.085
-261.209	-10.810	0.114	-0.074
-260.195	430.871	-0.215	-0.457
-259.180	151.920	0.135	-0.181
-258.165	-92.202	0.466	0.129
-257.151	-108.119	0.201	-0.043
-256.136	38.587	-0.241	0.212
-255.122	-4.039	-0.102	0.070
-254.107	-200.000	-0.029	-0.159
-253.092	-68.857	0.117	0.045
-252.078	153.057	0.095	0.128
-251.063	768.186	0.086	0.231
-250.049	111.841	-0.116	0.137
-249.034	-1.939	-0.288	0.199
-248.019	-200.000	-0.060	-0.390
-247.005	-112.334	0.295	0.058
-245.990	-30.632	0.082	0.045
-244.976	-58.691	-0.147	0.063
-243.961	-105.908	-0.325	-0.072
-242.946	-65.076	-0.216	-0.086
-241.932	17.136	-0.114	0.089
-240.917	-130.156	-0.297	-0.040
-239.903	-100.492	-0.058	0.014
-238.888	-33.523	-0.105	-0.057
-237.873	-106.527	0.304	-0.067
-236.859	-42.962	-0.520	-0.259
-235.844	-200.000	0.035	0.323
-234.830	250.441	0.093	-0.155
-233.815	405.573	-0.100	-0.208
-232.800	138.780	-0.092	0.119
-231.786	16.421	0.105	-0.082
-230.771	218.369	-0.236	-0.371
-229.757	-87.164	-0.073	0.022
-228.742	-122.484	-0.229	0.037
-227.727	-200.000	0.013	0.359
-226.713	9.373	0.284	-0.211
-225.698	-200.000	-0.007	-0.140
-224.684	-60.056	0.272	-0.114
-223.669	5.251	0.190	0.138
-222.655	-132.934	-0.041	0.005
-221.640	800.000	0.024	-0.088
-220.625	-39.805	-0.170	0.087
-219.611	461.910	0.032	-0.071
-218.596	511.251	-0.095	0.217
-217.582	-52.398	-0.170	-0.077
-216.567	-45.585	0.322	-0.157
-215.552	800.000	-0.068	0.246
-214.538	345.208	-0.056	-0.108
-213.523	111.183	0.169	-0.200
-212.509	-59.720	0.241	-0.102
-211.494	-200.000	-0.034	-0.179
-210.479	-200.000	0.029	-0.226
-209.465	800.000	0.080	-0.300
-208.450	-131.969	-0.334	0.043
-207.436	134.868	0.090	0.115
-206.421	71.753	0.134	-0.137
-205.406	-78.648	0.245	0.082
-204.392	-200.000	0.040	-0.224
-203.377	-76.553	-0.563	0.194
-202.363	744.470	-0.055	0.146
-201.348	124.868	0.039	-0.048
-200.333	374.136	0.073	0.146
-199.319	800.000	0.097	-0.351
-198.304	675.062	0.124	-0.315
-197.290	-200.000	-0.036	0.428
-196.275	-103.812	-0.072	0.016
-195.260	173.663	-0.104	0.147
-194.246	800.000	0.039	-0.156
-193.231	82.924	0.033	0.035
-192.217	-57.573	-0.331	0.143
-191.202	-99.948	-0.291	0.071
-190.187	47.827	-0.074	-0.068
-189.173	676.584	-0.061	-0.155
-188.158	800.000	-0.037	0.140
-187.144	166.160	0.179	-0.249
-186.129	-10.915	0.283	0.184
-185.114	138.827	0.085	-0.110
-184.100	247.750	0.101	0.167
-183.085	182.002	0.057	-0.082
-182.071	-200.000	-0.037	-0.415
-181.056	148.412	0.091	-0.121
-180.042	584.073	-0.175	0.422
-179.027	110.231	0.214	-0.253
-178.012	346.398	0.064	-0.124
-176.998	79.973	0.084	0.089
-175.983	-200.000	0.004	0.107
-174.969	-200.000	0.003	-0.121
-173.954	-200.000	-0.008	0.046
-172.939	-13.947	0.148	-0.094
-171.925	126.515	-0.084	0.105
-170.910	-81.442	0.252	-0.081
-169.896	-121.544	0.087	-0.014
-168.881	-50.108	-0.192	0.089
-167.866	654.252	0.026	0.065
-166.852	57.640	0.117	-0.112
-165.837	38.628	0.201	-0.176
-164.823	479.911	0.131	0.290
-163.808	-29.348	0.244	0.137
-162.793	-32.050	-0.068	-0.037
-161.779	-200.000	-0.024	-0.194
-160.764	-1.492	-0.362	-0.250
-159.750	3.290	0.160	0.114
-158.735	277.350	0.111	0.194
-157.720	-46.541	-0.208	-0.100
-156.706	-118.155	-0.310	0.054
-155.691	800.000	-0.062	0.181
-154.677	82.286	-0.092	-0.097
-153.662	120.759	0.133	0.162
-152.647	104.020	-0.055	-0.063
-151.633	115.510	-0.091	-0.109
-150.618	618.563	0.077	0.189
-149.604	-200.000	0.012	0.077
-148.589	-145.556	0.182	0.016
-147.574	-16.870	-0.195	-0.121
-146.560	-149.261	-0.265	0.021
-145.545	800.000	0.071	-0.234
-144.531	-105.450	-0.241	-0.054
-143.516	-148.196	0.261	-0.021
-142.502	39.103	0.173	0.151
-141.487	82.238	-0.157	0.167
-140.472	-94.569	-0.151	0.040
-139.458	-200.000	-0.045	-0.240
-138.443	800.000	0.050	0.189
-137.429	800.000	0.112	-0.365
-136.414	-11.573	-0.201	-0.129
-135.399	63.674	-0.197	-0.194
-134.385	-86.545	-0.122	0.037
-133.370	-200.000	-0.007	-0.252
-132.356	249.257	0.188	0.312
-131.341	626.266	0.148	-0.366
-130.326	141.227	0.217	-0.281
-129.312	140.349	0.165	0.214
-128.297	-200.000	-0.031	0.197
-127.283	205.567	0.120	0.183
-126.268	316.645	0.095	-0.176
-125.253	557.424	-0.090	-0.213
-124.239	-27.045	0.204	0.117
-123.224	-200.000	0.006	0.078
-122.210	199.662	0.127	-0.191
-121.195	-200.000	0.020	0.407
