DTS Sentinel unit serial number:	SN413079Multiplexer serial number:	ORYXHardware model number:	OX4-SRSoftware version number:	ORYX F/W v4.00 Oryx Data Collector v3.7.2.0data status	okinstallation	princeton_trtdifferential loss correction	single-endedforward channel	channel 1reverse channel	N/Adate	2019/09/14time	11:30:35forward acquisition time	60.00reverse acquisition time	0.00gamma	496.2192k internal	0.2298k external	0.2298temperature offset calibration	1.0089default loss term (dB/km)	0.3790temperature slope calibration	1.0000multiplexer offset coefficient	1.0000multiplexer slope coefficient	1.0000fibre end	0.00T internal ref (°C)	36.80T ext. ref 1 (°C)	4.55T ext. ref 2 (°C)	32.66length (m)	temperature (°C)	Stokes	anti-Stokes-747.200	-200.000	0.057	0.386
-746.185	-59.531	-0.371	0.163
-745.171	-9.402	-0.106	0.072
-744.156	653.027	0.119	0.311
-743.142	-64.867	0.256	-0.106
-742.127	290.203	0.038	-0.071
-741.112	800.000	0.045	-0.175
-740.098	-200.000	0.037	0.396
-739.083	341.019	0.095	0.190
-738.069	20.327	-0.245	-0.202
-737.054	-4.582	0.067	-0.047
-736.039	85.144	-0.378	-0.424
-735.025	-123.638	0.217	0.035
-734.010	-200.000	-0.005	0.028
-732.996	-87.040	-0.096	-0.030
-731.981	-200.000	-0.019	0.451
-730.966	-69.247	-0.188	-0.074
-729.952	70.889	-0.256	-0.270
-728.937	800.000	0.023	0.104
-727.923	-200.000	-0.016	0.338
-726.908	251.716	0.097	-0.168
-725.894	53.260	0.364	-0.356
-724.879	90.615	-0.225	-0.258
-723.864	-200.000	-0.002	0.316
-722.850	-68.589	-0.421	-0.167
-721.835	-160.348	-0.198	-0.011
-720.821	800.000	0.056	-0.206
-719.806	46.856	-0.094	0.089
-718.791	-175.992	0.183	0.005
-717.777	800.000	-0.038	-0.155
-716.762	-93.431	-0.171	0.048
-715.748	-161.664	0.403	0.021
-714.733	334.938	0.074	0.145
-713.718	-6.427	-0.155	0.108
-712.704	800.000	-0.106	-0.362
-711.689	257.121	-0.104	-0.182
-710.675	-103.387	-0.076	-0.018
-709.660	-51.342	0.218	-0.104
-708.645	20.652	-0.086	-0.071
-707.631	-102.227	0.152	0.037
-706.616	-199.584	0.133	-0.001
-705.602	-200.000	0.006	0.052
-704.587	517.078	-0.131	-0.312
-703.572	800.000	-0.082	-0.335
-702.558	460.702	0.024	-0.054
-701.543	-200.000	0.027	-0.151
-700.529	800.000	0.089	-0.282
-699.514	-100.504	0.247	-0.062
-698.499	-200.000	0.042	-0.266
-697.485	-200.000	0.035	-0.235
-696.470	-95.772	-0.052	-0.014
-695.456	800.000	0.050	-0.186
-694.441	800.000	-0.079	-0.328
-693.426	-158.460	-0.291	0.017
-692.412	-95.548	-0.222	0.061
-691.397	-93.064	-0.315	-0.089
-690.383	36.143	0.218	0.196
-689.368	800.000	-0.144	-0.438
-688.354	116.477	-0.097	0.122
-687.339	-200.000	-0.029	0.197
-686.324	-131.471	-0.111	-0.015
-685.310	-152.723	-0.326	-0.024
-684.295	-90.386	0.054	-0.016
-683.281	-29.826	-0.348	-0.202
-682.266	-37.198	0.188	0.102
-681.251	-200.000	0.004	0.207
-680.237	13.579	0.086	0.068
-679.222	-58.247	-0.163	-0.072
-678.208	-200.000	0.043	0.215
-677.193	-200.000	0.006	-0.197
-676.178	60.932	0.109	-0.110
-675.164	-200.000	0.028	0.205
-674.149	19.934	0.125	0.102
-673.135	-37.682	-0.047	0.025
-672.120	-8.937	0.160	0.109
-671.105	-200.000	0.022	0.143
-670.091	181.550	0.033	-0.049
-669.076	-200.000	-0.036	-0.226
-668.062	-81.851	0.366	0.122
-667.047	724.079	0.081	0.221
-666.032	190.765	-0.104	-0.160
-665.018	800.000	0.060	-0.223
-664.003	-50.719	0.148	-0.071
-662.989	752.895	-0.171	-0.470
-661.974	-6.130	-0.147	-0.102
-660.959	800.000	0.039	0.164
-659.945	-73.506	-0.235	0.087
-658.930	800.000	-0.061	-0.266
-657.916	139.641	0.180	-0.241
-656.901	174.937	0.101	0.149
-655.886	-90.834	0.292	0.086
-654.872	-161.861	0.300	0.016
-653.857	-200.000	-0.006	0.116
-652.843	-114.781	0.202	-0.039
-651.828	365.509	0.034	-0.070
-650.814	106.862	0.027	-0.033
-649.799	8.238	0.143	0.110
-648.784	77.977	0.172	-0.186
-647.770	10.620	0.128	-0.100
-646.755	-121.134	0.417	-0.071
-645.741	-80.161	-0.588	-0.200
-644.726	-48.859	-0.142	-0.069
-643.711	343.977	-0.078	-0.155
-642.697	-87.639	0.134	-0.041
-641.682	-75.306	-0.286	-0.104
-640.668	83.034	-0.154	0.170
-639.653	-200.000	-0.001	0.220
-638.638	285.233	-0.150	0.274
-637.624	42.178	0.209	0.193
-636.609	-158.878	-0.034	-0.002
-635.595	-97.800	0.325	0.085
-634.580	113.669	0.235	0.290
-633.565	800.000	-0.018	-0.067
-632.551	195.377	0.094	-0.145
-631.536	-1.896	-0.179	0.128
-630.522	-149.594	0.189	-0.015
-629.507	-39.567	0.169	-0.090
-628.492	84.806	-0.165	0.184
-627.478	-40.773	0.147	-0.077
-626.463	-127.425	-0.175	0.026
-625.449	39.083	0.156	0.142
-624.434	-82.971	0.045	-0.015
-623.419	366.423	-0.076	0.157
-622.405	800.000	-0.038	0.152
-621.390	-101.747	0.228	-0.056
-620.376	189.342	-0.061	-0.092
-619.361	-24.352	-0.187	0.113
-618.346	-98.243	-0.128	-0.033
-617.332	-148.638	0.386	0.032
-616.317	-182.763	-0.101	-0.002
-615.303	654.192	0.026	0.069
-614.288	221.164	-0.058	0.095
-613.273	-61.024	-0.237	0.102
-612.259	-9.789	-0.280	-0.189
-611.244	31.113	0.143	-0.125
-610.230	90.764	0.138	0.158
-609.215	3.121	0.232	0.171
-608.201	28.896	0.182	-0.157
-607.186	-76.017	-0.108	-0.039
-606.171	316.209	0.046	0.088
-605.157	404.317	-0.062	-0.132
-604.142	341.055	-0.102	0.203
-603.128	28.160	-0.351	0.300
-602.113	5.930	0.226	0.170
-601.098	-75.694	0.127	0.046
-600.084	-200.000	0.052	-0.285
-599.069	794.460	-0.039	-0.109
-598.055	118.583	0.114	-0.143
-597.040	-181.748	0.302	-0.006
-596.025	-127.284	0.179	-0.026
-595.011	13.072	-0.151	0.118
-593.996	88.625	0.310	0.350
-592.982	800.000	-0.135	0.386
-591.967	321.860	0.194	0.375
-590.952	-200.000	0.022	-0.126
-589.938	-75.592	0.196	-0.071
-588.923	-110.310	-0.169	-0.036
-587.909	-93.449	-0.207	-0.058
-586.894	120.378	-0.079	-0.100
-585.879	-41.264	0.267	-0.140
-584.865	-200.000	0.049	-0.220
-583.850	-200.000	0.002	0.086
-582.836	800.000	-0.016	-0.051
-581.821	616.011	0.096	0.245
-580.806	4.548	0.142	0.106
-579.792	35.543	0.185	-0.165
-578.777	21.693	0.270	0.223
-577.763	800.000	-0.077	0.316
-576.748	-121.255	0.400	-0.068
-575.733	15.665	0.154	-0.123
-574.719	-17.456	0.127	0.081
-573.704	-200.000	0.036	0.190
-572.690	71.290	0.053	-0.056
-571.675	-72.458	-0.231	0.087
-570.661	137.260	0.156	-0.207
-569.646	23.442	-0.023	-0.019
-568.631	-113.402	0.180	0.036
-567.617	147.326	0.058	-0.079
-566.602	200.238	0.084	-0.131
-565.588	800.000	0.091	0.332
-564.573	-36.275	0.335	0.183
-563.558	-28.104	0.228	0.134
-562.544	800.000	-0.048	-0.143
-561.529	40.576	0.087	-0.080
-560.515	-151.177	0.112	0.009
-559.500	41.321	0.141	-0.129
-558.485	-17.408	0.116	0.074
-557.471	1.528	0.161	0.117
-556.456	-3.780	0.110	0.077
-555.442	217.101	0.213	-0.344
-554.427	168.079	-0.134	-0.193
-553.412	-149.711	-0.198	-0.016
-552.398	462.356	0.016	0.037
-551.383	-88.218	0.167	0.051
-550.369	-97.278	-0.177	-0.047
-549.354	-79.478	0.076	0.026
-548.339	221.461	0.201	0.328
-547.325	800.000	0.048	0.197
-546.310	-45.613	-0.239	-0.120
-545.296	-81.715	-0.149	-0.050
-544.281	92.237	-0.205	-0.234
-543.266	288.985	0.156	0.287
-542.252	-200.000	0.060	-0.283
-541.237	18.981	-0.222	-0.181
-540.223	19.259	-0.108	0.088
-539.208	-107.937	0.007	-0.002
-538.193	143.119	-0.175	-0.236
-537.179	-85.649	-0.376	-0.118
-536.164	800.000	-0.011	0.031
-535.150	800.000	0.108	0.406
-534.135	49.835	0.077	-0.073
-533.121	-6.903	0.171	-0.118
-532.106	39.770	0.108	0.099
-531.091	-200.000	0.021	0.264
-530.077	-1.060	-0.088	0.063
-529.062	536.628	0.086	-0.207
-528.048	-109.762	0.552	0.117
-527.033	-0.188	-0.011	-0.008
-526.018	182.873	0.073	0.109
-525.004	38.403	0.220	0.198
-523.989	17.931	0.069	-0.056
-522.975	-70.584	-0.345	-0.132
-521.960	800.000	0.097	-0.271
-520.945	109.822	-0.221	0.268
-519.931	-87.744	-0.087	-0.027
-518.916	-200.000	0.000	0.028
-517.902	-127.461	-0.086	0.013
-516.887	-76.406	0.039	0.014
-515.872	800.000	0.060	0.182
-514.858	-45.654	0.300	-0.150
-513.843	-47.719	-0.137	0.067
-512.829	-40.128	-0.237	0.125
-511.814	-125.708	0.440	-0.067
-510.799	-11.130	-0.249	-0.166
-509.785	-79.165	-0.183	-0.063
-508.770	800.000	-0.029	-0.122
-507.756	-200.000	-0.001	0.049
-506.741	-2.541	-0.135	0.095
-505.726	-11.487	0.375	0.249
-504.712	-200.000	0.023	-0.123
-503.697	-19.421	-0.287	-0.180
-502.683	80.285	0.102	-0.111
-501.668	535.996	0.180	-0.431
-500.653	-107.914	-0.034	-0.007
-499.639	-89.354	-0.191	-0.057
-498.624	247.206	0.080	0.136
-497.610	2.382	0.328	-0.240
-496.595	-141.454	-0.204	-0.021
-495.581	-4.902	0.185	0.129
-494.566	800.000	0.049	-0.193
-493.551	60.282	0.135	0.135
-492.537	-107.229	-0.372	0.083
-491.522	-200.000	0.026	0.124
-490.508	143.399	0.081	0.109
-489.493	-153.461	0.056	0.004
-488.478	-21.810	-0.222	0.136
-487.464	163.092	-0.079	0.112
-486.449	-82.554	0.375	0.123
-485.435	365.662	-0.145	-0.296
-484.420	608.378	-0.039	-0.098
-483.405	134.964	0.114	0.150
-482.391	63.727	0.058	-0.059
-481.376	52.254	-0.091	-0.087
-480.362	-56.591	-0.185	-0.083
-479.347	-200.000	0.014	-0.107
-478.332	-200.000	0.002	-0.293
-477.318	473.833	-0.056	-0.127
-476.303	153.261	-0.109	0.151
-475.289	-200.000	-0.043	-0.262
-474.274	311.047	0.169	-0.320
-473.259	106.039	-0.021	0.025
-472.245	-200.000	0.022	-0.252
-471.230	22.408	0.222	-0.183
-470.216	-72.374	-0.158	0.059
-469.201	-15.011	-0.094	0.061
-468.186	-100.944	-0.183	-0.045
-467.172	-200.000	-0.001	-0.333
-466.157	-106.659	-0.332	-0.075
-465.143	-190.865	0.297	0.003
-464.128	-52.011	-0.088	0.041
-463.113	51.737	-0.370	-0.356
-462.099	80.073	0.195	-0.212
-461.084	86.111	0.172	0.191
-460.070	-200.000	-0.065	0.332
-459.055	-23.104	-0.172	-0.105
-458.040	800.000	0.063	0.183
-457.026	126.586	0.151	0.193
-456.011	-46.919	0.287	-0.142
-454.997	275.844	-0.120	0.215
-453.982	749.799	-0.091	0.248
-452.968	-42.421	-0.148	0.076
-451.953	162.246	-0.082	0.116
-450.938	220.255	0.046	-0.074
-449.924	800.000	0.034	0.131
-448.909	-29.635	-0.166	-0.095
-447.895	-194.163	-0.098	-0.001
-446.880	-59.450	0.106	-0.046
-445.865	-95.041	0.357	-0.097
-444.851	-200.000	0.018	-0.116
-443.836	-59.992	-0.210	-0.091
-442.822	-94.239	0.034	-0.009
-441.807	-47.183	0.251	-0.123
-440.792	800.000	0.133	0.431
-439.778	537.805	0.096	-0.230
-438.763	183.915	-0.176	-0.263
-437.749	-200.000	0.009	0.436
-436.734	-200.000	-0.005	0.126
-435.719	517.632	0.051	-0.121
-434.705	1.124	-0.246	-0.178
-433.690	-19.212	0.113	0.071
-432.676	366.038	0.062	0.127
-431.661	-128.748	-0.306	-0.044
-430.646	-103.351	-0.090	0.021
-429.632	800.000	-0.025	0.083
-428.617	15.703	-0.017	0.013
-427.603	-175.987	-0.075	-0.002
-426.588	19.713	-0.020	0.016
-425.573	-200.000	0.075	0.458
-424.559	-81.329	-0.220	-0.073
-423.544	-200.000	-0.042	-0.201
-422.530	115.788	0.215	-0.265
-421.515	207.298	0.091	-0.143
-420.500	-87.526	-0.097	0.030
-419.486	-200.000	0.022	0.213
-418.471	-6.494	-0.178	-0.122
-417.457	-200.000	0.019	0.151
-416.442	-89.734	-0.272	-0.080
-415.428	383.573	0.140	0.291
-414.413	800.000	0.059	0.196
-413.398	-99.963	0.217	-0.055
-412.384	-92.381	-0.210	-0.060
-411.369	-185.427	-0.159	0.002
-410.355	800.000	0.037	0.160
-409.340	800.000	-0.019	0.078
-408.325	-200.000	-0.028	0.157
-407.311	-162.786	0.312	-0.015
-406.296	80.580	-0.070	0.076
-405.282	77.257	-0.158	0.170
-404.267	-200.000	0.015	-0.137
-403.252	17.677	-0.134	-0.108
-402.238	138.992	0.203	-0.269
-401.223	1.704	-0.277	0.201
-400.209	93.573	-0.138	0.157
-399.194	-91.911	0.135	-0.038
-398.179	36.783	-0.205	0.182
-397.165	300.477	0.026	-0.048
-396.150	-100.615	-0.222	0.055
-395.136	-182.349	-0.211	0.004
-394.121	-89.539	0.214	0.063
-393.106	-179.195	-0.268	-0.006
-392.092	-200.000	0.014	0.204
-391.077	134.389	0.025	-0.032
-390.063	-31.863	0.254	-0.143
-389.048	578.767	-0.028	-0.068
-388.033	84.206	-0.249	-0.274
-387.019	-92.773	0.170	-0.048
-386.004	50.285	0.144	-0.137
-384.990	-118.342	-0.050	0.009
-383.975	18.945	0.092	0.074
-382.960	-200.000	0.024	0.257
-381.946	6.745	0.136	0.102
-380.931	800.000	0.026	-0.095
-379.917	-200.000	-0.037	-0.354
-378.902	-111.247	0.354	-0.073
-377.888	-200.000	0.007	-0.047
-376.873	57.014	0.259	-0.254
-375.858	-102.730	-0.297	0.071
-374.844	-75.622	-0.147	0.053
-373.829	-81.584	0.150	-0.050
-372.815	-99.391	-0.149	-0.038
-371.800	-200.000	0.011	0.196
-370.785	800.000	-0.079	0.278
-369.771	491.328	-0.023	-0.054
-368.756	-72.916	-0.168	-0.062
-367.742	-71.212	-0.014	-0.005
-366.727	607.609	0.080	-0.202
-365.712	-47.480	0.314	-0.154
-364.698	-200.000	-0.012	-0.056
-363.683	-87.423	-0.257	-0.078
-362.669	-84.907	-0.248	-0.078
-361.654	-200.000	0.052	0.252
-360.639	234.020	0.015	0.025
-359.625	-200.000	-0.010	-0.293
-358.610	-25.410	-0.314	-0.187
-357.596	199.422	0.133	-0.205
-356.581	-177.479	-0.214	0.005
-355.566	119.475	0.215	-0.268
-354.552	-36.837	-0.203	-0.110
-353.537	-112.022	-0.320	-0.065
-352.523	800.000	0.048	0.137
-351.508	-92.027	-0.418	-0.119
-350.493	-16.949	0.156	0.099
-349.479	152.598	-0.148	-0.203
-348.464	-200.000	0.032	-0.180
-347.450	61.970	-0.181	0.181
-346.435	38.844	0.030	0.027
-345.420	378.541	-0.174	0.357
-344.406	-21.571	0.156	0.096
-343.391	-53.387	0.108	0.050
-342.377	-135.079	0.138	0.017
-341.362	-154.658	0.290	-0.019
-340.348	-136.501	-0.092	-0.011
-339.333	183.387	-0.095	0.141
-338.318	-182.573	-0.182	0.003
-337.304	43.533	0.136	-0.125
-336.289	75.533	-0.273	-0.289
-335.275	35.080	-0.261	-0.230
-334.260	372.519	-0.213	-0.435
-333.245	-52.765	-0.202	0.094
-332.231	412.029	0.109	-0.233
-331.216	3.988	0.057	-0.042
-330.202	-200.000	-0.002	-0.361
-329.187	378.588	-0.183	0.375
-328.172	-115.892	-0.219	0.041
-327.158	6.747	-0.270	-0.202
-326.143	-200.000	-0.010	0.101
-325.129	-200.000	0.038	-0.224
-324.114	-200.000	-0.055	-0.348
-323.099	-159.695	-0.213	-0.012
-322.085	-24.457	0.023	-0.014
-321.070	100.939	0.190	-0.222
-320.056	-12.474	-0.215	0.141
-319.041	279.906	0.022	-0.039
-318.026	224.011	-0.021	0.033
-317.012	-11.000	-0.174	0.116
-315.997	-52.710	-0.247	0.114
-314.983	-127.270	0.068	0.010
-313.968	-93.581	-0.132	0.037
-312.953	-34.879	-0.201	0.110
-311.939	134.944	-0.184	0.239
-310.924	5.040	-0.096	0.071
-309.910	800.000	-0.042	-0.139
-308.895	-55.846	-0.173	0.077
-307.880	415.873	0.122	0.261
-306.866	-200.000	-0.001	0.177
-305.851	-132.293	-0.067	-0.009
-304.837	-48.375	0.052	0.025
-303.822	36.110	0.237	0.210
-302.807	-200.000	-0.023	0.133
-301.793	-36.287	0.094	-0.051
-300.778	102.093	-0.132	-0.155
-299.764	467.075	0.072	-0.161
-298.749	-121.291	0.471	0.079
-297.735	23.329	0.241	-0.199
-296.720	314.748	-0.101	0.190
-295.705	82.410	0.130	-0.142
-294.691	-28.594	0.342	0.197
-293.676	-106.132	0.217	-0.049
-292.662	-200.000	-0.003	-0.123
-291.647	-93.397	0.124	-0.034
-290.632	-113.563	-0.118	0.023
-289.618	800.000	0.123	0.384
-288.603	79.082	-0.151	0.162
-287.589	-134.464	-0.207	0.025
-286.574	800.000	0.003	0.010
-285.559	221.409	0.199	0.320
-284.545	-200.000	0.028	0.134
-283.530	-87.689	0.119	0.036
-282.516	-130.110	-0.405	-0.055
-281.501	800.000	-0.082	-0.336
-280.486	-138.496	0.103	0.011
-279.472	-21.874	0.033	-0.020
-278.457	-200.000	-0.003	-0.231
-277.443	-200.000	-0.034	0.205
-276.428	32.834	-0.166	-0.144
-275.413	201.150	-0.074	0.114
-274.399	-197.916	-0.304	0.002
-273.384	-200.000	-0.003	-0.035
-272.370	-200.000	-0.016	-0.272
-271.355	197.740	0.130	-0.199
-270.340	-38.520	-0.089	0.047
-269.326	169.945	-0.186	-0.267
-268.311	-78.014	-0.128	0.044
-267.297	-112.630	0.013	-0.003
-266.282	-200.000	-0.030	-0.143
-265.267	-9.614	0.202	0.135
-264.253	182.978	0.031	0.046
-263.238	126.118	0.272	-0.345
-262.224	-200.000	0.007	-0.102
-261.209	-34.184	0.093	-0.051
-260.195	-123.426	-0.016	-0.003
-259.180	-167.291	0.039	0.002
-258.165	-138.265	0.397	0.044
-257.151	-8.746	-0.145	-0.098
-256.136	130.942	0.091	0.116
-255.122	-29.820	-0.260	0.149
-254.107	-200.000	-0.023	0.103
-253.092	263.926	0.144	0.250
-252.078	263.592	-0.218	0.380
-251.063	-24.414	-0.159	0.095
-250.049	-75.051	0.112	0.040
-249.034	-56.869	0.272	0.121
-248.019	-77.227	0.243	0.085
-247.005	84.920	-0.165	0.181
-245.990	-200.000	0.117	-0.515
-244.976	-90.120	0.208	0.061
-243.961	50.928	0.179	0.170
-242.946	298.384	-0.107	-0.197
-241.932	-200.000	0.012	-0.184
-240.917	137.752	-0.103	-0.136
-239.903	-128.757	-0.245	-0.035
-238.888	475.701	-0.064	0.145
-237.873	55.506	0.090	0.087
-236.859	654.359	-0.151	-0.388
-235.844	572.200	0.087	0.211
-234.830	-129.686	-0.212	0.029
-233.815	-62.066	0.171	-0.072
-232.800	36.577	-0.165	-0.146
-231.786	-200.000	0.021	0.277
-230.771	-89.052	0.229	0.068
-229.757	-200.000	0.037	-0.317
-228.742	-108.844	-0.245	0.052
-227.727	-85.964	0.062	-0.019
-226.713	800.000	0.095	-0.291
-225.698	-26.131	-0.095	0.056
-224.684	-200.000	-0.026	0.227
-223.669	330.722	-0.072	0.139
-222.655	-200.000	-0.001	-0.264
-221.640	-85.076	0.417	0.131
-220.625	-32.612	-0.149	-0.083
-219.611	-20.030	0.179	0.110
-218.596	5.811	0.279	0.206
-217.582	-200.000	-0.061	0.287
-216.567	-200.000	0.001	-0.107
-215.552	728.109	-0.084	-0.224
-214.538	14.477	-0.100	-0.078
-213.523	456.509	-0.066	0.146
-212.509	562.381	0.094	0.226
-211.494	388.875	0.116	0.240
-210.479	-67.397	0.351	-0.138
-209.465	-138.152	-0.265	0.029
-208.450	800.000	0.069	-0.276
-207.436	-119.717	-0.026	-0.005
-206.421	-93.391	-0.425	0.118
-205.406	-84.048	0.123	-0.039
-204.392	17.146	-0.170	-0.134
-203.377	279.771	0.163	0.291
-202.363	-122.444	-0.021	0.003
-201.348	-150.081	-0.329	0.026
-200.333	208.406	0.116	0.182
-199.319	16.999	-0.106	-0.084
-198.304	-110.337	-0.117	-0.024
-197.290	800.000	-0.093	0.299
-196.275	27.676	-0.117	0.098
-195.260	219.296	0.069	-0.111
-194.246	619.502	0.015	-0.037
-193.231	-171.183	0.192	-0.006
-192.217	800.000	0.061	-0.228
-191.202	86.604	0.206	-0.227
-190.187	-17.323	-0.043	0.027
-189.173	61.054	-0.136	0.135
-188.158	-73.289	0.035	-0.013
-187.144	0.021	-0.029	-0.021
-186.129	337.014	0.079	-0.154
-185.114	-200.000	-0.021	-0.100
-184.100	800.000	0.025	0.072
-183.085	56.630	-0.114	0.111
-182.071	171.862	-0.333	-0.477
-181.056	126.714	-0.048	0.061
-180.042	-104.572	-0.252	0.058
-179.027	-101.320	-0.340	0.083
-178.012	800.000	0.021	0.060
-176.998	51.312	0.170	-0.161
-175.983	479.614	0.096	0.217
-174.969	69.727	-0.228	-0.235
-173.954	251.471	0.038	-0.064
-172.939	797.255	0.077	0.211
-171.925	-111.943	0.376	0.076
-170.910	-13.509	-0.115	0.075
-169.896	687.912	0.027	-0.071
-168.881	2.874	-0.064	-0.047
-167.866	109.578	0.113	0.136
-166.852	685.562	0.049	0.129
-165.837	411.465	0.101	-0.213
-164.823	-30.898	0.185	0.104
-163.808	-200.000	-0.079	-0.425
-162.793	-182.475	-0.253	0.005
-161.779	-7.336	-0.296	0.200
-160.764	800.000	0.032	0.110
-159.750	111.748	-0.103	0.124
-158.735	800.000	0.050	-0.188
-157.720	-171.164	-0.359	0.012
-156.706	-18.802	0.058	0.036
-155.691	30.715	0.175	-0.149
-154.677	236.938	0.146	0.242
-153.662	-145.901	0.064	-0.006
-152.647	-200.000	-0.017	-0.157
-151.633	-61.525	0.273	0.115
-150.618	450.422	-0.032	-0.071
-149.604	-100.074	0.087	0.022
-148.589	-102.396	-0.406	-0.097
-147.574	-200.000	-0.003	-0.352
-146.560	-18.390	0.201	-0.125
-145.545	-142.661	0.052	-0.005
-144.531	33.460	0.043	-0.037
-143.516	-195.491	0.313	-0.002
-142.502	800.000	0.068	-0.204
-141.487	-93.493	-0.156	-0.043
-140.472	-200.000	0.023	-0.323
-139.458	-37.253	-0.131	-0.070
-138.443	200.755	0.114	0.175
-137.429	145.466	-0.146	-0.194
-136.414	193.061	-0.074	0.112
-135.399	7.721	-0.056	0.042
-134.385	-25.246	-0.179	0.106
-133.370	-156.072	0.345	-0.022
-132.356	131.127	0.252	0.322
-131.341	-105.913	0.080	-0.018
-130.326	-111.356	0.356	-0.072
-129.312	800.000	0.016	0.043
-128.297	-200.000	-0.034	0.171
-127.283	171.173	0.094	-0.135
-126.268	-8.773	-0.206	0.138
-125.253	-200.000	0.105	-0.506
-124.239	-45.791	0.286	0.141
-123.224	-78.991	0.253	-0.086
-122.210	184.870	-0.067	-0.099
-121.195	-200.000	0.036	0.209
-120.180	-200.000	0.033	0.371
