DTS Sentinel unit serial number:	SN413079Multiplexer serial number:	ORYXHardware model number:	OX4-SRSoftware version number:	ORYX F/W v4.00 Oryx Data Collector v3.7.2.0data status	okinstallation	princeton_trtdifferential loss correction	single-endedforward channel	channel 1reverse channel	N/Adate	2019/09/16time	05:18:35forward acquisition time	60.00reverse acquisition time	0.00gamma	496.2192k internal	0.2332k external	0.2332temperature offset calibration	0.9982default loss term (dB/km)	0.3790temperature slope calibration	1.0000multiplexer offset coefficient	1.0000multiplexer slope coefficient	1.0000fibre end	0.00T internal ref (°C)	27.25T ext. ref 1 (°C)	11.07T ext. ref 2 (°C)	22.06length (m)	temperature (°C)	Stokes	anti-Stokes-747.200	53.375	0.174	-0.168
-746.185	2.739	-0.129	0.094
-745.171	27.242	-0.131	0.111
-744.156	18.111	0.152	-0.122
-743.142	163.384	0.125	-0.177
-742.127	74.427	-0.394	0.417
-741.112	-200.000	-0.011	0.302
-740.098	-200.000	0.061	0.415
-739.083	783.171	-0.113	-0.311
-738.069	-39.184	0.297	0.157
-737.054	-162.816	0.114	0.006
-736.039	315.886	-0.213	-0.405
-735.025	303.995	-0.109	-0.204
-734.010	-37.125	-0.275	0.148
-732.996	328.933	0.160	-0.309
-731.981	-200.000	-0.012	0.319
-730.966	-120.348	0.098	0.017
-729.952	60.971	-0.149	-0.149
-728.937	-200.000	-0.020	-0.314
-727.923	-127.673	-0.256	-0.037
-726.908	180.642	0.066	-0.098
-725.894	44.690	0.024	-0.022
-724.879	800.000	0.018	0.059
-723.864	-62.867	-0.025	-0.010
-722.850	-200.000	-0.005	0.087
-721.835	-16.454	-0.199	-0.127
-720.821	154.054	0.241	-0.333
-719.806	-102.553	-0.289	-0.069
-718.791	-154.441	-0.266	0.018
-717.777	88.545	-0.273	0.305
-716.762	-107.617	0.068	-0.015
-715.748	-117.968	0.254	0.046
-714.733	186.199	-0.048	0.071
-713.718	800.000	0.058	-0.189
-712.704	-163.788	-0.116	0.005
-711.689	-26.851	-0.136	-0.080
-710.675	64.041	-0.289	-0.292
-709.660	311.008	-0.188	0.353
-708.645	-200.000	-0.006	-0.066
-707.631	-9.126	0.162	0.109
-706.616	-100.704	0.221	-0.055
-705.602	142.456	0.151	-0.201
-704.587	-125.982	0.240	0.036
-703.572	-111.545	0.435	0.089
-702.558	-13.838	0.231	0.150
-701.543	-0.826	0.224	-0.159
-700.529	800.000	0.026	-0.106
-699.514	-77.902	0.239	0.083
-698.499	303.422	0.090	0.167
-697.485	-77.656	0.148	-0.052
-696.470	-200.000	-0.020	-0.126
-695.456	57.868	-0.187	0.184
-694.441	138.527	-0.054	-0.071
-693.426	-143.806	0.054	0.005
-692.412	9.143	-0.295	0.223
-691.397	-103.506	0.218	-0.051
-690.383	-200.000	-0.014	-0.068
-689.368	800.000	0.064	0.267
-688.354	800.000	-0.016	0.064
-687.339	-92.749	0.211	-0.059
-686.324	30.449	0.117	-0.100
-685.310	-200.000	0.021	0.355
-684.295	66.657	-0.137	-0.140
-683.281	-200.000	-0.037	-0.223
-682.266	352.335	0.092	-0.183
-681.251	173.136	0.107	0.155
-680.237	-72.694	0.187	0.069
-679.222	195.561	-0.167	-0.254
-678.208	512.678	0.038	0.088
-677.193	800.000	-0.091	0.268
-676.178	285.732	0.098	0.177
-675.164	-116.120	-0.603	0.113
-674.149	-5.393	-0.058	0.040
-673.135	21.168	-0.239	-0.194
-672.120	-185.705	0.174	0.003
-671.105	195.853	-0.206	0.314
-670.091	18.889	-0.240	0.193
-669.076	243.425	-0.179	-0.301
-668.062	11.452	0.177	0.136
-667.047	800.000	-0.051	-0.152
-666.032	-98.910	-0.133	0.034
-665.018	800.000	-0.096	-0.268
-664.003	800.000	0.090	0.254
-662.989	56.416	0.110	0.107
-661.974	800.000	-0.077	0.234
-660.959	114.140	0.039	0.048
-659.945	-72.610	0.194	-0.072
-658.930	-200.000	0.003	0.368
-657.916	-17.860	0.271	0.171
-656.901	-84.920	-0.259	-0.081
-655.886	296.582	-0.104	-0.192
-654.872	38.302	-0.103	0.092
-653.857	-106.706	0.430	0.096
-652.843	30.202	-0.492	-0.421
-651.828	-113.214	-0.105	0.021
-650.814	-200.000	0.003	0.034
-649.799	-158.568	-0.779	-0.045
-648.784	652.006	-0.068	0.175
-647.770	-38.862	-0.167	0.088
-646.755	-200.000	-0.016	-0.214
-645.741	-102.992	0.308	-0.073
-644.726	305.198	-0.062	-0.116
-643.711	-19.025	0.192	0.119
-642.697	800.000	0.039	-0.151
-641.682	-157.250	-0.183	0.011
-640.668	-78.622	0.345	-0.118
-639.653	230.675	-0.090	-0.148
-638.638	178.962	0.197	0.288
-637.624	800.000	-0.037	-0.143
-636.609	27.558	-0.072	0.061
-635.595	336.171	0.052	0.100
-634.580	-143.009	0.119	0.012
-633.565	-195.996	-0.196	-0.001
-632.551	190.243	-0.029	-0.044
-631.536	-200.000	0.027	0.149
-630.522	85.972	-0.242	0.266
-629.507	-90.295	0.181	-0.053
-628.492	-200.000	-0.023	-0.152
-627.478	-159.176	-0.044	0.002
-626.463	-90.154	-0.366	-0.107
-625.449	-200.000	0.070	0.438
-624.434	167.108	-0.161	0.229
-623.419	8.731	0.163	0.123
-622.405	38.778	0.188	0.168
-621.390	203.835	0.214	0.332
-620.376	800.000	-0.043	-0.128
-619.361	22.688	0.015	-0.013
-618.346	-58.121	-0.194	-0.085
-617.332	-200.000	-0.020	0.190
-616.317	265.679	-0.151	-0.264
-615.303	192.370	-0.226	0.341
-614.288	-53.491	0.070	-0.032
-613.273	-200.000	0.006	0.033
-612.259	-153.962	0.216	-0.015
-611.244	414.481	0.055	-0.116
-610.230	-200.000	-0.028	-0.318
-609.215	-113.981	0.028	0.005
-608.201	429.464	0.064	-0.139
-607.186	-18.620	-0.136	0.085
-606.171	-88.017	-0.102	-0.031
-605.157	-144.707	-0.183	-0.017
-604.142	800.000	-0.043	-0.138
-603.128	800.000	-0.032	-0.132
-602.113	46.320	0.132	0.122
-601.098	-18.548	0.091	0.057
-600.084	-200.000	-0.074	-0.535
-599.069	124.414	0.032	-0.040
-598.055	800.000	-0.019	-0.063
-597.040	303.275	-0.139	-0.257
-596.025	175.285	0.227	-0.329
-595.011	-27.894	-0.163	-0.095
-593.996	114.632	-0.123	-0.149
-592.982	137.021	-0.168	-0.220
-591.967	315.200	-0.057	0.107
-590.952	52.030	-0.130	-0.124
-589.938	17.154	-0.268	0.212
-588.923	-20.518	0.532	0.327
-587.909	140.656	0.207	-0.273
-586.894	-120.955	0.481	-0.081
-585.879	264.072	0.234	0.407
-584.865	-6.383	-0.265	-0.181
-583.850	22.853	-0.212	-0.174
-582.836	149.843	-0.139	0.189
-581.821	800.000	0.049	0.150
-580.806	469.602	-0.049	-0.111
-579.792	800.000	-0.109	-0.329
-578.777	800.000	0.086	0.319
-577.763	117.075	-0.217	0.266
-576.748	-121.644	-0.203	-0.034
-575.733	-200.000	0.013	-0.187
-574.719	-95.428	-0.475	0.127
-573.704	-160.998	-0.223	0.012
-572.690	-200.000	-0.009	0.246
-571.675	-169.394	0.080	0.003
-570.661	38.463	-0.037	0.033
-569.646	-200.000	0.025	-0.354
-568.631	-141.383	-0.359	0.036
-567.617	301.279	0.022	-0.041
-566.602	-86.394	0.044	-0.013
-565.588	-200.000	0.075	-0.425
-564.573	293.708	-0.186	-0.339
-563.558	800.000	-0.024	0.066
-562.544	-31.157	0.100	0.057
-561.529	280.850	0.036	-0.065
-560.515	-200.000	0.019	-0.115
-559.500	-154.491	0.245	-0.016
-558.485	-200.000	-0.007	0.174
-557.471	-74.203	-0.148	-0.053
-556.456	-8.979	0.071	0.047
-555.442	-96.589	-0.289	-0.076
-554.427	-89.732	0.144	0.042
-553.412	-200.000	0.018	-0.283
-552.398	-120.593	-0.463	-0.078
-551.383	399.057	-0.085	0.178
-550.369	-63.397	0.165	0.068
-549.354	-173.398	0.224	0.007
-548.339	523.759	-0.121	0.283
-547.325	147.358	-0.118	-0.158
-546.310	87.328	0.256	0.283
-545.296	211.100	-0.168	0.263
-544.281	-51.367	-0.166	-0.078
-543.266	685.971	-0.023	0.059
-542.252	-94.589	0.208	-0.057
-541.237	-43.898	-0.170	0.085
-540.223	-200.000	0.026	-0.118
-539.208	205.011	0.088	-0.136
-538.193	315.573	0.141	-0.265
-537.179	-84.117	0.099	-0.031
-536.164	-200.000	0.030	-0.350
-535.150	-96.470	-0.243	0.064
-534.135	168.734	0.115	0.164
-533.121	-153.655	0.171	-0.012
-532.106	-51.955	0.407	0.189
-531.091	-127.875	0.287	-0.041
-530.077	-88.036	-0.262	0.078
-529.062	436.186	0.021	-0.047
-528.048	-108.003	-0.021	-0.004
-527.033	379.929	-0.085	0.173
-526.018	-200.000	0.008	-0.074
-525.004	51.475	0.039	0.037
-523.989	-200.000	0.026	0.139
-522.975	-87.746	-0.275	0.083
-521.960	144.314	0.097	-0.129
-520.945	-200.000	-0.003	-0.090
-519.931	158.084	-0.202	0.279
-518.916	-200.000	0.045	0.374
-517.902	178.365	-0.158	-0.230
-516.887	19.834	0.137	-0.110
-515.872	-95.162	0.297	-0.080
-514.858	-7.536	-0.137	-0.092
-513.843	-200.000	0.015	0.108
-512.829	31.463	0.195	-0.167
-511.814	-164.497	0.326	0.015
-510.799	9.357	-0.069	0.052
-509.785	332.661	0.119	-0.229
-508.770	-139.196	-0.273	-0.029
-507.756	-79.269	0.288	0.097
-506.741	508.911	-0.077	-0.178
-505.726	-15.797	-0.414	-0.263
-504.712	-121.974	0.173	-0.028
-503.697	-131.067	0.259	-0.034
-502.683	-200.000	0.001	0.554
-501.668	-104.688	0.398	0.091
-500.653	475.352	0.104	-0.235
-499.639	-131.075	-0.101	0.013
-498.624	-51.201	-0.167	-0.078
-497.610	347.188	0.068	0.133
-496.595	800.000	-0.027	-0.102
-495.581	-200.000	-0.007	-0.121
-494.566	-2.489	-0.188	-0.131
-493.551	-200.000	0.010	0.118
-492.537	172.563	-0.070	0.101
-491.522	-53.204	-0.344	-0.157
-490.508	-4.740	0.151	-0.104
-489.493	84.828	-0.076	-0.082
-488.478	413.716	0.184	-0.391
-487.464	237.924	-0.094	-0.156
-486.449	317.997	0.025	-0.047
-485.435	-113.097	-0.029	0.006
-484.420	800.000	-0.077	-0.278
-483.405	-8.919	0.206	-0.137
-482.391	31.092	0.226	0.193
-481.376	224.798	0.155	0.250
-480.362	616.174	-0.028	0.070
-479.347	24.401	-0.215	-0.177
-478.332	-30.841	0.492	0.277
-477.318	-121.804	-0.139	-0.023
-476.303	-113.906	0.329	-0.064
-475.289	-18.182	0.008	-0.005
-474.274	43.114	0.309	0.280
-473.259	92.791	-0.314	0.353
-472.245	-94.308	-0.241	0.066
-471.230	-157.611	0.068	-0.004
-470.216	-200.000	0.021	-0.119
-469.201	-200.000	-0.013	-0.335
-468.186	758.818	-0.033	0.089
-467.172	-100.098	0.057	0.014
-466.157	95.252	-0.074	0.084
-465.143	-98.641	-0.167	-0.043
-464.128	118.798	-0.100	-0.123
-463.113	-18.286	-0.193	0.120
-462.099	-64.179	0.116	-0.047
-461.084	702.883	-0.146	-0.383
-460.070	154.084	0.149	-0.203
-459.055	800.000	0.031	-0.102
-458.040	238.203	-0.130	0.215
-457.026	-200.000	-0.019	-0.182
-456.011	-98.572	-0.064	0.016
-454.997	-200.000	-0.026	0.158
-453.982	-200.000	0.010	-0.087
-452.968	16.762	0.031	-0.025
-451.953	35.400	-0.139	-0.121
-450.938	-61.055	-0.083	0.035
-449.924	569.961	-0.125	-0.303
-448.909	30.613	-0.260	0.221
-447.895	-200.000	-0.020	0.169
-446.880	625.582	-0.036	-0.090
-445.865	469.758	-0.067	-0.149
-444.851	-200.000	-0.035	-0.166
-443.836	-200.000	0.015	0.206
-442.822	685.874	0.020	-0.052
-441.807	-14.724	0.061	-0.039
-440.792	18.076	0.048	0.038
-439.778	293.195	0.062	-0.112
-438.763	-44.920	-0.039	0.019
-437.749	-200.000	-0.040	0.397
-436.734	-200.000	-0.043	0.291
-435.719	-79.733	-0.079	-0.026
-434.705	-48.714	-0.282	-0.134
-433.690	-50.829	0.219	-0.103
-432.676	276.139	0.144	-0.254
-431.661	-200.000	0.003	0.285
-430.646	566.736	-0.071	-0.170
-429.632	-49.922	-0.144	0.068
-428.617	-75.799	0.387	-0.136
-427.603	168.696	0.069	0.097
-426.588	508.187	0.098	0.225
-425.573	-10.272	-0.181	0.119
-424.559	324.779	-0.170	0.322
-423.544	-38.878	-0.322	0.168
-422.530	109.467	0.170	0.202
-421.515	-102.232	0.286	-0.068
-420.500	316.155	-0.147	-0.275
-419.486	41.421	0.184	0.166
-418.471	467.970	-0.047	-0.105
-417.457	106.457	0.045	0.054
-416.442	800.000	0.083	-0.276
-415.428	-157.385	-0.116	0.007
-414.413	40.941	-0.116	-0.104
-413.398	-200.000	0.039	0.297
-412.384	-9.097	0.202	-0.134
-411.369	-200.000	-0.007	-0.045
-410.355	490.841	0.103	-0.233
-409.340	33.421	0.028	-0.024
-408.325	33.091	-0.107	0.092
-407.311	-84.406	-0.243	-0.076
-406.296	-183.457	0.270	-0.005
-405.282	-200.000	0.009	-0.089
-404.267	800.000	-0.011	-0.032
-403.252	-109.647	0.213	-0.045
-402.238	-10.569	0.278	-0.182
-401.223	140.077	0.206	0.270
-400.209	6.459	-0.197	-0.145
-399.194	-123.302	0.279	0.044
-398.179	-144.209	0.286	0.027
-397.165	-157.657	-0.161	-0.010
-396.150	-9.244	0.267	-0.177
-395.136	132.012	0.187	0.239
-394.121	-126.294	0.071	0.010
-393.106	469.078	-0.046	0.103
-392.092	-200.000	0.068	-0.511
-391.077	800.000	-0.032	-0.102
-390.063	54.940	-0.066	-0.063
-389.048	-119.208	0.284	-0.049
-388.033	237.703	-0.107	-0.176
-387.019	-200.000	0.005	0.199
-386.004	-31.220	0.152	0.085
-384.990	2.889	0.054	-0.039
-383.975	-6.193	0.180	0.122
-382.960	-200.000	0.065	-0.299
-381.946	800.000	-0.033	0.140
-380.931	198.473	0.186	0.281
-379.917	239.948	0.110	-0.181
-378.902	678.014	0.193	-0.498
-377.888	425.122	0.088	0.187
-376.873	451.988	0.136	0.297
-375.858	92.733	-0.098	-0.109
-374.844	-200.000	-0.017	-0.142
-373.829	-31.499	0.255	-0.142
-372.815	-160.070	0.142	0.008
-371.800	-162.756	0.253	0.012
-370.785	297.307	-0.102	0.186
-369.771	-55.840	0.151	-0.067
-368.756	-200.000	-0.032	0.230
-367.742	800.000	0.063	-0.196
-366.727	538.681	-0.078	0.184
-365.712	-92.176	-0.298	0.083
-364.698	95.987	0.236	0.267
-363.683	-66.812	0.181	0.071
-362.669	-200.000	-0.032	0.228
-361.654	-200.000	0.014	-0.117
-360.639	-22.887	0.159	0.095
-359.625	-182.350	-0.067	-0.001
-358.610	-80.429	-0.201	-0.066
-357.596	-200.000	-0.084	-0.445
-356.581	-134.500	-0.318	-0.039
-355.566	-200.000	0.023	0.367
-354.552	-161.221	-0.211	-0.011
-353.537	-4.156	-0.092	-0.063
-352.523	800.000	-0.056	-0.204
-351.508	800.000	-0.043	0.134
-350.493	-44.366	-0.171	-0.085
-349.479	307.530	-0.238	-0.439
-348.464	-200.000	-0.005	-0.486
-347.450	-40.550	-0.347	0.178
-346.435	-117.334	0.110	-0.020
-345.420	21.005	-0.223	-0.179
-344.406	-73.066	-0.025	0.009
-343.391	-10.649	0.384	-0.251
-342.377	184.034	-0.094	0.138
-341.362	-104.039	0.178	-0.041
-340.348	300.379	-0.092	-0.167
-339.333	606.276	-0.074	0.182
-338.318	800.000	0.049	-0.211
-337.304	89.968	-0.314	-0.347
-336.289	800.000	0.026	-0.094
-335.275	800.000	0.046	-0.177
-334.260	146.701	-0.095	0.127
-333.245	-88.397	-0.146	-0.043
-332.231	-200.000	0.020	-0.306
-331.216	-22.228	0.145	0.087
-330.202	-200.000	-0.091	0.481
-329.187	-200.000	0.024	-0.125
-328.172	779.287	-0.034	-0.093
-327.158	682.586	0.065	0.167
-326.143	-155.647	0.232	-0.015
-325.129	-200.000	0.091	0.465
-324.114	652.357	0.053	-0.135
-323.099	86.828	-0.085	0.093
-322.085	-25.749	-0.240	-0.140
-321.070	-63.654	0.083	0.034
-320.056	-138.361	0.046	0.005
-319.041	800.000	0.106	-0.339
-318.026	-74.806	-0.223	0.079
-317.012	47.097	-0.111	0.102
-315.997	-200.000	-0.002	-0.078
-314.983	158.411	-0.092	-0.127
-313.968	775.817	0.033	-0.089
-312.953	147.941	-0.231	0.308
-311.939	231.004	-0.106	0.171
-310.924	-35.796	-0.170	-0.091
-309.910	-107.166	-0.013	-0.003
-308.895	66.326	0.052	0.053
-307.880	-0.950	-0.132	0.092
-306.866	361.797	-0.223	0.442
-305.851	-200.000	-0.001	-0.324
-304.837	-184.259	-0.094	-0.002
-303.822	-3.595	0.322	0.222
-302.807	800.000	0.149	-0.460
-301.793	332.375	-0.133	0.254
-300.778	800.000	-0.094	0.313
-299.764	-75.715	-0.167	0.059
-298.749	51.165	-0.267	-0.250
-297.735	-98.985	0.393	-0.099
-296.720	-46.957	-0.007	0.003
-295.705	14.728	0.171	-0.132
-294.691	513.182	0.148	0.341
-293.676	-113.737	-0.014	0.003
-292.662	119.793	0.222	-0.272
-291.647	-200.000	0.036	0.224
-290.632	-55.808	0.370	-0.163
-289.618	-200.000	0.049	-0.250
-288.603	207.612	-0.056	-0.086
-287.589	-84.260	-0.243	0.076
-286.574	-127.108	-0.241	-0.035
-285.559	-200.000	-0.003	0.255
-284.545	181.042	0.109	-0.158
-283.530	800.000	-0.022	0.073
-282.516	800.000	-0.090	0.282
-281.501	-152.661	-0.164	0.012
-280.486	-139.824	0.278	0.029
-279.472	-159.519	-0.231	-0.013
-278.457	-5.066	-0.274	-0.186
-277.443	-200.000	-0.013	0.136
-276.428	45.467	0.134	-0.122
-275.413	800.000	0.055	-0.184
-274.399	197.376	0.214	0.322
-273.384	-117.343	-0.415	0.074
-272.370	56.438	0.214	0.205
-271.355	-70.538	-0.314	0.117
-270.340	-200.000	-0.010	-0.125
-269.326	211.509	-0.206	0.320
-268.311	225.704	-0.166	0.266
-267.297	800.000	-0.045	0.123
-266.282	-116.335	-0.066	-0.012
-265.267	-88.996	-0.059	0.017
-264.253	-200.000	-0.019	-0.132
-263.238	-200.000	0.067	-0.326
-262.224	-167.352	0.356	-0.014
-261.209	-27.309	0.338	-0.194
-260.195	800.000	0.078	-0.283
-259.180	469.738	0.089	-0.196
-258.165	-112.029	-0.209	0.042
-257.151	800.000	-0.037	-0.135
-256.136	-8.353	-0.104	-0.069
-255.122	7.024	-0.092	0.068
-254.107	-127.324	-0.080	0.012
-253.092	-159.343	-0.125	0.007
-252.078	26.803	-0.184	-0.152
-251.063	65.983	0.180	-0.180
-250.049	-200.000	-0.008	0.071
-249.034	800.000	-0.027	-0.114
-248.019	128.434	0.077	0.097
-247.005	-191.534	-0.130	0.001
-245.990	65.711	-0.066	0.066
-244.976	-200.000	-0.013	0.238
-243.961	-87.859	-0.192	-0.057
-242.946	-84.172	0.112	0.035
-241.932	192.108	0.142	0.212
-240.917	-149.620	0.169	0.013
-239.903	-200.000	0.003	-0.248
-238.888	-40.206	0.113	-0.058
-237.873	-200.000	-0.090	0.396
-236.859	-53.615	0.088	-0.040
-235.844	136.821	0.245	0.315
-234.830	-56.982	-0.154	0.067
-233.815	800.000	0.160	0.444
-232.800	-82.016	-0.334	-0.108
-231.786	800.000	0.048	0.202
-230.771	-200.000	-0.002	0.035
-229.757	800.000	-0.068	-0.258
-228.742	151.097	-0.121	0.163
-227.727	-39.883	0.173	0.089
-226.713	754.369	-0.101	-0.269
-225.698	800.000	-0.064	0.208
-224.684	-200.000	-0.009	0.222
-223.669	115.970	-0.050	-0.060
-222.655	355.426	0.047	-0.092
-221.640	800.000	-0.045	-0.174
-220.625	190.904	0.124	0.183
-219.611	144.262	0.072	-0.095
-218.596	-7.501	0.102	-0.068
-217.582	-143.226	0.079	0.008
-216.567	208.001	-0.057	0.088
-215.552	-1.546	0.157	0.109
-214.538	405.390	0.096	0.198
-213.523	-1.701	0.300	0.208
-212.509	9.415	0.103	0.077
-211.494	465.452	0.150	0.332
-210.479	-200.000	-0.019	0.201
-209.465	-44.992	0.277	0.136
-208.450	-94.924	-0.435	0.116
-207.436	800.000	0.025	-0.082
-206.421	-200.000	0.040	0.315
-205.406	-105.101	-0.188	0.042
-204.392	-200.000	0.013	0.114
-203.377	-200.000	0.024	0.288
-202.363	-97.924	-0.097	0.025
-201.348	-83.679	0.111	-0.035
-200.333	-200.000	-0.023	0.295
-199.319	8.019	-0.339	0.251
-198.304	-200.000	-0.013	0.098
-197.290	-124.024	-0.299	-0.046
-196.275	109.515	-0.232	-0.274
-195.260	-0.917	-0.038	0.026
-194.246	25.158	0.147	0.120
-193.231	-20.687	0.155	-0.094
-192.217	-33.698	0.305	0.166
-191.202	-15.316	-0.074	0.047
-190.187	80.544	-0.043	-0.046
-189.173	401.671	0.136	0.280
-188.158	-145.059	0.337	-0.030
-187.144	-200.000	-0.003	0.196
-186.129	2.607	0.137	0.097
-185.114	77.376	-0.047	0.049
-184.100	-10.017	0.339	-0.222
-183.085	212.549	-0.049	0.076
-182.071	55.716	-0.206	-0.196
-181.056	-99.000	-0.181	0.045
-180.042	778.828	-0.128	0.343
-179.027	-21.459	0.121	0.073
-178.012	-41.668	0.097	0.049
-176.998	-48.411	0.107	0.051
-175.983	800.000	0.084	-0.231
-174.969	-33.165	-0.395	0.215
-173.954	-200.000	0.013	0.263
-172.939	4.675	0.225	-0.163
-171.925	-200.000	-0.029	0.313
-170.910	-200.000	0.012	-0.314
-169.896	-186.750	0.337	-0.005
-168.881	800.000	-0.064	0.207
-167.866	454.511	-0.138	-0.302
-166.852	800.000	-0.079	-0.228
-165.837	-200.000	-0.248	0.001
-164.823	800.000	0.012	-0.044
-163.808	-99.858	0.325	-0.080
-162.793	492.322	-0.092	-0.207
-161.779	-200.000	-0.030	0.147
-160.764	89.956	0.144	-0.158
-159.750	38.507	-0.185	-0.162
-158.735	-123.193	0.478	0.075
-157.720	-106.183	0.046	0.010
-156.706	2.242	-0.277	0.197
-155.691	49.286	0.044	0.041
-154.677	-200.000	0.031	-0.185
-153.662	9.944	0.409	-0.305
-152.647	800.000	-0.036	-0.110
-151.633	207.704	-0.024	0.037
-150.618	-11.759	-0.144	0.093
-149.604	87.229	-0.169	-0.184
-148.589	800.000	0.025	-0.085
-147.574	575.962	0.064	0.154
-146.560	-200.000	0.004	0.355
-145.545	-200.000	0.402	-0.001
-144.531	287.556	0.107	-0.190
-143.516	-200.000	0.034	0.175
-142.502	-200.000	0.020	0.376
-141.487	238.369	0.086	0.140
-140.472	189.354	0.058	-0.085
-139.458	-200.000	0.032	0.216
-138.443	-200.000	0.001	-0.169
-137.429	-200.000	-0.020	-0.329
-136.414	359.845	-0.155	0.304
-135.399	-200.000	0.030	0.308
-134.385	-103.667	-0.215	0.050
-133.370	-200.000	0.037	0.232
-132.356	345.909	-0.082	0.158
-131.341	-143.234	0.148	-0.014
-130.326	-33.857	0.305	-0.165
-129.312	673.547	0.109	0.278
-128.297	800.000	0.038	-0.109
-127.283	-165.112	-0.438	-0.019
-126.268	133.977	0.069	0.088
-125.253	476.698	-0.091	0.203
-124.239	800.000	-0.070	-0.214
-123.224	-87.626	0.215	-0.064
-122.210	-68.317	-0.229	-0.087
