DTS Sentinel unit serial number:	SN413079Multiplexer serial number:	ORYXHardware model number:	OX4-SRSoftware version number:	ORYX F/W v4.00 Oryx Data Collector v3.7.2.0data status	okinstallation	princeton_trtdifferential loss correction	single-endedforward channel	channel 1reverse channel	N/Adate	2019/09/16time	09:34:35forward acquisition time	60.00reverse acquisition time	0.00gamma	496.2192k internal	0.2321k external	0.2321temperature offset calibration	0.9969default loss term (dB/km)	0.3790temperature slope calibration	1.0000multiplexer offset coefficient	1.0000multiplexer slope coefficient	1.0000fibre end	0.00T internal ref (°C)	32.06T ext. ref 1 (°C)	12.23T ext. ref 2 (°C)	29.82length (m)	temperature (°C)	Stokes	anti-Stokes-747.200	-1.913	0.245	-0.174
-746.185	-73.934	0.117	0.043
-745.171	2.791	0.108	-0.079
-744.156	466.993	0.096	0.219
-743.142	80.420	-0.249	0.271
-742.127	21.472	0.274	0.225
-741.112	62.246	-0.027	0.028
-740.098	282.537	-0.067	0.122
-739.083	124.052	-0.201	0.255
-738.069	800.000	0.108	0.353
-737.054	-44.572	0.246	0.124
-736.039	-200.000	-0.021	0.155
-735.025	264.416	-0.123	-0.216
-734.010	4.098	-0.314	-0.232
-732.996	191.200	0.146	-0.222
-731.981	123.613	-0.212	-0.269
-730.966	104.155	-0.094	0.112
-729.952	-200.000	0.043	-0.263
-728.937	690.343	0.056	0.149
-727.923	-200.000	0.046	-0.255
-726.908	-110.278	-0.209	0.044
-725.894	-135.092	-0.521	0.063
-724.879	-108.460	0.196	0.043
-723.864	-9.741	0.261	-0.176
-722.850	101.337	-0.232	-0.273
-721.835	-200.000	0.048	0.239
-720.821	-30.485	-0.304	0.174
-719.806	415.776	0.041	0.089
-718.791	514.883	-0.160	-0.376
-717.777	800.000	-0.145	0.416
-716.762	360.483	0.084	-0.169
-715.748	-97.528	0.155	0.041
-714.733	220.676	0.168	-0.273
-713.718	88.225	0.026	0.029
-712.704	800.000	-0.022	0.061
-711.689	-27.379	0.313	0.184
-710.675	-164.488	0.311	-0.014
-709.660	-200.000	-0.001	0.192
-708.645	-18.446	-0.170	0.107
-707.631	483.684	0.215	-0.493
-706.616	-20.469	-0.208	-0.129
-705.602	104.926	0.061	0.072
-704.587	-200.000	-0.057	-0.350
-703.572	-200.000	0.067	-0.368
-702.558	429.854	-0.094	-0.204
-701.543	705.187	0.081	-0.215
-700.529	639.182	0.037	0.094
-699.514	53.722	0.260	-0.252
-698.499	-59.830	-0.195	0.084
-697.485	-200.000	-0.056	0.316
-696.470	-200.000	0.004	0.100
-695.456	-99.558	0.044	-0.011
-694.441	125.899	0.164	-0.209
-693.426	87.696	-0.255	-0.285
-692.412	-74.586	0.128	-0.047
-691.397	800.000	0.073	-0.258
-690.383	146.242	0.030	0.041
-689.368	800.000	0.067	0.221
-688.354	161.569	0.048	0.067
-687.339	-107.828	-0.217	0.048
-686.324	-200.000	-0.043	0.215
-685.310	-27.975	0.212	0.124
-684.295	800.000	0.014	-0.046
-683.281	130.793	-0.022	0.028
-682.266	-40.338	-0.208	0.109
-681.251	-51.348	-0.163	-0.077
-680.237	800.000	-0.078	0.292
-679.222	79.482	-0.222	-0.240
-678.208	54.014	0.328	-0.318
-677.193	-80.021	-0.206	-0.070
-676.178	-154.501	0.261	0.018
-675.164	69.327	0.245	-0.254
-674.149	-96.577	-0.365	0.097
-673.135	-189.062	-0.256	-0.003
-672.120	375.348	-0.107	-0.220
-671.105	99.511	0.169	-0.197
-670.091	-200.000	0.002	0.029
-669.076	693.544	-0.056	0.149
-668.062	16.234	0.126	0.100
-667.047	-16.536	-0.231	-0.147
-666.032	-104.412	-0.448	-0.105
-665.018	2.622	0.134	0.098
-664.003	-68.226	-0.060	0.024
-662.989	-200.000	0.074	-0.591
-661.974	102.946	-0.116	-0.137
-660.959	-165.154	0.123	-0.005
-659.945	-200.000	0.025	-0.500
-658.930	800.000	-0.031	0.136
-657.916	-4.192	-0.050	-0.035
-656.901	-146.853	-0.073	-0.006
-655.886	80.916	-0.095	0.103
-654.872	-200.000	0.005	0.267
-653.857	800.000	-0.084	0.303
-652.843	19.996	-0.151	0.122
-651.828	800.000	0.096	0.277
-650.814	618.022	-0.085	-0.214
-649.799	165.509	-0.132	0.188
-648.784	-142.229	0.222	-0.022
-647.770	167.505	0.276	-0.394
-646.755	-61.851	-0.431	0.182
-645.741	383.931	0.070	0.144
-644.726	-45.700	-0.109	-0.054
-643.711	-164.291	-0.277	-0.013
-642.697	54.681	-0.056	-0.054
-641.682	800.000	-0.080	-0.283
-640.668	800.000	-0.058	0.207
-639.653	-140.749	0.185	0.019
-638.638	-10.214	-0.185	0.124
-637.624	-200.000	0.028	-0.290
-636.609	-16.591	0.064	-0.041
-635.595	-162.359	-0.165	0.008
-634.580	-106.298	-0.159	-0.036
-633.565	294.736	0.129	-0.238
-632.551	-96.243	-0.231	0.062
-631.536	91.203	0.199	0.224
-630.522	-79.557	0.101	0.034
-629.507	-175.210	-0.136	0.004
-628.492	72.866	0.125	0.132
-627.478	-42.483	-0.212	-0.109
-626.463	436.117	0.129	-0.283
-625.449	40.125	0.148	0.134
-624.434	-21.291	-0.116	0.071
-623.419	800.000	0.042	-0.150
-622.405	89.170	-0.162	-0.182
-621.390	702.801	0.079	0.209
-620.376	-58.919	0.389	0.169
-619.361	170.952	-0.110	0.158
-618.346	-200.000	0.079	0.402
-617.332	471.202	-0.100	0.226
-616.317	-200.000	0.012	-0.117
-615.303	-9.802	-0.181	0.121
-614.288	-82.806	0.272	-0.089
-613.273	29.913	-0.309	0.265
-612.259	21.955	-0.203	0.166
-611.244	5.352	-0.251	0.186
-610.230	-111.404	-0.355	-0.073
-609.215	800.000	0.066	-0.190
-608.201	82.806	-0.227	-0.248
-607.186	72.566	0.206	0.216
-606.171	800.000	0.063	0.219
-605.157	-57.969	0.101	0.044
-604.142	-83.376	-0.168	-0.054
-603.128	-200.000	0.018	-0.134
-602.113	-20.667	0.178	-0.110
-601.098	800.000	0.115	0.327
-600.084	-78.360	-0.279	0.096
-599.069	-181.376	0.094	0.002
-598.055	259.081	-0.133	0.230
-597.040	-200.000	0.016	0.295
-596.025	-90.210	0.179	-0.052
-595.011	-33.002	0.203	0.113
-593.996	264.512	-0.114	-0.200
-592.982	221.470	-0.088	0.141
-591.967	723.604	-0.115	-0.307
-590.952	-200.000	-0.046	-0.208
-589.938	-50.777	0.298	-0.141
-588.923	-13.167	0.142	-0.093
-587.909	9.339	0.304	0.231
-586.894	-153.245	-0.297	0.021
-585.879	-200.000	-0.011	0.123
-584.865	-155.398	-0.069	-0.005
-583.850	-200.000	0.011	-0.166
-582.836	-61.407	-0.360	0.152
-581.821	-26.263	0.221	0.130
-580.806	800.000	-0.073	0.226
-579.792	-200.000	0.015	0.160
-578.777	-110.385	-0.090	-0.019
-577.763	800.000	0.109	0.355
-576.748	141.320	0.056	-0.074
-575.733	-95.114	-0.109	0.030
-574.719	-95.808	-0.171	0.046
-573.704	781.414	-0.022	-0.061
-572.690	-174.661	0.418	-0.012
-571.675	104.717	0.151	-0.179
-570.661	746.820	0.078	-0.212
-569.646	-114.927	0.194	-0.037
-568.631	-6.938	0.329	0.225
-567.617	800.000	-0.050	-0.200
-566.602	-200.000	-0.111	-0.541
-565.588	-144.017	0.241	-0.023
-564.573	27.511	-0.198	-0.167
-563.558	129.386	-0.085	0.110
-562.544	226.069	0.116	0.189
-561.529	21.030	0.039	-0.031
-560.515	800.000	-0.056	-0.187
-559.500	358.503	0.045	-0.090
-558.485	-31.435	-0.205	-0.116
-557.471	800.000	0.046	0.173
-556.456	800.000	0.058	-0.208
-555.442	-124.547	-0.349	-0.054
-554.427	-200.000	-0.052	0.258
-553.412	-8.679	-0.178	-0.120
-552.398	-141.532	-0.074	-0.007
-551.383	236.458	-0.133	-0.221
-550.369	19.108	-0.268	0.216
-549.354	0.390	0.194	0.139
-548.339	-68.706	0.141	-0.055
-547.325	179.103	0.072	-0.106
-546.310	79.301	0.109	0.118
-545.296	-200.000	0.010	0.282
-544.281	61.443	-0.085	-0.084
-543.266	117.266	-0.153	0.188
-542.252	-20.257	-0.303	-0.187
-541.237	192.173	0.243	0.367
-540.223	-200.000	0.027	-0.296
-539.208	-200.000	-0.004	0.033
-538.193	27.442	-0.207	-0.174
-537.179	223.592	0.131	-0.212
-536.164	-200.000	0.002	0.144
-535.150	68.224	0.176	0.181
-534.135	-97.137	-0.178	-0.047
-533.121	-77.410	-0.102	0.036
-532.106	800.000	0.055	0.173
-531.091	154.040	0.051	0.070
-530.077	-72.246	0.462	0.171
-529.062	-165.788	0.179	0.008
-528.048	551.067	0.142	0.342
-527.033	-68.159	0.191	0.075
-526.018	175.216	0.075	-0.108
-525.004	-200.000	-0.067	-0.430
-523.989	-200.000	-0.019	0.166
-522.975	149.746	0.108	0.147
-521.960	96.761	0.071	0.081
-520.945	-76.469	0.320	-0.113
-519.931	-107.324	-0.368	-0.081
-518.916	-200.000	-0.050	0.232
-517.902	236.105	0.018	0.031
-516.887	-200.000	0.029	-0.164
-515.872	-34.602	0.106	0.058
-514.858	-12.723	0.163	0.107
-513.843	-23.522	0.203	-0.122
-512.829	-119.502	-0.103	-0.018
-511.814	110.568	-0.214	-0.258
-510.799	538.310	-0.059	0.141
-509.785	-148.221	0.085	-0.007
-508.770	74.204	-0.291	0.306
-507.756	113.604	0.076	0.093
-506.741	268.084	-0.019	0.033
-505.726	-174.611	-0.502	-0.014
-504.712	-200.000	-0.009	-0.090
-503.697	290.343	0.270	-0.491
-502.683	-12.826	0.140	-0.091
-501.668	187.266	-0.199	-0.297
-500.653	-200.000	0.002	-0.156
-499.639	106.042	0.184	0.218
-498.624	196.152	-0.320	0.487
-497.610	162.249	0.138	-0.194
-496.595	-64.087	-0.166	0.068
-495.581	-104.303	0.196	-0.045
-494.566	164.116	0.179	0.253
-493.551	-200.000	0.026	-0.189
-492.537	265.242	0.178	-0.311
-491.522	800.000	-0.066	0.280
-490.508	-170.732	-0.349	0.012
-489.493	-199.892	-0.194	0.001
-488.478	-42.723	0.148	0.075
-487.464	125.089	-0.026	-0.033
-486.449	643.641	-0.058	0.147
-485.435	58.073	-0.168	-0.165
-484.420	9.670	-0.259	-0.197
-483.405	-18.710	-0.164	-0.102
-482.391	800.000	0.046	-0.181
-481.376	1.968	0.060	-0.043
-480.362	800.000	-0.062	-0.213
-479.347	-110.827	-0.233	-0.048
-478.332	217.801	0.072	0.115
-477.318	800.000	-0.109	0.306
-476.303	84.524	0.191	0.209
-475.289	-103.812	0.404	0.095
-474.274	-13.286	-0.257	0.167
-473.259	-200.000	0.011	0.108
-472.245	-64.894	0.378	0.153
-471.230	17.935	-0.153	-0.122
-470.216	-134.129	0.233	-0.029
-469.201	-200.000	-0.013	-0.110
-468.186	-123.737	-0.231	-0.036
-467.172	-46.775	-0.098	-0.048
-466.157	-200.000	-0.033	0.274
-465.143	-31.345	0.161	0.090
-464.128	8.668	-0.180	0.136
-463.113	59.642	0.125	-0.124
-462.099	298.558	-0.159	-0.293
-461.084	-116.354	-0.266	-0.049
-460.070	316.545	0.071	0.134
-459.055	-200.000	-0.036	0.288
-458.040	538.272	0.097	-0.230
-457.026	30.246	-0.214	0.183
-456.011	0.438	-0.274	0.196
-454.997	90.878	-0.034	0.038
-453.982	559.168	-0.077	0.185
-452.968	-200.000	-0.034	-0.307
-451.953	-29.042	0.143	-0.082
-450.938	-72.146	0.087	-0.032
-449.924	-200.000	-0.004	-0.121
-448.909	-96.377	-0.261	0.069
-447.895	-110.272	-0.169	0.035
-446.880	-36.417	-0.219	-0.118
-445.865	-35.735	0.124	-0.067
-444.851	800.000	-0.049	0.139
-443.836	-200.000	0.016	-0.240
-442.822	116.302	-0.061	0.075
-441.807	-152.489	0.137	0.010
-440.792	800.000	0.127	-0.520
-439.778	729.308	0.135	-0.360
-438.763	622.438	0.098	-0.247
-437.749	-82.164	-0.189	0.061
-436.734	-91.569	-0.256	0.073
-435.719	-28.057	-0.172	-0.099
-434.705	800.000	0.013	0.041
-433.690	-130.100	-0.178	0.024
-432.676	-17.952	0.486	-0.304
-431.661	-58.062	-0.156	0.068
-430.646	-200.000	0.070	0.466
-429.632	-36.216	-0.446	0.241
-428.617	282.208	0.082	0.146
-427.603	800.000	-0.059	-0.233
-426.588	29.081	-0.088	0.074
-425.573	45.361	-0.201	0.185
-424.559	330.186	-0.172	0.330
-423.544	452.999	-0.062	-0.137
-422.530	-62.145	0.459	-0.191
-421.515	575.412	0.106	-0.258
-420.500	-77.071	-0.339	-0.118
-419.486	-200.000	0.048	0.432
-418.471	9.516	0.212	0.160
-417.457	-200.000	-0.019	0.085
-416.442	-200.000	0.011	-0.129
-415.428	-6.401	-0.061	-0.041
-414.413	-200.000	0.054	-0.438
-413.398	-156.333	0.081	0.005
-412.384	84.847	0.387	-0.423
-411.369	15.076	0.257	0.201
-410.355	800.000	-0.020	-0.059
-409.340	-71.426	-0.242	0.090
-408.325	-35.242	0.193	0.105
-407.311	7.472	-0.160	-0.119
-406.296	52.849	-0.269	0.257
-405.282	136.752	-0.048	0.062
-404.267	150.714	0.134	-0.181
-403.252	800.000	-0.031	-0.097
-402.238	800.000	0.018	0.055
-401.223	-118.127	-0.309	-0.055
-400.209	-130.925	-0.133	0.018
-399.194	-112.909	-0.418	0.083
-398.179	-76.527	-0.189	0.066
-397.165	438.705	-0.052	-0.114
-396.150	655.084	-0.034	-0.086
-395.136	-100.124	0.315	-0.078
-394.121	147.983	0.028	0.037
-393.106	11.201	0.283	-0.216
-392.092	247.322	0.119	-0.200
-391.077	236.901	-0.069	0.113
-390.063	800.000	-0.101	-0.443
-389.048	169.184	0.062	-0.089
-388.033	40.629	-0.215	-0.194
-387.019	26.724	0.173	0.144
-386.004	-119.383	0.210	0.036
-384.990	77.158	0.115	0.122
-383.975	209.549	0.119	-0.186
-382.960	-118.273	0.287	0.051
-381.946	-200.000	0.023	-0.243
-380.931	-112.961	-0.162	-0.032
-379.917	224.341	0.306	0.493
-378.902	-173.116	0.150	-0.005
-377.888	-128.585	-0.190	0.027
-376.873	-114.720	0.360	0.069
-375.858	-85.846	0.377	-0.116
-374.844	-119.478	-0.093	-0.016
-373.829	188.673	-0.048	-0.071
-372.815	140.908	-0.327	0.431
-371.800	-14.933	-0.130	0.083
-370.785	19.022	0.283	0.226
-369.771	-200.000	0.013	-0.293
-368.756	800.000	0.055	-0.184
-367.742	-104.180	0.094	0.022
-366.727	-135.659	-0.201	-0.024
-365.712	-18.556	0.072	-0.045
-364.698	-199.151	-0.163	-0.001
-363.683	-200.000	0.208	0.001
-362.669	800.000	0.072	0.233
-361.654	-98.277	0.121	0.031
-360.639	-174.698	0.041	-0.001
-359.625	425.678	0.021	0.045
-358.610	-200.000	-0.005	-0.034
-357.596	-81.439	0.184	0.060
-356.581	-200.000	0.071	-0.417
-355.566	84.808	0.032	-0.035
-354.552	244.136	-0.059	-0.099
-353.537	800.000	-0.043	0.148
-352.523	-91.841	0.383	0.108
-351.508	-108.707	-0.134	-0.029
-350.493	-98.169	0.379	-0.097
-349.479	247.500	0.048	0.080
-348.464	469.844	0.101	-0.225
-347.450	-93.225	0.432	-0.120
-346.435	-14.491	-0.126	-0.081
-345.420	-14.906	0.127	-0.081
-344.406	-200.000	-0.063	-0.485
-343.391	-17.516	0.271	0.170
-342.377	-110.629	0.344	0.071
-341.362	57.479	0.072	0.070
-340.348	800.000	-0.042	-0.155
-339.333	-10.164	0.197	-0.130
-338.318	-54.497	0.158	0.071
-337.304	-82.517	0.383	0.124
-336.289	-200.000	-0.009	-0.254
-335.275	-61.095	0.337	0.142
-334.260	580.400	-0.057	-0.138
-333.245	50.713	0.154	-0.145
-332.231	-200.000	-0.003	0.062
-331.216	-123.808	-0.302	-0.047
-330.202	-200.000	-0.003	-0.197
-329.187	-148.066	-0.314	0.026
-328.172	73.293	-0.213	-0.222
-327.158	-35.666	-0.235	0.127
-326.143	-13.856	0.168	-0.108
-325.129	161.790	-0.150	0.209
-324.114	233.661	-0.063	-0.103
-323.099	-200.000	-0.003	0.107
-322.085	-124.189	0.148	-0.023
-321.070	45.813	-0.032	0.029
-320.056	-116.873	-0.253	-0.046
-319.041	130.518	0.193	0.246
-318.026	133.770	-0.024	-0.031
-317.012	13.089	0.124	0.095
-315.997	-200.000	-0.063	0.392
-314.983	-95.862	-0.240	-0.064
-313.968	42.604	0.281	0.254
-312.953	307.318	-0.066	0.122
-311.939	247.185	0.110	-0.184
-310.924	-21.600	-0.293	-0.178
-309.910	60.169	0.063	-0.062
-308.895	-75.300	-0.046	0.016
-307.880	-96.539	-0.230	0.060
-306.866	-30.715	0.299	0.168
-305.851	-71.130	-0.118	-0.044
-304.837	4.672	-0.220	-0.160
-303.822	-53.928	0.253	-0.115
-302.807	-105.841	-0.314	0.070
-301.793	800.000	-0.051	-0.156
-300.778	-33.372	-0.253	-0.139
-299.764	-200.000	-0.023	0.122
-298.749	-200.000	-0.020	-0.222
-297.735	-44.680	0.177	-0.088
-296.720	133.245	-0.055	-0.071
-295.705	128.808	0.145	-0.184
-294.691	83.220	-0.081	-0.088
-293.676	488.270	0.085	-0.193
-292.662	17.662	0.092	-0.072
-291.647	-200.000	0.035	0.308
-290.632	-200.000	-0.032	-0.223
-289.618	-200.000	0.027	-0.139
-288.603	-119.683	0.032	0.005
-287.589	-200.000	0.016	0.075
-286.574	-25.149	0.300	0.177
-285.559	-200.000	-0.023	-0.191
-284.545	157.589	0.119	-0.163
-283.530	-200.000	0.007	-0.298
-282.516	-72.270	0.223	0.082
-281.501	-21.661	-0.308	-0.186
-280.486	-200.000	0.054	-0.318
-279.472	-82.016	0.272	0.088
-278.457	-111.710	-0.175	0.035
-277.443	-106.351	-0.269	0.060
-276.428	-68.143	-0.038	0.015
-275.413	-200.000	-0.057	0.326
-274.399	800.000	0.023	-0.092
-273.384	-117.676	0.184	0.033
-272.370	156.169	0.066	-0.090
-271.355	800.000	-0.073	0.258
-270.340	16.537	-0.239	0.187
-269.326	152.597	0.191	-0.260
-268.311	-165.236	0.270	0.012
-267.297	-77.054	-0.208	-0.072
-266.282	469.894	0.159	0.354
-265.267	242.833	-0.181	0.301
-264.253	-83.413	0.101	0.032
-263.238	-87.678	0.319	-0.095
-262.224	125.414	-0.204	0.256
-261.209	-200.000	-0.012	0.076
-260.195	19.650	0.040	0.032
-259.180	-200.000	0.024	0.168
-258.165	153.252	-0.183	0.249
-257.151	52.316	-0.255	0.241
-256.136	-132.814	0.112	-0.014
-255.122	-200.000	-0.026	0.154
-254.107	213.572	-0.181	0.284
-253.092	-146.845	0.328	0.028
-252.078	33.484	-0.183	0.158
-251.063	800.000	0.054	0.201
-250.049	-28.180	0.098	0.056
-249.034	-13.081	-0.421	-0.271
-248.019	-0.275	-0.258	0.182
-247.005	-200.000	-0.006	0.369
-245.990	114.341	0.063	-0.076
-244.976	-144.909	-0.326	0.030
-243.961	-200.000	-0.011	0.162
-242.946	-160.799	-0.125	0.007
-241.932	800.000	0.020	0.059
-240.917	-162.735	-0.111	0.005
-239.903	-200.000	-0.023	-0.241
-238.888	-158.521	0.064	-0.004
-237.873	-200.000	-0.058	0.270
-236.859	-159.139	-0.274	0.015
-235.844	-27.673	0.106	0.061
-234.830	-200.000	-0.007	-0.051
-233.815	-19.664	-0.233	-0.143
-232.800	6.513	-0.092	-0.068
-231.786	-200.000	-0.012	0.102
-230.771	220.314	0.092	-0.146
-229.757	-200.000	0.027	0.320
-228.742	-200.000	-0.067	0.328
-227.727	498.182	-0.099	-0.226
-226.713	335.075	0.154	0.295
-225.698	-110.958	-0.195	0.040
-224.684	141.915	-0.150	-0.197
-223.669	800.000	-0.037	-0.128
-222.655	-200.000	0.068	-0.294
-221.640	-93.011	0.118	0.033
-220.625	-141.051	0.171	0.017
-219.611	68.091	-0.191	0.194
-218.596	518.733	-0.057	-0.132
-217.582	-152.693	-0.264	-0.019
-216.567	-53.159	-0.187	-0.085
-215.552	-132.269	0.262	0.034
-214.538	266.899	0.146	0.253
-213.523	-3.490	0.308	-0.212
-212.509	-200.000	0.017	-0.315
-211.494	-6.327	0.228	0.154
-210.479	630.178	0.103	0.259
-209.465	-32.631	0.306	0.169
-208.450	173.497	0.131	-0.187
-207.436	24.113	-0.376	0.307
-206.421	375.655	-0.131	-0.264
-205.406	-183.415	-0.237	-0.004
-204.392	-24.987	-0.123	-0.072
-203.377	3.035	-0.302	0.217
-202.363	-200.000	0.031	0.229
-201.348	-92.130	0.150	-0.042
-200.333	239.578	-0.072	-0.119
-199.319	-200.000	0.018	-0.206
-198.304	16.899	-0.104	-0.082
-197.290	-29.427	-0.231	0.131
-196.275	80.685	0.379	0.404
-195.260	800.000	-0.094	-0.330
-194.246	-200.000	-0.036	-0.401
-193.231	97.961	0.129	0.147
-192.217	-155.652	0.414	0.026
-191.202	248.635	0.151	0.253
-190.187	-200.000	-0.007	-0.095
-189.173	-119.996	0.174	-0.030
-188.158	800.000	-0.031	0.090
-187.144	-200.000	-0.014	0.271
-186.129	14.001	0.202	0.156
-185.114	-95.015	-0.260	0.069
-184.100	-82.632	0.339	0.109
-183.085	-200.000	0.006	-0.163
-182.071	27.971	0.074	0.062
-181.056	-200.000	0.000	0.229
-180.042	800.000	-0.050	-0.158
-179.027	-96.222	0.487	-0.128
-178.012	19.420	0.129	-0.102
-176.998	112.523	0.094	-0.112
-175.983	-117.007	0.133	0.024
-174.969	-200.000	0.001	-0.101
-173.954	128.880	-0.204	-0.257
-172.939	11.797	-0.320	-0.243
-171.925	-164.304	-0.193	0.009
-170.910	162.561	0.115	0.160
-169.896	253.449	-0.109	-0.184
-168.881	309.463	-0.049	0.091
-167.866	29.833	0.294	-0.248
-166.852	-200.000	0.033	-0.238
-165.837	104.994	-0.112	-0.131
-164.823	518.472	-0.200	-0.462
-163.808	-15.885	0.025	-0.016
-162.793	-113.640	0.033	-0.006
-161.779	459.010	0.006	-0.014
-160.764	298.479	0.161	-0.293
-159.750	224.697	0.180	0.288
-158.735	13.459	-0.088	-0.067
-157.720	-140.804	-0.253	-0.026
-156.706	787.971	0.078	0.212
-155.691	-93.348	0.093	0.026
-154.677	800.000	0.067	-0.207
-153.662	-78.875	-0.276	-0.093
-152.647	101.259	0.215	0.247
-151.633	-163.611	-0.254	-0.012
-150.618	152.913	0.254	0.343
-149.604	-200.000	0.030	0.171
-148.589	421.672	0.035	-0.075
-147.574	-149.281	-0.160	0.013
-146.560	-199.853	0.375	0.002
-145.545	-192.300	-0.574	0.005
-144.531	308.302	0.065	-0.120
-143.516	-200.000	0.022	-0.200
-142.502	-51.775	-0.242	0.111
-141.487	-9.555	0.175	0.115
-140.472	-200.000	-0.018	-0.428
-139.458	-11.365	0.159	0.104
-138.443	-79.416	0.273	-0.091
-137.429	145.633	-0.169	0.223
-136.414	-76.342	-0.204	0.071
-135.399	722.077	0.068	0.178
-134.385	40.662	0.200	-0.178
-133.370	-60.005	0.139	-0.058
-132.356	566.522	-0.114	0.273
-131.341	608.195	-0.098	0.242
-130.326	-200.000	0.026	-0.115
-129.312	-116.845	-0.154	0.028
-128.297	-200.000	-0.019	0.166
-127.283	137.134	-0.149	-0.192
-126.268	-45.153	0.173	-0.085
-125.253	371.877	0.112	-0.224
-124.239	-200.000	-0.071	-0.340
-123.224	-152.865	-0.280	-0.020
-122.210	-83.698	0.193	-0.061
-121.195	-200.000	-0.005	0.253
