DTS Sentinel unit serial number:	SN413079Multiplexer serial number:	ORYXHardware model number:	OX4-SRSoftware version number:	ORYX F/W v4.00 Oryx Data Collector v3.7.2.0data status	okinstallation	princeton_trtdifferential loss correction	single-endedforward channel	channel 1reverse channel	N/Adate	2019/09/19time	13:46:35forward acquisition time	60.00reverse acquisition time	0.00gamma	496.2192k internal	0.2325k external	0.2325temperature offset calibration	1.0017default loss term (dB/km)	0.3790temperature slope calibration	1.0000multiplexer offset coefficient	1.0000multiplexer slope coefficient	1.0000fibre end	0.00T internal ref (°C)	30.61T ext. ref 1 (°C)	1.00T ext. ref 2 (°C)	27.94length (m)	temperature (°C)	Stokes	anti-Stokes-747.200	-200.000	0.081	-0.358
-746.185	135.025	-0.243	0.319
-745.171	762.843	-0.089	0.245
-744.156	-30.441	0.180	0.103
-743.142	339.909	0.123	-0.243
-742.127	-39.898	-0.180	0.095
-741.112	63.287	-0.139	-0.141
-740.098	-200.000	-0.040	0.289
-739.083	469.307	0.100	0.227
-738.069	164.911	-0.069	0.098
-737.054	-200.000	-0.017	-0.141
-736.039	-146.847	0.161	0.014
-735.025	-92.554	0.490	0.139
-734.010	-151.119	-0.346	-0.026
-732.996	-7.941	-0.251	-0.171
-731.981	29.168	0.253	-0.216
-730.966	-200.000	-0.016	0.253
-729.952	188.828	0.106	-0.159
-728.937	117.711	-0.188	0.233
-727.923	-37.738	0.151	-0.081
-726.908	277.688	0.239	-0.429
-725.894	800.000	0.045	-0.133
-724.879	-175.743	-0.214	-0.006
-723.864	-200.000	-0.000	-0.497
-722.850	575.089	-0.046	-0.113
-721.835	-12.560	0.182	-0.120
-720.821	-93.227	-0.297	-0.083
-719.806	64.887	-0.250	-0.254
-718.791	800.000	-0.128	-0.467
-717.777	-138.712	0.095	0.010
-716.762	510.345	0.020	0.046
-715.748	-200.000	0.218	0.001
-714.733	209.343	-0.064	-0.101
-713.718	32.404	0.099	-0.086
-712.704	78.213	-0.226	-0.243
-711.689	220.525	0.150	0.243
-710.675	800.000	-0.019	-0.074
-709.660	538.288	0.046	-0.109
-708.645	-132.558	0.106	0.014
-707.631	211.823	0.109	0.173
-706.616	-43.358	-0.228	-0.116
-705.602	-42.222	0.184	-0.095
-704.587	-200.000	0.019	-0.155
-703.572	108.293	0.145	0.174
-702.558	-200.000	-0.016	-0.113
-701.543	800.000	-0.039	-0.154
-700.529	359.162	-0.067	0.135
-699.514	-161.526	0.325	0.017
-698.499	-154.571	0.363	-0.024
-697.485	12.072	0.202	-0.157
-696.470	-117.210	0.449	0.082
-695.456	151.628	0.112	-0.153
-694.441	-137.201	-0.377	0.043
-693.426	-200.000	0.019	0.391
-692.412	800.000	-0.033	0.096
-691.397	19.130	0.216	0.174
-690.383	-139.318	-0.176	0.019
-689.368	-146.437	-0.134	0.012
-688.354	-9.761	-0.253	0.170
-687.339	-200.000	-0.019	0.269
-686.324	278.247	-0.133	-0.238
-685.310	-101.066	-0.188	0.046
-684.295	101.604	-0.222	-0.260
-683.281	-200.000	-0.011	-0.232
-682.266	-144.395	-0.191	0.018
-681.251	-200.000	0.030	-0.168
-680.237	84.068	-0.267	-0.294
-679.222	-200.000	-0.016	0.137
-678.208	-55.616	-0.029	0.013
-677.193	-200.000	-0.013	-0.080
-676.178	-155.141	-0.167	-0.011
-675.164	-49.224	-0.065	-0.031
-674.149	-73.646	-0.059	-0.022
-673.135	103.695	-0.223	0.263
-672.120	301.298	0.093	-0.173
-671.105	-143.839	-0.059	-0.006
-670.091	-38.300	0.166	0.089
-669.076	-154.670	-0.252	-0.017
-668.062	-200.000	-0.063	-0.440
-667.047	394.591	0.085	-0.179
-666.032	-200.000	-0.013	0.308
-665.018	-200.000	0.037	-0.177
-664.003	-164.438	-0.130	-0.006
-662.989	800.000	0.027	0.095
-661.974	-43.076	0.246	0.125
-660.959	-165.665	-0.329	0.014
-659.945	-108.501	0.189	0.041
-658.930	26.987	0.135	0.114
-657.916	-18.640	-0.234	-0.147
-656.901	52.373	0.084	-0.081
-655.886	-91.403	0.108	0.031
-654.872	-89.666	-0.108	-0.032
-653.857	-200.000	-0.037	-0.363
-652.843	323.652	-0.186	0.358
-651.828	-127.708	0.178	0.026
-650.814	432.185	0.090	-0.195
-649.799	-30.420	0.143	0.082
-648.784	-125.910	-0.122	0.018
-647.770	-129.144	0.110	0.015
-646.755	12.365	-0.261	-0.202
-645.741	137.310	-0.133	-0.175
-644.726	106.527	-0.069	-0.083
-643.711	47.825	-0.242	0.227
-642.697	-66.944	0.253	0.100
-641.682	-115.878	0.373	0.070
-640.668	327.796	-0.115	-0.222
-639.653	-56.801	-0.227	0.101
-638.638	-150.030	0.388	0.030
-637.624	800.000	-0.026	-0.090
-636.609	-45.042	0.018	0.009
-635.595	266.705	0.123	-0.215
-634.580	800.000	-0.106	0.406
-633.565	-200.000	-0.015	-0.194
-632.551	86.209	0.213	0.236
-631.536	800.000	0.078	0.262
-630.522	-139.605	-0.082	0.009
-629.507	-200.000	0.010	0.119
-628.492	-173.406	-0.031	0.001
-627.478	-111.132	-0.363	0.075
-626.463	-200.000	-0.020	0.134
-625.449	226.335	0.148	0.241
-624.434	334.144	-0.123	-0.239
-623.419	230.764	0.104	0.170
-622.405	84.924	0.053	0.058
-621.390	49.313	-0.014	-0.014
-620.376	262.783	-0.048	0.084
-619.361	-8.797	0.113	0.076
-618.346	-200.000	0.014	-0.134
-617.332	51.968	0.116	-0.111
-616.317	32.930	-0.081	-0.071
-615.303	1.760	-0.119	-0.086
-614.288	-200.000	0.006	-0.189
-613.273	-200.000	0.008	-0.098
-612.259	217.913	-0.059	0.094
-611.244	-112.574	0.188	0.038
-610.230	7.878	-0.215	-0.162
-609.215	-200.000	-0.032	0.236
-608.201	800.000	-0.041	0.140
-607.186	152.957	0.134	0.184
-606.171	42.749	0.394	-0.360
-605.157	195.148	0.083	-0.126
-604.142	-200.000	0.024	0.132
-603.128	36.129	0.178	-0.157
-602.113	-81.595	-0.298	-0.098
-601.098	121.881	-0.084	-0.105
-600.084	800.000	-0.071	-0.217
-599.069	-131.824	0.122	0.016
-598.055	179.120	-0.040	-0.058
-597.040	8.087	-0.247	-0.186
-596.025	437.083	-0.115	0.252
-595.011	29.482	-0.317	-0.270
-593.996	-48.126	0.202	-0.098
-592.982	22.082	-0.010	-0.008
-591.967	84.680	-0.282	0.310
-590.952	643.094	-0.077	0.196
-589.938	-200.000	-0.014	-0.150
-588.923	202.641	-0.107	-0.165
-587.909	800.000	-0.096	-0.291
-586.894	-190.175	0.268	-0.003
-585.879	-51.453	-0.113	-0.053
-584.865	142.722	-0.075	-0.100
-583.850	-200.000	-0.007	0.069
-582.836	59.324	-0.124	-0.122
-581.821	3.754	0.167	-0.122
-580.806	-81.261	0.543	-0.180
-579.792	-96.675	0.361	0.095
-578.777	261.506	0.021	0.036
-577.763	-8.840	0.109	-0.073
-576.748	-0.797	0.158	0.112
-575.733	96.468	0.070	-0.080
-574.719	68.254	0.148	0.152
-573.704	-200.000	-0.004	-0.106
-572.690	-76.152	0.230	0.081
-571.675	167.811	0.106	0.152
-570.661	-200.000	0.017	0.087
-569.646	782.590	0.120	-0.329
-568.631	13.563	0.147	-0.114
-567.617	236.736	0.164	-0.271
-566.602	113.485	0.245	0.298
-565.588	652.781	-0.066	-0.170
-564.573	-29.702	0.258	0.148
-563.558	-16.084	0.199	0.126
-562.544	-91.968	0.332	-0.094
-561.529	23.657	0.036	0.030
-560.515	-200.000	-0.034	0.183
-559.500	49.943	-0.168	-0.159
-558.485	800.000	-0.042	0.145
-557.471	-157.905	0.142	-0.008
-556.456	800.000	-0.115	-0.338
-555.442	-135.010	-0.158	0.019
-554.427	568.545	0.111	0.270
-553.412	-115.302	-0.333	-0.063
-552.398	-200.000	0.018	-0.301
-551.383	800.000	0.012	0.037
-550.369	-84.386	-0.188	0.060
-549.354	-111.999	0.219	0.044
-548.339	261.140	-0.201	-0.348
-547.325	146.923	0.235	-0.316
-546.310	571.451	-0.065	-0.157
-545.296	187.065	-0.071	-0.106
-544.281	-200.000	-0.028	-0.269
-543.266	681.240	0.127	-0.330
-542.252	800.000	0.049	-0.178
-541.237	-78.919	-0.324	0.111
-540.223	-57.603	0.119	0.052
-539.208	-36.511	0.074	-0.040
-538.193	-200.000	-0.008	0.190
-537.179	67.525	-0.239	0.244
-536.164	168.448	0.042	0.060
-535.150	-42.743	-0.143	-0.073
-534.135	-11.608	-0.228	0.150
-533.121	-196.213	0.051	0.000
-532.106	710.753	0.052	-0.137
-531.091	-118.551	-0.471	0.083
-530.077	-200.000	0.020	0.219
-529.062	800.000	0.044	-0.130
-528.048	-200.000	0.001	0.174
-527.033	10.709	-0.087	0.066
-526.018	125.507	0.131	-0.165
-525.004	-200.000	-0.002	0.039
-523.989	-145.375	-0.240	0.022
-522.975	-156.647	-0.246	-0.015
-521.960	260.068	-0.194	0.336
-520.945	525.983	0.043	0.101
-519.931	382.426	0.339	0.698
-518.916	311.141	0.201	0.376
-517.902	117.267	-0.156	-0.192
-516.887	-136.045	-0.094	0.011
-515.872	54.874	0.079	-0.076
-514.858	800.000	0.068	-0.278
-513.843	731.236	0.135	-0.360
-512.829	612.041	-0.098	-0.245
-511.814	-200.000	0.050	0.249
-510.799	139.237	-0.154	-0.202
-509.785	607.024	0.173	-0.432
-508.770	-196.323	0.122	-0.001
-507.756	-29.662	-0.126	-0.072
-506.741	-94.020	-0.230	-0.063
-505.726	-90.492	0.259	0.075
-504.712	449.464	0.092	0.202
-503.697	-45.730	0.194	0.096
-502.683	-104.034	0.111	-0.026
-501.668	-55.231	0.224	-0.101
-500.653	338.499	-0.150	0.291
-499.639	-79.043	0.247	-0.084
-498.624	362.498	-0.075	0.150
-497.610	-200.000	-0.054	0.270
-496.595	131.247	-0.079	-0.102
-495.581	797.995	-0.087	0.239
-494.566	-200.000	-0.008	-0.124
-493.551	-200.000	-0.018	-0.170
-492.537	-22.788	-0.190	0.115
-491.522	-120.334	-0.114	0.019
-490.508	-104.609	-0.223	0.051
-489.493	-80.909	0.360	-0.119
-488.478	-200.000	-0.034	-0.319
-487.464	-13.089	-0.310	-0.201
-486.449	260.188	0.275	-0.475
-485.435	-52.289	0.043	-0.020
-484.420	-80.405	0.131	-0.044
-483.405	126.732	0.228	-0.289
-482.391	-67.762	-0.075	0.029
-481.376	0.659	-0.282	0.202
-480.362	671.626	0.058	-0.151
-479.347	-137.637	-0.208	-0.023
-478.332	800.000	-0.082	0.285
-477.318	-200.000	-0.062	0.281
-476.303	318.470	0.099	0.188
-475.289	31.631	-0.219	-0.188
-474.274	-48.720	0.063	-0.030
-473.259	520.539	0.146	-0.341
-472.245	241.452	0.072	-0.120
-471.230	-66.045	0.166	0.066
-470.216	-200.000	-0.007	0.138
-469.201	800.000	0.051	-0.155
-468.186	10.650	-0.103	0.078
-467.172	-108.814	-0.254	0.054
-466.157	-200.000	0.021	0.179
-465.143	-200.000	0.027	-0.172
-464.128	-149.881	0.146	-0.011
-463.113	-59.067	0.140	0.060
-462.099	-200.000	-0.052	0.270
-461.084	623.168	-0.076	0.192
-460.070	-179.897	-0.211	0.005
-459.055	-12.154	-0.210	0.137
-458.040	-24.681	0.089	-0.053
-457.026	-72.066	-0.180	-0.067
-456.011	-32.608	-0.167	0.093
-454.997	36.726	-0.152	-0.134
-453.982	-200.000	-0.019	-0.331
-452.968	72.284	-0.150	0.156
-451.953	800.000	-0.035	0.128
-450.938	238.480	0.089	0.147
-449.924	139.218	0.177	0.232
-448.909	-137.093	-0.036	0.004
-447.895	79.955	0.194	-0.208
-446.880	-200.000	0.019	0.205
-445.865	800.000	0.038	-0.154
-444.851	90.668	0.077	-0.086
-443.836	-106.583	-0.170	0.038
-442.822	232.105	-0.058	0.094
-441.807	-21.115	-0.186	0.114
-440.792	-43.680	0.158	0.080
-439.778	18.645	0.098	0.078
-438.763	-47.951	-0.450	-0.217
-437.749	-136.958	-0.259	-0.030
-436.734	10.656	0.294	0.223
-435.719	-114.597	-0.046	-0.009
-434.705	-90.655	-0.240	-0.069
-433.690	464.087	0.072	0.161
-432.676	44.609	0.243	-0.223
-431.661	-46.694	-0.134	0.066
-430.646	643.677	-0.111	-0.281
-429.632	311.564	0.146	-0.272
-428.617	-23.482	-0.057	-0.034
-427.603	-46.015	0.508	0.250
-426.588	-145.634	-0.395	0.035
-425.573	8.137	-0.283	-0.212
-424.559	-11.477	-0.130	-0.085
-423.544	-200.000	-0.021	-0.431
-422.530	-39.120	-0.111	-0.058
-421.515	90.388	-0.142	-0.158
-420.500	-112.658	0.264	0.052
-419.486	-42.860	0.248	0.125
-418.471	-200.000	0.045	0.276
-417.457	-91.217	-0.232	0.066
-416.442	-200.000	0.042	-0.214
-415.428	27.702	-0.129	-0.109
-414.413	51.617	0.289	-0.274
-413.398	77.788	-0.394	0.418
-412.384	800.000	0.121	-0.368
-411.369	45.320	0.080	-0.074
-410.355	-92.688	0.265	-0.074
-409.340	-51.551	-0.214	0.100
-408.325	-79.918	-0.336	0.112
-407.311	-165.995	-0.502	-0.021
-406.296	-85.173	0.166	0.052
-405.282	800.000	-0.051	-0.190
-404.267	800.000	-0.066	-0.195
-403.252	3.638	-0.143	0.104
-402.238	-40.419	-0.149	-0.077
-401.223	106.291	-0.138	0.163
-400.209	55.992	-0.202	0.195
-399.194	-104.824	0.243	0.056
-398.179	142.963	-0.244	0.322
-397.165	-31.365	-0.100	-0.056
-396.150	287.742	-0.114	-0.206
-395.136	-81.210	0.092	0.030
-394.121	227.434	0.049	0.079
-393.106	105.561	-0.164	0.193
-392.092	95.348	-0.054	0.061
-391.077	68.770	-0.070	0.072
-390.063	296.406	-0.285	0.521
-389.048	103.018	-0.234	0.273
-388.033	508.550	0.043	0.099
-387.019	69.092	-0.270	0.276
-386.004	800.000	0.091	0.308
-384.990	-200.000	0.012	-0.229
-383.975	800.000	-0.075	0.259
-382.960	-180.250	0.131	0.003
-381.946	752.737	0.041	0.110
-380.931	800.000	0.029	-0.120
-379.917	83.248	-0.169	0.183
-378.902	-52.439	0.100	0.046
-377.888	-66.905	-0.226	-0.089
-376.873	-9.550	0.208	0.138
-375.858	-62.494	0.126	-0.052
-374.844	-120.742	-0.108	-0.018
-373.829	-71.132	0.131	0.049
-372.815	-25.714	-0.270	-0.158
-371.800	-174.306	0.067	0.002
-370.785	800.000	-0.091	0.375
-369.771	65.891	0.047	-0.047
-368.756	-200.000	-0.014	-0.080
-367.742	-200.000	-0.015	0.163
-366.727	369.296	0.177	-0.356
-365.712	-200.000	-0.037	-0.214
-364.698	223.828	0.302	-0.484
-363.683	465.961	0.178	-0.396
-362.669	-130.870	0.107	0.014
-361.654	168.771	-0.139	0.197
-360.639	-200.000	-0.000	-0.104
-359.625	800.000	0.077	-0.266
-358.610	-124.668	0.211	-0.032
-357.596	-200.000	-0.026	0.152
-356.581	-200.000	-0.002	-0.339
-355.566	551.863	0.032	-0.075
-354.552	-47.214	0.040	-0.019
-353.537	-83.340	-0.033	0.010
-352.523	-158.348	-0.173	0.010
-351.508	-114.767	0.103	0.020
-350.493	89.331	0.144	-0.159
-349.479	-200.000	-0.013	-0.102
-348.464	54.714	-0.039	0.037
-347.450	800.000	-0.105	0.441
-346.435	-200.000	-0.007	0.053
-345.420	159.860	-0.054	-0.075
-344.406	800.000	0.075	-0.211
-343.391	361.522	0.017	-0.033
-342.377	-101.339	-0.586	0.142
-341.362	1.119	-0.164	0.117
-340.348	114.636	0.111	0.135
-339.333	800.000	0.059	-0.177
-338.318	356.133	0.060	0.119
-337.304	2.261	-0.123	-0.088
-336.289	-141.276	0.157	-0.016
-335.275	486.060	-0.088	0.199
-334.260	-200.000	0.032	-0.319
-333.245	365.572	-0.057	-0.113
-332.231	194.540	-0.034	-0.051
-331.216	210.968	-0.140	0.219
-330.202	51.467	0.189	0.178
-329.187	148.889	-0.160	-0.214
-328.172	-17.301	0.271	0.169
-327.158	101.568	0.084	-0.097
-326.143	-115.735	0.153	-0.028
-325.129	73.222	0.084	0.087
-324.114	-200.000	0.033	0.189
-323.099	42.493	-0.050	-0.045
-322.085	46.237	-0.044	-0.040
-321.070	-200.000	0.016	-0.372
-320.056	-139.605	0.352	-0.037
-319.041	-200.000	0.031	0.228
-318.026	-200.000	0.004	0.160
-317.012	169.273	-0.239	-0.339
-315.997	215.494	0.063	0.100
-314.983	189.343	0.081	0.121
-313.968	-200.000	-0.011	-0.106
-312.953	33.729	0.150	0.129
-311.939	-0.021	-0.062	0.044
-310.924	32.877	0.053	-0.046
-309.910	-200.000	0.042	-0.220
-308.895	-88.543	-0.225	0.067
-307.880	580.726	0.058	-0.141
-306.866	800.000	0.104	0.334
-305.851	138.647	-0.049	0.064
-304.837	-102.509	0.276	-0.065
-303.822	-22.329	0.101	-0.061
-302.807	-4.750	0.160	-0.110
-301.793	-126.830	-0.258	-0.038
-300.778	-9.008	-0.316	0.210
-299.764	43.232	0.207	0.188
-298.749	800.000	0.042	-0.164
-297.735	82.135	0.137	-0.147
-296.720	-7.475	0.255	-0.171
-295.705	800.000	-0.056	-0.228
-294.691	800.000	-0.088	-0.315
-293.676	-200.000	0.030	-0.271
-292.662	-13.490	-0.151	0.097
-291.647	119.246	-0.171	0.210
-290.632	-9.864	-0.193	-0.127
-289.618	-41.366	-0.185	-0.094
-288.603	-82.232	-0.317	-0.102
-287.589	-31.947	-0.212	0.117
-286.574	66.009	0.239	0.240
-285.559	213.005	-0.050	-0.078
-284.545	14.628	-0.079	0.061
-283.530	-107.740	0.310	-0.067
-282.516	-10.617	-0.155	0.101
-281.501	-42.704	0.111	0.056
-280.486	51.402	0.107	-0.101
-279.472	800.000	0.066	-0.228
-278.457	-65.726	-0.290	0.115
-277.443	-200.000	0.018	0.379
-276.428	-146.943	0.098	0.008
-275.413	372.002	0.144	0.290
-274.399	-200.000	0.033	-0.192
-273.384	-200.000	0.016	0.233
-272.370	-107.922	0.148	0.032
-271.355	-102.612	-0.172	-0.041
-270.340	-44.368	-0.231	0.114
-269.326	-200.000	-0.007	0.236
-268.311	-112.465	-0.184	0.036
-267.297	87.309	0.104	0.114
-266.282	309.020	0.090	-0.167
-265.267	324.657	-0.085	0.161
-264.253	800.000	-0.030	0.118
-263.238	-95.315	0.456	-0.121
-262.224	800.000	0.039	-0.154
-261.209	-5.814	0.220	0.149
-260.195	184.948	0.263	-0.386
-259.180	60.508	-0.207	-0.203
-258.165	-125.782	0.236	-0.035
-257.151	800.000	0.045	-0.170
-256.136	-141.097	0.122	-0.012
-255.122	-140.950	0.179	-0.018
-254.107	55.627	-0.059	-0.057
-253.092	-200.000	0.007	0.123
-252.078	27.852	0.310	-0.258
-251.063	552.416	0.105	0.250
-250.049	800.000	0.154	0.426
-249.034	304.823	0.047	-0.087
-248.019	-200.000	-0.025	0.182
-247.005	-200.000	0.053	-0.280
-245.990	-29.170	0.161	0.091
-244.976	46.522	-0.320	-0.294
-243.961	-190.901	0.242	0.003
-242.946	-150.082	0.129	-0.010
-241.932	311.927	0.144	-0.268
-240.917	635.534	-0.053	0.134
-239.903	800.000	-0.094	-0.379
-238.888	-65.327	-0.335	-0.133
-237.873	204.843	-0.012	-0.019
-236.859	188.556	0.207	0.306
-235.844	550.544	-0.103	0.245
-234.830	55.855	0.138	-0.132
-233.815	-148.305	-0.217	-0.018
-232.800	288.267	0.069	-0.123
-231.786	-6.054	-0.038	-0.026
-230.771	-38.098	0.295	0.155
-229.757	4.779	0.077	0.056
-228.742	-136.744	-0.216	-0.025
-227.727	-87.270	-0.250	0.075
-226.713	148.595	-0.041	-0.055
-225.698	100.761	0.112	-0.129
-224.684	800.000	-0.044	0.137
-223.669	219.180	0.236	-0.372
-222.655	81.058	0.199	-0.212
-221.640	800.000	0.069	0.262
-220.625	97.629	0.257	0.292
-219.611	-72.323	-0.413	0.151
-218.596	800.000	0.049	-0.155
-217.582	800.000	0.085	-0.263
-216.567	-117.406	-0.078	0.014
-215.552	-19.450	-0.181	0.111
-214.538	514.268	0.020	0.046
-213.523	-117.397	-0.178	-0.032
-212.509	-200.000	0.054	0.421
-211.494	-28.489	-0.294	0.167
-210.479	-116.472	0.338	0.062
-209.465	-200.000	0.001	0.117
-208.450	-24.925	0.153	-0.089
-207.436	309.901	0.248	0.459
-206.421	800.000	0.028	0.096
-205.406	413.071	0.200	-0.420
-204.392	81.826	0.179	-0.192
-203.377	-65.889	-0.383	-0.151
-202.363	505.509	0.109	0.249
-201.348	61.546	0.260	0.255
-200.333	101.391	-0.216	0.249
-199.319	-41.284	0.200	0.102
-198.304	-200.000	0.089	0.410
-197.290	77.131	-0.248	0.260
-196.275	800.000	-0.060	0.245
-195.260	81.259	-0.086	0.091
-194.246	-200.000	0.050	-0.259
-193.231	-103.926	-0.299	-0.069
-192.217	336.799	0.110	-0.210
-191.202	370.649	-0.110	0.221
-190.187	213.473	0.130	0.203
-189.173	-20.272	-0.307	0.186
-188.158	30.732	-0.091	-0.077
-187.144	39.587	0.194	-0.172
-186.129	800.000	-0.090	0.276
-185.114	-116.130	-0.030	0.005
-184.100	-119.238	-0.217	-0.037
-183.085	124.673	-0.055	0.069
-182.071	417.118	0.138	0.292
-181.056	195.843	-0.109	0.163
-180.042	12.796	0.069	-0.053
-179.027	800.000	0.045	-0.176
-178.012	44.231	0.132	0.120
-176.998	-125.330	0.201	-0.030
-175.983	-200.000	0.029	-0.181
-174.969	-103.859	0.062	0.014
-173.954	-92.963	0.100	-0.027
-172.939	9.083	-0.107	-0.080
-171.925	800.000	0.029	-0.112
-170.910	760.882	0.066	-0.177
-169.896	-88.087	-0.089	-0.026
-168.881	409.728	0.089	-0.187
-167.866	-34.071	-0.180	0.097
-166.852	-178.471	0.072	-0.002
-165.837	-135.816	0.122	-0.014
-164.823	-200.000	0.047	-0.319
-163.808	-91.158	0.145	-0.041
-162.793	-125.986	-0.104	-0.015
-161.779	-200.000	-0.053	0.256
-160.764	546.507	0.109	0.257
-159.750	-200.000	-0.021	-0.269
-158.735	-200.000	0.033	0.235
-157.720	800.000	-0.064	0.232
-156.706	-152.788	0.170	0.012
-155.691	-200.000	0.006	-0.154
-154.677	161.148	-0.098	0.135
-153.662	-112.011	-0.139	0.028
-152.647	-200.000	-0.009	-0.392
-151.633	380.993	-0.182	0.368
-150.618	183.391	0.061	-0.088
-149.604	-200.000	0.023	0.330
-148.589	74.633	0.135	-0.140
-147.574	22.486	0.182	-0.147
-146.560	295.086	-0.109	-0.197
-145.545	-200.000	0.127	0.000
-144.531	800.000	-0.030	-0.095
-143.516	-158.634	-0.179	0.010
-142.502	26.119	-0.154	0.127
-141.487	800.000	-0.040	0.146
-140.472	225.112	0.025	0.039
-139.458	109.785	-0.046	0.054
-138.443	800.000	-0.163	0.612
-137.429	-200.000	-0.003	0.175
-136.414	243.910	0.043	0.072
-135.399	-85.555	0.342	-0.105
-134.385	3.708	-0.190	-0.137
-133.370	318.433	-0.046	-0.086
-132.356	14.300	-0.103	-0.079
-131.341	428.022	0.083	-0.177
-130.326	16.972	-0.204	0.159
-129.312	57.731	-0.123	-0.119
-128.297	-45.382	-0.286	-0.140
-127.283	529.550	-0.117	0.272
-126.268	-127.944	0.108	0.015
-125.253	39.872	0.117	-0.103
-124.239	-28.060	-0.489	0.278
-123.224	-200.000	0.055	0.341
-122.210	-200.000	-0.055	0.308
-121.195	-16.322	-0.042	0.026
