DTS Sentinel unit serial number:	SN413079Multiplexer serial number:	ORYXHardware model number:	OX4-SRSoftware version number:	ORYX F/W v4.00 Oryx Data Collector v3.7.2.0data status	okinstallation	princeton_trtdifferential loss correction	single-endedforward channel	channel 1reverse channel	N/Adate	2019/09/10time	18:12:11forward acquisition time	60.00reverse acquisition time	0.00gamma	496.2192k internal	0.2303k external	0.2303temperature offset calibration	0.9933default loss term (dB/km)	0.3790temperature slope calibration	1.0000multiplexer offset coefficient	1.0000multiplexer slope coefficient	1.0000fibre end	0.00T internal ref (°C)	36.66T ext. ref 1 (°C)	-0.32T ext. ref 2 (°C)	28.82length (m)	temperature (°C)	Stokes	anti-Stokes-747.200	81.015	0.124	0.136
-746.185	800.000	-0.200	0.586
-745.171	-59.886	-0.136	-0.059
-744.156	-8.140	-0.073	0.050
-743.142	376.096	0.043	-0.090
-742.127	-200.000	-0.015	0.245
-741.112	-81.096	-0.191	0.064
-740.098	-24.585	0.243	0.147
-739.083	-200.000	-0.003	-0.313
-738.069	-200.000	-0.004	0.244
-737.054	-120.645	-0.407	-0.070
-736.039	-47.624	-0.206	-0.102
-735.025	33.072	-0.100	0.088
-734.010	-200.000	-0.027	-0.260
-732.996	220.164	-0.107	-0.174
-731.981	151.315	-0.107	0.148
-730.966	-74.848	-0.142	0.052
-729.952	-75.890	0.182	-0.066
-728.937	-70.986	-0.262	-0.101
-727.923	-141.004	-0.252	0.026
-726.908	-155.679	-0.383	-0.025
-725.894	16.182	-0.113	0.091
-724.879	414.467	0.055	-0.119
-723.864	-200.000	0.034	0.500
-722.850	-200.000	-0.040	0.284
-721.835	262.845	0.094	-0.166
-720.821	151.922	-0.046	-0.064
-719.806	-160.926	-0.356	-0.019
-718.791	-93.571	-0.244	0.069
-717.777	-200.000	0.039	-0.174
-716.762	-76.715	0.201	0.072
-715.748	-85.939	0.174	-0.055
-714.733	440.740	0.090	-0.201
-713.718	22.753	-0.230	-0.192
-712.704	381.752	0.082	-0.172
-711.689	46.124	-0.011	-0.011
-710.675	118.302	-0.103	0.129
-709.660	180.123	0.138	-0.206
-708.645	-200.000	0.037	-0.270
-707.631	37.999	0.336	-0.304
-706.616	-200.000	-0.007	-0.349
-705.602	-17.045	0.150	0.096
-704.587	7.433	0.117	0.089
-703.572	13.259	-0.200	-0.157
-702.558	-200.000	0.012	-0.065
-701.543	-69.398	0.106	0.041
-700.529	-48.177	0.051	0.025
-699.514	-200.000	0.012	0.129
-698.499	119.013	0.229	-0.287
-697.485	-59.498	-0.251	0.110
-696.470	348.643	-0.128	0.257
-695.456	-200.000	-0.017	0.171
-694.441	15.360	0.277	0.221
-693.426	800.000	-0.064	0.257
-692.412	-200.000	0.004	0.165
-691.397	32.704	-0.242	0.213
-690.383	-87.790	0.239	0.073
-689.368	482.615	-0.027	0.062
-688.354	261.772	-0.137	-0.242
-687.339	-135.657	0.198	0.024
-686.324	-0.788	0.145	-0.104
-685.310	800.000	0.071	-0.292
-684.295	-200.000	-0.005	-0.323
-683.281	-149.015	0.255	-0.021
-682.266	34.508	-0.107	-0.095
-681.251	582.650	0.037	-0.093
-680.237	113.862	0.214	-0.264
-679.222	246.392	0.105	0.179
-678.208	-200.000	-0.016	0.265
-677.193	-200.000	0.001	-0.174
-676.178	-116.824	-0.158	-0.029
-675.164	-200.000	-0.007	-0.046
-674.149	77.506	-0.145	-0.157
-673.135	-200.000	0.014	-0.269
-672.120	-129.006	-0.288	-0.041
-671.105	800.000	-0.126	0.381
-670.091	208.061	0.111	-0.176
-669.076	72.688	-0.207	-0.219
-668.062	37.299	0.112	0.101
-667.047	-126.017	-0.512	0.078
-666.032	-1.743	0.206	-0.147
-665.018	-96.468	-0.129	-0.035
-664.003	-200.000	0.008	-0.139
-662.989	607.765	0.027	0.069
-661.974	333.434	-0.057	-0.112
-660.959	201.529	0.259	-0.406
-659.945	58.831	0.136	-0.136
-658.930	-152.145	-0.240	0.018
-657.916	-200.000	-0.035	0.294
-656.901	-10.881	-0.303	-0.203
-655.886	-129.199	0.195	0.028
-654.872	-200.000	0.033	-0.380
-653.857	-3.956	0.443	-0.312
-652.843	-104.416	-0.161	-0.038
-651.828	-74.965	-0.410	-0.149
-650.814	19.542	0.221	0.180
-649.799	243.879	-0.154	-0.261
-648.784	-125.650	0.275	-0.042
-647.770	129.701	0.133	0.173
-646.755	74.317	-0.173	0.185
-645.741	-200.000	-0.009	-0.327
-644.726	259.802	0.137	-0.241
-643.711	192.999	-0.139	0.214
-642.697	63.337	-0.070	0.071
-641.682	65.481	-0.082	0.084
-640.668	368.891	-0.111	0.227
-639.653	800.000	-0.114	0.335
-638.638	800.000	-0.094	-0.322
-637.624	272.235	-0.068	0.121
-636.609	-73.702	-0.504	-0.186
-635.595	434.833	0.110	0.242
-634.580	-200.000	-0.002	-0.142
-633.565	314.718	-0.118	0.226
-632.551	-200.000	0.028	0.343
-631.536	-200.000	0.005	-0.067
-630.522	53.700	-0.145	0.142
-629.507	529.107	0.146	-0.350
-628.492	-99.515	0.005	-0.001
-627.478	-200.000	0.037	0.217
-626.463	466.184	-0.172	0.391
-625.449	-85.883	-0.102	0.032
-624.434	-56.847	-0.124	-0.056
-623.419	-28.253	-0.064	-0.038
-622.405	800.000	-0.049	0.193
-621.390	372.712	0.241	0.496
-620.376	-200.000	-0.001	0.471
-619.361	-200.000	0.064	-0.318
-618.346	-90.623	0.275	0.080
-617.332	-106.292	0.254	-0.058
-616.317	123.428	0.170	-0.216
-615.303	-31.400	-0.198	-0.113
-614.288	26.130	-0.159	-0.135
-613.273	-200.000	0.070	-0.314
-612.259	31.665	-0.146	-0.128
-611.244	29.171	-0.025	0.021
-610.230	-134.148	-0.461	-0.058
-609.215	-77.709	0.388	-0.136
-608.201	-106.467	0.216	-0.049
-607.186	582.729	-0.064	-0.160
-606.171	800.000	-0.037	0.152
-605.157	-69.500	-0.333	0.129
-604.142	-29.801	-0.111	-0.064
-603.128	-55.710	-0.139	-0.063
-602.113	-200.000	0.063	-0.306
-601.098	-100.973	-0.182	0.045
-600.084	295.818	-0.196	0.364
-599.069	-128.646	-0.076	0.011
-598.055	-71.950	-0.142	-0.054
-597.040	-67.714	-0.164	0.065
-596.025	5.511	0.093	0.069
-595.011	800.000	-0.103	-0.322
-593.996	18.623	-0.152	-0.123
-592.982	-200.000	-0.032	0.289
-591.967	20.475	0.213	0.175
-590.952	-48.858	0.166	0.080
-589.938	119.968	-0.214	-0.269
-588.923	-200.000	-0.025	-0.194
-587.909	800.000	0.056	0.208
-586.894	9.105	-0.176	0.135
-585.879	-200.000	0.021	-0.101
-584.865	-200.000	-0.037	-0.174
-583.850	-66.845	-0.102	-0.041
-582.836	-200.000	-0.018	-0.155
-581.821	-18.749	0.161	-0.101
-580.806	95.724	-0.175	-0.203
-579.792	-37.159	0.158	0.086
-578.777	-117.259	0.292	-0.054
-577.763	-103.597	-0.594	-0.141
-576.748	146.423	0.097	0.132
-575.733	-29.891	0.282	-0.163
-574.719	96.157	-0.019	-0.022
-573.704	567.799	-0.051	0.124
-572.690	-105.278	0.100	0.023
-571.675	-17.704	0.084	-0.053
-570.661	-9.021	0.291	0.197
-569.646	-200.000	-0.015	-0.134
-568.631	-200.000	-0.014	0.147
-567.617	-41.481	-0.381	0.198
-566.602	-60.224	-0.067	-0.029
-565.588	118.265	0.141	-0.176
-564.573	-93.193	0.183	-0.052
-563.558	270.867	0.133	0.237
-562.544	298.407	0.193	-0.360
-561.529	-124.489	0.260	0.041
-560.515	-101.246	-0.298	-0.074
-559.500	-83.973	-0.204	0.065
-558.485	586.576	-0.105	-0.262
-557.471	381.345	0.062	-0.129
-556.456	-200.000	0.056	-0.282
-555.442	-91.931	-0.147	0.042
-554.427	432.828	0.085	0.186
-553.412	800.000	-0.095	-0.401
-552.398	-47.096	-0.062	0.031
-551.383	574.425	0.036	-0.090
-550.369	-17.539	-0.141	0.089
-549.354	110.590	-0.081	-0.098
-548.339	-175.753	-0.188	-0.005
-547.325	-123.923	0.353	-0.056
-546.310	85.922	-0.043	0.048
-545.296	481.567	0.066	0.152
-544.281	406.894	0.110	0.234
-543.266	166.235	-0.143	-0.205
-542.252	96.457	-0.266	-0.307
-541.237	-52.394	0.259	-0.121
-540.223	368.812	0.093	-0.191
-539.208	-124.671	-0.233	0.037
-538.193	173.825	0.092	0.134
-537.179	-98.855	-0.077	0.020
-536.164	-152.761	0.170	-0.012
-535.150	-107.325	-0.490	-0.109
-534.135	109.718	-0.141	-0.171
-533.121	-161.299	-0.154	0.008
-532.106	800.000	0.050	-0.178
-531.091	-59.303	0.212	0.092
-530.077	-200.000	-0.043	0.270
-529.062	-122.554	0.322	0.053
-528.048	-200.000	0.040	-0.211
-527.033	-151.303	0.131	-0.010
-526.018	-121.589	0.324	-0.054
-525.004	-9.249	-0.269	0.181
-523.989	152.755	0.103	0.142
-522.975	-200.000	0.007	0.150
-521.960	57.351	0.094	-0.092
-520.945	32.073	-0.092	-0.080
-519.931	-82.847	-0.148	-0.048
-518.916	-15.410	0.407	-0.262
-517.902	-93.763	-0.193	-0.054
-516.887	242.061	0.100	0.169
-515.872	800.000	0.050	0.214
-514.858	-51.274	-0.180	0.085
-513.843	-33.964	0.271	-0.151
-512.829	32.455	0.198	-0.172
-511.814	416.370	-0.089	0.191
-510.799	-30.068	-0.094	0.054
-509.785	0.432	0.274	0.198
-508.770	205.212	0.067	-0.104
-507.756	800.000	-0.028	0.114
-506.741	223.588	-0.045	-0.073
-505.726	-31.616	0.366	0.208
-504.712	-39.509	-0.296	0.156
-503.697	-60.073	-0.155	-0.067
-502.683	103.949	0.099	-0.117
-501.668	7.339	-0.107	0.081
-500.653	-39.788	-0.379	0.200
-499.639	-200.000	-0.044	-0.445
-498.624	-85.682	-0.033	-0.010
-497.610	800.000	0.043	0.150
-496.595	49.649	0.142	0.135
-495.581	-173.668	-0.180	0.005
-494.566	94.059	0.217	0.249
-493.551	-200.000	-0.008	-0.117
-492.537	-19.584	-0.211	0.132
-491.522	381.763	0.068	0.141
-490.508	54.734	0.117	-0.114
-489.493	36.853	0.170	-0.151
-488.478	104.237	-0.092	-0.109
-487.464	20.680	0.051	-0.041
-486.449	-200.000	0.015	-0.217
-485.435	516.012	0.107	0.252
-484.420	572.496	-0.007	-0.018
-483.405	544.974	-0.124	0.298
-482.391	-200.000	0.024	-0.146
-481.376	-64.586	0.235	0.096
-480.362	432.499	0.094	-0.206
-479.347	-200.000	-0.038	-0.225
-478.332	23.968	0.131	-0.109
-477.318	472.578	-0.173	-0.393
-476.303	222.563	0.155	-0.251
-475.289	24.624	0.284	-0.237
-474.274	800.000	-0.022	-0.093
-473.259	285.483	0.132	0.240
-472.245	310.070	0.142	-0.268
-471.230	-101.907	0.089	-0.022
-470.216	2.920	0.205	-0.150
-469.201	-23.544	-0.120	0.072
-468.186	-200.000	0.022	0.322
-467.172	-200.000	0.034	-0.195
-466.157	393.745	0.060	-0.126
-465.143	-88.260	0.462	0.139
-464.128	119.809	-0.174	0.217
-463.113	-103.244	0.046	0.011
-462.099	-32.135	-0.324	0.183
-461.084	-190.575	-0.199	0.002
-460.070	-12.955	-0.126	0.082
-459.055	2.523	-0.176	-0.128
-458.040	-200.000	0.041	-0.214
-457.026	-136.667	0.253	-0.029
-456.011	78.294	0.308	-0.331
-454.997	-154.428	-0.067	-0.005
-453.982	191.228	-0.111	-0.168
-452.968	-170.307	-0.166	0.006
-451.953	800.000	-0.028	-0.085
-450.938	106.305	-0.320	-0.382
-449.924	-166.486	-0.489	-0.021
-448.909	337.781	-0.093	-0.182
-447.895	463.550	0.106	-0.239
-446.880	-83.026	0.126	0.041
-445.865	-68.895	0.345	0.134
-444.851	600.125	-0.096	-0.240
-443.836	-43.863	0.120	0.061
-442.822	-18.333	-0.125	-0.078
-441.807	13.917	0.229	0.179
-440.792	-110.367	0.402	0.084
-439.778	-104.991	-0.076	0.018
-438.763	-200.000	-0.033	-0.186
-437.749	-200.000	-0.009	0.160
-436.734	-162.934	-0.150	0.007
-435.719	-57.579	-0.123	0.054
-434.705	-137.027	0.280	-0.032
-433.690	800.000	-0.017	0.060
-432.676	-102.143	-0.202	0.049
-431.661	-69.980	-0.076	0.029
-430.646	47.608	0.053	0.049
-429.632	800.000	0.057	0.183
-428.617	800.000	-0.041	0.134
-427.603	-200.000	0.051	0.263
-426.588	341.056	0.108	-0.211
-425.573	780.212	0.086	0.236
-424.559	-120.918	0.076	0.013
-423.544	144.373	0.108	-0.145
-422.530	67.572	0.293	-0.301
-421.515	800.000	-0.102	-0.328
-420.500	-200.000	-0.018	-0.114
-419.486	-173.962	-0.257	0.008
-418.471	-74.057	-0.180	-0.066
-417.457	-117.606	-0.268	-0.049
-416.442	-198.343	0.193	0.001
-415.428	800.000	0.041	-0.136
-414.413	459.895	0.103	-0.232
-413.398	800.000	-0.162	0.482
-412.384	-19.625	0.419	0.261
-411.369	731.825	-0.064	0.173
-410.355	138.877	-0.203	-0.269
-409.340	581.607	0.119	-0.292
-408.325	495.085	0.225	0.519
-407.311	177.361	0.138	-0.202
-406.296	200.158	-0.069	-0.106
-405.282	-47.850	0.037	-0.018
-404.267	-164.526	-0.148	0.007
-403.252	-129.662	-0.043	-0.006
-402.238	186.276	-0.187	0.280
-401.223	99.704	0.144	-0.167
-400.209	-95.430	-0.305	-0.082
-399.194	-2.466	0.092	-0.065
-398.179	-117.193	0.316	-0.058
-397.165	-77.648	0.163	-0.057
-396.150	-93.147	0.124	0.035
-395.136	196.223	0.178	-0.272
-394.121	-126.315	0.284	-0.043
-393.106	-15.625	-0.273	-0.175
-392.092	-5.978	-0.247	-0.170
-391.077	-159.751	0.250	0.014
-390.063	-200.000	-0.024	0.179
-389.048	263.625	-0.036	0.062
-388.033	119.401	0.056	-0.069
-387.019	102.368	0.093	-0.110
-386.004	-167.059	-0.270	-0.011
-384.990	-200.000	0.008	0.409
-383.975	128.653	0.069	-0.089
-382.960	259.092	0.230	-0.399
-381.946	19.699	-0.166	-0.134
-380.931	-200.000	-0.038	-0.429
-379.917	300.699	-0.178	-0.330
-378.902	-55.679	-0.264	0.119
-377.888	44.447	-0.211	-0.195
-376.873	-44.151	-0.461	0.233
-375.858	-25.358	0.067	-0.040
-374.844	2.155	0.215	-0.156
-373.829	-22.668	-0.216	0.131
-372.815	66.803	0.165	0.168
-371.800	-200.000	0.005	0.097
-370.785	-200.000	0.016	0.533
-369.771	40.889	-0.272	0.246
-368.756	-66.093	0.168	-0.067
-367.742	11.899	-0.168	0.130
-366.727	-200.000	0.034	0.189
-365.712	11.536	0.182	0.140
-364.698	-56.680	0.232	0.103
-363.683	-168.239	0.082	0.003
-362.669	289.850	-0.005	-0.008
-361.654	-12.605	-0.179	-0.117
-360.639	-49.182	0.196	-0.094
-359.625	20.986	0.017	0.013
-358.610	-35.668	-0.179	0.098
-357.596	135.902	-0.155	-0.203
-356.581	800.000	0.079	-0.309
-355.566	-200.000	0.008	-0.164
-354.552	18.044	0.080	-0.064
-353.537	-14.982	-0.232	-0.149
-352.523	151.253	-0.101	0.138
-351.508	-6.157	0.337	0.231
-350.493	98.766	-0.268	-0.310
-349.479	218.307	-0.095	-0.152
-348.464	22.150	0.204	-0.167
-347.450	-30.639	0.294	-0.167
-346.435	-200.000	0.001	0.148
-345.420	-200.000	-0.014	0.125
-344.406	-200.000	-0.004	0.091
-343.391	120.041	0.059	-0.074
-342.377	20.356	0.113	0.092
-341.362	-200.000	-0.000	0.024
-340.348	-200.000	-0.002	-0.328
-339.333	-17.569	0.140	0.089
-338.318	-44.638	0.238	0.119
-337.304	46.233	-0.239	-0.222
-336.289	320.232	0.090	0.171
-335.275	-37.847	-0.166	-0.088
-334.260	153.846	-0.245	-0.337
-333.245	192.737	-0.084	0.127
-332.231	3.879	-0.182	0.133
-331.216	-200.000	0.037	0.166
-330.202	-83.988	-0.339	0.108
-329.187	78.335	-0.128	0.137
-328.172	126.803	-0.076	-0.097
-327.158	-156.004	-0.307	0.020
-326.143	42.511	-0.190	0.173
-325.129	-10.563	-0.193	-0.128
-324.114	-200.000	0.011	0.134
-323.099	-200.000	0.016	-0.173
-322.085	-158.667	0.151	-0.009
-321.070	-101.940	-0.345	0.083
-320.056	-98.593	-0.163	-0.042
-319.041	-29.135	-0.252	0.145
-318.026	139.634	0.081	-0.106
-317.012	52.495	0.159	0.152
-315.997	259.313	0.067	0.117
-314.983	9.431	0.183	0.138
-313.968	-200.000	0.020	0.150
-312.953	-108.942	-0.063	-0.014
-311.939	-171.611	-0.123	0.004
-310.924	-12.695	-0.247	-0.161
-309.910	-200.000	0.040	0.287
-308.895	586.394	-0.038	0.093
-307.880	-192.349	-0.324	-0.003
-306.866	269.127	0.046	0.082
-305.851	800.000	0.111	0.364
-304.837	707.212	-0.116	0.308
-303.822	-112.661	0.246	0.049
-302.807	-109.801	0.235	-0.049
-301.793	291.658	-0.090	0.164
-300.778	-135.372	0.051	-0.006
-299.764	715.507	0.037	0.098
-298.749	800.000	0.120	-0.398
-297.735	81.163	0.167	0.181
-296.720	-82.200	-0.070	0.023
-295.705	139.406	0.126	0.166
-294.691	280.507	-0.111	0.198
-293.676	-170.146	0.082	-0.003
-292.662	-114.285	-0.315	-0.061
-291.647	141.801	-0.159	0.211
-290.632	-30.184	-0.075	0.043
-289.618	14.966	-0.251	-0.197
-288.603	287.360	-0.014	0.025
-287.589	-74.182	0.189	-0.068
-286.574	10.611	-0.062	-0.047
-285.559	-161.729	-0.167	0.009
-284.545	-103.048	0.392	0.093
-283.530	800.000	-0.133	-0.370
-282.516	800.000	0.032	-0.132
-281.501	-200.000	0.039	-0.181
-280.486	-103.660	-0.182	0.043
-279.472	-200.000	-0.004	-0.365
-278.457	-140.649	-0.206	0.021
-277.443	14.657	0.163	0.127
-276.428	800.000	0.053	0.220
-275.413	146.276	0.212	0.284
-274.399	-200.000	0.017	0.246
-273.384	393.147	-0.064	0.134
-272.370	-126.797	0.065	0.010
-271.355	41.332	0.044	0.040
-270.340	-143.813	0.490	-0.046
-269.326	-43.249	-0.099	-0.050
-268.311	-200.000	0.009	-0.137
-267.297	-43.809	-0.078	0.039
-266.282	-109.220	-0.222	0.047
-265.267	-200.000	-0.013	-0.115
-264.253	29.889	-0.168	-0.143
-263.238	126.013	-0.130	-0.165
-262.224	800.000	-0.046	-0.146
-261.209	704.208	0.056	-0.147
-260.195	224.819	0.121	0.196
-259.180	-200.000	-0.028	-0.172
-258.165	-45.229	-0.294	-0.146
-257.151	121.467	0.098	0.122
-256.136	-104.273	0.241	-0.056
-255.122	-151.579	0.286	0.021
-254.107	-29.736	0.300	0.171
-253.092	-34.774	0.127	0.069
-252.078	-105.674	0.232	-0.052
-251.063	800.000	-0.057	0.181
-250.049	247.429	-0.067	-0.113
-249.034	-97.215	0.070	0.018
-248.019	-90.299	0.376	-0.109
-247.005	-200.000	0.022	0.206
-245.990	-200.000	-0.000	0.153
-244.976	-200.000	0.005	-0.073
-243.961	315.022	0.084	0.157
-242.946	-35.352	0.061	-0.033
-241.932	4.776	-0.194	0.142
-240.917	-30.131	0.044	0.025
-239.903	-106.148	0.159	-0.036
-238.888	431.674	0.160	-0.347
-237.873	-22.744	-0.125	0.076
-236.859	-111.817	0.073	0.015
-235.844	288.383	-0.047	0.085
-234.830	334.283	0.119	0.229
-233.815	-148.892	0.120	-0.010
-232.800	-72.418	0.205	-0.076
-231.786	412.831	0.098	0.208
-230.771	-200.000	-0.010	0.247
-229.757	289.605	0.045	0.081
-228.742	229.781	0.141	-0.230
-227.727	-49.630	-0.286	-0.136
-226.713	437.602	0.128	0.278
-225.698	800.000	0.016	0.053
-224.684	-49.769	0.073	0.035
-223.669	351.041	-0.029	0.058
-222.655	73.018	0.144	-0.150
-221.640	-74.268	0.231	0.083
-220.625	-96.818	-0.241	-0.063
-219.611	-200.000	-0.022	-0.158
-218.596	-53.731	0.070	-0.032
-217.582	-45.951	0.052	-0.026
-216.567	130.063	-0.086	-0.110
-215.552	109.420	0.198	-0.236
-214.538	101.641	-0.169	-0.197
-213.523	-200.000	-0.021	0.249
-212.509	-169.362	-0.262	-0.010
-211.494	-29.848	-0.164	0.094
-210.479	-200.000	0.043	-0.217
-209.465	-200.000	-0.097	-0.000
-208.450	-42.292	0.223	-0.113
-207.436	175.741	0.157	0.227
-206.421	800.000	0.040	-0.113
-205.406	182.381	0.050	-0.074
-204.392	-148.335	-0.471	0.039
-203.377	246.857	0.167	0.281
-202.363	-105.722	-0.161	0.036
-201.348	-200.000	-0.006	-0.238
-200.333	-200.000	-0.010	0.167
-199.319	-200.000	0.000	-0.147
-198.304	-93.891	0.038	-0.010
-197.290	-99.997	0.306	0.076
-196.275	-110.432	-0.168	0.035
-195.260	-0.034	-0.124	-0.088
-194.246	-12.383	0.293	0.191
-193.231	-30.290	0.306	0.173
-192.217	-117.036	0.135	0.025
-191.202	-174.637	-0.468	-0.013
-190.187	157.035	0.189	-0.260
-189.173	42.186	-0.156	0.141
-188.158	72.956	-0.059	-0.062
-187.144	-200.000	0.034	0.257
-186.129	243.912	0.093	-0.155
-185.114	112.650	-0.165	0.199
-184.100	75.525	-0.356	0.374
-183.085	-4.681	-0.225	0.155
-182.071	-96.930	-0.276	0.072
-181.056	-2.201	-0.184	-0.129
-180.042	-102.015	0.163	-0.039
-179.027	8.629	0.173	-0.130
-178.012	-74.284	-0.142	-0.051
-176.998	278.796	0.039	0.070
-175.983	10.634	0.125	-0.095
-174.969	800.000	-0.041	-0.177
-173.954	558.215	0.155	0.372
-172.939	-200.000	0.005	0.233
-171.925	-200.000	0.011	0.056
-170.910	800.000	0.054	-0.219
-169.896	147.061	-0.117	0.156
-168.881	-200.000	-0.064	0.288
-167.866	38.589	0.256	-0.227
-166.852	90.828	0.116	0.130
-165.837	8.725	0.133	0.100
-164.823	1.654	-0.111	0.079
-163.808	-131.655	0.156	-0.020
-162.793	237.495	0.079	0.131
-161.779	468.491	0.087	0.194
-160.764	-68.142	0.201	0.078
-159.750	-93.370	0.045	0.012
-158.735	800.000	-0.100	0.312
-157.720	759.230	-0.085	0.229
-156.706	-200.000	0.003	-0.225
-155.691	-200.000	-0.006	-0.155
-154.677	490.950	0.084	0.192
-153.662	71.192	0.163	0.168
-152.647	434.726	0.034	-0.074
-151.633	325.667	-0.043	-0.081
-150.618	-132.294	-0.163	0.021
-149.604	-22.679	-0.141	-0.085
-148.589	164.997	-0.070	-0.098
-147.574	361.940	-0.226	-0.451
-146.560	-200.000	-0.010	0.067
-145.545	-61.596	-0.081	0.034
-144.531	50.251	0.123	0.116
-143.516	-63.631	0.244	0.100
-142.502	800.000	-0.029	0.121
-141.487	-200.000	0.019	0.141
-140.472	198.981	0.053	0.081
-139.458	42.923	0.193	-0.175
-138.443	-87.658	0.338	0.102
-137.429	-168.082	0.156	-0.006
-136.414	-142.345	-0.114	-0.011
-135.399	-12.724	0.078	0.050
-134.385	800.000	0.019	0.067
-133.370	-152.378	0.070	-0.005
-132.356	-163.768	0.052	-0.002
-131.341	-118.065	-0.083	0.015
-130.326	-177.758	-0.127	0.003
-129.312	2.030	-0.149	-0.107
-128.297	11.102	-0.126	-0.096
-127.283	-93.935	-0.336	0.092
-126.268	110.468	-0.272	-0.325
-125.253	77.824	-0.168	-0.178
-124.239	209.715	0.160	-0.249
-123.224	244.756	0.123	-0.205
-122.210	88.152	-0.053	-0.058
-121.195	-200.000	-0.030	0.301
