DTS Sentinel unit serial number:	SN413079Multiplexer serial number:	ORYXHardware model number:	OX4-SRSoftware version number:	ORYX F/W v4.00 Oryx Data Collector v3.7.2.0data status	okinstallation	princeton_trtdifferential loss correction	single-endedforward channel	channel 1reverse channel	N/Adate	2019/09/16time	23:18:35forward acquisition time	60.00reverse acquisition time	0.00gamma	496.2192k internal	0.2326k external	0.2326temperature offset calibration	0.9961default loss term (dB/km)	0.3790temperature slope calibration	1.0000multiplexer offset coefficient	1.0000multiplexer slope coefficient	1.0000fibre end	0.00T internal ref (°C)	30.06T ext. ref 1 (°C)	0.09T ext. ref 2 (°C)	23.70length (m)	temperature (°C)	Stokes	anti-Stokes-747.200	-196.864	0.136	0.001
-746.185	-200.000	-0.005	0.116
-745.171	216.938	0.105	0.169
-744.156	405.798	-0.070	0.150
-743.142	-137.755	0.072	0.008
-742.127	-67.438	0.249	-0.099
-741.112	517.659	0.060	0.142
-740.098	119.174	-0.128	0.160
-739.083	-9.848	0.119	-0.080
-738.069	84.133	-0.154	0.169
-737.054	-18.766	0.082	-0.052
-736.039	-164.901	-0.394	-0.018
-735.025	-108.109	0.341	0.074
-734.010	-200.000	-0.008	-0.244
-732.996	-98.199	-0.258	-0.067
-731.981	800.000	-0.061	-0.201
-730.966	-91.715	-0.118	-0.034
-729.952	-145.258	0.265	0.024
-728.937	-145.622	-0.472	0.043
-727.923	-200.000	0.411	0.002
-726.908	-200.000	-0.022	0.232
-725.894	-42.347	-0.295	-0.152
-724.879	-124.637	-0.296	-0.046
-723.864	-200.000	-0.051	-0.311
-722.850	40.471	-0.059	0.053
-721.835	143.255	-0.259	-0.348
-720.821	-200.000	-0.025	-0.115
-719.806	-200.000	0.024	-0.141
-718.791	-22.786	0.267	0.162
-717.777	-155.055	0.273	-0.018
-716.762	239.873	0.159	-0.267
-715.748	-43.383	-0.260	0.133
-714.733	20.573	-0.154	-0.125
-713.718	-17.620	0.252	-0.159
-712.704	328.238	0.111	-0.214
-711.689	120.663	0.180	0.225
-710.675	441.379	0.148	-0.327
-709.660	-165.239	-0.179	-0.008
-708.645	-200.000	0.024	0.232
-707.631	-81.820	0.184	0.061
-706.616	669.597	-0.130	-0.339
-705.602	-200.000	0.024	0.244
-704.587	-124.427	-0.234	0.037
-703.572	-66.363	0.195	-0.078
-702.558	557.895	-0.101	0.245
-701.543	-35.918	-0.269	-0.147
-700.529	-200.000	-0.001	0.347
-699.514	-118.998	0.157	-0.028
-698.499	108.615	-0.278	-0.334
-697.485	-38.190	-0.164	-0.087
-696.470	-180.197	-0.238	0.005
-695.456	2.093	-0.117	0.085
-694.441	59.412	-0.087	-0.087
-693.426	-60.082	0.247	0.106
-692.412	45.208	-0.100	0.093
-691.397	117.428	-0.148	-0.184
-690.383	-108.215	-0.391	0.085
-689.368	766.192	-0.039	-0.107
-688.354	-8.339	0.205	0.139
-687.339	7.043	-0.236	-0.177
-686.324	-200.000	-0.078	0.381
-685.310	49.608	0.130	-0.123
-684.295	200.977	-0.255	0.395
-683.281	113.669	-0.030	0.037
-682.266	-200.000	-0.030	-0.309
-681.251	-200.000	0.065	-0.306
-680.237	-102.486	-0.079	-0.019
-679.222	-200.000	-0.027	-0.179
-678.208	-128.660	-0.224	0.032
-677.193	-200.000	0.040	-0.419
-676.178	-172.627	0.253	-0.008
-675.164	5.472	0.207	-0.154
-674.149	-80.131	-0.254	-0.086
-673.135	-200.000	0.012	0.172
-672.120	-47.604	0.187	0.091
-671.105	-200.000	-0.036	0.313
-670.091	800.000	0.035	0.114
-669.076	94.635	0.160	0.183
-668.062	754.746	-0.046	0.126
-667.047	-145.513	0.193	0.017
-666.032	-10.102	-0.172	0.115
-665.018	-14.765	0.185	-0.119
-664.003	-144.141	-0.300	0.028
-662.989	217.319	0.166	-0.266
-661.974	73.732	-0.329	-0.347
-660.959	51.821	0.198	-0.190
-659.945	-200.000	0.005	-0.208
-658.930	-26.536	0.245	0.144
-657.916	-27.562	0.178	-0.104
-656.901	103.983	0.219	0.258
-655.886	341.709	0.196	-0.386
-654.872	65.719	-0.069	0.070
-653.857	94.157	-0.258	-0.294
-652.843	-153.281	0.398	0.028
-651.828	-25.624	-0.416	-0.247
-650.814	360.496	0.090	0.181
-649.799	-200.000	0.004	-0.138
-648.784	-200.000	0.040	-0.217
-647.770	60.202	0.129	0.128
-646.755	-200.000	0.006	-0.121
-645.741	329.904	-0.220	-0.425
-644.726	-47.243	0.162	0.079
-643.711	-52.186	-0.324	0.151
-642.697	88.299	0.160	0.179
-641.682	-75.328	-0.163	-0.058
-640.668	656.450	0.062	0.160
-639.653	130.862	0.121	0.156
-638.638	800.000	0.053	0.179
-637.624	242.266	-0.035	-0.059
-636.609	-200.000	-0.017	-0.258
-635.595	741.651	-0.021	0.055
-634.580	-200.000	0.006	-0.290
-633.565	43.512	0.342	0.314
-632.551	800.000	0.080	-0.240
-631.536	284.003	-0.087	-0.156
-630.522	443.186	0.108	-0.239
-629.507	800.000	0.054	-0.168
-628.492	-128.049	-0.325	0.047
-627.478	50.253	-0.232	0.220
-626.463	800.000	-0.048	0.209
-625.449	-200.000	0.054	-0.305
-624.434	800.000	0.038	-0.126
-623.419	800.000	-0.059	0.178
-622.405	-200.000	0.005	-0.147
-621.390	-34.420	-0.058	-0.032
-620.376	29.003	-0.054	-0.046
-619.361	-126.923	-0.342	-0.051
-618.346	263.869	0.249	-0.434
-617.332	-50.398	0.138	0.065
-616.317	22.340	0.246	-0.201
-615.303	800.000	0.116	-0.361
-614.288	-200.000	0.018	-0.313
-613.273	-200.000	0.009	-0.069
-612.259	-125.106	-0.191	-0.029
-611.244	-186.324	0.277	0.004
-610.230	-96.487	-0.105	-0.028
-609.215	-200.000	0.013	0.306
-608.201	8.657	0.245	-0.185
-607.186	-53.663	0.054	0.025
-606.171	30.515	0.237	0.203
-605.157	-200.000	-0.013	-0.083
-604.142	56.432	0.127	0.124
-603.128	69.295	-0.122	-0.126
-602.113	800.000	-0.138	-0.449
-601.098	316.225	0.064	0.121
-600.084	368.157	0.095	0.193
-599.069	-121.552	0.394	-0.066
-598.055	800.000	-0.075	0.237
-597.040	-24.945	0.078	-0.046
-596.025	-200.000	-0.015	0.209
-595.011	-152.047	-0.128	0.009
-593.996	-16.110	-0.071	0.045
-592.982	-168.880	-0.035	-0.001
-591.967	-148.818	0.111	-0.009
-590.952	-62.491	-0.211	-0.088
-589.938	193.633	0.040	0.061
-588.923	-3.122	-0.178	-0.124
-587.909	-107.287	0.125	-0.028
-586.894	-118.646	-0.205	0.036
-585.879	-90.417	-0.130	0.038
-584.865	-39.926	-0.177	0.093
-583.850	236.853	-0.100	-0.166
-582.836	441.816	-0.039	-0.085
-581.821	-200.000	-0.014	0.140
-580.806	800.000	-0.049	-0.165
-579.792	272.914	0.179	0.317
-578.777	140.053	0.200	-0.264
-577.763	800.000	-0.017	0.061
-576.748	-125.270	-0.176	-0.027
-575.733	374.176	-0.068	-0.139
-574.719	434.161	-0.126	0.273
-573.704	-200.000	-0.032	-0.215
-572.690	-200.000	-0.048	0.322
-571.675	-200.000	0.088	-0.603
-570.661	-200.000	-0.007	0.084
-569.646	-100.058	0.288	-0.072
-568.631	-147.851	0.195	0.016
-567.617	800.000	-0.022	-0.070
-566.602	-200.000	-0.037	-0.190
-565.588	-64.018	-0.155	0.063
-564.573	800.000	-0.060	-0.263
-563.558	87.721	-0.268	-0.297
-562.544	-200.000	0.015	-0.163
-561.529	34.914	-0.169	0.148
-560.515	-18.669	-0.360	0.225
-559.500	-200.000	-0.012	-0.369
-558.485	168.936	0.098	-0.139
-557.471	800.000	-0.084	0.337
-556.456	373.891	0.024	-0.049
-555.442	-200.000	-0.002	0.082
-554.427	-200.000	-0.026	0.149
-553.412	-37.534	0.190	-0.102
-552.398	145.661	0.123	0.165
-551.383	-7.203	-0.109	-0.074
-550.369	-70.180	-0.207	0.079
-549.354	76.542	0.068	0.072
-548.339	-71.575	0.433	0.162
-547.325	-67.436	-0.190	0.075
-546.310	-5.618	0.086	0.059
-545.296	-7.100	0.099	0.067
-544.281	18.860	0.285	0.228
-543.266	194.612	-0.112	0.171
-542.252	112.473	0.119	-0.144
-541.237	62.277	-0.187	0.187
-540.223	27.150	-0.094	-0.079
-539.208	800.000	0.026	-0.081
-538.193	218.773	0.148	0.237
-537.179	224.968	-0.110	0.178
-536.164	800.000	-0.053	0.167
-535.150	189.332	0.049	-0.074
-534.135	-43.817	0.276	0.139
-533.121	-12.408	0.127	-0.083
-532.106	-101.335	0.077	0.019
-531.091	-79.921	-0.257	-0.086
-530.077	-117.353	-0.284	0.051
-529.062	-36.886	0.171	0.092
-528.048	-115.498	-0.517	0.097
-527.033	-12.621	0.193	-0.126
-526.018	-197.309	-0.048	0.000
-525.004	45.664	0.067	0.062
-523.989	-12.500	-0.191	0.125
-522.975	-60.823	0.346	0.147
-521.960	189.454	-0.210	-0.315
-520.945	286.092	-0.121	0.218
-519.931	-121.942	0.085	0.014
-518.916	38.814	0.322	-0.288
-517.902	293.780	-0.152	0.277
-516.887	-200.000	-0.010	-0.148
-515.872	800.000	0.059	-0.244
-514.858	-140.878	0.026	0.003
-513.843	-87.487	-0.297	-0.090
-512.829	-56.812	-0.091	-0.040
-511.814	-78.564	-0.101	0.034
-510.799	-105.604	0.330	-0.075
-509.785	-64.310	-0.295	0.120
-508.770	19.960	0.096	-0.077
-507.756	150.226	-0.085	-0.115
-506.741	-82.786	-0.193	0.062
-505.726	-74.833	-0.081	0.029
-504.712	-118.668	0.121	0.021
-503.697	-46.889	-0.134	-0.065
-502.683	-200.000	0.069	0.310
-501.668	-76.618	-0.196	-0.069
-500.653	11.050	-0.190	0.145
-499.639	422.642	-0.098	0.210
-498.624	800.000	0.072	-0.201
-497.610	-73.320	0.271	0.099
-496.595	-149.440	0.105	0.008
-495.581	71.411	0.087	0.090
-494.566	-22.280	-0.202	-0.122
-493.551	257.079	0.146	-0.250
-492.537	-200.000	0.053	0.274
-491.522	11.281	-0.063	-0.049
-490.508	14.644	-0.115	-0.090
-489.493	-22.971	-0.014	-0.008
-488.478	220.304	-0.114	-0.182
-487.464	800.000	-0.040	-0.165
-486.449	86.234	0.106	-0.117
-485.435	800.000	0.046	0.147
-484.420	800.000	0.060	0.177
-483.405	44.753	0.261	-0.240
-482.391	-56.591	-0.155	-0.069
-481.376	-17.931	-0.046	0.029
-480.362	-88.214	-0.448	0.134
-479.347	533.071	-0.023	0.054
-478.332	-200.000	-0.024	-0.118
-477.318	62.456	-0.137	-0.136
-476.303	-200.000	-0.011	-0.113
-475.289	-124.778	0.308	-0.047
-474.274	92.305	0.414	0.466
-473.259	-64.300	-0.174	-0.071
-472.245	450.166	0.083	-0.183
-471.230	-200.000	0.011	-0.144
-470.216	-144.543	0.109	-0.010
-469.201	-154.011	0.127	-0.009
-468.186	-200.000	0.016	-0.174
-467.172	157.906	-0.149	-0.207
-466.157	-152.855	0.334	0.024
-465.143	86.021	0.347	-0.381
-464.128	159.956	-0.160	0.222
-463.113	-16.610	0.121	-0.076
-462.099	-179.602	0.275	0.006
-461.084	454.836	0.073	-0.162
-460.070	-200.000	0.000	0.157
-459.055	5.421	-0.185	-0.136
-458.040	18.375	-0.032	0.026
-457.026	599.512	-0.095	0.235
-456.011	-51.019	-0.175	0.082
-454.997	119.224	-0.113	-0.140
-453.982	-18.202	0.163	-0.102
-452.968	29.355	0.168	0.142
-451.953	-200.000	-0.066	0.375
-450.938	-46.154	-0.366	0.180
-449.924	-97.564	-0.257	-0.066
-448.909	395.968	-0.086	0.178
-447.895	-119.416	0.276	0.048
-446.880	-142.748	-0.459	-0.045
-445.865	227.386	-0.047	0.077
-444.851	107.956	0.262	-0.312
-443.836	123.044	-0.330	-0.412
-442.822	800.000	0.029	-0.086
-441.807	381.309	0.040	0.082
-440.792	212.278	0.204	-0.320
-439.778	571.374	-0.115	-0.279
-438.763	-126.204	0.154	0.023
-437.749	18.689	-0.143	0.114
-436.734	19.901	0.187	-0.150
-435.719	28.648	0.104	-0.088
-434.705	-190.661	0.182	0.002
-433.690	213.420	-0.079	-0.124
-432.676	-79.299	-0.326	-0.110
-431.661	79.451	-0.204	0.218
-430.646	-78.682	0.139	0.047
-429.632	16.050	0.162	-0.127
-428.617	176.336	0.033	-0.048
-427.603	-49.859	-0.383	0.181
-426.588	253.288	-0.115	0.195
-425.573	800.000	0.074	0.251
-424.559	38.546	0.063	0.056
-423.544	-123.968	-0.309	-0.048
-422.530	644.006	-0.047	-0.120
-421.515	-115.678	-0.202	-0.038
-420.500	-200.000	-0.075	-0.336
-419.486	26.670	0.082	-0.068
-418.471	-87.708	-0.285	0.086
-417.457	-72.664	0.278	0.102
-416.442	-137.684	-0.529	0.059
-415.428	-200.000	0.013	0.236
-414.413	-134.481	0.226	-0.028
-413.398	327.856	-0.100	0.191
-412.384	-123.686	-0.142	0.022
-411.369	70.011	-0.133	0.136
-410.355	-82.582	0.279	-0.090
-409.340	-126.609	-0.321	0.047
-408.325	800.000	0.065	-0.196
-407.311	-200.000	0.059	-0.379
-406.296	-115.491	0.195	-0.036
-405.282	178.190	-0.117	-0.170
-404.267	-106.250	0.227	0.051
-403.252	219.501	-0.035	0.055
-402.238	0.320	0.194	-0.138
-401.223	157.476	-0.154	0.212
-400.209	481.308	-0.205	-0.464
-399.194	800.000	-0.027	0.113
-398.179	-86.992	0.068	0.021
-397.165	-146.675	-0.121	0.010
-396.150	-200.000	-0.005	-0.058
-395.136	7.846	-0.078	0.058
-394.121	229.975	-0.183	0.297
-393.106	-200.000	-0.057	0.335
-392.092	-20.084	-0.266	0.163
-391.077	-29.640	0.068	0.038
-390.063	677.265	-0.032	-0.082
-389.048	-93.366	0.263	-0.073
-388.033	-123.865	0.153	0.024
-387.019	-55.628	-0.167	0.074
-386.004	-200.000	-0.049	-0.219
-384.990	-200.000	-0.031	-0.239
-383.975	276.111	-0.189	-0.334
-382.960	-78.079	-0.249	-0.085
-381.946	-1.496	0.080	0.056
-380.931	208.884	-0.087	0.135
-379.917	-200.000	-0.036	-0.300
-378.902	63.277	-0.044	-0.044
-377.888	8.728	0.135	-0.101
-376.873	482.160	-0.033	-0.076
-375.858	-200.000	-0.009	0.233
-374.844	-44.178	0.182	0.091
-373.829	-200.000	-0.055	0.336
-372.815	5.245	0.188	-0.138
-371.800	233.661	-0.078	0.128
-370.785	-122.989	-0.059	-0.009
-369.771	71.189	0.319	-0.329
-368.756	-30.357	-0.302	0.171
-367.742	205.832	-0.048	0.074
-366.727	-32.842	0.175	-0.096
-365.712	474.130	-0.110	0.246
-364.698	18.498	0.333	-0.265
-363.683	88.209	-0.049	-0.055
-362.669	-200.000	-0.000	0.123
-361.654	48.169	-0.207	-0.193
-360.639	-111.954	-0.234	0.047
-359.625	-200.000	0.014	-0.076
-358.610	-2.698	-0.179	-0.124
-357.596	-23.564	0.236	0.141
-356.581	384.760	0.196	-0.401
-355.566	-108.080	-0.043	-0.009
-354.552	335.060	0.187	0.361
-353.537	-0.562	-0.235	0.165
-352.523	211.487	-0.019	-0.030
-351.508	268.505	-0.177	-0.309
-350.493	-200.000	0.009	0.166
-349.479	207.049	0.032	-0.049
-348.464	-200.000	-0.012	0.181
-347.450	-200.000	0.045	0.226
-346.435	-111.814	-0.188	0.038
-345.420	-200.000	-0.031	-0.160
-344.406	-62.881	0.192	0.079
-343.391	-144.329	0.307	0.028
-342.377	-113.026	-0.302	0.059
-341.362	-82.768	0.191	0.061
-340.348	236.476	0.088	0.145
-339.333	-110.032	-0.157	0.033
-338.318	427.330	0.128	-0.275
-337.304	146.288	0.259	0.346
-336.289	-200.000	0.030	0.167
-335.275	10.554	0.323	-0.245
-334.260	-149.939	-0.240	0.019
-333.245	43.377	-0.117	0.106
-332.231	41.111	-0.054	0.048
-331.216	-200.000	-0.022	-0.107
-330.202	-11.472	-0.074	0.048
-329.187	-67.216	0.275	0.107
-328.172	800.000	0.054	-0.193
-327.158	800.000	-0.017	-0.069
-326.143	800.000	0.024	0.087
-325.129	-200.000	0.009	0.203
-324.114	-198.399	-0.345	0.002
-323.099	657.693	0.120	0.306
-322.085	-138.056	0.059	-0.006
-321.070	503.430	0.138	-0.318
-320.056	-200.000	0.014	-0.067
-319.041	-200.000	-0.066	0.453
-318.026	800.000	-0.085	0.238
-317.012	-30.594	0.334	0.188
-315.997	-83.712	-0.302	0.096
-314.983	800.000	-0.050	0.178
-313.968	273.934	0.307	-0.538
-312.953	84.006	-0.013	-0.014
-311.939	230.312	-0.060	0.098
-310.924	-73.645	-0.114	0.041
-309.910	-119.293	-0.268	0.046
-308.895	-102.891	0.203	-0.048
-307.880	-107.203	0.138	0.030
-306.866	637.469	0.094	-0.236
-305.851	-134.626	0.154	0.019
-304.837	-107.003	-0.279	0.061
-303.822	63.040	0.243	-0.241
-302.807	-3.965	0.132	-0.091
-301.793	-200.000	0.005	0.126
-300.778	800.000	-0.083	-0.256
-299.764	-37.728	-0.333	0.176
-298.749	48.705	-0.138	0.128
-297.735	-129.443	-0.098	0.014
-296.720	-89.997	0.048	-0.014
-295.705	-40.210	0.135	-0.070
-294.691	-141.774	0.099	0.010
-293.676	-200.000	0.032	0.280
-292.662	571.622	0.184	-0.443
-291.647	-13.079	-0.266	-0.171
-290.632	40.817	0.185	-0.166
-289.618	-68.891	0.074	-0.028
-288.603	-97.275	0.258	0.067
-287.589	560.343	-0.132	0.316
-286.574	441.698	-0.047	0.103
-285.559	-53.269	0.391	-0.178
-284.545	11.743	0.115	0.087
-283.530	-200.000	-0.031	-0.253
-282.516	-5.344	-0.107	0.073
-281.501	-200.000	0.031	-0.202
-280.486	12.864	0.221	-0.169
-279.472	342.234	0.022	0.044
-278.457	687.681	-0.035	0.091
-277.443	40.506	-0.024	0.021
-276.428	80.213	0.029	0.030
-275.413	-21.913	0.437	0.263
-274.399	800.000	-0.101	0.280
-273.384	232.044	0.048	-0.078
-272.370	-15.865	-0.205	0.129
-271.355	-12.737	0.077	0.049
-270.340	-95.252	0.104	0.028
-269.326	113.426	-0.123	0.148
-268.311	218.224	-0.057	0.089
-267.297	107.875	0.150	-0.177
-266.282	-82.847	-0.013	0.004
-265.267	-101.338	0.089	0.022
-264.253	800.000	0.027	0.079
-263.238	213.370	0.092	-0.144
-262.224	-28.479	-0.331	-0.189
-261.209	282.099	0.172	-0.305
-260.195	62.663	0.062	0.062
-259.180	-107.364	0.259	0.056
-258.165	-86.160	0.319	0.097
-257.151	-94.091	-0.200	-0.054
-256.136	-200.000	-0.079	0.378
-255.122	69.448	-0.245	-0.250
-254.107	-200.000	0.001	0.296
-253.092	-60.504	0.208	0.087
-252.078	-200.000	-0.041	-0.236
-251.063	752.866	-0.177	-0.472
-250.049	-44.616	0.215	0.106
-249.034	103.127	-0.112	0.130
-248.019	328.730	-0.169	-0.322
-247.005	165.890	0.044	0.062
-245.990	-86.072	0.063	0.019
-244.976	-111.477	-0.155	-0.031
-243.961	-166.095	0.074	0.003
-242.946	-200.000	-0.040	-0.214
-241.932	-110.666	-0.138	0.028
-240.917	-200.000	0.043	-0.398
-239.903	-57.463	-0.359	0.156
-238.888	760.585	0.044	0.118
-237.873	-52.968	-0.173	-0.079
-236.859	398.111	-0.132	-0.273
-235.844	-99.855	-0.271	-0.067
-234.830	-200.000	-0.016	0.073
-233.815	-200.000	0.035	-0.213
-232.800	-51.412	0.320	-0.148
-231.786	361.120	0.086	-0.171
-230.771	-126.654	-0.282	-0.041
-229.757	41.054	0.082	0.073
-228.742	-102.861	0.115	-0.027
-227.727	115.784	-0.131	-0.158
-226.713	303.163	0.075	-0.136
-225.698	240.097	-0.094	-0.155
-224.684	241.294	-0.063	-0.104
-223.669	800.000	0.092	0.283
-222.655	-200.000	-0.031	0.174
-221.640	54.654	0.159	0.152
-220.625	86.995	0.178	0.194
-219.611	-90.314	0.217	-0.062
-218.596	-200.000	-0.035	0.155
-217.582	17.283	0.088	0.069
-216.567	-7.812	-0.210	0.140
-215.552	-200.000	0.006	0.167
-214.538	191.440	0.180	0.268
-213.523	35.053	0.112	-0.097
-212.509	-200.000	0.016	0.166
-211.494	-117.682	0.336	0.060
-210.479	-200.000	-0.013	0.291
-209.465	-68.070	-0.360	-0.139
-208.450	227.299	-0.243	0.390
-207.436	13.637	-0.244	0.187
-206.421	800.000	-0.029	-0.107
-205.406	36.793	0.084	0.074
-204.392	159.515	0.025	0.034
-203.377	225.369	0.051	0.082
-202.363	-166.816	-0.387	0.016
-201.348	-48.537	-0.275	0.131
-200.333	-63.521	0.244	0.099
-199.319	-200.000	-0.026	0.331
-198.304	800.000	-0.017	-0.054
-197.290	39.788	0.365	-0.324
-196.275	-200.000	-0.005	-0.120
-195.260	123.829	0.155	0.192
-194.246	100.456	0.026	0.030
-193.231	-47.589	0.372	-0.178
-192.217	-200.000	0.027	0.191
-191.202	297.607	0.122	0.222
-190.187	-3.685	-0.225	0.154
-189.173	92.172	0.314	0.349
-188.158	-107.124	-0.038	0.008
-187.144	-200.000	-0.024	0.413
-186.129	221.357	-0.141	0.224
-185.114	-200.000	-0.019	0.105
-184.100	86.950	0.273	0.298
-183.085	13.481	-0.167	0.128
-182.071	-108.401	-0.092	0.020
-181.056	800.000	0.016	-0.059
-180.042	-200.000	0.014	0.267
-179.027	-200.000	-0.079	0.501
-178.012	-200.000	0.012	-0.066
-176.998	800.000	0.055	-0.157
-175.983	-200.000	-0.037	-0.212
-174.969	-158.224	0.154	-0.009
-173.954	194.320	-0.262	-0.392
-172.939	70.466	-0.317	0.323
-171.925	-12.756	0.448	0.288
-170.910	273.754	0.100	-0.174
-169.896	204.566	0.059	-0.091
-168.881	2.723	-0.095	0.068
-167.866	-64.352	0.278	0.112
-166.852	-200.000	-0.022	-0.159
-165.837	157.799	0.096	-0.131
-164.823	22.912	0.117	0.095
-163.808	29.973	-0.180	-0.151
-162.793	-200.000	0.005	0.026
-161.779	37.362	-0.124	0.108
-160.764	169.940	0.060	-0.085
-159.750	-132.909	0.256	0.032
-158.735	800.000	-0.052	-0.190
-157.720	-200.000	0.022	0.182
-156.706	237.476	0.068	-0.111
-155.691	-134.180	-0.132	-0.016
-154.677	-66.903	-0.090	0.035
-153.662	211.916	0.133	0.206
-152.647	-200.000	0.037	-0.167
-151.633	-2.883	0.229	-0.158
-150.618	25.203	-0.094	0.077
-149.604	38.887	0.161	-0.141
-148.589	-89.520	-0.233	0.068
-147.574	358.042	-0.062	-0.121
-146.560	165.044	0.108	-0.151
-145.545	-122.951	0.160	0.025
-144.531	118.263	-0.141	-0.171
-143.516	-131.804	-0.132	-0.017
-142.502	-106.299	0.124	-0.027
-141.487	-107.294	-0.164	0.036
-140.472	-200.000	0.015	0.162
-139.458	-13.708	-0.180	-0.115
-138.443	-200.000	-0.016	0.077
-137.429	-9.185	-0.131	-0.086
-136.414	-38.844	-0.017	0.009
-135.399	800.000	-0.045	0.179
-134.385	-18.239	-0.155	-0.095
-133.370	-58.327	0.230	-0.098
-132.356	800.000	0.077	-0.262
-131.341	127.595	0.243	-0.304
-130.326	-31.987	0.219	-0.121
-129.312	-200.000	0.080	0.395
-128.297	-200.000	-0.018	0.168
-127.283	98.018	-0.002	0.002
-126.268	-113.180	-0.295	-0.057
-125.253	-90.670	0.247	-0.070
-124.239	-93.182	0.067	0.018
-123.224	210.361	-0.104	0.161
-122.210	-200.000	-0.043	0.458
-121.195	62.255	0.132	-0.129
