DTS Sentinel unit serial number:	SN413079Multiplexer serial number:	ORYXHardware model number:	OX4-SRSoftware version number:	ORYX F/W v4.00 Oryx Data Collector v3.7.2.0data status	okinstallation	princeton_trtdifferential loss correction	single-endedforward channel	channel 1reverse channel	N/Adate	2019/09/19time	14:26:35forward acquisition time	60.00reverse acquisition time	0.00gamma	496.2192k internal	0.2321k external	0.2321temperature offset calibration	1.0017default loss term (dB/km)	0.3790temperature slope calibration	1.0000multiplexer offset coefficient	1.0000multiplexer slope coefficient	1.0000fibre end	0.00T internal ref (°C)	32.05T ext. ref 1 (°C)	1.05T ext. ref 2 (°C)	29.22length (m)	temperature (°C)	Stokes	anti-Stokes-747.200	16.449	0.123	-0.098
-746.185	37.445	-0.231	0.207
-745.171	115.842	-0.051	-0.063
-744.156	-200.000	-0.043	0.205
-743.142	41.271	0.163	-0.149
-742.127	-200.000	0.067	0.338
-741.112	6.536	-0.161	-0.121
-740.098	-171.669	-0.090	0.003
-739.083	659.527	0.065	-0.169
-738.069	-68.854	-0.260	-0.101
-737.054	323.106	-0.191	-0.369
-736.039	-200.000	-0.090	-0.452
-735.025	64.569	0.146	0.149
-734.010	33.762	-0.168	-0.147
-732.996	525.835	-0.169	-0.403
-731.981	114.931	-0.080	0.098
-730.966	-137.548	-0.249	-0.028
-729.952	-115.928	-0.233	0.044
-728.937	-200.000	-0.066	0.336
-727.923	148.402	0.375	0.511
-726.908	800.000	-0.041	-0.133
-725.894	249.935	0.122	-0.209
-724.879	147.355	-0.141	-0.192
-723.864	-200.000	-0.044	-0.210
-722.850	-127.520	-0.109	-0.016
-721.835	68.512	-0.157	-0.162
-720.821	-89.700	-0.084	0.025
-719.806	64.264	-0.191	-0.195
-718.791	-119.856	-0.431	-0.075
-717.777	-61.519	-0.282	0.120
-716.762	-61.444	-0.224	-0.095
-715.748	800.000	0.026	0.083
-714.733	-66.546	0.124	0.050
-713.718	-73.540	-0.180	0.066
-712.704	-123.196	-0.168	-0.027
-711.689	328.514	0.166	-0.322
-710.675	-13.917	-0.121	0.079
-709.660	-83.037	-0.074	0.024
-708.645	26.259	-0.146	-0.123
-707.631	153.374	0.060	-0.082
-706.616	-107.541	-0.276	0.061
-705.602	-59.874	-0.217	-0.094
-704.587	74.409	0.028	0.030
-703.572	-42.678	0.166	-0.085
-702.558	800.000	-0.041	-0.117
-701.543	-89.870	-0.145	0.043
-700.529	-200.000	-0.019	0.106
-699.514	-56.035	0.342	0.154
-698.499	-116.796	-0.165	-0.030
-697.485	437.166	0.021	0.046
-696.470	-200.000	0.039	-0.182
-695.456	-9.374	0.067	-0.045
-694.441	-200.000	0.000	0.045
-693.426	-200.000	-0.012	0.063
-692.412	258.335	0.082	-0.143
-691.397	-174.375	-0.517	0.015
-690.383	-71.403	-0.115	0.044
-689.368	14.152	-0.121	0.095
-688.354	201.281	-0.054	0.084
-687.339	-13.998	-0.117	0.076
-686.324	573.548	0.109	0.268
-685.310	-8.101	-0.436	0.297
-684.295	181.858	0.168	-0.249
-683.281	61.238	0.024	-0.024
-682.266	800.000	0.076	0.324
-681.251	-187.019	0.266	-0.004
-680.237	35.243	0.120	0.106
-679.222	193.772	-0.175	0.267
-678.208	126.927	0.182	0.233
-677.193	374.867	0.060	0.124
-676.178	800.000	-0.105	0.384
-675.164	176.191	-0.099	0.145
-674.149	-10.842	-0.403	-0.268
-673.135	-200.000	-0.024	-0.112
-672.120	12.232	-0.094	-0.073
-671.105	800.000	0.056	0.241
-670.091	-200.000	0.040	-0.176
-669.076	-34.211	-0.158	-0.087
-668.062	427.790	0.190	-0.413
-667.047	344.863	-0.121	0.239
-666.032	-127.732	-0.292	0.042
-665.018	-156.830	-0.336	0.021
-664.003	349.991	0.036	0.072
-662.989	216.276	0.028	-0.046
-661.974	-115.963	-0.274	0.052
-660.959	-100.913	-0.015	0.004
-659.945	-60.063	-0.073	0.031
-658.930	-184.006	0.202	-0.003
-657.916	-152.498	0.313	0.023
-656.901	83.440	0.194	-0.213
-655.886	-200.000	-0.030	0.138
-654.872	-48.651	-0.395	0.191
-653.857	12.427	0.256	-0.199
-652.843	96.217	0.205	-0.236
-651.828	268.208	-0.102	-0.180
-650.814	-181.991	-0.234	0.004
-649.799	114.787	-0.045	-0.056
-648.784	-27.786	-0.233	0.136
-647.770	-163.837	0.338	-0.016
-646.755	800.000	-0.050	0.154
-645.741	254.737	-0.165	0.285
-644.726	-86.691	-0.252	-0.078
-643.711	11.818	-0.381	-0.295
-642.697	-113.725	0.365	0.072
-641.682	323.067	0.189	-0.363
-640.668	93.544	0.092	0.105
-639.653	-76.158	-0.340	0.121
-638.638	386.268	0.241	-0.500
-637.624	800.000	0.052	0.145
-636.609	36.120	0.087	0.077
-635.595	800.000	0.064	0.256
-634.580	-38.386	0.066	-0.035
-633.565	562.251	-0.181	0.442
-632.551	49.470	-0.179	-0.169
-631.536	50.283	0.135	0.128
-630.522	-200.000	-0.035	0.260
-629.507	-49.951	0.355	-0.170
-628.492	-163.895	0.041	-0.002
-627.478	800.000	-0.076	-0.250
-626.463	-200.000	-0.007	0.033
-625.449	68.777	-0.180	-0.185
-624.434	447.344	-0.127	-0.280
-623.419	800.000	-0.021	-0.083
-622.405	-200.000	0.019	0.092
-621.390	-13.789	-0.085	-0.055
-620.376	55.120	0.238	-0.231
-619.361	-140.612	-0.185	-0.019
-618.346	-200.000	-0.048	0.365
-617.332	800.000	-0.114	0.448
-616.317	55.674	-0.212	-0.207
-615.303	181.246	-0.115	-0.170
-614.288	389.682	-0.023	-0.048
-613.273	-200.000	-0.039	0.346
-612.259	-97.595	-0.208	-0.054
-611.244	-123.018	-0.094	0.015
-610.230	-95.992	-0.211	-0.056
-609.215	154.499	-0.138	-0.190
-608.201	-200.000	-0.058	0.271
-607.186	266.468	-0.244	0.428
-606.171	800.000	-0.026	-0.105
-605.157	-200.000	-0.006	-0.138
-604.142	485.401	0.044	-0.101
-603.128	47.891	0.082	0.077
-602.113	-5.695	0.233	-0.161
-601.098	-77.673	0.091	-0.032
-600.084	-169.395	-0.040	-0.001
-599.069	-140.212	0.103	-0.011
-598.055	134.635	0.168	-0.219
-597.040	47.049	-0.111	0.104
-596.025	213.658	-0.095	0.151
-595.011	290.741	-0.041	-0.075
-593.996	-79.662	-0.346	-0.117
-592.982	7.852	0.295	0.222
-591.967	-137.133	0.184	0.021
-590.952	-200.000	-0.025	0.186
-589.938	-91.013	-0.131	-0.038
-588.923	124.706	-0.083	-0.106
-587.909	349.131	0.106	0.210
-586.894	-25.681	-0.072	0.042
-585.879	369.129	-0.019	-0.038
-584.865	22.644	0.326	-0.268
-583.850	307.474	0.133	0.249
-582.836	-154.755	0.150	-0.010
-581.821	-200.000	0.205	-0.000
-580.806	51.127	0.158	-0.151
-579.792	-82.684	-0.179	-0.058
-578.777	23.480	-0.256	-0.211
-577.763	-200.000	-0.003	0.351
-576.748	-200.000	0.023	-0.424
-575.733	-24.639	-0.087	-0.052
-574.719	559.890	-0.085	-0.207
-573.704	-89.642	0.107	-0.031
-572.690	-200.000	-0.001	-0.113
-571.675	207.619	-0.083	0.130
-570.661	-118.917	0.145	0.026
-569.646	146.780	-0.058	0.078
-568.631	87.253	-0.311	0.345
-567.617	-200.000	0.029	0.193
-566.602	-200.000	-0.006	-0.173
-565.588	233.516	0.041	-0.067
-564.573	-114.860	-0.178	0.034
-563.558	106.073	0.230	0.273
-562.544	86.948	-0.175	0.193
-561.529	-28.734	0.256	-0.148
-560.515	-200.000	0.027	-0.273
-559.500	237.927	0.083	-0.138
-558.485	-99.665	0.189	-0.048
-557.471	-129.728	0.196	0.027
-556.456	631.578	0.046	0.117
-555.442	800.000	-0.097	0.357
-554.427	-57.745	-0.257	0.113
-553.412	72.119	-0.303	0.317
-552.398	28.524	0.086	0.073
-551.383	-12.839	0.125	-0.081
-550.369	20.054	-0.185	-0.149
-549.354	426.620	0.080	-0.173
-548.339	-32.242	0.070	-0.039
-547.325	-55.526	-0.172	0.077
-546.310	683.112	0.073	0.192
-545.296	57.615	0.157	-0.153
-544.281	-200.000	-0.055	-0.249
-543.266	488.007	0.061	0.140
-542.252	-23.051	-0.205	-0.124
-541.237	-90.432	0.321	-0.093
-540.223	720.536	0.075	-0.200
-539.208	-124.059	-0.281	0.044
-538.193	254.655	0.064	0.111
-537.179	-23.755	-0.388	0.233
-536.164	-46.782	0.352	-0.173
-535.150	-200.000	0.002	0.018
-534.135	283.743	-0.113	0.203
-533.121	570.915	-0.077	-0.188
-532.106	-83.591	-0.462	0.148
-531.091	-124.799	-0.120	-0.019
-530.077	-200.000	-0.012	-0.183
-529.062	308.038	0.082	0.154
-528.048	-89.439	-0.151	-0.044
-527.033	-23.070	-0.232	0.140
-526.018	-88.339	0.168	-0.050
-525.004	638.222	0.114	-0.290
-523.989	27.393	0.114	-0.096
-522.975	53.350	0.123	-0.118
-521.960	-50.718	-0.053	-0.025
-520.945	-200.000	-0.021	0.185
-519.931	800.000	-0.113	-0.327
-518.916	-51.787	0.209	-0.097
-517.902	800.000	-0.056	-0.210
-516.887	95.863	0.175	-0.200
-515.872	47.865	0.186	-0.174
-514.858	-200.000	-0.013	-0.381
-513.843	-53.126	0.445	-0.205
-512.829	73.388	0.121	-0.127
-511.814	78.489	0.136	-0.146
-510.799	175.805	0.086	-0.124
-509.785	131.909	-0.034	0.043
-508.770	800.000	0.028	0.112
-507.756	154.706	0.195	-0.269
-506.741	-15.002	-0.045	0.029
-505.726	-11.884	0.311	0.204
-504.712	114.246	0.139	0.169
-503.697	-200.000	-0.011	0.159
-502.683	153.756	0.073	-0.100
-501.668	535.437	-0.115	0.273
-500.653	-200.000	-0.020	0.230
-499.639	-62.003	-0.420	0.176
-498.624	-200.000	-0.007	-0.036
-497.610	-200.000	0.055	0.252
-496.595	800.000	-0.036	-0.099
-495.581	40.027	0.162	0.146
-494.566	-87.741	-0.105	0.032
-493.551	-2.452	0.204	0.143
-492.537	-200.000	-0.040	-0.183
-491.522	-200.000	0.015	-0.223
-490.508	232.116	-0.016	0.026
-489.493	126.462	-0.093	-0.118
-488.478	10.748	-0.269	0.205
-487.464	800.000	-0.105	-0.322
-486.449	143.730	-0.054	-0.072
-485.435	-200.000	-0.044	0.321
-484.420	-120.680	-0.361	0.061
-483.405	145.777	-0.064	0.086
-482.391	-162.526	0.394	-0.019
-481.376	149.323	0.175	-0.237
-480.362	-200.000	-0.013	0.080
-479.347	-66.192	-0.176	-0.070
-478.332	-80.374	-0.317	0.106
-477.318	-127.761	-0.447	0.064
-476.303	140.026	0.135	-0.178
-475.289	74.700	-0.064	0.067
-474.274	800.000	-0.040	-0.112
-473.259	-200.000	0.006	0.173
-472.245	-0.559	-0.216	0.153
-471.230	800.000	0.087	0.364
-470.216	-50.657	-0.320	-0.151
-469.201	-119.557	-0.141	0.024
-468.186	107.006	0.165	0.196
-467.172	-52.010	0.291	0.135
-466.157	61.874	0.181	-0.180
-465.143	77.651	-0.259	-0.275
-464.128	-5.091	-0.338	0.232
-463.113	-200.000	-0.003	0.118
-462.099	-3.336	0.069	0.048
-461.084	800.000	-0.129	0.412
-460.070	-200.000	-0.005	-0.091
-459.055	-78.307	-0.192	-0.066
-458.040	-1.388	0.148	-0.104
-457.026	-1.316	0.323	0.228
-456.011	-100.132	-0.092	0.023
-454.997	-138.126	0.277	-0.031
-453.982	133.931	-0.104	0.134
-452.968	-128.940	-0.032	-0.004
-451.953	800.000	0.131	-0.560
-450.938	145.686	0.197	0.264
-449.924	-200.000	0.049	-0.227
-448.909	-139.493	-0.196	0.021
-447.895	18.669	0.400	0.320
-446.880	800.000	-0.016	-0.045
-445.865	800.000	-0.070	-0.289
-444.851	50.083	0.137	0.129
-443.836	-200.000	-0.027	0.225
-442.822	14.632	0.140	0.110
-441.807	-71.800	-0.259	-0.096
-440.792	623.195	-0.088	-0.220
-439.778	8.369	-0.093	-0.070
-438.763	-97.083	0.197	-0.051
-437.749	49.493	-0.075	0.071
-436.734	145.943	-0.113	-0.151
-435.719	-200.000	-0.031	0.359
-434.705	800.000	-0.055	0.152
-433.690	-62.381	-0.211	-0.088
-432.676	56.062	-0.210	0.203
-431.661	148.706	-0.021	0.028
-430.646	-31.936	-0.039	-0.022
-429.632	154.344	0.110	-0.151
-428.617	-200.000	-0.019	0.096
-427.603	86.702	-0.051	0.056
-426.588	178.650	0.219	-0.320
-425.573	-7.943	-0.143	0.096
-424.559	-129.511	0.138	0.019
-423.544	-180.922	-0.235	-0.005
-422.530	-12.986	0.180	-0.117
-421.515	800.000	0.090	-0.291
-420.500	-14.593	-0.035	-0.022
-419.486	24.954	0.089	0.074
-418.471	-54.578	0.147	0.066
-417.457	-105.591	0.188	-0.042
-416.442	54.170	0.125	0.120
-415.428	-32.648	-0.166	0.092
-414.413	-80.966	0.189	-0.062
-413.398	-200.000	-0.034	0.303
-412.384	573.331	-0.131	0.318
-411.369	235.195	0.083	0.136
-410.355	-131.012	0.459	-0.061
-409.340	74.336	-0.085	0.090
-408.325	-200.000	-0.072	0.374
-407.311	71.595	0.079	-0.082
-406.296	800.000	0.106	0.422
-405.282	800.000	0.094	0.397
-404.267	536.163	0.052	-0.123
-403.252	-54.280	-0.320	-0.145
-402.238	-48.755	0.347	-0.166
-401.223	173.250	-0.092	-0.133
-400.209	-91.332	-0.148	0.042
-399.194	-200.000	0.012	-0.053
-398.179	800.000	-0.064	0.201
-397.165	800.000	-0.055	0.238
-396.150	-76.173	0.325	0.114
-395.136	-179.449	0.176	-0.004
-394.121	-92.618	-0.141	-0.040
-393.106	800.000	0.075	0.229
-392.092	128.870	-0.139	-0.177
-391.077	29.237	0.308	0.261
-390.063	-87.631	0.116	-0.035
-389.048	-111.537	0.455	0.092
-388.033	-200.000	-0.061	-0.341
-387.019	564.041	0.056	0.136
-386.004	4.725	-0.117	-0.086
-384.990	-75.201	-0.062	-0.022
-383.975	-149.337	0.354	-0.028
-382.960	800.000	0.054	0.197
-381.946	175.537	0.043	0.062
-380.931	-25.888	0.239	-0.140
-379.917	105.030	-0.264	0.311
-378.902	-2.933	0.373	0.259
-377.888	-173.133	-0.399	-0.012
-376.873	-96.047	0.176	-0.047
-375.858	22.912	-0.150	0.122
-374.844	126.718	0.279	-0.352
-373.829	-57.202	0.244	-0.107
-372.815	-151.334	-0.332	-0.025
-371.800	36.041	0.161	-0.141
-370.785	800.000	-0.115	-0.320
-369.771	604.212	-0.044	0.110
-368.756	-80.307	0.040	0.013
-367.742	591.229	-0.070	0.171
-366.727	-117.729	-0.245	-0.044
-365.712	245.556	0.152	0.254
-364.698	-157.499	-0.115	0.007
-363.683	-37.187	0.208	-0.111
-362.669	112.080	0.247	-0.297
-361.654	173.955	-0.194	-0.278
-360.639	195.369	-0.081	0.122
-359.625	800.000	0.020	0.062
-358.610	113.943	-0.118	0.142
-357.596	800.000	-0.092	-0.278
-356.581	-93.769	0.201	0.055
-355.566	-54.022	-0.240	0.109
-354.552	-200.000	-0.048	0.222
-353.537	-23.315	0.144	-0.086
-352.523	218.187	-0.227	0.361
-351.508	304.188	0.198	-0.366
-350.493	76.643	-0.141	0.149
-349.479	-87.917	-0.116	0.035
-348.464	90.351	-0.332	-0.369
-347.450	-200.000	0.045	0.529
-346.435	-32.639	-0.170	0.094
-345.420	-84.457	0.168	-0.053
-344.406	14.275	0.213	-0.165
-343.391	5.325	-0.091	0.067
-342.377	-89.862	0.206	-0.060
-341.362	251.065	0.066	-0.112
-340.348	126.253	-0.150	0.189
-339.333	-106.965	0.163	0.036
-338.318	65.128	-0.124	-0.125
-337.304	231.518	-0.113	0.185
-336.289	-22.058	-0.163	0.098
-335.275	-200.000	-0.002	0.069
-334.260	43.968	-0.078	-0.071
-333.245	43.458	0.119	0.108
-332.231	548.864	0.136	-0.324
-331.216	-136.856	-0.151	-0.017
-330.202	439.780	0.115	-0.250
-329.187	624.703	0.085	-0.213
-328.172	-101.893	0.350	-0.084
-327.158	-76.307	-0.282	0.099
-326.143	-116.855	-0.149	0.027
-325.129	329.042	-0.092	-0.175
-324.114	50.112	-0.119	0.112
-323.099	-6.074	-0.162	-0.110
-322.085	800.000	-0.008	-0.029
-321.070	800.000	0.074	-0.280
-320.056	267.776	-0.103	-0.179
-319.041	800.000	0.059	-0.243
-318.026	-200.000	0.028	0.149
-317.012	188.844	-0.026	-0.038
-315.997	-200.000	0.002	-0.131
-314.983	-200.000	-0.008	0.079
-313.968	800.000	0.014	-0.044
-312.953	216.356	-0.042	-0.067
-311.939	-73.463	0.092	0.033
-310.924	90.399	-0.117	-0.131
-309.910	134.607	0.159	-0.205
-308.895	204.061	-0.292	0.450
-307.880	-96.735	0.271	-0.071
-306.866	-134.729	0.584	-0.071
-305.851	-200.000	-0.021	-0.174
-304.837	-170.546	-0.142	-0.005
-303.822	-50.133	-0.160	-0.075
-302.807	-109.397	0.284	0.060
-301.793	250.902	0.019	0.032
-300.778	-83.683	-0.127	-0.040
-299.764	-84.152	-0.041	0.013
-298.749	-73.918	0.260	0.094
-297.735	414.771	-0.089	0.188
-296.720	21.374	0.063	-0.051
-295.705	362.513	0.213	0.425
-294.691	-200.000	-0.005	0.170
-293.676	-200.000	0.037	0.247
-292.662	-200.000	0.013	-0.254
-291.647	579.124	-0.072	-0.175
-290.632	-15.193	0.385	-0.245
-289.618	69.974	0.190	-0.195
-288.603	-119.670	-0.319	-0.055
-287.589	92.368	0.139	0.155
-286.574	-118.017	0.352	0.063
-285.559	-160.948	-0.176	-0.009
-284.545	429.754	0.074	-0.158
-283.530	-12.721	-0.223	-0.144
-282.516	-129.435	-0.205	-0.028
-281.501	102.203	0.013	-0.015
-280.486	-38.361	0.110	-0.058
-279.472	16.767	-0.175	0.137
-278.457	9.715	0.143	-0.108
-277.443	-35.254	0.467	-0.252
-276.428	-200.000	-0.003	0.041
-275.413	209.696	-0.089	0.138
-274.399	543.940	-0.028	-0.066
-273.384	-200.000	-0.029	-0.184
-272.370	-117.178	-0.191	-0.034
-271.355	-72.950	0.387	-0.141
-270.340	800.000	-0.031	-0.134
-269.326	-175.365	-0.110	0.003
-268.311	-200.000	-0.010	-0.074
-267.297	-148.942	-0.301	-0.024
-266.282	-141.051	0.135	-0.014
-265.267	-82.262	0.253	-0.082
-264.253	800.000	0.021	0.068
-263.238	18.855	0.189	0.150
-262.224	21.091	-0.128	0.103
-261.209	800.000	0.025	0.106
-260.195	-200.000	-0.021	-0.094
-259.180	800.000	0.032	-0.093
-258.165	-200.000	-0.050	-0.267
-257.151	-200.000	-0.024	0.296
-256.136	605.403	-0.077	-0.191
-255.122	-22.819	-0.158	0.095
-254.107	-148.963	-0.067	0.005
-253.092	-200.000	0.049	0.224
-252.078	-121.160	-0.248	0.041
-251.063	33.631	-0.235	0.202
-250.049	-70.101	-0.417	0.157
-249.034	133.901	-0.199	-0.256
-248.019	-200.000	-0.058	0.292
-247.005	-200.000	-0.012	-0.072
-245.990	43.845	-0.238	-0.216
-244.976	24.473	-0.060	-0.049
-243.961	-148.576	0.154	0.012
-242.946	267.324	0.136	0.236
-241.932	800.000	-0.049	0.148
-240.917	-97.988	0.261	0.067
-239.903	93.232	-0.263	-0.295
-238.888	-58.435	0.198	-0.085
-237.873	-99.374	0.147	0.037
-236.859	170.493	-0.044	0.062
-235.844	-57.064	0.133	0.058
-234.830	-73.276	0.082	0.030
-233.815	-188.010	0.127	0.002
-232.800	60.242	-0.195	0.191
-231.786	-200.000	0.062	0.352
-230.771	34.551	-0.279	-0.241
-229.757	-134.949	-0.116	-0.014
-228.742	-3.397	-0.069	-0.047
-227.727	329.760	-0.178	0.340
-226.713	800.000	-0.114	0.377
-225.698	800.000	0.024	-0.069
-224.684	-85.673	0.284	-0.088
-223.669	356.549	0.135	0.266
-222.655	800.000	0.060	-0.197
-221.640	418.671	0.157	0.333
-220.625	-200.000	0.017	0.127
-219.611	800.000	0.050	0.149
-218.596	445.836	-0.133	-0.289
-217.582	-50.888	0.187	-0.087
-216.567	-200.000	0.008	-0.185
-215.552	-200.000	0.008	-0.140
-214.538	260.101	0.125	0.214
-213.523	-72.472	0.224	0.082
-212.509	41.618	0.293	-0.263
-211.494	464.904	0.148	-0.327
-210.479	-65.159	-0.279	0.111
-209.465	-22.227	-0.108	-0.065
-208.450	-200.000	-0.010	-0.152
-207.436	800.000	-0.031	0.126
-206.421	-110.939	0.092	-0.019
-205.406	-200.000	-0.000	-0.104
-204.392	800.000	0.017	-0.069
-203.377	331.561	-0.052	-0.099
-202.363	316.736	0.089	-0.167
-201.348	352.301	0.214	-0.420
-200.333	174.487	0.056	-0.080
-199.319	-91.467	0.215	-0.061
-198.304	-11.286	-0.252	-0.164
-197.290	-65.599	-0.263	-0.104
-196.275	47.396	0.197	-0.182
-195.260	-200.000	-0.008	-0.056
-194.246	-200.000	0.007	-0.065
-193.231	2.888	0.404	0.290
-192.217	639.148	0.057	0.143
-191.202	185.217	-0.045	-0.066
-190.187	109.160	0.172	-0.203
-189.173	800.000	-0.129	-0.467
-188.158	162.444	-0.217	0.301
-187.144	-32.753	-0.226	0.125
-186.129	-88.213	-0.136	0.040
-185.114	138.882	-0.158	0.205
-184.100	18.085	-0.114	0.090
-183.085	-49.883	-0.130	0.061
-182.071	-83.293	-0.302	0.096
-181.056	-54.697	-0.261	-0.117
-180.042	-96.728	0.131	0.034
-179.027	-180.476	0.327	-0.007
-178.012	-200.000	0.008	-0.112
-176.998	264.248	0.048	-0.083
-175.983	-28.812	0.158	0.090
-174.969	12.980	-0.168	-0.128
-173.954	-80.039	-0.291	0.097
-172.939	-200.000	-0.018	0.217
-171.925	-200.000	-0.039	-0.244
-170.910	-8.494	-0.062	0.041
-169.896	373.619	0.080	-0.160
-168.881	-47.716	0.099	0.048
-167.866	496.251	0.017	0.038
-166.852	-65.519	-0.290	0.115
-165.837	74.404	-0.165	0.171
-164.823	-200.000	-0.033	-0.272
-163.808	-200.000	0.004	-0.119
-162.793	-200.000	-0.017	-0.162
-161.779	168.938	-0.091	-0.128
-160.764	-93.219	0.215	0.059
-159.750	-200.000	0.036	0.195
-158.735	-200.000	-0.026	0.164
-157.720	-200.000	-0.015	-0.214
-156.706	-200.000	-0.041	0.210
-155.691	-80.422	0.086	0.028
-154.677	-8.553	-0.226	-0.150
-153.662	-31.842	0.144	0.080
-152.647	784.679	0.077	0.210
-151.633	-200.000	0.004	-0.103
-150.618	188.278	-0.180	0.266
-149.604	220.418	0.081	0.128
-148.589	800.000	-0.044	0.154
-147.574	585.901	-0.068	0.165
-146.560	-200.000	0.001	0.186
-145.545	1.345	0.165	0.117
-144.531	-200.000	-0.045	-0.221
-143.516	20.146	-0.065	0.051
-142.502	289.497	0.017	0.031
-141.487	221.259	0.079	0.125
-140.472	-200.000	0.031	0.274
-139.458	560.736	0.059	0.141
-138.443	-200.000	0.062	-0.348
-137.429	-200.000	0.031	-0.381
-136.414	-79.239	0.101	-0.034
-135.399	-200.000	-0.120	-0.652
-134.385	-200.000	-0.044	-0.197
-133.370	-200.000	-0.007	0.132
-132.356	133.347	0.083	-0.106
-131.341	246.008	0.117	0.194
-130.326	253.551	-0.223	0.376
-129.312	-200.000	-0.042	0.214
-128.297	86.516	0.192	-0.208
-127.283	-69.627	0.339	0.128
-126.268	-41.139	-0.340	0.173
-125.253	-139.871	0.162	0.017
-124.239	102.914	-0.279	0.322
-123.224	709.876	0.018	-0.048
-122.210	-83.389	-0.191	0.060
