DTS Sentinel unit serial number:	SN413079Multiplexer serial number:	ORYXHardware model number:	OX4-SRSoftware version number:	ORYX F/W v4.00 Oryx Data Collector v3.7.2.0data status	okinstallation	princeton_trtdifferential loss correction	single-endedforward channel	channel 1reverse channel	N/Adate	2019/09/16time	17:14:35forward acquisition time	60.00reverse acquisition time	0.00gamma	496.2192k internal	0.2296k external	0.2296temperature offset calibration	0.9966default loss term (dB/km)	0.3790temperature slope calibration	1.0000multiplexer offset coefficient	1.0000multiplexer slope coefficient	1.0000fibre end	0.00T internal ref (°C)	38.94T ext. ref 1 (°C)	15.36T ext. ref 2 (°C)	32.99length (m)	temperature (°C)	Stokes	anti-Stokes-747.200	20.451	0.163	-0.134
-746.185	445.362	0.074	0.165
-745.171	-108.740	-0.141	0.031
-744.156	-200.000	0.020	0.283
-743.142	108.771	-0.169	0.207
-742.127	49.009	-0.144	0.138
-741.112	800.000	0.078	0.343
-740.098	800.000	-0.131	0.462
-739.083	36.620	-0.065	-0.059
-738.069	69.334	-0.279	0.293
-737.054	-200.000	0.026	0.118
-736.039	-200.000	-0.011	-0.171
-735.025	2.531	0.210	0.155
-734.010	94.147	-0.270	-0.313
-732.996	-104.636	-0.088	0.021
-731.981	-35.591	-0.342	0.189
-730.966	-44.912	-0.287	0.146
-729.952	-131.142	-0.287	-0.039
-728.937	-200.000	0.015	-0.254
-727.923	-149.789	-0.046	-0.004
-726.908	144.680	0.094	-0.128
-725.894	-200.000	-0.049	-0.234
-724.879	-200.000	0.042	-0.221
-723.864	800.000	0.069	0.275
-722.850	-54.460	-0.250	0.116
-721.835	171.399	-0.282	0.413
-720.821	-164.542	-0.227	0.011
-719.806	-156.031	-0.398	0.026
-718.791	800.000	0.062	0.240
-717.777	-200.000	0.002	0.131
-716.762	-200.000	0.081	-0.404
-715.748	152.742	-0.166	-0.232
-714.733	-15.828	0.010	-0.007
-713.718	10.689	0.162	-0.126
-712.704	-47.894	0.169	0.084
-711.689	-200.000	-0.023	0.169
-710.675	387.081	-0.014	-0.030
-709.660	-85.583	-0.349	-0.111
-708.645	-154.919	-0.128	-0.009
-707.631	277.195	-0.113	0.205
-706.616	-84.252	0.188	-0.061
-705.602	-30.790	-0.132	0.076
-704.587	161.945	0.167	-0.238
-703.572	-48.318	-0.244	0.120
-702.558	-19.871	0.137	0.086
-701.543	-136.193	0.243	-0.029
-700.529	-200.000	-0.041	-0.286
-699.514	800.000	-0.044	-0.184
-698.499	-72.856	-0.072	-0.027
-697.485	-111.037	-0.179	-0.037
-696.470	800.000	0.036	-0.112
-695.456	52.368	-0.148	-0.144
-694.441	-115.079	-0.060	-0.012
-693.426	-143.349	-0.264	-0.026
-692.412	-37.496	-0.324	0.176
-691.397	46.566	-0.276	-0.261
-690.383	-200.000	-0.016	-0.173
-689.368	684.695	0.088	-0.233
-688.354	-200.000	-0.023	-0.317
-687.339	329.152	0.032	-0.063
-686.324	800.000	-0.148	-0.455
-685.310	-131.247	0.018	0.002
-684.295	-200.000	0.004	0.115
-683.281	-155.769	0.237	-0.015
-682.266	6.539	0.255	-0.193
-681.251	-31.175	0.115	-0.066
-680.237	800.000	0.075	0.259
-679.222	64.781	0.084	0.087
-678.208	-200.000	0.049	0.246
-677.193	-38.425	-0.262	-0.141
-676.178	800.000	0.042	0.172
-675.164	-56.865	0.037	-0.017
-674.149	6.059	-0.338	-0.255
-673.135	-56.791	-0.111	-0.050
-672.120	-134.846	0.125	-0.015
-671.105	48.649	0.218	0.208
-670.091	-46.711	-0.208	0.104
-669.076	164.970	-0.080	-0.115
-668.062	-200.000	-0.001	-0.143
-667.047	-46.023	-0.061	-0.031
-666.032	105.089	-0.112	-0.134
-665.018	149.878	-0.130	0.180
-664.003	785.783	-0.195	-0.544
-662.989	-200.000	-0.052	-0.296
-661.974	-130.367	0.272	0.038
-660.959	284.396	-0.067	-0.123
-659.945	-200.000	0.002	0.123
-658.930	377.994	0.127	-0.265
-657.916	-112.356	0.333	-0.068
-656.901	325.719	-0.116	-0.227
-655.886	104.668	0.108	0.130
-654.872	-200.000	0.045	-0.387
-653.857	800.000	0.039	-0.111
-652.843	42.293	0.159	0.147
-651.828	568.407	-0.176	0.434
-650.814	-146.869	-0.235	-0.021
-649.799	-134.096	-0.506	0.064
-648.784	76.369	0.133	0.143
-647.770	245.396	0.016	0.028
-646.755	539.948	-0.037	-0.089
-645.741	-6.072	0.157	-0.109
-644.726	110.541	0.290	-0.355
-643.711	17.325	0.442	0.357
-642.697	-200.000	-0.019	-0.219
-641.682	-12.502	0.050	-0.033
-640.668	-200.000	0.061	-0.303
-639.653	180.606	0.127	-0.190
-638.638	-200.000	-0.019	0.158
-637.624	-137.834	-0.068	0.008
-636.609	-133.485	0.069	0.009
-635.595	-200.000	-0.000	0.089
-634.580	252.593	0.191	0.332
-633.565	800.000	-0.047	0.146
-632.551	253.446	-0.097	0.169
-631.536	447.499	-0.063	0.140
-630.522	9.940	0.136	0.105
-629.507	-200.000	-0.019	0.185
-628.492	-89.286	-0.539	0.162
-627.478	-200.000	-0.033	0.259
-626.463	-200.000	0.021	0.118
-625.449	78.586	0.141	0.153
-624.434	800.000	0.070	-0.275
-623.419	150.461	-0.104	-0.144
-622.405	494.823	-0.051	0.120
-621.390	-32.913	0.177	-0.100
-620.376	-88.089	-0.215	0.066
-619.361	-200.000	0.009	0.219
-618.346	-149.655	-0.206	0.017
-617.332	-200.000	0.022	-0.112
-616.317	-137.028	-0.168	-0.020
-615.303	-133.062	0.293	0.038
-614.288	23.249	0.135	0.113
-613.273	240.753	0.021	0.035
-612.259	-200.000	0.007	0.135
-611.244	-78.660	-0.181	-0.063
-610.230	-138.108	0.204	-0.023
-609.215	-195.675	-0.322	0.002
-608.201	-200.000	-0.012	0.063
-607.186	800.000	0.076	-0.229
-606.171	-54.007	-0.145	-0.067
-605.157	-61.985	-0.105	-0.044
-604.142	-200.000	-0.007	0.308
-603.128	-115.397	-0.167	-0.032
-602.113	145.789	-0.166	-0.226
-601.098	-99.062	-0.181	-0.047
-600.084	-200.000	-0.037	-0.410
-599.069	-18.658	-0.154	-0.097
-598.055	-144.380	0.229	0.022
-597.040	-200.000	0.058	-0.260
-596.025	585.267	-0.160	-0.399
-595.011	682.949	-0.111	-0.293
-593.996	79.423	-0.155	-0.169
-592.982	23.064	-0.048	-0.040
-591.967	65.817	-0.155	0.159
-590.952	-90.518	0.128	-0.038
-589.938	-200.000	-0.002	-0.122
-588.923	43.777	0.071	-0.066
-587.909	-200.000	-0.050	0.278
-586.894	42.889	0.241	0.223
-585.879	-200.000	-0.018	0.085
-584.865	800.000	0.042	-0.133
-583.850	-111.156	-0.203	-0.042
-582.836	-200.000	0.045	0.214
-581.821	-200.000	0.061	-0.302
-580.806	142.293	-0.256	-0.345
-579.792	800.000	-0.052	-0.175
-578.777	-103.614	0.317	-0.075
-577.763	197.867	0.054	-0.083
-576.748	121.303	-0.194	0.245
-575.733	103.123	-0.068	0.081
-574.719	800.000	0.100	0.336
-573.704	25.335	0.238	0.201
-572.690	111.960	0.450	-0.551
-571.675	-122.505	-0.049	-0.008
-570.661	800.000	0.137	-0.397
-569.646	-96.510	0.232	-0.062
-568.631	111.178	0.192	0.235
-567.617	-200.000	-0.129	-0.000
-566.602	-19.436	-0.283	0.178
-565.588	800.000	-0.014	0.050
-564.573	506.937	0.078	0.183
-563.558	-115.629	-0.082	0.016
-562.544	800.000	0.070	-0.205
-561.529	76.849	0.074	0.079
-560.515	-67.413	0.191	-0.076
-559.500	-200.000	0.013	0.206
-558.485	-196.662	0.351	0.002
-557.471	133.207	-0.031	0.040
-556.456	-59.392	-0.292	0.127
-555.442	-43.228	0.469	-0.241
-554.427	3.804	0.150	-0.111
-553.412	-91.885	-0.196	0.056
-552.398	-200.000	-0.062	-0.282
-551.383	-32.329	0.119	-0.067
-550.369	58.586	0.151	-0.151
-549.354	384.857	-0.222	-0.464
-548.339	-53.297	0.116	-0.054
-547.325	-34.505	0.226	-0.126
-546.310	-26.012	-0.079	-0.047
-545.296	-200.000	-0.052	-0.530
-544.281	-99.203	0.246	0.063
-543.266	0.878	0.187	-0.136
-542.252	-83.198	-0.389	-0.127
-541.237	184.788	0.051	0.077
-540.223	800.000	-0.039	0.115
-539.208	-81.085	-0.258	0.086
-538.193	-161.064	-0.359	-0.019
-537.179	-53.176	-0.230	-0.107
-536.164	-200.000	0.023	-0.187
-535.150	88.507	-0.226	0.255
-534.135	-200.000	0.074	0.415
-533.121	-152.316	-0.182	-0.013
-532.106	95.216	-0.226	0.261
-531.091	111.288	0.255	-0.312
-530.077	-41.295	-0.066	0.034
-529.062	124.500	0.175	0.223
-528.048	186.870	-0.106	0.159
-527.033	683.358	0.030	0.079
-526.018	-39.982	-0.253	-0.134
-525.004	315.144	0.113	-0.215
-523.989	-200.000	-0.016	0.303
-522.975	117.648	-0.126	0.157
-521.960	-120.041	-0.130	0.023
-520.945	378.218	0.171	-0.355
-519.931	-20.141	-0.210	-0.131
-518.916	800.000	-0.028	-0.104
-517.902	-108.040	-0.375	-0.082
-516.887	15.981	0.199	-0.159
-515.872	-40.165	-0.206	0.109
-514.858	-11.112	0.205	0.137
-513.843	-37.576	0.163	0.088
-512.829	-200.000	-0.008	-0.381
-511.814	-64.417	0.340	0.140
-510.799	-79.992	-0.271	-0.092
-509.785	268.357	0.025	-0.044
-508.770	800.000	-0.039	0.162
-507.756	569.330	0.026	-0.064
-506.741	267.854	0.136	0.241
-505.726	-29.135	0.340	0.197
-504.712	25.576	-0.253	0.213
-503.697	29.639	0.318	0.274
-502.683	-200.000	-0.012	0.179
-501.668	-175.415	0.049	-0.001
-500.653	60.628	-0.201	0.202
-499.639	-200.000	-0.025	0.362
-498.624	-200.000	-0.015	-0.075
-497.610	528.617	-0.035	-0.084
-496.595	595.367	-0.095	0.238
-495.581	-72.700	0.298	-0.111
-494.566	-200.000	0.021	0.122
-493.551	-200.000	-0.025	0.111
-492.537	106.507	0.303	0.364
-491.522	800.000	0.086	0.270
-490.508	-155.693	0.397	0.026
-489.493	-96.842	0.203	-0.054
-488.478	-13.931	-0.166	-0.108
-487.464	125.082	0.147	-0.187
-486.449	307.327	0.018	0.035
-485.435	431.496	0.044	-0.096
-484.420	47.148	0.198	-0.187
-483.405	-90.043	0.100	-0.029
-482.391	78.274	-0.163	-0.175
-481.376	-134.212	-0.188	0.023
-480.362	674.654	0.067	0.176
-479.347	-40.199	-0.276	-0.145
-478.332	-118.543	0.289	-0.052
-477.318	800.000	0.084	-0.267
-476.303	262.789	0.193	-0.338
-475.289	-200.000	0.037	-0.182
-474.274	-34.667	-0.127	-0.070
-473.259	18.333	-0.177	0.143
-472.245	-200.000	0.012	-0.118
-471.230	-200.000	-0.023	-0.147
-470.216	800.000	0.064	-0.210
-469.201	-82.895	0.375	0.122
-468.186	-144.375	0.341	-0.032
-467.172	196.724	-0.085	0.132
-466.157	-200.000	0.057	-0.341
-465.143	-166.501	-0.120	-0.005
-464.128	268.698	0.031	0.056
-463.113	-197.419	0.329	0.002
-462.099	-115.979	0.444	0.084
-461.084	13.357	-0.333	0.261
-460.070	-98.915	-0.159	-0.041
-459.055	-7.638	0.424	-0.290
-458.040	34.736	-0.293	0.259
-457.026	-7.103	-0.015	-0.010
-456.011	-200.000	0.104	0.000
-454.997	-45.448	0.129	0.065
-453.982	800.000	0.030	0.089
-452.968	-63.783	-0.300	-0.124
-451.953	-81.745	0.055	0.018
-450.938	-40.573	0.412	0.216
-449.924	-88.218	0.371	0.112
-448.909	-129.233	-0.368	0.052
-447.895	64.043	-0.189	-0.192
-446.880	-154.696	0.213	0.014
-445.865	-23.751	0.183	0.111
-444.851	800.000	-0.071	-0.284
-443.836	-200.000	0.007	-0.114
-442.822	131.914	0.111	0.145
-441.807	-200.000	0.055	0.302
-440.792	24.165	-0.264	-0.220
-439.778	-178.422	0.220	-0.005
-438.763	17.168	0.091	0.073
-437.749	-159.067	0.192	-0.011
-436.734	-138.473	-0.157	0.017
-435.719	690.099	0.106	-0.280
-434.705	-200.000	-0.061	0.289
-433.690	170.433	-0.064	0.093
-432.676	-200.000	0.042	0.309
-431.661	109.042	-0.079	0.095
-430.646	-152.213	0.260	-0.019
-429.632	-115.609	-0.298	-0.056
-428.617	130.216	-0.102	0.132
-427.603	-9.684	-0.225	-0.152
-426.588	-36.498	-0.046	-0.025
-425.573	-0.294	-0.095	-0.068
-424.559	800.000	0.030	-0.122
-423.544	388.753	-0.096	-0.200
-422.530	-114.864	0.185	0.036
-421.515	762.522	0.081	-0.223
-420.500	27.820	0.117	0.099
-419.486	-200.000	0.033	0.350
-418.471	745.982	-0.157	0.426
-417.457	219.920	-0.082	-0.132
-416.442	50.762	-0.090	-0.086
-415.428	-200.000	-0.004	0.096
-414.413	800.000	-0.037	0.106
-413.398	336.981	0.041	0.080
-412.384	267.834	0.154	-0.271
-411.369	42.488	0.056	0.051
-410.355	549.216	0.070	0.169
-409.340	-46.124	-0.071	-0.035
-408.325	-200.000	-0.005	-0.147
-407.311	-200.000	-0.005	-0.058
-406.296	243.056	0.044	0.075
-405.282	191.796	0.238	0.362
-404.267	27.262	0.005	-0.004
-403.252	-200.000	-0.314	0.001
-402.238	113.242	-0.071	-0.087
-401.223	59.389	-0.240	-0.238
-400.209	430.743	-0.076	-0.166
-399.194	-11.440	0.115	-0.076
-398.179	800.000	-0.057	0.239
-397.165	-122.723	0.557	-0.091
-396.150	31.479	-0.065	0.056
-395.136	-200.000	-0.028	-0.152
-394.121	-132.999	-0.123	-0.016
-393.106	344.327	0.208	-0.412
-392.092	-39.425	-0.288	-0.152
-391.077	-151.507	0.403	-0.030
-390.063	363.705	-0.178	0.362
-389.048	218.528	0.179	0.288
-388.033	-121.781	-0.596	0.099
-387.019	800.000	0.014	-0.043
-386.004	168.699	0.267	-0.384
-384.990	-6.269	0.042	-0.029
-383.975	800.000	0.106	-0.384
-382.960	-80.004	-0.224	-0.076
-381.946	723.447	-0.026	-0.069
-380.931	219.167	0.095	-0.152
-379.917	183.202	0.122	0.181
-378.902	-176.431	-0.013	0.000
-377.888	-55.286	0.127	-0.058
-376.873	-200.000	-0.031	0.381
-375.858	220.143	-0.246	-0.397
-374.844	-13.193	-0.337	0.221
-373.829	-54.290	0.134	-0.061
-372.815	68.465	-0.175	-0.181
-371.800	-8.035	-0.317	0.215
-370.785	454.698	0.092	-0.204
-369.771	-69.539	-0.341	-0.132
-368.756	244.170	-0.147	0.248
-367.742	-200.000	-0.025	0.122
-366.727	-104.207	0.044	0.010
-365.712	-200.000	0.022	0.202
-364.698	42.379	0.026	0.024
-363.683	-54.500	-0.179	0.082
-362.669	-35.986	0.048	0.026
-361.654	55.337	-0.103	0.100
-360.639	136.016	0.180	0.236
-359.625	-14.933	-0.143	-0.092
-358.610	-200.000	-0.040	0.315
-357.596	233.349	0.090	0.149
-356.581	-129.335	-0.316	0.044
-355.566	29.160	0.155	-0.133
-354.552	-8.059	-0.083	0.056
-353.537	2.892	-0.127	0.093
-352.523	-28.717	0.074	0.043
-351.508	800.000	-0.063	0.196
-350.493	-139.866	0.092	0.010
-349.479	147.713	0.111	-0.151
-348.464	-53.952	-0.109	-0.050
-347.450	368.649	0.063	-0.129
-346.435	670.514	-0.156	0.406
-345.420	-138.947	0.071	0.008
-344.406	51.132	-0.144	0.137
-343.391	800.000	-0.084	0.332
-342.377	800.000	-0.094	-0.274
-341.362	11.449	0.050	0.038
-340.348	-156.515	-0.062	0.004
-339.333	-98.513	-0.024	0.006
-338.318	-200.000	-0.004	0.086
-337.304	54.048	0.124	-0.120
-336.289	34.616	0.135	0.118
-335.275	800.000	-0.019	0.063
-334.260	-68.345	-0.376	0.147
-333.245	304.766	-0.033	0.061
-332.231	-200.000	0.030	-0.325
-331.216	325.336	-0.079	-0.152
-330.202	-116.828	-0.320	0.059
-329.187	-66.325	0.059	-0.024
-328.172	543.652	0.086	0.207
-327.158	-162.664	-0.178	-0.009
-326.143	-68.988	0.177	-0.069
-325.129	-200.000	-0.005	-0.468
-324.114	-62.905	-0.195	0.081
-323.099	-2.935	0.190	-0.133
-322.085	129.345	-0.197	-0.252
-321.070	215.919	-0.022	-0.035
-320.056	249.036	-0.120	0.204
-319.041	-200.000	-0.005	-0.077
-318.026	-200.000	0.010	0.083
-317.012	307.615	0.152	-0.284
-315.997	-200.000	0.009	-0.242
-314.983	800.000	-0.114	0.333
-313.968	-21.517	-0.068	0.042
-312.953	14.422	0.238	-0.186
-311.939	393.118	-0.036	0.075
-310.924	599.545	0.045	-0.112
-309.910	-10.382	-0.235	0.156
-308.895	-35.674	-0.120	-0.065
-307.880	-38.425	-0.220	-0.117
-306.866	453.065	-0.175	0.389
-305.851	-152.602	0.244	-0.017
-304.837	61.812	0.200	0.200
-303.822	-99.853	-0.240	-0.060
-302.807	-125.826	0.261	0.040
-301.793	175.302	0.121	0.175
-300.778	-200.000	0.079	-0.447
-299.764	6.121	0.055	0.041
-298.749	74.032	0.276	-0.291
-297.735	-62.315	-0.177	-0.074
-296.720	-52.853	0.114	-0.053
-295.705	450.102	-0.057	-0.126
-294.691	-99.176	-0.248	0.063
-293.676	-160.879	0.279	0.015
-292.662	-200.000	0.003	-0.195
-291.647	-41.903	0.131	0.067
-290.632	56.463	0.066	0.065
-289.618	-183.837	-0.457	0.008
-288.603	-22.143	0.212	-0.129
-287.589	-200.000	0.007	-0.091
-286.574	281.064	-0.095	-0.171
-285.559	-139.092	-0.271	0.029
-284.545	106.296	-0.084	-0.100
-283.530	359.882	-0.064	-0.128
-282.516	6.289	-0.294	-0.219
-281.501	622.004	0.078	0.196
-280.486	746.466	-0.038	0.102
-279.472	20.964	0.019	-0.016
-278.457	140.303	0.137	-0.181
-277.443	-117.932	-0.203	0.036
-276.428	11.995	0.097	0.075
-275.413	70.449	0.022	-0.023
-274.399	-108.487	0.273	-0.059
-273.384	-14.201	0.286	0.185
-272.370	-82.191	-0.398	-0.130
-271.355	10.069	0.063	0.048
-270.340	20.102	0.178	-0.144
-269.326	-200.000	-0.022	0.259
-268.311	-63.000	-0.348	-0.144
-267.297	111.626	-0.087	0.105
-266.282	-149.784	0.160	0.013
-265.267	-184.683	-0.030	0.000
-264.253	800.000	0.120	-0.463
-263.238	-3.120	0.192	-0.135
-262.224	358.404	0.033	0.066
-261.209	800.000	0.089	0.361
-260.195	55.090	-0.304	0.295
-259.180	-172.492	0.394	0.013
-258.165	-126.434	0.192	-0.029
-257.151	-65.643	-0.124	0.050
-256.136	800.000	-0.046	0.183
-255.122	800.000	-0.058	-0.171
-254.107	-200.000	-0.102	-0.000
-253.092	-7.152	-0.231	0.157
-252.078	308.758	-0.157	0.293
-251.063	-24.080	0.433	0.259
-250.049	-135.200	-0.154	-0.019
-249.034	-116.392	0.104	0.019
-248.019	-152.748	-0.190	0.014
-247.005	-5.726	0.239	0.164
-245.990	-200.000	0.015	0.159
-244.976	70.003	-0.150	-0.155
-243.961	732.811	-0.044	-0.118
-242.946	-37.410	0.158	0.085
-241.932	-173.424	0.417	-0.013
-240.917	149.087	0.091	0.123
-239.903	340.615	0.101	-0.198
-238.888	800.000	0.075	0.231
-237.873	-200.000	0.022	0.122
-236.859	-43.887	-0.111	0.056
-235.844	800.000	0.057	-0.198
-234.830	-50.596	-0.353	0.167
-233.815	800.000	-0.032	0.133
-232.800	-136.514	0.244	-0.028
-231.786	-200.000	0.025	-0.229
-230.771	-177.790	-0.236	0.006
-229.757	-70.799	0.103	-0.039
-228.742	-200.000	0.020	-0.239
-227.727	-24.902	-0.298	0.177
-226.713	-49.630	0.040	-0.019
-225.698	-142.220	-0.346	0.034
-224.684	109.044	-0.022	-0.026
-223.669	-61.220	-0.229	0.096
-222.655	800.000	-0.030	0.085
-221.640	-200.000	0.037	0.304
-220.625	-128.237	0.195	-0.028
-219.611	-169.696	-0.082	0.003
-218.596	159.353	-0.174	-0.243
-217.582	10.492	-0.112	-0.085
-216.567	421.562	0.149	-0.321
-215.552	121.467	-0.193	0.241
-214.538	-47.852	-0.122	-0.059
-213.523	33.928	-0.155	0.135
-212.509	-200.000	-0.069	0.503
-211.494	-121.568	-0.094	0.016
-210.479	-200.000	0.017	-0.112
-209.465	221.083	0.161	-0.258
-208.450	800.000	0.099	-0.313
-207.436	-144.335	0.198	-0.018
-206.421	-53.919	0.163	-0.074
-205.406	133.455	0.190	0.246
-204.392	-195.181	-0.369	-0.003
-203.377	-200.000	0.016	0.421
-202.363	-162.489	-0.152	-0.008
-201.348	-200.000	-0.014	-0.196
-200.333	-135.870	0.308	0.036
-199.319	-200.000	-0.048	0.246
-198.304	-11.626	-0.066	0.043
-197.290	-200.000	-0.096	-0.460
-196.275	9.333	-0.210	-0.159
-195.260	-200.000	-0.011	-0.250
-194.246	28.602	0.093	0.078
-193.231	-155.446	0.046	0.003
-192.217	-167.672	0.156	-0.006
-191.202	318.870	0.085	0.162
-190.187	770.294	-0.068	0.185
-189.173	-141.419	0.254	0.026
-188.158	42.979	0.184	-0.168
-187.144	664.443	-0.079	0.203
-186.129	77.377	-0.164	-0.175
-185.114	-16.013	0.133	0.084
-184.100	-200.000	0.005	-0.031
-183.085	-47.610	-0.266	-0.129
-182.071	-94.618	0.170	-0.046
-181.056	112.757	0.132	-0.159
-180.042	-110.636	-0.127	0.026
-179.027	-107.608	0.128	0.028
-178.012	-99.269	0.076	-0.019
-176.998	800.000	-0.037	0.150
-175.983	-128.073	0.260	0.037
-174.969	13.917	-0.177	-0.137
-173.954	43.903	-0.072	-0.066
-172.939	-85.200	0.560	0.175
-171.925	-116.620	-0.333	-0.061
-170.910	208.702	-0.210	-0.328
-169.896	-142.675	-0.102	-0.010
-168.881	-107.876	0.193	0.042
-167.866	420.715	-0.059	-0.127
-166.852	306.554	0.139	0.258
-165.837	293.405	-0.044	0.080
-164.823	-96.993	0.113	-0.030
-163.808	-126.962	0.025	0.004
-162.793	205.468	-0.251	-0.390
-161.779	-70.194	-0.165	0.063
-160.764	192.452	-0.138	0.208
-159.750	131.801	0.150	0.192
-158.735	-200.000	0.007	0.093
-157.720	-129.110	-0.101	-0.014
-156.706	280.842	-0.076	0.136
-155.691	27.921	0.121	0.102
-154.677	-174.870	0.037	-0.001
-153.662	-121.272	0.270	0.045
-152.647	14.779	0.231	0.180
-151.633	54.810	-0.182	-0.175
-150.618	-200.000	-0.032	-0.287
-149.604	28.607	0.201	-0.170
-148.589	-101.145	-0.202	-0.049
-147.574	767.999	-0.094	-0.256
-146.560	800.000	-0.022	0.084
-145.545	-200.000	0.021	0.150
-144.531	27.511	0.226	0.190
-143.516	658.512	-0.069	0.176
-142.502	-200.000	0.014	0.141
-141.487	-117.162	-0.225	0.041
-140.472	-166.680	0.133	0.005
-139.458	193.951	0.161	0.243
-138.443	-11.287	0.091	0.060
-137.429	800.000	0.083	-0.234
-136.414	18.468	0.148	-0.118
-135.399	71.332	-0.214	0.221
-134.385	-43.081	0.215	-0.109
-133.370	800.000	0.076	-0.311
-132.356	41.399	-0.157	-0.142
-131.341	32.869	-0.104	0.090
-130.326	0.972	0.177	0.126
-129.312	464.261	0.158	0.352
-128.297	-103.926	-0.311	-0.072
-127.283	-83.458	-0.198	-0.063
-126.268	156.855	-0.179	-0.246
-125.253	-64.766	-0.179	-0.072
-124.239	224.450	0.183	-0.296
-123.224	800.000	-0.035	-0.109
-122.210	-200.000	-0.002	0.022
