DTS Sentinel unit serial number:	SN413079Multiplexer serial number:	ORYXHardware model number:	OX4-SRSoftware version number:	ORYX F/W v4.00 Oryx Data Collector v3.7.2.0data status	okinstallation	princeton_trtdifferential loss correction	single-endedforward channel	channel 1reverse channel	N/Adate	2019/09/13time	12:02:35forward acquisition time	60.00reverse acquisition time	0.00gamma	496.2192k internal	0.2311k external	0.2311temperature offset calibration	1.0168default loss term (dB/km)	0.3790temperature slope calibration	1.0000multiplexer offset coefficient	1.0000multiplexer slope coefficient	1.0000fibre end	0.00T internal ref (°C)	33.62T ext. ref 1 (°C)	4.60T ext. ref 2 (°C)	31.17length (m)	temperature (°C)	Stokes	anti-Stokes-747.200	-200.000	0.008	-0.273
-746.185	800.000	-0.034	-0.098
-745.171	800.000	-0.015	-0.043
-744.156	800.000	-0.051	0.215
-743.142	-200.000	-0.019	-0.263
-742.127	107.657	-0.269	0.325
-741.112	-77.841	0.092	0.032
-740.098	-53.209	-0.240	-0.112
-739.083	735.315	0.042	0.113
-738.069	-200.000	-0.087	0.456
-737.054	-24.084	-0.263	-0.160
-736.039	715.211	0.125	0.338
-735.025	490.420	-0.104	0.241
-734.010	226.307	-0.200	-0.329
-732.996	84.689	0.258	-0.287
-731.981	-39.449	0.083	0.044
-730.966	-200.000	-0.318	0.001
-729.952	-83.017	0.315	-0.103
-728.937	13.634	0.120	-0.094
-727.923	-178.474	-0.116	0.003
-726.908	317.710	-0.170	-0.326
-725.894	75.724	0.151	-0.162
-724.879	63.638	-0.148	0.150
-723.864	800.000	0.129	0.395
-722.850	1.073	0.184	-0.134
-721.835	-65.521	-0.229	-0.093
-720.821	33.050	0.119	0.105
-719.806	-200.000	-0.035	-0.196
-718.791	-200.000	-0.050	-0.327
-717.777	-128.418	-0.073	-0.010
-716.762	-200.000	-0.047	0.418
-715.748	100.652	-0.285	-0.335
-714.733	-56.406	0.225	0.101
-713.718	22.960	0.042	0.035
-712.704	-200.000	0.016	-0.350
-711.689	-101.304	-0.263	0.065
-710.675	-49.950	0.265	0.128
-709.660	-75.407	-0.112	-0.040
-708.645	-14.936	0.043	-0.028
-707.631	30.911	-0.154	-0.134
-706.616	317.764	0.091	-0.175
-705.602	-200.000	0.005	-0.130
-704.587	-4.340	-0.289	-0.202
-703.572	143.437	-0.022	-0.030
-702.558	-37.756	-0.144	0.078
-701.543	789.316	-0.100	0.278
-700.529	573.948	0.040	0.100
-699.514	800.000	-0.058	-0.175
-698.499	108.258	0.171	-0.206
-697.485	-200.000	-0.003	0.095
-696.470	-200.000	-0.010	0.296
-695.456	157.083	0.236	-0.331
-694.441	441.579	-0.030	-0.066
-693.426	36.818	0.172	0.154
-692.412	-96.535	0.205	0.055
-691.397	-102.632	-0.094	0.023
-690.383	-104.384	-0.035	-0.008
-689.368	165.623	-0.104	-0.149
-688.354	-199.061	-0.108	-0.001
-687.339	-1.243	-0.333	0.238
-686.324	-95.830	0.197	0.053
-685.310	313.121	0.065	0.124
-684.295	-200.000	-0.055	0.291
-683.281	-195.282	0.362	0.003
-682.266	537.003	0.065	-0.157
-681.251	-198.333	-0.443	0.003
-680.237	-62.558	-0.089	-0.038
-679.222	21.617	-0.159	-0.131
-678.208	-200.000	-0.041	-0.250
-677.193	-23.829	-0.188	0.114
-676.178	-153.156	-0.038	0.003
-675.164	355.589	-0.123	0.248
-674.149	-84.375	-0.175	0.056
-673.135	-134.489	-0.173	-0.021
-672.120	-105.380	0.131	0.030
-671.105	6.400	0.164	-0.123
-670.091	210.105	0.044	0.070
-669.076	-45.700	-0.077	-0.039
-668.062	42.589	0.204	0.188
-667.047	-200.000	0.018	0.149
-666.032	18.162	-0.131	0.106
-665.018	-19.123	-0.309	-0.194
-664.003	-200.000	-0.012	0.178
-662.989	467.874	0.100	0.226
-661.974	-59.681	0.054	-0.023
-660.959	-160.981	-0.376	0.020
-659.945	-90.555	0.204	0.060
-658.930	-115.708	-0.228	0.043
-657.916	-68.698	0.171	-0.067
-656.901	800.000	0.022	-0.096
-655.886	-21.449	0.123	0.076
-654.872	-198.328	-0.164	0.001
-653.857	740.569	0.043	0.118
-652.843	177.739	-0.169	0.249
-651.828	-169.201	0.187	0.007
-650.814	-112.922	-0.311	0.062
-649.799	-200.000	-0.040	-0.394
-648.784	800.000	-0.070	0.258
-647.770	-1.860	0.293	0.208
-646.755	-24.634	-0.153	0.092
-645.741	-174.235	-0.223	0.007
-644.726	-200.000	0.085	0.453
-643.711	-115.864	-0.214	-0.040
-642.697	71.836	-0.179	-0.188
-641.682	4.857	0.146	-0.108
-640.668	-132.712	-0.182	0.024
-639.653	-200.000	0.008	0.087
-638.638	-200.000	-0.041	-0.374
-637.624	-167.881	-0.236	0.009
-636.609	179.476	-0.179	-0.265
-635.595	-23.907	-0.091	0.055
-634.580	-118.767	0.153	-0.027
-633.565	24.319	0.034	-0.028
-632.551	313.956	0.068	-0.130
-631.536	43.821	0.056	-0.052
-630.522	-73.397	0.090	0.033
-629.507	-200.000	0.036	0.330
-628.492	74.519	0.096	-0.102
-627.478	8.957	-0.172	0.131
-626.463	800.000	-0.053	-0.221
-625.449	163.035	0.015	0.022
-624.434	-200.000	-0.017	0.347
-623.419	120.301	-0.066	0.083
-622.405	-130.538	-0.307	-0.042
-621.390	170.645	0.152	-0.221
-620.376	-200.000	0.017	-0.107
-619.361	-31.987	0.157	-0.089
-618.346	199.579	0.211	0.327
-617.332	-134.352	-0.157	0.019
-616.317	133.384	-0.174	-0.227
-615.303	800.000	-0.041	-0.125
-614.288	-20.235	0.072	-0.045
-613.273	144.968	-0.098	0.133
-612.259	800.000	0.177	-0.535
-611.244	-0.354	0.163	-0.117
-610.230	272.533	-0.049	0.087
-609.215	32.850	0.065	-0.057
-608.201	332.423	-0.106	0.206
-607.186	-126.261	0.216	-0.033
-606.171	-154.308	-0.314	-0.021
-605.157	52.097	0.032	-0.031
-604.142	81.954	0.151	-0.165
-603.128	-58.071	0.228	0.100
-602.113	-113.714	-0.163	0.032
-601.098	-147.744	-0.102	-0.009
-600.084	-62.286	-0.255	0.107
-599.069	-106.695	-0.050	0.011
-598.055	15.368	-0.106	-0.084
-597.040	800.000	0.161	-0.463
-596.025	560.241	-0.082	-0.199
-595.011	-80.168	0.317	-0.107
-593.996	-153.897	-0.104	0.007
-592.982	-186.530	-0.165	-0.002
-591.967	-107.939	0.246	0.054
-590.952	288.505	0.126	0.231
-589.938	-122.078	0.245	0.041
-588.923	-63.828	-0.168	-0.069
-587.909	-200.000	-0.005	-0.343
-586.894	-16.876	-0.033	0.021
-585.879	-121.136	-0.054	0.009
-584.865	-200.000	0.022	-0.335
-583.850	27.699	-0.133	-0.113
-582.836	48.052	0.159	-0.150
-581.821	-200.000	-0.005	-0.167
-580.806	800.000	-0.055	0.174
-579.792	92.392	-0.202	0.230
-578.777	-95.305	-0.320	0.087
-577.763	800.000	0.041	-0.121
-576.748	-99.695	-0.030	0.008
-575.733	-21.178	-0.402	0.248
-574.719	625.578	-0.070	0.179
-573.704	-73.346	0.140	0.052
-572.690	661.113	0.044	0.114
-571.675	133.070	-0.113	0.148
-570.661	172.397	0.210	0.304
-569.646	-200.000	0.024	-0.420
-568.631	112.671	-0.188	0.230
-567.617	-152.243	-0.119	0.009
-566.602	-83.194	-0.298	-0.096
-565.588	26.280	-0.263	0.221
-564.573	-29.672	0.148	-0.085
-563.558	-163.295	-0.399	0.019
-562.544	244.202	0.271	0.458
-561.529	39.076	-0.175	-0.157
-560.515	-93.820	-0.149	-0.041
-559.500	72.467	-0.263	0.277
-558.485	-152.428	-0.088	-0.006
-557.471	137.824	-0.139	0.183
-556.456	-200.000	0.027	-0.213
-555.442	-29.781	-0.173	-0.099
-554.427	699.552	0.063	0.167
-553.412	-142.719	-0.283	-0.028
-552.398	565.229	0.011	-0.027
-551.383	-127.481	-0.172	0.025
-550.369	797.385	0.100	0.277
-549.354	317.353	0.152	0.290
-548.339	-60.777	-0.233	-0.099
-547.325	-200.000	-0.022	0.190
-546.310	-63.313	-0.138	-0.057
-545.296	800.000	-0.037	0.115
-544.281	-18.430	0.117	-0.073
-543.266	393.383	-0.044	-0.092
-542.252	217.879	0.060	0.097
-541.237	-20.806	-0.106	-0.066
-540.223	-200.000	-0.044	0.336
-539.208	85.382	0.186	-0.206
-538.193	800.000	-0.108	-0.399
-537.179	-165.028	-0.406	-0.018
-536.164	273.189	-0.140	-0.249
-535.150	-200.000	-0.018	-0.236
-534.135	-175.663	-0.093	-0.003
-533.121	288.661	-0.081	0.147
-532.106	-7.250	-0.178	-0.121
-531.091	171.327	0.111	-0.160
-530.077	-82.528	-0.232	-0.076
-529.062	263.885	-0.136	0.239
-528.048	602.556	0.076	-0.191
-527.033	155.159	0.040	-0.055
-526.018	-18.033	0.106	0.067
-525.004	12.771	0.206	0.160
-523.989	-200.000	-0.033	-0.272
-522.975	121.067	0.319	0.400
-521.960	800.000	-0.049	-0.146
-520.945	-120.092	-0.288	-0.050
-519.931	800.000	0.084	0.304
-518.916	-101.032	0.155	0.038
-517.902	800.000	0.082	-0.336
-516.887	97.827	0.130	-0.150
-515.872	297.327	-0.115	-0.213
-514.858	-200.000	0.001	-0.101
-513.843	57.450	0.096	0.095
-512.829	800.000	0.086	-0.260
-511.814	800.000	0.041	0.166
-510.799	800.000	-0.064	0.252
-509.785	-124.300	-0.247	0.039
-508.770	-9.682	-0.227	0.152
-507.756	-4.826	-0.070	-0.048
-506.741	-80.923	0.479	0.160
-505.726	47.027	-0.271	0.253
-504.712	-200.000	0.020	0.097
-503.697	88.646	-0.158	-0.177
-502.683	-26.715	0.135	-0.079
-501.668	-45.377	0.136	-0.068
-500.653	357.267	-0.091	0.183
-499.639	-146.382	-0.592	-0.052
-498.624	-73.926	-0.252	-0.092
-497.610	91.693	-0.235	-0.266
-496.595	93.490	0.157	0.179
-495.581	-140.734	0.092	0.010
-494.566	-200.000	-0.050	0.313
-493.551	4.136	0.101	-0.074
-492.537	-200.000	-0.049	0.330
-491.522	-15.723	-0.058	-0.037
-490.508	-68.112	-0.195	-0.076
-489.493	-200.000	-0.035	-0.279
-488.478	-174.032	0.158	0.005
-487.464	-75.831	0.277	-0.099
-486.449	87.238	0.109	-0.121
-485.435	-153.196	-0.201	0.014
-484.420	-200.000	0.026	-0.159
-483.405	800.000	0.039	-0.109
-482.391	10.662	-0.274	0.210
-481.376	-123.865	-0.224	0.036
-480.362	-87.077	0.198	-0.060
-479.347	-200.000	-0.007	-0.239
-478.332	-123.070	0.246	-0.040
-477.318	-72.943	0.152	-0.056
-476.303	800.000	-0.067	0.206
-475.289	20.045	-0.215	0.174
-474.274	-155.777	-0.128	0.008
-473.259	229.955	0.159	0.261
-472.245	51.804	0.107	-0.102
-471.230	-200.000	-0.004	0.062
-470.216	-200.000	0.011	0.224
-469.201	120.468	0.047	0.058
-468.186	127.196	0.111	-0.141
-467.172	-200.000	-0.009	-0.161
-466.157	-21.764	-0.269	-0.164
-465.143	130.630	0.154	0.198
-464.128	-121.575	-0.072	-0.012
-463.113	-95.779	-0.216	-0.058
-462.099	6.642	0.059	0.044
-461.084	-200.000	0.018	0.116
-460.070	-170.689	0.036	0.001
-459.055	-200.000	-0.017	0.112
-458.040	800.000	0.097	-0.299
-457.026	-171.240	0.088	0.003
-456.011	-78.490	0.210	0.072
-454.997	57.984	-0.195	0.192
-453.982	-58.830	0.072	0.031
-452.968	5.806	0.073	-0.054
-451.953	-109.687	-0.472	0.100
-450.938	-200.000	-0.002	-0.190
-449.924	-200.000	0.043	-0.255
-448.909	-116.010	0.162	0.030
-447.895	-136.504	-0.175	0.020
-446.880	250.851	0.139	0.237
-445.865	310.084	-0.137	0.257
-444.851	49.296	-0.188	-0.178
-443.836	-122.654	0.144	0.023
-442.822	19.631	0.286	-0.231
-441.807	-200.000	-0.066	0.318
-440.792	-48.097	-0.047	0.023
-439.778	219.000	-0.077	0.123
-438.763	-200.000	-0.025	-0.223
-437.749	-93.567	0.178	0.049
-436.734	800.000	0.027	0.091
-435.719	-60.230	0.103	0.044
-434.705	-82.540	-0.355	0.116
-433.690	763.415	0.065	0.177
-432.676	86.469	-0.176	-0.195
-431.661	110.424	0.178	0.214
-430.646	-88.456	-0.230	0.069
-429.632	110.063	0.103	0.124
-428.617	185.813	0.135	0.200
-427.603	61.379	-0.048	-0.048
-426.588	-200.000	-0.063	0.448
-425.573	-183.859	-0.284	0.005
-424.559	188.126	0.032	-0.048
-423.544	609.267	0.177	-0.444
-422.530	221.340	0.161	0.259
-421.515	4.995	0.373	-0.275
-420.500	706.780	-0.101	0.268
-419.486	-200.000	0.017	0.213
-418.471	-149.984	0.241	0.019
-417.457	115.326	0.016	0.020
-416.442	295.976	0.227	0.417
-415.428	-143.688	-0.054	-0.005
-414.413	-102.878	-0.150	0.036
-413.398	-53.808	0.148	0.068
-412.384	270.035	-0.142	0.250
-411.369	-200.000	-0.004	-0.092
-410.355	71.445	-0.027	0.028
-409.340	800.000	-0.024	-0.080
-408.325	800.000	-0.128	0.365
-407.311	1.972	-0.088	0.064
-406.296	-14.899	-0.087	0.056
-405.282	4.854	0.122	0.090
-404.267	800.000	0.080	0.265
-403.252	160.821	0.109	0.152
-402.238	-200.000	0.016	-0.486
-401.223	800.000	0.038	0.162
-400.209	38.086	0.163	0.145
-399.194	398.737	-0.062	0.129
-398.179	147.795	0.140	-0.189
-397.165	43.994	0.094	0.086
-396.150	369.136	-0.071	0.144
-395.136	67.301	0.250	0.255
-394.121	146.976	-0.053	0.071
-393.106	-103.244	0.265	0.063
-392.092	610.664	-0.014	-0.035
-391.077	71.125	-0.113	-0.118
-390.063	-186.178	0.092	-0.001
-389.048	197.503	-0.145	-0.221
-388.033	-17.500	0.157	0.099
-387.019	410.783	-0.041	0.088
-386.004	-87.078	0.168	0.051
-384.990	-137.030	0.212	-0.024
-383.975	800.000	-0.014	-0.053
-382.960	800.000	0.034	-0.116
-381.946	-61.661	-0.070	0.029
-380.931	-200.000	0.005	0.102
-379.917	77.681	0.076	-0.081
-378.902	-200.000	-0.035	0.205
-377.888	-80.172	-0.092	0.031
-376.873	-200.000	0.054	0.284
-375.858	-101.855	-0.332	0.080
-374.844	800.000	-0.087	-0.301
-373.829	800.000	-0.115	0.336
-372.815	-56.215	-0.254	0.113
-371.800	-200.000	-0.039	-0.251
-370.785	-163.124	0.239	0.012
-369.771	-60.523	0.176	-0.075
-368.756	-200.000	-0.053	0.286
-367.742	151.903	-0.152	-0.207
-366.727	-162.947	-0.255	0.012
-365.712	-200.000	0.040	-0.177
-364.698	-10.587	0.199	0.132
-363.683	800.000	-0.073	0.279
-362.669	-117.198	0.236	0.043
-361.654	-200.000	-0.030	0.171
-360.639	-139.958	0.336	-0.035
-359.625	259.267	-0.036	0.062
-358.610	132.023	-0.134	0.172
-357.596	-72.083	-0.107	-0.040
-356.581	142.478	-0.101	-0.134
-355.566	-53.953	0.187	0.085
-354.552	357.012	-0.080	-0.159
-353.537	-55.462	0.147	0.066
-352.523	-200.000	-0.038	0.195
-351.508	317.500	0.097	0.184
-350.493	62.140	-0.153	-0.153
-349.479	11.783	-0.142	0.109
-348.464	-95.853	0.244	0.065
-347.450	21.065	0.313	-0.254
-346.435	241.910	0.017	0.028
-345.420	-200.000	-0.003	-0.402
-344.406	57.406	0.030	-0.029
-343.391	-197.230	0.140	-0.001
-342.377	0.375	0.260	-0.185
-341.362	417.155	0.081	-0.172
-340.348	-60.822	-0.136	0.057
-339.333	-200.000	0.030	0.262
-338.318	800.000	-0.034	-0.144
-337.304	90.159	-0.089	-0.100
-336.289	-200.000	-0.007	-0.150
-335.275	162.872	-0.079	-0.111
-334.260	9.214	-0.366	-0.276
-333.245	-31.543	-0.134	0.075
-332.231	32.718	-0.205	-0.177
-331.216	63.242	0.229	0.230
-330.202	-200.000	0.006	-0.097
-329.187	800.000	0.031	0.100
-328.172	-104.939	0.240	0.055
-327.158	281.088	0.164	0.293
-326.143	-200.000	-0.064	0.291
-325.129	35.619	0.226	0.199
-324.114	-191.664	0.201	0.002
-323.099	51.815	-0.190	-0.181
-322.085	-200.000	0.016	0.386
-321.070	800.000	0.065	0.222
-320.056	-120.014	0.313	-0.054
-319.041	-54.752	-0.351	-0.158
-318.026	32.516	-0.344	-0.297
-317.012	-200.000	0.023	-0.128
-315.997	-200.000	-0.001	-0.305
-314.983	271.321	-0.138	-0.242
-313.968	-161.722	-0.083	0.004
-312.953	-200.000	0.021	0.287
-311.939	-150.676	-0.232	-0.018
-310.924	800.000	-0.031	0.090
-309.910	515.313	-0.053	0.123
-308.895	177.846	-0.106	-0.155
-307.880	-37.120	0.182	-0.097
-306.866	-93.570	0.253	0.070
-305.851	-200.000	0.007	-0.065
-304.837	542.798	-0.112	-0.266
-303.822	-4.516	0.304	-0.209
-302.807	-84.096	-0.062	-0.020
-301.793	-200.000	-0.060	-0.287
-300.778	-78.206	-0.079	-0.027
-299.764	557.796	0.117	-0.282
-298.749	-13.138	-0.090	0.058
-297.735	66.966	0.187	-0.190
-296.720	800.000	-0.056	0.158
-295.705	372.611	0.066	-0.133
-294.691	118.790	-0.130	-0.160
-293.676	800.000	0.072	0.294
-292.662	-173.648	0.030	0.001
-291.647	-200.000	-0.011	-0.267
-290.632	-67.421	-0.212	0.083
-289.618	-200.000	-0.009	0.063
-288.603	-78.589	0.334	-0.114
-287.589	32.175	-0.180	-0.154
-286.574	126.432	0.170	0.215
-285.559	-33.078	0.188	-0.104
-284.545	-32.308	0.365	0.203
-283.530	120.586	0.114	-0.141
-282.516	-107.512	0.231	0.050
-281.501	-62.267	0.213	0.088
-280.486	-162.381	-0.165	-0.008
-279.472	337.227	-0.106	-0.205
-278.457	283.815	0.180	-0.323
-277.443	14.525	-0.228	0.177
-276.428	-8.845	-0.161	-0.107
-275.413	346.913	0.152	0.299
-274.399	-170.777	-0.117	0.004
-273.384	-34.095	0.248	0.136
-272.370	341.004	0.121	-0.235
-271.355	77.098	0.033	-0.035
-270.340	134.011	-0.232	-0.299
-269.326	-178.138	-0.294	-0.007
-268.311	-56.446	0.074	-0.033
-267.297	728.355	-0.046	-0.122
-266.282	121.421	-0.277	-0.344
-265.267	-200.000	-0.051	-0.309
-264.253	800.000	-0.027	0.111
-263.238	-94.198	0.257	0.070
-262.224	-54.417	-0.282	0.127
-261.209	800.000	0.092	-0.306
-260.195	-107.220	0.245	-0.054
-259.180	800.000	-0.053	-0.190
-258.165	-174.686	0.116	-0.003
-257.151	-114.797	0.283	-0.054
-256.136	-200.000	0.058	0.333
-255.122	50.159	0.154	0.145
-254.107	676.095	-0.069	0.178
-253.092	15.932	-0.153	0.120
-252.078	421.393	0.078	-0.167
-251.063	274.574	0.131	-0.231
-250.049	-200.000	0.041	0.220
-249.034	176.271	0.178	0.258
-248.019	-82.837	-0.100	-0.032
-247.005	94.052	-0.181	0.205
-245.990	-106.911	-0.256	-0.056
-244.976	16.677	0.041	-0.032
-243.961	-80.473	-0.026	0.009
-242.946	-109.802	-0.357	-0.075
-241.932	-0.228	0.088	-0.062
-240.917	62.132	0.078	-0.077
-239.903	-48.660	-0.224	0.107
-238.888	-15.040	-0.109	-0.069
-237.873	384.748	0.106	0.218
-236.859	800.000	0.041	-0.152
-235.844	473.275	-0.079	-0.178
-234.830	-55.334	-0.089	-0.040
-233.815	-141.078	-0.159	-0.016
-232.800	-120.857	0.229	-0.038
-231.786	800.000	-0.100	-0.331
-230.771	800.000	0.087	0.256
-229.757	-24.679	0.103	0.061
-228.742	-74.465	-0.398	0.143
-227.727	223.799	-0.017	0.027
-226.713	-39.455	0.085	0.044
-225.698	178.166	0.150	-0.218
-224.684	4.932	-0.082	0.060
-223.669	32.998	0.048	-0.041
-222.655	97.452	-0.073	0.083
-221.640	-200.000	-0.091	-0.500
-220.625	-75.310	0.406	0.144
-219.611	-165.863	0.271	0.012
-218.596	-62.588	0.127	0.052
-217.582	-71.974	0.131	0.049
-216.567	265.664	0.053	0.092
-215.552	36.717	-0.160	-0.140
-214.538	800.000	0.063	0.224
-213.523	83.931	0.233	0.252
-212.509	800.000	0.025	-0.083
-211.494	238.128	-0.105	-0.174
-210.479	-200.000	-0.043	-0.213
-209.465	800.000	0.020	-0.054
-208.450	153.807	0.077	-0.105
-207.436	-13.582	-0.083	0.054
-206.421	553.640	-0.108	0.258
-205.406	55.091	0.185	0.177
-204.392	461.289	0.037	-0.082
-203.377	-147.819	0.254	-0.021
-202.363	800.000	-0.017	-0.074
-201.348	-16.861	0.200	0.126
-200.333	-35.562	0.103	-0.056
-199.319	800.000	0.050	0.147
-198.304	399.118	0.031	-0.064
-197.290	147.741	0.144	-0.193
-196.275	67.509	-0.144	-0.146
-195.260	206.009	-0.098	0.151
-194.246	-79.221	-0.152	-0.051
-193.231	-77.713	0.124	-0.042
-192.217	-109.061	0.246	-0.052
-191.202	205.085	-0.121	0.187
-190.187	-132.829	0.055	-0.007
-189.173	-179.762	-0.083	-0.002
-188.158	-149.533	-0.039	-0.003
-187.144	-200.000	0.002	0.127
-186.129	85.452	0.092	0.100
-185.114	-44.670	0.115	-0.057
-184.100	-21.431	-0.113	-0.069
-183.085	-57.041	-0.174	-0.076
-182.071	18.625	0.189	0.150
-181.056	504.803	0.201	-0.462
-180.042	759.224	0.050	-0.134
-179.027	800.000	-0.046	-0.166
-178.012	102.630	0.149	0.173
-176.998	-200.000	-0.018	-0.181
-175.983	-200.000	0.051	-0.262
-174.969	63.358	-0.289	-0.288
-173.954	249.961	0.069	-0.116
-172.939	-95.641	0.205	-0.055
-171.925	-106.662	0.216	-0.048
-170.910	160.186	0.103	-0.142
-169.896	-200.000	0.038	-0.306
-168.881	46.014	0.232	0.214
-167.866	19.828	0.035	-0.028
-166.852	-136.689	0.084	-0.010
-165.837	-65.360	-0.053	-0.021
-164.823	179.875	0.191	0.277
-163.808	-140.178	-0.305	0.032
-162.793	-163.155	0.093	0.004
-161.779	394.062	0.077	0.160
-160.764	129.724	0.109	0.139
-159.750	-22.103	0.194	-0.117
-158.735	-68.230	0.185	0.071
-157.720	-200.000	0.003	0.055
-156.706	800.000	-0.020	0.072
-155.691	-132.624	-0.183	0.023
-154.677	800.000	0.039	-0.167
-153.662	124.509	-0.181	0.226
-152.647	-39.500	0.184	0.096
-151.633	-97.434	0.204	-0.053
-150.618	-111.100	-0.065	-0.013
-149.604	-90.633	-0.090	0.026
-148.589	-159.893	0.085	-0.005
-147.574	-200.000	0.046	-0.336
-146.560	184.631	0.078	-0.115
-145.545	-13.468	-0.118	0.076
-144.531	82.913	-0.124	-0.134
-143.516	-131.788	-0.099	-0.013
-142.502	37.137	-0.477	-0.419
-141.487	433.403	-0.108	-0.232
-140.472	-17.934	0.077	0.048
-139.458	-26.937	0.375	0.217
-138.443	-40.778	-0.257	0.132
-137.429	326.207	0.128	-0.243
-136.414	-110.401	0.039	0.008
-135.399	778.861	0.043	-0.117
-134.385	21.255	0.131	0.106
-133.370	123.413	0.213	-0.265
-132.356	-65.877	-0.108	-0.043
-131.341	800.000	0.161	-0.476
-130.326	-83.641	0.125	-0.040
-129.312	-95.197	0.281	0.075
-128.297	41.380	-0.121	0.109
-127.283	-200.000	-0.029	-0.136
-126.268	11.161	0.197	-0.149
-125.253	-151.886	-0.306	0.022
-124.239	190.048	-0.220	0.327
-123.224	-149.883	0.066	0.005
-122.210	666.653	0.147	-0.375
-121.195	-188.377	-0.162	-0.002
