DTS Sentinel unit serial number:	SN413079Multiplexer serial number:	ORYXHardware model number:	OX4-SRSoftware version number:	ORYX F/W v4.00 Oryx Data Collector v3.7.2.0data status	okinstallation	princeton_trtdifferential loss correction	single-endedforward channel	channel 1reverse channel	N/Adate	2019/09/18time	00:06:35forward acquisition time	60.00reverse acquisition time	0.00gamma	496.2192k internal	0.2341k external	0.2341temperature offset calibration	0.9977default loss term (dB/km)	0.3790temperature slope calibration	1.0000multiplexer offset coefficient	1.0000multiplexer slope coefficient	1.0000fibre end	0.00T internal ref (°C)	23.81T ext. ref 1 (°C)	0.16T ext. ref 2 (°C)	17.23length (m)	temperature (°C)	Stokes	anti-Stokes-747.200	-123.889	0.245	-0.039
-746.185	-29.446	0.117	0.067
-745.171	800.000	-0.021	0.082
-744.156	-66.889	-0.482	0.191
-743.142	-85.912	-0.140	-0.043
-742.127	800.000	0.077	0.337
-741.112	-83.687	-0.335	0.107
-740.098	509.842	0.113	-0.262
-739.083	800.000	-0.042	0.154
-738.069	-140.914	0.102	-0.011
-737.054	-128.926	0.238	0.034
-736.039	-37.390	-0.265	-0.142
-735.025	-48.852	0.394	0.189
-734.010	-200.000	-0.370	0.001
-732.996	38.804	-0.164	-0.147
-731.981	-200.000	0.014	0.153
-730.966	-104.354	0.242	0.056
-729.952	800.000	0.048	0.206
-728.937	240.462	0.162	0.270
-727.923	-76.309	0.172	0.061
-726.908	-12.037	0.211	0.138
-725.894	-134.724	-0.346	-0.042
-724.879	545.209	-0.088	-0.211
-723.864	18.977	0.145	-0.116
-722.850	-151.612	-0.189	-0.014
-721.835	-51.212	-0.210	-0.099
-720.821	-200.000	-0.004	0.256
-719.806	387.648	0.101	0.210
-718.791	-200.000	0.010	-0.193
-717.777	74.636	-0.141	0.148
-716.762	-23.606	0.072	-0.043
-715.748	107.554	-0.196	0.234
-714.733	-200.000	-0.005	-0.053
-713.718	108.794	-0.071	0.084
-712.704	-142.520	0.157	-0.015
-711.689	-200.000	-0.012	-0.167
-710.675	-200.000	0.048	-0.412
-709.660	800.000	-0.067	0.222
-708.645	-49.597	-0.259	0.123
-707.631	18.794	-0.423	0.339
-706.616	9.415	0.291	0.220
-705.602	47.081	0.285	-0.266
-704.587	-96.014	-0.259	0.069
-703.572	-136.512	0.434	0.050
-702.558	-200.000	-0.046	-0.208
-701.543	6.291	0.195	-0.144
-700.529	-63.709	0.297	-0.122
-699.514	783.626	0.036	-0.099
-698.499	-26.378	-0.382	-0.224
-697.485	800.000	0.075	-0.322
-696.470	40.757	0.036	-0.033
-695.456	19.946	-0.208	0.168
-694.441	-14.812	-0.290	-0.186
-693.426	417.954	-0.056	-0.119
-692.412	-68.027	-0.119	-0.046
-691.397	448.890	0.093	-0.205
-690.383	800.000	-0.052	0.209
-689.368	-149.103	-0.074	-0.006
-688.354	124.678	0.145	0.182
-687.339	-103.243	-0.190	-0.045
-686.324	-200.000	-0.038	-0.229
-685.310	-75.361	-0.249	0.089
-684.295	-200.000	0.004	0.217
-683.281	194.536	-0.164	0.249
-682.266	-35.095	0.135	0.073
-681.251	10.292	-0.401	-0.305
-680.237	-121.132	0.182	0.031
-679.222	83.053	-0.136	0.148
-678.208	-78.170	-0.169	-0.058
-677.193	223.776	0.079	0.128
-676.178	-106.733	0.314	-0.070
-675.164	159.939	0.053	0.073
-674.149	-200.000	-0.022	-0.167
-673.135	228.791	-0.135	0.220
-672.120	-167.563	-0.295	-0.012
-671.105	72.686	0.248	-0.258
-670.091	-70.308	0.171	0.065
-669.076	564.696	-0.025	-0.060
-668.062	489.450	0.003	-0.006
-667.047	503.927	-0.047	-0.108
-666.032	-92.224	0.164	-0.046
-665.018	232.919	-0.095	-0.156
-664.003	479.708	0.044	-0.099
-662.989	-31.181	-0.200	-0.113
-661.974	9.714	-0.078	0.059
-660.959	-200.000	-0.032	0.441
-659.945	-200.000	0.011	-0.074
-658.930	596.164	0.039	0.097
-657.916	122.613	0.144	-0.179
-656.901	6.934	0.350	0.261
-655.886	460.475	0.112	0.250
-654.872	-200.000	-0.021	-0.182
-653.857	224.724	-0.076	-0.122
-652.843	-87.554	-0.400	-0.121
-651.828	754.595	0.158	-0.425
-650.814	-200.000	0.009	-0.202
-649.799	-39.048	-0.276	-0.145
-648.784	-200.000	0.009	0.243
-647.770	422.876	0.022	-0.048
-646.755	-200.000	0.002	-0.185
-645.741	117.250	-0.254	-0.312
-644.726	800.000	-0.023	-0.090
-643.711	-55.417	0.086	0.039
-642.697	221.405	-0.190	-0.305
-641.682	-200.000	-0.024	-0.140
-640.668	218.999	-0.076	0.121
-639.653	138.114	0.203	0.266
-638.638	-106.141	0.081	-0.018
-637.624	171.087	0.043	0.061
-636.609	800.000	-0.033	0.100
-635.595	-19.991	0.107	-0.066
-634.580	66.144	0.086	0.088
-633.565	260.240	0.025	0.042
-632.551	-75.768	-0.172	0.061
-631.536	5.878	-0.139	-0.103
-630.522	20.353	0.064	-0.052
-629.507	-200.000	0.050	-0.360
-628.492	-104.304	0.035	-0.008
-627.478	800.000	0.120	-0.405
-626.463	576.585	0.059	0.143
-625.449	42.048	-0.077	0.070
-624.434	-200.000	-0.026	-0.152
-623.419	-54.684	-0.132	0.059
-622.405	-28.576	-0.234	-0.134
-621.390	-200.000	0.027	-0.347
-620.376	256.436	-0.232	0.397
-619.361	122.891	-0.093	0.116
-618.346	-200.000	-0.073	-0.357
-617.332	-153.616	-0.341	-0.023
-616.317	-200.000	-0.022	-0.200
-615.303	101.895	-0.132	-0.153
-614.288	-200.000	0.065	0.353
-613.273	25.107	-0.163	0.135
-612.259	-69.524	-0.242	-0.093
-611.244	63.390	0.083	-0.083
-610.230	40.273	0.325	-0.291
-609.215	299.712	0.164	-0.302
-608.201	-70.878	-0.331	-0.124
-607.186	800.000	-0.075	-0.290
-606.171	-105.924	0.135	-0.030
-605.157	-147.917	0.147	-0.012
-604.142	122.110	-0.068	0.085
-603.128	12.442	-0.058	0.044
-602.113	-124.543	0.207	0.032
-601.098	23.828	0.066	-0.054
-600.084	710.937	-0.015	-0.039
-599.069	280.532	0.095	0.169
-598.055	-80.942	0.057	0.019
-597.040	-200.000	0.005	0.165
-596.025	-24.261	-0.192	-0.114
-595.011	-1.951	-0.035	0.024
-593.996	-200.000	0.214	0.000
-592.982	633.525	-0.108	0.273
-591.967	266.452	0.070	-0.121
-590.952	-200.000	0.040	0.185
-589.938	-1.583	-0.191	-0.134
-588.923	323.990	-0.103	-0.196
-587.909	19.531	-0.387	-0.310
-586.894	800.000	0.128	-0.399
-585.879	-200.000	-0.033	-0.477
-584.865	-200.000	0.015	0.315
-583.850	-130.211	-0.113	0.015
-582.836	-63.832	-0.237	0.097
-581.821	180.182	0.256	0.374
-580.806	176.739	0.099	0.143
-579.792	-46.972	-0.162	-0.079
-578.777	232.067	0.190	-0.310
-577.763	37.658	-0.062	-0.055
-576.748	195.860	0.144	0.217
-575.733	-113.684	-0.266	-0.052
-574.719	69.553	0.140	-0.144
-573.704	27.838	-0.128	0.107
-572.690	65.933	-0.154	0.155
-571.675	-109.736	-0.328	-0.069
-570.661	11.832	-0.235	0.179
-569.646	224.782	0.113	0.182
-568.631	-159.993	-0.469	0.026
-567.617	800.000	0.053	0.166
-566.602	347.088	-0.040	0.078
-565.588	96.751	-0.095	0.108
-564.573	148.520	-0.203	0.273
-563.558	800.000	-0.130	-0.409
-562.544	-87.275	-0.100	-0.030
-561.529	-200.000	-0.016	-0.099
-560.515	-200.000	-0.067	0.332
-559.500	-200.000	0.006	0.159
-558.485	111.476	0.101	-0.121
-557.471	-200.000	-0.013	0.103
-556.456	-200.000	-0.001	-0.122
-555.442	-20.281	-0.168	0.103
-554.427	569.304	-0.019	0.046
-553.412	-13.545	0.100	0.065
-552.398	152.062	-0.088	-0.120
-551.383	-200.000	-0.327	0.001
-550.369	-43.640	0.055	-0.028
-549.354	-135.685	-0.125	-0.015
-548.339	1.314	0.216	0.154
-547.325	-62.652	0.230	-0.095
-546.310	-75.813	0.344	-0.121
-545.296	94.812	-0.262	-0.296
-544.281	538.444	-0.041	0.096
-543.266	-200.000	-0.043	0.397
-542.252	-200.000	0.022	-0.180
-541.237	800.000	-0.057	-0.197
-540.223	11.165	-0.125	0.095
-539.208	-200.000	-0.037	-0.385
-538.193	-200.000	0.028	-0.125
-537.179	120.425	-0.256	-0.317
-536.164	800.000	-0.029	0.105
-535.150	183.298	-0.158	0.233
-534.135	-200.000	-0.009	0.057
-533.121	-200.000	-0.004	0.130
-532.106	-31.991	0.262	0.146
-531.091	-200.000	0.021	0.189
-530.077	-61.374	-0.079	-0.033
-529.062	-28.341	0.304	-0.174
-528.048	-64.092	0.200	0.081
-527.033	-44.947	0.110	0.054
-526.018	143.859	-0.196	0.259
-525.004	-185.986	-0.324	-0.005
-523.989	122.116	0.088	-0.109
-522.975	239.619	0.064	-0.106
-521.960	-47.359	0.256	-0.124
-520.945	51.498	0.206	0.194
-519.931	800.000	-0.036	-0.153
-518.916	-200.000	0.021	0.233
-517.902	-117.273	0.234	-0.042
-516.887	84.330	-0.092	-0.100
-515.872	-72.541	0.114	-0.042
-514.858	474.376	-0.075	-0.168
-513.843	800.000	0.061	0.212
-512.829	800.000	0.039	-0.157
-511.814	-200.000	0.009	0.127
-510.799	323.980	-0.161	-0.305
-509.785	58.549	0.142	-0.138
-508.770	490.522	0.195	0.443
-507.756	-142.780	-0.452	0.044
-506.741	54.900	0.159	-0.153
-505.726	155.406	0.210	-0.287
-504.712	-200.000	-0.020	-0.130
-503.697	112.915	-0.233	0.280
-502.683	-200.000	-0.024	0.123
-501.668	-125.120	0.339	-0.052
-500.653	346.587	-0.099	0.193
-499.639	-200.000	0.018	0.168
-498.624	-45.598	0.261	0.128
-497.610	-200.000	-0.009	-0.188
-496.595	56.021	0.078	0.076
-495.581	372.984	-0.196	-0.395
-494.566	-150.498	-0.298	0.023
-493.551	-200.000	-0.020	0.143
-492.537	-80.609	0.281	0.093
-491.522	-121.457	-0.044	-0.007
-490.508	30.428	0.263	0.223
-489.493	800.000	-0.023	0.076
-488.478	-148.130	0.428	0.035
-487.464	-44.097	-0.271	-0.135
-486.449	800.000	-0.044	0.131
-485.435	-200.000	0.026	-0.234
-484.420	66.629	0.268	0.271
-483.405	117.070	-0.096	-0.117
-482.391	150.201	0.070	-0.094
-481.376	800.000	0.128	0.365
-480.362	-174.212	0.340	0.010
-479.347	-158.181	-0.250	0.015
-478.332	247.739	-0.168	0.281
-477.318	-200.000	0.040	-0.180
-476.303	184.753	-0.180	-0.265
-475.289	-29.615	0.142	-0.080
-474.274	-35.039	-0.247	-0.133
-473.259	448.810	-0.119	-0.260
-472.245	-200.000	0.010	0.053
-471.230	78.834	0.158	-0.168
-470.216	-15.652	0.087	-0.055
-469.201	-95.567	-0.155	0.041
-468.186	83.898	-0.143	-0.155
-467.172	-8.550	-0.015	0.010
-466.157	800.000	-0.034	-0.126
-465.143	-43.342	-0.082	-0.041
-464.128	-200.000	-0.009	-0.367
-463.113	-119.619	-0.274	-0.047
-462.099	300.144	-0.141	0.257
-461.084	-10.654	0.362	-0.237
-460.070	-61.042	-0.375	-0.157
-459.055	-151.348	0.267	0.020
-458.040	-96.962	0.097	-0.025
-457.026	800.000	-0.056	0.211
-456.011	414.871	-0.132	0.279
-454.997	37.229	0.138	0.121
-453.982	218.853	-0.125	-0.198
-452.968	800.000	-0.070	-0.232
-451.953	-97.772	0.371	0.095
-450.938	784.269	0.133	-0.362
-449.924	-22.401	-0.205	-0.123
-448.909	-155.347	0.304	0.020
-447.895	767.741	-0.114	-0.308
-446.880	-38.683	-0.258	0.135
-445.865	53.292	0.133	-0.126
-444.851	551.634	0.112	-0.266
-443.836	702.012	-0.049	0.128
-442.822	-4.572	0.268	0.183
-441.807	260.701	0.081	0.138
-440.792	164.226	0.126	0.176
-439.778	-47.758	-0.151	-0.073
-438.763	378.436	-0.131	0.265
-437.749	59.204	0.002	-0.002
-436.734	-176.804	-0.300	0.008
-435.719	85.413	0.132	-0.143
-434.705	-72.487	0.180	0.066
-433.690	43.126	-0.306	-0.276
-432.676	-97.833	-0.241	0.062
-431.661	-60.873	0.255	-0.107
-430.646	-37.746	-0.073	-0.038
-429.632	-158.246	0.347	0.020
-428.617	118.871	0.074	-0.090
-427.603	-134.276	0.030	-0.004
-426.588	-56.170	0.154	0.068
-425.573	-200.000	0.012	-0.159
-424.559	-156.666	0.434	-0.027
-423.544	-53.057	-0.323	-0.147
-422.530	-104.076	0.189	0.044
-421.515	-17.153	0.162	-0.101
-420.500	-200.000	0.078	-0.477
-419.486	-61.355	-0.254	-0.106
-418.471	-78.729	0.182	-0.061
-417.457	800.000	0.030	-0.098
-416.442	-200.000	0.028	0.207
-415.428	-138.159	0.243	-0.027
-414.413	37.250	0.216	-0.190
-413.398	-91.107	-0.214	-0.061
-412.384	71.084	0.116	-0.119
-411.369	96.982	0.098	0.111
-410.355	-111.038	-0.110	0.022
-409.340	40.338	-0.055	-0.049
-408.325	627.548	-0.119	0.297
-407.311	139.924	0.180	0.235
-406.296	410.279	0.185	0.388
-405.282	-200.000	0.002	0.162
-404.267	-96.512	-0.276	0.072
-403.252	-141.780	0.494	0.049
-402.238	237.107	-0.162	0.265
-401.223	134.715	-0.102	-0.131
-400.209	-49.063	-0.079	-0.037
-399.194	293.892	-0.123	0.221
-398.179	1.139	-0.136	0.096
-397.165	170.596	-0.078	-0.110
-396.150	-122.544	0.111	-0.018
-395.136	18.480	0.141	-0.111
-394.121	800.000	0.078	-0.253
-393.106	-122.634	0.087	0.014
-392.092	-112.027	0.181	-0.036
-391.077	-165.483	0.193	0.008
-390.063	-112.323	0.206	0.041
-389.048	-131.799	0.070	-0.009
-388.033	800.000	0.027	0.085
-387.019	-12.758	-0.430	0.277
-386.004	-200.000	-0.072	0.414
-384.990	467.383	0.016	-0.035
-383.975	800.000	0.100	-0.293
-382.960	800.000	-0.060	0.211
-381.946	253.477	0.137	-0.231
-380.931	106.773	-0.113	-0.132
-379.917	370.590	0.145	-0.290
-378.902	36.009	-0.101	-0.088
-377.888	-129.723	-0.031	0.004
-376.873	-140.462	-0.065	-0.007
-375.858	-120.157	-0.423	-0.071
-374.844	135.207	-0.045	0.057
-373.829	291.935	0.106	-0.190
-372.815	-200.000	-0.025	-0.147
-371.800	338.704	0.219	-0.422
-370.785	-200.000	-0.050	-0.400
-369.771	-6.259	-0.045	-0.030
-368.756	-200.000	0.023	0.435
-367.742	-183.154	0.197	-0.003
-366.727	-144.107	-0.306	0.028
-365.712	-106.805	0.047	0.010
-364.698	-66.292	-0.348	0.137
-363.683	36.279	-0.183	-0.159
-362.669	484.437	-0.147	0.331
-361.654	-160.742	-0.255	0.013
-360.639	-82.269	0.135	-0.043
-359.625	-29.119	-0.084	0.047
-358.610	800.000	-0.060	-0.212
-357.596	18.427	0.118	0.093
-356.581	459.817	0.128	0.280
-355.566	-2.234	-0.144	0.100
-354.552	-200.000	0.011	0.178
-353.537	269.919	-0.047	0.081
-352.523	416.851	0.106	-0.223
-351.508	148.110	-0.230	-0.306
-350.493	-200.000	0.012	-0.140
-349.479	-200.000	-0.027	-0.247
-348.464	-126.738	0.299	-0.044
-347.450	-200.000	-0.002	-0.150
-346.435	-161.854	0.196	-0.010
-345.420	341.314	0.168	0.324
-344.406	-58.852	0.264	0.113
-343.391	-132.762	-0.615	0.078
-342.377	-128.983	-0.055	0.008
-341.362	-49.923	-0.178	-0.083
-340.348	16.193	-0.091	-0.071
-339.333	-168.484	-0.445	-0.017
-338.318	-200.000	0.046	-0.287
-337.304	294.174	0.192	-0.345
-336.289	189.748	-0.039	0.058
-335.275	-29.219	0.254	-0.144
-334.260	-128.157	-0.135	-0.019
-333.245	-107.068	0.227	0.049
-332.231	-44.687	0.131	-0.065
-331.216	-16.333	0.086	0.054
-330.202	-200.000	-0.012	0.144
-329.187	266.090	0.178	-0.307
-328.172	-195.916	-0.339	0.002
-327.158	-22.491	-0.067	0.040
-326.143	68.894	-0.134	0.135
-325.129	-105.641	0.179	-0.040
-324.114	778.675	-0.021	0.057
-323.099	-200.000	-0.009	0.191
-322.085	262.616	-0.062	-0.106
-321.070	800.000	-0.035	0.127
-320.056	-200.000	0.036	0.246
-319.041	-155.824	-0.043	-0.003
-318.026	34.578	-0.157	-0.135
-317.012	-74.168	-0.401	-0.143
-315.997	97.906	0.327	0.370
-314.983	339.521	-0.108	-0.208
-313.968	180.991	0.158	0.228
-312.953	800.000	-0.126	-0.373
-311.939	369.075	-0.103	-0.205
-310.924	-102.443	0.047	0.011
-309.910	-200.000	-0.018	0.165
-308.895	-90.723	0.055	0.016
-307.880	-135.870	0.336	-0.039
-306.866	127.963	0.121	0.152
-305.851	255.485	0.095	-0.160
-304.837	800.000	0.052	0.175
-303.822	446.696	0.084	-0.182
-302.807	217.671	0.036	-0.056
-301.793	-78.628	-0.315	-0.106
-300.778	395.752	0.194	0.399
-299.764	-121.334	-0.295	-0.048
-298.749	-170.343	-0.068	0.002
-297.735	718.391	0.101	0.263
-296.720	-66.362	0.280	0.110
-295.705	-100.253	-0.059	-0.015
-294.691	46.116	0.134	0.122
-293.676	-200.000	-0.039	0.288
-292.662	-11.112	-0.190	0.123
-291.647	111.351	0.074	-0.088
-290.632	402.543	-0.070	0.145
-289.618	169.735	-0.122	-0.172
-288.603	453.986	0.126	0.274
-287.589	-149.598	0.456	0.035
-286.574	-200.000	0.011	-0.176
-285.559	-141.039	0.367	0.037
-284.545	-164.105	0.218	0.010
-283.530	75.504	-0.161	-0.167
-282.516	135.270	-0.085	0.109
-281.501	800.000	0.016	-0.054
-280.486	-55.736	0.242	0.107
-279.472	177.440	0.226	0.325
-278.457	116.631	-0.270	-0.326
-277.443	-15.351	0.125	-0.079
-276.428	-17.504	0.449	0.278
-275.413	205.766	-0.142	0.217
-274.399	-200.000	0.006	0.109
-273.384	800.000	-0.086	-0.280
-272.370	155.632	-0.127	-0.172
-271.355	669.751	-0.022	0.057
-270.340	51.954	0.231	0.217
-269.326	-193.905	-0.198	0.002
-268.311	-153.957	0.034	-0.002
-267.297	-110.075	-0.119	-0.024
-266.282	21.376	0.194	0.155
-265.267	69.633	0.106	0.107
-264.253	222.121	0.117	0.185
-263.238	760.254	0.058	0.155
-262.224	7.286	0.287	0.211
-261.209	480.174	-0.062	0.139
-260.195	-200.000	0.022	0.157
-259.180	-88.116	0.182	0.054
-258.165	339.466	-0.023	0.044
-257.151	-163.596	0.150	-0.007
-256.136	-22.413	-0.159	0.095
-255.122	800.000	-0.044	-0.189
-254.107	-200.000	0.060	-0.371
-253.092	-200.000	0.043	-0.260
-252.078	160.157	-0.043	-0.058
-251.063	-29.395	-0.234	0.132
-250.049	-40.822	0.246	0.125
-249.034	-62.948	0.047	-0.019
-248.019	-144.909	-0.102	0.009
-247.005	85.998	-0.146	-0.158
-245.990	7.036	-0.321	0.235
-244.976	-53.625	0.560	0.252
-243.961	34.732	-0.045	0.039
-242.946	-200.000	0.099	0.486
-241.932	-200.000	-0.005	0.199
-240.917	364.161	-0.027	0.052
-239.903	800.000	-0.056	0.206
-238.888	-200.000	-0.016	-0.134
-237.873	93.702	-0.109	-0.122
-236.859	127.526	-0.306	0.381
-235.844	231.639	-0.186	0.300
-234.830	-103.053	0.428	-0.100
-233.815	72.455	-0.104	0.107
-232.800	-200.000	0.017	0.122
-231.786	-64.857	-0.396	-0.158
-230.771	40.198	-0.029	-0.025
-229.757	-72.557	-0.138	-0.050
-228.742	-77.651	-0.291	-0.099
-227.727	164.883	-0.092	-0.127
-226.713	185.494	0.187	-0.273
-225.698	-200.000	-0.010	0.088
-224.684	-100.473	0.137	0.033
-223.669	-200.000	-0.003	-0.044
-222.655	-46.060	-0.174	0.084
-221.640	-200.000	-0.057	0.340
-220.625	800.000	0.022	0.089
-219.611	49.197	-0.247	0.228
-218.596	25.504	-0.187	0.153
-217.582	-200.000	-0.017	-0.181
-216.567	-153.439	-0.109	0.007
-215.552	39.050	-0.233	-0.204
-214.538	173.202	0.184	-0.260
-213.523	-25.251	-0.158	0.092
-212.509	95.178	-0.087	-0.098
-211.494	161.101	-0.089	-0.122
-210.479	-26.497	0.108	-0.062
-209.465	-117.478	-0.318	-0.056
-208.450	87.843	-0.018	0.019
-207.436	-41.920	0.064	0.032
-206.421	800.000	-0.049	-0.206
-205.406	22.863	0.275	-0.221
-204.392	800.000	-0.058	0.177
-203.377	-137.931	-0.293	-0.032
-202.363	800.000	0.021	-0.074
-201.348	-200.000	-0.003	0.031
-200.333	-82.362	0.206	0.066
-199.319	99.967	0.177	0.202
-198.304	47.603	0.212	-0.194
-197.290	-200.000	-0.030	-0.240
-196.275	-200.000	-0.008	0.059
-195.260	576.748	-0.072	-0.173
-194.246	-16.560	0.052	-0.033
-193.231	97.161	-0.091	0.103
-192.217	-94.558	0.115	0.031
-191.202	25.655	-0.166	0.135
-190.187	-200.000	-0.020	0.219
-189.173	-91.881	-0.118	0.033
-188.158	166.060	0.128	0.178
-187.144	140.286	0.136	0.176
-186.129	114.744	0.044	0.052
-185.114	487.816	0.072	-0.162
-184.100	183.545	-0.173	-0.251
-183.085	-20.952	0.185	0.111
-182.071	-200.000	0.046	0.273
-181.056	92.239	-0.047	0.052
-180.042	-200.000	0.022	0.269
-179.027	84.481	0.029	-0.031
-178.012	-200.000	0.014	-0.151
-176.998	53.694	-0.179	0.168
-175.983	-126.035	0.099	0.015
-174.969	-200.000	-0.011	-0.050
-173.954	113.355	-0.140	-0.166
-172.939	800.000	-0.044	-0.153
-171.925	386.607	-0.128	0.258
-170.910	0.885	0.337	0.237
-169.896	-98.167	0.242	-0.061
-168.881	-38.349	0.128	0.066
-167.866	252.975	0.204	0.342
-166.852	-200.000	0.014	-0.348
-165.837	-125.974	-0.277	-0.041
-164.823	557.227	0.150	0.354
-163.808	-95.589	0.246	-0.065
-162.793	57.858	0.059	0.056
-161.779	-20.773	0.054	0.033
-160.764	800.000	-0.033	0.098
-159.750	-9.559	0.277	-0.181
-158.735	-132.507	0.501	-0.063
-157.720	133.827	-0.115	-0.146
-156.706	-67.200	0.085	0.033
-155.691	89.696	0.054	-0.058
-154.677	-128.647	-0.378	-0.052
-153.662	24.941	0.262	0.213
-152.647	800.000	0.080	0.301
-151.633	17.851	0.194	0.151
-150.618	154.727	-0.139	0.187
-149.604	-16.537	-0.221	0.137
-148.589	-8.910	0.162	-0.106
-147.574	159.670	-0.066	0.089
-146.560	25.813	-0.127	0.103
-145.545	27.911	0.059	-0.049
-144.531	-4.237	0.292	0.198
-143.516	-200.000	0.097	-0.444
-142.502	-11.176	-0.077	0.050
-141.487	-21.128	-0.168	0.100
-140.472	161.363	0.166	0.228
-139.458	-200.000	-0.048	-0.353
-138.443	800.000	-0.069	-0.244
-137.429	35.968	-0.211	0.182
-136.414	800.000	0.044	0.154
-135.399	-130.880	-0.176	-0.023
-134.385	59.339	0.282	0.272
-133.370	734.144	-0.101	0.266
-132.356	-187.083	0.274	0.004
-131.341	-80.990	-0.089	0.029
-130.326	-25.776	0.025	0.014
-129.312	494.777	0.178	0.400
-128.297	-138.189	0.092	-0.010
-127.283	317.440	0.148	0.273
-126.268	59.967	0.086	0.083
-125.253	21.665	0.277	-0.220
-124.239	2.454	-0.350	0.248
-123.224	-200.000	-0.009	-0.106
-122.210	-151.503	0.507	0.037
-121.195	-36.623	-0.190	-0.100
