DTS Sentinel unit serial number:	SN413079Multiplexer serial number:	ORYXHardware model number:	OX4-SRSoftware version number:	ORYX F/W v4.00 Oryx Data Collector v3.7.2.0data status	okinstallation	princeton_trtdifferential loss correction	single-endedforward channel	channel 1reverse channel	N/Adate	2019/09/15time	20:26:35forward acquisition time	60.00reverse acquisition time	0.00gamma	496.2192k internal	0.2322k external	0.2322temperature offset calibration	0.9963default loss term (dB/km)	0.3790temperature slope calibration	1.0000multiplexer offset coefficient	1.0000multiplexer slope coefficient	1.0000fibre end	0.00T internal ref (°C)	33.70T ext. ref 1 (°C)	7.77T ext. ref 2 (°C)	25.28length (m)	temperature (°C)	Stokes	anti-Stokes-747.200	183.308	0.191	-0.285
-746.185	115.965	-0.235	0.291
-745.171	32.854	-0.038	0.033
-744.156	800.000	-0.047	-0.176
-743.142	416.842	0.046	0.098
-742.127	212.395	0.132	0.210
-741.112	421.331	0.095	0.205
-740.098	12.236	-0.227	-0.176
-739.083	-85.870	0.292	0.091
-738.069	41.671	0.059	-0.054
-737.054	-103.787	-0.161	0.038
-736.039	-78.475	-0.176	0.061
-735.025	2.296	0.178	0.130
-734.010	-107.830	-0.102	0.022
-732.996	-200.000	-0.104	-0.618
-731.981	-192.209	-0.294	-0.003
-730.966	-182.165	-0.143	-0.003
-729.952	644.002	-0.073	0.189
-728.937	21.469	-0.150	-0.124
-727.923	71.701	0.077	-0.080
-726.908	63.092	-0.102	-0.103
-725.894	-98.886	-0.375	0.096
-724.879	-147.170	0.065	0.006
-723.864	96.193	-0.160	-0.185
-722.850	104.928	-0.154	-0.184
-721.835	57.029	0.200	-0.197
-720.821	-59.228	0.220	0.096
-719.806	-80.365	-0.116	-0.039
-718.791	-156.560	-0.212	-0.013
-717.777	800.000	-0.073	0.253
-716.762	6.390	0.070	-0.052
-715.748	158.166	0.113	-0.158
-714.733	800.000	-0.009	0.025
-713.718	189.507	-0.220	-0.332
-712.704	635.404	-0.066	-0.169
-711.689	800.000	0.040	0.151
-710.675	-200.000	0.026	-0.337
-709.660	-200.000	-0.018	-0.160
-708.645	-158.486	-0.358	0.021
-707.631	206.369	0.281	0.441
-706.616	-156.695	-0.232	-0.014
-705.602	-200.000	0.032	-0.319
-704.587	114.888	0.153	-0.188
-703.572	-145.043	0.084	-0.008
-702.558	135.426	-0.273	-0.358
-701.543	800.000	-0.061	-0.202
-700.529	800.000	-0.140	-0.398
-699.514	-99.859	-0.188	-0.047
-698.499	-112.734	0.140	-0.028
-697.485	-200.000	0.008	-0.129
-696.470	-140.887	-0.271	-0.028
-695.456	-101.917	-0.049	0.012
-694.441	3.085	0.118	-0.087
-693.426	597.667	-0.127	-0.318
-692.412	19.214	-0.460	-0.372
-691.397	212.813	0.103	0.163
-690.383	111.531	0.135	-0.165
-689.368	447.000	0.197	-0.436
-688.354	-121.644	-0.308	-0.051
-687.339	51.363	0.068	-0.065
-686.324	-172.150	-0.402	0.013
-685.310	-75.137	0.186	0.067
-684.295	76.952	-0.270	-0.289
-683.281	538.109	0.024	0.057
-682.266	429.847	0.056	-0.121
-681.251	10.249	-0.101	0.077
-680.237	-68.143	-0.372	-0.146
-679.222	53.935	-0.246	0.239
-678.208	800.000	-0.015	-0.055
-677.193	-63.692	0.101	0.042
-676.178	-200.000	0.098	-0.516
-675.164	-200.000	0.030	-0.203
-674.149	15.956	0.224	-0.177
-673.135	7.610	-0.199	-0.150
-672.120	-131.718	0.072	0.009
-671.105	-85.129	0.074	0.023
-670.091	220.699	-0.110	-0.178
-669.076	-129.673	0.253	0.035
-668.062	-161.614	-0.165	-0.009
-667.047	-200.000	0.044	0.494
-666.032	-91.078	0.214	0.062
-665.018	-78.061	0.141	0.049
-664.003	-134.546	0.280	0.034
-662.989	-37.234	0.126	0.068
-661.974	-79.512	-0.413	-0.141
-660.959	-200.000	0.016	-0.217
-659.945	163.850	-0.088	-0.125
-658.930	23.560	-0.372	-0.308
-657.916	-143.521	-0.066	0.006
-656.901	-80.832	-0.226	-0.075
-655.886	694.183	0.077	-0.202
-654.872	800.000	-0.093	-0.385
-653.857	-82.832	0.099	0.032
-652.843	-26.427	-0.040	0.024
-651.828	-126.075	0.116	0.017
-650.814	484.474	0.026	0.059
-649.799	112.489	0.130	0.158
-648.784	-97.403	-0.507	-0.133
-647.770	196.908	-0.093	-0.142
-646.755	-7.585	0.085	-0.058
-645.741	425.370	0.062	-0.134
-644.726	-144.348	0.202	-0.019
-643.711	-103.613	0.259	-0.061
-642.697	-149.072	-0.059	0.005
-641.682	-32.504	0.212	0.119
-640.668	-200.000	0.052	0.377
-639.653	168.276	0.202	-0.289
-638.638	181.647	-0.114	0.169
-637.624	-200.000	0.001	0.530
-636.609	-125.854	0.203	0.031
-635.595	-200.000	-0.081	0.418
-634.580	133.039	0.259	0.336
-633.565	299.823	0.102	0.189
-632.551	-150.143	-0.356	0.028
-631.536	300.372	0.233	0.432
-630.522	-79.799	0.126	0.043
-629.507	-87.157	0.078	0.024
-628.492	-114.292	-0.077	-0.015
-627.478	-6.267	0.272	0.187
-626.463	413.599	-0.028	-0.060
-625.449	-38.093	0.206	-0.110
-624.434	-55.603	0.154	-0.070
-623.419	304.413	-0.109	-0.204
-622.405	-10.606	0.066	0.044
-621.390	-200.000	-0.026	0.208
-620.376	444.148	-0.057	0.127
-619.361	73.853	0.177	0.186
-618.346	49.504	0.173	0.164
-617.332	-83.822	-0.215	0.069
-616.317	-49.794	-0.252	-0.120
-615.303	-33.988	-0.241	-0.133
-614.288	-200.000	-0.026	-0.235
-613.273	-196.726	-0.072	-0.000
-612.259	-168.884	-0.279	0.011
-611.244	-200.000	-0.035	-0.249
-610.230	346.472	-0.042	-0.083
-609.215	-79.198	-0.241	0.082
-608.201	-125.306	0.149	-0.023
-607.186	340.299	-0.066	0.129
-606.171	-44.358	-0.336	0.169
-605.157	53.998	-0.110	-0.107
-604.142	798.941	-0.083	-0.230
-603.128	800.000	0.055	-0.204
-602.113	-16.437	-0.111	0.071
-601.098	800.000	-0.048	0.158
-600.084	-46.882	-0.418	-0.205
-599.069	502.947	-0.043	0.099
-598.055	-200.000	0.003	0.326
-597.040	611.558	-0.056	0.141
-596.025	-115.712	0.201	-0.038
-595.011	420.131	-0.076	-0.163
-593.996	627.384	-0.010	-0.024
-592.982	-182.933	0.093	-0.002
-591.967	798.454	-0.038	0.105
-590.952	-121.449	-0.189	-0.032
-589.938	-128.876	0.276	0.039
-588.923	541.083	-0.089	-0.212
-587.909	-122.365	0.071	-0.012
-586.894	213.575	0.190	0.302
-585.879	800.000	0.092	-0.267
-584.865	-0.055	-0.150	-0.107
-583.850	-200.000	-0.004	-0.079
-582.836	-16.921	0.212	0.134
-581.821	-63.887	-0.308	0.126
-580.806	-32.992	0.169	0.094
-579.792	-136.795	0.360	0.042
-578.777	-94.678	0.125	0.034
-577.763	-200.000	-0.049	-0.291
-576.748	-65.931	-0.159	0.064
-575.733	382.306	0.096	0.199
-574.719	-1.385	-0.194	0.138
-573.704	-50.692	0.107	-0.051
-572.690	-127.803	-0.067	0.010
-571.675	261.592	0.131	-0.228
-570.661	-115.019	-0.333	0.064
-569.646	226.613	0.061	0.099
-568.631	-38.043	0.310	-0.165
-567.617	-200.000	0.051	-0.273
-566.602	-133.961	-0.431	0.054
-565.588	-97.090	0.292	-0.077
-564.573	800.000	-0.083	-0.265
-563.558	-200.000	-0.046	0.279
-562.544	-116.472	0.068	-0.013
-561.529	85.247	0.167	-0.184
-560.515	-6.347	0.124	-0.085
-559.500	104.487	-0.143	-0.169
-558.485	-200.000	-0.061	0.325
-557.471	16.320	-0.105	0.083
-556.456	-12.510	0.205	0.134
-555.442	438.990	-0.053	-0.116
-554.427	-33.676	-0.294	-0.163
-553.412	60.260	0.175	-0.174
-552.398	322.101	0.091	-0.173
-551.383	-60.239	-0.213	0.091
-550.369	-54.591	0.203	-0.092
-549.354	-155.350	0.157	0.010
-548.339	57.195	-0.090	-0.088
-547.325	748.845	-0.039	0.105
-546.310	73.532	-0.086	-0.090
-545.296	-160.466	-0.240	0.013
-544.281	-80.814	0.108	0.036
-543.266	-200.000	0.268	0.001
-542.252	-122.459	0.293	-0.048
-541.237	-72.071	0.147	-0.055
-540.223	-39.183	0.062	-0.032
-539.208	-117.494	0.205	0.037
-538.193	-101.261	-0.104	-0.025
-537.179	-200.000	-0.027	0.127
-536.164	-138.166	0.107	0.012
-535.150	800.000	-0.020	-0.074
-534.135	800.000	-0.057	-0.225
-533.121	96.436	0.040	-0.046
-532.106	-120.618	0.149	-0.025
-531.091	800.000	0.020	0.072
-530.077	-24.458	0.141	-0.084
-529.062	-15.757	-0.165	0.105
-528.048	800.000	0.090	0.283
-527.033	-160.558	-0.242	0.013
-526.018	-200.000	0.018	0.137
-525.004	788.548	0.036	0.100
-523.989	101.210	-0.187	0.218
-522.975	-200.000	0.030	0.189
-521.960	-200.000	0.014	0.255
-520.945	121.867	0.159	0.198
-519.931	-119.236	-0.496	0.087
-518.916	-157.961	-0.061	-0.004
-517.902	238.911	0.162	-0.270
-516.887	800.000	-0.085	0.265
-515.872	-200.000	-0.055	-0.365
-514.858	404.452	0.148	-0.312
-513.843	-26.022	-0.152	-0.089
-512.829	-92.227	-0.204	-0.058
-511.814	-57.592	0.115	0.051
-510.799	800.000	0.070	-0.238
-509.785	-118.689	-0.060	-0.011
-508.770	-45.649	0.167	0.083
-507.756	-200.000	0.020	0.194
-506.741	58.546	-0.078	-0.077
-505.726	-200.000	-0.001	0.105
-504.712	-185.276	0.289	-0.004
-503.697	-200.000	0.023	0.148
-502.683	-77.434	-0.263	0.091
-501.668	-9.338	0.169	-0.113
-500.653	209.154	0.161	-0.252
-499.639	800.000	-0.138	-0.518
-498.624	-200.000	0.044	-0.407
-497.610	11.415	-0.057	-0.044
-496.595	-200.000	-0.023	0.107
-495.581	-99.515	0.271	-0.068
-494.566	242.881	0.134	0.225
-493.551	-87.521	0.094	0.028
-492.537	-137.343	-0.190	0.022
-491.522	-200.000	-0.020	0.180
-490.508	-135.948	0.198	0.023
-489.493	-50.208	0.549	-0.260
-488.478	-53.423	-0.252	-0.115
-487.464	-99.367	0.203	-0.051
-486.449	82.212	-0.353	0.383
-485.435	-115.979	-0.280	0.052
-484.420	28.151	0.251	-0.212
-483.405	39.870	0.198	-0.178
-482.391	-200.000	0.015	-0.233
-481.376	-101.546	-0.169	0.041
-480.362	-126.546	-0.153	0.023
-479.347	-32.320	-0.308	0.172
-478.332	245.433	0.021	-0.035
-477.318	60.953	-0.272	0.270
-476.303	602.497	-0.093	-0.230
-475.289	-200.000	-0.022	0.161
-474.274	107.099	-0.222	0.264
-473.259	-19.787	0.107	-0.066
-472.245	-94.215	-0.259	-0.071
-471.230	-77.906	-0.143	-0.049
-470.216	-160.002	-0.256	0.014
-469.201	460.018	-0.124	0.277
-468.186	-103.775	-0.266	0.062
-467.172	171.808	-0.092	-0.133
-466.157	-18.386	-0.165	-0.103
-465.143	-200.000	-0.048	0.319
-464.128	348.865	-0.186	0.367
-463.113	-93.878	-0.232	-0.064
-462.099	14.122	-0.063	0.049
-461.084	-139.428	0.225	-0.024
-460.070	27.165	-0.395	-0.332
-459.055	-0.524	0.178	-0.126
-458.040	115.493	-0.252	0.308
-457.026	-53.342	-0.187	-0.086
-456.011	108.664	-0.149	0.178
-454.997	-17.369	0.280	-0.176
-453.982	-200.000	0.047	-0.307
-452.968	-52.052	-0.224	0.104
-451.953	234.344	-0.148	0.243
-450.938	-82.609	0.139	0.045
-449.924	-43.331	0.076	0.039
-448.909	-200.000	-0.004	-0.065
-447.895	-157.964	0.293	0.017
-446.880	-16.572	0.262	0.166
-445.865	94.188	0.077	-0.088
-444.851	116.397	-0.112	-0.137
-443.836	-3.313	0.360	0.250
-442.822	-175.743	-0.168	-0.004
-441.807	130.635	-0.078	-0.100
-440.792	-51.202	0.179	-0.084
-439.778	-131.101	-0.345	-0.046
-438.763	-11.674	0.198	-0.130
-437.749	-166.453	0.252	0.011
-436.734	-161.659	-0.226	0.012
-435.719	569.079	-0.030	0.072
-434.705	-37.549	0.307	0.163
-433.690	-200.000	-0.002	-0.099
-432.676	-46.060	-0.163	0.080
-431.661	-7.537	-0.080	-0.054
-430.646	-151.931	-0.339	-0.025
-429.632	-200.000	-0.032	-0.263
-428.617	-56.769	-0.152	-0.067
-427.603	-200.000	0.215	-0.001
-426.588	68.448	-0.250	0.255
-425.573	-200.000	-0.020	0.142
-424.559	800.000	0.059	0.236
-423.544	128.185	-0.175	-0.222
-422.530	-200.000	0.009	0.153
-421.515	-18.434	-0.018	0.011
-420.500	671.690	-0.068	0.176
-419.486	697.624	-0.065	-0.170
-418.471	-200.000	-0.001	-0.049
-417.457	-92.135	-0.130	0.037
-416.442	486.658	-0.120	0.272
-415.428	248.707	0.172	-0.290
-414.413	-131.526	-0.062	0.008
-413.398	-181.569	0.261	-0.005
-412.384	-88.630	0.162	-0.048
-411.369	282.390	-0.121	-0.217
-410.355	-200.000	-0.020	-0.376
-409.340	-200.000	-0.003	-0.040
-408.325	156.373	0.103	0.142
-407.311	-200.000	0.049	0.248
-406.296	-48.724	0.164	0.078
-405.282	-158.081	-0.102	-0.006
-404.267	-200.000	0.007	0.124
-403.252	-69.068	-0.063	-0.024
-402.238	252.812	0.185	0.314
-401.223	-200.000	-0.031	0.196
-400.209	151.969	-0.143	-0.194
-399.194	-48.846	-0.146	0.070
-398.179	-63.519	-0.335	0.137
-397.165	-13.317	0.223	0.144
-396.150	-200.000	-0.025	0.126
-395.136	-118.190	0.101	-0.018
-394.121	-200.000	-0.039	0.233
-393.106	-25.035	0.241	-0.142
-392.092	228.389	-0.032	0.053
-391.077	64.032	-0.118	0.118
-390.063	58.040	-0.063	-0.062
-389.048	-76.313	0.120	-0.042
-388.033	76.231	-0.216	-0.228
-387.019	315.224	-0.131	0.246
-386.004	299.831	-0.062	-0.114
-384.990	122.223	0.166	-0.207
-383.975	-160.156	0.207	-0.011
-382.960	-200.000	-0.009	-0.272
-381.946	-78.424	0.110	0.038
-380.931	-200.000	-0.040	-0.261
-379.917	-200.000	-0.001	0.322
-378.902	119.516	0.087	0.108
-377.888	200.173	0.061	-0.094
-376.873	-88.850	-0.096	-0.028
-375.858	-161.477	-0.580	-0.030
-374.844	-58.038	0.197	0.086
-373.829	8.332	-0.016	-0.012
-372.815	166.878	0.090	0.127
-371.800	800.000	-0.023	-0.074
-370.785	274.078	-0.135	0.238
-369.771	-200.000	0.064	-0.391
-368.756	-53.387	0.061	0.028
-367.742	145.090	-0.071	-0.095
-366.727	300.428	-0.075	0.138
-365.712	-200.000	0.043	-0.424
-364.698	-53.564	0.067	-0.031
-363.683	-14.600	-0.222	-0.142
-362.669	-200.000	0.003	0.125
-361.654	93.646	-0.042	-0.047
-360.639	35.034	-0.270	0.235
-359.625	-200.000	-0.006	-0.174
-358.610	-146.818	-0.119	0.010
-357.596	-200.000	-0.006	-0.161
-356.581	201.704	0.279	0.427
-355.566	-200.000	0.029	-0.132
-354.552	95.816	0.070	0.080
-353.537	800.000	-0.003	0.013
-352.523	690.639	-0.055	0.143
-351.508	-138.329	0.357	0.039
-350.493	18.315	0.094	0.074
-349.479	116.406	0.023	0.028
-348.464	800.000	-0.020	-0.065
-347.450	325.581	-0.027	-0.052
-346.435	98.137	-0.339	-0.388
-345.420	-95.509	-0.280	-0.075
-344.406	96.755	-0.162	-0.184
-343.391	-38.711	-0.186	0.097
-342.377	-109.999	0.055	0.011
-341.362	-121.331	0.238	0.039
-340.348	254.963	0.015	-0.025
-339.333	-200.000	0.018	-0.169
-338.318	800.000	-0.058	0.196
-337.304	-3.140	-0.165	0.115
-336.289	-88.930	-0.333	0.098
-335.275	99.306	-0.074	0.085
-334.260	-126.725	0.168	-0.025
-333.245	65.936	0.271	-0.274
-332.231	-156.199	-0.111	0.007
-331.216	-184.005	0.404	-0.007
-330.202	7.819	0.070	-0.052
-329.187	-200.000	-0.006	0.061
-328.172	-26.599	-0.195	0.113
-327.158	183.530	-0.142	0.209
-326.143	-177.525	0.312	-0.008
-325.129	11.245	0.290	0.221
-324.114	-57.893	-0.369	0.160
-323.099	52.343	0.035	-0.033
-322.085	61.090	0.108	0.106
-321.070	182.181	-0.079	0.115
-320.056	-53.196	0.155	0.071
-319.041	45.500	0.121	-0.111
-318.026	707.467	-0.021	-0.056
-317.012	348.173	0.043	0.085
-315.997	210.768	0.175	-0.273
-314.983	505.539	-0.211	-0.486
-313.968	41.750	-0.172	-0.155
-312.953	-129.445	-0.087	-0.012
-311.939	-200.000	-0.041	0.451
-310.924	-200.000	-0.035	0.221
-309.910	-114.817	0.136	0.026
-308.895	-57.857	-0.114	-0.050
-307.880	712.653	-0.113	0.296
-306.866	-200.000	-0.036	-0.622
-305.851	-200.000	-0.018	-0.200
-304.837	161.735	0.125	-0.174
-303.822	152.908	-0.048	0.066
-302.807	597.394	-0.090	0.222
-301.793	-132.842	-0.274	0.035
-300.778	-200.000	0.042	-0.309
-299.764	32.011	-0.128	0.110
-298.749	-200.000	0.015	0.361
-297.735	-3.963	-0.222	-0.153
-296.720	-145.995	0.198	0.017
-295.705	140.263	-0.165	0.217
-294.691	-152.600	-0.410	0.029
-293.676	-115.543	0.264	-0.049
-292.662	219.656	0.019	-0.031
-291.647	6.207	-0.062	0.045
-290.632	35.841	0.099	-0.087
-289.618	-200.000	-0.002	-0.133
-288.603	-84.071	0.275	-0.087
-287.589	-200.000	0.013	-0.075
-286.574	503.620	-0.137	0.315
-285.559	-200.000	-0.014	-0.128
-284.545	-118.735	0.155	-0.027
-283.530	-63.981	-0.236	0.096
-282.516	58.943	-0.029	0.028
-281.501	159.802	-0.106	0.147
-280.486	647.080	-0.089	-0.225
-279.472	84.828	0.172	-0.187
-278.457	800.000	-0.034	0.093
-277.443	-57.053	0.194	0.085
-276.428	-40.165	-0.188	0.097
-275.413	546.997	0.056	0.133
-274.399	56.155	0.115	0.111
-273.384	163.096	-0.205	0.285
-272.370	-33.622	0.191	0.105
-271.355	466.437	0.143	-0.317
-270.340	-24.700	-0.047	-0.028
-269.326	-15.578	-0.121	0.077
-268.311	19.043	-0.121	-0.096
-267.297	135.120	0.155	0.199
-266.282	134.182	0.104	-0.134
-265.267	59.467	0.161	0.158
-264.253	174.703	0.043	0.061
-263.238	-97.040	0.117	0.030
-262.224	149.793	0.038	-0.051
-261.209	-105.524	0.238	0.053
-260.195	-64.920	-0.185	0.074
-259.180	-106.852	0.179	-0.039
-258.165	-200.000	0.023	-0.310
-257.151	800.000	-0.035	-0.096
-256.136	-7.232	0.159	-0.107
-255.122	-200.000	-0.020	0.198
-254.107	-53.217	0.171	-0.078
-253.092	-31.816	0.058	0.032
-252.078	12.935	0.198	-0.152
-251.063	-136.362	0.230	0.027
-250.049	-67.441	0.159	-0.062
-249.034	322.563	0.105	-0.198
-248.019	-200.000	-0.007	-0.085
-247.005	800.000	-0.069	0.198
-245.990	65.176	0.195	-0.196
-244.976	-51.012	-0.412	-0.191
-243.961	460.011	-0.100	-0.221
-242.946	-37.775	0.122	-0.064
-241.932	284.332	-0.104	-0.186
-240.917	-98.872	-0.106	-0.027
-239.903	38.851	-0.178	-0.158
-238.888	-130.673	-0.443	-0.059
-237.873	-200.000	-0.044	-0.395
-236.859	-100.487	-0.234	-0.057
-235.844	407.047	-0.058	-0.122
-234.830	-200.000	-0.000	0.067
-233.815	28.027	0.312	-0.261
-232.800	-49.473	0.314	-0.148
-231.786	600.971	0.089	0.218
-230.771	86.187	0.132	0.144
-229.757	12.967	-0.192	-0.147
-228.742	186.678	-0.243	-0.358
-227.727	-6.110	-0.352	-0.238
-226.713	-51.252	0.248	-0.115
-225.698	-6.919	-0.152	0.102
-224.684	-143.469	0.629	-0.059
-223.669	248.981	0.087	-0.145
-222.655	-200.000	0.016	-0.147
-221.640	-200.000	0.024	0.109
-220.625	-200.000	-0.090	-0.452
-219.611	389.436	0.158	0.325
-218.596	287.560	-0.116	-0.207
-217.582	87.648	0.192	-0.210
-216.567	104.939	0.094	-0.109
-215.552	-89.770	-0.330	0.096
-214.538	14.597	0.149	0.115
-213.523	800.000	-0.060	-0.179
-212.509	800.000	-0.114	0.335
-211.494	455.344	0.168	0.368
-210.479	15.720	-0.167	-0.130
-209.465	273.604	0.157	-0.274
-208.450	23.723	0.137	0.112
-207.436	800.000	-0.083	0.244
-206.421	-200.000	-0.024	0.129
-205.406	-95.184	-0.358	-0.095
-204.392	-153.673	0.299	-0.020
-203.377	-82.047	-0.111	0.036
-202.363	48.785	-0.235	0.218
-201.348	231.584	-0.065	0.105
-200.333	-6.950	0.265	0.178
-199.319	800.000	0.035	-0.116
-198.304	-6.037	0.161	0.109
-197.290	-82.541	0.209	0.067
-196.275	-161.236	-0.220	-0.011
-195.260	-148.311	0.179	0.015
-194.246	245.874	0.082	-0.137
-193.231	-200.000	-0.024	0.120
-192.217	98.726	-0.057	-0.065
-191.202	800.000	0.020	0.075
-190.187	-134.431	0.129	0.016
-189.173	-200.000	-0.001	-0.201
-188.158	-80.776	-0.214	0.070
-187.144	83.718	-0.265	0.285
-186.129	-84.581	0.299	0.093
-185.114	112.994	0.195	-0.234
-184.100	-5.441	0.486	-0.330
-183.085	20.807	-0.166	-0.133
-182.071	-57.956	0.244	-0.105
-181.056	-200.000	0.031	0.144
-180.042	-200.000	0.017	-0.090
-179.027	-134.654	-0.022	0.003
-178.012	113.426	0.178	-0.214
-176.998	800.000	0.096	0.270
-175.983	339.225	0.100	-0.192
-174.969	-169.344	-0.338	0.012
-173.954	151.119	0.014	0.019
-172.939	112.313	0.133	0.159
-171.925	-116.109	0.358	0.066
-170.910	-152.023	0.260	0.019
-169.896	-75.756	-0.285	-0.100
-168.881	-200.000	-0.054	0.378
-167.866	-22.620	0.106	0.064
-166.852	408.648	0.065	-0.136
-165.837	-112.977	-0.277	0.054
-164.823	-200.000	-0.010	0.067
-163.808	55.767	0.290	-0.278
-162.793	-200.000	-0.004	0.054
-161.779	-100.844	-0.196	0.048
-160.764	-47.498	0.217	-0.104
-159.750	-45.998	0.236	0.115
-158.735	-79.128	0.385	0.129
-157.720	800.000	0.113	0.334
-156.706	631.013	0.093	0.233
-155.691	585.033	-0.110	-0.267
-154.677	-200.000	-0.072	0.378
-153.662	31.532	-0.036	-0.030
-152.647	-16.324	-0.210	-0.131
-151.633	800.000	0.073	-0.279
-150.618	211.220	0.167	-0.260
-149.604	-70.006	-0.218	0.082
-148.589	164.005	0.116	-0.161
-147.574	800.000	0.076	0.282
-146.560	-21.220	0.045	-0.027
-145.545	453.447	0.184	-0.401
-144.531	118.768	-0.101	0.123
-143.516	624.289	-0.060	-0.148
-142.502	-181.195	-0.624	-0.012
-141.487	-135.596	0.336	-0.039
-140.472	-192.431	-0.301	0.003
-139.458	661.928	0.093	-0.237
-138.443	-132.676	0.198	-0.025
-137.429	-2.549	-0.318	-0.219
-136.414	438.382	-0.077	0.165
-135.399	-62.278	-0.070	-0.029
-134.385	-200.000	0.006	-0.130
-133.370	-72.928	0.246	0.089
-132.356	-154.734	-0.002	0.000
-131.341	74.299	0.121	-0.125
-130.326	-200.000	0.000	0.052
-129.312	47.449	0.084	-0.077
-128.297	-18.632	-0.116	-0.072
-127.283	96.958	-0.144	-0.163
-126.268	-90.963	-0.034	-0.010
-125.253	-113.776	0.020	-0.004
-124.239	47.484	-0.150	0.138
-123.224	-200.000	-0.039	-0.259
