DTS Sentinel unit serial number:	SN413079Multiplexer serial number:	ORYXHardware model number:	OX4-SRSoftware version number:	ORYX F/W v4.00 Oryx Data Collector v3.7.2.0data status	okinstallation	princeton_trtdifferential loss correction	single-endedforward channel	channel 1reverse channel	N/Adate	2019/09/14time	03:46:35forward acquisition time	60.00reverse acquisition time	0.00gamma	496.2192k internal	0.2335k external	0.2335temperature offset calibration	1.0080default loss term (dB/km)	0.3790temperature slope calibration	1.0000multiplexer offset coefficient	1.0000multiplexer slope coefficient	1.0000fibre end	0.00T internal ref (°C)	26.64T ext. ref 1 (°C)	3.29T ext. ref 2 (°C)	21.69length (m)	temperature (°C)	Stokes	anti-Stokes-747.200	800.000	-0.042	0.136
-746.185	8.820	0.099	0.075
-745.171	800.000	0.055	0.222
-744.156	288.426	-0.142	0.259
-743.142	-9.729	0.222	0.149
-742.127	800.000	-0.075	0.260
-741.112	50.171	0.154	-0.146
-740.098	-75.277	0.160	0.057
-739.083	-6.514	0.140	0.096
-738.069	576.471	0.023	0.055
-737.054	46.871	-0.106	0.099
-736.039	-200.000	0.022	0.128
-735.025	-25.945	0.568	0.336
-734.010	-23.087	-0.155	0.094
-732.996	18.087	-0.114	0.091
-731.981	-87.350	0.090	-0.027
-730.966	4.215	-0.447	-0.328
-729.952	-82.672	-0.095	-0.031
-728.937	-200.000	0.036	-0.183
-727.923	358.421	0.043	-0.086
-726.908	-200.000	0.044	-0.530
-725.894	-0.644	0.045	-0.032
-724.879	225.313	0.141	-0.229
-723.864	-96.786	-0.087	0.023
-722.850	76.791	-0.220	-0.235
-721.835	-77.934	0.208	0.072
-720.821	350.108	-0.124	-0.246
-719.806	105.789	0.140	0.166
-718.791	-200.000	-0.000	0.092
-717.777	800.000	-0.118	-0.379
-716.762	-114.869	-0.235	0.045
-715.748	-116.884	0.141	-0.026
-714.733	-17.358	0.346	-0.218
-713.718	633.878	0.061	-0.156
-712.704	-200.000	-0.010	0.302
-711.689	-30.481	-0.047	-0.027
-710.675	-49.918	-0.231	-0.110
-709.660	267.717	-0.070	0.123
-708.645	-200.000	-0.014	-0.160
-707.631	-200.000	-0.000	0.245
-706.616	-200.000	0.001	0.030
-705.602	-200.000	0.005	-0.245
-704.587	-200.000	-0.020	0.292
-703.572	800.000	-0.023	-0.099
-702.558	163.493	-0.235	0.332
-701.543	-124.180	-0.121	-0.019
-700.529	-59.385	0.368	-0.159
-699.514	-157.370	-0.273	0.017
-698.499	91.339	0.412	0.464
-697.485	-28.046	0.079	0.046
-696.470	23.454	-0.250	0.206
-695.456	-60.195	-0.234	-0.100
-694.441	35.910	0.143	-0.126
-693.426	68.015	-0.045	0.047
-692.412	93.989	-0.097	-0.111
-691.397	499.731	0.030	-0.070
-690.383	-200.000	0.070	-0.599
-689.368	235.508	0.076	0.126
-688.354	11.529	0.155	-0.119
-687.339	-68.845	-0.105	-0.041
-686.324	-30.746	0.136	0.077
-685.310	800.000	-0.038	-0.131
-684.295	-200.000	0.015	-0.168
-683.281	174.304	-0.089	-0.128
-682.266	-127.659	-0.216	0.031
-681.251	182.356	-0.176	-0.260
-680.237	422.313	-0.076	-0.163
-679.222	-80.819	-0.216	-0.072
-678.208	57.244	-0.282	-0.276
-677.193	-200.000	0.078	0.599
-676.178	-49.543	0.282	-0.134
-675.164	187.527	0.036	-0.054
-674.149	-9.823	0.246	-0.164
-673.135	-170.638	-0.166	-0.006
-672.120	3.749	0.047	-0.035
-671.105	-101.256	-0.268	-0.065
-670.091	-55.982	-0.189	0.084
-669.076	-88.818	-0.320	-0.095
-668.062	-18.977	-0.107	-0.067
-667.047	-36.505	-0.131	0.071
-666.032	-126.913	-0.091	-0.013
-665.018	-200.000	0.004	0.151
-664.003	163.629	0.132	0.186
-662.989	-65.220	0.074	-0.030
-661.974	-104.815	0.210	0.048
-660.959	-200.000	-0.004	-0.128
-659.945	252.503	0.015	0.025
-658.930	-133.564	-0.192	-0.024
-657.916	-53.463	-0.040	0.018
-656.901	-73.443	0.227	-0.083
-655.886	0.195	0.296	-0.211
-654.872	800.000	-0.082	0.309
-653.857	-165.072	-0.311	0.014
-652.843	273.668	0.112	0.199
-651.828	117.520	0.211	0.260
-650.814	-120.919	0.207	0.035
-649.799	-78.920	0.223	0.076
-648.784	-96.118	0.329	-0.087
-647.770	-14.639	0.167	0.107
-646.755	-119.134	-0.346	-0.060
-645.741	-200.000	0.018	-0.380
-644.726	92.583	0.183	0.206
-643.711	-139.265	0.290	-0.031
-642.697	-92.282	0.395	-0.112
-641.682	-200.000	0.022	0.108
-640.668	371.339	-0.150	-0.305
-639.653	8.268	-0.217	0.163
-638.638	91.823	0.085	-0.096
-637.624	-200.000	-0.013	-0.483
-636.609	722.605	-0.079	-0.210
-635.595	43.642	-0.170	-0.156
-634.580	800.000	0.063	-0.239
-633.565	473.365	-0.046	0.104
-632.551	125.942	0.124	0.157
-631.536	15.069	-0.069	0.054
-630.522	-136.924	-0.039	0.004
-629.507	-146.987	-0.199	0.017
-628.492	-26.260	-0.303	-0.178
-627.478	-147.462	-0.202	-0.017
-626.463	-4.970	-0.151	0.104
-625.449	485.295	-0.082	0.187
-624.434	-200.000	-0.056	0.448
-623.419	-81.422	0.214	-0.070
-622.405	289.378	-0.055	-0.099
-621.390	800.000	0.102	-0.365
-620.376	-200.000	0.007	-0.151
-619.361	85.266	0.255	-0.280
-618.346	800.000	-0.055	-0.197
-617.332	-88.445	0.175	0.052
-616.317	270.847	0.054	0.094
-615.303	-13.656	-0.123	-0.080
-614.288	-200.000	0.033	-0.491
-613.273	-90.081	0.111	-0.032
-612.259	-200.000	-0.007	0.257
-611.244	100.157	0.045	0.052
-610.230	74.159	-0.180	-0.189
-609.215	-81.208	-0.171	-0.056
-608.201	66.186	0.191	0.194
-607.186	-122.543	-0.116	-0.019
-606.171	141.323	-0.270	0.356
-605.157	108.367	-0.193	0.230
-604.142	-82.025	0.285	-0.093
-603.128	-37.035	-0.141	0.075
-602.113	-106.757	-0.148	-0.033
-601.098	503.958	0.070	-0.162
-600.084	800.000	0.077	-0.255
-599.069	-80.035	0.150	-0.050
-598.055	29.846	-0.072	-0.061
-597.040	101.943	-0.134	0.156
-596.025	89.084	-0.218	-0.242
-595.011	-157.152	0.206	-0.012
-593.996	339.016	-0.038	-0.073
-592.982	349.800	-0.075	0.148
-591.967	-58.949	-0.130	0.056
-590.952	482.052	-0.185	-0.420
-589.938	-200.000	0.007	0.055
-588.923	-4.371	-0.148	0.102
-587.909	185.883	-0.174	-0.259
-586.894	-124.437	0.237	-0.037
-585.879	243.245	-0.267	-0.446
-584.865	244.118	0.011	0.018
-583.850	800.000	-0.050	-0.166
-582.836	800.000	-0.098	0.340
-581.821	800.000	-0.031	0.086
-580.806	-91.257	0.259	-0.074
-579.792	306.639	-0.104	0.194
-578.777	-111.845	-0.063	0.013
-577.763	-200.000	0.003	-0.117
-576.748	-29.057	0.241	-0.138
-575.733	800.000	0.017	0.063
-574.719	-79.355	-0.525	-0.177
-573.704	-19.253	0.128	-0.079
-572.690	-112.329	0.265	0.053
-571.675	800.000	0.115	0.440
-570.661	-153.652	0.445	-0.031
-569.646	-4.560	-0.242	-0.167
-568.631	123.572	0.133	0.167
-567.617	-119.642	-0.217	0.037
-566.602	103.590	-0.145	-0.169
-565.588	-2.836	-0.105	-0.073
-564.573	800.000	0.086	0.260
-563.558	-200.000	-0.076	0.509
-562.544	530.141	0.088	-0.207
-561.529	40.661	0.282	-0.254
-560.515	344.880	0.057	-0.112
-559.500	16.997	0.159	0.126
-558.485	93.131	0.174	-0.196
-557.471	416.383	0.181	0.386
-556.456	303.954	-0.096	-0.178
-555.442	389.685	0.200	0.414
-554.427	-19.844	-0.231	0.143
-553.412	-130.637	0.267	0.036
-552.398	-200.000	-0.012	0.126
-551.383	-73.390	-0.293	0.107
-550.369	-165.973	-0.251	-0.011
-549.354	-9.830	0.127	-0.084
-548.339	217.689	0.247	-0.393
-547.325	109.580	-0.031	0.037
-546.310	453.918	0.056	0.123
-545.296	96.366	0.130	-0.149
-544.281	-200.000	0.021	0.121
-543.266	-108.401	0.351	-0.075
-542.252	651.534	0.110	-0.281
-541.237	-27.713	0.212	-0.122
-540.223	689.133	-0.090	-0.235
-539.208	-144.162	0.110	0.010
-538.193	800.000	-0.070	0.208
-537.179	800.000	-0.101	0.280
-536.164	10.521	-0.435	-0.330
-535.150	-157.254	0.172	-0.010
-534.135	-55.800	-0.286	-0.127
-533.121	-26.444	-0.054	-0.032
-532.106	800.000	-0.090	0.300
-531.091	-200.000	0.024	-0.117
-530.077	-200.000	0.012	0.130
-529.062	-130.940	0.176	0.023
-528.048	-93.110	-0.189	-0.052
-527.033	377.920	-0.131	-0.266
-526.018	690.628	0.061	0.160
-525.004	327.374	-0.036	-0.069
-523.989	527.835	0.022	0.052
-522.975	-35.258	0.143	-0.078
-521.960	-65.734	-0.411	-0.164
-520.945	140.799	-0.096	-0.126
-519.931	-21.494	-0.149	0.091
-518.916	-200.000	-0.015	-0.089
-517.902	-62.073	0.166	-0.069
-516.887	477.546	0.045	-0.101
-515.872	-118.058	0.173	0.031
-514.858	188.143	0.125	0.186
-513.843	-130.366	-0.107	-0.014
-512.829	235.483	-0.060	-0.099
-511.814	-200.000	-0.001	0.112
-510.799	-40.267	-0.063	-0.033
-509.785	-200.000	0.025	0.164
-508.770	-122.766	-0.086	0.014
-507.756	90.252	0.154	0.172
-506.741	89.815	-0.079	0.087
-505.726	800.000	-0.065	0.239
-504.712	-76.459	0.120	0.042
-503.697	-53.566	-0.336	0.153
-502.683	157.641	0.246	0.339
-501.668	-36.625	-0.114	0.061
-500.653	-99.148	0.025	0.006
-499.639	800.000	-0.085	0.254
-498.624	-18.601	0.274	-0.170
-497.610	753.815	-0.094	-0.252
-496.595	-200.000	-0.027	-0.173
-495.581	135.024	-0.068	0.088
-494.566	-200.000	0.003	0.122
-493.551	-150.399	-0.476	0.036
-492.537	10.857	-0.275	-0.209
-491.522	-55.752	-0.216	0.096
-490.508	-200.000	0.041	0.278
-489.493	439.494	-0.134	0.291
-488.478	215.501	-0.097	-0.153
-487.464	-26.602	0.132	0.077
-486.449	-26.412	-0.055	-0.032
-485.435	366.441	0.047	0.095
-484.420	198.806	-0.180	-0.275
-483.405	-85.099	0.224	-0.070
-482.391	-200.000	-0.005	0.214
-481.376	-200.000	0.004	-0.203
-480.362	442.217	-0.030	-0.066
-479.347	-40.560	-0.087	-0.045
-478.332	-117.479	-0.144	-0.026
-477.318	161.008	0.124	-0.173
-476.303	143.780	0.117	0.155
-475.289	-158.810	0.196	-0.011
-474.274	174.354	0.055	0.079
-473.259	-200.000	0.002	-0.038
-472.245	-200.000	-0.004	-0.139
-471.230	800.000	0.086	-0.266
-470.216	800.000	-0.074	-0.285
-469.201	-99.420	-0.579	0.145
-468.186	43.322	-0.124	0.113
-467.172	-200.000	0.020	-0.151
-466.157	232.025	-0.060	-0.098
-465.143	102.384	-0.041	0.048
-464.128	61.440	-0.068	-0.067
-463.113	713.228	0.031	0.083
-462.099	-136.575	-0.142	-0.016
-461.084	45.816	-0.087	0.079
-460.070	717.447	-0.060	-0.158
-459.055	285.084	0.124	-0.222
-458.040	61.015	-0.253	0.250
-457.026	-166.530	-0.294	-0.012
-456.011	-68.392	-0.264	0.102
-454.997	800.000	-0.055	-0.186
-453.982	-200.000	-0.026	-0.239
-452.968	-78.482	0.281	-0.096
-451.953	-107.650	0.090	-0.019
-450.938	24.942	0.307	0.253
-449.924	69.144	-0.131	-0.134
-448.909	-24.356	0.221	-0.131
-447.895	-200.000	0.006	0.125
-446.880	38.029	-0.097	-0.086
-445.865	-59.223	-0.256	-0.109
-444.851	-200.000	0.001	-0.096
-443.836	-71.441	-0.286	0.106
-442.822	291.303	0.212	0.383
-441.807	296.785	0.093	-0.169
-440.792	624.068	0.083	-0.208
-439.778	-200.000	-0.007	-0.223
-438.763	30.474	0.082	0.070
-437.749	134.916	0.053	-0.068
-436.734	-176.699	0.229	0.006
-435.719	-186.650	0.241	-0.003
-434.705	-100.588	-0.018	0.004
-433.690	-162.567	0.162	0.008
-432.676	356.194	-0.018	-0.035
-431.661	108.705	-0.144	-0.170
-430.646	780.409	-0.033	0.089
-429.632	155.876	0.198	0.271
-428.617	800.000	-0.092	-0.255
-427.603	-51.137	0.068	-0.032
-426.588	-17.953	0.025	-0.015
-425.573	-107.146	-0.156	0.034
-424.559	429.436	0.079	0.169
-423.544	116.340	-0.042	-0.051
-422.530	-200.000	-0.010	-0.191
-421.515	-3.943	0.148	-0.102
-420.500	-124.022	0.346	-0.054
-419.486	-96.820	-0.146	0.038
-418.471	6.800	-0.472	0.348
-417.457	2.508	0.216	0.155
-416.442	800.000	-0.075	0.209
-415.428	103.777	-0.168	-0.196
-414.413	23.183	0.118	-0.096
-413.398	699.699	-0.161	0.420
-412.384	148.787	0.168	0.225
-411.369	11.177	0.174	-0.132
-410.355	455.136	0.066	0.145
-409.340	41.307	0.143	-0.129
-408.325	-182.953	0.142	-0.003
-407.311	800.000	-0.019	0.067
-406.296	91.729	-0.188	-0.210
-405.282	-158.425	0.162	-0.009
-404.267	-1.901	-0.223	-0.155
-403.252	-9.839	0.084	0.055
-402.238	19.651	0.079	-0.063
-401.223	-16.237	0.232	0.146
-400.209	461.880	-0.087	-0.192
-399.194	737.694	0.106	0.283
-398.179	-200.000	-0.054	0.294
-397.165	159.149	0.171	-0.236
-396.150	257.269	0.250	0.426
-395.136	-200.000	0.001	0.185
-394.121	-80.629	-0.230	0.076
-393.106	800.000	0.077	0.246
-392.092	67.713	0.124	0.126
-391.077	36.435	0.079	-0.069
-390.063	-58.870	-0.158	-0.068
-389.048	800.000	-0.061	0.228
-388.033	209.709	0.116	-0.180
-387.019	800.000	-0.068	-0.211
-386.004	-200.000	0.061	-0.359
-384.990	146.833	-0.240	0.320
-383.975	800.000	0.071	0.285
-382.960	-200.000	-0.018	0.185
-381.946	250.277	-0.206	0.347
-380.931	-85.805	-0.328	0.101
-379.917	800.000	0.039	0.145
-378.902	123.151	-0.123	-0.152
-377.888	-200.000	-0.049	-0.298
-376.873	-126.091	0.431	-0.064
-375.858	800.000	0.025	0.094
-374.844	-138.314	0.056	0.006
-373.829	-147.078	-0.160	0.014
-372.815	115.322	0.144	0.174
-371.800	671.663	0.153	0.393
-370.785	-0.305	-0.207	0.146
-369.771	-111.357	-0.146	-0.029
-368.756	-200.000	-0.016	-0.139
-367.742	-200.000	0.003	-0.094
-366.727	800.000	0.058	-0.159
-365.712	-44.207	-0.133	-0.066
-364.698	-200.000	-0.055	-0.446
-363.683	597.382	0.128	-0.313
-362.669	-55.030	-0.349	0.156
-361.654	800.000	-0.041	0.153
-360.639	-200.000	0.009	0.054
-359.625	-15.672	0.052	-0.033
-358.610	22.074	0.223	-0.180
-357.596	-72.907	-0.177	0.064
-356.581	72.117	0.136	0.140
-355.566	127.773	0.196	0.247
-354.552	-169.060	0.076	-0.003
-353.537	-121.047	0.249	-0.041
-352.523	-70.175	-0.160	0.060
-351.508	191.478	-0.066	0.098
-350.493	86.271	0.112	0.122
-349.479	18.570	-0.156	0.123
-348.464	244.355	-0.073	0.120
-347.450	-14.469	0.149	0.095
-346.435	5.962	0.038	-0.028
-345.420	32.780	-0.151	0.129
-344.406	-132.792	0.014	0.002
-343.391	-136.693	0.501	-0.057
-342.377	12.782	-0.312	-0.238
-341.362	332.390	0.123	-0.235
-340.348	-200.000	-0.020	-0.095
-339.333	-87.574	-0.384	0.115
-338.318	-159.587	0.211	-0.012
-337.304	618.584	0.088	-0.220
-336.289	568.823	-0.132	-0.317
-335.275	800.000	0.093	0.260
-334.260	-93.626	-0.338	0.092
-333.245	258.738	0.141	0.240
-332.231	-165.584	0.297	-0.013
-331.216	-200.000	0.006	0.160
-330.202	143.321	-0.055	0.072
-329.187	46.225	0.073	0.067
-328.172	800.000	-0.082	-0.317
-327.158	-88.563	0.189	0.056
-326.143	-25.001	-0.049	0.029
-325.129	-38.423	-0.109	0.057
-324.114	15.367	-0.215	0.167
-323.099	386.300	-0.138	0.282
-322.085	-0.339	-0.092	-0.064
-321.070	-200.000	0.014	0.157
-320.056	800.000	-0.056	0.155
-319.041	800.000	-0.085	-0.330
-318.026	454.538	0.017	0.038
-317.012	-86.775	0.186	0.056
-315.997	800.000	-0.017	0.061
-314.983	234.718	0.081	-0.131
-313.968	-99.067	-0.138	-0.034
-312.953	67.034	0.195	0.197
-311.939	-5.639	0.299	-0.202
-310.924	113.468	0.286	-0.343
-309.910	-200.000	0.006	-0.192
-308.895	298.424	0.176	-0.319
-307.880	-6.266	0.262	-0.176
-306.866	-92.830	0.117	-0.032
-305.851	800.000	0.010	0.043
-304.837	395.038	-0.076	0.157
-303.822	15.500	0.272	-0.211
-302.807	-200.000	-0.001	0.178
-301.793	24.600	-0.169	-0.138
-300.778	-111.465	-0.378	0.076
-299.764	-200.000	0.001	-0.032
-298.749	381.604	0.048	-0.097
-297.735	-186.560	0.241	-0.003
-296.720	-200.000	-0.021	-0.170
-295.705	-91.182	0.265	0.075
-294.691	63.638	0.158	-0.157
-293.676	139.041	0.118	0.153
-292.662	-200.000	-0.018	0.106
-291.647	-200.000	-0.046	0.306
-290.632	-31.805	0.299	-0.165
-289.618	9.118	-0.106	0.079
-288.603	332.204	-0.067	0.127
-287.589	800.000	-0.061	0.184
-286.574	-200.000	-0.050	0.228
-285.559	-15.552	-0.355	-0.224
-284.545	29.743	-0.148	-0.124
-283.530	340.178	0.075	0.145
-282.516	18.600	0.166	0.131
-281.501	12.979	0.288	-0.219
-280.486	234.152	-0.091	0.147
-279.472	137.639	-0.228	0.294
-278.457	192.505	-0.156	-0.232
-277.443	-55.538	-0.295	-0.130
-276.428	642.173	-0.085	-0.215
-275.413	241.460	-0.127	0.209
-274.399	-200.000	0.014	-0.183
-273.384	800.000	-0.085	0.270
-272.370	-57.198	0.054	-0.023
-271.355	-24.432	0.161	-0.095
-270.340	738.688	-0.095	-0.252
-269.326	-124.514	0.103	0.016
-268.311	-200.000	-0.015	0.493
-267.297	800.000	-0.150	0.444
-266.282	800.000	-0.017	0.068
-265.267	-200.000	0.026	0.444
-264.253	-44.534	0.196	-0.096
-263.238	170.443	-0.068	-0.096
-262.224	128.587	-0.069	-0.086
-261.209	-200.000	0.045	-0.417
-260.195	36.487	0.124	-0.108
-259.180	800.000	0.081	-0.268
-258.165	-200.000	-0.038	-0.239
-257.151	800.000	0.026	-0.070
-256.136	-143.031	-0.162	0.015
-255.122	139.498	0.120	-0.156
-254.107	-200.000	-0.080	-0.354
-253.092	568.863	0.173	0.415
-252.078	-200.000	0.035	0.168
-251.063	-200.000	-0.060	0.402
-250.049	800.000	0.038	0.112
-249.034	-178.642	0.156	-0.004
-248.019	-200.000	0.032	0.449
-247.005	112.848	-0.055	-0.065
-245.990	-200.000	-0.013	-0.414
-244.976	-93.459	-0.528	-0.144
-243.961	226.113	0.070	-0.112
-242.946	-200.000	0.038	-0.377
-241.932	54.376	-0.224	-0.212
-240.917	16.581	0.102	0.079
-239.903	800.000	0.051	0.172
-238.888	-200.000	-0.017	-0.343
-237.873	1.743	0.091	0.064
-236.859	63.308	-0.182	-0.180
-235.844	402.058	-0.056	0.117
-234.830	120.565	0.049	-0.060
-233.815	129.392	0.151	0.190
-232.800	260.853	0.092	0.156
-231.786	-83.781	0.127	-0.040
-230.771	-72.425	-0.240	-0.087
-229.757	-130.260	0.261	0.035
-228.742	-200.000	-0.002	-0.019
-227.727	-19.133	0.157	-0.096
-226.713	-67.193	-0.321	0.124
-225.698	443.520	0.011	0.024
-224.684	800.000	0.031	0.085
-223.669	-103.951	0.017	0.004
-222.655	124.106	-0.091	0.112
-221.640	-21.632	-0.101	-0.061
-220.625	48.061	0.138	0.127
-219.611	-102.205	0.018	0.004
-218.596	-192.820	-0.136	0.001
-217.582	-148.091	0.219	0.018
-216.567	-200.000	-0.086	0.000
-215.552	-200.000	-0.062	-0.338
-214.538	-149.686	0.319	0.025
-213.523	-37.552	-0.153	0.080
-212.509	136.066	0.057	0.073
-211.494	-93.292	-0.171	0.047
-210.479	-159.752	-0.271	-0.015
-209.465	-189.290	-0.166	-0.002
-208.450	-200.000	0.043	0.295
-207.436	-114.150	-0.375	0.071
-206.421	-126.674	0.160	0.023
-205.406	649.396	-0.080	-0.201
-204.392	-42.667	-0.337	-0.169
-203.377	-154.926	0.362	0.023
-202.363	79.288	-0.151	0.159
-201.348	-93.141	0.287	0.078
-200.333	800.000	0.090	-0.246
-199.319	241.886	0.175	-0.288
-198.304	-128.336	0.240	0.034
-197.290	-200.000	0.020	0.100
-196.275	57.487	0.145	0.139
-195.260	271.218	-0.061	-0.106
-194.246	-124.275	-0.151	0.023
-193.231	800.000	0.019	-0.075
-192.217	-90.396	0.273	0.078
-191.202	130.786	-0.092	-0.116
-190.187	-33.651	0.183	0.099
-189.173	-74.836	-0.259	-0.091
-188.158	169.504	-0.062	0.087
-187.144	-200.000	-0.126	0.001
-186.129	260.743	0.172	0.293
-185.114	276.993	0.154	-0.269
-184.100	-81.203	0.204	0.066
-183.085	249.471	0.174	0.290
-182.071	296.128	-0.182	0.327
-181.056	273.570	-0.283	-0.492
-180.042	40.164	0.283	0.250
-179.027	49.107	-0.074	-0.068
-178.012	-104.439	-0.170	-0.039
-176.998	-200.000	0.043	0.252
-175.983	-200.000	-0.065	-0.342
-174.969	458.739	-0.052	0.114
-173.954	16.773	-0.178	0.138
-172.939	-70.412	0.282	-0.105
-171.925	-100.753	0.185	0.045
-170.910	-200.000	-0.060	0.300
-169.896	-200.000	-0.017	-0.117
-168.881	-66.658	0.179	-0.070
-167.866	-87.919	0.240	0.071
-166.852	296.121	-0.190	0.341
-165.837	-29.639	0.386	0.216
-164.823	207.681	-0.031	0.048
-163.808	-52.929	-0.297	-0.134
-162.793	86.745	0.102	-0.110
-161.779	94.745	-0.170	-0.190
-160.764	-200.000	-0.001	0.108
-159.750	-168.835	0.176	-0.007
-158.735	96.357	-0.190	0.214
-157.720	-111.463	0.156	0.031
-156.706	-189.562	-0.065	-0.001
-155.691	61.677	0.185	0.181
-154.677	-163.111	0.157	0.007
-153.662	11.762	-0.040	0.030
-152.647	-88.411	-0.219	0.064
-151.633	-200.000	0.032	-0.304
-150.618	-200.000	0.011	-0.134
-149.604	-176.176	-0.356	-0.009
-148.589	263.018	0.115	0.195
-147.574	33.781	0.159	-0.136
-146.560	-200.000	-0.017	0.129
-145.545	-200.000	0.024	0.309
-144.531	-119.337	0.222	0.038
-143.516	170.863	0.214	-0.301
-142.502	-200.000	0.008	-0.559
-141.487	-200.000	0.034	-0.151
-140.472	-78.801	0.136	-0.045
-139.458	-49.895	0.204	0.095
-138.443	-138.315	-0.403	0.044
-137.429	-155.181	-0.531	-0.034
-136.414	-122.228	0.050	0.008
-135.399	-200.000	-0.033	-0.172
-134.385	-83.644	0.088	0.028
-133.370	55.629	0.040	0.038
-132.356	-200.000	-0.023	0.106
-131.341	-58.464	0.183	-0.078
-130.326	-200.000	0.024	0.224
-129.312	-92.229	0.216	0.060
-128.297	-200.000	0.008	0.180
-127.283	46.559	-0.306	-0.279
-126.268	111.219	-0.149	0.177
-125.253	-41.728	-0.073	-0.037
-124.239	-52.213	-0.228	0.104
-123.224	4.755	0.153	-0.110
-122.210	-41.097	-0.079	0.040
-121.195	155.292	-0.169	0.228
