DTS Sentinel unit serial number:	SN413079Multiplexer serial number:	ORYXHardware model number:	OX4-SRSoftware version number:	ORYX F/W v4.00 Oryx Data Collector v3.7.2.0data status	okinstallation	princeton_trtdifferential loss correction	single-endedforward channel	channel 1reverse channel	N/Adate	2019/09/18time	10:46:35forward acquisition time	60.00reverse acquisition time	0.00gamma	496.2192k internal	0.2327k external	0.2327temperature offset calibration	0.9973default loss term (dB/km)	0.3790temperature slope calibration	1.0000multiplexer offset coefficient	1.0000multiplexer slope coefficient	1.0000fibre end	0.00T internal ref (°C)	28.89T ext. ref 1 (°C)	0.38T ext. ref 2 (°C)	25.44length (m)	temperature (°C)	Stokes	anti-Stokes-747.200	-7.045	-0.157	0.107
-746.185	-98.131	-0.328	0.085
-745.171	-104.429	-0.140	-0.033
-744.156	714.498	0.083	0.222
-743.142	-81.081	-0.138	0.046
-742.127	800.000	-0.036	0.109
-741.112	-200.000	0.038	-0.219
-740.098	-91.981	-0.132	-0.038
-739.083	-86.327	-0.142	0.044
-738.069	-99.004	-0.296	0.076
-737.054	-200.000	-0.038	-0.195
-736.039	-113.626	-0.182	0.036
-735.025	488.658	-0.110	-0.253
-734.010	235.161	-0.090	0.150
-732.996	149.045	-0.140	0.191
-731.981	-200.000	0.029	0.183
-730.966	523.862	-0.140	-0.331
-729.952	93.186	-0.139	-0.159
-728.937	-43.132	0.102	0.052
-727.923	-64.870	-0.063	-0.026
-726.908	82.847	-0.201	0.220
-725.894	-7.025	-0.213	-0.146
-724.879	145.658	0.271	-0.366
-723.864	7.015	-0.210	-0.158
-722.850	-61.423	-0.093	0.039
-721.835	-165.540	-0.446	0.020
-720.821	568.488	0.070	0.171
-719.806	11.639	-0.340	-0.262
-718.791	-50.399	0.077	-0.037
-717.777	398.973	0.062	0.131
-716.762	-200.000	-0.019	-0.107
-715.748	-200.000	0.008	0.227
-714.733	18.487	-0.381	0.307
-713.718	131.821	-0.294	0.381
-712.704	-142.827	-0.183	-0.018
-711.689	147.577	-0.068	0.092
-710.675	800.000	0.031	-0.136
-709.660	-166.877	-0.141	-0.006
-708.645	-38.037	-0.243	0.130
-707.631	800.000	-0.008	0.031
-706.616	61.230	-0.170	0.170
-705.602	-122.737	0.193	0.031
-704.587	800.000	-0.078	-0.322
-703.572	9.742	0.090	0.069
-702.558	652.190	-0.107	-0.276
-701.543	-74.528	0.049	0.018
-700.529	68.905	0.300	0.310
-699.514	-82.264	-0.263	0.086
-698.499	45.611	-0.237	-0.220
-697.485	77.727	-0.158	-0.170
-696.470	-31.301	0.253	0.144
-695.456	-200.000	0.042	0.221
-694.441	-48.152	-0.287	0.139
-693.426	-63.640	-0.042	0.017
-692.412	113.395	-0.157	-0.192
-691.397	-25.433	-0.131	-0.078
-690.383	-74.554	-0.353	-0.128
-689.368	-30.302	-0.280	0.160
-688.354	100.098	0.093	-0.109
-687.339	35.147	0.164	-0.145
-686.324	-200.000	-0.000	-0.520
-685.310	279.754	-0.063	-0.113
-684.295	-51.069	-0.283	0.134
-683.281	197.173	-0.108	-0.166
-682.266	-200.000	0.027	-0.169
-681.251	327.529	0.057	0.111
-680.237	-115.919	0.210	0.039
-679.222	-46.369	-0.148	0.073
-678.208	-1.945	0.085	0.060
-677.193	-55.434	-0.133	-0.060
-676.178	23.061	0.216	-0.178
-675.164	1.619	-0.203	0.147
-674.149	511.833	0.124	0.290
-673.135	-154.719	0.382	0.025
-672.120	90.879	-0.121	-0.136
-671.105	22.688	-0.051	-0.042
-670.091	-200.000	0.008	0.165
-669.076	3.610	-0.314	0.230
-668.062	-102.677	0.051	0.012
-667.047	-169.991	0.390	-0.014
-666.032	-146.739	0.396	0.034
-665.018	419.291	0.057	0.122
-664.003	13.750	0.214	0.167
-662.989	-114.681	-0.136	0.026
-661.974	100.656	0.088	-0.102
-660.959	-200.000	0.014	-0.227
-659.945	-200.000	0.003	0.071
-658.930	401.445	-0.077	0.162
-657.916	-172.329	0.167	0.005
-656.901	-118.608	0.222	-0.039
-655.886	0.500	-0.220	-0.158
-654.872	-62.859	0.233	0.097
-653.857	-48.807	-0.180	0.087
-652.843	-53.072	-0.159	0.073
-651.828	-116.928	0.454	-0.083
-650.814	-11.845	-0.099	0.065
-649.799	34.296	-0.057	-0.050
-648.784	407.875	0.029	-0.061
-647.770	493.700	-0.160	-0.368
-646.755	-200.000	-0.010	0.233
-645.741	-128.114	0.178	0.026
-644.726	-108.495	-0.359	-0.077
-643.711	108.347	0.191	0.229
-642.697	-128.485	0.070	-0.010
-641.682	278.473	0.047	0.084
-640.668	-105.946	0.275	0.062
-639.653	-200.000	-0.020	-0.137
-638.638	260.417	0.037	0.064
-637.624	800.000	0.120	0.381
-636.609	-110.167	-0.281	0.059
-635.595	800.000	-0.066	-0.186
-634.580	800.000	-0.052	-0.198
-633.565	-171.056	0.317	-0.011
-632.551	800.000	0.082	0.329
-631.536	60.585	-0.075	0.074
-630.522	-200.000	0.069	-0.324
-629.507	-200.000	-0.033	-0.174
-628.492	-94.073	-0.271	0.075
-627.478	193.303	-0.160	0.243
-626.463	-101.877	-0.142	0.034
-625.449	-200.000	-0.013	0.118
-624.434	476.213	-0.081	-0.183
-623.419	115.777	-0.054	0.066
-622.405	-35.428	-0.243	-0.132
-621.390	321.330	0.122	0.233
-620.376	-20.934	0.116	-0.071
-619.361	116.462	-0.122	0.150
-618.346	-200.000	-0.027	-0.120
-617.332	91.748	-0.187	-0.211
-616.317	12.905	0.061	0.048
-615.303	454.727	-0.087	0.194
-614.288	-128.408	-0.220	0.031
-613.273	-200.000	0.015	-0.083
-612.259	-67.665	-0.201	0.079
-611.244	-102.486	-0.382	0.092
-610.230	-11.673	-0.170	-0.112
-609.215	-9.364	-0.068	-0.045
-608.201	324.941	-0.128	-0.244
-607.186	-78.226	-0.047	0.016
-606.171	108.320	0.082	0.098
-605.157	275.387	-0.324	-0.577
-604.142	424.950	-0.162	-0.349
-603.128	-63.919	-0.281	-0.115
-602.113	-132.897	0.102	-0.013
-601.098	282.470	0.180	-0.323
-600.084	139.412	0.093	0.122
-599.069	-151.385	0.279	0.021
-598.055	800.000	0.056	-0.196
-597.040	203.031	-0.070	-0.108
-596.025	-8.367	-0.287	0.194
-595.011	-193.185	0.063	-0.001
-593.996	-200.000	0.080	0.362
-592.982	-67.740	0.064	-0.025
-591.967	-144.933	0.024	0.002
-590.952	9.389	-0.271	0.206
-589.938	-24.582	0.032	-0.019
-588.923	-163.449	0.345	-0.016
-587.909	106.222	0.137	-0.162
-586.894	673.436	0.051	-0.134
-585.879	-200.000	-0.021	-0.316
-584.865	189.587	0.056	-0.084
-583.850	103.192	-0.049	-0.058
-582.836	-13.305	0.128	-0.083
-581.821	254.261	-0.128	-0.219
-580.806	-64.945	0.255	-0.103
-579.792	-9.483	-0.130	0.087
-578.777	15.392	-0.107	0.084
-577.763	-117.722	-0.353	-0.064
-576.748	-74.558	-0.484	-0.175
-575.733	800.000	-0.056	-0.177
-574.719	22.661	0.091	0.075
-573.704	14.754	-0.156	0.122
-572.690	800.000	-0.161	-0.457
-571.675	8.296	-0.225	-0.169
-570.661	800.000	-0.068	-0.200
-569.646	314.521	-0.035	0.066
-568.631	346.913	-0.149	-0.294
-567.617	88.778	0.167	-0.185
-566.602	800.000	-0.042	-0.152
-565.588	800.000	0.074	0.240
-564.573	397.693	0.051	-0.106
-563.558	33.210	0.066	0.058
-562.544	-3.467	-0.107	0.074
-561.529	-164.709	-0.180	0.008
-560.515	-167.724	0.259	0.010
-559.500	37.276	-0.089	-0.079
-558.485	-200.000	-0.044	-0.273
-557.471	434.973	0.103	-0.224
-556.456	644.648	-0.127	-0.325
-555.442	-14.016	-0.105	0.068
-554.427	105.382	-0.083	0.098
-553.412	345.556	0.163	-0.320
-552.398	-87.105	0.150	0.046
-551.383	800.000	-0.048	-0.192
-550.369	84.577	0.139	-0.152
-549.354	800.000	-0.122	0.372
-548.339	-200.000	-0.013	-0.107
-547.325	-53.607	0.049	-0.022
-546.310	43.171	-0.299	0.273
-545.296	-200.000	-0.072	0.323
-544.281	-200.000	-0.020	-0.117
-543.266	127.154	0.145	-0.184
-542.252	-140.169	-0.178	0.019
-541.237	-200.000	-0.010	0.167
-540.223	98.352	0.090	-0.104
-539.208	19.314	-0.252	0.202
-538.193	175.209	-0.090	0.130
-537.179	-36.069	-0.215	0.116
-536.164	42.002	0.168	0.152
-535.150	-134.377	0.422	0.052
-534.135	-200.000	0.025	-0.153
-533.121	-60.997	0.109	-0.046
-532.106	800.000	0.028	-0.084
-531.091	-200.000	0.051	-0.403
-530.077	-200.000	-0.045	-0.233
-529.062	-61.753	0.286	-0.120
-528.048	586.891	0.032	0.079
-527.033	-200.000	-0.073	0.000
-526.018	-4.363	0.125	-0.086
-525.004	-78.095	0.327	0.112
-523.989	57.663	0.259	0.253
-522.975	800.000	0.034	-0.130
-521.960	-158.817	-0.049	-0.003
-520.945	-27.417	0.139	-0.081
-519.931	-106.777	-0.008	0.002
-518.916	-41.181	-0.228	-0.118
-517.902	-61.795	0.315	0.132
-516.887	-93.901	0.186	0.051
-515.872	-124.840	-0.282	-0.043
-514.858	-200.000	0.019	0.086
-513.843	-116.811	-0.176	-0.032
-512.829	-126.559	-0.210	-0.031
-511.814	-86.163	0.134	0.041
-510.799	-124.349	-0.229	-0.036
-509.785	-134.763	-0.191	-0.023
-508.770	245.409	0.206	0.347
-507.756	-200.000	-0.057	-0.307
-506.741	800.000	-0.034	-0.115
-505.726	-69.989	-0.195	-0.074
-504.712	-143.409	-0.061	-0.006
-503.697	800.000	0.081	0.232
-502.683	800.000	0.033	0.107
-501.668	36.539	0.244	-0.215
-500.653	-200.000	-0.039	0.494
-499.639	-80.817	0.397	0.131
-498.624	99.853	-0.312	-0.361
-497.610	800.000	0.078	0.301
-496.595	800.000	-0.032	0.109
-495.581	-74.407	0.334	0.120
-494.566	612.566	-0.057	0.142
-493.551	800.000	0.115	0.362
-492.537	263.554	-0.064	0.112
-491.522	-200.000	-0.044	0.248
-490.508	-50.883	0.039	-0.018
-489.493	-40.014	-0.142	-0.074
-488.478	-200.000	-0.024	-0.181
-487.464	-200.000	0.011	-0.121
-486.449	800.000	-0.032	-0.089
-485.435	800.000	-0.056	0.185
-484.420	234.631	0.160	-0.263
-483.405	-65.086	-0.217	-0.087
-482.391	-200.000	0.026	0.199
-481.376	-200.000	0.019	0.265
-480.362	116.538	-0.251	0.307
-479.347	-46.540	-0.116	-0.057
-478.332	-200.000	0.026	-0.218
-477.318	-200.000	-0.020	0.144
-476.303	-72.062	-0.117	-0.043
-475.289	-80.688	0.074	0.025
-474.274	242.464	0.087	0.145
-473.259	293.575	0.108	-0.196
-472.245	-200.000	0.008	0.350
-471.230	60.248	-0.098	0.097
-470.216	80.394	0.115	0.123
-469.201	-200.000	0.071	-0.316
-468.186	-76.988	-0.342	-0.119
-467.172	800.000	-0.056	-0.173
-466.157	-200.000	0.015	-0.223
-465.143	-98.458	0.143	0.037
-464.128	-27.864	0.099	0.057
-463.113	1.311	-0.222	0.159
-462.099	800.000	-0.040	0.153
-461.084	-2.000	0.159	0.111
-460.070	-8.086	-0.111	-0.075
-459.055	-60.553	-0.519	-0.220
-458.040	-39.126	-0.018	-0.010
-457.026	-60.743	0.142	-0.060
-456.011	-200.000	-0.002	0.077
-454.997	115.585	-0.144	0.175
-453.982	-104.489	-0.376	-0.087
-452.968	111.779	0.128	-0.154
-451.953	-70.754	-0.218	-0.082
-450.938	800.000	0.063	-0.204
-449.924	-52.126	0.169	-0.078
-448.909	-200.000	-0.002	0.234
-447.895	-200.000	-0.010	-0.079
-446.880	-200.000	-0.025	-0.143
-445.865	-200.000	0.042	-0.338
-444.851	800.000	0.027	-0.080
-443.836	-162.083	-0.128	-0.006
-442.822	223.719	-0.172	-0.276
-441.807	-166.120	-0.245	0.010
-440.792	-72.502	0.120	-0.044
-439.778	-13.637	-0.195	-0.126
-438.763	-200.000	-0.002	0.009
-437.749	-25.585	-0.211	0.124
-436.734	258.519	0.091	0.157
-435.719	800.000	-0.032	0.139
-434.705	-40.029	-0.128	-0.067
-433.690	-72.184	0.366	-0.135
-432.676	-84.024	0.089	0.028
-431.661	-90.949	0.228	-0.065
-430.646	-135.241	-0.136	-0.016
-429.632	473.743	-0.063	-0.142
-428.617	-92.290	-0.126	-0.035
-427.603	-83.068	0.195	-0.063
-426.588	-0.669	0.172	-0.122
-425.573	-141.475	0.070	-0.007
-424.559	57.417	0.197	0.192
-423.544	-36.070	-0.251	0.135
-422.530	-17.770	-0.019	-0.012
-421.515	-200.000	0.034	0.234
-420.500	-3.072	0.169	0.118
-419.486	58.440	0.124	-0.121
-418.471	111.328	0.141	0.169
-417.457	-44.394	0.184	0.092
-416.442	-137.270	-0.162	-0.018
-415.428	800.000	-0.060	0.245
-414.413	-200.000	-0.011	0.237
-413.398	479.048	0.108	-0.243
-412.384	-200.000	-0.013	0.103
-411.369	203.443	0.090	-0.138
-410.355	18.686	-0.185	0.147
-409.340	-170.759	0.077	0.003
-408.325	467.419	0.050	0.111
-407.311	-200.000	-0.007	0.086
-406.296	-151.535	-0.248	0.018
-405.282	22.736	-0.097	0.079
-404.267	-200.000	-0.031	-0.424
-403.252	114.945	-0.234	0.283
-402.238	11.455	0.022	-0.017
-401.223	-200.000	-0.014	0.164
-400.209	-89.645	0.281	-0.082
-399.194	-200.000	0.047	-0.336
-398.179	17.679	-0.147	-0.116
-397.165	49.657	0.268	0.251
-396.150	327.971	0.108	-0.205
-395.136	72.879	-0.182	0.189
-394.121	2.053	0.077	-0.056
-393.106	48.514	-0.144	-0.134
-392.092	86.270	-0.191	-0.209
-391.077	-200.000	0.022	-0.145
-390.063	-200.000	-0.004	-0.151
-389.048	-66.908	-0.253	0.099
-388.033	685.181	-0.061	0.157
-387.019	-200.000	-0.019	0.126
-386.004	-200.000	0.003	0.380
-384.990	-16.880	0.252	-0.158
-383.975	108.971	0.218	-0.260
-382.960	-165.972	-0.444	-0.019
-381.946	-200.000	-0.012	0.125
-380.931	-18.266	0.122	-0.076
-379.917	121.958	0.242	-0.300
-378.902	-41.025	0.148	0.076
-377.888	-110.029	0.241	0.050
-376.873	-200.000	-0.008	0.415
-375.858	-148.254	-0.297	-0.024
-374.844	-45.555	-0.279	0.137
-373.829	525.212	-0.084	-0.195
-372.815	800.000	0.077	-0.220
-371.800	123.626	0.168	-0.210
-370.785	800.000	0.067	0.260
-369.771	-200.000	0.025	0.320
-368.756	-106.640	0.319	0.070
-367.742	800.000	-0.022	0.064
-366.727	330.220	-0.081	0.156
-365.712	59.226	-0.182	0.178
-364.698	-47.956	0.038	0.018
-363.683	557.972	-0.087	0.208
-362.669	135.190	0.088	0.113
-361.654	-134.913	0.215	0.026
-360.639	-17.698	0.397	0.247
-359.625	525.679	-0.033	0.077
-358.610	-200.000	-0.017	0.291
-357.596	-33.374	-0.067	-0.037
-356.581	-200.000	-0.016	-0.107
-355.566	46.948	-0.168	0.155
-354.552	-168.154	0.138	0.005
-353.537	800.000	0.058	0.168
-352.523	337.944	0.102	-0.196
-351.508	92.262	0.147	-0.165
-350.493	-104.862	-0.191	-0.044
-349.479	-95.199	-0.028	-0.007
-348.464	-27.433	-0.374	0.216
-347.450	51.843	-0.067	0.063
-346.435	-0.343	-0.006	-0.004
-345.420	-200.000	0.005	-0.193
-344.406	-109.269	-0.049	-0.010
-343.391	-200.000	0.018	-0.328
-342.377	-63.902	-0.181	0.074
-341.362	246.082	0.104	-0.173
-340.348	379.550	0.056	0.115
-339.333	82.963	0.199	0.215
-338.318	-21.869	-0.297	0.179
-337.304	354.320	0.178	-0.351
-336.289	-17.415	0.059	-0.037
-335.275	-49.080	0.342	-0.162
-334.260	48.215	0.057	-0.053
-333.245	86.149	0.061	0.067
-332.231	-200.000	0.012	-0.350
-331.216	-200.000	0.047	-0.277
-330.202	-162.426	0.215	-0.011
-329.187	518.821	-0.023	0.052
-328.172	-200.000	0.018	-0.159
-327.158	-200.000	0.021	0.329
-326.143	-102.749	0.180	-0.043
-325.129	-41.699	0.125	-0.064
-324.114	-11.247	-0.188	-0.123
-323.099	24.548	-0.325	-0.267
-322.085	800.000	0.083	0.250
-321.070	-96.247	0.084	-0.022
-320.056	22.124	0.084	-0.068
-319.041	-63.783	-0.252	-0.102
-318.026	471.053	-0.123	0.274
-317.012	85.262	0.168	-0.183
-315.997	-200.000	0.001	0.466
-314.983	800.000	-0.030	0.095
-313.968	-195.759	-0.254	-0.002
-312.953	-4.104	-0.303	0.208
-311.939	206.350	0.108	0.167
-310.924	19.512	0.086	0.069
-309.910	719.066	-0.102	-0.269
-308.895	-60.736	-0.224	-0.094
-307.880	322.195	0.065	0.123
-306.866	-200.000	0.008	-0.100
-305.851	546.469	0.119	0.283
-304.837	-58.137	-0.247	-0.107
-303.822	363.392	0.069	-0.137
-302.807	-115.589	0.227	0.042
-301.793	-52.196	-0.321	0.147
-300.778	-73.060	-0.179	-0.065
-299.764	248.489	-0.153	-0.257
-298.749	-87.187	0.432	-0.130
-297.735	785.682	0.056	-0.152
-296.720	154.782	-0.104	-0.142
-295.705	-200.000	-0.011	-0.068
-294.691	-200.000	0.029	0.401
-293.676	-198.747	-0.275	-0.002
-292.662	-200.000	0.002	0.052
-291.647	-100.377	0.371	0.091
-290.632	-200.000	-0.018	0.127
-289.618	36.233	-0.169	0.147
-288.603	394.362	-0.179	-0.370
-287.589	-119.421	0.224	-0.039
-286.574	800.000	0.062	0.190
-285.559	-89.238	0.096	-0.028
-284.545	800.000	-0.051	0.192
-283.530	-195.254	-0.144	-0.001
-282.516	-152.743	-0.328	-0.023
-281.501	265.027	-0.105	0.181
-280.486	30.644	0.072	-0.061
-279.472	-200.000	0.033	-0.288
-278.457	-91.089	0.375	-0.106
-277.443	-200.000	-0.007	0.037
-276.428	-200.000	0.034	0.218
-275.413	800.000	-0.073	-0.254
-274.399	-97.548	-0.311	0.080
-273.384	103.968	-0.095	-0.111
-272.370	756.124	0.120	0.320
-271.355	-9.830	-0.101	-0.067
-270.340	18.096	0.175	0.138
-269.326	52.611	0.048	0.046
-268.311	-200.000	0.009	0.050
-267.297	-40.153	0.124	-0.064
-266.282	12.316	0.091	-0.070
-265.267	-200.000	-0.022	0.285
-264.253	800.000	0.061	-0.176
-263.238	-16.064	0.159	-0.100
-262.224	800.000	-0.056	-0.195
-261.209	-117.353	0.484	-0.087
-260.195	162.502	-0.141	0.195
-259.180	800.000	0.104	-0.405
-258.165	80.314	0.082	-0.088
-257.151	175.612	0.153	0.220
-256.136	62.683	-0.106	0.104
-255.122	-53.035	-0.172	-0.078
-254.107	193.034	-0.168	0.251
-253.092	-200.000	0.027	0.165
-252.078	-156.271	-0.170	0.011
-251.063	-99.257	-0.237	-0.059
-250.049	-90.724	0.094	-0.027
-249.034	800.000	-0.126	-0.472
-248.019	443.109	0.086	-0.186
-247.005	-56.285	0.193	0.085
-245.990	290.961	-0.130	0.233
-244.976	46.318	-0.047	0.043
-243.961	-200.000	0.018	-0.089
-242.946	-158.597	0.316	-0.018
-241.932	-200.000	0.013	0.151
-240.917	800.000	0.089	0.296
-239.903	-113.576	0.078	0.015
-238.888	-200.000	0.016	-0.083
-237.873	-70.997	-0.126	0.047
-236.859	-32.424	-0.209	0.115
-235.844	-48.580	0.058	0.028
-234.830	455.759	0.025	-0.056
-233.815	-55.234	-0.152	0.068
-232.800	291.516	-0.193	-0.347
-231.786	800.000	0.085	-0.239
-230.771	115.027	0.119	-0.143
-229.757	56.397	0.083	-0.080
-228.742	800.000	-0.031	-0.122
-227.727	800.000	-0.106	0.391
-226.713	280.453	0.191	0.337
-225.698	583.152	0.179	-0.434
-224.684	493.016	-0.094	-0.214
-223.669	479.281	0.066	0.147
-222.655	-161.872	-0.239	0.012
-221.640	-13.579	-0.276	0.176
-220.625	-2.618	-0.214	0.148
-219.611	-132.269	-0.057	0.007
-218.596	62.596	-0.037	-0.036
-217.582	-0.406	0.149	-0.105
-216.567	324.069	0.096	0.181
-215.552	535.543	0.015	-0.034
-214.538	-80.161	-0.246	-0.081
-213.523	-48.646	-0.211	0.100
-212.509	368.211	0.073	-0.146
-211.494	-118.461	0.159	0.028
-210.479	0.515	0.227	-0.160
-209.465	-200.000	0.038	0.172
-208.450	-120.342	0.091	-0.015
-207.436	-131.454	0.074	-0.010
-206.421	89.516	0.153	-0.169
-205.406	-161.834	-0.075	0.004
-204.392	-50.016	0.160	0.075
-203.377	-88.423	-0.364	0.107
-202.363	-154.203	0.310	-0.021
-201.348	798.436	-0.058	0.157
-200.333	-200.000	0.037	0.162
-199.319	-48.796	-0.086	0.041
-198.304	-8.661	0.148	0.098
-197.290	86.307	-0.145	0.157
-196.275	51.248	-0.202	-0.189
-195.260	103.730	0.160	0.185
-194.246	-141.421	0.289	0.029
-193.231	-43.631	0.324	0.161
-192.217	-97.237	0.120	-0.031
-191.202	-200.000	0.032	-0.188
-190.187	-111.934	0.116	0.023
-189.173	-200.000	-0.024	0.134
-188.158	800.000	0.023	-0.075
-187.144	87.014	0.097	-0.106
-186.129	82.730	0.213	0.228
-185.114	-200.000	-0.001	0.452
-184.100	-200.000	-0.035	0.166
-183.085	800.000	0.001	-0.002
-182.071	-200.000	0.045	0.441
-181.056	275.640	0.139	0.243
-180.042	115.028	0.166	0.200
-179.027	-67.726	0.236	0.091
-178.012	-120.928	-0.134	-0.022
-176.998	523.351	0.143	-0.330
-175.983	36.583	0.310	-0.270
-174.969	800.000	0.117	0.322
-173.954	-99.538	0.308	-0.076
-172.939	-113.680	-0.012	-0.002
-171.925	800.000	-0.060	-0.192
-170.910	-110.511	-0.164	0.033
-169.896	104.023	0.154	-0.178
-168.881	113.131	0.184	0.220
-167.866	-27.736	-0.206	-0.118
-166.852	244.586	0.048	0.079
-165.837	154.307	0.051	0.069
-164.823	18.983	0.208	-0.164
-163.808	231.831	0.060	0.097
-162.793	-92.450	0.204	0.056
-161.779	-155.365	0.204	0.013
-160.764	-90.529	-0.337	0.096
-159.750	300.364	0.295	0.536
-158.735	397.423	0.112	0.231
-157.720	-29.684	0.160	-0.090
-156.706	710.839	-0.155	-0.404
-155.691	-137.367	0.101	0.011
-154.677	-123.764	-0.269	-0.042
-153.662	800.000	0.162	-0.478
-152.647	-200.000	0.030	0.349
-151.633	-50.478	0.169	-0.079
-150.618	-74.734	0.293	-0.104
-149.604	4.866	0.356	0.258
-148.589	-169.894	-0.093	0.003
-147.574	-57.062	-0.177	0.077
-146.560	-48.765	0.077	-0.036
-145.545	-27.252	0.197	0.113
-144.531	-200.000	-0.030	0.267
-143.516	-122.638	-0.094	0.015
-142.502	800.000	-0.064	-0.187
-141.487	-200.000	-0.037	-0.214
-140.472	-100.364	-0.158	-0.039
-139.458	102.340	-0.299	-0.344
-138.443	301.220	-0.196	0.356
-137.429	53.658	0.278	0.262
-136.414	-68.328	-0.330	0.126
-135.399	-48.740	0.076	0.036
-134.385	-119.582	0.088	0.015
-133.370	287.606	0.007	-0.012
-132.356	214.220	-0.077	0.120
-131.341	-41.973	-0.236	0.119
-130.326	5.903	-0.289	-0.211
-129.312	-69.655	-0.069	-0.026
-128.297	-200.000	-0.011	0.290
-127.283	-71.882	0.378	-0.139
-126.268	-200.000	0.029	-0.157
-125.253	-4.912	-0.138	-0.094
-124.239	-200.000	-0.003	0.141
-123.224	-153.334	-0.135	-0.009
-122.210	254.945	0.114	-0.192
-121.195	800.000	-0.078	0.239
