DTS Sentinel unit serial number:	SN413079Multiplexer serial number:	ORYXHardware model number:	OX4-SRSoftware version number:	ORYX F/W v4.00 Oryx Data Collector v3.7.2.0data status	okinstallation	princeton_trtdifferential loss correction	single-endedforward channel	channel 1reverse channel	N/Adate	2019/09/17time	03:46:35forward acquisition time	60.00reverse acquisition time	0.00gamma	496.2192k internal	0.2323k external	0.2323temperature offset calibration	0.9963default loss term (dB/km)	0.3790temperature slope calibration	1.0000multiplexer offset coefficient	1.0000multiplexer slope coefficient	1.0000fibre end	0.00T internal ref (°C)	29.94T ext. ref 1 (°C)	0.14T ext. ref 2 (°C)	24.43length (m)	temperature (°C)	Stokes	anti-Stokes-747.200	-38.555	0.284	0.151
-746.185	330.881	0.039	0.077
-745.171	-72.612	0.241	-0.090
-744.156	-145.344	-0.297	-0.027
-743.142	-71.065	0.036	0.014
-742.127	-169.643	0.161	0.006
-741.112	-174.196	-0.224	-0.007
-740.098	800.000	-0.115	0.355
-739.083	184.508	0.103	0.154
-738.069	-111.828	-0.166	0.034
-737.054	-200.000	0.035	0.363
-736.039	4.140	-0.178	0.131
-735.025	468.306	-0.102	0.232
-734.010	800.000	-0.069	0.272
-732.996	365.838	0.065	0.133
-731.981	-81.226	0.094	-0.031
-730.966	97.879	0.092	0.106
-729.952	406.289	0.190	0.406
-728.937	8.453	-0.324	0.246
-727.923	475.984	-0.024	-0.055
-726.908	-62.856	-0.195	-0.082
-725.894	-62.976	-0.289	0.121
-724.879	-200.000	0.013	0.133
-723.864	-36.302	-0.105	-0.057
-722.850	141.277	0.139	-0.186
-721.835	259.934	0.135	0.236
-720.821	-200.000	0.015	-0.082
-719.806	-165.825	-0.149	0.006
-718.791	14.610	-0.075	-0.059
-717.777	-25.607	0.077	0.046
-716.762	78.633	-0.103	-0.111
-715.748	-125.158	0.288	0.045
-714.733	-152.162	0.235	0.017
-713.718	211.166	0.096	0.153
-712.704	-125.202	0.143	-0.022
-711.689	360.407	-0.092	-0.186
-710.675	-44.822	-0.190	-0.096
-709.660	-200.000	-0.007	-0.070
-708.645	-200.000	0.028	-0.283
-707.631	-51.634	-0.059	-0.028
-706.616	-109.491	-0.361	0.077
-705.602	384.931	-0.057	-0.118
-704.587	-200.000	-0.012	0.125
-703.572	66.075	-0.110	-0.112
-702.558	-79.047	0.173	0.059
-701.543	-91.586	-0.425	0.122
-700.529	226.954	-0.166	-0.272
-699.514	800.000	0.065	-0.246
-698.499	-109.033	-0.122	0.026
-697.485	92.688	-0.120	0.137
-696.470	-200.000	0.021	-0.125
-695.456	-43.827	0.385	-0.195
-694.441	119.061	0.075	-0.093
-693.426	-43.568	-0.202	-0.103
-692.412	193.601	-0.073	0.112
-691.397	-200.000	-0.018	0.138
-690.383	32.864	-0.352	-0.307
-689.368	2.294	0.135	-0.098
-688.354	753.590	-0.113	-0.309
-687.339	-47.128	-0.109	-0.054
-686.324	-200.000	-0.022	-0.103
-685.310	197.491	0.169	0.260
-684.295	-200.000	-0.015	-0.359
-683.281	800.000	0.074	0.233
-682.266	142.287	-0.059	-0.079
-681.251	151.000	-0.172	-0.236
-680.237	135.213	-0.210	-0.275
-679.222	200.337	0.082	-0.127
-678.208	-197.853	-0.214	0.001
-677.193	800.000	0.076	-0.234
-676.178	-200.000	0.010	-0.202
-675.164	78.042	-0.161	0.173
-674.149	800.000	0.076	-0.332
-673.135	37.477	-0.143	-0.128
-672.120	-186.463	0.461	0.007
-671.105	800.000	0.083	-0.299
-670.091	163.008	-0.019	0.027
-669.076	452.967	-0.121	0.271
-668.062	76.771	0.056	-0.060
-667.047	800.000	-0.010	0.039
-666.032	-123.238	0.066	-0.011
-665.018	-59.476	-0.156	0.068
-664.003	6.759	0.224	0.168
-662.989	-109.983	0.074	-0.015
-661.974	226.069	-0.183	0.299
-660.959	-49.003	-0.148	0.071
-659.945	-54.372	-0.083	0.038
-658.930	-167.957	-0.367	-0.014
-657.916	230.708	-0.142	-0.234
-656.901	-25.992	0.102	0.061
-655.886	629.864	-0.126	-0.320
-654.872	-71.343	-0.238	-0.090
-653.857	800.000	-0.077	-0.257
-652.843	-200.000	-0.020	0.259
-651.828	-200.000	0.004	-0.116
-650.814	-27.930	-0.124	-0.072
-649.799	-9.005	-0.154	-0.104
-648.784	-168.063	-0.278	-0.011
-647.770	-16.384	0.338	-0.216
-646.755	198.439	0.068	-0.104
-645.741	-200.000	-0.001	0.315
-644.726	-200.000	-0.082	0.719
-643.711	-26.833	0.262	0.154
-642.697	-118.618	-0.172	-0.031
-641.682	-183.443	-0.172	-0.003
-640.668	-56.934	-0.125	-0.056
-639.653	-29.705	0.070	-0.040
-638.638	84.092	0.026	-0.029
-637.624	534.006	0.165	-0.392
-636.609	464.545	-0.060	-0.136
-635.595	-145.413	-0.101	0.009
-634.580	136.429	0.218	0.286
-633.565	-111.979	0.097	-0.020
-632.551	549.898	-0.063	-0.151
-631.536	-96.356	0.048	0.013
-630.522	382.221	0.046	-0.094
-629.507	-31.908	-0.132	0.075
-628.492	5.307	0.159	-0.118
-627.478	-50.760	0.253	0.120
-626.463	368.806	0.048	0.097
-625.449	-96.390	-0.091	0.024
-624.434	258.061	0.142	-0.246
-623.419	-200.000	0.035	-0.273
-622.405	-37.774	0.273	-0.146
-621.390	156.640	0.012	0.017
-620.376	-200.000	0.011	0.126
-619.361	499.595	0.097	0.224
-618.346	800.000	-0.104	0.424
-617.332	315.803	0.080	0.151
-616.317	-60.960	-0.022	-0.009
-615.303	-200.000	-0.009	-0.258
-614.288	-200.000	-0.001	0.261
-613.273	-160.649	-0.144	0.008
-612.259	-200.000	0.025	0.239
-611.244	-200.000	-0.019	-0.297
-610.230	800.000	-0.124	-0.393
-609.215	136.857	0.268	-0.352
-608.201	245.683	-0.221	0.374
-607.186	-28.621	-0.045	0.026
-606.171	-200.000	-0.037	-0.203
-605.157	-81.218	-0.234	0.078
-604.142	233.150	0.069	-0.114
-603.128	-200.000	-0.015	0.229
-602.113	197.429	-0.188	0.288
-601.098	-1.367	0.089	-0.063
-600.084	800.000	0.015	0.065
-599.069	91.018	-0.096	-0.108
-598.055	800.000	-0.108	0.302
-597.040	56.856	-0.130	0.127
-596.025	-84.757	-0.392	-0.124
-595.011	-10.316	0.143	-0.095
-593.996	554.007	-0.083	0.200
-592.982	-200.000	0.049	-0.389
-591.967	-97.277	-0.342	-0.090
-590.952	-104.087	0.094	0.022
-589.938	-26.166	-0.177	0.104
-588.923	51.437	-0.157	0.150
-587.909	-130.713	-0.224	-0.030
-586.894	369.193	-0.105	0.213
-585.879	-72.296	0.172	0.064
-584.865	269.292	0.179	-0.315
-583.850	39.844	0.304	-0.274
-582.836	214.803	-0.129	0.206
-581.821	-185.652	-0.173	0.003
-580.806	-77.272	-0.188	-0.066
-579.792	-116.657	0.141	0.026
-578.777	-22.960	-0.354	0.214
-577.763	289.768	-0.090	-0.164
-576.748	800.000	0.156	-0.484
-575.733	126.075	-0.119	0.151
-574.719	-112.469	-0.180	-0.036
-573.704	-6.366	-0.131	0.090
-572.690	-200.000	0.040	0.402
-571.675	-97.102	0.265	-0.070
-570.661	-200.000	0.039	0.265
-569.646	613.041	0.054	-0.136
-568.631	211.538	0.259	-0.409
-567.617	-200.000	-0.044	-0.397
-566.602	-2.175	0.207	0.146
-565.588	-200.000	-0.059	0.428
-564.573	249.156	-0.055	0.093
-563.558	-156.908	-0.040	0.002
-562.544	184.714	0.146	0.217
-561.529	73.534	-0.126	0.132
-560.515	-113.349	-0.333	-0.066
-559.500	-16.781	0.265	0.168
-558.485	-166.088	0.130	-0.006
-557.471	-200.000	0.003	-0.377
-556.456	5.305	-0.169	-0.125
-555.442	800.000	-0.082	-0.310
-554.427	-200.000	0.018	-0.173
-553.412	-157.355	-0.239	-0.014
-552.398	101.293	0.113	0.132
-551.383	-83.433	0.147	-0.047
-550.369	-200.000	-0.011	-0.149
-549.354	-118.562	-0.357	-0.063
-548.339	800.000	-0.065	-0.183
-547.325	-200.000	-0.010	0.192
-546.310	502.872	0.092	0.212
-545.296	-166.628	0.163	0.007
-544.281	14.525	0.319	-0.250
-543.266	13.591	0.088	-0.069
-542.252	10.014	-0.115	0.088
-541.237	800.000	0.073	0.299
-540.223	800.000	-0.091	-0.306
-539.208	-200.000	0.023	-0.114
-538.193	-200.000	0.058	-0.266
-537.179	85.544	-0.205	-0.226
-536.164	139.513	-0.070	-0.092
-535.150	-126.464	0.225	-0.033
-534.135	-200.000	0.006	-0.259
-533.121	-200.000	0.035	-0.274
-532.106	55.057	0.239	-0.232
-531.091	128.500	0.181	0.231
-530.077	142.800	-0.218	-0.290
-529.062	225.490	0.194	0.315
-528.048	-109.015	0.055	-0.012
-527.033	-146.560	0.248	0.022
-526.018	-189.862	-0.304	-0.003
-525.004	800.000	-0.075	-0.272
-523.989	215.751	0.153	-0.243
-522.975	-200.000	-0.001	-0.046
-521.960	-83.300	0.135	-0.043
-520.945	-200.000	-0.002	0.065
-519.931	-36.020	-0.109	0.059
-518.916	-136.981	-0.138	-0.016
-517.902	-130.060	0.031	0.004
-516.887	800.000	-0.053	0.177
-515.872	-85.212	-0.180	-0.056
-514.858	-51.114	-0.135	0.063
-513.843	145.222	-0.271	0.363
-512.829	-120.181	0.117	-0.020
-511.814	-190.780	0.185	-0.002
-510.799	-25.092	-0.074	0.044
-509.785	-93.084	0.073	0.020
-508.770	161.716	0.067	-0.094
-507.756	-6.261	-0.304	-0.208
-506.741	117.869	0.138	0.171
-505.726	132.124	-0.205	-0.264
-504.712	1.036	0.213	0.153
-503.697	528.936	-0.096	0.226
-502.683	526.466	0.022	-0.051
-501.668	44.425	-0.107	-0.098
-500.653	20.829	-0.192	0.155
-499.639	-112.128	-0.316	0.064
-498.624	282.768	0.101	-0.182
-497.610	108.360	-0.119	0.142
-496.595	685.992	-0.097	0.253
-495.581	230.805	-0.173	0.283
-494.566	800.000	0.084	-0.242
-493.551	70.990	-0.167	0.173
-492.537	-200.000	0.057	0.389
-491.522	27.790	-0.168	-0.142
-490.508	-96.452	-0.207	0.055
-489.493	-43.572	0.407	0.205
-488.478	-31.061	0.315	0.178
-487.464	22.164	-0.113	-0.092
-486.449	39.956	0.091	0.081
-485.435	-109.035	0.332	0.071
-484.420	-141.960	-0.161	-0.016
-483.405	-15.174	0.255	0.163
-482.391	320.649	0.046	0.087
-481.376	2.360	-0.171	-0.124
-480.362	-115.403	-0.273	-0.051
-479.347	71.901	-0.050	-0.052
-478.332	-81.904	-0.363	-0.119
-477.318	-200.000	0.027	0.127
-476.303	800.000	0.105	0.333
-475.289	-121.083	0.116	0.019
-474.274	-111.439	0.263	-0.054
-473.259	185.096	0.187	0.277
-472.245	106.859	-0.164	-0.195
-471.230	-200.000	-0.009	-0.087
-470.216	2.093	-0.083	-0.060
-469.201	-81.121	0.313	-0.104
-468.186	800.000	-0.097	-0.311
-467.172	-17.365	-0.224	-0.141
-466.157	-200.000	0.080	0.401
-465.143	-164.633	0.075	0.003
-464.128	46.731	-0.347	0.322
-463.113	-171.785	-0.271	0.009
-462.099	-59.462	0.159	0.068
-461.084	36.948	0.341	0.301
-460.070	-102.535	-0.177	0.042
-459.055	-200.000	-0.004	0.217
-458.040	-200.000	0.013	0.136
-457.026	-26.146	-0.117	-0.068
-456.011	-8.297	0.194	-0.130
-454.997	-200.000	0.069	-0.405
-453.982	38.980	-0.061	0.055
-452.968	-72.917	-0.521	0.191
-451.953	302.121	-0.159	0.294
-450.938	105.736	-0.066	-0.078
-449.924	-52.988	0.270	0.124
-448.909	-37.280	-0.063	-0.034
-447.895	20.361	-0.099	-0.080
-446.880	-200.000	-0.009	-0.058
-445.865	101.147	0.095	0.111
-444.851	-80.420	0.211	-0.070
-443.836	-43.448	-0.114	-0.057
-442.822	-9.515	0.248	-0.165
-441.807	-152.563	-0.249	0.018
-440.792	-106.843	-0.249	0.055
-439.778	-200.000	0.033	-0.307
-438.763	800.000	-0.081	-0.236
-437.749	-58.748	0.252	-0.109
-436.734	-107.061	-0.198	0.044
-435.719	-200.000	-0.028	-0.124
-434.705	184.949	0.169	-0.250
-433.690	239.495	0.278	0.461
-432.676	0.471	0.079	0.056
-431.661	-187.513	0.305	-0.004
-430.646	800.000	-0.031	0.094
-429.632	205.597	0.034	-0.052
-428.617	-184.377	-0.348	-0.006
-427.603	-200.000	0.016	-0.207
-426.588	154.151	0.233	0.319
-425.573	-187.536	-0.071	-0.001
-424.559	276.326	0.070	-0.123
-423.544	37.319	-0.098	0.086
-422.530	108.422	-0.228	0.272
-421.515	-35.894	-0.007	-0.004
-420.500	-177.189	-0.232	0.006
-419.486	25.104	-0.238	-0.197
-418.471	112.882	0.174	-0.210
-417.457	222.149	-0.072	0.115
-416.442	-114.244	-0.077	-0.015
-415.428	-197.963	0.417	0.002
-414.413	393.993	-0.045	0.093
-413.398	89.005	-0.110	-0.122
-412.384	53.758	-0.206	0.197
-411.369	-200.000	-0.003	0.075
-410.355	-200.000	-0.005	-0.340
-409.340	-170.137	-0.301	0.011
-408.325	800.000	-0.111	-0.363
-407.311	302.734	0.254	-0.468
-406.296	-44.000	0.414	-0.207
-405.282	529.488	-0.050	0.118
-404.267	57.657	-0.084	-0.082
-403.252	-121.337	0.268	-0.045
-402.238	-108.917	-0.300	-0.064
-401.223	-190.382	-0.250	-0.003
-400.209	21.529	0.349	0.283
-399.194	185.808	-0.160	0.237
-398.179	-36.291	0.138	-0.074
-397.165	-19.313	-0.211	0.131
-396.150	-173.266	0.170	0.005
-395.136	-58.555	0.186	0.080
-394.121	-49.830	-0.322	0.152
-393.106	3.965	-0.225	-0.164
-392.092	800.000	0.030	-0.113
-391.077	-84.988	0.104	-0.032
-390.063	-35.915	0.218	-0.117
-389.048	-99.338	-0.230	0.058
-388.033	-146.398	-0.291	0.025
-387.019	138.802	-0.226	0.296
-386.004	-131.096	-0.167	-0.022
-384.990	800.000	0.095	-0.306
-383.975	234.075	-0.136	0.223
-382.960	294.215	0.214	0.389
-381.946	120.573	0.193	-0.239
-380.931	-71.198	0.375	-0.140
-379.917	-55.514	-0.297	0.133
-378.902	-10.988	0.236	0.155
-377.888	55.216	-0.284	-0.274
-376.873	215.996	-0.069	0.109
-375.858	5.431	-0.096	0.070
-374.844	-108.849	-0.108	-0.023
-373.829	51.271	0.248	-0.235
-372.815	80.539	0.186	0.200
-371.800	-200.000	0.049	0.242
-370.785	69.646	-0.257	-0.263
-369.771	-127.216	-0.247	-0.036
-368.756	131.036	0.299	-0.382
-367.742	12.513	-0.222	0.170
-366.727	800.000	0.026	-0.107
-365.712	-200.000	0.087	0.464
-364.698	-200.000	-0.005	0.039
-363.683	330.732	-0.003	0.006
-362.669	-81.064	0.097	0.032
-361.654	-20.090	-0.135	-0.083
-360.639	442.957	0.173	-0.378
-359.625	-187.996	-0.188	-0.002
-358.610	112.231	-0.224	0.270
-357.596	-200.000	0.019	-0.106
-356.581	-25.042	0.099	0.058
-355.566	-107.460	0.187	-0.041
-354.552	-82.021	-0.166	0.054
-353.537	136.402	0.152	0.197
-352.523	28.967	-0.086	0.072
-351.508	269.171	0.230	0.402
-350.493	-126.943	-0.234	-0.034
-349.479	-64.125	-0.171	0.069
-348.464	16.774	-0.205	0.161
-347.450	260.965	-0.144	0.247
-346.435	-155.614	0.268	-0.017
-345.420	-200.000	0.023	0.135
-344.406	732.240	-0.205	-0.544
-343.391	-150.057	0.189	-0.015
-342.377	85.110	0.123	0.134
-341.362	800.000	-0.072	-0.260
-340.348	21.740	-0.239	0.194
-339.333	-200.000	0.007	-0.132
-338.318	800.000	0.035	0.110
-337.304	67.244	-0.220	-0.223
-336.289	-50.733	0.093	-0.044
-335.275	-45.515	-0.277	-0.136
-334.260	-200.000	-0.011	0.211
-333.245	-102.595	0.230	0.055
-332.231	-200.000	0.015	0.524
-331.216	8.511	-0.165	0.123
-330.202	-68.860	0.489	0.188
-329.187	81.223	-0.107	0.115
-328.172	-103.233	-0.241	-0.056
-327.158	-200.000	-0.002	0.068
-326.143	-200.000	-0.012	0.074
-325.129	-200.000	-0.016	0.207
-324.114	205.464	0.200	-0.309
-323.099	-112.718	0.178	-0.035
-322.085	-92.408	-0.113	-0.032
-321.070	484.467	0.109	0.247
-320.056	589.635	0.048	-0.118
-319.041	-69.995	0.094	0.036
-318.026	141.712	-0.167	0.220
-317.012	2.732	-0.220	0.158
-315.997	-95.379	0.216	0.058
-314.983	143.506	-0.125	0.166
-313.968	94.243	-0.173	0.195
-312.953	227.759	-0.230	0.372
-311.939	800.000	0.084	-0.325
-310.924	800.000	-0.075	-0.261
-309.910	800.000	-0.035	-0.123
-308.895	313.625	0.195	0.364
-307.880	-200.000	0.048	-0.308
-306.866	534.457	-0.065	-0.152
-305.851	-163.975	-0.393	-0.018
-304.837	-200.000	0.009	-0.288
-303.822	55.675	0.170	-0.163
-302.807	-63.965	0.267	-0.108
-301.793	3.317	-0.054	0.039
-300.778	-130.064	0.082	0.011
-299.764	-200.000	0.261	0.000
-298.749	-169.557	-0.126	0.005
-297.735	-200.000	0.015	-0.101
-296.720	175.182	-0.036	0.051
-295.705	478.717	-0.127	0.286
-294.691	136.512	-0.062	0.080
-293.676	-66.934	0.291	0.114
-292.662	41.063	0.098	0.088
-291.647	-142.069	0.177	-0.017
-290.632	654.223	-0.115	0.293
-289.618	-137.474	-0.184	-0.021
-288.603	-81.791	-0.272	-0.088
-287.589	-62.766	0.109	0.045
-286.574	-200.000	0.008	0.138
-285.559	62.228	-0.124	0.123
-284.545	583.108	0.086	-0.210
-283.530	-44.158	-0.284	-0.141
-282.516	-64.195	0.260	0.105
-281.501	-97.247	-0.144	-0.037
-280.486	-65.795	0.066	0.026
-279.472	564.478	0.085	-0.205
-278.457	-135.459	0.197	0.023
-277.443	210.026	0.279	0.434
-276.428	800.000	0.056	-0.155
-275.413	-15.344	0.230	0.146
-274.399	-200.000	0.011	0.294
-273.384	800.000	0.079	-0.325
-272.370	47.328	-0.073	-0.067
-271.355	-140.765	-0.153	-0.016
-270.340	259.368	-0.205	0.351
-269.326	-77.523	-0.364	-0.125
-268.311	800.000	-0.036	0.122
-267.297	395.899	0.195	0.404
-266.282	174.099	0.035	0.050
-265.267	-35.602	0.327	-0.176
-264.253	-140.640	0.378	-0.039
-263.238	-52.396	0.057	0.026
-262.224	-50.509	-0.342	-0.160
-261.209	800.000	-0.049	-0.190
-260.195	338.429	0.075	0.144
-259.180	78.356	0.171	-0.181
-258.165	-33.868	-0.312	0.170
-257.151	126.746	0.072	-0.091
-256.136	-200.000	-0.019	-0.206
-255.122	-200.000	0.024	-0.227
-254.107	-103.329	-0.225	0.053
-253.092	-106.640	-0.202	-0.045
-252.078	-15.427	0.288	-0.182
-251.063	-56.509	-0.200	-0.088
-250.049	609.696	-0.036	0.089
-249.034	-4.039	0.151	-0.104
-248.019	582.105	0.017	-0.040
-247.005	149.848	-0.045	-0.060
-245.990	37.936	0.321	0.283
-244.976	89.411	-0.031	0.034
-243.961	13.357	-0.051	0.039
-242.946	179.508	0.115	-0.166
-241.932	-136.462	-0.093	0.011
-240.917	365.590	-0.124	-0.248
-239.903	800.000	-0.016	-0.050
-238.888	231.971	0.128	-0.208
-237.873	-68.249	0.044	-0.017
-236.859	-200.000	-0.040	0.327
-235.844	302.049	-0.064	-0.118
-234.830	-200.000	0.010	0.152
-233.815	109.573	0.194	-0.231
-232.800	-56.910	0.248	0.108
-231.786	17.112	-0.213	0.167
-230.771	-168.163	0.357	-0.014
-229.757	47.843	0.132	-0.122
-228.742	-96.715	0.221	-0.058
-227.727	-67.185	0.077	-0.030
-226.713	-60.228	0.254	-0.107
-225.698	-129.083	0.226	0.031
-224.684	227.193	-0.218	-0.351
-223.669	415.910	-0.218	0.460
-222.655	295.043	0.126	-0.228
-221.640	-3.308	0.223	-0.154
-220.625	-54.599	0.262	0.117
-219.611	-200.000	0.042	0.207
-218.596	-200.000	0.003	0.075
-217.582	-81.569	0.097	0.032
-216.567	74.728	0.172	0.179
-215.552	277.783	-0.179	0.315
-214.538	-31.080	-0.088	-0.049
-213.523	158.039	-0.185	0.253
-212.509	258.716	-0.137	0.234
-211.494	130.686	0.176	-0.224
-210.479	231.415	-0.016	-0.025
-209.465	-200.000	0.013	0.127
-208.450	46.289	-0.210	-0.193
-207.436	800.000	0.051	-0.198
-206.421	121.285	0.177	-0.217
-205.406	-28.938	0.191	0.109
-204.392	800.000	0.058	-0.191
-203.377	-167.430	0.527	0.021
-202.363	92.528	-0.150	-0.167
-201.348	-67.353	-0.195	-0.076
-200.333	59.920	0.074	-0.072
-199.319	177.669	0.141	-0.204
-198.304	46.655	0.221	0.203
-197.290	800.000	0.004	-0.014
-196.275	182.117	0.079	0.115
-195.260	-42.629	0.257	0.129
-194.246	650.898	-0.047	0.118
-193.231	294.964	0.113	0.204
-192.217	339.176	0.053	0.101
-191.202	800.000	0.071	-0.288
-190.187	-107.154	-0.266	-0.058
-189.173	-103.252	0.144	0.034
-188.158	-200.000	0.050	-0.344
-187.144	373.772	0.201	-0.405
-186.129	-49.919	0.037	-0.017
-185.114	800.000	-0.019	-0.065
-184.100	-145.177	-0.240	0.021
-183.085	32.058	0.192	0.163
-182.071	96.958	-0.206	0.234
-181.056	-200.000	-0.019	0.161
-180.042	321.797	-0.064	0.120
-179.027	-106.466	0.159	-0.035
-178.012	133.942	0.087	-0.111
-176.998	18.000	0.138	-0.108
-175.983	-159.266	-0.264	0.015
-174.969	-200.000	-0.048	0.220
-173.954	-200.000	0.013	-0.240
-172.939	-200.000	-0.022	-0.147
-171.925	61.556	-0.306	-0.300
-170.910	-200.000	-0.014	-0.127
-169.896	-152.213	-0.064	0.005
-168.881	-117.975	-0.139	-0.025
-167.866	119.164	0.154	-0.188
-166.852	709.064	0.108	0.281
-165.837	-200.000	0.013	0.075
-164.823	800.000	0.104	-0.430
-163.808	55.002	-0.326	-0.311
-162.793	-5.628	0.245	0.166
-161.779	168.108	0.198	0.279
-160.764	800.000	-0.138	-0.395
-159.750	-200.000	0.000	0.160
-158.735	-137.400	0.162	-0.018
-157.720	783.518	0.054	-0.147
-156.706	416.148	-0.078	-0.165
-155.691	525.927	0.123	-0.287
-154.677	-69.143	0.178	0.068
-153.662	-132.271	-0.139	0.018
-152.647	17.785	-0.269	0.211
-151.633	27.236	0.231	-0.192
-150.618	303.237	-0.034	0.061
-149.604	-93.293	-0.279	-0.077
-148.589	18.728	-0.183	-0.145
-147.574	-131.111	0.138	0.018
-146.560	-71.925	0.386	-0.142
-145.545	-200.000	-0.009	0.208
-144.531	11.272	-0.096	-0.073
-143.516	-133.855	-0.147	0.018
-142.502	800.000	-0.019	-0.070
-141.487	-133.720	-0.215	-0.026
-140.472	218.312	-0.233	-0.368
-139.458	-200.000	0.017	0.139
-138.443	-67.781	0.178	-0.069
-137.429	86.178	-0.056	0.061
-136.414	22.418	0.060	0.049
-135.399	254.195	0.218	0.368
-134.385	30.899	0.184	-0.155
-133.370	273.030	-0.112	-0.194
-132.356	448.063	0.104	-0.225
-131.341	800.000	-0.023	0.096
-130.326	112.707	0.177	-0.211
-129.312	-200.000	-0.051	0.366
-128.297	68.692	0.221	0.223
-127.283	-11.809	-0.030	0.020
-126.268	-130.588	0.399	-0.053
-125.253	293.301	0.028	0.051
-124.239	-129.737	-0.278	-0.038
-123.224	-118.210	-0.199	0.035
-122.210	-200.000	0.041	0.403
