DTS Sentinel unit serial number:	SN413079Multiplexer serial number:	ORYXHardware model number:	OX4-SRSoftware version number:	ORYX F/W v4.00 Oryx Data Collector v3.7.2.0data status	okinstallation	princeton_trtdifferential loss correction	single-endedforward channel	channel 1reverse channel	N/Adate	2019/09/12time	07:08:11forward acquisition time	60.00reverse acquisition time	0.00gamma	496.2192k internal	0.2320k external	0.2320temperature offset calibration	1.0045default loss term (dB/km)	0.3790temperature slope calibration	1.0000multiplexer offset coefficient	1.0000multiplexer slope coefficient	1.0000fibre end	0.00T internal ref (°C)	32.17T ext. ref 1 (°C)	1.59T ext. ref 2 (°C)	27.67length (m)	temperature (°C)	Stokes	anti-Stokes-747.200	116.275	0.115	0.142
-746.185	425.759	-0.061	0.133
-745.171	481.402	-0.041	-0.094
-744.156	-24.036	0.292	0.177
-743.142	-144.622	0.062	0.006
-742.127	-200.000	-0.031	0.192
-741.112	16.259	-0.190	-0.151
-740.098	-21.367	-0.061	-0.038
-739.083	377.963	0.074	-0.153
-738.069	-114.105	0.215	-0.042
-737.054	-89.900	-0.128	0.038
-736.039	-105.695	-0.305	-0.070
-735.025	154.424	0.036	0.049
-734.010	-200.000	0.069	-0.372
-732.996	-200.000	-0.013	0.107
-731.981	-62.242	-0.257	-0.108
-730.966	-58.005	0.247	0.109
-729.952	-82.175	-0.220	-0.073
-728.937	29.986	-0.005	0.004
-727.923	-55.896	-0.483	-0.218
-726.908	52.695	0.118	0.114
-725.894	52.093	0.265	-0.255
-724.879	-83.602	0.082	0.027
-723.864	-160.373	-0.134	0.007
-722.850	-82.915	-0.156	-0.051
-721.835	15.443	-0.056	0.044
-720.821	111.729	0.165	-0.202
-719.806	-155.378	0.204	-0.013
-718.791	-11.660	-0.548	-0.364
-717.777	648.810	0.089	-0.231
-716.762	794.743	-0.042	-0.117
-715.748	-183.197	0.433	-0.008
-714.733	-9.251	-0.418	-0.282
-713.718	-28.876	-0.207	-0.120
-712.704	-20.975	-0.348	-0.215
-711.689	-0.467	-0.042	-0.030
-710.675	-48.426	0.289	-0.141
-709.660	-112.052	-0.175	-0.035
-708.645	-200.000	0.028	-0.340
-707.631	104.745	0.280	-0.334
-706.616	273.298	0.170	-0.303
-705.602	11.864	0.298	-0.231
-704.587	73.626	-0.155	-0.164
-703.572	476.848	0.148	-0.338
-702.558	-51.974	0.237	-0.111
-701.543	114.250	0.047	0.058
-700.529	5.819	-0.314	-0.234
-699.514	800.000	0.019	-0.072
-698.499	-200.000	0.002	-0.436
-697.485	-5.105	0.268	0.186
-696.470	-200.000	0.049	-0.233
-695.456	265.601	0.059	-0.103
-694.441	123.118	-0.113	0.143
-693.426	-113.021	0.392	0.078
-692.412	800.000	0.066	0.276
-691.397	-49.749	-0.238	-0.114
-690.383	-49.145	-0.265	-0.128
-689.368	-144.093	0.375	-0.035
-688.354	-101.808	-0.518	0.127
-687.339	-33.866	-0.034	-0.019
-686.324	800.000	0.036	-0.113
-685.310	-27.975	-0.227	-0.133
-684.295	-42.464	-0.078	0.040
-683.281	-200.000	0.033	0.188
-682.266	800.000	-0.034	0.114
-681.251	-17.742	0.212	-0.134
-680.237	-116.505	-0.147	-0.027
-679.222	-87.695	0.292	0.089
-678.208	-200.000	-0.002	0.024
-677.193	-1.623	0.132	-0.094
-676.178	1.237	-0.382	-0.277
-675.164	-140.695	0.284	0.030
-674.149	29.260	0.139	-0.119
-673.135	-200.000	0.017	-0.197
-672.120	21.354	0.221	0.181
-671.105	-168.173	0.255	0.010
-670.091	800.000	-0.097	0.282
-669.076	33.229	0.280	-0.245
-668.062	667.441	-0.110	-0.286
-667.047	-78.041	0.244	-0.085
-666.032	124.606	-0.118	-0.150
-665.018	-200.000	0.044	-0.368
-664.003	-200.000	-0.024	0.231
-662.989	-134.783	0.478	-0.059
-661.974	-172.251	-0.223	-0.007
-660.959	-200.000	0.069	-0.372
-659.945	184.409	0.097	-0.144
-658.930	276.890	0.098	-0.175
-657.916	-200.000	-0.004	-0.062
-656.901	209.652	0.087	-0.137
-655.886	-126.116	-0.247	0.037
-654.872	312.890	-0.064	0.120
-653.857	-200.000	-0.067	0.331
-652.843	202.952	0.143	0.223
-651.828	-7.640	-0.126	0.086
-650.814	22.613	-0.276	-0.228
-649.799	-51.043	-0.266	0.126
-648.784	244.415	0.218	0.369
-647.770	-200.000	0.020	0.181
-646.755	800.000	-0.033	-0.143
-645.741	-185.535	-0.113	0.002
-644.726	265.935	-0.177	-0.311
-643.711	-73.753	-0.416	-0.152
-642.697	-3.123	-0.342	-0.240
-641.682	-30.544	0.238	0.136
-640.668	-133.363	0.229	0.029
-639.653	-73.948	-0.084	0.031
-638.638	-58.152	0.341	0.150
-637.624	-82.337	-0.196	-0.064
-636.609	-184.343	0.251	-0.004
-635.595	-200.000	0.004	-0.385
-634.580	50.584	0.073	-0.070
-633.565	-7.960	-0.338	-0.229
-632.551	-57.080	-0.332	-0.147
-631.536	4.662	0.085	0.063
-630.522	-165.446	0.094	-0.004
-629.507	-109.481	-0.168	-0.036
-628.492	-100.358	-0.042	-0.010
-627.478	89.453	0.318	-0.357
-626.463	51.054	-0.206	-0.196
-625.449	-77.809	0.041	0.014
-624.434	-200.000	0.006	-0.209
-623.419	198.970	0.219	0.337
-622.405	-200.000	0.001	-0.264
-621.390	-66.059	0.208	-0.084
-620.376	84.573	0.138	0.152
-619.361	33.456	0.263	0.230
-618.346	-183.356	-0.202	-0.004
-617.332	-200.000	0.032	-0.289
-616.317	-130.451	0.344	0.047
-615.303	72.776	0.167	-0.175
-614.288	-91.759	0.198	0.057
-613.273	48.534	-0.268	-0.253
-612.259	-200.000	0.011	0.133
-611.244	-40.530	-0.070	-0.036
-610.230	-80.854	-0.256	0.086
-609.215	-200.000	-0.003	-0.106
-608.201	-74.097	-0.376	0.137
-607.186	357.145	0.145	-0.292
-606.171	800.000	0.038	0.130
-605.157	-107.798	0.372	0.082
-604.142	-15.315	-0.145	-0.093
-603.128	-200.000	-0.017	-0.189
-602.113	-54.126	0.125	0.057
-601.098	-200.000	0.060	0.314
-600.084	-6.271	0.272	0.187
-599.069	278.148	-0.044	0.080
-598.055	187.775	0.113	0.170
-597.040	-80.235	-0.397	0.134
-596.025	-31.674	0.374	-0.211
-595.011	-197.628	0.183	0.001
-593.996	-200.000	0.003	-0.399
-592.982	800.000	-0.087	0.291
-591.967	-200.000	-0.038	0.281
-590.952	-200.000	0.000	0.262
-589.938	84.764	-0.274	0.302
-588.923	800.000	0.035	0.102
-587.909	-162.969	0.180	0.009
-586.894	751.986	0.022	-0.058
-585.879	-200.000	0.000	0.030
-584.865	-27.190	0.130	0.076
-583.850	-61.040	-0.505	0.214
-582.836	-7.348	0.029	-0.020
-581.821	127.575	0.056	0.072
-580.806	-32.527	0.129	-0.072
-579.792	-80.408	0.149	0.050
-578.777	-101.028	-0.253	0.062
-577.763	800.000	-0.056	0.222
-576.748	109.145	0.191	-0.230
-575.733	19.946	0.164	-0.133
-574.719	39.865	-0.045	-0.040
-573.704	655.970	0.090	0.231
-572.690	48.388	0.116	-0.109
-571.675	-200.000	-0.032	0.218
-570.661	-109.084	0.271	-0.058
-569.646	-200.000	0.012	0.270
-568.631	-113.601	0.118	0.023
-567.617	157.391	-0.121	-0.168
-566.602	18.245	0.321	-0.257
-565.588	587.466	-0.130	0.322
-564.573	-114.154	-0.358	-0.069
-563.558	-40.921	-0.148	0.077
-562.544	-200.000	-0.000	-0.295
-561.529	10.076	-0.247	0.188
-560.515	-148.150	-0.246	0.020
-559.500	36.709	0.298	0.264
-558.485	592.009	-0.187	-0.463
-557.471	-71.088	-0.073	-0.027
-556.456	-200.000	0.074	-0.358
-555.442	800.000	-0.086	-0.320
-554.427	-185.328	-0.263	-0.004
-553.412	-6.382	-0.210	-0.144
-552.398	-200.000	0.027	0.366
-551.383	545.774	-0.107	-0.256
-550.369	-54.575	-0.334	-0.152
-549.354	-85.160	0.259	-0.081
-548.339	180.826	-0.173	0.255
-547.325	392.110	0.127	0.264
-546.310	-199.437	-0.159	0.001
-545.296	800.000	-0.015	-0.056
-544.281	67.289	-0.276	0.283
-543.266	-94.400	-0.174	-0.048
-542.252	464.206	-0.103	0.230
-541.237	-200.000	-0.005	0.390
-540.223	-33.703	0.287	0.159
-539.208	119.612	-0.069	-0.086
-538.193	-200.000	-0.008	-0.202
-537.179	-171.059	-0.113	-0.004
-536.164	-130.669	-0.296	-0.040
-535.150	395.747	0.079	-0.166
-534.135	-142.525	-0.568	-0.056
-533.121	67.941	0.090	-0.093
-532.106	-42.495	-0.088	0.045
-531.091	-65.951	0.231	-0.092
-530.077	42.843	-0.146	-0.133
-529.062	72.051	0.101	-0.106
-528.048	800.000	0.102	0.384
-527.033	57.370	-0.182	0.178
-526.018	637.198	-0.077	0.197
-525.004	-200.000	0.023	-0.141
-523.989	800.000	0.037	-0.159
-522.975	-99.530	-0.156	-0.039
-521.960	-112.874	0.154	0.031
-520.945	97.395	-0.101	0.116
-519.931	800.000	0.078	-0.250
-518.916	-24.044	-0.116	-0.070
-517.902	-200.000	-0.011	-0.162
-516.887	-200.000	-0.024	-0.420
-515.872	-84.279	-0.320	0.102
-514.858	-6.902	0.170	-0.116
-513.843	-41.969	0.108	0.055
-512.829	-129.355	0.160	-0.022
-511.814	50.946	0.025	0.023
-510.799	-50.985	-0.155	0.073
-509.785	-200.000	0.028	0.410
-508.770	161.066	0.102	-0.142
-507.756	-14.907	0.146	-0.094
-506.741	233.848	-0.209	0.345
-505.726	-194.146	0.156	0.001
-504.712	-200.000	0.019	0.086
-503.697	13.581	0.208	-0.161
-502.683	-162.608	0.133	0.007
-501.668	-105.418	-0.158	0.036
-500.653	139.421	0.157	-0.207
-499.639	35.728	-0.213	0.187
-498.624	267.047	-0.066	0.115
-497.610	-79.842	0.068	0.023
-496.595	-69.500	-0.317	0.122
-495.581	329.229	0.190	-0.366
-494.566	143.458	-0.092	-0.123
-493.551	-17.680	-0.110	0.069
-492.537	346.628	-0.049	-0.097
-491.522	31.074	0.163	0.140
-490.508	800.000	0.080	-0.291
-489.493	-200.000	-0.025	0.194
-488.478	246.115	-0.183	0.308
-487.464	-81.648	-0.233	-0.077
-486.449	-126.467	-0.225	-0.034
-485.435	-200.000	0.036	-0.252
-484.420	-63.497	0.113	-0.047
-483.405	155.842	0.137	-0.189
-482.391	-129.660	-0.107	0.015
-481.376	246.043	0.204	0.344
-480.362	395.302	0.163	0.340
-479.347	-39.829	0.082	0.043
-478.332	-78.731	-0.094	-0.032
-477.318	323.797	-0.095	-0.181
-476.303	65.851	0.090	-0.091
-475.289	-96.933	-0.214	-0.056
-474.274	150.104	0.218	-0.295
-473.259	-119.385	0.159	0.028
-472.245	800.000	0.099	0.275
-471.230	-79.218	-0.258	-0.087
-470.216	-14.818	-0.067	-0.043
-469.201	-117.857	-0.107	0.019
-468.186	396.526	0.083	-0.173
-467.172	-50.989	-0.113	-0.053
-466.157	692.392	-0.029	0.077
-465.143	-150.997	-0.152	-0.011
-464.128	75.596	-0.158	-0.167
-463.113	800.000	0.074	-0.234
-462.099	-118.350	0.115	-0.020
-461.084	13.656	-0.298	-0.231
-460.070	117.525	-0.215	-0.265
-459.055	-200.000	0.005	-0.107
-458.040	658.525	0.124	0.319
-457.026	-40.437	-0.205	-0.107
-456.011	26.376	-0.230	-0.192
-454.997	800.000	-0.022	0.086
-453.982	-40.439	0.018	-0.009
-452.968	43.286	-0.047	-0.043
-451.953	-118.263	0.326	0.058
-450.938	185.146	0.088	0.131
-449.924	312.663	-0.161	-0.303
-448.909	-200.000	-0.037	0.211
-447.895	301.120	0.098	0.182
-446.880	-200.000	0.001	-0.126
-445.865	-200.000	0.002	-0.201
-444.851	-139.891	0.078	0.008
-443.836	-85.593	0.181	-0.056
-442.822	75.396	-0.056	0.059
-441.807	353.007	-0.089	0.177
-440.792	19.704	0.411	0.331
-439.778	18.986	-0.025	-0.020
-438.763	394.001	-0.120	0.250
-437.749	165.544	-0.041	0.058
-436.734	452.233	0.069	-0.152
-435.719	-200.000	0.007	0.087
-434.705	-107.430	-0.345	0.076
-433.690	-84.581	-0.340	0.107
-432.676	73.811	0.275	-0.288
-431.661	-103.939	0.186	0.043
-430.646	0.906	-0.140	0.100
-429.632	-9.829	0.160	0.106
-428.617	-51.862	0.103	0.048
-427.603	-32.659	-0.165	-0.091
-426.588	83.956	0.124	-0.135
-425.573	217.604	0.105	0.167
-424.559	-94.588	0.180	0.049
-423.544	176.615	-0.241	-0.350
-422.530	43.566	0.138	0.126
-421.515	-200.000	-0.014	-0.089
-420.500	202.401	0.049	-0.075
-419.486	-103.453	0.266	-0.063
-418.471	-74.866	0.377	-0.135
-417.457	334.755	-0.011	-0.021
-416.442	-139.244	0.274	-0.029
-415.428	-200.000	0.024	-0.254
-414.413	298.339	0.095	-0.175
-413.398	-108.608	-0.235	-0.050
-412.384	121.089	0.212	-0.263
-411.369	612.780	-0.075	0.187
-410.355	100.826	-0.250	0.290
-409.340	800.000	0.055	-0.170
-408.325	3.453	0.214	0.156
-407.311	95.718	0.087	-0.100
-406.296	-30.579	0.074	-0.042
-405.282	-2.573	0.181	0.127
-404.267	66.960	-0.112	-0.114
-403.252	-200.000	-0.009	0.179
-402.238	-63.040	0.295	-0.122
-401.223	-138.030	-0.170	-0.019
-400.209	214.447	0.138	0.218
-399.194	-128.035	-0.217	-0.031
-398.179	25.046	0.246	-0.204
-397.165	-160.376	0.102	-0.005
-396.150	-180.033	-0.130	0.003
-395.136	658.338	0.074	0.191
-394.121	-200.000	-0.015	0.073
-393.106	595.172	-0.051	0.126
-392.092	-24.357	-0.376	0.224
-391.077	-200.000	-0.003	-0.312
-390.063	109.504	0.106	-0.127
-389.048	-155.066	0.154	-0.010
-388.033	-200.000	-0.035	0.351
-387.019	-4.088	0.213	-0.147
-386.004	-102.001	0.159	-0.038
-384.990	187.133	0.037	-0.054
-383.975	353.931	-0.230	-0.455
-382.960	-200.000	-0.069	-0.359
-381.946	-49.120	0.353	-0.169
-380.931	-24.929	-0.147	0.087
-379.917	-24.003	0.159	0.095
-378.902	-106.665	0.283	-0.063
-377.888	-14.648	0.212	-0.136
-376.873	800.000	0.106	-0.318
-375.858	-157.232	0.230	-0.014
-374.844	-157.388	-0.582	0.035
-373.829	800.000	0.011	-0.036
-372.815	-88.707	-0.105	-0.031
-371.800	800.000	0.071	-0.240
-370.785	-36.638	0.099	-0.053
-369.771	-14.972	-0.125	-0.080
-368.756	104.541	0.125	0.147
-367.742	167.678	-0.036	0.050
-366.727	-200.000	0.051	0.235
-365.712	-200.000	0.016	-0.103
-364.698	-176.923	0.194	-0.005
-363.683	43.657	0.133	0.121
-362.669	136.540	-0.124	0.161
-361.654	-20.033	0.180	0.110
-360.639	320.093	-0.087	0.164
-359.625	-113.628	0.234	-0.046
-358.610	-0.321	-0.167	0.118
-357.596	-200.000	-0.227	-0.000
-356.581	120.644	-0.112	0.139
-355.566	-155.042	0.254	0.017
-354.552	800.000	0.084	-0.298
-353.537	-150.590	0.069	-0.005
-352.523	-200.000	-0.072	-0.537
-351.508	-18.127	-0.329	0.205
-350.493	-200.000	-0.017	-0.604
-349.479	-200.000	-0.001	-0.054
-348.464	16.239	-0.132	-0.104
-347.450	-88.824	0.391	-0.116
-346.435	4.776	0.140	0.102
-345.420	25.608	-0.172	0.143
-344.406	-163.070	0.637	0.031
-343.391	159.066	-0.189	0.262
-342.377	-30.514	-0.096	-0.054
-341.362	103.150	0.044	0.052
-340.348	-151.692	0.206	-0.015
-339.333	-84.126	0.085	0.027
-338.318	68.987	0.020	0.020
-337.304	187.554	0.134	0.199
-336.289	-115.247	0.080	-0.015
-335.275	-43.842	-0.234	-0.117
-334.260	176.565	-0.198	-0.287
-333.245	-62.955	0.112	-0.046
-332.231	-69.704	0.331	0.126
-331.216	800.000	0.100	-0.297
-330.202	136.379	-0.131	0.170
-329.187	-14.390	-0.382	-0.245
-328.172	-29.735	0.036	-0.020
-327.158	-126.387	-0.333	-0.049
-326.143	487.366	0.070	-0.158
-325.129	270.922	0.112	0.197
-324.114	-69.974	-0.422	0.160
-323.099	14.435	0.219	0.170
-322.085	-47.877	-0.176	0.085
-321.070	187.831	0.091	-0.135
-320.056	-34.563	0.148	-0.081
-319.041	41.504	0.091	0.082
-318.026	-200.000	0.031	0.173
-317.012	86.262	0.150	0.165
-315.997	16.383	0.080	-0.063
-314.983	343.277	0.169	0.330
-313.968	-200.000	0.043	0.379
-312.953	800.000	0.131	-0.507
-311.939	-15.709	-0.191	-0.121
-310.924	-200.000	-0.007	-0.159
-309.910	-20.859	-0.397	-0.242
-308.895	34.839	0.191	-0.166
-307.880	18.991	0.217	0.173
-306.866	33.874	-0.033	-0.028
-305.851	237.149	0.071	-0.117
-304.837	-95.429	0.111	-0.030
-303.822	-97.654	-0.081	-0.021
-302.807	-83.786	0.207	-0.066
-301.793	800.000	-0.009	0.028
-300.778	-9.123	0.084	0.056
-299.764	800.000	-0.029	0.086
-298.749	388.003	0.098	0.201
-297.735	-200.000	0.019	0.093
-296.720	179.494	-0.256	0.372
-295.705	-200.000	-0.227	0.001
-294.691	-200.000	0.023	0.234
-293.676	-62.888	-0.436	0.179
-292.662	-200.000	-0.007	0.057
-291.647	-42.356	0.297	0.151
-290.632	-186.135	0.139	0.002
-289.618	94.542	0.080	-0.091
-288.603	800.000	0.042	0.117
-287.589	-200.000	0.066	0.299
-286.574	-117.600	0.251	0.045
-285.559	133.772	-0.130	0.167
-284.545	693.796	-0.044	-0.115
-283.530	211.614	0.204	-0.319
-282.516	9.695	-0.419	0.316
-281.501	-165.941	-0.046	0.002
-280.486	10.206	0.018	0.014
-279.472	800.000	0.044	0.126
-278.457	-116.968	0.256	0.046
-277.443	162.218	0.063	-0.087
-276.428	800.000	-0.075	-0.286
-275.413	-200.000	-0.043	-0.207
-274.399	-184.631	-0.145	0.002
-273.384	-68.066	-0.089	0.034
-272.370	-123.612	-0.262	-0.041
-271.355	289.708	-0.059	-0.106
-270.340	2.672	0.103	-0.074
-269.326	311.629	-0.212	-0.395
-268.311	-200.000	-0.009	-0.127
-267.297	-152.709	-0.267	-0.019
-266.282	108.070	0.130	0.154
-265.267	28.525	0.173	-0.145
-264.253	329.988	-0.060	0.115
-263.238	-31.056	-0.267	0.149
-262.224	-92.148	-0.362	0.101
-261.209	-200.000	0.044	0.217
-260.195	189.372	-0.036	-0.054
-259.180	25.782	0.168	-0.139
-258.165	-97.504	-0.207	-0.053
-257.151	24.867	-0.214	0.176
-256.136	166.737	0.117	-0.164
-255.122	146.579	0.008	0.010
-254.107	57.688	-0.205	0.199
-253.092	704.476	-0.149	0.391
-252.078	367.920	0.094	0.189
-251.063	-200.000	-0.005	0.296
-250.049	-47.731	-0.145	-0.070
-249.034	-200.000	-0.012	0.090
-248.019	128.748	0.098	0.124
-247.005	-34.585	-0.339	0.184
-245.990	178.395	-0.160	0.231
-244.976	99.383	0.164	0.188
-243.961	86.272	-0.162	0.177
-242.946	787.352	-0.026	-0.071
-241.932	278.555	-0.223	0.393
-240.917	-99.708	0.066	0.017
-239.903	-176.647	-0.097	0.002
-238.888	-200.000	0.058	0.431
-237.873	-200.000	-0.018	-0.196
-236.859	129.236	-0.172	0.218
-235.844	-200.000	-0.029	-0.218
-234.830	263.474	0.071	-0.123
-233.815	-176.628	0.156	0.004
-232.800	-47.255	-0.292	0.141
-231.786	52.617	0.099	0.093
-230.771	-200.000	0.052	-0.266
-229.757	-200.000	-0.010	-0.395
-228.742	-163.058	0.189	-0.009
-227.727	-9.947	0.057	-0.037
-226.713	388.841	-0.119	0.243
-225.698	-200.000	0.027	0.208
-224.684	62.527	0.209	0.207
-223.669	-200.000	-0.043	0.261
-222.655	586.307	-0.050	0.121
-221.640	694.014	-0.042	-0.109
-220.625	161.947	-0.097	0.135
-219.611	7.167	0.118	-0.087
-218.596	118.405	-0.060	-0.074
-217.582	-200.000	-0.013	-0.079
-216.567	-168.335	0.032	0.001
-215.552	175.277	0.096	-0.138
-214.538	800.000	-0.099	0.339
-213.523	40.462	-0.185	0.165
-212.509	-156.740	0.088	0.005
-211.494	800.000	-0.038	0.162
-210.479	-200.000	0.006	0.200
-209.465	393.254	-0.057	-0.118
-208.450	165.760	0.216	0.302
-207.436	-148.570	-0.314	0.025
-206.421	47.269	-0.251	0.232
-205.406	-95.592	0.219	-0.058
-204.392	428.576	0.086	0.185
-203.377	-26.924	0.080	0.046
-202.363	169.370	-0.244	-0.344
-201.348	-200.000	-0.023	-0.270
-200.333	628.354	0.111	-0.277
-199.319	-58.153	0.079	0.034
-198.304	800.000	-0.079	-0.298
-197.290	800.000	0.096	0.351
-196.275	800.000	0.088	-0.369
-195.260	379.914	-0.186	0.376
-194.246	32.919	0.285	-0.244
-193.231	-200.000	-0.019	0.144
-192.217	318.566	0.119	-0.223
-191.202	-200.000	0.023	-0.106
-190.187	22.601	0.152	0.123
-189.173	-200.000	0.023	-0.143
-188.158	176.199	-0.021	-0.030
-187.144	261.776	0.023	-0.040
-186.129	14.584	-0.065	0.050
-185.114	-132.988	-0.180	-0.023
-184.100	-200.000	-0.039	0.182
-183.085	252.533	-0.152	-0.256
-182.071	-87.551	-0.064	-0.019
-181.056	-119.240	0.379	0.065
-180.042	-63.865	0.228	0.092
-179.027	-200.000	-0.033	-0.199
-178.012	217.179	0.199	-0.313
-176.998	800.000	-0.108	0.303
-175.983	-30.784	0.155	-0.087
-174.969	52.748	-0.211	-0.199
-173.954	126.693	-0.058	-0.073
-172.939	15.586	0.246	-0.191
-171.925	800.000	-0.079	-0.273
-170.910	-126.199	0.254	0.038
-169.896	240.358	0.084	-0.138
-168.881	-23.919	-0.067	0.040
-167.866	345.223	0.195	-0.378
-166.852	800.000	-0.071	0.248
-165.837	160.857	0.204	0.281
-164.823	307.853	-0.147	0.271
-163.808	197.214	0.112	-0.170
-162.793	-147.257	-0.344	0.029
-161.779	-66.537	-0.119	0.047
-160.764	-200.000	0.032	0.306
-159.750	104.889	0.242	0.283
-158.735	-200.000	-0.001	0.261
-157.720	15.051	0.224	-0.174
-156.706	679.570	-0.144	-0.370
-155.691	572.043	0.030	0.072
-154.677	58.228	0.134	0.130
-153.662	800.000	0.033	-0.097
-152.647	-200.000	0.021	-0.280
-151.633	-112.099	0.200	0.040
-150.618	313.502	-0.177	-0.328
-149.604	350.961	0.125	0.244
-148.589	-132.316	0.070	-0.009
-147.574	-21.665	0.136	-0.082
-146.560	-139.233	-0.069	-0.007
-145.545	-30.065	-0.299	-0.168
-144.531	800.000	0.064	0.178
-143.516	-200.000	0.009	-0.169
-142.502	300.784	0.104	0.190
-141.487	-110.958	0.370	0.075
-140.472	64.149	0.134	-0.133
-139.458	-76.694	0.183	0.063
-138.443	85.824	0.113	0.123
-137.429	10.219	0.220	-0.165
-136.414	800.000	0.036	-0.106
-135.399	-200.000	-0.006	0.165
-134.385	46.365	0.112	-0.102
-133.370	800.000	-0.080	-0.241
-132.356	50.882	0.050	-0.046
-131.341	-111.926	-0.021	-0.004
-130.326	119.013	0.121	0.148
-129.312	-24.422	-0.175	0.103
-128.297	800.000	-0.037	-0.120
-127.283	48.216	0.167	0.154
-126.268	-92.343	0.388	0.108
-125.253	-200.000	-0.003	-0.109
-124.239	-59.834	-0.384	-0.162
-123.224	-36.729	0.115	-0.061
-122.210	60.450	0.397	0.388
-121.195	-108.928	-0.317	0.067
