DTS Sentinel unit serial number:	SN413079Multiplexer serial number:	ORYXHardware model number:	OX4-SRSoftware version number:	ORYX F/W v4.00 Oryx Data Collector v3.7.2.0data status	okinstallation	princeton_trtdifferential loss correction	single-endedforward channel	channel 1reverse channel	N/Adate	2019/09/16time	23:58:35forward acquisition time	60.00reverse acquisition time	0.00gamma	496.2192k internal	0.2326k external	0.2326temperature offset calibration	0.9957default loss term (dB/km)	0.3790temperature slope calibration	1.0000multiplexer offset coefficient	1.0000multiplexer slope coefficient	1.0000fibre end	0.00T internal ref (°C)	29.62T ext. ref 1 (°C)	0.10T ext. ref 2 (°C)	23.92length (m)	temperature (°C)	Stokes	anti-Stokes-747.200	700.583	0.031	0.084
-746.185	-89.328	-0.117	-0.035
-745.171	214.812	0.087	-0.139
-744.156	-67.690	-0.228	-0.090
-743.142	-200.000	-0.018	0.162
-742.127	-31.442	0.445	0.252
-741.112	49.598	0.156	-0.148
-740.098	473.800	-0.103	0.235
-739.083	-143.507	0.279	0.027
-738.069	170.673	-0.185	0.267
-737.054	-200.000	0.005	0.041
-736.039	-163.557	-0.581	-0.028
-735.025	-150.466	0.152	-0.012
-734.010	-186.927	-0.285	-0.004
-732.996	-3.856	-0.315	-0.220
-731.981	145.387	-0.128	-0.173
-730.966	-56.337	-0.253	0.113
-729.952	-15.847	0.057	-0.036
-728.937	644.336	0.041	-0.106
-727.923	40.755	-0.240	-0.219
-726.908	-166.600	-0.172	0.007
-725.894	-15.205	-0.417	-0.269
-724.879	-24.393	-0.181	0.109
-723.864	-200.000	-0.006	0.026
-722.850	-200.000	0.033	-0.208
-721.835	37.608	-0.213	-0.190
-720.821	-53.357	-0.219	-0.101
-719.806	-16.681	0.222	0.142
-718.791	7.350	-0.137	0.103
-717.777	800.000	-0.009	0.030
-716.762	800.000	-0.071	-0.204
-715.748	-153.805	-0.179	0.012
-714.733	-200.000	0.022	-0.160
-713.718	-193.943	-0.409	0.003
-712.704	-89.691	0.221	-0.065
-711.689	-200.000	-0.000	-0.195
-710.675	115.082	0.220	-0.271
-709.660	-200.000	-0.010	-0.338
-708.645	-76.508	-0.243	-0.086
-707.631	-109.469	-0.272	-0.058
-706.616	22.822	0.020	0.016
-705.602	-131.869	0.246	-0.032
-704.587	-112.287	0.184	0.037
-703.572	-200.000	0.027	-0.246
-702.558	800.000	0.029	0.099
-701.543	369.175	0.141	-0.288
-700.529	40.413	-0.243	-0.220
-699.514	-200.000	-0.054	-0.263
-698.499	177.236	0.230	0.337
-697.485	-70.001	0.423	0.162
-696.470	-25.305	0.135	-0.080
-695.456	587.179	0.068	0.167
-694.441	-136.210	-0.177	0.021
-693.426	-67.877	-0.278	-0.110
-692.412	-142.100	0.174	-0.017
-691.397	-200.000	-0.036	0.205
-690.383	28.104	-0.217	0.185
-689.368	7.953	-0.023	-0.017
-688.354	43.539	0.025	0.023
-687.339	183.634	-0.076	0.113
-686.324	-200.000	-0.047	0.244
-685.310	146.311	-0.042	0.057
-684.295	-24.262	-0.064	0.039
-683.281	-200.000	-0.042	-0.257
-682.266	-27.955	0.217	0.126
-681.251	16.307	-0.115	-0.092
-680.237	683.100	-0.142	0.374
-679.222	-122.548	0.306	0.050
-678.208	-109.398	-0.265	0.056
-677.193	800.000	-0.070	-0.218
-676.178	655.239	0.040	-0.104
-675.164	443.507	0.162	-0.357
-674.149	-59.761	-0.098	0.042
-673.135	-200.000	-0.060	0.267
-672.120	548.811	-0.204	0.491
-671.105	405.854	-0.166	0.353
-670.091	18.389	0.207	-0.166
-669.076	38.549	-0.388	-0.348
-668.062	800.000	-0.057	0.162
-667.047	86.965	0.170	0.189
-666.032	-133.609	-0.170	-0.021
-665.018	596.590	-0.104	0.260
-664.003	-200.000	0.012	0.129
-662.989	161.465	0.122	-0.171
-661.974	800.000	0.111	-0.379
-660.959	-200.000	-0.029	-0.193
-659.945	40.365	0.181	0.164
-658.930	434.053	-0.034	-0.073
-657.916	3.880	0.260	0.191
-656.901	800.000	-0.045	0.172
-655.886	-79.890	0.173	-0.059
-654.872	-125.820	-0.297	0.045
-653.857	-200.000	0.041	0.303
-652.843	-19.664	0.204	-0.127
-651.828	800.000	0.082	-0.328
-650.814	800.000	-0.061	-0.181
-649.799	-83.946	-0.230	-0.074
-648.784	-200.000	-0.022	-0.123
-647.770	24.349	0.084	0.070
-646.755	-200.000	-0.029	-0.129
-645.741	531.978	0.029	-0.069
-644.726	261.435	0.059	0.102
-643.711	-12.447	-0.367	-0.241
-642.697	800.000	-0.048	-0.163
-641.682	72.924	0.073	-0.077
-640.668	-95.950	0.056	-0.015
-639.653	301.294	0.074	-0.138
-638.638	-69.263	-0.258	0.100
-637.624	221.074	0.059	0.095
-636.609	-112.964	0.154	-0.031
-635.595	155.103	-0.267	-0.368
-634.580	-128.947	-0.079	0.011
-633.565	-51.499	0.291	-0.137
-632.551	-4.799	-0.484	0.335
-631.536	222.351	0.155	0.251
-630.522	-200.000	0.031	-0.192
-629.507	-21.290	-0.205	0.126
-628.492	800.000	0.028	0.088
-627.478	203.320	0.137	0.213
-626.463	178.913	0.105	0.154
-625.449	-71.076	0.176	0.066
-624.434	93.038	0.378	-0.429
-623.419	35.531	-0.220	0.194
-622.405	144.158	0.210	0.281
-621.390	-28.765	-0.160	0.093
-620.376	800.000	-0.018	-0.074
-619.361	-200.000	-0.019	-0.238
-618.346	9.979	0.115	0.087
-617.332	-73.906	-0.200	0.073
-616.317	-85.450	0.063	-0.020
-615.303	-26.402	-0.028	-0.017
-614.288	0.384	0.240	-0.172
-613.273	-86.547	0.299	-0.092
-612.259	83.084	-0.135	-0.148
-611.244	401.288	-0.060	0.127
-610.230	533.692	-0.061	0.144
-609.215	800.000	-0.067	0.229
-608.201	-10.448	0.092	0.061
-607.186	-73.077	0.403	0.148
-606.171	-123.715	-0.098	-0.016
-605.157	-200.000	0.013	0.308
-604.142	-21.470	-0.126	-0.077
-603.128	142.578	-0.126	0.168
-602.113	211.182	-0.025	-0.040
-601.098	-151.038	-0.208	0.016
-600.084	-64.902	0.198	-0.080
-599.069	-7.220	-0.235	0.160
-598.055	-169.411	0.125	-0.005
-597.040	320.711	-0.064	-0.122
-596.025	419.561	-0.113	-0.242
-595.011	221.994	-0.079	0.127
-593.996	-125.193	-0.219	-0.034
-592.982	-67.262	0.057	0.022
-591.967	-200.000	0.027	0.212
-590.952	-200.000	-0.005	-0.278
-589.938	85.292	0.237	0.261
-588.923	-95.830	0.244	-0.065
-587.909	0.367	-0.122	-0.087
-586.894	800.000	-0.083	0.275
-585.879	17.081	-0.197	-0.156
-584.865	347.839	-0.151	-0.298
-583.850	-61.461	0.152	-0.064
-582.836	170.511	-0.155	0.222
-581.821	-183.457	-0.212	-0.004
-580.806	-46.982	-0.209	-0.102
-579.792	-195.842	-0.163	-0.001
-578.777	263.390	-0.055	-0.096
-577.763	-62.347	-0.094	-0.039
-576.748	-19.700	-0.338	0.210
-575.733	-200.000	0.007	0.530
-574.719	-200.000	0.023	0.513
-573.704	5.391	0.173	0.128
-572.690	153.088	0.068	0.094
-571.675	685.465	-0.035	0.091
-570.661	800.000	0.127	0.401
-569.646	-200.000	-0.091	0.486
-568.631	-177.757	0.342	0.008
-567.617	800.000	0.076	-0.277
-566.602	-200.000	0.026	0.260
-565.588	-52.754	0.143	-0.066
-564.573	293.023	0.084	0.154
-563.558	-117.726	0.121	-0.022
-562.544	281.776	-0.102	-0.183
-561.529	58.867	0.067	-0.066
-560.515	252.463	-0.081	-0.138
-559.500	-200.000	-0.004	-0.186
-558.485	-83.198	0.644	0.207
-557.471	124.175	0.206	-0.259
-556.456	-61.162	0.421	-0.178
-555.442	79.264	-0.064	-0.069
-554.427	-55.259	-0.117	0.052
-553.412	800.000	-0.048	-0.192
-552.398	131.099	-0.060	-0.078
-551.383	800.000	-0.086	0.275
-550.369	-200.000	0.022	-0.126
-549.354	27.546	-0.171	-0.144
-548.339	-42.859	-0.240	-0.122
-547.325	210.448	-0.106	0.167
-546.310	-200.000	0.055	-0.482
-545.296	220.784	-0.186	-0.298
-544.281	-200.000	-0.016	-0.487
-543.266	-90.577	-0.128	0.037
-542.252	-200.000	0.041	0.249
-541.237	128.643	-0.321	0.410
-540.223	-98.687	-0.176	-0.045
-539.208	800.000	0.028	-0.108
-538.193	277.266	-0.020	0.035
-537.179	-26.279	0.067	-0.039
-536.164	-32.339	-0.048	-0.027
-535.150	89.654	0.116	-0.129
-534.135	-35.455	-0.125	-0.068
-533.121	-200.000	-0.044	0.343
-532.106	-137.691	-0.184	-0.021
-531.091	-10.453	-0.323	-0.214
-530.077	262.590	-0.109	-0.189
-529.062	293.051	0.214	0.391
-528.048	31.382	0.092	-0.079
-527.033	-63.823	-0.304	-0.125
-526.018	-21.346	-0.130	0.080
-525.004	-31.253	-0.356	0.201
-523.989	121.328	-0.073	0.092
-522.975	-42.464	-0.207	-0.106
-521.960	-200.000	0.010	-0.066
-520.945	161.981	-0.197	0.275
-519.931	-28.481	0.220	-0.127
-518.916	-49.792	-0.108	-0.051
-517.902	135.845	-0.166	-0.216
-516.887	-77.211	-0.136	-0.047
-515.872	108.914	0.081	-0.097
-514.858	-200.000	-0.015	0.358
-513.843	-200.000	-0.032	0.225
-512.829	7.049	0.040	0.030
-511.814	-50.555	-0.317	-0.149
-510.799	-83.922	0.232	-0.074
-509.785	287.856	-0.126	-0.228
-508.770	-12.474	-0.162	0.106
-507.756	800.000	-0.067	0.249
-506.741	-107.396	0.457	0.100
-505.726	-35.120	-0.296	0.161
-504.712	-133.274	-0.046	-0.006
-503.697	-200.000	0.006	-0.045
-502.683	-10.224	-0.111	-0.074
-501.668	-13.299	0.278	0.180
-500.653	800.000	-0.052	-0.221
-499.639	-74.602	-0.098	-0.035
-498.624	-77.531	0.074	-0.026
-497.610	-200.000	0.000	0.027
-496.595	800.000	-0.075	-0.240
-495.581	-183.899	-0.117	-0.002
-494.566	154.644	-0.110	-0.150
-493.551	732.227	-0.156	-0.416
-492.537	800.000	-0.059	-0.239
-491.522	-200.000	-0.003	-0.152
-490.508	141.492	-0.236	0.312
-489.493	218.195	0.211	0.336
-488.478	-70.965	0.345	0.130
-487.464	-109.093	-0.292	-0.062
-486.449	-200.000	-0.012	0.170
-485.435	-175.687	-0.118	-0.003
-484.420	-51.417	-0.213	-0.099
-483.405	455.526	0.186	0.412
-482.391	271.338	-0.141	0.248
-481.376	800.000	0.167	0.479
-480.362	-54.449	-0.193	-0.087
-479.347	800.000	-0.083	-0.263
-478.332	396.019	0.190	-0.396
-477.318	-60.909	-0.085	0.036
-476.303	31.339	0.163	-0.140
-475.289	-98.053	0.143	-0.037
-474.274	-111.829	-0.092	0.019
-473.259	-11.673	0.303	-0.198
-472.245	38.439	0.251	-0.223
-471.230	-106.109	0.175	-0.039
-470.216	-200.000	0.018	0.287
-469.201	-137.344	-0.210	-0.024
-468.186	96.027	0.167	-0.191
-467.172	91.742	-0.099	0.111
-466.157	57.807	0.110	0.108
-465.143	-73.091	0.299	0.109
-464.128	10.029	0.153	-0.116
-463.113	-106.500	0.284	-0.063
-462.099	-27.146	0.390	-0.227
-461.084	-186.514	0.101	0.001
-460.070	800.000	-0.019	0.079
-459.055	283.696	-0.140	-0.250
-458.040	-95.060	0.299	0.081
-457.026	146.424	-0.071	0.095
-456.011	105.843	0.163	0.192
-454.997	229.229	0.102	0.165
-453.982	-78.579	0.112	0.038
-452.968	574.999	0.180	0.437
-451.953	-23.669	-0.293	0.175
-450.938	-200.000	0.010	-0.191
-449.924	-77.288	-0.133	-0.046
-448.909	44.568	0.113	-0.103
-447.895	800.000	-0.099	-0.402
-446.880	-20.800	0.251	0.153
-445.865	424.649	-0.125	-0.268
-444.851	37.205	0.061	0.054
-443.836	-99.855	0.292	-0.073
-442.822	188.619	0.070	-0.104
-441.807	-193.363	0.271	-0.002
-440.792	260.997	0.063	0.109
-439.778	57.049	0.125	0.121
-438.763	-129.166	-0.191	0.027
-437.749	316.491	-0.030	-0.056
-436.734	141.116	0.162	0.213
-435.719	-114.215	-0.129	-0.025
-434.705	-118.462	0.110	-0.019
-433.690	-133.759	0.359	0.045
-432.676	800.000	-0.075	-0.302
-431.661	-27.929	-0.399	-0.230
-430.646	-2.029	0.048	0.033
-429.632	27.005	-0.238	-0.199
-428.617	800.000	0.090	-0.335
-427.603	-130.789	0.409	0.055
-426.588	-14.447	0.324	-0.208
-425.573	79.168	0.205	-0.219
-424.559	166.277	0.225	-0.318
-423.544	-76.856	-0.191	0.067
-422.530	407.166	-0.063	0.133
-421.515	-167.293	0.248	0.010
-420.500	-80.511	-0.157	0.052
-419.486	329.843	0.051	-0.098
-418.471	63.543	-0.144	0.144
-417.457	800.000	-0.089	0.352
-416.442	33.482	0.199	-0.172
-415.428	-63.717	-0.289	0.118
-414.413	37.728	0.064	0.057
-413.398	58.355	-0.084	-0.082
-412.384	-47.337	0.167	0.081
-411.369	-109.033	0.167	-0.035
-410.355	141.820	0.081	-0.107
-409.340	-200.000	0.016	0.185
-408.325	-200.000	0.019	-0.207
-407.311	225.002	-0.097	0.156
-406.296	-0.780	-0.037	-0.026
-405.282	-138.524	0.437	-0.048
-404.267	-200.000	-0.056	-0.343
-403.252	-6.331	0.047	0.032
-402.238	800.000	0.076	0.264
-401.223	86.280	-0.161	-0.177
-400.209	-116.686	-0.364	-0.067
-399.194	563.846	0.061	0.148
-398.179	760.527	-0.021	-0.056
-397.165	-110.500	0.175	-0.036
-396.150	75.497	0.064	0.067
-395.136	800.000	-0.089	0.378
-394.121	413.497	-0.033	-0.070
-393.106	-98.666	0.087	0.022
-392.092	451.019	0.113	-0.249
-391.077	-43.960	0.185	0.092
-390.063	-200.000	0.013	0.111
-389.048	-118.613	0.131	0.023
-388.033	-86.032	0.162	0.050
-387.019	86.488	-0.096	-0.106
-386.004	781.708	0.136	-0.371
-384.990	-68.812	-0.269	0.103
-383.975	77.428	0.200	-0.212
-382.960	-174.487	-0.312	-0.009
-381.946	-152.822	-0.075	0.005
-380.931	-51.901	-0.122	-0.056
-379.917	87.247	0.256	0.281
-378.902	-72.904	-0.157	-0.057
-377.888	127.093	-0.166	-0.209
-376.873	-200.000	-0.034	-0.154
-375.858	34.286	-0.112	-0.097
-374.844	-200.000	-0.008	0.228
-373.829	-200.000	0.021	0.279
-372.815	-52.229	-0.122	-0.056
-371.800	-45.965	-0.150	-0.073
-370.785	800.000	-0.121	0.398
-369.771	482.136	-0.064	0.145
-368.756	17.146	0.276	-0.218
-367.742	-200.000	0.061	-0.403
-366.727	-34.963	-0.090	0.049
-365.712	-55.396	-0.198	-0.089
-364.698	149.983	-0.139	0.187
-363.683	148.941	-0.157	0.211
-362.669	-200.000	-0.040	-0.211
-361.654	-132.801	0.094	0.012
-360.639	-78.230	-0.277	0.095
-359.625	-154.047	-0.018	-0.001
-358.610	164.005	0.263	-0.368
-357.596	-200.000	-0.068	0.359
-356.581	23.816	-0.262	0.214
-355.566	-92.348	-0.113	0.032
-354.552	471.959	-0.041	-0.091
-353.537	704.876	-0.156	-0.409
-352.523	47.595	0.127	0.117
-351.508	-49.961	0.340	-0.160
-350.493	-96.565	0.160	0.042
-349.479	98.268	-0.137	-0.157
-348.464	-200.000	-0.030	0.205
-347.450	391.788	-0.071	0.147
-346.435	-56.164	0.282	-0.125
-345.420	62.710	0.090	0.090
-344.406	59.363	-0.220	0.215
-343.391	152.078	-0.139	-0.188
-342.377	-28.195	0.222	-0.127
-341.362	142.652	0.263	-0.347
-340.348	-169.694	0.289	-0.010
-339.333	-99.278	-0.233	-0.059
-338.318	427.118	-0.038	-0.082
-337.304	-200.000	0.029	0.227
-336.289	800.000	0.101	-0.312
-335.275	800.000	-0.057	-0.201
-334.260	93.840	0.038	0.043
-333.245	-33.875	-0.179	-0.098
-332.231	-124.671	-0.075	-0.012
-331.216	52.403	0.119	0.112
-330.202	141.977	-0.111	0.147
-329.187	-80.841	-0.278	0.092
-328.172	-200.000	-0.001	-0.024
-327.158	-83.299	0.187	-0.060
-326.143	153.592	-0.038	0.052
-325.129	800.000	-0.083	-0.315
-324.114	-200.000	0.054	-0.393
-323.099	290.459	0.062	0.113
-322.085	-200.000	-0.032	-0.339
-321.070	-200.000	0.009	-0.286
-320.056	-44.494	0.382	-0.189
-319.041	40.910	-0.256	0.229
-318.026	5.086	0.194	0.142
-317.012	-83.770	-0.099	0.031
-315.997	800.000	-0.021	0.076
-314.983	235.556	0.109	-0.178
-313.968	800.000	-0.146	0.421
-312.953	-136.244	-0.127	-0.015
-311.939	70.435	-0.169	-0.173
-310.924	-104.736	0.126	-0.029
-309.910	640.562	-0.023	0.058
-308.895	45.911	0.182	0.167
-307.880	-178.469	-0.231	-0.005
-306.866	-138.720	0.298	0.032
-305.851	355.769	0.135	-0.267
-304.837	-69.567	-0.192	0.073
-303.822	220.343	0.156	-0.248
-302.807	-19.182	0.303	-0.186
-301.793	-89.751	0.228	-0.066
-300.778	-200.000	-0.029	-0.218
-299.764	-23.646	-0.135	-0.080
-298.749	-200.000	-0.011	-0.146
-297.735	-200.000	0.006	-0.228
-296.720	-200.000	-0.019	-0.163
-295.705	-97.058	-0.238	-0.062
-294.691	150.202	-0.159	-0.214
-293.676	-122.587	0.284	-0.046
-292.662	127.940	0.117	0.148
-291.647	46.916	-0.347	0.320
-290.632	-96.159	-0.176	-0.046
-289.618	-200.000	0.033	-0.233
-288.603	800.000	0.017	0.068
-287.589	-34.939	-0.132	-0.072
-286.574	-200.000	0.010	0.062
-285.559	-163.252	-0.113	0.005
-284.545	208.197	-0.035	0.055
-283.530	-105.278	-0.264	0.060
-282.516	11.902	-0.342	-0.260
-281.501	59.919	-0.289	0.282
-280.486	-135.611	0.345	0.041
-279.472	-21.799	0.305	0.184
-278.457	472.112	0.161	0.359
-277.443	800.000	0.061	-0.216
-276.428	800.000	-0.038	0.147
-275.413	-25.286	0.454	0.266
-274.399	-85.448	0.099	0.031
-273.384	-90.292	-0.357	-0.103
-272.370	40.306	0.122	-0.109
-271.355	-100.859	-0.142	-0.035
-270.340	-39.709	-0.418	-0.217
-269.326	145.336	-0.038	0.051
-268.311	800.000	-0.015	-0.063
-267.297	800.000	0.022	0.072
-266.282	800.000	-0.048	0.168
-265.267	401.267	-0.119	0.247
-264.253	-179.654	0.334	-0.007
-263.238	106.562	-0.225	-0.264
-262.224	-1.239	0.214	-0.150
-261.209	-200.000	0.000	-0.024
-260.195	-65.820	0.251	0.099
-259.180	-54.341	0.309	0.139
-258.165	-200.000	-0.045	-0.317
-257.151	34.871	0.158	-0.137
-256.136	245.330	0.120	-0.200
-255.122	223.308	0.078	-0.125
-254.107	800.000	0.038	-0.120
-253.092	-200.000	0.050	-0.279
-252.078	223.480	0.110	0.176
-251.063	800.000	-0.044	0.176
-250.049	280.742	0.150	0.266
-249.034	-120.118	-0.508	-0.086
-248.019	19.355	0.136	0.108
-247.005	-50.739	-0.256	0.119
-245.990	41.792	-0.152	0.136
-244.976	-9.663	0.367	0.242
-243.961	130.278	0.282	0.358
-242.946	-34.023	-0.004	-0.002
-241.932	800.000	0.081	0.294
-240.917	3.111	0.136	0.098
-239.903	224.826	-0.057	-0.091
-238.888	-102.853	0.066	-0.016
-237.873	-115.244	-0.119	0.022
-236.859	800.000	-0.075	0.240
-235.844	-150.603	0.223	-0.017
-234.830	561.360	0.081	0.195
-233.815	308.956	0.079	0.146
-232.800	-40.250	-0.340	-0.175
-231.786	-89.198	-0.409	0.119
-230.771	-109.555	0.151	0.031
-229.757	-141.404	0.159	-0.016
-228.742	-142.358	0.440	-0.043
-227.727	800.000	-0.031	-0.111
-226.713	289.592	0.118	-0.212
-225.698	-8.288	-0.139	0.093
-224.684	-200.000	0.009	0.258
-223.669	640.952	0.049	0.123
-222.655	-200.000	-0.006	0.113
-221.640	41.680	-0.025	-0.023
-220.625	-90.183	-0.220	0.063
-219.611	21.045	-0.258	-0.207
-218.596	-139.177	0.245	0.026
-217.582	-77.331	-0.117	0.040
-216.567	685.014	-0.131	-0.337
-215.552	84.730	-0.276	0.299
-214.538	-2.616	-0.167	0.116
-213.523	800.000	-0.038	-0.124
-212.509	800.000	0.075	-0.216
-211.494	93.443	-0.250	-0.280
-210.479	-85.577	0.080	-0.025
-209.465	-200.000	0.018	0.087
-208.450	344.318	0.188	-0.364
-207.436	-99.433	-0.274	0.068
-206.421	224.516	0.098	-0.157
-205.406	-156.507	0.117	-0.007
-204.392	-200.000	-0.094	0.437
-203.377	609.697	0.047	0.116
-202.363	245.650	0.186	0.308
-201.348	-125.998	0.276	-0.041
-200.333	800.000	0.057	-0.168
-199.319	800.000	0.060	-0.195
-198.304	-200.000	-0.031	-0.163
-197.290	-134.390	0.167	-0.020
-196.275	73.510	-0.215	0.222
-195.260	-166.347	-0.069	-0.003
-194.246	-200.000	-0.021	-0.193
-193.231	111.301	-0.094	0.112
-192.217	800.000	0.081	0.314
-191.202	38.054	0.159	-0.140
-190.187	122.748	-0.082	0.101
-189.173	-200.000	0.018	-0.109
-188.158	75.753	-0.269	0.281
-187.144	167.653	0.112	-0.158
-186.129	604.872	0.125	-0.307
-185.114	345.041	-0.157	-0.305
-184.100	-200.000	-0.010	-0.208
-183.085	800.000	-0.087	0.271
-182.071	-26.169	0.243	-0.141
-181.056	-107.185	-0.350	-0.076
-180.042	-107.328	0.236	0.051
-179.027	542.722	-0.160	0.376
-178.012	800.000	0.086	0.303
-176.998	295.002	-0.166	-0.299
-175.983	-96.538	-0.378	-0.098
-174.969	-84.474	0.113	0.035
-173.954	-103.573	-0.183	0.042
-172.939	-157.167	-0.202	0.012
-171.925	-200.000	0.008	-0.261
-170.910	355.867	-0.121	0.237
-169.896	-200.000	-0.002	-0.327
-168.881	100.175	0.337	-0.385
-167.866	-67.090	0.077	0.030
-166.852	607.652	0.078	0.192
-165.837	-79.725	0.330	0.110
-164.823	800.000	-0.053	0.182
-163.808	-96.397	-0.283	-0.074
-162.793	227.776	-0.145	0.233
-161.779	-88.563	0.198	0.058
-160.764	27.128	0.419	0.346
-159.750	356.706	-0.169	0.333
-158.735	494.709	-0.108	0.245
-157.720	-200.000	0.022	0.188
-156.706	-121.890	-0.257	0.042
-155.691	-73.615	-0.180	0.065
-154.677	-200.000	0.005	0.351
-153.662	-60.916	0.330	0.137
-152.647	-200.000	0.027	0.148
-151.633	36.509	0.072	-0.062
-150.618	351.164	-0.051	-0.099
-149.604	-200.000	0.009	0.217
-148.589	-37.658	-0.321	0.169
-147.574	-14.993	0.324	-0.205
-146.560	-180.854	-0.225	-0.004
-145.545	800.000	-0.066	-0.200
-144.531	-172.300	0.130	0.004
-143.516	-200.000	-0.004	-0.230
-142.502	-185.167	-0.220	0.003
-141.487	800.000	-0.018	0.058
-140.472	-200.000	0.021	-0.514
-139.458	-200.000	0.014	-0.323
-138.443	-200.000	0.010	-0.247
-137.429	800.000	0.080	-0.340
-136.414	800.000	-0.103	-0.347
-135.399	-102.258	0.081	0.019
-134.385	800.000	0.074	0.257
-133.370	57.088	-0.184	0.176
-132.356	82.114	-0.244	-0.261
-131.341	127.226	0.072	-0.090
-130.326	-30.961	-0.351	0.195
-129.312	454.030	-0.081	0.177
-128.297	-6.595	0.104	0.070
-127.283	-133.966	-0.050	0.006
-126.268	67.443	-0.106	0.106
-125.253	81.202	0.084	-0.089
-124.239	-37.290	0.093	-0.049
-123.224	-63.011	-0.244	0.099
-122.210	122.338	0.270	0.332
