DTS Sentinel unit serial number:	SN413079Multiplexer serial number:	ORYXHardware model number:	OX4-SRSoftware version number:	ORYX F/W v4.00 Oryx Data Collector v3.7.2.0data status	okinstallation	princeton_trtdifferential loss correction	single-endedforward channel	channel 1reverse channel	N/Adate	2019/09/13time	23:10:35forward acquisition time	60.00reverse acquisition time	0.00gamma	496.2192k internal	0.2336k external	0.2336temperature offset calibration	1.0087default loss term (dB/km)	0.3790temperature slope calibration	1.0000multiplexer offset coefficient	1.0000multiplexer slope coefficient	1.0000fibre end	0.00T internal ref (°C)	27.19T ext. ref 1 (°C)	3.20T ext. ref 2 (°C)	21.10length (m)	temperature (°C)	Stokes	anti-Stokes-747.200	389.105	0.115	-0.239
-746.185	-95.538	-0.097	-0.026
-745.171	-200.000	-0.005	0.143
-744.156	-200.000	-0.023	0.266
-743.142	91.873	-0.280	-0.316
-742.127	-136.755	-0.253	0.029
-741.112	80.119	0.100	-0.108
-740.098	9.994	-0.123	-0.094
-739.083	-98.798	-0.220	0.056
-738.069	-55.746	-0.167	-0.075
-737.054	-155.830	0.207	-0.013
-736.039	33.959	-0.351	-0.307
-735.025	59.047	0.201	0.199
-734.010	-145.652	0.126	0.011
-732.996	394.422	0.044	-0.093
-731.981	-109.882	-0.246	0.052
-730.966	581.263	-0.073	-0.180
-729.952	-7.189	-0.136	0.093
-728.937	62.162	-0.119	0.119
-727.923	713.631	0.105	-0.279
-726.908	568.826	-0.090	-0.220
-725.894	-22.583	-0.040	0.024
-724.879	-159.096	0.110	0.006
-723.864	9.799	-0.158	-0.120
-722.850	-200.000	-0.001	-0.118
-721.835	462.459	0.184	-0.411
-720.821	94.732	0.136	0.155
-719.806	759.334	-0.080	-0.217
-718.791	79.435	-0.182	-0.196
-717.777	-56.035	0.084	0.037
-716.762	225.552	-0.094	-0.153
-715.748	800.000	-0.106	-0.358
-714.733	-50.594	0.169	0.080
-713.718	-63.816	0.378	-0.155
-712.704	189.923	-0.259	-0.389
-711.689	-36.555	0.220	-0.119
-710.675	800.000	0.082	0.269
-709.660	25.293	-0.363	-0.303
-708.645	-30.705	0.203	0.115
-707.631	-192.473	-0.165	0.002
-706.616	38.084	0.056	0.050
-705.602	-24.790	-0.100	0.060
-704.587	302.186	-0.114	-0.211
-703.572	800.000	-0.098	-0.341
-702.558	-17.842	0.202	0.127
-701.543	-200.000	-0.024	-0.182
-700.529	-200.000	-0.004	-0.469
-699.514	11.438	-0.192	0.147
-698.499	17.107	0.080	-0.063
-697.485	37.788	-0.189	-0.168
-696.470	-199.836	0.180	-0.001
-695.456	-108.343	-0.172	0.037
-694.441	-200.000	0.000	0.093
-693.426	-139.099	-0.335	0.036
-692.412	-200.000	-0.043	-0.290
-691.397	68.732	0.181	-0.186
-690.383	327.797	-0.127	0.244
-689.368	40.311	-0.230	-0.208
-688.354	201.172	0.061	0.094
-687.339	227.201	-0.158	-0.257
-686.324	800.000	0.022	0.064
-685.310	-116.333	-0.528	-0.098
-684.295	-89.650	-0.059	0.017
-683.281	-200.000	-0.164	-0.000
-682.266	28.228	0.090	0.076
-681.251	-43.391	-0.175	0.089
-680.237	-109.914	-0.292	0.061
-679.222	-200.000	-0.007	0.184
-678.208	-42.403	-0.304	-0.155
-677.193	-200.000	0.078	0.381
-676.178	62.763	-0.230	0.231
-675.164	-152.102	-0.478	0.035
-674.149	-200.000	-0.019	0.235
-673.135	-129.353	-0.219	0.031
-672.120	53.824	0.126	-0.122
-671.105	468.457	-0.118	-0.266
-670.091	-200.000	-0.019	-0.291
-669.076	-200.000	-0.096	-0.429
-668.062	296.219	0.107	0.197
-667.047	280.889	-0.092	0.165
-666.032	-44.769	-0.188	0.094
-665.018	-111.382	0.387	0.079
-664.003	720.635	0.063	0.167
-662.989	-200.000	0.026	0.202
-661.974	-45.265	-0.316	0.157
-660.959	90.005	-0.245	0.274
-659.945	104.686	-0.412	-0.486
-658.930	-200.000	-0.000	-0.262
-657.916	800.000	-0.046	0.192
-656.901	381.647	0.029	-0.059
-655.886	800.000	-0.070	0.227
-654.872	-200.000	0.007	-0.065
-653.857	14.875	-0.157	-0.123
-652.843	-40.140	-0.168	-0.088
-651.828	80.897	0.340	-0.367
-650.814	-15.666	-0.146	-0.093
-649.799	244.452	0.072	0.121
-648.784	329.496	-0.080	-0.154
-647.770	145.051	0.088	-0.117
-646.755	-114.671	-0.281	-0.054
-645.741	-2.338	-0.143	-0.100
-644.726	-152.682	0.024	0.002
-643.711	-35.084	-0.064	0.035
-642.697	-65.327	-0.091	0.036
-641.682	270.656	-0.078	-0.138
-640.668	97.189	0.103	0.119
-639.653	368.817	0.147	0.297
-638.638	-200.000	0.087	0.444
-637.624	-137.643	0.347	0.039
-636.609	800.000	0.073	-0.214
-635.595	44.950	-0.061	-0.056
-634.580	800.000	0.032	0.110
-633.565	-200.000	-0.014	-0.219
-632.551	-23.219	0.334	0.201
-631.536	-0.586	-0.334	-0.237
-630.522	60.815	0.231	0.229
-629.507	800.000	0.015	0.049
-628.492	20.193	0.015	0.012
-627.478	4.659	0.225	0.166
-626.463	181.960	-0.124	0.183
-625.449	-100.213	-0.365	0.091
-624.434	-64.018	-0.085	0.035
-623.419	125.128	0.280	-0.353
-622.405	800.000	0.035	-0.099
-621.390	-55.398	0.211	0.095
-620.376	78.396	-0.149	0.159
-619.361	-200.000	-0.018	-0.162
-618.346	-33.965	0.185	-0.102
-617.332	670.221	-0.093	0.240
-616.317	56.833	0.185	0.180
-615.303	-138.671	-0.225	0.025
-614.288	28.411	-0.183	0.154
-613.273	-200.000	0.021	-0.121
-612.259	800.000	-0.060	0.168
-611.244	800.000	0.075	-0.220
-610.230	-77.760	-0.269	0.093
-609.215	29.668	0.066	-0.056
-608.201	8.968	0.267	-0.201
-607.186	187.323	-0.144	-0.214
-606.171	-131.289	0.187	0.025
-605.157	800.000	-0.024	0.074
-604.142	-19.922	0.243	-0.150
-603.128	800.000	0.035	0.115
-602.113	40.720	0.043	-0.039
-601.098	-200.000	0.004	0.528
-600.084	226.824	0.132	0.214
-599.069	-15.246	-0.236	0.151
-598.055	800.000	0.055	-0.194
-597.040	-116.801	-0.314	0.057
-596.025	-94.434	0.338	-0.092
-595.011	800.000	0.030	0.108
-593.996	-89.040	-0.043	-0.013
-592.982	41.283	0.129	0.117
-591.967	-13.260	-0.301	-0.195
-590.952	-200.000	0.033	0.173
-589.938	84.755	-0.246	-0.269
-588.923	-117.797	0.305	-0.055
-587.909	-200.000	-0.038	-0.175
-586.894	685.653	0.004	-0.011
-585.879	636.853	-0.048	-0.123
-584.865	-91.501	-0.126	-0.036
-583.850	135.895	-0.279	-0.363
-582.836	-147.316	0.278	0.024
-581.821	745.163	-0.094	-0.254
-580.806	647.874	-0.117	-0.299
-579.792	-11.641	0.084	0.055
-578.777	294.594	0.112	0.204
-577.763	-32.475	-0.251	0.139
-576.748	-57.698	-0.288	-0.126
-575.733	-97.121	-0.111	-0.029
-574.719	-200.000	0.006	-0.052
-573.704	-43.803	-0.257	0.129
-572.690	512.677	0.105	-0.245
-571.675	51.309	0.127	0.120
-570.661	-35.347	-0.041	-0.022
-569.646	124.898	0.029	-0.036
-568.631	-60.813	0.074	0.031
-567.617	309.326	0.080	-0.150
-566.602	800.000	0.065	0.215
-565.588	-200.000	0.001	0.052
-564.573	747.289	0.070	0.188
-563.558	74.525	0.113	0.118
-562.544	550.936	0.070	-0.167
-561.529	-91.782	-0.126	-0.036
-560.515	82.805	0.122	-0.132
-559.500	31.484	0.214	-0.183
-558.485	338.484	-0.092	0.179
-557.471	-200.000	0.051	0.508
-556.456	-161.618	-0.192	-0.010
-555.442	-200.000	0.040	-0.255
-554.427	240.233	0.028	0.047
-553.412	-71.798	-0.235	0.087
-552.398	13.793	0.365	-0.283
-551.383	-43.097	-0.106	-0.053
-550.369	-200.000	0.038	-0.197
-549.354	800.000	-0.031	-0.114
-548.339	-200.000	0.003	-0.141
-547.325	739.552	-0.140	0.374
-546.310	-143.655	0.058	-0.006
-545.296	-111.765	0.415	0.084
-544.281	800.000	-0.086	-0.243
-543.266	-200.000	0.022	-0.308
-542.252	-151.518	0.346	0.026
-541.237	345.141	-0.034	0.066
-540.223	-97.228	-0.367	-0.095
-539.208	800.000	0.177	0.500
-538.193	-75.943	-0.140	-0.049
-537.179	-59.300	0.402	-0.172
-536.164	225.175	0.213	-0.344
-535.150	92.122	0.060	-0.067
-534.135	68.696	0.158	-0.162
-533.121	15.476	-0.276	0.216
-532.106	482.115	0.151	-0.341
-531.091	-145.304	0.334	-0.030
-530.077	800.000	0.043	0.138
-529.062	194.093	-0.083	0.125
-528.048	119.688	0.007	0.008
-527.033	19.307	0.192	-0.154
-526.018	-200.000	0.025	-0.236
-525.004	-179.921	0.192	-0.004
-523.989	800.000	0.058	-0.185
-522.975	197.698	-0.104	-0.158
-521.960	-79.910	0.201	0.067
-520.945	366.196	-0.062	0.124
-519.931	800.000	-0.030	-0.110
-518.916	596.725	0.070	-0.173
-517.902	-46.754	-0.141	0.069
-516.887	776.906	0.073	-0.200
-515.872	16.795	-0.142	-0.112
-514.858	-69.053	0.455	0.175
-513.843	-57.098	0.344	-0.151
-512.829	-200.000	-0.019	-0.166
-511.814	-37.144	0.149	0.079
-510.799	-200.000	0.081	-0.353
-509.785	70.104	0.253	-0.260
-508.770	117.602	-0.117	0.143
-507.756	-1.896	0.437	0.306
-506.741	-53.962	-0.050	-0.023
-505.726	77.793	-0.084	0.089
-504.712	-93.677	-0.230	-0.063
-503.697	800.000	-0.051	-0.184
-502.683	-63.874	-0.232	-0.095
-501.668	722.578	-0.097	0.257
-500.653	43.589	-0.132	-0.120
-499.639	-200.000	-0.013	-0.102
-498.624	27.140	0.238	-0.198
-497.610	-56.504	0.164	-0.072
-496.595	-4.545	0.074	0.051
-495.581	-157.398	-0.305	-0.018
-494.566	800.000	-0.167	-0.472
-493.551	-200.000	-0.003	0.141
-492.537	-86.758	0.178	0.054
-491.522	707.897	0.019	-0.050
-490.508	456.622	0.096	-0.211
-489.493	245.475	0.043	0.071
-488.478	175.408	-0.280	-0.403
-487.464	86.572	0.023	-0.025
-486.449	-58.891	-0.098	0.042
-485.435	-6.149	-0.087	0.059
-484.420	-149.208	-0.304	-0.024
-483.405	-12.108	0.259	0.169
-482.391	800.000	-0.024	-0.069
-481.376	-200.000	0.049	0.258
-480.362	132.061	0.125	0.160
-479.347	105.752	0.208	-0.245
-478.332	29.423	0.131	0.111
-477.318	-121.419	0.230	0.038
-476.303	-141.646	-0.265	-0.027
-475.289	141.278	0.114	-0.150
-474.274	800.000	0.143	0.608
-473.259	800.000	0.064	0.180
-472.245	-125.516	0.241	0.036
-471.230	158.433	0.058	0.080
-470.216	-44.822	-0.179	0.089
-469.201	-11.097	0.222	-0.145
-468.186	-115.711	0.268	0.050
-467.172	-65.596	-0.083	-0.033
-466.157	52.571	0.066	-0.063
-465.143	26.322	-0.271	0.225
-464.128	340.746	-0.091	0.176
-463.113	178.743	-0.115	-0.168
-462.099	-117.849	-0.185	0.033
-461.084	-46.418	-0.107	-0.052
-460.070	800.000	-0.046	0.197
-459.055	-29.822	-0.107	0.061
-458.040	33.884	0.053	0.045
-457.026	84.831	-0.398	0.433
-456.011	800.000	0.101	0.291
-454.997	-200.000	-0.003	0.337
-453.982	800.000	0.039	0.163
-452.968	800.000	0.045	0.142
-451.953	138.735	0.122	0.159
-450.938	-8.431	0.217	0.145
-449.924	-65.749	0.198	0.079
-448.909	800.000	0.017	0.052
-447.895	25.570	0.212	0.175
-446.880	295.770	-0.136	0.246
-445.865	-200.000	-0.010	0.125
-444.851	731.823	-0.111	0.294
-443.836	-56.266	0.095	-0.042
-442.822	-167.624	-0.199	0.008
-441.807	-121.154	0.147	0.024
-440.792	192.705	0.090	0.134
-439.778	71.983	-0.231	-0.239
-438.763	800.000	-0.075	-0.213
-437.749	230.501	-0.155	0.252
-436.734	-170.265	0.148	0.005
-435.719	211.252	0.179	-0.280
-434.705	35.546	-0.397	-0.346
-433.690	590.200	-0.097	-0.237
-432.676	57.155	-0.262	-0.254
-431.661	55.646	0.134	-0.128
-430.646	-37.045	0.294	-0.157
-429.632	-15.544	-0.300	-0.190
-428.617	270.636	-0.178	0.310
-427.603	-7.692	-0.197	0.132
-426.588	-43.733	0.482	-0.241
-425.573	-89.760	0.454	-0.132
-424.559	800.000	0.052	0.220
-423.544	-200.000	0.005	-0.044
-422.530	-78.075	-0.090	0.031
-421.515	-200.000	0.009	0.555
-420.500	-181.940	-0.214	-0.004
-419.486	433.166	0.107	0.230
-418.471	-50.806	-0.135	0.063
-417.457	135.051	-0.073	-0.093
-416.442	-103.925	-0.197	-0.046
-415.428	800.000	-0.055	0.236
-414.413	-83.509	0.288	0.091
-413.398	-58.537	0.238	0.103
-412.384	800.000	-0.062	0.181
-411.369	-68.395	-0.109	-0.042
-410.355	-57.800	-0.186	0.081
-409.340	752.799	0.143	-0.384
-408.325	51.840	-0.189	0.178
-407.311	-117.366	-0.230	0.041
-406.296	121.178	0.174	-0.215
-405.282	-59.758	-0.283	0.120
-404.267	800.000	-0.011	-0.033
-403.252	371.246	0.160	0.322
-402.238	188.247	-0.154	0.228
-401.223	-200.000	-0.000	-0.168
-400.209	-10.916	0.184	-0.121
-399.194	-24.076	-0.034	-0.020
-398.179	-86.141	-0.264	0.081
-397.165	-200.000	-0.013	0.070
-396.150	-200.000	0.026	-0.161
-395.136	-7.118	-0.115	0.077
-394.121	105.537	0.133	0.156
-393.106	800.000	-0.033	-0.103
-392.092	46.372	-0.155	0.142
-391.077	-65.347	0.476	0.190
-390.063	55.593	-0.145	-0.139
-389.048	-200.000	-0.048	-0.237
-388.033	-200.000	0.001	0.207
-387.019	0.082	0.243	-0.171
-386.004	-113.887	-0.364	0.070
-384.990	-96.111	0.524	-0.138
-383.975	-200.000	-0.003	-0.045
-382.960	-200.000	0.022	-0.155
-381.946	79.598	0.115	-0.123
-380.931	800.000	0.097	-0.353
-379.917	86.182	0.042	-0.046
-378.902	136.622	-0.187	-0.241
-377.888	800.000	0.048	0.144
-376.873	20.828	-0.201	0.161
-375.858	-114.824	-0.187	-0.035
-374.844	-113.916	-0.117	0.022
-373.829	214.838	-0.228	-0.357
-372.815	-150.964	-0.059	-0.004
-371.800	227.445	-0.298	-0.479
-370.785	498.847	-0.084	-0.192
-369.771	230.262	-0.045	-0.072
-368.756	-81.105	-0.468	0.153
-367.742	65.496	0.126	0.126
-366.727	191.936	0.098	0.146
-365.712	129.478	-0.020	0.026
-364.698	-151.834	0.228	-0.017
-363.683	27.183	0.461	-0.383
-362.669	-133.794	-0.074	0.009
-361.654	-170.418	-0.326	-0.011
-360.639	-85.223	0.161	0.050
-359.625	-121.453	-0.155	-0.026
-358.610	-145.025	-0.171	-0.015
-357.596	-89.410	0.318	0.092
-356.581	106.391	0.060	0.071
-355.566	-84.085	0.183	-0.057
-354.552	-116.658	0.133	0.024
-353.537	-161.890	-0.177	0.009
-352.523	27.608	-0.199	-0.165
-351.508	212.318	-0.069	0.108
-350.493	-113.546	0.152	0.029
-349.479	513.583	0.165	0.380
-348.464	215.395	-0.059	-0.093
-347.450	-42.529	0.281	-0.142
-346.435	109.204	-0.195	-0.231
-345.420	261.450	-0.090	0.155
-344.406	318.447	0.113	0.211
-343.391	-63.275	0.280	-0.114
-342.377	-1.026	0.241	-0.168
-341.362	-143.307	-0.266	-0.025
-340.348	-50.824	0.071	0.033
-339.333	33.699	-0.181	-0.155
-338.318	800.000	-0.062	0.228
-337.304	162.598	0.075	0.104
-336.289	-200.000	-0.018	-0.261
-335.275	-152.372	0.041	0.003
-334.260	-200.000	0.151	0.000
-333.245	-46.845	-0.080	0.039
-332.231	242.890	-0.219	0.362
-331.216	66.987	-0.176	0.177
-330.202	-140.756	-0.216	0.022
-329.187	59.540	-0.133	0.129
-328.172	184.124	-0.299	0.437
-327.158	-6.402	0.169	-0.114
-326.143	64.140	0.022	-0.022
-325.129	-200.000	-0.019	0.284
-324.114	-110.940	0.296	0.060
-323.099	-144.039	-0.181	-0.017
-322.085	-77.396	-0.599	-0.206
-321.070	-94.531	0.224	-0.060
-320.056	148.577	-0.109	0.146
-319.041	-88.331	0.125	0.037
-318.026	114.338	0.196	-0.236
-317.012	325.588	0.087	-0.164
-315.997	-70.187	0.366	-0.137
-314.983	800.000	-0.034	-0.099
-313.968	-33.363	-0.188	-0.103
-312.953	-35.999	0.254	0.136
-311.939	405.397	0.123	-0.257
-310.924	-63.061	0.319	0.130
-309.910	-200.000	0.005	0.280
-308.895	-42.574	-0.275	0.138
-307.880	203.583	-0.074	0.114
-306.866	800.000	0.084	-0.280
-305.851	-84.849	-0.232	0.072
-304.837	800.000	-0.039	-0.131
-303.822	251.349	-0.218	0.366
-302.807	-200.000	0.007	0.167
-301.793	-97.210	0.117	0.030
-300.778	-74.887	-0.129	0.046
-299.764	-200.000	-0.012	0.241
-298.749	-200.000	0.009	-0.047
-297.735	16.667	-0.188	0.147
-296.720	123.705	0.153	0.190
-295.705	-137.102	0.069	-0.008
-294.691	292.290	0.205	-0.368
-293.676	800.000	0.062	0.219
-292.662	50.145	-0.220	0.205
-291.647	-200.000	-0.116	0.511
-290.632	6.770	0.085	0.062
-289.618	138.697	-0.152	0.198
-288.603	-200.000	0.021	-0.282
-287.589	-200.000	-0.036	0.400
-286.574	-10.250	-0.041	0.027
-285.559	-200.000	0.010	-0.145
-284.545	-133.695	-0.068	-0.008
-283.530	-200.000	0.010	-0.388
-282.516	-51.696	0.115	-0.053
-281.501	495.874	0.119	0.269
-280.486	127.062	0.085	0.106
-279.472	16.067	-0.032	-0.025
-278.457	214.224	0.000	-0.001
-277.443	221.511	-0.118	-0.186
-276.428	40.749	0.255	-0.227
-275.413	-44.764	0.199	-0.098
-274.399	-49.239	-0.147	0.069
-273.384	800.000	0.055	0.194
-272.370	-200.000	0.024	0.219
-271.355	296.977	-0.127	-0.229
-270.340	800.000	0.054	-0.210
-269.326	-160.730	0.161	-0.008
-268.311	-70.399	-0.197	0.074
-267.297	7.968	0.117	0.087
-266.282	328.326	0.016	0.031
-265.267	-124.760	0.282	0.043
-264.253	-15.738	-0.462	-0.290
-263.238	392.141	-0.035	-0.071
-262.224	-200.000	-0.012	0.075
-261.209	-120.203	-0.097	-0.016
-260.195	69.351	0.048	0.049
-259.180	57.309	0.141	0.135
-258.165	-200.000	-0.010	-0.146
-257.151	3.779	-0.222	-0.160
-256.136	17.364	-0.255	-0.200
-255.122	-94.730	-0.246	0.066
-254.107	197.572	0.253	0.381
-253.092	293.821	0.103	-0.186
-252.078	-7.751	-0.178	0.118
-251.063	275.189	-0.053	-0.093
-250.049	-200.000	0.006	-0.030
-249.034	80.630	-0.334	-0.355
-248.019	-63.659	-0.087	0.035
-247.005	-80.714	-0.119	-0.039
-245.990	185.057	-0.074	0.108
-244.976	35.505	-0.188	0.162
-243.961	165.785	0.053	0.074
-242.946	-200.000	0.048	-0.242
-241.932	-114.070	0.230	0.044
-240.917	200.639	0.130	-0.197
-239.903	-33.503	-0.354	-0.192
-238.888	-200.000	0.020	-0.278
-237.873	-129.573	0.191	-0.026
-236.859	65.764	0.070	0.070
-235.844	-200.000	0.007	0.219
-234.830	-27.087	-0.086	-0.050
-233.815	-200.000	0.058	-0.262
-232.800	-200.000	-0.032	-0.355
-231.786	-184.626	-0.130	0.002
-230.771	-86.175	0.192	-0.058
-229.757	103.562	-0.073	0.084
-228.742	36.682	0.136	-0.119
-227.727	225.390	-0.058	0.092
-226.713	176.153	-0.080	-0.114
-225.698	-157.005	0.136	-0.008
-224.684	800.000	-0.051	0.185
-223.669	-109.797	-0.350	0.072
-222.655	182.891	-0.199	0.289
-221.640	-170.129	0.162	-0.006
-220.625	-115.336	0.146	-0.027
-219.611	43.929	-0.072	-0.065
-218.596	-200.000	-0.078	-0.349
-217.582	-94.629	-0.185	0.050
-216.567	800.000	0.028	0.091
-215.552	-200.000	0.004	-0.042
-214.538	-56.686	0.310	0.135
-213.523	-45.846	-0.081	-0.039
-212.509	-122.439	-0.176	0.028
-211.494	800.000	0.066	0.267
-210.479	526.787	-0.058	0.133
-209.465	241.210	-0.154	0.253
-208.450	28.660	0.254	0.211
-207.436	800.000	0.074	0.255
-206.421	-200.000	0.006	0.247
-205.406	345.054	0.105	-0.202
-204.392	406.380	0.144	-0.298
-203.377	31.078	0.214	0.180
-202.363	-200.000	0.023	0.609
-201.348	-160.287	-0.255	-0.014
-200.333	23.940	-0.187	-0.152
-199.319	-113.519	-0.189	-0.036
-198.304	-200.000	0.002	-0.259
-197.290	345.304	-0.055	0.107
-196.275	-43.354	-0.096	0.048
-195.260	800.000	-0.070	-0.259
-194.246	800.000	-0.081	-0.235
-193.231	800.000	0.151	-0.511
-192.217	-117.711	0.241	-0.043
-191.202	210.062	0.103	0.159
-190.187	-200.000	0.005	-0.276
-189.173	-200.000	0.009	0.253
-188.158	-53.482	0.229	0.103
-187.144	-144.746	0.319	-0.029
-186.129	-161.253	0.196	0.010
-185.114	-200.000	0.001	0.169
-184.100	800.000	0.025	-0.104
-183.085	14.889	-0.056	-0.043
-182.071	65.693	-0.104	0.103
-181.056	0.484	0.114	0.080
-180.042	710.182	-0.056	0.146
-179.027	499.773	-0.002	0.006
-178.012	-38.314	-0.235	0.122
-176.998	-3.445	0.234	-0.160
-175.983	44.155	-0.242	-0.218
-174.969	33.307	0.195	0.166
-173.954	86.547	-0.125	-0.135
-172.939	-123.244	-0.149	0.023
-171.925	123.978	0.126	0.155
-170.910	-139.721	-0.125	0.013
-169.896	-185.949	-0.168	0.002
-168.881	800.000	-0.093	0.304
-167.866	-109.856	-0.255	-0.052
-166.852	93.993	0.089	-0.099
-165.837	-200.000	-0.012	-0.104
-164.823	227.644	0.076	-0.121
-163.808	667.143	0.103	0.260
-162.793	800.000	0.016	-0.053
-161.779	158.421	-0.270	-0.368
-160.764	130.760	-0.052	0.065
-159.750	-200.000	-0.024	-0.125
-158.735	-70.220	-0.248	-0.093
-157.720	-138.874	0.124	-0.013
-156.706	-138.307	0.077	-0.008
-155.691	-192.427	-0.233	0.002
-154.677	-200.000	-0.024	-0.141
-153.662	94.031	0.035	0.039
-152.647	204.658	-0.130	-0.198
-151.633	-200.000	0.000	-0.285
-150.618	-72.916	0.150	-0.054
-149.604	800.000	0.129	0.368
-148.589	-200.000	0.009	-0.133
-147.574	111.968	-0.138	-0.163
-146.560	-123.827	0.329	-0.051
-145.545	-200.000	0.009	-0.129
-144.531	-149.607	-0.301	-0.023
-143.516	-200.000	-0.064	-0.439
-142.502	-116.276	0.261	-0.047
-141.487	-84.024	-0.235	0.073
-140.472	335.323	-0.022	-0.041
-139.458	-154.636	0.224	0.015
-138.443	-158.706	0.465	-0.026
-137.429	34.350	0.202	0.173
-136.414	800.000	-0.037	0.127
-135.399	-122.931	-0.240	-0.038
-134.385	260.278	0.127	0.215
-133.370	-139.494	0.179	-0.019
-132.356	255.135	-0.008	0.013
-131.341	-200.000	0.023	0.161
-130.326	193.981	0.061	0.091
-129.312	12.491	-0.062	-0.047
-128.297	39.626	-0.315	0.277
-127.283	-41.321	0.148	0.075
-126.268	800.000	0.060	-0.255
-125.253	-106.275	0.017	-0.004
-124.239	-71.130	-0.073	0.027
-123.224	153.006	0.061	-0.081
-122.210	342.563	-0.066	-0.127
-121.195	-139.927	-0.193	0.020
