DTS Sentinel unit serial number:	SN413079Multiplexer serial number:	ORYXHardware model number:	OX4-SRSoftware version number:	ORYX F/W v4.00 Oryx Data Collector v3.7.2.0data status	okinstallation	princeton_trtdifferential loss correction	single-endedforward channel	channel 1reverse channel	N/Adate	2019/09/16time	18:22:35forward acquisition time	60.00reverse acquisition time	0.00gamma	496.2192k internal	0.2304k external	0.2304temperature offset calibration	0.9971default loss term (dB/km)	0.3790temperature slope calibration	1.0000multiplexer offset coefficient	1.0000multiplexer slope coefficient	1.0000fibre end	0.00T internal ref (°C)	36.87T ext. ref 1 (°C)	15.77T ext. ref 2 (°C)	30.37length (m)	temperature (°C)	Stokes	anti-Stokes-747.200	-16.825	0.098	-0.063
-746.185	-11.909	-0.199	-0.133
-745.171	-200.000	0.018	-0.364
-744.156	-200.000	0.018	-0.193
-743.142	508.072	-0.068	0.160
-742.127	371.242	0.101	0.208
-741.112	-200.000	0.011	-0.062
-740.098	-151.277	-0.208	-0.016
-739.083	-200.000	-0.005	-0.157
-738.069	-46.809	-0.234	-0.116
-737.054	-115.644	-0.255	0.049
-736.039	4.528	-0.281	0.210
-735.025	-200.000	0.005	0.207
-734.010	-131.041	-0.194	0.026
-732.996	100.012	-0.134	0.158
-731.981	118.915	-0.203	-0.255
-730.966	-6.841	-0.455	0.315
-729.952	75.646	-0.076	-0.082
-728.937	259.743	-0.193	-0.339
-727.923	221.183	-0.144	0.236
-726.908	-90.789	-0.412	0.121
-725.894	248.954	-0.030	0.051
-724.879	-15.497	0.088	-0.057
-723.864	126.731	-0.055	-0.071
-722.850	800.000	-0.057	0.207
-721.835	-107.914	0.184	0.041
-720.821	-16.209	0.032	0.021
-719.806	-11.535	-0.178	0.119
-718.791	36.640	-0.359	-0.322
-717.777	51.178	0.126	-0.122
-716.762	-95.931	0.137	0.037
-715.748	476.221	0.055	0.126
-714.733	-108.819	-0.181	0.039
-713.718	-200.000	-0.013	-0.255
-712.704	-126.889	-0.294	-0.044
-711.689	-121.927	0.271	0.045
-710.675	80.209	0.280	0.307
-709.660	-200.000	-0.011	0.092
-708.645	97.451	-0.146	-0.171
-707.631	14.579	-0.302	-0.240
-706.616	800.000	0.051	-0.197
-705.602	242.652	0.024	0.041
-704.587	7.935	0.038	0.029
-703.572	626.785	0.050	-0.127
-702.558	24.621	0.142	0.119
-701.543	-200.000	0.017	-0.238
-700.529	126.051	0.141	-0.181
-699.514	108.909	0.044	0.053
-698.499	-45.655	0.105	0.053
-697.485	52.643	-0.104	0.101
-696.470	32.079	0.422	-0.370
-695.456	518.348	0.137	-0.326
-694.441	28.771	-0.186	0.160
-693.426	-200.000	0.003	-0.146
-692.412	-149.587	0.336	-0.027
-691.397	-200.000	0.029	-0.237
-690.383	-183.847	-0.627	-0.011
-689.368	469.340	0.052	0.118
-688.354	153.118	-0.110	0.153
-687.339	-200.000	0.038	-0.227
-686.324	22.135	0.242	-0.201
-685.310	800.000	0.065	-0.285
-684.295	-72.240	-0.121	0.045
-683.281	702.628	-0.021	0.057
-682.266	89.880	0.088	0.100
-681.251	45.290	-0.393	0.369
-680.237	-65.223	-0.253	-0.103
-679.222	-169.322	0.351	-0.013
-678.208	-83.103	-0.049	-0.016
-677.193	249.359	0.030	0.052
-676.178	-200.000	-0.008	0.174
-675.164	-166.362	0.283	-0.012
-674.149	-111.646	-0.153	-0.031
-673.135	151.625	-0.039	0.053
-672.120	-49.271	0.080	-0.039
-671.105	800.000	-0.089	0.305
-670.091	391.293	-0.151	-0.318
-669.076	747.995	0.058	-0.158
-668.062	80.585	-0.140	0.154
-667.047	-151.019	-0.073	-0.006
-666.032	800.000	-0.082	0.238
-665.018	-112.305	0.096	-0.020
-664.003	800.000	-0.078	0.256
-662.989	111.353	-0.107	0.131
-661.974	155.465	0.130	0.182
-660.959	800.000	0.005	-0.017
-659.945	163.794	0.160	-0.229
-658.930	27.707	-0.188	-0.161
-657.916	-7.631	0.076	-0.052
-656.901	-125.455	-0.265	0.041
-655.886	-46.459	-0.081	-0.040
-654.872	128.526	-0.119	0.154
-653.857	-50.468	0.228	0.109
-652.843	157.902	0.047	0.066
-651.828	109.781	-0.228	-0.278
-650.814	-93.745	0.349	0.098
-649.799	-1.872	-0.066	0.047
-648.784	-9.116	-0.063	-0.043
-647.770	232.532	-0.090	-0.150
-646.755	-52.481	0.043	0.020
-645.741	-198.226	-0.234	0.001
-644.726	374.169	-0.233	0.481
-643.711	-86.244	-0.216	-0.068
-642.697	-86.933	-0.159	-0.049
-641.682	74.443	0.103	0.110
-640.668	96.445	0.219	-0.254
-639.653	-200.000	0.030	-0.257
-638.638	383.383	0.084	-0.176
-637.624	-178.248	0.222	-0.005
-636.609	-198.410	0.092	0.001
-635.595	451.079	0.053	-0.119
-634.580	89.057	0.130	-0.147
-633.565	74.513	-0.140	-0.149
-632.551	218.532	0.129	0.209
-631.536	-173.761	-0.343	-0.010
-630.522	-103.477	-0.053	0.013
-629.507	-54.112	-0.216	0.100
-628.492	800.000	0.084	-0.325
-627.478	-102.210	0.281	-0.068
-626.463	-78.208	0.070	-0.024
-625.449	-88.221	-0.394	-0.119
-624.434	-200.000	-0.009	-0.113
-623.419	13.259	-0.303	-0.238
-622.405	111.147	0.016	0.020
-621.390	101.522	-0.253	0.298
-620.376	-89.871	0.086	-0.026
-619.361	-36.933	0.070	0.038
-618.346	-200.000	0.015	-0.088
-617.332	800.000	0.058	-0.235
-616.317	45.681	0.188	-0.176
-615.303	-200.000	-0.025	-0.294
-614.288	66.310	0.129	-0.133
-613.273	-200.000	-0.003	-0.021
-612.259	26.297	0.106	-0.090
-611.244	127.360	-0.295	-0.379
-610.230	45.230	-0.147	0.137
-609.215	93.756	-0.265	-0.305
-608.201	26.074	0.125	0.106
-607.186	-6.477	-0.051	-0.035
-606.171	-49.380	-0.159	-0.077
-605.157	-200.000	-0.015	0.243
-604.142	105.087	0.210	-0.250
-603.128	28.339	-0.092	0.078
-602.113	800.000	0.039	0.165
-601.098	-125.749	0.176	-0.027
-600.084	-200.000	0.020	-0.197
-599.069	-20.814	-0.214	-0.133
-598.055	396.804	-0.113	-0.239
-597.040	321.493	-0.170	-0.328
-596.025	-66.019	-0.329	0.133
-595.011	116.741	0.194	-0.241
-593.996	-111.016	0.283	-0.059
-592.982	-200.000	-0.013	0.251
-591.967	-200.000	-0.009	-0.298
-590.952	-157.278	-0.113	-0.007
-589.938	-21.970	-0.162	0.100
-588.923	-200.000	0.056	-0.311
-587.909	-86.835	-0.422	0.130
-586.894	567.334	0.151	0.371
-585.879	26.165	-0.051	0.043
-584.865	123.647	0.147	-0.187
-583.850	131.736	-0.120	-0.156
-582.836	-122.857	0.426	0.070
-581.821	100.558	-0.106	0.124
-580.806	-200.000	-0.006	0.286
-579.792	800.000	0.076	0.241
-578.777	253.483	-0.157	-0.271
-577.763	-143.106	-0.199	0.019
-576.748	-116.096	0.205	0.039
-575.733	188.352	-0.056	0.085
-574.719	-200.000	0.055	0.291
-573.704	800.000	0.068	-0.203
-572.690	-200.000	-0.052	-0.247
-571.675	-64.415	-0.066	-0.027
-570.661	800.000	0.023	0.085
-569.646	-130.788	0.089	0.012
-568.631	-200.000	0.011	-0.246
-567.617	-104.293	-0.164	-0.039
-566.602	557.301	0.151	-0.367
-565.588	-49.531	0.228	-0.110
-564.573	-79.988	0.116	0.039
-563.558	-102.274	0.251	0.061
-562.544	389.689	-0.119	-0.250
-561.529	7.711	0.177	-0.134
-560.515	-200.000	-0.002	-0.251
-559.500	-94.576	0.030	0.008
-558.485	268.696	-0.171	0.303
-557.471	194.899	-0.049	0.074
-556.456	663.907	-0.051	0.133
-555.442	-138.441	0.217	-0.024
-554.427	-200.000	0.038	0.240
-553.412	-101.526	-0.084	0.021
-552.398	-200.000	0.018	-0.463
-551.383	-200.000	-0.010	-0.069
-550.369	-72.232	-0.193	0.072
-549.354	-144.036	-0.118	0.011
-548.339	-200.000	0.018	0.084
-547.325	800.000	-0.034	-0.110
-546.310	-85.927	0.066	-0.021
-545.296	149.424	0.144	0.197
-544.281	280.534	-0.149	0.270
-543.266	-27.793	-0.131	-0.077
-542.252	-34.528	-0.257	0.142
-541.237	220.203	-0.286	-0.463
-540.223	-149.923	-0.283	-0.022
-539.208	-34.609	-0.262	0.145
-538.193	9.780	0.192	0.147
-537.179	138.569	0.136	-0.181
-536.164	-29.961	-0.221	-0.127
-535.150	217.151	-0.142	0.228
-534.135	124.171	0.137	-0.174
-533.121	120.865	0.245	-0.308
-532.106	-24.235	-0.361	-0.218
-531.091	-15.596	-0.050	-0.032
-530.077	22.080	-0.116	-0.096
-529.062	-142.955	-0.131	0.013
-528.048	-200.000	0.013	0.148
-527.033	108.318	0.193	0.233
-526.018	-10.607	-0.191	-0.128
-525.004	83.488	-0.186	-0.204
-523.989	-200.000	-0.014	0.083
-522.975	106.410	-0.094	0.113
-521.960	-200.000	-0.042	-0.227
-520.945	800.000	-0.026	0.083
-519.931	29.373	-0.280	-0.240
-518.916	-76.443	-0.238	0.085
-517.902	69.288	0.109	-0.113
-516.887	669.407	0.054	-0.141
-515.872	353.560	-0.082	-0.164
-514.858	-87.815	0.164	0.050
-513.843	-51.335	-0.359	-0.170
-512.829	-61.961	0.303	-0.128
-511.814	-21.941	-0.074	-0.045
-510.799	103.074	0.126	-0.150
-509.785	-200.000	0.031	0.472
-508.770	703.527	-0.045	-0.120
-507.756	34.806	0.210	0.185
-506.741	345.724	-0.037	0.072
-505.726	-200.000	-0.014	0.429
-504.712	74.492	0.283	0.300
-503.697	-90.905	-0.343	-0.100
-502.683	19.934	-0.331	-0.269
-501.668	800.000	-0.136	-0.592
-500.653	-141.992	-0.116	-0.012
-499.639	-73.192	-0.315	0.117
-498.624	800.000	-0.035	0.120
-497.610	202.650	-0.114	-0.178
-496.595	149.059	-0.060	-0.082
-495.581	-50.427	-0.326	-0.155
-494.566	322.489	-0.115	-0.221
-493.551	144.105	-0.027	-0.036
-492.537	787.091	0.024	-0.067
-491.522	3.601	0.439	-0.323
-490.508	491.362	-0.088	-0.203
-489.493	-200.000	0.018	0.279
-488.478	-110.061	-0.373	0.079
-487.464	-200.000	0.055	0.299
-486.449	-172.704	0.091	-0.003
-485.435	-95.130	-0.197	0.054
-484.420	709.842	0.054	0.145
-483.405	338.506	-0.056	-0.109
-482.391	-108.588	0.358	0.077
-481.376	-58.941	0.236	-0.103
-480.362	23.356	-0.178	0.148
-479.347	-59.355	-0.144	-0.062
-478.332	45.410	0.101	-0.094
-477.318	768.909	0.053	-0.146
-476.303	-85.490	0.069	0.022
-475.289	-200.000	-0.062	-0.357
-474.274	0.295	0.315	0.226
-473.259	-145.680	0.182	0.016
-472.245	-141.413	0.106	0.011
-471.230	-3.400	-0.117	-0.082
-470.216	39.816	0.331	0.299
-469.201	225.587	0.055	-0.090
-468.186	24.561	-0.311	0.259
-467.172	800.000	0.140	0.585
-466.157	800.000	-0.084	-0.255
-465.143	287.330	0.082	0.149
-464.128	-82.900	-0.466	-0.152
-463.113	-136.155	0.139	-0.016
-462.099	-164.009	-0.055	-0.003
-461.084	-200.000	0.005	-0.127
-460.070	800.000	0.064	-0.204
-459.055	60.719	0.100	0.100
-458.040	-70.829	-0.184	0.070
-457.026	-158.777	0.234	-0.013
-456.011	1.424	0.174	-0.126
-454.997	723.710	-0.081	-0.218
-453.982	-154.962	0.167	0.011
-452.968	-45.648	0.468	-0.233
-451.953	311.287	0.107	-0.203
-450.938	800.000	0.027	0.082
-449.924	-73.450	-0.263	0.097
-448.909	-63.427	-0.202	-0.084
-447.895	-49.932	0.082	0.039
-446.880	-200.000	-0.044	-0.210
-445.865	449.534	-0.095	0.210
-444.851	-71.891	0.175	0.066
-443.836	-200.000	-0.079	-0.371
-442.822	276.638	-0.103	0.185
-441.807	181.129	-0.119	0.176
-440.792	247.756	-0.075	-0.128
-439.778	76.026	-0.151	-0.160
-438.763	130.706	-0.222	-0.286
-437.749	8.374	0.105	-0.080
-436.734	-137.664	-0.059	0.007
-435.719	204.642	-0.154	-0.240
-434.705	800.000	0.074	-0.287
-433.690	800.000	0.060	0.208
-432.676	-200.000	0.019	0.290
-431.661	35.307	-0.115	0.101
-430.646	31.628	0.059	-0.051
-429.632	21.956	-0.207	0.169
-428.617	444.798	-0.173	0.382
-427.603	800.000	-0.098	-0.356
-426.588	-120.415	0.312	0.053
-425.573	-103.312	0.141	-0.033
-424.559	-120.874	-0.263	-0.044
-423.544	-172.275	0.177	-0.006
-422.530	-145.126	-0.243	0.022
-421.515	-200.000	-0.019	-0.144
-420.500	-27.774	0.274	0.160
-419.486	45.301	-0.199	-0.185
-418.471	286.006	0.129	0.234
-417.457	-22.389	-0.117	0.071
-416.442	356.062	-0.117	0.233
-415.428	800.000	-0.074	0.278
-414.413	270.253	-0.082	0.145
-413.398	195.460	-0.033	0.051
-412.384	221.354	-0.071	-0.115
-411.369	-200.000	0.029	0.177
-410.355	800.000	-0.062	-0.265
-409.340	-200.000	-0.028	-0.234
-408.325	-131.457	0.195	0.026
-407.311	-74.770	-0.383	0.138
-406.296	800.000	-0.065	0.234
-405.282	169.517	0.093	-0.134
-404.267	528.522	0.092	0.218
-403.252	-70.376	-0.147	-0.056
-402.238	-200.000	-0.005	0.312
-401.223	274.654	0.144	0.256
-400.209	159.909	-0.125	0.176
-399.194	-73.317	0.276	-0.101
-398.179	-83.242	-0.072	-0.023
-397.165	281.849	0.077	-0.139
-396.150	-200.000	0.006	0.180
-395.136	-181.243	0.055	-0.001
-394.121	78.059	-0.004	0.004
-393.106	-200.000	-0.015	-0.148
-392.092	-48.771	-0.090	0.043
-391.077	427.466	-0.063	0.136
-390.063	46.440	0.040	0.037
-389.048	-177.665	0.143	-0.003
-388.033	-6.889	-0.132	0.090
-387.019	800.000	0.104	-0.402
-386.004	-140.421	-0.228	-0.024
-384.990	800.000	0.081	0.252
-383.975	-200.000	0.021	-0.118
-382.960	415.090	-0.062	0.132
-381.946	166.276	0.139	0.198
-380.931	-32.381	-0.189	-0.106
-379.917	-200.000	0.016	-0.301
-378.902	-53.235	-0.035	0.016
-377.888	-117.336	0.085	-0.015
-376.873	344.941	-0.093	-0.184
-375.858	107.209	-0.030	0.036
-374.844	-200.000	0.015	-0.203
-373.829	-89.918	0.216	-0.063
-372.815	-14.881	-0.054	0.035
-371.800	55.533	0.190	0.185
-370.785	-23.367	-0.241	0.146
-369.771	158.913	0.044	0.062
-368.756	800.000	-0.024	0.080
-367.742	72.704	-0.280	0.293
-366.727	800.000	0.015	0.057
-365.712	-200.000	0.027	0.213
-364.698	20.803	0.128	0.104
-363.683	-93.415	-0.219	0.061
-362.669	202.780	-0.068	0.105
-361.654	-59.942	0.254	0.109
-360.639	182.837	-0.070	0.104
-359.625	67.182	-0.198	-0.202
-358.610	-141.087	-0.212	0.022
-357.596	800.000	-0.049	0.174
-356.581	0.891	-0.304	0.218
-355.566	-200.000	0.003	0.039
-354.552	-51.282	0.167	0.078
-353.537	30.837	-0.263	0.226
-352.523	30.771	-0.266	0.228
-351.508	-175.847	-0.052	0.001
-350.493	-107.326	-0.364	-0.080
-349.479	-200.000	0.000	-0.013
-348.464	-200.000	0.015	-0.070
-347.450	-200.000	-0.015	0.127
-346.435	-200.000	-0.014	0.277
-345.420	-200.000	-0.012	0.124
-344.406	-48.337	-0.080	-0.039
-343.391	-10.459	0.184	-0.122
-342.377	-152.070	-0.174	0.013
-341.362	-61.728	-0.304	-0.128
-340.348	129.177	0.152	0.194
-339.333	-119.604	0.189	-0.033
-338.318	525.620	0.107	-0.254
-337.304	800.000	0.040	0.137
-336.289	174.748	-0.156	0.226
-335.275	-194.701	-0.195	0.002
-334.260	-168.271	0.106	0.004
-333.245	37.983	0.409	0.364
-332.231	800.000	-0.065	0.236
-331.216	-54.240	0.350	0.159
-330.202	427.984	0.047	-0.101
-329.187	-180.113	-0.215	-0.005
-328.172	-176.692	-0.433	0.011
-327.158	-200.000	0.080	0.000
-326.143	385.730	0.074	0.153
-325.129	-63.917	0.293	-0.120
-324.114	89.213	-0.045	-0.051
-323.099	192.300	-0.086	-0.130
-322.085	-46.714	0.228	-0.112
-321.070	646.365	0.192	0.491
-320.056	286.587	-0.084	0.152
-319.041	800.000	-0.027	-0.094
-318.026	-53.468	0.056	-0.026
-317.012	-200.000	-0.022	0.109
-315.997	432.671	-0.083	0.179
-314.983	296.455	0.101	-0.185
-313.968	-200.000	0.020	0.115
-312.953	-31.553	0.386	0.217
-311.939	37.272	0.019	0.017
-310.924	623.451	-0.102	0.257
-309.910	-20.745	0.114	0.070
-308.895	-200.000	-0.014	0.103
-307.880	145.160	0.106	-0.141
-306.866	-190.663	0.185	0.002
-305.851	800.000	0.071	-0.211
-304.837	-70.089	0.215	-0.082
-303.822	-200.000	0.016	-0.169
-302.807	-200.000	0.030	0.370
-301.793	-40.194	-0.283	0.147
-300.778	125.443	-0.157	-0.198
-299.764	-156.799	0.292	-0.018
-298.749	210.868	-0.136	-0.213
-297.735	-60.617	-0.024	0.010
-296.720	18.827	-0.196	-0.157
-295.705	-200.000	0.004	-0.119
-294.691	166.060	0.084	-0.119
-293.676	-200.000	0.001	0.058
-292.662	292.745	0.138	0.252
-291.647	82.120	0.043	-0.046
-290.632	6.341	0.347	0.257
-289.618	-63.529	-0.036	-0.015
-288.603	-38.017	-0.188	-0.100
-287.589	-79.223	-0.512	0.174
-286.574	800.000	-0.069	0.261
-285.559	217.032	0.187	0.298
-284.545	428.909	0.050	0.108
-283.530	800.000	-0.042	0.145
-282.516	-200.000	-0.004	0.109
-281.501	-32.343	0.422	0.235
-280.486	-200.000	-0.036	-0.264
-279.472	-78.931	0.299	0.102
-278.457	800.000	-0.030	0.117
-277.443	403.545	0.009	-0.019
-276.428	-74.319	0.406	-0.147
-275.413	592.270	0.028	-0.068
-274.399	4.504	0.112	-0.082
-273.384	332.613	0.055	-0.107
-272.370	71.964	0.138	-0.143
-271.355	-200.000	-0.021	-0.275
-270.340	49.491	-0.088	0.083
-269.326	-88.747	0.095	-0.028
-268.311	-48.853	0.319	0.153
-267.297	154.025	0.185	0.254
-266.282	305.110	0.023	-0.043
-265.267	-165.218	0.137	0.006
-264.253	597.793	0.084	0.209
-263.238	379.668	-0.065	0.133
-262.224	-99.612	-0.117	0.029
-261.209	-138.413	-0.241	0.027
-260.195	-154.382	0.331	-0.022
-259.180	-96.397	0.267	-0.071
-258.165	17.187	0.279	0.221
-257.151	-27.997	0.149	-0.086
-256.136	-73.382	0.211	0.077
-255.122	-141.335	0.295	-0.030
-254.107	-200.000	0.029	-0.290
-253.092	53.784	0.138	-0.132
-252.078	-200.000	-0.015	-0.095
-251.063	100.787	0.108	-0.126
-250.049	190.270	0.136	0.204
-249.034	546.561	0.098	-0.234
-248.019	-110.706	0.279	-0.058
-247.005	180.535	-0.138	0.202
-245.990	360.600	-0.121	-0.243
-244.976	-35.404	-0.075	-0.040
-243.961	-49.485	0.136	-0.065
-242.946	800.000	0.035	-0.106
-241.932	210.543	-0.105	0.164
-240.917	136.217	0.113	0.148
-239.903	-11.208	0.177	-0.116
-238.888	-200.000	-0.020	0.146
-237.873	-27.466	-0.225	0.131
-236.859	-200.000	0.036	0.233
-235.844	322.006	0.034	0.064
-234.830	800.000	0.060	-0.244
-233.815	-200.000	-0.007	0.056
-232.800	-51.185	0.198	-0.093
-231.786	-200.000	-0.004	-0.359
-230.771	-25.046	0.193	0.114
-229.757	31.074	0.181	0.155
-228.742	-200.000	-0.044	0.204
-227.727	113.392	0.120	-0.145
-226.713	-53.700	0.130	0.059
-225.698	-89.354	-0.105	0.031
-224.684	-157.983	-0.049	-0.003
-223.669	-98.408	0.339	-0.087
-222.655	1.580	-0.012	-0.009
-221.640	800.000	-0.050	0.207
-220.625	800.000	0.098	0.312
-219.611	-200.000	-0.044	-0.219
-218.596	-200.000	0.009	0.371
-217.582	101.767	0.170	0.198
-216.567	170.616	0.118	-0.168
-215.552	-73.718	-0.198	-0.072
-214.538	800.000	0.083	-0.278
-213.523	-169.820	-0.196	0.007
-212.509	-46.387	0.164	-0.080
-211.494	19.751	0.193	-0.155
-210.479	31.825	-0.138	0.118
-209.465	-43.455	0.155	-0.078
-208.450	-83.096	-0.179	-0.058
-207.436	212.539	0.044	0.069
-206.421	-16.008	-0.059	-0.037
-205.406	-57.297	-0.273	-0.120
-204.392	-179.070	0.130	0.003
-203.377	-200.000	-0.194	-0.000
-202.363	14.438	-0.226	-0.176
-201.348	697.602	-0.088	-0.231
-200.333	-83.048	-0.144	-0.046
-199.319	459.987	0.094	-0.208
-198.304	395.501	0.070	0.146
-197.290	-46.902	0.179	0.087
-196.275	99.571	-0.021	-0.024
-195.260	1.718	0.183	0.131
-194.246	-80.321	0.375	-0.125
-193.231	-200.000	0.008	-0.068
-192.217	-111.585	0.415	0.084
-191.202	415.148	-0.018	-0.038
-190.187	-22.382	-0.262	-0.158
-189.173	-200.000	0.102	-0.476
-188.158	-10.694	0.228	-0.150
-187.144	-195.695	0.295	0.002
-186.129	73.662	-0.117	0.123
-185.114	-21.308	-0.401	-0.244
-184.100	71.414	0.116	0.120
-183.085	280.513	0.153	0.273
-182.071	-148.275	-0.330	0.027
-181.056	-200.000	-0.020	0.096
-180.042	551.170	-0.187	0.448
-179.027	-44.687	0.088	-0.044
-178.012	67.479	-0.183	0.186
-176.998	-42.282	-0.285	0.145
-175.983	-89.148	0.284	-0.084
-174.969	-123.978	0.205	-0.032
-173.954	-0.398	0.250	-0.177
-172.939	-159.391	-0.293	-0.016
-171.925	191.301	-0.041	0.061
-170.910	153.214	-0.033	0.045
-169.896	-200.000	0.015	0.082
-168.881	583.598	0.032	0.079
-167.866	686.975	0.055	-0.143
-166.852	324.115	0.142	-0.271
-165.837	800.000	-0.048	0.132
-164.823	-22.694	-0.372	0.224
-163.808	-88.905	0.149	0.044
-162.793	-49.087	-0.053	-0.025
-161.779	-109.257	-0.196	-0.041
-160.764	-63.452	0.154	0.063
-159.750	-25.429	0.199	-0.117
-158.735	-200.000	0.021	0.190
-157.720	73.199	0.238	-0.248
-156.706	273.428	0.239	0.420
-155.691	-69.319	-0.219	-0.084
-154.677	-5.216	0.068	-0.046
-153.662	271.568	-0.102	0.179
-152.647	-57.643	0.170	0.074
-151.633	-200.000	0.012	0.264
-150.618	386.599	0.052	0.107
-149.604	272.056	0.103	-0.180
-148.589	-97.875	-0.237	-0.061
-147.574	786.310	-0.081	-0.222
-146.560	-48.798	0.134	0.064
-145.545	371.595	-0.028	-0.057
-144.531	194.492	0.176	-0.266
-143.516	-9.816	-0.321	-0.213
-142.502	-74.629	0.327	0.117
-141.487	569.433	-0.151	-0.366
-140.472	-50.560	0.274	0.129
-139.458	8.359	-0.210	0.157
-138.443	-200.000	-0.006	0.336
-137.429	-200.000	-0.020	-0.180
-136.414	-22.012	-0.171	0.104
-135.399	-200.000	0.071	0.398
-134.385	751.551	0.043	0.115
-133.370	-42.459	0.076	0.039
-132.356	136.901	0.068	0.088
-131.341	70.506	0.093	0.096
-130.326	800.000	0.025	-0.104
-129.312	241.166	-0.025	-0.041
-128.297	16.700	0.286	0.224
-127.283	402.470	0.040	-0.084
-126.268	-68.641	-0.118	0.045
-125.253	-16.833	0.394	0.248
-124.239	-83.906	-0.139	0.044
-123.224	30.310	0.260	-0.220
-122.210	-56.761	-0.154	-0.067
-121.195	-62.933	0.141	-0.058
