DTS Sentinel unit serial number:	SN413079Multiplexer serial number:	ORYXHardware model number:	OX4-SRSoftware version number:	ORYX F/W v4.00 Oryx Data Collector v3.7.2.0data status	okinstallation	princeton_trtdifferential loss correction	single-endedforward channel	channel 1reverse channel	N/Adate	2019/09/16time	06:58:35forward acquisition time	60.00reverse acquisition time	0.00gamma	496.2192k internal	0.2331k external	0.2331temperature offset calibration	0.9985default loss term (dB/km)	0.3790temperature slope calibration	1.0000multiplexer offset coefficient	1.0000multiplexer slope coefficient	1.0000fibre end	0.00T internal ref (°C)	27.36T ext. ref 1 (°C)	11.48T ext. ref 2 (°C)	21.76length (m)	temperature (°C)	Stokes	anti-Stokes-747.200	-68.870	-0.215	-0.084
-746.185	-200.000	0.019	0.194
-745.171	-32.458	0.115	-0.064
-744.156	429.915	-0.027	-0.059
-743.142	800.000	0.060	0.226
-742.127	-158.510	-0.384	0.022
-741.112	-200.000	0.040	0.262
-740.098	-53.726	-0.168	0.077
-739.083	236.216	0.083	-0.137
-738.069	-15.516	-0.354	0.227
-737.054	-200.000	-0.081	0.379
-736.039	-113.449	-0.193	-0.038
-735.025	800.000	-0.034	0.132
-734.010	800.000	0.096	-0.296
-732.996	800.000	-0.140	-0.500
-731.981	11.750	-0.119	-0.092
-730.966	-125.695	0.106	-0.016
-729.952	-120.628	-0.146	0.025
-728.937	-17.168	-0.199	-0.126
-727.923	-200.000	0.026	0.185
-726.908	800.000	-0.028	0.123
-725.894	108.522	-0.164	-0.197
-724.879	-3.907	0.226	-0.158
-723.864	682.152	0.053	-0.139
-722.850	-200.000	0.007	-0.312
-721.835	-132.518	-0.229	0.030
-720.821	-200.000	-0.031	0.288
-719.806	800.000	0.089	0.293
-718.791	158.067	-0.070	-0.097
-717.777	-95.245	-0.035	0.010
-716.762	262.475	-0.053	-0.092
-715.748	20.642	-0.190	-0.154
-714.733	-39.375	-0.206	-0.109
-713.718	-124.908	-0.202	0.031
-712.704	74.687	-0.067	-0.071
-711.689	-16.786	-0.270	0.172
-710.675	68.137	-0.218	0.224
-709.660	-200.000	-0.013	-0.128
-708.645	-200.000	0.031	-0.276
-707.631	-12.926	-0.277	-0.181
-706.616	112.675	0.054	-0.065
-705.602	-200.000	0.004	-0.094
-704.587	-200.000	-0.070	-0.410
-703.572	-126.179	0.129	0.019
-702.558	149.880	-0.080	0.109
-701.543	317.340	-0.105	-0.199
-700.529	7.826	0.150	-0.113
-699.514	179.932	0.060	0.088
-698.499	-161.231	0.338	-0.018
-697.485	-162.727	0.143	0.007
-696.470	-84.068	-0.215	0.069
-695.456	-119.297	0.080	0.014
-694.441	89.227	0.127	0.142
-693.426	-200.000	-0.021	0.101
-692.412	-19.956	0.146	0.091
-691.397	-200.000	-0.011	-0.133
-690.383	1.221	0.201	-0.145
-689.368	-200.000	0.015	0.096
-688.354	-117.451	0.218	-0.040
-687.339	-126.511	-0.113	-0.017
-686.324	11.536	-0.162	-0.125
-685.310	-173.116	-0.099	-0.003
-684.295	-64.875	-0.350	-0.142
-683.281	-18.248	-0.150	-0.094
-682.266	430.018	-0.054	-0.117
-681.251	-200.000	-0.020	-0.231
-680.237	624.200	-0.053	0.134
-679.222	2.613	-0.238	0.173
-678.208	-200.000	0.012	-0.141
-677.193	-200.000	-0.013	-0.378
-676.178	20.242	-0.392	-0.317
-675.164	104.173	0.008	0.010
-674.149	-134.806	-0.180	-0.022
-673.135	-186.080	-0.158	-0.002
-672.120	16.468	0.093	-0.074
-671.105	800.000	-0.053	0.201
-670.091	-169.946	0.222	-0.008
-669.076	-109.619	-0.434	0.092
-668.062	-41.083	-0.077	-0.040
-667.047	-200.000	-0.035	-0.227
-666.032	-63.203	0.324	0.134
-665.018	221.721	0.036	-0.058
-664.003	-200.000	-0.057	0.319
-662.989	-144.391	-0.074	-0.007
-661.974	8.611	0.243	0.183
-660.959	-200.000	0.002	-0.059
-659.945	-48.677	-0.087	-0.042
-658.930	-106.266	0.333	-0.075
-657.916	-200.000	-0.013	-0.074
-656.901	110.486	0.150	-0.181
-655.886	396.586	0.136	0.285
-654.872	-49.904	0.365	-0.174
-653.857	49.464	0.221	-0.208
-652.843	-80.535	-0.299	-0.100
-651.828	-61.356	-0.174	0.073
-650.814	34.419	-0.208	0.182
-649.799	-200.000	-0.041	0.240
-648.784	-88.155	0.041	0.012
-647.770	-16.978	0.102	-0.065
-646.755	20.609	0.205	0.166
-645.741	118.639	-0.229	-0.284
-644.726	56.848	-0.158	-0.154
-643.711	-51.917	0.030	0.014
-642.697	-8.442	0.195	0.132
-641.682	-161.519	-0.283	0.015
-640.668	-69.590	0.113	0.043
-639.653	-26.366	-0.218	0.128
-638.638	-131.053	0.152	-0.020
-637.624	223.898	0.191	-0.309
-636.609	-158.590	0.212	0.012
-635.595	345.388	-0.174	-0.342
-634.580	800.000	-0.092	-0.275
-633.565	105.198	-0.253	-0.299
-632.551	-117.319	0.281	-0.051
-631.536	-200.000	0.008	0.175
-630.522	81.013	0.185	-0.200
-629.507	-163.706	-0.133	0.006
-628.492	58.145	-0.202	-0.198
-627.478	-6.658	-0.087	-0.059
-626.463	-157.468	-0.072	0.004
-625.449	140.057	-0.124	0.164
-624.434	-200.000	-0.032	-0.153
-623.419	427.208	0.134	0.290
-622.405	157.653	-0.203	-0.281
-621.390	-64.088	-0.157	0.064
-620.376	800.000	-0.029	-0.104
-619.361	18.697	0.080	-0.064
-618.346	1.543	-0.207	-0.149
-617.332	-173.657	-0.165	0.005
-616.317	-0.925	0.132	0.093
-615.303	109.872	-0.253	-0.304
-614.288	-200.000	-0.062	-0.393
-613.273	800.000	-0.060	0.206
-612.259	-147.438	0.248	-0.021
-611.244	-108.279	0.182	0.039
-610.230	170.806	0.156	0.224
-609.215	43.743	-0.117	-0.107
-608.201	97.596	-0.111	0.128
-607.186	7.149	0.233	-0.174
-606.171	-98.157	-0.382	0.098
-605.157	-62.442	-0.267	-0.111
-604.142	-200.000	-0.073	0.408
-603.128	-132.079	0.231	-0.030
-602.113	-85.935	-0.231	-0.072
-601.098	-200.000	0.016	0.350
-600.084	440.155	-0.035	0.077
-599.069	11.465	0.143	0.109
-598.055	800.000	0.052	0.227
-597.040	179.492	-0.141	0.207
-596.025	-131.750	0.248	0.033
-595.011	800.000	-0.045	-0.139
-593.996	523.075	-0.130	0.305
-592.982	-200.000	-0.050	0.260
-591.967	92.798	0.127	0.144
-590.952	107.584	-0.201	0.240
-589.938	-22.916	-0.272	0.164
-588.923	-144.705	0.457	0.042
-587.909	58.176	-0.120	-0.118
-586.894	39.370	-0.280	-0.251
-585.879	800.000	-0.029	-0.081
-584.865	14.038	0.210	-0.163
-583.850	-9.963	0.116	-0.077
-582.836	-45.880	-0.167	-0.082
-581.821	800.000	-0.041	0.125
-580.806	-34.899	-0.153	0.084
-579.792	-129.681	-0.077	-0.011
-578.777	98.895	-0.238	0.275
-577.763	-123.500	-0.460	0.073
-576.748	133.641	0.259	0.336
-575.733	79.404	-0.060	-0.064
-574.719	-200.000	0.032	-0.202
-573.704	800.000	-0.106	0.449
-572.690	-151.719	-0.163	-0.012
-571.675	186.907	-0.083	-0.123
-570.661	-129.698	0.083	-0.011
-569.646	-181.796	-0.199	-0.004
-568.631	111.022	-0.220	-0.264
-567.617	272.338	0.056	-0.099
-566.602	156.811	-0.114	0.157
-565.588	50.598	-0.158	-0.150
-564.573	-200.000	0.044	-0.512
-563.558	188.870	-0.059	0.088
-562.544	-200.000	0.012	0.122
-561.529	-109.974	0.054	-0.011
-560.515	-200.000	-0.049	0.314
-559.500	-99.779	-0.159	0.040
-558.485	-200.000	-0.040	0.221
-557.471	-166.668	-0.034	0.001
-556.456	-200.000	0.006	-0.080
-555.442	224.161	-0.008	0.012
-554.427	-164.372	0.100	-0.005
-553.412	800.000	-0.088	0.366
-552.398	-18.389	-0.323	0.202
-551.383	478.927	-0.077	-0.173
-550.369	158.860	-0.184	-0.255
-549.354	-50.052	0.220	-0.104
-548.339	663.553	0.141	0.364
-547.325	-200.000	-0.017	-0.280
-546.310	153.913	0.196	-0.268
-545.296	-47.787	0.155	0.075
-544.281	-33.919	-0.199	0.110
-543.266	-106.466	-0.185	-0.041
-542.252	-33.829	0.258	0.142
-541.237	38.974	0.127	0.113
-540.223	-200.000	-0.012	-0.147
-539.208	105.404	0.167	-0.197
-538.193	112.108	0.094	0.114
-537.179	-200.000	-0.054	-0.375
-536.164	-200.000	-0.002	-0.050
-535.150	149.107	-0.053	-0.072
-534.135	128.644	-0.185	-0.235
-533.121	195.063	0.171	0.259
-532.106	255.068	-0.199	-0.340
-531.091	231.739	0.072	0.118
-530.077	11.553	-0.140	-0.107
-529.062	9.727	-0.203	-0.154
-528.048	-200.000	0.019	-0.132
-527.033	-98.856	-0.099	0.025
-526.018	134.460	0.164	0.212
-525.004	800.000	-0.019	-0.071
-523.989	316.169	-0.021	-0.040
-522.975	196.983	0.054	0.082
-521.960	-57.850	0.250	0.109
-520.945	-200.000	-0.004	0.098
-519.931	624.012	0.090	0.227
-518.916	-38.576	-0.104	0.055
-517.902	-181.421	0.305	0.006
-516.887	-50.235	0.282	-0.133
-515.872	-83.972	0.187	-0.059
-514.858	144.368	-0.129	-0.171
-513.843	-25.478	0.139	-0.082
-512.829	-116.153	-0.335	0.062
-511.814	-200.000	0.038	-0.283
-510.799	-200.000	-0.008	0.266
-509.785	-130.172	-0.381	-0.052
-508.770	38.035	0.092	-0.081
-507.756	732.707	0.125	0.334
-506.741	-45.274	-0.195	0.096
-505.726	-200.000	0.019	0.331
-504.712	408.390	0.035	-0.074
-503.697	204.352	-0.100	-0.155
-502.683	151.619	-0.158	0.215
-501.668	-62.741	-0.200	-0.083
-500.653	-200.000	0.002	-0.143
-499.639	268.435	0.116	0.203
-498.624	8.110	-0.156	0.117
-497.610	-78.849	0.167	0.057
-496.595	-83.948	0.013	-0.004
-495.581	-200.000	0.000	0.004
-494.566	-200.000	-0.054	-0.304
-493.551	149.604	0.130	-0.176
-492.537	-97.135	0.252	0.066
-491.522	-68.161	-0.296	-0.115
-490.508	-12.959	-0.220	0.143
-489.493	-145.539	0.078	-0.007
-488.478	-10.999	0.186	-0.122
-487.464	-45.987	0.092	-0.045
-486.449	29.766	-0.226	-0.192
-485.435	-33.793	0.295	0.162
-484.420	-167.061	0.052	0.002
-483.405	-157.833	0.354	-0.021
-482.391	-170.601	-0.235	-0.008
-481.376	42.486	-0.191	0.173
-480.362	-200.000	0.016	-0.171
-479.347	-200.000	0.060	-0.287
-478.332	-187.148	-0.302	-0.004
-477.318	70.259	-0.093	-0.096
-476.303	-200.000	-0.022	0.314
-475.289	-200.000	-0.064	0.331
-474.274	-78.449	0.364	0.124
-473.259	-55.625	0.214	-0.096
-472.245	-51.683	-0.144	-0.067
-471.230	246.278	0.115	-0.193
-470.216	-20.113	0.267	0.164
-469.201	99.419	-0.216	-0.249
-468.186	14.165	0.366	-0.284
-467.172	-42.966	-0.095	0.048
-466.157	-0.504	0.291	-0.205
-465.143	288.484	0.051	0.093
-464.128	-200.000	0.036	0.260
-463.113	-43.050	0.238	0.120
-462.099	35.561	-0.210	0.184
-461.084	87.051	-0.216	0.238
-460.070	255.786	0.086	-0.146
-459.055	-95.501	0.364	0.097
-458.040	327.633	-0.057	0.109
-457.026	-170.214	-0.151	-0.005
-456.011	-200.000	-0.035	0.157
-454.997	800.000	0.059	0.245
-453.982	30.695	0.284	0.242
-452.968	338.702	0.013	0.024
-451.953	32.414	0.244	-0.209
-450.938	18.400	-0.091	0.072
-449.924	800.000	0.064	0.179
-448.909	-104.432	-0.283	0.065
-447.895	253.492	0.143	0.243
-446.880	-109.048	-0.258	0.055
-445.865	406.005	-0.081	-0.171
-444.851	-138.444	-0.133	-0.015
-443.836	-164.862	0.412	-0.018
-442.822	-167.269	-0.365	-0.015
-441.807	742.009	0.018	0.047
-440.792	-94.527	0.279	-0.076
-439.778	-86.400	-0.114	-0.035
-438.763	800.000	0.010	-0.031
-437.749	-130.619	-0.056	0.007
-436.734	-200.000	0.006	0.142
-435.719	-36.124	0.287	-0.154
-434.705	152.520	-0.087	-0.118
-433.690	157.073	0.217	0.299
-432.676	423.887	0.034	-0.072
-431.661	44.216	-0.117	0.107
-430.646	-200.000	-0.012	-0.079
-429.632	-0.946	-0.349	0.246
-428.617	50.455	-0.336	-0.316
-427.603	-136.419	0.198	0.023
-426.588	16.965	0.179	-0.141
-425.573	-200.000	-0.120	0.000
-424.559	101.274	0.197	0.228
-423.544	-200.000	-0.023	-0.111
-422.530	-172.147	-0.110	-0.004
-421.515	-43.288	0.249	0.125
-420.500	1.898	0.104	-0.074
-419.486	-83.715	-0.084	0.027
-418.471	24.332	0.320	0.263
-417.457	-115.927	-0.123	-0.023
-416.442	-70.689	0.140	-0.053
-415.428	-44.448	-0.274	-0.136
-414.413	311.432	-0.071	0.132
-413.398	46.795	-0.095	-0.087
-412.384	14.825	0.295	-0.229
-411.369	-116.141	-0.135	0.025
-410.355	181.162	-0.059	0.086
-409.340	-200.000	0.055	0.286
-408.325	-200.000	0.022	0.356
-407.311	-166.472	0.359	0.015
-406.296	-94.941	-0.238	-0.064
-405.282	719.935	-0.130	-0.343
-404.267	154.219	0.134	-0.183
-403.252	800.000	-0.072	-0.257
-402.238	85.002	0.092	0.100
-401.223	334.447	0.166	0.319
-400.209	9.151	-0.338	-0.254
-399.194	-36.636	-0.228	-0.122
-398.179	-52.784	-0.255	-0.117
-397.165	-62.723	0.428	0.176
-396.150	18.272	-0.170	0.135
-395.136	-200.000	-0.020	-0.136
-394.121	203.816	-0.079	-0.122
-393.106	-200.000	-0.055	-0.311
-392.092	-10.931	-0.079	0.052
-391.077	-200.000	0.018	0.166
-390.063	-200.000	-0.026	0.511
-389.048	-158.214	0.067	0.004
-388.033	36.835	0.077	-0.067
-387.019	78.730	-0.121	-0.128
-386.004	100.768	0.271	-0.312
-384.990	800.000	0.012	-0.038
-383.975	-26.819	0.279	0.162
-382.960	126.781	0.102	-0.128
-381.946	-200.000	-0.009	-0.094
-380.931	46.107	0.194	0.178
-379.917	660.451	0.018	-0.046
-378.902	-82.915	-0.134	0.043
-377.888	-97.333	0.235	0.061
-376.873	-200.000	-0.011	-0.140
-375.858	-200.000	0.014	0.357
-374.844	-148.517	0.200	0.016
-373.829	-45.687	-0.230	0.113
-372.815	132.722	0.131	-0.167
-371.800	483.433	0.047	-0.105
-370.785	-162.670	0.161	-0.008
-369.771	-200.000	0.055	-0.283
-368.756	14.948	-0.112	0.087
-367.742	474.132	-0.081	0.182
-366.727	550.678	-0.182	-0.434
-365.712	-122.374	0.301	-0.049
-364.698	-4.087	0.144	0.099
-363.683	270.269	-0.145	-0.253
-362.669	483.136	-0.052	-0.118
-361.654	365.726	-0.021	0.042
-360.639	-114.476	0.252	-0.048
-359.625	524.242	0.136	-0.318
-358.610	255.837	0.108	-0.184
-357.596	-82.029	-0.225	-0.073
-356.581	89.387	0.081	-0.089
-355.566	537.915	-0.069	-0.163
-354.552	-62.966	-0.027	-0.011
-353.537	-200.000	0.001	0.223
-352.523	-1.600	0.203	-0.142
-351.508	-66.598	0.223	-0.088
-350.493	-43.833	0.041	0.021
-349.479	-132.039	-0.236	-0.030
-348.464	59.503	0.186	0.182
-347.450	52.208	-0.150	-0.142
-346.435	16.573	-0.123	0.096
-345.420	800.000	-0.045	-0.143
-344.406	24.233	-0.101	-0.083
-343.391	148.046	0.213	-0.285
-342.377	-27.915	-0.068	0.039
-341.362	-96.834	-0.157	0.041
-340.348	349.799	0.025	0.050
-339.333	-200.000	-0.043	-0.233
-338.318	-117.261	-0.202	0.036
-337.304	800.000	0.055	-0.200
-336.289	-48.078	-0.182	-0.087
-335.275	800.000	-0.097	0.372
-334.260	-3.503	-0.210	-0.144
-333.245	800.000	-0.063	-0.210
-332.231	800.000	0.069	0.234
-331.216	69.890	0.233	-0.238
-330.202	800.000	-0.080	-0.264
-329.187	800.000	0.097	-0.277
-328.172	800.000	-0.040	-0.148
-327.158	171.871	0.179	-0.255
-326.143	-149.421	0.209	-0.016
-325.129	-200.000	-0.055	0.288
-324.114	-153.167	0.121	0.008
-323.099	-5.209	-0.075	0.051
-322.085	800.000	0.009	0.028
-321.070	492.085	0.119	-0.269
-320.056	133.885	0.076	0.097
-319.041	-142.049	0.309	-0.030
-318.026	-61.271	-0.174	-0.072
-317.012	0.748	0.161	-0.114
-315.997	-117.925	0.071	-0.013
-314.983	37.522	-0.048	0.042
-313.968	-3.646	-0.168	0.116
-312.953	-31.481	-0.172	0.096
-311.939	-21.844	-0.068	-0.041
-310.924	-116.122	0.570	-0.105
-309.910	179.610	-0.362	-0.524
-308.895	-200.000	0.022	0.142
-307.880	6.927	0.172	-0.126
-306.866	-137.006	-0.133	0.015
-305.851	-103.681	0.045	0.010
-304.837	24.022	0.221	-0.180
-303.822	131.676	-0.121	-0.153
-302.807	211.441	-0.110	-0.172
-301.793	61.638	-0.108	0.106
-300.778	376.791	0.163	0.330
-299.764	285.214	0.056	-0.100
-298.749	-45.934	-0.144	0.070
-297.735	800.000	-0.072	0.214
-296.720	119.804	0.139	-0.171
-295.705	-80.068	0.273	-0.091
-294.691	216.643	0.132	0.207
-293.676	800.000	0.026	0.075
-292.662	-200.000	-0.002	-0.079
-291.647	-38.611	-0.169	-0.088
-290.632	-33.772	0.164	0.089
-289.618	222.239	0.132	0.210
-288.603	-200.000	-0.024	-0.273
-287.589	90.146	-0.066	-0.073
-286.574	194.408	0.074	0.111
-285.559	262.837	0.224	0.384
-284.545	800.000	-0.079	0.290
-283.530	-82.706	-0.198	-0.063
-282.516	553.316	0.050	0.119
-281.501	-200.000	-0.044	0.195
-280.486	-84.579	-0.172	-0.054
-279.472	224.656	0.118	-0.189
-278.457	-67.787	-0.137	0.053
-277.443	-115.370	0.196	-0.036
-276.428	-119.919	0.159	-0.027
-275.413	94.065	0.123	-0.138
-274.399	-200.000	0.026	-0.160
-273.384	-200.000	0.067	-0.309
-272.370	-91.114	-0.266	0.075
-271.355	175.647	-0.185	0.265
-270.340	-92.163	0.304	0.085
-269.326	-29.648	0.247	-0.139
-268.311	80.901	-0.080	0.085
-267.297	-31.351	0.096	0.053
-266.282	800.000	0.112	0.384
-265.267	41.481	0.201	-0.180
-264.253	310.119	-0.099	0.183
-263.238	38.433	0.067	-0.059
-262.224	122.232	-0.216	-0.267
-261.209	-200.000	-0.036	0.405
-260.195	-200.000	0.034	0.296
-259.180	-200.000	0.024	-0.172
-258.165	318.207	0.164	-0.306
-257.151	142.373	0.086	0.113
-256.136	640.236	-0.125	0.313
-255.122	2.541	0.139	-0.099
-254.107	238.410	-0.173	-0.283
-253.092	560.769	-0.099	0.235
-252.078	800.000	-0.114	0.387
-251.063	-47.758	-0.174	-0.083
-250.049	-160.461	0.095	-0.005
-249.034	96.645	-0.100	0.113
-248.019	-200.000	0.009	0.041
-247.005	153.635	0.044	0.059
-245.990	133.136	0.112	0.143
-244.976	-200.000	0.023	0.269
-243.961	-176.709	0.278	0.007
-242.946	-73.863	-0.215	-0.077
-241.932	-61.726	0.264	0.109
-240.917	-63.328	-0.279	0.113
-239.903	315.411	0.179	-0.333
-238.888	47.273	0.220	0.202
-237.873	-200.000	0.070	-0.356
-236.859	-59.356	0.151	0.064
-235.844	229.380	0.092	0.148
-234.830	86.521	-0.181	-0.197
-233.815	139.260	0.078	0.102
-232.800	450.618	0.040	0.087
-231.786	-6.508	0.298	0.200
-230.771	288.523	-0.054	-0.096
-229.757	192.992	0.237	-0.354
-228.742	3.707	-0.104	-0.075
-227.727	164.480	0.107	-0.148
-226.713	79.857	-0.131	0.139
-225.698	-200.000	-0.009	-0.179
-224.684	510.684	0.066	0.152
-223.669	104.495	-0.072	0.084
-222.655	79.025	0.073	-0.077
-221.640	217.265	-0.052	0.081
-220.625	-107.578	0.511	-0.110
-219.611	-56.826	0.067	-0.029
-218.596	570.476	-0.088	0.211
-217.582	29.141	0.231	0.193
-216.567	-200.000	0.017	-0.195
-215.552	200.993	0.145	0.220
-214.538	476.707	0.055	-0.122
-213.523	89.015	0.140	-0.153
-212.509	366.101	-0.104	0.207
-211.494	800.000	0.082	-0.237
-210.479	-4.833	-0.196	-0.133
-209.465	-77.889	-0.145	0.049
-208.450	-6.545	-0.217	0.146
-207.436	-191.615	-0.118	-0.001
-206.421	-71.690	-0.513	0.188
-205.406	59.692	0.155	0.151
-204.392	113.467	-0.211	-0.253
-203.377	-124.737	0.407	-0.062
-202.363	-164.330	-0.265	-0.012
-201.348	-11.180	-0.442	0.287
-200.333	-80.128	0.175	0.058
-199.319	-29.207	-0.159	0.090
-198.304	-200.000	0.005	0.110
-197.290	152.167	-0.306	-0.411
-196.275	233.275	0.036	-0.058
-195.260	-6.735	0.111	-0.075
-194.246	-200.000	0.047	-0.288
-193.231	-12.574	-0.047	0.030
-192.217	189.581	-0.068	0.100
-191.202	-96.800	-0.225	-0.058
-190.187	-129.719	-0.139	0.019
-189.173	800.000	-0.115	0.365
-188.158	338.820	0.086	0.164
-187.144	658.182	-0.052	0.131
-186.129	204.466	0.034	-0.052
-185.114	4.195	-0.131	0.094
-184.100	89.194	0.259	0.284
-183.085	-48.817	0.091	0.043
-182.071	-27.600	-0.309	0.177
-181.056	-200.000	0.023	0.378
-180.042	-180.749	0.219	-0.004
-179.027	-76.942	0.180	0.062
-178.012	-54.008	0.299	-0.134
-176.998	82.010	-0.045	-0.048
-175.983	-109.891	-0.392	-0.081
-174.969	-42.692	-0.367	0.184
-173.954	-74.380	0.193	-0.069
-172.939	26.790	0.111	-0.092
-171.925	-124.480	0.219	-0.034
-170.910	-170.586	-0.444	0.015
-169.896	800.000	0.020	-0.061
-168.881	-19.147	0.255	0.156
-167.866	-200.000	-0.009	0.405
-166.852	-200.000	0.019	0.179
-165.837	800.000	-0.088	-0.362
-164.823	-200.000	0.022	-0.214
-163.808	-82.081	-0.367	0.118
-162.793	3.451	-0.148	-0.106
-161.779	70.432	-0.191	0.194
-160.764	-135.600	-0.484	-0.057
-159.750	-112.577	0.279	-0.055
-158.735	235.205	0.015	-0.024
-157.720	-8.753	-0.117	-0.077
-156.706	-24.445	0.131	-0.077
-155.691	800.000	0.043	0.169
-154.677	-137.373	-0.279	-0.031
-153.662	-139.359	0.279	-0.029
-152.647	-200.000	0.021	-0.203
-151.633	-12.625	0.207	-0.133
-150.618	126.326	0.165	0.206
-149.604	-74.857	0.330	0.116
-148.589	-171.815	0.202	-0.007
-147.574	98.534	-0.190	0.215
-146.560	-47.943	0.146	-0.069
-145.545	-122.674	-0.189	0.030
-144.531	463.761	-0.076	-0.168
-143.516	-48.785	-0.421	-0.199
-142.502	-135.944	-0.150	0.017
-141.487	-181.109	0.156	-0.003
-140.472	800.000	0.057	0.230
-139.458	-200.000	-0.025	0.162
-138.443	572.380	0.105	-0.253
-137.429	16.696	0.122	-0.095
-136.414	-200.000	-0.009	-0.082
-135.399	199.148	-0.137	0.207
-134.385	-200.000	0.022	-0.101
-133.370	-119.876	-0.399	0.067
-132.356	-28.757	0.189	0.107
-131.341	67.660	0.077	0.078
-130.326	-10.934	-0.114	-0.074
-129.312	2.969	0.143	0.102
-128.297	31.681	0.221	0.187
-127.283	-163.787	0.191	0.009
-126.268	-200.000	0.025	-0.151
-125.253	-23.785	0.390	0.229
-124.239	-41.132	0.181	0.092
-123.224	57.593	-0.090	0.087
-122.210	-118.003	0.195	0.034
-121.195	-200.000	0.029	0.211
