DTS Sentinel unit serial number:	SN413079Multiplexer serial number:	ORYXHardware model number:	OX4-SRSoftware version number:	ORYX F/W v4.00 Oryx Data Collector v3.7.2.0data status	okinstallation	princeton_trtdifferential loss correction	single-endedforward channel	channel 1reverse channel	N/Adate	2019/09/11time	06:32:11forward acquisition time	60.00reverse acquisition time	0.00gamma	496.2192k internal	0.2330k external	0.2330temperature offset calibration	0.9921default loss term (dB/km)	0.3790temperature slope calibration	1.0000multiplexer offset coefficient	1.0000multiplexer slope coefficient	1.0000fibre end	0.00T internal ref (°C)	29.62T ext. ref 1 (°C)	-0.18T ext. ref 2 (°C)	24.34length (m)	temperature (°C)	Stokes	anti-Stokes-747.200	-65.209	0.283	-0.115
-746.185	41.228	-0.226	-0.206
-745.171	58.504	0.357	0.353
-744.156	167.665	0.112	-0.160
-743.142	155.489	0.211	-0.293
-742.127	-76.432	0.273	-0.097
-741.112	-88.679	-0.260	0.078
-740.098	191.232	-0.247	0.374
-739.083	-122.499	-0.067	0.011
-738.069	18.049	-0.149	-0.119
-737.054	57.813	0.356	0.350
-736.039	-43.697	0.123	0.062
-735.025	-109.296	0.253	-0.054
-734.010	168.340	-0.081	0.116
-732.996	-152.079	-0.077	-0.006
-731.981	-12.415	-0.211	-0.139
-730.966	-134.289	-0.316	0.039
-729.952	-200.000	0.037	-0.358
-728.937	-70.965	-0.418	-0.158
-727.923	-164.892	0.446	0.020
-726.908	773.874	-0.187	-0.514
-725.894	-32.849	0.279	0.156
-724.879	750.709	0.074	0.200
-723.864	-68.410	-0.388	0.152
-722.850	32.258	-0.148	0.128
-721.835	-137.175	0.236	0.027
-720.821	516.451	0.109	-0.255
-719.806	-108.039	-0.336	0.073
-718.791	-11.481	0.255	-0.169
-717.777	-64.934	-0.218	-0.089
-716.762	100.474	-0.129	-0.151
-715.748	-7.415	-0.126	-0.086
-714.733	329.587	0.171	0.330
-713.718	19.932	0.134	0.109
-712.704	-152.717	0.189	-0.014
-711.689	-137.530	0.214	-0.024
-710.675	800.000	0.068	0.204
-709.660	800.000	-0.021	0.090
-708.645	-163.349	0.167	-0.008
-707.631	76.912	0.149	-0.159
-706.616	72.260	-0.110	0.115
-705.602	724.212	0.061	0.163
-704.587	79.488	0.103	-0.111
-703.572	-200.000	0.007	0.083
-702.558	-15.378	0.350	0.225
-701.543	-200.000	0.030	-0.243
-700.529	-200.000	0.011	0.616
-699.514	-39.609	0.434	-0.228
-698.499	391.285	-0.041	0.085
-697.485	6.013	0.369	-0.274
-696.470	-200.000	-0.025	-0.382
-695.456	-42.506	-0.066	0.034
-694.441	268.900	-0.112	-0.198
-693.426	800.000	0.029	0.122
-692.412	208.697	0.055	0.087
-691.397	-76.442	-0.156	-0.055
-690.383	109.638	0.148	-0.178
-689.368	-55.457	-0.158	0.071
-688.354	252.698	0.065	-0.111
-687.339	800.000	0.068	-0.223
-686.324	-200.000	-0.018	-0.126
-685.310	-161.253	0.123	0.006
-684.295	800.000	-0.105	-0.291
-683.281	-57.996	0.040	-0.017
-682.266	-47.430	0.228	0.112
-681.251	-122.513	0.241	0.039
-680.237	-81.761	0.236	0.078
-679.222	-18.483	0.147	0.092
-678.208	132.014	-0.106	-0.137
-677.193	-200.000	0.059	0.472
-676.178	-91.484	0.203	0.058
-675.164	-59.570	-0.138	-0.060
-674.149	10.588	-0.377	-0.289
-673.135	-63.514	0.063	-0.026
-672.120	-82.862	-0.310	-0.100
-671.105	-52.388	-0.208	-0.097
-670.091	-115.123	-0.259	0.049
-669.076	277.972	0.100	0.178
-668.062	223.208	0.172	-0.279
-667.047	-200.000	-0.017	0.310
-666.032	480.217	0.054	0.123
-665.018	-200.000	-0.014	-0.287
-664.003	74.592	0.067	-0.071
-662.989	-131.201	-0.091	-0.012
-661.974	-50.569	0.234	0.111
-660.959	800.000	-0.148	-0.419
-659.945	-200.000	0.011	-0.167
-658.930	-101.352	-0.241	-0.059
-657.916	25.794	-0.048	0.040
-656.901	120.528	0.285	-0.356
-655.886	-30.542	0.061	-0.035
-654.872	153.666	0.044	-0.061
-653.857	-98.437	0.171	-0.044
-652.843	-129.247	-0.185	-0.026
-651.828	-66.083	-0.133	0.053
-650.814	136.925	-0.030	-0.039
-649.799	-200.000	0.001	0.474
-648.784	-71.408	-0.124	-0.047
-647.770	-135.572	0.258	0.031
-646.755	-200.000	0.002	-0.245
-645.741	725.934	0.071	0.189
-644.726	509.501	-0.121	0.282
-643.711	-63.964	-0.134	-0.055
-642.697	451.397	-0.047	-0.105
-641.682	286.595	-0.154	-0.279
-640.668	22.698	-0.120	0.098
-639.653	-86.199	-0.239	0.074
-638.638	-200.000	-0.053	0.267
-637.624	-99.342	-0.352	0.089
-636.609	-54.573	-0.138	0.063
-635.595	-13.415	0.181	0.118
-634.580	-46.747	-0.279	-0.137
-633.565	-70.156	-0.120	-0.046
-632.551	-200.000	0.014	0.071
-631.536	36.260	-0.156	0.137
-630.522	-114.130	0.309	-0.060
-629.507	-122.999	-0.706	-0.114
-628.492	-200.000	0.073	0.483
-627.478	-101.776	0.202	0.049
-626.463	69.856	-0.184	-0.190
-625.449	800.000	-0.064	-0.267
-624.434	-77.365	0.281	0.098
-623.419	-152.731	0.188	-0.013
-622.405	57.426	-0.320	0.313
-621.390	720.591	0.032	0.084
-620.376	185.175	-0.252	-0.375
-619.361	800.000	-0.096	0.350
-618.346	389.159	-0.025	-0.052
-617.332	-200.000	0.004	-0.314
-616.317	-95.266	0.331	-0.089
-615.303	48.458	-0.104	-0.097
-614.288	-39.013	0.291	-0.153
-613.273	53.763	0.198	-0.190
-612.259	-200.000	-0.030	-0.130
-611.244	-125.568	-0.446	-0.068
-610.230	-200.000	-0.024	0.328
-609.215	-200.000	0.002	-0.106
-608.201	144.117	-0.320	0.428
-607.186	120.976	0.070	0.087
-606.171	29.573	-0.226	-0.193
-605.157	726.664	-0.054	-0.145
-604.142	-200.000	0.021	-0.131
-603.128	-80.488	0.200	-0.067
-602.113	-200.000	0.009	0.067
-601.098	43.378	0.155	0.141
-600.084	-200.000	-0.015	-0.121
-599.069	-48.823	-0.121	-0.058
-598.055	-22.233	0.105	-0.064
-597.040	12.329	-0.071	-0.055
-596.025	395.796	-0.070	-0.146
-595.011	-113.055	0.427	0.084
-593.996	18.297	0.294	-0.235
-592.982	800.000	-0.023	0.091
-591.967	-200.000	0.052	-0.246
-590.952	82.923	-0.075	0.082
-589.938	800.000	0.027	0.117
-588.923	-123.208	0.060	0.010
-587.909	-200.000	-0.026	0.173
-586.894	-200.000	-0.001	-0.315
-585.879	800.000	-0.017	0.053
-584.865	-45.096	0.087	-0.043
-583.850	-43.792	0.261	-0.132
-582.836	-35.613	-0.269	-0.146
-581.821	-200.000	-0.005	-0.040
-580.806	125.763	-0.167	0.211
-579.792	32.111	-0.065	-0.056
-578.777	36.378	0.315	0.277
-577.763	-137.161	-0.188	0.021
-576.748	-116.978	0.110	-0.020
-575.733	507.269	0.162	-0.375
-574.719	149.147	-0.198	-0.268
-573.704	291.255	-0.074	0.134
-572.690	85.465	-0.101	-0.111
-571.675	-200.000	-0.015	0.213
-570.661	228.483	0.134	0.218
-569.646	362.879	-0.070	-0.140
-568.631	121.202	0.212	0.264
-567.617	-200.000	-0.016	-0.100
-566.602	135.785	-0.029	-0.038
-565.588	50.384	0.147	-0.139
-564.573	-149.441	-0.109	0.009
-563.558	-72.916	-0.165	-0.061
-562.544	91.785	-0.144	0.162
-561.529	105.437	0.281	0.331
-560.515	-117.050	0.356	0.065
-559.500	402.880	0.081	-0.171
-558.485	800.000	-0.100	-0.300
-557.471	57.416	0.125	0.122
-556.456	271.787	-0.151	0.266
-555.442	-200.000	-0.015	0.077
-554.427	-152.416	-0.232	0.017
-553.412	-200.000	0.014	0.141
-552.398	-72.486	0.218	-0.080
-551.383	-102.215	0.139	0.033
-550.369	800.000	-0.059	-0.182
-549.354	177.822	-0.129	0.188
-548.339	-81.937	0.305	-0.100
-547.325	-118.378	-0.265	-0.047
-546.310	240.592	0.172	0.287
-545.296	48.903	-0.118	-0.111
-544.281	-20.116	0.300	0.184
-543.266	-133.170	-0.329	-0.042
-542.252	-200.000	-0.045	-0.335
-541.237	12.382	0.275	-0.211
-540.223	794.783	-0.108	0.298
-539.208	374.413	0.041	0.083
-538.193	800.000	-0.082	-0.340
-537.179	13.249	-0.306	0.237
-536.164	18.008	0.073	0.058
-535.150	-59.817	0.160	0.068
-534.135	-47.339	-0.075	-0.037
-533.121	-141.343	-0.114	-0.012
-532.106	800.000	0.085	-0.236
-531.091	-58.615	-0.297	0.128
-530.077	-153.919	-0.207	0.014
-529.062	-200.000	-0.338	0.000
-528.048	225.755	-0.106	-0.172
-527.033	183.860	-0.081	0.119
-526.018	-200.000	-0.014	0.073
-525.004	-200.000	0.016	-0.092
-523.989	33.117	0.160	-0.138
-522.975	-130.174	-0.081	0.011
-521.960	-200.000	-0.030	0.254
-520.945	-134.005	0.380	0.047
-519.931	-137.700	-0.485	-0.054
-518.916	-200.000	-0.010	-0.046
-517.902	52.937	0.153	-0.146
-516.887	46.232	0.033	-0.030
-515.872	740.147	0.046	0.123
-514.858	147.130	0.096	-0.129
-513.843	-121.631	-0.280	-0.046
-512.829	-134.126	-0.152	0.019
-511.814	-200.000	0.037	0.217
-510.799	696.971	0.070	-0.184
-509.785	-200.000	0.036	0.000
-508.770	130.871	-0.052	0.067
-507.756	-137.029	-0.208	0.024
-506.741	-70.287	-0.149	-0.056
-505.726	-17.478	0.120	-0.075
-504.712	-200.000	-0.027	0.282
-503.697	208.549	-0.332	-0.518
-502.683	-200.000	-0.017	-0.125
-501.668	-179.226	-0.295	0.007
-500.653	398.754	0.081	-0.169
-499.639	400.589	-0.134	0.280
-498.624	87.718	0.216	-0.239
-497.610	191.180	0.090	0.135
-496.595	-200.000	0.109	-0.514
-495.581	421.960	-0.151	-0.323
-494.566	334.206	-0.139	0.268
-493.551	203.034	-0.130	0.201
-492.537	-143.200	-0.228	0.022
-491.522	-111.592	-0.180	0.036
-490.508	283.448	-0.136	0.243
-489.493	-121.700	0.041	-0.007
-488.478	25.892	0.244	0.203
-487.464	-135.543	0.121	-0.014
-486.449	-94.999	0.232	-0.063
-485.435	-72.907	-0.416	0.153
-484.420	4.886	-0.240	0.176
-483.405	168.100	0.114	0.161
-482.391	333.608	-0.218	0.420
-481.376	-149.058	0.117	-0.009
-480.362	253.336	0.128	-0.218
-479.347	230.813	-0.065	-0.106
-478.332	361.016	-0.074	0.148
-477.318	-200.000	-0.000	-0.022
-476.303	-82.538	0.262	-0.085
-475.289	400.288	0.072	0.151
-474.274	197.786	-0.095	0.144
-473.259	65.332	0.103	0.103
-472.245	-156.646	-0.233	-0.014
-471.230	-76.494	0.464	-0.162
-470.216	350.868	-0.231	-0.456
-469.201	800.000	-0.097	-0.341
-468.186	-112.308	-0.155	-0.031
-467.172	-152.077	0.033	-0.002
-466.157	14.234	-0.041	0.032
-465.143	502.308	0.073	-0.167
-464.128	800.000	-0.057	-0.207
-463.113	437.918	-0.069	-0.150
-462.099	4.322	0.167	0.122
-461.084	602.399	0.048	-0.119
-460.070	800.000	0.034	-0.140
-459.055	147.247	0.059	0.079
-458.040	96.844	0.114	-0.130
-457.026	-200.000	-0.038	0.225
-456.011	-13.432	-0.153	0.099
-454.997	-200.000	0.011	0.100
-453.982	-200.000	-0.005	-0.229
-452.968	-123.199	-0.323	-0.052
-451.953	-188.836	0.243	-0.003
-450.938	-20.232	-0.332	0.203
-449.924	800.000	-0.110	0.400
-448.909	53.654	-0.150	0.143
-447.895	312.176	-0.120	0.224
-446.880	800.000	0.072	-0.209
-445.865	-82.294	-0.225	-0.073
-444.851	-120.130	-0.268	0.046
-443.836	-108.624	0.285	0.061
-442.822	51.481	-0.096	0.090
-441.807	-47.261	-0.322	-0.156
-440.792	800.000	0.177	0.504
-439.778	800.000	-0.086	0.344
-438.763	6.034	0.197	0.146
-437.749	800.000	0.105	-0.363
-436.734	183.606	0.213	-0.314
-435.719	92.987	0.138	0.155
-434.705	-200.000	0.013	0.240
-433.690	105.534	0.238	-0.280
-432.676	-150.280	0.255	-0.020
-431.661	600.874	0.134	-0.332
-430.646	125.523	-0.104	-0.130
-429.632	800.000	-0.065	-0.260
-428.617	800.000	0.036	-0.118
-427.603	-49.682	-0.354	0.168
-426.588	800.000	-0.036	-0.149
-425.573	800.000	0.090	0.255
-424.559	-50.492	-0.168	0.079
-423.544	-67.975	0.177	0.069
-422.530	30.831	0.155	-0.132
-421.515	-4.463	-0.227	-0.156
-420.500	368.138	0.039	-0.078
-419.486	-200.000	-0.009	0.077
-418.471	154.738	0.044	-0.060
-417.457	23.296	-0.164	0.134
-416.442	-200.000	0.008	0.247
-415.428	277.776	-0.122	-0.217
-414.413	319.701	0.131	0.246
-413.398	352.118	0.101	-0.199
-412.384	-96.758	0.115	-0.030
-411.369	-61.971	0.190	-0.079
-410.355	420.418	0.106	-0.227
-409.340	-33.697	-0.351	-0.192
-408.325	515.090	0.046	-0.107
-407.311	132.457	-0.134	0.171
-406.296	-11.268	0.096	0.063
-405.282	800.000	0.041	-0.113
-404.267	-101.679	0.036	-0.009
-403.252	-98.570	0.334	0.085
-402.238	-156.560	-0.106	0.007
-401.223	-117.282	0.100	-0.018
-400.209	-43.595	0.432	0.216
-399.194	125.914	0.015	-0.019
-398.179	800.000	0.044	-0.122
-397.165	800.000	-0.045	-0.148
-396.150	-54.727	0.042	0.019
-395.136	800.000	-0.046	0.141
-394.121	124.189	-0.093	-0.116
-393.106	-88.434	-0.131	0.039
-392.092	-138.975	-0.138	0.015
-391.077	170.440	0.075	0.106
-390.063	172.548	0.062	0.089
-389.048	-48.018	0.196	-0.094
-388.033	60.567	-0.207	0.203
-387.019	124.872	0.216	-0.270
-386.004	-200.000	-0.018	-0.089
-384.990	11.237	0.220	0.167
-383.975	-200.000	-0.052	-0.321
-382.960	-121.066	-0.336	0.056
-381.946	18.528	0.224	0.178
-380.931	-21.113	0.296	0.180
-379.917	-113.128	-0.196	-0.038
-378.902	-16.781	-0.152	-0.095
-377.888	-45.365	0.075	-0.037
-376.873	-171.538	0.144	-0.005
-375.858	-54.371	-0.335	0.151
-374.844	486.382	0.104	-0.236
-373.829	6.321	0.234	-0.172
-372.815	-164.443	0.447	0.020
-371.800	-200.000	0.003	0.091
-370.785	40.897	-0.110	-0.099
-369.771	-40.245	-0.136	0.070
-368.756	-60.286	0.227	-0.096
-367.742	469.639	0.007	0.016
-366.727	-146.904	-0.057	-0.005
-365.712	84.552	-0.093	-0.101
-364.698	-48.690	0.113	-0.054
-363.683	-38.821	-0.360	-0.188
-362.669	-94.891	0.276	0.074
-361.654	-25.914	0.123	-0.072
-360.639	800.000	0.050	-0.177
-359.625	53.863	-0.321	-0.306
-358.610	-142.609	0.430	0.042
-357.596	94.647	0.029	-0.033
-356.581	-200.000	-0.002	-0.162
-355.566	-200.000	-0.030	0.294
-354.552	-59.328	0.214	-0.091
-353.537	-30.040	0.219	-0.123
-352.523	19.001	-0.137	-0.109
-351.508	169.397	0.183	0.259
-350.493	-79.282	-0.230	0.077
-349.479	35.557	-0.067	-0.058
-348.464	800.000	-0.071	0.235
-347.450	800.000	0.028	-0.116
-346.435	-200.000	0.013	0.117
-345.420	-200.000	0.001	-0.170
-344.406	-14.255	-0.147	-0.094
-343.391	-49.611	0.191	-0.090
-342.377	57.568	0.224	-0.217
-341.362	-200.000	-0.002	0.222
-340.348	46.061	0.251	-0.230
-339.333	-61.958	0.243	0.101
-338.318	63.567	-0.064	0.064
-337.304	-200.000	-0.016	0.252
-336.289	-71.169	0.414	-0.154
-335.275	286.000	0.175	-0.313
-334.260	-58.624	0.313	-0.134
-333.245	253.617	-0.089	0.151
-332.231	-56.292	-0.303	0.133
-331.216	800.000	-0.014	0.053
-330.202	182.562	0.019	0.028
-329.187	16.082	0.026	0.020
-328.172	-96.774	-0.040	0.010
-327.158	-200.000	0.001	0.021
-326.143	-200.000	0.023	-0.134
-325.129	115.498	-0.071	-0.086
-324.114	-200.000	-0.007	0.566
-323.099	306.462	0.095	-0.176
-322.085	412.996	-0.105	0.220
-321.070	185.000	-0.142	-0.208
-320.056	0.541	0.137	-0.097
-319.041	-150.606	0.265	-0.020
-318.026	-135.267	-0.326	0.039
-317.012	49.091	-0.132	-0.123
-315.997	-107.739	-0.073	-0.016
-314.983	-50.320	-0.181	0.085
-313.968	-163.484	-0.097	-0.005
-312.953	-99.010	-0.253	-0.063
-311.939	543.700	0.031	0.074
-310.924	134.310	0.283	0.364
-309.910	-112.328	0.158	0.031
-308.895	85.439	0.221	-0.240
-307.880	-175.863	-0.203	0.005
-306.866	130.917	0.211	0.268
-305.851	-104.042	0.132	-0.030
-304.837	-63.199	0.128	-0.052
-303.822	750.782	-0.105	-0.280
-302.807	184.652	0.090	-0.132
-301.793	-106.259	-0.238	-0.053
-300.778	-53.565	0.098	-0.044
-299.764	-200.000	0.063	0.273
-298.749	480.558	0.084	0.188
-297.735	13.559	0.170	-0.131
-296.720	-200.000	0.011	0.183
-295.705	71.391	-0.180	-0.184
-294.691	-22.026	0.239	-0.143
-293.676	-75.324	-0.239	0.084
-292.662	77.233	0.058	-0.061
-291.647	-141.374	0.385	-0.039
-290.632	38.460	-0.116	0.102
-289.618	-154.454	0.303	0.020
-288.603	-200.000	0.005	0.123
-287.589	-17.813	-0.339	-0.210
-286.574	-75.441	-0.139	-0.049
-285.559	-62.840	-0.325	0.133
-284.545	98.240	-0.071	-0.081
-283.530	800.000	-0.026	0.081
-282.516	285.728	-0.213	0.379
-281.501	-168.341	0.233	-0.009
-280.486	237.037	0.177	0.289
-279.472	107.135	0.296	-0.348
-278.457	-93.812	-0.434	-0.118
-277.443	-133.033	-0.269	0.034
-276.428	182.319	-0.017	-0.024
-275.413	-100.964	-0.171	0.041
-274.399	204.536	0.020	0.030
-273.384	275.513	0.040	-0.070
-272.370	-147.001	-0.103	0.009
-271.355	-90.544	-0.255	0.073
-270.340	724.104	-0.134	0.354
-269.326	-0.898	0.202	0.141
-268.311	43.605	0.072	0.065
-267.297	-59.585	0.264	0.112
-266.282	513.706	0.185	0.427
-265.267	800.000	-0.068	0.192
-264.253	-81.128	0.110	0.036
-263.238	800.000	0.103	-0.282
-262.224	164.181	0.144	-0.200
-261.209	-200.000	-0.023	-0.151
-260.195	-200.000	-0.005	-0.369
-259.180	-200.000	-0.011	0.122
-258.165	55.284	0.106	0.101
-257.151	-109.845	0.234	0.048
-256.136	-51.267	0.165	-0.076
-255.122	-85.954	-0.118	-0.036
-254.107	205.528	0.078	-0.120
-253.092	30.098	0.103	0.087
-252.078	-200.000	0.019	-0.312
-251.063	-159.450	0.133	0.007
-250.049	-72.404	0.106	0.039
-249.034	99.883	0.109	0.125
-248.019	-200.000	0.025	0.390
-247.005	-170.259	0.050	-0.002
-245.990	80.885	-0.109	-0.116
-244.976	-42.046	0.251	0.127
-243.961	178.784	0.064	-0.093
-242.946	-200.000	0.001	-0.067
-241.932	316.077	-0.055	0.102
-240.917	-39.267	0.097	0.050
-239.903	-67.274	0.203	-0.079
-238.888	-125.366	0.085	0.013
-237.873	-200.000	-0.236	-0.001
-236.859	-200.000	-0.007	0.148
-235.844	122.852	0.122	0.151
-234.830	-200.000	0.079	0.346
-233.815	-111.706	-0.316	0.063
-232.800	-169.408	0.229	-0.008
-231.786	800.000	0.061	0.178
-230.771	-48.376	0.076	0.036
-229.757	159.496	-0.230	-0.315
-228.742	191.787	0.083	-0.124
-227.727	52.607	-0.330	0.311
-226.713	206.380	-0.101	0.155
-225.698	-200.000	0.022	-0.128
-224.684	-3.402	0.221	0.152
-223.669	800.000	0.059	0.167
-222.655	15.672	-0.070	0.055
-221.640	800.000	-0.115	-0.484
-220.625	800.000	0.084	-0.355
-219.611	750.713	0.083	-0.221
-218.596	-22.864	-0.209	0.124
-217.582	68.103	0.286	0.289
-216.567	319.674	-0.189	0.353
-215.552	-48.366	-0.237	0.112
-214.538	800.000	-0.153	0.464
-213.523	-200.000	-0.032	0.158
-212.509	800.000	0.060	0.244
-211.494	-106.452	-0.177	0.039
-210.479	136.187	0.065	-0.084
-209.465	-200.000	0.003	0.134
-208.450	-43.835	-0.160	0.079
-207.436	101.962	-0.065	0.075
-206.421	0.067	0.240	-0.169
-205.406	244.982	0.136	-0.225
-204.392	-106.382	-0.339	0.075
-203.377	-130.007	0.225	-0.030
-202.363	365.196	0.079	-0.158
-201.348	-193.705	0.426	-0.004
-200.333	-42.075	-0.105	-0.053
-199.319	400.978	-0.167	0.345
-198.304	-173.549	-0.101	0.003
-197.290	-200.000	-0.041	-0.209
-196.275	128.482	-0.078	-0.097
-195.260	450.684	0.162	-0.353
-194.246	81.994	-0.073	-0.078
-193.231	-32.514	-0.150	-0.082
-192.217	165.364	-0.125	-0.175
-191.202	219.322	-0.085	0.133
-190.187	273.908	-0.058	-0.101
-189.173	72.648	0.172	-0.177
-188.158	-111.026	-0.286	0.058
-187.144	300.197	-0.101	0.183
-186.129	-200.000	0.006	-0.273
-185.114	212.912	0.136	-0.212
-184.100	350.430	0.168	0.327
-183.085	-9.099	0.165	-0.108
-182.071	-47.727	0.105	-0.050
-181.056	-0.269	0.099	0.070
-180.042	-200.000	-0.022	0.129
-179.027	-5.521	-0.059	-0.040
-178.012	40.716	-0.055	0.049
-176.998	147.175	0.119	0.158
-175.983	-85.265	-0.042	-0.013
-174.969	-163.020	-0.159	-0.008
-173.954	800.000	-0.050	0.144
-172.939	694.569	-0.080	0.206
-171.925	231.071	-0.138	-0.223
-170.910	-200.000	0.048	-0.273
-169.896	-113.720	0.115	0.022
-168.881	-112.880	0.125	-0.024
-167.866	-200.000	0.006	-0.070
-166.852	32.257	0.008	0.007
-165.837	-17.065	0.209	0.130
-164.823	391.704	0.045	0.092
-163.808	-93.896	-0.135	0.037
-162.793	679.062	0.060	-0.154
-161.779	-59.332	0.216	-0.091
-160.764	77.540	-0.147	0.154
-159.750	-99.148	-0.202	0.050
-158.735	269.515	0.184	0.318
-157.720	-67.166	-0.165	0.064
-156.706	606.987	0.212	-0.520
-155.691	-63.831	0.099	0.040
-154.677	800.000	0.127	-0.352
-153.662	126.740	-0.029	0.037
-152.647	-0.819	-0.068	-0.048
-151.633	-145.130	-0.152	0.014
-150.618	175.797	0.286	0.409
-149.604	-111.441	0.408	-0.082
-148.589	-72.970	0.335	0.121
-147.574	229.419	0.177	0.284
-146.560	-200.000	0.014	-0.074
-145.545	-113.529	-0.151	0.029
-144.531	-119.705	-0.228	-0.039
-143.516	95.352	0.217	0.244
-142.502	-200.000	0.037	0.284
-141.487	-102.194	-0.331	0.078
-140.472	-200.000	-0.003	-0.077
-139.458	-57.750	0.237	-0.102
-138.443	9.523	0.064	-0.048
-137.429	-159.955	-0.146	-0.008
-136.414	211.587	0.095	0.147
-135.399	318.257	0.211	0.392
-134.385	-200.000	-0.020	-0.158
-133.370	34.050	-0.121	-0.103
-132.356	-135.888	0.255	-0.030
-131.341	800.000	-0.059	0.211
-130.326	295.217	-0.078	0.141
-129.312	490.949	-0.064	0.145
-128.297	-121.359	0.197	0.032
-127.283	-110.379	0.244	-0.050
-126.268	-200.000	0.039	-0.176
-125.253	-200.000	0.045	0.311
-124.239	-200.000	0.037	0.201
-123.224	88.957	0.141	0.154
-122.210	61.231	0.129	-0.126
-121.195	800.000	-0.114	-0.418
