DTS Sentinel unit serial number:	SN413079Multiplexer serial number:	ORYXHardware model number:	OX4-SRSoftware version number:	ORYX F/W v4.00 Oryx Data Collector v3.7.2.0data status	okinstallation	princeton_trtdifferential loss correction	single-endedforward channel	channel 1reverse channel	N/Adate	2019/09/18time	20:46:35forward acquisition time	60.00reverse acquisition time	0.00gamma	496.2192k internal	0.2339k external	0.2339temperature offset calibration	1.0021default loss term (dB/km)	0.3790temperature slope calibration	1.0000multiplexer offset coefficient	1.0000multiplexer slope coefficient	1.0000fibre end	0.00T internal ref (°C)	27.28T ext. ref 1 (°C)	0.92T ext. ref 2 (°C)	18.50length (m)	temperature (°C)	Stokes	anti-Stokes-747.200	-16.012	-0.333	0.213
-746.185	148.980	-0.215	-0.292
-745.171	0.338	-0.296	0.212
-744.156	337.335	-0.081	0.158
-743.142	272.526	0.134	0.238
-742.127	4.393	-0.089	-0.065
-741.112	-82.559	-0.097	-0.032
-740.098	-200.000	0.088	0.401
-739.083	-128.039	0.259	-0.037
-738.069	800.000	0.070	0.196
-737.054	-38.529	-0.295	-0.156
-736.039	-200.000	0.001	0.088
-735.025	23.157	-0.146	-0.120
-734.010	36.994	0.230	-0.204
-732.996	800.000	-0.114	-0.351
-731.981	-200.000	-0.019	-0.118
-730.966	-200.000	0.000	0.034
-729.952	305.136	0.043	0.080
-728.937	424.371	0.137	-0.296
-727.923	0.403	-0.271	0.194
-726.908	-63.312	-0.154	0.063
-725.894	-200.000	-0.058	-0.291
-724.879	-200.000	0.002	0.141
-723.864	-5.946	-0.268	-0.184
-722.850	-200.000	-0.054	-0.337
-721.835	30.070	-0.167	-0.142
-720.821	24.815	0.184	-0.153
-719.806	-200.000	-0.079	-0.445
-718.791	-200.000	-0.018	-0.350
-717.777	-164.587	-0.056	-0.003
-716.762	140.126	0.082	-0.109
-715.748	-8.294	-0.098	-0.066
-714.733	-200.000	-0.040	-0.285
-713.718	-58.240	0.130	0.057
-712.704	800.000	0.063	0.213
-711.689	0.911	-0.290	-0.208
-710.675	-27.550	0.261	-0.152
-709.660	-113.059	-0.185	-0.037
-708.645	-200.000	-0.023	-0.220
-707.631	797.617	-0.135	-0.373
-706.616	-200.000	-0.028	0.205
-705.602	-134.900	-0.246	-0.030
-704.587	-47.118	0.273	-0.133
-703.572	479.328	0.104	0.237
-702.558	-130.054	0.230	0.032
-701.543	-200.000	0.001	-0.135
-700.529	228.388	0.169	-0.277
-699.514	-60.677	0.286	0.122
-698.499	-13.921	0.035	-0.023
-697.485	492.622	0.087	-0.199
-696.470	-33.942	0.111	0.061
-695.456	8.179	-0.262	-0.197
-694.441	800.000	-0.056	-0.224
-693.426	158.753	-0.033	0.046
-692.412	-38.002	0.172	0.092
-691.397	112.813	0.103	0.124
-690.383	-4.187	0.252	-0.175
-689.368	-122.327	0.317	-0.052
-688.354	-51.969	0.265	-0.123
-687.339	519.346	-0.103	0.242
-686.324	-200.000	0.017	0.128
-685.310	-93.272	-0.051	-0.014
-684.295	-82.019	0.221	-0.072
-683.281	-102.717	0.050	-0.012
-682.266	87.813	0.235	-0.260
-681.251	-200.000	-0.023	0.102
-680.237	800.000	0.043	-0.133
-679.222	-200.000	0.017	0.096
-678.208	-29.022	0.072	0.042
-677.193	-61.177	-0.329	0.139
-676.178	-53.930	-0.280	0.128
-675.164	179.022	0.118	-0.173
-674.149	-88.838	0.092	-0.027
-673.135	800.000	-0.057	-0.213
-672.120	-200.000	0.037	-0.250
-671.105	-18.467	-0.104	0.065
-670.091	33.400	0.034	0.029
-669.076	-69.792	-0.108	-0.041
-668.062	119.297	0.063	0.077
-667.047	131.608	-0.069	0.089
-666.032	-163.670	0.150	-0.007
-665.018	-200.000	-0.014	-0.092
-664.003	800.000	0.048	-0.203
-662.989	41.961	0.121	-0.110
-661.974	-26.962	-0.170	-0.099
-660.959	420.429	0.059	0.126
-659.945	-200.000	0.007	-0.080
-658.930	159.184	0.154	-0.214
-657.916	261.580	-0.151	-0.261
-656.901	372.610	-0.112	0.227
-655.886	-12.938	0.204	0.133
-654.872	-47.673	-0.346	0.168
-653.857	405.624	-0.155	-0.327
-652.843	-100.610	0.111	-0.027
-651.828	-200.000	0.012	0.207
-650.814	-84.897	0.424	-0.133
-649.799	-200.000	0.064	-0.292
-648.784	31.164	0.031	0.027
-647.770	-117.730	0.096	-0.017
-646.755	94.191	-0.123	-0.139
-645.741	-88.282	-0.282	-0.084
-644.726	-93.096	-0.203	-0.056
-643.711	-164.490	0.220	0.010
-642.697	-200.000	-0.043	0.280
-641.682	-200.000	-0.010	-0.096
-640.668	-52.964	-0.045	0.021
-639.653	-200.000	0.059	0.468
-638.638	253.029	-0.108	0.184
-637.624	-132.490	0.158	-0.020
-636.609	-67.653	-0.314	-0.123
-635.595	95.308	-0.060	0.068
-634.580	-200.000	-0.031	0.164
-633.565	-14.799	-0.139	-0.089
-632.551	-200.000	0.008	0.221
-631.536	-124.539	0.200	0.031
-630.522	-184.199	-0.233	0.004
-629.507	159.332	-0.239	0.333
-628.492	-51.828	-0.110	0.051
-627.478	-46.144	-0.147	-0.072
-626.463	226.667	0.024	-0.038
-625.449	382.711	-0.290	-0.595
-624.434	194.923	-0.045	0.068
-623.419	800.000	0.048	-0.134
-622.405	178.080	-0.162	-0.237
-621.390	139.098	-0.076	-0.100
-620.376	550.626	-0.026	-0.062
-619.361	-200.000	-0.005	0.196
-618.346	152.150	-0.108	0.147
-617.332	-200.000	-0.048	-0.294
-616.317	-112.014	-0.063	-0.013
-615.303	127.293	-0.098	0.124
-614.288	-200.000	0.027	0.572
-613.273	56.517	-0.111	-0.108
-612.259	31.402	0.066	0.057
-611.244	259.177	0.101	0.174
-610.230	7.173	-0.219	0.163
-609.215	-63.396	-0.020	0.008
-608.201	-200.000	0.054	-0.405
-607.186	-130.425	-0.090	-0.012
-606.171	-126.281	0.057	0.008
-605.157	2.565	0.018	0.013
-604.142	100.482	-0.032	0.037
-603.128	156.097	0.203	-0.280
-602.113	68.061	0.114	0.117
-601.098	30.397	0.070	0.060
-600.084	-138.090	-0.301	0.033
-599.069	190.894	0.115	-0.173
-598.055	-200.000	0.001	-0.147
-597.040	18.823	-0.285	-0.227
-596.025	152.935	0.074	0.101
-595.011	-31.026	-0.240	0.135
-593.996	118.852	-0.175	0.216
-592.982	800.000	-0.076	-0.306
-591.967	-120.854	-0.152	0.026
-590.952	-4.934	-0.274	0.188
-589.938	-200.000	0.012	-0.202
-588.923	7.705	-0.164	-0.123
-587.909	-70.063	-0.153	0.058
-586.894	700.366	-0.043	-0.113
-585.879	-200.000	0.003	-0.156
-584.865	800.000	-0.038	-0.158
-583.850	-149.583	-0.057	-0.004
-582.836	-40.890	-0.244	-0.126
-581.821	-45.782	0.144	-0.071
-580.806	167.040	0.190	-0.269
-579.792	-200.000	0.029	-0.195
-578.777	-118.272	0.056	0.010
-577.763	-14.234	-0.203	0.130
-576.748	-177.052	0.139	0.003
-575.733	-163.333	-0.115	0.005
-574.719	194.862	-0.248	0.376
-573.704	138.680	-0.161	0.211
-572.690	-151.622	0.176	0.013
-571.675	800.000	0.062	-0.185
-570.661	800.000	-0.030	0.117
-569.646	134.019	-0.135	0.174
-568.631	-61.684	-0.166	0.069
-567.617	-200.000	0.017	-0.365
-566.602	94.066	0.196	0.222
-565.588	-157.300	-0.234	-0.014
-564.573	800.000	0.103	-0.397
-563.558	46.627	-0.132	-0.122
-562.544	-8.146	-0.350	0.235
-561.529	648.079	0.121	-0.309
-560.515	371.370	0.172	-0.347
-559.500	-0.361	0.200	-0.141
-558.485	-200.000	0.001	0.189
-557.471	76.075	-0.204	0.215
-556.456	88.916	-0.246	-0.272
-555.442	294.971	-0.112	0.204
-554.427	421.427	0.038	0.081
-553.412	-182.393	0.023	0.000
-552.398	90.647	0.096	-0.107
-551.383	-77.439	0.339	0.117
-550.369	-141.761	0.091	-0.009
-549.354	-16.992	0.275	0.173
-548.339	11.009	-0.141	0.107
-547.325	-89.543	-0.365	-0.107
-546.310	-200.000	0.029	-0.234
-545.296	-104.399	-0.289	0.067
-544.281	-200.000	0.008	0.229
-543.266	47.734	0.335	-0.311
-542.252	800.000	-0.066	-0.282
-541.237	15.337	-0.145	0.113
-540.223	800.000	-0.045	0.142
-539.208	248.619	-0.210	-0.353
-538.193	90.565	0.190	-0.212
-537.179	-72.375	-0.261	-0.096
-536.164	-200.000	0.053	-0.301
-535.150	-104.785	0.298	0.068
-534.135	-93.694	-0.061	0.017
-533.121	-33.991	-0.288	-0.158
-532.106	355.582	0.074	-0.147
-531.091	-200.000	0.077	0.375
-530.077	800.000	0.038	0.120
-529.062	-99.605	-0.126	-0.031
-528.048	-200.000	0.002	0.359
-527.033	-143.813	-0.069	0.007
-526.018	-32.780	-0.084	0.047
-525.004	-200.000	0.048	0.279
-523.989	800.000	0.050	-0.142
-522.975	60.724	0.059	-0.059
-521.960	80.610	-0.131	-0.140
-520.945	147.161	-0.246	0.329
-519.931	262.153	-0.134	0.232
-518.916	-141.483	0.087	0.009
-517.902	-168.514	0.080	-0.003
-516.887	-126.368	-0.285	0.042
-515.872	-200.000	-0.036	0.335
-514.858	800.000	-0.098	0.309
-513.843	173.898	-0.021	0.030
-512.829	-86.738	-0.275	-0.084
-511.814	-80.330	-0.212	-0.070
-510.799	209.524	0.306	-0.477
-509.785	-5.271	-0.133	-0.091
-508.770	800.000	0.015	0.054
-507.756	-84.602	-0.238	0.075
-506.741	142.850	0.104	-0.138
-505.726	-4.556	0.326	-0.224
-504.712	800.000	0.054	-0.155
-503.697	435.712	0.018	-0.039
-502.683	141.758	0.203	0.267
-501.668	-148.193	-0.082	0.007
-500.653	-62.382	0.053	-0.022
-499.639	373.404	0.243	-0.490
-498.624	-93.499	-0.255	-0.070
-497.610	434.281	0.022	-0.048
-496.595	-142.866	-0.031	-0.003
-495.581	-154.613	-0.082	0.005
-494.566	270.130	0.123	0.215
-493.551	161.514	-0.064	0.089
-492.537	-200.000	0.022	0.136
-491.522	-96.922	0.367	-0.096
-490.508	-45.929	0.112	0.055
-489.493	163.819	0.170	0.238
-488.478	-75.922	-0.101	-0.035
-487.464	-94.331	0.028	-0.008
-486.449	-200.000	-0.019	0.137
-485.435	-200.000	-0.022	0.108
-484.420	-138.085	0.444	-0.049
-483.405	-166.335	0.222	-0.009
-482.391	-172.407	0.258	0.008
-481.376	-200.000	-0.009	0.225
-480.362	406.358	-0.050	0.106
-479.347	-200.000	0.000	-0.033
-478.332	800.000	0.040	-0.133
-477.318	-73.911	-0.295	0.106
-476.303	0.974	0.156	-0.111
-475.289	-42.002	-0.272	0.138
-474.274	-46.359	0.088	-0.043
-473.259	16.857	-0.178	-0.140
-472.245	7.662	-0.155	0.115
-471.230	138.117	0.089	-0.116
-470.216	-108.634	0.113	0.024
-469.201	-200.000	0.012	0.225
-468.186	-53.111	0.176	-0.080
-467.172	175.616	-0.061	0.087
-466.157	147.708	-0.215	-0.287
-465.143	151.784	-0.042	-0.057
-464.128	-200.000	-0.031	0.245
-463.113	154.048	-0.114	0.155
-462.099	235.064	-0.027	0.044
-461.084	800.000	-0.046	-0.187
-460.070	-121.791	0.177	0.029
-459.055	105.439	0.156	0.183
-458.040	19.731	-0.348	-0.278
-457.026	-121.918	-0.143	-0.023
-456.011	800.000	0.023	0.094
-454.997	501.308	0.121	-0.278
-453.982	141.816	-0.248	-0.326
-452.968	-122.795	0.041	0.007
-451.953	-151.874	0.249	0.018
-450.938	-200.000	-0.049	0.272
-449.924	586.054	-0.153	-0.373
-448.909	182.961	-0.141	-0.206
-447.895	1.417	-0.008	0.006
-446.880	4.606	-0.303	0.221
-445.865	-115.955	0.211	-0.039
-444.851	202.454	0.209	-0.319
-443.836	-65.656	-0.102	0.040
-442.822	-6.928	0.079	-0.053
-441.807	3.977	0.153	-0.111
-440.792	210.976	-0.083	0.129
-439.778	-114.910	-0.118	0.022
-438.763	290.822	-0.065	0.117
-437.749	-103.955	-0.239	-0.055
-436.734	767.195	-0.067	-0.180
-435.719	69.336	-0.157	-0.160
-434.705	113.848	-0.041	0.050
-433.690	55.573	0.223	-0.214
-432.676	-19.112	0.184	0.113
-431.661	-193.960	-0.272	-0.002
-430.646	36.951	0.121	0.106
-429.632	-107.646	-0.171	0.037
-428.617	-200.000	-0.021	-0.173
-427.603	-76.651	0.282	-0.098
-426.588	-74.706	0.380	0.135
-425.573	397.219	0.110	0.228
-424.559	73.715	-0.218	-0.226
-423.544	-111.346	-0.089	0.018
-422.530	69.262	0.237	-0.242
-421.515	79.033	-0.232	-0.246
-420.500	423.322	-0.059	-0.126
-419.486	-193.921	0.450	-0.004
-418.471	-200.000	-0.030	0.262
-417.457	-139.252	0.150	0.016
-416.442	-200.000	-0.013	0.178
-415.428	45.886	-0.055	0.051
-414.413	290.638	-0.117	0.210
-413.398	-200.000	-0.005	0.080
-412.384	67.907	-0.140	-0.142
-411.369	47.620	0.155	0.143
-410.355	59.855	0.079	0.077
-409.340	332.076	-0.117	0.224
-408.325	-200.000	-0.015	0.148
-407.311	404.350	0.060	0.124
-406.296	143.898	-0.088	0.116
-405.282	-27.625	-0.113	0.065
-404.267	-200.000	-0.070	-0.448
-403.252	21.608	-0.200	0.161
-402.238	-177.582	-0.188	-0.005
-401.223	14.545	-0.120	-0.093
-400.209	183.992	0.115	-0.168
-399.194	-24.196	-0.110	0.065
-398.179	-117.532	0.055	-0.010
-397.165	-19.334	-0.086	-0.053
-396.150	-146.198	0.205	0.018
-395.136	-103.083	-0.215	0.050
-394.121	28.953	0.471	-0.395
-393.106	-153.535	0.265	-0.018
-392.092	551.314	0.124	-0.293
-391.077	169.551	-0.207	-0.292
-390.063	-115.122	-0.098	-0.018
-389.048	-200.000	0.011	-0.064
-388.033	61.078	-0.116	-0.114
-387.019	472.999	-0.034	-0.075
-386.004	-90.173	0.438	0.126
-384.990	-149.381	-0.415	0.033
-383.975	-106.503	-0.499	-0.110
-382.960	-139.337	-0.149	0.016
-381.946	188.185	0.190	0.280
-380.931	-200.000	0.024	0.141
-379.917	-200.000	0.009	-0.094
-378.902	-168.212	0.217	-0.008
-377.888	50.592	0.184	0.172
-376.873	11.780	-0.185	0.140
-375.858	-200.000	0.050	0.573
-374.844	100.513	-0.132	-0.152
-373.829	-91.936	-0.147	-0.041
-372.815	-72.158	-0.044	0.016
-371.800	21.792	-0.197	-0.158
-370.785	-148.834	-0.241	-0.019
-369.771	-151.611	0.076	-0.006
-368.756	-200.000	0.033	0.153
-367.742	-24.788	0.058	0.034
-366.727	800.000	0.065	0.194
-365.712	-200.000	0.005	0.078
-364.698	-112.854	0.338	-0.066
-363.683	-69.738	0.152	0.057
-362.669	-71.380	0.335	0.124
-361.654	360.243	0.177	0.351
-360.639	66.437	-0.067	-0.068
-359.625	719.164	-0.100	0.263
-358.610	-14.009	0.245	-0.157
-357.596	-20.833	-0.046	-0.028
-356.581	-147.671	0.270	0.022
-355.566	-200.000	-0.039	0.418
-354.552	-200.000	-0.001	0.089
-353.537	-200.000	-0.002	-0.431
-352.523	47.838	0.135	-0.125
-351.508	343.316	-0.034	0.066
-350.493	-80.714	0.262	0.086
-349.479	-106.471	-0.292	0.064
-348.464	-34.990	-0.088	-0.047
-347.450	-30.922	-0.140	0.078
-346.435	511.985	0.015	0.034
-345.420	-67.014	-0.116	0.045
-344.406	-200.000	-0.038	-0.175
-343.391	-100.063	0.115	-0.028
-342.377	800.000	-0.030	0.120
-341.362	536.711	-0.082	-0.192
-340.348	-34.929	0.151	0.081
-339.333	768.008	-0.050	-0.135
-338.318	-124.447	-0.072	0.011
-337.304	800.000	-0.041	-0.134
-336.289	76.102	-0.149	-0.156
-335.275	136.023	0.143	0.184
-334.260	710.987	0.089	-0.231
-333.245	800.000	0.083	-0.275
-332.231	-6.926	0.308	-0.207
-331.216	-9.321	-0.277	0.182
-330.202	-29.639	-0.078	-0.044
-329.187	-67.374	-0.150	-0.058
-328.172	800.000	0.036	0.147
-327.158	-127.300	-0.289	-0.042
-326.143	-25.452	0.074	-0.043
-325.129	240.404	-0.135	0.223
-324.114	109.298	0.137	0.162
-323.099	-165.860	-0.086	0.004
-322.085	-157.656	0.128	0.008
-321.070	-82.063	0.220	0.071
-320.056	93.458	0.189	-0.211
-319.041	-114.692	0.164	-0.031
-318.026	-200.000	-0.050	-0.356
-317.012	800.000	-0.073	0.214
-315.997	-200.000	0.020	-0.115
-314.983	336.583	-0.029	0.056
-313.968	92.246	0.088	-0.098
-312.953	172.066	-0.093	-0.131
-311.939	73.270	-0.347	-0.358
-310.924	-115.804	-0.240	0.044
-309.910	-40.249	-0.184	0.094
-308.895	-200.000	-0.040	0.293
-307.880	-39.125	0.243	-0.126
-306.866	-200.000	-0.057	0.378
-305.851	86.605	0.124	0.135
-304.837	-21.327	0.133	-0.080
-303.822	-17.873	0.087	0.054
-302.807	800.000	-0.044	0.147
-301.793	37.063	-0.117	0.102
-300.778	-146.616	-0.178	-0.015
-299.764	495.352	0.071	-0.161
-298.749	34.956	0.129	-0.111
-297.735	-143.854	-0.203	-0.019
-296.720	-64.360	0.284	-0.114
-295.705	800.000	0.130	-0.391
-294.691	336.050	-0.159	-0.304
-293.676	-200.000	-0.005	0.198
-292.662	-133.396	0.139	0.017
-291.647	437.221	-0.165	-0.354
-290.632	-68.630	0.075	0.029
-289.618	248.062	-0.098	-0.162
-288.603	800.000	-0.073	-0.200
-287.589	-200.000	0.009	-0.123
-286.574	-63.288	0.149	-0.060
-285.559	704.251	0.091	-0.237
-284.545	113.949	0.092	-0.111
-283.530	-140.513	0.358	0.037
-282.516	178.565	-0.315	0.453
-281.501	-24.544	-0.026	0.015
-280.486	-200.000	0.024	-0.114
-279.472	800.000	-0.077	0.213
-278.457	-131.104	0.393	0.052
-277.443	800.000	0.092	-0.302
-276.428	508.111	0.212	-0.485
-275.413	357.069	0.211	0.414
-274.399	285.667	-0.016	-0.028
-273.384	-200.000	-0.047	0.348
-272.370	-113.151	0.149	-0.029
-271.355	-200.000	0.073	-0.448
-270.340	33.567	-0.138	0.118
-269.326	401.789	0.081	0.168
-268.311	-200.000	0.010	0.143
-267.297	-200.000	-0.017	-0.191
-266.282	-5.873	0.149	0.101
-265.267	797.259	-0.084	0.228
-264.253	779.465	-0.192	-0.518
-263.238	196.446	-0.133	-0.199
-262.224	-58.420	0.051	0.022
-261.209	-92.209	-0.163	0.045
-260.195	800.000	-0.124	0.400
-259.180	766.122	0.070	0.186
-258.165	-111.469	0.153	0.031
-257.151	-143.455	0.325	0.031
-256.136	47.030	-0.212	-0.194
-255.122	2.453	0.254	0.181
-254.107	-100.992	0.292	-0.070
-253.092	54.427	0.227	0.216
-252.078	9.504	0.174	0.130
-251.063	-23.598	-0.121	0.072
-250.049	54.821	0.067	-0.064
-249.034	-134.240	-0.152	0.018
-248.019	-118.633	-0.150	-0.026
-247.005	-87.132	-0.220	0.066
-245.990	-200.000	0.030	0.162
-244.976	800.000	0.091	0.274
-243.961	-200.000	-0.003	-0.019
-242.946	5.881	0.239	-0.174
-241.932	-107.829	-0.135	0.029
-240.917	-137.727	0.040	0.004
-239.903	-7.324	0.213	0.142
-238.888	-200.000	0.053	-0.374
-237.873	319.059	0.068	-0.126
-236.859	-40.270	0.379	-0.194
-235.844	372.351	-0.041	-0.081
-234.830	66.458	-0.066	0.066
-233.815	-59.378	-0.337	-0.143
-232.800	154.768	-0.074	-0.100
-231.786	800.000	0.097	0.273
-230.771	-200.000	-0.050	0.362
-229.757	548.222	-0.054	0.127
-228.742	15.912	0.197	0.153
-227.727	-147.154	0.280	0.024
-226.713	-69.812	0.373	-0.140
-225.698	106.792	0.180	0.210
-224.684	71.060	-0.204	0.208
-223.669	-163.934	0.102	0.005
-222.655	-23.427	-0.053	-0.031
-221.640	-200.000	-0.012	0.164
-220.625	97.956	0.116	0.131
-219.611	458.074	0.026	0.057
-218.596	261.453	0.103	-0.175
-217.582	-200.000	0.022	-0.156
-216.567	105.630	-0.189	0.219
-215.552	174.011	0.103	0.146
-214.538	29.612	0.070	0.058
-213.523	3.854	0.284	0.204
-212.509	268.390	0.078	-0.135
-211.494	-80.471	0.408	-0.134
-210.479	-52.158	0.132	0.060
-209.465	-67.494	0.146	0.056
-208.450	-81.330	-0.350	-0.113
-207.436	-153.024	0.132	0.009
-206.421	800.000	0.017	-0.060
-205.406	613.230	0.078	-0.192
-204.392	800.000	-0.069	-0.197
-203.377	800.000	0.059	0.188
-202.363	800.000	-0.057	0.166
-201.348	219.746	0.158	0.248
-200.333	597.715	0.119	-0.288
-199.319	365.824	-0.132	-0.261
-198.304	381.768	-0.103	0.208
-197.290	184.384	-0.056	-0.082
-196.275	-59.157	-0.367	0.155
-195.260	-101.896	0.168	0.040
-194.246	-138.699	0.104	0.011
-193.231	-200.000	-0.057	0.298
-192.217	-200.000	-0.032	0.204
-191.202	-200.000	0.001	-0.010
-190.187	-200.000	-0.042	0.270
-189.173	170.428	-0.034	0.047
-188.158	67.037	0.189	0.189
-187.144	-144.631	-0.327	0.030
-186.129	128.042	0.170	-0.212
-185.114	-74.773	-0.229	0.081
-184.100	-145.993	0.075	-0.007
-183.085	362.625	-0.271	-0.533
-182.071	-113.844	0.156	0.030
-181.056	-200.000	-0.049	0.325
-180.042	-16.791	-0.423	0.262
-179.027	271.264	0.130	0.225
-178.012	-162.499	0.315	0.015
-176.998	-73.344	-0.105	-0.038
-175.983	-35.536	0.128	-0.068
-174.969	-200.000	0.014	-0.438
-173.954	-200.000	0.033	-0.164
-172.939	-200.000	0.002	-0.103
-171.925	753.525	0.070	0.186
-170.910	-200.000	0.013	-0.059
-169.896	-163.820	0.417	-0.019
-168.881	-200.000	0.028	0.240
-167.866	-4.744	0.199	-0.135
-166.852	-22.847	-0.257	-0.152
-165.837	-83.460	0.342	0.107
-164.823	-114.582	0.243	-0.046
-163.808	616.477	-0.031	-0.075
-162.793	-54.379	0.049	-0.022
-161.779	-100.962	-0.306	0.074
-160.764	-16.500	-0.163	0.101
-159.750	-200.000	-0.001	-0.151
-158.735	37.620	0.483	0.420
-157.720	51.913	0.060	0.056
-156.706	-25.502	-0.274	0.159
-155.691	-200.000	0.020	0.394
-154.677	-60.149	0.512	-0.214
-153.662	-86.052	-0.110	-0.033
-152.647	210.197	0.060	0.092
-151.633	-75.191	0.098	-0.034
-150.618	800.000	-0.094	0.321
-149.604	-50.603	-0.137	0.063
-148.589	-161.371	-0.245	-0.012
-147.574	277.147	0.320	-0.558
-146.560	-88.590	-0.224	0.065
-145.545	-200.000	0.045	-0.235
-144.531	99.852	0.157	0.178
-143.516	-200.000	0.031	0.206
-142.502	-122.112	0.291	0.047
-141.487	197.650	0.200	-0.299
-140.472	-98.026	0.244	-0.062
-139.458	303.758	-0.100	0.181
-138.443	-87.114	0.126	0.038
-137.429	-79.303	-0.162	-0.054
-136.414	498.935	-0.129	0.291
-135.399	86.024	0.208	-0.224
-134.385	426.719	-0.100	-0.211
-133.370	-19.918	0.213	0.129
-132.356	17.815	0.344	-0.268
-131.341	43.742	0.232	-0.208
-130.326	-200.000	0.002	-0.047
-129.312	107.030	0.255	0.296
-128.297	132.511	0.192	0.242
-127.283	800.000	0.043	-0.143
-126.268	478.042	-0.069	0.152
-125.253	73.429	0.521	0.534
-124.239	38.802	-0.203	-0.177
-123.224	-186.344	-0.251	0.004
-122.210	243.675	-0.099	0.162
-121.195	280.232	0.118	0.206
