DTS Sentinel unit serial number:	SN413079Multiplexer serial number:	ORYXHardware model number:	OX4-SRSoftware version number:	ORYX F/W v4.00 Oryx Data Collector v3.7.2.0data status	okinstallation	princeton_trtdifferential loss correction	single-endedforward channel	channel 1reverse channel	N/Adate	2019/09/17time	00:30:35forward acquisition time	60.00reverse acquisition time	0.00gamma	496.2192k internal	0.2324k external	0.2324temperature offset calibration	0.9959default loss term (dB/km)	0.3790temperature slope calibration	1.0000multiplexer offset coefficient	1.0000multiplexer slope coefficient	1.0000fibre end	0.00T internal ref (°C)	29.48T ext. ref 1 (°C)	0.09T ext. ref 2 (°C)	23.80length (m)	temperature (°C)	Stokes	anti-Stokes-747.200	800.000	-0.037	-0.116
-746.185	-2.379	0.146	0.104
-745.171	25.759	-0.140	0.117
-744.156	59.228	-0.201	0.200
-743.142	66.185	0.255	0.262
-742.127	-54.658	-0.166	-0.076
-741.112	123.168	-0.136	-0.172
-740.098	63.153	0.243	0.246
-739.083	800.000	0.071	0.297
-738.069	149.446	-0.211	0.289
-737.054	800.000	-0.051	0.152
-736.039	-200.000	-0.004	0.237
-735.025	176.774	-0.193	0.284
-734.010	72.611	-0.098	0.103
-732.996	744.176	0.095	-0.257
-731.981	-200.000	-0.068	-0.411
-730.966	800.000	0.017	-0.058
-729.952	-16.399	-0.234	0.150
-728.937	421.384	-0.173	-0.374
-727.923	6.140	0.350	-0.262
-726.908	800.000	-0.076	-0.242
-725.894	-5.545	-0.135	0.094
-724.879	0.570	0.236	-0.170
-723.864	-158.188	-0.132	-0.008
-722.850	-200.000	-0.002	-0.195
-721.835	100.895	-0.052	-0.062
-720.821	240.474	0.066	0.111
-719.806	-88.941	-0.273	-0.082
-718.791	-124.610	0.144	0.022
-717.777	-31.544	0.141	0.080
-716.762	-28.859	0.034	0.020
-715.748	-72.742	0.210	0.078
-714.733	208.027	0.134	-0.211
-713.718	63.262	-0.212	-0.214
-712.704	-200.000	-0.234	-0.001
-711.689	147.439	0.053	-0.072
-710.675	85.297	0.041	-0.046
-709.660	18.104	-0.219	0.176
-708.645	-20.295	-0.257	-0.160
-707.631	52.554	0.081	-0.078
-706.616	-36.021	-0.313	0.171
-705.602	62.409	-0.208	-0.210
-704.587	510.039	-0.057	-0.135
-703.572	2.814	-0.045	-0.033
-702.558	-11.085	0.173	-0.115
-701.543	319.743	0.107	0.205
-700.529	800.000	-0.080	-0.246
-699.514	800.000	0.095	-0.412
-698.499	45.199	0.123	0.114
-697.485	-106.881	-0.075	0.017
-696.470	-63.094	0.153	0.064
-695.456	-117.015	-0.390	-0.072
-694.441	486.889	-0.153	0.352
-693.426	57.026	0.152	-0.149
-692.412	-200.000	-0.004	-0.132
-691.397	53.300	-0.235	-0.227
-690.383	296.255	0.017	-0.031
-689.368	488.431	0.023	0.054
-688.354	-150.798	-0.072	0.006
-687.339	-139.739	-0.197	-0.021
-686.324	353.246	-0.095	-0.189
-685.310	58.977	-0.170	-0.168
-684.295	300.578	0.141	0.262
-683.281	-98.176	0.179	0.046
-682.266	-94.729	0.131	0.036
-681.251	265.633	-0.095	-0.166
-680.237	800.000	-0.088	0.252
-679.222	-40.422	-0.107	-0.056
-678.208	-95.959	-0.206	0.055
-677.193	132.761	-0.010	0.013
-676.178	-28.278	-0.432	-0.251
-675.164	-21.329	-0.279	0.171
-674.149	-82.491	0.113	0.037
-673.135	52.884	0.179	0.172
-672.120	-103.620	-0.309	-0.073
-671.105	389.881	-0.217	0.454
-670.091	-65.201	-0.292	-0.119
-669.076	-24.782	0.163	-0.097
-668.062	133.293	0.118	-0.153
-667.047	112.255	0.039	-0.047
-666.032	-121.027	0.145	-0.024
-665.018	14.731	0.279	-0.220
-664.003	-29.667	-0.174	-0.100
-662.989	713.540	0.012	-0.032
-661.974	-109.080	-0.268	-0.057
-660.959	-121.561	0.225	-0.038
-659.945	800.000	-0.083	0.299
-658.930	211.666	0.139	0.220
-657.916	-200.000	-0.030	0.137
-656.901	799.760	-0.038	-0.106
-655.886	-102.489	-0.497	-0.120
-654.872	-16.867	0.113	-0.072
-653.857	141.369	-0.060	-0.080
-652.843	19.970	-0.064	-0.052
-651.828	-200.000	-0.022	-0.123
-650.814	206.709	-0.081	0.127
-649.799	-69.132	-0.177	-0.069
-648.784	117.120	0.165	0.204
-647.770	-125.144	-0.306	-0.047
-646.755	-22.915	-0.108	-0.065
-645.741	-109.625	0.274	0.058
-644.726	481.999	0.073	0.167
-643.711	-139.548	0.193	-0.021
-642.697	-200.000	-0.001	-0.059
-641.682	-200.000	0.023	0.104
-640.668	-39.281	-0.319	-0.169
-639.653	166.017	-0.117	-0.166
-638.638	115.083	0.135	0.166
-637.624	-7.591	-0.232	0.158
-636.609	15.959	0.089	-0.071
-635.595	-106.493	0.219	0.049
-634.580	-61.261	0.227	0.096
-633.565	800.000	-0.065	0.259
-632.551	-53.380	0.389	0.179
-631.536	53.700	-0.217	0.210
-630.522	6.336	0.252	-0.188
-629.507	9.204	-0.220	0.167
-628.492	68.038	0.111	0.114
-627.478	-200.000	-0.030	0.168
-626.463	-87.862	0.309	0.094
-625.449	162.570	0.118	0.166
-624.434	-66.010	-0.125	-0.050
-623.419	184.521	0.171	-0.255
-622.405	-41.066	0.050	-0.026
-621.390	14.026	0.171	0.134
-620.376	17.214	0.297	0.236
-619.361	-122.316	-0.484	-0.079
-618.346	-60.306	-0.217	-0.093
-617.332	85.025	0.259	0.285
-616.317	-200.000	-0.002	-0.080
-615.303	272.507	-0.094	-0.167
-614.288	-67.552	-0.556	-0.219
-613.273	-103.533	-0.373	0.088
-612.259	31.383	0.220	-0.190
-611.244	50.811	0.317	0.302
-610.230	49.899	-0.313	-0.296
-609.215	-95.961	0.118	0.032
-608.201	57.893	-0.119	-0.117
-607.186	190.488	-0.158	0.238
-606.171	565.451	-0.113	0.276
-605.157	-14.058	0.162	0.105
-604.142	176.639	0.094	0.137
-603.128	127.852	-0.360	-0.459
-602.113	-151.209	0.178	0.013
-601.098	-62.861	0.419	-0.174
-600.084	228.399	-0.192	-0.314
-599.069	-116.939	0.370	-0.068
-598.055	800.000	-0.006	-0.021
-597.040	800.000	-0.047	0.196
-596.025	240.334	-0.187	0.313
-595.011	-70.904	0.143	-0.054
-593.996	326.762	-0.173	-0.333
-592.982	-130.152	0.231	-0.032
-591.967	-22.886	0.123	0.074
-590.952	-200.000	-0.020	-0.267
-589.938	62.954	-0.138	-0.139
-588.923	800.000	-0.066	-0.250
-587.909	-104.877	0.220	0.051
-586.894	-146.655	-0.224	0.020
-585.879	-18.327	-0.452	0.283
-584.865	-122.613	-0.123	-0.020
-583.850	-72.231	-0.466	-0.173
-582.836	406.050	-0.090	-0.191
-581.821	16.939	0.291	-0.232
-580.806	-94.207	-0.204	-0.056
-579.792	251.514	0.082	-0.140
-578.777	-110.396	-0.170	0.035
-577.763	-200.000	0.042	0.268
-576.748	491.370	-0.038	-0.086
-575.733	-200.000	-0.048	-0.291
-574.719	51.725	0.158	-0.151
-573.704	145.256	-0.167	-0.225
-572.690	97.270	0.159	-0.183
-571.675	-200.000	0.014	-0.213
-570.661	-24.503	0.126	-0.075
-569.646	800.000	0.102	-0.380
-568.631	-200.000	0.014	-0.163
-567.617	-127.074	-0.246	0.036
-566.602	800.000	0.037	0.158
-565.588	-107.062	0.461	-0.102
-564.573	535.121	0.084	0.200
-563.558	764.093	-0.137	0.372
-562.544	-200.000	-0.004	-0.117
-561.529	17.224	-0.161	-0.128
-560.515	234.088	-0.194	-0.320
-559.500	-16.244	0.137	-0.087
-558.485	-90.659	0.414	0.120
-557.471	-60.318	0.027	0.012
-556.456	-32.811	0.221	-0.123
-555.442	14.495	-0.182	-0.142
-554.427	800.000	0.088	0.273
-553.412	98.184	-0.207	0.238
-552.398	255.306	0.156	0.269
-551.383	-200.000	-0.048	-0.284
-550.369	-102.607	-0.109	0.026
-549.354	-52.991	-0.094	0.043
-548.339	-200.000	-0.033	-0.284
-547.325	800.000	-0.041	-0.146
-546.310	76.585	0.134	-0.142
-545.296	-123.354	-0.172	0.027
-544.281	257.419	0.201	0.347
-543.266	-200.000	-0.010	-0.146
-542.252	486.771	-0.104	-0.238
-541.237	-200.000	-0.058	-0.387
-540.223	17.404	0.276	0.220
-539.208	286.647	0.073	-0.132
-538.193	-200.000	-0.019	-0.219
-537.179	372.463	0.082	-0.167
-536.164	9.544	0.057	-0.043
-535.150	-200.000	0.062	-0.280
-534.135	-132.151	0.149	-0.019
-533.121	-200.000	-0.018	-0.362
-532.106	-174.718	0.326	0.009
-531.091	-160.905	-0.144	-0.008
-530.077	-108.436	0.094	-0.020
-529.062	-87.657	0.245	-0.074
-528.048	-15.379	0.070	0.045
-527.033	-175.038	-0.148	0.004
-526.018	-130.378	0.027	-0.004
-525.004	-200.000	0.019	0.126
-523.989	-200.000	0.017	0.102
-522.975	93.620	-0.142	0.161
-521.960	40.634	0.143	0.129
-520.945	-200.000	-0.006	0.417
-519.931	-185.596	-0.189	0.003
-518.916	13.491	0.371	0.288
-517.902	516.806	0.051	0.118
-516.887	-200.000	-0.038	-0.308
-515.872	36.449	-0.197	0.174
-514.858	216.594	-0.064	-0.102
-513.843	102.549	0.054	-0.063
-512.829	-200.000	-0.019	0.245
-511.814	-200.000	0.037	0.356
-510.799	-62.433	-0.169	0.070
-509.785	-200.000	-0.044	-0.255
-508.770	37.126	-0.216	0.191
-507.756	354.387	0.062	-0.123
-506.741	75.646	-0.149	0.158
-505.726	800.000	-0.126	-0.426
-504.712	800.000	0.045	-0.174
-503.697	106.791	0.156	0.185
-502.683	114.496	-0.019	0.023
-501.668	800.000	-0.101	-0.404
-500.653	-200.000	0.012	-0.181
-499.639	4.055	-0.133	-0.097
-498.624	-71.018	0.244	-0.092
-497.610	-200.000	-0.070	0.316
-496.595	-107.771	-0.102	0.022
-495.581	-83.378	-0.119	-0.038
-494.566	18.680	-0.125	0.100
-493.551	-71.225	-0.388	-0.146
-492.537	546.647	0.202	-0.484
-491.522	-50.244	-0.175	0.083
-490.508	-200.000	0.049	-0.338
-489.493	-48.562	-0.273	0.131
-488.478	-152.535	0.208	-0.015
-487.464	-107.647	-0.466	0.102
-486.449	-200.000	-0.013	-0.174
-485.435	36.656	-0.147	-0.130
-484.420	-90.416	-0.193	-0.056
-483.405	800.000	-0.014	-0.057
-482.391	163.650	0.076	-0.107
-481.376	72.296	0.094	-0.097
-480.362	58.357	-0.242	-0.237
-479.347	-74.538	-0.168	0.061
-478.332	-200.000	0.008	-0.251
-477.318	99.039	0.044	-0.051
-476.303	-130.895	-0.136	0.018
-475.289	800.000	-0.043	-0.166
-474.274	195.874	-0.159	0.241
-473.259	55.044	0.090	-0.087
-472.245	-200.000	-0.003	0.219
-471.230	-83.177	-0.226	0.073
-470.216	800.000	0.170	0.479
-469.201	-150.465	-0.196	0.015
-468.186	-70.820	-0.285	-0.107
-467.172	-200.000	0.021	0.093
-466.157	-99.743	-0.184	-0.046
-465.143	93.131	-0.154	0.174
-464.128	-200.000	0.014	-0.172
-463.113	89.553	-0.165	0.184
-462.099	105.154	0.185	0.218
-461.084	363.289	0.070	-0.141
-460.070	708.732	0.056	-0.148
-459.055	-174.818	-0.139	0.004
-458.040	-68.080	0.139	0.054
-457.026	-32.128	-0.281	-0.157
-456.011	-169.439	-0.190	0.007
-454.997	-200.000	-0.055	-0.336
-453.982	96.073	-0.141	0.161
-452.968	-120.035	-0.240	0.041
-451.953	505.823	-0.167	-0.386
-450.938	800.000	0.067	-0.216
-449.924	604.757	0.038	-0.095
-448.909	-160.850	0.303	0.016
-447.895	-101.514	0.185	0.045
-446.880	512.150	-0.004	0.009
-445.865	-200.000	0.011	-0.340
-444.851	-12.761	0.152	0.099
-443.836	-68.071	0.144	0.056
-442.822	213.166	-0.121	-0.190
-441.807	13.770	-0.120	0.093
-440.792	3.021	0.136	0.099
-439.778	-200.000	-0.015	-0.264
-438.763	800.000	-0.075	0.209
-437.749	800.000	0.038	0.107
-436.734	-85.684	-0.319	-0.099
-435.719	800.000	0.114	0.367
-434.705	249.510	-0.112	0.189
-433.690	59.998	0.165	-0.162
-432.676	800.000	0.110	0.335
-431.661	-15.138	0.238	0.152
-430.646	-83.822	-0.063	-0.020
-429.632	637.028	-0.041	-0.105
-428.617	-100.185	0.033	0.008
-427.603	-52.465	-0.394	0.182
-426.588	-182.240	0.402	0.007
-425.573	-119.672	-0.122	0.021
-424.559	-200.000	0.001	0.175
-423.544	-200.000	0.031	0.309
-422.530	-86.218	-0.059	0.018
-421.515	-3.359	0.165	0.114
-420.500	-76.010	-0.247	0.087
-419.486	-21.628	-0.178	0.108
-418.471	-134.134	0.247	0.030
-417.457	56.168	-0.170	-0.164
-416.442	800.000	0.025	-0.073
-415.428	-18.069	0.171	-0.106
-414.413	178.832	0.134	-0.195
-413.398	-132.703	-0.184	0.023
-412.384	-116.149	0.234	-0.043
-411.369	800.000	0.101	0.319
-410.355	4.502	0.242	-0.177
-409.340	-17.209	-0.365	-0.229
-408.325	-121.189	0.196	0.033
-407.311	-75.548	0.226	0.080
-406.296	38.743	-0.145	-0.129
-405.282	141.514	-0.094	0.124
-404.267	-200.000	-0.021	0.337
-403.252	-200.000	-0.010	0.079
-402.238	3.202	-0.078	0.057
-401.223	459.945	-0.043	0.094
-400.209	-198.810	0.289	-0.002
-399.194	-168.712	-0.080	-0.003
-398.179	70.855	0.132	-0.136
-397.165	-33.999	-0.016	-0.009
-396.150	26.127	-0.149	-0.124
-395.136	71.934	-0.271	-0.280
-394.121	800.000	-0.057	-0.193
-393.106	748.956	0.069	0.185
-392.092	-200.000	-0.085	-0.000
-391.077	-173.491	-0.184	-0.006
-390.063	-200.000	-0.036	0.203
-389.048	-107.255	0.075	0.016
-388.033	159.246	0.176	-0.244
-387.019	-200.000	-0.003	0.015
-386.004	-85.081	0.121	-0.038
-384.990	138.810	0.362	-0.473
-383.975	350.877	-0.034	-0.067
-382.960	50.484	-0.114	-0.107
-381.946	-41.774	0.101	-0.051
-380.931	-200.000	-0.003	0.196
-379.917	203.099	0.112	-0.172
-378.902	136.432	-0.256	-0.332
-377.888	183.608	-0.077	0.114
-376.873	315.757	0.055	-0.103
-375.858	-128.071	0.282	-0.040
-374.844	67.331	0.140	0.142
-373.829	800.000	0.044	-0.176
-372.815	800.000	0.056	0.183
-371.800	-200.000	-0.016	-0.453
-370.785	57.027	0.291	-0.282
-369.771	30.386	0.335	-0.284
-368.756	65.614	-0.176	0.177
-367.742	75.155	-0.147	-0.154
-366.727	88.639	-0.167	0.184
-365.712	-200.000	-0.025	0.127
-364.698	505.517	-0.067	-0.155
-363.683	145.397	0.052	-0.069
-362.669	-35.104	0.144	0.078
-361.654	-200.000	0.024	-0.119
-360.639	-21.041	0.273	-0.166
-359.625	-200.000	-0.021	-0.167
-358.610	-140.795	-0.056	0.006
-357.596	242.564	-0.096	0.159
-356.581	-102.513	-0.522	0.124
-355.566	27.971	-0.152	0.128
-354.552	-200.000	0.003	0.030
-353.537	53.280	0.268	0.255
-352.523	485.275	-0.041	-0.094
-351.508	-200.000	-0.022	-0.219
-350.493	800.000	-0.023	-0.075
-349.479	-13.035	0.180	-0.116
-348.464	-53.568	-0.241	0.109
-347.450	-200.000	0.006	-0.111
-346.435	-77.318	0.035	0.012
-345.420	335.792	0.128	-0.246
-344.406	-200.000	-0.017	-0.177
-343.391	800.000	-0.122	0.361
-342.377	-74.843	0.147	-0.052
-341.362	800.000	0.042	0.137
-340.348	-110.220	0.140	0.029
-339.333	-31.308	0.282	0.158
-338.318	13.856	0.220	0.170
-337.304	-120.194	-0.313	0.053
-336.289	800.000	0.047	0.195
-335.275	28.931	-0.238	0.201
-334.260	-175.036	-0.305	0.008
-333.245	-136.113	0.157	0.018
-332.231	63.872	-0.201	0.201
-331.216	-63.313	-0.203	0.083
-330.202	-200.000	0.045	-0.638
-329.187	171.619	-0.041	0.059
-328.172	472.302	0.044	0.098
-327.158	91.116	0.039	0.044
-326.143	96.969	0.082	0.093
-325.129	-17.317	-0.228	-0.142
-324.114	800.000	-0.024	-0.089
-323.099	-39.934	-0.413	0.214
-322.085	-200.000	0.020	0.327
-321.070	3.780	-0.129	-0.093
-320.056	-156.939	0.139	0.008
-319.041	184.457	-0.124	0.183
-318.026	86.807	0.098	0.107
-317.012	257.237	-0.044	-0.075
-315.997	-181.600	-0.238	0.005
-314.983	800.000	-0.071	-0.259
-313.968	363.995	-0.095	0.190
-312.953	-66.122	-0.155	0.061
-311.939	149.387	0.036	0.048
-310.924	-122.195	-0.305	0.050
-309.910	-129.967	-0.197	-0.027
-308.895	-60.457	0.251	0.106
-307.880	-200.000	0.006	-0.051
-306.866	145.072	0.025	-0.033
-305.851	52.706	0.031	0.030
-304.837	800.000	-0.033	-0.106
-303.822	36.367	0.229	0.200
-302.807	800.000	0.095	0.290
-301.793	800.000	0.046	0.197
-300.778	-118.950	-0.168	0.029
-299.764	-15.103	0.298	0.189
-298.749	783.422	0.047	0.127
-297.735	58.757	-0.128	-0.125
-296.720	-200.000	0.018	-0.089
-295.705	-200.000	-0.013	0.071
-294.691	800.000	-0.021	0.086
-293.676	-200.000	-0.051	0.349
-292.662	-136.376	0.193	0.022
-291.647	381.634	0.046	0.095
-290.632	-64.711	-0.222	0.089
-289.618	-200.000	0.041	0.318
-288.603	323.424	0.099	0.187
-287.589	56.573	-0.167	-0.162
-286.574	-197.467	-0.450	-0.003
-285.559	800.000	-0.113	0.406
-284.545	-200.000	-0.044	0.202
-283.530	-200.000	0.027	-0.121
-282.516	-35.577	0.063	-0.034
-281.501	-200.000	0.020	-0.164
-280.486	103.958	0.185	-0.216
-279.472	-93.854	0.159	0.043
-278.457	-120.218	-0.136	-0.023
-277.443	-39.809	0.070	-0.036
-276.428	-105.236	-0.087	-0.020
-275.413	240.113	0.125	-0.206
-274.399	-24.115	-0.109	-0.064
-273.384	-68.855	0.134	0.051
-272.370	723.932	0.098	-0.259
-271.355	74.170	-0.196	-0.203
-270.340	243.557	0.042	0.070
-269.326	-1.392	0.195	0.136
-268.311	-57.639	-0.155	0.067
-267.297	161.935	0.041	0.056
-266.282	249.026	0.095	-0.159
-265.267	12.104	0.098	0.075
-264.253	-200.000	0.043	0.289
-263.238	-127.766	-0.312	0.045
-262.224	275.490	-0.094	0.166
-261.209	800.000	0.050	0.166
-260.195	73.883	-0.163	0.170
-259.180	-200.000	-0.017	-0.302
-258.165	-34.748	0.071	0.039
-257.151	-200.000	0.024	0.231
-256.136	124.271	0.110	-0.136
-255.122	-200.000	-0.020	-0.267
-254.107	-200.000	0.081	0.417
-253.092	-122.226	0.179	0.029
-252.078	269.715	-0.160	0.279
-251.063	-2.197	-0.142	0.099
-250.049	-112.787	0.507	-0.100
-249.034	-131.181	0.221	0.029
-248.019	-10.316	0.412	-0.271
-247.005	-0.489	-0.118	0.083
-245.990	24.014	-0.026	0.022
-244.976	800.000	0.038	0.142
-243.961	324.616	-0.069	0.130
-242.946	-19.585	-0.096	0.059
-241.932	177.189	0.157	0.226
-240.917	-200.000	-0.017	0.381
-239.903	-48.912	0.340	-0.161
-238.888	800.000	-0.121	-0.333
-237.873	481.483	-0.097	-0.218
-236.859	-200.000	0.429	-0.000
-235.844	202.541	0.085	0.130
-234.830	-103.523	0.218	0.051
-233.815	-53.429	-0.404	0.183
-232.800	16.721	-0.147	0.115
-231.786	9.867	-0.152	-0.114
-230.771	-104.640	0.223	0.051
-229.757	-23.220	0.090	-0.054
-228.742	-86.076	0.383	-0.117
-227.727	233.839	0.025	0.041
-226.713	170.742	0.129	0.183
-225.698	-161.944	0.115	-0.006
-224.684	112.145	0.346	0.414
-223.669	373.935	-0.229	0.461
-222.655	29.771	0.172	-0.145
-221.640	-80.581	-0.085	-0.028
-220.625	114.233	-0.184	-0.221
-219.611	142.674	-0.002	-0.002
-218.596	-120.621	0.148	-0.025
-217.582	-15.042	-0.142	-0.090
-216.567	-43.190	0.096	0.048
-215.552	-45.031	-0.133	0.065
-214.538	-61.738	-0.103	0.043
-213.523	108.634	-0.096	-0.113
-212.509	-62.999	-0.364	0.149
-211.494	-200.000	-0.078	-0.395
-210.479	82.848	0.192	-0.207
-209.465	179.796	-0.187	0.271
-208.450	-53.710	0.246	0.111
-207.436	-53.391	-0.224	0.101
-206.421	40.875	0.152	-0.135
-205.406	117.499	-0.136	0.165
-204.392	116.907	0.178	0.216
-203.377	-42.929	0.384	-0.193
-202.363	13.175	-0.428	-0.327
-201.348	-200.000	0.055	-0.250
-200.333	-200.000	-0.057	0.306
-199.319	-82.518	0.140	0.045
-198.304	-200.000	-0.001	0.179
-197.290	115.763	-0.038	0.046
-196.275	-200.000	-0.022	-0.153
-195.260	-200.000	0.293	0.000
-194.246	-79.696	-0.330	0.110
-193.231	2.280	0.172	-0.123
-192.217	-2.196	-0.123	-0.085
-191.202	627.255	0.033	0.082
-190.187	-200.000	0.005	0.256
-189.173	-157.601	-0.118	-0.007
-188.158	-46.224	0.274	0.133
-187.144	-78.288	0.103	0.035
-186.129	-11.423	0.249	0.162
-185.114	-177.989	-0.143	-0.003
-184.100	119.864	-0.111	-0.136
-183.085	40.218	-0.232	0.206
-182.071	7.289	0.175	0.129
-181.056	3.034	-0.312	-0.224
-180.042	-200.000	-0.049	-0.322
-179.027	-96.042	0.258	0.068
-178.012	279.176	-0.119	0.209
-176.998	659.077	0.017	0.044
-175.983	800.000	0.085	-0.235
-174.969	-98.492	0.135	-0.034
-173.954	800.000	-0.033	0.139
-172.939	74.691	0.037	-0.039
-171.925	-100.531	0.253	0.062
-170.910	-0.919	0.127	-0.089
-169.896	-200.000	-0.006	-0.289
-168.881	800.000	-0.010	0.039
-167.866	76.389	-0.227	0.238
-166.852	-154.851	-0.183	0.012
-165.837	-200.000	0.060	0.313
-164.823	-175.821	0.249	0.007
-163.808	278.436	0.157	-0.276
-162.793	213.154	-0.041	0.063
-161.779	-200.000	0.055	0.367
-160.764	-93.124	0.562	-0.154
-159.750	-110.732	0.067	0.014
-158.735	-200.000	0.030	-0.192
-157.720	-152.617	-0.173	0.012
-156.706	160.511	-0.059	-0.081
-155.691	33.251	0.225	0.193
-154.677	510.663	0.139	0.320
-153.662	-200.000	0.024	-0.268
-152.647	209.217	0.115	-0.178
-151.633	-200.000	0.032	-0.146
-150.618	-200.000	0.086	0.377
-149.604	230.113	-0.243	0.392
-148.589	-200.000	0.095	0.466
-147.574	103.709	0.232	0.268
-146.560	179.724	-0.105	0.152
-145.545	-200.000	0.098	-0.436
-144.531	-113.067	0.142	-0.028
-143.516	-200.000	0.007	-0.034
-142.502	149.882	0.057	0.076
-141.487	-80.350	-0.147	0.049
-140.472	800.000	-0.043	0.125
-139.458	-154.046	-0.342	-0.023
-138.443	-112.801	-0.152	-0.030
-137.429	27.680	0.125	0.104
-136.414	39.383	0.245	-0.216
-135.399	227.126	0.065	-0.105
-134.385	-200.000	0.023	-0.446
-133.370	-71.699	-0.022	0.008
-132.356	800.000	-0.039	-0.161
-131.341	-25.860	0.242	-0.140
-130.326	82.256	0.127	-0.136
-129.312	112.325	0.135	-0.161
-128.297	4.258	0.241	-0.174
-127.283	291.539	-0.162	-0.290
-126.268	11.066	0.071	0.053
-125.253	800.000	-0.061	0.219
-124.239	800.000	-0.049	0.136
-123.224	96.026	-0.145	0.163
-122.210	-17.405	-0.151	0.093
-121.195	282.828	0.158	0.280
