DTS Sentinel unit serial number:	SN413079Multiplexer serial number:	ORYXHardware model number:	OX4-SRSoftware version number:	ORYX F/W v4.00 Oryx Data Collector v3.7.2.0data status	okinstallation	princeton_trtdifferential loss correction	single-endedforward channel	channel 1reverse channel	N/Adate	2019/09/15time	06:46:35forward acquisition time	60.00reverse acquisition time	0.00gamma	496.2192k internal	0.2325k external	0.2325temperature offset calibration	0.9992default loss term (dB/km)	0.3790temperature slope calibration	1.0000multiplexer offset coefficient	1.0000multiplexer slope coefficient	1.0000fibre end	0.00T internal ref (°C)	30.48T ext. ref 1 (°C)	4.80T ext. ref 2 (°C)	25.48length (m)	temperature (°C)	Stokes	anti-Stokes-747.200	-42.710	0.216	-0.111
-746.185	-91.898	-0.400	0.114
-745.171	-106.392	0.101	0.023
-744.156	800.000	-0.163	0.496
-743.142	348.840	-0.067	0.133
-742.127	-93.847	-0.070	-0.019
-741.112	560.959	-0.180	0.439
-740.098	-83.010	0.480	-0.156
-739.083	-109.814	0.317	0.067
-738.069	74.684	-0.062	-0.066
-737.054	6.848	0.169	0.127
-736.039	-13.081	-0.263	0.172
-735.025	188.308	0.088	-0.132
-734.010	267.628	-0.192	-0.340
-732.996	69.954	-0.282	-0.293
-731.981	92.310	0.123	-0.140
-730.966	-200.000	0.050	-0.492
-729.952	800.000	0.087	0.332
-728.937	274.183	-0.058	0.103
-727.923	778.541	-0.057	-0.156
-726.908	238.756	-0.038	0.065
-725.894	37.333	0.150	0.134
-724.879	89.398	-0.119	0.133
-723.864	800.000	-0.067	-0.223
-722.850	662.644	-0.034	-0.088
-721.835	3.871	-0.154	-0.114
-720.821	-157.164	0.455	0.028
-719.806	-45.466	0.121	0.060
-718.791	-68.805	-0.292	0.114
-717.777	-200.000	-0.058	-0.467
-716.762	-134.999	0.208	0.025
-715.748	800.000	0.057	-0.209
-714.733	-200.000	0.004	-0.360
-713.718	-30.647	-0.203	-0.116
-712.704	151.101	-0.105	-0.144
-711.689	-23.957	0.136	-0.082
-710.675	-124.043	-0.062	0.010
-709.660	-6.370	-0.074	-0.051
-708.645	84.602	-0.270	-0.297
-707.631	-94.597	-0.140	-0.038
-706.616	-158.443	0.144	-0.008
-705.602	-182.296	-0.197	-0.004
-704.587	-23.505	0.108	-0.066
-703.572	-2.590	0.083	0.059
-702.558	-30.669	-0.041	0.023
-701.543	10.260	-0.169	-0.129
-700.529	-76.540	0.203	0.072
-699.514	42.721	0.064	0.059
-698.499	71.705	0.107	-0.112
-697.485	-12.692	0.261	0.171
-696.470	-78.236	-0.169	0.058
-695.456	-43.677	0.030	-0.015
-694.441	11.555	-0.222	0.171
-693.426	-99.194	0.310	0.079
-692.412	669.313	-0.058	-0.152
-691.397	254.935	-0.150	-0.258
-690.383	-200.000	-0.025	-0.198
-689.368	-4.579	0.153	-0.107
-688.354	-72.851	0.015	-0.006
-687.339	-51.741	-0.222	0.104
-686.324	-5.195	0.198	-0.137
-685.310	-76.058	-0.279	-0.099
-684.295	82.053	-0.067	0.073
-683.281	280.416	-0.170	-0.307
-682.266	-76.133	0.291	-0.103
-681.251	135.137	0.171	-0.223
-680.237	-48.753	0.398	-0.192
-679.222	-96.161	0.099	-0.026
-678.208	-200.000	-0.044	0.377
-677.193	540.467	0.037	0.089
-676.178	-164.742	-0.362	0.016
-675.164	12.723	0.206	-0.160
-674.149	310.644	-0.173	-0.326
-673.135	264.232	-0.209	-0.366
-672.120	-107.116	0.408	-0.090
-671.105	-83.961	0.187	-0.060
-670.091	-200.000	-0.007	-0.036
-669.076	-186.251	0.446	-0.007
-668.062	25.660	0.369	0.309
-667.047	135.416	0.057	0.075
-666.032	-200.000	0.065	-0.500
-665.018	800.000	-0.022	-0.095
-664.003	35.189	0.131	0.115
-662.989	15.094	-0.171	-0.135
-661.974	-98.970	0.156	-0.040
-660.959	248.472	-0.152	0.259
-659.945	-87.874	-0.086	-0.026
-658.930	-200.000	0.292	-0.001
-657.916	-29.194	-0.190	-0.109
-656.901	83.797	0.238	-0.261
-655.886	-200.000	-0.007	-0.080
-654.872	-121.563	0.206	0.034
-653.857	-88.007	-0.171	-0.052
-652.843	519.300	0.030	-0.071
-651.828	188.642	0.027	-0.041
-650.814	-111.049	0.257	-0.053
-649.799	23.916	-0.239	-0.198
-648.784	-180.685	0.100	-0.002
-647.770	-200.000	0.005	-0.035
-646.755	-45.955	-0.129	0.064
-645.741	800.000	0.026	-0.102
-644.726	43.251	-0.254	-0.233
-643.711	42.177	-0.185	0.169
-642.697	112.250	0.126	0.153
-641.682	499.275	-0.061	-0.141
-640.668	-200.000	0.051	0.246
-639.653	-34.119	0.088	-0.049
-638.638	-107.049	-0.132	0.029
-637.624	-35.034	-0.136	-0.074
-636.609	154.392	0.104	-0.143
-635.595	-200.000	-0.026	-0.303
-634.580	-53.402	0.295	-0.136
-633.565	-109.028	0.072	-0.016
-632.551	15.707	-0.232	-0.183
-631.536	-44.052	0.429	-0.217
-630.522	-200.000	0.009	0.145
-629.507	-119.701	0.195	0.034
-628.492	-200.000	0.053	0.274
-627.478	10.789	0.206	0.158
-626.463	30.117	-0.193	0.166
-625.449	800.000	-0.115	-0.351
-624.434	520.803	-0.028	-0.066
-623.419	-200.000	0.019	0.119
-622.405	-38.774	0.086	0.046
-621.390	123.178	-0.065	-0.082
-620.376	-6.758	-0.108	-0.074
-619.361	68.852	-0.196	0.202
-618.346	-171.977	-0.063	-0.002
-617.332	-92.043	-0.330	0.094
-616.317	-32.540	-0.061	0.034
-615.303	399.664	0.027	0.057
-614.288	-38.260	0.009	-0.005
-613.273	246.094	-0.210	0.354
-612.259	-74.488	0.294	0.106
-611.244	-200.000	-0.010	-0.260
-610.230	188.424	0.100	-0.150
-609.215	49.065	-0.228	0.215
-608.201	151.060	0.170	0.232
-607.186	22.817	0.156	-0.128
-606.171	-200.000	-0.038	-0.187
-605.157	800.000	-0.072	-0.268
-604.142	160.552	0.064	0.089
-603.128	463.585	0.150	-0.337
-602.113	29.093	0.184	-0.156
-601.098	99.497	0.087	-0.101
-600.084	-35.490	0.207	0.113
-599.069	231.830	-0.047	-0.078
-598.055	-200.000	0.008	-0.322
-597.040	-94.360	-0.233	-0.064
-596.025	152.134	-0.170	0.233
-595.011	-200.000	-0.010	0.196
-593.996	800.000	0.054	0.208
-592.982	40.955	-0.091	0.082
-591.967	-152.543	0.136	-0.010
-590.952	3.752	-0.137	-0.100
-589.938	-1.862	-0.342	0.241
-588.923	-16.522	0.177	-0.113
-587.909	-200.000	-0.039	-0.178
-586.894	546.192	0.051	-0.122
-585.879	-2.675	-0.079	0.055
-584.865	-140.676	-0.044	-0.005
-583.850	-56.116	0.078	-0.035
-582.836	82.059	-0.264	-0.286
-581.821	-200.000	-0.041	-0.193
-580.806	-18.630	-0.279	-0.175
-579.792	-200.000	-0.025	-0.132
-578.777	52.170	-0.127	-0.121
-577.763	2.215	-0.154	-0.112
-576.748	-96.078	0.287	0.076
-575.733	-200.000	-0.006	-0.059
-574.719	-66.306	0.224	-0.089
-573.704	322.332	0.063	-0.120
-572.690	-116.018	-0.309	-0.058
-571.675	2.974	-0.060	0.044
-570.661	-158.813	-0.121	0.007
-569.646	-200.000	0.007	-0.313
-568.631	226.750	-0.140	-0.228
-567.617	2.252	-0.092	-0.067
-566.602	-111.373	0.203	0.042
-565.588	800.000	0.012	-0.034
-564.573	133.014	-0.335	-0.434
-563.558	-97.371	-0.195	-0.051
-562.544	84.169	-0.102	-0.112
-561.529	-42.116	0.137	-0.070
-560.515	-200.000	-0.012	0.121
-559.500	800.000	0.037	0.147
-558.485	23.468	0.160	0.131
-557.471	119.149	0.109	-0.135
-556.456	173.231	0.129	0.187
-555.442	122.879	0.172	0.216
-554.427	24.001	-0.253	-0.209
-553.412	79.810	0.114	-0.122
-552.398	-54.708	0.340	-0.154
-551.383	-200.000	0.004	-0.062
-550.369	-163.565	-0.293	-0.014
-549.354	-23.591	-0.308	0.185
-548.339	139.197	0.070	-0.092
-547.325	82.122	-0.085	0.092
-546.310	-136.721	0.402	-0.046
-545.296	27.677	-0.031	-0.026
-544.281	-86.581	0.102	-0.031
-543.266	277.449	-0.082	-0.146
-542.252	-117.490	0.164	-0.030
-541.237	50.877	-0.091	-0.086
-540.223	9.270	-0.072	0.054
-539.208	-8.883	0.174	0.117
-538.193	-10.353	0.277	0.184
-537.179	-139.135	0.367	0.040
-536.164	394.565	-0.079	0.166
-535.150	-95.344	-0.041	0.011
-534.135	-200.000	0.010	0.494
-533.121	-142.021	-0.056	-0.006
-532.106	31.448	0.115	0.099
-531.091	-54.777	0.077	0.035
-530.077	-200.000	0.002	0.102
-529.062	50.093	-0.191	0.180
-528.048	187.233	0.109	-0.162
-527.033	5.001	0.065	0.048
-526.018	440.801	-0.159	0.347
-525.004	-89.663	0.083	-0.024
-523.989	494.064	-0.117	-0.269
-522.975	-165.466	0.265	0.012
-521.960	380.180	-0.070	0.144
-520.945	169.290	0.136	0.194
-519.931	-150.826	-0.157	-0.012
-518.916	-21.981	-0.192	-0.117
-517.902	-200.000	0.033	0.210
-516.887	516.515	0.098	0.230
-515.872	-49.238	0.154	-0.073
-514.858	34.192	-0.154	-0.134
-513.843	17.085	-0.459	-0.364
-512.829	-52.084	0.032	0.015
-511.814	800.000	0.052	-0.201
-510.799	580.436	-0.064	0.157
-509.785	800.000	0.096	-0.307
-508.770	25.917	0.052	-0.043
-507.756	-200.000	0.015	0.180
-506.741	85.104	0.013	0.014
-505.726	179.383	-0.036	0.052
-504.712	79.901	-0.053	-0.057
-503.697	60.057	0.188	0.186
-502.683	-174.277	-0.486	-0.014
-501.668	783.009	0.031	0.085
-500.653	-38.579	0.233	0.123
-499.639	486.865	-0.050	-0.115
-498.624	-200.000	-0.048	-0.281
-497.610	1.928	0.113	0.081
-496.595	-146.586	0.291	-0.025
-495.581	-112.346	-0.201	0.040
-494.566	13.290	0.210	-0.163
-493.551	-160.342	0.200	-0.011
-492.537	53.309	-0.096	-0.092
-491.522	27.207	-0.095	0.080
-490.508	138.604	0.145	0.190
-489.493	-200.000	0.087	0.411
-488.478	155.464	0.099	0.136
-487.464	93.193	0.120	-0.135
-486.449	-86.879	-0.149	-0.046
-485.435	179.117	-0.051	0.074
-484.420	-200.000	-0.008	0.162
-483.405	-200.000	0.016	-0.122
-482.391	174.506	-0.143	-0.207
-481.376	-133.549	-0.284	0.036
-480.362	-59.781	0.391	0.167
-479.347	-94.325	0.160	0.044
-478.332	87.560	0.101	-0.112
-477.318	-77.650	0.247	0.085
-476.303	113.121	-0.045	-0.055
-475.289	-20.803	-0.041	0.025
-474.274	-136.736	-0.101	0.012
-473.259	-85.766	0.270	0.084
-472.245	-200.000	0.008	-0.158
-471.230	2.423	-0.118	-0.085
-470.216	417.633	0.071	0.152
-469.201	-1.197	-0.126	0.089
-468.186	-79.477	-0.331	-0.112
-467.172	-141.250	0.353	0.036
-466.157	71.863	0.180	-0.187
-465.143	5.820	-0.205	0.152
-464.128	-0.172	-0.238	0.169
-463.113	5.888	0.182	0.134
-462.099	-40.208	-0.328	-0.170
-461.084	-86.604	-0.194	0.059
-460.070	279.039	-0.119	-0.213
-459.055	248.153	-0.119	-0.200
-458.040	800.000	-0.027	0.074
-457.026	17.072	0.192	0.152
-456.011	-130.896	-0.265	0.035
-454.997	738.535	-0.138	-0.369
-453.982	150.059	0.041	-0.056
-452.968	113.965	-0.173	-0.210
-451.953	-172.330	-0.074	-0.002
-450.938	379.905	-0.090	0.184
-449.924	800.000	-0.078	0.216
-448.909	800.000	0.083	-0.346
-447.895	-161.481	0.202	-0.010
-446.880	-16.694	0.120	0.076
-445.865	15.483	-0.139	-0.109
-444.851	-200.000	-0.014	0.207
-443.836	127.683	-0.207	0.262
-442.822	-200.000	-0.008	-0.075
-441.807	26.248	0.292	-0.243
-440.792	260.888	-0.157	0.271
-439.778	47.258	0.233	-0.216
-438.763	1.188	-0.266	0.191
-437.749	311.135	-0.109	0.204
-436.734	-55.517	0.213	0.095
-435.719	355.336	0.012	0.024
-434.705	16.386	0.399	0.314
-433.690	-100.928	0.125	-0.031
-432.676	-200.000	0.023	-0.354
-431.661	800.000	-0.062	0.183
-430.646	687.063	0.091	0.238
-429.632	152.926	-0.059	0.080
-428.617	69.468	0.094	-0.097
-427.603	-200.000	0.032	-0.143
-426.588	-112.298	-0.334	-0.067
-425.573	800.000	0.044	-0.170
-424.559	625.799	0.052	-0.131
-423.544	-200.000	-0.016	0.138
-422.530	-33.218	-0.328	-0.181
-421.515	-96.131	-0.167	0.044
-420.500	330.614	-0.031	0.060
-419.486	-200.000	0.062	-0.000
-418.471	-200.000	0.017	-0.167
-417.457	-200.000	-0.025	0.372
-416.442	-200.000	0.029	-0.253
-415.428	800.000	-0.064	0.190
-414.413	461.716	0.072	0.161
-413.398	-149.818	-0.175	0.014
-412.384	278.402	-0.051	0.090
-411.369	602.941	0.163	-0.403
-410.355	132.970	-0.086	-0.110
-409.340	345.700	0.148	0.289
-408.325	-136.514	-0.197	0.023
-407.311	-63.805	0.350	0.143
-406.296	-100.634	-0.219	-0.054
-405.282	-150.621	-0.369	-0.028
-404.267	-17.946	-0.363	0.227
-403.252	-105.025	-0.228	0.052
-402.238	-63.608	0.288	-0.118
-401.223	-57.980	-0.280	-0.122
-400.209	-103.018	0.115	-0.027
-399.194	611.010	0.159	-0.396
-398.179	122.017	0.043	0.054
-397.165	-16.985	-0.288	0.181
-396.150	196.586	0.132	0.201
-395.136	-103.195	0.226	0.053
-394.121	-175.199	-0.154	0.004
-393.106	27.815	0.281	-0.236
-392.092	481.710	-0.117	0.265
-391.077	5.054	0.208	-0.153
-390.063	312.608	0.110	0.206
-389.048	165.956	-0.078	0.109
-388.033	16.057	-0.086	-0.067
-387.019	-200.000	0.015	0.324
-386.004	251.587	0.099	0.167
-384.990	-107.587	0.181	0.039
-383.975	-200.000	0.014	0.135
-382.960	166.629	0.123	0.174
-381.946	135.269	0.084	-0.109
-380.931	-74.445	0.283	-0.102
-379.917	-139.174	0.277	-0.030
-378.902	279.573	0.040	0.071
-377.888	358.533	-0.103	0.205
-376.873	163.442	-0.236	-0.330
-375.858	144.559	-0.207	0.274
-374.844	519.613	0.053	0.123
-373.829	-133.012	-0.421	-0.053
-372.815	-22.809	0.164	0.099
-371.800	-200.000	-0.038	0.256
-370.785	39.588	-0.066	-0.059
-369.771	216.593	0.070	0.110
-368.756	45.022	-0.055	0.050
-367.742	-200.000	-0.018	-0.232
-366.727	-200.000	-0.052	-0.311
-365.712	-42.965	0.103	0.052
-364.698	335.214	-0.093	0.179
-363.683	212.545	0.050	0.078
-362.669	423.301	0.011	0.022
-361.654	-128.117	-0.126	0.018
-360.639	-200.000	0.051	0.291
-359.625	-181.928	0.302	-0.006
-358.610	-200.000	0.001	-0.142
-357.596	-106.169	0.264	0.059
-356.581	153.819	0.073	-0.099
-355.566	12.526	0.168	-0.128
-354.552	239.628	0.157	-0.259
-353.537	-30.932	-0.135	-0.076
-352.523	-21.092	-0.211	0.129
-351.508	-5.651	0.092	0.063
-350.493	800.000	-0.040	-0.143
-349.479	-76.051	-0.114	-0.040
-348.464	-74.601	-0.260	0.093
-347.450	119.833	0.201	0.248
-346.435	-110.404	0.181	-0.037
-345.420	-49.420	0.404	0.191
-344.406	-200.000	-0.086	-0.379
-343.391	-82.517	0.227	-0.073
-342.377	5.990	0.289	0.213
-341.362	-114.788	0.372	0.071
-340.348	-200.000	-0.009	-0.222
-339.333	-200.000	0.017	-0.148
-338.318	74.282	-0.098	-0.102
-337.304	-152.693	-0.125	-0.009
-336.289	187.774	-0.077	0.114
-335.275	-9.139	-0.293	0.195
-334.260	146.315	-0.113	-0.151
-333.245	800.000	0.041	-0.127
-332.231	-6.255	0.286	0.194
-331.216	254.535	0.065	-0.111
-330.202	42.794	0.216	-0.196
-329.187	37.099	-0.180	0.158
-328.172	-200.000	-0.024	0.108
-327.158	-40.991	0.300	-0.154
-326.143	38.311	-0.083	-0.073
-325.129	-200.000	-0.022	0.188
-324.114	-144.054	0.298	-0.028
-323.099	14.457	-0.389	-0.301
-322.085	71.150	0.098	0.101
-321.070	-64.201	0.195	0.079
-320.056	3.104	0.090	0.065
-319.041	-67.713	-0.040	-0.015
-318.026	-43.584	0.146	0.073
-317.012	-33.622	-0.084	0.046
-315.997	5.491	-0.055	0.040
-314.983	800.000	-0.146	-0.415
-313.968	-200.000	-0.060	-0.331
-312.953	116.393	0.141	-0.172
-311.939	28.161	-0.447	0.375
-310.924	-38.498	0.227	-0.119
-309.910	-200.000	-0.003	-0.287
-308.895	-200.000	-0.024	0.225
-307.880	2.106	0.102	0.073
-306.866	-15.550	0.100	0.064
-305.851	501.629	-0.179	-0.410
-304.837	43.976	0.218	-0.198
-303.822	-68.636	-0.374	-0.144
-302.807	264.959	-0.174	0.300
-301.793	-200.000	-0.118	-0.000
-300.778	673.450	0.068	0.174
-299.764	123.537	0.159	-0.198
-298.749	-200.000	-0.042	-0.424
-297.735	130.679	-0.135	0.172
-296.720	-106.135	0.348	0.078
-295.705	3.537	-0.098	-0.071
-294.691	800.000	-0.070	-0.284
-293.676	800.000	0.037	0.153
-292.662	-53.346	0.150	-0.068
-291.647	-199.303	0.252	-0.001
-290.632	-200.000	0.001	-0.277
-289.618	-75.059	-0.220	-0.078
-288.603	-178.002	0.356	0.008
-287.589	-200.000	0.004	-0.164
-286.574	-196.130	-0.377	0.003
-285.559	-200.000	0.007	-0.088
-284.545	800.000	-0.053	0.213
-283.530	11.189	0.330	0.250
-282.516	115.395	0.227	0.274
-281.501	-91.289	-0.307	-0.087
-280.486	-85.382	-0.269	-0.083
-279.472	-115.785	0.035	-0.007
-278.457	-55.503	0.118	-0.052
-277.443	261.249	-0.088	0.151
-276.428	800.000	-0.068	0.293
-275.413	-200.000	-0.003	-0.171
-274.399	546.649	0.032	-0.077
-273.384	445.794	-0.019	-0.041
-272.370	-10.406	-0.243	0.160
-271.355	14.699	0.198	-0.153
-270.340	-113.435	-0.545	0.106
-269.326	-15.513	-0.298	-0.189
-268.311	55.332	0.079	0.076
-267.297	73.224	0.043	0.044
-266.282	80.080	0.097	-0.104
-265.267	-141.032	0.256	0.026
-264.253	-61.730	0.269	-0.112
-263.238	-13.471	-0.325	-0.209
-262.224	-200.000	-0.082	-0.441
-261.209	73.807	-0.224	-0.233
-260.195	-200.000	0.006	0.079
-259.180	-11.533	-0.261	0.170
-258.165	578.723	0.123	0.299
-257.151	-200.000	0.024	-0.162
-256.136	-93.620	-0.294	0.080
-255.122	-157.629	0.191	-0.011
-254.107	-200.000	-0.021	0.112
-253.092	-179.634	-0.186	-0.004
-252.078	800.000	-0.038	0.162
-251.063	765.597	-0.020	-0.054
-250.049	306.638	-0.123	-0.227
-249.034	-89.218	-0.208	-0.061
-248.019	-144.949	0.280	0.025
-247.005	800.000	0.090	0.339
-245.990	800.000	0.020	-0.065
-244.976	44.333	0.074	0.067
-243.961	-93.704	0.395	0.108
-242.946	498.632	0.104	0.237
-241.932	239.041	0.170	-0.280
-240.917	131.797	0.195	0.249
-239.903	377.648	0.014	0.028
-238.888	203.429	0.136	0.209
-237.873	-27.678	-0.137	-0.078
-236.859	10.955	0.166	0.125
-235.844	800.000	0.021	0.059
-234.830	253.507	0.190	0.321
-233.815	-41.556	-0.048	-0.025
-232.800	-3.465	-0.272	-0.187
-231.786	522.764	-0.126	0.292
-230.771	120.042	0.075	-0.092
-229.757	316.055	-0.074	0.137
-228.742	-171.239	-0.209	-0.007
-227.727	-157.305	-0.314	0.019
-226.713	800.000	-0.016	0.066
-225.698	800.000	0.003	0.012
-224.684	-200.000	0.059	0.286
-223.669	-200.000	-0.002	-0.018
-222.655	-33.296	0.061	-0.034
-221.640	-34.006	-0.430	0.234
-220.625	-6.073	0.162	0.109
-219.611	-119.221	-0.018	0.003
-218.596	800.000	-0.082	0.241
-217.582	37.741	0.083	-0.073
-216.567	800.000	-0.054	-0.216
-215.552	4.729	0.162	-0.118
-214.538	-161.541	-0.178	-0.009
-213.523	-36.652	-0.248	-0.132
-212.509	-200.000	0.034	-0.170
-211.494	-200.000	0.042	0.320
-210.479	377.382	-0.094	-0.189
-209.465	203.845	-0.063	0.096
-208.450	-15.126	0.196	-0.124
-207.436	800.000	0.025	0.099
-206.421	-200.000	-0.007	0.385
-205.406	460.867	0.143	0.315
-204.392	-36.377	0.244	0.130
-203.377	800.000	0.023	0.065
-202.363	800.000	-0.030	-0.090
-201.348	211.972	0.093	-0.144
-200.333	-200.000	-0.019	0.124
-199.319	-200.000	0.012	-0.181
-198.304	-128.606	-0.457	0.064
-197.290	-200.000	-0.027	0.307
-196.275	-153.701	-0.304	0.021
-195.260	800.000	-0.059	0.221
-194.246	54.325	0.335	0.319
-193.231	-200.000	-0.009	0.132
-192.217	-69.981	-0.217	0.082
-191.202	-200.000	-0.029	-0.177
-190.187	-142.746	0.111	0.011
-189.173	760.484	0.039	-0.104
-188.158	703.473	-0.141	-0.368
-187.144	-200.000	-0.037	-0.330
-186.129	262.114	-0.160	-0.273
-185.114	-144.760	0.187	-0.017
-184.100	58.615	0.120	0.116
-183.085	456.465	0.138	0.303
-182.071	114.720	0.137	-0.165
-181.056	45.807	-0.150	-0.137
-180.042	54.563	0.070	-0.067
-179.027	-200.000	-0.013	-0.132
-178.012	-200.000	-0.052	0.312
-176.998	-44.643	0.124	0.061
-175.983	-13.049	0.144	0.092
-174.969	150.042	0.134	0.180
-173.954	-16.559	-0.068	-0.042
-172.939	128.773	0.176	0.222
-171.925	-132.101	0.336	-0.043
-170.910	15.639	-0.157	-0.122
-169.896	-37.386	0.153	0.080
-168.881	-200.000	-0.031	-0.218
-167.866	-73.522	-0.315	-0.113
-166.852	305.318	0.198	-0.363
-165.837	100.668	0.134	-0.154
-164.823	61.153	-0.072	-0.071
-163.808	293.263	0.029	-0.052
-162.793	-200.000	0.012	-0.345
-161.779	83.788	0.174	0.187
-160.764	128.337	-0.080	-0.100
-159.750	112.833	0.175	0.210
-158.735	-91.227	-0.210	0.059
-157.720	-131.107	0.175	0.023
-156.706	134.716	0.056	0.072
-155.691	-6.414	-0.291	-0.196
-154.677	-142.262	0.079	0.008
-153.662	-133.118	0.199	0.025
-152.647	128.135	0.100	0.126
-151.633	64.875	-0.232	0.230
-150.618	-14.858	0.135	0.085
-149.604	10.995	0.154	-0.116
-148.589	16.669	-0.257	-0.200
-147.574	-144.167	-0.208	-0.019
-146.560	210.272	0.132	-0.204
-145.545	-105.474	-0.156	-0.035
-144.531	184.115	0.097	-0.142
-143.516	-200.000	-0.052	0.352
-142.502	17.861	-0.040	0.031
-141.487	62.374	-0.105	0.103
-140.472	140.857	0.102	0.133
-139.458	-41.650	0.382	0.193
-138.443	19.646	0.192	0.153
-137.429	-200.000	0.012	-0.130
-136.414	-65.189	-0.155	0.062
-135.399	5.867	0.157	0.115
-134.385	659.662	-0.087	-0.220
-133.370	-160.157	0.153	0.008
-132.356	369.479	-0.081	0.162
-131.341	63.108	-0.264	0.261
-130.326	-125.338	-0.267	-0.040
-129.312	600.924	0.098	-0.239
-128.297	-86.175	0.150	-0.045
-127.283	-45.632	-0.095	0.046
-126.268	165.909	-0.083	-0.115
-125.253	800.000	0.046	-0.162
-124.239	121.830	0.015	0.018
-123.224	-12.004	0.212	0.137
-122.210	-136.533	-0.197	-0.022
-121.195	-54.289	-0.220	0.098
-120.180	-104.861	0.149	0.034
