DTS Sentinel unit serial number:	SN413079Multiplexer serial number:	ORYXHardware model number:	OX4-SRSoftware version number:	ORYX F/W v4.00 Oryx Data Collector v3.7.2.0data status	okinstallation	princeton_trtdifferential loss correction	single-endedforward channel	channel 1reverse channel	N/Adate	2019/09/19time	14:22:35forward acquisition time	60.00reverse acquisition time	0.00gamma	496.2192k internal	0.2322k external	0.2322temperature offset calibration	1.0017default loss term (dB/km)	0.3790temperature slope calibration	1.0000multiplexer offset coefficient	1.0000multiplexer slope coefficient	1.0000fibre end	0.00T internal ref (°C)	31.94T ext. ref 1 (°C)	1.06T ext. ref 2 (°C)	29.19length (m)	temperature (°C)	Stokes	anti-Stokes-747.200	-44.001	0.123	0.063
-746.185	-200.000	0.042	0.215
-745.171	-200.000	0.004	0.326
-744.156	800.000	0.048	0.192
-743.142	33.397	0.203	-0.178
-742.127	194.463	-0.189	0.289
-741.112	210.914	-0.210	-0.334
-740.098	-114.492	-0.159	-0.031
-739.083	-103.137	0.074	-0.018
-738.069	-99.580	-0.118	0.030
-737.054	263.838	-0.133	-0.234
-736.039	799.048	-0.031	-0.086
-735.025	-11.509	-0.104	0.069
-734.010	-55.632	-0.234	0.106
-732.996	-29.993	-0.076	-0.044
-731.981	-91.681	0.107	0.031
-730.966	-103.115	0.195	0.047
-729.952	800.000	0.049	-0.141
-728.937	-200.000	-0.001	-0.215
-727.923	563.047	0.049	0.119
-726.908	21.867	0.132	-0.109
-725.894	800.000	0.088	0.297
-724.879	-1.309	0.218	0.155
-723.864	-143.281	-0.313	0.030
-722.850	-60.058	-0.135	-0.058
-721.835	134.128	0.164	-0.214
-720.821	66.283	-0.183	-0.188
-719.806	-200.000	-0.060	0.396
-718.791	-24.996	-0.225	0.135
-717.777	-47.317	0.138	0.068
-716.762	-200.000	-0.031	-0.292
-715.748	-157.601	0.250	-0.015
-714.733	227.402	0.156	-0.256
-713.718	-2.260	-0.335	-0.237
-712.704	800.000	-0.111	-0.455
-711.689	-144.881	0.191	-0.018
-710.675	-165.152	-0.115	-0.005
-709.660	800.000	-0.073	-0.287
-708.645	800.000	0.019	-0.064
-707.631	215.342	-0.205	0.328
-706.616	128.749	-0.373	-0.479
-705.602	269.879	-0.043	0.077
-704.587	-86.308	0.166	-0.051
-703.572	-32.972	-0.045	0.025
-702.558	-138.132	-0.319	-0.036
-701.543	750.159	-0.009	-0.024
-700.529	-27.672	-0.446	-0.261
-699.514	-200.000	0.028	0.226
-698.499	-200.000	-0.015	0.144
-697.485	-64.196	-0.273	-0.112
-696.470	166.764	-0.034	-0.049
-695.456	-4.769	0.167	-0.116
-694.441	-51.653	0.335	-0.158
-693.426	-2.911	-0.227	-0.160
-692.412	-98.881	-0.180	-0.046
-691.397	-114.638	0.479	0.093
-690.383	800.000	0.024	-0.103
-689.368	-200.000	-0.022	-0.241
-688.354	59.380	0.118	0.117
-687.339	-200.000	-0.037	0.218
-686.324	-49.383	0.145	-0.070
-685.310	-200.000	0.014	0.315
-684.295	-33.735	0.030	-0.017
-683.281	88.273	-0.118	0.133
-682.266	-200.000	-0.011	-0.377
-681.251	800.000	0.062	-0.235
-680.237	-103.211	-0.282	-0.067
-679.222	-54.292	0.141	0.065
-678.208	139.230	-0.175	-0.232
-677.193	226.447	0.137	0.224
-676.178	88.470	0.196	-0.220
-675.164	800.000	0.035	0.102
-674.149	128.031	-0.072	-0.092
-673.135	253.867	-0.174	0.300
-672.120	242.399	-0.181	-0.305
-671.105	-67.631	-0.173	-0.068
-670.091	284.478	-0.138	0.250
-669.076	-162.846	0.129	-0.006
-668.062	266.700	0.105	-0.185
-667.047	800.000	-0.023	-0.075
-666.032	-86.597	-0.148	0.046
-665.018	-33.399	0.222	0.124
-664.003	-44.397	0.190	0.096
-662.989	635.925	0.073	0.186
-661.974	258.524	0.112	-0.195
-660.959	-200.000	-0.010	-0.055
-659.945	171.347	-0.097	-0.141
-658.930	129.290	-0.100	-0.128
-657.916	332.394	0.171	0.332
-656.901	800.000	-0.114	0.341
-655.886	-11.758	0.070	-0.046
-654.872	-141.483	0.088	-0.009
-653.857	-46.676	0.155	-0.077
-652.843	22.757	-0.104	-0.086
-651.828	-133.524	0.196	0.025
-650.814	800.000	0.081	-0.317
-649.799	487.693	0.108	-0.248
-648.784	324.071	-0.166	0.319
-647.770	-200.000	0.004	-0.181
-646.755	-200.000	-0.002	0.240
-645.741	-50.623	-0.269	-0.128
-644.726	800.000	-0.066	0.228
-643.711	-200.000	-0.000	0.045
-642.697	50.554	0.320	0.305
-641.682	-138.155	0.191	-0.021
-640.668	-115.487	-0.195	-0.037
-639.653	-200.000	0.036	-0.320
-638.638	-114.667	-0.090	0.017
-637.624	13.391	0.397	-0.310
-636.609	316.880	-0.161	-0.307
-635.595	501.275	0.236	-0.549
-634.580	-200.000	-0.023	0.134
-633.565	76.949	-0.126	0.134
-632.551	315.339	-0.178	0.338
-631.536	-200.000	-0.027	-0.279
-630.522	-8.180	0.164	0.111
-629.507	-115.804	-0.397	0.075
-628.492	463.746	-0.069	0.154
-627.478	-94.037	-0.268	-0.074
-626.463	34.134	0.299	-0.262
-625.449	-51.299	0.125	-0.059
-624.434	-200.000	0.071	-0.381
-623.419	-122.748	-0.230	-0.037
-622.405	-25.919	0.314	0.186
-621.390	-36.002	-0.247	0.134
-620.376	800.000	0.087	-0.357
-619.361	-104.736	-0.233	-0.054
-618.346	-121.165	-0.250	-0.042
-617.332	-46.567	-0.279	-0.138
-616.317	53.179	-0.115	-0.111
-615.303	715.369	0.102	-0.273
-614.288	-52.307	0.084	0.039
-613.273	800.000	0.029	-0.106
-612.259	-0.607	-0.315	-0.225
-611.244	-32.344	-0.258	0.145
-610.230	800.000	0.040	0.140
-609.215	-151.821	-0.052	-0.004
-608.201	-79.516	-0.124	-0.042
-607.186	156.254	-0.171	-0.237
-606.171	50.797	-0.142	0.135
-605.157	347.480	0.129	0.255
-604.142	-25.200	-0.202	-0.120
-603.128	122.831	0.194	0.244
-602.113	2.772	-0.100	0.073
-601.098	-167.522	-0.128	-0.005
-600.084	800.000	0.022	-0.074
-599.069	549.048	-0.084	-0.203
-598.055	177.218	-0.273	-0.399
-597.040	-79.441	-0.298	-0.101
-596.025	179.637	-0.128	0.188
-595.011	800.000	0.031	0.094
-593.996	-95.209	0.265	-0.072
-592.982	-84.622	0.153	0.048
-591.967	421.446	-0.101	-0.217
-590.952	-132.689	0.488	0.063
-589.938	800.000	0.185	-0.550
-588.923	292.214	-0.066	-0.122
-587.909	-200.000	-0.001	-0.228
-586.894	248.474	0.068	-0.116
-585.879	429.343	0.094	0.204
-584.865	-200.000	-0.036	0.354
-583.850	800.000	-0.063	-0.237
-582.836	-158.408	-0.387	-0.023
-581.821	87.045	-0.188	-0.208
-580.806	-193.235	-0.324	0.003
-579.792	-57.653	-0.096	-0.042
-578.777	-200.000	-0.064	0.479
-577.763	800.000	-0.064	0.247
-576.748	-200.000	-0.046	0.220
-575.733	439.009	-0.165	0.362
-574.719	-66.241	-0.148	-0.059
-573.704	-59.666	-0.184	0.079
-572.690	-200.000	0.020	-0.184
-571.675	-110.373	0.101	0.021
-570.661	-200.000	-0.004	-0.067
-569.646	69.823	-0.052	-0.054
-568.631	279.928	0.046	-0.083
-567.617	-92.961	0.106	-0.030
-566.602	-166.465	-0.093	0.004
-565.588	98.329	0.254	-0.294
-564.573	6.760	0.206	-0.154
-563.558	-2.666	0.229	-0.161
-562.544	-189.381	0.223	-0.003
-561.529	285.422	0.155	-0.281
-560.515	6.982	-0.305	-0.228
-559.500	311.054	-0.081	-0.151
-558.485	-103.993	-0.353	0.083
-557.471	-152.761	-0.105	0.007
-556.456	-49.991	0.402	0.191
-555.442	9.010	0.103	-0.078
-554.427	541.467	0.103	-0.245
-553.412	26.613	-0.222	-0.186
-552.398	572.131	0.124	0.303
-551.383	675.487	0.126	0.329
-550.369	-50.284	0.267	0.126
-549.354	25.766	-0.228	0.191
-548.339	-200.000	-0.005	-0.346
-547.325	-21.612	0.159	0.097
-546.310	-164.143	0.316	-0.015
-545.296	-127.757	-0.454	0.066
-544.281	800.000	0.124	0.349
-543.266	215.860	0.133	0.212
-542.252	-37.015	-0.230	0.124
-541.237	-80.099	0.189	-0.064
-540.223	-71.824	0.453	0.169
-539.208	-35.478	-0.240	-0.131
-538.193	800.000	0.052	-0.192
-537.179	169.253	-0.173	-0.248
-536.164	-127.545	0.206	0.030
-535.150	-200.000	-0.006	0.248
-534.135	-30.647	-0.223	0.126
-533.121	126.810	-0.018	0.022
-532.106	-98.858	0.041	-0.010
-531.091	-182.201	-0.122	0.002
-530.077	-45.300	-0.111	0.055
-529.062	-104.350	0.217	-0.050
-528.048	-56.971	-0.031	0.014
-527.033	61.193	-0.085	-0.084
-526.018	490.147	-0.126	0.289
-525.004	-139.731	-0.193	-0.021
-523.989	285.773	-0.019	0.034
-522.975	-98.024	0.114	-0.030
-521.960	73.363	0.105	-0.110
-520.945	-55.196	0.118	0.053
-519.931	217.683	0.133	0.212
-518.916	48.827	0.269	-0.252
-517.902	-60.589	0.118	0.050
-516.887	-143.494	-0.176	0.017
-515.872	-53.908	-0.374	0.171
-514.858	615.894	-0.042	-0.106
-513.843	800.000	0.109	0.350
-512.829	169.251	0.234	0.335
-511.814	159.807	0.195	-0.271
-510.799	-200.000	-0.007	-0.283
-509.785	-103.339	0.284	0.067
-508.770	-200.000	0.045	0.206
-507.756	800.000	-0.031	-0.121
-506.741	800.000	-0.086	0.255
-505.726	-109.836	0.132	0.028
-504.712	-105.489	0.384	-0.087
-503.697	-33.110	-0.355	-0.197
-502.683	25.280	0.074	-0.062
-501.668	-27.972	-0.315	-0.182
-500.653	-1.401	0.038	-0.027
-499.639	18.238	0.136	-0.108
-498.624	132.433	0.162	0.209
-497.610	25.361	-0.203	-0.169
-496.595	-31.823	-0.185	-0.104
-495.581	-109.166	0.199	-0.042
-494.566	-48.485	0.597	0.288
-493.551	218.874	0.098	0.157
-492.537	180.868	0.097	-0.142
-491.522	-46.690	0.313	0.153
-490.508	0.866	-0.183	0.131
-489.493	-146.818	-0.068	0.006
-488.478	563.893	0.117	-0.284
-487.464	-94.770	0.244	0.066
-486.449	-20.405	-0.215	-0.132
-485.435	390.076	-0.025	0.051
-484.420	10.433	-0.292	-0.223
-483.405	-70.610	0.110	0.041
-482.391	-15.937	0.168	-0.107
-481.376	292.412	0.086	0.157
-480.362	727.967	0.111	-0.295
-479.347	-62.992	0.200	-0.083
-478.332	800.000	0.013	0.046
-477.318	170.564	0.186	0.266
-476.303	49.640	0.151	-0.142
-475.289	-138.081	0.351	-0.039
-474.274	-105.328	-0.078	-0.018
-473.259	-10.260	-0.200	0.133
-472.245	224.993	0.042	0.067
-471.230	-29.136	-0.138	-0.079
-470.216	-43.939	-0.108	-0.054
-469.201	-2.983	-0.340	0.237
-468.186	-88.199	-0.041	-0.012
-467.172	197.101	-0.123	-0.188
-466.157	-49.638	-0.052	-0.025
-465.143	130.857	0.122	0.157
-464.128	212.298	0.083	0.131
-463.113	123.884	0.218	0.274
-462.099	46.324	-0.208	0.193
-461.084	800.000	-0.042	-0.154
-460.070	800.000	-0.046	-0.140
-459.055	442.158	-0.078	0.172
-458.040	457.597	0.130	0.288
-457.026	-200.000	0.017	-0.103
-456.011	204.030	-0.098	0.151
-454.997	336.949	0.134	-0.260
-453.982	-158.050	0.469	0.028
-452.968	45.730	0.199	-0.184
-451.953	-129.915	0.437	-0.060
-450.938	-48.327	-0.217	0.104
-449.924	-2.548	-0.175	-0.123
-448.909	48.262	0.153	0.143
-447.895	800.000	0.039	0.133
-446.880	294.928	-0.191	0.349
-445.865	368.567	0.019	-0.037
-444.851	-181.001	-0.153	-0.003
-443.836	-62.285	-0.178	-0.074
-442.822	32.273	0.081	0.070
-441.807	-22.432	-0.304	-0.184
-440.792	14.390	-0.149	-0.116
-439.778	21.295	0.232	-0.188
-438.763	-200.000	-0.036	0.298
-437.749	251.582	-0.125	0.212
-436.734	-30.482	-0.186	-0.106
-435.719	-119.159	-0.134	0.023
-434.705	411.542	-0.204	-0.433
-433.690	-27.320	0.079	-0.046
-432.676	-67.759	0.142	0.056
-431.661	-200.000	0.001	0.232
-430.646	96.012	-0.111	0.126
-429.632	-106.046	0.160	0.036
-428.617	-200.000	-0.002	0.020
-427.603	-200.000	0.036	-0.255
-426.588	163.321	-0.043	0.060
-425.573	73.605	0.019	0.020
-424.559	-147.597	0.090	-0.008
-423.544	224.017	-0.143	0.230
-422.530	800.000	0.040	0.112
-421.515	-200.000	-0.014	-0.206
-420.500	463.085	-0.154	-0.343
-419.486	244.007	0.068	0.114
-418.471	87.640	-0.200	-0.221
-417.457	6.085	-0.201	0.149
-416.442	-147.435	-0.164	0.014
-415.428	-200.000	-0.007	0.152
-414.413	-109.807	0.056	0.012
-413.398	-28.143	0.080	0.046
-412.384	2.151	0.048	0.035
-411.369	142.507	0.198	-0.262
-410.355	-19.367	-0.130	-0.081
-409.340	800.000	-0.064	0.238
-408.325	58.516	0.170	0.166
-407.311	271.852	0.177	0.312
-406.296	-76.089	-0.258	-0.091
-405.282	42.131	-0.272	0.246
-404.267	-200.000	-0.031	0.168
-403.252	-154.727	0.365	-0.024
-402.238	-1.831	0.214	0.150
-401.223	-200.000	-0.045	0.208
-400.209	208.662	0.158	0.247
-399.194	4.714	-0.275	0.202
-398.179	400.146	-0.149	0.311
-397.165	800.000	-0.076	0.212
-396.150	9.959	-0.061	-0.046
-395.136	-200.000	0.012	0.059
-394.121	-200.000	-0.018	0.191
-393.106	194.514	-0.202	-0.306
-392.092	-200.000	0.031	0.150
-391.077	-130.038	0.411	-0.056
-390.063	69.916	0.095	0.097
-389.048	46.957	-0.086	-0.080
-388.033	-141.323	-0.137	-0.014
-387.019	-68.056	0.139	-0.054
-386.004	383.081	-0.080	-0.164
-384.990	15.873	-0.155	-0.121
-383.975	260.896	-0.306	0.527
-382.960	476.472	-0.158	0.355
-381.946	-55.553	0.113	0.051
-380.931	65.814	0.199	-0.201
-379.917	291.650	0.082	0.148
-378.902	-92.458	0.519	0.145
-377.888	-200.000	-0.052	-0.363
-376.873	800.000	0.103	0.421
-375.858	208.530	-0.075	0.116
-374.844	54.634	-0.214	0.205
-373.829	-28.706	-0.127	0.073
-372.815	11.867	0.127	-0.097
-371.800	-106.273	0.151	0.034
-370.785	-49.724	0.227	-0.108
-369.771	-90.014	-0.179	-0.052
-368.756	800.000	0.102	0.347
-367.742	159.001	-0.156	-0.216
-366.727	110.370	0.107	-0.128
-365.712	-200.000	-0.031	0.209
-364.698	-96.483	-0.241	0.063
-363.683	61.696	-0.086	0.085
-362.669	-122.378	0.072	-0.012
-361.654	502.331	0.087	-0.201
-360.639	-157.296	0.285	-0.017
-359.625	9.506	0.328	0.247
-358.610	462.343	-0.083	0.184
-357.596	258.458	-0.057	0.098
-356.581	170.058	0.270	-0.384
-355.566	205.580	0.121	-0.187
-354.552	-43.379	-0.128	0.065
-353.537	28.203	-0.136	-0.114
-352.523	54.183	0.314	-0.301
-351.508	-162.118	-0.373	0.019
-350.493	-23.963	-0.214	-0.128
-349.479	-200.000	0.010	0.178
-348.464	183.866	0.096	0.141
-347.450	-200.000	0.004	-0.117
-346.435	115.343	0.111	0.135
-345.420	144.478	-0.216	0.286
-344.406	-34.856	0.244	0.133
-343.391	176.619	-0.088	-0.128
-342.377	180.237	0.276	0.403
-341.362	-134.543	-0.264	0.032
-340.348	-126.739	0.092	-0.013
-339.333	335.036	0.115	-0.222
-338.318	398.550	-0.047	-0.098
-337.304	427.596	-0.059	0.127
-336.289	-105.454	-0.276	0.062
-335.275	87.299	-0.125	0.137
-334.260	-151.898	-0.238	-0.017
-333.245	-56.345	0.121	-0.054
-332.231	-200.000	0.044	-0.241
-331.216	-200.000	-0.008	0.096
-330.202	-49.324	0.222	0.105
-329.187	276.249	-0.103	0.182
-328.172	800.000	-0.037	-0.111
-327.158	-200.000	0.005	-0.261
-326.143	183.226	-0.063	-0.093
-325.129	27.247	-0.169	-0.141
-324.114	-36.956	-0.188	0.100
-323.099	-87.997	0.195	0.058
-322.085	47.233	0.103	-0.096
-321.070	414.582	0.133	-0.282
-320.056	-135.006	-0.173	-0.021
-319.041	-25.662	0.168	0.098
-318.026	148.063	0.099	-0.133
-317.012	-103.304	0.202	-0.047
-315.997	-7.788	-0.239	0.160
-314.983	118.543	0.111	0.137
-313.968	339.290	-0.075	-0.145
-312.953	-200.000	0.072	-0.357
-311.939	-38.382	-0.210	0.111
-310.924	-43.385	0.370	-0.186
-309.910	-200.000	0.035	0.185
-308.895	-200.000	-0.001	0.017
-307.880	800.000	0.064	0.258
-306.866	-6.387	0.290	-0.196
-305.851	-11.500	-0.346	-0.226
-304.837	-82.722	-0.267	0.086
-303.822	118.716	-0.195	0.239
-302.807	100.496	-0.280	0.323
-301.793	127.574	0.089	0.112
-300.778	-200.000	0.361	0.000
-299.764	-27.604	0.262	-0.151
-298.749	-60.013	0.349	0.148
-297.735	-5.919	0.089	0.060
-296.720	-107.058	0.109	0.024
-295.705	-12.740	0.205	0.133
-294.691	-23.571	0.167	-0.100
-293.676	-128.626	-0.370	-0.052
-292.662	635.749	-0.105	0.265
-291.647	3.125	-0.226	0.163
-290.632	-200.000	0.031	-0.157
-289.618	8.215	-0.176	0.131
-288.603	-79.593	-0.648	-0.217
-287.589	-60.249	0.135	0.057
-286.574	-139.790	-0.187	0.020
-285.559	186.744	0.137	0.203
-284.545	-134.519	-0.406	0.049
-283.530	-200.000	-0.021	0.360
-282.516	11.958	-0.175	0.134
-281.501	-200.000	0.040	-0.211
-280.486	368.528	0.176	-0.352
-279.472	-102.036	-0.251	-0.060
-278.457	-145.704	0.340	-0.030
-277.443	-12.900	0.096	0.062
-276.428	-200.000	-0.014	0.368
-275.413	-65.394	0.193	-0.077
-274.399	556.835	0.037	-0.090
-273.384	277.841	-0.055	-0.097
-272.370	234.452	0.048	0.079
-271.355	-200.000	-0.045	0.217
-270.340	141.792	-0.330	0.434
-269.326	-200.000	0.009	-0.276
-268.311	65.324	0.224	0.224
-267.297	165.165	-0.140	0.196
-266.282	92.866	0.076	0.086
-265.267	-16.633	-0.081	0.051
-264.253	-89.233	0.173	0.051
-263.238	-200.000	0.003	0.260
-262.224	-56.702	-0.092	0.040
-261.209	-200.000	0.000	0.021
-260.195	-200.000	0.046	-0.237
-259.180	104.133	-0.153	-0.179
-258.165	-64.673	0.158	-0.063
-257.151	223.045	-0.065	0.104
-256.136	-177.961	0.255	-0.006
-255.122	-11.252	-0.240	0.157
-254.107	-142.359	0.234	0.023
-253.092	139.712	0.101	-0.132
-252.078	684.194	-0.213	-0.551
-251.063	-82.069	-0.052	0.017
-250.049	-54.850	-0.031	-0.014
-249.034	284.209	-0.038	-0.068
-248.019	25.914	-0.157	0.129
-247.005	-200.000	0.063	-0.510
-245.990	-5.503	-0.283	-0.192
-244.976	800.000	-0.042	-0.145
-243.961	800.000	0.044	0.135
-242.946	110.889	-0.205	-0.244
-241.932	9.996	-0.300	-0.226
-240.917	63.591	0.217	-0.216
-239.903	238.672	0.097	0.160
-238.888	-170.799	0.368	0.013
-237.873	294.593	-0.183	-0.331
-236.859	-200.000	-0.034	-0.279
-235.844	621.107	0.064	0.160
-234.830	-78.919	-0.272	-0.092
-233.815	-35.426	0.121	0.065
-232.800	-99.157	-0.083	-0.021
-231.786	64.484	-0.062	-0.061
-230.771	-16.728	-0.066	0.042
-229.757	44.916	0.256	0.233
-228.742	5.268	0.087	0.063
-227.727	-200.000	-0.001	0.174
-226.713	-119.627	-0.149	0.026
-225.698	181.145	0.039	-0.056
-224.684	46.074	0.282	0.259
-223.669	-99.359	-0.070	-0.017
-222.655	-32.195	0.415	-0.230
-221.640	-60.299	-0.202	0.085
-220.625	383.814	-0.119	0.243
-219.611	-200.000	-0.022	-0.354
-218.596	-38.154	0.124	-0.065
-217.582	800.000	-0.075	-0.271
-216.567	131.522	0.070	-0.089
-215.552	-51.737	-0.153	0.070
-214.538	-71.920	-0.097	-0.036
-213.523	34.182	0.086	0.074
-212.509	-200.000	0.074	0.445
-211.494	-109.396	0.173	-0.036
-210.479	-67.335	-0.372	0.145
-209.465	-91.171	0.386	0.110
-208.450	42.692	-0.173	0.156
-207.436	167.477	0.221	-0.311
-206.421	83.196	0.188	0.203
-205.406	-200.000	-0.001	-0.162
-204.392	800.000	-0.048	0.148
-203.377	800.000	-0.090	-0.262
-202.363	-200.000	0.002	0.197
-201.348	471.169	-0.197	-0.438
-200.333	-190.418	0.147	-0.002
-199.319	-101.365	-0.077	0.019
-198.304	-200.000	-0.018	-0.147
-197.290	-200.000	0.032	0.426
-196.275	85.148	-0.192	0.209
-195.260	-159.523	0.159	-0.009
-194.246	-42.281	-0.291	-0.147
-193.231	164.596	-0.106	0.148
-192.217	-52.937	0.292	-0.133
-191.202	-200.000	-0.021	-0.199
-190.187	127.243	0.230	-0.288
-189.173	-131.019	0.447	0.059
-188.158	-80.282	-0.098	0.032
-187.144	84.385	-0.278	-0.301
-186.129	69.665	0.096	-0.098
-185.114	148.322	-0.039	0.052
-184.100	-166.011	0.203	-0.009
-183.085	206.762	-0.095	0.146
-182.071	-163.330	0.310	-0.015
-181.056	-53.489	0.312	-0.141
-180.042	273.087	-0.069	0.120
-179.027	-119.157	0.151	0.026
-178.012	-186.814	-0.265	-0.004
-176.998	-126.302	0.276	-0.041
-175.983	704.442	-0.096	-0.251
-174.969	321.980	-0.069	0.131
-173.954	292.632	-0.195	0.352
-172.939	128.859	0.186	-0.234
-171.925	210.471	-0.134	-0.207
-170.910	-151.270	0.345	-0.025
-169.896	61.902	0.219	-0.216
-168.881	-200.000	-0.005	-0.030
-167.866	-97.564	-0.208	-0.053
-166.852	97.091	-0.333	0.378
-165.837	375.508	0.078	-0.157
-164.823	-106.876	-0.175	0.038
-163.808	106.863	-0.123	-0.144
-162.793	-6.021	-0.080	-0.054
-161.779	4.244	-0.118	-0.085
-160.764	-18.675	0.166	-0.102
-159.750	-19.021	-0.213	-0.131
-158.735	-121.758	-0.131	-0.021
-157.720	69.732	-0.041	0.042
-156.706	90.596	-0.241	0.266
-155.691	-66.511	0.277	-0.109
-154.677	86.893	0.176	-0.192
-153.662	-62.239	0.332	-0.136
-152.647	-87.858	0.369	-0.110
-151.633	46.888	-0.272	-0.250
-150.618	800.000	-0.095	-0.399
-149.604	66.207	-0.143	-0.144
-148.589	-76.433	0.098	0.034
-147.574	-200.000	-0.003	0.205
-146.560	346.731	-0.109	-0.212
-145.545	-156.603	-0.159	-0.010
-144.531	311.694	0.065	-0.121
-143.516	417.433	0.150	0.316
-142.502	800.000	0.076	-0.249
-141.487	-200.000	-0.032	-0.229
-140.472	570.100	0.014	0.034
-139.458	170.768	-0.124	0.175
-138.443	-93.398	0.153	0.042
-137.429	-96.829	-0.312	-0.081
-136.414	318.013	0.126	0.236
-135.399	180.179	-0.068	0.098
-134.385	-138.238	0.206	-0.023
-133.370	-200.000	0.001	0.158
-132.356	-129.789	-0.250	-0.034
-131.341	167.177	0.070	0.097
-130.326	-200.000	0.004	-0.073
-129.312	2.285	0.325	0.232
-128.297	-129.772	-0.248	0.034
-127.283	-108.268	-0.252	0.054
-126.268	-134.284	0.289	-0.035
-125.253	-102.461	-0.222	0.052
-124.239	71.623	-0.228	0.234
-123.224	-152.830	-0.192	0.013
-122.210	31.312	0.227	0.192
-121.195	22.052	-0.077	-0.062
