DTS Sentinel unit serial number:	SN413079Multiplexer serial number:	ORYXHardware model number:	OX4-SRSoftware version number:	ORYX F/W v4.00 Oryx Data Collector v3.7.2.0data status	okinstallation	princeton_trtdifferential loss correction	single-endedforward channel	channel 1reverse channel	N/Adate	2019/09/13time	14:38:35forward acquisition time	60.00reverse acquisition time	0.00gamma	496.2192k internal	0.2301k external	0.2301temperature offset calibration	1.0159default loss term (dB/km)	0.3790temperature slope calibration	1.0000multiplexer offset coefficient	1.0000multiplexer slope coefficient	1.0000fibre end	0.00T internal ref (°C)	35.37T ext. ref 1 (°C)	4.66T ext. ref 2 (°C)	32.58length (m)	temperature (°C)	Stokes	anti-Stokes-747.200	800.000	-0.056	-0.172
-746.185	-200.000	-0.045	0.380
-745.171	-88.959	0.083	0.025
-744.156	-30.299	-0.098	-0.057
-743.142	-38.222	0.225	-0.122
-742.127	-118.722	-0.196	0.035
-741.112	-3.139	-0.205	-0.146
-740.098	3.797	-0.236	0.176
-739.083	74.739	0.208	-0.223
-738.069	-6.797	-0.263	0.182
-737.054	75.807	-0.091	-0.098
-736.039	24.404	-0.150	0.127
-735.025	-170.747	-0.071	-0.002
-734.010	800.000	-0.048	-0.138
-732.996	353.645	-0.200	-0.404
-731.981	-59.342	-0.377	-0.165
-730.966	55.702	0.055	0.055
-729.952	-129.227	0.345	0.049
-728.937	-44.150	0.252	-0.129
-727.923	401.788	-0.165	-0.353
-726.908	-21.010	-0.353	-0.220
-725.894	96.958	0.318	-0.371
-724.879	-93.393	-0.173	0.049
-723.864	-17.952	0.394	0.252
-722.850	125.901	0.325	-0.418
-721.835	-32.725	-0.105	0.059
-720.821	-16.988	0.342	-0.220
-719.806	38.002	-0.214	-0.194
-718.791	26.712	0.201	-0.172
-717.777	120.965	-0.072	-0.092
-716.762	800.000	-0.104	0.327
-715.748	275.804	-0.126	-0.228
-714.733	800.000	-0.060	0.169
-713.718	-131.018	0.150	0.020
-712.704	98.925	-0.149	0.175
-711.689	-200.000	-0.006	-0.046
-710.675	-95.554	-0.058	0.016
-709.660	-87.782	-0.064	0.020
-708.645	-165.439	-0.224	0.010
-707.631	707.665	-0.067	0.180
-706.616	119.007	0.243	-0.306
-705.602	-92.911	-0.081	-0.023
-704.587	-45.192	-0.168	0.085
-703.572	-200.000	-0.021	0.298
-702.558	-37.788	-0.036	-0.020
-701.543	-200.000	-0.025	-0.128
-700.529	229.898	-0.091	-0.151
-699.514	-200.000	0.012	0.071
-698.499	-200.000	-0.081	-0.522
-697.485	-31.696	-0.246	-0.141
-696.470	298.528	-0.092	-0.173
-695.456	-119.878	-0.304	0.053
-694.441	800.000	-0.008	-0.036
-693.426	800.000	0.057	0.186
-692.412	112.523	-0.317	0.390
-691.397	-129.074	-0.309	-0.044
-690.383	274.109	0.076	0.137
-689.368	10.757	-0.311	0.241
-688.354	-51.841	-0.254	-0.120
-687.339	800.000	-0.040	-0.126
-686.324	800.000	0.088	-0.265
-685.310	32.300	-0.149	0.131
-684.295	-55.168	-0.138	0.063
-683.281	368.636	0.146	-0.301
-682.266	292.115	-0.068	0.125
-681.251	64.805	-0.258	0.265
-680.237	-104.274	-0.390	0.092
-679.222	-108.757	0.423	0.092
-678.208	800.000	0.021	0.061
-677.193	-26.675	0.338	-0.201
-676.178	-140.887	-0.254	0.027
-675.164	-114.316	0.340	0.067
-674.149	-28.737	0.251	0.147
-673.135	30.698	-0.217	0.189
-672.120	-200.000	-0.002	-0.060
-671.105	-34.016	-0.065	0.037
-670.091	-117.106	-0.377	0.070
-669.076	-81.246	0.141	-0.047
-668.062	142.023	-0.037	0.050
-667.047	11.433	-0.121	-0.094
-666.032	-200.000	-0.011	0.150
-665.018	-156.736	-0.150	0.009
-664.003	800.000	0.064	-0.198
-662.989	800.000	-0.038	-0.135
-661.974	-40.670	0.211	0.111
-660.959	-22.296	0.322	-0.198
-659.945	-44.807	-0.166	0.084
-658.930	800.000	-0.093	-0.380
-657.916	-200.000	-0.008	0.139
-656.901	178.530	-0.044	-0.065
-655.886	-122.315	0.359	-0.060
-654.872	-149.555	-0.051	-0.004
-653.857	5.523	-0.341	-0.256
-652.843	-1.297	-0.089	0.064
-651.828	627.510	0.187	0.480
-650.814	-101.624	-0.136	0.034
-649.799	-103.862	-0.194	-0.046
-648.784	-55.493	-0.271	0.123
-647.770	193.666	-0.046	0.070
-646.755	103.266	0.290	-0.345
-645.741	-117.422	-0.098	0.018
-644.726	-88.791	-0.225	-0.068
-643.711	-18.333	-0.306	0.194
-642.697	-200.000	0.025	0.250
-641.682	-11.058	-0.280	-0.188
-640.668	207.319	-0.052	-0.082
-639.653	606.719	0.073	-0.186
-638.638	-144.777	-0.162	-0.015
-637.624	145.771	-0.145	-0.197
-636.609	41.468	-0.136	0.125
-635.595	68.550	-0.083	0.086
-634.580	-67.919	0.209	0.083
-633.565	31.186	-0.095	-0.083
-632.551	219.170	-0.137	-0.222
-631.536	-144.234	-0.082	0.008
-630.522	-200.000	-0.010	-0.206
-629.507	-29.390	-0.052	0.030
-628.492	-200.000	0.038	-0.373
-627.478	77.628	-0.251	-0.271
-626.463	-200.000	0.021	-0.287
-625.449	800.000	-0.049	0.139
-624.434	800.000	-0.021	0.082
-623.419	-149.633	0.148	-0.012
-622.405	-87.582	-0.086	-0.026
-621.390	-200.000	-0.000	-0.149
-620.376	183.644	-0.119	0.178
-619.361	74.727	0.052	-0.056
-618.346	-25.224	0.418	0.251
-617.332	16.444	-0.270	0.217
-616.317	-66.954	-0.277	-0.111
-615.303	-147.087	0.031	0.003
-614.288	-86.665	-0.237	0.074
-613.273	-200.000	0.004	-0.117
-612.259	-53.231	-0.103	0.048
-611.244	-165.002	-0.093	0.004
-610.230	-163.788	-0.101	0.005
-609.215	-87.012	0.158	-0.049
-608.201	-116.072	0.372	0.070
-607.186	-14.394	-0.201	0.132
-606.171	41.691	-0.127	-0.117
-605.157	800.000	-0.043	0.126
-604.142	-13.369	0.049	0.032
-603.128	-181.465	-0.331	0.007
-602.113	208.555	0.249	0.395
-601.098	219.285	0.211	-0.343
-600.084	148.220	0.132	-0.180
-599.069	25.871	0.250	-0.212
-598.055	107.301	0.243	0.293
-597.040	622.878	-0.049	-0.124
-596.025	-200.000	-0.038	-0.265
-595.011	452.080	-0.125	-0.281
-593.996	-57.633	-0.402	-0.178
-592.982	800.000	0.059	-0.179
-591.967	-107.564	-0.211	-0.047
-590.952	-54.137	0.130	0.060
-589.938	-200.000	0.037	-0.252
-588.923	82.702	0.246	-0.271
-587.909	-200.000	0.008	0.129
-586.894	-200.000	-0.025	0.192
-585.879	-200.000	-0.005	-0.163
-584.865	-112.335	-0.132	0.027
-583.850	522.480	0.061	-0.145
-582.836	-25.273	0.175	-0.105
-581.821	-200.000	-0.007	-0.035
-580.806	-200.000	0.045	0.267
-579.792	800.000	-0.020	-0.064
-578.777	61.729	0.074	0.075
-577.763	-58.075	0.086	0.038
-576.748	-176.277	-0.341	-0.009
-575.733	176.564	0.050	0.074
-574.719	199.580	0.036	0.056
-573.704	-200.000	0.003	0.291
-572.690	-70.627	0.322	0.123
-571.675	-104.260	-0.194	-0.046
-570.661	-61.713	0.205	-0.087
-569.646	384.184	0.084	0.176
-568.631	-80.059	0.121	-0.041
-567.617	158.291	0.155	-0.217
-566.602	389.450	0.098	-0.206
-565.588	-200.000	0.008	0.047
-564.573	68.010	0.072	0.074
-563.558	101.240	-0.163	-0.192
-562.544	-12.085	-0.198	0.131
-561.529	-200.000	-0.027	0.202
-560.515	800.000	0.066	-0.261
-559.500	-72.382	-0.176	-0.066
-558.485	800.000	0.075	0.240
-557.471	18.580	0.125	-0.101
-556.456	49.478	0.131	0.124
-555.442	-12.912	-0.252	0.166
-554.427	-86.634	-0.167	-0.052
-553.412	54.804	-0.178	0.174
-552.398	800.000	0.117	0.414
-551.383	-91.060	-0.279	0.081
-550.369	800.000	-0.096	0.346
-549.354	-73.320	-0.170	0.063
-548.339	249.884	0.026	-0.044
-547.325	-200.000	-0.004	-0.121
-546.310	800.000	-0.132	-0.411
-545.296	-170.157	0.159	0.006
-544.281	68.367	0.240	0.249
-543.266	32.998	0.159	-0.139
-542.252	-102.847	-0.182	0.044
-541.237	-200.000	0.024	0.244
-540.223	35.893	0.271	-0.241
-539.208	-25.246	0.047	0.028
-538.193	-20.276	-0.200	-0.124
-537.179	75.086	0.062	0.066
-536.164	-4.856	-0.051	0.036
-535.150	-37.690	-0.114	-0.061
-534.135	123.228	0.167	0.212
-533.121	-141.416	0.407	-0.042
-532.106	143.999	-0.143	0.193
-531.091	-77.894	0.208	-0.072
-530.077	2.097	-0.123	-0.090
-529.062	-200.000	-0.064	-0.366
-528.048	17.466	-0.356	0.286
-527.033	-6.578	0.102	0.070
-526.018	-52.742	-0.344	-0.161
-525.004	800.000	0.024	0.076
-523.989	202.058	0.019	-0.029
-522.975	800.000	-0.037	-0.144
-521.960	800.000	0.047	0.172
-520.945	-18.567	0.185	0.117
-519.931	178.938	-0.066	-0.098
-518.916	606.493	0.015	-0.038
-517.902	635.190	-0.076	-0.195
-516.887	154.608	0.047	0.065
-515.872	77.651	-0.151	-0.163
-514.858	-73.546	-0.147	0.054
-513.843	31.968	-0.174	0.152
-512.829	-84.841	-0.253	-0.080
-511.814	-77.528	0.185	-0.065
-510.799	25.194	0.117	0.098
-509.785	-137.664	0.394	-0.045
-508.770	-66.139	0.303	-0.122
-507.756	800.000	-0.075	0.270
-506.741	800.000	-0.056	0.225
-505.726	736.473	-0.105	-0.285
-504.712	180.282	-0.115	0.170
-503.697	-200.000	0.021	-0.147
-502.683	531.572	-0.183	-0.437
-501.668	-200.000	-0.010	0.111
-500.653	122.051	0.207	-0.261
-499.639	55.945	-0.083	-0.081
-498.624	-200.000	0.040	0.239
-497.610	472.255	-0.066	-0.151
-496.595	800.000	0.062	0.199
-495.581	-131.711	-0.227	0.030
-494.566	-43.106	-0.324	-0.166
-493.551	-126.646	-0.289	-0.043
-492.537	240.998	-0.089	0.150
-491.522	164.966	0.229	-0.326
-490.508	55.138	-0.291	-0.284
-489.493	-57.904	0.152	0.067
-488.478	293.310	0.033	-0.060
-487.464	800.000	-0.087	-0.314
-486.449	800.000	0.031	0.103
-485.435	603.609	-0.090	0.227
-484.420	530.050	0.175	0.418
-483.405	351.134	0.053	-0.106
-482.391	42.730	-0.103	0.095
-481.376	410.251	0.100	-0.214
-480.362	76.477	0.129	0.138
-479.347	122.380	0.116	0.146
-478.332	800.000	-0.072	0.234
-477.318	37.890	-0.142	-0.127
-476.303	-85.958	0.271	-0.085
-475.289	-200.000	-0.007	-0.215
-474.274	-10.778	-0.093	-0.062
-473.259	-200.000	0.044	0.719
-472.245	-19.330	0.314	-0.196
-471.230	-66.310	0.283	-0.114
-470.216	-120.588	-0.192	-0.033
-469.201	-115.593	0.189	-0.036
-468.186	-19.431	-0.048	-0.030
-467.172	56.527	-0.321	0.315
-466.157	-200.000	-0.036	-0.257
-465.143	150.481	0.319	-0.437
-464.128	-200.000	0.043	-0.242
-463.113	-32.813	0.170	-0.095
-462.099	762.403	0.165	-0.451
-461.084	-86.608	0.231	0.071
-460.070	-200.000	0.031	-0.143
-459.055	-138.985	-0.077	-0.008
-458.040	-200.000	0.023	-0.258
-457.026	283.127	-0.121	0.219
-456.011	-130.311	0.285	0.039
-454.997	-7.239	0.246	-0.168
-453.982	-200.000	0.016	-0.193
-452.968	-91.081	-0.295	-0.085
-451.953	800.000	-0.079	0.321
-450.938	53.278	-0.176	-0.170
-449.924	220.570	0.144	0.233
-448.909	290.232	0.190	0.349
-447.895	-60.125	0.056	0.024
-446.880	7.481	-0.217	-0.164
-445.865	434.703	-0.100	-0.219
-444.851	235.048	-0.173	0.287
-443.836	-149.277	-0.192	-0.015
-442.822	173.800	0.043	-0.062
-441.807	-75.873	0.236	-0.084
-440.792	488.193	0.111	-0.254
-439.778	-92.127	-0.224	-0.064
-438.763	678.958	0.107	-0.281
-437.749	115.328	-0.108	-0.133
-436.734	8.786	-0.262	-0.199
-435.719	22.865	0.150	-0.124
-434.705	158.368	-0.051	0.071
-433.690	39.601	-0.265	0.240
-432.676	-42.741	0.132	-0.067
-431.661	786.678	0.042	-0.115
-430.646	79.525	-0.161	-0.174
-429.632	-98.086	-0.059	0.015
-428.617	-97.304	0.257	0.068
-427.603	36.058	-0.155	0.137
-426.588	148.837	-0.033	-0.045
-425.573	800.000	0.010	-0.029
-424.559	250.698	-0.167	-0.285
-423.544	-200.000	-0.002	-0.124
-422.530	315.415	-0.130	-0.246
-421.515	-156.921	-0.313	0.019
-420.500	288.983	-0.116	-0.211
-419.486	188.825	-0.211	0.318
-418.471	128.171	-0.176	-0.226
-417.457	-135.864	0.146	-0.017
-416.442	367.594	-0.044	0.090
-415.428	-19.183	0.450	0.281
-414.413	-77.967	0.096	-0.033
-413.398	-200.000	-0.011	-0.083
-412.384	277.384	0.151	0.271
-411.369	37.729	-0.224	-0.201
-410.355	-63.822	0.196	0.081
-409.340	800.000	-0.048	-0.198
-408.325	-95.516	0.195	-0.053
-407.311	-54.294	0.124	0.057
-406.296	-110.818	-0.228	-0.047
-405.282	21.202	0.062	0.051
-404.267	-185.625	-0.154	-0.002
-403.252	800.000	0.077	-0.266
-402.238	-57.922	0.170	0.075
-401.223	75.064	-0.255	-0.271
-400.209	-68.216	0.159	-0.062
-399.194	-91.741	0.068	-0.020
-398.179	114.447	0.107	0.131
-397.165	-130.353	0.075	-0.010
-396.150	229.840	-0.213	-0.350
-395.136	57.255	0.245	0.241
-394.121	95.916	0.164	0.188
-393.106	-83.064	-0.081	0.026
-392.092	800.000	0.077	0.283
-391.077	57.437	-0.188	-0.185
-390.063	-200.000	-0.033	0.180
-389.048	-200.000	-0.029	0.166
-388.033	-200.000	0.016	0.089
-387.019	-132.836	0.120	-0.015
-386.004	555.603	0.122	-0.295
-384.990	9.455	0.160	-0.122
-383.975	145.273	0.189	-0.254
-382.960	-76.588	0.156	-0.055
-381.946	-1.752	-0.195	-0.138
-380.931	-116.573	-0.139	-0.026
-379.917	-200.000	-0.057	-0.279
-378.902	740.317	-0.080	0.215
-377.888	-61.158	-0.201	-0.085
-376.873	39.312	0.240	-0.216
-375.858	41.669	0.202	0.184
-374.844	95.166	-0.096	0.110
-373.829	-18.144	0.238	0.150
-372.815	-200.000	0.015	0.085
-371.800	58.597	0.174	0.172
-370.785	443.130	0.061	-0.135
-369.771	-115.750	0.160	0.030
-368.756	800.000	0.032	-0.137
-367.742	-91.906	0.312	0.089
-366.727	302.472	0.116	0.216
-365.712	-70.685	0.127	0.048
-364.698	123.020	-0.049	0.062
-363.683	-78.994	0.276	0.094
-362.669	151.578	-0.149	0.204
-361.654	800.000	-0.113	-0.332
-360.639	621.200	-0.146	-0.368
-359.625	353.853	-0.095	-0.190
-358.610	70.452	0.037	0.038
-357.596	473.469	0.087	0.198
-356.581	-135.324	-0.260	0.031
-355.566	-200.000	-0.007	0.225
-354.552	-37.355	-0.359	0.193
-353.537	27.919	-0.165	-0.140
-352.523	690.580	0.088	0.233
-351.508	-171.098	-0.069	-0.002
-350.493	106.927	-0.013	0.016
-349.479	-9.274	0.065	-0.044
-348.464	106.684	0.132	0.158
-347.450	-80.087	0.209	0.070
-346.435	-162.932	0.209	-0.010
-345.420	-64.548	0.185	0.075
-344.406	-81.404	-0.168	-0.056
-343.391	-77.054	-0.268	-0.094
-342.377	111.200	0.073	0.088
-341.362	-41.684	0.300	0.155
-340.348	-200.000	0.029	-0.425
-339.333	16.393	0.204	0.161
-338.318	-145.374	0.222	0.020
-337.304	-55.887	-0.588	0.263
-336.289	-90.490	-0.225	0.066
-335.275	-200.000	-0.029	-0.183
-334.260	646.308	-0.065	-0.166
-333.245	-200.000	-0.011	0.081
-332.231	93.894	-0.045	0.052
-331.216	-111.184	0.355	-0.073
-330.202	14.592	0.185	-0.145
-329.187	-71.487	-0.192	0.072
-328.172	-48.776	0.249	-0.120
-327.158	-9.924	-0.174	-0.116
-326.143	-92.514	0.343	-0.097
-325.129	354.334	0.140	0.280
-324.114	-46.903	0.269	-0.132
-323.099	-115.122	-0.155	-0.030
-322.085	256.988	0.109	-0.189
-321.070	800.000	-0.082	-0.232
-320.056	224.524	-0.173	0.280
-319.041	-200.000	0.009	0.108
-318.026	97.112	0.146	-0.168
-317.012	-63.398	-0.237	-0.098
-315.997	-13.265	0.198	0.129
-314.983	-38.409	0.298	-0.158
-313.968	-9.817	0.215	0.144
-312.953	213.641	-0.048	-0.076
-311.939	299.547	-0.028	-0.052
-310.924	-34.572	-0.046	0.025
-309.910	-200.000	0.012	0.053
-308.895	-180.719	0.118	0.002
-307.880	84.864	0.085	-0.093
-306.866	-200.000	0.013	0.271
-305.851	103.361	0.123	-0.144
-304.837	-132.008	0.206	-0.027
-303.822	-46.002	-0.252	-0.124
-302.807	-79.193	0.176	0.060
-301.793	-200.000	0.039	0.350
-300.778	-200.000	-0.022	0.202
-299.764	-200.000	-0.061	0.276
-298.749	800.000	0.074	0.266
-297.735	-80.961	0.172	-0.057
-296.720	173.125	0.197	0.284
-295.705	-200.000	-0.010	-0.235
-294.691	107.009	0.195	0.232
-293.676	-200.000	-0.033	0.226
-292.662	-169.217	-0.133	0.005
-291.647	-84.795	0.202	0.064
-290.632	-26.959	-0.071	0.042
-289.618	-2.314	0.232	0.163
-288.603	800.000	0.062	-0.190
-287.589	-35.989	0.091	-0.049
-286.574	1.039	0.323	0.232
-285.559	61.426	-0.143	0.143
-284.545	-200.000	0.073	-0.351
-283.530	-136.340	-0.148	0.017
-282.516	223.741	-0.127	0.205
-281.501	686.029	-0.087	0.229
-280.486	-21.888	0.289	0.176
-279.472	-114.541	0.109	-0.021
-278.457	-21.219	0.270	-0.165
-277.443	-200.000	-0.031	0.229
-276.428	-200.000	-0.002	0.094
-275.413	-200.000	0.037	-0.270
-274.399	229.417	0.129	-0.212
-273.384	208.032	0.020	0.032
-272.370	-34.070	0.337	-0.185
-271.355	76.666	0.153	0.162
-270.340	-84.205	-0.073	-0.023
-269.326	551.952	-0.034	0.081
-268.311	-126.194	0.331	0.050
-267.297	-52.431	-0.082	0.038
-266.282	-23.503	0.128	0.077
-265.267	-191.230	-0.083	-0.001
-264.253	800.000	-0.041	0.171
-263.238	152.019	-0.109	-0.149
-262.224	36.362	0.183	-0.161
-261.209	-200.000	-0.009	0.267
-260.195	-100.694	-0.391	0.096
-259.180	56.723	0.339	0.331
-258.165	204.346	-0.141	0.218
-257.151	-200.000	-0.003	0.152
-256.136	800.000	-0.033	-0.116
-255.122	119.898	-0.115	-0.143
-254.107	-14.001	0.223	-0.144
-253.092	-89.202	0.162	-0.048
-252.078	800.000	0.058	0.247
-251.063	290.708	0.067	0.122
-250.049	-25.243	0.130	-0.077
-249.034	22.846	-0.050	0.041
-248.019	-73.431	-0.117	-0.043
-247.005	125.981	-0.154	-0.194
-245.990	141.317	-0.064	0.085
-244.976	800.000	-0.009	0.031
-243.961	-109.086	0.144	0.031
-242.946	15.189	0.023	0.018
-241.932	24.839	-0.131	-0.109
-240.917	-72.323	-0.166	-0.062
-239.903	-200.000	-0.009	0.064
-238.888	800.000	0.066	-0.200
-237.873	-200.000	0.035	-0.166
-236.859	-135.602	-0.147	0.017
-235.844	-200.000	0.004	0.248
-234.830	-200.000	-0.047	-0.260
-233.815	-159.547	-0.070	0.004
-232.800	124.113	0.188	0.236
-231.786	-200.000	0.017	0.172
-230.771	-31.076	-0.276	0.156
-229.757	-0.283	-0.158	-0.112
-228.742	466.184	-0.032	0.072
-227.727	-99.142	-0.105	-0.027
-226.713	-94.434	0.078	-0.021
-225.698	-57.130	0.115	-0.050
-224.684	-158.368	-0.054	0.003
-223.669	507.469	0.091	-0.212
-222.655	676.059	0.023	-0.060
-221.640	-65.544	-0.111	0.044
-220.625	-119.307	0.034	0.006
-219.611	-161.968	-0.423	-0.021
-218.596	-130.288	0.122	0.017
-217.582	280.857	-0.180	0.322
-216.567	800.000	0.015	0.065
-215.552	709.615	0.085	0.223
-214.538	16.979	-0.213	0.168
-213.523	217.029	0.057	0.090
-212.509	-105.236	0.097	0.022
-211.494	800.000	-0.074	-0.224
-210.479	-30.870	-0.246	0.139
-209.465	-26.724	-0.221	0.129
-208.450	-87.475	-0.304	-0.092
-207.436	-172.786	0.266	-0.008
-206.421	-200.000	-0.010	0.176
-205.406	-200.000	0.003	-0.216
-204.392	-152.118	-0.191	0.014
-203.377	-200.000	0.019	0.358
-202.363	307.804	0.280	0.520
-201.348	333.745	0.025	0.048
-200.333	-200.000	0.027	-0.179
-199.319	-43.418	0.249	-0.126
-198.304	800.000	0.018	0.052
-197.290	-129.614	0.264	0.036
-196.275	-52.162	-0.162	-0.075
-195.260	-126.274	-0.276	0.041
-194.246	-36.678	0.237	0.127
-193.231	-126.785	0.098	-0.014
-192.217	800.000	-0.032	-0.125
-191.202	-200.000	-0.002	0.042
-190.187	800.000	-0.068	-0.231
-189.173	-200.000	0.023	0.269
-188.158	800.000	-0.012	0.042
-187.144	-135.630	-0.319	0.038
-186.129	800.000	0.068	0.245
-185.114	-37.414	-0.251	-0.134
-184.100	282.712	-0.067	0.119
-183.085	118.574	-0.139	-0.171
-182.071	725.841	0.081	-0.215
-181.056	-28.950	-0.105	-0.060
-180.042	-52.449	-0.155	0.072
-179.027	91.923	0.230	0.258
-178.012	649.146	0.029	-0.073
-176.998	-200.000	-0.021	0.296
-175.983	-110.271	0.076	0.016
-174.969	736.645	-0.113	0.302
-173.954	-85.396	0.020	0.006
-172.939	755.329	0.103	0.278
-171.925	-129.826	-0.219	0.030
-170.910	-200.000	0.011	0.165
-169.896	-76.567	0.149	0.052
-168.881	-95.304	-0.227	0.061
-167.866	-133.587	-0.017	0.002
-166.852	-36.913	-0.140	0.075
-165.837	-14.150	0.100	0.064
-164.823	-141.396	-0.402	-0.041
-163.808	364.066	-0.102	-0.205
-162.793	534.893	0.103	-0.243
-161.779	64.824	0.215	0.216
-160.764	586.583	-0.033	0.080
-159.750	-71.246	-0.173	-0.065
-158.735	133.673	-0.159	-0.205
-157.720	590.984	-0.076	0.186
-156.706	-191.523	0.056	-0.001
-155.691	13.838	-0.161	-0.124
-154.677	621.098	-0.112	-0.280
-153.662	-200.000	-0.029	-0.149
-152.647	-165.818	0.072	-0.003
-151.633	-145.296	-0.112	-0.010
-150.618	-200.000	-0.005	0.139
-149.604	47.934	0.075	-0.070
-148.589	-21.072	0.103	0.063
-147.574	800.000	0.066	0.225
-146.560	120.861	-0.249	-0.309
-145.545	-91.072	0.060	-0.017
-144.531	-76.910	0.266	-0.093
-143.516	110.086	-0.128	0.153
-142.502	304.782	0.263	-0.486
-141.487	-7.631	0.214	-0.144
-140.472	800.000	0.125	0.393
-139.458	-154.458	-0.168	0.011
-138.443	271.025	-0.236	0.413
-137.429	-200.000	0.245	0.000
-136.414	800.000	-0.053	-0.226
-135.399	800.000	0.108	0.344
-134.385	-159.227	0.115	0.006
-133.370	-49.331	0.144	-0.069
-132.356	-57.651	0.298	-0.130
-131.341	800.000	0.102	-0.387
-130.326	800.000	0.069	-0.258
-129.312	74.181	0.064	0.067
-128.297	-152.502	0.121	0.009
-127.283	-176.507	-0.131	-0.003
-126.268	288.567	0.100	0.180
-125.253	-200.000	0.015	-0.253
-124.239	78.891	0.269	-0.286
-123.224	-200.000	0.039	-0.208
-122.210	195.426	0.102	0.155
-121.195	-22.048	0.317	0.192
