DTS Sentinel unit serial number:	SN413079Multiplexer serial number:	ORYXHardware model number:	OX4-SRSoftware version number:	ORYX F/W v4.00 Oryx Data Collector v3.7.2.0data status	okinstallation	princeton_trtdifferential loss correction	single-endedforward channel	channel 1reverse channel	N/Adate	2019/09/16time	09:02:35forward acquisition time	60.00reverse acquisition time	0.00gamma	496.2192k internal	0.2325k external	0.2325temperature offset calibration	0.9972default loss term (dB/km)	0.3790temperature slope calibration	1.0000multiplexer offset coefficient	1.0000multiplexer slope coefficient	1.0000fibre end	0.00T internal ref (°C)	30.56T ext. ref 1 (°C)	12.06T ext. ref 2 (°C)	28.17length (m)	temperature (°C)	Stokes	anti-Stokes-747.200	-53.451	-0.185	0.085
-746.185	-144.283	0.167	0.016
-745.171	-200.000	0.091	0.422
-744.156	800.000	-0.065	-0.225
-743.142	-110.752	-0.272	0.057
-742.127	61.883	-0.071	0.071
-741.112	-124.408	-0.300	-0.047
-740.098	-200.000	-0.061	0.298
-739.083	-117.059	0.307	-0.057
-738.069	75.366	-0.149	0.158
-737.054	246.502	-0.071	0.121
-736.039	-118.850	0.022	0.004
-735.025	-200.000	0.008	-0.057
-734.010	-200.000	-0.003	-0.072
-732.996	-200.000	-0.042	-0.192
-731.981	-135.597	-0.154	-0.018
-730.966	-200.000	0.086	0.595
-729.952	23.396	-0.423	0.351
-728.937	348.938	-0.097	-0.193
-727.923	80.577	-0.070	0.076
-726.908	-14.628	0.298	0.193
-725.894	-142.905	-0.258	-0.025
-724.879	-5.571	0.235	-0.163
-723.864	-200.000	-0.039	-0.278
-722.850	571.633	-0.059	-0.145
-721.835	61.984	-0.094	-0.094
-720.821	80.485	-0.082	-0.089
-719.806	-200.000	-0.044	-0.272
-718.791	-200.000	0.052	-0.293
-717.777	43.007	0.288	-0.265
-716.762	68.615	-0.186	0.192
-715.748	22.896	-0.162	-0.134
-714.733	-200.000	0.018	-0.217
-713.718	101.967	0.195	-0.229
-712.704	118.127	-0.149	0.185
-711.689	-29.536	0.078	-0.045
-710.675	595.456	-0.080	-0.200
-709.660	-55.275	0.196	0.089
-708.645	-62.207	0.260	0.109
-707.631	121.580	0.159	-0.200
-706.616	-200.000	-0.032	-0.357
-705.602	-71.598	-0.476	-0.179
-704.587	800.000	0.103	0.315
-703.572	800.000	0.068	0.235
-702.558	-200.000	0.003	-0.238
-701.543	35.295	0.188	-0.166
-700.529	-26.126	0.232	0.137
-699.514	-200.000	0.050	0.321
-698.499	-21.782	0.202	0.124
-697.485	-200.000	-0.003	0.130
-696.470	70.558	-0.189	-0.197
-695.456	48.745	0.248	-0.235
-694.441	-41.269	0.209	-0.109
-693.426	-28.221	-0.434	0.252
-692.412	-140.839	-0.066	-0.007
-691.397	-106.354	0.328	-0.074
-690.383	-200.000	0.016	0.111
-689.368	48.299	0.171	0.161
-688.354	-7.123	0.170	-0.116
-687.339	-200.000	0.007	-0.198
-686.324	15.505	-0.187	0.148
-685.310	-200.000	0.024	0.436
-684.295	-200.000	-0.005	-0.250
-683.281	-70.782	-0.500	-0.190
-682.266	230.854	-0.043	0.072
-681.251	-75.767	-0.125	-0.045
-680.237	-18.705	0.376	-0.236
-679.222	30.651	0.076	0.066
-678.208	-53.141	-0.353	0.163
-677.193	-112.326	-0.234	-0.047
-676.178	168.079	-0.091	-0.131
-675.164	98.382	-0.154	0.178
-674.149	87.180	0.187	-0.208
-673.135	-200.000	-0.006	-0.203
-672.120	800.000	-0.132	-0.378
-671.105	-32.860	-0.312	-0.175
-670.091	-200.000	-0.030	-0.186
-669.076	97.436	-0.167	0.193
-668.062	60.524	-0.281	-0.280
-667.047	121.107	0.025	0.032
-666.032	15.098	-0.333	0.262
-665.018	32.202	0.206	0.179
-664.003	-144.096	0.151	-0.014
-662.989	424.834	-0.099	0.215
-661.974	18.670	0.083	-0.067
-660.959	335.902	-0.058	-0.113
-659.945	382.591	-0.046	0.095
-658.930	85.211	-0.218	-0.241
-657.916	-176.944	-0.081	-0.002
-656.901	-8.753	-0.029	-0.020
-655.886	-86.317	-0.187	-0.058
-654.872	345.265	-0.179	-0.353
-653.857	-200.000	-0.001	-0.057
-652.843	-161.358	-0.055	-0.003
-651.828	-191.294	-0.171	-0.002
-650.814	-200.000	0.007	0.075
-649.799	800.000	-0.132	-0.446
-648.784	65.232	0.067	-0.068
-647.770	64.875	0.174	-0.177
-646.755	-174.588	0.390	-0.011
-645.741	-121.634	0.136	-0.023
-644.726	-200.000	0.014	-0.217
-643.711	-46.127	-0.148	-0.073
-642.697	800.000	-0.070	0.288
-641.682	28.186	0.134	0.113
-640.668	177.813	0.234	0.343
-639.653	-49.968	-0.122	0.058
-638.638	-33.190	-0.225	-0.126
-637.624	703.229	-0.087	-0.231
-636.609	800.000	-0.042	0.119
-635.595	-114.165	0.115	0.022
-634.580	-95.801	-0.130	-0.035
-633.565	-150.192	0.259	-0.020
-632.551	-94.990	-0.156	-0.042
-631.536	800.000	0.108	-0.406
-630.522	-45.315	0.134	0.067
-629.507	202.868	-0.095	-0.148
-628.492	800.000	-0.032	0.125
-627.478	17.086	-0.140	-0.111
-626.463	800.000	-0.097	0.410
-625.449	55.356	0.080	0.078
-624.434	800.000	-0.040	-0.115
-623.419	527.737	-0.050	0.118
-622.405	82.892	-0.260	-0.284
-621.390	-46.180	-0.275	-0.136
-620.376	47.691	-0.370	-0.347
-619.361	-58.994	-0.311	-0.135
-618.346	-58.647	-0.176	-0.077
-617.332	340.542	-0.191	-0.375
-616.317	-98.579	0.275	-0.070
-615.303	-89.901	-0.301	0.088
-614.288	-200.000	-0.039	-0.256
-613.273	-4.843	-0.149	0.103
-612.259	143.368	-0.040	0.053
-611.244	-102.775	-0.260	0.062
-610.230	-23.386	-0.398	-0.240
-609.215	-85.552	-0.329	-0.103
-608.201	37.426	-0.119	0.106
-607.186	335.422	0.081	0.158
-606.171	-127.128	0.132	0.019
-605.157	135.980	-0.115	-0.151
-604.142	-200.000	-0.005	0.116
-603.128	-70.151	0.122	0.047
-602.113	800.000	0.013	0.043
-601.098	-85.701	-0.114	-0.035
-600.084	-24.394	-0.128	0.077
-599.069	620.965	-0.042	-0.106
-598.055	89.332	-0.181	-0.202
-597.040	-93.775	-0.131	0.036
-596.025	42.080	-0.119	0.108
-595.011	800.000	0.055	0.186
-593.996	-185.836	-0.195	0.003
-592.982	24.704	-0.371	-0.308
-591.967	9.801	0.084	-0.064
-590.952	-98.025	0.116	0.030
-589.938	-10.547	-0.068	-0.045
-588.923	-200.000	0.005	-0.051
-587.909	-58.054	-0.171	0.075
-586.894	-197.956	-0.095	-0.001
-585.879	-136.282	0.281	-0.033
-584.865	-200.000	-0.031	-0.425
-583.850	-162.733	-0.297	-0.015
-582.836	800.000	-0.063	0.258
-581.821	-63.643	0.395	0.162
-580.806	-200.000	0.344	-0.001
-579.792	717.384	0.162	-0.432
-578.777	21.466	-0.098	0.080
-577.763	124.208	-0.099	0.125
-576.748	800.000	-0.051	-0.144
-575.733	-56.032	0.129	0.058
-574.719	-101.998	0.060	-0.015
-573.704	-30.442	-0.205	0.117
-572.690	800.000	0.131	0.368
-571.675	228.894	-0.172	0.281
-570.661	312.967	0.082	0.155
-569.646	-84.927	-0.192	0.061
-568.631	170.236	-0.149	0.214
-567.617	108.183	-0.283	0.338
-566.602	-200.000	-0.004	-0.033
-565.588	98.380	0.209	-0.241
-564.573	-27.967	-0.225	0.130
-563.558	40.610	-0.033	0.030
-562.544	-200.000	-0.002	0.141
-561.529	-120.064	-0.132	-0.023
-560.515	50.495	-0.041	0.039
-559.500	-37.629	0.109	-0.058
-558.485	-200.000	-0.010	-0.216
-557.471	248.559	-0.163	0.276
-556.456	-110.888	-0.189	0.039
-555.442	-106.523	0.392	0.088
-554.427	675.012	0.084	0.220
-553.412	67.569	-0.021	-0.021
-552.398	395.399	-0.141	-0.294
-551.383	-187.599	0.209	0.003
-550.369	-166.291	-0.242	-0.010
-549.354	-89.825	0.261	-0.076
-548.339	-127.929	-0.477	-0.069
-547.325	-112.347	-0.089	-0.018
-546.310	-200.000	-0.028	0.208
-545.296	-200.000	-0.030	-0.278
-544.281	181.859	-0.260	-0.383
-543.266	124.122	-0.147	0.185
-542.252	4.168	-0.127	-0.093
-541.237	800.000	0.033	0.116
-540.223	197.503	-0.054	0.082
-539.208	3.109	0.290	-0.211
-538.193	54.707	0.285	0.276
-537.179	464.940	0.034	0.076
-536.164	800.000	-0.025	-0.071
-535.150	-133.209	0.120	-0.015
-534.135	800.000	0.154	0.578
-533.121	-200.000	0.028	0.261
-532.106	800.000	0.072	0.257
-531.091	-100.409	-0.245	0.061
-530.077	-200.000	-0.028	-0.192
-529.062	180.912	0.176	-0.258
-528.048	1.501	0.327	0.236
-527.033	106.613	0.197	0.234
-526.018	800.000	-0.026	-0.100
-525.004	-200.000	-0.033	0.225
-523.989	-98.758	-0.256	-0.065
-522.975	96.032	-0.247	-0.283
-521.960	-29.698	0.058	0.033
-520.945	-32.098	0.131	0.073
-519.931	5.388	0.132	0.097
-518.916	11.097	0.125	0.096
-517.902	77.510	-0.229	0.244
-516.887	-33.698	0.160	0.088
-515.872	-81.283	0.118	-0.039
-514.858	-55.891	-0.225	-0.101
-513.843	-200.000	-0.056	-0.374
-512.829	328.271	-0.107	0.206
-511.814	45.105	0.255	-0.235
-510.799	-200.000	0.012	-0.233
-509.785	-78.146	-0.532	0.183
-508.770	-74.054	-0.129	0.047
-507.756	-47.909	-0.143	-0.069
-506.741	76.535	0.338	-0.359
-505.726	-178.272	-0.163	-0.004
-504.712	116.953	-0.135	0.165
-503.697	711.267	0.043	-0.113
-502.683	302.993	0.061	0.113
-501.668	22.887	-0.218	0.179
-500.653	15.831	0.242	0.190
-499.639	-79.455	0.045	0.015
-498.624	135.870	0.296	-0.385
-497.610	726.008	-0.038	0.100
-496.595	800.000	-0.093	-0.378
-495.581	-59.115	-0.344	0.148
-494.566	-82.190	0.206	0.067
-493.551	-200.000	-0.017	-0.210
-492.537	120.992	0.142	-0.176
-491.522	800.000	0.124	0.343
-490.508	800.000	-0.079	-0.266
-489.493	-45.629	-0.198	-0.098
-488.478	3.593	0.144	0.105
-487.464	-200.000	0.010	-0.080
-486.449	111.548	0.131	-0.158
-485.435	275.565	-0.101	0.179
-484.420	-79.396	0.289	0.098
-483.405	-111.175	0.195	0.040
-482.391	410.514	0.084	0.179
-481.376	-200.000	-0.019	0.336
-480.362	-7.953	0.199	0.134
-479.347	-200.000	0.029	0.169
-478.332	357.586	-0.091	0.181
-477.318	73.520	0.081	0.084
-476.303	-109.236	0.197	0.042
-475.289	-200.000	0.023	0.117
-474.274	6.284	-0.162	0.120
-473.259	-125.101	0.117	-0.018
-472.245	-134.171	0.310	0.038
-471.230	-200.000	-0.006	-0.195
-470.216	-161.505	0.190	0.010
-469.201	800.000	0.051	-0.163
-468.186	-200.000	-0.033	-0.213
-467.172	-41.519	-0.258	0.133
-466.157	800.000	0.050	0.213
-465.143	-152.330	-0.099	0.007
-464.128	800.000	0.107	-0.326
-463.113	-200.000	-0.073	-0.392
-462.099	27.075	-0.199	0.166
-461.084	24.260	-0.159	0.131
-460.070	26.376	-0.182	0.152
-459.055	226.828	0.064	-0.104
-458.040	-200.000	-0.052	-0.314
-457.026	800.000	-0.074	-0.281
-456.011	727.779	0.052	0.138
-454.997	-71.369	-0.035	0.013
-453.982	325.619	0.088	-0.169
-452.968	456.673	-0.049	-0.108
-451.953	-128.753	0.161	-0.023
-450.938	155.422	0.074	0.102
-449.924	-200.000	-0.028	0.270
-448.909	-74.077	-0.095	-0.034
-447.895	4.051	-0.251	0.183
-446.880	385.974	0.080	0.164
-445.865	-90.995	0.161	-0.046
-444.851	139.448	0.123	-0.162
-443.836	198.798	-0.126	0.193
-442.822	110.382	-0.169	0.202
-441.807	-105.971	-0.185	-0.042
-440.792	-16.429	-0.197	-0.125
-439.778	-37.434	-0.286	0.152
-438.763	-77.076	-0.020	-0.007
-437.749	537.937	-0.094	0.223
-436.734	262.107	-0.112	-0.193
-435.719	-184.028	-0.270	-0.005
-434.705	157.442	0.175	0.242
-433.690	225.590	0.186	0.300
-432.676	72.708	0.252	-0.262
-431.661	-200.000	-0.035	0.161
-430.646	-96.596	-0.322	0.085
-429.632	334.283	0.240	0.464
-428.617	-200.000	-0.002	-0.291
-427.603	-200.000	0.023	-0.350
-426.588	-200.000	0.036	0.348
-425.573	-200.000	-0.006	0.070
-424.559	-105.905	0.077	-0.017
-423.544	109.292	0.163	-0.195
-422.530	-133.277	0.235	-0.030
-421.515	-200.000	-0.017	-0.091
-420.500	137.056	0.221	-0.287
-419.486	-4.885	-0.237	0.163
-418.471	232.922	0.009	0.015
-417.457	-200.000	-0.015	0.117
-416.442	203.886	0.141	0.218
-415.428	-200.000	-0.017	-0.092
-414.413	20.655	-0.083	0.067
-413.398	379.274	0.084	-0.171
-412.384	-18.631	-0.188	-0.117
-411.369	-26.161	-0.032	0.019
-410.355	53.628	0.036	-0.034
-409.340	-70.316	0.151	-0.057
-408.325	-140.384	0.374	-0.039
-407.311	47.638	-0.050	-0.046
-406.296	-40.298	0.103	0.053
-405.282	-119.745	-0.256	0.044
-404.267	-20.336	0.283	0.173
-403.252	192.846	0.222	0.334
-402.238	726.298	0.110	0.291
-401.223	-200.000	-0.036	-0.358
-400.209	800.000	-0.105	-0.317
-399.194	-120.079	0.193	0.033
-398.179	-83.122	0.125	0.040
-397.165	-200.000	0.074	-0.337
-396.150	142.669	0.125	-0.165
-395.136	-200.000	-0.003	-0.288
-394.121	-92.811	-0.282	-0.079
-393.106	-200.000	-0.049	0.245
-392.092	18.341	-0.382	-0.304
-391.077	-30.980	0.144	0.081
-390.063	-200.000	-0.007	0.254
-389.048	-200.000	0.023	-0.325
-388.033	-110.213	0.429	-0.089
-387.019	-184.682	-0.425	0.007
-386.004	5.370	0.230	0.169
-384.990	60.375	0.152	-0.149
-383.975	7.861	0.177	0.132
-382.960	800.000	0.042	0.128
-381.946	-200.000	-0.107	0.000
-380.931	310.685	0.048	-0.090
-379.917	163.115	-0.132	-0.184
-378.902	-200.000	-0.014	0.184
-377.888	306.331	-0.211	0.390
-376.873	-194.133	0.188	-0.002
-375.858	155.400	-0.127	0.174
-374.844	457.102	-0.052	0.115
-373.829	-20.293	0.184	0.113
-372.815	-91.237	-0.404	0.115
-371.800	-0.914	-0.245	-0.172
-370.785	-15.164	0.168	0.107
-369.771	-129.748	0.320	-0.044
-368.756	-1.924	-0.141	-0.098
-367.742	122.227	0.089	0.111
-366.727	-200.000	0.010	-0.144
-365.712	394.611	-0.100	-0.207
-364.698	-54.612	0.252	0.113
-363.683	265.376	0.148	-0.257
-362.669	221.407	0.149	-0.238
-361.654	97.313	0.136	-0.155
-360.639	96.333	-0.031	0.035
-359.625	106.379	0.208	-0.245
-358.610	-200.000	0.066	-0.390
-357.596	-59.923	-0.096	0.041
-356.581	225.739	0.071	-0.115
-355.566	-35.475	0.114	-0.062
-354.552	800.000	-0.027	0.105
-353.537	69.464	0.018	0.018
-352.523	-200.000	-0.028	-0.426
-351.508	-42.913	-0.127	0.064
-350.493	-17.587	0.254	0.159
-349.479	180.878	0.111	-0.162
-348.464	5.846	-0.167	-0.122
-347.450	-200.000	0.068	-0.316
-346.435	102.161	0.238	0.276
-345.420	254.028	-0.170	0.288
-344.406	-109.987	-0.139	-0.029
-343.391	150.462	0.194	-0.262
-342.377	236.195	0.192	-0.315
-341.362	481.186	-0.040	-0.090
-340.348	183.199	-0.059	0.087
-339.333	120.312	-0.257	0.317
-338.318	-115.204	-0.282	-0.053
-337.304	267.750	0.193	0.335
-336.289	241.310	0.052	-0.085
-335.275	-200.000	-0.004	0.109
-334.260	-37.041	-0.068	-0.036
-333.245	-155.970	0.240	-0.015
-332.231	-110.661	0.280	0.057
-331.216	18.800	0.094	-0.075
-330.202	366.511	0.032	-0.064
-329.187	24.421	0.066	0.054
-328.172	-94.943	0.256	0.069
-327.158	800.000	-0.088	-0.260
-326.143	65.023	0.183	-0.184
-325.129	-7.654	-0.095	0.063
-324.114	-81.520	-0.124	-0.041
-323.099	-102.474	-0.250	0.059
-322.085	-142.234	0.303	0.030
-321.070	127.106	0.039	-0.049
-320.056	421.677	-0.092	0.197
-319.041	131.346	0.187	0.238
-318.026	24.857	-0.138	-0.114
-317.012	-60.807	0.068	0.029
-315.997	76.010	-0.282	0.296
-314.983	106.289	-0.244	0.287
-313.968	-158.954	0.265	0.015
-312.953	-107.391	-0.220	0.048
-311.939	-83.209	-0.199	0.064
-310.924	396.567	0.093	0.193
-309.910	162.236	-0.362	-0.503
-308.895	-95.544	-0.155	-0.041
-307.880	800.000	-0.032	-0.135
-306.866	87.678	-0.149	-0.164
-305.851	-49.661	0.043	-0.020
-304.837	-200.000	0.001	-0.017
-303.822	-200.000	-0.017	0.232
-302.807	217.715	-0.161	-0.255
-301.793	-160.758	0.196	-0.010
-300.778	-32.762	0.322	-0.177
-299.764	-200.000	0.024	0.161
-298.749	-14.446	0.086	-0.055
-297.735	-9.352	0.043	-0.028
-296.720	-154.699	-0.153	-0.010
-295.705	-103.931	0.385	-0.089
-294.691	12.537	-0.133	-0.102
-293.676	800.000	0.047	-0.166
-292.662	-46.894	0.300	0.145
-291.647	550.585	0.068	-0.162
-290.632	-110.623	-0.155	-0.032
-289.618	-162.605	-0.224	0.011
-288.603	800.000	0.046	-0.201
-287.589	-54.192	-0.176	0.079
-286.574	62.767	0.184	-0.182
-285.559	-90.299	-0.078	-0.022
-284.545	-200.000	-0.023	-0.124
-283.530	18.807	0.149	0.118
-282.516	-48.107	0.234	-0.112
-281.501	800.000	-0.061	-0.178
-280.486	2.749	0.100	0.072
-279.472	-54.445	0.281	0.126
-278.457	269.435	0.140	-0.243
-277.443	-200.000	0.028	0.183
-276.428	122.742	0.219	0.271
-275.413	68.839	0.170	0.173
-274.399	-200.000	0.000	-0.139
-273.384	-67.855	-0.260	0.101
-272.370	-103.030	0.211	-0.050
-271.355	275.807	-0.056	0.098
-270.340	182.534	0.102	-0.148
-269.326	-200.000	-0.022	0.190
-268.311	-9.017	-0.289	0.192
-267.297	-200.000	-0.070	-0.441
-266.282	800.000	0.018	0.067
-265.267	-200.000	-0.042	0.274
-264.253	250.118	0.122	0.206
-263.238	-13.666	0.425	0.272
-262.224	-200.000	0.007	0.186
-261.209	800.000	0.098	0.279
-260.195	147.894	-0.060	0.080
-259.180	-123.372	-0.370	-0.058
-258.165	800.000	0.051	0.189
-257.151	442.809	-0.128	0.277
-256.136	7.286	-0.188	0.139
-255.122	14.820	-0.118	0.091
-254.107	577.861	0.087	0.211
-253.092	719.408	-0.135	0.354
-252.078	7.719	0.319	0.236
-251.063	-35.083	0.180	-0.097
-250.049	245.010	0.101	0.168
-249.034	-33.302	-0.235	0.129
-248.019	135.712	0.269	0.347
-247.005	92.689	-0.044	0.049
-245.990	-93.763	-0.142	0.039
-244.976	-81.141	-0.320	0.105
-243.961	-116.071	0.106	-0.019
-242.946	66.502	0.236	-0.237
-241.932	50.306	0.197	0.184
-240.917	800.000	0.084	-0.294
-239.903	-200.000	0.018	-0.203
-238.888	-200.000	0.003	-0.157
-237.873	-131.969	0.262	0.034
-236.859	341.410	-0.131	-0.254
-235.844	46.421	0.082	-0.075
-234.830	-200.000	0.019	-0.210
-233.815	-200.000	-0.081	0.364
-232.800	599.698	-0.060	0.146
-231.786	127.833	0.146	0.184
-230.771	26.214	0.112	0.092
-229.757	800.000	0.075	-0.306
-228.742	-200.000	0.005	0.217
-227.727	800.000	0.103	0.427
-226.713	406.259	0.232	-0.485
-225.698	-50.854	-0.172	0.080
-224.684	-200.000	0.002	-0.426
-223.669	-83.851	0.224	0.070
-222.655	-165.295	0.173	0.008
-221.640	800.000	0.097	-0.313
-220.625	-121.013	0.182	0.030
-219.611	286.573	0.132	0.236
-218.596	-151.025	-0.440	0.033
-217.582	261.747	0.193	-0.331
-216.567	146.062	0.111	-0.148
-215.552	-200.000	-0.048	-0.224
-214.538	-176.952	-0.231	0.006
-213.523	800.000	0.070	-0.258
-212.509	-126.502	-0.387	0.057
-211.494	-173.825	-0.156	-0.005
-210.479	89.204	-0.130	-0.143
-209.465	160.205	0.248	0.342
-208.450	-7.324	0.109	0.073
-207.436	-82.905	-0.028	0.009
-206.421	-22.984	0.274	0.163
-205.406	-100.968	0.138	0.033
-204.392	2.556	0.187	-0.134
-203.377	-150.518	0.157	0.012
-202.363	800.000	-0.051	-0.188
-201.348	-129.390	-0.136	0.019
-200.333	18.872	0.110	0.087
-199.319	800.000	-0.021	0.092
-198.304	21.705	0.015	-0.012
-197.290	800.000	-0.069	-0.295
-196.275	-47.633	-0.165	0.079
-195.260	208.819	-0.173	0.268
-194.246	-76.671	-0.478	-0.165
-193.231	495.802	-0.048	0.109
-192.217	-63.910	-0.277	-0.112
-191.202	-200.000	-0.054	-0.321
-190.187	-181.299	0.356	0.007
-189.173	-115.500	-0.134	0.025
-188.158	-101.888	-0.121	-0.029
-187.144	-54.933	0.059	-0.026
-186.129	800.000	0.069	0.208
-185.114	133.047	0.036	-0.046
-184.100	-29.081	0.102	-0.058
-183.085	800.000	-0.020	-0.085
-182.071	218.385	0.105	0.166
-181.056	-113.051	-0.304	0.059
-180.042	49.923	-0.147	0.137
-179.027	433.695	0.067	-0.144
-178.012	-89.256	-0.085	0.025
-176.998	112.571	0.136	0.162
-175.983	-91.782	0.164	-0.046
-174.969	190.415	0.221	0.328
-173.954	224.510	0.091	-0.145
-172.939	-114.442	0.234	-0.044
-171.925	-69.591	-0.457	-0.173
-170.910	46.458	-0.089	-0.082
-169.896	-107.314	-0.194	0.042
-168.881	-200.000	-0.001	0.006
-167.866	-200.000	-0.038	-0.322
-166.852	-21.107	-0.134	0.081
-165.837	39.922	0.110	0.097
-164.823	4.490	0.225	0.163
-163.808	-136.418	0.325	-0.037
-162.793	-38.552	0.151	-0.079
-161.779	-200.000	0.027	0.129
-160.764	-200.000	0.020	-0.096
-159.750	426.891	-0.093	-0.199
-158.735	-60.465	0.172	-0.072
-157.720	-200.000	0.010	0.142
-156.706	66.316	-0.186	-0.186
-155.691	-184.163	-0.157	-0.003
-154.677	-9.391	0.129	-0.085
-153.662	-200.000	-0.012	0.444
-152.647	138.425	-0.132	-0.171
-151.633	-96.086	-0.291	0.076
-150.618	783.297	-0.097	0.261
-149.604	166.134	-0.018	-0.026
-148.589	115.132	-0.115	-0.138
-147.574	-158.136	0.063	-0.004
-146.560	347.417	0.180	-0.350
-145.545	-200.000	0.123	-0.647
-144.531	263.614	-0.175	0.299
-143.516	-7.872	-0.226	-0.150
-142.502	-190.736	0.125	-0.001
-141.487	88.460	0.179	-0.196
-140.472	-200.000	-0.030	0.265
-139.458	-200.000	0.008	-0.083
-138.443	394.552	-0.038	-0.077
-137.429	132.004	0.136	0.172
-136.414	19.197	0.086	-0.068
-135.399	41.218	-0.028	0.025
-134.385	162.981	0.237	-0.328
-133.370	800.000	0.013	0.035
-132.356	-200.000	0.018	-0.133
-131.341	104.071	-0.112	-0.129
-130.326	-27.530	0.385	-0.221
-129.312	-42.813	0.176	0.088
-128.297	107.113	0.091	0.107
-127.283	137.961	0.058	0.074
-126.268	-200.000	0.016	0.168
-125.253	106.167	-0.063	-0.074
-124.239	-52.545	0.089	0.041
-123.224	182.675	0.086	0.124
-122.210	-125.744	-0.293	-0.044
-121.195	23.505	-0.311	0.252
