DTS Sentinel unit serial number:	SN413079Multiplexer serial number:	ORYXHardware model number:	OX4-SRSoftware version number:	ORYX F/W v4.00 Oryx Data Collector v3.7.2.0data status	okinstallation	princeton_trtdifferential loss correction	single-endedforward channel	channel 1reverse channel	N/Adate	2019/09/18time	13:46:35forward acquisition time	60.00reverse acquisition time	0.00gamma	496.2192k internal	0.2312k external	0.2312temperature offset calibration	0.9982default loss term (dB/km)	0.3790temperature slope calibration	1.0000multiplexer offset coefficient	1.0000multiplexer slope coefficient	1.0000fibre end	0.00T internal ref (°C)	34.50T ext. ref 1 (°C)	0.64T ext. ref 2 (°C)	30.08length (m)	temperature (°C)	Stokes	anti-Stokes-747.200	-158.270	-0.129	0.008
-746.185	787.694	-0.110	0.307
-745.171	-200.000	-0.009	-0.156
-744.156	-200.000	-0.009	0.328
-743.142	22.700	-0.091	0.076
-742.127	66.880	-0.178	-0.184
-741.112	382.016	-0.158	-0.329
-740.098	27.040	0.011	-0.009
-739.083	70.666	-0.122	0.128
-738.069	-200.000	-0.019	0.246
-737.054	333.270	-0.069	-0.135
-736.039	222.344	-0.076	-0.124
-735.025	-36.415	-0.141	0.077
-734.010	-80.009	0.305	-0.104
-732.996	481.240	0.011	0.026
-731.981	-31.313	-0.258	-0.147
-730.966	-178.375	-0.142	-0.003
-729.952	800.000	0.070	-0.229
-728.937	-200.000	-0.014	-0.185
-727.923	-184.718	0.228	0.004
-726.908	-200.000	0.035	-0.312
-725.894	88.863	-0.201	-0.227
-724.879	-143.814	-0.064	0.006
-723.864	90.330	-0.213	-0.242
-722.850	-200.000	-0.047	0.241
-721.835	-92.323	-0.314	0.090
-720.821	800.000	-0.008	0.035
-719.806	-111.821	0.258	0.053
-718.791	-41.633	0.106	0.055
-717.777	-165.236	-0.103	-0.005
-716.762	3.491	0.137	0.101
-715.748	800.000	-0.106	0.403
-714.733	30.155	-0.103	0.089
-713.718	-200.000	0.018	0.233
-712.704	-100.156	0.183	-0.046
-711.689	0.464	-0.170	0.123
-710.675	-50.725	-0.148	0.071
-709.660	-35.843	-0.073	-0.040
-708.645	632.502	-0.059	0.150
-707.631	-200.000	0.003	-0.087
-706.616	-23.207	-0.292	0.178
-705.602	-200.000	-0.024	-0.172
-704.587	-66.701	-0.258	-0.104
-703.572	62.579	-0.047	0.048
-702.558	37.397	0.152	-0.136
-701.543	-152.203	-0.117	0.009
-700.529	-200.000	-0.020	-0.153
-699.514	100.119	0.304	-0.357
-698.499	-200.000	0.010	-0.194
-697.485	-200.000	-0.030	-0.287
-696.470	493.408	0.045	-0.104
-695.456	-46.660	-0.098	-0.048
-694.441	6.511	0.194	0.146
-693.426	-37.963	-0.146	0.079
-692.412	-46.357	0.173	-0.086
-691.397	-200.000	0.045	-0.461
-690.383	2.021	-0.416	0.304
-689.368	3.684	0.137	0.101
-688.354	-153.003	-0.287	-0.020
-687.339	32.814	0.078	0.069
-686.324	-200.000	-0.052	-0.332
-685.310	-82.434	0.212	-0.070
-684.295	86.735	-0.336	-0.375
-683.281	467.618	-0.014	-0.031
-682.266	167.467	0.190	0.274
-681.251	-200.000	0.032	0.190
-680.237	12.603	0.080	0.062
-679.222	243.745	-0.089	0.151
-678.208	-62.852	-0.132	0.055
-677.193	96.707	-0.106	0.123
-676.178	296.913	-0.095	0.176
-675.164	-55.292	-0.200	0.091
-674.149	-28.437	-0.206	-0.120
-673.135	-47.672	-0.230	-0.113
-672.120	-200.000	0.025	-0.163
-671.105	-159.954	-0.271	-0.015
-670.091	-77.823	0.172	-0.060
-669.076	-3.770	-0.309	-0.217
-668.062	70.516	0.085	0.089
-667.047	800.000	0.081	-0.286
-666.032	-111.706	-0.243	0.050
-665.018	60.081	-0.073	0.073
-664.003	-85.429	0.230	0.072
-662.989	77.115	-0.139	0.149
-661.974	-200.000	0.039	0.233
-660.959	-123.557	-0.202	-0.033
-659.945	800.000	0.034	0.100
-658.930	126.379	0.286	0.366
-657.916	-34.574	0.168	-0.093
-656.901	-62.509	-0.089	0.038
-655.886	246.711	-0.037	0.063
-654.872	-8.954	-0.069	0.047
-653.857	370.159	-0.170	-0.348
-652.843	-200.000	-0.480	0.001
-651.828	-53.317	-0.173	-0.080
-650.814	560.901	-0.090	-0.219
-649.799	-172.799	0.515	0.016
-648.784	-48.870	0.240	0.116
-647.770	-89.502	-0.376	0.112
-646.755	297.606	0.139	-0.259
-645.741	32.768	0.083	-0.073
-644.726	-115.997	-0.223	0.042
-643.711	319.830	0.158	-0.303
-642.697	-74.284	-0.183	0.067
-641.682	62.667	0.083	-0.084
-640.668	-23.540	-0.238	-0.144
-639.653	-200.000	-0.007	-0.131
-638.638	353.764	-0.090	-0.180
-637.624	22.513	-0.249	0.206
-636.609	-25.426	-0.094	0.056
-635.595	-40.294	0.245	-0.129
-634.580	-53.612	0.211	0.097
-633.565	282.413	-0.177	-0.321
-632.551	64.686	-0.194	-0.198
-631.536	-121.998	-0.326	0.054
-630.522	-83.327	-0.151	-0.049
-629.507	-136.700	-0.287	0.033
-628.492	-96.418	-0.083	-0.022
-627.478	91.875	-0.164	-0.187
-626.463	-125.989	0.511	0.078
-625.449	45.452	0.012	0.011
-624.434	77.745	0.150	-0.162
-623.419	-67.832	-0.149	0.059
-622.405	30.461	-0.173	-0.149
-621.390	2.019	0.063	-0.046
-620.376	-114.490	-0.388	0.075
-619.361	223.339	0.125	-0.204
-618.346	39.508	0.060	0.054
-617.332	125.666	-0.049	0.062
-616.317	-128.546	-0.221	-0.032
-615.303	-160.933	0.245	-0.013
-614.288	-38.048	0.033	0.018
-613.273	-44.602	-0.033	-0.017
-612.259	-119.851	-0.157	-0.027
-611.244	-200.000	-0.033	0.253
-610.230	-169.138	-0.198	-0.007
-609.215	29.704	-0.273	-0.235
-608.201	326.137	-0.101	-0.195
-607.186	-24.063	0.370	0.223
-606.171	-11.379	-0.135	0.089
-605.157	33.389	0.064	0.056
-604.142	-116.356	0.254	0.047
-603.128	630.364	0.121	0.308
-602.113	-185.415	-0.164	-0.003
-601.098	800.000	0.144	0.495
-600.084	-153.789	0.232	0.016
-599.069	1.528	-0.225	0.163
-598.055	284.713	-0.131	-0.238
-597.040	-200.000	-0.001	-0.206
-596.025	-53.869	0.290	-0.133
-595.011	314.036	0.026	-0.050
-593.996	-99.185	-0.188	0.048
-592.982	-136.740	0.203	0.024
-591.967	800.000	0.012	0.052
-590.952	164.005	-0.261	-0.370
-589.938	180.235	-0.249	-0.369
-588.923	800.000	-0.012	-0.047
-587.909	-200.000	-0.083	-0.417
-586.894	151.880	-0.152	0.210
-585.879	800.000	-0.010	0.032
-584.865	-40.538	-0.237	-0.124
-583.850	800.000	-0.078	-0.301
-582.836	97.738	-0.187	-0.216
-581.821	-89.159	-0.261	-0.078
-580.806	800.000	-0.027	-0.117
-579.792	-77.506	0.163	-0.057
-578.777	83.637	-0.225	0.248
-577.763	-47.444	0.152	-0.075
-576.748	91.751	0.107	0.121
-575.733	26.853	-0.100	0.084
-574.719	462.799	0.052	-0.116
-573.704	800.000	-0.098	0.350
-572.690	302.235	-0.147	0.275
-571.675	800.000	0.055	-0.196
-570.661	800.000	-0.014	-0.048
-569.646	-100.123	-0.163	-0.041
-568.631	77.711	-0.214	-0.230
-567.617	-79.571	0.335	0.114
-566.602	-35.499	-0.143	-0.078
-565.588	138.244	-0.059	-0.078
-564.573	42.012	-0.090	-0.082
-563.558	164.530	-0.203	0.289
-562.544	-200.000	0.034	0.334
-561.529	106.911	0.091	0.108
-560.515	44.686	-0.242	-0.224
-559.500	-17.111	-0.042	0.026
-558.485	-10.303	-0.157	0.105
-557.471	149.379	-0.140	-0.191
-556.456	373.945	0.113	-0.231
-555.442	49.483	0.106	0.101
-554.427	-170.747	-0.260	-0.009
-553.412	800.000	-0.092	-0.280
-552.398	298.103	-0.166	-0.307
-551.383	125.935	0.152	0.193
-550.369	16.359	-0.087	0.069
-549.354	-14.387	-0.106	0.069
-548.339	652.514	0.042	0.108
-547.325	-200.000	0.025	0.166
-546.310	-200.000	-0.056	-0.261
-545.296	372.485	-0.136	0.278
-544.281	-200.000	-0.035	-0.304
-543.266	-200.000	0.018	0.203
-542.252	-200.000	-0.014	-0.283
-541.237	2.051	0.238	0.173
-540.223	-200.000	0.019	0.161
-539.208	-85.003	-0.168	0.053
-538.193	226.722	-0.163	-0.267
-537.179	-2.595	-0.204	0.144
-536.164	-17.990	-0.389	0.246
-535.150	-85.504	0.367	0.115
-534.135	198.151	0.210	0.324
-533.121	-32.424	0.149	0.083
-532.106	-24.198	0.267	-0.160
-531.091	31.791	0.126	-0.109
-530.077	429.921	-0.075	-0.164
-529.062	-26.626	0.181	-0.106
-528.048	-110.735	0.160	-0.033
-527.033	-109.105	-0.362	-0.078
-526.018	5.265	-0.303	0.225
-525.004	34.228	-0.150	0.132
-523.989	-31.891	0.090	0.051
-522.975	183.676	0.154	0.230
-521.960	-79.817	0.364	0.123
-520.945	-104.211	0.315	0.074
-519.931	432.398	-0.113	0.247
-518.916	-200.000	-0.018	-0.094
-517.902	133.388	0.235	-0.306
-516.887	-200.000	-0.038	0.195
-515.872	30.306	-0.062	0.053
-514.858	-200.000	0.024	0.321
-513.843	-72.090	0.347	-0.129
-512.829	-200.000	0.011	0.104
-511.814	492.360	0.093	0.214
-510.799	402.943	-0.183	-0.388
-509.785	405.589	-0.104	-0.221
-508.770	-71.717	0.144	-0.054
-507.756	50.874	-0.179	0.170
-506.741	-116.280	0.184	-0.034
-505.726	243.134	0.150	-0.252
-504.712	323.674	-0.136	0.261
-503.697	235.451	-0.101	0.168
-502.683	764.248	0.022	-0.059
-501.668	-124.308	-0.155	0.024
-500.653	242.454	0.231	-0.388
-499.639	58.862	-0.083	-0.082
-498.624	-82.738	-0.114	-0.037
-497.610	-200.000	-0.017	0.142
-496.595	-41.495	0.091	-0.047
-495.581	287.073	0.099	0.181
-494.566	33.719	-0.223	0.195
-493.551	-141.201	-0.350	0.036
-492.537	188.288	-0.072	-0.108
-491.522	-200.000	0.014	-0.239
-490.508	195.055	0.101	-0.154
-489.493	-200.000	0.005	0.025
-488.478	518.169	-0.019	0.046
-487.464	308.845	-0.138	0.258
-486.449	-200.000	-0.007	-0.143
-485.435	-69.907	0.151	-0.058
-484.420	-200.000	-0.039	0.263
-483.405	3.580	0.151	0.111
-482.391	-67.750	-0.182	-0.071
-481.376	-47.459	-0.501	0.245
-480.362	-200.000	-0.002	0.326
-479.347	-76.324	0.180	-0.064
-478.332	-12.146	-0.047	-0.031
-477.318	800.000	-0.038	0.122
-476.303	126.016	-0.062	-0.078
-475.289	533.215	0.070	-0.166
-474.274	87.170	-0.228	-0.253
-473.259	100.992	-0.088	0.103
-472.245	-200.000	-0.045	-0.453
-471.230	-124.295	-0.097	-0.015
-470.216	230.674	-0.141	0.231
-469.201	146.167	0.143	-0.192
-468.186	233.421	-0.089	-0.146
-467.172	-102.345	0.074	0.018
-466.157	42.126	0.331	0.302
-465.143	100.747	-0.028	-0.033
-464.128	-126.623	-0.281	-0.042
-463.113	18.540	-0.064	0.051
-462.099	567.355	-0.010	-0.025
-461.084	8.853	0.183	0.138
-460.070	-126.268	-0.291	0.044
-459.055	602.523	-0.033	-0.082
-458.040	38.684	0.067	0.060
-457.026	32.213	0.176	-0.152
-456.011	-68.838	-0.275	-0.106
-454.997	-124.987	0.276	-0.043
-453.982	335.693	0.179	-0.349
-452.968	-69.232	0.144	-0.055
-451.953	350.516	0.084	-0.167
-450.938	84.809	0.288	-0.316
-449.924	-115.982	-0.144	0.027
-448.909	21.255	0.150	0.122
-447.895	-200.000	0.064	0.441
-446.880	-34.475	-0.270	0.148
-445.865	-100.247	-0.440	0.110
-444.851	131.369	-0.005	0.006
-443.836	108.486	0.053	0.064
-442.822	250.720	-0.052	0.088
-441.807	156.234	-0.297	-0.411
-440.792	-52.260	-0.306	-0.142
-439.778	256.357	0.157	0.270
-438.763	9.275	-0.069	0.053
-437.749	171.809	0.098	0.141
-436.734	-200.000	0.013	0.323
-435.719	800.000	-0.011	-0.036
-434.705	298.425	-0.090	0.165
-433.690	351.373	0.186	-0.370
-432.676	347.867	0.029	-0.058
-431.661	800.000	-0.104	0.331
-430.646	-38.467	0.110	0.059
-429.632	-200.000	-0.008	0.181
-428.617	-78.479	-0.257	0.088
-427.603	50.371	0.289	0.273
-426.588	43.185	0.139	0.127
-425.573	37.901	0.184	0.164
-424.559	-132.547	0.239	0.031
-423.544	-154.307	-0.101	0.007
-422.530	10.313	0.270	0.206
-421.515	188.296	0.050	0.075
-420.500	800.000	0.075	-0.246
-419.486	-200.000	-0.017	0.413
-418.471	-139.658	0.179	0.019
-417.457	-42.182	0.036	0.018
-416.442	-200.000	-0.071	0.408
-415.428	-200.000	0.021	0.190
-414.413	800.000	0.080	-0.315
-413.398	-158.414	0.117	0.007
-412.384	17.122	0.122	0.097
-411.369	-41.337	0.165	0.085
-410.355	-200.000	-0.006	-0.071
-409.340	184.312	-0.057	-0.085
-408.325	800.000	-0.092	0.322
-407.311	-192.375	-0.127	-0.001
-406.296	154.703	-0.057	-0.078
-405.282	-200.000	-0.037	0.218
-404.267	-200.000	-0.008	0.213
-403.252	382.845	0.157	0.323
-402.238	-70.724	0.240	0.091
-401.223	800.000	0.049	-0.147
-400.209	13.433	0.148	-0.115
-399.194	800.000	0.108	0.330
-398.179	-54.885	-0.164	0.074
-397.165	50.269	-0.044	-0.041
-396.150	-200.000	0.014	0.156
-395.136	-200.000	-0.010	-0.075
-394.121	-104.240	-0.184	0.043
-393.106	800.000	-0.016	0.054
-392.092	256.774	0.068	0.117
-391.077	374.447	0.054	0.109
-390.063	-113.639	0.491	-0.096
-389.048	800.000	0.071	-0.291
-388.033	-200.000	0.033	-0.220
-387.019	-200.000	0.005	-0.151
-386.004	-66.686	0.207	0.082
-384.990	-67.831	-0.510	-0.199
-383.975	-76.565	-0.189	0.066
-382.960	606.542	0.106	-0.265
-381.946	800.000	0.046	-0.178
-380.931	221.943	-0.127	0.204
-379.917	-67.618	-0.076	-0.030
-378.902	-23.024	-0.155	-0.094
-377.888	-178.698	-0.251	-0.006
-376.873	-172.804	-0.262	-0.008
-375.858	-143.823	0.224	-0.021
-374.844	-50.381	0.394	0.186
-373.829	56.720	0.148	-0.144
-372.815	-96.910	0.345	-0.090
-371.800	-200.000	-0.055	-0.341
-370.785	280.316	0.064	-0.115
-369.771	-155.947	0.154	-0.010
-368.756	12.792	-0.108	-0.084
-367.742	-146.822	-0.220	-0.019
-366.727	75.219	0.147	-0.155
-365.712	351.028	0.082	-0.162
-364.698	800.000	-0.088	0.375
-363.683	-98.681	0.249	-0.064
-362.669	77.463	-0.241	0.257
-361.654	-41.783	0.160	0.082
-360.639	259.268	0.190	-0.328
-359.625	-130.934	-0.318	0.043
-358.610	602.777	-0.040	-0.100
-357.596	342.329	0.094	-0.183
-356.581	-200.000	0.001	-0.009
-355.566	-200.000	0.057	-0.269
-354.552	-135.493	0.193	0.023
-353.537	-145.435	0.157	0.014
-352.523	800.000	0.030	-0.122
-351.508	-200.000	-0.050	0.249
-350.493	-54.061	-0.226	-0.103
-349.479	-53.827	-0.032	-0.015
-348.464	800.000	0.055	-0.219
-347.450	-3.886	-0.219	0.152
-346.435	172.626	-0.081	0.116
-345.420	227.950	-0.025	0.041
-344.406	800.000	0.120	-0.472
-343.391	-94.954	-0.338	0.091
-342.377	-131.734	-0.536	0.070
-341.362	-200.000	0.064	0.412
-340.348	101.128	0.229	-0.267
-339.333	-75.319	0.274	-0.098
-338.318	725.964	0.118	-0.314
-337.304	-103.527	0.395	-0.093
-336.289	30.888	0.044	-0.038
-335.275	-7.367	0.189	-0.128
-334.260	-200.000	0.331	-0.000
-333.245	612.078	-0.076	0.189
-332.231	142.314	-0.054	-0.072
-331.216	-200.000	0.018	-0.112
-330.202	133.367	-0.147	0.190
-329.187	-97.176	0.175	-0.046
-328.172	309.048	-0.083	0.155
-327.158	-143.592	0.089	-0.008
-326.143	58.079	-0.216	0.211
-325.129	-47.649	0.160	-0.077
-324.114	800.000	0.038	0.122
-323.099	-58.234	0.103	-0.045
-322.085	26.132	0.049	-0.041
-321.070	-200.000	0.009	-0.151
-320.056	800.000	-0.007	0.023
-319.041	-36.867	0.150	0.081
-318.026	-180.779	0.065	0.001
-317.012	800.000	0.055	0.220
-315.997	38.946	0.242	-0.215
-314.983	-200.000	-0.249	0.001
-313.968	-54.648	-0.180	0.081
-312.953	529.933	-0.050	0.117
-311.939	249.215	-0.226	-0.382
-310.924	279.933	0.258	0.459
-309.910	-133.453	0.306	-0.038
-308.895	414.490	0.158	-0.335
-307.880	800.000	0.003	-0.013
-306.866	-162.192	0.358	0.018
-305.851	629.970	0.027	0.069
-304.837	75.122	-0.287	-0.301
-303.822	-55.247	-0.059	0.026
-302.807	84.195	-0.069	0.075
-301.793	-200.000	-0.042	0.314
-300.778	800.000	-0.081	0.306
-299.764	739.019	-0.061	0.162
-298.749	145.994	-0.033	0.044
-297.735	800.000	0.065	0.206
-296.720	230.388	0.077	0.126
-295.705	-143.821	0.407	0.038
-294.691	125.921	0.017	0.022
-293.676	27.041	0.065	0.054
-292.662	-0.647	0.234	-0.165
-291.647	-135.937	-0.145	0.017
-290.632	-109.873	0.055	0.011
-289.618	-200.000	0.038	-0.354
-288.603	83.385	-0.339	-0.368
-287.589	-159.506	0.155	0.009
-286.574	101.934	-0.130	0.151
-285.559	-128.475	0.243	-0.034
-284.545	78.334	-0.190	-0.202
-283.530	368.930	0.116	0.233
-282.516	-200.000	-0.032	0.142
-281.501	40.732	-0.403	0.362
-280.486	98.572	0.051	0.059
-279.472	-138.349	0.192	-0.021
-278.457	55.439	0.127	0.123
-277.443	-107.966	0.320	0.069
-276.428	-7.140	-0.250	0.169
-275.413	-53.813	-0.368	0.167
-274.399	-200.000	-0.005	0.185
-273.384	-200.000	0.016	0.167
-272.370	-54.525	0.357	0.161
-271.355	9.817	-0.192	-0.145
-270.340	-200.000	0.028	-0.186
-269.326	76.012	-0.146	0.154
-268.311	-200.000	0.063	0.461
-267.297	193.917	0.111	0.167
-266.282	-50.766	-0.246	0.115
-265.267	-136.123	-0.136	-0.016
-264.253	-139.898	-0.239	0.025
-263.238	-134.611	-0.196	-0.024
-262.224	45.921	0.185	-0.171
-261.209	232.319	-0.074	-0.122
-260.195	663.658	0.087	-0.223
-259.180	477.382	-0.051	-0.115
-258.165	507.216	0.128	0.296
-257.151	-103.150	-0.480	-0.113
-256.136	-121.336	-0.212	0.035
-255.122	-151.638	0.131	-0.010
-254.107	6.188	-0.198	-0.146
-253.092	292.972	-0.064	-0.115
-252.078	176.269	-0.075	-0.109
-251.063	-200.000	-0.020	0.209
-250.049	-59.043	0.253	0.109
-249.034	-200.000	0.025	0.132
-248.019	9.924	-0.189	-0.143
-247.005	-200.000	0.007	-0.091
-245.990	-200.000	-0.002	0.162
-244.976	-107.220	0.085	-0.019
-243.961	135.844	-0.105	0.137
-242.946	2.319	0.197	0.142
-241.932	-119.716	0.277	0.048
-240.917	-112.429	0.267	-0.053
-239.903	-92.002	-0.262	0.074
-238.888	-200.000	0.013	-0.297
-237.873	305.821	-0.173	-0.321
-236.859	-129.474	0.236	0.033
-235.844	-78.988	0.322	0.109
-234.830	-162.030	-0.237	-0.012
-233.815	-69.713	-0.224	-0.085
-232.800	6.529	-0.027	-0.020
-231.786	132.351	-0.115	-0.147
-230.771	-148.752	0.282	-0.023
-229.757	800.000	-0.036	0.107
-228.742	800.000	-0.020	0.078
-227.727	647.206	0.107	0.272
-226.713	287.871	0.176	-0.316
-225.698	-200.000	-0.048	-0.288
-224.684	386.187	0.165	0.339
-223.669	57.208	0.142	0.137
-222.655	-11.926	0.199	0.130
-221.640	252.471	-0.160	-0.271
-220.625	85.276	0.037	-0.041
-219.611	-77.943	-0.211	0.072
-218.596	-116.559	0.260	0.048
-217.582	479.435	0.078	-0.175
-216.567	800.000	-0.044	-0.158
-215.552	-110.623	0.415	0.085
-214.538	355.450	-0.154	-0.305
-213.523	-11.884	-0.126	-0.082
-212.509	800.000	-0.038	-0.108
-211.494	-195.403	0.007	0.000
-210.479	-22.678	-0.210	-0.126
-209.465	-200.000	0.040	-0.256
-208.450	-132.354	0.130	-0.017
-207.436	-73.589	-0.177	-0.064
-206.421	-12.254	-0.113	0.073
-205.406	-6.307	0.163	0.110
-204.392	-103.330	-0.187	-0.044
-203.377	62.418	-0.135	0.134
-202.363	132.828	-0.085	-0.109
-201.348	-67.371	0.221	-0.086
-200.333	-60.203	0.276	0.117
-199.319	436.999	0.112	-0.243
-198.304	800.000	0.075	-0.325
-197.290	800.000	-0.051	-0.168
-196.275	800.000	-0.015	-0.044
-195.260	-47.518	-0.225	0.109
-194.246	-127.023	-0.168	0.024
-193.231	19.978	0.108	0.086
-192.217	-167.589	-0.184	-0.007
-191.202	-88.335	0.260	-0.077
-190.187	474.690	-0.138	0.309
-189.173	800.000	0.115	-0.324
-188.158	800.000	-0.023	0.097
-187.144	216.244	-0.060	0.095
-186.129	199.722	0.063	-0.096
-185.114	-123.600	-0.325	0.051
-184.100	189.661	0.144	0.214
-183.085	-158.079	-0.317	0.018
-182.071	232.208	-0.079	0.128
-181.056	-149.189	-0.182	0.014
-180.042	-59.315	0.299	-0.128
-179.027	-94.775	-0.388	0.104
-178.012	-78.114	0.277	-0.094
-176.998	53.182	0.247	-0.235
-175.983	800.000	-0.025	0.079
-174.969	-52.199	0.202	0.093
-173.954	-9.121	0.239	-0.159
-172.939	126.740	-0.093	-0.116
-171.925	543.277	-0.142	-0.337
-170.910	334.832	0.155	-0.297
-169.896	-0.693	-0.361	-0.254
-168.881	-200.000	-0.031	0.266
-167.866	-9.503	0.117	-0.077
-166.852	-54.722	-0.323	-0.145
-165.837	42.044	-0.101	-0.091
-164.823	-200.000	-0.020	-0.129
-163.808	-110.225	0.095	0.020
-162.793	-200.000	0.014	0.315
-161.779	-42.567	0.292	0.147
-160.764	67.899	0.040	-0.041
-159.750	166.803	0.231	0.325
-158.735	800.000	-0.048	0.160
-157.720	529.105	0.065	0.152
-156.706	-29.684	0.113	-0.064
-155.691	6.057	0.185	0.136
-154.677	113.729	0.160	0.193
-153.662	-51.909	0.416	-0.192
-152.647	52.287	0.263	-0.249
-151.633	268.230	-0.092	0.159
-150.618	6.675	0.118	-0.087
-149.604	-103.268	-0.421	0.098
-148.589	-200.000	0.046	0.394
-147.574	375.120	0.121	0.245
-146.560	-91.747	0.244	0.069
-145.545	800.000	0.057	-0.206
-144.531	183.812	0.075	-0.110
-143.516	-62.589	-0.147	0.060
-142.502	617.947	0.095	-0.235
-141.487	-72.173	0.291	-0.107
-140.472	195.364	-0.121	0.182
-139.458	10.653	-0.152	0.115
-138.443	-136.184	0.150	0.017
-137.429	-200.000	-0.046	0.241
-136.414	123.952	-0.118	0.147
-135.399	-200.000	0.034	-0.224
-134.385	-200.000	0.012	-0.246
-133.370	-132.236	-0.347	-0.045
-132.356	135.741	0.126	0.162
-131.341	800.000	0.042	-0.181
-130.326	-27.757	0.227	-0.131
-129.312	-200.000	0.004	0.104
-128.297	77.572	0.201	-0.212
-127.283	788.201	0.216	0.587
-126.268	-200.000	0.047	0.252
-125.253	-104.614	-0.242	0.055
-124.239	-50.933	-0.115	-0.054
-123.224	90.905	-0.122	0.136
-122.210	-59.608	0.167	0.071
-121.195	-200.000	-0.021	-0.235
