DTS Sentinel unit serial number:	SN413079Multiplexer serial number:	ORYXHardware model number:	OX4-SRSoftware version number:	ORYX F/W v4.00 Oryx Data Collector v3.7.2.0data status	okinstallation	princeton_trtdifferential loss correction	single-endedforward channel	channel 1reverse channel	N/Adate	2019/09/11time	15:04:11forward acquisition time	60.00reverse acquisition time	0.00gamma	496.2192k internal	0.2291k external	0.2291temperature offset calibration	0.9990default loss term (dB/km)	0.3790temperature slope calibration	1.0000multiplexer offset coefficient	1.0000multiplexer slope coefficient	1.0000fibre end	0.00T internal ref (°C)	42.87T ext. ref 1 (°C)	0.94T ext. ref 2 (°C)	37.97length (m)	temperature (°C)	Stokes	anti-Stokes-747.200	-61.359	-0.159	-0.069
-746.185	-200.000	-0.047	0.401
-745.171	-118.522	0.418	-0.076
-744.156	-172.286	-0.371	-0.012
-743.142	-200.000	0.097	-0.517
-742.127	480.269	-0.118	-0.274
-741.112	-200.000	0.046	0.297
-740.098	114.010	0.063	0.078
-739.083	70.139	0.044	0.047
-738.069	484.185	-0.035	-0.081
-737.054	287.917	0.009	-0.016
-736.039	800.000	0.070	-0.266
-735.025	79.864	0.059	0.065
-734.010	-162.441	-0.448	0.023
-732.996	83.667	-0.303	-0.339
-731.981	-108.048	0.092	0.020
-730.966	125.463	-0.142	0.183
-729.952	353.852	-0.199	0.404
-728.937	-75.315	-0.258	0.094
-727.923	-142.567	-0.167	-0.017
-726.908	800.000	0.022	0.090
-725.894	-180.887	-0.395	0.008
-724.879	4.946	-0.185	0.139
-723.864	-77.863	-0.278	-0.098
-722.850	-200.000	-0.013	0.076
-721.835	-158.026	-0.173	0.010
-720.821	-120.344	-0.225	0.039
-719.806	-200.000	0.018	-0.214
-718.791	28.807	-0.151	-0.131
-717.777	-200.000	0.024	-0.477
-716.762	-11.366	-0.043	0.029
-715.748	-200.000	-0.024	-0.338
-714.733	88.419	-0.145	-0.165
-713.718	33.630	0.085	-0.075
-712.704	-14.200	-0.249	-0.164
-711.689	292.615	-0.168	-0.313
-710.675	56.243	-0.045	-0.045
-709.660	117.762	-0.119	0.149
-708.645	-150.646	0.119	-0.009
-707.631	800.000	-0.014	0.051
-706.616	57.712	0.224	0.224
-705.602	-131.365	0.196	-0.027
-704.587	-84.560	-0.428	-0.138
-703.572	-64.446	0.154	-0.064
-702.558	576.038	-0.039	-0.096
-701.543	-132.708	-0.189	-0.025
-700.529	-19.809	-0.176	-0.111
-699.514	-41.755	-0.182	0.095
-698.499	2.506	0.074	-0.055
-697.485	17.061	-0.130	-0.105
-696.470	156.092	-0.103	0.145
-695.456	-1.212	-0.186	-0.135
-694.441	-54.937	0.105	-0.048
-693.426	-27.670	-0.337	0.200
-692.412	-99.199	-0.317	-0.082
-691.397	180.719	-0.236	0.354
-690.383	26.539	0.049	0.042
-689.368	800.000	-0.115	-0.341
-688.354	792.952	-0.088	-0.246
-687.339	-161.203	-0.217	-0.012
-686.324	-117.593	0.287	0.053
-685.310	345.597	-0.147	0.295
-684.295	-200.000	0.014	-0.112
-683.281	-125.887	-0.114	-0.017
-682.266	378.122	0.025	0.051
-681.251	-2.891	0.201	0.143
-680.237	-23.069	0.209	-0.129
-679.222	8.565	0.135	-0.104
-678.208	-0.984	0.169	0.122
-677.193	22.826	0.185	-0.155
-676.178	128.733	-0.050	0.065
-675.164	-200.000	0.022	0.106
-674.149	-156.909	-0.140	0.009
-673.135	-200.000	-0.051	0.375
-672.120	110.799	-0.057	-0.070
-671.105	321.899	0.035	0.068
-670.091	-28.255	-0.209	0.123
-669.076	-60.095	-0.235	-0.102
-668.062	219.512	0.033	0.053
-667.047	74.155	0.140	-0.150
-666.032	-141.493	-0.028	0.003
-665.018	439.559	-0.034	0.076
-664.003	-88.628	0.228	-0.069
-662.989	47.016	-0.202	-0.192
-661.974	-122.051	-0.240	0.040
-660.959	54.822	0.252	-0.248
-659.945	800.000	0.054	-0.199
-658.930	-57.037	0.189	-0.085
-657.916	133.365	-0.109	-0.144
-656.901	195.068	-0.114	-0.177
-655.886	10.878	0.212	0.166
-654.872	-200.000	0.011	0.374
-653.857	107.341	-0.143	0.173
-652.843	-62.226	0.229	-0.097
-651.828	-200.000	0.018	0.096
-650.814	-149.067	-0.206	0.017
-649.799	-42.159	0.178	0.093
-648.784	-200.000	-0.008	0.038
-647.770	800.000	0.077	-0.220
-646.755	-39.862	-0.214	0.114
-645.741	-161.577	-0.110	-0.006
-644.726	43.902	0.125	-0.117
-643.711	-38.639	-0.238	-0.128
-642.697	-200.000	0.008	-0.309
-641.682	-33.031	-0.193	-0.109
-640.668	375.632	0.077	0.161
-639.653	27.333	0.435	0.373
-638.638	800.000	0.115	0.440
-637.624	21.626	0.150	-0.124
-636.609	-105.224	0.148	0.034
-635.595	-161.274	-0.316	-0.017
-634.580	-200.000	-0.067	-0.391
-633.565	63.702	-0.107	0.110
-632.551	-130.935	-0.177	0.024
-631.536	-157.914	-0.449	0.027
-630.522	-151.531	0.092	0.007
-629.507	-11.579	-0.128	-0.086
-628.492	417.360	0.073	-0.159
-627.478	-30.128	0.105	-0.061
-626.463	-0.338	-0.130	-0.094
-625.449	-38.784	-0.152	-0.082
-624.434	-63.484	-0.168	0.070
-623.419	-200.000	0.057	-0.294
-622.405	-8.234	0.238	0.163
-621.390	125.663	-0.153	0.197
-620.376	-41.031	-0.101	-0.053
-619.361	-137.769	-0.066	0.008
-618.346	-200.000	-0.007	-0.223
-617.332	-181.807	-0.166	-0.003
-616.317	-16.893	-0.231	0.149
-615.303	-134.260	-0.084	0.011
-614.288	22.477	-0.092	-0.077
-613.273	-151.195	-0.257	0.020
-612.259	13.533	-0.159	0.125
-611.244	10.581	0.309	0.240
-610.230	-200.000	-0.016	0.215
-609.215	433.085	0.110	0.242
-608.201	-75.891	-0.181	0.065
-607.186	36.662	0.075	0.068
-606.171	34.087	0.032	-0.028
-605.157	-4.929	-0.229	0.160
-604.142	9.014	-0.190	-0.146
-603.128	3.169	-0.115	0.085
-602.113	800.000	0.016	-0.070
-601.098	-122.035	0.110	-0.018
-600.084	192.662	-0.035	0.054
-599.069	5.795	0.047	0.035
-598.055	-200.000	-0.042	-0.243
-597.040	29.518	-0.276	-0.239
-596.025	-54.439	-0.171	-0.079
-595.011	-151.717	0.055	-0.004
-593.996	173.870	0.166	-0.243
-592.982	-200.000	0.060	-0.284
-591.967	44.266	0.172	-0.161
-590.952	-200.000	-0.060	0.423
-589.938	30.705	-0.384	0.335
-588.923	-114.889	0.119	0.023
-587.909	-200.000	0.026	-0.320
-586.894	-63.664	-0.069	0.029
-585.879	10.410	-0.029	-0.022
-584.865	60.942	0.359	-0.362
-583.850	386.816	0.138	-0.291
-582.836	203.191	0.174	-0.274
-581.821	19.926	-0.284	-0.233
-580.806	-75.175	-0.189	-0.069
-579.792	-26.070	0.281	0.168
-578.777	-31.387	-0.219	0.126
-577.763	17.229	0.060	-0.049
-576.748	-107.398	-0.322	-0.072
-575.733	800.000	-0.035	0.110
-574.719	428.652	0.093	0.204
-573.704	-118.507	0.253	-0.046
-572.690	-200.000	-0.019	0.284
-571.675	-48.844	-0.175	0.085
-570.661	242.647	0.073	-0.124
-569.646	-111.040	-0.200	-0.042
-568.631	26.471	-0.024	0.021
-567.617	-125.796	0.231	-0.035
-566.602	-50.173	-0.157	0.076
-565.588	128.465	-0.089	-0.115
-564.573	-121.438	0.203	0.034
-563.558	60.004	-0.230	0.231
-562.544	727.572	0.033	-0.088
-561.529	104.929	0.201	-0.241
-560.515	438.458	0.049	-0.108
-559.500	181.366	-0.094	0.141
-558.485	162.386	0.271	-0.387
-557.471	-181.905	-0.122	-0.002
-556.456	-200.000	-0.004	-0.139
-555.442	84.860	-0.128	0.143
-554.427	-200.000	0.025	0.138
-553.412	-128.523	-0.132	0.019
-552.398	-200.000	-0.014	0.192
-551.383	180.131	0.037	-0.055
-550.369	89.870	0.274	0.312
-549.354	-8.637	-0.082	0.056
-548.339	75.240	-0.178	-0.191
-547.325	-35.088	0.267	-0.148
-546.310	-29.923	0.071	-0.041
-545.296	2.947	-0.230	-0.170
-544.281	245.891	-0.163	0.278
-543.266	34.689	0.055	0.049
-542.252	73.647	-0.069	-0.074
-541.237	-44.784	0.151	0.077
-540.223	-6.861	-0.235	-0.163
-539.208	64.079	-0.069	-0.070
-538.193	284.424	-0.105	0.191
-537.179	409.177	0.123	0.266
-536.164	8.350	0.078	-0.060
-535.150	177.102	-0.090	0.133
-534.135	-200.000	0.022	0.254
-533.121	-200.000	-0.035	0.165
-532.106	-92.039	0.144	-0.041
-531.091	159.066	-0.200	0.282
-530.077	-200.000	0.033	0.171
-529.062	33.629	-0.082	0.072
-528.048	656.787	-0.055	-0.144
-527.033	21.325	-0.179	-0.147
-526.018	-36.870	-0.071	-0.039
-525.004	-94.671	0.158	-0.044
-523.989	800.000	-0.092	-0.354
-522.975	-111.175	-0.382	-0.079
-521.960	-200.000	0.037	-0.212
-520.945	-200.000	-0.000	0.149
-519.931	419.562	-0.069	0.150
-518.916	800.000	0.141	-0.402
-517.902	77.786	-0.231	-0.250
-516.887	129.676	-0.076	-0.099
-515.872	-118.500	0.208	0.037
-514.858	173.431	-0.095	-0.140
-513.843	98.601	-0.035	-0.041
-512.829	-95.636	0.202	0.055
-511.814	370.166	0.070	-0.144
-510.799	93.989	-0.165	-0.190
-509.785	-129.356	0.103	0.015
-508.770	-200.000	-0.026	-0.317
-507.756	-13.513	0.026	0.017
-506.741	800.000	-0.033	0.136
-505.726	51.349	-0.170	-0.164
-504.712	373.374	0.161	0.331
-503.697	-200.000	0.027	0.260
-502.683	446.540	0.087	-0.194
-501.668	-107.346	-0.394	0.088
-500.653	18.460	-0.281	-0.228
-499.639	470.361	0.090	-0.206
-498.624	800.000	-0.034	-0.109
-497.610	-66.879	-0.320	-0.128
-496.595	552.551	0.025	-0.061
-495.581	-38.493	0.308	-0.165
-494.566	413.858	0.124	0.269
-493.551	-25.599	-0.207	0.124
-492.537	800.000	-0.029	-0.097
-491.522	150.127	0.152	-0.209
-490.508	-106.942	0.134	-0.030
-489.493	800.000	-0.042	-0.151
-488.478	-15.413	0.196	-0.127
-487.464	-73.645	0.086	0.032
-486.449	209.604	-0.217	0.345
-485.435	0.163	0.209	0.151
-484.420	-200.000	-0.033	-0.425
-483.405	-73.383	-0.045	0.017
-482.391	-200.000	0.033	0.363
-481.376	587.632	0.141	0.352
-480.362	-21.411	-0.088	-0.055
-479.347	-162.157	-0.257	0.013
-478.332	150.785	0.295	0.407
-477.318	-90.084	-0.090	0.027
-476.303	696.344	-0.153	0.409
-475.289	800.000	0.113	0.377
-474.274	-187.320	0.098	0.001
-473.259	-38.447	-0.167	-0.089
-472.245	-32.994	-0.461	-0.259
-471.230	385.916	0.064	-0.134
-470.216	333.561	0.148	-0.290
-469.201	-200.000	-0.008	-0.109
-468.186	-200.000	0.024	-0.263
-467.172	800.000	-0.095	0.320
-466.157	-89.802	0.177	0.052
-465.143	-91.047	0.074	-0.022
-464.128	-55.893	-0.157	0.071
-463.113	30.616	-0.052	-0.045
-462.099	-6.359	-0.119	-0.082
-461.084	146.253	-0.210	-0.285
-460.070	27.919	0.107	-0.091
-459.055	28.409	-0.135	-0.116
-458.040	12.896	0.086	0.067
-457.026	-61.320	0.088	0.038
-456.011	-23.369	-0.094	0.057
-454.997	800.000	0.102	0.316
-453.982	800.000	0.055	-0.225
-452.968	455.671	0.077	0.173
-451.953	122.421	-0.162	-0.205
-450.938	35.253	-0.035	0.031
-449.924	-57.073	-0.190	-0.085
-448.909	417.911	0.222	0.481
-447.895	-200.000	-0.041	0.194
-446.880	-200.000	0.006	0.030
-445.865	187.154	0.044	0.066
-444.851	-124.176	-0.180	-0.029
-443.836	-53.688	0.317	0.146
-442.822	-170.085	-0.215	0.008
-441.807	537.792	0.045	0.109
-440.792	-70.998	0.250	-0.095
-439.778	-85.959	0.258	0.081
-438.763	-103.918	-0.248	0.059
-437.749	-200.000	-0.026	-0.256
-436.734	341.137	-0.049	-0.098
-435.719	-200.000	0.042	0.238
-434.705	-200.000	0.011	0.418
-433.690	-80.666	0.252	-0.085
-432.676	800.000	-0.049	0.189
-431.661	-200.000	0.010	0.053
-430.646	-59.957	0.165	-0.071
-429.632	142.086	-0.118	-0.158
-428.617	-200.000	-0.032	-0.214
-427.603	152.162	-0.129	-0.178
-426.588	7.972	-0.110	0.083
-425.573	-135.614	0.136	0.016
-424.559	-102.919	-0.108	-0.026
-423.544	-70.189	0.307	0.118
-422.530	-125.791	0.232	-0.035
-421.515	-122.688	-0.266	0.044
-420.500	50.112	0.108	0.103
-419.486	-38.591	-0.233	0.124
-418.471	-200.000	-0.053	0.360
-417.457	-194.056	0.072	0.001
-416.442	-180.702	-0.063	-0.001
-415.428	-130.290	0.072	0.010
-414.413	-148.175	-0.058	-0.005
-413.398	223.495	0.057	-0.093
-412.384	-200.000	-0.043	-0.212
-411.369	-200.000	-0.002	0.183
-410.355	-105.749	-0.161	-0.037
-409.340	-200.000	-0.008	-0.207
-408.325	89.132	0.131	-0.147
-407.311	359.370	-0.061	0.123
-406.296	800.000	-0.061	0.258
-405.282	-200.000	0.007	0.154
-404.267	19.512	-0.289	-0.235
-403.252	3.386	0.090	-0.066
-402.238	-158.929	0.246	0.014
-401.223	-24.355	0.261	-0.157
-400.209	-20.480	0.284	-0.176
-399.194	-175.933	-0.271	0.007
-398.179	8.311	-0.111	-0.084
-397.165	88.661	0.038	-0.043
-396.150	-135.462	0.199	-0.024
-395.136	-56.039	-0.249	-0.112
-394.121	74.851	0.041	-0.044
-393.106	216.647	-0.086	0.138
-392.092	179.873	0.068	0.101
-391.077	711.542	0.107	0.285
-390.063	423.776	0.054	-0.117
-389.048	265.683	0.079	0.140
-388.033	19.081	0.113	0.092
-387.019	-200.000	-0.029	-0.325
-386.004	-63.860	0.129	0.053
-384.990	-123.204	-0.066	0.011
-383.975	105.418	0.084	-0.100
-382.960	-151.122	-0.331	0.025
-381.946	157.098	-0.129	0.180
-380.931	-46.214	0.240	-0.119
-379.917	151.645	0.149	0.204
-378.902	508.765	0.116	0.272
-377.888	182.253	-0.065	-0.097
-376.873	524.846	-0.057	0.135
-375.858	-145.372	-0.258	0.023
-374.844	-200.000	0.033	-0.352
-373.829	-72.599	0.148	-0.055
-372.815	-200.000	-0.021	-0.252
-371.800	-88.509	-0.123	-0.037
-370.785	85.749	-0.251	0.278
-369.771	-51.296	0.179	0.085
-368.756	-128.366	-0.338	0.049
-367.742	-30.343	0.387	0.222
-366.727	-42.615	-0.353	0.181
-365.712	437.264	-0.118	-0.260
-364.698	112.636	0.131	-0.160
-363.683	-121.358	-0.166	-0.028
-362.669	-132.968	-0.191	0.024
-361.654	235.883	0.172	0.287
-360.639	19.923	-0.266	0.217
-359.625	-80.087	-0.422	-0.143
-358.610	-200.000	0.025	-0.124
-357.596	-110.903	0.407	0.084
-356.581	395.820	-0.125	0.263
-355.566	283.429	-0.112	0.204
-354.552	800.000	-0.041	0.127
-353.537	-200.000	0.049	0.249
-352.523	42.985	0.087	0.080
-351.508	-200.000	0.095	-0.000
-350.493	86.961	0.172	-0.191
-349.479	223.037	0.105	-0.170
-348.464	-14.040	0.057	0.037
-347.450	-145.650	-0.085	-0.008
-346.435	21.172	-0.296	-0.243
-345.420	-200.000	0.048	-0.306
-344.406	675.606	0.151	-0.395
-343.391	42.793	0.163	-0.149
-342.377	-200.000	0.015	-0.070
-341.362	60.804	0.132	-0.132
-340.348	124.630	0.042	0.053
-339.333	177.987	-0.025	0.037
-338.318	46.999	0.192	0.180
-337.304	-14.220	-0.199	0.130
-336.289	-109.004	-0.144	-0.031
-335.275	800.000	0.058	-0.252
-334.260	-143.160	0.234	-0.023
-333.245	-186.081	-0.253	0.004
-332.231	-110.401	0.121	0.025
-331.216	800.000	0.020	-0.087
-330.202	13.779	-0.156	0.123
-329.187	-200.000	-0.011	-0.135
-328.172	325.736	-0.170	-0.327
-327.158	-101.006	-0.132	0.033
-326.143	231.877	-0.066	-0.110
-325.129	-200.000	-0.012	-0.099
-324.114	315.719	-0.211	0.401
-323.099	213.617	0.169	-0.269
-322.085	-14.791	-0.182	-0.118
-321.070	-200.000	0.016	-0.308
-320.056	585.478	0.032	-0.080
-319.041	21.665	-0.116	-0.095
-318.026	-4.373	-0.448	-0.312
-317.012	342.802	0.111	0.219
-315.997	43.662	-0.092	0.085
-314.983	-200.000	-0.017	0.273
-313.968	-200.000	0.035	0.173
-312.953	78.140	-0.242	0.260
-311.939	-83.549	0.185	0.060
-310.924	53.493	-0.046	0.044
-309.910	88.859	0.218	0.244
-308.895	-59.653	-0.336	-0.145
-307.880	300.131	-0.155	-0.288
-306.866	-66.449	0.371	-0.148
-305.851	-71.285	0.379	-0.143
-304.837	800.000	-0.031	-0.116
-303.822	-200.000	0.002	-0.065
-302.807	800.000	-0.073	-0.215
-301.793	81.838	-0.142	-0.155
-300.778	-18.690	-0.089	0.056
-299.764	-74.220	0.326	0.119
-298.749	377.206	-0.194	-0.398
-297.735	-52.747	0.172	-0.080
-296.720	71.326	0.238	0.249
-295.705	800.000	-0.090	-0.307
-294.691	175.669	-0.101	0.147
-293.676	86.389	0.200	0.222
-292.662	29.262	-0.032	-0.027
-291.647	-6.016	0.050	0.035
-290.632	-110.730	-0.167	-0.035
-289.618	176.028	-0.173	-0.253
-288.603	-133.691	0.170	-0.021
-287.589	-115.885	-0.358	-0.067
-286.574	-184.823	-0.156	-0.002
-285.559	-52.204	0.122	0.057
-284.545	-26.376	-0.234	0.138
-283.530	-194.696	-0.246	0.002
-282.516	-168.836	-0.087	0.003
-281.501	-113.664	0.477	0.094
-280.486	-80.597	0.168	-0.056
-279.472	-180.848	0.203	-0.004
-278.457	-85.639	0.340	0.106
-277.443	361.519	-0.162	-0.326
-276.428	-200.000	-0.033	-0.245
-275.413	29.810	0.341	0.292
-274.399	-87.964	0.239	0.072
-273.384	-39.047	0.284	0.150
-272.370	122.690	0.207	-0.260
-271.355	-200.000	0.012	0.357
-270.340	-139.499	0.062	0.007
-269.326	-200.000	0.001	0.075
-268.311	-89.366	0.088	0.026
-267.297	129.727	-0.048	-0.062
-266.282	32.887	0.138	-0.120
-265.267	-200.000	-0.031	0.222
-264.253	-107.116	0.062	0.014
-263.238	-105.137	-0.307	-0.070
-262.224	800.000	-0.121	-0.491
-261.209	-134.511	0.186	0.023
-260.195	800.000	-0.100	0.408
-259.180	-200.000	-0.046	0.442
-258.165	433.159	-0.038	-0.083
-257.151	27.300	0.485	0.409
-256.136	-45.240	-0.236	-0.118
-255.122	-164.684	0.150	-0.007
-254.107	-13.769	0.232	-0.151
-253.092	23.001	0.066	0.054
-252.078	22.567	0.229	-0.188
-251.063	137.044	0.172	-0.226
-250.049	-69.369	-0.097	-0.038
-249.034	119.508	0.230	0.286
-248.019	-113.036	0.152	-0.030
-247.005	407.206	-0.028	-0.060
-245.990	-200.000	-0.003	-0.270
-244.976	231.666	0.190	0.313
-243.961	800.000	-0.013	-0.051
-242.946	800.000	0.054	0.231
-241.932	422.426	-0.126	0.272
-240.917	140.876	0.141	0.188
-239.903	800.000	-0.063	-0.274
-238.888	-200.000	-0.019	-0.172
-237.873	-56.403	-0.178	-0.079
-236.859	103.296	-0.159	-0.187
-235.844	-200.000	-0.029	-0.310
-234.830	9.038	-0.122	0.092
-233.815	222.150	0.079	0.128
-232.800	-95.479	0.004	0.001
-231.786	-56.025	0.203	0.091
-230.771	-14.630	0.182	0.117
-229.757	-53.541	-0.198	-0.091
-228.742	57.688	-0.188	0.185
-227.727	197.514	-0.054	-0.082
-226.713	-29.414	0.272	-0.156
-225.698	123.383	0.165	0.208
-224.684	-122.226	0.173	-0.028
-223.669	-129.833	0.205	-0.028
-222.655	-58.082	-0.167	0.073
-221.640	233.399	-0.070	-0.115
-220.625	467.095	-0.139	0.313
-219.611	-200.000	0.039	-0.233
-218.596	166.693	0.110	0.156
-217.582	-84.980	-0.381	-0.120
-216.567	-200.000	-0.024	-0.471
-215.552	-200.000	0.110	0.000
-214.538	-129.020	0.134	-0.019
-213.523	67.823	0.209	0.215
-212.509	-55.058	0.244	0.110
-211.494	800.000	0.018	0.059
-210.479	800.000	0.043	0.163
-209.465	-170.644	0.197	0.007
-208.450	800.000	0.034	-0.147
-207.436	107.642	-0.194	0.232
-206.421	-58.914	-0.014	0.006
-205.406	612.855	-0.029	-0.072
-204.392	-135.256	0.259	-0.031
-203.377	93.731	0.255	0.290
-202.363	252.361	-0.098	0.167
-201.348	48.530	-0.154	-0.145
-200.333	2.567	-0.142	0.103
-199.319	-200.000	0.193	0.000
-198.304	-104.579	-0.153	-0.035
-197.290	168.121	-0.024	-0.034
-196.275	190.476	-0.179	-0.270
-195.260	-23.913	-0.064	0.038
-194.246	245.902	0.252	0.425
-193.231	-31.073	-0.300	0.170
-192.217	-0.446	-0.188	-0.134
-191.202	502.511	-0.080	0.185
-190.187	-13.341	0.094	0.061
-189.173	127.914	0.089	0.113
-188.158	165.171	0.263	-0.372
-187.144	-69.804	-0.294	0.112
-186.129	216.061	-0.050	-0.080
-185.114	595.833	-0.133	0.330
-184.100	-109.533	0.285	-0.060
-183.085	-106.568	0.445	0.099
-182.071	-73.467	0.062	0.023
-181.056	-66.211	0.101	-0.040
-180.042	70.666	-0.098	-0.102
-179.027	-200.000	-0.030	0.132
-178.012	-27.331	0.219	0.128
-176.998	227.120	0.083	0.135
-175.983	29.103	0.136	-0.115
-174.969	-173.642	0.227	-0.007
-173.954	-40.399	-0.078	0.040
-172.939	-141.949	0.315	0.031
-171.925	-115.269	-0.103	-0.020
-170.910	-200.000	0.004	0.048
-169.896	461.985	-0.047	0.106
-168.881	-137.970	-0.168	0.019
-167.866	193.248	-0.143	0.216
-166.852	32.069	0.215	0.185
-165.837	-200.000	-0.010	-0.098
-164.823	-200.000	0.015	0.096
-163.808	-79.140	-0.031	-0.010
-162.793	-87.448	0.049	0.015
-161.779	67.168	0.222	-0.226
-160.764	800.000	-0.109	-0.323
-159.750	-24.847	0.152	0.090
-158.735	-23.245	0.397	0.239
-157.720	89.811	0.211	0.235
-156.706	205.181	0.141	0.219
-155.691	-181.609	-0.129	-0.003
-154.677	68.016	-0.149	-0.152
-153.662	19.954	-0.288	-0.233
-152.647	-200.000	0.004	-0.075
-151.633	273.019	0.120	-0.211
-150.618	113.595	-0.067	-0.081
-149.604	161.842	-0.089	0.124
-148.589	-70.734	0.182	0.069
-147.574	478.809	-0.087	0.198
-146.560	-136.100	-0.201	-0.024
-145.545	-200.000	0.005	0.113
-144.531	-200.000	-0.042	0.230
-143.516	389.920	-0.152	-0.315
-142.502	452.289	0.116	0.256
-141.487	108.385	0.132	0.158
-140.472	800.000	-0.060	0.179
-139.458	800.000	-0.023	-0.067
-138.443	179.083	0.079	-0.116
-137.429	-23.619	-0.153	0.092
-136.414	2.715	-0.221	-0.160
-135.399	115.879	0.190	0.233
-134.385	-200.000	0.040	-0.229
-133.370	-200.000	-0.005	-0.342
-132.356	-200.000	0.043	-0.199
-131.341	-80.649	-0.075	-0.025
-130.326	47.687	0.100	0.093
-129.312	-53.457	0.049	0.023
-128.297	658.342	-0.174	0.448
-127.283	221.990	-0.088	0.141
-126.268	462.497	-0.049	-0.109
-125.253	-100.485	-0.212	-0.052
-124.239	800.000	0.064	-0.226
-123.224	-3.717	0.184	0.127
-122.210	31.842	0.107	-0.092
-121.195	-166.210	-0.056	-0.002
