DTS Sentinel unit serial number:	SN413079Multiplexer serial number:	ORYXHardware model number:	OX4-SRSoftware version number:	ORYX F/W v4.00 Oryx Data Collector v3.7.2.0data status	okinstallation	princeton_trtdifferential loss correction	single-endedforward channel	channel 1reverse channel	N/Adate	2019/09/15time	21:22:35forward acquisition time	60.00reverse acquisition time	0.00gamma	496.2192k internal	0.2329k external	0.2329temperature offset calibration	0.9958default loss term (dB/km)	0.3790temperature slope calibration	1.0000multiplexer offset coefficient	1.0000multiplexer slope coefficient	1.0000fibre end	0.00T internal ref (°C)	31.00T ext. ref 1 (°C)	8.23T ext. ref 2 (°C)	24.01length (m)	temperature (°C)	Stokes	anti-Stokes-747.200	-200.000	0.127	0.000
-746.185	-192.474	0.059	0.001
-745.171	68.272	0.036	0.038
-744.156	263.379	0.146	0.256
-743.142	31.872	0.118	-0.103
-742.127	111.514	0.255	0.310
-741.112	-200.000	-0.034	0.277
-740.098	5.063	0.186	0.138
-739.083	-200.000	-0.020	0.213
-738.069	-200.000	-0.021	0.324
-737.054	-200.000	0.004	0.243
-736.039	-63.768	-0.394	-0.163
-735.025	-71.165	0.191	0.072
-734.010	55.645	-0.174	0.169
-732.996	36.053	0.284	-0.252
-731.981	-134.243	-0.370	-0.046
-730.966	138.864	-0.069	-0.091
-729.952	-200.000	0.014	-0.091
-728.937	-200.000	-0.008	0.127
-727.923	-97.024	0.200	-0.053
-726.908	119.960	-0.092	0.114
-725.894	155.140	-0.183	0.253
-724.879	44.222	0.152	0.140
-723.864	-21.361	0.147	0.091
-722.850	53.149	0.129	-0.125
-721.835	800.000	0.051	-0.144
-720.821	26.318	-0.316	-0.265
-719.806	285.696	0.078	-0.141
-718.791	407.237	0.083	0.176
-717.777	-200.000	-0.053	-0.235
-716.762	-86.258	-0.132	0.041
-715.748	114.503	0.142	-0.174
-714.733	55.724	-0.220	-0.215
-713.718	-67.522	0.101	-0.040
-712.704	79.176	-0.029	0.032
-711.689	674.797	0.097	-0.253
-710.675	276.595	0.014	0.026
-709.660	647.144	-0.064	0.166
-708.645	25.769	-0.255	0.214
-707.631	-73.086	0.146	0.054
-706.616	-200.000	-0.029	0.168
-705.602	314.706	0.069	-0.131
-704.587	-113.417	-0.275	-0.054
-703.572	800.000	-0.069	-0.221
-702.558	-43.295	-0.260	-0.133
-701.543	104.438	-0.056	-0.066
-700.529	-104.812	-0.379	-0.088
-699.514	-200.000	0.009	-0.137
-698.499	-200.000	0.038	-0.247
-697.485	800.000	-0.056	-0.184
-696.470	-200.000	-0.027	-0.174
-695.456	132.245	-0.184	-0.238
-694.441	49.938	-0.270	-0.256
-693.426	20.438	-0.107	-0.087
-692.412	-109.435	-0.289	0.061
-691.397	-69.381	0.100	-0.039
-690.383	-39.031	0.188	-0.099
-689.368	-114.669	-0.003	0.001
-688.354	70.160	0.155	-0.161
-687.339	-200.000	0.005	0.272
-686.324	-144.287	-0.073	0.007
-685.310	800.000	-0.032	-0.092
-684.295	154.573	-0.198	-0.273
-683.281	-12.961	0.043	0.028
-682.266	-110.124	0.143	0.030
-681.251	117.368	0.076	-0.094
-680.237	-93.268	-0.487	0.136
-679.222	60.719	0.163	-0.163
-678.208	175.284	0.063	0.092
-677.193	99.830	0.260	-0.302
-676.178	90.468	-0.086	-0.097
-675.164	-90.586	-0.185	-0.054
-674.149	107.336	0.136	0.162
-673.135	-170.293	-0.326	0.012
-672.120	-56.966	0.275	0.122
-671.105	-148.180	0.594	-0.049
-670.091	-162.025	0.155	-0.008
-669.076	92.427	-0.128	0.145
-668.062	-200.000	0.046	0.396
-667.047	-200.000	-0.008	-0.258
-666.032	80.085	0.102	0.110
-665.018	-53.843	0.267	-0.122
-664.003	-69.717	-0.260	0.100
-662.989	-200.000	0.006	-0.027
-661.974	-200.000	0.010	0.245
-660.959	-126.886	-0.170	0.025
-659.945	24.044	0.249	0.206
-658.930	-34.278	0.239	0.132
-657.916	357.500	0.128	0.257
-656.901	-115.082	-0.235	-0.045
-655.886	-130.254	0.366	-0.050
-654.872	-200.000	0.010	-0.456
-653.857	11.067	-0.283	-0.217
-652.843	-15.430	-0.279	-0.179
-651.828	-122.968	-0.254	-0.041
-650.814	-80.546	-0.078	0.026
-649.799	-82.695	0.186	0.061
-648.784	-93.182	-0.330	-0.092
-647.770	800.000	-0.071	-0.216
-646.755	-129.488	-0.207	-0.029
-645.741	-200.000	0.035	-0.165
-644.726	50.523	-0.250	0.237
-643.711	800.000	0.074	-0.242
-642.697	-30.708	0.164	-0.093
-641.682	-6.498	-0.101	0.069
-640.668	-200.000	-0.048	0.246
-639.653	237.759	-0.021	-0.035
-638.638	24.565	0.222	0.184
-637.624	-56.945	-0.032	-0.014
-636.609	-11.897	0.064	-0.042
-635.595	-200.000	-0.000	-0.176
-634.580	-2.900	0.243	-0.170
-633.565	85.467	0.256	-0.282
-632.551	-90.822	-0.281	0.081
-631.536	-185.260	-0.307	0.005
-630.522	225.059	-0.095	-0.155
-629.507	13.077	-0.230	0.178
-628.492	-33.843	0.107	-0.059
-627.478	-200.000	-0.010	0.080
-626.463	-78.375	-0.194	-0.067
-625.449	-200.000	-0.005	-0.234
-624.434	-101.284	0.214	0.053
-623.419	697.144	0.058	0.154
-622.405	13.254	0.123	0.096
-621.390	-156.318	0.166	0.010
-620.376	-54.354	-0.193	0.088
-619.361	-82.139	-0.125	-0.041
-618.346	-200.000	-0.031	-0.175
-617.332	226.767	-0.161	-0.261
-616.317	291.574	-0.220	-0.401
-615.303	-77.140	0.131	0.046
-614.288	-114.588	-0.398	-0.076
-613.273	-200.000	0.030	0.145
-612.259	59.689	-0.248	0.246
-611.244	576.513	0.155	-0.379
-610.230	-86.627	-0.155	-0.048
-609.215	-200.000	0.004	-0.139
-608.201	-200.000	-0.009	-0.109
-607.186	195.331	0.066	-0.100
-606.171	-200.000	-0.011	-0.260
-605.157	-86.046	0.116	0.036
-604.142	-186.225	0.044	-0.001
-603.128	-133.117	0.426	0.054
-602.113	800.000	0.090	0.283
-601.098	549.239	0.057	-0.136
-600.084	7.874	-0.133	-0.100
-599.069	-200.000	-0.026	-0.229
-598.055	-85.838	0.102	0.032
-597.040	-174.720	-0.208	-0.006
-596.025	-200.000	-0.045	-0.295
-595.011	800.000	-0.034	-0.123
-593.996	-24.983	0.181	-0.108
-592.982	-112.804	0.236	-0.047
-591.967	753.513	-0.052	0.140
-590.952	800.000	-0.032	0.101
-589.938	-200.000	-0.002	0.074
-588.923	686.572	0.040	0.105
-587.909	800.000	0.051	-0.202
-586.894	205.709	0.020	0.031
-585.879	108.303	0.056	0.067
-584.865	22.935	0.246	-0.202
-583.850	-200.000	0.012	-0.122
-582.836	-3.508	-0.106	0.074
-581.821	800.000	0.030	0.112
-580.806	151.859	0.083	0.113
-579.792	115.653	0.125	0.153
-578.777	322.721	-0.152	0.290
-577.763	-59.265	-0.211	-0.091
-576.748	-200.000	0.001	-0.153
-575.733	800.000	0.010	0.031
-574.719	109.062	-0.088	0.105
-573.704	-51.075	0.216	-0.101
-572.690	-134.795	0.157	0.019
-571.675	-127.340	0.440	-0.064
-570.661	26.955	-0.132	-0.111
-569.646	42.775	0.207	-0.189
-568.631	210.155	-0.177	0.277
-567.617	-108.556	0.388	-0.083
-566.602	-200.000	-0.017	-0.101
-565.588	-79.233	-0.334	0.113
-564.573	-200.000	-0.016	-0.112
-563.558	-200.000	0.021	-0.344
-562.544	32.993	-0.221	0.191
-561.529	-153.699	0.200	0.014
-560.515	-200.000	0.027	-0.155
-559.500	-123.023	-0.133	-0.021
-558.485	-200.000	-0.020	0.167
-557.471	-63.951	-0.080	-0.033
-556.456	-200.000	0.052	0.239
-555.442	207.588	0.265	-0.414
-554.427	800.000	0.036	0.142
-553.412	-108.497	-0.206	0.044
-552.398	800.000	-0.011	-0.046
-551.383	-48.541	-0.308	0.148
-550.369	-101.094	-0.191	0.047
-549.354	-200.000	-0.021	0.093
-548.339	-118.945	-0.327	-0.057
-547.325	-147.451	-0.086	0.007
-546.310	-19.496	-0.209	0.129
-545.296	-200.000	-0.054	-0.392
-544.281	68.260	-0.071	0.073
-543.266	261.614	0.043	-0.075
-542.252	104.478	-0.112	-0.131
-541.237	800.000	-0.023	0.073
-540.223	-168.195	-0.160	-0.006
-539.208	-139.766	0.079	0.008
-538.193	-82.862	-0.117	-0.038
-537.179	-128.857	-0.452	0.063
-536.164	257.373	0.196	-0.337
-535.150	-200.000	0.008	0.127
-534.135	447.944	0.057	-0.125
-533.121	-34.552	0.093	-0.051
-532.106	-200.000	0.045	-0.377
-531.091	-57.475	-0.123	-0.054
-530.077	800.000	0.084	0.282
-529.062	756.383	0.025	-0.068
-528.048	235.674	0.126	-0.208
-527.033	-200.000	-0.034	-0.154
-526.018	-88.540	-0.029	-0.009
-525.004	81.939	-0.156	0.169
-523.989	800.000	-0.036	-0.122
-522.975	-59.542	-0.209	-0.090
-521.960	397.438	0.171	0.358
-520.945	-55.086	-0.132	-0.059
-519.931	800.000	-0.058	-0.170
-518.916	-85.371	0.085	-0.027
-517.902	523.432	-0.142	-0.334
-516.887	-73.431	0.182	-0.066
-515.872	-177.433	0.328	0.008
-514.858	-35.018	-0.235	0.128
-513.843	121.956	0.175	-0.218
-512.829	-74.626	0.217	0.078
-511.814	1.089	0.070	-0.050
-510.799	2.319	0.207	0.150
-509.785	644.450	-0.100	-0.255
-508.770	-95.566	0.015	0.004
-507.756	-4.307	0.064	-0.044
-506.741	-105.307	0.425	-0.097
-505.726	-200.000	-0.011	0.273
-504.712	800.000	-0.038	0.113
-503.697	800.000	0.094	-0.322
-502.683	-38.889	0.106	-0.056
-501.668	36.238	-0.153	0.135
-500.653	-200.000	0.009	-0.074
-499.639	800.000	0.024	-0.068
-498.624	-200.000	0.031	-0.241
-497.610	111.460	-0.047	-0.056
-496.595	-200.000	0.013	-0.151
-495.581	-200.000	0.010	0.054
-494.566	304.502	-0.086	-0.160
-493.551	-42.100	0.189	-0.097
-492.537	-131.374	-0.159	-0.021
-491.522	688.613	-0.043	-0.112
-490.508	232.796	-0.182	0.299
-489.493	225.636	-0.244	0.394
-488.478	-190.583	-0.336	-0.004
-487.464	636.035	-0.157	0.398
-486.449	800.000	0.129	0.369
-485.435	800.000	-0.089	-0.255
-484.420	-56.117	0.291	-0.129
-483.405	800.000	0.044	-0.123
-482.391	85.770	0.182	0.199
-481.376	-167.815	0.317	-0.012
-480.362	30.941	0.250	0.213
-479.347	407.568	0.082	-0.172
-478.332	800.000	-0.072	-0.267
-477.318	-200.000	0.042	0.343
-476.303	328.738	-0.085	-0.163
-475.289	6.880	-0.152	-0.113
-474.274	162.881	-0.078	0.109
-473.259	800.000	0.058	0.197
-472.245	529.558	0.050	0.118
-471.230	-85.994	0.231	-0.071
-470.216	2.467	-0.128	-0.092
-469.201	27.495	-0.193	0.162
-468.186	-200.000	0.008	-0.509
-467.172	96.049	-0.102	-0.116
-466.157	-161.915	0.338	0.017
-465.143	-200.000	-0.023	0.142
-464.128	-74.181	0.169	-0.061
-463.113	-200.000	-0.020	0.296
-462.099	296.453	-0.113	-0.206
-461.084	-60.124	-0.191	0.081
-460.070	646.355	0.125	0.317
-459.055	-106.181	0.339	0.076
-458.040	800.000	-0.022	0.075
-457.026	143.694	0.262	0.348
-456.011	2.171	0.260	-0.187
-454.997	102.226	-0.050	0.058
-453.982	-200.000	-0.032	0.321
-452.968	-200.000	-0.017	-0.129
-451.953	-66.916	-0.137	0.054
-450.938	-200.000	-0.020	0.102
-449.924	-27.925	-0.132	-0.076
-448.909	360.790	-0.100	-0.200
-447.895	800.000	0.043	0.150
-446.880	343.300	-0.221	0.431
-445.865	-21.372	0.104	0.063
-444.851	-127.096	0.189	-0.028
-443.836	236.227	0.144	-0.237
-442.822	800.000	0.036	0.114
-441.807	-158.129	-0.087	-0.005
-440.792	-200.000	0.016	-0.232
-439.778	-200.000	0.043	0.429
-438.763	397.149	0.042	0.087
-437.749	-200.000	-0.095	0.000
-436.734	-122.270	0.281	0.046
-435.719	133.145	-0.118	0.152
-434.705	-200.000	0.001	0.135
-433.690	-200.000	-0.064	-0.393
-432.676	-200.000	0.020	-0.188
-431.661	-200.000	-0.005	-0.030
-430.646	800.000	-0.084	-0.238
-429.632	800.000	0.062	0.270
-428.617	-200.000	-0.042	0.344
-427.603	132.790	0.178	0.229
-426.588	-200.000	0.008	0.089
-425.573	73.974	-0.125	-0.131
-424.559	800.000	-0.048	-0.198
-423.544	238.635	0.122	-0.202
-422.530	20.068	0.091	0.073
-421.515	428.393	0.059	0.127
-420.500	149.679	0.099	0.133
-419.486	137.071	-0.199	-0.259
-418.471	-47.513	-0.069	0.033
-417.457	497.664	0.108	-0.247
-416.442	541.275	-0.121	0.286
-415.428	191.608	0.227	0.341
-414.413	4.852	-0.098	-0.072
-413.398	800.000	0.097	-0.350
-412.384	-100.626	0.080	0.020
-411.369	800.000	0.080	-0.294
-410.355	305.139	0.192	-0.355
-409.340	211.049	0.130	0.204
-408.325	319.571	0.133	0.252
-407.311	10.801	0.192	0.146
-406.296	-80.941	0.309	-0.102
-405.282	-120.293	-0.253	-0.043
-404.267	-15.402	0.246	-0.156
-403.252	-150.216	0.165	-0.013
-402.238	278.928	0.116	-0.205
-401.223	-82.827	0.344	-0.111
-400.209	-46.514	-0.204	-0.100
-399.194	-200.000	0.014	-0.202
-398.179	-200.000	-0.040	0.230
-397.165	800.000	-0.028	0.111
-396.150	182.760	-0.046	0.067
-395.136	-11.196	0.382	0.250
-394.121	573.343	-0.095	0.231
-393.106	1.107	-0.012	0.009
-392.092	-200.000	-0.007	-0.077
-391.077	67.748	-0.118	0.120
-390.063	204.167	0.028	-0.043
-389.048	142.725	-0.095	0.125
-388.033	169.010	-0.128	0.181
-387.019	346.483	-0.060	-0.117
-386.004	728.566	-0.069	-0.184
-384.990	-41.659	0.230	0.117
-383.975	-29.619	-0.061	-0.034
-382.960	-45.898	-0.493	0.242
-381.946	313.722	-0.035	0.066
-380.931	-53.103	0.146	-0.067
-379.917	-200.000	0.030	0.411
-378.902	751.370	-0.143	0.382
-377.888	209.046	0.174	0.270
-376.873	-200.000	-0.008	-0.056
-375.858	-200.000	-0.011	0.058
-374.844	219.543	-0.135	0.215
-373.829	-110.591	-0.253	0.052
-372.815	-22.718	0.082	-0.049
-371.800	299.431	-0.026	0.048
-370.785	42.155	-0.073	0.066
-369.771	-150.088	-0.127	-0.010
-368.756	-22.196	-0.062	0.037
-367.742	105.950	0.210	0.247
-366.727	-200.000	-0.019	-0.097
-365.712	394.257	-0.224	-0.463
-364.698	-200.000	-0.065	-0.334
-363.683	-129.503	0.099	-0.014
-362.669	-200.000	-0.007	0.375
-361.654	56.513	0.287	0.277
-360.639	-200.000	-0.004	-0.569
-359.625	-100.255	0.202	-0.050
-358.610	800.000	-0.035	-0.121
-357.596	-200.000	-0.008	-0.148
-356.581	-103.211	-0.161	-0.038
-355.566	60.515	0.121	0.119
-354.552	-24.928	0.158	0.093
-353.537	145.509	0.074	0.098
-352.523	-115.603	0.309	-0.058
-351.508	800.000	-0.076	-0.305
-350.493	23.367	0.106	-0.086
-349.479	800.000	-0.038	-0.120
-348.464	716.847	-0.061	0.161
-347.450	-5.972	0.189	-0.128
-346.435	-71.407	-0.098	-0.036
-345.420	-76.544	0.053	0.019
-344.406	-157.928	-0.198	-0.012
-343.391	-91.905	-0.256	0.072
-342.377	800.000	-0.093	-0.271
-341.362	-93.959	0.132	0.036
-340.348	800.000	0.123	-0.380
-339.333	662.085	0.188	-0.479
-338.318	-95.609	-0.317	-0.084
-337.304	-200.000	0.016	-0.155
-336.289	-72.899	-0.112	0.041
-335.275	-50.628	-0.240	0.112
-334.260	131.891	-0.126	0.161
-333.245	-200.000	-0.039	-0.179
-332.231	-107.705	-0.165	0.036
-331.216	-81.367	-0.144	0.047
-330.202	128.823	0.160	0.202
-329.187	257.091	-0.031	0.052
-328.172	21.386	-0.144	-0.116
-327.158	-39.809	-0.121	-0.062
-326.143	-44.070	0.069	-0.034
-325.129	800.000	0.044	-0.123
-324.114	-200.000	-0.009	0.159
-323.099	182.566	-0.099	-0.145
-322.085	-181.444	0.051	0.001
-321.070	417.419	-0.067	-0.142
-320.056	72.339	-0.118	-0.122
-319.041	46.161	-0.115	0.105
-318.026	46.385	0.202	-0.185
-317.012	-200.000	0.007	-0.160
-315.997	-17.095	0.219	-0.137
-314.983	-181.812	-0.234	-0.004
-313.968	-200.000	-0.028	0.197
-312.953	-117.990	0.095	0.017
-311.939	100.881	-0.207	0.238
-310.924	18.606	-0.103	0.082
-309.910	353.138	0.093	-0.184
-308.895	-143.436	-0.028	0.003
-307.880	257.170	0.048	-0.082
-306.866	-200.000	0.196	-0.001
-305.851	46.387	-0.018	-0.017
-304.837	-200.000	0.010	0.087
-303.822	800.000	0.095	-0.311
-302.807	-88.557	-0.310	-0.092
-301.793	-58.094	-0.039	-0.017
-300.778	102.313	-0.152	0.175
-299.764	702.612	-0.071	0.184
-298.749	41.455	0.030	0.027
-297.735	-118.116	0.190	-0.034
-296.720	136.952	0.094	-0.121
-295.705	-74.454	0.266	-0.095
-294.691	284.115	-0.140	-0.250
-293.676	-165.660	-0.326	-0.014
-292.662	-57.945	0.342	0.148
-291.647	800.000	0.089	0.382
-290.632	151.398	0.165	0.222
-289.618	-200.000	0.058	0.284
-288.603	-182.598	0.294	-0.005
-287.589	-142.084	-0.350	-0.034
-286.574	227.723	0.131	-0.211
-285.559	800.000	-0.100	0.359
-284.545	425.630	-0.160	0.342
-283.530	800.000	0.061	0.170
-282.516	-161.755	0.198	0.010
-281.501	-156.208	-0.072	-0.004
-280.486	19.206	0.062	0.049
-279.472	302.648	-0.027	0.050
-278.457	512.644	-0.022	-0.050
-277.443	115.193	-0.096	-0.116
-276.428	-44.188	-0.244	0.121
-275.413	-18.428	0.148	0.091
-274.399	-27.590	-0.113	0.065
-273.384	-7.958	0.058	-0.038
-272.370	106.588	-0.204	0.240
-271.355	212.730	-0.054	0.085
-270.340	646.291	-0.037	0.092
-269.326	-78.848	0.217	-0.073
-268.311	473.964	0.060	0.133
-267.297	-116.505	0.349	0.064
-266.282	674.732	0.177	0.453
-265.267	-134.902	0.382	-0.046
-264.253	-200.000	-0.014	-0.086
-263.238	371.055	0.201	-0.403
-262.224	-48.989	-0.168	-0.079
-261.209	217.938	-0.128	0.201
-260.195	-200.000	-0.029	-0.211
-259.180	796.538	-0.128	-0.348
-258.165	226.966	-0.191	0.307
-257.151	32.247	0.130	0.111
-256.136	-88.824	-0.265	-0.078
-255.122	-15.350	-0.139	0.088
-254.107	420.057	-0.142	-0.300
-253.092	-116.354	-0.148	0.027
-252.078	-62.346	-0.146	-0.060
-251.063	726.158	-0.040	0.107
-250.049	132.571	0.145	0.185
-249.034	-54.646	0.116	0.052
-248.019	29.266	0.188	-0.157
-247.005	-99.497	0.216	-0.054
-245.990	-142.001	-0.125	-0.012
-244.976	-200.000	0.007	-0.242
-243.961	-200.000	-0.009	0.073
-242.946	-115.096	-0.090	-0.017
-241.932	-200.000	-0.022	0.174
-240.917	-17.891	-0.255	-0.158
-239.903	552.514	0.030	0.072
-238.888	-200.000	-0.011	-0.135
-237.873	-200.000	-0.027	0.449
-236.859	402.566	-0.086	0.178
-235.844	-200.000	-0.014	0.327
-234.830	-34.060	0.353	0.192
-233.815	-140.055	-0.602	-0.063
-232.800	96.136	-0.219	-0.247
-231.786	-106.896	-0.093	-0.020
-230.771	-21.869	0.166	0.100
-229.757	146.686	0.044	0.058
-228.742	-59.260	-0.249	-0.106
-227.727	-56.563	-0.035	0.015
-226.713	66.664	-0.066	-0.066
-225.698	-179.841	0.162	0.003
-224.684	-200.000	0.009	0.141
-223.669	147.022	-0.074	0.098
-222.655	-135.750	-0.096	-0.011
-221.640	-68.987	-0.313	-0.119
-220.625	-54.729	-0.055	-0.024
-219.611	-101.735	-0.179	0.043
-218.596	-70.408	-0.207	0.078
-217.582	800.000	-0.017	0.049
-216.567	322.036	0.067	-0.126
-215.552	46.733	0.262	-0.240
-214.538	-200.000	-0.064	0.325
-213.523	-66.881	-0.207	0.081
-212.509	-60.677	0.162	-0.068
-211.494	-0.367	0.113	0.079
-210.479	-200.000	0.011	0.291
-209.465	187.397	-0.044	0.065
-208.450	800.000	-0.067	0.227
-207.436	-75.009	0.209	0.074
-206.421	100.823	-0.194	0.222
-205.406	-200.000	-0.045	0.264
-204.392	800.000	0.177	0.511
-203.377	-200.000	0.016	0.208
-202.363	342.630	0.059	0.114
-201.348	-200.000	-0.000	-0.097
-200.333	-108.874	-0.243	-0.051
-199.319	424.440	0.121	-0.257
-198.304	-12.881	0.243	0.156
-197.290	-37.844	-0.102	0.053
-196.275	-200.000	-0.234	0.000
-195.260	365.707	0.202	-0.402
-194.246	10.165	0.287	-0.215
-193.231	273.627	0.140	-0.245
-192.217	-39.426	-0.290	-0.150
-191.202	108.449	0.090	-0.106
-190.187	800.000	0.088	-0.366
-189.173	142.723	-0.047	0.062
-188.158	62.049	-0.075	0.073
-187.144	-192.869	0.202	0.002
-186.129	-35.371	0.201	-0.107
-185.114	-117.396	0.227	-0.040
-184.100	800.000	0.011	-0.037
-183.085	-139.929	0.126	0.013
-182.071	800.000	-0.047	0.177
-181.056	-30.452	-0.055	-0.031
-180.042	800.000	-0.067	-0.219
-179.027	-6.514	-0.145	0.098
-178.012	18.759	-0.165	-0.130
-176.998	45.033	-0.210	-0.191
-175.983	-32.652	0.069	0.038
-174.969	41.512	-0.222	-0.198
-173.954	-127.581	0.209	0.030
-172.939	142.195	-0.140	0.183
-171.925	141.490	0.178	0.232
-170.910	-133.347	0.087	-0.011
-169.896	200.813	-0.200	0.303
-168.881	-161.527	-0.310	-0.016
-167.866	-116.248	-0.123	-0.022
-166.852	31.872	0.316	0.268
-165.837	358.022	0.138	0.271
-164.823	-159.115	0.299	-0.017
-163.808	575.805	-0.123	0.296
-162.793	-200.000	0.002	-0.343
-161.779	-69.359	-0.104	0.039
-160.764	70.810	-0.239	0.244
-159.750	-67.087	0.158	0.061
-158.735	-80.534	0.380	0.125
-157.720	5.055	0.152	-0.110
-156.706	452.765	0.084	-0.182
-155.691	-200.000	-0.007	0.121
-154.677	-72.530	-0.143	0.052
-153.662	329.149	-0.054	0.102
-152.647	236.902	0.159	-0.260
-151.633	-26.550	-0.162	-0.093
-150.618	3.397	0.179	0.128
-149.604	474.659	-0.039	-0.086
-148.589	-200.000	-0.022	0.249
-147.574	-200.000	0.057	0.293
-146.560	624.452	0.061	-0.152
-145.545	100.581	0.265	-0.303
-144.531	300.872	-0.067	0.122
-143.516	206.103	-0.123	-0.189
-142.502	-37.817	-0.174	-0.091
-141.487	70.867	-0.222	0.226
-140.472	-200.000	-0.014	0.278
-139.458	800.000	0.071	0.239
-138.443	-81.891	-0.283	-0.091
-137.429	-108.656	0.046	0.010
-136.414	800.000	-0.092	-0.294
-135.399	591.918	-0.106	0.256
-134.385	-75.036	0.177	0.062
-133.370	67.861	-0.228	-0.230
-132.356	-200.000	0.018	0.143
-131.341	-200.000	-0.022	-0.219
-130.326	800.000	0.104	-0.368
-129.312	89.253	-0.054	-0.059
-128.297	-52.321	0.240	0.109
-127.283	-15.288	-0.295	0.185
-126.268	-200.000	-0.045	0.262
-125.253	-102.099	0.168	0.040
-124.239	5.860	-0.177	0.129
-123.224	103.596	0.153	0.177
