DTS Sentinel unit serial number:	SN413079Multiplexer serial number:	ORYXHardware model number:	OX4-SRSoftware version number:	ORYX F/W v4.00 Oryx Data Collector v3.7.2.0data status	okinstallation	princeton_trtdifferential loss correction	single-endedforward channel	channel 1reverse channel	N/Adate	2019/09/15time	17:34:35forward acquisition time	60.00reverse acquisition time	0.00gamma	496.2192k internal	0.2291k external	0.2291temperature offset calibration	0.9925default loss term (dB/km)	0.3790temperature slope calibration	1.0000multiplexer offset coefficient	1.0000multiplexer slope coefficient	1.0000fibre end	0.00T internal ref (°C)	44.87T ext. ref 1 (°C)	6.20T ext. ref 2 (°C)	40.33length (m)	temperature (°C)	Stokes	anti-Stokes-747.200	-70.498	0.171	-0.066
-746.185	-120.958	0.309	-0.053
-745.171	-20.039	0.055	-0.035
-744.156	361.419	0.076	-0.157
-743.142	800.000	0.020	0.090
-742.127	127.109	-0.168	0.218
-741.112	582.953	-0.162	0.407
-740.098	-101.006	-0.082	-0.020
-739.083	259.935	-0.058	-0.103
-738.069	-66.286	-0.134	0.055
-737.054	19.864	-0.103	-0.085
-736.039	800.000	0.092	-0.330
-735.025	707.435	0.036	-0.098
-734.010	-200.000	0.042	-0.266
-732.996	45.706	0.174	0.165
-731.981	800.000	-0.009	-0.033
-730.966	7.903	0.064	0.049
-729.952	-200.000	0.004	-0.262
-728.937	-89.620	0.165	-0.049
-727.923	-102.537	0.039	0.010
-726.908	-157.572	-0.132	-0.008
-725.894	43.579	-0.133	-0.124
-724.879	800.000	-0.045	-0.189
-723.864	-15.881	-0.324	0.211
-722.850	486.849	0.063	0.146
-721.835	-12.514	0.367	-0.245
-720.821	96.565	-0.252	-0.295
-719.806	-200.000	0.002	0.034
-718.791	534.982	-0.093	-0.224
-717.777	16.450	-0.280	-0.226
-716.762	-106.240	0.362	0.083
-715.748	706.137	0.113	0.306
-714.733	-200.000	0.006	0.226
-713.718	329.832	-0.105	0.207
-712.704	29.774	0.149	0.130
-711.689	-95.012	0.194	0.054
-710.675	29.435	0.252	0.219
-709.660	304.855	-0.084	-0.159
-708.645	-94.349	0.154	-0.043
-707.631	-42.918	-0.311	-0.161
-706.616	-108.013	0.273	0.061
-705.602	-161.346	-0.103	0.005
-704.587	-120.644	-0.255	0.044
-703.572	-35.303	0.097	0.054
-702.558	175.497	-0.060	0.088
-701.543	-156.616	0.047	-0.003
-700.529	-112.331	-0.170	0.035
-699.514	22.596	0.090	-0.075
-698.499	-200.000	0.054	-0.524
-697.485	-48.264	0.423	-0.209
-696.470	800.000	-0.011	0.033
-695.456	205.832	0.058	-0.091
-694.441	72.958	-0.125	0.134
-693.426	-83.163	-0.181	-0.060
-692.412	-62.664	-0.310	-0.132
-691.397	443.141	-0.041	-0.092
-690.383	800.000	-0.083	-0.280
-689.368	-129.321	0.275	-0.039
-688.354	-94.513	0.244	-0.068
-687.339	-19.243	-0.325	0.206
-686.324	203.316	0.136	0.215
-685.310	-200.000	-0.004	0.130
-684.295	530.777	-0.029	-0.070
-683.281	-200.000	0.003	-0.208
-682.266	-94.713	0.205	-0.057
-681.251	-101.661	-0.098	0.024
-680.237	-115.311	-0.057	-0.011
-679.222	309.559	-0.136	0.260
-678.208	592.490	0.050	0.127
-677.193	19.706	0.152	0.125
-676.178	-103.079	-0.220	0.053
-675.164	524.692	-0.095	-0.228
-674.149	563.147	-0.103	-0.254
-673.135	800.000	0.092	-0.282
-672.120	-74.531	0.256	0.094
-671.105	-200.000	-0.015	-0.175
-670.091	-123.214	-0.154	0.025
-669.076	-107.443	-0.156	-0.035
-668.062	-200.000	-0.040	0.222
-667.047	-200.000	-0.015	0.369
-666.032	-101.739	-0.064	-0.016
-665.018	800.000	-0.034	-0.103
-664.003	161.237	-0.122	-0.175
-662.989	77.947	0.155	0.169
-661.974	10.775	-0.153	0.119
-660.959	140.600	-0.093	0.125
-659.945	-200.000	-0.020	-0.111
-658.930	-200.000	-0.018	-0.247
-657.916	-200.000	-0.046	-0.228
-656.901	-191.938	0.237	0.002
-655.886	-200.000	-0.003	-0.048
-654.872	-200.000	-0.010	-0.126
-653.857	800.000	-0.082	-0.275
-652.843	475.205	-0.093	-0.214
-651.828	8.636	-0.181	-0.139
-650.814	-200.000	-0.001	0.139
-649.799	800.000	0.076	0.243
-648.784	62.141	0.211	-0.215
-647.770	98.616	-0.229	-0.269
-646.755	28.195	0.153	-0.132
-645.741	-110.313	-0.096	-0.020
-644.726	-76.897	-0.196	0.070
-643.711	273.731	0.092	0.165
-642.697	8.353	0.120	0.092
-641.682	-72.313	-0.246	-0.093
-640.668	703.691	-0.103	-0.277
-639.653	-200.000	0.001	0.143
-638.638	-31.582	0.361	-0.207
-637.624	-200.000	0.080	-0.374
-636.609	727.719	0.051	-0.140
-635.595	159.108	0.039	-0.056
-634.580	-22.990	-0.218	-0.134
-633.565	-143.004	-0.360	-0.036
-632.551	84.528	-0.034	0.038
-631.536	392.855	-0.076	-0.162
-630.522	340.458	0.083	0.164
-629.507	131.877	-0.154	0.203
-628.492	-116.930	-0.366	0.068
-627.478	-3.170	0.024	-0.017
-626.463	746.637	-0.037	-0.101
-625.449	73.606	-0.170	0.182
-624.434	121.752	0.216	-0.275
-623.419	-200.000	-0.019	0.394
-622.405	726.599	0.060	0.162
-621.390	-93.052	0.163	0.046
-620.376	-46.697	0.026	0.013
-619.361	-200.000	0.006	0.043
-618.346	197.440	-0.057	-0.088
-617.332	0.355	-0.287	0.209
-616.317	-40.675	0.198	-0.105
-615.303	166.357	0.029	0.042
-614.288	-7.615	-0.213	0.147
-613.273	279.093	-0.058	-0.105
-612.259	-199.896	-0.179	-0.001
-611.244	-200.000	-0.009	0.055
-610.230	-200.000	-0.048	-0.270
-609.215	108.987	-0.205	0.250
-608.201	-103.737	-0.299	-0.071
-607.186	-200.000	-0.070	0.439
-606.171	166.865	0.155	0.224
-605.157	-54.668	0.102	0.047
-604.142	-27.364	0.182	-0.108
-603.128	-200.000	0.039	-0.276
-602.113	-200.000	-0.017	-0.108
-601.098	-67.483	-0.197	0.079
-600.084	-55.630	0.040	-0.018
-599.069	705.211	-0.122	0.328
-598.055	-25.354	0.167	-0.101
-597.040	-90.709	0.101	0.030
-596.025	-131.398	0.205	-0.028
-595.011	-25.944	0.155	-0.093
-593.996	-139.131	0.280	0.031
-592.982	800.000	0.078	-0.340
-591.967	800.000	0.090	0.276
-590.952	-112.876	-0.173	-0.035
-589.938	-67.529	-0.316	-0.126
-588.923	104.851	0.065	-0.079
-587.909	-10.562	0.037	-0.025
-586.894	-29.108	0.164	0.096
-585.879	623.690	0.123	0.315
-584.865	543.913	0.090	0.218
-583.850	238.478	0.035	-0.059
-582.836	78.556	0.122	-0.132
-581.821	-40.812	-0.113	0.059
-580.806	119.032	-0.132	-0.167
-579.792	282.784	-0.075	-0.138
-578.777	419.039	0.118	0.257
-577.763	-48.514	-0.090	-0.044
-576.748	134.404	-0.053	0.070
-575.733	-200.000	0.025	0.179
-574.719	186.288	-0.261	-0.395
-573.704	-104.516	-0.127	-0.030
-572.690	106.789	-0.237	0.287
-571.675	166.983	0.087	0.125
-570.661	-12.818	0.130	-0.086
-569.646	-0.066	0.153	0.111
-568.631	800.000	-0.138	-0.395
-567.617	164.332	0.057	0.082
-566.602	352.272	0.187	0.376
-565.588	69.834	0.204	-0.213
-564.573	318.934	-0.187	-0.361
-563.558	250.893	-0.071	-0.123
-562.544	-200.000	-0.058	-0.311
-561.529	165.833	0.114	-0.165
-560.515	12.878	-0.142	0.112
-559.500	-143.276	-0.294	-0.029
-558.485	1.286	-0.006	-0.004
-557.471	66.635	0.043	0.044
-556.456	-200.000	0.003	-0.104
-555.442	-103.558	0.306	-0.073
-554.427	-189.400	0.219	-0.003
-553.412	-200.000	0.067	0.321
-552.398	389.134	-0.080	-0.168
-551.383	-153.691	-0.228	0.016
-550.369	-200.000	0.004	-0.078
-549.354	-35.500	0.183	0.101
-548.339	169.633	-0.207	-0.300
-547.325	174.960	-0.103	-0.151
-546.310	151.136	0.058	0.080
-545.296	-200.000	-0.007	-0.412
-544.281	127.486	0.100	0.129
-543.266	185.515	-0.088	0.133
-542.252	740.531	0.157	-0.428
-541.237	75.984	-0.067	-0.072
-540.223	-16.631	-0.302	-0.194
-539.208	-0.786	0.145	0.104
-538.193	238.215	-0.131	-0.221
-537.179	-147.110	-0.383	0.033
-536.164	21.985	0.433	0.359
-535.150	-173.110	0.503	0.016
-534.135	1.617	-0.065	-0.048
-533.121	70.701	0.146	-0.153
-532.106	-200.000	0.080	-0.510
-531.091	-31.609	0.176	0.100
-530.077	-200.000	-0.002	-0.032
-529.062	-69.287	0.367	-0.143
-528.048	4.893	-0.051	0.038
-527.033	-155.377	0.127	-0.008
-526.018	-81.338	-0.073	0.024
-525.004	-200.000	-0.024	0.137
-523.989	-200.000	0.018	0.084
-522.975	17.051	0.162	-0.130
-521.960	-94.700	-0.220	-0.061
-520.945	800.000	-0.106	0.302
-519.931	0.173	0.222	0.161
-518.916	95.801	0.098	0.113
-517.902	24.649	-0.050	0.042
-516.887	744.343	-0.070	-0.192
-515.872	-42.630	-0.090	0.046
-514.858	-122.887	0.058	-0.009
-513.843	-200.000	0.010	-0.296
-512.829	-137.030	-0.271	0.032
-511.814	-66.003	0.221	0.090
-510.799	-200.000	0.042	0.320
-509.785	-197.255	-0.197	-0.001
-508.770	800.000	0.044	-0.189
-507.756	227.426	-0.074	0.122
-506.741	-138.009	-0.093	-0.010
-505.726	-200.000	0.027	0.207
-504.712	-94.314	0.186	-0.052
-503.697	187.739	-0.121	0.183
-502.683	37.069	-0.211	0.189
-501.668	714.340	-0.033	-0.088
-500.653	800.000	-0.107	-0.301
-499.639	-131.831	0.114	0.015
-498.624	-93.245	-0.256	0.072
-497.610	-189.088	0.274	0.003
-496.595	-62.600	0.312	-0.131
-495.581	26.790	-0.117	0.099
-494.566	14.405	0.112	0.089
-493.551	-200.000	0.036	0.264
-492.537	111.024	0.022	-0.027
-491.522	94.223	-0.019	-0.021
-490.508	41.034	0.220	-0.202
-489.493	-47.764	0.123	-0.060
-488.478	-98.787	0.270	0.070
-487.464	-161.165	-0.189	0.010
-486.449	256.241	-0.049	-0.085
-485.435	-200.000	0.023	0.119
-484.420	-151.175	0.158	-0.012
-483.405	4.890	0.099	0.074
-482.391	76.254	0.157	-0.169
-481.376	-7.178	-0.160	0.110
-480.362	-35.638	-0.307	0.169
-479.347	800.000	-0.015	-0.048
-478.332	-28.849	-0.140	-0.081
-477.318	163.444	0.057	0.082
-476.303	21.115	0.216	0.178
-475.289	-122.852	-0.157	0.026
-474.274	-147.115	0.303	-0.026
-473.259	72.814	0.112	0.118
-472.245	115.967	-0.332	-0.412
-471.230	-47.134	0.156	0.077
-470.216	-200.000	0.049	-0.251
-469.201	209.182	0.156	0.247
-468.186	-20.979	-0.265	-0.164
-467.172	145.169	-0.013	-0.017
-466.157	63.462	0.021	0.022
-465.143	-42.392	-0.389	0.201
-464.128	-84.241	-0.153	0.049
-463.113	153.418	-0.064	-0.089
-462.099	800.000	0.002	0.005
-461.084	-96.830	0.105	0.028
-460.070	232.384	-0.115	0.191
-459.055	113.456	0.322	-0.396
-458.040	-36.885	-0.166	0.090
-457.026	-28.482	-0.168	-0.098
-456.011	800.000	0.117	-0.344
-454.997	800.000	0.094	0.345
-453.982	-200.000	0.002	0.038
-452.968	63.080	0.097	0.098
-451.953	7.605	0.066	0.050
-450.938	-165.604	-0.349	0.015
-449.924	-15.016	-0.281	-0.182
-448.909	800.000	0.007	-0.021
-447.895	-152.659	-0.269	0.019
-446.880	-92.610	0.287	0.081
-445.865	800.000	-0.116	0.389
-444.851	-152.610	0.167	-0.012
-443.836	-200.000	-0.029	0.234
-442.822	20.486	0.170	-0.139
-441.807	-200.000	0.040	-0.183
-440.792	-32.974	0.186	-0.105
-439.778	-200.000	-0.026	0.298
-438.763	-130.357	0.295	-0.041
-437.749	66.617	-0.131	-0.134
-436.734	-200.000	0.006	0.203
-435.719	32.404	0.162	0.141
-434.705	160.446	0.168	0.238
-433.690	-164.457	-0.044	-0.002
-432.676	-149.641	0.048	0.004
-431.661	205.167	-0.018	0.027
-430.646	468.220	-0.074	0.169
-429.632	-150.922	0.263	-0.020
-428.617	-96.415	0.046	0.012
-427.603	-200.000	-0.041	0.381
-426.588	-200.000	0.024	0.415
-425.573	52.478	-0.039	0.038
-424.559	-125.528	0.421	-0.065
-423.544	162.100	-0.171	0.242
-422.530	-200.000	-0.014	-0.074
-421.515	49.626	-0.196	-0.187
-420.500	-57.761	0.239	0.106
-419.486	192.599	-0.059	-0.091
-418.471	800.000	-0.010	-0.033
-417.457	-78.826	-0.150	-0.052
-416.442	800.000	0.040	-0.159
-415.428	111.706	-0.120	-0.146
-414.413	272.029	-0.088	-0.156
-413.398	12.234	0.151	0.117
-412.384	-200.000	0.027	0.149
-411.369	-33.950	-0.225	0.125
-410.355	-111.463	-0.097	0.020
-409.340	36.335	0.103	-0.091
-408.325	28.808	-0.266	0.228
-407.311	-60.439	-0.426	0.183
-406.296	-200.000	0.028	-0.270
-405.282	-119.175	0.096	-0.017
-404.267	-200.000	0.061	-0.285
-403.252	35.590	0.068	0.060
-402.238	800.000	-0.030	-0.087
-401.223	35.467	-0.057	-0.050
-400.209	514.701	0.048	-0.114
-399.194	-11.874	0.178	0.118
-398.179	258.156	-0.014	-0.024
-397.165	-86.276	-0.171	0.053
-396.150	-97.468	-0.200	0.052
-395.136	-200.000	-0.017	-0.078
-394.121	7.559	0.115	-0.087
-393.106	-66.975	0.152	-0.061
-392.092	-157.022	-0.202	0.012
-391.077	-108.767	-0.193	0.042
-390.063	-140.025	0.337	-0.036
-389.048	243.366	0.088	-0.148
-388.033	-158.385	-0.282	-0.017
-387.019	94.918	0.089	-0.102
-386.004	-48.265	0.088	0.043
-384.990	-200.000	-0.004	-0.036
-383.975	32.022	0.025	0.022
-382.960	-200.000	-0.081	0.393
-381.946	8.007	0.123	-0.093
-380.931	53.389	-0.212	-0.205
-379.917	-134.646	-0.066	0.008
-378.902	-123.496	0.118	-0.019
-377.888	33.000	-0.216	0.189
-376.873	46.558	0.167	-0.157
-375.858	776.560	0.061	-0.169
-374.844	64.304	0.314	-0.319
-373.829	-77.847	0.205	0.072
-372.815	17.176	-0.194	-0.155
-371.800	-200.000	0.017	0.206
-370.785	253.182	-0.113	0.194
-369.771	97.764	-0.174	0.202
-368.756	477.914	0.074	-0.170
-367.742	-141.520	-0.242	0.025
-366.727	132.492	0.157	-0.204
-365.712	296.263	0.126	0.234
-364.698	-5.892	0.157	-0.108
-363.683	-108.174	-0.291	-0.064
-362.669	-200.000	0.021	0.252
-361.654	20.189	0.078	-0.064
-360.639	-25.294	-0.096	-0.057
-359.625	-200.000	0.031	-0.269
-358.610	16.850	0.165	-0.132
-357.596	-200.000	0.023	0.121
-356.581	175.995	0.160	-0.235
-355.566	387.098	-0.159	0.332
-354.552	-123.055	0.180	0.029
-353.537	-200.000	-0.007	0.291
-352.523	267.796	0.060	0.106
-351.508	-161.762	0.328	-0.017
-350.493	632.268	0.146	-0.372
-349.479	800.000	0.061	-0.224
-348.464	-36.115	0.344	0.187
-347.450	-200.000	-0.020	0.095
-346.435	267.644	0.061	0.108
-345.420	-200.000	0.032	-0.438
-344.406	337.651	0.074	-0.146
-343.391	-127.464	-0.088	-0.013
-342.377	29.284	-0.141	-0.120
-341.362	-196.734	0.179	-0.001
-340.348	181.677	0.140	0.208
-339.333	-180.786	0.235	0.005
-338.318	40.902	0.100	0.091
-337.304	-122.341	0.163	0.027
-336.289	-112.005	0.079	-0.016
-335.275	76.741	-0.146	0.156
-334.260	-66.888	0.219	-0.087
-333.245	-200.000	0.004	0.036
-332.231	-200.000	-0.026	0.139
-331.216	436.656	0.063	-0.138
-330.202	-33.989	0.096	-0.053
-329.187	-38.042	0.395	-0.211
-328.172	-152.294	-0.283	0.021
-327.158	-73.112	0.328	0.121
-326.143	-68.979	-0.321	0.125
-325.129	-200.000	0.061	-0.313
-324.114	-52.259	-0.248	-0.116
-323.099	-27.307	0.244	-0.143
-322.085	58.841	0.017	0.017
-321.070	189.281	0.099	-0.150
-320.056	-42.821	0.341	-0.175
-319.041	91.073	0.124	-0.140
-318.026	-200.000	-0.007	0.149
-317.012	-24.918	0.068	0.041
-315.997	34.659	0.104	0.091
-314.983	-92.562	-0.195	0.055
-313.968	-72.867	-0.159	-0.059
-312.953	-106.248	-0.347	0.078
-311.939	800.000	0.030	0.105
-310.924	-200.000	-0.059	0.304
-309.910	21.627	-0.119	0.097
-308.895	237.576	-0.120	-0.200
-307.880	-128.047	-0.344	0.050
-306.866	-200.000	-0.039	-0.178
-305.851	13.414	-0.066	0.051
-304.837	-177.129	0.056	-0.001
-303.822	55.431	-0.319	0.311
-302.807	30.392	-0.006	0.005
-301.793	209.537	-0.116	0.184
-300.778	-13.990	-0.429	0.279
-299.764	-98.379	-0.107	-0.028
-298.749	-68.286	0.074	-0.029
-297.735	-133.516	-0.277	0.035
-296.720	340.223	0.105	-0.207
-295.705	-2.926	-0.479	0.337
-294.691	-163.252	-0.167	0.008
-293.676	-200.000	-0.019	0.340
-292.662	-111.991	0.212	-0.043
-291.647	-114.331	-0.245	0.048
-290.632	-106.697	0.266	-0.059
-289.618	-82.872	0.146	-0.047
-288.603	-83.505	-0.186	-0.060
-287.589	-81.847	0.287	0.094
-286.574	-200.000	-0.034	0.162
-285.559	-63.527	0.352	-0.145
-284.545	96.495	-0.217	-0.249
-283.530	-91.732	0.044	0.013
-282.516	1.579	-0.139	-0.101
-281.501	-200.000	0.012	0.302
-280.486	423.443	-0.114	0.246
-279.472	-27.216	-0.187	0.110
-278.457	528.240	0.087	0.206
-277.443	526.003	0.014	0.032
-276.428	21.548	0.084	-0.068
-275.413	-44.810	0.141	0.071
-274.399	800.000	0.033	-0.100
-273.384	655.012	-0.066	0.170
-272.370	138.568	-0.044	0.058
-271.355	-200.000	-0.094	0.556
-270.340	181.652	0.061	0.090
-269.326	-31.529	-0.249	0.141
-268.311	45.828	0.180	-0.168
-267.297	-153.011	0.099	-0.007
-266.282	92.513	-0.161	0.182
-265.267	800.000	0.035	-0.113
-264.253	-35.231	-0.349	-0.191
-263.238	68.123	0.095	0.097
-262.224	-121.618	0.482	-0.080
-261.209	-64.741	0.195	-0.080
-260.195	-87.970	0.096	-0.029
-259.180	3.436	-0.289	0.211
-258.165	98.904	-0.148	-0.172
-257.151	800.000	0.068	0.295
-256.136	39.384	-0.246	0.221
-255.122	7.219	-0.215	0.161
-254.107	47.833	0.108	-0.102
-253.092	665.500	0.040	-0.105
-252.078	180.906	0.103	-0.151
-251.063	752.048	-0.100	-0.272
-250.049	-151.547	-0.352	0.026
-249.034	627.868	0.057	0.145
-248.019	19.483	-0.133	0.108
-247.005	-109.919	-0.157	0.033
-245.990	-200.000	0.002	0.020
-244.976	-35.869	-0.115	0.063
-243.961	216.948	0.136	-0.217
-242.946	234.435	0.163	-0.270
-241.932	-49.133	-0.291	-0.140
-240.917	-200.000	0.026	-0.260
-239.903	-120.995	-0.283	0.048
-238.888	75.648	-0.176	0.187
-237.873	612.180	0.042	0.106
-236.859	-19.688	-0.166	-0.103
-235.844	-92.681	-0.055	0.015
-234.830	-148.012	-0.211	0.018
-233.815	-200.000	-0.016	0.076
-232.800	-181.253	0.085	0.002
-231.786	-52.206	0.398	0.185
-230.771	48.511	0.162	0.152
-229.757	15.028	-0.078	-0.062
-228.742	-164.697	0.239	0.011
-227.727	-97.485	0.379	-0.099
-226.713	127.497	0.144	0.184
-225.698	-200.000	0.029	0.223
-224.684	313.132	-0.044	-0.083
-223.669	-22.715	-0.118	-0.072
-222.655	170.089	0.057	-0.082
-221.640	99.471	0.055	0.064
-220.625	-200.000	0.064	-0.291
-219.611	-77.338	0.345	-0.120
-218.596	51.822	-0.131	-0.125
-217.582	800.000	0.098	0.369
-216.567	-37.983	-0.256	-0.136
-215.552	-40.348	0.179	-0.093
-214.538	15.716	0.191	-0.151
-213.523	-49.910	0.180	0.086
-212.509	-65.711	0.199	-0.080
-211.494	-200.000	-0.044	0.229
-210.479	272.471	-0.074	-0.132
-209.465	80.420	0.301	-0.325
-208.450	570.393	0.108	-0.264
-207.436	-64.264	0.110	-0.045
-206.421	-4.784	-0.170	0.118
-205.406	118.702	-0.141	-0.175
-204.392	-183.685	-0.098	0.002
-203.377	-143.122	0.031	0.003
-202.363	445.063	0.049	-0.108
-201.348	-200.000	-0.001	0.211
-200.333	-20.387	-0.186	-0.115
-199.319	336.073	-0.039	-0.076
-198.304	-200.000	0.029	0.151
-197.290	-34.470	-0.126	-0.069
-196.275	1.228	0.096	-0.069
-195.260	43.155	-0.206	0.188
-194.246	140.993	-0.153	-0.203
-193.231	-62.372	0.214	-0.089
-192.217	104.028	0.187	0.220
-191.202	52.399	-0.320	0.306
-190.187	52.611	0.116	-0.111
-189.173	-38.610	-0.105	-0.055
-188.158	296.732	-0.100	0.185
-187.144	111.555	-0.029	0.035
-186.129	102.426	-0.117	0.137
-185.114	-14.243	0.151	0.097
-184.100	-108.513	-0.249	0.054
-183.085	-70.643	-0.042	-0.016
-182.071	-68.413	0.147	-0.057
-181.056	-200.000	-0.019	-0.106
-180.042	-172.164	0.305	0.010
-179.027	65.219	-0.104	-0.105
-178.012	-200.000	0.018	0.162
-176.998	440.081	-0.054	-0.118
-175.983	800.000	0.059	0.182
-174.969	-37.131	-0.058	-0.031
-173.954	214.083	0.319	-0.505
-172.939	-38.719	0.242	-0.128
-171.925	-200.000	0.050	0.235
-170.910	-170.423	0.152	0.005
-169.896	-200.000	-0.020	0.331
-168.881	65.636	0.207	0.210
-167.866	366.453	-0.142	-0.288
-166.852	25.891	-0.319	-0.266
-165.837	-200.000	-0.002	-0.147
-164.823	405.098	0.129	0.272
-163.808	800.000	0.055	0.223
-162.793	64.722	0.034	-0.035
-161.779	-200.000	0.015	-0.265
-160.764	-88.912	-0.459	0.136
-159.750	187.634	0.077	0.115
-158.735	39.697	0.079	-0.071
-157.720	62.097	-0.167	0.166
-156.706	198.592	0.097	-0.148
-155.691	-13.917	0.243	0.157
-154.677	-99.006	-0.133	-0.034
-153.662	105.009	-0.208	-0.246
-152.647	160.269	-0.369	-0.515
-151.633	28.734	-0.317	-0.269
-150.618	-200.000	-0.036	0.195
-149.604	-74.011	-0.206	0.075
-148.589	-200.000	-0.039	0.203
-147.574	119.055	-0.121	0.150
-146.560	456.465	-0.096	0.214
-145.545	-200.000	0.040	0.000
-144.531	800.000	-0.041	0.173
-143.516	-30.325	-0.054	0.031
-142.502	800.000	0.160	-0.479
-141.487	800.000	0.044	0.177
-140.472	122.178	0.211	0.264
-139.458	-111.108	-0.186	-0.038
-138.443	-50.765	0.129	0.061
-137.429	5.202	0.090	0.066
-136.414	327.503	0.107	-0.205
-135.399	-142.517	-0.173	-0.017
-134.385	-52.977	-0.191	0.088
-133.370	-1.838	0.023	-0.016
-132.356	112.577	0.080	-0.097
-131.341	196.283	0.042	0.065
-130.326	-160.211	-0.298	-0.016
-129.312	-200.000	-0.022	0.323
-128.297	-17.341	-0.129	0.082
-127.283	21.959	0.186	-0.152
-126.268	-97.081	0.179	0.047
-125.253	-124.021	0.122	0.019
-124.239	800.000	-0.047	-0.164
-123.224	-13.293	-0.203	-0.132
-122.210	178.384	0.283	-0.413
-121.195	-30.654	-0.119	-0.067
-120.180	-78.795	0.020	0.007
