DTS Sentinel unit serial number:	SN413079Multiplexer serial number:	ORYXHardware model number:	OX4-SRSoftware version number:	ORYX F/W v4.00 Oryx Data Collector v3.7.2.0data status	okinstallation	princeton_trtdifferential loss correction	single-endedforward channel	channel 1reverse channel	N/Adate	2019/09/12time	05:28:11forward acquisition time	60.00reverse acquisition time	0.00gamma	496.2192k internal	0.2322k external	0.2322temperature offset calibration	1.0050default loss term (dB/km)	0.3790temperature slope calibration	1.0000multiplexer offset coefficient	1.0000multiplexer slope coefficient	1.0000fibre end	0.00T internal ref (°C)	31.94T ext. ref 1 (°C)	1.62T ext. ref 2 (°C)	27.41length (m)	temperature (°C)	Stokes	anti-Stokes-747.200	-200.000	-0.025	0.382
-746.185	-116.008	-0.113	0.021
-745.171	-160.406	0.105	0.006
-744.156	325.222	0.087	0.168
-743.142	3.985	0.280	0.207
-742.127	-21.428	-0.256	0.158
-741.112	121.976	0.034	0.043
-740.098	118.008	-0.453	0.564
-739.083	24.591	-0.343	-0.287
-738.069	-18.089	0.236	-0.149
-737.054	-59.355	0.066	-0.029
-736.039	-45.710	-0.268	-0.134
-735.025	11.657	0.107	0.083
-734.010	89.211	-0.236	-0.266
-732.996	-163.712	-0.258	-0.012
-731.981	-29.007	-0.232	0.135
-730.966	-121.085	0.160	-0.027
-729.952	231.624	0.077	-0.127
-728.937	-200.000	0.003	-0.080
-727.923	800.000	-0.041	-0.127
-726.908	-55.567	0.094	0.042
-725.894	98.874	-0.179	-0.208
-724.879	150.549	-0.078	-0.107
-723.864	-153.042	-0.060	-0.004
-722.850	378.660	0.164	0.340
-721.835	11.216	-0.394	0.305
-720.821	-89.522	-0.100	-0.030
-719.806	-200.000	0.032	0.277
-718.791	800.000	0.054	-0.184
-717.777	130.805	0.030	0.039
-716.762	226.027	0.174	0.284
-715.748	151.395	0.178	0.244
-714.733	100.946	0.103	-0.121
-713.718	800.000	-0.081	-0.260
-712.704	347.934	0.184	-0.366
-711.689	-200.000	0.009	-0.359
-710.675	-19.232	-0.337	0.211
-709.660	288.704	0.148	0.271
-708.645	56.518	-0.369	-0.362
-707.631	-33.148	-0.289	0.162
-706.616	-167.225	-0.216	0.009
-705.602	-164.825	0.214	0.010
-704.587	-32.020	-0.317	0.179
-703.572	19.862	-0.124	0.101
-702.558	800.000	0.067	0.192
-701.543	-74.037	0.198	-0.072
-700.529	-59.454	0.133	-0.058
-699.514	450.631	-0.067	0.148
-698.499	123.709	0.114	0.144
-697.485	-84.153	-0.183	0.058
-696.470	95.863	0.135	-0.155
-695.456	-101.133	0.059	-0.015
-694.441	800.000	-0.100	-0.430
-693.426	-200.000	-0.034	0.191
-692.412	-58.828	-0.214	0.094
-691.397	800.000	0.063	0.214
-690.383	-64.107	-0.231	-0.095
-689.368	-24.618	0.048	0.029
-688.354	-200.000	-0.023	-0.265
-687.339	-200.000	0.077	-0.340
-686.324	9.571	-0.321	0.245
-685.310	-22.212	-0.180	-0.110
-684.295	32.657	-0.136	-0.118
-683.281	111.050	-0.199	-0.241
-682.266	-200.000	-0.013	0.129
-681.251	-200.000	0.015	-0.372
-680.237	150.528	-0.259	-0.354
-679.222	-23.395	-0.382	0.231
-678.208	3.958	0.121	-0.089
-677.193	4.929	0.109	0.081
-676.178	-6.640	0.113	-0.078
-675.164	-80.801	0.281	0.094
-674.149	-5.407	-0.142	0.099
-673.135	-200.000	-0.060	0.289
-672.120	-26.423	0.159	0.094
-671.105	-183.838	-0.241	-0.004
-670.091	36.083	-0.137	-0.122
-669.076	143.882	-0.114	0.154
-668.062	-71.896	-0.224	0.084
-667.047	277.841	0.106	-0.190
-666.032	70.945	0.175	0.183
-665.018	-49.774	-0.124	0.059
-664.003	-200.000	0.003	0.163
-662.989	-200.000	-0.009	-0.073
-661.974	-131.729	0.087	-0.012
-660.959	210.906	0.216	-0.342
-659.945	800.000	-0.126	-0.373
-658.930	50.775	0.125	-0.119
-657.916	653.820	0.114	-0.296
-656.901	177.055	0.070	-0.102
-655.886	-200.000	-0.014	0.142
-654.872	-2.356	0.232	0.163
-653.857	42.519	0.005	0.004
-652.843	395.102	-0.089	0.187
-651.828	-200.000	0.077	-0.524
-650.814	-200.000	0.025	0.156
-649.799	-107.649	-0.050	0.011
-648.784	-200.000	0.007	-0.394
-647.770	406.102	0.200	0.424
-646.755	74.160	0.282	0.298
-645.741	-134.099	-0.009	0.001
-644.726	489.001	-0.097	0.223
-643.711	9.527	0.291	0.222
-642.697	106.857	-0.178	-0.213
-641.682	-3.027	-0.188	0.132
-640.668	-77.610	-0.051	0.018
-639.653	-86.443	0.167	-0.051
-638.638	-200.000	-0.016	-0.176
-637.624	58.495	-0.169	-0.167
-636.609	-72.322	-0.088	0.033
-635.595	800.000	0.097	0.408
-634.580	-118.057	0.312	-0.056
-633.565	282.142	0.246	-0.443
-632.551	-104.235	-0.230	-0.054
-631.536	48.483	0.205	-0.193
-630.522	6.683	-0.128	0.095
-629.507	-198.530	-0.353	-0.002
-628.492	-135.809	0.216	-0.026
-627.478	278.118	-0.024	-0.044
-626.463	-71.681	-0.278	0.104
-625.449	800.000	-0.014	-0.050
-624.434	-11.916	0.165	-0.109
-623.419	322.052	-0.200	-0.382
-622.405	-200.000	0.006	0.110
-621.390	692.328	0.053	-0.139
-620.376	800.000	-0.099	-0.405
-619.361	-161.087	0.157	0.008
-618.346	569.430	-0.026	-0.064
-617.332	800.000	-0.067	-0.238
-616.317	-50.034	0.110	0.053
-615.303	-180.848	0.084	-0.002
-614.288	670.106	-0.146	-0.380
-613.273	800.000	0.022	0.091
-612.259	-37.037	0.138	-0.075
-611.244	-26.574	0.078	-0.046
-610.230	-89.240	-0.041	-0.012
-609.215	474.251	0.142	-0.322
-608.201	22.779	0.072	-0.060
-607.186	221.654	0.112	0.181
-606.171	-72.237	-0.104	-0.039
-605.157	-200.000	0.053	0.258
-604.142	281.946	-0.023	-0.042
-603.128	31.397	-0.210	0.181
-602.113	-63.352	-0.197	0.082
-601.098	-134.339	-0.311	-0.038
-600.084	-112.613	-0.232	-0.046
-599.069	-114.552	-0.333	-0.064
-598.055	-189.994	0.219	-0.002
-597.040	62.830	0.274	-0.275
-596.025	522.701	-0.099	-0.233
-595.011	-200.000	-0.314	0.000
-593.996	-36.693	-0.309	0.167
-592.982	800.000	-0.007	-0.029
-591.967	-200.000	-0.017	0.296
-590.952	-115.789	0.076	0.014
-589.938	-200.000	-0.076	-0.352
-588.923	-2.565	-0.134	-0.094
-587.909	-200.000	0.016	0.086
-586.894	116.777	0.120	-0.148
-585.879	-188.829	-0.113	0.001
-584.865	-52.251	-0.227	-0.106
-583.850	-23.823	-0.131	0.079
-582.836	2.172	0.103	0.074
-581.821	-53.502	-0.070	-0.032
-580.806	85.562	0.127	0.140
-579.792	-94.381	-0.173	-0.047
-578.777	-6.166	-0.043	0.030
-577.763	-21.244	0.129	-0.079
-576.748	-109.576	-0.135	0.029
-575.733	-107.243	-0.181	-0.040
-574.719	-200.000	0.010	-0.054
-573.704	-107.555	0.179	-0.039
-572.690	-43.246	0.130	-0.066
-571.675	-200.000	-0.047	0.262
-570.661	9.758	0.286	0.218
-569.646	-63.128	-0.294	0.122
-568.631	-102.367	-0.439	0.106
-567.617	-200.000	0.010	0.155
-566.602	800.000	-0.074	0.250
-565.588	800.000	0.026	0.076
-564.573	171.925	-0.286	-0.412
-563.558	800.000	0.049	-0.184
-562.544	-8.949	0.047	0.032
-561.529	-30.231	0.132	-0.075
-560.515	-64.999	0.197	-0.080
-559.500	482.159	-0.089	0.204
-558.485	-34.870	-0.024	-0.013
-557.471	-55.875	0.159	0.071
-556.456	800.000	0.054	0.185
-555.442	-200.000	0.058	-0.264
-554.427	-18.310	0.157	0.099
-553.412	313.803	-0.093	-0.176
-552.398	-20.810	-0.207	-0.127
-551.383	117.012	0.226	-0.279
-550.369	204.044	0.113	-0.175
-549.354	-127.721	-0.148	0.021
-548.339	173.834	-0.086	-0.124
-547.325	-107.694	-0.269	0.059
-546.310	-200.000	0.013	0.064
-545.296	345.980	0.039	-0.076
-544.281	545.347	0.130	0.310
-543.266	26.504	0.226	-0.190
-542.252	175.472	0.320	0.465
-541.237	-92.696	-0.283	-0.080
-540.223	800.000	-0.121	0.395
-539.208	27.692	0.131	0.110
-538.193	-200.000	0.006	-0.206
-537.179	800.000	-0.082	-0.260
-536.164	-144.225	-0.134	-0.013
-535.150	-67.185	-0.073	0.029
-534.135	3.597	0.126	0.092
-533.121	-19.520	0.334	-0.207
-532.106	-39.773	0.263	-0.138
-531.091	-155.017	0.247	0.016
-530.077	261.663	-0.087	-0.151
-529.062	-13.283	-0.057	-0.037
-528.048	-30.061	0.089	-0.051
-527.033	-36.642	-0.270	0.145
-526.018	-70.611	-0.083	-0.031
-525.004	-103.683	0.228	-0.053
-523.989	-21.486	-0.169	0.103
-522.975	-145.115	-0.422	-0.038
-521.960	-42.994	-0.391	0.199
-520.945	-120.169	0.208	0.036
-519.931	304.080	-0.101	-0.188
-518.916	800.000	-0.133	-0.401
-517.902	-137.743	-0.220	-0.025
-516.887	63.781	-0.168	0.169
-515.872	-50.014	0.174	-0.082
-514.858	40.497	-0.103	0.093
-513.843	800.000	0.045	-0.183
-512.829	800.000	0.062	-0.184
-511.814	-48.640	-0.091	0.044
-510.799	79.161	-0.184	0.197
-509.785	800.000	-0.075	-0.303
-508.770	-66.578	-0.331	-0.132
-507.756	362.444	-0.077	-0.155
-506.741	70.730	0.139	0.144
-505.726	-0.479	-0.190	-0.135
-504.712	-200.000	-0.085	0.393
-503.697	380.377	-0.081	0.167
-502.683	89.523	-0.129	0.144
-501.668	144.748	-0.034	0.045
-500.653	-129.707	0.199	0.027
-499.639	-200.000	-0.020	-0.095
-498.624	258.779	0.028	-0.048
-497.610	800.000	0.151	0.510
-496.595	34.349	-0.070	0.061
-495.581	-200.000	0.050	-0.266
-494.566	-131.672	0.026	0.003
-493.551	-110.574	-0.348	-0.072
-492.537	-200.000	-0.006	0.099
-491.522	-20.933	0.029	0.018
-490.508	800.000	-0.038	-0.160
-489.493	331.115	0.070	-0.135
-488.478	144.417	0.354	-0.472
-487.464	423.921	-0.080	-0.171
-486.449	-133.990	0.204	0.025
-485.435	234.113	-0.128	0.211
-484.420	-200.000	-0.009	-0.141
-483.405	411.620	0.123	-0.262
-482.391	-161.820	-0.154	-0.008
-481.376	-55.205	-0.135	-0.061
-480.362	7.934	0.250	-0.187
-479.347	800.000	0.134	0.378
-478.332	55.484	-0.268	-0.259
-477.318	-100.944	-0.156	-0.038
-476.303	125.888	-0.010	0.012
-475.289	800.000	0.027	-0.117
-474.274	-90.061	0.191	0.056
-473.259	30.090	-0.168	-0.143
-472.245	163.081	0.067	-0.094
-471.230	800.000	-0.071	0.282
-470.216	68.399	0.320	0.327
-469.201	-129.785	0.020	0.003
-468.186	-74.496	-0.137	-0.049
-467.172	-200.000	0.051	-0.330
-466.157	-43.232	-0.450	-0.228
-465.143	-157.946	0.396	0.023
-464.128	97.414	0.162	-0.186
-463.113	124.818	0.103	-0.130
-462.099	-27.673	0.337	-0.195
-461.084	314.433	-0.126	-0.237
-460.070	604.670	-0.022	-0.054
-459.055	80.220	0.078	-0.084
-458.040	346.535	-0.075	0.148
-457.026	-30.579	-0.194	0.110
-456.011	144.902	0.112	0.150
-454.997	-118.406	-0.146	-0.026
-453.982	-70.126	0.163	-0.062
-452.968	-77.923	-0.512	0.176
-451.953	618.232	-0.059	0.149
-450.938	-175.951	-0.261	-0.007
-449.924	-200.000	0.088	-0.444
-448.909	800.000	0.064	-0.254
-447.895	172.665	-0.194	0.279
-446.880	-10.759	-0.285	0.188
-445.865	-75.748	0.150	0.053
-444.851	800.000	-0.039	0.148
-443.836	-88.830	0.136	-0.040
-442.822	286.916	0.176	-0.318
-441.807	496.236	0.171	0.392
-440.792	800.000	0.023	-0.065
-439.778	211.034	-0.150	0.236
-438.763	-200.000	-0.045	-0.254
-437.749	-80.211	0.199	-0.066
-436.734	-200.000	0.050	-0.345
-435.719	331.450	-0.074	-0.142
-434.705	-15.230	0.200	-0.128
-433.690	-200.000	-0.010	-0.308
-432.676	-200.000	-0.045	-0.229
-431.661	800.000	0.032	-0.112
-430.646	-27.727	0.085	-0.049
-429.632	188.732	0.178	-0.265
-428.617	-200.000	-0.001	0.135
-427.603	-200.000	-0.007	-0.245
-426.588	341.770	0.139	0.272
-425.573	207.887	-0.197	0.308
-424.559	-200.000	0.030	0.285
-423.544	800.000	0.070	-0.302
-422.530	-10.296	0.433	-0.287
-421.515	-98.761	-0.184	0.047
-420.500	800.000	-0.055	-0.159
-419.486	-53.853	-0.170	-0.077
-418.471	-110.307	0.126	0.026
-417.457	13.879	0.131	-0.101
-416.442	-200.000	0.060	-0.367
-415.428	129.938	0.165	0.211
-414.413	-190.115	0.342	-0.004
-413.398	800.000	0.038	0.130
-412.384	64.286	0.185	0.186
-411.369	746.907	0.194	-0.520
-410.355	20.307	0.071	-0.057
-409.340	16.910	0.165	-0.131
-408.325	55.797	0.195	0.188
-407.311	-200.000	0.009	-0.148
-406.296	-200.000	0.027	0.246
-405.282	26.058	0.204	0.170
-404.267	-102.492	0.269	-0.064
-403.252	-97.894	-0.321	-0.083
-402.238	463.523	-0.090	0.200
-401.223	-141.985	0.172	0.017
-400.209	-100.365	0.137	0.034
-399.194	-200.000	0.042	-0.394
-398.179	-21.279	0.276	0.168
-397.165	14.549	-0.302	0.235
-396.150	341.186	0.064	0.125
-395.136	265.483	0.154	0.268
-394.121	111.123	-0.092	-0.111
-393.106	800.000	0.064	0.214
-392.092	3.675	0.056	0.041
-391.077	107.028	0.073	0.087
-390.063	9.085	-0.197	-0.148
-389.048	800.000	-0.036	0.150
-388.033	19.023	-0.151	-0.121
-387.019	131.491	0.238	0.305
-386.004	331.940	-0.104	-0.200
-384.990	28.992	0.054	-0.045
-383.975	18.137	0.274	0.218
-382.960	654.900	0.083	-0.213
-381.946	-200.000	-0.021	0.180
-380.931	116.591	0.161	0.196
-379.917	-88.614	0.160	0.047
-378.902	-122.777	0.229	-0.037
-377.888	307.026	-0.039	0.073
-376.873	395.935	0.049	0.102
-375.858	-200.000	-0.012	0.227
-374.844	71.638	-0.051	0.053
-373.829	122.065	-0.041	0.051
-372.815	335.191	0.033	-0.064
-371.800	152.706	-0.131	-0.178
-370.785	366.462	0.090	0.181
-369.771	800.000	0.103	0.449
-368.756	-6.280	-0.201	0.136
-367.742	175.080	-0.139	-0.200
-366.727	702.233	0.088	0.231
-365.712	-200.000	-0.011	0.136
-364.698	41.221	0.095	-0.085
-363.683	800.000	-0.048	-0.162
-362.669	-181.347	0.306	0.006
-361.654	69.459	-0.250	0.256
-360.639	-115.274	0.104	-0.020
-359.625	-200.000	-0.013	-0.348
-358.610	755.452	-0.035	0.095
-357.596	-150.293	-0.117	0.009
-356.581	800.000	0.027	0.107
-355.566	800.000	0.105	-0.299
-354.552	-46.118	0.120	0.059
-353.537	6.474	-0.324	0.240
-352.523	-82.211	0.296	-0.096
-351.508	170.698	-0.057	-0.081
-350.493	75.597	0.220	-0.231
-349.479	100.917	-0.289	-0.335
-348.464	800.000	0.097	-0.326
-347.450	632.202	0.024	-0.061
-346.435	-41.419	-0.234	0.120
-345.420	-96.791	-0.296	-0.077
-344.406	110.158	0.106	-0.127
-343.391	181.448	0.120	0.175
-342.377	-97.239	0.225	0.058
-341.362	357.542	0.074	0.147
-340.348	-14.230	0.119	-0.076
-339.333	38.166	-0.127	-0.113
-338.318	310.258	-0.221	-0.411
-337.304	-70.969	-0.121	0.045
-336.289	5.475	-0.234	-0.172
-335.275	313.495	-0.218	0.409
-334.260	110.322	0.081	0.096
-333.245	227.732	-0.241	0.389
-332.231	800.000	-0.047	0.199
-331.216	220.318	0.187	0.299
-330.202	-156.792	0.339	-0.021
-329.187	-123.449	-0.223	0.035
-328.172	-2.536	0.196	-0.136
-327.158	119.814	-0.153	-0.189
-326.143	300.215	0.065	-0.118
-325.129	800.000	0.031	-0.103
-324.114	-200.000	-0.031	0.207
-323.099	92.002	0.115	-0.129
-322.085	207.337	0.076	-0.118
-321.070	78.310	0.378	-0.401
-320.056	-69.760	-0.187	0.071
-319.041	-170.937	0.147	-0.005
-318.026	212.923	0.109	-0.170
-317.012	-200.000	-0.008	0.305
-315.997	-18.805	0.065	-0.041
-314.983	-53.450	-0.212	-0.096
-313.968	-7.914	-0.190	0.128
-312.953	71.050	0.082	-0.085
-311.939	-88.681	-0.095	0.028
-310.924	-28.288	0.240	-0.138
-309.910	-103.374	0.068	-0.016
-308.895	129.480	0.245	0.311
-307.880	527.267	0.195	0.456
-306.866	9.812	-0.065	0.049
-305.851	-200.000	-0.226	0.000
-304.837	26.606	0.143	0.119
-303.822	-44.004	-0.251	-0.125
-302.807	-170.570	-0.110	-0.004
-301.793	-120.848	0.302	-0.051
-300.778	0.267	-0.184	0.130
-299.764	-134.230	0.104	-0.013
-298.749	-123.921	0.274	-0.043
-297.735	-120.127	-0.211	0.036
-296.720	800.000	0.017	-0.049
-295.705	131.630	0.059	-0.075
-294.691	11.853	-0.115	0.088
-293.676	85.239	0.039	0.043
-292.662	-47.005	-0.253	0.123
-291.647	-200.000	-0.073	0.346
-290.632	403.860	0.042	0.087
-289.618	24.642	-0.134	0.110
-288.603	-200.000	0.009	0.126
-287.589	800.000	0.070	0.294
-286.574	121.447	-0.127	-0.157
-285.559	66.987	0.050	0.051
-284.545	-200.000	0.013	-0.244
-283.530	418.499	0.082	0.174
-282.516	376.308	0.025	0.050
-281.501	-124.349	-0.085	0.013
-280.486	-200.000	-0.013	-0.142
-279.472	-75.445	0.132	0.047
-278.457	-117.724	-0.162	-0.029
-277.443	-28.843	0.131	0.075
-276.428	800.000	-0.059	0.162
-275.413	-200.000	0.018	-0.127
-274.399	-200.000	-0.004	0.117
-273.384	-67.841	-0.297	0.115
-272.370	-64.968	-0.296	-0.118
-271.355	-77.169	0.124	0.043
-270.340	-200.000	0.004	-0.224
-269.326	-200.000	0.010	0.304
-268.311	74.832	-0.201	0.210
-267.297	-61.761	-0.270	0.112
-266.282	118.819	0.113	-0.139
-265.267	-200.000	-0.084	0.519
-264.253	800.000	0.043	-0.166
-263.238	-106.489	0.395	-0.087
-262.224	800.000	-0.024	0.100
-261.209	-121.951	-0.229	-0.037
-260.195	-178.332	0.137	0.003
-259.180	-175.046	0.385	-0.011
-258.165	-200.000	-0.015	0.158
-257.151	800.000	0.086	-0.247
-256.136	659.458	-0.111	-0.284
-255.122	800.000	0.125	-0.355
-254.107	134.409	-0.104	0.134
-253.092	-138.280	0.395	0.043
-252.078	420.424	-0.137	0.290
-251.063	-18.874	-0.219	0.135
-250.049	482.287	-0.052	0.118
-249.034	104.443	-0.306	-0.357
-248.019	800.000	0.057	0.159
-247.005	800.000	0.136	0.392
-245.990	800.000	0.121	-0.348
-244.976	74.865	-0.158	0.164
-243.961	281.970	0.046	-0.082
-242.946	-200.000	0.015	0.207
-241.932	-131.106	0.150	-0.020
-240.917	-200.000	0.015	-0.175
-239.903	57.847	-0.050	0.049
-238.888	26.384	-0.250	0.207
-237.873	168.264	0.197	0.277
-236.859	602.787	-0.023	-0.058
-235.844	32.946	-0.210	-0.181
-234.830	148.069	0.221	-0.295
-233.815	-89.624	0.086	-0.025
-232.800	800.000	-0.042	0.118
-231.786	280.712	0.123	-0.218
-230.771	236.291	0.119	0.194
-229.757	-26.599	0.193	-0.112
-228.742	59.480	0.101	0.099
-227.727	-24.887	0.156	-0.092
-226.713	-4.169	0.137	0.094
-225.698	800.000	0.092	-0.253
-224.684	61.012	-0.263	-0.258
-223.669	780.637	-0.086	0.234
-222.655	-59.893	-0.092	-0.039
-221.640	184.684	0.361	0.530
-220.625	-28.723	-0.290	0.165
-219.611	-200.000	-0.010	0.121
-218.596	-200.000	-0.084	0.433
-217.582	-78.047	0.270	0.092
-216.567	-200.000	-0.042	0.201
-215.552	-106.000	0.203	-0.045
-214.538	-200.000	0.024	0.234
-213.523	51.859	-0.139	-0.131
-212.509	-200.000	-0.016	0.150
-211.494	-200.000	-0.015	0.157
-210.479	-200.000	0.001	-0.142
-209.465	18.147	-0.093	-0.074
-208.450	800.000	-0.031	-0.120
-207.436	-183.173	-0.251	0.004
-206.421	-200.000	0.049	0.283
-205.406	-48.113	-0.258	-0.123
-204.392	366.633	-0.086	0.172
-203.377	486.137	-0.100	0.226
-202.363	-29.386	-0.134	-0.076
-201.348	-99.129	0.342	-0.086
-200.333	91.238	0.073	-0.081
-199.319	477.834	0.119	0.265
-198.304	-200.000	-0.026	-0.183
-197.290	59.362	-0.165	0.160
-196.275	359.549	-0.023	0.046
-195.260	-16.091	0.249	-0.156
-194.246	-143.986	-0.416	0.039
-193.231	-125.658	-0.177	0.027
-192.217	-21.550	-0.209	-0.126
-191.202	-132.979	-0.043	-0.005
-190.187	30.207	-0.107	-0.091
-189.173	218.002	0.160	0.252
-188.158	800.000	0.021	0.077
-187.144	-200.000	0.057	0.271
-186.129	87.160	-0.037	0.040
-185.114	-23.230	0.160	0.095
-184.100	243.813	0.056	0.092
-183.085	-112.435	0.218	0.043
-182.071	-22.446	-0.236	-0.141
-181.056	-200.000	-0.000	-0.353
-180.042	-200.000	-0.095	0.511
-179.027	366.108	0.156	0.312
-178.012	-182.709	-0.334	0.006
-176.998	156.831	-0.223	0.304
-175.983	-124.014	0.230	0.036
-174.969	220.225	0.023	0.037
-173.954	-127.408	0.382	-0.055
-172.939	800.000	-0.101	0.345
-171.925	54.610	0.241	-0.230
-170.910	-76.661	-0.206	0.071
-169.896	800.000	-0.073	0.280
-168.881	498.141	-0.037	-0.083
-167.866	154.606	-0.226	-0.307
-166.852	176.297	-0.038	0.055
-165.837	-200.000	0.020	0.170
-164.823	-44.331	0.177	0.087
-163.808	800.000	-0.056	0.201
-162.793	420.714	-0.061	-0.129
-161.779	-49.034	-0.284	-0.134
-160.764	80.359	0.161	-0.171
-159.750	-48.790	-0.083	-0.039
-158.735	-92.922	-0.057	-0.016
-157.720	276.720	-0.091	-0.160
-156.706	117.240	0.108	-0.131
-155.691	719.393	0.079	0.208
-154.677	22.727	0.396	-0.321
-153.662	-98.954	-0.333	-0.083
-152.647	800.000	0.161	-0.542
-151.633	-200.000	0.021	-0.121
-150.618	307.855	-0.143	0.264
-149.604	-200.000	-0.023	0.238
-148.589	-150.857	-0.219	0.016
-147.574	-200.000	-0.008	0.136
-146.560	-200.000	-0.032	0.260
-145.545	104.813	0.090	-0.105
-144.531	594.567	0.035	0.086
-143.516	269.840	0.162	0.281
-142.502	-178.908	-0.109	0.002
-141.487	-200.000	-0.003	-0.210
-140.472	260.019	0.127	0.216
-139.458	44.374	-0.142	0.129
-138.443	55.686	-0.028	-0.027
-137.429	800.000	-0.097	-0.264
-136.414	-200.000	-0.005	0.118
-135.399	-76.296	-0.357	0.124
-134.385	2.512	-0.086	0.061
-133.370	31.294	0.239	-0.202
-132.356	-135.074	-0.306	-0.036
-131.341	800.000	0.048	0.184
-130.326	-26.641	0.297	0.172
-129.312	-71.404	-0.412	0.152
-128.297	-0.976	0.155	0.108
-127.283	101.768	0.111	0.128
-126.268	-113.076	0.167	0.033
-125.253	-200.000	-0.047	0.341
-124.239	80.923	-0.185	-0.197
-123.224	-200.000	-0.014	-0.255
-122.210	167.917	-0.256	0.359
-121.195	-200.000	-0.076	0.359
-120.180	800.000	0.051	0.192
