DTS Sentinel unit serial number:	SN413079Multiplexer serial number:	ORYXHardware model number:	OX4-SRSoftware version number:	ORYX F/W v4.00 Oryx Data Collector v3.7.2.0data status	okinstallation	princeton_trtdifferential loss correction	single-endedforward channel	channel 1reverse channel	N/Adate	2019/09/15time	20:06:35forward acquisition time	60.00reverse acquisition time	0.00gamma	496.2192k internal	0.2316k external	0.2316temperature offset calibration	0.9954default loss term (dB/km)	0.3790temperature slope calibration	1.0000multiplexer offset coefficient	1.0000multiplexer slope coefficient	1.0000fibre end	0.00T internal ref (°C)	35.19T ext. ref 1 (°C)	7.62T ext. ref 2 (°C)	26.12length (m)	temperature (°C)	Stokes	anti-Stokes-747.200	-178.743	0.146	-0.003
-746.185	55.822	0.324	0.318
-745.171	-83.871	0.249	0.080
-744.156	-132.628	-0.383	-0.050
-743.142	83.829	-0.130	0.144
-742.127	-46.511	0.291	0.145
-741.112	800.000	-0.062	0.220
-740.098	-14.964	-0.466	0.303
-739.083	389.351	-0.095	0.199
-738.069	101.296	0.223	0.263
-737.054	5.281	0.190	0.142
-736.039	-67.807	-0.217	0.086
-735.025	83.649	0.166	0.183
-734.010	-200.000	-0.011	0.121
-732.996	82.051	0.079	-0.087
-731.981	-119.090	0.124	0.022
-730.966	800.000	0.070	-0.242
-729.952	-102.052	-0.037	0.009
-728.937	-57.361	-0.288	0.128
-727.923	-72.220	0.253	-0.095
-726.908	602.725	0.069	0.173
-725.894	-87.173	-0.081	-0.025
-724.879	-5.749	-0.201	-0.140
-723.864	484.882	-0.142	-0.326
-722.850	221.149	0.187	-0.304
-721.835	-66.294	0.027	-0.011
-720.821	579.028	0.184	-0.455
-719.806	-64.805	-0.345	0.141
-718.791	9.206	0.379	-0.290
-717.777	484.775	0.127	-0.293
-716.762	-200.000	0.024	-0.120
-715.748	-164.395	-0.350	-0.016
-714.733	331.201	-0.018	-0.036
-713.718	-163.698	-0.103	0.005
-712.704	14.015	-0.195	-0.153
-711.689	800.000	-0.029	0.092
-710.675	96.888	-0.195	-0.227
-709.660	-148.383	0.220	0.018
-708.645	800.000	-0.085	0.241
-707.631	96.368	0.065	-0.075
-706.616	-160.845	0.076	0.004
-705.602	13.266	-0.411	-0.322
-704.587	-21.583	-0.206	0.127
-703.572	-144.310	0.093	-0.009
-702.558	-96.863	-0.157	0.042
-701.543	76.913	-0.100	-0.107
-700.529	593.938	-0.053	-0.134
-699.514	64.403	-0.110	0.112
-698.499	-135.357	-0.353	-0.043
-697.485	-153.895	-0.305	-0.021
-696.470	-43.297	0.140	0.072
-695.456	67.996	0.033	0.034
-694.441	-23.522	0.328	0.199
-693.426	-200.000	-0.036	0.273
-692.412	800.000	0.063	0.179
-691.397	474.224	-0.085	0.194
-690.383	-41.666	-0.223	-0.116
-689.368	17.163	0.147	-0.118
-688.354	-200.000	-0.036	-0.190
-687.339	-129.191	-0.196	-0.028
-686.324	800.000	-0.010	-0.040
-685.310	800.000	0.116	-0.335
-684.295	800.000	-0.064	-0.189
-683.281	-159.331	-0.236	0.013
-682.266	263.780	-0.090	0.158
-681.251	-96.627	0.210	0.056
-680.237	800.000	0.030	0.112
-679.222	155.564	-0.180	-0.250
-678.208	-166.643	-0.228	0.010
-677.193	-94.383	-0.159	-0.044
-676.178	-186.526	0.049	-0.001
-675.164	278.959	-0.221	0.399
-674.149	-200.000	-0.024	0.108
-673.135	193.428	-0.096	0.146
-672.120	-159.175	-0.281	-0.016
-671.105	65.935	-0.083	-0.085
-670.091	-200.000	-0.040	-0.293
-669.076	-128.999	-0.068	-0.010
-668.062	12.376	0.404	-0.314
-667.047	-123.762	-0.177	-0.028
-666.032	-16.160	-0.210	-0.135
-665.018	800.000	0.015	0.051
-664.003	79.055	0.169	-0.183
-662.989	-200.000	0.008	-0.112
-661.974	-71.482	-0.183	0.069
-660.959	-18.461	-0.269	0.170
-659.945	198.755	-0.220	0.340
-658.930	800.000	0.130	0.392
-657.916	-125.350	0.199	-0.031
-656.901	800.000	0.109	0.348
-655.886	114.864	-0.044	0.054
-654.872	-65.519	0.389	0.158
-653.857	-144.194	0.312	0.029
-652.843	142.563	0.075	-0.101
-651.828	800.000	0.031	0.115
-650.814	-51.199	-0.211	-0.100
-649.799	-200.000	0.008	-0.130
-648.784	-200.000	0.006	-0.136
-647.770	99.928	0.139	-0.163
-646.755	800.000	0.093	-0.263
-645.741	85.354	-0.187	0.207
-644.726	-58.245	0.104	0.046
-643.711	136.402	-0.142	0.187
-642.697	-119.097	-0.175	-0.031
-641.682	-129.229	0.264	0.037
-640.668	9.058	0.082	0.063
-639.653	232.323	-0.113	-0.187
-638.638	39.813	0.148	-0.134
-637.624	-200.000	-0.005	0.208
-636.609	-103.528	-0.306	0.073
-635.595	-3.605	0.102	0.071
-634.580	-93.932	0.299	-0.083
-633.565	-200.000	-0.039	-0.342
-632.551	59.199	-0.113	-0.113
-631.536	-27.818	-0.267	0.156
-630.522	800.000	0.084	0.327
-629.507	-200.000	0.018	-0.290
-628.492	-33.832	-0.356	-0.198
-627.478	-200.000	0.032	0.238
-626.463	290.387	-0.100	-0.184
-625.449	213.897	-0.176	-0.281
-624.434	-200.000	0.070	-0.438
-623.419	117.969	0.034	-0.042
-622.405	-200.000	0.014	0.187
-621.390	-103.870	-0.181	0.043
-620.376	11.170	-0.062	0.048
-619.361	231.728	0.075	-0.123
-618.346	17.650	0.199	-0.159
-617.332	83.190	-0.191	-0.209
-616.317	-4.968	0.202	-0.140
-615.303	11.830	0.183	-0.142
-614.288	64.110	-0.306	-0.310
-613.273	800.000	-0.048	-0.151
-612.259	-16.638	-0.135	-0.086
-611.244	-179.688	-0.372	-0.008
-610.230	800.000	-0.037	0.128
-609.215	-15.116	0.122	0.079
-608.201	-200.000	-0.013	-0.115
-607.186	-70.599	-0.345	0.131
-606.171	-200.000	-0.058	-0.294
-605.157	-200.000	0.002	-0.328
-604.142	516.275	0.105	0.248
-603.128	-200.000	0.016	-0.295
-602.113	102.968	0.173	0.204
-601.098	50.048	0.221	0.210
-600.084	338.293	0.029	0.058
-599.069	266.558	0.147	-0.259
-598.055	-24.058	-0.128	-0.077
-597.040	93.840	0.202	0.230
-596.025	-67.266	-0.244	0.097
-595.011	-200.000	-0.003	0.073
-593.996	-29.118	-0.083	-0.048
-592.982	-53.811	0.137	0.063
-591.967	-200.000	-0.039	0.375
-590.952	-200.000	-0.020	0.179
-589.938	-177.680	0.238	0.006
-588.923	800.000	0.030	-0.100
-587.909	80.310	-0.129	-0.140
-586.894	-103.223	-0.406	-0.096
-585.879	8.003	0.185	-0.140
-584.865	3.164	0.133	-0.097
-583.850	216.878	0.159	-0.255
-582.836	-129.166	0.198	0.028
-581.821	74.903	0.123	0.131
-580.806	800.000	-0.039	0.153
-579.792	-139.037	-0.192	-0.021
-578.777	-38.905	0.127	-0.067
-577.763	800.000	0.099	-0.307
-576.748	136.122	-0.113	0.148
-575.733	21.548	-0.184	0.151
-574.719	231.463	0.060	0.098
-573.704	-132.457	0.299	-0.039
-572.690	-98.645	0.133	-0.034
-571.675	-43.724	-0.177	-0.089
-570.661	-117.305	0.095	0.017
-569.646	116.465	0.151	0.186
-568.631	-200.000	0.024	-0.374
-567.617	800.000	-0.074	-0.227
-566.602	-165.993	-0.058	-0.002
-565.588	-77.779	-0.188	-0.065
-564.573	23.376	0.202	0.167
-563.558	-40.970	0.230	0.120
-562.544	-9.712	-0.279	-0.187
-561.529	-47.130	0.180	0.088
-560.515	554.423	-0.050	0.122
-559.500	-153.252	-0.169	0.012
-558.485	294.173	-0.029	0.053
-557.471	-71.609	0.183	-0.069
-556.456	-189.741	0.146	0.002
-555.442	31.550	0.136	-0.118
-554.427	-29.538	-0.112	0.064
-553.412	391.523	-0.051	-0.106
-552.398	-59.938	0.193	0.083
-551.383	72.186	0.180	0.188
-550.369	-61.258	0.389	0.165
-549.354	-86.898	-0.257	0.079
-548.339	59.405	-0.210	0.208
-547.325	-200.000	0.040	0.260
-546.310	154.859	-0.086	0.119
-545.296	800.000	-0.146	-0.462
-544.281	-200.000	-0.043	0.208
-543.266	-51.889	0.224	0.105
-542.252	-200.000	0.023	-0.106
-541.237	-200.000	0.056	0.403
-540.223	5.173	-0.088	-0.065
-539.208	122.174	-0.120	0.151
-538.193	218.535	-0.091	0.147
-537.179	-112.101	0.173	0.035
-536.164	-152.003	-0.224	0.016
-535.150	-51.881	-0.223	0.104
-534.135	-2.270	-0.251	-0.177
-533.121	800.000	-0.020	-0.077
-532.106	-17.328	-0.190	-0.120
-531.091	-200.000	-0.037	-0.199
-530.077	438.100	-0.175	-0.382
-529.062	800.000	-0.058	-0.198
-528.048	411.424	0.074	0.157
-527.033	8.731	-0.233	-0.177
-526.018	-32.228	0.061	-0.034
-525.004	-88.735	0.261	-0.078
-523.989	-118.057	-0.119	-0.021
-522.975	-6.943	0.089	-0.060
-521.960	-200.000	0.041	-0.240
-520.945	-66.720	0.346	-0.138
-519.931	213.387	0.126	-0.199
-518.916	718.461	0.033	0.087
-517.902	-123.482	-0.168	0.027
-516.887	-37.792	-0.033	-0.018
-515.872	2.472	-0.270	-0.196
-514.858	-107.176	-0.016	0.003
-513.843	-200.000	0.001	0.152
-512.829	-44.293	-0.293	0.147
-511.814	21.248	0.198	0.161
-510.799	-90.742	0.308	0.089
-509.785	435.795	-0.179	-0.392
-508.770	45.600	0.119	0.110
-507.756	-13.091	-0.231	0.151
-506.741	-60.831	0.085	-0.036
-505.726	253.832	0.109	-0.188
-504.712	72.741	-0.084	0.088
-503.697	396.724	0.099	-0.207
-502.683	-18.096	0.235	-0.147
-501.668	800.000	0.038	-0.125
-500.653	189.728	0.026	0.039
-499.639	-28.740	0.156	0.090
-498.624	8.717	-0.219	-0.165
-497.610	-18.374	0.164	-0.103
-496.595	-126.470	-0.241	-0.036
-495.581	683.504	-0.034	-0.088
-494.566	-104.129	-0.251	-0.058
-493.551	-93.511	-0.095	0.026
-492.537	-200.000	-0.030	-0.177
-491.522	-36.155	0.277	0.150
-490.508	394.639	0.044	-0.093
-489.493	498.237	-0.110	0.253
-488.478	-200.000	-0.081	-0.459
-487.464	-96.464	0.037	-0.010
-486.449	-149.693	0.188	0.015
-485.435	800.000	0.097	0.316
-484.420	50.316	-0.040	0.038
-483.405	-110.124	-0.247	0.052
-482.391	137.842	-0.331	0.435
-481.376	126.009	0.187	0.238
-480.362	137.366	0.240	0.314
-479.347	193.899	0.080	-0.122
-478.332	35.300	0.298	0.262
-477.318	-66.488	-0.264	-0.105
-476.303	307.932	0.105	0.196
-475.289	-200.000	-0.014	-0.355
-474.274	-182.640	-0.219	-0.004
-473.259	800.000	0.116	-0.391
-472.245	-200.000	0.063	0.345
-471.230	-200.000	-0.001	-0.038
-470.216	800.000	-0.042	-0.154
-469.201	109.313	-0.189	-0.226
-468.186	-76.532	-0.122	0.043
-467.172	-200.000	0.080	-0.393
-466.157	-37.225	-0.231	-0.124
-465.143	-81.015	-0.278	0.092
-464.128	39.771	-0.250	0.225
-463.113	7.325	0.102	0.076
-462.099	-200.000	-0.037	-0.389
-461.084	-164.383	-0.427	-0.020
-460.070	-200.000	-0.041	0.272
-459.055	38.958	-0.075	-0.067
-458.040	-200.000	0.043	0.428
-457.026	-107.848	-0.167	0.036
-456.011	4.201	-0.320	-0.235
-454.997	-200.000	0.008	-0.271
-453.982	-83.929	-0.195	-0.062
-452.968	-35.068	-0.004	-0.002
-451.953	185.584	0.069	-0.103
-450.938	800.000	0.069	0.285
-449.924	-200.000	0.003	-0.153
-448.909	-200.000	0.038	-0.181
-447.895	-46.363	-0.262	-0.129
-446.880	-168.913	-0.098	-0.004
-445.865	-77.077	-0.129	-0.045
-444.851	10.264	0.238	-0.181
-443.836	-109.194	0.059	-0.012
-442.822	-57.912	0.306	0.134
-441.807	800.000	-0.086	0.320
-440.792	-156.790	0.593	0.037
-439.778	-200.000	0.022	-0.116
-438.763	-8.059	-0.214	0.144
-437.749	-108.507	0.423	-0.091
-436.734	800.000	-0.067	0.197
-435.719	-38.645	0.245	0.130
-434.705	62.857	0.156	0.157
-433.690	800.000	-0.048	-0.149
-432.676	206.206	-0.264	0.411
-431.661	800.000	-0.036	0.126
-430.646	4.529	0.043	-0.031
-429.632	-104.915	0.174	-0.040
-428.617	-112.077	-0.173	-0.035
-427.603	-109.492	-0.060	0.013
-426.588	-200.000	0.021	0.103
-425.573	-119.700	-0.212	-0.037
-424.559	-35.440	0.251	0.136
-423.544	-114.606	0.241	-0.046
-422.530	-47.575	0.271	0.132
-421.515	34.043	-0.094	-0.082
-420.500	486.398	0.120	-0.273
-419.486	-125.789	0.278	-0.042
-418.471	-151.392	0.291	-0.022
-417.457	-135.535	-0.277	-0.033
-416.442	34.638	-0.301	-0.263
-415.428	-31.669	0.334	-0.187
-414.413	-200.000	0.001	-0.081
-413.398	800.000	-0.035	-0.118
-412.384	360.313	0.071	-0.143
-411.369	459.454	-0.118	0.263
-410.355	-200.000	0.102	0.584
-409.340	382.782	-0.086	-0.176
-408.325	244.194	0.109	0.183
-407.311	-65.837	-0.301	-0.120
-406.296	-101.569	-0.098	0.024
-405.282	800.000	0.053	-0.182
-404.267	-59.328	0.057	0.024
-403.252	336.788	-0.027	0.053
-402.238	-33.555	-0.168	0.093
-401.223	-173.428	-0.408	0.012
-400.209	-200.000	0.082	0.430
-399.194	-91.861	0.084	-0.024
-398.179	-132.332	-0.185	-0.024
-397.165	-200.000	-0.014	0.316
-396.150	7.762	-0.252	0.188
-395.136	651.934	0.054	0.138
-394.121	245.740	-0.157	-0.265
-393.106	195.136	-0.100	0.151
-392.092	115.222	0.121	-0.147
-391.077	800.000	-0.121	0.409
-390.063	-200.000	-0.027	0.203
-389.048	-28.597	-0.137	0.079
-388.033	-168.534	-0.254	0.010
-387.019	237.855	-0.088	0.145
-386.004	-30.765	0.027	-0.015
-384.990	82.833	0.069	0.075
-383.975	-27.169	0.128	-0.074
-382.960	-2.919	0.115	0.080
-381.946	800.000	-0.015	-0.048
-380.931	60.920	0.214	-0.212
-379.917	204.208	0.111	-0.172
-378.902	-125.375	0.148	-0.023
-377.888	-200.000	-0.007	0.049
-376.873	141.554	-0.230	0.304
-375.858	188.072	0.145	0.217
-374.844	-35.751	0.066	-0.036
-373.829	146.926	0.204	0.273
-372.815	542.277	-0.088	0.210
-371.800	800.000	0.068	0.290
-370.785	150.527	-0.024	-0.032
-369.771	602.569	-0.149	-0.369
-368.756	-135.987	0.235	0.028
-367.742	800.000	-0.006	0.018
-366.727	71.857	0.151	-0.157
-365.712	-116.091	-0.147	0.027
-364.698	470.357	-0.089	-0.200
-363.683	270.245	-0.049	0.085
-362.669	-200.000	-0.029	-0.184
-361.654	-45.571	-0.312	0.154
-360.639	-200.000	0.015	-0.162
-359.625	13.212	-0.069	0.053
-358.610	800.000	-0.085	0.302
-357.596	-200.000	0.055	-0.270
-356.581	69.004	-0.069	0.071
-355.566	800.000	-0.063	0.222
-354.552	-15.869	0.369	0.234
-353.537	-11.165	-0.211	0.139
-352.523	533.556	0.053	-0.125
-351.508	-97.101	0.234	0.061
-350.493	-126.753	-0.048	0.007
-349.479	81.756	0.197	0.212
-348.464	800.000	-0.050	0.198
-347.450	43.843	0.007	-0.007
-346.435	-40.999	-0.144	0.074
-345.420	136.845	0.102	-0.133
-344.406	327.817	-0.114	0.219
-343.391	-30.445	-0.038	0.022
-342.377	800.000	0.028	-0.087
-341.362	177.282	0.199	-0.289
-340.348	-134.927	-0.377	-0.045
-339.333	668.955	0.206	0.531
-338.318	-101.574	-0.052	-0.013
-337.304	187.503	0.155	0.231
-336.289	415.341	-0.067	-0.142
-335.275	-162.264	-0.393	-0.020
-334.260	-58.785	-0.135	-0.058
-333.245	45.141	0.100	0.092
-332.231	-125.677	-0.360	0.054
-331.216	306.592	-0.069	0.129
-330.202	-5.500	-0.175	-0.120
-329.187	279.930	-0.130	-0.231
-328.172	368.354	0.021	0.043
-327.158	178.845	0.040	0.058
-326.143	-110.914	0.024	0.005
-325.129	-34.475	0.189	0.103
-324.114	46.440	0.169	0.156
-323.099	-107.671	-0.180	0.039
-322.085	71.121	0.152	0.157
-321.070	-54.470	-0.264	0.119
-320.056	114.494	0.158	0.192
-319.041	159.522	-0.125	0.174
-318.026	800.000	-0.059	-0.211
-317.012	-30.237	0.066	-0.037
-315.997	308.092	-0.160	-0.298
-314.983	-137.387	0.557	0.063
-313.968	95.416	-0.271	-0.308
-312.953	438.800	0.096	-0.208
-311.939	118.269	-0.296	0.363
-310.924	-107.335	-0.157	0.034
-309.910	419.389	-0.184	-0.391
-308.895	-200.000	-0.003	-0.141
-307.880	-200.000	-0.007	0.038
-306.866	-20.488	-0.098	0.060
-305.851	-59.499	0.188	0.080
-304.837	-53.565	0.266	0.121
-303.822	800.000	0.095	0.332
-302.807	109.989	0.181	-0.216
-301.793	800.000	-0.129	0.487
-300.778	-200.000	-0.025	0.459
-299.764	-200.000	0.117	0.579
-298.749	13.818	0.249	0.192
-297.735	551.391	-0.032	0.077
-296.720	588.406	0.103	-0.254
-295.705	177.698	-0.106	-0.154
-294.691	-3.852	0.153	-0.106
-293.676	10.306	0.320	-0.242
-292.662	42.704	-0.206	-0.187
-291.647	-200.000	0.005	0.159
-290.632	-200.000	-0.057	0.468
-289.618	-16.489	0.256	-0.161
-288.603	296.016	0.052	0.094
-287.589	14.021	-0.102	-0.079
-286.574	-39.664	-0.045	-0.024
-285.559	-109.438	-0.235	0.049
-284.545	450.917	0.025	-0.054
-283.530	-125.937	0.183	-0.027
-282.516	800.000	-0.105	0.353
-281.501	-200.000	-0.045	0.324
-280.486	-167.371	-0.140	-0.006
-279.472	208.647	-0.252	-0.392
-278.457	800.000	-0.087	-0.323
-277.443	-200.000	0.063	0.293
-276.428	-149.682	0.073	0.006
-275.413	-200.000	-0.030	0.372
-274.399	292.415	0.111	-0.201
-273.384	-200.000	-0.000	0.287
-272.370	122.839	0.123	0.153
-271.355	-28.225	-0.198	0.114
-270.340	-200.000	0.014	0.211
-269.326	16.162	0.376	-0.295
-268.311	-58.684	0.155	-0.067
-267.297	279.526	0.160	-0.283
-266.282	53.839	-0.124	0.118
-265.267	-3.927	0.090	-0.062
-264.253	-200.000	0.048	-0.210
-263.238	-93.650	-0.318	-0.087
-262.224	-22.079	-0.232	0.140
-261.209	307.877	-0.078	-0.145
-260.195	481.453	-0.014	-0.032
-259.180	112.205	0.187	0.225
-258.165	800.000	-0.058	-0.249
-257.151	18.883	0.236	-0.187
-256.136	-99.129	-0.124	-0.031
-255.122	-14.883	-0.139	-0.089
-254.107	158.800	-0.045	-0.062
-253.092	800.000	0.039	-0.138
-252.078	-75.020	-0.093	0.033
-251.063	-200.000	0.066	0.488
-250.049	-120.318	-0.144	-0.024
-249.034	800.000	0.091	-0.295
-248.019	-10.110	-0.137	0.091
-247.005	-151.755	0.027	0.002
-245.990	-66.310	-0.242	-0.096
-244.976	800.000	-0.050	0.201
-243.961	205.899	0.084	-0.130
-242.946	-41.752	-0.113	0.058
-241.932	-96.683	-0.179	0.047
-240.917	-200.000	-0.025	-0.340
-239.903	-38.251	-0.228	-0.120
-238.888	-188.454	0.133	0.002
-237.873	-172.538	0.049	0.002
-236.859	-200.000	0.009	-0.084
-235.844	748.015	0.035	0.093
-234.830	-200.000	0.016	0.102
-233.815	159.204	0.038	-0.052
-232.800	448.201	0.040	-0.087
-231.786	-200.000	0.041	-0.202
-230.771	640.772	-0.155	-0.391
-229.757	-106.735	-0.379	-0.084
-228.742	344.341	0.092	0.180
-227.727	-74.190	0.151	0.054
-226.713	-200.000	0.012	-0.121
-225.698	-97.738	-0.195	0.050
-224.684	271.223	-0.148	-0.259
-223.669	149.103	0.186	0.250
-222.655	443.732	-0.062	-0.134
-221.640	-90.015	0.138	0.040
-220.625	21.971	0.274	-0.222
-219.611	-11.567	0.308	0.201
-218.596	353.629	0.097	0.192
-217.582	73.526	-0.043	0.045
-216.567	800.000	0.082	-0.329
-215.552	-87.336	-0.228	-0.069
-214.538	-146.222	0.080	0.007
-213.523	164.755	0.195	-0.273
-212.509	800.000	0.034	-0.129
-211.494	800.000	-0.058	-0.182
-210.479	223.933	0.104	0.166
-209.465	-150.011	0.276	-0.021
-208.450	-71.244	0.307	0.114
-207.436	-101.572	0.288	0.069
-206.421	-196.471	0.285	-0.002
-205.406	-200.000	-0.027	0.314
-204.392	50.267	0.034	-0.032
-203.377	800.000	-0.107	-0.322
-202.363	-36.566	0.102	0.054
-201.348	-61.941	0.080	0.033
-200.333	-73.791	0.195	-0.070
-199.319	237.371	-0.148	-0.244
-198.304	800.000	0.076	0.223
-197.290	-78.133	-0.168	-0.057
-196.275	-200.000	0.012	-0.144
-195.260	144.034	-0.060	-0.079
-194.246	67.527	-0.251	-0.254
-193.231	-200.000	-0.032	0.336
-192.217	-32.714	0.172	-0.095
-191.202	188.516	0.175	-0.260
-190.187	-200.000	0.022	-0.146
-189.173	-200.000	-0.013	-0.171
-188.158	-38.562	0.136	-0.071
-187.144	115.566	0.040	-0.048
-186.129	-126.353	0.253	-0.037
-185.114	-113.023	0.159	-0.031
-184.100	-94.877	0.163	0.044
-183.085	-61.153	0.338	0.141
-182.071	-102.253	-0.139	0.033
-181.056	216.021	0.035	-0.056
-180.042	12.959	-0.090	-0.069
-179.027	-51.559	0.224	0.104
-178.012	-90.576	-0.313	0.090
-176.998	800.000	-0.041	0.124
-175.983	-200.000	-0.023	0.343
-174.969	106.019	-0.024	-0.028
-173.954	532.911	-0.054	-0.126
-172.939	-34.764	0.103	0.056
-171.925	-200.000	-0.015	-0.130
-170.910	112.101	-0.286	-0.342
-169.896	331.405	-0.087	0.165
-168.881	-93.197	0.189	0.052
-167.866	-10.131	0.134	-0.088
-166.852	335.656	0.060	-0.116
-165.837	328.471	0.164	0.312
-164.823	-148.814	0.323	-0.026
-163.808	-110.333	0.176	0.036
-162.793	147.453	0.106	0.142
-161.779	-200.000	-0.015	-0.143
-160.764	36.736	-0.183	0.160
-159.750	-200.000	-0.029	0.373
-158.735	79.945	0.132	-0.140
-157.720	-77.952	-0.179	0.061
-156.706	-142.393	-0.309	-0.030
-155.691	213.465	0.105	0.164
-154.677	-56.686	0.305	-0.134
-153.662	-157.958	0.270	0.016
-152.647	-200.000	-0.207	-0.001
-151.633	-147.240	-0.195	-0.016
-150.618	-179.889	-0.348	-0.007
-149.604	-5.419	-0.221	-0.150
-148.589	-93.199	0.251	-0.069
-147.574	-39.982	-0.073	0.037
-146.560	199.782	-0.081	0.123
-145.545	319.515	-0.073	0.137
-144.531	-2.965	-0.327	-0.226
-143.516	-200.000	-0.005	-0.209
-142.502	-200.000	0.006	-0.222
-141.487	-117.232	0.173	-0.031
-140.472	-5.976	-0.172	-0.116
-139.458	154.320	0.226	0.307
-138.443	-0.677	-0.139	-0.097
-137.429	-89.143	0.229	0.067
-136.414	-34.091	0.084	0.046
-135.399	83.176	-0.121	-0.130
-134.385	-200.000	0.021	-0.136
-133.370	783.335	-0.190	0.514
-132.356	371.498	0.027	0.054
-131.341	-160.322	-0.264	-0.014
-130.326	-60.182	0.264	-0.111
-129.312	-166.519	-0.216	0.009
-128.297	-200.000	0.019	0.145
-127.283	23.983	0.068	-0.056
-126.268	-82.486	0.140	0.045
-125.253	-200.000	0.018	-0.347
-124.239	120.115	0.167	-0.205
-123.224	559.367	0.073	0.175
-122.210	-4.410	-0.157	0.107
