DTS Sentinel unit serial number:	SN413079Multiplexer serial number:	ORYXHardware model number:	OX4-SRSoftware version number:	ORYX F/W v4.00 Oryx Data Collector v3.7.2.0data status	okinstallation	princeton_trtdifferential loss correction	single-endedforward channel	channel 1reverse channel	N/Adate	2019/09/12time	17:56:11forward acquisition time	60.00reverse acquisition time	0.00gamma	496.2192k internal	0.2318k external	0.2318temperature offset calibration	1.0101default loss term (dB/km)	0.3790temperature slope calibration	1.0000multiplexer offset coefficient	1.0000multiplexer slope coefficient	1.0000fibre end	0.00T internal ref (°C)	33.92T ext. ref 1 (°C)	2.89T ext. ref 2 (°C)	28.26length (m)	temperature (°C)	Stokes	anti-Stokes-747.200	210.211	-0.038	0.060
-746.185	-46.996	-0.128	-0.063
-745.171	220.850	-0.134	0.218
-744.156	55.144	-0.112	0.109
-743.142	-101.433	0.367	-0.091
-742.127	-24.500	-0.107	-0.065
-741.112	62.283	-0.064	-0.065
-740.098	191.551	0.075	0.115
-739.083	-119.259	0.093	-0.016
-738.069	727.405	0.033	0.089
-737.054	-123.523	-0.221	-0.035
-736.039	-18.115	-0.303	-0.192
-735.025	-72.049	-0.182	0.068
-734.010	219.293	0.035	-0.056
-732.996	-200.000	0.013	0.071
-731.981	212.774	-0.124	-0.198
-730.966	800.000	0.020	-0.066
-729.952	561.817	0.065	-0.158
-728.937	-94.411	-0.370	-0.102
-727.923	-77.387	0.253	0.089
-726.908	-125.590	-0.246	-0.038
-725.894	-200.000	0.004	0.073
-724.879	-200.000	0.035	0.230
-723.864	512.037	-0.065	0.154
-722.850	1.064	-0.106	-0.077
-721.835	-3.905	-0.294	-0.206
-720.821	-63.164	0.284	-0.118
-719.806	-104.756	0.270	-0.063
-718.791	83.716	-0.050	-0.055
-717.777	-124.979	-0.186	0.029
-716.762	-200.000	-0.037	-0.261
-715.748	-7.073	-0.184	-0.126
-714.733	-81.154	-0.264	-0.088
-713.718	-37.896	0.055	-0.030
-712.704	-127.634	-0.282	0.041
-711.689	211.914	-0.103	-0.164
-710.675	-90.230	-0.158	0.046
-709.660	-93.648	0.341	-0.095
-708.645	-117.227	-0.211	-0.039
-707.631	16.924	-0.058	0.046
-706.616	-119.557	-0.287	-0.050
-705.602	-200.000	-0.001	0.242
-704.587	-81.843	0.253	-0.084
-703.572	-147.681	-0.307	-0.026
-702.558	-30.621	0.364	-0.208
-701.543	-151.905	-0.330	-0.024
-700.529	-200.000	0.029	-0.141
-699.514	-200.000	-0.018	0.190
-698.499	24.901	-0.165	0.138
-697.485	390.493	0.064	0.134
-696.470	294.185	-0.074	0.137
-695.456	7.582	-0.297	-0.225
-694.441	800.000	-0.073	0.262
-693.426	-200.000	0.080	0.438
-692.412	26.129	-0.374	-0.315
-691.397	-121.357	0.364	-0.061
-690.383	-173.612	-0.186	-0.006
-689.368	629.302	0.072	0.185
-688.354	-200.000	-0.018	0.189
-687.339	-108.311	0.093	-0.020
-686.324	-20.558	-0.206	0.128
-685.310	800.000	0.044	0.150
-684.295	491.352	-0.112	0.259
-683.281	247.851	0.046	0.079
-682.266	-200.000	-0.022	0.100
-681.251	-108.800	-0.228	0.049
-680.237	357.885	0.082	0.164
-679.222	800.000	0.063	-0.189
-678.208	118.823	-0.209	-0.260
-677.193	735.588	-0.087	0.234
-676.178	-81.891	0.105	-0.035
-675.164	85.190	0.092	-0.102
-674.149	-61.065	-0.280	0.119
-673.135	503.096	0.086	-0.200
-672.120	-54.734	0.166	0.076
-671.105	313.784	-0.084	0.160
-670.091	108.167	-0.160	-0.193
-669.076	-0.272	0.039	-0.028
-668.062	-110.918	0.174	0.036
-667.047	-200.000	-0.026	-0.229
-666.032	-188.174	-0.219	0.003
-665.018	-92.007	0.209	-0.060
-664.003	-136.041	-0.230	-0.027
-662.989	-49.060	0.330	0.159
-661.974	17.142	-0.286	0.229
-660.959	-116.623	-0.201	-0.037
-659.945	184.111	-0.144	-0.215
-658.930	800.000	-0.044	0.138
-657.916	-20.047	0.093	0.058
-656.901	139.664	0.184	-0.244
-655.886	589.463	-0.213	-0.529
-654.872	-45.089	0.262	-0.132
-653.857	800.000	-0.059	-0.196
-652.843	153.397	0.188	-0.260
-651.828	-87.448	-0.111	-0.034
-650.814	164.816	-0.126	0.180
-649.799	-200.000	0.011	-0.235
-648.784	184.607	0.139	0.208
-647.770	-149.298	-0.268	-0.022
-646.755	-35.263	0.145	0.079
-645.741	-43.246	-0.182	-0.093
-644.726	271.422	-0.037	0.065
-643.711	104.108	-0.074	-0.088
-642.697	-132.548	-0.128	-0.017
-641.682	-124.583	0.257	0.040
-640.668	-2.763	-0.074	-0.052
-639.653	32.961	0.107	0.093
-638.638	301.909	-0.112	0.209
-637.624	98.154	0.128	-0.149
-636.609	-200.000	0.007	-0.181
-635.595	-187.825	0.282	-0.004
-634.580	-23.181	-0.108	-0.066
-633.565	-169.930	0.202	0.007
-632.551	-200.000	0.002	0.030
-631.536	311.367	0.043	0.080
-630.522	-200.000	-0.058	0.324
-629.507	155.446	-0.274	-0.379
-628.492	-161.150	-0.250	0.013
-627.478	343.583	0.074	0.147
-626.463	-200.000	0.013	0.354
-625.449	-59.971	0.254	0.110
-624.434	115.961	0.107	0.132
-623.419	-200.000	0.017	-0.080
-622.405	800.000	-0.057	-0.201
-621.390	70.846	-0.173	0.181
-620.376	-200.000	-0.050	0.234
-619.361	61.352	-0.173	-0.173
-618.346	195.583	-0.226	-0.346
-617.332	112.978	-0.164	-0.200
-616.317	-200.000	0.006	0.257
-615.303	134.220	0.083	0.109
-614.288	156.898	0.148	-0.206
-613.273	263.291	-0.125	0.219
-612.259	756.048	-0.201	-0.549
-611.244	-200.000	-0.025	-0.310
-610.230	471.748	-0.087	-0.198
-609.215	800.000	0.024	0.081
-608.201	28.643	0.181	-0.154
-607.186	556.305	0.020	-0.048
-606.171	156.858	0.209	-0.291
-605.157	-200.000	-0.002	0.135
-604.142	-200.000	0.031	-0.147
-603.128	-129.137	0.269	-0.038
-602.113	-41.657	-0.301	-0.156
-601.098	-57.794	-0.114	0.050
-600.084	-125.594	0.155	0.024
-599.069	800.000	-0.030	0.117
-598.055	-105.206	-0.179	0.041
-597.040	-131.294	0.394	0.053
-596.025	-29.858	-0.406	0.233
-595.011	800.000	0.035	0.125
-593.996	179.082	0.294	-0.432
-592.982	-138.684	-0.231	-0.025
-591.967	-123.722	0.165	0.026
-590.952	-106.973	-0.183	0.041
-589.938	800.000	-0.135	0.377
-588.923	-54.246	0.376	-0.172
-587.909	264.034	0.139	-0.243
-586.894	-65.192	-0.059	0.024
-585.879	7.123	0.071	-0.053
-584.865	373.296	0.128	-0.262
-583.850	-84.233	-0.201	0.064
-582.836	301.500	0.183	-0.340
-581.821	800.000	0.056	0.236
-580.806	-11.282	0.220	0.146
-579.792	800.000	-0.054	0.228
-578.777	18.014	-0.086	-0.069
-577.763	6.990	0.112	0.084
-576.748	-134.854	0.289	0.035
-575.733	-123.091	-0.088	-0.014
-574.719	800.000	-0.093	-0.323
-573.704	-200.000	-0.001	-0.199
-572.690	254.964	0.173	0.297
-571.675	-89.892	-0.279	-0.082
-570.661	-152.567	0.126	-0.009
-569.646	365.684	-0.056	-0.114
-568.631	800.000	-0.051	0.155
-567.617	20.145	-0.245	-0.199
-566.602	-35.654	0.115	-0.062
-565.588	16.504	-0.049	-0.039
-564.573	229.324	-0.153	0.251
-563.558	-70.337	-0.066	0.025
-562.544	188.536	0.160	-0.240
-561.529	213.821	0.131	0.208
-560.515	-39.883	-0.248	0.130
-559.500	208.428	0.086	-0.135
-558.485	78.858	0.295	0.317
-557.471	90.058	0.045	-0.051
-556.456	-73.546	-0.389	-0.143
-555.442	21.314	-0.144	0.118
-554.427	-3.198	0.198	-0.139
-553.412	-56.195	-0.165	0.074
-552.398	260.714	-0.049	0.086
-551.383	129.398	0.160	0.205
-550.369	-158.494	-0.171	0.010
-549.354	36.756	0.015	-0.014
-548.339	-136.216	-0.171	0.020
-547.325	800.000	-0.032	0.133
-546.310	-123.120	-0.185	-0.030
-545.296	-26.646	0.247	0.145
-544.281	-200.000	0.007	0.267
-543.266	32.369	-0.095	0.083
-542.252	-55.705	0.259	0.116
-541.237	238.979	0.079	0.132
-540.223	-94.682	-0.540	-0.147
-539.208	113.391	-0.120	-0.146
-538.193	63.636	-0.190	0.192
-537.179	-42.829	0.270	-0.138
-536.164	-43.663	0.128	0.065
-535.150	-200.000	0.010	0.078
-534.135	-200.000	-0.061	0.309
-533.121	-68.823	-0.095	-0.037
-532.106	19.645	-0.225	0.182
-531.091	-200.000	0.024	0.220
-530.077	-82.378	-0.398	-0.130
-529.062	800.000	-0.057	0.164
-528.048	-27.476	0.045	-0.026
-527.033	-200.000	0.039	-0.388
-526.018	775.884	0.163	-0.446
-525.004	-80.006	-0.292	0.098
-523.989	-75.940	-0.085	-0.030
-522.975	-81.910	-0.269	0.088
-521.960	523.865	-0.111	0.262
-520.945	-200.000	0.083	-0.488
-519.931	129.008	-0.114	0.145
-518.916	244.201	-0.149	-0.252
-517.902	64.178	0.148	-0.149
-516.887	560.632	-0.022	0.053
-515.872	-65.443	-0.205	-0.083
-514.858	16.298	0.209	-0.165
-513.843	-200.000	0.003	0.146
-512.829	-57.473	0.228	0.100
-511.814	-12.593	0.112	0.073
-510.799	-200.000	-0.031	-0.147
-509.785	690.617	-0.011	0.029
-508.770	59.523	0.048	0.048
-507.756	-100.632	0.143	-0.035
-506.741	-145.575	-0.151	0.014
-505.726	468.368	-0.078	-0.176
-504.712	-49.901	-0.064	-0.031
-503.697	355.333	-0.122	0.244
-502.683	167.241	-0.059	0.084
-501.668	800.000	0.011	-0.035
-500.653	-101.920	0.133	-0.032
-499.639	169.957	0.115	-0.165
-498.624	93.035	-0.138	0.156
-497.610	-74.636	0.284	-0.102
-496.595	-200.000	0.032	0.246
-495.581	122.348	0.093	-0.117
-494.566	574.348	0.115	-0.281
-493.551	-96.955	0.424	0.111
-492.537	-1.157	0.243	0.172
-491.522	-200.000	-0.003	-0.204
-490.508	144.248	0.023	0.031
-489.493	800.000	0.063	0.191
-488.478	-12.906	0.254	-0.166
-487.464	-200.000	0.037	-0.246
-486.449	-141.443	-0.106	-0.011
-485.435	-62.898	0.327	0.135
-484.420	295.630	0.100	-0.184
-483.405	71.090	-0.059	-0.061
-482.391	-189.962	0.322	0.004
-481.376	-106.643	0.291	0.065
-480.362	-46.235	-0.072	0.035
-479.347	-53.578	-0.258	-0.118
-478.332	800.000	0.028	-0.114
-477.318	289.266	-0.165	-0.300
-476.303	-84.175	-0.108	-0.034
-475.289	-200.000	0.050	0.262
-474.274	22.832	0.211	-0.173
-473.259	800.000	-0.051	0.158
-472.245	41.192	-0.248	0.224
-471.230	178.164	0.140	0.205
-470.216	289.294	-0.056	-0.101
-469.201	-98.969	-0.103	-0.026
-468.186	138.772	0.129	-0.169
-467.172	67.061	0.034	-0.035
-466.157	-98.843	0.364	0.093
-465.143	-123.943	-0.035	-0.005
-464.128	-200.000	-0.011	-0.108
-463.113	460.925	0.125	0.278
-462.099	-200.000	0.009	0.079
-461.084	-200.000	0.007	-0.111
-460.070	75.204	-0.122	-0.129
-459.055	100.185	0.174	-0.202
-458.040	71.550	-0.250	0.260
-457.026	800.000	-0.136	0.423
-456.011	-139.161	-0.335	-0.036
-454.997	-107.681	-0.087	0.019
-453.982	16.997	0.083	-0.066
-452.968	800.000	-0.168	-0.523
-451.953	-53.125	-0.223	0.102
-450.938	-200.000	0.032	0.191
-449.924	204.913	-0.044	-0.069
-448.909	-61.671	0.326	-0.137
-447.895	-200.000	0.002	0.095
-446.880	800.000	0.062	-0.187
-445.865	-56.339	-0.170	-0.075
-444.851	-200.000	0.033	-0.341
-443.836	101.447	0.153	-0.178
-442.822	87.884	0.111	0.124
-441.807	412.791	0.073	-0.156
-440.792	-96.469	0.067	-0.018
-439.778	610.427	-0.044	0.110
-438.763	27.691	0.221	0.186
-437.749	-5.021	0.222	0.153
-436.734	-179.686	-0.418	0.009
-435.719	330.673	-0.087	0.168
-434.705	-103.913	0.127	-0.030
-433.690	-137.164	0.265	0.030
-432.676	800.000	-0.106	-0.310
-431.661	-20.355	-0.372	0.229
-430.646	-100.594	-0.327	0.081
-429.632	800.000	-0.026	0.108
-428.617	800.000	0.033	0.137
-427.603	630.951	0.109	0.276
-426.588	-147.218	-0.166	-0.014
-425.573	-101.402	-0.215	0.052
-424.559	218.576	-0.088	0.140
-423.544	165.415	-0.113	0.159
-422.530	-8.981	-0.032	0.022
-421.515	-134.286	-0.106	0.013
-420.500	-200.000	-0.001	-0.022
-419.486	212.309	0.076	0.120
-418.471	800.000	-0.125	0.531
-417.457	76.240	0.305	0.323
-416.442	171.581	-0.174	0.249
-415.428	-99.823	-0.159	0.040
-414.413	-12.404	0.249	-0.163
-413.398	376.699	-0.140	0.285
-412.384	-76.627	0.163	0.057
-411.369	59.146	-0.270	-0.266
-410.355	-46.150	0.113	0.056
-409.340	475.159	0.111	0.249
-408.325	-69.490	0.012	0.004
-407.311	429.307	-0.165	-0.357
-406.296	800.000	0.111	-0.376
-405.282	-200.000	-0.011	-0.208
-404.267	-63.036	-0.362	0.149
-403.252	-10.990	0.051	-0.034
-402.238	-82.479	0.257	-0.083
-401.223	-200.000	-0.031	-0.524
-400.209	58.987	-0.347	-0.341
-399.194	-200.000	0.032	-0.253
-398.179	-200.000	-0.013	-0.062
-397.165	-107.340	0.215	-0.047
-396.150	-11.133	-0.055	-0.037
-395.136	195.402	0.094	0.142
-394.121	800.000	-0.051	-0.157
-393.106	-38.981	-0.276	-0.145
-392.092	-89.283	0.550	0.162
-391.077	-194.721	0.161	0.001
-390.063	1.284	0.241	0.172
-389.048	-50.516	-0.178	0.084
-388.033	151.110	0.150	-0.204
-387.019	-200.000	0.006	0.183
-386.004	-200.000	-0.017	-0.243
-384.990	579.193	0.030	0.072
-383.975	292.425	-0.154	-0.280
-382.960	-200.000	0.029	-0.210
-381.946	-186.520	0.083	0.001
-380.931	59.744	0.338	-0.332
-379.917	-119.912	0.232	0.040
-378.902	26.311	-0.088	0.073
-377.888	544.394	-0.080	-0.190
-376.873	118.862	-0.012	0.015
-375.858	-49.036	0.233	-0.111
-374.844	-111.630	-0.294	0.059
-373.829	-78.792	-0.089	-0.030
-372.815	-186.026	0.106	0.002
-371.800	3.488	0.097	0.071
-370.785	120.894	0.090	0.111
-369.771	-200.000	-0.012	0.130
-368.756	-2.964	-0.365	0.254
-367.742	-66.560	-0.077	-0.031
-366.727	157.009	-0.177	-0.244
-365.712	-81.837	-0.210	-0.069
-364.698	49.830	-0.152	0.143
-363.683	758.527	0.104	0.280
-362.669	404.105	-0.095	0.199
-361.654	-14.586	-0.196	-0.126
-360.639	107.314	-0.142	0.168
-359.625	270.012	0.208	0.365
-358.610	-147.893	0.222	0.018
-357.596	47.958	0.319	-0.297
-356.581	-200.000	-0.040	-0.257
-355.566	-88.006	-0.283	-0.085
-354.552	2.172	-0.117	-0.084
-353.537	800.000	-0.042	-0.160
-352.523	-101.644	0.075	0.018
-351.508	800.000	-0.089	0.272
-350.493	800.000	-0.042	0.162
-349.479	366.345	0.019	0.038
-348.464	-200.000	-0.026	-0.189
-347.450	150.933	0.156	-0.211
-346.435	800.000	0.039	0.128
-345.420	-200.000	0.017	0.157
-344.406	31.220	0.144	0.123
-343.391	-200.000	-0.031	0.430
-342.377	-200.000	0.008	-0.203
-341.362	192.316	0.334	0.502
-340.348	800.000	0.010	-0.043
-339.333	-101.419	-0.289	-0.070
-338.318	800.000	0.092	-0.321
-337.304	-200.000	-0.001	-0.067
-336.289	141.352	-0.209	0.275
-335.275	233.782	0.116	0.190
-334.260	-41.697	-0.285	0.146
-333.245	-200.000	-0.007	0.231
-332.231	11.097	0.226	0.172
-331.216	-130.604	-0.266	0.036
-330.202	800.000	-0.089	-0.309
-329.187	-148.640	-0.020	0.002
-328.172	800.000	-0.103	0.323
-327.158	342.694	-0.086	-0.167
-326.143	478.011	-0.041	0.092
-325.129	126.880	-0.015	-0.019
-324.114	-200.000	-0.021	-0.361
-323.099	-140.906	-0.084	0.009
-322.085	44.612	-0.058	0.054
-321.070	117.610	-0.112	0.138
-320.056	-0.157	-0.271	-0.192
-319.041	29.282	0.225	-0.190
-318.026	493.127	0.069	0.159
-317.012	800.000	0.002	0.008
-315.997	-163.389	0.045	-0.002
-314.983	185.130	0.206	0.304
-313.968	-33.716	0.350	-0.192
-312.953	-95.280	0.173	0.046
-311.939	-200.000	0.073	-0.467
-310.924	138.606	-0.123	-0.161
-309.910	-81.301	0.055	0.018
-308.895	-40.156	-0.062	-0.032
-307.880	137.385	0.187	0.243
-306.866	-200.000	0.058	-0.407
-305.851	10.394	0.417	0.316
-304.837	-67.803	0.034	0.013
-303.822	-121.190	-0.180	-0.030
-302.807	94.504	-0.260	0.294
-301.793	-114.566	-0.315	-0.060
-300.778	371.934	-0.164	0.331
-299.764	-80.459	-0.309	-0.103
-298.749	-96.929	-0.258	-0.067
-297.735	-88.230	0.356	-0.106
-296.720	24.658	-0.241	-0.198
-295.705	103.690	0.125	0.146
-294.691	-34.767	-0.076	0.041
-293.676	-200.000	-0.020	-0.165
-292.662	87.032	-0.210	-0.230
-291.647	-7.751	0.131	-0.088
-290.632	-22.256	0.288	-0.174
-289.618	-59.951	0.262	-0.111
-288.603	-31.769	-0.357	0.199
-287.589	-200.000	-0.058	0.562
-286.574	-30.886	-0.238	0.134
-285.559	-146.290	0.147	0.013
-284.545	1.977	-0.161	-0.115
-283.530	-200.000	-0.021	-0.277
-282.516	391.034	-0.032	-0.066
-281.501	278.083	0.128	-0.226
-280.486	270.765	-0.130	-0.228
-279.472	179.221	0.098	-0.142
-278.457	-171.832	0.361	0.012
-277.443	-118.417	0.245	-0.043
-276.428	-200.000	0.006	0.166
-275.413	-59.127	-0.221	0.095
-274.399	147.117	-0.156	0.209
-273.384	-116.076	-0.280	0.052
-272.370	361.439	0.050	0.099
-271.355	-200.000	0.002	-0.121
-270.340	-49.452	0.280	0.133
-269.326	-119.393	-0.128	0.022
-268.311	87.283	0.058	-0.064
-267.297	580.497	0.129	0.314
-266.282	-17.814	0.181	-0.113
-265.267	483.888	-0.054	-0.121
-264.253	-200.000	-0.004	-0.090
-263.238	-200.000	0.005	0.324
-262.224	-200.000	0.034	-0.206
-261.209	80.079	0.228	-0.243
-260.195	-8.469	-0.102	0.068
-259.180	75.975	0.169	-0.177
-258.165	-38.127	0.204	0.107
-257.151	-135.582	0.296	-0.035
-256.136	-20.349	-0.088	-0.054
-255.122	-200.000	-0.015	0.342
-254.107	-65.342	-0.193	-0.077
-253.092	-0.498	0.066	0.047
-252.078	-161.572	-0.262	0.013
-251.063	-104.908	0.311	-0.071
-250.049	6.748	0.153	0.113
-249.034	800.000	-0.038	-0.114
-248.019	-149.698	0.291	-0.023
-247.005	-116.647	-0.179	-0.033
-245.990	-200.000	0.057	0.334
-244.976	-200.000	-0.005	0.077
-243.961	93.749	0.168	-0.188
-242.946	-3.119	-0.077	-0.053
-241.932	-3.694	0.316	0.218
-240.917	-83.722	0.416	-0.132
-239.903	-155.866	0.124	0.008
-238.888	-94.887	-0.196	0.053
-237.873	132.595	-0.168	-0.215
-236.859	800.000	-0.080	-0.229
-235.844	105.408	0.152	-0.179
-234.830	14.630	-0.196	-0.152
-233.815	-151.629	-0.276	-0.020
-232.800	481.061	-0.031	-0.070
-231.786	42.092	0.108	0.097
-230.771	253.968	-0.034	0.058
-229.757	-35.054	-0.268	-0.145
-228.742	-6.361	0.259	0.175
-227.727	-0.100	0.333	0.235
-226.713	347.552	0.057	0.112
-225.698	800.000	-0.016	-0.049
-224.684	293.093	0.204	-0.368
-223.669	148.693	-0.061	-0.081
-222.655	-67.849	-0.261	0.101
-221.640	-200.000	0.024	-0.115
-220.625	-200.000	-0.030	0.193
-219.611	-121.915	0.378	0.062
-218.596	-155.065	0.328	0.021
-217.582	46.939	0.088	0.081
-216.567	800.000	-0.021	-0.083
-215.552	-200.000	-0.033	-0.260
-214.538	-27.474	-0.156	-0.090
-213.523	49.474	-0.154	-0.144
-212.509	-72.870	-0.087	-0.032
-211.494	18.294	-0.161	0.127
-210.479	483.686	-0.050	-0.113
-209.465	0.295	0.145	0.102
-208.450	28.195	0.143	0.120
-207.436	159.139	-0.193	0.266
-206.421	384.254	0.216	0.441
-205.406	-48.771	0.351	0.167
-204.392	-173.653	0.153	-0.005
-203.377	-158.970	0.135	-0.008
-202.363	126.781	0.192	-0.241
-201.348	800.000	-0.067	-0.287
-200.333	203.042	0.191	0.292
-199.319	800.000	0.052	0.206
-198.304	-200.000	-0.035	-0.345
-197.290	65.174	-0.249	-0.250
-196.275	-93.293	0.096	-0.027
-195.260	-131.183	-0.201	0.026
-194.246	-56.184	-0.403	0.177
-193.231	-145.618	0.176	0.016
-192.217	369.798	-0.018	0.036
-191.202	-200.000	-0.057	0.308
-190.187	-200.000	0.009	-0.088
-189.173	-4.323	-0.168	0.115
-188.158	-161.233	0.396	-0.020
-187.144	-200.000	-0.049	-0.244
-186.129	-200.000	-0.041	-0.385
-185.114	-178.970	0.153	-0.003
-184.100	800.000	0.044	0.169
-183.085	176.227	-0.133	-0.191
-182.071	-84.854	0.121	0.038
-181.056	-136.509	-0.085	-0.010
-180.042	-174.525	-0.160	0.005
-179.027	-131.834	0.501	0.065
-178.012	-88.547	0.226	0.067
-176.998	75.525	-0.166	-0.173
-175.983	800.000	-0.115	0.371
-174.969	800.000	-0.049	0.197
-173.954	800.000	-0.093	0.302
-172.939	-10.923	-0.176	-0.115
-171.925	-44.001	-0.026	0.013
-170.910	140.843	-0.007	-0.009
-169.896	80.626	-0.189	0.201
-168.881	-68.661	-0.203	0.078
-167.866	759.513	0.028	0.075
-166.852	-48.545	-0.212	-0.101
-165.837	404.618	0.137	0.285
-164.823	-112.469	-0.195	0.039
-163.808	118.784	-0.191	0.233
-162.793	666.979	-0.091	-0.231
-161.779	-200.000	0.017	0.378
-160.764	-59.196	-0.382	-0.163
-159.750	800.000	0.059	-0.236
-158.735	33.067	0.078	0.067
-157.720	-200.000	0.047	-0.203
-156.706	-33.548	0.043	-0.023
-155.691	14.859	-0.200	-0.155
-154.677	62.887	-0.155	0.153
-153.662	-27.222	0.184	-0.106
-152.647	-200.000	-0.013	0.083
-151.633	-200.000	0.009	-0.117
-150.618	800.000	0.053	-0.149
-149.604	-122.164	0.133	0.022
-148.589	379.701	0.093	-0.187
-147.574	163.969	0.086	-0.119
-146.560	-13.421	-0.172	-0.110
-145.545	-127.914	-0.146	0.021
-144.531	-116.925	-0.434	-0.079
-143.516	-200.000	0.002	0.354
-142.502	-142.762	-0.385	-0.037
-141.487	49.380	-0.060	-0.056
-140.472	53.138	-0.043	-0.041
-139.458	-166.511	0.344	-0.014
-138.443	-83.751	0.136	0.043
-137.429	-200.000	0.010	-0.365
-136.414	-50.239	-0.161	0.075
-135.399	385.816	0.208	-0.425
-134.385	800.000	-0.072	-0.208
-133.370	-70.025	-0.157	0.059
-132.356	-160.903	-0.120	-0.006
-131.341	383.179	0.168	0.341
-130.326	-91.933	-0.173	0.049
-129.312	-90.060	0.363	0.105
-128.297	-200.000	0.075	-0.347
-127.283	12.894	-0.365	0.279
-126.268	184.026	0.291	0.425
-125.253	-36.707	0.063	-0.033
-124.239	256.804	-0.105	-0.179
-123.224	196.134	-0.217	0.327
-122.210	-171.642	0.396	0.013
