DTS Sentinel unit serial number:	SN413079Multiplexer serial number:	ORYXHardware model number:	OX4-SRSoftware version number:	ORYX F/W v4.00 Oryx Data Collector v3.7.2.0data status	okinstallation	princeton_trtdifferential loss correction	single-endedforward channel	channel 1reverse channel	N/Adate	2019/09/16time	01:54:35forward acquisition time	60.00reverse acquisition time	0.00gamma	496.2192k internal	0.2333k external	0.2333temperature offset calibration	0.9975default loss term (dB/km)	0.3790temperature slope calibration	1.0000multiplexer offset coefficient	1.0000multiplexer slope coefficient	1.0000fibre end	0.00T internal ref (°C)	27.41T ext. ref 1 (°C)	10.05T ext. ref 2 (°C)	22.32length (m)	temperature (°C)	Stokes	anti-Stokes-747.200	86.114	0.288	-0.319
-746.185	448.513	-0.193	0.427
-745.171	102.321	0.084	-0.099
-744.156	72.923	-0.160	-0.168
-743.142	-90.313	0.428	0.125
-742.127	800.000	0.078	0.230
-741.112	18.319	-0.152	0.122
-740.098	225.682	-0.121	0.198
-739.083	269.058	-0.113	0.200
-738.069	-17.782	0.156	-0.099
-737.054	315.410	-0.148	-0.280
-736.039	-67.781	-0.008	0.003
-735.025	154.992	-0.057	-0.079
-734.010	-8.346	-0.088	-0.060
-732.996	-0.056	0.029	-0.021
-731.981	-63.327	-0.183	0.076
-730.966	-200.000	-0.070	-0.403
-729.952	-75.639	-0.144	0.052
-728.937	-151.181	0.134	0.010
-727.923	-200.000	0.067	0.303
-726.908	-73.202	-0.311	-0.114
-725.894	665.534	-0.138	0.357
-724.879	-130.730	0.109	0.015
-723.864	28.484	0.222	-0.188
-722.850	340.710	0.155	-0.305
-721.835	96.181	-0.247	-0.283
-720.821	-4.619	-0.239	-0.166
-719.806	-200.000	-0.022	0.182
-718.791	-40.772	-0.080	-0.042
-717.777	-25.436	0.292	-0.173
-716.762	26.000	-0.091	-0.076
-715.748	-105.943	0.143	-0.032
-714.733	800.000	-0.105	-0.339
-713.718	-200.000	0.007	-0.202
-712.704	8.154	-0.094	0.071
-711.689	-59.575	-0.068	-0.029
-710.675	-200.000	-0.020	-0.140
-709.660	-22.900	0.161	-0.098
-708.645	126.764	0.069	-0.088
-707.631	11.972	-0.207	0.160
-706.616	139.021	0.164	0.217
-705.602	324.896	0.105	0.202
-704.587	678.731	-0.033	0.086
-703.572	-41.258	0.381	-0.197
-702.558	-200.000	-0.006	-0.181
-701.543	-200.000	0.035	-0.183
-700.529	52.242	-0.264	-0.253
-699.514	252.282	-0.145	0.248
-698.499	800.000	0.033	-0.112
-697.485	326.587	0.135	-0.260
-696.470	-174.793	0.235	-0.007
-695.456	-96.854	-0.125	-0.033
-694.441	-8.449	0.086	0.058
-693.426	-33.460	-0.376	-0.209
-692.412	800.000	0.113	0.347
-691.397	-200.000	-0.000	-0.136
-690.383	-200.000	0.010	-0.447
-689.368	-137.610	-0.439	-0.050
-688.354	119.487	0.163	0.202
-687.339	-102.182	-0.353	0.085
-686.324	-200.000	0.059	-0.310
-685.310	191.711	0.096	0.145
-684.295	-175.245	0.189	0.005
-683.281	-142.293	-0.070	0.007
-682.266	-171.149	0.170	-0.006
-681.251	-36.352	-0.133	-0.072
-680.237	-118.711	0.508	-0.090
-679.222	177.687	-0.058	-0.085
-678.208	-79.339	0.149	-0.051
-677.193	-90.464	-0.268	0.078
-676.178	-119.691	0.169	0.029
-675.164	-200.000	-0.029	-0.246
-674.149	800.000	-0.061	-0.260
-673.135	-23.851	-0.332	-0.199
-672.120	37.664	-0.048	0.043
-671.105	-200.000	0.011	0.169
-670.091	-200.000	0.015	0.154
-669.076	-105.637	0.296	-0.067
-668.062	-37.655	-0.273	-0.146
-667.047	-200.000	-0.035	-0.368
-666.032	-131.129	-0.262	-0.035
-665.018	-11.186	0.138	0.091
-664.003	-200.000	-0.052	-0.228
-662.989	9.824	0.096	-0.073
-661.974	124.211	0.073	-0.092
-660.959	800.000	-0.026	0.094
-659.945	677.152	-0.036	-0.093
-658.930	-47.641	-0.182	-0.088
-657.916	57.801	0.115	0.113
-656.901	-200.000	-0.013	0.144
-655.886	-112.674	0.260	-0.052
-654.872	-73.699	-0.297	-0.108
-653.857	305.656	-0.036	-0.068
-652.843	-96.315	0.070	-0.019
-651.828	60.171	0.171	-0.169
-650.814	-100.523	-0.395	0.098
-649.799	-200.000	0.027	0.352
-648.784	10.372	0.312	0.238
-647.770	-127.074	0.331	0.049
-646.755	307.249	0.131	-0.244
-645.741	4.532	-0.188	0.138
-644.726	-173.427	0.061	0.002
-643.711	-53.621	0.047	0.022
-642.697	-200.000	0.014	-0.128
-641.682	-85.787	-0.251	-0.078
-640.668	126.612	0.242	0.307
-639.653	-162.863	0.296	0.014
-638.638	-114.076	-0.349	0.068
-637.624	-107.537	-0.145	0.032
-636.609	82.968	0.166	-0.180
-635.595	54.858	0.194	-0.187
-634.580	20.379	0.026	-0.021
-633.565	-9.203	0.103	0.069
-632.551	-75.860	-0.447	0.159
-631.536	-200.000	-0.036	-0.160
-630.522	800.000	-0.018	0.059
-629.507	-53.884	0.144	0.066
-628.492	-54.846	0.308	-0.139
-627.478	20.065	0.204	0.164
-626.463	-73.740	-0.280	0.102
-625.449	-125.326	0.128	-0.020
-624.434	-120.520	-0.306	-0.052
-623.419	318.907	0.129	-0.246
-622.405	800.000	0.090	-0.331
-621.390	-6.376	0.093	0.063
-620.376	542.598	-0.053	0.126
-619.361	-15.228	0.060	0.039
-618.346	6.014	0.067	-0.049
-617.332	7.034	0.035	-0.026
-616.317	90.418	0.061	-0.069
-615.303	-146.683	-0.207	-0.018
-614.288	235.482	-0.055	-0.090
-613.273	92.933	-0.221	-0.250
-612.259	71.451	-0.273	-0.284
-611.244	110.731	0.068	0.081
-610.230	616.214	-0.106	-0.267
-609.215	-34.240	0.252	0.138
-608.201	108.507	0.253	0.302
-607.186	4.276	-0.188	-0.138
-606.171	-200.000	-0.020	-0.176
-605.157	-52.821	0.121	0.056
-604.142	422.809	-0.082	-0.177
-603.128	-23.050	-0.123	-0.074
-602.113	-200.000	0.135	0.000
-601.098	97.228	0.065	0.075
-600.084	12.367	0.117	0.090
-599.069	101.458	0.150	-0.175
-598.055	-105.285	-0.308	-0.070
-597.040	-96.442	-0.261	-0.069
-596.025	800.000	0.038	-0.125
-595.011	187.063	-0.284	-0.423
-593.996	800.000	-0.078	0.253
-592.982	670.786	-0.044	0.113
-591.967	119.497	0.139	-0.172
-590.952	-200.000	-0.007	0.097
-589.938	800.000	0.069	0.195
-588.923	-200.000	-0.018	0.281
-587.909	-87.947	-0.277	-0.083
-586.894	-200.000	0.007	-0.259
-585.879	-90.868	-0.300	0.086
-584.865	-200.000	-0.019	-0.145
-583.850	-154.063	0.078	-0.005
-582.836	-200.000	0.082	0.466
-581.821	149.233	-0.185	-0.250
-580.806	638.208	0.092	0.233
-579.792	-34.641	-0.185	0.101
-578.777	-19.323	-0.227	0.141
-577.763	212.733	-0.090	-0.143
-576.748	-122.197	-0.266	0.044
-575.733	-200.000	-0.079	0.408
-574.719	158.625	0.063	-0.087
-573.704	-146.022	0.303	0.027
-572.690	2.499	-0.429	-0.310
-571.675	-129.997	0.263	-0.036
-570.661	-28.893	-0.173	-0.100
-569.646	469.525	-0.056	0.126
-568.631	62.879	0.172	-0.172
-567.617	-200.000	-0.022	0.142
-566.602	199.873	0.161	0.247
-565.588	109.592	0.108	0.130
-564.573	226.100	0.049	0.080
-563.558	-129.229	-0.242	-0.034
-562.544	-200.000	0.035	-0.435
-561.529	-43.493	-0.033	0.016
-560.515	61.037	-0.310	0.308
-559.500	79.393	0.291	-0.311
-558.485	99.087	0.245	-0.283
-557.471	-36.988	-0.114	-0.061
-556.456	-147.145	-0.413	0.035
-555.442	-86.490	-0.077	-0.024
-554.427	-60.594	-0.167	0.071
-553.412	-139.105	-0.258	0.028
-552.398	239.871	0.062	-0.104
-551.383	309.334	-0.248	0.462
-550.369	-144.340	-0.205	0.019
-549.354	256.182	-0.074	-0.126
-548.339	-200.000	0.023	0.423
-547.325	-164.215	-0.231	-0.011
-546.310	192.810	0.291	0.438
-545.296	800.000	0.100	-0.313
-544.281	72.409	-0.031	0.033
-543.266	800.000	-0.056	0.177
-542.252	-50.631	0.360	0.169
-541.237	490.996	0.089	-0.204
-540.223	-131.343	-0.182	-0.024
-539.208	-200.000	-0.047	-0.231
-538.193	168.849	-0.100	0.143
-537.179	646.700	-0.148	-0.377
-536.164	240.779	0.130	0.216
-535.150	-45.573	-0.099	-0.049
-534.135	-119.320	0.014	0.002
-533.121	-115.820	0.296	-0.055
-532.106	179.239	-0.076	0.111
-531.091	-200.000	-0.019	-0.138
-530.077	800.000	-0.027	0.104
-529.062	-138.911	-0.139	-0.015
-528.048	800.000	0.108	0.344
-527.033	-114.479	-0.034	0.006
-526.018	-40.679	-0.201	0.104
-525.004	213.197	-0.052	0.082
-523.989	-200.000	-0.009	-0.116
-522.975	-99.360	0.193	0.048
-521.960	-200.000	-0.032	0.158
-520.945	16.421	0.165	0.130
-519.931	-21.388	-0.462	0.281
-518.916	-22.896	-0.345	0.207
-517.902	-200.000	-0.012	0.057
-516.887	-103.281	0.090	-0.021
-515.872	-169.223	0.190	0.007
-514.858	-141.759	0.115	-0.011
-513.843	5.693	0.261	-0.192
-512.829	119.681	-0.209	0.259
-511.814	800.000	-0.088	-0.269
-510.799	-200.000	-0.005	-0.076
-509.785	-74.172	0.334	0.120
-508.770	800.000	0.020	-0.078
-507.756	-189.081	0.134	-0.002
-506.741	516.459	-0.018	0.041
-505.726	-200.000	-0.029	0.265
-504.712	181.113	0.099	0.145
-503.697	-137.969	-0.072	0.008
-502.683	20.498	0.132	-0.107
-501.668	110.017	-0.316	0.378
-500.653	-200.000	-0.010	0.453
-499.639	-102.846	-0.157	-0.037
-498.624	514.031	0.064	-0.149
-497.610	220.264	-0.039	0.063
-496.595	66.181	-0.164	-0.166
-495.581	63.948	-0.371	0.372
-494.566	175.805	0.160	-0.231
-493.551	279.912	0.146	0.260
-492.537	421.832	0.064	-0.136
-491.522	354.516	0.120	-0.237
-490.508	-26.189	-0.145	0.085
-489.493	-200.000	-0.438	0.000
-488.478	135.149	0.171	-0.222
-487.464	5.308	-0.231	-0.169
-486.449	-200.000	0.007	0.235
-485.435	47.411	-0.087	0.081
-484.420	-200.000	-0.012	0.172
-483.405	-135.298	-0.016	0.002
-482.391	-123.050	-0.250	0.040
-481.376	64.112	0.276	0.277
-480.362	800.000	0.087	-0.244
-479.347	-200.000	-0.073	-0.347
-478.332	238.547	-0.131	-0.216
-477.318	20.918	0.201	-0.162
-476.303	1.887	-0.118	0.085
-475.289	-66.954	-0.095	0.037
-474.274	6.433	0.128	0.095
-473.259	-144.071	-0.241	-0.023
-472.245	284.369	0.069	-0.123
-471.230	-118.263	0.011	-0.002
-470.216	-55.524	-0.103	0.046
-469.201	218.768	0.071	0.114
-468.186	50.505	-0.233	0.219
-467.172	772.177	-0.119	0.324
-466.157	218.105	0.234	0.371
-465.143	-57.582	-0.154	0.067
-464.128	-161.671	-0.185	0.009
-463.113	104.234	0.277	-0.324
-462.099	-200.000	0.030	0.244
-461.084	800.000	-0.075	-0.237
-460.070	-200.000	0.019	0.095
-459.055	23.794	-0.404	0.331
-458.040	-200.000	0.012	0.162
-457.026	193.555	-0.146	-0.219
-456.011	281.983	0.049	0.088
-454.997	-200.000	0.009	0.155
-453.982	-200.000	-0.035	-0.181
-452.968	18.580	0.038	-0.030
-451.953	800.000	0.040	0.119
-450.938	235.155	-0.148	0.242
-449.924	-200.000	-0.032	0.231
-448.909	-189.667	-0.231	-0.003
-447.895	-200.000	-0.002	-0.019
-446.880	-82.586	-0.143	0.046
-445.865	326.073	-0.072	-0.136
-444.851	-200.000	-0.051	-0.311
-443.836	114.866	-0.155	-0.188
-442.822	800.000	-0.075	-0.227
-441.807	537.877	-0.053	-0.124
-440.792	-161.009	0.227	-0.012
-439.778	-200.000	0.005	-0.151
-438.763	103.565	0.157	-0.184
-437.749	-8.973	0.136	0.090
-436.734	-38.192	-0.276	-0.145
-435.719	-95.517	-0.180	-0.048
-434.705	800.000	0.063	0.194
-433.690	228.259	0.146	0.236
-432.676	800.000	-0.031	0.094
-431.661	-200.000	-0.022	-0.375
-430.646	-200.000	-0.020	-0.211
-429.632	-76.618	-0.138	-0.048
-428.617	800.000	-0.083	-0.356
-427.603	-200.000	0.036	0.276
-426.588	-200.000	0.022	0.192
-425.573	-136.108	-0.137	0.016
-424.559	112.392	-0.113	-0.136
-423.544	-105.132	0.295	-0.067
-422.530	16.446	-0.473	-0.371
-421.515	35.137	-0.077	-0.067
-420.500	-23.052	0.016	0.010
-419.486	-200.000	0.030	-0.146
-418.471	-172.618	-0.423	0.013
-417.457	-57.806	0.169	0.074
-416.442	689.225	-0.088	0.228
-415.428	413.759	0.016	-0.033
-414.413	-23.063	-0.145	-0.087
-413.398	-158.707	0.345	-0.020
-412.384	108.723	0.139	-0.165
-411.369	-200.000	0.031	0.243
-410.355	-184.955	0.282	-0.004
-409.340	-200.000	-0.001	0.097
-408.325	800.000	-0.020	-0.059
-407.311	-20.785	-0.281	0.171
-406.296	-125.215	0.132	-0.020
-405.282	-200.000	-0.036	0.164
-404.267	265.410	-0.088	0.153
-403.252	29.602	0.148	0.125
-402.238	-200.000	0.048	-0.485
-401.223	-111.915	0.153	-0.031
-400.209	19.432	0.308	0.245
-399.194	-156.924	-0.472	-0.029
-398.179	41.492	0.154	-0.138
-397.165	-122.653	-0.430	-0.069
-396.150	800.000	0.031	0.104
-395.136	373.871	0.108	0.219
-394.121	402.166	-0.060	-0.125
-393.106	-22.937	-0.202	-0.121
-392.092	76.133	0.094	-0.098
-391.077	-64.760	-0.103	-0.041
-390.063	57.451	-0.145	0.141
-389.048	-52.992	-0.060	-0.027
-388.033	-2.979	0.249	0.172
-387.019	-86.841	-0.180	0.055
-386.004	800.000	0.026	0.112
-384.990	-81.443	-0.258	0.084
-383.975	95.034	-0.070	-0.079
-382.960	-200.000	0.018	0.129
-381.946	-68.548	-0.184	0.071
-380.931	247.513	0.148	-0.247
-379.917	123.519	-0.065	-0.080
-378.902	-52.793	-0.059	0.027
-377.888	39.114	0.079	0.070
-376.873	157.567	-0.075	-0.103
-375.858	195.419	0.075	0.113
-374.844	-163.240	-0.239	0.011
-373.829	-182.377	-0.082	0.002
-372.815	18.439	0.137	0.109
-371.800	-18.364	-0.222	0.137
-370.785	800.000	-0.055	0.225
-369.771	-17.710	-0.137	0.085
-368.756	53.591	0.037	0.036
-367.742	-43.332	0.130	0.065
-366.727	182.651	-0.158	-0.232
-365.712	-200.000	-0.033	-0.338
-364.698	450.862	0.056	-0.122
-363.683	-20.017	0.165	0.101
-362.669	546.086	0.104	-0.247
-361.654	0.292	-0.154	-0.109
-360.639	-200.000	0.084	0.448
-359.625	-116.309	-0.192	-0.035
-358.610	800.000	0.074	-0.279
-357.596	-106.088	-0.316	-0.070
-356.581	-80.917	0.348	0.114
-355.566	91.064	-0.213	-0.237
-354.552	223.876	-0.145	0.233
-353.537	44.937	0.319	0.291
-352.523	13.424	0.140	0.107
-351.508	-200.000	0.018	-0.111
-350.493	-51.531	-0.217	-0.101
-349.479	14.258	0.120	0.092
-348.464	800.000	-0.032	-0.104
-347.450	554.885	0.083	-0.198
-346.435	-146.022	0.186	-0.016
-345.420	-200.000	-0.005	-0.116
-344.406	134.430	0.183	-0.234
-343.391	-93.517	0.162	0.044
-342.377	7.104	-0.150	-0.110
-341.362	-41.639	0.258	0.131
-340.348	-200.000	0.011	0.048
-339.333	52.326	0.260	-0.245
-338.318	-200.000	-0.013	0.161
-337.304	23.921	0.191	0.156
-336.289	-160.895	0.530	-0.028
-335.275	160.475	0.103	0.142
-334.260	-58.097	-0.226	-0.097
-333.245	-200.000	-0.006	-0.146
-332.231	-200.000	0.015	0.166
-331.216	-25.764	0.080	-0.047
-330.202	147.271	-0.113	0.150
-329.187	800.000	0.068	0.223
-328.172	743.222	0.028	-0.075
-327.158	-176.721	-0.187	-0.005
-326.143	-13.829	0.224	0.143
-325.129	-81.592	0.383	-0.124
-324.114	71.124	0.148	0.152
-323.099	175.006	-0.201	0.288
-322.085	-134.758	-0.146	-0.018
-321.070	-57.456	0.231	-0.100
-320.056	631.417	0.101	-0.252
-319.041	-130.811	-0.288	-0.038
-318.026	261.425	0.124	-0.213
-317.012	-101.402	-0.215	0.052
-315.997	172.542	-0.078	-0.111
-314.983	-200.000	-0.013	0.088
-313.968	-86.180	0.399	0.122
-312.953	178.236	0.164	0.237
-311.939	-95.055	-0.166	-0.044
-310.924	422.715	0.100	-0.212
-309.910	-200.000	-0.046	0.297
-308.895	185.685	0.198	-0.290
-307.880	-200.000	-0.020	-0.193
-306.866	-64.869	-0.242	-0.097
-305.851	24.332	0.145	-0.118
-304.837	-200.000	-0.004	0.060
-303.822	-200.000	-0.046	-0.220
-302.807	167.617	0.035	0.049
-301.793	-99.810	-0.044	0.011
-300.778	-200.000	0.004	-0.327
-299.764	52.372	-0.023	-0.021
-298.749	-98.125	0.243	-0.062
-297.735	-50.636	-0.387	-0.180
-296.720	63.209	0.163	-0.161
-295.705	638.619	-0.077	-0.194
-294.691	-48.182	-0.127	0.061
-293.676	800.000	0.056	-0.198
-292.662	-200.000	-0.025	-0.315
-291.647	89.225	-0.142	-0.156
-290.632	-47.657	0.270	0.129
-289.618	33.810	0.120	-0.103
-288.603	-96.545	-0.134	-0.035
-287.589	123.245	0.115	0.142
-286.574	-200.000	0.001	0.006
-285.559	-161.462	0.497	-0.025
-284.545	139.962	0.085	0.111
-283.530	27.748	-0.103	-0.086
-282.516	-200.000	-0.000	-0.117
-281.501	88.235	0.271	-0.297
-280.486	-178.755	-0.341	-0.008
-279.472	20.719	0.236	-0.189
-278.457	-37.046	-0.084	0.044
-277.443	95.386	-0.039	-0.044
-276.428	800.000	-0.020	-0.067
-275.413	643.580	0.032	-0.080
-274.399	101.926	0.293	0.338
-273.384	699.405	-0.006	-0.016
-272.370	-200.000	-0.038	-0.172
-271.355	-176.956	0.224	0.006
-270.340	-29.917	-0.203	-0.114
-269.326	-200.000	0.031	0.137
-268.311	-61.425	0.160	-0.066
-267.297	64.541	0.160	0.159
-266.282	-97.362	0.113	0.029
-265.267	55.917	0.109	-0.105
-264.253	59.527	0.039	0.038
-263.238	233.853	0.128	0.209
-262.224	-200.000	-0.026	-0.130
-261.209	152.271	0.120	0.162
-260.195	3.028	-0.104	0.075
-259.180	-82.005	0.170	-0.055
-258.165	-200.000	0.033	0.209
-257.151	800.000	-0.092	0.348
-256.136	367.241	-0.162	-0.322
-255.122	-86.330	-0.280	0.085
-254.107	578.005	-0.131	0.316
-253.092	233.364	0.028	-0.045
-252.078	409.741	-0.081	-0.170
-251.063	-124.816	0.188	-0.029
-250.049	154.138	0.234	-0.317
-249.034	800.000	0.045	-0.146
-248.019	97.810	0.152	0.173
-247.005	-16.624	-0.124	-0.078
-245.990	800.000	-0.060	-0.200
-244.976	7.968	0.070	-0.052
-243.961	81.929	0.055	-0.059
-242.946	21.587	-0.251	0.202
-241.932	69.724	0.176	-0.179
-240.917	156.908	0.097	-0.132
-239.903	-145.386	-0.312	-0.028
-238.888	-200.000	0.009	-0.124
-237.873	800.000	0.031	-0.116
-236.859	198.911	-0.056	-0.084
-235.844	166.166	-0.085	-0.118
-234.830	564.696	0.087	-0.208
-233.815	360.434	0.050	-0.098
-232.800	-200.000	-0.019	0.214
-231.786	539.773	0.026	0.060
-230.771	-200.000	0.006	-0.360
-229.757	516.375	-0.099	-0.229
-228.742	77.173	0.239	0.250
-227.727	441.010	0.075	-0.161
-226.713	-57.443	0.136	-0.059
-225.698	800.000	0.099	-0.274
-224.684	-25.347	-0.266	-0.155
-223.669	122.150	-0.101	0.124
-222.655	215.335	0.197	-0.308
-221.640	292.124	-0.064	-0.115
-220.625	-200.000	0.006	0.032
-219.611	-54.904	0.133	0.059
-218.596	38.607	-0.196	0.172
-217.582	-50.837	0.383	0.177
-216.567	113.226	0.058	0.069
-215.552	394.736	-0.079	-0.162
-214.538	-106.219	0.308	-0.068
-213.523	-200.000	-0.056	-0.267
-212.509	0.143	-0.204	0.143
-211.494	800.000	-0.050	0.203
-210.479	43.600	0.294	0.265
-209.465	45.138	0.208	0.188
-208.450	-82.598	0.344	0.110
-207.436	76.098	-0.218	-0.228
-206.421	22.750	-0.268	0.216
-205.406	74.369	0.147	-0.152
-204.392	800.000	-0.060	0.192
-203.377	16.888	0.399	0.311
-202.363	-93.888	-0.231	-0.063
-201.348	776.907	-0.061	0.163
-200.333	171.306	-0.173	0.245
-199.319	-135.603	0.119	0.014
-198.304	120.662	0.101	-0.124
-197.290	-71.967	0.254	0.093
-196.275	-104.597	0.481	0.109
-195.260	618.509	-0.086	-0.212
-194.246	-69.570	0.162	-0.061
-193.231	-61.381	0.180	0.074
-192.217	330.421	0.064	0.121
-191.202	-46.364	-0.453	0.219
-190.187	-200.000	-0.033	-0.162
-189.173	800.000	0.043	-0.149
-188.158	-45.499	0.101	-0.049
-187.144	800.000	-0.066	-0.180
-186.129	-200.000	0.008	0.299
-185.114	9.899	-0.206	0.154
-184.100	-200.000	-0.060	0.340
-183.085	35.231	0.316	-0.272
-182.071	50.426	0.305	-0.283
-181.056	-200.000	-0.028	0.186
-180.042	165.926	-0.079	0.110
-179.027	-15.615	-0.062	-0.039
-178.012	-200.000	-0.064	0.279
-176.998	11.130	0.110	0.083
-175.983	581.172	0.057	-0.137
-174.969	-110.413	0.193	0.039
-173.954	800.000	-0.101	0.289
-172.939	175.628	-0.062	0.089
-171.925	-147.162	0.089	0.007
-170.910	240.981	0.129	-0.212
-169.896	565.900	0.149	0.356
-168.881	-144.738	0.505	-0.046
-167.866	-113.639	-0.102	0.020
-166.852	-117.379	-0.078	0.014
-165.837	-16.145	0.035	-0.022
-164.823	118.667	0.152	0.184
-163.808	-86.757	0.302	-0.091
-162.793	-200.000	-0.060	0.266
-161.779	-175.364	-0.333	0.009
-160.764	53.988	-0.188	0.177
-159.750	109.666	-0.113	-0.133
-158.735	129.545	-0.096	-0.120
-157.720	168.668	0.125	-0.175
-156.706	-152.481	0.270	0.019
-155.691	103.444	-0.236	-0.272
-154.677	-175.023	0.293	0.008
-153.662	-68.122	-0.205	-0.079
-152.647	-19.363	0.246	0.150
-151.633	-120.451	-0.279	0.047
-150.618	69.113	0.159	0.161
-149.604	114.115	0.076	0.090
-148.589	187.984	-0.075	-0.110
-147.574	-200.000	0.029	0.212
-146.560	-200.000	0.008	0.301
-145.545	-200.000	0.019	0.130
-144.531	-200.000	-0.013	0.171
-143.516	-200.000	0.050	-0.314
-142.502	-9.027	0.056	-0.037
-141.487	-116.755	-0.381	0.069
-140.472	537.016	0.137	-0.319
-139.458	71.423	-0.116	0.119
-138.443	-200.000	0.035	-0.257
-137.429	-154.741	0.388	0.025
-136.414	-200.000	0.016	0.072
-135.399	4.860	-0.229	0.166
-134.385	97.325	0.267	0.301
-133.370	56.844	-0.033	-0.032
-132.356	800.000	-0.062	0.195
-131.341	-79.930	0.249	0.082
-130.326	800.000	0.050	0.150
-129.312	800.000	0.040	-0.133
-128.297	159.174	0.146	-0.200
-127.283	47.070	-0.176	-0.161
-126.268	-187.074	-0.156	0.002
-125.253	-40.702	-0.347	-0.176
-124.239	-200.000	-0.035	-0.176
-123.224	314.600	-0.104	0.192
-122.210	669.302	0.029	0.074
-121.195	-1.163	0.109	-0.076
