DTS Sentinel unit serial number:	SN413079Multiplexer serial number:	ORYXHardware model number:	OX4-SRSoftware version number:	ORYX F/W v4.00 Oryx Data Collector v3.7.2.0data status	okinstallation	princeton_trtdifferential loss correction	single-endedforward channel	channel 1reverse channel	N/Adate	2019/09/19time	11:30:35forward acquisition time	60.00reverse acquisition time	0.00gamma	496.2192k internal	0.2338k external	0.2338temperature offset calibration	1.0009default loss term (dB/km)	0.3790temperature slope calibration	1.0000multiplexer offset coefficient	1.0000multiplexer slope coefficient	1.0000fibre end	0.00T internal ref (°C)	25.41T ext. ref 1 (°C)	0.79T ext. ref 2 (°C)	21.28length (m)	temperature (°C)	Stokes	anti-Stokes-747.200	-134.554	-0.077	-0.009
-746.185	42.055	0.161	0.146
-745.171	172.719	-0.126	0.182
-744.156	-23.192	0.120	0.073
-743.142	800.000	0.054	-0.153
-742.127	-200.000	-0.032	-0.161
-741.112	351.221	0.040	-0.079
-740.098	238.486	-0.129	0.216
-739.083	97.807	0.283	-0.326
-738.069	-200.000	0.015	0.121
-737.054	173.888	-0.081	0.118
-736.039	28.133	-0.186	-0.157
-735.025	800.000	0.013	-0.047
-734.010	-39.547	-0.131	-0.069
-732.996	77.419	-0.345	-0.368
-731.981	355.671	0.076	-0.151
-730.966	190.545	0.133	-0.201
-729.952	-160.895	-0.293	0.016
-728.937	163.782	-0.107	0.151
-727.923	800.000	0.009	0.028
-726.908	-200.000	-0.001	0.199
-725.894	218.900	0.079	0.127
-724.879	171.286	0.355	0.511
-723.864	-111.213	0.388	-0.080
-722.850	38.657	-0.079	0.071
-721.835	-25.112	0.208	-0.123
-720.821	155.867	-0.356	-0.491
-719.806	-90.283	-0.219	0.064
-718.791	-144.813	-0.205	-0.019
-717.777	-88.998	-0.094	-0.028
-716.762	280.855	-0.119	-0.213
-715.748	667.567	-0.092	0.239
-714.733	39.619	-0.240	-0.216
-713.718	319.549	0.126	-0.240
-712.704	30.971	-0.127	0.109
-711.689	-200.000	-0.005	0.091
-710.675	-56.907	-0.362	0.160
-709.660	-126.358	-0.224	-0.033
-708.645	-77.143	-0.204	-0.071
-707.631	-124.651	0.197	0.031
-706.616	-183.481	-0.365	-0.006
-705.602	-7.855	0.152	0.103
-704.587	-87.781	-0.209	-0.063
-703.572	65.552	-0.198	-0.201
-702.558	668.058	-0.099	0.258
-701.543	-129.743	-0.023	0.003
-700.529	145.323	-0.163	-0.219
-699.514	-200.000	-0.003	0.051
-698.499	41.341	-0.193	0.175
-697.485	-200.000	-0.018	-0.124
-696.470	-140.565	0.215	-0.022
-695.456	0.855	0.153	0.110
-694.441	800.000	-0.068	0.227
-693.426	162.266	-0.057	0.081
-692.412	-200.000	-0.017	0.081
-691.397	-19.415	0.305	-0.189
-690.383	-112.091	0.211	-0.043
-689.368	-200.000	-0.002	0.061
-688.354	-200.000	-0.062	0.409
-687.339	148.880	0.130	-0.176
-686.324	-200.000	-0.044	0.319
-685.310	800.000	0.099	0.302
-684.295	-105.452	0.181	-0.041
-683.281	-115.120	-0.203	0.039
-682.266	-144.743	-0.132	-0.012
-681.251	-200.000	0.046	-0.382
-680.237	407.621	-0.092	-0.195
-679.222	-148.455	0.508	0.042
-678.208	800.000	0.091	0.293
-677.193	81.391	0.132	0.143
-676.178	145.153	0.045	0.060
-675.164	157.190	-0.131	0.181
-674.149	-66.420	-0.057	-0.023
-673.135	-7.271	-0.229	-0.156
-672.120	22.955	-0.257	-0.211
-671.105	800.000	0.043	-0.175
-670.091	800.000	-0.029	-0.106
-669.076	800.000	0.013	0.039
-668.062	764.318	-0.155	-0.422
-667.047	247.513	0.106	0.180
-666.032	189.997	0.121	0.182
-665.018	-112.837	0.047	0.009
-664.003	290.489	0.144	-0.261
-662.989	356.575	0.110	0.220
-661.974	-33.877	-0.274	0.151
-660.959	147.388	0.243	0.328
-659.945	111.413	-0.159	-0.192
-658.930	-57.746	0.350	0.153
-657.916	494.398	0.042	-0.097
-656.901	-109.938	-0.220	0.046
-655.886	210.081	-0.131	0.206
-654.872	-120.742	-0.155	-0.026
-653.857	800.000	0.086	0.241
-652.843	128.518	-0.180	-0.230
-651.828	77.685	-0.133	-0.142
-650.814	53.149	-0.090	-0.086
-649.799	12.497	0.051	0.040
-648.784	-185.955	0.085	0.001
-647.770	21.655	-0.329	0.268
-646.755	800.000	0.042	-0.150
-645.741	-200.000	-0.014	0.064
-644.726	266.687	0.174	0.304
-643.711	-189.004	-0.119	-0.001
-642.697	182.671	0.226	0.333
-641.682	26.901	-0.239	0.200
-640.668	800.000	-0.009	0.032
-639.653	137.719	-0.081	0.106
-638.638	71.616	-0.264	0.274
-637.624	-1.697	-0.175	0.123
-636.609	303.295	-0.105	-0.194
-635.595	-200.000	-0.099	-0.441
-634.580	-52.377	-0.312	0.145
-633.565	800.000	0.024	-0.076
-632.551	-99.705	0.154	0.039
-631.536	50.824	0.006	0.006
-630.522	-182.562	-0.052	0.001
-629.507	-90.576	0.455	-0.132
-628.492	-200.000	0.022	-0.300
-627.478	89.127	0.119	-0.132
-626.463	-200.000	-0.009	-0.050
-625.449	-49.438	-0.041	-0.019
-624.434	-109.022	-0.196	0.042
-623.419	800.000	-0.089	-0.244
-622.405	-136.898	-0.007	0.001
-621.390	393.114	-0.137	-0.285
-620.376	370.789	0.108	-0.219
-619.361	543.158	0.115	-0.275
-618.346	-127.764	0.122	0.018
-617.332	800.000	0.017	0.051
-616.317	-200.000	-0.056	0.342
-615.303	800.000	-0.080	-0.330
-614.288	-102.417	-0.105	0.025
-613.273	30.495	0.230	0.196
-612.259	-200.000	-0.024	-0.140
-611.244	-64.719	-0.075	-0.031
-610.230	151.036	0.155	-0.211
-609.215	-200.000	-0.004	-0.259
-608.201	113.501	-0.059	-0.072
-607.186	16.516	0.410	-0.323
-606.171	-200.000	0.010	-0.074
-605.157	109.432	-0.207	-0.247
-604.142	-102.200	0.122	0.029
-603.128	-200.000	-0.001	-0.082
-602.113	142.583	-0.271	-0.360
-601.098	-96.145	-0.105	-0.028
-600.084	570.589	-0.075	-0.183
-599.069	18.335	-0.228	-0.182
-598.055	506.349	0.057	-0.132
-597.040	-59.945	-0.106	0.045
-596.025	-25.094	0.180	0.106
-595.011	408.696	0.020	-0.043
-593.996	144.070	0.164	0.218
-592.982	170.047	0.127	0.182
-591.967	-52.569	-0.299	-0.138
-590.952	-60.813	-0.148	0.062
-589.938	497.974	0.153	0.352
-588.923	43.633	-0.152	-0.139
-587.909	59.376	-0.299	-0.294
-586.894	-68.011	0.264	0.103
-585.879	303.839	0.137	0.253
-584.865	-200.000	0.035	0.262
-583.850	800.000	0.065	-0.201
-582.836	-117.582	0.147	-0.027
-581.821	191.275	0.193	0.290
-580.806	-200.000	0.000	-0.236
-579.792	53.388	0.051	-0.049
-578.777	-28.983	0.114	-0.065
-577.763	-58.468	0.247	-0.107
-576.748	-200.000	-0.002	0.067
-575.733	21.501	-0.254	0.206
-574.719	-148.433	-0.236	-0.019
-573.704	-74.904	0.053	0.019
-572.690	214.127	0.180	-0.284
-571.675	800.000	-0.062	0.264
-570.661	173.445	0.179	-0.257
-569.646	367.221	0.063	-0.127
-568.631	133.519	0.146	-0.189
-567.617	-51.468	0.021	-0.010
-566.602	61.228	-0.130	-0.129
-565.588	285.092	0.094	-0.169
-564.573	-137.689	0.231	0.026
-563.558	-200.000	0.048	0.298
-562.544	165.062	-0.166	0.234
-561.529	-200.000	0.033	0.371
-560.515	355.620	0.070	0.139
-559.500	181.357	-0.113	-0.165
-558.485	-151.456	0.234	0.017
-557.471	172.819	-0.101	0.146
-556.456	19.833	-0.150	0.120
-555.442	61.264	-0.188	0.186
-554.427	800.000	-0.088	0.314
-553.412	-111.408	0.071	-0.014
-552.398	125.349	0.306	-0.385
-551.383	530.333	-0.068	-0.159
-550.369	-88.792	-0.145	-0.043
-549.354	54.091	0.153	0.146
-548.339	-82.164	-0.151	-0.049
-547.325	800.000	-0.090	-0.253
-546.310	-133.389	-0.105	0.013
-545.296	375.994	0.180	-0.366
-544.281	-119.018	0.384	0.067
-543.266	-86.137	-0.087	0.027
-542.252	41.279	0.181	0.163
-541.237	19.183	0.197	0.157
-540.223	-200.000	0.030	-0.178
-539.208	-200.000	-0.036	-0.228
-538.193	800.000	0.030	0.089
-537.179	20.929	0.040	0.032
-536.164	-75.184	-0.062	0.022
-535.150	-137.792	0.115	0.013
-534.135	-200.000	-0.043	0.311
-533.121	-156.901	-0.152	0.009
-532.106	800.000	-0.042	-0.119
-531.091	-122.983	-0.234	-0.038
-530.077	-161.800	0.388	0.020
-529.062	147.818	0.058	0.077
-528.048	-17.926	-0.255	0.159
-527.033	-22.846	0.237	0.142
-526.018	584.235	-0.109	-0.267
-525.004	-96.783	0.201	-0.053
-523.989	277.349	-0.084	0.149
-522.975	-39.652	-0.374	0.194
-521.960	8.183	0.098	-0.073
-520.945	229.542	0.037	-0.060
-519.931	-59.737	-0.286	-0.122
-518.916	-93.327	0.313	-0.087
-517.902	-86.095	0.305	-0.094
-516.887	800.000	-0.070	-0.213
-515.872	-200.000	-0.060	-0.366
-514.858	-13.578	-0.129	0.083
-513.843	264.621	0.201	0.347
-512.829	800.000	0.030	0.107
-511.814	23.047	0.069	0.056
-510.799	382.004	0.025	-0.051
-509.785	-200.000	-0.064	-0.557
-508.770	486.162	0.071	0.160
-507.756	182.709	0.030	0.044
-506.741	-200.000	0.035	-0.291
-505.726	-200.000	-0.007	0.086
-504.712	-40.500	0.144	-0.074
-503.697	-78.646	0.545	0.185
-502.683	-200.000	-0.016	0.228
-501.668	-33.744	0.204	-0.112
-500.653	555.387	0.056	-0.135
-499.639	-200.000	0.004	-0.188
-498.624	-53.401	0.143	0.065
-497.610	-79.172	0.279	0.094
-496.595	18.295	0.040	-0.032
-495.581	-200.000	-0.005	0.221
-494.566	122.866	-0.062	-0.077
-493.551	800.000	0.141	-0.392
-492.537	-125.240	-0.164	0.025
-491.522	196.723	0.212	-0.321
-490.508	479.038	0.158	-0.355
-489.493	-12.672	-0.324	-0.210
-488.478	121.763	-0.144	0.179
-487.464	340.945	-0.035	-0.068
-486.449	-114.960	0.385	0.073
-485.435	60.922	-0.306	-0.302
-484.420	76.178	-0.158	0.167
-483.405	180.019	-0.093	0.136
-482.391	-62.081	-0.192	-0.080
-481.376	81.549	-0.074	0.079
-480.362	94.619	0.202	-0.228
-479.347	-73.792	-0.207	-0.075
-478.332	205.860	-0.038	0.059
-477.318	-53.185	-0.138	0.063
-476.303	-200.000	-0.028	-0.131
-475.289	68.856	0.035	0.036
-474.274	152.704	-0.141	0.191
-473.259	133.493	-0.072	0.092
-472.245	800.000	-0.062	0.199
-471.230	129.330	0.056	-0.071
-470.216	-74.436	0.093	0.033
-469.201	-83.786	-0.240	0.076
-468.186	-150.405	0.163	-0.012
-467.172	132.030	-0.049	-0.062
-466.157	-173.000	-0.196	0.006
-465.143	-200.000	-0.146	-0.000
-464.128	-31.045	0.204	-0.114
-463.113	144.741	-0.111	-0.147
-462.099	-112.001	0.453	0.091
-461.084	800.000	0.075	0.238
-460.070	800.000	-0.068	0.192
-459.055	-89.728	-0.174	0.051
-458.040	-70.455	-0.169	-0.063
-457.026	800.000	-0.036	0.101
-456.011	-78.790	0.136	-0.046
-454.997	-65.252	0.053	0.021
-453.982	-37.837	0.234	-0.123
-452.968	-32.311	-0.192	0.106
-451.953	229.981	-0.164	-0.266
-450.938	-200.000	0.008	-0.163
-449.924	-43.741	0.197	-0.098
-448.909	354.452	-0.215	0.423
-447.895	-26.409	0.107	0.062
-446.880	-200.000	-0.014	-0.163
-445.865	-60.428	0.155	-0.065
-444.851	204.858	-0.098	-0.150
-443.836	-200.000	0.019	0.107
-442.822	24.577	0.117	0.096
-441.807	360.197	-0.150	-0.299
-440.792	-174.754	-0.288	0.008
-439.778	800.000	-0.061	0.167
-438.763	800.000	0.037	0.109
-437.749	27.537	-0.137	-0.114
-436.734	241.330	-0.105	0.174
-435.719	-67.754	0.222	-0.086
-434.705	-85.914	-0.330	-0.101
-433.690	557.939	0.013	0.032
-432.676	409.654	-0.058	-0.121
-431.661	800.000	0.095	-0.277
-430.646	-124.407	-0.384	0.059
-429.632	-132.301	-0.154	-0.020
-428.617	55.238	0.161	-0.154
-427.603	-135.114	-0.227	0.027
-426.588	-83.624	-0.320	-0.102
-425.573	-26.208	-0.159	-0.092
-424.559	289.643	0.091	0.163
-423.544	-197.848	-0.164	-0.001
-422.530	39.821	-0.146	-0.130
-421.515	-50.062	-0.318	0.149
-420.500	-200.000	0.030	0.139
-419.486	-200.000	0.011	0.256
-418.471	36.942	0.167	-0.146
-417.457	-3.634	0.221	-0.152
-416.442	-169.123	0.228	-0.008
-415.428	-155.949	0.011	-0.001
-414.413	-200.000	0.037	-0.198
-413.398	-72.446	0.120	-0.044
-412.384	34.965	-0.120	0.104
-411.369	800.000	-0.078	0.285
-410.355	-64.291	0.030	0.012
-409.340	-95.391	-0.172	-0.046
-408.325	241.573	-0.181	-0.299
-407.311	-81.978	-0.369	-0.119
-406.296	-46.758	0.078	0.038
-405.282	-200.000	0.023	-0.294
-404.267	-200.000	0.001	0.026
-403.252	-80.724	-0.270	-0.089
-402.238	800.000	-0.080	-0.336
-401.223	72.578	-0.204	0.211
-400.209	31.223	0.135	0.115
-399.194	-200.000	-0.036	0.299
-398.179	81.602	-0.111	-0.119
-397.165	-17.258	0.064	-0.040
-396.150	-200.000	0.076	-0.458
-395.136	55.859	0.086	-0.082
-394.121	-200.000	-0.012	-0.126
-393.106	-74.535	0.281	-0.100
-392.092	477.051	-0.222	-0.496
-391.077	-94.205	0.021	-0.006
-390.063	-200.000	0.016	0.076
-389.048	-34.524	-0.213	-0.116
-388.033	460.492	0.140	0.308
-387.019	-153.780	0.014	0.001
-386.004	230.962	0.200	0.325
-384.990	-200.000	0.014	-0.239
-383.975	-65.350	0.128	-0.051
-382.960	-80.327	0.130	-0.043
-381.946	-200.000	-0.011	0.131
-380.931	167.580	0.194	0.273
-379.917	12.346	-0.074	-0.057
-378.902	27.522	-0.181	-0.151
-377.888	-102.604	0.243	0.058
-376.873	800.000	0.134	0.461
-375.858	573.960	0.181	0.437
-374.844	-76.888	0.141	0.049
-373.829	-167.405	0.263	0.010
-372.815	-200.000	0.022	0.130
-371.800	-141.871	0.400	0.040
-370.785	323.437	0.081	0.153
-369.771	-71.424	-0.353	0.131
-368.756	106.464	-0.204	-0.239
-367.742	67.449	0.231	0.233
-366.727	51.124	0.096	-0.090
-365.712	-87.023	-0.139	0.042
-364.698	-95.050	0.344	-0.092
-363.683	32.356	0.153	-0.131
-362.669	-13.826	-0.200	-0.128
-361.654	-90.765	0.381	0.109
-360.639	-16.795	-0.072	0.045
-359.625	-134.102	0.210	-0.026
-358.610	33.149	-0.078	0.067
-357.596	800.000	-0.032	0.101
-356.581	-114.259	0.260	0.050
-355.566	-5.880	0.295	-0.199
-354.552	-142.046	-0.334	0.033
-353.537	648.394	-0.009	0.022
-352.523	-105.533	0.086	-0.019
-351.508	-200.000	-0.004	-0.168
-350.493	-3.089	0.163	0.112
-349.479	-0.601	0.240	0.168
-348.464	-200.000	0.010	0.187
-347.450	-136.767	-0.102	0.012
-346.435	-33.770	-0.077	0.042
-345.420	297.952	-0.057	0.103
-344.406	800.000	0.117	0.340
-343.391	138.373	-0.110	-0.143
-342.377	-92.340	-0.410	-0.114
-341.362	241.428	0.134	0.221
-340.348	-6.588	-0.029	0.020
-339.333	41.276	0.145	-0.129
-338.318	-200.000	0.028	-0.139
-337.304	-200.000	-0.035	0.253
-336.289	24.939	0.232	0.190
-335.275	94.539	-0.140	0.157
-334.260	420.437	-0.115	-0.244
-333.245	347.361	-0.084	0.164
-332.231	162.620	0.127	0.176
-331.216	70.524	-0.086	-0.088
-330.202	-30.761	0.087	-0.048
-329.187	-2.617	-0.143	0.099
-328.172	-78.416	-0.282	0.095
-327.158	-200.000	-0.031	0.184
-326.143	-200.000	-0.023	0.292
-325.129	-123.298	-0.158	0.025
-324.114	-119.881	-0.222	0.038
-323.099	-78.820	0.098	0.033
-322.085	-53.569	-0.250	0.113
-321.070	243.908	0.095	0.158
-320.056	-200.000	0.032	0.320
-319.041	73.946	0.104	0.107
-318.026	800.000	0.060	-0.238
-317.012	40.808	-0.089	-0.079
-315.997	-72.413	0.173	0.063
-314.983	92.947	-0.101	0.112
-313.968	-137.691	0.228	0.025
-312.953	-32.443	0.064	-0.035
-311.939	-200.000	0.018	-0.311
-310.924	-200.000	-0.030	-0.255
-309.910	-63.555	0.355	-0.144
-308.895	-200.000	0.058	0.328
-307.880	-116.989	-0.258	0.047
-306.866	-45.483	-0.060	-0.029
-305.851	-67.810	0.086	-0.033
-304.837	-200.000	-0.293	-0.001
-303.822	-108.580	-0.316	0.067
-302.807	642.824	0.046	-0.115
-301.793	-115.683	-0.103	0.019
-300.778	-200.000	-0.018	0.156
-299.764	-200.000	-0.008	-0.356
-298.749	-58.267	-0.202	0.087
-297.735	140.850	-0.158	-0.206
-296.720	-5.288	0.039	0.026
-295.705	6.169	-0.254	-0.186
-294.691	118.893	0.099	-0.121
-293.676	431.589	0.079	0.170
-292.662	-98.642	0.410	-0.103
-291.647	-143.649	-0.528	-0.049
-290.632	345.424	-0.132	0.256
-289.618	800.000	-0.050	0.190
-288.603	-112.862	-0.424	0.083
-287.589	-4.591	-0.203	0.138
-286.574	-200.000	0.003	0.031
-285.559	38.711	0.288	-0.253
-284.545	-109.775	0.283	0.059
-283.530	-121.468	0.216	0.035
-282.516	572.568	0.024	0.058
-281.501	-111.284	-0.122	-0.025
-280.486	285.387	-0.178	-0.317
-279.472	800.000	-0.068	0.270
-278.457	40.556	-0.183	0.162
-277.443	-63.529	0.474	0.192
-276.428	-85.858	-0.053	0.016
-275.413	-200.000	-0.056	-0.470
-274.399	190.159	-0.098	0.144
-273.384	338.498	-0.171	0.327
-272.370	331.064	0.170	0.324
-271.355	-115.798	-0.154	-0.028
-270.340	800.000	-0.051	-0.194
-269.326	-125.073	0.119	-0.018
-268.311	56.188	0.111	0.106
-267.297	-200.000	-0.044	-0.233
-266.282	49.435	0.136	-0.126
-265.267	168.373	0.194	0.272
-264.253	-59.485	-0.106	0.045
-263.238	-71.291	-0.093	0.035
-262.224	-112.426	0.137	-0.027
-261.209	122.006	-0.127	-0.156
-260.195	-155.475	-0.041	-0.003
-259.180	100.956	0.202	-0.232
-258.165	285.376	-0.092	-0.162
-257.151	-48.736	0.050	-0.024
-256.136	72.749	-0.206	-0.211
-255.122	740.361	0.112	-0.297
-254.107	611.670	-0.079	-0.194
-253.092	372.375	-0.078	-0.155
-252.078	352.709	-0.081	0.159
-251.063	-89.852	-0.298	0.086
-250.049	800.000	-0.123	0.353
-249.034	95.377	-0.140	0.157
-248.019	130.943	-0.006	-0.007
-247.005	180.435	-0.069	-0.100
-245.990	36.681	0.065	0.057
-244.976	137.375	0.117	-0.150
-243.961	13.011	0.155	-0.118
-242.946	233.386	-0.054	0.088
-241.932	-75.568	0.075	-0.026
-240.917	800.000	0.062	-0.200
-239.903	800.000	0.069	0.197
-238.888	29.399	-0.068	-0.057
-237.873	-200.000	-0.009	0.413
-236.859	793.225	0.132	-0.357
-235.844	22.070	0.190	-0.152
-234.830	-200.000	0.034	-0.239
-233.815	-133.495	0.104	0.013
-232.800	-117.942	0.187	0.033
-231.786	800.000	-0.045	0.168
-230.771	-200.000	-0.054	-0.364
-229.757	0.321	0.249	-0.175
-228.742	29.151	0.145	0.121
-227.727	6.223	0.191	-0.139
-226.713	548.617	0.118	0.277
-225.698	-142.493	-0.243	0.024
-224.684	325.379	-0.051	0.096
-223.669	68.675	0.329	-0.332
-222.655	-17.239	0.184	0.114
-221.640	784.520	-0.061	0.163
-220.625	-115.981	-0.333	0.061
-219.611	107.214	0.138	0.161
-218.596	-81.516	0.154	-0.050
-217.582	-23.847	-0.203	0.120
-216.567	-200.000	0.050	0.238
-215.552	735.790	0.075	0.197
-214.538	-95.962	0.320	-0.084
-213.523	-200.000	-0.030	-0.265
-212.509	-143.409	0.031	0.003
-211.494	-95.142	-0.103	0.027
-210.479	19.814	-0.121	0.096
-209.465	-200.000	0.051	0.257
-208.450	105.795	-0.129	-0.150
-207.436	-126.469	-0.328	-0.048
-206.421	800.000	-0.044	0.165
-205.406	154.424	0.083	-0.111
-204.392	13.303	-0.160	0.122
-203.377	-102.014	-0.148	-0.035
-202.363	800.000	0.082	-0.229
-201.348	-200.000	-0.008	0.087
-200.333	8.384	0.160	-0.118
-199.319	-200.000	0.049	0.378
-198.304	-90.431	-0.214	-0.061
-197.290	-169.682	0.098	0.003
-196.275	-43.454	0.192	0.095
-195.260	-200.000	0.018	0.125
-194.246	-113.585	0.217	0.042
-193.231	134.621	0.049	-0.062
-192.217	-167.027	-0.453	0.018
-191.202	305.078	0.084	-0.154
-190.187	1.515	-0.167	0.118
-189.173	-22.107	-0.097	-0.058
-188.158	32.267	-0.068	-0.058
-187.144	638.155	-0.134	-0.333
-186.129	-87.606	0.098	-0.029
-185.114	-54.323	0.092	-0.041
-184.100	247.434	0.179	-0.296
-183.085	608.950	-0.085	0.207
-182.071	-35.734	-0.122	0.065
-181.056	-18.847	-0.103	0.063
-180.042	-74.732	0.233	0.082
-179.027	800.000	-0.062	0.186
-178.012	-56.203	0.445	0.194
-176.998	-116.942	-0.214	-0.038
-175.983	176.172	-0.223	0.318
-174.969	56.312	-0.439	0.419
-173.954	800.000	-0.045	0.160
-172.939	-200.000	-0.048	0.302
-171.925	88.238	-0.162	-0.176
-170.910	-121.370	-0.035	-0.006
-169.896	134.738	-0.278	0.355
-168.881	-162.489	0.139	0.007
-167.866	55.162	-0.040	0.038
-166.852	-17.645	-0.236	-0.146
-165.837	-33.363	0.372	-0.202
-164.823	399.329	0.113	-0.233
-163.808	-90.085	-0.233	0.067
-162.793	51.243	0.145	0.135
-161.779	9.528	-0.097	-0.072
-160.764	-200.000	-0.049	0.258
-159.750	-58.399	-0.161	0.069
-158.735	69.381	0.262	0.264
-157.720	-147.352	0.235	0.020
-156.706	-200.000	0.007	-0.101
-155.691	-134.469	-0.167	-0.020
-154.677	204.635	0.181	-0.276
-153.662	-163.403	0.233	0.011
-152.647	175.683	0.150	0.214
-151.633	142.688	0.093	0.121
-150.618	0.318	-0.111	0.078
-149.604	68.748	-0.165	0.166
-148.589	-14.783	0.285	0.179
-147.574	-117.826	-0.304	-0.054
-146.560	-133.137	-0.305	0.038
-145.545	-175.140	0.282	-0.008
-144.531	-185.301	0.229	0.003
-143.516	-99.044	0.094	0.023
-142.502	-102.320	0.374	-0.088
-141.487	-173.926	-0.373	-0.011
-140.472	-200.000	0.029	0.158
-139.458	-189.023	-0.335	-0.004
-138.443	486.570	-0.103	0.230
-137.429	-10.200	-0.204	0.133
-136.414	416.906	0.151	-0.315
-135.399	-9.681	0.210	0.137
-134.385	-96.930	-0.438	-0.113
-133.370	-115.133	0.131	0.024
-132.356	39.387	0.133	0.116
-131.341	239.466	0.061	-0.100
-130.326	56.708	0.107	0.102
-129.312	229.490	-0.156	0.249
-128.297	90.428	0.114	-0.125
-127.283	113.644	0.131	-0.156
-126.268	48.990	-0.275	-0.253
-125.253	169.711	0.216	-0.303
-124.239	23.108	-0.045	-0.036
-123.224	-200.000	0.021	-0.114
-122.210	-88.733	-0.204	-0.059
-121.195	-117.236	-0.243	0.043
