DTS Sentinel unit serial number:	SN413079Multiplexer serial number:	ORYXHardware model number:	OX4-SRSoftware version number:	ORYX F/W v4.00 Oryx Data Collector v3.7.2.0data status	okinstallation	princeton_trtdifferential loss correction	single-endedforward channel	channel 1reverse channel	N/Adate	2019/09/19time	10:26:35forward acquisition time	60.00reverse acquisition time	0.00gamma	496.2192k internal	0.2339k external	0.2339temperature offset calibration	1.0008default loss term (dB/km)	0.3790temperature slope calibration	1.0000multiplexer offset coefficient	1.0000multiplexer slope coefficient	1.0000fibre end	0.00T internal ref (°C)	24.31T ext. ref 1 (°C)	0.70T ext. ref 2 (°C)	19.83length (m)	temperature (°C)	Stokes	anti-Stokes-747.200	56.859	-0.331	0.323
-746.185	515.457	0.098	0.229
-745.171	78.524	0.016	0.018
-744.156	542.440	-0.145	0.347
-743.142	-161.091	-0.387	0.020
-742.127	408.345	0.062	0.132
-741.112	104.974	0.167	-0.197
-740.098	-24.356	-0.135	0.081
-739.083	522.623	-0.069	-0.163
-738.069	-96.788	0.123	-0.032
-737.054	-200.000	0.003	-0.078
-736.039	-200.000	-0.036	0.264
-735.025	-73.287	0.203	-0.074
-734.010	-200.000	0.045	0.245
-732.996	49.014	-0.104	-0.098
-731.981	402.042	-0.151	-0.318
-730.966	179.975	-0.111	0.164
-729.952	85.832	-0.227	-0.250
-728.937	50.176	0.211	0.200
-727.923	-155.002	-0.064	-0.004
-726.908	-200.000	0.016	-0.110
-725.894	-44.586	-0.234	0.117
-724.879	-200.000	-0.083	-0.370
-723.864	-145.917	-0.069	-0.006
-722.850	363.414	0.099	-0.199
-721.835	-200.000	-0.003	-0.032
-720.821	800.000	-0.096	0.313
-719.806	800.000	0.076	-0.243
-718.791	-200.000	0.048	-0.210
-717.777	31.902	-0.116	0.100
-716.762	-148.661	0.053	-0.004
-715.748	-48.580	-0.179	-0.086
-714.733	800.000	0.004	-0.015
-713.718	-200.000	-0.005	-0.028
-712.704	-28.141	0.042	0.024
-711.689	-200.000	-0.003	0.189
-710.675	-112.420	0.187	0.037
-709.660	315.875	0.019	-0.037
-708.645	348.408	0.130	-0.257
-707.631	-35.667	-0.219	0.119
-706.616	-28.644	0.046	0.027
-705.602	86.978	0.174	0.192
-704.587	299.011	-0.084	-0.155
-703.572	-26.286	0.167	-0.098
-702.558	-200.000	0.014	0.167
-701.543	-200.000	-0.015	-0.182
-700.529	-172.039	-0.141	0.005
-699.514	-100.868	-0.131	-0.032
-698.499	-71.914	0.254	-0.095
-697.485	800.000	0.034	-0.136
-696.470	-200.000	0.010	0.252
-695.456	93.660	-0.149	-0.169
-694.441	730.353	0.071	0.189
-693.426	-200.000	-0.067	-0.390
-692.412	-200.000	0.090	-0.407
-691.397	-26.248	-0.112	-0.066
-690.383	-200.000	0.007	-0.121
-689.368	800.000	0.146	-0.408
-688.354	151.341	0.028	-0.038
-687.339	-59.058	0.097	0.042
-686.324	-100.732	-0.125	0.031
-685.310	-101.024	-0.165	-0.041
-684.295	13.518	-0.089	-0.069
-683.281	-81.676	0.253	-0.083
-682.266	35.860	-0.101	-0.089
-681.251	11.098	-0.262	-0.201
-680.237	-112.209	-0.203	-0.041
-679.222	376.107	0.044	0.089
-678.208	-19.339	-0.105	0.065
-677.193	92.461	-0.093	-0.105
-676.178	22.352	-0.113	0.092
-675.164	159.361	-0.184	0.256
-674.149	-116.697	0.387	0.071
-673.135	-12.313	0.127	-0.083
-672.120	237.006	-0.043	-0.072
-671.105	-200.000	0.020	-0.251
-670.091	-131.836	0.010	0.001
-669.076	516.059	-0.018	-0.042
-668.062	304.412	0.070	-0.129
-667.047	-200.000	0.031	-0.355
-666.032	-200.000	-0.052	-0.273
-665.018	-65.790	-0.478	-0.191
-664.003	-18.229	-0.225	-0.141
-662.989	-200.000	-0.017	-0.264
-661.974	-200.000	-0.352	0.000
-660.959	-200.000	-0.002	-0.060
-659.945	-13.389	0.375	0.243
-658.930	-146.465	-0.419	-0.037
-657.916	-200.000	0.056	-0.416
-656.901	800.000	0.109	-0.314
-655.886	-91.199	0.023	-0.007
-654.872	-200.000	-0.000	-0.121
-653.857	-200.000	0.006	-0.074
-652.843	-118.005	-0.308	0.055
-651.828	-200.000	-0.034	0.244
-650.814	-200.000	-0.026	0.146
-649.799	527.154	0.165	0.389
-648.784	800.000	-0.036	0.127
-647.770	-89.897	0.307	-0.090
-646.755	202.872	-0.243	-0.375
-645.741	-149.273	0.239	-0.019
-644.726	800.000	-0.058	-0.179
-643.711	800.000	-0.099	-0.359
-642.697	-23.514	0.207	-0.124
-641.682	-129.314	0.284	-0.040
-640.668	78.444	0.124	-0.132
-639.653	-200.000	0.019	-0.288
-638.638	-200.000	-0.047	-0.341
-637.624	342.844	-0.114	0.222
-636.609	-25.421	0.342	0.202
-635.595	800.000	-0.065	-0.195
-634.580	-200.000	0.046	0.217
-633.565	-200.000	0.002	-0.306
-632.551	156.574	-0.069	0.095
-631.536	143.896	-0.077	0.103
-630.522	104.615	0.195	-0.230
-629.507	-66.372	-0.209	-0.083
-628.492	353.741	-0.123	0.243
-627.478	-40.095	0.102	0.053
-626.463	-200.000	0.031	0.273
-625.449	137.108	0.196	0.255
-624.434	-12.503	0.138	-0.090
-623.419	354.549	-0.174	-0.346
-622.405	-55.145	-0.361	-0.162
-621.390	-95.089	-0.178	-0.048
-620.376	228.603	-0.086	-0.140
-619.361	-200.000	0.019	-0.155
-618.346	-200.000	-0.016	-0.129
-617.332	416.926	-0.055	-0.117
-616.317	58.729	-0.113	0.111
-615.303	-200.000	0.001	-0.351
-614.288	194.001	-0.081	0.122
-613.273	-6.687	0.129	-0.088
-612.259	-23.803	0.297	0.177
-611.244	800.000	-0.132	-0.561
-610.230	-29.708	0.289	0.165
-609.215	-13.242	-0.243	-0.158
-608.201	-86.891	0.321	0.098
-607.186	-10.561	0.262	-0.173
-606.171	800.000	-0.091	-0.268
-605.157	-121.947	-0.211	-0.035
-604.142	-120.054	-0.084	0.014
-603.128	-60.022	-0.163	-0.069
-602.113	161.900	0.182	0.254
-601.098	24.762	-0.030	0.025
-600.084	81.526	-0.117	0.126
-599.069	-60.438	-0.184	-0.078
-598.055	246.606	0.142	0.239
-597.040	758.708	0.106	0.286
-596.025	-200.000	0.044	-0.209
-595.011	-38.568	-0.132	0.070
-593.996	800.000	0.101	-0.327
-592.982	800.000	0.036	0.125
-591.967	381.303	0.118	0.242
-590.952	-200.000	0.028	0.439
-589.938	154.443	-0.122	-0.167
-588.923	-200.000	-0.039	0.235
-587.909	-7.506	0.210	-0.142
-586.894	-200.000	0.058	0.257
-585.879	65.364	-0.054	0.055
-584.865	-119.352	-0.172	-0.030
-583.850	-110.194	0.225	-0.047
-582.836	-27.312	-0.207	0.120
-581.821	-200.000	-0.032	0.180
-580.806	-200.000	0.002	0.314
-579.792	800.000	-0.119	0.341
-578.777	434.308	-0.083	-0.179
-577.763	-200.000	0.042	0.269
-576.748	215.188	-0.084	0.133
-575.733	-200.000	0.007	-0.272
-574.719	285.852	0.180	-0.324
-573.704	163.003	-0.169	-0.237
-572.690	-166.734	0.177	-0.007
-571.675	166.584	-0.060	-0.085
-570.661	-200.000	-0.028	-0.193
-569.646	-34.639	0.048	-0.026
-568.631	334.954	-0.127	-0.245
-567.617	140.752	0.095	-0.125
-566.602	351.130	-0.113	0.223
-565.588	-160.283	0.133	-0.007
-564.573	-200.000	-0.012	-0.064
-563.558	-42.340	-0.062	-0.031
-562.544	36.546	0.157	0.138
-561.529	442.620	-0.101	-0.221
-560.515	414.288	0.174	-0.368
-559.500	-111.810	-0.274	-0.055
-558.485	338.476	-0.117	-0.228
-557.471	-78.281	-0.216	-0.074
-556.456	146.542	0.129	-0.173
-555.442	215.751	-0.172	-0.272
-554.427	88.637	-0.085	-0.094
-553.412	11.997	-0.267	0.204
-552.398	800.000	0.078	0.228
-551.383	-28.596	0.309	0.177
-550.369	573.643	0.057	0.139
-549.354	-200.000	0.030	-0.253
-548.339	120.555	0.188	-0.233
-547.325	-200.000	0.023	0.301
-546.310	39.710	0.220	-0.196
-545.296	800.000	-0.016	0.048
-544.281	-200.000	-0.114	0.555
-543.266	65.137	-0.186	0.187
-542.252	-179.912	0.320	0.007
-541.237	67.317	0.132	0.134
-540.223	118.020	0.129	-0.159
-539.208	495.355	-0.108	-0.246
-538.193	-200.000	0.024	-0.218
-537.179	-81.584	0.334	-0.109
-536.164	-83.628	-0.052	0.017
-535.150	-200.000	0.014	-0.320
-534.135	-200.000	0.008	0.133
-533.121	22.085	0.233	-0.189
-532.106	248.896	-0.065	0.110
-531.091	-111.173	0.075	-0.015
-530.077	311.719	-0.090	0.167
-529.062	60.952	0.135	-0.133
-528.048	-47.769	-0.148	-0.071
-527.033	1.437	0.089	-0.064
-526.018	31.895	0.266	-0.228
-525.004	110.739	0.097	-0.116
-523.989	-94.476	0.264	0.072
-522.975	800.000	0.098	0.365
-521.960	1.427	-0.191	-0.137
-520.945	800.000	0.064	-0.210
-519.931	-165.899	0.285	0.012
-518.916	-18.455	-0.299	-0.186
-517.902	599.456	-0.049	0.122
-516.887	701.980	0.073	0.192
-515.872	-200.000	-0.013	-0.337
-514.858	-104.773	-0.192	-0.044
-513.843	388.613	-0.082	0.170
-512.829	-119.454	-0.386	-0.067
-511.814	800.000	0.072	-0.293
-510.799	-100.993	-0.202	-0.049
-509.785	-130.385	-0.426	0.057
-508.770	-159.732	0.270	0.015
-507.756	110.289	0.238	0.284
-506.741	7.390	-0.246	-0.182
-505.726	109.220	-0.037	-0.044
-504.712	-95.235	-0.150	-0.040
-503.697	-200.000	0.046	-0.237
-502.683	-200.000	0.054	0.257
-501.668	-64.362	0.060	0.024
-500.653	243.004	-0.217	0.361
-499.639	153.294	0.118	0.161
-498.624	-200.000	-0.005	0.216
-497.610	64.668	0.075	0.075
-496.595	-11.911	0.311	-0.202
-495.581	-36.195	-0.261	0.140
-494.566	218.851	0.195	0.310
-493.551	62.056	-0.138	0.137
-492.537	-122.008	-0.193	-0.032
-491.522	-95.636	-0.226	-0.060
-490.508	584.300	-0.108	-0.265
-489.493	-95.913	0.037	0.010
-488.478	11.189	0.127	-0.097
-487.464	320.607	0.036	-0.069
-486.449	232.989	-0.055	0.089
-485.435	-200.000	-0.008	0.083
-484.420	129.645	0.125	0.159
-483.405	-15.759	0.203	0.128
-482.391	800.000	0.017	-0.063
-481.376	800.000	-0.051	0.219
-480.362	-32.965	0.207	-0.114
-479.347	324.191	-0.021	-0.040
-478.332	453.709	0.099	0.218
-477.318	229.297	0.098	0.159
-476.303	-16.447	-0.083	-0.052
-475.289	800.000	-0.043	-0.127
-474.274	243.396	-0.217	-0.362
-473.259	53.926	-0.307	-0.293
-472.245	306.385	0.129	-0.239
-471.230	23.812	-0.178	0.145
-470.216	-200.000	-0.018	0.150
-469.201	-97.537	-0.021	-0.006
-468.186	-183.163	-0.147	-0.003
-467.172	461.738	-0.068	-0.151
-466.157	800.000	-0.043	-0.123
-465.143	-94.800	0.377	-0.101
-464.128	-14.448	0.252	0.161
-463.113	800.000	0.160	-0.450
-462.099	76.966	-0.043	-0.046
-461.084	-200.000	-0.002	-0.160
-460.070	125.820	0.169	0.212
-459.055	-200.000	-0.021	-0.413
-458.040	14.461	-0.085	0.066
-457.026	145.562	-0.164	0.218
-456.011	-60.563	-0.229	-0.097
-454.997	201.101	0.207	0.316
-453.982	-135.057	-0.187	-0.022
-452.968	-78.427	0.156	-0.053
-451.953	-200.000	-0.000	0.126
-450.938	-74.466	-0.143	0.051
-449.924	-52.539	-0.096	-0.044
-448.909	-94.214	-0.361	0.098
-447.895	-200.000	-0.040	0.208
-446.880	153.382	0.152	0.206
-445.865	-150.465	-0.213	-0.016
-444.851	-40.878	0.221	-0.113
-443.836	800.000	-0.043	0.147
-442.822	-126.282	-0.054	0.008
-441.807	-119.086	0.295	0.051
-440.792	332.783	0.076	-0.146
-439.778	141.309	-0.040	-0.053
-438.763	2.397	0.013	-0.009
-437.749	-67.284	0.231	-0.090
-436.734	-97.970	-0.163	-0.042
-435.719	-104.300	0.256	0.059
-434.705	800.000	-0.119	-0.404
-433.690	-133.482	0.084	-0.010
-432.676	144.462	0.243	-0.321
-431.661	332.497	-0.268	0.513
-430.646	-113.671	0.451	0.087
-429.632	230.898	-0.067	-0.108
-428.617	-11.662	0.191	-0.124
-427.603	257.955	-0.153	0.261
-426.588	291.247	0.191	0.344
-425.573	-42.918	-0.258	-0.129
-424.559	224.535	0.136	-0.218
-423.544	-135.125	-0.108	0.013
-422.530	-200.000	-0.003	0.260
-421.515	-54.489	-0.042	0.019
-420.500	-8.324	0.196	-0.131
-419.486	117.228	0.029	-0.035
-418.471	296.496	-0.163	-0.297
-417.457	-136.741	-0.043	-0.005
-416.442	120.941	0.349	0.429
-415.428	91.483	-0.047	-0.052
-414.413	-200.000	-0.028	0.391
-413.398	69.770	0.118	0.121
-412.384	316.810	0.121	-0.227
-411.369	-81.558	0.145	0.047
-410.355	-17.101	0.088	-0.055
-409.340	-118.648	-0.151	-0.026
-408.325	-33.095	0.096	-0.053
-407.311	370.170	0.169	0.339
-406.296	-33.556	0.102	0.056
-405.282	-200.000	0.015	-0.131
-404.267	-63.014	0.209	0.086
-403.252	386.277	0.072	0.148
-402.238	217.338	0.168	-0.265
-401.223	-14.752	0.223	0.141
-400.209	198.188	-0.142	0.215
-399.194	470.712	-0.145	-0.323
-398.179	-200.000	-0.023	-0.180
-397.165	-200.000	-0.012	0.142
-396.150	-67.766	-0.061	0.023
-395.136	46.346	-0.200	-0.183
-394.121	598.407	-0.093	0.229
-393.106	451.353	-0.112	0.244
-392.092	-10.764	-0.163	-0.107
-391.077	328.854	-0.107	0.204
-390.063	-24.610	0.274	0.161
-389.048	24.625	-0.210	0.172
-388.033	587.293	-0.041	0.100
-387.019	-200.000	0.259	0.000
-386.004	145.618	0.102	0.135
-384.990	-52.693	0.423	0.193
-383.975	-77.210	0.057	0.020
-382.960	800.000	-0.012	0.045
-381.946	-200.000	0.012	-0.139
-380.931	81.133	-0.203	-0.217
-379.917	-18.108	-0.309	-0.192
-378.902	-99.872	0.098	0.024
-377.888	800.000	0.032	0.133
-376.873	59.960	0.380	-0.371
-375.858	800.000	0.065	0.259
-374.844	-85.478	0.400	0.123
-373.829	269.115	-0.133	0.231
-372.815	104.743	0.093	-0.108
-371.800	222.739	-0.066	-0.105
-370.785	468.989	0.089	0.197
-369.771	5.139	-0.185	-0.135
-368.756	-169.336	-0.046	-0.002
-367.742	800.000	-0.055	0.198
-366.727	-34.186	0.366	-0.199
-365.712	-200.000	-0.051	-0.231
-364.698	-109.920	-0.526	-0.109
-363.683	-21.267	0.147	0.088
-362.669	-151.345	-0.351	-0.026
-361.654	32.947	-0.312	-0.267
-360.639	-88.299	0.263	0.078
-359.625	800.000	0.002	0.006
-358.610	515.122	-0.015	-0.033
-357.596	-190.701	0.283	-0.003
-356.581	25.499	0.301	-0.248
-355.566	16.303	-0.263	0.205
-354.552	204.191	0.094	0.144
-353.537	255.917	0.037	0.063
-352.523	-15.087	0.071	0.045
-351.508	71.393	-0.136	0.139
-350.493	-14.587	0.095	-0.060
-349.479	-139.445	0.411	-0.044
-348.464	119.330	-0.254	-0.310
-347.450	720.386	-0.072	-0.189
-346.435	-13.611	-0.088	0.056
-345.420	-179.850	-0.202	0.004
-344.406	800.000	-0.066	0.229
-343.391	-35.510	-0.275	0.148
-342.377	-198.186	-0.378	0.002
-341.362	138.320	-0.112	-0.145
-340.348	326.546	-0.082	-0.155
-339.333	-200.000	0.028	0.251
-338.318	132.176	0.101	-0.129
-337.304	-200.000	0.000	-0.209
-336.289	-200.000	0.007	-0.095
-335.275	-111.555	0.125	-0.025
-334.260	-90.231	-0.235	0.068
-333.245	-200.000	-0.029	0.342
-332.231	71.817	-0.271	-0.278
-331.216	107.614	0.133	-0.156
-330.202	82.700	0.138	-0.148
-329.187	163.293	0.042	0.058
-328.172	-89.341	0.310	0.090
-327.158	-95.086	0.096	0.026
-326.143	-200.000	0.023	-0.237
-325.129	-2.857	0.179	-0.124
-324.114	166.754	0.061	0.085
-323.099	-11.629	-0.053	-0.034
-322.085	119.171	0.241	0.294
-321.070	335.446	-0.214	-0.409
-320.056	404.707	-0.100	-0.208
-319.041	328.564	-0.069	0.131
-318.026	48.819	-0.050	0.046
-317.012	-174.842	0.059	-0.002
-315.997	800.000	0.012	-0.052
-314.983	131.832	-0.116	-0.147
-313.968	-200.000	-0.011	0.225
-312.953	-78.040	-0.230	-0.078
-311.939	-69.457	0.131	0.050
-310.924	-137.363	-0.428	-0.048
-309.910	800.000	-0.098	-0.297
-308.895	240.970	0.064	0.106
-307.880	800.000	-0.043	-0.170
-306.866	800.000	-0.136	0.417
-305.851	3.483	0.279	0.201
-304.837	800.000	-0.072	-0.230
-303.822	529.095	0.119	-0.276
-302.807	-200.000	-0.014	0.269
-301.793	320.624	0.110	-0.206
-300.778	18.546	-0.133	-0.105
-299.764	23.808	-0.146	0.119
-298.749	-200.000	-0.036	-0.188
-297.735	237.076	-0.059	0.096
-296.720	111.095	-0.076	-0.091
-295.705	-39.704	-0.211	0.109
-294.691	436.477	0.084	0.181
-293.676	-138.909	-0.182	-0.019
-292.662	-200.000	0.023	0.201
-291.647	3.055	-0.194	0.139
-290.632	320.146	-0.045	0.084
-289.618	36.128	0.175	-0.152
-288.603	662.137	0.067	0.171
-287.589	-200.000	0.011	0.138
-286.574	-83.603	0.315	0.099
-285.559	-200.000	0.033	0.230
-284.545	800.000	-0.073	-0.272
-283.530	354.913	0.097	0.189
-282.516	5.092	0.240	-0.174
-281.501	608.960	0.101	0.249
-280.486	-21.036	-0.181	-0.109
-279.472	-136.436	-0.344	-0.039
-278.457	-69.785	0.152	-0.057
-277.443	-185.614	0.166	0.002
-276.428	-14.705	-0.282	-0.179
-275.413	72.213	0.194	0.199
-274.399	180.208	-0.105	0.152
-273.384	27.270	-0.080	0.066
-272.370	254.384	0.053	0.090
-271.355	395.277	0.056	0.115
-270.340	120.811	-0.017	-0.020
-269.326	800.000	-0.113	0.361
-268.311	800.000	0.059	0.179
-267.297	290.353	-0.085	0.152
-266.282	-200.000	0.053	-0.265
-265.267	-32.939	-0.116	-0.064
-264.253	-98.194	0.122	0.031
-263.238	782.380	0.102	0.276
-262.224	598.055	0.073	0.178
-261.209	11.376	0.332	-0.250
-260.195	-44.439	-0.081	0.040
-259.180	-153.615	-0.185	0.013
-258.165	389.181	0.046	0.094
-257.151	462.829	0.095	0.209
-256.136	-110.432	-0.129	0.026
-255.122	-200.000	-0.026	0.249
-254.107	57.387	0.065	0.062
-253.092	-135.722	-0.096	0.011
-252.078	450.900	0.186	0.404
-251.063	-156.580	-0.126	0.008
-250.049	132.980	-0.144	0.183
-249.034	174.314	-0.031	-0.044
-248.019	19.749	0.186	0.148
-247.005	-138.309	-0.301	-0.033
-245.990	-166.910	-0.154	0.006
-244.976	54.359	-0.236	0.223
-243.961	94.220	-0.057	0.064
-242.946	-200.000	0.044	0.350
-241.932	251.520	-0.075	-0.125
-240.917	-19.371	0.129	-0.079
-239.903	14.362	-0.235	-0.180
-238.888	800.000	0.028	0.113
-237.873	328.556	-0.159	0.300
-236.859	800.000	0.015	0.052
-235.844	-200.000	-0.019	0.310
-234.830	800.000	0.039	0.126
-233.815	-200.000	-0.007	0.165
-232.800	-64.171	0.101	0.040
-231.786	566.240	0.196	0.467
-230.771	51.931	0.160	-0.150
-229.757	493.654	-0.065	-0.146
-228.742	239.112	-0.131	-0.214
-227.727	-190.891	0.016	-0.000
-226.713	-9.196	0.300	-0.197
-225.698	800.000	-0.121	-0.330
-224.684	800.000	-0.095	-0.268
-223.669	59.861	-0.254	-0.247
-222.655	56.717	-0.196	-0.188
-221.640	-111.059	0.195	0.039
-220.625	-113.302	-0.130	-0.025
-219.611	800.000	0.074	-0.232
-218.596	-31.901	0.195	-0.107
-217.582	-200.000	0.059	0.263
-216.567	128.207	0.097	-0.122
-215.552	-30.425	0.166	0.092
-214.538	-65.198	0.095	0.038
-213.523	601.312	0.086	0.210
-212.509	37.854	0.235	0.205
-211.494	-88.235	0.142	-0.042
-210.479	115.986	0.071	0.086
-209.465	692.267	-0.151	0.387
-208.450	-144.506	0.159	-0.014
-207.436	-139.601	0.251	-0.026
-206.421	-29.139	-0.175	0.099
-205.406	48.494	-0.252	-0.232
-204.392	-82.043	-0.277	-0.089
-203.377	111.827	-0.149	-0.177
-202.363	-49.944	-0.352	-0.164
-201.348	238.164	0.095	-0.156
-200.333	-200.000	-0.015	0.130
-199.319	-200.000	0.024	0.258
-198.304	-52.618	0.259	-0.117
-197.290	-24.487	-0.158	0.093
-196.275	-122.877	-0.235	0.037
-195.260	-200.000	-0.060	0.362
-194.246	-58.870	-0.057	0.024
-193.231	-182.934	-0.499	-0.009
-192.217	152.288	0.141	0.189
-191.202	-37.295	0.356	0.187
-190.187	98.840	-0.127	0.144
-189.173	-200.000	-0.039	-0.374
-188.158	-101.124	-0.273	-0.066
-187.144	73.971	-0.243	-0.250
-186.129	669.154	0.087	-0.221
-185.114	-85.771	-0.052	0.016
-184.100	-158.547	-0.335	0.019
-183.085	-104.054	-0.094	-0.022
-182.071	-94.344	0.191	0.051
-181.056	280.359	0.259	0.455
-180.042	-63.500	-0.417	-0.168
-179.027	33.221	-0.098	0.083
-178.012	124.327	-0.169	0.208
-176.998	-29.462	0.261	-0.146
-175.983	-132.851	0.070	0.009
-174.969	-51.352	0.250	-0.115
-173.954	-93.607	-0.182	-0.049
-172.939	22.330	-0.307	0.246
-171.925	256.014	-0.043	0.073
-170.910	-31.204	0.141	0.078
-169.896	63.859	-0.199	-0.196
-168.881	-15.634	0.167	-0.104
-167.866	260.123	-0.255	-0.433
-166.852	8.797	0.155	0.115
-165.837	36.203	-0.183	0.158
-164.823	113.405	-0.138	0.164
-163.808	-159.959	0.294	-0.016
-162.793	123.222	-0.054	0.066
-161.779	-200.000	0.029	0.188
-160.764	72.569	-0.266	-0.272
-159.750	38.819	0.231	-0.202
-158.735	800.000	-0.127	-0.355
-157.720	534.820	0.127	-0.295
-156.706	-200.000	-0.003	-0.066
-155.691	800.000	0.122	-0.398
-154.677	-200.000	-0.027	0.200
-153.662	-158.022	0.086	-0.005
-152.647	-146.250	-0.100	0.009
-151.633	-104.206	0.378	-0.086
-150.618	-200.000	0.011	-0.201
-149.604	64.556	-0.266	0.263
-148.589	-95.925	-0.169	0.044
-147.574	-47.478	-0.232	0.110
-146.560	83.976	0.157	0.168
-145.545	800.000	-0.060	0.210
-144.531	-100.944	0.218	0.053
-143.516	-90.931	0.222	-0.063
-142.502	-76.358	0.273	-0.094
-141.487	-200.000	-0.018	-0.323
-140.472	-200.000	0.001	0.100
-139.458	-200.000	-0.043	0.257
-138.443	-52.926	0.114	0.051
-137.429	143.207	0.161	0.210
-136.414	10.712	0.135	-0.101
-135.399	-200.000	-0.003	0.184
-134.385	-39.566	0.257	-0.132
-133.370	-110.756	0.089	-0.018
-132.356	-164.078	0.170	0.008
-131.341	-60.067	0.309	0.129
-130.326	278.496	0.145	0.253
-129.312	-200.000	-0.039	-0.312
-128.297	324.718	-0.177	-0.330
-127.283	800.000	0.061	-0.167
-126.268	623.915	0.160	0.394
-125.253	97.279	0.229	-0.258
-124.239	37.757	0.156	-0.135
-123.224	220.610	0.021	-0.033
-122.210	800.000	0.092	0.359
