DTS Sentinel unit serial number:	SN413079Multiplexer serial number:	ORYXHardware model number:	OX4-SRSoftware version number:	ORYX F/W v4.00 Oryx Data Collector v3.7.2.0data status	okinstallation	princeton_trtdifferential loss correction	single-endedforward channel	channel 1reverse channel	N/Adate	2019/09/17time	14:50:36forward acquisition time	60.00reverse acquisition time	0.00gamma	496.2192k internal	0.2296k external	0.2296temperature offset calibration	0.9963default loss term (dB/km)	0.3790temperature slope calibration	1.0000multiplexer offset coefficient	1.0000multiplexer slope coefficient	1.0000fibre end	0.00T internal ref (°C)	37.08T ext. ref 1 (°C)	0.39T ext. ref 2 (°C)	34.15length (m)	temperature (°C)	Stokes	anti-Stokes-747.200	-10.928	-0.206	-0.139
-746.185	-103.784	-0.299	0.071
-745.171	516.846	-0.057	-0.137
-744.156	800.000	0.017	-0.066
-743.142	-200.000	-0.023	0.186
-742.127	800.000	-0.025	-0.083
-741.112	800.000	-0.115	0.370
-740.098	51.620	0.138	0.134
-739.083	88.304	0.179	0.204
-738.069	800.000	0.095	0.283
-737.054	701.220	-0.027	0.071
-736.039	800.000	-0.057	0.248
-735.025	800.000	-0.031	0.120
-734.010	36.940	-0.351	-0.317
-732.996	800.000	0.049	-0.149
-731.981	-175.982	-0.242	0.007
-730.966	-200.000	-0.009	-0.079
-729.952	39.071	0.198	-0.181
-728.937	-24.630	-0.261	-0.159
-727.923	-87.945	-0.159	0.049
-726.908	-44.566	-0.091	0.046
-725.894	207.750	-0.086	0.138
-724.879	800.000	-0.065	-0.236
-723.864	-128.627	0.170	0.025
-722.850	9.798	0.156	-0.121
-721.835	-59.770	-0.075	-0.033
-720.821	-69.042	-0.092	-0.036
-719.806	86.930	0.261	-0.294
-718.791	214.103	0.089	0.144
-717.777	101.367	0.095	-0.113
-716.762	-12.716	-0.259	-0.172
-715.748	800.000	0.027	0.090
-714.733	-21.748	0.257	0.160
-713.718	-42.326	0.397	0.207
-712.704	128.178	-0.225	-0.292
-711.689	-89.970	-0.159	0.047
-710.675	-2.587	0.247	0.176
-709.660	-137.255	-0.108	0.012
-708.645	325.439	-0.084	0.165
-707.631	-0.477	-0.170	-0.123
-706.616	-139.883	-0.193	-0.021
-705.602	512.944	-0.161	-0.383
-704.587	43.965	0.222	-0.207
-703.572	311.144	-0.097	-0.185
-702.558	309.944	-0.091	-0.174
-701.543	-48.534	-0.188	-0.092
-700.529	800.000	-0.072	-0.231
-699.514	800.000	0.049	0.217
-698.499	-40.338	0.178	0.094
-697.485	800.000	-0.049	-0.150
-696.470	168.433	0.101	0.147
-695.456	-40.050	0.177	0.094
-694.441	-85.497	-0.053	0.017
-693.426	-107.710	-0.279	-0.062
-692.412	-76.250	-0.137	-0.049
-691.397	134.869	-0.044	0.059
-690.383	-53.229	-0.487	-0.228
-689.368	-200.000	0.062	-0.419
-688.354	-123.763	0.374	-0.060
-687.339	105.904	0.225	0.272
-686.324	800.000	0.097	-0.336
-685.310	-200.000	0.029	0.359
-684.295	77.713	0.179	0.194
-683.281	-155.031	0.122	-0.008
-682.266	-153.850	0.225	-0.016
-681.251	18.070	-0.116	-0.094
-680.237	-200.000	0.054	0.244
-679.222	385.755	-0.154	0.324
-678.208	161.418	-0.096	-0.137
-677.193	800.000	0.044	0.128
-676.178	-109.328	0.156	0.034
-675.164	-54.071	-0.210	0.097
-674.149	-113.080	0.380	0.077
-673.135	-57.095	0.200	-0.090
-672.120	-28.468	0.120	0.071
-671.105	-7.382	0.074	0.051
-670.091	-128.660	-0.551	-0.079
-669.076	203.458	-0.019	-0.030
-668.062	86.272	-0.189	-0.212
-667.047	-200.000	-0.051	-0.313
-666.032	122.420	-0.131	-0.167
-665.018	45.402	-0.048	-0.045
-664.003	-138.328	-0.295	0.033
-662.989	-200.000	-0.005	-0.125
-661.974	-40.934	0.257	0.136
-660.959	-133.080	-0.332	0.043
-659.945	-200.000	-0.019	-0.323
-658.930	-136.128	-0.280	-0.033
-657.916	-156.382	-0.208	0.013
-656.901	50.165	0.149	0.144
-655.886	-123.343	0.084	0.014
-654.872	-200.000	0.002	-0.080
-653.857	-129.653	-0.029	-0.004
-652.843	-104.788	-0.165	0.039
-651.828	-25.270	-0.111	0.067
-650.814	-80.473	0.038	-0.013
-649.799	800.000	0.042	0.146
-648.784	800.000	-0.102	0.377
-647.770	153.577	0.050	0.070
-646.755	170.015	0.123	-0.180
-645.741	-200.000	0.037	-0.189
-644.726	-200.000	0.142	-0.000
-643.711	219.573	-0.084	-0.136
-642.697	-200.000	0.070	-0.364
-641.682	-159.042	-0.222	0.013
-640.668	189.500	-0.014	0.021
-639.653	110.883	0.093	0.113
-638.638	-200.000	-0.052	-0.289
-637.624	131.752	-0.018	0.024
-636.609	-17.356	-0.378	0.242
-635.595	548.953	0.076	0.185
-634.580	-93.874	-0.221	0.062
-633.565	-46.078	-0.436	-0.219
-632.551	-149.075	-0.117	0.010
-631.536	-68.348	0.122	-0.048
-630.522	455.229	0.050	0.113
-629.507	-200.000	-0.006	-0.253
-628.492	463.744	-0.084	0.191
-627.478	-200.000	0.023	0.202
-626.463	36.577	-0.209	0.188
-625.449	-40.711	-0.194	0.102
-624.434	-89.328	0.124	-0.037
-623.419	-24.200	-0.153	0.093
-622.405	286.568	0.106	-0.194
-621.390	275.093	0.092	0.166
-620.376	-200.000	-0.014	-0.175
-619.361	210.534	-0.084	-0.135
-618.346	-200.000	0.001	0.130
-617.332	-93.791	0.372	-0.104
-616.317	354.943	0.209	0.422
-615.303	-88.357	-0.015	-0.005
-614.288	185.195	-0.180	-0.272
-613.273	-71.910	0.069	0.026
-612.259	148.585	-0.150	0.205
-611.244	800.000	0.061	0.196
-610.230	-126.436	-0.128	0.019
-609.215	-98.786	-0.307	-0.079
-608.201	-200.000	0.012	-0.275
-607.186	-200.000	-0.032	0.181
-606.171	-82.646	-0.423	-0.139
-605.157	-27.109	-0.046	-0.027
-604.142	-200.000	-0.008	0.087
-603.128	-200.000	0.001	0.225
-602.113	-174.368	0.405	-0.012
-601.098	162.240	0.140	0.199
-600.084	-116.477	0.104	-0.019
-599.069	-200.000	0.038	-0.247
-598.055	17.126	0.234	-0.189
-597.040	-16.872	-0.169	-0.108
-596.025	-96.648	0.229	0.061
-595.011	-151.358	0.215	-0.016
-593.996	-26.366	-0.038	-0.023
-592.982	800.000	-0.119	0.340
-591.967	-42.061	0.331	0.172
-590.952	-33.441	0.068	0.038
-589.938	445.374	0.036	0.081
-588.923	-101.533	-0.089	-0.022
-587.909	56.909	0.183	-0.182
-586.894	288.111	-0.128	0.235
-585.879	-57.485	0.209	0.093
-584.865	752.896	-0.050	0.137
-583.850	152.837	0.198	0.274
-582.836	285.661	0.005	-0.009
-581.821	-103.988	-0.203	0.048
-580.806	-99.662	-0.519	-0.132
-579.792	-200.000	0.030	-0.176
-578.777	-200.000	0.031	0.330
-577.763	-97.479	0.536	-0.141
-576.748	-200.000	-0.038	-0.179
-575.733	135.868	-0.137	0.182
-574.719	67.691	0.153	0.159
-573.704	800.000	0.055	0.170
-572.690	-108.093	0.224	-0.049
-571.675	270.649	0.176	0.315
-570.661	134.489	-0.245	-0.322
-569.646	135.780	-0.109	0.144
-568.631	-102.051	0.102	0.025
-567.617	79.375	0.318	-0.346
-566.602	119.289	-0.017	0.021
-565.588	-104.187	0.543	0.128
-564.573	-200.000	0.017	-0.266
-563.558	-110.889	0.154	0.032
-562.544	-156.390	-0.530	0.034
-561.529	-154.136	0.443	0.030
-560.515	-5.471	0.239	-0.166
-559.500	-200.000	-0.044	-0.292
-558.485	362.204	-0.132	0.268
-557.471	63.243	0.196	-0.199
-556.456	231.020	-0.050	-0.083
-555.442	-122.853	-0.050	-0.008
-554.427	800.000	-0.067	-0.215
-553.412	43.943	-0.216	0.201
-552.398	6.166	-0.262	-0.197
-551.383	141.557	-0.173	0.233
-550.369	8.562	-0.140	0.107
-549.354	-77.544	0.386	-0.136
-548.339	-200.000	0.022	0.098
-547.325	-105.921	-0.090	-0.020
-546.310	2.080	-0.128	-0.093
-545.296	474.363	0.037	-0.084
-544.281	-26.888	-0.174	-0.103
-543.266	-82.629	-0.299	-0.098
-542.252	91.807	-0.187	0.214
-541.237	-200.000	-0.002	-0.150
-540.223	-6.890	-0.247	-0.170
-539.208	197.544	-0.096	0.149
-538.193	40.493	0.212	0.194
-537.179	-108.586	-0.140	0.030
-536.164	800.000	-0.085	0.273
-535.150	-23.654	-0.240	0.146
-534.135	800.000	-0.093	0.386
-533.121	158.550	0.068	-0.096
-532.106	-159.240	0.302	-0.017
-531.091	800.000	0.042	-0.169
-530.077	800.000	-0.101	0.379
-529.062	159.030	-0.179	-0.252
-528.048	-50.067	0.114	-0.055
-527.033	-82.917	-0.176	0.057
-526.018	800.000	-0.085	0.376
-525.004	47.699	0.100	-0.095
-523.989	198.043	0.134	0.208
-522.975	180.802	0.041	-0.061
-521.960	-45.842	-0.139	-0.070
-520.945	-100.046	0.187	-0.047
-519.931	-200.000	0.012	-0.251
-518.916	-18.600	-0.310	0.196
-517.902	-54.857	0.040	0.018
-516.887	-200.000	0.080	0.461
-515.872	-64.718	0.378	-0.155
-514.858	-17.028	0.078	0.050
-513.843	-200.000	0.040	0.194
-512.829	373.039	0.193	-0.398
-511.814	736.563	0.119	-0.322
-510.799	-27.904	-0.374	-0.219
-509.785	-100.512	0.189	0.047
-508.770	-65.179	-0.307	-0.125
-507.756	457.969	-0.022	-0.049
-506.741	-28.255	0.225	0.132
-505.726	-56.418	-0.168	-0.076
-504.712	501.782	-0.131	0.306
-503.697	-91.830	0.357	0.103
-502.683	45.718	0.074	-0.069
-501.668	-40.492	0.198	-0.104
-500.653	-200.000	-0.009	0.060
-499.639	4.445	0.132	0.098
-498.624	800.000	0.011	-0.042
-497.610	31.824	-0.076	0.066
-496.595	800.000	0.014	0.058
-495.581	113.936	-0.175	0.215
-494.566	9.912	0.318	-0.244
-493.551	800.000	-0.086	0.318
-492.537	67.621	-0.261	0.270
-491.522	800.000	-0.044	0.183
-490.508	800.000	0.059	0.194
-489.493	-200.000	0.011	0.112
-488.478	-200.000	-0.005	0.058
-487.464	-200.000	-0.002	0.038
-486.449	800.000	0.070	0.204
-485.435	-78.161	0.355	-0.123
-484.420	-59.587	-0.306	-0.133
-483.405	221.439	0.140	-0.228
-482.391	800.000	0.121	-0.406
-481.376	-200.000	-0.067	-0.317
-480.362	-133.024	-0.207	0.027
-479.347	266.626	-0.211	-0.373
-478.332	176.072	-0.034	-0.051
-477.318	-17.386	0.058	-0.037
-476.303	112.072	-0.027	0.033
-475.289	297.258	0.065	-0.122
-474.274	13.682	-0.356	0.279
-473.259	-200.000	0.027	-0.198
-472.245	-200.000	-0.013	0.162
-471.230	-200.000	-0.068	-0.367
-470.216	323.245	0.104	-0.201
-469.201	-133.672	0.157	0.020
-468.186	70.664	0.130	0.136
-467.172	229.811	-0.199	0.328
-466.157	-92.989	-0.347	-0.098
-465.143	24.583	-0.304	0.254
-464.128	-121.856	-0.210	-0.035
-463.113	-99.924	-0.057	-0.014
-462.099	551.607	-0.017	-0.042
-461.084	199.766	-0.177	-0.274
-460.070	239.409	0.054	-0.092
-459.055	-200.000	-0.011	0.109
-458.040	-200.000	-0.115	-0.000
-457.026	-149.321	0.061	0.005
-456.011	-200.000	-0.040	0.357
-454.997	800.000	-0.071	0.300
-453.982	-27.980	0.088	0.051
-452.968	38.026	0.108	0.097
-451.953	800.000	-0.019	-0.057
-450.938	-200.000	0.021	-0.197
-449.924	62.017	0.149	-0.151
-448.909	290.633	0.077	-0.141
-447.895	-99.920	0.299	-0.076
-446.880	519.509	-0.104	-0.246
-445.865	-125.632	0.120	-0.018
-444.851	338.943	-0.197	0.387
-443.836	-14.357	0.043	0.028
-442.822	171.531	0.186	0.270
-441.807	-185.549	-0.282	0.004
-440.792	-100.057	-0.016	-0.004
-439.778	-151.458	-0.266	0.020
-438.763	295.241	0.008	0.014
-437.749	-38.884	-0.116	0.062
-436.734	119.670	-0.079	0.099
-435.719	271.585	0.128	-0.228
-434.705	-14.687	0.314	-0.204
-433.690	309.872	0.044	-0.082
-432.676	-159.641	0.317	0.018
-431.661	-200.000	0.027	0.316
-430.646	89.497	-0.185	-0.208
-429.632	-10.049	-0.050	0.033
-428.617	-137.614	0.284	0.032
-427.603	-51.539	-0.092	0.044
-426.588	137.905	0.225	-0.298
-425.573	176.415	-0.179	0.262
-424.559	50.589	-0.345	-0.330
-423.544	-200.000	0.005	-0.226
-422.530	53.878	0.116	0.112
-421.515	-200.000	-0.018	0.286
-420.500	-4.806	0.174	-0.121
-419.486	-116.775	-0.353	0.065
-418.471	-158.123	0.278	-0.016
-417.457	138.703	0.028	-0.037
-416.442	-69.010	-0.227	0.088
-415.428	-200.000	0.005	-0.100
-414.413	-52.210	0.360	-0.169
-413.398	220.408	0.129	0.208
-412.384	-200.000	0.048	0.351
-411.369	-54.315	0.053	-0.024
-410.355	-165.599	0.260	-0.011
-409.340	-99.436	-0.087	-0.022
-408.325	79.001	0.206	-0.222
-407.311	208.708	0.258	-0.407
-406.296	202.934	0.041	-0.064
-405.282	99.767	0.230	0.269
-404.267	22.357	-0.207	0.171
-403.252	59.687	0.113	-0.112
-402.238	-96.534	-0.330	-0.088
-401.223	-127.843	0.180	-0.026
-400.209	-200.000	0.004	-0.096
-399.194	-118.391	-0.036	0.006
-398.179	800.000	0.070	-0.265
-397.165	224.520	-0.077	0.125
-396.150	-200.000	-0.023	-0.181
-395.136	-200.000	0.033	-0.236
-394.121	7.009	0.117	0.088
-393.106	-56.521	0.167	0.075
-392.092	-41.433	-0.501	0.260
-391.077	-1.105	-0.135	0.096
-390.063	-46.181	-0.452	0.224
-389.048	-200.000	0.090	0.401
-388.033	354.655	0.078	-0.156
-387.019	591.477	-0.095	0.236
-386.004	198.924	-0.091	0.140
-384.990	12.243	-0.111	0.086
-383.975	241.844	-0.029	-0.048
-382.960	237.052	0.089	0.149
-381.946	78.979	0.286	0.308
-380.931	-63.815	-0.345	0.142
-379.917	128.238	0.111	0.143
-378.902	800.000	0.034	0.147
-377.888	18.480	0.249	-0.201
-376.873	227.065	-0.218	-0.356
-375.858	-200.000	0.100	-0.544
-374.844	-57.300	-0.209	0.093
-373.829	134.730	-0.072	0.094
-372.815	800.000	-0.069	0.212
-371.800	-66.026	-0.336	-0.135
-370.785	181.800	0.018	0.026
-369.771	-26.041	0.084	-0.050
-368.756	28.120	0.310	-0.264
-367.742	-44.981	-0.192	-0.096
-366.727	800.000	0.021	0.064
-365.712	-200.000	0.032	0.189
-364.698	-200.000	-0.018	-0.096
-363.683	800.000	-0.039	0.115
-362.669	146.852	-0.116	0.156
-361.654	800.000	-0.035	0.111
-360.639	-83.608	-0.178	-0.057
-359.625	-34.227	-0.108	0.060
-358.610	257.502	0.055	0.096
-357.596	-115.756	0.155	0.029
-356.581	41.705	0.274	0.250
-355.566	-200.000	-0.054	-0.327
-354.552	642.201	-0.158	0.405
-353.537	223.873	0.236	0.384
-352.523	-200.000	0.005	-0.273
-351.508	-74.383	-0.297	0.108
-350.493	46.636	-0.210	0.196
-349.479	-50.141	0.263	-0.125
-348.464	-131.140	0.189	0.025
-347.450	800.000	0.088	0.330
-346.435	800.000	-0.065	0.274
-345.420	-99.858	0.231	-0.058
-344.406	-200.000	-0.015	-0.169
-343.391	-97.636	0.207	0.054
-342.377	800.000	0.122	0.449
-341.362	-111.827	-0.288	0.059
-340.348	242.864	0.045	0.076
-339.333	2.178	-0.081	0.059
-338.318	167.967	0.144	-0.207
-337.304	-200.000	0.025	0.112
-336.289	51.890	0.125	-0.120
-335.275	139.911	-0.240	-0.318
-334.260	295.154	0.117	0.216
-333.245	800.000	-0.036	0.129
-332.231	-64.797	-0.346	0.141
-331.216	-200.000	0.053	-0.292
-330.202	-112.853	0.287	-0.057
-329.187	42.809	-0.043	-0.039
-328.172	-200.000	0.048	-0.350
-327.158	-147.297	-0.149	-0.013
-326.143	216.279	0.057	0.092
-325.129	201.180	-0.267	-0.413
-324.114	85.351	0.168	-0.185
-323.099	-68.989	-0.355	-0.138
-322.085	-117.699	0.413	-0.075
-321.070	-82.182	-0.146	-0.048
-320.056	-62.399	0.041	0.017
-319.041	-83.378	-0.205	-0.066
-318.026	-106.039	0.208	-0.047
-317.012	-126.010	0.301	0.045
-315.997	-165.392	-0.290	0.013
-314.983	-200.000	-0.051	0.249
-313.968	-200.000	-0.013	-0.061
-312.953	-69.886	0.360	0.138
-311.939	-67.631	-0.114	0.045
-310.924	800.000	0.043	-0.145
-309.910	-200.000	-0.040	0.308
-308.895	188.552	-0.129	-0.193
-307.880	25.871	-0.150	0.125
-306.866	84.095	0.164	-0.180
-305.851	783.622	-0.070	-0.194
-304.837	178.886	0.172	0.252
-303.822	67.283	-0.053	-0.054
-302.807	-105.293	-0.156	0.036
-301.793	144.016	0.191	0.256
-300.778	178.942	-0.124	0.182
-299.764	-196.623	0.335	0.002
-298.749	-200.000	-0.033	-0.210
-297.735	-17.692	-0.121	-0.076
-296.720	6.203	0.218	-0.163
-295.705	47.679	-0.168	-0.157
-294.691	2.572	0.258	-0.188
-293.676	800.000	0.055	0.206
-292.662	-200.000	0.005	-0.071
-291.647	800.000	0.065	-0.278
-290.632	500.402	0.097	0.225
-289.618	-136.830	0.231	-0.027
-288.603	-76.667	0.152	0.053
-287.589	-58.378	-0.301	-0.132
-286.574	-69.346	-0.363	-0.140
-285.559	-5.203	-0.247	-0.171
-284.545	397.400	-0.057	0.119
-283.530	6.710	0.188	0.140
-282.516	140.418	0.136	-0.180
-281.501	442.924	-0.114	-0.250
-280.486	148.411	0.231	-0.313
-279.472	-77.334	-0.020	0.007
-278.457	-200.000	-0.053	0.263
-277.443	800.000	0.084	0.261
-276.428	52.340	-0.075	0.072
-275.413	-117.618	-0.249	-0.045
-274.399	-109.090	0.080	-0.017
-273.384	101.597	-0.205	-0.240
-272.370	-192.196	0.072	-0.001
-271.355	-155.725	0.266	0.017
-270.340	-48.328	-0.253	0.122
-269.326	-16.910	-0.177	0.112
-268.311	153.238	0.110	-0.151
-267.297	-181.182	0.254	0.005
-266.282	161.379	0.084	0.118
-265.267	613.013	-0.080	-0.202
-264.253	-67.657	0.375	0.147
-263.238	-76.143	-0.083	-0.029
-262.224	800.000	0.065	-0.213
-261.209	-200.000	0.041	-0.409
-260.195	-2.387	-0.129	0.090
-259.180	-200.000	0.008	0.109
-258.165	-125.073	-0.265	0.041
-257.151	32.114	0.222	-0.192
-256.136	12.482	0.348	-0.269
-255.122	800.000	-0.083	0.258
-254.107	-200.000	0.029	-0.232
-253.092	38.664	0.256	-0.229
-252.078	99.588	0.072	-0.084
-251.063	119.023	0.026	0.032
-250.049	583.537	-0.059	-0.146
-249.034	231.356	-0.047	0.078
-248.019	5.459	-0.413	0.306
-247.005	-19.581	-0.152	0.094
-245.990	-200.000	0.013	-0.343
-244.976	-83.293	0.388	-0.125
-243.961	141.729	0.113	0.151
-242.946	-200.000	0.036	-0.351
-241.932	800.000	-0.022	0.072
-240.917	800.000	0.071	-0.238
-239.903	-165.733	-0.382	0.017
-238.888	17.683	-0.241	0.192
-237.873	-200.000	0.020	0.117
-236.859	800.000	0.071	0.227
-235.844	133.961	-0.197	0.256
-234.830	358.772	-0.057	-0.115
-233.815	121.377	-0.070	0.087
-232.800	800.000	-0.035	-0.132
-231.786	-200.000	-0.005	0.214
-230.771	333.076	0.032	-0.061
-229.757	-141.351	0.065	0.007
-228.742	104.452	-0.148	0.174
-227.727	39.338	0.102	-0.092
-226.713	301.009	-0.161	-0.298
-225.698	-200.000	0.015	-0.128
-224.684	757.538	0.099	0.268
-223.669	-134.588	-0.301	0.037
-222.655	-178.193	-0.131	-0.003
-221.640	104.766	0.161	0.190
-220.625	-164.465	-0.345	0.016
-219.611	70.402	-0.110	-0.114
-218.596	67.370	0.183	0.186
-217.582	-188.923	-0.069	-0.001
-216.567	-200.000	0.025	0.172
-215.552	800.000	-0.070	0.262
-214.538	548.422	-0.153	-0.367
-213.523	800.000	0.125	0.458
-212.509	260.771	0.030	-0.052
-211.494	-200.000	0.004	-0.028
-210.479	800.000	0.008	0.027
-209.465	285.143	0.158	-0.284
-208.450	9.852	-0.152	0.116
-207.436	207.884	0.098	0.153
-206.421	161.285	0.156	-0.218
-205.406	-125.806	0.097	-0.015
-204.392	5.931	-0.211	-0.157
-203.377	-186.824	-0.336	-0.005
-202.363	134.423	0.155	-0.201
-201.348	-200.000	0.013	-0.161
-200.333	-200.000	-0.035	-0.209
-199.319	5.945	-0.121	0.089
-198.304	152.857	-0.019	0.025
-197.290	800.000	-0.068	-0.257
-196.275	-200.000	0.024	0.170
-195.260	383.739	0.032	-0.065
-194.246	185.519	-0.049	-0.073
-193.231	147.185	0.120	0.161
-192.217	-47.221	-0.341	-0.166
-191.202	75.112	0.125	0.131
-190.187	-154.347	-0.122	0.008
-189.173	23.711	0.103	-0.085
-188.158	169.864	-0.073	-0.105
-187.144	-117.932	0.097	0.017
-186.129	-99.764	0.273	0.068
-185.114	-174.092	0.372	0.011
-184.100	196.664	-0.152	0.232
-183.085	-104.737	-0.282	0.065
-182.071	-3.979	0.185	0.128
-181.056	46.178	-0.229	-0.212
-180.042	800.000	-0.069	0.301
-179.027	55.574	0.262	0.254
-178.012	68.155	-0.196	-0.201
-176.998	-110.581	-0.111	0.023
-175.983	610.198	0.056	-0.139
-174.969	363.229	-0.008	0.017
-173.954	-200.000	0.010	-0.106
-172.939	-200.000	-0.011	-0.105
-171.925	8.681	0.124	-0.093
-170.910	-146.074	0.487	0.043
-169.896	800.000	0.063	-0.200
-168.881	45.014	-0.293	-0.269
-167.866	-11.590	0.231	-0.152
-166.852	-79.147	0.385	-0.130
-165.837	800.000	-0.039	-0.143
-164.823	-200.000	0.020	-0.178
-163.808	-50.598	0.097	-0.046
-162.793	-50.555	0.274	0.129
-161.779	-91.609	-0.224	0.064
-160.764	-7.123	0.180	0.122
-159.750	267.672	-0.223	-0.389
-158.735	-15.112	0.216	-0.138
-157.720	-200.000	0.008	0.087
-156.706	80.325	-0.082	0.088
-155.691	-38.780	0.330	0.174
-154.677	-200.000	0.028	-0.372
-153.662	-200.000	-0.028	-0.368
-152.647	113.553	-0.083	0.101
-151.633	-0.906	-0.260	0.184
-150.618	-155.052	0.033	-0.002
-149.604	-82.634	-0.218	0.070
-148.589	476.986	-0.090	0.204
-147.574	7.112	-0.035	-0.026
-146.560	-102.391	0.237	0.057
-145.545	800.000	0.088	-0.357
-144.531	-200.000	-0.038	0.291
-143.516	-54.212	-0.262	-0.119
-142.502	71.466	0.089	-0.092
-141.487	-200.000	-0.026	-0.232
-140.472	-165.312	0.498	0.022
-139.458	-200.000	0.017	0.110
-138.443	-200.000	-0.031	-0.184
-137.429	74.647	0.222	0.233
-136.414	104.215	-0.060	0.071
-135.399	800.000	-0.012	0.035
-134.385	-200.000	-0.051	-0.228
-133.370	-121.882	-0.544	0.089
-132.356	32.159	-0.127	-0.109
-131.341	239.148	0.212	0.352
-130.326	-89.208	-0.275	-0.081
-129.312	-200.000	0.013	0.131
-128.297	-132.474	0.257	-0.033
-127.283	91.538	0.097	0.109
-126.268	-200.000	-0.002	-0.156
-125.253	-106.591	-0.311	-0.069
-124.239	511.097	0.106	0.245
-123.224	89.291	0.232	-0.258
-122.210	-43.842	0.362	-0.182
-121.195	20.655	0.191	0.154
