DTS Sentinel unit serial number:	SN413079Multiplexer serial number:	ORYXHardware model number:	OX4-SRSoftware version number:	ORYX F/W v4.00 Oryx Data Collector v3.7.2.0data status	okinstallation	princeton_trtdifferential loss correction	single-endedforward channel	channel 1reverse channel	N/Adate	2019/09/14time	02:46:35forward acquisition time	60.00reverse acquisition time	0.00gamma	496.2192k internal	0.2336k external	0.2336temperature offset calibration	1.0075default loss term (dB/km)	0.3790temperature slope calibration	1.0000multiplexer offset coefficient	1.0000multiplexer slope coefficient	1.0000fibre end	0.00T internal ref (°C)	26.56T ext. ref 1 (°C)	3.23T ext. ref 2 (°C)	21.60length (m)	temperature (°C)	Stokes	anti-Stokes-747.200	-176.453	-0.088	-0.002
-746.185	-41.926	-0.061	0.032
-745.171	-60.678	-0.120	0.051
-744.156	-162.192	0.112	-0.006
-743.142	-79.824	0.176	-0.060
-742.127	-134.131	-0.369	-0.046
-741.112	34.990	-0.137	0.121
-740.098	-95.203	0.157	-0.043
-739.083	252.730	0.292	-0.500
-738.069	50.320	0.130	0.123
-737.054	-158.960	-0.179	0.010
-736.039	-113.093	-0.127	-0.025
-735.025	-24.745	0.132	0.079
-734.010	375.021	-0.100	0.204
-732.996	69.875	-0.148	-0.153
-731.981	800.000	0.096	-0.302
-730.966	388.607	0.024	-0.051
-729.952	-200.000	-0.068	-0.310
-728.937	19.363	0.124	-0.100
-727.923	382.071	0.108	0.224
-726.908	61.710	-0.119	0.119
-725.894	800.000	-0.040	-0.141
-724.879	-98.020	-0.371	-0.096
-723.864	-200.000	0.017	-0.283
-722.850	-85.037	-0.114	0.036
-721.835	-65.423	0.107	0.043
-720.821	-50.530	-0.752	-0.356
-719.806	-200.000	0.008	-0.350
-718.791	-183.727	0.118	0.002
-717.777	-92.483	0.376	0.106
-716.762	285.910	0.119	-0.215
-715.748	-200.000	-0.027	-0.338
-714.733	-30.178	-0.246	-0.140
-713.718	437.566	-0.104	0.228
-712.704	-200.000	-0.032	0.179
-711.689	-200.000	0.003	-0.055
-710.675	206.339	0.087	-0.137
-709.660	-200.000	-0.009	0.081
-708.645	-145.100	-0.183	-0.017
-707.631	616.895	0.057	-0.143
-706.616	-200.000	-0.032	-0.265
-705.602	-44.112	0.040	-0.020
-704.587	-142.259	-0.191	-0.019
-703.572	431.097	0.110	-0.239
-702.558	-200.000	-0.005	-0.072
-701.543	17.316	0.173	0.138
-700.529	159.623	0.105	-0.147
-699.514	-48.424	-0.147	0.071
-698.499	264.337	-0.023	-0.040
-697.485	637.055	0.132	0.337
-696.470	-24.413	0.161	-0.096
-695.456	-12.145	-0.364	-0.239
-694.441	392.950	-0.014	0.030
-693.426	-99.930	-0.122	-0.031
-692.412	-48.185	-0.241	-0.117
-691.397	-200.000	-0.021	-0.102
-690.383	-127.984	-0.448	0.064
-689.368	-200.000	-0.079	0.536
-688.354	-57.203	-0.176	-0.078
-687.339	172.319	-0.110	-0.159
-686.324	800.000	0.022	-0.081
-685.310	-140.878	-0.121	-0.012
-684.295	-62.720	-0.222	-0.092
-683.281	521.162	-0.075	-0.176
-682.266	-137.547	-0.396	0.045
-681.251	78.235	0.148	0.159
-680.237	46.151	-0.104	0.097
-679.222	134.897	0.121	-0.157
-678.208	-118.239	-0.254	-0.045
-677.193	800.000	-0.037	-0.125
-676.178	72.245	-0.137	-0.143
-675.164	167.120	0.043	-0.061
-674.149	-118.939	-0.228	0.040
-673.135	-179.294	-0.126	-0.003
-672.120	119.367	-0.099	-0.122
-671.105	-73.961	0.232	-0.084
-670.091	-41.680	0.251	0.129
-669.076	-157.241	-0.177	0.011
-668.062	-54.167	-0.254	-0.116
-667.047	-47.543	-0.063	-0.031
-666.032	169.931	0.053	-0.076
-665.018	663.145	0.107	0.275
-664.003	-198.562	0.193	-0.001
-662.989	-200.000	0.026	-0.147
-661.974	274.349	0.055	-0.097
-660.959	281.199	-0.115	-0.207
-659.945	800.000	0.084	-0.238
-658.930	-42.238	-0.275	-0.141
-657.916	-129.462	-0.206	0.029
-656.901	-66.801	-0.172	-0.068
-655.886	90.655	-0.180	-0.202
-654.872	129.431	-0.032	-0.041
-653.857	74.565	-0.021	0.022
-652.843	349.963	-0.130	-0.256
-651.828	790.416	-0.045	-0.123
-650.814	-200.000	0.002	0.070
-649.799	11.606	0.211	-0.162
-648.784	800.000	0.076	-0.298
-647.770	-21.156	-0.122	-0.075
-646.755	-131.284	-0.092	0.012
-645.741	9.845	0.162	-0.123
-644.726	-200.000	-0.021	-0.157
-643.711	56.997	-0.053	-0.052
-642.697	800.000	0.120	-0.469
-641.682	202.003	-0.250	-0.385
-640.668	380.137	-0.046	0.095
-639.653	-200.000	-0.004	-0.033
-638.638	-37.489	0.286	-0.153
-637.624	-158.844	-0.488	-0.028
-636.609	233.657	0.057	0.094
-635.595	-29.932	-0.152	0.087
-634.580	81.059	0.125	-0.135
-633.565	-49.932	-0.020	0.010
-632.551	-65.927	-0.182	-0.073
-631.536	303.822	-0.084	-0.155
-630.522	-33.013	0.131	-0.073
-629.507	-200.000	-0.012	0.132
-628.492	-200.000	-0.016	-0.196
-627.478	38.186	0.114	0.101
-626.463	-124.088	0.331	-0.052
-625.449	162.445	0.088	-0.123
-624.434	344.769	0.149	-0.292
-623.419	-200.000	-0.041	0.304
-622.405	-71.733	-0.171	-0.064
-621.390	-164.823	-0.213	-0.010
-620.376	48.872	0.005	-0.004
-619.361	-78.841	-0.242	-0.083
-618.346	-200.000	-0.047	0.232
-617.332	-121.405	0.262	-0.044
-616.317	50.390	-0.071	-0.067
-615.303	-200.000	-0.018	-0.348
-614.288	-15.629	0.152	0.097
-613.273	67.832	0.354	-0.361
-612.259	-83.737	-0.054	0.017
-611.244	28.410	0.117	-0.099
-610.230	-96.347	0.102	-0.027
-609.215	-162.738	-0.120	0.006
-608.201	-143.865	-0.077	-0.007
-607.186	-200.000	-0.032	-0.166
-606.171	-200.000	-0.019	-0.174
-605.157	-146.435	-0.222	-0.019
-604.142	-200.000	-0.031	-0.155
-603.128	-6.850	-0.030	0.020
-602.113	-19.843	-0.347	-0.214
-601.098	105.019	-0.400	-0.472
-600.084	271.319	-0.151	-0.266
-599.069	-200.000	0.001	0.152
-598.055	-20.380	-0.178	-0.109
-597.040	800.000	-0.097	0.271
-596.025	75.821	0.199	0.210
-595.011	-116.964	0.256	-0.047
-593.996	-200.000	-0.006	-0.192
-592.982	374.242	0.086	0.175
-591.967	-148.870	0.197	-0.016
-590.952	205.531	-0.041	0.064
-589.938	248.053	0.202	0.342
-588.923	-200.000	0.048	0.231
-587.909	-172.727	0.213	-0.007
-586.894	351.814	0.032	0.064
-585.879	-33.422	-0.194	-0.107
-584.865	-200.000	-0.002	0.354
-583.850	800.000	-0.058	0.175
-582.836	-200.000	0.001	-0.104
-581.821	-114.637	-0.075	0.014
-580.806	345.489	-0.151	0.295
-579.792	27.655	0.117	0.098
-578.777	-200.000	0.069	-0.363
-577.763	-200.000	0.013	0.158
-576.748	494.271	-0.108	0.246
-575.733	-78.438	0.386	-0.132
-574.719	800.000	0.076	-0.322
-573.704	-14.705	-0.182	0.117
-572.690	132.005	0.046	0.059
-571.675	-93.269	-0.420	-0.116
-570.661	800.000	-0.040	0.134
-569.646	-114.383	-0.362	-0.070
-568.631	-116.223	0.156	0.029
-567.617	83.687	-0.346	0.377
-566.602	-113.411	-0.218	0.043
-565.588	-57.040	-0.036	-0.016
-564.573	-200.000	-0.004	-0.104
-563.558	-155.100	-0.173	0.011
-562.544	-99.683	-0.110	0.028
-561.529	200.213	0.168	0.258
-560.515	-3.847	0.153	-0.106
-559.500	519.005	-0.125	0.292
-558.485	-200.000	0.055	-0.363
-557.471	-200.000	-0.040	-0.418
-556.456	-64.052	0.420	0.171
-555.442	116.944	0.099	-0.122
-554.427	800.000	-0.048	-0.186
-553.412	-161.177	0.349	0.018
-552.398	-84.774	-0.381	0.119
-551.383	562.743	-0.118	0.286
-550.369	-13.302	-0.230	0.149
-549.354	-64.415	0.174	0.070
-548.339	-200.000	0.022	0.268
-547.325	32.692	-0.161	-0.139
-546.310	-200.000	0.034	-0.282
-545.296	-24.015	0.095	-0.057
-544.281	-21.128	-0.097	-0.059
-543.266	800.000	-0.086	-0.303
-542.252	402.711	0.036	0.075
-541.237	-52.480	-0.200	-0.092
-540.223	-200.000	-0.043	0.208
-539.208	-150.160	-0.065	-0.005
-538.193	-200.000	-0.010	-0.179
-537.179	-64.418	0.166	-0.067
-536.164	-162.032	0.265	-0.013
-535.150	564.947	0.042	0.103
-534.135	187.707	0.085	-0.126
-533.121	-138.747	0.072	-0.008
-532.106	-184.755	-0.174	0.003
-531.091	57.299	-0.055	-0.054
-530.077	44.553	-0.093	-0.085
-529.062	132.678	-0.066	0.084
-528.048	-112.004	-0.155	-0.031
-527.033	-200.000	-0.116	0.585
-526.018	-200.000	0.059	0.272
-525.004	42.076	-0.100	-0.090
-523.989	-22.544	0.172	0.104
-522.975	-152.482	-0.077	0.006
-521.960	-71.761	-0.067	0.025
-520.945	800.000	-0.109	-0.382
-519.931	213.534	0.091	-0.143
-518.916	-200.000	0.102	0.524
-517.902	-200.000	-0.040	0.201
-516.887	572.803	-0.057	-0.137
-515.872	-35.526	0.209	-0.113
-514.858	537.871	-0.050	0.117
-513.843	65.967	0.013	0.013
-512.829	-200.000	0.049	-0.278
-511.814	702.934	0.025	-0.066
-510.799	-113.258	-0.193	0.038
-509.785	312.477	0.120	0.224
-508.770	-200.000	0.017	0.079
-507.756	-54.037	-0.024	-0.011
-506.741	-200.000	0.032	0.201
-505.726	8.550	-0.226	0.169
-504.712	76.523	0.074	0.078
-503.697	-115.070	0.313	-0.059
-502.683	7.091	-0.296	-0.219
-501.668	-17.395	-0.098	0.061
-500.653	-0.063	0.126	0.089
-499.639	-91.798	-0.279	-0.079
-498.624	-141.230	0.230	0.023
-497.610	-58.440	0.219	0.094
-496.595	-78.512	0.102	-0.035
-495.581	69.974	0.043	-0.044
-494.566	-12.823	-0.223	-0.145
-493.551	427.833	0.168	-0.362
-492.537	74.398	-0.099	0.103
-491.522	-17.951	0.238	-0.148
-490.508	-200.000	-0.021	0.147
-489.493	-118.843	-0.378	0.066
-488.478	119.886	0.101	-0.124
-487.464	-120.314	-0.176	-0.030
-486.449	34.047	-0.193	0.167
-485.435	-5.653	0.324	-0.221
-484.420	800.000	-0.081	0.254
-483.405	111.482	-0.155	0.186
-482.391	-33.857	0.177	0.097
-481.376	37.612	-0.223	-0.197
-480.362	-200.000	0.052	-0.351
-479.347	800.000	0.068	-0.225
-478.332	748.875	-0.026	-0.069
-477.318	-105.459	0.193	-0.044
-476.303	133.128	0.042	-0.054
-475.289	54.832	-0.141	-0.136
-474.274	-68.907	-0.117	0.045
-473.259	46.545	0.064	-0.059
-472.245	-0.399	-0.154	-0.109
-471.230	54.450	0.346	-0.332
-470.216	800.000	-0.079	0.315
-469.201	-200.000	-0.072	0.366
-468.186	34.301	0.055	0.048
-467.172	19.397	0.125	0.100
-466.157	-112.311	-0.122	-0.024
-465.143	-200.000	0.009	0.406
-464.128	252.425	0.108	-0.184
-463.113	-145.995	0.124	-0.011
-462.099	535.579	0.142	0.335
-461.084	57.504	0.052	-0.051
-460.070	-140.145	0.133	0.014
-459.055	-84.951	-0.208	0.065
-458.040	201.219	0.100	0.153
-457.026	80.258	-0.286	0.306
-456.011	-5.038	0.221	-0.151
-454.997	157.627	0.137	0.188
-453.982	800.000	0.056	0.189
-452.968	-200.000	0.008	0.149
-451.953	-48.031	-0.229	-0.110
-450.938	-161.855	0.273	0.014
-449.924	194.990	-0.113	-0.171
-448.909	-64.477	-0.340	-0.137
-447.895	244.017	-0.142	0.237
-446.880	-200.000	-0.055	0.377
-445.865	38.641	-0.198	0.175
-444.851	800.000	-0.029	-0.124
-443.836	52.612	-0.167	-0.159
-442.822	-200.000	-0.002	0.301
-441.807	93.307	0.141	0.158
-440.792	-200.000	0.026	-0.414
-439.778	-200.000	-0.010	-0.100
-438.763	-87.157	-0.248	0.075
-437.749	-200.000	-0.051	-0.236
-436.734	-137.850	-0.251	-0.028
-435.719	800.000	0.034	0.130
-434.705	-200.000	-0.045	0.219
-433.690	-99.115	-0.038	-0.009
-432.676	-200.000	-0.009	0.208
-431.661	-199.781	0.173	-0.001
-430.646	2.536	0.140	-0.100
-429.632	-56.574	-0.323	-0.142
-428.617	236.929	0.095	-0.155
-427.603	185.278	0.179	0.264
-426.588	-11.817	0.234	-0.152
-425.573	14.875	-0.303	0.235
-424.559	97.891	0.116	0.132
-423.544	-87.863	-0.215	0.064
-422.530	-83.302	-0.120	0.038
-421.515	-200.000	-0.034	0.256
-420.500	-200.000	0.019	-0.461
-419.486	462.603	-0.111	-0.245
-418.471	149.494	0.115	0.155
-417.457	130.983	0.220	0.280
-416.442	3.250	0.365	0.263
-415.428	55.486	0.261	0.251
-414.413	800.000	0.064	0.188
-413.398	-100.720	0.162	-0.040
-412.384	-200.000	-0.061	-0.368
-411.369	-110.645	0.330	-0.068
-410.355	-200.000	-0.030	-0.182
-409.340	392.065	-0.061	-0.125
-408.325	363.568	-0.157	-0.314
-407.311	-99.009	0.125	-0.031
-406.296	-153.110	0.138	0.010
-405.282	800.000	0.215	-0.617
-404.267	-127.856	0.243	0.035
-403.252	-200.000	0.011	0.257
-402.238	103.052	0.066	0.077
-401.223	-200.000	-0.056	-0.315
-400.209	-52.254	0.071	-0.033
-399.194	-161.832	0.327	-0.016
-398.179	800.000	0.141	-0.390
-397.165	74.265	0.111	0.115
-396.150	177.790	-0.159	0.229
-395.136	-1.605	0.110	0.077
-394.121	-5.675	-0.030	0.020
-393.106	34.485	0.168	-0.146
-392.092	-58.968	-0.305	-0.130
-391.077	-43.759	0.472	0.235
-390.063	68.901	0.349	0.355
-389.048	-82.959	-0.134	-0.043
-388.033	193.078	0.224	-0.335
-387.019	157.504	-0.063	-0.086
-386.004	-200.000	-0.016	-0.101
-384.990	800.000	-0.128	0.356
-383.975	-200.000	-0.031	0.219
-382.960	126.210	0.064	-0.080
-381.946	-200.000	0.025	0.218
-380.931	4.293	0.136	-0.099
-379.917	-21.504	0.226	0.137
-378.902	-200.000	-0.031	0.266
-377.888	245.458	-0.167	-0.278
-376.873	-48.255	-0.247	-0.118
-375.858	-200.000	-0.007	0.247
-374.844	-200.000	-0.046	0.217
-373.829	-171.828	-0.241	0.008
-372.815	-166.585	-0.221	0.009
-371.800	518.013	0.095	-0.221
-370.785	185.401	0.149	-0.219
-369.771	-19.854	-0.143	-0.087
-368.756	-200.000	0.002	-0.023
-367.742	52.527	0.255	-0.241
-366.727	72.962	-0.127	0.131
-365.712	84.399	0.169	-0.183
-364.698	136.096	-0.097	0.125
-363.683	-93.240	-0.179	0.049
-362.669	-132.231	-0.203	-0.026
-361.654	-200.000	0.022	-0.296
-360.639	-161.457	-0.400	0.020
-359.625	352.051	-0.090	-0.176
-358.610	-200.000	0.031	-0.268
-357.596	800.000	0.025	0.074
-356.581	163.306	0.033	-0.046
-355.566	-200.000	0.022	-0.106
-354.552	681.454	-0.121	0.313
-353.537	96.119	-0.120	-0.135
-352.523	-200.000	0.023	0.211
-351.508	188.675	-0.068	0.101
-350.493	-5.235	0.119	0.081
-349.479	107.259	-0.217	-0.255
-348.464	35.835	0.234	-0.203
-347.450	800.000	-0.086	-0.247
-346.435	-200.000	-0.003	0.197
-345.420	243.507	0.266	0.440
-344.406	-76.486	-0.155	0.054
-343.391	-200.000	0.051	-0.238
-342.377	180.681	0.236	-0.343
-341.362	72.136	0.155	-0.159
-340.348	-200.000	0.009	-0.079
-339.333	-200.000	0.030	-0.145
-338.318	480.171	0.040	-0.090
-337.304	-121.637	-0.141	0.023
-336.289	61.517	-0.252	-0.248
-335.275	-200.000	-0.401	0.002
-334.260	-89.272	-0.106	0.031
-333.245	74.380	0.083	-0.086
-332.231	-14.978	0.078	0.050
-331.216	49.204	0.082	-0.077
-330.202	800.000	0.117	-0.399
-329.187	-61.159	-0.139	-0.058
-328.172	-200.000	-0.003	0.161
-327.158	-50.788	-0.064	-0.030
-326.143	-116.471	-0.296	0.054
-325.129	168.548	0.067	-0.094
-324.114	-0.551	-0.065	0.045
-323.099	561.165	-0.080	0.190
-322.085	456.861	-0.076	0.166
-321.070	800.000	0.034	0.097
-320.056	-65.158	-0.178	-0.071
-319.041	-79.945	0.087	-0.029
-318.026	-7.763	-0.473	-0.316
-317.012	-95.357	-0.130	0.034
-315.997	-28.813	0.038	-0.022
-314.983	344.625	0.092	-0.178
-313.968	658.138	0.053	-0.135
-312.953	-94.857	0.339	0.091
-311.939	26.123	-0.063	-0.052
-310.924	800.000	-0.028	-0.121
-309.910	104.425	-0.206	0.239
-308.895	308.722	-0.077	0.142
-307.880	-111.751	0.292	-0.058
-306.866	-200.000	0.055	0.380
-305.851	-200.000	0.037	0.172
-304.837	-38.894	0.210	-0.109
-303.822	-71.695	0.259	0.096
-302.807	-46.240	-0.372	0.181
-301.793	214.328	-0.040	-0.063
-300.778	-200.000	0.033	-0.184
-299.764	774.675	0.013	-0.035
-298.749	92.402	-0.213	0.236
-297.735	-19.389	0.225	0.137
-296.720	687.203	0.033	-0.084
-295.705	-16.513	0.334	0.209
-294.691	-199.317	-0.132	0.001
-293.676	323.385	0.160	-0.301
-292.662	800.000	-0.046	-0.178
-291.647	-200.000	-0.036	0.177
-290.632	239.263	0.053	0.088
-289.618	-0.201	0.038	0.026
-288.603	-200.000	-0.016	0.228
-287.589	-3.640	-0.231	0.159
-286.574	-97.893	0.084	-0.021
-285.559	24.906	0.164	-0.134
-284.545	9.961	-0.250	-0.187
-283.530	209.889	-0.200	-0.309
-282.516	-200.000	-0.026	0.187
-281.501	29.758	0.135	0.114
-280.486	-200.000	0.008	-0.211
-279.472	-2.511	0.225	0.156
-278.457	-78.681	0.173	-0.058
-277.443	-4.465	0.261	0.178
-276.428	-165.576	0.046	-0.002
-275.413	67.260	-0.128	0.129
-274.399	23.784	0.057	-0.046
-273.384	279.237	-0.113	-0.198
-272.370	-187.221	-0.403	-0.005
-271.355	-131.003	-0.207	0.027
-270.340	-129.134	-0.215	0.030
-269.326	-200.000	-0.009	0.046
-268.311	-78.491	-0.022	-0.007
-267.297	-77.617	0.182	-0.062
-266.282	-200.000	-0.023	0.505
-265.267	13.390	0.191	0.146
-264.253	-200.000	0.007	0.044
-263.238	-200.000	-0.022	0.180
-262.224	-92.527	-0.024	0.007
-261.209	800.000	0.031	0.128
-260.195	796.793	0.088	0.240
-259.180	-75.594	-0.185	-0.065
-258.165	98.047	0.086	-0.097
-257.151	362.798	0.048	-0.094
-256.136	-200.000	-0.051	0.234
-255.122	42.761	-0.141	-0.127
-254.107	180.186	0.074	-0.106
-253.092	-54.866	-0.407	-0.181
-252.078	-200.000	-0.018	0.288
-251.063	-13.927	-0.207	0.132
-250.049	609.618	0.027	-0.066
-249.034	-175.999	-0.337	0.009
-248.019	-50.621	0.345	0.160
-247.005	-98.458	-0.336	0.085
-245.990	-37.906	-0.066	0.035
-244.976	131.752	0.196	-0.248
-243.961	547.387	0.016	-0.037
-242.946	114.048	-0.072	-0.086
-241.932	48.386	-0.074	0.068
-240.917	115.522	0.074	-0.090
-239.903	104.650	0.032	-0.037
-238.888	-142.990	0.326	0.031
-237.873	-200.000	0.004	-0.297
-236.859	426.519	-0.127	0.269
-235.844	-2.191	0.341	0.235
-234.830	155.948	-0.165	0.224
-233.815	-96.541	-0.149	0.039
-232.800	296.273	0.044	-0.079
-231.786	800.000	0.080	0.260
-230.771	145.564	0.151	-0.199
-229.757	-74.325	-0.122	0.043
-228.742	-82.789	-0.460	0.147
-227.727	6.306	-0.288	0.210
-226.713	-131.868	0.249	-0.032
-225.698	800.000	0.064	0.248
-224.684	-200.000	-0.052	-0.316
-223.669	234.771	-0.109	0.177
-222.655	-114.999	0.086	-0.016
-221.640	45.782	-0.110	-0.100
-220.625	258.012	0.086	-0.145
-219.611	-200.000	-0.084	0.393
-218.596	-61.339	0.217	-0.090
-217.582	-200.000	0.009	0.131
-216.567	303.922	-0.044	-0.081
-215.552	666.470	-0.062	0.158
-214.538	-75.096	-0.108	-0.038
-213.523	-81.303	-0.372	0.121
-212.509	800.000	0.078	0.255
-211.494	-71.080	-0.175	-0.065
-210.479	800.000	-0.060	0.237
-209.465	-21.523	0.336	0.202
-208.450	-200.000	-0.004	-0.164
-207.436	118.382	0.257	-0.312
-206.421	-108.985	-0.225	0.047
-205.406	-200.000	0.004	-0.029
-204.392	-100.601	0.378	0.092
-203.377	-86.084	0.379	-0.115
-202.363	124.988	-0.078	0.097
-201.348	238.836	-0.059	0.096
-200.333	-200.000	-0.006	0.061
-199.319	-200.000	0.021	-0.163
-198.304	-80.797	0.118	-0.039
-197.290	-78.396	-0.089	0.030
-196.275	-200.000	0.030	0.179
-195.260	77.198	0.181	0.189
-194.246	-79.219	-0.239	0.080
-193.231	800.000	0.057	0.168
-192.217	-17.204	0.225	-0.139
-191.202	800.000	0.056	-0.164
-190.187	-77.917	0.213	0.072
-189.173	347.894	-0.057	-0.110
-188.158	-137.097	0.347	0.039
-187.144	-13.011	0.191	0.122
-186.129	-108.818	0.129	-0.027
-185.114	331.223	0.097	0.184
-184.100	466.928	-0.089	-0.195
-183.085	237.093	0.073	-0.118
-182.071	-51.359	-0.070	0.032
-181.056	559.875	0.034	0.081
-180.042	-200.000	0.010	0.150
-179.027	-200.000	0.010	0.048
-178.012	21.813	0.298	-0.238
-176.998	-102.486	-0.091	-0.021
-175.983	717.176	0.122	0.318
-174.969	-45.428	-0.151	-0.074
-173.954	800.000	-0.052	0.175
-172.939	110.880	0.076	-0.090
-171.925	154.649	-0.052	0.071
-170.910	236.280	0.078	-0.126
-169.896	-147.694	0.323	0.027
-168.881	-40.080	-0.104	-0.053
-167.866	51.404	0.234	-0.218
-166.852	-52.548	0.174	0.079
-165.837	-130.800	-0.228	0.030
-164.823	207.897	-0.024	0.036
-163.808	240.065	-0.085	0.138
-162.793	-200.000	0.012	0.105
-161.779	121.653	-0.069	-0.085
-160.764	-200.000	0.046	-0.374
-159.750	-100.244	-0.132	0.032
-158.735	800.000	0.007	-0.024
-157.720	375.760	0.088	-0.176
-156.706	-17.872	0.145	0.090
-155.691	180.029	0.076	-0.110
-154.677	-114.246	-0.258	-0.049
-153.662	482.928	0.029	0.064
-152.647	-7.133	0.162	0.108
-151.633	800.000	0.072	-0.205
-150.618	78.643	0.057	0.060
-149.604	-200.000	-0.026	-0.384
-148.589	-200.000	0.023	0.119
-147.574	800.000	-0.037	-0.131
-146.560	61.133	-0.109	-0.106
-145.545	-49.778	-0.176	0.082
-144.531	183.332	-0.166	0.240
-143.516	-58.022	0.215	0.092
-142.502	20.089	-0.003	-0.003
-141.487	-103.550	0.256	-0.059
-140.472	-66.941	-0.153	-0.059
-139.458	-49.663	-0.374	0.174
-138.443	16.308	0.082	0.064
-137.429	130.206	-0.110	-0.138
-136.414	-3.971	0.138	-0.094
-135.399	-200.000	-0.038	-0.405
-134.385	-12.963	-0.264	-0.169
-133.370	435.072	0.031	0.066
-132.356	-97.334	0.369	-0.094
-131.341	-63.330	0.276	0.111
-130.326	524.589	0.025	0.058
-129.312	-57.905	-0.074	0.032
-128.297	800.000	-0.113	-0.308
-127.283	101.564	0.256	-0.293
-126.268	-200.000	0.002	-0.100
-125.253	800.000	-0.074	0.229
-124.239	652.164	0.085	0.213
-123.224	-62.131	0.381	-0.156
