DTS Sentinel unit serial number:	SN413079Multiplexer serial number:	ORYXHardware model number:	OX4-SRSoftware version number:	ORYX F/W v4.00 Oryx Data Collector v3.7.2.0data status	okinstallation	princeton_trtdifferential loss correction	single-endedforward channel	channel 1reverse channel	N/Adate	2019/09/12time	11:04:11forward acquisition time	60.00reverse acquisition time	0.00gamma	496.2192k internal	0.2295k external	0.2295temperature offset calibration	1.0050default loss term (dB/km)	0.3790temperature slope calibration	1.0000multiplexer offset coefficient	1.0000multiplexer slope coefficient	1.0000fibre end	0.00T internal ref (°C)	38.56T ext. ref 1 (°C)	1.96T ext. ref 2 (°C)	35.78length (m)	temperature (°C)	Stokes	anti-Stokes-747.200	-200.000	0.042	0.288
-746.185	-65.449	0.391	0.161
-745.171	-105.493	0.166	-0.039
-744.156	-200.000	-0.007	0.177
-743.142	-200.000	-0.044	0.328
-742.127	-200.000	-0.038	0.376
-741.112	-104.159	0.286	-0.068
-740.098	-106.889	-0.411	-0.093
-739.083	109.233	-0.163	-0.200
-738.069	-13.546	0.441	0.292
-737.054	-200.000	0.028	0.204
-736.039	318.140	0.109	0.211
-735.025	800.000	0.071	-0.278
-734.010	-42.297	0.276	0.144
-732.996	-43.136	-0.262	-0.136
-731.981	47.201	-0.227	-0.216
-730.966	-135.538	0.193	0.023
-729.952	220.129	-0.074	-0.120
-728.937	-64.509	-0.222	-0.092
-727.923	800.000	-0.052	-0.158
-726.908	218.450	0.351	-0.572
-725.894	800.000	-0.042	-0.169
-724.879	38.740	-0.212	-0.193
-723.864	19.652	0.188	-0.155
-722.850	-200.000	-0.057	-0.300
-721.835	150.680	0.180	-0.249
-720.821	118.544	-0.219	0.276
-719.806	-152.000	0.116	-0.009
-718.791	588.067	-0.088	-0.220
-717.777	6.781	0.338	-0.257
-716.762	-83.705	-0.113	0.037
-715.748	-49.072	-0.180	-0.088
-714.733	-80.754	-0.213	-0.072
-713.718	-40.115	0.221	-0.118
-712.704	-151.107	-0.112	0.009
-711.689	65.068	0.142	0.146
-710.675	-200.000	0.032	-0.324
-709.660	-200.000	0.036	0.275
-708.645	800.000	0.053	0.211
-707.631	354.168	0.015	0.030
-706.616	245.375	-0.104	0.179
-705.602	-181.934	0.215	-0.004
-704.587	29.517	-0.247	0.214
-703.572	-200.000	0.020	-0.101
-702.558	-200.000	0.031	0.153
-701.543	85.974	0.051	-0.057
-700.529	800.000	-0.035	-0.119
-699.514	-98.402	0.167	0.044
-698.499	-41.342	0.084	0.044
-697.485	49.948	-0.079	0.076
-696.470	172.884	0.162	0.238
-695.456	122.939	0.088	0.113
-694.441	-126.510	0.340	0.052
-693.426	800.000	0.012	-0.048
-692.412	53.579	-0.279	-0.273
-691.397	-54.896	-0.158	0.073
-690.383	22.560	-0.127	-0.106
-689.368	-124.364	0.160	-0.025
-688.354	197.435	-0.144	0.224
-687.339	493.779	0.124	-0.289
-686.324	-200.000	-0.073	-0.371
-685.310	-200.000	-0.076	0.373
-684.295	800.000	-0.051	0.166
-683.281	-160.966	0.167	-0.009
-682.266	-60.694	-0.319	-0.138
-681.251	16.832	-0.135	0.109
-680.237	494.389	0.062	-0.146
-679.222	43.438	-0.100	0.093
-678.208	280.674	-0.031	-0.057
-677.193	334.405	0.024	0.047
-676.178	227.655	-0.012	0.020
-675.164	800.000	0.031	-0.110
-674.149	4.581	-0.172	0.129
-673.135	-200.000	-0.024	-0.291
-672.120	569.507	-0.085	-0.211
-671.105	87.193	0.182	0.205
-670.091	-130.455	-0.402	-0.055
-669.076	92.099	-0.063	-0.072
-668.062	19.345	-0.079	-0.064
-667.047	-18.264	0.134	0.085
-666.032	570.483	0.040	0.099
-665.018	501.946	0.135	0.318
-664.003	-200.000	-0.050	-0.234
-662.989	5.475	-0.098	-0.074
-661.974	-36.972	-0.395	-0.216
-660.959	25.995	0.112	0.095
-659.945	-200.000	-0.010	-0.151
-658.930	800.000	0.047	-0.183
-657.916	-4.807	-0.415	-0.292
-656.901	185.060	-0.047	0.071
-655.886	172.704	0.019	-0.028
-654.872	97.527	-0.183	0.214
-653.857	-200.000	-0.020	-0.121
-652.843	800.000	0.046	-0.152
-651.828	96.263	-0.146	0.170
-650.814	800.000	0.056	-0.212
-649.799	346.418	-0.034	-0.068
-648.784	800.000	0.105	-0.322
-647.770	5.981	0.191	0.144
-646.755	-81.972	-0.111	0.037
-645.741	168.751	0.150	0.218
-644.726	-4.916	-0.243	0.171
-643.711	-136.687	0.185	0.022
-642.697	-15.524	0.072	0.047
-641.682	218.097	-0.040	0.065
-640.668	547.833	-0.035	-0.085
-639.653	-200.000	0.024	-0.162
-638.638	411.509	0.110	0.237
-637.624	78.704	-0.049	-0.053
-636.609	-108.052	0.422	0.093
-635.595	-200.000	-0.007	0.368
-634.580	800.000	0.035	0.114
-633.565	16.054	0.148	0.119
-632.551	-162.543	0.083	0.004
-631.536	45.596	0.128	0.121
-630.522	-200.000	-0.028	-0.129
-629.507	800.000	-0.075	-0.211
-628.492	-59.922	0.236	-0.103
-627.478	-200.000	-0.014	-0.090
-626.463	-200.000	0.012	-0.129
-625.449	111.378	-0.152	-0.187
-624.434	589.881	-0.038	0.095
-623.419	-12.562	-0.260	-0.173
-622.405	800.000	-0.023	0.099
-621.390	-200.000	-0.044	0.214
-620.376	415.639	-0.051	0.111
-619.361	-97.366	-0.174	-0.046
-618.346	-84.904	-0.094	-0.030
-617.332	213.066	0.027	-0.043
-616.317	-59.968	0.288	0.125
-615.303	-200.000	-0.038	0.230
-614.288	-129.009	0.213	0.030
-613.273	36.045	-0.181	-0.162
-612.259	35.421	0.278	-0.248
-611.244	44.244	-0.170	0.158
-610.230	-125.742	0.022	0.003
-609.215	-89.307	-0.248	0.074
-608.201	800.000	0.054	-0.233
-607.186	800.000	-0.085	-0.356
-606.171	-79.939	-0.457	-0.156
-605.157	235.116	0.125	-0.209
-604.142	-103.539	0.169	-0.040
-603.128	-200.000	-0.002	-0.113
-602.113	-19.010	-0.193	0.122
-601.098	-200.000	-0.060	0.282
-600.084	72.151	0.206	0.218
-599.069	-93.284	-0.174	0.049
-598.055	-200.000	-0.001	0.208
-597.040	48.090	0.077	0.073
-596.025	19.019	0.223	-0.182
-595.011	53.023	-0.065	-0.063
-593.996	405.050	-0.052	-0.110
-592.982	800.000	0.070	-0.229
-591.967	245.997	0.051	-0.086
-590.952	-98.818	0.406	-0.105
-589.938	-77.758	-0.310	0.109
-588.923	-25.385	-0.300	-0.180
-587.909	-190.500	-0.109	-0.001
-586.894	-197.353	-0.227	0.001
-585.879	-93.739	-0.297	0.083
-584.865	20.831	0.155	-0.127
-583.850	-200.000	-0.004	0.158
-582.836	-153.528	0.156	0.011
-581.821	-168.110	-0.240	0.009
-580.806	800.000	0.051	-0.153
-579.792	800.000	-0.125	-0.396
-578.777	-76.858	0.077	-0.027
-577.763	11.566	-0.123	0.096
-576.748	532.239	0.059	0.141
-575.733	-200.000	0.033	-0.327
-574.719	-13.834	-0.281	0.185
-573.704	-135.019	0.189	0.023
-572.690	-69.207	0.242	-0.094
-571.675	282.194	-0.158	0.287
-570.661	-119.696	-0.075	-0.013
-569.646	430.126	0.035	0.076
-568.631	-113.743	-0.100	0.020
-567.617	376.773	-0.099	-0.204
-566.602	800.000	0.013	-0.041
-565.588	800.000	0.070	0.197
-564.573	-124.644	-0.193	0.030
-563.558	800.000	0.096	0.346
-562.544	-160.821	0.271	0.015
-561.529	63.420	-0.200	-0.204
-560.515	-104.436	-0.083	0.020
-559.500	-97.627	0.300	-0.079
-558.485	-200.000	-0.002	-0.279
-557.471	-45.469	-0.217	-0.109
-556.456	-11.758	0.202	-0.134
-555.442	-200.000	0.048	-0.412
-554.427	-58.789	-0.209	-0.092
-553.412	-0.777	0.361	0.259
-552.398	56.527	0.061	-0.060
-551.383	-71.997	0.089	0.034
-550.369	-200.000	-0.009	-0.176
-549.354	-55.121	0.106	0.048
-548.339	-52.221	0.043	0.020
-547.325	-36.899	-0.186	0.101
-546.310	800.000	-0.066	0.220
-545.296	-200.000	-0.048	-0.239
-544.281	115.011	-0.317	-0.392
-543.266	800.000	0.106	-0.376
-542.252	-200.000	-0.021	0.255
-541.237	-200.000	0.048	-0.363
-540.223	-200.000	0.004	0.017
-539.208	24.360	0.201	0.168
-538.193	-200.000	-0.038	0.284
-537.179	444.294	-0.039	-0.087
-536.164	-200.000	0.014	0.273
-535.150	-200.000	0.006	0.121
-534.135	146.298	-0.099	-0.134
-533.121	553.200	0.124	0.303
-532.106	-141.171	0.128	-0.013
-531.091	-100.497	0.220	0.055
-530.077	-200.000	0.117	-0.554
-529.062	10.687	-0.222	-0.171
-528.048	398.937	0.096	-0.203
-527.033	-42.990	-0.267	0.137
-526.018	-16.426	-0.243	-0.156
-525.004	-88.268	0.192	-0.058
-523.989	-154.516	-0.557	-0.038
-522.975	180.332	-0.130	0.194
-521.960	-31.195	-0.087	0.050
-520.945	-18.462	0.027	0.017
-519.931	-68.965	0.231	-0.090
-518.916	-142.537	-0.368	-0.037
-517.902	-200.000	0.010	-0.360
-516.887	169.781	0.086	0.124
-515.872	623.303	0.046	0.117
-514.858	-200.000	-0.056	0.405
-513.843	800.000	0.069	-0.193
-512.829	333.183	-0.203	-0.397
-511.814	-30.688	0.195	-0.112
-510.799	800.000	0.073	-0.308
-509.785	-41.311	0.345	0.180
-508.770	-32.586	0.296	-0.167
-507.756	-115.110	0.167	-0.032
-506.741	-117.430	0.254	-0.046
-505.726	-48.131	0.367	0.179
-504.712	-200.000	0.031	0.171
-503.697	-164.091	-0.440	0.021
-502.683	-57.325	-0.087	0.039
-501.668	113.325	0.203	0.249
-500.653	-154.521	-0.079	0.005
-499.639	-14.327	-0.173	-0.113
-498.624	-91.923	0.319	-0.092
-497.610	-147.028	-0.129	-0.011
-496.595	-8.643	0.099	0.067
-495.581	-149.528	-0.128	-0.010
-494.566	-104.385	-0.089	-0.021
-493.551	-81.395	-0.228	-0.076
-492.537	800.000	-0.030	-0.125
-491.522	-73.518	-0.228	0.084
-490.508	-93.659	0.232	0.065
-489.493	-200.000	0.031	0.230
-488.478	-19.824	-0.361	-0.225
-487.464	-21.994	-0.093	-0.057
-486.449	25.404	0.290	-0.244
-485.435	-138.585	-0.264	-0.029
-484.420	-116.094	0.092	0.017
-483.405	-106.436	0.197	0.045
-482.391	-152.691	-0.119	0.009
-481.376	0.506	0.143	0.103
-480.362	-200.000	-0.051	0.273
-479.347	-75.146	0.115	0.042
-478.332	-149.497	0.182	-0.015
-477.318	-92.385	-0.188	-0.054
-476.303	132.630	0.176	0.230
-475.289	-107.398	0.264	-0.059
-474.274	-168.001	0.090	0.004
-473.259	-40.473	0.182	0.096
-472.245	228.811	0.078	-0.128
-471.230	-46.116	-0.140	0.070
-470.216	357.835	-0.116	0.235
-469.201	800.000	0.053	-0.190
-468.186	-71.213	-0.176	-0.067
-467.172	158.110	-0.052	-0.074
-466.157	-200.000	0.010	-0.198
-465.143	154.218	0.106	0.147
-464.128	800.000	0.058	0.234
-463.113	-143.848	-0.276	-0.026
-462.099	-200.000	-0.060	0.290
-461.084	-161.406	0.278	0.015
-460.070	576.398	-0.069	-0.171
-459.055	-44.892	-0.227	-0.114
-458.040	-34.791	-0.230	0.127
-457.026	630.512	0.025	0.063
-456.011	800.000	-0.065	-0.255
-454.997	391.891	0.038	-0.081
-453.982	-16.264	-0.206	0.132
-452.968	-200.000	0.017	0.095
-451.953	-19.693	-0.076	-0.047
-450.938	-200.000	-0.017	-0.104
-449.924	-55.033	-0.158	-0.072
-448.909	-69.506	-0.167	-0.065
-447.895	-85.568	-0.079	-0.025
-446.880	6.941	-0.112	0.084
-445.865	39.645	0.122	-0.110
-444.851	-72.252	0.388	0.145
-443.836	-178.344	0.258	0.006
-442.822	52.185	-0.174	0.168
-441.807	-60.409	-0.220	-0.094
-440.792	-200.000	0.039	0.176
-439.778	36.254	-0.244	-0.217
-438.763	427.161	-0.146	-0.318
-437.749	41.204	0.126	-0.115
-436.734	-124.205	0.287	0.045
-435.719	-200.000	0.047	-0.494
-434.705	-44.478	-0.161	-0.081
-433.690	-68.852	-0.354	0.138
-432.676	-98.774	-0.047	0.012
-431.661	152.202	-0.092	0.126
-430.646	89.106	0.247	0.278
-429.632	-0.122	0.260	0.187
-428.617	-200.000	0.031	-0.314
-427.603	761.655	-0.041	-0.111
-426.588	19.505	0.108	-0.088
-425.573	-31.575	0.154	0.087
-424.559	800.000	-0.013	0.049
-423.544	-200.000	0.010	-0.443
-422.530	513.023	0.056	-0.132
-421.515	420.987	-0.067	-0.146
-420.500	-200.000	-0.044	0.238
-419.486	0.240	0.098	-0.070
-418.471	81.699	0.044	0.048
-417.457	-200.000	0.073	0.385
-416.442	-55.987	0.339	-0.152
-415.428	142.452	-0.217	-0.290
-414.413	-140.410	-0.140	-0.015
-413.398	-117.502	-0.184	0.034
-412.384	786.635	-0.067	0.186
-411.369	-114.275	-0.121	0.024
-410.355	524.624	0.234	-0.555
-409.340	800.000	0.032	-0.119
-408.325	94.333	-0.227	-0.260
-407.311	7.100	0.129	-0.097
-406.296	-200.000	-0.025	0.211
-405.282	150.999	-0.106	0.145
-404.267	2.664	-0.127	0.093
-403.252	-86.655	0.046	-0.014
-402.238	-103.788	-0.236	0.056
-401.223	-147.732	0.135	0.011
-400.209	71.313	0.037	-0.039
-399.194	-200.000	-0.013	0.078
-398.179	800.000	-0.027	-0.088
-397.165	-12.004	-0.104	-0.069
-396.150	-57.468	0.179	0.079
-395.136	172.874	0.168	0.244
-394.121	-118.478	-0.075	0.013
-393.106	290.233	0.032	-0.058
-392.092	9.910	0.219	0.168
-391.077	-200.000	0.024	0.307
-390.063	41.531	-0.245	0.224
-389.048	-200.000	0.021	-0.099
-388.033	-51.444	-0.225	-0.106
-387.019	305.136	-0.100	0.187
-386.004	45.373	0.074	0.069
-384.990	-12.928	-0.244	0.160
-383.975	-38.584	-0.232	0.124
-382.960	84.878	0.081	-0.090
-381.946	-200.000	0.499	-0.000
-380.931	-200.000	-0.032	0.193
-379.917	-109.629	-0.076	0.016
-378.902	0.324	0.236	0.170
-377.888	-200.000	0.015	-0.120
-376.873	183.567	-0.056	0.083
-375.858	-34.642	-0.375	0.207
-374.844	-69.289	-0.231	0.090
-373.829	-46.946	-0.159	-0.078
-372.815	442.154	-0.029	0.064
-371.800	223.236	0.147	-0.238
-370.785	3.437	0.046	-0.034
-369.771	-69.295	-0.103	-0.040
-368.756	53.605	-0.070	-0.068
-367.742	-62.935	0.178	0.074
-366.727	-200.000	-0.013	0.079
-365.712	-7.996	0.259	0.176
-364.698	66.459	-0.241	-0.247
-363.683	62.744	-0.167	-0.168
-362.669	110.267	-0.276	0.334
-361.654	-46.348	-0.183	-0.090
-360.639	73.171	0.081	0.086
-359.625	756.997	-0.078	-0.211
-358.610	205.113	-0.135	-0.211
-357.596	-8.633	-0.163	-0.110
-356.581	-162.950	0.140	-0.007
-355.566	-37.503	-0.298	0.160
-354.552	246.600	0.048	-0.081
-353.537	800.000	0.044	-0.145
-352.523	602.218	-0.100	-0.251
-351.508	-200.000	0.011	0.197
-350.493	-200.000	-0.001	-0.238
-349.479	110.274	0.134	0.162
-348.464	-28.594	0.096	0.056
-347.450	800.000	0.056	-0.157
-346.435	177.433	0.309	0.453
-345.420	252.798	0.051	0.087
-344.406	11.926	-0.103	-0.079
-343.391	-97.402	0.038	-0.010
-342.377	31.756	-0.053	-0.046
-341.362	-151.153	0.320	0.024
-340.348	-143.034	-0.238	0.023
-339.333	60.669	-0.072	0.072
-338.318	-53.576	0.414	0.191
-337.304	-20.946	0.032	0.020
-336.289	0.916	0.220	0.158
-335.275	-43.424	0.097	-0.049
-334.260	310.606	-0.060	0.113
-333.245	-200.000	-0.009	0.152
-332.231	79.535	0.047	-0.051
-331.216	-200.000	-0.003	-0.097
-330.202	-18.994	-0.181	0.113
-329.187	-12.621	0.195	0.128
-328.172	617.957	0.176	0.445
-327.158	-142.775	-0.266	0.026
-326.143	-200.000	0.026	0.129
-325.129	-118.214	-0.158	0.028
-324.114	268.972	0.228	-0.403
-323.099	-34.225	-0.067	-0.037
-322.085	-187.653	0.292	-0.004
-321.070	791.976	-0.026	-0.071
-320.056	289.129	-0.157	-0.286
-319.041	143.685	-0.085	0.113
-318.026	92.055	0.138	0.157
-317.012	800.000	0.073	-0.316
-315.997	-200.000	0.041	-0.246
-314.983	-200.000	-0.011	-0.313
-313.968	-20.377	0.094	-0.058
-312.953	-127.425	-0.172	0.025
-311.939	182.400	0.046	0.068
-310.924	358.821	0.119	0.239
-309.910	-147.535	0.158	0.013
-308.895	195.943	-0.160	-0.244
-307.880	-36.489	0.131	-0.071
-306.866	-200.000	-0.018	-0.292
-305.851	-200.000	-0.000	-0.086
-304.837	-200.000	-0.001	-0.129
-303.822	41.045	0.048	0.044
-302.807	48.990	-0.205	0.194
-301.793	-200.000	0.004	-0.065
-300.778	-139.002	-0.266	0.029
-299.764	145.207	-0.127	-0.170
-298.749	-200.000	-0.039	-0.194
-297.735	-93.448	-0.329	0.092
-296.720	49.437	0.150	-0.142
-295.705	800.000	-0.080	0.337
-294.691	-200.000	-0.006	0.026
-293.676	-200.000	0.013	0.085
-292.662	-41.417	0.306	0.158
-291.647	63.021	0.378	0.380
-290.632	-60.670	0.087	-0.037
-289.618	100.707	-0.133	-0.155
-288.603	-171.802	0.293	0.010
-287.589	-23.811	0.173	-0.104
-286.574	-99.206	0.262	0.066
-285.559	800.000	-0.065	0.233
-284.545	-90.233	-0.097	0.028
-283.530	-6.184	-0.014	-0.010
-282.516	233.238	0.207	0.341
-281.501	35.296	-0.025	0.022
-280.486	-200.000	-0.030	0.309
-279.472	37.470	-0.295	0.262
-278.457	21.024	-0.067	0.055
-277.443	-2.507	-0.095	0.067
-276.428	523.960	0.023	0.055
-275.413	-9.167	0.382	-0.256
-274.399	39.029	0.118	0.106
-273.384	-110.301	-0.275	0.057
-272.370	-200.000	0.018	0.189
-271.355	800.000	-0.100	0.370
-270.340	-129.425	-0.086	0.012
-269.326	-81.927	0.075	-0.025
-268.311	148.278	-0.049	-0.066
-267.297	535.830	-0.072	-0.170
-266.282	-96.714	0.203	0.054
-265.267	-53.289	-0.230	0.106
-264.253	40.935	-0.055	-0.050
-263.238	102.555	0.119	-0.140
-262.224	24.964	-0.255	0.212
-261.209	576.875	0.128	-0.314
-260.195	681.690	-0.072	0.189
-259.180	198.611	0.117	-0.180
-258.165	-54.764	-0.251	-0.114
-257.151	-149.125	-0.181	-0.015
-256.136	-29.223	0.139	0.080
-255.122	14.127	0.136	-0.106
-254.107	-200.000	-0.005	-0.079
-253.092	-10.730	-0.227	-0.150
-252.078	-94.211	0.268	-0.074
-251.063	-200.000	-0.020	-0.174
-250.049	-109.178	0.087	0.019
-249.034	129.295	0.071	0.091
-248.019	-127.229	-0.386	0.057
-247.005	69.227	0.135	-0.139
-245.990	-74.421	-0.070	0.025
-244.976	-200.000	0.008	0.229
-243.961	-3.964	0.213	-0.148
-242.946	-35.878	0.218	0.119
-241.932	497.570	-0.090	0.207
-240.917	48.721	0.101	0.095
-239.903	37.025	0.080	0.071
-238.888	508.140	0.095	-0.221
-237.873	-25.628	0.234	-0.138
-236.859	-79.383	-0.024	0.008
-235.844	6.150	0.331	0.246
-234.830	-40.558	-0.224	0.116
-233.815	-200.000	-0.022	-0.183
-232.800	51.375	-0.086	0.081
-231.786	106.784	-0.161	0.192
-230.771	-200.000	-0.002	0.146
-229.757	800.000	-0.082	0.272
-228.742	134.022	0.052	-0.068
-227.727	-61.936	0.169	-0.071
-226.713	800.000	-0.034	0.127
-225.698	-200.000	-0.017	-0.268
-224.684	-90.992	-0.231	0.067
-223.669	-66.083	-0.024	-0.010
-222.655	-64.156	-0.104	-0.043
-221.640	-10.281	-0.177	0.118
-220.625	800.000	-0.054	-0.179
-219.611	-200.000	-0.020	0.120
-218.596	-34.216	-0.301	0.165
-217.582	-153.029	0.220	-0.015
-216.567	-91.059	0.158	0.045
-215.552	-200.000	-0.059	-0.297
-214.538	445.814	-0.078	-0.172
-213.523	-132.406	-0.229	-0.030
-212.509	54.382	0.191	0.184
-211.494	-41.402	0.187	-0.096
-210.479	-200.000	0.029	0.195
-209.465	49.338	0.203	0.191
-208.450	40.627	0.144	-0.130
-207.436	32.008	-0.271	-0.234
-206.421	-200.000	-0.007	-0.034
-205.406	335.845	0.158	0.308
-204.392	-19.481	-0.148	-0.092
-203.377	56.817	0.268	0.261
-202.363	361.732	-0.140	-0.282
-201.348	-109.835	-0.268	0.056
-200.333	-66.373	0.182	0.072
-199.319	137.542	0.130	0.170
-198.304	199.650	-0.035	-0.054
-197.290	45.832	-0.230	-0.213
-196.275	-200.000	-0.011	-0.054
-195.260	60.659	-0.205	-0.203
-194.246	800.000	-0.079	0.329
-193.231	14.388	0.333	0.260
-192.217	-11.218	-0.261	-0.172
-191.202	800.000	0.068	0.240
-190.187	115.027	-0.135	-0.165
-189.173	-82.492	0.229	0.074
-188.158	87.829	-0.168	-0.186
-187.144	-82.850	0.347	0.112
-186.129	-102.160	0.377	0.091
-185.114	-133.529	0.221	-0.028
-184.100	415.318	0.088	0.188
-183.085	-38.644	0.058	-0.030
-182.071	74.248	-0.125	0.131
-181.056	11.892	-0.247	0.190
-180.042	70.600	-0.152	0.157
-179.027	-200.000	-0.034	-0.436
-178.012	-36.670	-0.307	-0.165
-176.998	-108.094	-0.288	0.062
-175.983	-195.765	0.308	0.002
-174.969	800.000	-0.047	0.148
-173.954	-81.449	0.378	-0.124
-172.939	682.960	0.103	0.270
-171.925	-19.701	0.018	-0.011
-170.910	266.896	-0.051	-0.090
-169.896	-155.018	-0.172	0.011
-168.881	-97.798	-0.127	0.033
-167.866	78.827	-0.107	0.115
-166.852	13.459	-0.088	0.068
-165.837	11.577	0.244	-0.187
-164.823	-15.522	0.334	0.213
-163.808	102.408	-0.236	0.276
-162.793	224.920	-0.128	0.207
-161.779	-90.915	0.099	0.028
-160.764	14.899	0.358	-0.280
-159.750	-200.000	0.038	0.000
-158.735	-200.000	-0.017	-0.144
-157.720	-103.659	0.171	0.040
-156.706	-200.000	0.035	-0.175
-155.691	552.973	-0.046	-0.110
-154.677	76.384	0.040	-0.042
-153.662	-137.503	-0.357	-0.040
-152.647	-200.000	-0.006	-0.149
-151.633	-107.349	0.099	0.022
-150.618	800.000	0.090	-0.339
-149.604	600.048	-0.152	0.376
-148.589	800.000	0.051	-0.194
-147.574	-1.232	-0.246	-0.173
-146.560	691.127	0.119	-0.311
-145.545	99.474	-0.059	0.069
-144.531	175.797	-0.068	0.099
-143.516	-20.423	-0.220	0.135
-142.502	800.000	0.065	0.235
-141.487	131.533	-0.221	0.283
-140.472	-28.135	-0.149	0.086
-139.458	-200.000	-0.026	-0.122
-138.443	371.751	-0.249	-0.505
-137.429	-33.870	-0.021	0.011
-136.414	-102.363	-0.161	-0.039
-135.399	-200.000	0.015	0.133
-134.385	28.241	0.186	-0.156
-133.370	1.217	0.075	0.054
-132.356	-84.750	-0.326	-0.102
-131.341	37.941	-0.109	0.097
-130.326	-200.000	0.023	0.195
-129.312	-88.032	0.190	-0.057
-128.297	163.713	0.257	0.361
-127.283	353.371	-0.029	0.058
-126.268	-55.510	0.162	-0.072
-125.253	-177.486	0.176	0.004
-124.239	-200.000	0.002	-0.049
-123.224	-200.000	-0.007	-0.068
-122.210	51.419	0.136	0.128
-121.195	800.000	0.036	0.115
