DTS Sentinel unit serial number:	SN413079Multiplexer serial number:	ORYXHardware model number:	OX4-SRSoftware version number:	ORYX F/W v4.00 Oryx Data Collector v3.7.2.0data status	okinstallation	princeton_trtdifferential loss correction	single-endedforward channel	channel 1reverse channel	N/Adate	2019/09/16time	09:42:35forward acquisition time	60.00reverse acquisition time	0.00gamma	496.2192k internal	0.2319k external	0.2319temperature offset calibration	0.9967default loss term (dB/km)	0.3790temperature slope calibration	1.0000multiplexer offset coefficient	1.0000multiplexer slope coefficient	1.0000fibre end	0.00T internal ref (°C)	32.47T ext. ref 1 (°C)	12.27T ext. ref 2 (°C)	30.59length (m)	temperature (°C)	Stokes	anti-Stokes-747.200	-74.483	0.124	0.045
-746.185	19.931	-0.167	0.136
-745.171	404.557	-0.123	0.262
-744.156	-200.000	-0.000	0.135
-743.142	-111.963	0.035	0.007
-742.127	28.555	-0.163	0.139
-741.112	568.779	-0.121	-0.297
-740.098	648.702	-0.112	0.290
-739.083	-143.594	0.242	-0.023
-738.069	-77.296	-0.239	0.084
-737.054	-101.348	0.364	-0.090
-736.039	-103.021	-0.123	-0.030
-735.025	-66.740	-0.256	0.102
-734.010	17.871	-0.078	-0.062
-732.996	14.414	-0.376	-0.296
-731.981	-200.000	0.001	-0.238
-730.966	800.000	0.044	-0.164
-729.952	-61.876	0.155	0.066
-728.937	139.736	-0.131	0.175
-727.923	2.498	0.234	-0.171
-726.908	-20.637	0.197	0.122
-725.894	-107.329	-0.068	-0.015
-724.879	588.004	0.072	0.179
-723.864	800.000	-0.084	-0.287
-722.850	-88.267	-0.238	-0.072
-721.835	145.602	-0.138	-0.187
-720.821	800.000	-0.083	-0.246
-719.806	38.837	0.247	-0.223
-718.791	199.700	0.010	0.016
-717.777	-114.362	-0.350	-0.068
-716.762	-109.829	-0.149	0.032
-715.748	-157.338	0.106	-0.006
-714.733	-79.959	0.194	0.066
-713.718	608.420	-0.043	0.108
-712.704	-80.827	-0.127	-0.043
-711.689	239.978	-0.106	-0.179
-710.675	55.511	-0.092	-0.090
-709.660	-200.000	0.011	-0.072
-708.645	800.000	-0.014	-0.052
-707.631	-80.516	0.146	-0.049
-706.616	-64.846	-0.129	0.053
-705.602	-129.256	0.049	0.007
-704.587	116.878	-0.235	-0.292
-703.572	42.573	-0.273	-0.251
-702.558	800.000	0.040	0.124
-701.543	-162.362	0.410	0.021
-700.529	-17.375	-0.126	-0.080
-699.514	-69.499	-0.298	0.115
-698.499	-55.103	-0.098	0.044
-697.485	-123.091	-0.043	0.007
-696.470	-200.000	0.071	0.336
-695.456	-54.635	0.196	-0.090
-694.441	119.504	-0.228	-0.285
-693.426	101.312	0.084	-0.098
-692.412	-57.705	-0.360	0.159
-691.397	800.000	0.029	-0.087
-690.383	70.137	-0.041	0.043
-689.368	76.457	-0.103	-0.110
-688.354	213.550	0.038	-0.060
-687.339	469.895	-0.094	-0.214
-686.324	128.624	0.247	0.318
-685.310	800.000	0.051	0.220
-684.295	-56.623	-0.224	0.100
-683.281	-200.000	0.003	-0.162
-682.266	-200.000	0.016	0.139
-681.251	-42.868	-0.189	-0.097
-680.237	-191.681	-0.276	0.003
-679.222	-50.067	0.093	-0.045
-678.208	-78.131	0.257	0.089
-677.193	-81.715	-0.274	0.091
-676.178	126.222	0.155	0.197
-675.164	-7.161	-0.152	-0.104
-674.149	773.844	0.101	0.278
-673.135	-58.774	-0.108	-0.047
-672.120	-123.811	0.121	0.019
-671.105	-23.462	-0.191	-0.116
-670.091	204.634	0.173	-0.270
-669.076	48.309	0.176	-0.166
-668.062	-200.000	0.021	-0.223
-667.047	-156.207	-0.273	-0.017
-666.032	-66.657	0.179	-0.072
-665.018	800.000	0.009	-0.028
-664.003	68.567	-0.223	-0.231
-662.989	800.000	-0.050	-0.145
-661.974	-200.000	-0.011	0.216
-660.959	-47.229	0.111	0.054
-659.945	69.259	0.081	-0.084
-658.930	-200.000	0.008	-0.156
-657.916	13.536	0.086	0.067
-656.901	-38.358	-0.045	0.024
-655.886	125.564	0.186	0.237
-654.872	-37.216	0.187	-0.101
-653.857	-14.455	-0.109	-0.071
-652.843	-188.675	-0.208	0.003
-651.828	295.709	0.154	0.284
-650.814	-200.000	-0.047	0.218
-649.799	-107.400	-0.197	0.044
-648.784	-104.870	0.151	-0.035
-647.770	339.957	-0.188	-0.370
-646.755	-39.834	-0.115	-0.061
-645.741	155.417	-0.049	-0.068
-644.726	483.174	-0.002	0.005
-643.711	216.815	0.060	-0.096
-642.697	380.977	-0.114	-0.236
-641.682	-34.843	0.184	-0.101
-640.668	-149.411	-0.392	0.031
-639.653	40.632	-0.085	0.077
-638.638	800.000	0.049	0.196
-637.624	225.138	-0.180	0.293
-636.609	-200.000	0.046	-0.312
-635.595	-65.544	0.190	-0.077
-634.580	662.767	-0.040	0.104
-633.565	281.570	-0.176	-0.317
-632.551	-200.000	0.036	-0.162
-631.536	63.723	-0.198	-0.200
-630.522	-143.932	-0.231	0.022
-629.507	-200.000	-0.003	-0.191
-628.492	281.308	0.071	0.128
-627.478	-200.000	0.026	-0.160
-626.463	-200.000	-0.027	-0.182
-625.449	800.000	-0.045	-0.160
-624.434	72.858	0.115	0.120
-623.419	411.291	-0.068	-0.145
-622.405	162.485	-0.151	-0.213
-621.390	-75.199	0.091	-0.033
-620.376	2.779	0.334	0.244
-619.361	-144.621	0.251	0.023
-618.346	-111.057	0.287	-0.059
-617.332	19.727	0.170	0.138
-616.317	-89.648	-0.012	0.003
-615.303	434.634	-0.038	-0.084
-614.288	800.000	0.050	-0.175
-613.273	-105.942	0.160	0.036
-612.259	-200.000	0.035	0.175
-611.244	-95.383	0.089	0.024
-610.230	-118.298	0.046	-0.008
-609.215	97.145	-0.158	0.183
-608.201	-29.642	-0.230	-0.132
-607.186	-200.000	-0.018	-0.110
-606.171	182.656	-0.104	0.154
-605.157	13.238	0.218	0.170
-604.142	40.872	-0.162	-0.147
-603.128	100.654	-0.129	-0.151
-602.113	-38.542	-0.323	-0.172
-601.098	510.061	0.101	0.237
-600.084	114.984	0.091	-0.111
-599.069	81.861	-0.236	0.257
-598.055	382.424	0.026	0.054
-597.040	-200.000	-0.007	-0.276
-596.025	-200.000	-0.022	-0.393
-595.011	-60.892	-0.357	-0.152
-593.996	437.360	-0.022	0.047
-592.982	-158.960	-0.225	-0.013
-591.967	298.051	0.065	0.120
-590.952	-121.574	0.342	0.057
-589.938	214.220	-0.144	-0.229
-588.923	-178.059	-0.346	0.008
-587.909	-200.000	-0.007	0.131
-586.894	-174.161	-0.261	0.008
-585.879	31.102	-0.060	-0.052
-584.865	-131.196	0.161	0.021
-583.850	5.286	0.253	-0.188
-582.836	45.096	0.048	-0.044
-581.821	85.855	0.242	-0.267
-580.806	-37.418	-0.257	-0.138
-579.792	-130.143	-0.304	-0.042
-578.777	-108.861	0.168	-0.036
-577.763	-132.366	-0.159	-0.021
-576.748	-11.245	-0.260	-0.172
-575.733	-195.160	0.106	0.001
-574.719	-200.000	-0.041	0.363
-573.704	800.000	0.063	-0.187
-572.690	800.000	-0.054	-0.205
-571.675	247.024	-0.111	0.188
-570.661	642.775	-0.054	0.139
-569.646	206.811	0.131	-0.206
-568.631	92.426	0.112	-0.127
-567.617	-52.667	-0.096	-0.045
-566.602	-195.627	0.334	-0.002
-565.588	-200.000	-0.002	0.082
-564.573	800.000	-0.036	-0.143
-563.558	-81.271	0.266	-0.088
-562.544	-37.799	-0.236	0.126
-561.529	4.638	-0.242	-0.179
-560.515	800.000	-0.085	-0.267
-559.500	-200.000	-0.002	0.122
-558.485	-200.000	0.031	-0.260
-557.471	-200.000	0.004	0.096
-556.456	229.312	0.107	0.175
-555.442	-15.847	-0.279	-0.179
-554.427	-95.122	0.366	-0.099
-553.412	-97.561	-0.276	0.072
-552.398	29.415	-0.161	-0.137
-551.383	29.835	-0.158	0.135
-550.369	113.704	0.173	-0.211
-549.354	-168.857	0.187	-0.007
-548.339	43.409	0.170	-0.156
-547.325	721.121	-0.129	-0.346
-546.310	-52.681	0.160	0.074
-545.296	-200.000	-0.083	0.369
-544.281	302.113	-0.120	-0.223
-543.266	800.000	-0.055	-0.192
-542.252	800.000	-0.055	-0.182
-541.237	-92.462	0.442	0.125
-540.223	80.064	-0.202	-0.218
-539.208	-69.721	0.154	0.059
-538.193	82.278	-0.275	0.299
-537.179	-200.000	-0.012	-0.129
-536.164	470.450	0.060	0.135
-535.150	-89.239	-0.343	0.101
-534.135	54.698	0.182	0.176
-533.121	-200.000	-0.032	0.273
-532.106	-100.736	0.362	0.089
-531.091	-75.535	0.126	-0.045
-530.077	800.000	0.033	-0.136
-529.062	259.788	0.100	-0.174
-528.048	771.994	-0.083	0.226
-527.033	474.556	-0.129	0.291
-526.018	74.436	-0.243	0.256
-525.004	-41.260	0.191	0.099
-523.989	357.935	-0.207	-0.414
-522.975	-200.000	0.035	-0.219
-521.960	191.706	-0.101	-0.153
-520.945	25.467	0.129	0.108
-519.931	205.510	0.136	0.213
-518.916	252.726	-0.056	-0.096
-517.902	800.000	0.062	0.198
-516.887	-200.000	0.005	-0.171
-515.872	98.662	-0.284	-0.329
-514.858	800.000	0.055	0.174
-513.843	-148.338	0.430	0.035
-512.829	-14.244	0.079	-0.051
-511.814	-200.000	-0.003	0.224
-510.799	-200.000	0.035	0.214
-509.785	800.000	0.030	-0.133
-508.770	404.359	-0.068	-0.144
-507.756	127.047	-0.181	-0.230
-506.741	-102.200	-0.345	0.083
-505.726	-200.000	0.074	-0.340
-504.712	31.847	0.028	-0.024
-503.697	115.138	-0.169	-0.206
-502.683	103.650	-0.031	0.037
-501.668	-200.000	0.017	-0.264
-500.653	457.750	-0.066	-0.146
-499.639	5.897	-0.201	-0.149
-498.624	103.934	-0.051	0.060
-497.610	-71.708	0.026	0.010
-496.595	-21.089	-0.021	-0.013
-495.581	75.926	-0.026	-0.028
-494.566	-200.000	0.004	-0.127
-493.551	800.000	-0.009	-0.028
-492.537	19.445	-0.168	-0.135
-491.522	-94.208	-0.191	0.052
-490.508	-53.786	0.169	-0.077
-489.493	-35.611	0.260	0.142
-488.478	37.789	-0.109	-0.097
-487.464	256.909	-0.137	-0.236
-486.449	-37.342	0.170	0.091
-485.435	121.498	0.093	0.116
-484.420	-200.000	0.034	0.366
-483.405	800.000	-0.038	-0.131
-482.391	-145.961	0.158	-0.014
-481.376	-200.000	0.007	-0.156
-480.362	-200.000	-0.026	0.170
-479.347	-135.928	0.149	-0.018
-478.332	-200.000	-0.041	0.262
-477.318	-132.542	0.002	-0.000
-476.303	-200.000	-0.004	0.020
-475.289	-109.251	-0.354	0.075
-474.274	800.000	-0.088	0.256
-473.259	37.987	0.357	0.318
-472.245	50.574	0.014	-0.014
-471.230	2.071	-0.159	0.115
-470.216	404.873	0.149	0.315
-469.201	-95.157	-0.130	-0.035
-468.186	-135.636	-0.426	0.051
-467.172	-145.161	-0.394	0.036
-466.157	-104.998	-0.141	0.032
-465.143	-81.699	-0.396	0.130
-464.128	15.791	0.196	0.155
-463.113	-31.661	0.536	0.301
-462.099	-200.000	-0.038	0.196
-461.084	-200.000	-0.048	0.232
-460.070	-57.967	0.108	-0.047
-459.055	-47.213	0.364	-0.178
-458.040	736.987	0.024	0.064
-457.026	18.627	-0.249	-0.199
-456.011	800.000	0.037	-0.149
-454.997	6.021	-0.199	0.148
-453.982	800.000	0.098	-0.394
-452.968	-200.000	-0.011	-0.210
-451.953	-11.855	0.143	-0.094
-450.938	800.000	0.054	-0.166
-449.924	-111.307	-0.266	0.054
-448.909	-200.000	-0.017	-0.246
-447.895	325.154	0.108	-0.206
-446.880	-113.279	0.449	0.088
-445.865	97.411	0.213	0.245
-444.851	538.176	-0.212	-0.503
-443.836	-200.000	0.012	-0.285
-442.822	-200.000	-0.008	0.055
-441.807	-181.275	-0.131	0.003
-440.792	249.217	-0.072	-0.121
-439.778	-200.000	0.002	0.035
-438.763	-113.369	0.119	0.023
-437.749	800.000	0.076	0.256
-436.734	800.000	0.042	-0.117
-435.719	-83.903	-0.170	0.054
-434.705	177.819	0.245	0.357
-433.690	226.494	0.131	-0.212
-432.676	277.754	0.085	-0.150
-431.661	21.785	0.066	-0.053
-430.646	-152.385	0.106	-0.008
-429.632	45.808	-0.287	-0.265
-428.617	260.097	-0.136	0.235
-427.603	87.570	0.224	-0.247
-426.588	-170.871	0.354	0.012
-425.573	75.813	0.087	0.091
-424.559	205.739	0.091	0.141
-423.544	105.924	-0.060	0.070
-422.530	-38.794	0.067	0.035
-421.515	163.322	0.182	-0.256
-420.500	172.797	-0.261	-0.375
-419.486	50.233	0.140	0.132
-418.471	83.682	-0.157	0.171
-417.457	32.001	0.251	-0.216
-416.442	626.872	0.127	0.321
-415.428	488.098	0.083	-0.190
-414.413	93.701	-0.143	-0.162
-413.398	-59.358	-0.073	-0.031
-412.384	16.211	0.242	0.190
-411.369	-200.000	-0.069	0.432
-410.355	157.978	0.090	0.125
-409.340	-91.407	-0.191	-0.054
-408.325	410.533	-0.033	0.069
-407.311	267.217	0.127	0.221
-406.296	53.424	0.249	-0.238
-405.282	26.054	-0.069	0.058
-404.267	-200.000	0.010	-0.106
-403.252	15.967	-0.096	-0.076
-402.238	-14.802	0.415	0.266
-401.223	192.616	-0.067	-0.101
-400.209	-18.868	0.121	-0.075
-399.194	171.097	-0.061	-0.087
-398.179	535.926	-0.158	0.374
-397.165	-139.408	0.041	0.004
-396.150	-158.091	-0.078	0.005
-395.136	110.908	0.143	-0.172
-394.121	-144.366	0.060	0.006
-393.106	-151.595	-0.220	0.016
-392.092	-69.889	0.348	0.132
-391.077	-86.312	0.166	-0.051
-390.063	-83.950	0.158	-0.050
-389.048	800.000	-0.036	-0.111
-388.033	185.293	0.068	-0.100
-387.019	699.025	-0.056	-0.146
-386.004	-155.490	0.345	0.022
-384.990	323.259	0.088	0.168
-383.975	-28.968	0.406	0.233
-382.960	115.879	0.155	0.190
-381.946	470.933	-0.041	-0.093
-380.931	-136.173	0.260	-0.030
-379.917	-161.893	0.178	-0.009
-378.902	-68.562	-0.392	0.151
-377.888	-107.149	0.251	-0.055
-376.873	-150.915	-0.169	-0.013
-375.858	368.973	-0.066	0.134
-374.844	800.000	0.024	-0.102
-373.829	-19.500	-0.106	0.066
-372.815	-140.611	-0.321	0.033
-371.800	800.000	0.069	-0.244
-370.785	800.000	-0.060	-0.166
-369.771	71.059	0.211	-0.218
-368.756	-110.055	0.068	0.014
-367.742	800.000	0.072	0.202
-366.727	285.183	-0.117	-0.210
-365.712	301.133	0.134	-0.247
-364.698	-200.000	0.020	0.235
-363.683	26.868	-0.156	0.130
-362.669	70.471	0.189	0.195
-361.654	23.221	0.127	-0.104
-360.639	-110.070	0.015	0.003
-359.625	11.088	0.062	0.047
-358.610	2.368	0.011	-0.008
-357.596	-37.416	-0.300	0.160
-356.581	18.755	0.062	0.049
-355.566	116.910	-0.068	-0.083
-354.552	-64.395	-0.133	-0.054
-353.537	2.306	-0.090	-0.065
-352.523	-200.000	0.013	-0.164
-351.508	56.149	-0.125	-0.121
-350.493	-150.667	-0.040	-0.003
-349.479	126.892	-0.086	-0.109
-348.464	-200.000	-0.060	-0.284
-347.450	-30.912	-0.045	0.025
-346.435	-118.349	0.338	-0.060
-345.420	-14.537	-0.052	-0.033
-344.406	-36.110	0.069	-0.037
-343.391	-56.212	-0.172	0.076
-342.377	-180.133	0.278	0.006
-341.362	-69.842	-0.172	-0.065
-340.348	117.461	-0.185	-0.226
-339.333	-80.792	-0.268	0.089
-338.318	449.511	-0.175	0.385
-337.304	800.000	0.090	0.247
-336.289	800.000	0.061	0.232
-335.275	-26.074	-0.114	0.067
-334.260	-146.051	0.195	-0.017
-333.245	-96.984	0.278	0.073
-332.231	800.000	0.072	0.269
-331.216	136.073	0.164	0.213
-330.202	610.864	0.079	0.198
-329.187	-200.000	0.012	0.162
-328.172	252.306	0.048	0.081
-327.158	6.315	0.198	-0.146
-326.143	-48.576	0.409	0.196
-325.129	800.000	-0.094	0.359
-324.114	-68.174	-0.164	0.064
-323.099	201.351	0.032	0.049
-322.085	660.424	0.146	-0.374
-321.070	-154.176	-0.317	0.021
-320.056	347.400	-0.081	-0.158
-319.041	-143.859	0.069	0.006
-318.026	-39.219	0.412	-0.215
-317.012	-200.000	-0.043	0.313
-315.997	203.215	-0.171	0.264
-314.983	-111.176	0.284	0.058
-313.968	-150.171	-0.205	0.016
-312.953	-200.000	0.002	0.122
-311.939	-108.247	-0.114	0.025
-310.924	26.356	-0.049	-0.041
-309.910	387.474	0.166	0.342
-308.895	-66.958	-0.253	0.099
-307.880	-200.000	-0.016	-0.271
-306.866	-120.309	-0.351	0.060
-305.851	-2.503	-0.155	-0.108
-304.837	-200.000	0.007	0.074
-303.822	593.063	0.120	-0.294
-302.807	-4.752	-0.316	-0.217
-301.793	-38.616	0.145	0.076
-300.778	141.165	-0.147	0.193
-299.764	800.000	-0.146	0.473
-298.749	18.300	-0.406	0.322
-297.735	-9.296	-0.278	-0.185
-296.720	-84.414	-0.235	-0.074
-295.705	462.195	-0.082	0.183
-294.691	-62.151	-0.045	-0.019
-293.676	584.252	-0.030	0.073
-292.662	-1.974	-0.120	0.084
-291.647	21.429	-0.260	-0.210
-290.632	-117.909	-0.189	0.034
-289.618	47.263	0.319	-0.295
-288.603	-27.651	0.045	-0.026
-287.589	-170.121	0.145	0.005
-286.574	205.158	0.119	-0.183
-285.559	35.067	0.072	-0.063
-284.545	-84.750	-0.126	-0.039
-283.530	747.540	0.127	0.341
-282.516	-118.330	-0.067	-0.012
-281.501	-172.486	0.186	0.006
-280.486	190.138	0.230	-0.343
-279.472	73.798	-0.166	0.172
-278.457	-68.693	-0.328	-0.126
-277.443	-27.455	0.174	-0.100
-276.428	800.000	0.047	-0.162
-275.413	800.000	0.025	0.080
-274.399	-200.000	-0.003	-0.053
-273.384	204.742	-0.121	-0.187
-272.370	-200.000	-0.061	0.350
-271.355	-22.936	-0.128	0.077
-270.340	165.952	0.094	0.132
-269.326	800.000	0.022	0.070
-268.311	3.888	0.131	0.095
-267.297	-135.645	0.193	0.023
-266.282	426.303	0.141	-0.302
-265.267	524.419	-0.116	0.271
-264.253	247.854	0.084	-0.142
-263.238	-64.063	0.294	-0.119
-262.224	1.847	-0.116	-0.083
-261.209	-200.000	0.011	0.063
-260.195	-172.329	-0.040	-0.001
-259.180	55.969	0.126	0.121
-258.165	-56.507	0.040	0.017
-257.151	-26.903	-0.085	-0.049
-256.136	-67.102	-0.326	0.128
-255.122	-200.000	0.004	0.169
-254.107	-200.000	0.014	-0.067
-253.092	-36.738	-0.232	-0.123
-252.078	-200.000	-0.006	-0.057
-251.063	-137.035	-0.388	0.044
-250.049	-21.857	0.107	0.065
-249.034	800.000	-0.055	-0.197
-248.019	800.000	-0.048	0.201
-247.005	376.002	0.080	0.161
-245.990	-68.982	-0.214	0.082
-244.976	-125.942	-0.333	-0.050
-243.961	800.000	-0.122	-0.462
-242.946	-200.000	-0.073	-0.319
-241.932	63.836	-0.063	0.062
-240.917	-113.125	0.324	0.063
-239.903	10.414	-0.096	0.072
-238.888	800.000	0.093	0.370
-237.873	-38.837	-0.131	0.069
-236.859	-26.450	-0.252	0.147
-235.844	266.649	0.159	-0.276
-234.830	800.000	0.068	-0.234
-233.815	-28.038	0.227	0.131
-232.800	402.023	0.148	0.308
-231.786	800.000	-0.066	0.189
-230.771	-50.226	-0.288	-0.135
-229.757	47.735	0.230	-0.213
-228.742	-13.940	-0.057	0.037
-227.727	-200.000	0.028	-0.194
-226.713	35.565	0.093	-0.081
-225.698	0.813	-0.350	0.249
-224.684	425.114	0.079	-0.168
-223.669	-132.233	0.321	0.041
-222.655	791.882	0.135	-0.367
-221.640	80.884	-0.123	-0.132
-220.625	800.000	-0.070	0.207
-219.611	620.936	0.140	0.349
-218.596	-79.765	0.204	0.068
-217.582	-200.000	0.018	0.192
-216.567	92.763	0.157	-0.176
-215.552	-90.450	0.071	0.020
-214.538	-25.129	-0.155	0.091
-213.523	-29.248	0.203	0.115
-212.509	18.408	0.123	-0.097
-211.494	556.025	0.099	0.237
-210.479	800.000	-0.031	-0.133
-209.465	-200.000	0.012	-0.335
-208.450	-200.000	0.016	0.225
-207.436	101.490	-0.186	0.214
-206.421	169.951	0.082	-0.116
-205.406	-200.000	-0.032	0.170
-204.392	-89.117	0.135	-0.040
-203.377	-200.000	0.024	0.264
-202.363	72.169	-0.281	0.290
-201.348	-42.494	-0.154	-0.078
-200.333	-200.000	0.033	-0.237
-199.319	-200.000	0.032	0.215
-198.304	91.102	-0.154	-0.171
-197.290	241.744	0.133	-0.221
-196.275	-66.583	0.308	-0.121
-195.260	285.395	0.158	0.282
-194.246	800.000	-0.130	0.393
-193.231	93.877	0.136	-0.153
-192.217	-51.318	-0.049	-0.023
-191.202	-25.068	-0.079	-0.046
-190.187	108.694	0.045	0.054
-189.173	647.538	0.031	0.079
-188.158	-200.000	0.004	0.180
-187.144	66.801	0.285	0.287
-186.129	142.833	0.133	0.175
-185.114	-200.000	0.022	0.113
-184.100	56.480	0.124	0.119
-183.085	-83.808	0.253	0.080
-182.071	-71.374	0.254	-0.094
-181.056	-101.242	0.235	0.057
-180.042	-35.898	-0.171	0.091
-179.027	-153.690	0.372	-0.025
-178.012	800.000	-0.020	0.080
-176.998	800.000	0.038	-0.139
-175.983	-89.595	-0.225	0.065
-174.969	59.992	-0.108	0.105
-173.954	-200.000	-0.010	0.349
-172.939	-57.026	-0.113	0.049
-171.925	-93.444	-0.095	-0.026
-170.910	207.880	0.266	0.411
-169.896	-39.388	0.107	0.055
-168.881	191.403	-0.103	-0.154
-167.866	-95.126	0.274	-0.073
-166.852	188.456	-0.169	0.250
-165.837	-197.571	-0.088	-0.001
-164.823	800.000	-0.015	0.044
-163.808	-200.000	-0.007	0.253
-162.793	-116.033	-0.322	0.059
-161.779	-71.920	-0.272	-0.100
-160.764	-30.963	-0.198	0.110
-159.750	251.197	-0.134	-0.225
-158.735	272.136	0.083	-0.145
-157.720	800.000	-0.014	0.038
-156.706	800.000	-0.057	-0.179
-155.691	-200.000	0.010	0.117
-154.677	265.516	-0.093	-0.160
-153.662	-200.000	-0.034	-0.302
-152.647	-1.220	0.208	-0.145
-151.633	182.050	0.127	0.185
-150.618	89.638	0.278	0.306
-149.604	38.574	0.043	0.038
-148.589	-5.124	0.274	0.186
-147.574	350.251	0.236	-0.462
-146.560	-200.000	-0.037	-0.302
-145.545	-87.840	0.236	-0.070
-144.531	-101.644	-0.253	-0.061
-143.516	114.405	-0.137	0.165
-142.502	71.667	0.085	-0.088
-141.487	-107.887	0.235	0.050
-140.472	-200.000	0.010	-0.173
-139.458	-48.288	-0.140	0.067
-138.443	-39.499	0.261	0.135
-137.429	275.084	-0.064	-0.112
-136.414	358.814	0.124	-0.244
-135.399	192.927	-0.070	0.105
-134.385	-61.831	0.281	0.116
-133.370	-58.685	0.036	-0.015
-132.356	-115.467	-0.138	-0.026
-131.341	45.841	0.267	0.243
-130.326	639.288	0.039	-0.099
-129.312	-61.792	0.119	-0.049
-128.297	-79.937	0.169	0.056
-127.283	-61.029	-0.145	-0.061
-126.268	397.333	-0.145	-0.299
-125.253	-62.661	-0.194	0.080
-124.239	800.000	0.076	-0.265
-123.224	-200.000	0.067	-0.445
-122.210	-200.000	-0.015	0.087
-121.195	59.653	0.144	0.141
