DTS Sentinel unit serial number:	SN413079Multiplexer serial number:	ORYXHardware model number:	OX4-SRSoftware version number:	ORYX F/W v4.00 Oryx Data Collector v3.7.2.0data status	okinstallation	princeton_trtdifferential loss correction	single-endedforward channel	channel 1reverse channel	N/Adate	2019/09/12time	01:16:11forward acquisition time	60.00reverse acquisition time	0.00gamma	496.2192k internal	0.2320k external	0.2320temperature offset calibration	1.0076default loss term (dB/km)	0.3790temperature slope calibration	1.0000multiplexer offset coefficient	1.0000multiplexer slope coefficient	1.0000fibre end	0.00T internal ref (°C)	33.00T ext. ref 1 (°C)	2.08T ext. ref 2 (°C)	27.92length (m)	temperature (°C)	Stokes	anti-Stokes-747.200	102.988	0.140	0.166
-746.185	800.000	-0.056	0.161
-745.171	800.000	-0.047	-0.136
-744.156	780.229	-0.014	-0.039
-743.142	544.180	-0.032	0.078
-742.127	111.908	-0.023	0.028
-741.112	-17.750	-0.264	-0.167
-740.098	800.000	0.044	-0.125
-739.083	79.800	-0.141	-0.153
-738.069	-87.400	0.105	0.032
-737.054	-110.715	0.097	0.020
-736.039	-37.974	-0.059	-0.032
-735.025	-54.446	0.292	0.134
-734.010	0.600	-0.252	-0.182
-732.996	-19.082	-0.393	-0.247
-731.981	-16.782	0.242	-0.155
-730.966	274.802	0.035	-0.063
-729.952	-109.915	-0.232	0.049
-728.937	-1.108	-0.304	-0.217
-727.923	-200.000	-0.051	-0.241
-726.908	-123.037	-0.224	-0.036
-725.894	-67.449	-0.070	0.028
-724.879	212.819	0.134	-0.214
-723.864	-8.843	-0.135	0.091
-722.850	153.890	-0.086	0.120
-721.835	800.000	0.110	0.327
-720.821	-78.957	-0.078	-0.027
-719.806	307.744	-0.058	0.109
-718.791	651.818	0.147	-0.382
-717.777	335.815	0.065	-0.127
-716.762	-65.428	-0.295	0.120
-715.748	188.080	-0.006	-0.009
-714.733	277.356	-0.046	0.082
-713.718	-200.000	-0.036	-0.168
-712.704	-200.000	-0.023	0.325
-711.689	-79.206	-0.354	-0.121
-710.675	800.000	0.108	-0.383
-709.660	-159.687	0.417	-0.023
-708.645	-160.081	0.170	0.009
-707.631	-46.754	0.173	0.086
-706.616	76.209	0.207	0.221
-705.602	-94.298	0.185	-0.051
-704.587	800.000	-0.159	-0.473
-703.572	63.194	-0.150	0.152
-702.558	383.518	-0.102	-0.212
-701.543	-200.000	0.080	0.396
-700.529	-200.000	0.062	0.279
-699.514	-113.858	-0.105	-0.021
-698.499	-200.000	-0.006	-0.137
-697.485	374.046	-0.055	-0.113
-696.470	-23.129	0.354	-0.215
-695.456	-39.932	0.233	-0.123
-694.441	-96.067	0.077	-0.021
-693.426	224.827	-0.174	-0.284
-692.412	-86.479	0.216	0.067
-691.397	-35.222	-0.199	-0.109
-690.383	-114.965	0.101	0.019
-689.368	532.987	-0.025	-0.060
-688.354	1.986	0.133	0.097
-687.339	-54.002	0.082	-0.038
-686.324	31.126	0.091	0.079
-685.310	736.949	0.094	-0.255
-684.295	-38.208	0.339	-0.181
-683.281	-49.660	-0.195	-0.094
-682.266	-33.964	0.156	-0.087
-681.251	-101.831	-0.300	-0.073
-680.237	-36.348	-0.036	0.019
-679.222	-39.918	-0.248	-0.130
-678.208	-128.480	-0.171	0.025
-677.193	-64.566	0.131	-0.054
-676.178	-101.435	-0.209	-0.051
-675.164	-200.000	0.008	-0.108
-674.149	22.380	0.174	0.143
-673.135	-200.000	-0.008	-0.111
-672.120	-173.849	0.412	-0.012
-671.105	-200.000	-0.006	0.280
-670.091	89.595	0.182	0.205
-669.076	-71.700	-0.268	0.101
-668.062	17.046	-0.134	-0.107
-667.047	-200.000	0.030	-0.146
-666.032	52.541	0.147	-0.141
-665.018	800.000	0.045	0.189
-664.003	-200.000	0.026	-0.313
-662.989	200.729	-0.095	-0.147
-661.974	-200.000	0.004	-0.614
-660.959	178.250	0.033	0.048
-659.945	-56.876	0.010	0.005
-658.930	-22.222	-0.148	0.091
-657.916	-200.000	-0.049	-0.245
-656.901	18.651	0.143	-0.116
-655.886	20.922	-0.258	-0.211
-654.872	-200.000	-0.049	-0.254
-653.857	33.053	-0.164	-0.144
-652.843	151.431	-0.035	0.048
-651.828	-65.155	0.269	0.109
-650.814	-84.595	0.301	0.096
-649.799	-68.219	0.357	0.140
-648.784	40.264	0.145	0.131
-647.770	-200.000	0.001	0.200
-646.755	-200.000	0.037	0.284
-645.741	-100.473	0.283	-0.071
-644.726	-22.315	0.216	-0.132
-643.711	-200.000	0.081	-0.382
-642.697	-200.000	0.034	-0.366
-641.682	-43.212	-0.179	0.091
-640.668	800.000	-0.052	-0.223
-639.653	-57.143	-0.173	0.077
-638.638	800.000	-0.054	-0.222
-637.624	-200.000	0.007	0.045
-636.609	-31.843	-0.090	0.051
-635.595	-14.789	0.214	0.138
-634.580	396.518	0.041	-0.086
-633.565	667.290	-0.150	-0.390
-632.551	41.646	0.202	0.184
-631.536	191.950	-0.264	0.401
-630.522	-70.345	0.176	-0.067
-629.507	-34.358	0.220	0.121
-628.492	122.706	0.131	-0.165
-627.478	103.823	0.266	-0.315
-626.463	-200.000	0.008	-0.244
-625.449	-143.966	-0.027	0.003
-624.434	-101.696	-0.257	-0.063
-623.419	-200.000	-0.003	0.321
-622.405	-200.000	-0.002	-0.096
-621.390	229.635	-0.148	0.243
-620.376	80.615	-0.200	-0.216
-619.361	-200.000	-0.044	-0.421
-618.346	-200.000	0.022	0.333
-617.332	297.537	0.129	0.239
-616.317	-117.007	-0.024	-0.004
-615.303	-153.959	0.063	0.004
-614.288	149.096	-0.104	0.142
-613.273	800.000	0.125	0.392
-612.259	186.965	-0.148	0.222
-611.244	-135.260	0.280	0.034
-610.230	-200.000	0.036	0.366
-609.215	-107.043	-0.206	0.046
-608.201	0.035	-0.177	0.127
-607.186	-9.807	0.106	-0.071
-606.171	-122.264	0.203	0.033
-605.157	-157.724	0.122	0.007
-604.142	-141.674	-0.242	-0.024
-603.128	5.191	-0.191	-0.141
-602.113	62.454	0.036	-0.037
-601.098	362.701	0.239	0.482
-600.084	-111.850	0.297	-0.060
-599.069	-200.000	-0.014	-0.077
-598.055	-72.911	-0.319	-0.118
-597.040	538.222	0.046	-0.110
-596.025	41.674	0.190	-0.173
-595.011	88.841	-0.135	0.151
-593.996	-42.491	0.129	0.066
-592.982	800.000	0.110	0.355
-591.967	84.224	0.158	-0.174
-590.952	-156.196	0.195	0.012
-589.938	-200.000	-0.036	-0.480
-588.923	-48.529	0.066	0.032
-587.909	40.820	0.324	-0.294
-586.894	169.510	-0.162	-0.232
-585.879	-53.716	-0.173	-0.079
-584.865	-91.422	-0.129	0.037
-583.850	-200.000	0.077	-0.542
-582.836	83.415	-0.289	-0.317
-581.821	102.421	-0.216	-0.253
-580.806	168.037	-0.153	-0.219
-579.792	185.512	0.120	-0.179
-578.777	-20.909	0.268	0.165
-577.763	-139.878	0.200	0.021
-576.748	-120.617	-0.373	-0.064
-575.733	171.458	0.208	0.300
-574.719	32.658	-0.179	0.155
-573.704	800.000	-0.031	-0.098
-572.690	-101.793	0.300	-0.073
-571.675	-200.000	-0.009	0.278
-570.661	-124.802	-0.040	-0.006
-569.646	55.106	-0.204	-0.198
-568.631	-200.000	-0.038	-0.217
-567.617	800.000	-0.039	0.113
-566.602	-97.488	-0.236	0.062
-565.588	-157.062	-0.164	-0.010
-564.573	-83.437	0.200	-0.064
-563.558	-199.192	0.299	-0.002
-562.544	352.537	0.039	0.077
-561.529	-200.000	-0.017	-0.180
-560.515	121.768	0.041	0.051
-559.500	58.911	-0.120	-0.119
-558.485	-200.000	0.011	0.082
-557.471	43.948	-0.122	0.113
-556.456	-139.871	0.069	0.007
-555.442	174.534	0.115	0.167
-554.427	112.158	-0.072	-0.088
-553.412	800.000	-0.028	-0.089
-552.398	81.837	0.161	-0.175
-551.383	570.201	-0.067	0.165
-550.369	52.184	0.116	0.111
-549.354	-80.819	0.054	0.018
-548.339	800.000	-0.109	-0.312
-547.325	-128.308	0.100	0.014
-546.310	-32.656	0.288	0.161
-545.296	-88.090	0.072	-0.022
-544.281	800.000	-0.042	0.159
-543.266	282.963	0.037	0.066
-542.252	431.907	-0.063	-0.138
-541.237	84.220	0.148	-0.162
-540.223	800.000	0.101	0.326
-539.208	-72.726	-0.088	-0.032
-538.193	60.640	-0.179	-0.178
-537.179	-72.651	0.079	-0.029
-536.164	53.292	0.103	-0.099
-535.150	115.180	0.129	-0.158
-534.135	27.281	0.179	-0.151
-533.121	-98.001	0.126	0.033
-532.106	-83.140	-0.347	0.112
-531.091	800.000	0.099	-0.365
-530.077	9.426	0.180	-0.137
-529.062	800.000	-0.031	0.107
-528.048	447.466	-0.132	-0.291
-527.033	81.778	0.340	0.369
-526.018	131.294	-0.175	-0.226
-525.004	800.000	-0.017	-0.059
-523.989	-73.315	-0.130	0.048
-522.975	-166.202	0.136	-0.006
-521.960	800.000	0.179	-0.664
-520.945	-100.572	0.235	-0.058
-519.931	-112.366	-0.120	-0.024
-518.916	-102.648	-0.173	0.041
-517.902	-101.930	-0.108	0.026
-516.887	554.638	-0.059	-0.141
-515.872	-200.000	-0.003	0.015
-514.858	-75.278	0.162	0.058
-513.843	325.802	-0.154	0.295
-512.829	197.485	-0.205	0.314
-511.814	-121.842	0.133	0.022
-510.799	555.861	-0.051	0.124
-509.785	-26.075	-0.190	-0.112
-508.770	-31.662	0.090	-0.051
-507.756	300.603	0.150	0.277
-506.741	612.476	0.041	0.103
-505.726	22.584	-0.230	-0.189
-504.712	157.661	-0.056	-0.078
-503.697	99.777	-0.184	0.214
-502.683	334.532	-0.221	-0.429
-501.668	62.085	0.095	0.095
-500.653	-150.950	-0.329	-0.025
-499.639	-75.807	-0.032	0.011
-498.624	23.387	-0.219	0.180
-497.610	-153.855	-0.122	0.008
-496.595	42.524	0.167	-0.152
-495.581	-88.149	-0.164	0.049
-494.566	-10.004	-0.104	0.070
-493.551	-5.208	-0.225	-0.155
-492.537	84.538	-0.207	-0.227
-491.522	254.318	-0.027	-0.046
-490.508	403.985	0.151	-0.319
-489.493	800.000	0.016	0.057
-488.478	-148.362	-0.092	0.008
-487.464	49.300	-0.147	0.139
-486.449	-89.795	-0.511	0.150
-485.435	121.984	0.127	-0.159
-484.420	-104.465	0.261	0.060
-483.405	-200.000	-0.003	-0.038
-482.391	800.000	-0.037	-0.130
-481.376	564.744	0.040	-0.097
-480.362	800.000	-0.040	0.145
-479.347	-77.839	0.066	0.023
-478.332	-68.281	0.415	0.162
-477.318	15.017	0.170	0.133
-476.303	254.974	-0.187	0.321
-475.289	-155.538	-0.171	0.011
-474.274	-102.636	-0.214	0.051
-473.259	-200.000	0.005	0.059
-472.245	86.691	0.136	0.150
-471.230	-142.358	0.124	0.012
-470.216	800.000	0.040	-0.157
-469.201	-174.039	0.475	-0.014
-468.186	-38.332	-0.333	0.176
-467.172	-200.000	0.009	0.132
-466.157	-66.103	-0.239	-0.095
-465.143	215.822	-0.131	-0.208
-464.128	69.612	0.020	-0.021
-463.113	-2.622	-0.034	0.024
-462.099	-76.959	0.280	-0.098
-461.084	800.000	-0.076	0.255
-460.070	-55.997	0.110	0.049
-459.055	-2.830	0.109	-0.076
-458.040	24.636	-0.145	0.120
-457.026	60.147	-0.186	-0.184
-456.011	135.852	-0.061	0.080
-454.997	-200.000	0.009	-0.045
-453.982	-68.507	-0.201	-0.078
-452.968	49.688	-0.098	-0.092
-451.953	-73.173	-0.345	0.127
-450.938	-109.318	0.165	-0.035
-449.924	124.338	0.051	-0.065
-448.909	-200.000	0.020	0.240
-447.895	-149.908	-0.200	0.016
-446.880	800.000	-0.052	-0.176
-445.865	800.000	-0.058	-0.206
-444.851	-117.705	-0.388	-0.070
-443.836	258.330	0.158	0.272
-442.822	-105.262	0.148	-0.034
-441.807	-56.367	-0.153	0.068
-440.792	175.279	0.087	0.126
-439.778	800.000	-0.075	0.246
-438.763	-131.595	0.142	-0.019
-437.749	-133.159	0.152	-0.019
-436.734	60.613	-0.105	0.104
-435.719	8.266	0.113	-0.085
-434.705	-200.000	0.021	0.113
-433.690	-30.021	-0.163	-0.092
-432.676	99.828	-0.201	-0.233
-431.661	447.352	-0.070	0.154
-430.646	-116.793	0.379	0.069
-429.632	-45.168	-0.411	-0.204
-428.617	800.000	-0.090	0.282
-427.603	-86.909	-0.300	-0.091
-426.588	-10.625	-0.111	-0.073
-425.573	-200.000	-0.038	0.317
-424.559	80.788	-0.119	-0.128
-423.544	-1.973	-0.392	0.275
-422.530	-200.000	-0.023	-0.250
-421.515	-200.000	0.000	-0.223
-420.500	-200.000	-0.010	-0.202
-419.486	103.709	-0.253	-0.296
-418.471	800.000	-0.086	-0.317
-417.457	-24.817	0.091	-0.054
-416.442	-200.000	0.024	-0.336
-415.428	295.991	0.060	-0.109
-414.413	-10.860	-0.294	0.194
-413.398	-46.336	-0.060	-0.030
-412.384	-200.000	0.007	-0.038
-411.369	203.700	0.055	-0.086
-410.355	590.903	0.117	-0.289
-409.340	800.000	0.047	0.148
-408.325	-200.000	-0.058	0.332
-407.311	-200.000	-0.024	0.299
-406.296	-148.269	0.146	0.012
-405.282	633.441	-0.078	0.198
-404.267	-200.000	0.018	0.115
-403.252	703.086	-0.036	-0.095
-402.238	95.186	0.222	0.252
-401.223	-110.418	0.390	-0.081
-400.209	-137.837	0.052	0.006
-399.194	-174.120	0.388	0.011
-398.179	85.794	-0.180	0.198
-397.165	74.678	0.051	-0.054
-396.150	-200.000	0.052	0.327
-395.136	-47.250	-0.232	0.113
-394.121	-56.939	0.148	-0.065
-393.106	-71.824	-0.112	0.041
-392.092	93.265	0.074	-0.084
-391.077	800.000	0.058	-0.167
-390.063	-14.799	0.276	0.176
-389.048	558.301	-0.028	0.068
-388.033	-68.403	-0.305	-0.118
-387.019	-117.210	0.311	-0.056
-386.004	168.090	0.121	-0.171
-384.990	23.472	-0.124	-0.102
-383.975	-10.616	0.282	0.186
-382.960	-112.645	0.245	-0.049
-381.946	7.377	0.162	0.120
-380.931	-109.543	-0.289	0.061
-379.917	-28.798	0.363	0.208
-378.902	127.874	-0.080	0.101
-377.888	-122.532	0.349	-0.057
-376.873	800.000	-0.037	0.144
-375.858	-200.000	-0.029	0.158
-374.844	-96.657	0.286	-0.075
-373.829	-96.877	-0.152	-0.040
-372.815	19.782	0.539	0.433
-371.800	-81.160	0.412	-0.136
-370.785	16.474	0.182	0.144
-369.771	-64.833	0.314	0.127
-368.756	52.451	0.184	0.175
-367.742	191.983	-0.108	0.162
-366.727	-57.281	0.141	-0.062
-365.712	-121.523	0.113	0.019
-364.698	-128.624	0.211	0.030
-363.683	-151.822	-0.294	-0.022
-362.669	-51.041	-0.162	0.076
-361.654	25.489	0.261	0.216
-360.639	-200.000	-0.007	0.188
-359.625	-121.228	0.178	-0.030
-358.610	800.000	-0.037	-0.116
-357.596	311.038	-0.078	-0.146
-356.581	-98.337	-0.288	0.074
-355.566	461.896	-0.156	-0.346
-354.552	-160.267	-0.230	0.012
-353.537	-29.078	-0.092	-0.053
-352.523	-26.348	-0.041	0.024
-351.508	198.513	-0.220	0.336
-350.493	800.000	-0.117	0.377
-349.479	-72.310	-0.233	0.086
-348.464	-77.966	0.198	-0.068
-347.450	-136.175	0.200	-0.023
-346.435	-1.373	-0.203	-0.143
-345.420	-1.749	0.053	0.037
-344.406	-64.760	0.254	-0.102
-343.391	-124.870	-0.262	-0.040
-342.377	-45.888	0.115	0.056
-341.362	-55.336	0.400	-0.179
-340.348	125.632	-0.166	-0.209
-339.333	104.379	-0.094	0.110
-338.318	202.978	-0.115	-0.176
-337.304	121.165	0.091	-0.113
-336.289	-171.991	-0.105	-0.003
-335.275	-30.496	-0.198	0.112
-334.260	105.275	0.128	0.150
-333.245	-32.495	-0.211	-0.117
-332.231	-154.756	-0.187	0.012
-331.216	12.266	0.199	-0.152
-330.202	85.991	0.141	0.155
-329.187	-96.541	-0.271	-0.071
-328.172	800.000	0.057	0.229
-327.158	144.186	-0.111	-0.147
-326.143	17.377	0.198	-0.156
-325.129	598.774	0.118	-0.290
-324.114	379.421	0.108	-0.220
-323.099	20.787	-0.061	-0.049
-322.085	-200.000	0.019	0.454
-321.070	395.607	-0.117	-0.244
-320.056	336.857	-0.021	-0.041
-319.041	-75.764	0.116	0.041
-318.026	-56.002	-0.039	0.017
-317.012	-107.798	-0.318	0.069
-315.997	-3.668	0.110	0.076
-314.983	800.000	0.045	0.126
-313.968	163.713	-0.148	0.208
-312.953	-200.000	0.020	-0.117
-311.939	51.548	0.065	-0.061
-310.924	-60.923	-0.284	-0.119
-309.910	-115.369	-0.267	-0.050
-308.895	-200.000	-0.014	-0.383
-307.880	-66.655	0.385	0.152
-306.866	306.556	0.118	-0.218
-305.851	-120.152	-0.307	-0.052
-304.837	36.748	-0.074	-0.065
-303.822	148.477	0.085	-0.114
-302.807	-48.824	-0.404	-0.193
-301.793	-47.944	-0.229	0.110
-300.778	109.308	-0.123	0.146
-299.764	-46.924	-0.314	-0.152
-298.749	349.105	-0.110	-0.216
-297.735	-170.534	0.210	-0.007
-296.720	159.400	0.079	-0.110
-295.705	-9.208	0.061	0.040
-294.691	-116.016	-0.079	0.015
-293.676	-98.908	-0.228	0.057
-292.662	-200.000	-0.048	0.291
-291.647	347.107	0.001	0.002
-290.632	-5.217	-0.202	0.138
-289.618	-101.834	0.303	0.073
-288.603	340.689	-0.082	0.159
-287.589	35.514	0.463	-0.404
-286.574	-144.968	0.255	-0.023
-285.559	-30.923	-0.036	-0.020
-284.545	27.329	0.188	0.157
-283.530	168.049	0.054	0.076
-282.516	117.803	0.447	0.547
-281.501	155.935	0.118	-0.161
-280.486	-28.114	-0.213	-0.122
-279.472	-200.000	0.017	0.202
-278.457	-110.766	-0.504	-0.103
-277.443	-200.000	-0.023	0.227
-276.428	-200.000	0.031	0.439
-275.413	-42.088	-0.131	0.067
-274.399	-66.197	0.221	0.087
-273.384	158.571	-0.095	-0.131
-272.370	-189.213	-0.037	-0.000
-271.355	-200.000	0.008	-0.256
-270.340	604.482	0.085	-0.209
-269.326	-143.980	0.046	0.004
-268.311	-98.953	-0.136	0.034
-267.297	50.002	-0.176	0.164
-266.282	-78.003	0.111	0.038
-265.267	-168.017	-0.237	-0.009
-264.253	-200.000	0.018	0.090
-263.238	-159.526	0.092	0.005
-262.224	-128.351	0.148	-0.021
-261.209	800.000	-0.056	0.191
-260.195	-200.000	0.027	-0.256
-259.180	463.112	-0.118	-0.261
-258.165	88.209	0.116	0.128
-257.151	-77.930	0.121	-0.041
-256.136	-82.552	0.148	0.048
-255.122	481.589	-0.183	-0.411
-254.107	249.213	-0.240	0.403
-253.092	201.109	0.249	0.379
-252.078	-149.805	-0.143	-0.011
-251.063	-32.326	0.159	-0.088
-250.049	-170.978	-0.277	-0.009
-249.034	137.381	-0.095	-0.123
-248.019	183.908	0.094	-0.139
-247.005	-200.000	-0.027	-0.201
-245.990	355.816	0.061	-0.120
-244.976	800.000	-0.019	-0.066
-243.961	-41.980	-0.336	-0.171
-242.946	800.000	-0.078	0.281
-241.932	-72.272	0.078	0.029
-240.917	-86.448	-0.086	-0.026
-239.903	-200.000	0.029	-0.166
-238.888	-200.000	-0.062	0.279
-237.873	-200.000	-0.075	-0.416
-236.859	-94.502	-0.340	0.092
-235.844	560.476	-0.050	-0.119
-234.830	800.000	-0.061	-0.169
-233.815	-200.000	-0.014	0.299
-232.800	-200.000	-0.006	-0.101
-231.786	800.000	0.138	0.433
-230.771	135.613	0.121	0.156
-229.757	-44.187	-0.062	-0.031
-228.742	-102.146	-0.184	-0.044
-227.727	-63.568	-0.308	-0.125
-226.713	81.377	-0.218	-0.234
-225.698	-121.008	-0.364	-0.061
-224.684	38.947	-0.136	0.121
-223.669	-83.233	0.081	0.026
-222.655	-149.853	0.170	-0.013
-221.640	-200.000	0.022	0.277
-220.625	-19.448	0.189	0.116
-219.611	57.263	-0.238	0.230
-218.596	152.843	-0.070	0.095
-217.582	-120.352	0.131	-0.022
-216.567	-54.929	0.018	-0.008
-215.552	72.485	-0.157	-0.162
-214.538	-153.209	0.030	0.002
-213.523	244.091	-0.113	0.188
-212.509	1.070	-0.139	-0.099
-211.494	-110.515	-0.192	0.039
-210.479	86.982	-0.178	0.195
-209.465	-200.000	0.005	-0.074
-208.450	513.063	0.084	-0.194
-207.436	-200.000	0.022	-0.114
-206.421	800.000	0.049	-0.196
-205.406	-88.378	0.172	0.051
-204.392	-101.567	0.214	0.051
-203.377	-200.000	-0.015	-0.188
-202.363	-60.130	0.086	-0.036
-201.348	-27.635	0.136	-0.078
-200.333	-109.724	0.220	0.046
-199.319	81.552	-0.077	-0.083
-198.304	-200.000	-0.010	0.127
-197.290	290.052	-0.137	0.246
-196.275	-18.008	-0.131	0.081
-195.260	18.808	0.133	-0.105
-194.246	306.857	0.042	-0.078
-193.231	-200.000	-0.012	-0.276
-192.217	-70.323	-0.138	0.052
-191.202	-200.000	0.025	0.174
-190.187	800.000	-0.004	0.013
-189.173	-127.959	-0.021	-0.003
-188.158	-81.753	-0.199	-0.064
-187.144	439.497	0.036	0.079
-186.129	-100.200	0.149	0.037
-185.114	34.324	0.323	0.279
-184.100	46.754	-0.213	0.196
-183.085	6.553	0.098	-0.072
-182.071	10.009	-0.307	-0.230
-181.056	-65.942	0.143	-0.057
-180.042	-9.998	0.082	-0.054
-179.027	84.227	0.182	-0.196
-178.012	800.000	0.147	-0.455
-176.998	-0.661	0.178	-0.125
-175.983	800.000	0.147	0.415
-174.969	-72.713	0.269	-0.098
-173.954	-91.170	0.200	-0.057
-172.939	-85.403	-0.242	-0.075
-171.925	-134.570	0.281	0.034
-170.910	-79.815	-0.195	-0.065
-169.896	82.337	0.340	0.364
-168.881	800.000	0.177	0.710
-167.866	-200.000	0.031	-0.219
-166.852	6.192	0.026	-0.019
-165.837	14.832	0.058	-0.045
-164.823	-78.138	-0.309	0.105
-163.808	98.182	0.213	0.243
-162.793	-87.927	0.084	0.025
-161.779	65.264	-0.028	0.028
-160.764	21.197	0.380	-0.305
-159.750	-200.000	0.010	0.061
-158.735	35.627	0.111	0.097
-157.720	-4.215	0.184	0.126
-156.706	50.041	0.202	-0.189
-155.691	458.259	0.029	-0.064
-154.677	163.445	-0.109	0.151
-153.662	134.846	-0.106	0.136
-152.647	-102.150	-0.085	0.020
-151.633	-200.000	-0.028	-0.290
-150.618	-50.146	-0.337	0.157
-149.604	329.801	0.134	-0.255
-148.589	441.839	-0.045	0.098
-147.574	33.275	-0.010	-0.008
-146.560	-123.504	0.288	-0.045
-145.545	-110.273	-0.229	-0.047
-144.531	-200.000	0.031	0.152
-143.516	93.101	-0.263	-0.294
-142.502	-118.002	0.145	0.026
-141.487	-200.000	0.002	0.033
-140.472	-51.275	-0.452	-0.209
-139.458	-11.373	0.248	-0.161
-138.443	-200.000	0.000	-0.071
-137.429	-146.710	-0.122	0.010
-136.414	-22.686	-0.084	0.050
-135.399	716.652	-0.105	-0.276
-134.385	-200.000	0.064	-0.321
-133.370	-16.619	0.075	-0.047
-132.356	-66.654	0.315	-0.123
-131.341	-21.102	0.110	-0.066
-130.326	57.339	0.090	-0.086
-129.312	25.566	-0.067	0.055
-128.297	103.630	-0.062	0.071
-127.283	800.000	0.123	-0.414
-126.268	-175.989	0.409	0.011
-125.253	340.569	-0.036	-0.069
-124.239	-11.617	0.127	0.082
-123.224	-7.555	0.162	0.108
-122.210	722.611	-0.123	0.322
-121.195	800.000	0.056	0.162
