DTS Sentinel unit serial number:	SN413079Multiplexer serial number:	ORYXHardware model number:	OX4-SRSoftware version number:	ORYX F/W v4.00 Oryx Data Collector v3.7.2.0data status	okinstallation	princeton_trtdifferential loss correction	single-endedforward channel	channel 1reverse channel	N/Adate	2019/09/12time	02:48:11forward acquisition time	60.00reverse acquisition time	0.00gamma	496.2192k internal	0.2322k external	0.2322temperature offset calibration	1.0076default loss term (dB/km)	0.3790temperature slope calibration	1.0000multiplexer offset coefficient	1.0000multiplexer slope coefficient	1.0000fibre end	0.00T internal ref (°C)	32.37T ext. ref 1 (°C)	2.09T ext. ref 2 (°C)	26.91length (m)	temperature (°C)	Stokes	anti-Stokes-747.200	-200.000	0.052	-0.261
-746.185	160.724	-0.129	0.182
-745.171	-200.000	0.024	0.227
-744.156	800.000	0.037	0.119
-743.142	300.404	0.241	0.449
-742.127	-75.993	-0.238	-0.085
-741.112	81.797	0.168	-0.184
-740.098	-200.000	-0.017	0.126
-739.083	800.000	0.066	0.292
-738.069	63.484	0.224	0.227
-737.054	-115.313	0.469	0.089
-736.039	-200.000	0.037	-0.203
-735.025	-200.000	-0.017	0.107
-734.010	-40.681	-0.151	-0.079
-732.996	-113.689	-0.169	-0.033
-731.981	-200.000	0.007	-0.203
-730.966	-97.329	-0.309	0.081
-729.952	255.513	0.026	0.044
-728.937	179.749	-0.140	0.207
-727.923	504.595	0.037	-0.087
-726.908	70.530	-0.218	-0.228
-725.894	-200.000	-0.002	-0.340
-724.879	703.860	0.047	0.126
-723.864	170.327	-0.150	0.217
-722.850	743.536	-0.039	0.105
-721.835	-200.000	0.032	0.149
-720.821	800.000	-0.055	-0.199
-719.806	71.588	0.300	-0.315
-718.791	325.886	0.094	-0.181
-717.777	-86.891	0.327	-0.101
-716.762	800.000	0.105	0.321
-715.748	-91.079	-0.340	0.099
-714.733	-26.991	0.295	0.174
-713.718	60.228	-0.280	-0.279
-712.704	491.214	0.079	0.183
-711.689	588.949	0.057	0.142
-710.675	107.173	-0.047	0.057
-709.660	-41.334	0.135	0.070
-708.645	-200.000	0.024	-0.349
-707.631	-188.639	-0.195	-0.002
-706.616	-136.012	0.214	0.025
-705.602	-182.123	-0.425	-0.008
-704.587	151.085	0.128	0.176
-703.572	-1.267	0.364	-0.259
-702.558	-147.259	-0.159	-0.014
-701.543	-200.000	-0.004	0.039
-700.529	-61.024	0.119	0.051
-699.514	464.883	0.152	-0.342
-698.499	-51.377	0.204	-0.096
-697.485	-29.811	0.192	0.110
-696.470	-69.260	0.173	0.067
-695.456	-200.000	0.002	0.118
-694.441	-90.931	0.211	-0.061
-693.426	800.000	0.051	0.198
-692.412	-200.000	0.046	-0.293
-691.397	111.712	-0.138	0.168
-690.383	-61.573	-0.176	0.075
-689.368	-200.000	0.001	-0.111
-688.354	70.860	0.107	0.112
-687.339	21.733	0.152	0.125
-686.324	67.118	-0.111	0.114
-685.310	-185.800	0.250	-0.004
-684.295	110.201	-0.167	0.202
-683.281	42.176	-0.154	-0.141
-682.266	-36.283	-0.262	0.142
-681.251	-200.000	-0.040	0.233
-680.237	136.174	-0.219	-0.288
-679.222	78.749	0.090	0.097
-678.208	-200.000	-0.004	-0.147
-677.193	202.110	0.198	-0.308
-676.178	181.402	-0.146	-0.217
-675.164	800.000	-0.095	-0.300
-674.149	800.000	0.060	0.240
-673.135	-73.224	-0.233	-0.086
-672.120	-200.000	-0.004	0.240
-671.105	-200.000	-0.009	-0.103
-670.091	187.166	-0.161	-0.242
-669.076	566.176	0.032	0.079
-668.062	520.289	-0.083	-0.197
-667.047	-71.569	0.085	0.032
-666.032	532.730	-0.024	-0.058
-665.018	89.402	0.295	0.331
-664.003	-200.000	-0.031	-0.144
-662.989	-78.385	-0.239	-0.083
-661.974	800.000	0.062	0.179
-660.959	800.000	-0.146	-0.526
-659.945	620.667	0.082	-0.209
-658.930	13.020	-0.351	-0.273
-657.916	224.395	-0.114	0.185
-656.901	258.265	0.036	0.063
-655.886	336.165	-0.095	-0.186
-654.872	261.979	-0.208	-0.363
-653.857	506.187	-0.088	-0.205
-652.843	5.208	-0.134	0.099
-651.828	-200.000	-0.001	0.224
-650.814	-200.000	0.018	0.163
-649.799	-116.736	0.272	0.050
-648.784	-33.404	-0.141	-0.079
-647.770	600.683	0.119	-0.297
-646.755	59.529	0.191	-0.189
-645.741	-200.000	0.000	-0.185
-644.726	55.080	-0.218	-0.212
-643.711	-56.132	0.156	-0.070
-642.697	50.105	-0.277	0.263
-641.682	-134.446	0.091	-0.011
-640.668	-200.000	0.023	0.114
-639.653	253.110	0.126	-0.216
-638.638	-140.390	-0.175	0.018
-637.624	-52.967	0.090	0.042
-636.609	-162.367	-0.431	-0.022
-635.595	-165.548	0.346	0.015
-634.580	-35.716	-0.193	-0.105
-633.565	262.582	-0.021	-0.036
-632.551	-141.582	-0.344	-0.035
-631.536	-159.335	-0.177	0.010
-630.522	-78.308	0.306	-0.106
-629.507	-200.000	-0.031	-0.324
-628.492	48.956	0.103	-0.098
-627.478	-75.884	0.404	-0.144
-626.463	519.304	-0.059	-0.138
-625.449	-55.522	-0.299	0.135
-624.434	-200.000	-0.004	-0.016
-623.419	800.000	-0.039	0.138
-622.405	800.000	0.020	0.084
-621.390	-11.043	-0.220	-0.146
-620.376	-12.829	0.174	0.114
-619.361	33.174	0.317	-0.276
-618.346	-126.704	-0.215	-0.032
-617.332	-88.380	0.155	0.047
-616.317	-111.103	-0.221	0.045
-615.303	-200.000	0.030	-0.219
-614.288	-200.000	-0.016	-0.208
-613.273	800.000	0.067	0.186
-612.259	800.000	-0.012	0.045
-611.244	54.598	-0.222	0.215
-610.230	-200.000	-0.011	-0.333
-609.215	67.642	-0.134	-0.137
-608.201	151.843	0.132	0.182
-607.186	-116.060	-0.410	0.077
-606.171	45.115	0.214	0.198
-605.157	-162.578	-0.166	0.008
-604.142	-52.887	-0.244	0.113
-603.128	-200.000	0.033	0.238
-602.113	94.763	0.160	-0.183
-601.098	-28.360	-0.017	0.010
-600.084	-73.865	0.212	-0.077
-599.069	-113.310	-0.254	-0.050
-598.055	34.049	0.095	0.083
-597.040	-135.970	-0.151	0.018
-596.025	441.117	-0.140	0.307
-595.011	234.981	-0.125	-0.207
-593.996	800.000	0.071	-0.312
-592.982	-200.000	-0.039	-0.296
-591.967	-75.902	-0.107	-0.038
-590.952	-200.000	-0.017	-0.238
-589.938	16.212	0.098	0.078
-588.923	93.736	-0.213	-0.242
-587.909	-156.983	0.245	-0.015
-586.894	146.557	0.033	-0.045
-585.879	800.000	0.028	-0.119
-584.865	-151.635	-0.336	-0.025
-583.850	-200.000	0.004	-0.223
-582.836	-16.476	-0.231	0.147
-581.821	107.258	0.105	0.125
-580.806	-200.000	0.032	-0.142
-579.792	-64.819	0.171	-0.069
-578.777	-200.000	0.014	-0.321
-577.763	-74.844	0.104	0.038
-576.748	-25.091	-0.162	0.097
-575.733	72.540	-0.189	0.198
-574.719	-125.498	-0.157	0.024
-573.704	-166.271	-0.204	-0.009
-572.690	-92.006	0.186	-0.053
-571.675	-200.000	-0.044	-0.412
-570.661	291.315	0.045	-0.082
-569.646	537.840	0.065	0.154
-568.631	-117.367	0.092	0.017
-567.617	-25.888	0.137	-0.081
-566.602	-36.580	0.366	0.198
-565.588	-90.089	0.174	0.051
-564.573	-89.788	0.368	-0.108
-563.558	-39.995	-0.302	-0.158
-562.544	112.792	0.057	-0.069
-561.529	-19.825	0.115	-0.072
-560.515	-48.917	-0.120	-0.058
-559.500	213.197	0.189	0.299
-558.485	-200.000	0.002	-0.135
-557.471	-18.602	-0.160	0.100
-556.456	-38.298	-0.073	-0.039
-555.442	-97.192	0.123	0.032
-554.427	52.711	-0.178	-0.171
-553.412	-200.000	0.007	0.123
-552.398	800.000	0.046	-0.145
-551.383	208.048	0.168	0.263
-550.369	-92.053	-0.233	-0.066
-549.354	-51.595	0.176	-0.083
-548.339	-144.208	-0.267	-0.025
-547.325	146.699	0.129	-0.173
-546.310	-116.671	0.157	-0.029
-545.296	198.852	-0.065	0.099
-544.281	384.953	-0.110	-0.228
-543.266	153.648	-0.258	-0.354
-542.252	-12.266	-0.153	0.101
-541.237	44.658	0.215	0.198
-540.223	160.350	-0.229	-0.320
-539.208	87.877	0.096	0.106
-538.193	-200.000	-0.028	0.128
-537.179	-21.449	-0.541	-0.331
-536.164	-90.468	0.051	-0.015
-535.150	-30.771	-0.083	-0.047
-534.135	800.000	-0.067	-0.225
-533.121	-36.553	-0.506	-0.273
-532.106	-200.000	-0.025	-0.302
-531.091	-200.000	-0.032	0.165
-530.077	-200.000	0.079	-0.350
-529.062	22.753	0.150	-0.123
-528.048	53.022	0.213	0.204
-527.033	26.355	-0.122	-0.102
-526.018	628.114	0.075	0.191
-525.004	800.000	0.086	-0.239
-523.989	-135.448	0.142	0.017
-522.975	-52.239	0.280	-0.130
-521.960	173.848	0.059	0.085
-520.945	-120.632	-0.317	-0.054
-519.931	128.555	0.189	0.241
-518.916	-160.423	-0.164	-0.009
-517.902	-13.657	0.161	-0.104
-516.887	-99.672	-0.332	0.083
-515.872	1.865	-0.172	-0.124
-514.858	-200.000	0.002	0.115
-513.843	-22.311	-0.168	-0.102
-512.829	-28.970	-0.162	-0.093
-511.814	72.551	-0.267	0.279
-510.799	85.020	0.154	0.169
-509.785	391.829	-0.035	0.074
-508.770	-200.000	-0.004	-0.086
-507.756	-3.018	-0.137	0.095
-506.741	-3.035	0.038	0.027
-505.726	-107.244	0.381	0.084
-504.712	-69.051	0.034	-0.013
-503.697	123.119	0.077	-0.097
-502.683	164.172	0.062	-0.087
-501.668	-48.508	-0.198	0.095
-500.653	-138.350	-0.148	-0.016
-499.639	283.242	0.094	0.169
-498.624	-200.000	0.005	-0.194
-497.610	122.867	-0.149	-0.186
-496.595	-101.781	0.268	0.065
-495.581	-66.393	-0.179	-0.071
-494.566	248.843	0.056	0.094
-493.551	95.567	0.166	0.189
-492.537	132.417	0.199	-0.256
-491.522	86.014	0.061	0.068
-490.508	-200.000	0.012	-0.086
-489.493	69.091	-0.292	0.300
-488.478	800.000	-0.109	0.305
-487.464	800.000	0.028	-0.093
-486.449	184.328	-0.151	-0.224
-485.435	32.961	-0.163	-0.141
-484.420	197.605	0.118	-0.180
-483.405	-94.399	0.363	0.099
-482.391	205.336	-0.187	-0.291
-481.376	-29.808	0.048	-0.027
-480.362	152.342	-0.209	-0.286
-479.347	635.527	0.105	0.266
-478.332	800.000	0.084	-0.253
-477.318	-84.101	-0.421	-0.134
-476.303	-13.193	-0.126	0.082
-475.289	139.938	0.175	0.231
-474.274	434.675	0.093	0.202
-473.259	508.213	-0.079	0.183
-472.245	-3.414	-0.065	0.045
-471.230	-16.120	0.197	-0.125
-470.216	549.290	0.145	-0.348
-469.201	78.683	0.079	0.085
-468.186	-110.387	0.410	0.085
-467.172	-49.178	0.196	0.094
-466.157	-83.155	-0.287	-0.092
-465.143	800.000	-0.074	-0.269
-464.128	-200.000	0.038	0.301
-463.113	800.000	0.015	-0.050
-462.099	391.171	-0.061	0.127
-461.084	-48.369	-0.100	0.048
-460.070	7.919	0.216	-0.162
-459.055	299.119	0.099	-0.182
-458.040	-155.357	0.072	0.005
-457.026	800.000	-0.135	0.433
-456.011	-200.000	-0.002	0.392
-454.997	-200.000	-0.019	0.184
-453.982	142.758	-0.158	0.210
-452.968	-179.166	0.035	0.001
-451.953	143.300	0.173	-0.229
-450.938	-153.382	-0.419	0.029
-449.924	-200.000	0.031	0.143
-448.909	-137.218	-0.318	-0.036
-447.895	242.589	-0.199	0.333
-446.880	49.249	-0.022	-0.020
-445.865	-200.000	0.056	-0.262
-444.851	-200.000	0.043	-0.243
-443.836	37.637	0.181	-0.161
-442.822	6.269	-0.122	-0.090
-441.807	555.223	-0.147	-0.354
-440.792	309.693	0.062	-0.115
-439.778	-135.656	-0.323	0.038
-438.763	-147.889	-0.410	0.034
-437.749	84.428	-0.124	0.135
-436.734	-200.000	0.021	0.147
-435.719	687.608	0.087	-0.226
-434.705	21.711	-0.153	-0.124
-433.690	-83.940	-0.084	-0.027
-432.676	-148.987	0.121	-0.010
-431.661	-26.028	-0.105	0.062
-430.646	-118.251	0.073	0.013
-429.632	-40.548	-0.210	-0.109
-428.617	-118.360	-0.107	-0.019
-427.603	32.600	-0.109	0.094
-426.588	34.678	0.151	-0.131
-425.573	34.689	-0.109	0.095
-424.559	323.085	-0.273	0.519
-423.544	-59.489	0.097	-0.042
-422.530	-200.000	-0.039	-0.254
-421.515	-3.477	0.125	0.087
-420.500	465.776	-0.052	0.116
-419.486	-200.000	-0.053	0.268
-418.471	-200.000	-0.030	-0.228
-417.457	408.362	-0.103	-0.217
-416.442	22.644	0.146	0.120
-415.428	451.068	0.051	0.113
-414.413	15.725	0.262	-0.205
-413.398	-150.462	-0.110	0.008
-412.384	-39.556	0.469	0.245
-411.369	-91.837	0.278	-0.079
-410.355	-200.000	-0.043	-0.267
-409.340	5.047	0.405	-0.297
-408.325	-200.000	0.030	-0.187
-407.311	18.749	0.162	-0.129
-406.296	428.520	-0.129	-0.277
-405.282	118.896	-0.173	-0.213
-404.267	-155.537	0.153	0.010
-403.252	-200.000	-0.005	-0.110
-402.238	800.000	0.105	0.293
-401.223	-32.609	-0.044	-0.025
-400.209	-139.359	-0.146	-0.016
-399.194	-58.894	0.187	-0.081
-398.179	-127.169	0.152	0.022
-397.165	-78.570	-0.196	-0.067
-396.150	-71.616	-0.202	0.075
-395.136	187.057	0.078	0.116
-394.121	499.926	0.075	-0.171
-393.106	-124.254	0.271	-0.042
-392.092	-21.419	-0.122	-0.074
-391.077	800.000	0.045	0.125
-390.063	353.839	0.085	-0.167
-389.048	39.034	-0.144	0.129
-388.033	-40.128	0.155	-0.081
-387.019	27.040	-0.252	0.211
-386.004	-65.803	-0.302	0.120
-384.990	-200.000	0.001	0.157
-383.975	-200.000	0.027	0.251
-382.960	800.000	-0.059	0.198
-381.946	-54.808	-0.193	0.087
-380.931	-200.000	-0.022	-0.289
-379.917	-152.008	-0.173	-0.013
-378.902	454.364	-0.087	-0.193
-377.888	-200.000	0.036	0.169
-376.873	-200.000	-0.029	-0.273
-375.858	800.000	-0.084	0.296
-374.844	-200.000	0.053	0.566
-373.829	-13.749	-0.248	0.160
-372.815	800.000	-0.080	-0.278
-371.800	-200.000	-0.041	-0.348
-370.785	-109.615	-0.127	0.027
-369.771	800.000	-0.038	0.130
-368.756	800.000	-0.023	0.065
-367.742	23.722	0.182	0.149
-366.727	-200.000	-0.029	0.356
-365.712	-130.302	0.165	0.022
-364.698	248.385	-0.074	-0.125
-363.683	-200.000	-0.006	0.179
-362.669	800.000	0.052	0.175
-361.654	30.762	0.151	-0.129
-360.639	-15.718	-0.226	0.144
-359.625	-200.000	0.024	-0.430
-358.610	-76.278	0.202	0.071
-357.596	87.977	-0.163	0.180
-356.581	115.916	0.074	-0.091
-355.566	-151.955	-0.201	0.015
-354.552	800.000	0.073	0.298
-353.537	-200.000	-0.013	-0.122
-352.523	-58.391	0.038	0.017
-351.508	-200.000	-0.076	0.343
-350.493	800.000	-0.097	0.270
-349.479	-200.000	0.004	-0.175
-348.464	479.464	0.182	0.410
-347.450	-99.618	0.237	-0.059
-346.435	800.000	-0.035	-0.114
-345.420	800.000	-0.113	0.370
-344.406	-50.236	-0.135	0.063
-343.391	208.632	0.135	-0.211
-342.377	359.869	-0.244	-0.486
-341.362	98.738	-0.108	-0.124
-340.348	-187.576	-0.108	0.001
-339.333	87.352	-0.204	0.224
-338.318	-200.000	0.044	0.447
-337.304	800.000	0.011	0.033
-336.289	800.000	0.026	-0.084
-335.275	-70.373	-0.260	-0.098
-334.260	50.034	0.085	0.080
-333.245	-141.976	-0.217	-0.021
-332.231	382.544	0.147	0.300
-331.216	-200.000	0.025	0.118
-330.202	-63.304	0.087	-0.036
-329.187	-5.381	0.169	0.116
-328.172	-200.000	0.001	0.045
-327.158	35.011	-0.304	-0.265
-326.143	-150.364	-0.127	-0.010
-325.129	800.000	0.113	-0.483
-324.114	-200.000	0.019	0.127
-323.099	-132.084	0.257	-0.033
-322.085	-121.609	0.368	0.061
-321.070	185.848	0.126	-0.186
-320.056	-200.000	0.017	-0.078
-319.041	-200.000	-0.008	0.289
-318.026	-128.937	0.249	-0.035
-317.012	-11.200	-0.223	-0.146
-315.997	-116.923	-0.122	-0.022
-314.983	-159.603	0.289	0.016
-313.968	-200.000	-0.070	-0.313
-312.953	285.698	0.045	-0.080
-311.939	-200.000	0.024	0.340
-310.924	-133.329	0.446	0.056
-309.910	753.885	0.098	0.262
-308.895	5.006	0.247	0.181
-307.880	129.001	-0.195	0.247
-306.866	800.000	0.043	0.121
-305.851	-200.000	0.081	0.432
-304.837	71.873	-0.075	0.078
-303.822	320.551	-0.082	-0.154
-302.807	208.391	-0.164	-0.255
-301.793	147.922	-0.055	0.074
-300.778	-200.000	0.021	0.309
-299.764	-200.000	0.021	0.145
-298.749	800.000	-0.043	0.177
-297.735	166.666	-0.212	0.298
-296.720	234.810	0.173	0.284
-295.705	-45.968	-0.296	-0.145
-294.691	800.000	0.026	-0.098
-293.676	-104.868	0.218	-0.050
-292.662	-26.809	0.224	-0.130
-291.647	-77.990	-0.175	-0.060
-290.632	-57.427	-0.093	0.040
-289.618	-57.027	-0.259	0.114
-288.603	-200.000	0.002	-0.292
-287.589	279.933	0.197	0.350
-286.574	-200.000	0.002	0.225
-285.559	33.522	-0.085	-0.073
-284.545	-32.449	-0.286	0.158
-283.530	800.000	-0.040	-0.110
-282.516	8.228	-0.304	0.226
-281.501	-112.365	-0.065	-0.013
-280.486	267.441	0.034	0.059
-279.472	320.819	-0.053	0.100
-278.457	107.384	0.139	-0.165
-277.443	169.651	-0.012	0.017
-276.428	-152.022	0.391	-0.028
-275.413	-104.826	0.317	0.072
-274.399	-200.000	-0.005	0.031
-273.384	290.565	-0.017	0.030
-272.370	65.833	0.132	0.133
-271.355	162.976	0.098	-0.137
-270.340	271.731	0.197	-0.344
-269.326	-111.761	0.153	0.031
-268.311	-118.543	-0.349	0.061
-267.297	184.247	0.275	-0.403
-266.282	130.676	0.142	-0.181
-265.267	258.740	-0.128	-0.219
-264.253	785.639	-0.081	0.220
-263.238	-4.665	0.186	0.128
-262.224	404.561	0.044	0.092
-261.209	-200.000	-0.003	0.331
-260.195	-116.102	0.026	-0.005
-259.180	428.898	0.020	-0.043
-258.165	86.431	0.158	0.173
-257.151	346.949	-0.126	-0.246
-256.136	602.292	-0.065	-0.161
-255.122	-200.000	0.012	0.279
-254.107	124.031	0.040	-0.049
-253.092	-200.000	-0.030	0.177
-252.078	145.125	-0.199	0.264
-251.063	-88.176	0.238	-0.071
-250.049	50.552	0.111	-0.104
-249.034	-95.072	-0.193	-0.052
-248.019	-133.002	-0.188	-0.024
-247.005	-63.605	0.111	0.045
-245.990	-200.000	0.038	-0.272
-244.976	-200.000	0.002	0.088
-243.961	-73.626	0.221	-0.080
-242.946	-118.508	-0.414	-0.073
-241.932	800.000	0.052	0.163
-240.917	169.039	-0.164	0.231
-239.903	-200.000	-0.016	-0.149
-238.888	-121.690	0.217	-0.036
-237.873	306.814	0.103	-0.191
-236.859	266.379	0.060	0.104
-235.844	77.992	0.238	-0.252
-234.830	26.246	-0.340	0.281
-233.815	-200.000	0.030	-0.146
-232.800	200.761	-0.058	-0.089
-231.786	-33.237	0.120	0.066
-230.771	-77.745	-0.104	0.036
-229.757	705.592	0.083	-0.216
-228.742	-200.000	0.010	-0.453
-227.727	800.000	-0.023	0.081
-226.713	245.466	-0.081	-0.135
-225.698	-137.551	0.289	0.032
-224.684	-159.490	-0.136	0.008
-223.669	-17.033	0.312	0.195
-222.655	-200.000	-0.021	-0.156
-221.640	97.165	-0.159	-0.180
-220.625	-63.431	0.198	0.080
-219.611	223.047	-0.227	0.363
-218.596	-81.873	0.254	-0.082
-217.582	-200.000	0.012	-0.183
-216.567	-169.737	0.313	-0.011
-215.552	-122.194	0.059	-0.010
-214.538	79.401	-0.070	0.074
-213.523	-200.000	-0.017	0.193
-212.509	39.256	0.211	0.187
-211.494	466.990	-0.078	0.174
-210.479	-200.000	0.023	0.272
-209.465	-27.266	0.227	-0.131
-208.450	93.415	0.227	-0.254
-207.436	-73.866	-0.084	0.030
-206.421	-96.005	0.179	-0.047
-205.406	-200.000	-0.012	0.247
-204.392	266.019	-0.121	0.209
-203.377	-146.819	0.206	0.018
-202.363	-75.088	0.067	0.024
-201.348	-200.000	-0.022	0.300
-200.333	800.000	0.120	-0.343
-199.319	-18.277	-0.173	0.107
-198.304	800.000	-0.046	0.176
-197.290	184.064	0.221	-0.324
-196.275	-126.325	0.244	-0.036
-195.260	-200.000	0.082	0.390
-194.246	56.025	-0.097	-0.094
-193.231	58.350	0.215	-0.208
-192.217	800.000	0.084	-0.241
-191.202	-200.000	-0.063	0.298
-190.187	718.400	0.079	-0.207
-189.173	-166.055	-0.075	0.003
-188.158	-65.068	0.321	-0.128
-187.144	-57.129	-0.089	0.039
-186.129	605.213	-0.099	-0.244
-185.114	504.588	-0.090	0.205
-184.100	241.618	0.209	0.345
-183.085	-33.626	0.316	-0.172
-182.071	-200.000	0.014	-0.192
-181.056	-200.000	-0.009	0.244
-180.042	343.155	0.126	0.244
-179.027	-22.791	-0.190	-0.113
-178.012	4.003	0.237	0.171
-176.998	800.000	0.040	0.152
-175.983	-144.143	-0.459	-0.042
-174.969	62.400	0.210	-0.207
-173.954	800.000	0.140	-0.405
-172.939	86.049	-0.182	0.198
-171.925	800.000	-0.044	0.132
-170.910	-142.263	0.248	0.024
-169.896	21.319	-0.059	-0.047
-168.881	33.928	-0.117	0.101
-167.866	-43.460	-0.190	0.095
-166.852	-26.644	0.042	-0.024
-165.837	211.577	0.131	0.203
-164.823	-87.160	0.079	0.024
-163.808	-13.355	-0.078	0.050
-162.793	330.245	0.102	0.193
-161.779	113.350	0.173	0.207
-160.764	800.000	0.078	0.312
-159.750	-38.022	0.075	-0.039
-158.735	29.223	-0.043	0.036
-157.720	132.914	-0.049	-0.063
-156.706	119.710	-0.146	0.179
-155.691	71.067	0.086	0.088
-154.677	-200.000	-0.057	0.353
-153.662	6.652	0.222	0.163
-152.647	-134.707	-0.233	-0.028
-151.633	-200.000	0.050	-0.465
-150.618	53.416	0.238	-0.225
-149.604	-59.168	0.089	-0.038
-148.589	-129.762	0.128	0.017
-147.574	-44.799	-0.195	-0.096
-146.560	-200.000	0.007	-0.074
-145.545	227.880	0.074	-0.119
-144.531	800.000	0.036	-0.099
-143.516	155.024	-0.161	0.219
-142.502	-92.449	-0.073	-0.020
-141.487	5.950	0.192	-0.140
-140.472	117.076	0.133	0.161
-139.458	800.000	0.053	0.164
-138.443	16.162	0.152	-0.118
-137.429	7.953	-0.239	0.177
-136.414	800.000	-0.033	0.124
-135.399	-141.923	0.168	0.017
-134.385	62.151	-0.124	0.122
-133.370	-200.000	0.008	-0.065
-132.356	-90.207	0.322	-0.092
-131.341	30.719	-0.158	0.134
-130.326	-85.494	0.133	0.041
-129.312	-161.511	-0.373	0.019
-128.297	-196.696	0.255	0.002
-127.283	37.161	0.161	0.141
-126.268	84.067	-0.113	-0.122
-125.253	-200.000	-0.026	-0.158
-124.239	233.502	-0.107	-0.173
-123.224	800.000	0.101	0.292
-122.210	-200.000	-0.004	0.162
-121.195	116.841	-0.191	-0.232
