DTS Sentinel unit serial number:	SN413079Multiplexer serial number:	ORYXHardware model number:	OX4-SRSoftware version number:	ORYX F/W v4.00 Oryx Data Collector v3.7.2.0data status	okinstallation	princeton_trtdifferential loss correction	single-endedforward channel	channel 1reverse channel	N/Adate	2019/09/15time	01:14:35forward acquisition time	60.00reverse acquisition time	0.00gamma	496.2192k internal	0.2321k external	0.2321temperature offset calibration	0.9989default loss term (dB/km)	0.3790temperature slope calibration	1.0000multiplexer offset coefficient	1.0000multiplexer slope coefficient	1.0000fibre end	0.00T internal ref (°C)	31.94T ext. ref 1 (°C)	4.51T ext. ref 2 (°C)	26.86length (m)	temperature (°C)	Stokes	anti-Stokes-747.200	-132.069	-0.573	0.075
-746.185	6.691	-0.508	0.382
-745.171	779.112	0.067	0.186
-744.156	555.733	-0.067	-0.163
-743.142	-200.000	-0.031	-0.274
-742.127	-164.760	-0.185	0.008
-741.112	-119.966	0.283	0.049
-740.098	-200.000	-0.050	0.413
-739.083	171.640	0.065	-0.094
-738.069	145.180	-0.207	0.280
-737.054	46.774	0.164	-0.154
-736.039	-123.940	-0.326	-0.052
-735.025	19.765	0.311	0.253
-734.010	-12.315	-0.288	0.190
-732.996	-101.703	-0.375	-0.092
-731.981	64.339	-0.136	-0.139
-730.966	195.817	-0.049	0.076
-729.952	101.667	-0.095	0.111
-728.937	-111.991	-0.240	-0.049
-727.923	-29.236	0.175	-0.102
-726.908	-200.000	0.198	-0.001
-725.894	-172.827	-0.139	-0.004
-724.879	-64.176	0.231	0.095
-723.864	-142.857	-0.200	-0.020
-722.850	-122.921	-0.346	-0.056
-721.835	-200.000	-0.202	-0.000
-720.821	-51.676	-0.075	0.035
-719.806	-200.000	-0.065	0.311
-718.791	-194.503	-0.578	0.005
-717.777	-82.091	-0.114	0.038
-716.762	549.586	0.104	-0.253
-715.748	632.768	-0.047	-0.119
-714.733	-145.445	-0.445	0.040
-713.718	-130.208	-0.315	-0.043
-712.704	-118.651	-0.208	-0.037
-711.689	-47.140	0.252	-0.124
-710.675	800.000	0.112	-0.354
-709.660	323.088	-0.112	-0.216
-708.645	-90.494	0.297	-0.087
-707.631	-32.124	-0.348	0.196
-706.616	-24.535	0.133	0.080
-705.602	54.855	-0.213	-0.207
-704.587	-80.563	-0.186	-0.063
-703.572	-155.680	0.244	-0.016
-702.558	800.000	-0.054	-0.188
-701.543	-182.481	-0.268	-0.005
-700.529	7.909	-0.090	0.068
-699.514	800.000	0.036	-0.104
-698.499	-46.065	-0.207	-0.103
-697.485	-200.000	0.024	0.324
-696.470	344.049	0.039	0.077
-695.456	403.105	-0.053	0.113
-694.441	115.315	-0.098	-0.121
-693.426	-101.943	0.167	0.041
-692.412	-200.000	0.008	0.289
-691.397	-38.758	0.178	-0.095
-690.383	21.955	-0.111	-0.091
-689.368	-200.000	0.001	-0.202
-688.354	-200.000	-0.003	0.021
-687.339	-112.200	0.165	0.033
-686.324	26.218	0.096	0.081
-685.310	-200.000	-0.013	0.179
-684.295	-51.133	-0.223	-0.105
-683.281	-11.122	-0.380	-0.253
-682.266	-57.943	0.234	0.103
-681.251	-64.954	-0.134	0.055
-680.237	120.148	0.045	0.056
-679.222	-14.152	-0.128	-0.083
-678.208	338.862	0.035	0.069
-677.193	-200.000	-0.024	-0.161
-676.178	-72.884	-0.060	-0.022
-675.164	-53.021	0.192	-0.089
-674.149	261.917	-0.077	0.135
-673.135	-200.000	-0.015	-0.209
-672.120	467.115	-0.084	0.190
-671.105	-165.635	-0.185	0.008
-670.091	-200.000	0.018	0.298
-669.076	323.547	0.069	0.133
-668.062	-0.844	-0.085	-0.061
-667.047	57.646	-0.098	0.097
-666.032	-47.069	-0.122	0.060
-665.018	-54.482	-0.324	-0.148
-664.003	800.000	-0.108	-0.339
-662.989	-200.000	-0.000	0.142
-661.974	468.899	-0.117	0.264
-660.959	25.432	-0.217	0.182
-659.945	-50.673	-0.218	-0.103
-658.930	-83.907	-0.270	0.087
-657.916	62.340	0.045	-0.045
-656.901	8.817	0.259	0.196
-655.886	-74.586	-0.302	0.109
-654.872	405.432	0.085	-0.180
-653.857	800.000	0.037	0.120
-652.843	-104.792	-0.124	0.029
-651.828	513.005	0.053	-0.124
-650.814	57.706	0.150	0.148
-649.799	-132.134	-0.266	-0.035
-648.784	-200.000	-0.020	0.216
-647.770	-70.250	0.094	-0.036
-646.755	292.774	-0.106	-0.195
-645.741	-128.839	-0.109	0.015
-644.726	-200.000	0.016	0.321
-643.711	26.644	0.221	0.186
-642.697	800.000	0.076	0.257
-641.682	-61.619	0.248	0.105
-640.668	800.000	0.073	-0.318
-639.653	74.773	-0.049	-0.052
-638.638	228.110	-0.139	-0.228
-637.624	-200.000	0.026	0.471
-636.609	-192.323	0.352	0.003
-635.595	-58.253	-0.251	0.110
-634.580	103.806	-0.233	-0.276
-633.565	84.210	-0.053	-0.058
-632.551	160.806	-0.189	-0.265
-631.536	14.687	-0.015	-0.012
-630.522	-112.510	0.412	0.083
-629.507	48.322	0.214	0.202
-628.492	-200.000	-0.143	0.001
-627.478	-200.000	0.006	-0.122
-626.463	-58.568	-0.285	-0.124
-625.449	12.496	0.134	0.104
-624.434	-89.521	-0.243	0.072
-623.419	-200.000	0.021	-0.329
-622.405	800.000	-0.046	0.202
-621.390	37.744	-0.162	0.144
-620.376	9.453	-0.320	0.244
-619.361	-36.997	0.092	0.050
-618.346	-200.000	0.026	-0.132
-617.332	-123.860	0.110	0.017
-616.317	-200.000	0.018	-0.195
-615.303	187.781	0.261	-0.392
-614.288	135.002	0.064	0.083
-613.273	-200.000	-0.009	-0.189
-612.259	800.000	0.055	0.170
-611.244	43.870	0.161	0.149
-610.230	282.235	0.108	0.195
-609.215	26.533	0.124	0.105
-608.201	800.000	0.021	-0.071
-607.186	-69.940	0.120	0.046
-606.171	-45.308	-0.416	0.208
-605.157	-46.626	0.158	0.078
-604.142	-117.276	0.510	0.093
-603.128	-87.536	-0.110	-0.033
-602.113	20.302	-0.172	0.140
-601.098	800.000	-0.045	-0.160
-600.084	241.752	0.152	-0.255
-599.069	-200.000	-0.011	0.086
-598.055	-200.000	-0.021	0.124
-597.040	-200.000	-0.031	-0.321
-596.025	-156.948	-0.303	-0.019
-595.011	-142.788	-0.169	0.017
-593.996	-1.937	0.188	-0.133
-592.982	800.000	-0.041	-0.170
-591.967	-200.000	0.045	0.241
-590.952	37.684	0.197	0.175
-589.938	-126.844	0.303	0.045
-588.923	-55.239	-0.210	-0.095
-587.909	800.000	-0.084	0.316
-586.894	-200.000	-0.018	-0.243
-585.879	-154.006	-0.277	-0.019
-584.865	-200.000	0.045	0.293
-583.850	481.241	0.101	0.231
-582.836	-200.000	-0.009	-0.128
-581.821	203.193	-0.081	-0.127
-580.806	293.730	-0.112	-0.206
-579.792	-82.562	-0.259	-0.084
-578.777	800.000	0.027	0.110
-577.763	-200.000	-0.041	0.262
-576.748	95.058	0.246	0.281
-575.733	800.000	0.033	-0.092
-574.719	128.204	0.032	-0.041
-573.704	114.571	-0.096	0.117
-572.690	-200.000	-0.038	-0.397
-571.675	800.000	-0.071	0.275
-570.661	210.656	-0.102	-0.161
-569.646	142.633	0.150	-0.201
-568.631	-150.188	0.190	0.015
-567.617	97.040	-0.198	-0.227
-566.602	728.447	0.082	-0.219
-565.588	-197.488	-0.084	0.001
-564.573	800.000	-0.146	0.410
-563.558	-120.951	-0.298	-0.050
-562.544	-69.908	0.090	-0.035
-561.529	-40.752	0.042	0.022
-560.515	-15.196	-0.170	0.109
-559.500	-143.742	-0.335	0.032
-558.485	-200.000	0.020	-0.096
-557.471	-109.912	-0.419	0.088
-556.456	-200.000	0.000	0.167
-555.442	60.716	0.090	0.089
-554.427	-28.559	-0.043	-0.025
-553.412	-60.065	0.082	-0.035
-552.398	-25.924	-0.150	0.089
-551.383	143.579	-0.165	-0.221
-550.369	-174.477	0.138	-0.004
-549.354	111.249	0.125	-0.151
-548.339	-117.342	-0.078	-0.014
-547.325	-166.510	0.300	0.013
-546.310	800.000	-0.093	-0.259
-545.296	13.149	-0.270	-0.210
-544.281	-56.586	-0.181	0.081
-543.266	-175.851	-0.252	0.007
-542.252	-46.153	-0.258	0.127
-541.237	-27.204	-0.130	-0.076
-540.223	191.191	0.125	0.189
-539.208	800.000	-0.058	-0.250
-538.193	648.679	-0.145	-0.373
-537.179	-34.622	-0.179	-0.098
-536.164	13.262	0.039	0.030
-535.150	-64.852	0.178	0.072
-534.135	-126.124	-0.244	0.037
-533.121	-200.000	-0.040	0.434
-532.106	40.191	0.338	0.304
-531.091	185.150	0.074	0.110
-530.077	-200.000	-0.025	0.137
-529.062	30.485	0.089	0.076
-528.048	83.610	-0.163	0.179
-527.033	-200.000	-0.020	0.141
-526.018	3.729	0.065	-0.048
-525.004	65.929	-0.228	-0.232
-523.989	-8.157	-0.152	-0.103
-522.975	-25.806	0.219	-0.129
-521.960	-83.692	0.200	0.064
-520.945	-72.958	0.109	0.040
-519.931	85.634	-0.063	-0.069
-518.916	47.131	-0.121	-0.113
-517.902	800.000	0.016	-0.055
-516.887	56.932	-0.250	-0.244
-515.872	57.085	-0.222	-0.217
-514.858	-130.206	-0.278	0.038
-513.843	-5.724	0.176	-0.121
-512.829	-41.973	-0.344	0.177
-511.814	139.060	0.158	0.208
-510.799	-132.225	0.107	0.014
-509.785	-41.809	0.265	-0.136
-508.770	649.181	0.120	0.307
-507.756	800.000	-0.016	0.052
-506.741	49.273	-0.137	0.129
-505.726	800.000	0.033	-0.102
-504.712	-13.266	0.030	0.019
-503.697	-156.242	-0.142	0.009
-502.683	-39.636	0.053	0.028
-501.668	642.231	0.063	0.161
-500.653	800.000	0.021	0.063
-499.639	800.000	0.024	0.085
-498.624	-145.604	-0.324	-0.029
-497.610	-5.477	0.119	-0.082
-496.595	-101.392	-0.127	-0.031
-495.581	-171.560	-0.319	0.011
-494.566	-21.730	-0.103	0.063
-493.551	446.086	0.012	0.027
-492.537	800.000	0.098	0.305
-491.522	115.520	-0.061	-0.075
-490.508	-177.020	0.026	-0.001
-489.493	284.981	0.100	0.180
-488.478	131.691	0.155	0.199
-487.464	800.000	-0.095	-0.332
-486.449	-70.000	0.221	0.084
-485.435	205.130	-0.161	-0.250
-484.420	-77.457	-0.188	-0.065
-483.405	-200.000	-0.019	0.351
-482.391	590.226	0.090	-0.221
-481.376	125.241	-0.119	-0.150
-480.362	-103.695	-0.108	0.025
-479.347	-141.411	-0.192	-0.019
-478.332	800.000	-0.059	-0.209
-477.318	-11.617	0.235	0.154
-476.303	-200.000	0.026	-0.127
-475.289	480.435	-0.099	-0.224
-474.274	-200.000	0.002	-0.075
-473.259	-200.000	-0.009	-0.257
-472.245	-91.421	0.163	-0.046
-471.230	83.110	-0.130	0.141
-470.216	800.000	-0.035	0.122
-469.201	-181.361	-0.184	0.004
-468.186	-200.000	0.014	0.420
-467.172	169.792	-0.158	0.226
-466.157	132.670	0.044	0.057
-465.143	512.400	0.036	0.084
-464.128	47.280	-0.073	0.068
-463.113	-70.618	0.321	0.121
-462.099	46.546	-0.216	-0.200
-461.084	-25.451	0.204	-0.120
-460.070	-200.000	0.033	-0.256
-459.055	-39.563	-0.093	-0.049
-458.040	103.507	-0.162	0.191
-457.026	393.992	-0.067	0.140
-456.011	717.926	0.040	-0.106
-454.997	81.284	-0.094	-0.102
-453.982	-148.125	-0.161	-0.013
-452.968	29.696	-0.238	0.202
-451.953	113.200	-0.136	0.165
-450.938	-69.815	-0.168	0.064
-449.924	19.907	-0.242	0.195
-448.909	-200.000	-0.076	0.378
-447.895	-44.813	0.216	-0.108
-446.880	53.443	0.171	-0.164
-445.865	-200.000	0.054	-0.239
-444.851	780.605	-0.068	-0.187
-443.836	-200.000	0.004	0.021
-442.822	-87.128	-0.151	-0.046
-441.807	-131.513	-0.114	-0.015
-440.792	36.699	-0.180	-0.159
-439.778	33.726	-0.223	-0.194
-438.763	-200.000	-0.006	-0.055
-437.749	800.000	-0.096	0.272
-436.734	-200.000	-0.023	0.196
-435.719	-124.750	0.182	0.028
-434.705	-76.540	-0.273	0.096
-433.690	108.781	0.156	0.186
-432.676	-12.637	-0.120	-0.078
-431.661	-22.942	-0.142	-0.086
-430.646	23.593	0.049	-0.040
-429.632	800.000	-0.041	-0.121
-428.617	-46.806	-0.024	-0.012
-427.603	234.426	0.115	0.189
-426.588	800.000	0.010	-0.042
-425.573	800.000	-0.053	-0.196
-424.559	-200.000	0.302	0.000
-423.544	208.340	0.050	-0.078
-422.530	225.868	-0.015	0.024
-421.515	208.717	-0.103	-0.162
-420.500	18.451	0.195	0.156
-419.486	3.540	-0.205	-0.149
-418.471	-118.643	0.268	-0.047
-417.457	182.387	0.120	0.177
-416.442	-125.170	0.224	0.034
-415.428	-48.891	-0.262	0.125
-414.413	-93.384	0.082	-0.023
-413.398	-75.185	-0.363	-0.129
-412.384	-200.000	-0.001	0.181
-411.369	167.953	0.085	-0.121
-410.355	294.401	-0.188	-0.344
-409.340	-200.000	-0.008	0.101
-408.325	-92.541	-0.065	0.018
-407.311	-178.660	-0.139	-0.003
-406.296	-94.201	-0.160	-0.044
-405.282	-102.135	0.229	-0.055
-404.267	-89.826	-0.101	0.030
-403.252	-108.773	0.232	0.050
-402.238	-39.491	-0.240	-0.126
-401.223	-64.166	0.233	-0.095
-400.209	800.000	-0.062	-0.238
-399.194	-200.000	0.058	-0.379
-398.179	800.000	0.015	-0.050
-397.165	283.797	0.105	-0.188
-396.150	-149.540	0.238	0.019
-395.136	156.763	-0.065	0.090
-394.121	-142.052	0.358	0.036
-393.106	800.000	-0.081	-0.265
-392.092	-65.010	-0.234	0.094
-391.077	87.388	0.144	-0.158
-390.063	800.000	0.053	0.162
-389.048	-156.953	-0.203	-0.012
-388.033	-75.800	-0.152	0.054
-387.019	-148.786	0.124	0.010
-386.004	-200.000	-0.042	-0.215
-384.990	-75.219	0.445	-0.158
-383.975	61.437	-0.114	0.113
-382.960	-84.420	0.325	0.102
-381.946	129.094	-0.082	-0.105
-380.931	177.559	0.308	0.448
-379.917	548.342	0.107	0.254
-378.902	-146.705	0.109	-0.009
-377.888	-200.000	0.008	-0.207
-376.873	-200.000	-0.002	0.027
-375.858	-200.000	-0.015	-0.201
-374.844	-31.977	0.180	0.101
-373.829	92.475	0.016	0.018
-372.815	-25.647	0.194	0.114
-371.800	318.066	0.088	-0.165
-370.785	-200.000	-0.024	0.202
-369.771	-1.519	0.009	-0.006
-368.756	800.000	-0.022	-0.075
-367.742	-16.356	0.155	0.098
-366.727	-146.401	0.264	-0.023
-365.712	800.000	-0.033	-0.133
-364.698	14.633	-0.193	-0.150
-363.683	-160.039	-0.300	-0.016
-362.669	135.008	0.053	-0.069
-361.654	123.889	-0.040	-0.049
-360.639	141.922	-0.111	0.147
-359.625	-200.000	0.032	-0.146
-358.610	-19.295	-0.343	0.212
-357.596	800.000	0.022	-0.087
-356.581	-86.392	0.499	-0.153
-355.566	116.374	-0.045	0.055
-354.552	539.388	0.049	-0.116
-353.537	-71.429	-0.111	-0.041
-352.523	-200.000	-0.048	-0.287
-351.508	87.251	-0.266	-0.293
-350.493	-200.000	0.035	0.270
-349.479	361.254	0.126	-0.252
-348.464	-200.000	0.003	-0.188
-347.450	800.000	-0.147	0.458
-346.435	30.642	-0.125	0.106
-345.420	-25.011	-0.014	0.009
-344.406	-200.000	-0.015	-0.210
-343.391	-175.322	0.159	0.004
-342.377	-122.659	-0.272	-0.044
-341.362	-150.139	0.217	-0.017
-340.348	28.336	-0.048	-0.041
-339.333	580.932	-0.115	-0.281
-338.318	62.015	0.188	0.187
-337.304	-28.378	0.205	-0.118
-336.289	800.000	-0.024	-0.082
-335.275	568.918	0.041	-0.100
-334.260	-200.000	-0.032	0.141
-333.245	76.713	0.076	0.080
-332.231	96.999	-0.084	-0.095
-331.216	-200.000	-0.003	0.172
-330.202	-30.745	-0.131	-0.074
-329.187	1.907	0.426	0.306
-328.172	-200.000	-0.016	0.187
-327.158	456.046	0.023	-0.050
-326.143	-122.773	-0.247	0.040
-325.129	-85.367	0.276	0.086
-324.114	319.914	-0.079	0.149
-323.099	-200.000	0.018	0.351
-322.085	-91.770	0.158	0.045
-321.070	-38.285	0.215	-0.113
-320.056	266.639	0.116	0.202
-319.041	-22.673	0.129	0.077
-318.026	-7.734	-0.137	-0.092
-317.012	-189.523	-0.241	-0.003
-315.997	47.956	0.028	-0.026
-314.983	625.288	-0.085	0.212
-313.968	-54.137	0.335	0.151
-312.953	-74.701	0.112	-0.040
-311.939	-89.379	0.254	-0.074
-310.924	759.203	0.046	-0.124
-309.910	-40.778	0.304	0.157
-308.895	-116.734	0.111	0.020
-307.880	-112.029	-0.183	-0.037
-306.866	800.000	0.008	-0.032
-305.851	-200.000	-0.011	0.065
-304.837	-74.397	0.098	0.035
-303.822	-59.388	0.133	-0.057
-302.807	185.085	0.087	0.129
-301.793	77.036	0.246	0.260
-300.778	21.327	0.262	-0.211
-299.764	-4.947	0.154	0.105
-298.749	79.929	-0.134	0.144
-297.735	-200.000	0.039	-0.273
-296.720	-80.836	-0.123	-0.041
-295.705	-200.000	0.015	0.266
-294.691	32.277	-0.091	0.078
-293.676	88.862	0.106	-0.117
-292.662	72.231	0.068	-0.070
-291.647	37.911	-0.255	-0.225
-290.632	628.352	0.038	0.095
-289.618	-69.206	-0.081	-0.031
-288.603	800.000	0.065	0.204
-287.589	-16.985	-0.071	0.045
-286.574	-177.482	0.261	-0.006
-285.559	-22.757	-0.295	-0.177
-284.545	400.074	0.083	-0.173
-283.530	309.925	0.108	0.201
-282.516	800.000	-0.031	0.114
-281.501	800.000	0.102	0.313
-280.486	401.790	0.083	-0.174
-279.472	112.279	0.196	-0.236
-278.457	2.007	0.154	0.110
-277.443	-164.859	0.436	-0.019
-276.428	-5.602	-0.166	-0.113
-275.413	-67.772	-0.142	-0.055
-274.399	-200.000	-0.017	-0.284
-273.384	266.730	0.044	0.076
-272.370	-87.132	-0.134	-0.040
-271.355	190.430	-0.048	-0.071
-270.340	416.278	-0.197	0.417
-269.326	600.498	-0.151	0.371
-268.311	-101.305	-0.410	0.099
-267.297	-149.269	-0.181	-0.014
-266.282	-136.964	0.189	0.021
-265.267	100.577	0.203	0.234
-264.253	215.737	-0.114	0.179
-263.238	112.159	-0.115	-0.138
-262.224	-174.693	-0.234	0.007
-261.209	-200.000	0.012	0.330
-260.195	800.000	0.021	-0.060
-259.180	10.788	0.198	-0.150
-258.165	-31.429	-0.134	-0.075
-257.151	-77.021	0.285	0.099
-256.136	45.410	0.063	0.057
-255.122	-64.977	0.245	-0.098
-254.107	-200.000	-0.024	-0.209
-253.092	168.605	-0.096	-0.136
-252.078	268.026	0.019	-0.034
-251.063	-17.980	-0.240	-0.149
-250.049	68.097	0.177	-0.179
-249.034	125.742	-0.064	0.081
-248.019	-56.904	-0.251	0.110
-247.005	-131.954	0.304	0.039
-245.990	800.000	-0.135	-0.458
-244.976	-200.000	0.038	0.253
-243.961	130.754	0.086	0.109
-242.946	-134.392	0.142	0.017
-241.932	96.810	0.144	-0.164
-240.917	59.154	-0.187	0.183
-239.903	637.303	-0.034	0.085
-238.888	782.028	-0.043	-0.116
-237.873	-56.235	0.196	0.087
-236.859	-30.196	-0.015	-0.008
-235.844	26.060	0.314	0.260
-234.830	-200.000	-0.080	-0.376
-233.815	29.628	-0.077	0.065
-232.800	800.000	0.076	-0.275
-231.786	-66.804	0.165	0.065
-230.771	-48.664	0.111	0.053
-229.757	-50.037	0.399	0.187
-228.742	22.437	0.297	0.240
-227.727	721.940	-0.103	0.270
-226.713	-200.000	0.070	-0.434
-225.698	315.986	-0.080	-0.150
-224.684	155.522	-0.212	-0.290
-223.669	68.829	-0.377	0.383
-222.655	-83.551	0.100	0.032
-221.640	-200.000	0.007	0.399
-220.625	-71.654	-0.336	0.124
-219.611	-97.057	-0.219	0.057
-218.596	-128.144	0.150	-0.021
-217.582	-67.611	0.300	0.117
-216.567	-125.283	0.272	0.041
-215.552	526.668	-0.068	-0.158
-214.538	-79.748	-0.113	0.038
-213.523	-198.788	0.198	0.001
-212.509	-48.888	-0.054	-0.025
-211.494	800.000	0.058	0.195
-210.479	718.987	0.045	-0.118
-209.465	-5.410	0.152	-0.103
-208.450	165.482	0.133	0.186
-207.436	-29.866	0.076	-0.043
-206.421	103.449	0.266	-0.309
-205.406	-83.232	-0.139	-0.044
-204.392	-85.585	0.156	-0.048
-203.377	77.674	0.139	-0.147
-202.363	800.000	-0.091	-0.295
-201.348	-136.831	-0.312	-0.035
-200.333	-132.205	-0.060	-0.008
-199.319	42.698	0.085	-0.076
-198.304	-40.145	0.054	-0.028
-197.290	-200.000	-0.042	-0.233
-196.275	-200.000	-0.036	-0.296
-195.260	-55.913	-0.132	-0.058
-194.246	247.087	0.162	-0.271
-193.231	-200.000	-0.010	-0.119
-192.217	800.000	0.008	-0.024
-191.202	-200.000	0.066	-0.438
-190.187	-14.771	0.374	0.238
-189.173	-102.615	-0.346	0.082
-188.158	66.683	-0.075	-0.075
-187.144	-155.315	-0.085	-0.005
-186.129	220.041	0.140	-0.222
-185.114	-31.390	-0.177	-0.098
-184.100	422.350	0.052	-0.110
-183.085	-200.000	0.002	-0.011
-182.071	258.863	0.081	0.138
-181.056	316.210	-0.033	-0.061
-180.042	-27.102	-0.141	0.082
-179.027	-76.396	0.194	0.067
-178.012	-200.000	0.008	0.278
-176.998	-200.000	0.029	-0.382
-175.983	55.091	-0.202	-0.193
-174.969	-161.186	0.359	0.018
-173.954	-200.000	-0.002	0.245
-172.939	-8.658	-0.079	-0.053
-171.925	-122.519	0.190	-0.031
-170.910	800.000	-0.048	0.170
-169.896	1.906	-0.050	-0.036
-168.881	-200.000	0.010	0.089
-167.866	800.000	-0.066	0.256
-166.852	-200.000	0.001	-0.230
-165.837	388.398	0.059	-0.120
-164.823	-200.000	0.023	0.180
-163.808	582.393	0.036	0.087
-162.793	-99.040	-0.308	-0.077
-161.779	283.615	0.036	0.064
-160.764	28.538	0.278	0.233
-159.750	12.243	0.116	0.088
-158.735	-91.602	-0.129	0.036
-157.720	-13.790	0.526	-0.336
-156.706	48.106	-0.159	-0.146
-155.691	800.000	-0.024	-0.077
-154.677	167.988	0.162	0.228
-153.662	-88.299	-0.502	0.148
-152.647	-200.000	-0.033	0.242
-151.633	121.517	-0.169	-0.208
-150.618	-101.858	0.306	0.073
-149.604	328.588	-0.135	-0.255
-148.589	24.085	0.220	0.179
-147.574	-136.123	-0.351	0.041
-146.560	139.835	-0.161	-0.210
-145.545	87.512	-0.216	-0.236
-144.531	-145.043	-0.485	0.044
-143.516	107.887	-0.106	-0.125
-142.502	-80.276	-0.066	0.022
-141.487	800.000	-0.033	-0.133
-140.472	-135.581	-0.359	-0.042
-139.458	-153.489	0.047	0.003
-138.443	111.963	-0.159	0.190
-137.429	-200.000	-0.003	-0.129
-136.414	-200.000	0.040	0.316
-135.399	-119.923	0.028	0.005
-134.385	109.778	0.093	-0.110
-133.370	271.802	0.130	-0.227
-132.356	-151.716	-0.429	-0.031
-131.341	-10.494	-0.459	0.300
-130.326	-141.026	0.080	0.008
-129.312	18.159	-0.114	-0.090
-128.297	623.900	0.040	0.100
-127.283	232.805	0.063	0.102
-126.268	-47.966	0.087	-0.042
-125.253	800.000	0.071	0.221
-124.239	-200.000	-0.074	0.390
-123.224	-200.000	0.072	0.336
-122.210	-13.984	-0.072	-0.046
