DTS Sentinel unit serial number:	SN413079Multiplexer serial number:	ORYXHardware model number:	OX4-SRSoftware version number:	ORYX F/W v4.00 Oryx Data Collector v3.7.2.0data status	okinstallation	princeton_trtdifferential loss correction	single-endedforward channel	channel 1reverse channel	N/Adate	2019/09/13time	07:18:35forward acquisition time	60.00reverse acquisition time	0.00gamma	496.2192k internal	0.2335k external	0.2335temperature offset calibration	1.0160default loss term (dB/km)	0.3790temperature slope calibration	1.0000multiplexer offset coefficient	1.0000multiplexer slope coefficient	1.0000fibre end	0.00T internal ref (°C)	26.06T ext. ref 1 (°C)	4.16T ext. ref 2 (°C)	21.50length (m)	temperature (°C)	Stokes	anti-Stokes-747.200	63.948	-0.148	0.149
-746.185	386.869	-0.110	0.229
-745.171	-52.862	0.146	-0.068
-744.156	14.387	0.167	0.131
-743.142	336.535	0.073	-0.142
-742.127	-200.000	0.039	-0.322
-741.112	-86.223	0.093	0.029
-740.098	-57.790	-0.023	-0.010
-739.083	593.086	0.046	-0.115
-738.069	-44.798	0.019	-0.009
-737.054	-20.630	-0.234	-0.144
-736.039	-48.716	-0.168	0.081
-735.025	685.219	-0.053	0.138
-734.010	10.788	-0.194	-0.149
-732.996	-31.294	-0.042	0.024
-731.981	-84.134	-0.109	-0.035
-730.966	276.201	-0.280	0.499
-729.952	-74.054	0.037	-0.013
-728.937	19.492	-0.181	0.146
-727.923	100.202	-0.210	-0.244
-726.908	-200.000	0.049	-0.261
-725.894	96.905	-0.076	0.088
-724.879	-200.000	0.020	-0.130
-723.864	800.000	-0.053	0.152
-722.850	118.300	0.042	0.052
-721.835	584.683	0.043	-0.106
-720.821	-81.096	0.129	-0.043
-719.806	-158.724	-0.599	0.034
-718.791	36.910	-0.270	0.240
-717.777	305.370	-0.096	0.180
-716.762	-200.000	-0.025	0.140
-715.748	-13.442	0.105	-0.069
-714.733	-11.636	-0.171	-0.113
-713.718	-200.000	-0.022	-0.394
-712.704	58.691	0.053	-0.052
-711.689	-200.000	0.039	0.204
-710.675	184.773	-0.168	-0.250
-709.660	-34.718	0.274	-0.150
-708.645	-43.466	0.195	-0.099
-707.631	-51.234	-0.196	-0.092
-706.616	-173.637	-0.271	-0.008
-705.602	-80.881	-0.159	0.053
-704.587	-140.203	0.236	0.025
-703.572	-200.000	-0.023	0.168
-702.558	197.262	0.218	-0.334
-701.543	4.998	-0.089	0.066
-700.529	800.000	-0.072	-0.208
-699.514	-196.851	0.013	0.000
-698.499	-200.000	0.006	-0.112
-697.485	195.437	0.205	0.313
-696.470	800.000	0.012	-0.040
-695.456	-7.591	-0.093	-0.063
-694.441	-9.934	-0.115	-0.077
-693.426	-16.624	0.083	-0.052
-692.412	800.000	0.049	-0.203
-691.397	282.552	0.140	-0.252
-690.383	51.810	-0.094	-0.090
-689.368	-80.581	-0.190	0.064
-688.354	131.454	0.131	-0.168
-687.339	-184.644	-0.261	0.004
-686.324	-127.268	-0.334	0.049
-685.310	251.806	-0.035	-0.060
-684.295	-106.404	-0.230	-0.052
-683.281	450.399	-0.112	-0.248
-682.266	13.360	-0.220	-0.171
-681.251	-200.000	-0.002	0.076
-680.237	-37.374	-0.176	-0.094
-679.222	800.000	-0.053	-0.206
-678.208	-40.817	0.114	-0.059
-677.193	-43.391	0.137	0.069
-676.178	109.265	-0.129	-0.155
-675.164	-18.857	0.103	-0.064
-674.149	3.875	-0.032	-0.024
-673.135	-28.360	0.273	0.158
-672.120	76.894	-0.133	0.142
-671.105	-87.154	0.098	0.030
-670.091	187.282	-0.102	-0.152
-669.076	116.793	0.185	-0.227
-668.062	-200.000	-0.043	-0.227
-667.047	428.805	0.081	-0.175
-666.032	-157.495	-0.138	-0.008
-665.018	36.404	-0.284	0.251
-664.003	-15.389	-0.228	-0.146
-662.989	-25.655	0.237	0.140
-661.974	149.463	-0.150	0.204
-660.959	-200.000	-0.016	-0.098
-659.945	297.596	0.079	0.146
-658.930	-200.000	0.017	0.136
-657.916	94.367	0.104	-0.118
-656.901	-200.000	0.039	0.222
-655.886	-101.650	-0.484	-0.117
-654.872	-81.712	-0.269	0.088
-653.857	226.257	-0.078	-0.127
-652.843	169.611	0.120	0.171
-651.828	-129.297	-0.377	-0.052
-650.814	-148.822	-0.281	0.023
-649.799	716.823	0.028	0.075
-648.784	800.000	-0.061	0.256
-647.770	4.340	0.221	0.162
-646.755	-129.563	0.146	-0.020
-645.741	349.036	-0.136	0.270
-644.726	-150.295	0.245	-0.019
-643.711	800.000	0.042	-0.183
-642.697	-46.904	-0.387	-0.189
-641.682	19.559	-0.233	-0.187
-640.668	800.000	-0.060	0.192
-639.653	445.743	0.016	-0.034
-638.638	31.574	0.083	0.072
-637.624	67.116	-0.046	0.047
-636.609	-36.688	0.064	-0.034
-635.595	595.239	-0.095	0.236
-634.580	113.049	0.062	0.075
-633.565	-183.974	-0.326	-0.005
-632.551	-127.277	-0.161	-0.024
-631.536	18.492	0.154	-0.123
-630.522	172.406	-0.089	-0.128
-629.507	503.029	0.044	-0.101
-628.492	411.877	0.099	-0.211
-627.478	39.454	-0.235	-0.211
-626.463	-107.763	0.112	0.024
-625.449	-68.322	0.109	-0.042
-624.434	4.109	-0.264	-0.193
-623.419	140.435	0.153	0.202
-622.405	800.000	-0.096	0.352
-621.390	800.000	-0.067	0.273
-620.376	-87.441	-0.183	0.055
-619.361	800.000	-0.068	0.195
-618.346	-41.695	0.418	-0.214
-617.332	-200.000	0.029	0.166
-616.317	327.395	0.094	0.180
-615.303	-14.750	-0.239	0.153
-614.288	-21.953	0.187	-0.114
-613.273	-70.034	0.234	0.089
-612.259	-129.469	-0.308	-0.043
-611.244	-156.132	-0.257	0.016
-610.230	-72.082	0.107	-0.040
-609.215	800.000	-0.067	-0.246
-608.201	-161.659	-0.164	0.008
-607.186	800.000	-0.116	-0.373
-606.171	-60.062	-0.147	-0.063
-605.157	-200.000	-0.005	-0.074
-604.142	-165.753	0.149	0.006
-603.128	112.776	-0.081	0.098
-602.113	-106.525	-0.062	-0.014
-601.098	800.000	-0.099	0.361
-600.084	-57.581	-0.286	0.125
-599.069	27.382	0.106	-0.089
-598.055	-84.131	0.212	-0.067
-597.040	214.936	-0.177	-0.281
-596.025	-200.000	0.424	0.000
-595.011	800.000	-0.020	0.071
-593.996	-200.000	-0.016	0.205
-592.982	-49.145	0.224	0.107
-591.967	-181.724	0.235	0.005
-590.952	607.154	-0.025	-0.062
-589.938	187.722	0.110	-0.164
-588.923	492.697	-0.075	-0.171
-587.909	75.190	0.142	0.149
-586.894	-121.519	0.155	0.026
-585.879	-155.928	-0.436	-0.028
-584.865	284.874	0.127	0.228
-583.850	-139.751	-0.089	0.009
-582.836	506.650	-0.141	0.327
-581.821	55.043	0.323	0.311
-580.806	558.646	-0.040	0.097
-579.792	-149.836	0.200	0.016
-578.777	46.844	-0.302	-0.280
-577.763	-200.000	-0.019	0.386
-576.748	-200.000	0.041	0.219
-575.733	306.157	0.150	-0.278
-574.719	-79.437	-0.101	-0.034
-573.704	93.283	-0.164	-0.185
-572.690	-74.053	0.360	0.130
-571.675	-42.307	0.197	-0.100
-570.661	-65.690	0.289	0.116
-569.646	800.000	-0.010	-0.030
-568.631	-200.000	0.021	0.104
-567.617	124.117	0.048	-0.060
-566.602	114.201	0.079	0.096
-565.588	48.817	0.077	-0.072
-564.573	36.591	-0.108	0.095
-563.558	-200.000	-0.021	0.111
-562.544	-21.494	-0.110	-0.067
-561.529	-45.131	-0.260	0.129
-560.515	524.230	0.127	-0.297
-559.500	800.000	0.046	-0.148
-558.485	17.955	-0.294	-0.234
-557.471	-200.000	-0.003	-0.058
-556.456	-158.196	-0.369	-0.021
-555.442	8.981	-0.104	0.078
-554.427	800.000	-0.046	-0.169
-553.412	99.418	-0.142	0.163
-552.398	663.206	0.171	0.439
-551.383	37.301	-0.107	0.094
-550.369	40.630	-0.108	-0.097
-549.354	-21.348	-0.450	-0.274
-548.339	41.928	0.079	-0.072
-547.325	-200.000	-0.049	0.252
-546.310	-83.077	0.242	-0.078
-545.296	673.466	0.088	0.228
-544.281	-51.311	0.304	0.142
-543.266	82.382	-0.219	-0.237
-542.252	721.212	0.047	-0.125
-541.237	179.533	0.096	-0.140
-540.223	-179.181	0.066	-0.001
-539.208	-64.991	0.195	-0.078
-538.193	800.000	-0.050	-0.150
-537.179	-150.076	-0.133	0.010
-536.164	-200.000	0.023	0.122
-535.150	800.000	0.048	0.153
-534.135	-200.000	0.008	0.168
-533.121	-200.000	0.066	-0.296
-532.106	-84.475	-0.152	0.048
-531.091	59.570	-0.207	-0.204
-530.077	-19.033	-0.083	-0.051
-529.062	34.763	0.144	-0.126
-528.048	-19.634	0.168	-0.104
-527.033	-132.686	-0.096	0.012
-526.018	84.358	-0.201	0.219
-525.004	115.130	-0.063	0.076
-523.989	11.725	0.174	-0.133
-522.975	488.070	0.036	-0.081
-521.960	-200.000	-0.005	-0.105
-520.945	-200.000	0.073	0.364
-519.931	-166.724	-0.083	0.003
-518.916	191.992	0.105	0.158
-517.902	460.987	0.071	0.158
-516.887	800.000	0.008	-0.025
-515.872	-96.392	-0.304	-0.080
-514.858	-47.912	0.036	-0.017
-513.843	-200.000	-0.030	-0.215
-512.829	74.640	-0.234	-0.245
-511.814	110.014	-0.167	-0.199
-510.799	-90.178	-0.140	-0.040
-509.785	-200.000	0.015	0.097
-508.770	-92.682	-0.329	0.092
-507.756	244.176	-0.187	0.312
-506.741	93.914	0.160	-0.181
-505.726	710.786	-0.074	-0.195
-504.712	218.561	-0.111	-0.176
-503.697	73.612	0.052	-0.054
-502.683	-118.007	0.204	-0.036
-501.668	-200.000	-0.046	0.307
-500.653	-66.721	-0.294	0.116
-499.639	-159.892	0.250	-0.014
-498.624	800.000	0.085	-0.249
-497.610	-121.473	0.223	0.037
-496.595	-77.726	-0.159	-0.055
-495.581	800.000	0.065	-0.257
-494.566	-159.113	-0.189	-0.011
-493.551	-49.396	-0.113	0.053
-492.537	53.929	0.144	0.137
-491.522	-98.916	-0.108	0.027
-490.508	13.959	-0.182	0.141
-489.493	-131.809	0.040	0.005
-488.478	-103.456	-0.379	-0.089
-487.464	-29.015	0.116	0.066
-486.449	-13.455	0.209	0.135
-485.435	-26.514	0.418	0.244
-484.420	542.135	-0.083	-0.198
-483.405	-138.239	-0.171	-0.019
-482.391	-12.366	-0.181	-0.117
-481.376	39.786	0.059	0.053
-480.362	119.814	0.228	-0.281
-479.347	-200.000	0.066	0.368
-478.332	-62.147	0.185	0.077
-477.318	-154.698	-0.458	-0.030
-476.303	-174.179	-0.330	0.010
-475.289	543.770	0.122	0.289
-474.274	-122.493	-0.136	-0.022
-473.259	118.370	0.178	-0.219
-472.245	-170.371	-0.109	-0.004
-471.230	115.016	-0.031	-0.037
-470.216	-200.000	0.000	0.137
-469.201	-47.200	-0.139	-0.067
-468.186	800.000	-0.087	-0.370
-467.172	-44.109	-0.116	0.058
-466.157	740.301	0.061	-0.163
-465.143	-169.029	0.405	0.015
-464.128	-90.313	-0.381	-0.110
-463.113	224.590	0.057	0.092
-462.099	-53.296	-0.221	0.101
-461.084	9.648	0.255	0.192
-460.070	91.078	-0.109	-0.122
-459.055	137.961	-0.155	-0.202
-458.040	-141.464	0.063	0.006
-457.026	597.845	0.070	-0.171
-456.011	800.000	0.029	-0.092
-454.997	-200.000	0.000	-0.150
-453.982	-116.566	-0.235	0.043
-452.968	-52.899	0.234	0.107
-451.953	-72.741	0.292	0.107
-450.938	652.452	-0.030	0.076
-449.924	38.053	-0.318	0.281
-448.909	-6.793	-0.128	-0.086
-447.895	148.249	0.085	-0.114
-446.880	-200.000	-0.093	-0.537
-445.865	121.859	-0.199	-0.247
-444.851	79.367	0.128	-0.136
-443.836	-99.417	-0.108	-0.027
-442.822	800.000	-0.010	-0.032
-441.807	15.587	-0.188	0.147
-440.792	800.000	0.062	-0.208
-439.778	-200.000	-0.010	0.047
-438.763	440.790	0.018	-0.039
-437.749	-137.711	0.057	-0.006
-436.734	206.771	0.077	0.119
-435.719	4.629	-0.197	-0.144
-434.705	37.060	-0.117	0.103
-433.690	-159.227	-0.113	-0.006
-432.676	-200.000	0.024	-0.159
-431.661	-117.551	-0.214	0.038
-430.646	172.106	0.134	-0.191
-429.632	-110.037	0.075	0.016
-428.617	39.823	-0.163	0.145
-427.603	-47.120	-0.200	0.097
-426.588	800.000	0.035	0.143
-425.573	-59.019	-0.117	-0.050
-424.559	303.350	-0.152	-0.280
-423.544	302.851	-0.127	-0.233
-422.530	-155.522	0.116	-0.007
-421.515	-125.844	0.357	-0.053
-420.500	65.679	0.208	-0.209
-419.486	-121.246	-0.069	0.011
-418.471	-8.379	-0.300	-0.200
-417.457	-150.278	-0.189	-0.014
-416.442	-200.000	-0.001	0.083
-415.428	-33.042	-0.176	-0.097
-414.413	-106.161	0.061	0.014
-413.398	-200.000	-0.012	-0.387
-412.384	-200.000	-0.007	-0.426
-411.369	-49.823	0.294	0.139
-410.355	263.052	0.203	0.349
-409.340	-200.000	-0.031	0.145
-408.325	307.552	-0.034	-0.064
-407.311	-129.426	-0.429	0.059
-406.296	422.887	0.043	-0.092
-405.282	81.046	0.141	-0.151
-404.267	134.025	0.158	0.203
-403.252	-85.776	0.246	-0.076
-402.238	-104.348	0.235	-0.054
-401.223	800.000	0.088	-0.294
-400.209	800.000	0.036	-0.111
-399.194	-22.355	-0.115	0.069
-398.179	124.422	-0.144	0.179
-397.165	-10.122	0.063	0.041
-396.150	209.399	-0.026	-0.041
-395.136	308.293	-0.155	0.286
-394.121	66.218	-0.268	0.269
-393.106	-200.000	-0.029	0.343
-392.092	-103.593	-0.172	0.040
-391.077	141.131	0.115	-0.151
-390.063	99.004	-0.159	0.183
-389.048	31.866	0.118	0.101
-388.033	161.598	0.221	0.307
-387.019	686.381	-0.012	0.032
-386.004	190.722	0.164	0.245
-384.990	800.000	0.098	0.268
-383.975	-17.691	0.137	0.085
-382.960	55.106	0.307	0.294
-381.946	488.337	-0.135	0.306
-380.931	45.450	-0.080	-0.074
-379.917	174.300	0.146	0.209
-378.902	358.829	-0.060	-0.120
-377.888	-200.000	0.026	0.126
-376.873	13.833	0.207	-0.160
-375.858	800.000	-0.014	0.052
-374.844	-189.434	0.097	-0.001
-373.829	433.177	-0.099	-0.214
-372.815	-121.862	-0.258	-0.042
-371.800	85.498	-0.225	-0.245
-370.785	-141.411	-0.212	-0.021
-369.771	-120.617	-0.023	0.004
-368.756	-95.016	-0.330	0.088
-367.742	-73.151	0.165	-0.060
-366.727	57.998	-0.239	-0.232
-365.712	-200.000	0.052	0.237
-364.698	411.947	-0.120	-0.252
-363.683	-69.988	-0.499	-0.188
-362.669	252.183	-0.044	-0.074
-361.654	-32.167	0.323	-0.179
-360.639	-7.190	-0.215	-0.144
-359.625	-84.558	-0.099	-0.031
-358.610	-111.003	-0.128	0.026
-357.596	213.900	0.125	0.196
-356.581	-64.813	0.066	0.027
-355.566	5.521	-0.233	-0.170
-354.552	-200.000	0.002	-0.025
-353.537	-33.689	0.245	0.134
-352.523	79.290	0.232	0.246
-351.508	-200.000	0.071	0.339
-350.493	118.498	0.243	0.296
-349.479	-67.897	-0.040	0.015
-348.464	7.489	-0.275	-0.203
-347.450	197.754	0.187	-0.282
-346.435	81.879	0.037	-0.039
-345.420	-200.000	0.008	0.208
-344.406	414.803	-0.133	0.279
-343.391	-94.702	0.242	0.065
-342.377	-174.433	0.280	-0.008
-341.362	32.275	-0.275	-0.234
-340.348	-50.576	0.344	0.161
-339.333	51.904	0.195	0.183
-338.318	83.885	-0.197	-0.213
-337.304	-98.045	0.137	-0.035
-336.289	61.270	0.114	0.112
-335.275	80.285	-0.034	-0.037
-334.260	800.000	-0.034	-0.143
-333.245	-116.495	0.291	-0.053
-332.231	39.849	0.198	0.176
-331.216	-23.742	0.291	0.172
-330.202	251.076	-0.024	0.040
-329.187	34.066	0.192	-0.165
-328.172	-191.619	0.112	0.001
-327.158	800.000	-0.028	-0.086
-326.143	24.642	0.048	-0.039
-325.129	-29.106	0.144	-0.082
-324.114	-200.000	-0.021	-0.137
-323.099	-200.000	0.019	-0.259
-322.085	214.010	0.148	-0.231
-321.070	13.342	0.170	0.131
-320.056	800.000	0.038	-0.141
-319.041	48.696	0.148	-0.137
-318.026	-111.069	-0.232	-0.047
-317.012	-122.707	-0.377	-0.060
-315.997	-118.219	0.215	0.038
-314.983	7.014	-0.076	-0.056
-313.968	-91.795	-0.178	0.050
-312.953	-41.323	0.088	-0.045
-311.939	3.302	0.233	-0.168
-310.924	-69.348	0.154	-0.058
-309.910	-5.327	0.230	0.156
-308.895	-7.392	0.077	0.052
-307.880	-46.568	0.311	-0.151
-306.866	800.000	-0.089	0.273
-305.851	-120.331	0.411	-0.069
-304.837	7.764	-0.385	0.284
-303.822	273.567	-0.016	0.028
-302.807	-49.518	0.141	-0.066
-301.793	-37.300	0.257	0.136
-300.778	313.522	-0.130	0.242
-299.764	714.418	0.049	0.129
-298.749	-85.858	-0.109	-0.033
-297.735	-47.139	0.248	0.119
-296.720	50.204	0.256	0.239
-295.705	-156.247	-0.210	-0.013
-294.691	-132.527	-0.386	-0.049
-293.676	-123.639	0.330	0.052
-292.662	-200.000	-0.001	-0.178
-291.647	-51.631	0.109	0.050
-290.632	-28.779	-0.061	0.034
-289.618	187.789	0.106	-0.156
-288.603	46.486	-0.230	-0.211
-287.589	-200.000	-0.038	0.261
-286.574	800.000	-0.034	-0.139
-285.559	190.394	-0.144	0.214
-284.545	407.916	-0.068	-0.143
-283.530	374.009	-0.095	0.190
-282.516	-200.000	0.004	-0.073
-281.501	-109.600	0.152	0.032
-280.486	49.170	0.242	0.225
-279.472	-107.175	0.138	0.030
-278.457	800.000	0.094	0.287
-277.443	-13.707	-0.257	0.164
-276.428	-200.000	0.030	0.388
-275.413	-98.204	0.171	0.043
-274.399	-19.982	0.067	0.041
-273.384	-200.000	0.005	-0.096
-272.370	-84.795	-0.186	-0.058
-271.355	311.715	-0.227	-0.420
-270.340	-42.822	-0.112	-0.056
-269.326	-7.470	0.147	0.098
-268.311	-200.000	-0.025	0.616
-267.297	53.329	-0.085	0.081
-266.282	-48.738	-0.179	-0.085
-265.267	57.770	-0.048	-0.046
-264.253	-53.559	-0.042	0.019
-263.238	155.392	-0.233	-0.316
-262.224	800.000	0.050	-0.184
-261.209	-96.677	0.309	0.080
-260.195	-161.944	-0.221	0.011
-259.180	-6.825	0.227	0.152
-258.165	-63.120	0.366	-0.149
-257.151	-200.000	-0.026	-0.336
-256.136	112.687	0.204	-0.243
-255.122	800.000	-0.099	0.271
-254.107	520.192	0.055	0.127
-253.092	51.192	0.099	-0.093
-252.078	800.000	0.027	0.103
-251.063	-126.842	0.207	0.030
-250.049	91.024	-0.203	-0.224
-249.034	116.386	-0.047	-0.057
-248.019	-37.538	-0.148	-0.078
-247.005	-2.141	-0.194	-0.134
-245.990	800.000	-0.076	0.218
-244.976	-200.000	0.016	0.116
-243.961	-200.000	-0.010	0.049
-242.946	-200.000	0.019	-0.403
-241.932	-43.494	0.182	-0.091
-240.917	2.971	-0.095	0.068
-239.903	-200.000	0.030	0.231
-238.888	209.707	-0.070	0.107
-237.873	93.197	0.158	0.176
-236.859	-63.273	0.194	0.079
-235.844	16.020	-0.264	0.205
-234.830	791.634	0.011	-0.031
-233.815	49.321	0.115	-0.106
-232.800	253.071	0.074	0.124
-231.786	800.000	0.047	-0.162
-230.771	104.886	-0.102	0.118
-229.757	-200.000	-0.044	-0.351
-228.742	-19.755	-0.173	0.105
-227.727	-200.000	-0.063	0.349
-226.713	-162.625	-0.232	-0.011
-225.698	105.177	0.207	-0.240
-224.684	56.714	0.258	0.247
-223.669	800.000	-0.054	0.231
-222.655	-200.000	-0.018	0.300
-221.640	308.041	-0.106	-0.195
-220.625	95.999	0.062	-0.069
-219.611	196.704	0.295	-0.442
-218.596	498.394	0.051	-0.116
-217.582	38.040	-0.262	-0.229
-216.567	211.894	0.068	0.106
-215.552	-200.000	-0.021	0.265
-214.538	-52.820	-0.174	-0.079
-213.523	-93.991	-0.417	-0.113
-212.509	-113.614	-0.195	-0.037
-211.494	-200.000	-0.044	-0.197
-210.479	-106.583	-0.288	0.063
-209.465	37.577	-0.177	-0.154
-208.450	149.932	0.106	0.141
-207.436	-133.484	0.310	0.038
-206.421	-50.803	-0.130	0.060
-205.406	-36.698	0.175	0.092
-204.392	-98.887	0.281	-0.070
-203.377	-1.403	-0.122	-0.085
-202.363	-200.000	-0.011	-0.255
-201.348	414.934	-0.069	0.144
-200.333	8.932	0.235	-0.174
-199.319	-102.811	-0.391	-0.092
-198.304	-92.345	0.424	-0.117
-197.290	-184.756	0.124	0.002
-196.275	-124.358	0.100	0.015
-195.260	-200.000	0.014	-0.277
-194.246	800.000	-0.116	0.374
-193.231	-160.155	0.318	0.017
-192.217	165.412	-0.169	0.235
-191.202	-200.000	-0.013	-0.290
-190.187	-169.973	0.234	0.008
-189.173	69.669	-0.128	0.130
-188.158	69.198	0.118	-0.119
-187.144	-9.666	-0.096	-0.063
-186.129	346.779	-0.099	0.191
-185.114	567.967	-0.054	-0.128
-184.100	92.542	0.148	0.164
-183.085	-124.891	0.164	0.025
-182.071	349.855	0.126	0.244
-181.056	-200.000	-0.016	0.119
-180.042	-200.000	0.027	-0.315
-179.027	-83.303	-0.316	0.100
-178.012	-54.158	0.227	0.101
-176.998	800.000	0.093	-0.289
-175.983	-14.591	-0.141	0.089
-174.969	-167.857	0.376	-0.015
-173.954	-47.968	-0.220	0.104
-172.939	570.952	-0.033	-0.079
-171.925	-62.149	0.242	-0.099
-170.910	178.637	0.023	0.032
-169.896	-0.186	0.263	0.184
-168.881	-200.000	-0.061	-0.481
-167.866	-110.122	-0.098	-0.020
-166.852	229.561	-0.065	-0.104
-165.837	-125.524	0.311	-0.046
-164.823	800.000	-0.102	0.385
-163.808	-161.673	0.150	-0.008
-162.793	-200.000	0.057	0.291
-161.779	-93.229	0.069	0.019
-160.764	-200.000	-0.051	-0.275
-159.750	229.891	-0.077	-0.123
-158.735	-22.363	-0.053	0.031
-157.720	-129.749	-0.135	0.018
-156.706	800.000	0.015	0.060
-155.691	102.049	0.047	0.054
-154.677	-200.000	0.074	-0.414
-153.662	-186.725	0.348	0.005
-152.647	321.719	-0.072	-0.134
-151.633	-130.579	-0.065	0.009
-150.618	266.467	-0.149	-0.255
-149.604	260.926	0.205	0.349
-148.589	372.189	0.175	0.350
-147.574	381.525	-0.092	-0.185
-146.560	-71.321	-0.238	-0.088
-145.545	186.291	-0.058	-0.085
-144.531	800.000	0.048	0.188
-143.516	-51.717	0.224	-0.102
-142.502	262.812	0.122	-0.207
-141.487	104.199	-0.149	0.172
-140.472	717.194	0.108	0.283
-139.458	-150.827	-0.211	-0.016
-138.443	-85.273	-0.168	0.052
-137.429	800.000	0.111	0.328
-136.414	42.702	0.197	0.176
-135.399	-96.133	0.139	-0.036
-134.385	-6.585	-0.366	0.244
-133.370	113.739	-0.145	-0.173
-132.356	406.010	-0.017	0.036
-131.341	800.000	0.041	0.122
-130.326	563.142	0.057	-0.136
-129.312	-98.581	0.206	-0.052
-128.297	-200.000	-0.019	-0.157
-127.283	-50.397	-0.194	0.090
-126.268	-39.447	-0.102	0.052
-125.253	-200.000	0.004	-0.170
-124.239	-20.651	-0.164	-0.099
-123.224	-200.000	-0.011	0.155
-122.210	289.798	-0.050	-0.089
-121.195	-200.000	0.039	-0.362
