DTS Sentinel unit serial number:	SN413079Multiplexer serial number:	ORYXHardware model number:	OX4-SRSoftware version number:	ORYX F/W v4.00 Oryx Data Collector v3.7.2.0data status	okinstallation	princeton_trtdifferential loss correction	single-endedforward channel	channel 1reverse channel	N/Adate	2019/09/17time	18:42:35forward acquisition time	60.00reverse acquisition time	0.00gamma	496.2192k internal	0.2290k external	0.2290temperature offset calibration	0.9964default loss term (dB/km)	0.3790temperature slope calibration	1.0000multiplexer offset coefficient	1.0000multiplexer slope coefficient	1.0000fibre end	0.00T internal ref (°C)	42.44T ext. ref 1 (°C)	0.31T ext. ref 2 (°C)	33.93length (m)	temperature (°C)	Stokes	anti-Stokes-747.200	144.509	-0.223	0.305
-746.185	126.467	0.133	0.172
-745.171	-40.616	-0.515	-0.274
-744.156	800.000	-0.080	0.245
-743.142	225.742	0.167	0.277
-742.127	318.519	-0.124	0.240
-741.112	37.911	-0.247	0.225
-740.098	-200.000	-0.029	0.395
-739.083	-38.298	0.255	0.138
-738.069	0.612	-0.194	0.142
-737.054	-110.723	0.328	-0.069
-736.039	800.000	-0.061	0.253
-735.025	247.761	0.187	0.324
-734.010	726.192	0.031	0.084
-732.996	123.121	0.136	-0.175
-731.981	800.000	0.036	0.134
-730.966	-200.000	-0.002	-0.131
-729.952	-200.000	0.054	-0.325
-728.937	-135.890	-0.111	0.013
-727.923	82.309	-0.187	0.207
-726.908	-33.183	0.113	-0.064
-725.894	136.334	0.090	0.120
-724.879	-89.195	-0.293	-0.089
-723.864	-13.722	0.092	-0.061
-722.850	70.395	0.096	-0.102
-721.835	-158.066	-0.209	-0.013
-720.821	-106.505	-0.151	0.034
-719.806	-98.701	0.205	0.053
-718.791	-200.000	-0.043	0.230
-717.777	193.646	-0.134	-0.208
-716.762	52.626	-0.113	-0.110
-715.748	-79.029	-0.074	0.026
-714.733	635.554	-0.207	-0.536
-713.718	800.000	-0.086	-0.364
-712.704	247.426	0.058	0.100
-711.689	-68.974	-0.165	-0.065
-710.675	111.250	-0.119	0.146
-709.660	10.145	0.122	-0.095
-708.645	-200.000	0.056	-0.257
-707.631	-4.415	-0.075	-0.053
-706.616	800.000	0.075	-0.294
-705.602	-200.000	0.005	0.247
-704.587	-69.364	0.127	0.050
-703.572	28.741	-0.242	-0.210
-702.558	-144.063	-0.280	-0.027
-701.543	-165.958	-0.072	0.003
-700.529	-159.137	-0.242	0.014
-699.514	800.000	-0.086	-0.252
-698.499	765.691	0.047	-0.130
-697.485	3.779	0.220	-0.164
-696.470	-200.000	0.048	-0.228
-695.456	110.148	0.279	-0.342
-694.441	-192.740	0.156	-0.001
-693.426	-200.000	-0.030	0.170
-692.412	353.453	0.105	0.213
-691.397	-200.000	0.060	0.320
-690.383	43.922	-0.257	0.241
-689.368	-200.000	-0.012	-0.099
-688.354	-3.047	-0.196	0.140
-687.339	14.246	-0.306	-0.244
-686.324	-200.000	-0.004	0.118
-685.310	-200.000	-0.019	-0.227
-684.295	-113.511	0.259	0.052
-683.281	-133.179	-0.287	-0.037
-682.266	800.000	-0.096	-0.300
-681.251	-24.514	-0.093	-0.056
-680.237	-200.000	0.051	-0.272
-679.222	68.717	-0.097	-0.101
-678.208	800.000	-0.054	-0.182
-677.193	-163.377	-0.257	0.013
-676.178	80.788	-0.221	0.243
-675.164	-62.970	-0.228	0.096
-674.149	800.000	-0.076	-0.241
-673.135	-0.122	0.059	-0.043
-672.120	-55.012	0.319	-0.147
-671.105	7.489	0.117	-0.089
-670.091	-113.617	0.602	-0.120
-669.076	91.964	-0.280	-0.322
-668.062	-56.571	-0.290	0.131
-667.047	-99.981	-0.243	0.062
-666.032	-15.257	0.231	-0.151
-665.018	-134.952	-0.176	0.022
-664.003	-59.479	0.062	0.027
-662.989	-200.000	-0.034	-0.225
-661.974	-152.525	0.254	0.019
-660.959	86.005	0.061	-0.068
-659.945	-109.616	-0.133	0.029
-658.930	-145.815	-0.221	0.020
-657.916	-170.244	-0.218	-0.008
-656.901	-121.786	0.284	0.048
-655.886	800.000	0.044	0.144
-654.872	-72.782	0.318	0.120
-653.857	-30.371	-0.096	0.056
-652.843	-200.000	0.269	-0.001
-651.828	306.114	0.135	-0.256
-650.814	-200.000	-0.046	0.241
-649.799	26.931	-0.133	-0.114
-648.784	-55.134	0.566	-0.260
-647.770	223.683	-0.129	0.212
-646.755	-101.896	0.301	0.074
-645.741	-21.880	-0.283	0.175
-644.726	7.803	-0.257	-0.197
-643.711	-95.367	-0.239	0.066
-642.697	71.007	0.131	-0.138
-641.682	327.516	0.174	0.341
-640.668	-70.513	0.151	0.058
-639.653	-94.616	-0.036	-0.010
-638.638	-53.048	0.145	-0.068
-637.624	-88.729	-0.328	-0.099
-636.609	-76.138	-0.088	0.032
-635.595	-110.172	-0.269	0.057
-634.580	-96.598	0.115	0.031
-633.565	-130.228	-0.063	-0.009
-632.551	13.967	-0.173	0.137
-631.536	-148.729	0.176	0.015
-630.522	626.595	-0.081	-0.209
-629.507	-102.108	-0.297	0.073
-628.492	-42.724	-0.169	0.087
-627.478	-200.000	-0.004	-0.040
-626.463	-200.000	-0.012	-0.093
-625.449	-75.682	-0.254	0.092
-624.434	154.981	0.069	0.097
-623.419	800.000	-0.114	0.323
-622.405	58.446	-0.108	0.108
-621.390	282.251	-0.089	0.162
-620.376	-37.284	-0.108	0.059
-619.361	37.658	-0.053	-0.048
-618.346	-88.447	-0.127	-0.039
-617.332	-81.233	-0.132	0.045
-616.317	-62.442	-0.115	-0.049
-615.303	180.929	0.159	0.238
-614.288	451.868	-0.034	-0.077
-613.273	-131.612	0.228	-0.031
-612.259	-170.393	0.354	0.013
-611.244	60.007	0.147	0.148
-610.230	-145.730	-0.431	0.039
-609.215	-38.610	-0.104	0.056
-608.201	-154.608	-0.185	-0.013
-607.186	49.743	0.045	0.043
-606.171	-200.000	0.032	-0.342
-605.157	-155.413	0.225	0.015
-604.142	-34.708	-0.164	-0.092
-603.128	-43.372	0.291	0.150
-602.113	-74.548	0.317	0.116
-601.098	800.000	0.021	0.081
-600.084	-200.000	0.021	0.257
-599.069	-200.000	-0.008	0.357
-598.055	302.716	-0.087	-0.164
-597.040	-110.335	-0.361	-0.077
-596.025	115.217	-0.099	0.124
-595.011	-66.107	0.174	0.071
-593.996	427.973	0.033	-0.073
-592.982	-200.000	0.049	-0.299
-591.967	-107.200	0.165	-0.037
-590.952	-31.329	-0.018	-0.010
-589.938	-200.000	0.002	0.332
-588.923	-200.000	0.026	0.309
-587.909	-117.422	0.413	0.076
-586.894	-200.000	0.006	-0.230
-585.879	-36.735	0.078	0.043
-584.865	-27.563	0.159	-0.094
-583.850	238.126	0.098	0.165
-582.836	710.989	-0.113	-0.304
-581.821	-37.161	-0.009	-0.005
-580.806	-152.143	-0.294	0.022
-579.792	4.292	0.187	-0.139
-578.777	-64.163	0.088	-0.036
-577.763	170.658	-0.165	-0.240
-576.748	96.508	0.112	-0.131
-575.733	-200.000	-0.018	0.197
-574.719	-15.572	0.139	-0.090
-573.704	800.000	-0.064	-0.184
-572.690	-200.000	0.024	0.116
-571.675	800.000	0.123	-0.358
-570.661	-25.227	-0.091	-0.055
-569.646	339.237	0.038	-0.075
-568.631	255.137	0.114	-0.199
-567.617	-103.174	-0.292	0.070
-566.602	184.791	-0.086	0.130
-565.588	800.000	0.104	0.351
-564.573	-114.238	-0.250	0.049
-563.558	-135.929	0.212	0.025
-562.544	800.000	-0.063	0.186
-561.529	-82.008	0.093	-0.031
-560.515	-98.965	0.439	-0.113
-559.500	476.839	0.006	-0.014
-558.485	-42.093	-0.083	-0.043
-557.471	-200.000	-0.041	0.637
-556.456	0.975	0.181	0.132
-555.442	-164.580	-0.083	-0.004
-554.427	103.442	0.036	0.043
-553.412	221.837	0.198	0.324
-552.398	-200.000	-0.003	0.056
-551.383	-200.000	0.016	0.103
-550.369	-200.000	0.006	0.289
-549.354	-13.163	0.081	-0.054
-548.339	800.000	-0.075	-0.298
-547.325	82.635	-0.244	0.269
-546.310	800.000	0.060	0.197
-545.296	-19.953	-0.024	-0.015
-544.281	142.193	-0.040	-0.053
-543.266	800.000	0.049	-0.145
-542.252	37.136	0.245	-0.221
-541.237	479.554	-0.110	-0.254
-540.223	-168.134	-0.207	0.008
-539.208	-119.499	-0.087	-0.015
-538.193	185.372	-0.033	0.049
-537.179	-91.154	-0.124	-0.036
-536.164	-200.000	0.116	0.000
-535.150	-55.355	0.336	0.153
-534.135	-89.049	0.065	-0.019
-533.121	-200.000	0.055	0.413
-532.106	-78.553	-0.044	-0.015
-531.091	-200.000	-0.020	-0.284
-530.077	193.890	-0.178	-0.273
-529.062	-58.638	0.201	0.089
-528.048	170.394	0.118	-0.172
-527.033	-133.995	-0.244	-0.031
-526.018	-90.599	-0.064	-0.019
-525.004	290.015	-0.113	-0.209
-523.989	-34.794	0.105	-0.058
-522.975	138.583	0.144	0.192
-521.960	183.933	-0.164	-0.246
-520.945	29.338	-0.094	0.081
-519.931	-200.000	0.095	0.453
-518.916	-148.233	0.437	-0.037
-517.902	16.044	-0.275	0.220
-516.887	-91.576	0.027	0.008
-515.872	489.013	-0.046	0.106
-514.858	-29.173	-0.298	-0.173
-513.843	36.695	0.064	-0.057
-512.829	800.000	0.070	-0.226
-511.814	800.000	0.166	-0.664
-510.799	800.000	0.023	-0.082
-509.785	-200.000	-0.010	0.064
-508.770	800.000	-0.141	0.597
-507.756	304.254	0.191	0.360
-506.741	25.149	0.140	-0.118
-505.726	-66.339	-0.282	0.114
-504.712	31.148	0.189	0.165
-503.697	589.734	0.144	0.359
-502.683	-116.300	0.110	-0.021
-501.668	-200.000	-0.040	-0.179
-500.653	350.360	-0.009	0.018
-499.639	498.072	0.109	-0.254
-498.624	21.061	-0.311	-0.256
-497.610	-14.513	-0.078	0.051
-496.595	-200.000	0.055	0.310
-495.581	251.964	-0.123	0.213
-494.566	-48.073	-0.187	0.091
-493.551	-150.622	0.276	0.021
-492.537	275.753	0.122	-0.220
-491.522	25.262	0.152	-0.128
-490.508	-84.339	-0.189	0.061
-489.493	800.000	0.106	0.342
-488.478	800.000	0.067	-0.229
-487.464	-200.000	-0.011	0.107
-486.449	573.074	0.080	0.198
-485.435	60.597	-0.043	0.043
-484.420	-200.000	-0.026	0.150
-483.405	800.000	0.016	0.054
-482.391	-46.893	0.062	-0.031
-481.376	-49.082	0.133	-0.065
-480.362	-27.040	-0.202	-0.120
-479.347	-89.910	-0.276	0.082
-478.332	58.882	0.153	-0.153
-477.318	-100.926	0.460	0.115
-476.303	-200.000	0.008	-0.242
-475.289	800.000	0.009	-0.039
-474.274	87.249	-0.025	0.028
-473.259	7.622	0.150	-0.114
-472.245	-72.335	-0.187	-0.070
-471.230	-187.585	-0.145	0.002
-470.216	-27.946	0.218	-0.128
-469.201	-140.570	-0.361	-0.038
-468.186	22.623	0.157	0.130
-467.172	172.345	-0.078	0.113
-466.157	800.000	-0.087	0.373
-465.143	242.225	0.047	0.080
-464.128	-54.136	-0.373	-0.172
-463.113	466.830	0.065	-0.149
-462.099	164.681	-0.144	-0.206
-461.084	127.549	-0.196	-0.252
-460.070	10.964	0.137	0.106
-459.055	-76.761	0.296	-0.105
-458.040	7.913	-0.265	-0.201
-457.026	-30.904	-0.150	-0.086
-456.011	-200.000	-0.041	-0.204
-454.997	-10.549	-0.202	0.136
-453.982	-69.018	-0.256	0.100
-452.968	372.764	0.164	0.338
-451.953	-29.208	-0.200	0.116
-450.938	-143.281	0.310	-0.030
-449.924	-67.025	0.066	0.026
-448.909	40.281	0.085	0.078
-447.895	13.734	-0.194	0.153
-446.880	392.579	0.133	-0.279
-445.865	462.401	-0.058	0.131
-444.851	-200.000	0.015	0.391
-443.836	12.607	0.322	0.251
-442.822	2.673	-0.106	0.078
-441.807	374.321	-0.113	-0.233
-440.792	-200.000	0.045	-0.284
-439.778	197.388	-0.065	0.101
-438.763	-87.201	0.107	0.033
-437.749	-200.000	-0.013	-0.166
-436.734	-142.197	-0.330	-0.033
-435.719	-12.231	0.103	0.068
-434.705	-101.271	0.252	-0.062
-433.690	34.274	-0.062	-0.055
-432.676	-78.123	-0.311	-0.108
-431.661	-200.000	-0.020	0.228
-430.646	-74.103	0.015	-0.006
-429.632	-116.987	-0.028	-0.005
-428.617	-24.705	-0.082	-0.050
-427.603	-35.297	0.253	0.140
-426.588	-31.590	-0.044	-0.025
-425.573	-200.000	0.001	-0.179
-424.559	-91.808	0.298	-0.086
-423.544	32.101	-0.191	-0.167
-422.530	-48.884	0.163	0.079
-421.515	-120.527	-0.320	0.055
-420.500	-86.285	0.056	0.017
-419.486	-200.000	0.011	0.098
-418.471	-39.812	0.191	-0.101
-417.457	-58.667	0.209	0.092
-416.442	-200.000	-0.033	-0.168
-415.428	-51.672	-0.079	0.037
-414.413	159.389	-0.094	-0.132
-413.398	109.224	0.254	-0.307
-412.384	229.284	0.081	-0.134
-411.369	312.639	-0.112	-0.213
-410.355	269.003	0.113	0.200
-409.340	-200.000	0.064	0.337
-408.325	-141.090	-0.365	0.038
-407.311	119.722	-0.211	-0.265
-406.296	136.886	0.108	-0.143
-405.282	-200.000	-0.070	-0.444
-404.267	104.775	0.329	0.392
-403.252	42.195	-0.159	0.146
-402.238	473.035	0.087	0.199
-401.223	-104.984	0.261	0.060
-400.209	-200.000	-0.023	0.119
-399.194	-159.189	0.228	0.013
-398.179	398.766	0.054	-0.115
-397.165	196.003	-0.141	0.216
-396.150	-27.994	0.219	-0.128
-395.136	176.286	-0.142	-0.209
-394.121	22.661	-0.207	-0.171
-393.106	119.823	0.038	-0.048
-392.092	-64.248	0.060	0.025
-391.077	-200.000	0.009	0.226
-390.063	293.864	-0.190	-0.350
-389.048	-154.670	0.156	-0.010
-388.033	162.911	-0.110	0.156
-387.019	132.765	-0.042	0.054
-386.004	27.830	0.094	0.080
-384.990	-200.000	0.018	-0.153
-383.975	582.336	0.040	0.098
-382.960	127.730	0.224	0.287
-381.946	1.497	0.385	0.280
-380.931	-110.266	-0.297	0.062
-379.917	722.070	0.106	0.286
-378.902	218.812	0.207	0.334
-377.888	1.488	-0.150	-0.109
-376.873	-200.000	0.072	-0.402
-375.858	187.474	0.077	-0.116
-374.844	47.520	0.033	0.031
-373.829	174.516	-0.131	0.192
-372.815	786.786	-0.070	-0.195
-371.800	800.000	-0.034	0.116
-370.785	81.873	0.330	-0.361
-369.771	322.776	-0.040	-0.078
-368.756	324.495	0.066	0.127
-367.742	-64.536	0.297	0.122
-366.727	-80.165	-0.262	-0.089
-365.712	-23.374	0.126	0.076
-364.698	231.508	-0.139	0.229
-363.683	316.952	-0.082	-0.156
-362.669	-200.000	-0.000	-0.176
-361.654	-139.180	-0.017	-0.002
-360.639	-91.297	0.404	0.117
-359.625	-114.204	-0.069	0.014
-358.610	-74.472	-0.202	0.074
-357.596	298.806	0.109	-0.202
-356.581	-94.000	-0.263	-0.073
-355.566	-38.555	0.264	-0.141
-354.552	-126.639	0.044	0.007
-353.537	-41.892	-0.179	0.093
-352.523	-1.129	0.305	-0.217
-351.508	800.000	-0.097	-0.416
-350.493	-116.468	0.309	-0.058
-349.479	-111.371	0.127	0.026
-348.464	800.000	-0.016	0.065
-347.450	-121.909	-0.137	-0.023
-346.435	-103.481	-0.140	0.033
-345.420	258.441	-0.137	-0.239
-344.406	-35.361	0.099	0.054
-343.391	-76.191	-0.083	0.030
-342.377	-166.739	0.229	0.010
-341.362	4.379	0.245	0.181
-340.348	800.000	0.025	-0.093
-339.333	-200.000	-0.050	0.232
-338.318	192.037	0.160	-0.243
-337.304	113.161	-0.205	-0.251
-336.289	-13.912	0.338	0.220
-335.275	20.129	0.138	0.112
-334.260	-182.604	-0.183	-0.003
-333.245	74.242	0.156	0.166
-332.231	-200.000	-0.015	-0.171
-331.216	39.891	0.191	-0.173
-330.202	-101.673	0.123	0.030
-329.187	-200.000	0.002	-0.206
-328.172	-56.609	-0.106	0.047
-327.158	-200.000	0.010	0.118
-326.143	-79.581	0.394	0.134
-325.129	523.194	0.053	-0.124
-324.114	-133.414	-0.306	0.039
-323.099	-35.743	-0.367	-0.200
-322.085	-200.000	-0.035	-0.177
-321.070	-133.425	-0.567	0.072
-320.056	-67.974	-0.046	0.018
-319.041	800.000	-0.067	-0.198
-318.026	-200.000	0.042	0.197
-317.012	658.037	0.091	-0.236
-315.997	32.343	0.288	-0.250
-314.983	800.000	0.010	-0.039
-313.968	-141.083	0.244	-0.025
-312.953	7.741	0.107	-0.080
-311.939	559.193	0.130	-0.317
-310.924	126.556	-0.170	0.217
-309.910	207.301	-0.216	-0.340
-308.895	-200.000	0.004	-0.060
-307.880	168.763	-0.131	0.188
-306.866	-149.240	-0.299	0.024
-305.851	49.569	0.144	-0.137
-304.837	-200.000	-0.007	0.326
-303.822	-142.074	-0.169	-0.017
-302.807	65.384	-0.106	0.108
-301.793	-200.000	-0.051	0.289
-300.778	146.265	0.046	0.062
-299.764	-55.621	0.298	-0.134
-298.749	800.000	-0.026	-0.094
-297.735	-200.000	-0.063	0.312
-296.720	800.000	-0.135	-0.504
-295.705	800.000	-0.079	-0.344
-294.691	-107.517	0.124	-0.027
-293.676	-54.574	0.338	-0.154
-292.662	259.924	0.191	-0.331
-291.647	-19.447	-0.254	0.158
-290.632	65.431	0.214	-0.218
-289.618	-153.563	-0.298	-0.021
-288.603	27.334	0.172	-0.145
-287.589	800.000	-0.106	0.299
-286.574	218.286	0.044	-0.071
-285.559	-137.905	0.330	-0.037
-284.545	800.000	-0.104	0.387
-283.530	326.512	0.165	0.318
-282.516	-100.749	0.311	0.077
-281.501	120.231	0.040	-0.050
-280.486	244.582	-0.098	-0.166
-279.472	272.817	0.094	0.166
-278.457	180.704	0.147	0.217
-277.443	-73.474	0.183	-0.067
-276.428	313.760	0.129	-0.244
-275.413	155.573	0.203	-0.281
-274.399	-50.167	-0.059	-0.028
-273.384	-66.772	-0.146	0.058
-272.370	-200.000	-0.020	-0.265
-271.355	3.061	-0.271	-0.198
-270.340	-51.498	-0.107	0.050
-269.326	-75.809	0.418	0.149
-268.311	6.188	-0.198	0.148
-267.297	86.466	-0.132	-0.147
-266.282	-29.516	-0.137	-0.079
-265.267	194.793	-0.117	0.179
-264.253	-23.724	-0.136	-0.082
-263.238	-117.936	-0.119	0.021
-262.224	182.479	0.161	-0.238
-261.209	-52.165	0.204	0.095
-260.195	-200.000	-0.024	0.112
-259.180	-107.323	-0.215	-0.047
-258.165	-135.913	-0.078	0.009
-257.151	67.804	0.154	-0.158
-256.136	-1.236	-0.168	-0.120
-255.122	274.668	-0.251	-0.447
-254.107	221.178	0.197	-0.319
-253.092	37.363	0.144	0.128
-252.078	-79.482	-0.045	0.015
-251.063	576.733	-0.084	0.207
-250.049	-200.000	0.027	-0.344
-249.034	-174.717	-0.337	-0.010
-248.019	104.120	-0.162	-0.191
-247.005	316.102	0.141	0.267
-245.990	137.454	0.139	-0.183
-244.976	800.000	0.102	0.349
-243.961	-54.412	0.106	-0.048
-242.946	120.823	-0.131	-0.164
-241.932	-153.686	0.078	0.005
-240.917	35.158	0.237	-0.209
-239.903	59.459	0.125	-0.124
-238.888	-143.376	-0.159	0.015
-237.873	-58.840	-0.271	0.118
-236.859	791.074	0.069	0.192
-235.844	484.057	-0.040	-0.092
-234.830	35.107	-0.178	-0.157
-233.815	-200.000	0.000	-0.062
-232.800	672.868	0.053	0.138
-231.786	105.617	0.180	-0.213
-230.771	155.141	-0.136	0.188
-229.757	800.000	-0.030	0.109
-228.742	-200.000	-0.015	0.116
-227.727	-200.000	-0.008	-0.298
-226.713	-153.959	-0.178	0.012
-225.698	196.403	0.102	0.156
-224.684	22.941	-0.017	0.014
-223.669	350.040	-0.133	0.263
-222.655	70.369	-0.083	-0.086
-221.640	161.933	0.212	0.299
-220.625	75.385	0.149	0.157
-219.611	-155.180	-0.038	-0.002
-218.596	186.811	-0.129	-0.193
-217.582	800.000	0.041	-0.167
-216.567	380.200	-0.118	-0.243
-215.552	669.720	-0.106	0.274
-214.538	-37.072	-0.154	0.083
-213.523	-43.759	0.224	-0.113
-212.509	-84.356	-0.145	-0.046
-211.494	800.000	0.100	0.412
-210.479	185.906	-0.223	-0.332
-209.465	598.591	-0.158	-0.393
-208.450	409.843	0.084	-0.180
-207.436	800.000	-0.079	-0.242
-206.421	240.636	0.159	0.267
-205.406	-200.000	0.007	0.158
-204.392	-172.111	-0.139	0.004
-203.377	64.644	-0.274	0.277
-202.363	800.000	0.072	0.219
-201.348	449.426	0.123	0.271
-200.333	-79.028	0.217	0.074
-199.319	-72.256	0.190	-0.071
-198.304	274.008	-0.031	0.056
-197.290	-78.667	0.167	0.057
-196.275	32.821	-0.065	0.056
-195.260	443.351	-0.076	-0.167
-194.246	800.000	-0.015	0.045
-193.231	-53.129	-0.202	0.093
-192.217	164.451	-0.107	0.151
-191.202	800.000	-0.107	0.305
-190.187	-113.965	0.310	-0.060
-189.173	-5.104	0.115	-0.080
-188.158	-117.044	-0.475	0.087
-187.144	52.069	0.043	0.041
-186.129	111.019	-0.068	-0.082
-185.114	800.000	-0.060	-0.169
-184.100	-19.572	-0.178	0.111
-183.085	66.623	-0.214	-0.218
-182.071	800.000	0.071	-0.273
-181.056	-22.903	-0.199	0.120
-180.042	-200.000	-0.014	0.095
-179.027	-116.622	0.419	0.077
-178.012	103.074	0.231	-0.271
-176.998	631.706	0.068	0.174
-175.983	-200.000	0.004	-0.140
-174.969	-24.074	0.288	0.172
-173.954	-10.122	0.100	0.066
-172.939	-62.225	0.028	0.012
-171.925	201.446	-0.015	-0.023
-170.910	-39.254	-0.207	-0.109
-169.896	413.960	-0.067	-0.144
-168.881	-200.000	-0.008	0.190
-167.866	-47.032	-0.145	-0.071
-166.852	14.080	-0.158	-0.124
-165.837	-54.967	-0.291	0.131
-164.823	89.977	0.269	0.301
-163.808	385.090	0.137	0.284
-162.793	11.723	-0.187	0.143
-161.779	40.272	-0.101	0.091
-160.764	-134.092	-0.223	-0.028
-159.750	-200.000	-0.014	-0.176
-158.735	-90.867	-0.275	0.079
-157.720	-200.000	-0.021	-0.224
-156.706	-200.000	0.075	0.337
-155.691	-161.534	-0.224	-0.012
-154.677	516.378	-0.097	-0.228
-153.662	-192.992	-0.111	-0.001
-152.647	-200.000	-0.028	-0.388
-151.633	-200.000	-0.002	0.219
-150.618	162.991	0.188	0.264
-149.604	532.298	0.103	0.243
-148.589	37.831	0.226	-0.201
-147.574	228.688	-0.133	-0.217
-146.560	-200.000	-0.035	0.180
-145.545	386.204	0.241	0.497
-144.531	-83.613	0.278	0.089
-143.516	-163.826	0.253	-0.012
-142.502	-71.107	0.219	-0.082
-141.487	565.430	0.048	0.117
-140.472	-50.018	0.311	-0.147
-139.458	-200.000	-0.005	-0.113
-138.443	-54.509	-0.153	0.069
-137.429	-16.178	-0.046	-0.029
-136.414	-200.000	-0.067	0.302
-135.399	-52.709	-0.088	-0.040
-134.385	-58.717	0.162	-0.070
-133.370	-200.000	0.026	-0.151
-132.356	-102.460	-0.233	0.056
-131.341	-200.000	-0.000	0.013
-130.326	-65.332	0.329	0.132
-129.312	-25.653	-0.263	-0.155
-128.297	118.428	-0.158	-0.195
-127.283	23.341	0.192	0.158
-126.268	100.162	0.092	-0.106
-125.253	-200.000	-0.004	0.116
-124.239	-200.000	-0.003	-0.019
-123.224	264.868	-0.072	0.126
-122.210	8.727	0.098	0.073
