DTS Sentinel unit serial number:	SN413079Multiplexer serial number:	ORYXHardware model number:	OX4-SRSoftware version number:	ORYX F/W v4.00 Oryx Data Collector v3.7.2.0data status	okinstallation	princeton_trtdifferential loss correction	single-endedforward channel	channel 1reverse channel	N/Adate	2019/09/16time	02:30:35forward acquisition time	60.00reverse acquisition time	0.00gamma	496.2192k internal	0.2331k external	0.2331temperature offset calibration	0.9977default loss term (dB/km)	0.3790temperature slope calibration	1.0000multiplexer offset coefficient	1.0000multiplexer slope coefficient	1.0000fibre end	0.00T internal ref (°C)	27.66T ext. ref 1 (°C)	10.27T ext. ref 2 (°C)	22.65length (m)	temperature (°C)	Stokes	anti-Stokes-747.200	156.437	0.172	-0.239
-746.185	60.659	-0.193	-0.193
-745.171	403.154	0.065	0.138
-744.156	800.000	0.106	0.340
-743.142	-106.329	-0.208	-0.047
-742.127	59.677	-0.117	0.116
-741.112	-115.033	0.206	0.039
-740.098	-138.908	-0.283	-0.031
-739.083	46.038	-0.043	-0.040
-738.069	43.771	-0.233	0.214
-737.054	800.000	0.019	-0.074
-736.039	430.143	0.052	-0.114
-735.025	-147.723	0.195	-0.016
-734.010	19.172	-0.101	0.082
-732.996	-200.000	0.020	0.159
-731.981	2.572	-0.139	-0.101
-730.966	-116.897	-0.143	0.026
-729.952	-131.435	-0.439	-0.058
-728.937	-168.731	0.144	-0.005
-727.923	624.946	0.084	-0.212
-726.908	333.388	-0.114	-0.222
-725.894	-88.276	0.164	-0.049
-724.879	363.189	-0.039	0.078
-723.864	388.887	0.068	-0.141
-722.850	800.000	0.027	0.100
-721.835	136.555	-0.274	-0.359
-720.821	-96.423	0.220	-0.058
-719.806	-44.759	-0.512	0.257
-718.791	-102.446	-0.320	0.077
-717.777	248.615	-0.216	0.367
-716.762	800.000	0.142	-0.531
-715.748	83.359	-0.071	-0.078
-714.733	40.316	-0.287	-0.260
-713.718	313.407	0.047	-0.088
-712.704	100.385	-0.061	0.071
-711.689	-33.246	0.080	-0.045
-710.675	115.884	0.158	-0.194
-709.660	-3.660	-0.281	0.196
-708.645	84.258	-0.274	0.301
-707.631	-200.000	0.024	-0.119
-706.616	-34.131	0.146	-0.081
-705.602	126.102	-0.246	0.312
-704.587	-200.000	0.004	-0.196
-703.572	186.506	-0.112	0.168
-702.558	-134.642	-0.294	0.036
-701.543	169.686	-0.189	-0.271
-700.529	-200.000	0.037	0.240
-699.514	47.174	0.145	-0.136
-698.499	-200.000	-0.009	-0.180
-697.485	-200.000	-0.027	0.170
-696.470	-98.423	0.117	0.030
-695.456	624.425	-0.118	-0.299
-694.441	800.000	0.136	0.417
-693.426	182.533	-0.084	0.124
-692.412	-30.200	-0.411	-0.234
-691.397	352.784	-0.101	0.201
-690.383	-191.366	0.320	-0.003
-689.368	-4.101	-0.332	-0.231
-688.354	800.000	-0.026	-0.080
-687.339	-200.000	0.045	0.226
-686.324	-49.452	-0.118	0.057
-685.310	183.457	0.042	-0.062
-684.295	211.306	0.084	-0.133
-683.281	-37.474	0.246	0.132
-682.266	-154.024	-0.315	-0.022
-681.251	800.000	-0.034	-0.095
-680.237	283.416	0.082	0.148
-679.222	-106.809	-0.080	0.018
-678.208	15.173	0.202	-0.159
-677.193	800.000	-0.048	-0.142
-676.178	269.661	0.110	-0.194
-675.164	-8.759	-0.310	0.209
-674.149	-92.649	-0.088	0.025
-673.135	273.998	-0.150	0.266
-672.120	-200.000	-0.002	-0.200
-671.105	205.859	-0.095	-0.148
-670.091	-107.102	0.315	-0.070
-669.076	99.533	0.073	0.085
-668.062	62.089	0.161	0.161
-667.047	-200.000	0.003	-0.128
-666.032	65.234	0.080	-0.081
-665.018	109.133	0.106	-0.128
-664.003	516.676	-0.058	0.136
-662.989	-200.000	0.013	0.106
-661.974	-135.543	0.086	-0.010
-660.959	169.276	0.062	-0.089
-659.945	-96.654	0.090	0.024
-658.930	-90.137	-0.199	-0.058
-657.916	111.779	0.075	0.091
-656.901	-78.114	0.121	-0.042
-655.886	-116.858	0.153	0.028
-654.872	-200.000	-0.007	-0.145
-653.857	-77.868	-0.132	-0.046
-652.843	396.206	-0.187	0.392
-651.828	-17.526	-0.286	0.180
-650.814	800.000	-0.029	0.099
-649.799	41.707	0.096	0.087
-648.784	-200.000	0.006	-0.045
-647.770	-65.142	-0.126	-0.051
-646.755	-200.000	-0.022	-0.147
-645.741	-8.449	0.297	-0.200
-644.726	-200.000	0.004	-0.116
-643.711	-200.000	-0.045	0.198
-642.697	215.116	-0.168	-0.267
-641.682	-30.011	0.133	0.076
-640.668	-109.951	-0.226	0.047
-639.653	75.967	-0.141	0.149
-638.638	67.919	-0.203	0.208
-637.624	800.000	0.027	-0.084
-636.609	-93.057	-0.388	0.108
-635.595	-171.788	-0.203	-0.007
-634.580	99.394	-0.381	-0.442
-633.565	-200.000	0.022	-0.379
-632.551	462.123	-0.048	-0.106
-631.536	-102.760	-0.542	0.129
-630.522	800.000	0.029	0.098
-629.507	-200.000	-0.031	-0.142
-628.492	143.913	-0.139	-0.185
-627.478	110.430	0.177	-0.213
-626.463	-82.058	-0.580	-0.190
-625.449	33.637	-0.117	0.102
-624.434	-200.000	-0.049	-0.488
-623.419	-200.000	-0.032	-0.431
-622.405	-41.638	0.221	0.114
-621.390	93.402	0.163	0.185
-620.376	80.926	0.276	0.299
-619.361	-80.231	-0.333	-0.112
-618.346	-71.330	0.268	0.101
-617.332	-86.752	-0.241	0.074
-616.317	-44.758	-0.167	-0.083
-615.303	-57.455	0.346	0.152
-614.288	-24.890	0.374	-0.223
-613.273	319.689	-0.042	0.081
-612.259	-200.000	-0.032	0.182
-611.244	-110.164	-0.288	-0.060
-610.230	231.480	0.178	0.291
-609.215	-91.797	-0.160	-0.046
-608.201	307.420	0.102	0.190
-607.186	614.579	0.063	0.159
-606.171	800.000	-0.111	0.313
-605.157	156.695	-0.179	-0.248
-604.142	-137.950	-0.321	-0.036
-603.128	-170.206	-0.377	0.013
-602.113	784.708	-0.063	0.174
-601.098	-200.000	0.013	-0.117
-600.084	-100.691	-0.333	-0.082
-599.069	614.315	0.096	0.240
-598.055	203.558	-0.161	-0.250
-597.040	-147.332	-0.150	-0.013
-596.025	800.000	-0.038	-0.126
-595.011	181.551	0.140	-0.206
-593.996	-200.000	-0.107	0.479
-592.982	-200.000	-0.012	0.057
-591.967	-200.000	0.016	0.274
-590.952	84.583	0.095	-0.104
-589.938	-70.139	0.252	0.096
-588.923	-52.901	-0.115	0.053
-587.909	-200.000	0.007	-0.278
-586.894	-150.792	-0.262	-0.020
-585.879	499.271	-0.111	0.256
-584.865	433.590	0.134	-0.292
-583.850	800.000	0.062	-0.198
-582.836	800.000	-0.092	0.315
-581.821	496.898	0.133	0.306
-580.806	-1.501	-0.058	-0.041
-579.792	-107.618	0.160	0.035
-578.777	782.424	-0.075	-0.205
-577.763	-112.635	-0.164	0.033
-576.748	-97.151	0.249	-0.065
-575.733	126.213	0.112	0.142
-574.719	300.139	-0.104	0.192
-573.704	105.257	0.151	0.178
-572.690	-114.391	-0.092	-0.018
-571.675	-168.378	0.052	0.002
-570.661	-99.860	0.103	-0.026
-569.646	-2.777	-0.288	-0.202
-568.631	253.890	0.064	-0.110
-567.617	293.623	-0.067	0.123
-566.602	26.780	0.276	0.231
-565.588	143.695	0.033	0.044
-564.573	800.000	0.032	-0.098
-563.558	-80.609	0.265	-0.088
-562.544	38.491	-0.168	-0.150
-561.529	-39.578	-0.346	-0.181
-560.515	800.000	0.038	-0.123
-559.500	406.016	0.050	0.105
-558.485	-114.687	0.061	0.012
-557.471	-53.544	0.221	-0.101
-556.456	-19.863	-0.153	0.094
-555.442	800.000	0.122	0.343
-554.427	-109.600	-0.148	0.031
-553.412	-158.318	0.236	-0.014
-552.398	407.555	0.022	-0.047
-551.383	253.957	-0.229	0.391
-550.369	90.267	0.073	-0.082
-549.354	492.537	-0.149	0.340
-548.339	-24.444	-0.221	-0.131
-547.325	633.709	-0.080	-0.202
-546.310	509.998	-0.066	0.152
-545.296	319.576	0.127	-0.241
-544.281	43.512	0.176	0.161
-543.266	800.000	0.013	-0.055
-542.252	-89.824	0.189	-0.055
-541.237	-200.000	0.009	-0.284
-540.223	108.858	-0.086	-0.103
-539.208	318.590	-0.068	0.128
-538.193	442.262	0.096	0.210
-537.179	160.770	0.127	0.177
-536.164	-82.106	-0.364	0.119
-535.150	800.000	-0.110	-0.412
-534.135	271.466	-0.061	0.108
-533.121	612.684	0.035	-0.087
-532.106	-200.000	0.065	-0.312
-531.091	225.374	0.143	-0.231
-530.077	800.000	0.112	0.387
-529.062	-200.000	-0.002	0.188
-528.048	-44.937	0.109	0.054
-527.033	80.599	-0.125	-0.135
-526.018	533.022	0.119	-0.281
-525.004	-200.000	0.003	-0.383
-523.989	-72.603	0.479	0.176
-522.975	190.380	0.189	-0.284
-521.960	602.097	0.081	-0.201
-520.945	-66.633	0.414	-0.164
-519.931	-104.388	0.227	0.053
-518.916	-200.000	-0.014	-0.147
-517.902	-102.529	0.256	-0.061
-516.887	-72.763	0.049	-0.018
-515.872	-200.000	0.024	-0.224
-514.858	-35.688	-0.230	-0.124
-513.843	-55.663	0.242	-0.108
-512.829	-168.283	-0.187	-0.007
-511.814	-200.000	0.003	-0.195
-510.799	-111.077	0.045	0.009
-509.785	107.235	-0.108	-0.128
-508.770	-174.368	-0.270	0.008
-507.756	75.504	0.182	0.192
-506.741	800.000	-0.048	0.176
-505.726	800.000	0.039	-0.141
-504.712	200.492	0.114	0.174
-503.697	452.937	0.143	0.316
-502.683	99.480	0.054	0.063
-501.668	-148.934	0.415	0.033
-500.653	465.859	0.136	0.303
-499.639	-10.835	-0.097	-0.064
-498.624	180.903	-0.105	-0.154
-497.610	-110.955	0.169	-0.035
-496.595	-200.000	0.006	-0.352
-495.581	72.060	-0.191	0.198
-494.566	669.083	-0.039	0.101
-493.551	-200.000	0.018	0.161
-492.537	800.000	-0.042	-0.167
-491.522	92.909	0.076	0.086
-490.508	-97.237	-0.175	0.046
-489.493	243.380	0.161	-0.268
-488.478	-30.497	-0.167	-0.094
-487.464	82.166	0.092	-0.099
-486.449	256.583	0.271	-0.463
-485.435	124.512	0.065	-0.082
-484.420	46.464	0.200	-0.185
-483.405	215.852	0.056	-0.089
-482.391	4.635	0.133	-0.098
-481.376	-36.822	-0.398	-0.213
-480.362	485.885	-0.066	-0.151
-479.347	-150.946	-0.302	-0.023
-478.332	-129.303	0.168	-0.023
-477.318	215.881	0.123	-0.195
-476.303	0.310	-0.185	-0.132
-475.289	-50.708	-0.331	0.155
-474.274	-39.933	0.320	-0.166
-473.259	-138.421	-0.084	0.009
-472.245	800.000	-0.032	-0.113
-471.230	565.859	0.017	0.040
-470.216	407.732	-0.193	0.405
-469.201	800.000	0.073	0.313
-468.186	66.948	-0.175	-0.177
-467.172	-200.000	0.022	-0.226
-466.157	-107.504	-0.163	0.036
-465.143	14.587	-0.184	-0.143
-464.128	260.496	-0.034	0.058
-463.113	-200.000	-0.067	-0.627
-462.099	700.572	0.065	0.171
-461.084	-117.576	-0.130	0.023
-460.070	-168.856	0.260	-0.010
-459.055	-19.054	0.142	0.088
-458.040	-118.761	0.291	0.051
-457.026	418.539	-0.059	0.127
-456.011	-120.672	0.180	0.030
-454.997	712.057	0.148	-0.389
-453.982	-88.096	0.312	0.093
-452.968	143.615	-0.161	0.214
-451.953	162.561	0.268	0.374
-450.938	-96.446	-0.364	-0.096
-449.924	-59.979	-0.136	0.058
-448.909	226.437	-0.178	-0.288
-447.895	-200.000	-0.020	0.229
-446.880	82.645	0.125	0.135
-445.865	800.000	0.055	-0.223
-444.851	151.113	-0.153	-0.207
-443.836	-52.672	0.193	0.088
-442.822	-105.628	0.246	-0.055
-441.807	573.200	0.046	0.111
-440.792	463.180	0.133	0.296
-439.778	4.012	0.183	0.133
-438.763	-200.000	-0.006	0.165
-437.749	75.560	0.193	0.203
-436.734	-137.927	-0.287	0.032
-435.719	-2.625	-0.216	0.151
-434.705	-155.694	-0.072	-0.005
-433.690	-107.099	-0.081	0.018
-432.676	67.976	-0.174	0.177
-431.661	-42.439	0.144	0.073
-430.646	-93.068	0.185	0.051
-429.632	800.000	0.125	0.380
-428.617	-94.826	0.253	-0.068
-427.603	-158.997	0.328	-0.018
-426.588	192.997	-0.155	-0.232
-425.573	-62.225	0.077	-0.032
-424.559	90.755	0.139	0.155
-423.544	676.177	-0.130	-0.337
-422.530	140.761	-0.241	-0.316
-421.515	-14.512	-0.188	0.120
-420.500	-200.000	0.020	0.334
-419.486	-200.000	-0.007	0.089
-418.471	487.995	-0.137	-0.310
-417.457	-15.070	-0.130	-0.083
-416.442	310.128	0.130	-0.242
-415.428	-61.973	-0.202	0.084
-414.413	-17.282	-0.131	-0.082
-413.398	529.664	0.178	0.418
-412.384	2.796	0.239	0.172
-411.369	-200.000	-0.074	-0.422
-410.355	-44.824	0.068	0.034
-409.340	-97.157	0.262	-0.068
-408.325	0.291	-0.071	-0.050
-407.311	-33.065	-0.111	-0.061
-406.296	-1.773	0.227	0.159
-405.282	35.804	0.327	-0.286
-404.267	-200.000	-0.020	-0.180
-403.252	-200.000	0.019	0.244
-402.238	-116.939	-0.294	-0.053
-401.223	-40.998	0.337	-0.173
-400.209	-200.000	0.002	0.136
-399.194	16.200	0.182	-0.143
-398.179	-3.598	-0.256	-0.177
-397.165	800.000	-0.066	-0.198
-396.150	306.389	-0.075	0.138
-395.136	29.232	-0.120	-0.101
-394.121	-200.000	-0.025	0.166
-393.106	-45.695	-0.308	-0.151
-392.092	293.155	0.203	0.367
-391.077	-71.862	-0.358	-0.132
-390.063	-36.565	0.135	-0.072
-389.048	800.000	-0.142	0.458
-388.033	-169.297	-0.073	-0.003
-387.019	-200.000	-0.031	0.154
-386.004	107.365	0.166	-0.196
-384.990	-32.982	-0.140	-0.077
-383.975	291.225	0.137	0.248
-382.960	-94.656	-0.189	0.051
-381.946	-184.861	-0.367	0.006
-380.931	383.496	-0.030	0.061
-379.917	-39.193	-0.244	-0.127
-378.902	116.380	-0.149	-0.182
-377.888	800.000	-0.010	0.041
-376.873	-169.606	-0.244	0.009
-375.858	-56.462	0.190	0.084
-374.844	-200.000	0.107	-0.508
-373.829	-119.751	-0.186	-0.032
-372.815	244.330	0.008	0.013
-371.800	796.861	0.131	0.357
-370.785	800.000	0.075	0.237
-369.771	0.805	-0.445	-0.316
-368.756	-34.906	0.232	0.126
-367.742	-49.906	-0.124	0.058
-366.727	-151.597	0.319	0.023
-365.712	-200.000	-0.021	0.248
-364.698	-11.807	0.155	0.101
-363.683	630.745	-0.047	0.118
-362.669	119.346	0.107	0.131
-361.654	-67.435	0.333	0.130
-360.639	800.000	0.028	-0.097
-359.625	-55.439	0.251	-0.112
-358.610	25.324	-0.225	-0.186
-357.596	-85.638	0.088	-0.027
-356.581	215.432	0.038	0.060
-355.566	-26.188	-0.070	-0.041
-354.552	-92.591	0.223	-0.062
-353.537	39.329	-0.105	-0.093
-352.523	45.810	-0.161	-0.147
-351.508	-147.250	-0.239	-0.020
-350.493	-200.000	0.045	0.237
-349.479	242.410	-0.042	-0.070
-348.464	-25.307	0.186	0.109
-347.450	-70.899	0.079	0.029
-346.435	-165.307	-0.264	-0.012
-345.420	366.906	0.195	-0.390
-344.406	137.697	-0.093	0.121
-343.391	265.626	-0.065	0.112
-342.377	115.338	-0.124	0.151
-341.362	120.049	-0.082	-0.101
-340.348	1.123	-0.244	0.173
-339.333	800.000	-0.042	-0.121
-338.318	-200.000	-0.004	0.102
-337.304	-117.702	0.331	-0.059
-336.289	375.257	-0.013	-0.027
-335.275	800.000	-0.036	-0.131
-334.260	100.175	-0.096	-0.111
-333.245	800.000	0.042	-0.156
-332.231	-200.000	0.055	-0.274
-331.216	-200.000	0.059	-0.296
-330.202	-200.000	-0.014	0.187
-329.187	-200.000	0.001	-0.148
-328.172	-42.301	0.022	0.011
-327.158	415.467	0.014	-0.030
-326.143	-200.000	0.020	0.175
-325.129	175.599	0.194	0.278
-324.114	-110.096	-0.408	0.084
-323.099	-93.244	0.279	0.077
-322.085	800.000	-0.052	0.169
-321.070	-123.636	0.044	0.007
-320.056	351.153	0.201	-0.394
-319.041	-69.071	-0.134	0.051
-318.026	583.434	0.109	-0.265
-317.012	-62.428	0.103	0.043
-315.997	-200.000	0.009	-0.302
-314.983	800.000	-0.116	0.452
-313.968	-119.093	-0.213	0.037
-312.953	-65.772	-0.076	0.030
-311.939	250.552	0.137	0.230
-310.924	800.000	0.086	0.294
-309.910	-167.863	-0.219	0.009
-308.895	32.009	-0.096	-0.081
-307.880	188.896	-0.223	-0.331
-306.866	125.654	-0.229	-0.286
-305.851	506.216	-0.097	0.223
-304.837	-119.087	0.212	0.037
-303.822	59.712	-0.313	-0.306
-302.807	626.444	0.138	-0.343
-301.793	65.089	0.127	-0.127
-300.778	227.542	-0.049	0.078
-299.764	-116.561	0.319	0.058
-298.749	-121.193	-0.196	-0.032
-297.735	-63.742	0.366	-0.148
-296.720	800.000	-0.082	0.315
-295.705	-131.139	-0.289	0.038
-294.691	-143.557	0.117	-0.011
-293.676	133.770	0.095	0.121
-292.662	381.428	0.116	-0.236
-291.647	-200.000	0.026	-0.178
-290.632	-126.442	0.290	-0.043
-289.618	104.897	-0.115	0.134
-288.603	800.000	0.084	0.260
-287.589	28.256	0.112	-0.093
-286.574	-200.000	0.009	0.261
-285.559	-51.000	-0.110	0.051
-284.545	-200.000	0.003	-0.032
-283.530	-200.000	0.046	-0.221
-282.516	-130.789	-0.212	0.028
-281.501	800.000	0.038	-0.111
-280.486	800.000	-0.037	0.108
-279.472	800.000	-0.065	-0.255
-278.457	106.608	0.169	-0.199
-277.443	118.093	-0.282	0.343
-276.428	33.923	-0.124	0.107
-275.413	52.524	-0.312	0.294
-274.399	-5.599	0.192	0.130
-273.384	-200.000	0.108	0.506
-272.370	-16.383	-0.080	0.050
-271.355	751.125	-0.045	-0.120
-270.340	-107.382	-0.251	-0.054
-269.326	-98.237	0.095	-0.024
-268.311	46.328	-0.165	-0.151
-267.297	-17.313	-0.367	-0.228
-266.282	800.000	-0.120	-0.367
-265.267	712.963	-0.063	-0.165
-264.253	38.512	-0.201	-0.177
-263.238	463.705	0.133	0.293
-262.224	-86.818	0.251	0.076
-261.209	-83.007	-0.134	0.043
-260.195	15.181	0.189	-0.146
-259.180	800.000	0.014	-0.039
-258.165	-200.000	-0.002	0.102
-257.151	-140.825	0.112	-0.011
-256.136	75.189	-0.441	0.459
-255.122	671.967	0.065	-0.167
-254.107	586.653	-0.099	0.240
-253.092	800.000	0.030	0.091
-252.078	800.000	0.113	0.436
-251.063	24.113	0.083	0.068
-250.049	141.591	0.101	-0.132
-249.034	-120.778	-0.292	0.049
-248.019	253.256	0.145	-0.245
-247.005	-41.151	-0.061	0.031
-245.990	59.314	0.055	0.053
-244.976	69.393	0.118	-0.120
-243.961	122.415	0.261	0.322
-242.946	22.029	-0.212	-0.171
-241.932	187.864	0.152	0.224
-240.917	149.182	0.206	-0.276
-239.903	178.889	-0.138	0.198
-238.888	-200.000	-0.006	-0.323
-237.873	-61.504	-0.434	0.180
-236.859	423.985	0.044	0.094
-235.844	-113.746	0.162	0.031
-234.830	-200.000	-0.011	0.160
-233.815	-69.619	-0.341	0.129
-232.800	-46.086	-0.105	-0.051
-231.786	-0.014	0.069	0.049
-230.771	-173.223	0.342	0.010
-229.757	4.039	0.171	-0.123
-228.742	38.925	-0.259	0.229
-227.727	-200.000	0.035	-0.214
-226.713	-113.134	0.125	0.024
-225.698	-200.000	0.015	0.104
-224.684	-26.716	0.090	0.052
-223.669	800.000	-0.074	0.231
-222.655	139.356	0.080	0.104
-221.640	-200.000	0.027	0.158
-220.625	71.948	-0.094	0.097
-219.611	-97.194	-0.094	0.024
-218.596	800.000	0.054	0.179
-217.582	145.852	-0.164	0.217
-216.567	130.203	0.073	-0.092
-215.552	2.043	0.427	0.304
-214.538	-108.039	-0.130	0.028
-213.523	700.514	-0.148	-0.384
-212.509	-17.219	0.171	-0.106
-211.494	106.078	0.043	-0.051
-210.479	-200.000	-0.029	0.263
-209.465	-65.400	0.052	0.021
-208.450	-70.900	-0.346	0.129
-207.436	-58.223	-0.049	0.021
-206.421	800.000	-0.026	0.110
-205.406	105.859	-0.205	0.239
-204.392	800.000	-0.107	0.351
-203.377	-69.008	-0.220	0.084
-202.363	44.161	0.118	0.107
-201.348	-158.482	0.299	-0.017
-200.333	-5.555	0.128	-0.086
-199.319	-116.984	-0.097	-0.018
-198.304	800.000	0.056	0.165
-197.290	-101.153	-0.062	0.015
-196.275	-200.000	-0.008	-0.080
-195.260	-200.000	-0.005	-0.261
-194.246	60.410	0.022	0.021
-193.231	-144.164	0.163	0.015
-192.217	140.670	0.201	0.261
-191.202	71.331	0.100	-0.102
-190.187	-200.000	-0.010	-0.489
-189.173	800.000	-0.073	-0.216
-188.158	162.404	-0.225	0.311
-187.144	10.057	0.261	-0.195
-186.129	-144.016	0.495	0.046
-185.114	693.657	0.035	0.090
-184.100	-200.000	0.041	0.242
-183.085	-137.856	0.199	0.022
-182.071	-75.355	-0.149	0.052
-181.056	166.868	0.165	-0.230
-180.042	14.921	0.144	-0.111
-179.027	332.608	-0.266	0.505
-178.012	-140.576	-0.143	0.015
-176.998	800.000	-0.053	-0.158
-175.983	-128.992	-0.080	0.011
-174.969	-200.000	0.011	0.090
-173.954	19.992	0.177	0.141
-172.939	80.862	-0.222	0.235
-171.925	-200.000	-0.014	0.153
-170.910	-200.000	0.062	0.359
-169.896	-200.000	0.050	0.308
-168.881	-108.667	-0.060	-0.013
-167.866	42.369	0.168	-0.150
-166.852	-200.000	-0.078	0.429
-165.837	-200.000	0.074	-0.368
-164.823	95.032	0.254	-0.285
-163.808	314.858	0.073	-0.135
-162.793	-200.000	0.017	-0.268
-161.779	45.823	0.442	0.402
-160.764	123.893	0.103	0.128
-159.750	406.802	0.047	-0.097
-158.735	800.000	-0.131	-0.360
-157.720	267.268	0.162	-0.278
-156.706	-82.303	0.281	0.090
-155.691	-200.000	-0.019	-0.112
-154.677	65.394	0.186	-0.185
-153.662	51.884	-0.171	-0.160
-152.647	-13.493	0.258	0.164
-151.633	800.000	0.065	-0.178
-150.618	63.290	-0.102	-0.101
-149.604	135.632	0.162	-0.207
-148.589	294.532	-0.042	0.076
-147.574	-200.000	0.018	-0.304
-146.560	629.669	-0.044	0.110
-145.545	-65.940	-0.257	-0.101
-144.531	238.025	0.092	-0.150
-143.516	-124.203	0.339	-0.052
-142.502	-44.932	0.146	0.071
-141.487	-72.466	0.319	-0.116
-140.472	61.977	0.163	-0.159
-139.458	90.088	-0.060	-0.066
-138.443	-122.614	0.290	-0.046
-137.429	459.107	-0.054	0.117
-136.414	-200.000	0.009	-0.266
-135.399	-185.151	-0.188	0.003
-134.385	-1.824	0.109	-0.075
-133.370	800.000	-0.046	-0.145
-132.356	-40.208	0.191	0.098
-131.341	-50.593	-0.264	0.122
-130.326	-38.108	0.315	0.164
-129.312	34.556	0.299	-0.256
-128.297	-67.846	0.058	0.022
-127.283	-200.000	-0.039	0.175
-126.268	-200.000	-0.028	0.140
-125.253	-200.000	0.009	-0.102
-124.239	473.350	-0.086	-0.191
-123.224	-70.092	-0.043	0.016
-122.210	444.694	-0.040	-0.087
-121.195	-35.949	-0.290	-0.154
