DTS Sentinel unit serial number:	SN413079Multiplexer serial number:	ORYXHardware model number:	OX4-SRSoftware version number:	ORYX F/W v4.00 Oryx Data Collector v3.7.2.0data status	okinstallation	princeton_trtdifferential loss correction	single-endedforward channel	channel 1reverse channel	N/Adate	2019/09/12time	19:29:34forward acquisition time	15.00reverse acquisition time	0.00gamma	496.2192k internal	0.2321k external	0.2321temperature offset calibration	1.0133default loss term (dB/km)	0.3790temperature slope calibration	1.0000multiplexer offset coefficient	1.0000multiplexer slope coefficient	1.0000fibre end	0.00T internal ref (°C)	32.25T ext. ref 1 (°C)	3.36T ext. ref 2 (°C)	26.74length (m)	temperature (°C)	Stokes	anti-Stokes-747.200	800.000	0.067	0.293
-746.185	5.246	-0.220	0.164
-745.171	-86.262	0.386	0.120
-744.156	-200.000	0.081	0.455
-743.142	-80.134	0.658	0.223
-742.127	-81.643	0.827	-0.274
-741.112	50.603	-0.414	-0.396
-740.098	172.749	-0.300	-0.436
-739.083	-15.855	0.216	0.139
-738.069	-4.391	0.262	-0.183
-737.054	800.000	-0.397	1.279
-736.039	24.357	0.637	0.532
-735.025	124.519	0.158	-0.201
-734.010	-187.593	0.199	-0.003
-732.996	244.869	-0.311	0.529
-731.981	-49.464	0.422	-0.203
-730.966	546.782	0.138	0.332
-729.952	-103.769	-0.553	0.131
-728.937	-106.737	0.202	0.045
-727.923	-20.505	-0.697	-0.433
-726.908	-62.981	-1.104	-0.461
-725.894	-63.128	-0.373	-0.156
-724.879	-150.282	-0.485	0.038
-723.864	113.516	-0.523	-0.641
-722.850	-108.077	0.354	-0.077
-721.835	-152.895	0.638	0.046
-720.821	-125.858	0.950	-0.145
-719.806	356.650	-0.341	-0.686
-718.791	-200.000	0.009	-0.639
-717.777	-79.688	0.045	0.015
-716.762	-95.264	-1.160	-0.315
-715.748	314.052	0.213	0.405
-714.733	21.532	-0.695	0.571
-713.718	3.659	0.215	-0.158
-712.704	-111.319	-0.546	-0.112
-711.689	91.050	0.719	0.815
-710.675	-200.000	-0.435	-0.001
-709.660	427.373	0.068	0.149
-708.645	133.725	-0.137	0.179
-707.631	23.785	0.198	-0.164
-706.616	-53.665	-0.270	0.124
-705.602	-87.782	-0.386	-0.117
-704.587	-53.857	0.454	-0.209
-703.572	771.467	-0.254	0.698
-702.558	127.403	0.525	-0.672
-701.543	-120.572	-0.260	-0.045
-700.529	800.000	0.148	0.458
-699.514	-35.237	-1.075	0.590
-698.499	319.085	-0.133	-0.255
-697.485	-45.605	-0.355	-0.177
-696.470	800.000	0.069	0.294
-695.456	171.877	-0.414	0.600
-694.441	-80.678	-1.084	-0.364
-693.426	-37.253	-0.814	-0.439
-692.412	107.027	-0.423	0.506
-691.397	66.395	-0.459	-0.471
-690.383	-192.737	-0.572	0.005
-689.368	-61.203	-0.404	0.172
-688.354	800.000	-0.072	-0.255
-687.339	-12.590	-0.675	-0.444
-686.324	-200.000	-0.069	0.739
-685.310	-200.000	0.093	0.423
-684.295	-200.000	0.044	0.287
-683.281	-3.730	-0.181	0.127
-682.266	-47.126	0.359	0.176
-681.251	-104.634	0.418	-0.097
-680.237	623.525	0.237	-0.602
-679.222	32.045	-0.501	0.435
-678.208	-169.573	0.520	-0.019
-677.193	639.138	0.216	0.553
-676.178	-200.000	0.075	0.578
-675.164	-71.078	0.238	0.090
-674.149	-16.021	-0.329	-0.211
-673.135	204.676	0.252	-0.394
-672.120	275.660	0.142	0.254
-671.105	-122.689	-0.349	0.057
-670.091	-25.081	-0.302	-0.180
-669.076	-54.007	-0.423	0.194
-668.062	46.873	0.336	-0.315
-667.047	-28.546	0.368	-0.214
-666.032	-56.498	-0.674	-0.301
-665.018	-200.000	-0.083	-0.593
-664.003	530.936	0.280	0.666
-662.989	800.000	0.151	-0.430
-661.974	-200.000	0.172	0.821
-660.959	-69.549	0.438	-0.169
-659.945	8.401	-0.141	0.107
-658.930	-75.067	0.868	-0.313
-657.916	-130.225	0.476	-0.065
-656.901	464.221	0.367	0.827
-655.886	598.484	-0.365	-0.913
-654.872	482.826	0.351	-0.804
-653.857	-200.000	-0.070	-0.701
-652.843	76.256	-0.326	-0.348
-651.828	800.000	0.147	0.520
-650.814	-141.211	-0.438	-0.045
-649.799	-200.000	-0.014	-0.249
-648.784	383.248	0.123	0.255
-647.770	-162.480	0.275	-0.014
-646.755	-118.656	-0.289	0.051
-645.741	800.000	0.161	0.570
-644.726	666.957	0.256	0.665
-643.711	391.851	-0.250	0.523
-642.697	46.237	0.501	-0.467
-641.682	800.000	-0.199	-0.692
-640.668	-1.852	-0.451	0.319
-639.653	-200.000	0.073	-0.322
-638.638	-49.233	-0.330	0.159
-637.624	-21.022	-0.975	0.601
-636.609	-200.000	0.055	-0.380
-635.595	331.970	0.214	0.416
-634.580	800.000	-0.220	0.749
-633.565	32.638	0.261	0.227
-632.551	202.962	0.308	-0.480
-631.536	698.280	-0.455	-1.204
-630.522	800.000	0.147	0.446
-629.507	5.916	-0.109	0.081
-628.492	331.863	0.169	0.329
-627.478	259.703	0.537	-0.933
-626.463	-97.886	-0.664	-0.172
-625.449	800.000	0.037	0.119
-624.434	18.344	0.690	0.555
-623.419	-47.899	-0.368	-0.179
-622.405	800.000	0.164	0.522
-621.390	-200.000	0.022	-0.655
-620.376	19.717	-0.173	-0.140
-619.361	213.876	-0.373	0.594
-618.346	30.513	-0.514	-0.442
-617.332	-121.156	-0.505	0.085
-616.317	-161.813	0.657	0.034
-615.303	147.523	0.168	-0.227
-614.288	-105.367	-0.451	0.103
-613.273	-107.616	-0.341	0.075
-612.259	353.884	-0.276	-0.551
-611.244	800.000	-0.016	-0.047
-610.230	-102.942	-0.532	0.127
-609.215	-161.192	0.214	0.011
-608.201	234.043	-0.241	-0.399
-607.186	-86.105	0.626	0.194
-606.171	-137.740	-0.459	-0.052
-605.157	224.661	-0.204	-0.332
-604.142	-8.441	-0.347	0.234
-603.128	-192.165	-0.806	0.008
-602.113	-133.022	-0.414	-0.053
-601.098	-176.856	0.784	-0.020
-600.084	120.203	0.317	0.396
-599.069	98.616	0.301	0.349
-598.055	335.728	-0.441	-0.860
-597.040	38.570	-0.570	-0.511
-596.025	-53.834	0.130	0.060
-595.011	20.976	-0.546	-0.445
-593.996	-200.000	0.038	-0.268
-592.982	68.672	-0.169	0.174
-591.967	-40.370	0.700	0.366
-590.952	115.833	0.161	-0.198
-589.938	-200.000	-0.014	-0.656
-588.923	-124.156	0.566	-0.089
-587.909	-147.874	0.722	0.061
-586.894	-98.312	-0.448	0.115
-585.879	-129.048	0.431	-0.061
-584.865	-200.000	-0.032	0.300
-583.850	-46.551	0.486	0.239
-582.836	-92.334	0.589	-0.167
-581.821	-96.565	0.803	-0.213
-580.806	470.208	0.234	0.528
-579.792	800.000	0.201	-0.674
-578.777	52.178	-0.524	0.501
-577.763	-200.000	-0.030	-0.194
-576.748	-54.588	0.588	-0.267
-575.733	671.662	0.278	0.723
-574.719	-149.526	0.667	0.053
-573.704	31.539	0.450	-0.388
-572.690	-75.020	-0.409	0.147
-571.675	-200.000	0.188	-0.878
-570.661	-56.305	0.680	-0.303
-569.646	192.742	0.189	0.287
-568.631	-67.569	-0.863	-0.340
-567.617	-59.564	0.410	0.177
-566.602	-125.631	0.185	0.028
-565.588	-90.689	-0.572	0.166
-564.573	91.572	-0.347	0.392
-563.558	-113.783	0.442	-0.086
-562.544	-132.602	-0.885	0.114
-561.529	39.476	-0.277	0.249
-560.515	-76.617	-0.282	-0.099
-559.500	98.227	0.238	-0.275
-558.485	800.000	-0.143	-0.465
-557.471	-112.451	-0.153	-0.031
-556.456	117.115	-0.316	0.389
-555.442	137.648	-0.681	-0.895
-554.427	-200.000	0.130	-0.752
-553.412	752.020	0.118	0.318
-552.398	315.944	-0.204	0.385
-551.383	-200.000	0.027	0.653
-550.369	369.294	0.207	0.420
-549.354	223.809	-0.550	0.891
-548.339	250.437	-0.353	0.602
-547.325	269.045	0.332	-0.584
-546.310	-144.759	0.963	-0.089
-545.296	-34.526	-0.263	-0.144
-544.281	-200.000	-0.010	0.152
-543.266	800.000	0.057	0.219
-542.252	134.224	0.178	0.232
-541.237	-142.296	-0.141	-0.014
-540.223	800.000	-0.230	-0.694
-539.208	7.560	0.223	-0.168
-538.193	-200.000	0.012	-0.451
-537.179	800.000	0.072	0.253
-536.164	-80.832	-0.459	-0.153
-535.150	800.000	0.303	1.031
-534.135	150.111	-0.316	0.430
-533.121	286.374	0.442	0.800
-532.106	7.864	0.216	-0.162
-531.091	-66.977	-0.449	0.178
-530.077	-139.121	0.632	0.068
-529.062	-35.897	1.105	0.599
-528.048	-118.494	-0.469	0.083
-527.033	41.643	0.213	0.194
-526.018	38.147	-0.477	-0.425
-525.004	27.807	-0.110	-0.092
-523.989	179.022	0.316	-0.463
-522.975	279.826	0.153	-0.274
-521.960	-200.000	-0.015	0.299
-520.945	32.265	0.133	0.115
-519.931	-200.000	0.076	0.683
-518.916	9.800	0.234	-0.178
-517.902	208.373	-0.595	-0.932
-516.887	358.461	-0.475	0.950
-515.872	-146.546	-0.233	-0.020
-514.858	138.292	0.515	-0.677
-513.843	-99.760	0.478	-0.120
-512.829	-62.269	-0.060	-0.025
-511.814	-200.000	0.161	0.721
-510.799	-27.449	0.578	-0.337
-509.785	103.591	-0.223	0.262
-508.770	-126.025	0.435	-0.066
-507.756	-159.572	-0.590	-0.033
-506.741	-98.652	0.430	-0.110
-505.726	-78.658	0.462	0.158
-504.712	-88.388	-0.815	-0.244
-503.697	-119.094	-0.759	0.133
-502.683	-37.673	0.620	-0.331
-501.668	-4.465	0.664	-0.460
-500.653	600.782	-0.066	0.165
-499.639	-200.000	-0.104	0.501
-498.624	-57.115	0.473	-0.209
-497.610	-200.000	-0.009	0.107
-496.595	381.859	0.212	-0.436
-495.581	241.130	-0.600	-1.003
-494.566	800.000	-0.102	-0.344
-493.551	-200.000	-0.058	0.570
-492.537	22.538	-0.362	-0.296
-491.522	36.016	0.867	-0.764
-490.508	-200.000	0.049	0.629
-489.493	800.000	0.158	-0.456
-488.478	118.636	0.641	0.792
-487.464	128.691	0.195	-0.249
-486.449	800.000	-0.267	-0.873
-485.435	-71.899	-0.206	-0.077
-484.420	138.071	-0.343	0.450
-483.405	-200.000	-0.030	-0.365
-482.391	-86.468	-0.063	-0.020
-481.376	76.190	-0.581	0.615
-480.362	-200.000	-0.041	0.567
-479.347	335.211	0.491	-0.951
-478.332	-73.275	0.070	-0.026
-477.318	-142.189	0.358	0.035
-476.303	58.710	0.363	-0.357
-475.289	226.508	0.541	-0.878
-474.274	475.644	0.228	0.516
-473.259	97.773	-0.099	0.113
-472.245	89.265	-0.191	-0.213
-471.230	-104.792	1.002	-0.231
-470.216	146.741	-0.136	0.183
-469.201	2.654	0.737	-0.534
-468.186	-122.702	0.805	-0.130
-467.172	800.000	0.122	-0.509
-466.157	-19.435	-0.463	0.287
-465.143	-21.619	-0.384	-0.234
-464.128	-115.640	0.297	-0.056
-463.113	157.601	0.499	-0.691
-462.099	61.996	-0.477	-0.475
-461.084	8.843	-0.212	-0.160
-460.070	121.373	-0.068	0.085
-459.055	86.374	-0.528	0.581
-458.040	520.870	-0.254	-0.595
-457.026	386.560	-0.147	-0.304
-456.011	-105.714	0.877	-0.198
-454.997	-81.055	0.650	-0.215
-453.982	266.508	0.162	-0.283
-452.968	-4.582	-0.540	0.373
-451.953	251.006	-0.220	-0.374
-450.938	-92.801	-0.562	0.157
-449.924	-156.922	-0.320	-0.020
-448.909	180.084	0.236	-0.346
-447.895	-178.232	-0.233	-0.005
-446.880	104.744	0.254	-0.300
-445.865	-200.000	-0.042	0.538
-444.851	800.000	-0.117	0.395
-443.836	150.220	0.647	-0.877
-442.822	256.900	-0.541	-0.929
-441.807	-200.000	-0.012	-0.236
-440.792	-200.000	0.142	0.836
-439.778	-200.000	-0.187	0.856
-438.763	170.114	-0.343	0.491
-437.749	123.966	-0.284	-0.357
-436.734	-72.998	-0.641	0.235
-435.719	-200.000	-0.019	1.315
-434.705	15.337	0.110	-0.086
-433.690	-41.185	-0.139	0.072
-432.676	315.912	-0.245	-0.462
-431.661	-200.000	-0.078	-0.521
-430.646	-200.000	0.023	0.376
-429.632	181.055	0.187	-0.274
-428.617	-119.602	-0.569	0.098
-427.603	229.004	0.226	-0.369
-426.588	-200.000	-0.089	0.699
-425.573	88.617	-0.476	0.528
-424.559	-191.212	1.008	0.010
-423.544	-200.000	-0.752	-0.001
-422.530	350.524	0.133	0.263
-421.515	155.959	-0.398	-0.547
-420.500	24.427	-0.687	-0.567
-419.486	-200.000	-0.001	-0.043
-418.471	-200.000	0.006	-0.061
-417.457	-200.000	-0.003	-0.135
-416.442	83.742	0.174	0.189
-415.428	-171.067	0.243	0.008
-414.413	-87.804	0.549	-0.165
-413.398	-94.145	0.204	-0.056
-412.384	95.943	-0.046	-0.053
-411.369	306.861	0.359	-0.667
-410.355	-65.208	0.447	0.180
-409.340	133.281	-0.223	0.287
-408.325	-91.641	-0.499	-0.142
-407.311	-63.292	-0.171	-0.070
-406.296	-45.074	-0.756	0.375
-405.282	324.313	-0.281	0.534
-404.267	-68.094	-0.667	0.259
-403.252	-84.667	0.224	-0.070
-402.238	-96.312	-0.626	-0.165
-401.223	769.648	0.131	0.357
-400.209	800.000	-0.089	-0.377
-399.194	172.744	0.310	-0.445
-398.179	-200.000	-0.004	0.441
-397.165	-94.639	0.777	-0.211
-396.150	-107.412	0.528	-0.116
-395.136	-72.173	-0.928	0.343
-394.121	-85.289	0.323	0.101
-393.106	391.897	0.436	0.903
-392.092	159.261	0.212	0.293
-391.077	-148.679	0.422	0.034
-390.063	47.722	-0.315	0.293
-389.048	331.865	0.159	-0.306
-388.033	155.730	0.054	-0.074
-387.019	354.357	-0.275	-0.544
-386.004	-141.593	-0.675	-0.068
-384.990	-179.519	1.097	0.024
-383.975	177.211	-0.056	0.081
-382.960	-96.073	-0.642	-0.170
-381.946	-0.073	0.579	0.411
-380.931	41.856	-0.378	0.341
-379.917	-178.013	-0.483	0.011
-378.902	-134.633	0.622	-0.076
-377.888	97.546	0.378	-0.433
-376.873	-200.000	-0.187	-0.856
-375.858	-200.000	-0.099	0.582
-374.844	-19.232	-0.805	-0.498
-373.829	-140.361	0.660	0.069
-372.815	187.176	-0.121	0.180
-371.800	-200.000	-0.119	0.675
-370.785	800.000	-0.200	-0.562
-369.771	800.000	-0.261	-0.909
-368.756	141.510	0.461	-0.608
-367.742	147.308	0.342	0.459
-366.727	-124.929	0.881	0.135
-365.712	-200.000	0.043	0.422
-364.698	164.270	-0.424	-0.594
-363.683	4.351	0.251	-0.183
-362.669	37.488	-0.308	0.272
-361.654	-136.883	1.041	-0.119
-360.639	-42.813	0.283	-0.143
-359.625	-200.000	0.055	-0.406
-358.610	-77.643	-0.687	-0.237
-357.596	-171.549	0.099	0.003
-356.581	-122.535	-0.979	-0.158
-355.566	-94.444	0.668	-0.181
-354.552	13.767	0.830	0.642
-353.537	-93.333	-0.254	0.070
-352.523	331.746	0.115	-0.221
-351.508	-200.000	0.115	0.523
-350.493	-200.000	-0.080	-0.493
-349.479	-87.780	-0.496	0.149
-348.464	24.993	-0.506	-0.417
-347.450	-143.432	0.674	0.064
-346.435	-200.000	-0.178	-0.964
-345.420	105.716	0.316	0.372
-344.406	-200.000	0.096	1.156
-343.391	800.000	0.080	0.227
-342.377	-39.682	0.423	-0.220
-341.362	-165.204	-0.197	0.009
-340.348	-19.597	-0.947	-0.583
-339.333	764.028	0.202	0.547
-338.318	192.060	-0.384	0.576
-337.304	-8.210	0.599	-0.402
-336.289	800.000	0.134	0.534
-335.275	-132.744	0.627	0.080
-334.260	-200.000	0.007	0.797
-333.245	60.123	-0.325	-0.319
-332.231	233.276	0.367	0.601
-331.216	-169.082	0.497	0.018
-330.202	-200.000	0.135	-0.885
-329.187	-73.978	-0.832	-0.300
-328.172	503.338	-0.027	-0.063
-327.158	134.175	-0.262	0.338
-326.143	-23.921	0.209	-0.124
-325.129	577.671	-0.416	-1.011
-324.114	626.347	0.211	-0.530
-323.099	-24.963	-0.412	0.243
-322.085	348.585	-0.129	-0.252
-321.070	-200.000	-0.015	0.203
-320.056	181.749	-0.229	-0.335
-319.041	25.043	0.608	0.501
-318.026	-85.428	0.401	0.124
-317.012	800.000	-0.045	0.170
-315.997	121.020	-0.612	-0.757
-314.983	524.086	-0.213	-0.497
-313.968	-43.189	0.443	0.223
-312.953	800.000	0.313	0.858
-311.939	385.875	0.152	0.311
-310.924	-58.600	-0.175	0.075
-309.910	67.163	-0.356	0.360
-308.895	-160.256	-0.694	-0.037
-307.880	172.711	-0.199	-0.284
-306.866	441.106	-0.212	0.461
-305.851	131.646	0.198	-0.253
-304.837	66.540	-0.471	0.476
-303.822	-200.000	-0.010	0.087
-302.807	159.685	-0.643	-0.889
-301.793	-21.909	-0.919	-0.555
-300.778	-40.340	0.279	-0.144
-299.764	82.093	0.349	-0.376
-298.749	-197.140	0.369	-0.002
-297.735	-200.000	0.007	-0.111
-296.720	-23.636	0.752	-0.448
-295.705	-28.263	0.220	0.126
-294.691	-200.000	0.062	0.743
-293.676	95.710	0.400	0.453
-292.662	800.000	-0.144	0.414
-291.647	-134.770	-0.609	-0.073
-290.632	-200.000	-0.038	0.643
-289.618	800.000	-0.304	1.074
-288.603	81.562	-0.485	0.521
-287.589	-200.000	0.017	-0.879
-286.574	58.537	0.099	0.097
-285.559	774.344	-0.043	-0.117
-284.545	-200.000	0.015	-0.564
-283.530	786.849	0.297	0.809
-282.516	86.219	-0.490	0.536
-281.501	578.312	-0.259	-0.628
-280.486	88.286	-0.474	0.523
-279.472	-72.062	0.488	-0.180
-278.457	-74.299	-0.572	-0.205
-277.443	309.844	0.056	0.104
-276.428	247.723	0.198	0.332
-275.413	-92.743	-0.583	0.162
-274.399	-200.000	-0.091	0.490
-273.384	-200.000	-0.009	-0.167
-272.370	-97.347	-0.130	-0.034
-271.355	466.267	-0.423	0.939
-270.340	800.000	0.113	-0.325
-269.326	800.000	-0.275	-0.853
-268.311	-40.906	0.520	-0.267
-267.297	-144.420	0.159	0.015
-266.282	-59.406	0.243	-0.104
-265.267	-94.922	-0.285	-0.077
-264.253	-200.000	-0.111	0.489
-263.238	800.000	0.186	0.569
-262.224	105.498	-0.531	-0.623
-261.209	309.289	0.423	0.783
-260.195	-84.717	0.869	-0.271
-259.180	-62.253	-0.585	-0.242
-258.165	6.307	0.370	0.272
-257.151	32.758	0.423	0.363
-256.136	26.816	-0.343	0.285
-255.122	139.510	0.539	0.703
-254.107	800.000	0.436	-1.680
-253.092	253.393	0.382	-0.647
-252.078	-69.602	-0.272	0.103
-251.063	-98.718	-0.228	0.057
-250.049	-5.554	-0.200	0.136
-249.034	593.984	0.228	0.558
-248.019	-102.321	0.016	-0.004
-247.005	800.000	-0.257	-0.869
-245.990	-117.760	-0.598	0.107
-244.976	289.102	0.274	-0.492
-243.961	-144.529	-0.329	-0.030
-242.946	43.153	-0.323	-0.292
-241.932	18.110	-0.271	0.214
-240.917	345.576	-0.528	1.029
-239.903	193.396	0.391	-0.587
-238.888	61.555	0.410	-0.404
-237.873	78.552	-0.279	0.295
-236.859	-65.685	0.361	0.143
-235.844	77.623	-0.134	-0.141
-234.830	-104.430	-0.164	0.038
-233.815	-200.000	-0.012	-0.224
-232.800	-116.581	0.791	0.144
-231.786	-200.000	0.060	-0.321
-230.771	-200.000	-0.086	0.603
-229.757	633.368	0.181	0.455
-228.742	715.607	0.242	0.636
-227.727	241.530	0.061	0.101
-226.713	62.120	0.496	-0.490
-225.698	-160.822	0.302	0.016
-224.684	72.685	-0.325	-0.336
-223.669	72.753	0.304	0.314
-222.655	-56.656	-0.606	0.266
-221.640	-200.000	0.067	0.694
-220.625	-11.964	-0.193	-0.126
-219.611	-159.178	0.875	-0.049
-218.596	-14.372	0.280	-0.178
-217.582	208.949	0.195	-0.303
-216.567	-42.138	-1.263	0.640
-215.552	-56.414	-0.668	-0.294
-214.538	-200.000	0.043	0.225
-213.523	-164.536	-0.449	0.020
-212.509	-200.000	-0.009	0.354
-211.494	800.000	-0.096	-0.328
-210.479	800.000	-0.174	-0.524
-209.465	-176.364	0.492	-0.013
-208.450	304.470	-0.501	-0.921
-207.436	-1.846	0.229	-0.159
-206.421	479.503	-0.094	0.211
-205.406	-19.769	0.227	0.139
-204.392	342.339	-0.373	-0.722
-203.377	-200.000	0.072	1.168
-202.363	97.005	0.352	0.400
-201.348	263.718	0.287	0.494
-200.333	-8.897	-0.550	0.364
-199.319	-13.390	0.231	-0.148
-198.304	-200.000	-0.112	0.650
-197.290	-85.260	0.914	-0.283
-196.275	800.000	0.169	0.481
-195.260	668.374	-0.209	-0.536
-194.246	-200.000	0.011	0.286
-193.231	-155.101	-0.451	0.029
-192.217	-62.298	-0.353	0.145
-191.202	20.753	0.629	-0.504
-190.187	277.242	0.270	0.476
-189.173	75.238	0.213	0.222
-188.158	-43.841	0.274	0.136
-187.144	-22.524	-0.046	-0.027
-186.129	-141.107	0.296	0.030
-185.114	-44.032	-0.220	-0.109
-184.100	-29.790	0.444	-0.250
-183.085	115.659	0.062	0.076
-182.071	89.848	0.283	-0.312
-181.056	-41.280	-0.469	0.239
-180.042	-46.499	-0.828	0.402
-179.027	-13.291	0.913	-0.586
-178.012	-200.000	0.084	-0.541
-176.998	199.121	-0.245	0.370
-175.983	-200.000	0.006	-0.091
-174.969	-117.352	0.465	0.083
-173.954	800.000	-0.185	0.639
-172.939	-66.304	0.451	0.178
-171.925	383.597	-0.379	0.770
-170.910	-13.283	0.037	-0.023
-169.896	120.296	0.360	-0.442
-168.881	770.510	0.163	-0.438
-167.866	90.095	-0.467	-0.516
-166.852	234.470	-0.545	0.888
-165.837	-138.430	0.327	0.036
-164.823	-152.394	0.347	0.025
-163.808	-200.000	-0.041	-0.199
-162.793	-59.393	-0.135	-0.058
-161.779	800.000	-0.157	-0.602
-160.764	159.742	0.488	-0.671
-159.750	-200.000	-0.088	0.599
-158.735	-103.766	-0.911	0.211
-157.720	-79.206	-0.422	-0.141
-156.706	-104.665	0.480	-0.109
-155.691	72.684	-0.539	0.556
-154.677	-85.827	-0.656	0.201
-153.662	-45.111	-0.787	-0.386
-152.647	-200.000	0.049	0.309
-151.633	-6.951	0.382	0.256
-150.618	-99.694	0.658	-0.163
-149.604	437.832	-0.259	0.557
-148.589	-92.303	1.412	0.393
-147.574	800.000	-0.061	0.225
-146.560	55.535	-0.687	0.657
-145.545	-200.000	0.116	-0.524
-144.531	-121.929	-0.308	-0.050
-143.516	-64.249	0.268	0.108
-142.502	-0.699	0.314	-0.220
-141.487	-169.919	-0.290	0.010
-140.472	117.384	-0.286	-0.347
-139.458	258.166	0.159	-0.271
-138.443	-145.567	0.691	-0.061
-137.429	-0.172	0.493	0.346
-136.414	270.184	0.240	-0.417
-135.399	-73.549	-0.945	-0.340
-134.385	165.841	0.288	0.402
-133.370	-60.083	0.183	0.077
-132.356	-149.180	1.349	0.107
-131.341	-22.817	0.340	0.202
-130.326	-72.059	0.456	-0.167
-129.312	-200.000	-0.071	-0.598
-128.297	-11.945	-0.278	0.180
-127.283	-25.792	-0.526	0.306
-126.268	800.000	-0.135	0.534
-125.253	-122.674	1.142	-0.182
-124.239	-200.000	-0.014	-0.638
-123.224	-6.200	0.234	-0.158
-122.210	-200.000	0.070	-0.379
-121.195	-118.577	-0.154	0.027
