DTS Sentinel unit serial number:	SN413079Multiplexer serial number:	ORYXHardware model number:	OX4-SRSoftware version number:	ORYX F/W v4.00 Oryx Data Collector v3.7.2.0data status	okinstallation	princeton_trtdifferential loss correction	single-endedforward channel	channel 1reverse channel	N/Adate	2019/09/14time	09:14:35forward acquisition time	60.00reverse acquisition time	0.00gamma	496.2192k internal	0.2325k external	0.2325temperature offset calibration	1.0069default loss term (dB/km)	0.3790temperature slope calibration	1.0000multiplexer offset coefficient	1.0000multiplexer slope coefficient	1.0000fibre end	0.00T internal ref (°C)	30.69T ext. ref 1 (°C)	3.78T ext. ref 2 (°C)	28.50length (m)	temperature (°C)	Stokes	anti-Stokes-747.200	64.633	0.131	0.134
-746.185	-43.850	-0.159	0.081
-745.171	-200.000	0.030	0.137
-744.156	-3.716	-0.217	0.152
-743.142	3.879	-0.211	-0.155
-742.127	800.000	-0.053	0.204
-741.112	147.857	0.237	-0.323
-740.098	-200.000	0.048	0.250
-739.083	109.830	0.182	-0.220
-738.069	-85.911	0.207	-0.065
-737.054	-45.009	-0.152	0.076
-736.039	-91.122	-0.255	0.074
-735.025	-200.000	0.038	0.273
-734.010	-36.626	-0.247	0.134
-732.996	12.900	0.251	-0.196
-731.981	100.197	-0.241	-0.282
-730.966	495.448	0.036	0.082
-729.952	108.232	-0.194	-0.233
-728.937	-37.941	-0.415	-0.222
-727.923	9.699	-0.232	-0.177
-726.908	-64.099	-0.119	-0.049
-725.894	-136.401	0.018	0.002
-724.879	41.314	-0.239	-0.218
-723.864	800.000	0.033	-0.136
-722.850	-76.237	-0.315	0.112
-721.835	236.403	0.214	0.356
-720.821	109.062	0.171	0.206
-719.806	85.533	-0.156	-0.173
-718.791	537.293	0.064	-0.154
-717.777	-38.569	0.284	-0.151
-716.762	53.550	0.037	-0.035
-715.748	-138.494	0.171	-0.019
-714.733	99.883	-0.103	-0.120
-713.718	-96.303	0.339	-0.090
-712.704	-200.000	-0.001	-0.089
-711.689	-85.266	-0.508	0.160
-710.675	-200.000	-0.040	0.395
-709.660	-200.000	-0.000	-0.281
-708.645	800.000	-0.072	-0.211
-707.631	-200.000	-0.012	-0.283
-706.616	-44.532	0.118	0.059
-705.602	6.733	0.075	0.057
-704.587	176.223	0.040	-0.059
-703.572	-117.379	0.169	0.031
-702.558	-39.366	0.292	-0.154
-701.543	800.000	0.065	-0.213
-700.529	128.048	-0.156	-0.200
-699.514	790.363	0.072	-0.199
-698.499	10.722	-0.391	0.301
-697.485	800.000	0.117	-0.328
-696.470	-102.689	-0.358	0.086
-695.456	712.540	0.030	-0.080
-694.441	-200.000	0.041	-0.294
-693.426	376.913	-0.058	-0.118
-692.412	-14.952	-0.102	-0.066
-691.397	-191.576	-0.442	0.004
-690.383	339.019	0.288	0.565
-689.368	-104.156	0.066	0.015
-688.354	167.293	0.193	-0.276
-687.339	-84.782	0.228	-0.072
-686.324	-102.702	-0.081	0.019
-685.310	124.476	-0.090	-0.114
-684.295	8.311	-0.206	-0.156
-683.281	68.089	-0.132	-0.136
-682.266	361.399	-0.089	-0.180
-681.251	97.808	0.169	-0.196
-680.237	-136.332	0.417	0.049
-679.222	34.860	-0.075	0.066
-678.208	202.348	0.080	0.125
-677.193	-97.680	0.329	0.086
-676.178	-92.170	-0.400	-0.114
-675.164	602.438	0.129	-0.323
-674.149	86.163	-0.077	-0.085
-673.135	82.547	-0.248	-0.271
-672.120	-200.000	0.046	0.216
-671.105	57.354	0.187	0.184
-670.091	-16.869	0.079	0.050
-669.076	-200.000	-0.023	-0.271
-668.062	-33.780	0.278	-0.154
-667.047	446.213	-0.074	0.164
-666.032	-125.691	-0.116	-0.018
-665.018	111.545	0.160	0.195
-664.003	-99.461	-0.373	0.094
-662.989	-15.648	-0.222	-0.142
-661.974	-23.638	-0.074	0.044
-660.959	-200.000	-0.002	-0.169
-659.945	44.640	-0.353	-0.326
-658.930	79.444	-0.235	0.254
-657.916	-113.450	0.129	0.025
-656.901	800.000	0.034	0.105
-655.886	127.963	0.056	-0.072
-654.872	-162.863	0.252	-0.012
-653.857	-63.947	0.346	-0.142
-652.843	-171.134	-0.118	0.004
-651.828	-137.495	-0.445	0.051
-650.814	-199.231	-0.138	0.001
-649.799	-166.711	-0.209	-0.009
-648.784	7.642	0.193	-0.145
-647.770	-31.717	-0.059	-0.033
-646.755	28.996	0.134	-0.114
-645.741	-30.665	0.099	0.056
-644.726	-146.288	0.286	-0.025
-643.711	-115.934	-0.175	-0.033
-642.697	-200.000	0.031	-0.348
-641.682	177.904	-0.061	0.090
-640.668	-77.505	-0.233	0.081
-639.653	211.702	0.163	-0.258
-638.638	-105.638	-0.050	-0.011
-637.624	5.287	0.179	0.133
-636.609	-157.033	0.102	-0.006
-635.595	-200.000	0.029	0.290
-634.580	196.292	0.094	-0.144
-633.565	187.326	-0.129	0.194
-632.551	311.701	0.107	0.202
-631.536	-90.001	-0.213	0.062
-630.522	800.000	-0.075	-0.305
-629.507	56.674	-0.099	-0.097
-628.492	47.907	0.200	-0.188
-627.478	534.229	-0.130	-0.309
-626.463	371.525	-0.093	-0.189
-625.449	126.921	-0.024	0.030
-624.434	-85.481	0.039	0.012
-623.419	771.787	0.187	0.512
-622.405	-94.522	0.335	0.092
-621.390	-84.470	-0.148	0.047
-620.376	272.828	0.081	-0.143
-619.361	800.000	0.073	0.252
-618.346	-123.790	-0.091	0.014
-617.332	800.000	-0.063	-0.254
-616.317	79.200	0.142	0.153
-615.303	800.000	0.013	-0.042
-614.288	-64.870	-0.028	0.012
-613.273	-62.738	-0.144	-0.060
-612.259	-200.000	-0.001	0.023
-611.244	109.689	0.052	0.062
-610.230	1.820	0.169	0.122
-609.215	-200.000	0.020	-0.132
-608.201	-133.666	0.382	-0.048
-607.186	401.280	0.094	0.198
-606.171	-139.558	-0.475	0.051
-605.157	-25.802	-0.162	-0.096
-604.142	-200.000	-0.019	-0.218
-603.128	159.898	0.026	0.037
-602.113	-200.000	0.001	-0.257
-601.098	-37.409	-0.312	0.167
-600.084	-6.089	0.385	-0.264
-599.069	-200.000	0.031	-0.157
-598.055	-113.952	-0.187	0.036
-597.040	-38.026	0.234	-0.125
-596.025	800.000	0.120	-0.334
-595.011	-21.588	0.257	-0.157
-593.996	-102.547	-0.185	-0.044
-592.982	2.445	0.106	-0.077
-591.967	-96.942	-0.535	0.141
-590.952	458.866	0.069	0.155
-589.938	22.820	-0.067	-0.055
-588.923	77.153	0.089	0.095
-587.909	-200.000	-0.011	-0.184
-586.894	72.401	-0.154	-0.161
-585.879	191.164	0.173	0.261
-584.865	-148.567	0.099	-0.008
-583.850	-200.000	0.007	0.037
-582.836	-63.668	0.150	0.062
-581.821	462.455	-0.071	-0.158
-580.806	-85.267	-0.127	-0.040
-579.792	-200.000	0.039	0.622
-578.777	-52.139	-0.565	-0.263
-577.763	89.617	-0.305	0.341
-576.748	-49.439	0.198	-0.095
-575.733	40.324	-0.097	0.088
-574.719	-39.955	-0.181	0.095
-573.704	-200.000	0.003	-0.208
-572.690	-64.746	-0.392	0.159
-571.675	37.665	-0.267	0.238
-570.661	14.780	0.212	-0.166
-569.646	68.317	0.176	-0.181
-568.631	7.368	-0.042	0.031
-567.617	116.504	-0.102	-0.125
-566.602	277.512	-0.206	-0.367
-565.588	749.305	-0.122	0.331
-564.573	800.000	0.106	0.303
-563.558	30.733	-0.266	0.228
-562.544	-115.419	0.444	-0.084
-561.529	-21.899	0.299	-0.182
-560.515	-108.347	-0.223	-0.048
-559.500	-143.685	-0.328	-0.031
-558.485	54.407	0.259	-0.250
-557.471	-89.864	0.144	0.042
-556.456	204.949	0.166	0.259
-555.442	77.102	0.117	0.125
-554.427	156.522	0.201	-0.278
-553.412	-200.000	0.026	0.157
-552.398	-76.676	-0.214	0.075
-551.383	6.375	-0.386	0.287
-550.369	69.081	-0.188	-0.193
-549.354	-200.000	-0.029	0.301
-548.339	-145.510	0.166	0.015
-547.325	24.285	0.257	0.213
-546.310	60.243	-0.155	0.153
-545.296	400.313	0.037	-0.078
-544.281	800.000	-0.043	-0.172
-543.266	-134.104	0.280	-0.035
-542.252	91.339	0.179	-0.201
-541.237	73.626	0.340	-0.357
-540.223	800.000	-0.034	-0.105
-539.208	30.736	-0.194	-0.166
-538.193	-200.000	0.071	0.469
-537.179	-57.863	0.186	-0.081
-536.164	-12.981	-0.101	0.066
-535.150	-200.000	0.019	0.085
-534.135	13.585	0.154	-0.120
-533.121	-95.092	-0.208	-0.056
-532.106	-200.000	0.023	0.181
-531.091	30.638	-0.046	0.040
-530.077	177.325	-0.227	0.331
-529.062	-73.078	0.132	-0.048
-528.048	522.938	-0.119	-0.280
-527.033	-200.000	0.005	0.235
-526.018	163.345	-0.084	0.118
-525.004	-200.000	-0.017	-0.416
-523.989	-23.446	0.160	0.096
-522.975	433.083	0.152	0.329
-521.960	201.154	0.213	-0.327
-520.945	-49.362	0.233	-0.111
-519.931	-56.835	0.220	0.097
-518.916	361.195	-0.189	0.379
-517.902	234.649	0.227	0.374
-516.887	800.000	0.074	-0.206
-515.872	32.304	0.101	0.088
-514.858	800.000	0.101	0.328
-513.843	-175.364	0.166	-0.005
-512.829	18.825	0.127	-0.102
-511.814	243.417	0.031	-0.052
-510.799	-200.000	0.000	0.054
-509.785	-106.817	0.255	-0.057
-508.770	-126.384	-0.207	-0.031
-507.756	-200.000	0.026	0.123
-506.741	-20.184	0.201	-0.124
-505.726	-200.000	-0.021	-0.134
-504.712	-107.688	-0.422	-0.092
-503.697	616.158	-0.107	-0.269
-502.683	734.085	-0.108	0.288
-501.668	161.161	-0.069	0.096
-500.653	-127.310	-0.303	-0.044
-499.639	439.807	0.090	0.196
-498.624	160.101	-0.183	-0.255
-497.610	156.090	-0.103	0.142
-496.595	127.087	0.118	0.149
-495.581	-100.592	0.219	-0.054
-494.566	-69.833	0.071	0.027
-493.551	175.888	-0.168	-0.244
-492.537	-200.000	0.040	-0.295
-491.522	-88.883	-0.220	-0.065
-490.508	272.572	0.171	-0.301
-489.493	21.165	0.357	-0.289
-488.478	-200.000	0.033	-0.296
-487.464	-200.000	-0.007	-0.301
-486.449	-87.597	0.288	-0.087
-485.435	800.000	0.077	0.235
-484.420	141.706	-0.106	0.140
-483.405	800.000	-0.039	0.168
-482.391	152.830	-0.063	0.087
-481.376	-4.843	0.142	0.098
-480.362	800.000	-0.042	-0.178
-479.347	-166.651	0.375	-0.016
-478.332	-114.621	0.238	-0.046
-477.318	344.087	-0.036	-0.071
-476.303	-200.000	0.053	0.320
-475.289	245.049	-0.201	-0.338
-474.274	-115.505	-0.163	0.031
-473.259	-178.406	0.265	0.006
-472.245	-32.677	0.136	-0.076
-471.230	-114.795	-0.240	0.046
-470.216	102.792	0.148	0.173
-469.201	-48.782	0.010	0.005
-468.186	-200.000	-0.020	0.168
-467.172	61.263	-0.146	0.144
-466.157	643.000	0.069	-0.176
-465.143	-109.473	-0.100	0.021
-464.128	110.339	0.043	-0.052
-463.113	800.000	-0.115	-0.345
-462.099	800.000	-0.141	0.394
-461.084	800.000	-0.055	0.173
-460.070	249.133	0.137	0.232
-459.055	-200.000	0.008	-0.160
-458.040	-200.000	-0.020	-0.118
-457.026	264.434	-0.137	-0.238
-456.011	800.000	-0.043	0.130
-454.997	-47.588	0.377	0.183
-453.982	-164.892	-0.183	-0.008
-452.968	-138.371	0.270	0.030
-451.953	67.394	0.041	-0.041
-450.938	34.544	-0.087	-0.076
-449.924	-6.407	-0.058	0.039
-448.909	-200.000	-0.027	0.212
-447.895	32.089	-0.200	0.172
-446.880	127.945	-0.080	-0.101
-445.865	233.497	-0.127	0.208
-444.851	-102.865	-0.055	-0.013
-443.836	-120.967	0.429	-0.072
-442.822	58.037	-0.172	0.168
-441.807	583.463	0.100	0.245
-440.792	-87.965	0.211	0.063
-439.778	-113.374	0.430	-0.084
-438.763	-75.018	-0.096	0.034
-437.749	85.480	0.125	-0.137
-436.734	-140.634	-0.506	0.052
-435.719	-22.166	-0.245	0.148
-434.705	800.000	0.125	-0.370
-433.690	275.368	-0.123	-0.218
-432.676	800.000	-0.056	-0.187
-431.661	-5.643	0.256	0.175
-430.646	-71.215	0.174	0.065
-429.632	-43.680	-0.093	-0.047
-428.617	-68.408	0.247	-0.096
-427.603	-63.720	-0.368	0.151
-426.588	299.605	0.164	0.301
-425.573	86.643	-0.325	0.357
-424.559	-141.258	-0.112	0.011
-423.544	-200.000	-0.031	-0.307
-422.530	-53.307	0.264	0.120
-421.515	425.758	0.105	-0.226
-420.500	-65.173	-0.419	-0.168
-419.486	362.385	0.097	-0.194
-418.471	342.971	-0.192	0.376
-417.457	-90.465	0.466	-0.135
-416.442	278.403	-0.033	0.058
-415.428	-200.000	-0.007	0.114
-414.413	-120.454	0.092	0.016
-413.398	-55.996	-0.290	0.129
-412.384	194.234	0.154	-0.233
-411.369	338.363	-0.243	0.471
-410.355	-200.000	-0.005	-0.122
-409.340	-123.177	0.216	-0.034
-408.325	13.774	-0.084	0.065
-407.311	-39.538	0.291	-0.152
-406.296	18.167	0.151	-0.120
-405.282	-200.000	-0.002	0.330
-404.267	-200.000	0.066	0.335
-403.252	-200.000	-0.003	-0.045
-402.238	-18.253	-0.255	0.159
-401.223	-4.521	-0.128	-0.088
-400.209	-167.196	0.149	-0.006
-399.194	-128.875	-0.329	-0.046
-398.179	800.000	0.054	0.172
-397.165	-194.548	-0.356	0.003
-396.150	-96.448	0.159	0.042
-395.136	-92.986	-0.242	-0.067
-394.121	-200.000	-0.041	0.263
-393.106	95.447	-0.200	-0.227
-392.092	800.000	0.056	0.189
-391.077	229.054	0.125	0.202
-390.063	800.000	0.091	0.313
-389.048	786.044	0.070	-0.192
-388.033	-147.769	-0.325	0.027
-387.019	800.000	-0.058	0.165
-386.004	555.872	-0.169	0.405
-384.990	68.591	-0.108	0.110
-383.975	-89.170	0.246	0.072
-382.960	25.851	-0.170	-0.141
-381.946	635.687	0.066	0.166
-380.931	-91.823	-0.190	0.054
-379.917	-135.596	0.102	0.012
-378.902	-111.462	0.322	0.065
-377.888	-32.415	0.174	-0.096
-376.873	716.856	0.112	-0.297
-375.858	242.043	-0.113	-0.188
-374.844	145.507	0.235	-0.313
-373.829	-134.678	-0.315	-0.038
-372.815	-95.619	0.362	-0.096
-371.800	381.140	-0.064	-0.131
-370.785	-0.405	0.356	-0.252
-369.771	-200.000	0.005	-0.030
-368.756	-72.463	-0.283	-0.104
-367.742	129.436	0.185	0.235
-366.727	-8.836	0.148	0.099
-365.712	-200.000	-0.004	0.068
-364.698	-140.607	-0.128	0.013
-363.683	800.000	-0.172	-0.478
-362.669	160.109	-0.083	-0.115
-361.654	119.233	0.104	-0.128
-360.639	114.003	0.133	-0.161
-359.625	-200.000	0.030	-0.315
-358.610	171.152	0.167	0.238
-357.596	-169.559	0.067	0.002
-356.581	-200.000	0.011	-0.423
-355.566	-4.949	-0.028	-0.019
-354.552	177.277	0.164	0.237
-353.537	58.215	0.035	-0.034
-352.523	-120.497	0.342	0.058
-351.508	-95.709	-0.083	0.022
-350.493	5.164	-0.185	-0.135
-349.479	141.045	0.228	-0.300
-348.464	800.000	-0.039	0.148
-347.450	-28.044	-0.274	-0.158
-346.435	165.965	0.107	-0.151
-345.420	-200.000	0.012	-0.062
-344.406	-21.100	0.196	-0.119
-343.391	-200.000	0.062	0.288
-342.377	-168.220	-0.239	-0.009
-341.362	-105.067	0.190	-0.043
-340.348	629.000	-0.055	-0.139
-339.333	155.469	0.087	-0.119
-338.318	30.862	0.121	-0.103
-337.304	-200.000	-0.014	0.174
-336.289	-32.946	0.169	-0.093
-335.275	418.044	0.096	0.203
-334.260	-22.817	-0.174	0.104
-333.245	-111.017	-0.173	0.035
-332.231	800.000	0.060	-0.171
-331.216	77.802	-0.116	-0.122
-330.202	-57.944	0.139	0.060
-329.187	21.569	0.186	0.151
-328.172	-100.968	-0.278	-0.068
-327.158	-59.925	0.114	0.048
-326.143	-74.981	-0.266	-0.095
-325.129	2.497	0.163	-0.117
-324.114	-200.000	-0.004	0.024
-323.099	-87.183	-0.195	-0.059
-322.085	62.780	0.065	0.064
-321.070	177.301	0.164	0.236
-320.056	-100.794	-0.192	0.047
-319.041	-112.849	-0.143	-0.028
-318.026	-200.000	-0.013	-0.068
-317.012	-53.775	0.188	-0.085
-315.997	-38.406	-0.327	0.172
-314.983	335.296	0.107	0.206
-313.968	511.443	0.099	0.229
-312.953	106.577	0.173	0.203
-311.939	539.067	-0.130	-0.307
-310.924	-12.872	-0.130	-0.084
-309.910	-80.734	0.086	0.028
-308.895	207.574	0.048	-0.074
-307.880	177.125	0.158	-0.228
-306.866	-119.385	-0.365	0.063
-305.851	-70.328	0.082	-0.031
-304.837	-17.510	-0.195	-0.121
-303.822	800.000	-0.046	0.185
-302.807	-77.501	-0.196	-0.067
-301.793	-165.963	-0.455	0.019
-300.778	271.800	0.187	-0.327
-299.764	-29.035	-0.215	-0.122
-298.749	789.503	0.111	-0.303
-297.735	-45.780	-0.282	-0.138
-296.720	77.711	-0.079	0.084
-295.705	364.680	0.112	0.223
-294.691	800.000	-0.076	0.290
-293.676	-20.141	0.071	0.043
-292.662	-58.366	-0.009	-0.004
-291.647	-101.771	0.158	-0.038
-290.632	16.103	-0.401	-0.313
-289.618	-94.001	0.022	-0.006
-288.603	185.354	0.130	0.191
-287.589	-200.000	0.009	0.259
-286.574	-200.000	0.038	0.239
-285.559	705.517	-0.024	-0.063
-284.545	-37.602	0.286	0.151
-283.530	305.495	-0.179	-0.329
-282.516	-59.856	0.248	-0.105
-281.501	-200.000	0.021	0.325
-280.486	-200.000	0.018	0.257
-279.472	393.355	0.228	-0.470
-278.457	239.569	0.051	-0.084
-277.443	-200.000	-0.010	-0.120
-276.428	83.468	-0.019	-0.021
-275.413	169.243	0.097	0.137
-274.399	-68.933	0.062	0.024
-273.384	800.000	0.063	0.256
-272.370	-118.168	0.273	0.048
-271.355	-61.607	-0.157	-0.065
-270.340	-200.000	0.045	0.232
-269.326	-199.280	-0.254	0.001
-268.311	-200.000	0.004	0.050
-267.297	64.576	-0.216	0.216
-266.282	-200.000	0.004	0.202
-265.267	94.139	0.140	-0.158
-264.253	-200.000	-0.002	0.086
-263.238	-85.056	0.081	-0.025
-262.224	800.000	0.122	-0.364
-261.209	-200.000	-0.003	0.126
-260.195	-78.117	-0.247	0.084
-259.180	-6.310	-0.142	0.096
-258.165	30.269	-0.171	-0.144
-257.151	89.961	-0.183	-0.203
-256.136	-200.000	0.007	0.243
-255.122	-70.441	-0.129	0.048
-254.107	-83.760	-0.154	-0.049
-253.092	114.558	-0.231	-0.279
-252.078	215.920	0.177	0.278
-251.063	-19.823	-0.156	-0.095
-250.049	-57.123	-0.090	-0.039
-249.034	-200.000	-0.218	-0.001
-248.019	-122.127	-0.095	-0.015
-247.005	-40.549	-0.109	0.056
-245.990	-135.856	-0.172	0.020
-244.976	144.025	-0.018	0.024
-243.961	10.921	-0.223	0.169
-242.946	140.908	-0.223	-0.291
-241.932	-127.836	-0.401	-0.057
-240.917	52.470	0.048	-0.046
-239.903	79.031	0.194	-0.206
-238.888	-200.000	0.004	0.161
-237.873	-200.000	0.009	0.178
-236.859	216.360	0.209	0.329
-235.844	-40.996	0.040	0.021
-234.830	-75.412	-0.057	-0.020
-233.815	-52.611	0.305	-0.139
-232.800	-79.435	-0.295	-0.099
-231.786	-41.674	0.318	-0.162
-230.771	136.950	-0.023	0.030
-229.757	478.450	0.161	-0.361
-228.742	-36.265	-0.064	0.034
-227.727	83.607	0.087	-0.094
-226.713	129.583	-0.070	-0.089
-225.698	-143.916	-0.257	-0.024
-224.684	-200.000	0.005	0.233
-223.669	316.309	-0.074	-0.138
-222.655	-38.098	0.054	0.028
-221.640	-200.000	-0.004	0.251
-220.625	-60.221	0.142	0.060
-219.611	-89.404	-0.139	-0.040
-218.596	800.000	-0.018	0.068
-217.582	-16.957	-0.262	-0.164
-216.567	274.403	-0.056	0.099
-215.552	-200.000	-0.020	-0.158
-214.538	456.246	0.053	-0.116
-213.523	-115.623	-0.258	0.048
-212.509	459.039	-0.056	0.123
-211.494	116.895	0.033	-0.040
-210.479	104.315	-0.107	-0.125
-209.465	32.055	0.173	-0.147
-208.450	-183.596	0.410	0.007
-207.436	800.000	0.047	0.135
-206.421	14.102	0.104	0.080
-205.406	-32.932	-0.155	-0.085
-204.392	144.756	-0.177	-0.234
-203.377	-200.000	-0.066	0.350
-202.363	-200.000	0.019	0.169
-201.348	63.750	0.183	0.181
-200.333	-35.350	-0.074	-0.040
-199.319	176.421	-0.177	-0.254
-198.304	94.871	-0.089	0.100
-197.290	-130.458	-0.264	-0.035
-196.275	-7.006	-0.241	0.162
-195.260	-179.564	-0.293	-0.006
-194.246	396.649	0.131	0.271
-193.231	174.208	-0.040	0.057
-192.217	-112.083	0.261	0.052
-191.202	160.931	0.024	0.033
-190.187	-200.000	0.005	0.118
-189.173	134.010	-0.032	0.041
-188.158	416.941	-0.085	-0.180
-187.144	321.096	-0.075	-0.141
-186.129	-164.010	0.391	0.018
-185.114	-43.550	0.301	0.150
-184.100	-18.627	0.199	0.123
-183.085	-200.000	-0.027	0.257
-182.071	100.825	-0.169	0.194
-181.056	780.313	0.023	0.062
-180.042	-31.932	0.166	-0.092
-179.027	-200.000	0.005	-0.129
-178.012	397.657	0.132	0.272
-176.998	-200.000	0.026	-0.406
-175.983	59.883	0.153	0.149
-174.969	-200.000	0.067	-0.434
-173.954	410.744	0.113	-0.237
-172.939	-88.918	-0.098	-0.029
-171.925	-12.690	0.211	-0.136
-170.910	38.109	-0.033	-0.029
-169.896	74.052	-0.167	0.173
-168.881	-139.708	0.260	-0.027
-167.866	172.141	-0.207	-0.293
-166.852	66.639	-0.045	0.045
-165.837	-54.816	0.218	0.097
-164.823	-200.000	0.025	0.218
-163.808	721.185	0.079	-0.207
-162.793	800.000	0.048	-0.162
-161.779	-144.716	-0.255	0.023
-160.764	443.137	0.053	-0.115
-159.750	-66.253	-0.097	-0.038
-158.735	22.585	-0.149	0.120
-157.720	-163.432	0.234	0.011
-156.706	-112.070	-0.187	-0.037
-155.691	-200.000	-0.006	0.113
-154.677	-18.228	0.181	-0.111
-153.662	-37.281	0.375	0.197
-152.647	-72.318	-0.222	0.081
-151.633	249.968	-0.038	0.064
-150.618	-63.553	0.144	0.058
-149.604	-104.220	-0.150	-0.034
-148.589	-121.315	0.344	-0.057
-147.574	-77.542	0.264	-0.090
-146.560	147.498	0.184	0.244
-145.545	-64.458	-0.143	-0.057
-144.531	-200.000	0.005	-0.234
-143.516	-48.239	0.377	0.179
-142.502	-155.969	0.381	-0.024
-141.487	-200.000	-0.022	-0.094
-140.472	-158.389	-0.155	-0.009
-139.458	-8.920	-0.177	-0.117
-138.443	-148.680	0.123	0.010
-137.429	297.769	0.155	-0.281
-136.414	24.304	0.123	0.100
-135.399	800.000	-0.058	-0.246
-134.385	240.750	0.079	0.130
-133.370	325.283	0.072	-0.135
-132.356	496.155	-0.067	-0.152
-131.341	800.000	-0.019	0.071
-130.326	1.351	0.122	0.086
-129.312	-200.000	0.003	0.071
-128.297	-7.310	-0.255	0.170
-127.283	166.645	0.075	-0.105
-126.268	26.292	-0.190	0.157
-125.253	-0.254	-0.081	-0.057
-124.239	-70.929	0.143	0.053
-123.224	-200.000	0.007	0.044
-122.210	-2.364	0.062	0.043
-121.195	738.940	0.045	-0.118
