DTS Sentinel unit serial number:	SN413079Multiplexer serial number:	ORYXHardware model number:	OX4-SRSoftware version number:	ORYX F/W v4.00 Oryx Data Collector v3.7.2.0data status	okinstallation	princeton_trtdifferential loss correction	single-endedforward channel	channel 1reverse channel	N/Adate	2019/09/13time	10:46:35forward acquisition time	60.00reverse acquisition time	0.00gamma	496.2192k internal	0.2320k external	0.2320temperature offset calibration	1.0154default loss term (dB/km)	0.3790temperature slope calibration	1.0000multiplexer offset coefficient	1.0000multiplexer slope coefficient	1.0000fibre end	0.00T internal ref (°C)	31.58T ext. ref 1 (°C)	4.59T ext. ref 2 (°C)	28.32length (m)	temperature (°C)	Stokes	anti-Stokes-747.200	781.702	0.034	-0.095
-746.185	35.332	-0.040	0.036
-745.171	-157.856	-0.306	-0.018
-744.156	-200.000	-0.034	0.175
-743.142	-200.000	-0.018	0.187
-742.127	55.596	-0.289	0.283
-741.112	-61.788	0.127	0.054
-740.098	-95.947	0.290	-0.078
-739.083	226.873	-0.292	-0.479
-738.069	379.754	-0.146	0.303
-737.054	272.369	0.053	-0.094
-736.039	800.000	-0.076	0.246
-735.025	-56.797	-0.150	0.067
-734.010	-159.353	-0.278	0.016
-732.996	-200.000	-0.002	-0.239
-731.981	-200.000	0.001	-0.178
-730.966	-32.781	-0.296	-0.166
-729.952	-73.652	0.150	-0.055
-728.937	411.357	-0.075	-0.161
-727.923	-200.000	0.010	-0.222
-726.908	36.968	-0.258	0.230
-725.894	-150.326	-0.626	-0.049
-724.879	-155.912	-0.310	-0.020
-723.864	-200.000	-0.028	-0.249
-722.850	187.233	-0.096	0.145
-721.835	90.170	0.198	-0.224
-720.821	-200.000	0.062	-0.304
-719.806	8.219	-0.469	-0.356
-718.791	98.089	0.249	0.290
-717.777	92.676	-0.141	-0.161
-716.762	-3.249	-0.087	0.061
-715.748	268.781	-0.054	0.095
-714.733	54.755	-0.162	-0.157
-713.718	-116.167	-0.326	0.061
-712.704	-71.348	0.254	0.096
-711.689	779.012	0.046	-0.127
-710.675	-91.985	-0.143	0.041
-709.660	-200.000	-0.014	-0.229
-708.645	800.000	-0.072	0.243
-707.631	800.000	-0.051	-0.202
-706.616	197.941	0.048	0.075
-705.602	128.463	0.226	-0.291
-704.587	62.840	-0.400	-0.404
-703.572	-200.000	0.015	0.317
-702.558	157.624	0.288	-0.403
-701.543	-200.000	-0.035	-0.338
-700.529	-200.000	-0.046	-0.279
-699.514	-88.322	-0.220	0.066
-698.499	-100.168	-0.385	0.097
-697.485	121.235	-0.092	0.116
-696.470	95.627	-0.123	-0.141
-695.456	98.213	0.207	-0.240
-694.441	64.153	-0.103	0.105
-693.426	-45.468	-0.239	-0.119
-692.412	-137.950	-0.148	0.017
-691.397	-59.644	-0.228	-0.099
-690.383	-128.558	-0.274	0.039
-689.368	369.954	0.134	0.274
-688.354	-93.957	-0.272	-0.076
-687.339	342.506	-0.077	-0.152
-686.324	418.058	-0.189	0.408
-685.310	800.000	0.072	0.253
-684.295	22.049	-0.139	-0.115
-683.281	115.414	0.090	0.111
-682.266	99.125	-0.211	0.246
-681.251	800.000	0.079	-0.238
-680.237	41.294	0.055	-0.050
-679.222	380.665	0.068	0.140
-678.208	141.007	-0.182	-0.242
-677.193	201.426	-0.064	0.099
-676.178	-97.505	0.324	-0.085
-675.164	113.788	-0.078	-0.095
-674.149	-200.000	0.020	0.136
-673.135	172.870	-0.181	0.263
-672.120	800.000	0.059	-0.203
-671.105	79.115	0.134	0.145
-670.091	134.256	0.088	-0.115
-669.076	-129.435	-0.128	0.018
-668.062	32.033	-0.147	-0.128
-667.047	7.195	-0.181	-0.136
-666.032	-49.170	0.292	0.141
-665.018	-126.283	0.191	-0.029
-664.003	800.000	0.023	0.094
-662.989	14.245	0.402	0.316
-661.974	-3.514	0.215	0.151
-660.959	-200.000	0.037	-0.365
-659.945	-200.000	-0.012	-0.064
-658.930	-23.491	0.358	0.216
-657.916	-86.438	0.249	-0.077
-656.901	-189.462	-0.186	0.002
-655.886	195.458	0.278	-0.425
-654.872	163.533	-0.074	0.105
-653.857	300.530	0.082	-0.152
-652.843	112.014	0.092	-0.112
-651.828	648.269	0.040	-0.103
-650.814	-123.719	0.142	0.023
-649.799	98.879	-0.123	0.143
-648.784	-171.586	-0.144	-0.005
-647.770	310.676	0.048	0.091
-646.755	326.444	-0.151	0.290
-645.741	-119.450	-0.327	0.057
-644.726	-75.599	-0.110	0.039
-643.711	557.867	0.035	0.086
-642.697	-200.000	0.005	-0.149
-641.682	-140.212	-0.199	-0.021
-640.668	-141.364	-0.183	0.019
-639.653	424.483	0.074	0.161
-638.638	66.096	-0.071	0.072
-637.624	-20.817	0.005	-0.003
-636.609	-200.000	0.037	-0.230
-635.595	-200.000	-0.016	-0.342
-634.580	-119.601	0.193	0.034
-633.565	-174.392	0.160	-0.005
-632.551	-94.936	-0.094	0.026
-631.536	-154.829	0.114	-0.008
-630.522	124.940	-0.238	-0.301
-629.507	-19.562	-0.229	0.143
-628.492	18.430	0.082	-0.066
-627.478	-200.000	-0.031	-0.156
-626.463	-56.978	0.222	0.099
-625.449	81.061	-0.108	0.117
-624.434	-30.657	-0.116	-0.066
-623.419	800.000	0.072	-0.252
-622.405	800.000	-0.048	-0.191
-621.390	145.586	-0.160	0.215
-620.376	44.239	0.016	-0.015
-619.361	-7.110	0.452	-0.309
-618.346	-86.115	-0.112	-0.035
-617.332	160.645	-0.323	-0.454
-616.317	-75.510	-0.275	0.098
-615.303	-99.766	-0.445	0.112
-614.288	192.503	0.190	0.289
-613.273	-200.000	-0.048	0.309
-612.259	37.430	-0.039	0.035
-611.244	-129.040	-0.098	0.014
-610.230	-85.021	0.160	0.050
-609.215	800.000	-0.075	0.216
-608.201	357.343	0.033	0.067
-607.186	21.539	0.141	0.115
-606.171	-20.861	0.307	0.189
-605.157	-5.577	-0.209	0.144
-604.142	98.768	-0.149	0.172
-603.128	68.075	-0.062	-0.063
-602.113	163.937	0.067	-0.095
-601.098	-44.075	0.263	-0.133
-600.084	12.291	-0.338	-0.262
-599.069	-78.509	-0.322	0.111
-598.055	290.254	0.101	-0.184
-597.040	-83.497	-0.239	0.077
-596.025	-49.707	-0.192	0.092
-595.011	4.185	0.312	0.230
-593.996	-27.658	-0.139	0.081
-592.982	58.481	-0.014	0.013
-591.967	132.904	-0.083	-0.108
-590.952	-200.000	0.034	0.241
-589.938	-200.000	-0.030	-0.261
-588.923	-0.444	0.243	-0.173
-587.909	-200.000	0.002	0.112
-586.894	265.313	-0.260	0.455
-585.879	16.069	0.113	0.089
-584.865	-8.966	-0.184	-0.124
-583.850	800.000	-0.047	-0.161
-582.836	-154.435	-0.639	0.043
-581.821	-200.000	0.001	-0.156
-580.806	-116.011	0.301	-0.056
-579.792	-200.000	-0.022	0.262
-578.777	110.392	0.070	0.085
-577.763	-136.969	0.181	-0.021
-576.748	-103.616	-0.096	0.023
-575.733	447.963	-0.088	0.194
-574.719	112.926	-0.125	-0.152
-573.704	73.026	-0.042	-0.044
-572.690	27.499	0.262	0.221
-571.675	727.985	-0.019	-0.052
-570.661	-54.958	-0.321	-0.145
-569.646	-78.030	-0.234	-0.081
-568.631	102.376	-0.047	-0.055
-567.617	800.000	-0.028	-0.081
-566.602	690.578	0.109	-0.286
-565.588	-105.946	0.195	0.044
-564.573	526.635	-0.051	0.120
-563.558	-71.705	-0.233	0.087
-562.544	-4.708	0.079	0.055
-561.529	13.339	-0.294	-0.229
-560.515	633.614	0.042	0.106
-559.500	8.067	0.157	0.118
-558.485	476.393	0.103	-0.234
-557.471	647.310	-0.063	-0.161
-556.456	-200.000	0.020	-0.195
-555.442	154.665	-0.174	-0.240
-554.427	-85.313	0.243	0.076
-553.412	-200.000	0.024	0.250
-552.398	-109.434	-0.305	-0.065
-551.383	-86.754	-0.111	0.034
-550.369	-200.000	-0.035	-0.229
-549.354	800.000	0.077	0.323
-548.339	52.818	0.081	0.077
-547.325	399.681	-0.146	-0.306
-546.310	-58.030	-0.099	-0.043
-545.296	-73.841	0.132	0.048
-544.281	-127.804	0.176	0.026
-543.266	85.415	0.154	0.169
-542.252	-32.794	-0.352	-0.196
-541.237	-143.917	-0.195	0.018
-540.223	131.705	0.160	0.206
-539.208	486.219	0.094	-0.215
-538.193	-13.943	0.019	-0.013
-537.179	28.860	-0.240	-0.204
-536.164	292.648	-0.156	0.285
-535.150	-71.014	0.406	-0.153
-534.135	-119.152	-0.297	-0.052
-533.121	-200.000	-0.003	0.167
-532.106	191.113	-0.105	0.158
-531.091	214.283	0.056	0.090
-530.077	171.855	-0.132	0.190
-529.062	-200.000	0.017	-0.197
-528.048	-200.000	-0.021	-0.093
-527.033	-200.000	-0.014	0.282
-526.018	-174.135	-0.223	0.007
-525.004	35.864	-0.116	0.102
-523.989	28.526	-0.225	-0.190
-522.975	432.001	0.048	0.105
-521.960	-115.981	0.113	-0.021
-520.945	-200.000	0.004	0.077
-519.931	-92.716	-0.112	0.031
-518.916	-102.561	-0.220	-0.053
-517.902	800.000	0.105	-0.300
-516.887	800.000	0.062	-0.223
-515.872	-118.854	0.280	-0.049
-514.858	-69.663	0.265	0.102
-513.843	186.577	0.184	0.274
-512.829	-176.721	-0.260	0.007
-511.814	219.365	0.118	-0.189
-510.799	-200.000	0.024	-0.314
-509.785	-200.000	-0.015	0.080
-508.770	-91.390	0.178	-0.051
-507.756	126.687	-0.201	-0.255
-506.741	-18.271	-0.200	0.125
-505.726	0.807	-0.151	-0.108
-504.712	-7.064	-0.229	-0.156
-503.697	-156.912	0.286	-0.018
-502.683	-92.195	-0.360	0.102
-501.668	427.136	-0.073	-0.158
-500.653	765.282	-0.174	0.474
-499.639	175.941	0.126	0.183
-498.624	800.000	-0.033	-0.133
-497.610	-64.446	0.115	0.047
-496.595	-74.570	-0.045	0.016
-495.581	-32.705	-0.152	0.085
-494.566	-200.000	0.019	0.252
-493.551	0.604	0.136	0.097
-492.537	-140.131	0.370	0.039
-491.522	-200.000	0.004	0.088
-490.508	426.894	0.092	-0.199
-489.493	-104.390	0.313	0.073
-488.478	-2.172	-0.278	0.195
-487.464	18.893	-0.228	0.183
-486.449	509.264	-0.107	0.249
-485.435	462.089	0.050	0.112
-484.420	-29.409	0.041	0.023
-483.405	-32.229	0.308	0.172
-482.391	-200.000	-0.039	-0.436
-481.376	-122.042	0.407	0.067
-480.362	281.026	0.178	-0.319
-479.347	-61.187	0.231	-0.097
-478.332	221.654	-0.186	-0.300
-477.318	-200.000	-0.028	-0.225
-476.303	567.725	-0.032	0.077
-475.289	-134.829	-0.223	0.027
-474.274	-200.000	-0.054	-0.285
-473.259	-200.000	0.046	0.218
-472.245	-200.000	0.003	-0.088
-471.230	-63.401	0.185	0.076
-470.216	1.938	0.064	-0.046
-469.201	800.000	-0.004	-0.017
-468.186	800.000	0.078	0.235
-467.172	-200.000	-0.008	0.293
-466.157	302.450	-0.147	0.272
-465.143	-75.605	0.429	-0.153
-464.128	20.058	0.282	0.227
-463.113	-69.730	-0.353	-0.135
-462.099	536.936	-0.101	0.239
-461.084	-200.000	-0.019	-0.259
-460.070	103.989	0.253	-0.297
-459.055	-200.000	-0.028	0.439
-458.040	-176.430	0.262	0.007
-457.026	0.106	-0.074	0.052
-456.011	-200.000	0.150	0.001
-454.997	-136.436	-0.115	0.013
-453.982	49.651	-0.243	0.229
-452.968	-200.000	0.020	-0.171
-451.953	-117.214	0.241	0.044
-450.938	-200.000	0.044	-0.221
-449.924	-200.000	-0.002	-0.037
-448.909	-113.972	-0.268	-0.052
-447.895	15.116	0.302	0.236
-446.880	193.185	0.387	0.585
-445.865	-200.000	-0.022	0.213
-444.851	-119.820	0.150	-0.026
-443.836	76.757	0.324	-0.344
-442.822	197.650	0.153	-0.234
-441.807	-200.000	-0.016	0.188
-440.792	98.144	-0.237	0.272
-439.778	800.000	0.060	-0.260
-438.763	-200.000	-0.037	-0.267
-437.749	201.694	-0.165	0.254
-436.734	395.511	-0.031	0.065
-435.719	-174.659	-0.140	0.004
-434.705	-200.000	-0.081	0.508
-433.690	800.000	0.075	-0.245
-432.676	254.596	0.075	0.127
-431.661	310.127	-0.062	0.116
-430.646	1.387	0.136	-0.097
-429.632	-200.000	0.043	-0.199
-428.617	-200.000	0.015	-0.128
-427.603	197.082	-0.092	0.139
-426.588	56.672	0.143	0.139
-425.573	466.498	-0.082	0.183
-424.559	153.736	-0.237	-0.325
-423.544	77.730	0.105	0.112
-422.530	209.215	0.159	0.249
-421.515	103.787	-0.283	-0.332
-420.500	-64.584	0.386	0.157
-419.486	48.474	0.142	0.133
-418.471	210.307	0.242	0.379
-417.457	-87.702	-0.430	0.129
-416.442	-200.000	-0.001	0.244
-415.428	96.684	0.210	0.240
-414.413	-91.639	-0.215	-0.061
-413.398	-127.670	-0.123	0.018
-412.384	5.064	0.237	-0.174
-411.369	50.464	-0.133	0.126
-410.355	526.892	0.030	0.071
-409.340	800.000	0.111	0.403
-408.325	-35.651	-0.039	0.021
-407.311	-100.811	0.123	-0.030
-406.296	-115.965	0.138	0.026
-405.282	564.200	0.118	-0.286
-404.267	-200.000	-0.002	-0.100
-403.252	800.000	0.023	0.084
-402.238	-39.920	0.189	0.098
-401.223	-26.258	0.137	0.080
-400.209	800.000	-0.118	0.388
-399.194	-200.000	0.016	0.098
-398.179	800.000	-0.066	-0.185
-397.165	-95.679	-0.308	0.082
-396.150	-45.977	0.158	0.078
-395.136	-200.000	0.014	-0.120
-394.121	-110.061	0.105	-0.022
-393.106	-85.539	-0.252	-0.078
-392.092	-118.876	0.238	0.042
-391.077	-69.701	-0.188	0.072
-390.063	-200.000	-0.010	-0.090
-389.048	-200.000	0.057	0.253
-388.033	800.000	0.021	0.079
-387.019	630.400	-0.096	-0.241
-386.004	-162.264	-0.107	0.005
-384.990	231.460	-0.188	0.308
-383.975	304.462	0.105	-0.194
-382.960	-136.038	-0.045	-0.005
-381.946	-180.015	-0.216	0.005
-380.931	373.468	0.034	0.069
-379.917	-200.000	-0.016	-0.469
-378.902	156.246	-0.192	-0.264
-377.888	-8.788	0.226	-0.151
-376.873	-200.000	0.027	0.223
-375.858	-42.775	0.042	0.021
-374.844	245.564	0.185	0.310
-373.829	-86.814	-0.226	-0.069
-372.815	116.219	0.105	0.128
-371.800	-200.000	0.015	-0.121
-370.785	47.878	-0.305	0.284
-369.771	36.997	-0.370	-0.326
-368.756	6.386	0.196	-0.145
-367.742	-91.423	-0.272	-0.077
-366.727	-75.245	0.375	0.134
-365.712	151.981	-0.036	-0.048
-364.698	800.000	0.012	-0.051
-363.683	-60.205	-0.296	-0.126
-362.669	-29.398	-0.145	-0.082
-361.654	205.869	-0.126	-0.195
-360.639	-61.717	0.180	-0.075
-359.625	-200.000	0.012	-0.100
-358.610	-138.795	-0.203	0.022
-357.596	2.546	-0.250	-0.180
-356.581	-129.588	-0.338	-0.047
-355.566	208.547	0.143	-0.223
-354.552	-200.000	0.014	-0.285
-353.537	800.000	0.005	-0.017
-352.523	-68.658	-0.203	0.078
-351.508	424.040	-0.080	0.171
-350.493	800.000	0.042	0.126
-349.479	140.157	-0.053	0.070
-348.464	597.368	-0.049	0.122
-347.450	-200.000	0.034	0.293
-346.435	70.419	-0.151	0.155
-345.420	140.646	-0.138	0.182
-344.406	-200.000	0.028	-0.289
-343.391	1.338	0.151	0.108
-342.377	192.821	0.135	0.202
-341.362	42.808	0.158	0.143
-340.348	473.059	0.093	0.208
-339.333	-177.502	0.074	-0.002
-338.318	-200.000	-0.018	-0.172
-337.304	317.857	0.059	-0.112
-336.289	406.835	0.122	0.256
-335.275	383.869	-0.164	0.336
-334.260	-20.878	-0.193	0.118
-333.245	-200.000	0.008	-0.077
-332.231	230.689	-0.058	0.095
-331.216	800.000	-0.022	-0.087
-330.202	383.530	0.194	-0.397
-329.187	-122.827	-0.172	0.028
-328.172	-107.241	-0.215	-0.047
-327.158	-200.000	0.011	-0.494
-326.143	-119.583	0.456	0.079
-325.129	-197.670	-0.460	0.003
-324.114	311.819	-0.176	0.328
-323.099	89.801	0.067	0.075
-322.085	800.000	0.014	-0.046
-321.070	289.681	0.139	-0.252
-320.056	-121.143	0.179	-0.030
-319.041	-200.000	0.014	-0.259
-318.026	-200.000	0.015	-0.158
-317.012	-127.990	0.208	0.030
-315.997	524.901	-0.050	0.116
-314.983	-200.000	0.023	0.147
-313.968	36.868	-0.284	0.250
-312.953	-200.000	-0.052	-0.361
-311.939	-39.866	-0.358	-0.186
-310.924	49.778	0.178	-0.167
-309.910	800.000	0.045	-0.138
-308.895	-200.000	0.028	-0.124
-307.880	45.881	0.090	0.083
-306.866	-200.000	-0.001	0.282
-305.851	-29.565	0.213	0.121
-304.837	-60.218	0.218	0.092
-303.822	-119.982	0.061	0.010
-302.807	49.503	-0.264	-0.247
-301.793	-86.710	0.311	-0.095
-300.778	-109.499	-0.152	-0.032
-299.764	131.493	-0.047	-0.060
-298.749	-200.000	-0.013	-0.192
-297.735	19.626	0.252	0.201
-296.720	-98.303	-0.515	0.131
-295.705	26.607	0.097	0.081
-294.691	364.906	-0.075	-0.149
-293.676	80.252	-0.136	-0.145
-292.662	-200.000	-0.024	0.114
-291.647	-101.725	0.131	-0.032
-290.632	-133.794	-0.188	0.023
-289.618	-39.015	0.274	0.143
-288.603	301.223	0.125	0.229
-287.589	56.647	-0.178	-0.172
-286.574	40.651	-0.095	-0.085
-285.559	-56.325	0.533	-0.235
-284.545	89.407	-0.118	-0.131
-283.530	-79.709	-0.099	-0.033
-282.516	800.000	0.027	-0.093
-281.501	800.000	0.040	-0.174
-280.486	800.000	-0.077	0.311
-279.472	-110.345	0.151	-0.031
-278.457	800.000	0.045	0.151
-277.443	-151.306	0.311	-0.023
-276.428	800.000	-0.083	-0.233
-275.413	541.941	-0.079	-0.188
-274.399	603.757	-0.099	-0.244
-273.384	28.656	-0.272	-0.229
-272.370	84.350	0.127	0.138
-271.355	-32.868	-0.325	0.179
-270.340	-200.000	0.017	-0.199
-269.326	616.314	0.062	0.155
-268.311	-200.000	-0.010	0.310
-267.297	492.753	-0.095	0.215
-266.282	-118.648	0.315	-0.055
-265.267	-131.465	-0.122	0.016
-264.253	144.548	-0.166	-0.220
-263.238	-56.823	-0.168	0.074
-262.224	-58.410	0.057	0.025
-261.209	-115.944	0.206	-0.038
-260.195	122.143	0.199	-0.247
-259.180	-200.000	0.028	0.318
-258.165	-37.468	0.087	-0.046
-257.151	94.765	0.276	-0.312
-256.136	-200.000	-0.009	-0.106
-255.122	-1.715	0.187	-0.131
-254.107	-93.818	0.145	0.040
-253.092	-126.196	0.194	-0.029
-252.078	-47.389	0.108	-0.052
-251.063	110.219	-0.037	0.044
-250.049	698.910	0.027	0.070
-249.034	-200.000	0.049	-0.215
-248.019	-200.000	0.033	0.200
-247.005	170.527	-0.088	0.124
-245.990	524.160	0.054	-0.127
-244.976	409.976	-0.019	-0.039
-243.961	-37.312	0.163	-0.086
-242.946	-200.000	0.030	0.217
-241.932	6.040	0.158	-0.116
-240.917	-200.000	0.041	0.203
-239.903	-94.423	-0.113	0.031
-238.888	800.000	0.038	0.129
-237.873	295.868	0.153	-0.278
-236.859	216.501	-0.071	-0.111
-235.844	800.000	-0.026	-0.071
-234.830	133.334	-0.049	0.063
-233.815	-84.466	-0.153	0.048
-232.800	348.404	0.048	0.093
-231.786	-88.961	0.254	0.075
-230.771	369.501	0.216	-0.433
-229.757	-94.179	0.154	0.042
-228.742	-81.270	-0.324	-0.106
-227.727	-100.507	-0.102	-0.025
-226.713	-200.000	-0.211	0.001
-225.698	547.346	-0.158	0.376
-224.684	781.364	0.144	0.390
-223.669	-65.267	-0.113	0.045
-222.655	-200.000	0.022	-0.240
-221.640	121.370	0.051	0.063
-220.625	-99.445	-0.453	0.113
-219.611	-83.544	0.330	0.104
-218.596	279.684	0.058	-0.102
-217.582	-136.732	0.216	0.025
-216.567	-131.105	0.224	-0.030
-215.552	606.498	0.109	-0.270
-214.538	-200.000	0.017	0.180
-213.523	275.094	-0.087	-0.152
-212.509	132.488	0.065	-0.083
-211.494	-67.291	0.183	0.071
-210.479	99.672	0.137	-0.157
-209.465	160.681	0.145	-0.200
-208.450	-88.230	-0.179	-0.053
-207.436	22.854	-0.085	0.069
-206.421	266.666	-0.114	-0.196
-205.406	-101.935	-0.240	-0.057
-204.392	-152.520	0.286	-0.020
-203.377	-24.990	0.246	0.144
-202.363	800.000	-0.110	-0.356
-201.348	99.926	-0.057	0.066
-200.333	-25.356	0.138	-0.081
-199.319	6.972	-0.212	-0.156
-198.304	664.083	-0.014	-0.035
-197.290	-116.851	0.165	0.030
-196.275	-168.256	-0.133	-0.005
-195.260	112.176	0.068	-0.081
-194.246	-25.574	0.143	0.083
-193.231	-133.792	-0.111	-0.014
-192.217	388.511	0.191	-0.392
-191.202	800.000	-0.062	-0.204
-190.187	280.218	0.130	-0.230
-189.173	256.789	-0.160	0.272
-188.158	25.634	-0.307	0.253
-187.144	554.953	-0.068	0.161
-186.129	314.611	-0.087	0.162
-185.114	792.632	-0.014	-0.039
-184.100	-200.000	0.021	-0.454
-183.085	-89.738	0.150	0.044
-182.071	-200.000	-0.034	-0.170
-181.056	-200.000	0.035	0.166
-180.042	-55.362	0.361	0.160
-179.027	-17.815	0.118	0.073
-178.012	800.000	-0.002	0.007
-176.998	-26.543	-0.063	0.037
-175.983	77.636	0.135	0.142
-174.969	18.625	-0.048	-0.038
-173.954	92.283	-0.168	0.187
-172.939	45.609	0.257	-0.234
-171.925	-162.749	0.153	0.007
-170.910	-41.011	-0.186	-0.095
-169.896	-200.000	0.080	0.446
-168.881	-110.831	0.201	-0.041
-167.866	-200.000	0.020	-0.284
-166.852	322.777	-0.037	-0.070
-165.837	-80.980	0.243	-0.080
-164.823	-154.866	0.087	-0.006
-163.808	537.537	0.097	-0.227
-162.793	71.692	-0.032	0.032
-161.779	800.000	0.091	-0.269
-160.764	-36.751	0.248	0.132
-159.750	82.966	-0.118	0.127
-158.735	-116.077	-0.164	-0.030
-157.720	308.877	0.165	-0.304
-156.706	290.349	-0.088	0.158
-155.691	-104.283	0.267	-0.061
-154.677	136.784	0.174	0.224
-153.662	194.151	-0.158	0.237
-152.647	-47.854	0.115	0.055
-151.633	-200.000	0.073	-0.459
-150.618	-161.036	-0.332	0.017
-149.604	785.408	0.104	0.281
-148.589	276.842	0.047	-0.083
-147.574	169.912	0.242	0.341
-146.560	50.822	-0.243	0.227
-145.545	-118.895	0.254	0.044
-144.531	4.682	0.129	0.093
-143.516	-200.000	-0.008	-0.214
-142.502	800.000	0.072	0.206
-141.487	-9.138	-0.136	-0.090
-140.472	-92.912	0.128	0.035
-139.458	34.007	0.101	0.087
-138.443	46.676	0.132	-0.121
-137.429	-65.360	0.197	0.078
-136.414	60.834	0.164	0.161
-135.399	-6.597	-0.329	0.221
-134.385	60.163	0.249	0.243
-133.370	178.940	-0.147	-0.212
-132.356	-184.827	0.115	-0.002
-131.341	220.925	0.191	-0.302
-130.326	-86.558	0.167	0.051
-129.312	-29.820	-0.250	-0.141
-128.297	-109.461	0.331	0.069
-127.283	2.257	-0.313	-0.223
-126.268	-123.563	0.180	0.028
-125.253	-200.000	-0.062	0.286
-124.239	426.129	0.077	-0.163
-123.224	-200.000	0.013	-0.158
-122.210	-102.177	-0.199	0.047
-121.195	728.436	0.114	0.300
-120.180	800.000	-0.010	-0.029
