DTS Sentinel unit serial number:	SN413079Multiplexer serial number:	ORYXHardware model number:	OX4-SRSoftware version number:	ORYX F/W v4.00 Oryx Data Collector v3.7.2.0data status	okinstallation	princeton_trtdifferential loss correction	single-endedforward channel	channel 1reverse channel	N/Adate	2019/09/17time	18:46:35forward acquisition time	60.00reverse acquisition time	0.00gamma	496.2192k internal	0.2290k external	0.2290temperature offset calibration	0.9966default loss term (dB/km)	0.3790temperature slope calibration	1.0000multiplexer offset coefficient	1.0000multiplexer slope coefficient	1.0000fibre end	0.00T internal ref (°C)	42.16T ext. ref 1 (°C)	0.30T ext. ref 2 (°C)	32.43length (m)	temperature (°C)	Stokes	anti-Stokes-747.200	0.774	0.072	0.053
-746.185	-37.689	-0.104	0.057
-745.171	800.000	0.096	0.294
-744.156	-130.715	-0.310	-0.043
-743.142	-102.166	-0.216	-0.053
-742.127	-200.000	-0.053	0.467
-741.112	-87.630	-0.175	0.054
-740.098	646.084	0.155	0.406
-739.083	800.000	-0.035	-0.143
-738.069	800.000	0.043	0.133
-737.054	-200.000	-0.018	0.168
-736.039	-62.294	-0.290	-0.124
-735.025	-11.932	-0.328	0.220
-734.010	160.926	-0.111	0.159
-732.996	-200.000	0.002	-0.057
-731.981	583.248	-0.135	-0.340
-730.966	116.270	-0.104	-0.131
-729.952	-152.134	-0.493	-0.037
-728.937	-51.463	-0.247	0.118
-727.923	152.118	-0.183	0.256
-726.908	12.950	-0.199	0.158
-725.894	61.800	-0.247	-0.252
-724.879	-22.015	-0.212	0.132
-723.864	-200.000	0.020	-0.166
-722.850	800.000	-0.025	-0.087
-721.835	-152.334	-0.331	0.024
-720.821	118.012	0.165	0.208
-719.806	33.812	-0.085	-0.076
-718.791	-94.003	-0.180	0.051
-717.777	-129.564	-0.216	-0.031
-716.762	-200.000	-0.049	0.246
-715.748	800.000	-0.076	-0.269
-714.733	-155.286	0.091	-0.006
-713.718	-123.120	-0.120	0.020
-712.704	535.456	-0.195	0.474
-711.689	-79.244	-0.110	-0.038
-710.675	-172.741	0.204	-0.007
-709.660	-45.301	-0.392	0.199
-708.645	-51.273	-0.194	0.093
-707.631	-147.351	-0.223	0.019
-706.616	579.553	0.038	-0.094
-705.602	-200.000	0.047	-0.242
-704.587	788.360	0.120	-0.336
-703.572	32.674	0.189	0.167
-702.558	-51.524	0.085	-0.041
-701.543	-81.926	0.396	-0.132
-700.529	-87.248	0.572	-0.178
-699.514	1.294	-0.061	-0.045
-698.499	296.960	-0.062	0.117
-697.485	-200.000	0.003	-0.032
-696.470	800.000	-0.062	0.245
-695.456	377.016	0.100	0.209
-694.441	35.294	0.153	-0.137
-693.426	-200.000	-0.066	0.304
-692.412	260.687	0.161	0.284
-691.397	38.342	-0.097	0.088
-690.383	-56.272	-0.022	0.010
-689.368	-96.123	-0.094	0.025
-688.354	-64.329	0.183	-0.076
-687.339	-200.000	0.001	0.166
-686.324	-84.744	-0.135	0.043
-685.310	750.926	0.033	0.090
-684.295	-71.125	-0.138	-0.053
-683.281	-200.000	0.025	0.173
-682.266	59.987	-0.088	0.089
-681.251	-15.226	0.240	-0.157
-680.237	15.943	0.096	0.077
-679.222	-58.957	-0.278	0.123
-678.208	-115.944	-0.199	-0.038
-677.193	-115.721	-0.168	-0.032
-676.178	220.473	-0.105	0.173
-675.164	454.336	-0.098	0.221
-674.149	433.952	-0.107	0.238
-673.135	-26.268	0.127	0.076
-672.120	423.170	0.012	0.027
-671.105	-73.772	-0.295	0.110
-670.091	244.929	-0.078	-0.134
-669.076	-200.000	0.090	-0.442
-668.062	800.000	0.058	-0.190
-667.047	-119.367	0.083	-0.015
-666.032	-79.062	-0.026	-0.009
-665.018	407.461	-0.174	-0.377
-664.003	-200.000	-0.029	-0.275
-662.989	254.566	0.077	0.134
-661.974	279.173	-0.088	0.161
-660.959	-200.000	-0.048	0.235
-659.945	481.464	0.114	0.265
-658.930	66.762	0.255	0.265
-657.916	543.041	0.071	-0.173
-656.901	377.936	-0.073	0.153
-655.886	-46.888	0.274	-0.137
-654.872	800.000	-0.120	0.394
-653.857	-6.295	0.208	0.145
-652.843	178.736	-0.218	0.326
-651.828	-200.000	0.000	0.352
-650.814	-34.037	-0.171	-0.096
-649.799	10.912	-0.126	-0.098
-648.784	800.000	-0.082	-0.328
-647.770	-200.000	0.001	-0.276
-646.755	-155.519	0.144	-0.009
-645.741	-52.128	0.170	-0.081
-644.726	113.587	0.198	-0.245
-643.711	-200.000	-0.005	0.038
-642.697	800.000	-0.077	0.237
-641.682	-53.262	-0.235	0.110
-640.668	800.000	-0.097	0.416
-639.653	25.553	-0.245	-0.208
-638.638	800.000	0.038	0.122
-637.624	55.332	0.161	0.159
-636.609	109.483	0.057	-0.069
-635.595	129.137	-0.124	0.162
-634.580	-128.297	-0.355	0.052
-633.565	-137.965	0.052	0.006
-632.551	159.731	-0.025	-0.036
-631.536	-200.000	-0.029	0.140
-630.522	-155.203	0.103	0.007
-629.507	-25.039	-0.377	0.228
-628.492	-73.980	0.377	-0.139
-627.478	-200.000	-0.081	-0.402
-626.463	198.299	-0.038	0.060
-625.449	-104.638	0.246	-0.058
-624.434	15.452	-0.222	-0.178
-623.419	-22.770	-0.296	-0.182
-622.405	-155.213	-0.131	-0.009
-621.390	-200.000	-0.015	0.074
-620.376	401.513	-0.054	-0.115
-619.361	163.347	0.182	-0.261
-618.346	231.710	0.080	0.134
-617.332	30.926	-0.430	-0.375
-616.317	-200.000	0.101	-0.483
-615.303	-70.337	0.154	-0.060
-614.288	207.587	0.109	-0.173
-613.273	140.277	0.025	-0.033
-612.259	461.377	0.072	-0.162
-611.244	25.007	-0.098	-0.082
-610.230	-200.000	-0.027	-0.139
-609.215	-20.606	0.109	-0.068
-608.201	7.852	0.331	0.253
-607.186	-200.000	-0.002	-0.197
-606.171	-12.565	0.406	0.270
-605.157	800.000	0.059	-0.199
-604.142	306.158	0.119	0.225
-603.128	1.377	0.119	-0.087
-602.113	-200.000	-0.015	-0.277
-601.098	596.942	0.057	0.143
-600.084	56.515	0.120	-0.119
-599.069	-43.830	0.098	0.050
-598.055	800.000	-0.078	-0.225
-597.040	800.000	-0.075	-0.234
-596.025	390.136	-0.073	-0.154
-595.011	133.162	-0.211	0.277
-593.996	-200.000	-0.029	-0.290
-592.982	-161.746	-0.141	0.007
-591.967	-13.451	0.237	0.156
-590.952	-197.968	0.125	0.001
-589.938	418.272	-0.067	-0.146
-588.923	67.716	-0.156	-0.163
-587.909	-70.259	0.037	-0.014
-586.894	21.083	-0.337	0.278
-585.879	-87.526	-0.200	0.062
-584.865	-129.747	0.481	0.067
-583.850	-200.000	-0.009	-0.095
-582.836	-55.790	-0.140	0.064
-581.821	-107.205	0.363	-0.081
-580.806	-200.000	-0.005	-0.043
-579.792	-200.000	-0.005	0.277
-578.777	-200.000	0.066	0.344
-577.763	-200.000	0.003	0.349
-576.748	-102.473	0.132	-0.032
-575.733	378.898	0.042	0.087
-574.719	253.680	0.054	0.095
-573.704	-200.000	-0.017	0.140
-572.690	-200.000	0.015	0.179
-571.675	-184.907	-0.140	0.002
-570.661	-38.792	-0.240	0.129
-569.646	-19.533	-0.343	-0.216
-568.631	83.551	0.047	-0.052
-567.617	68.400	-0.095	-0.099
-566.602	57.111	-0.136	0.135
-565.588	43.802	0.150	0.139
-564.573	157.305	0.045	-0.063
-563.558	-143.711	-0.035	-0.003
-562.544	800.000	-0.037	0.116
-561.529	-200.000	0.037	-0.299
-560.515	358.332	-0.102	0.208
-559.500	516.472	0.090	0.213
-558.485	-87.827	0.207	0.063
-557.471	421.611	-0.053	0.115
-556.456	166.148	0.151	0.217
-555.442	-200.000	-0.019	-0.107
-554.427	680.801	0.091	-0.242
-553.412	-56.027	-0.352	-0.160
-552.398	-66.954	-0.133	-0.053
-551.383	-55.078	-0.427	0.195
-550.369	75.825	0.294	0.316
-549.354	-22.099	-0.122	-0.076
-548.339	602.357	-0.040	-0.101
-547.325	800.000	0.066	-0.227
-546.310	-64.675	-0.206	-0.085
-545.296	318.226	0.019	0.036
-544.281	-66.690	-0.157	0.063
-543.266	55.165	-0.073	-0.072
-542.252	-148.905	0.080	0.007
-541.237	-102.664	-0.356	0.086
-540.223	-138.519	0.046	-0.005
-539.208	110.984	0.425	-0.519
-538.193	-109.556	0.268	-0.057
-537.179	202.125	-0.096	-0.151
-536.164	172.481	0.185	-0.270
-535.150	311.300	0.023	-0.045
-534.135	-8.903	-0.066	-0.045
-533.121	-39.141	-0.188	0.100
-532.106	476.112	-0.138	-0.318
-531.091	125.857	0.204	0.262
-530.077	12.986	0.122	0.096
-529.062	800.000	0.040	-0.148
-528.048	-128.614	-0.309	-0.044
-527.033	-44.448	0.216	0.110
-526.018	340.042	-0.022	0.044
-525.004	-200.000	-0.043	0.226
-523.989	-120.607	-0.245	-0.042
-522.975	-200.000	-0.008	0.057
-521.960	-99.815	0.044	0.011
-520.945	-91.255	0.279	-0.081
-519.931	112.331	0.101	0.125
-518.916	-124.087	-0.268	-0.043
-517.902	-65.341	-0.083	-0.034
-516.887	800.000	0.071	0.220
-515.872	90.856	-0.100	0.114
-514.858	202.908	-0.133	0.209
-513.843	-175.403	-0.375	0.010
-512.829	-9.597	-0.085	-0.057
-511.814	-95.224	0.196	0.054
-510.799	-108.772	-0.152	0.033
-509.785	-200.000	0.010	0.132
-508.770	-75.122	0.107	-0.039
-507.756	-194.350	0.238	0.002
-506.741	-14.910	-0.090	0.058
-505.726	-62.095	0.228	0.096
-504.712	-200.000	0.269	0.001
-503.697	-90.359	0.364	0.107
-502.683	548.367	-0.042	-0.101
-501.668	800.000	0.107	0.361
-500.653	-160.714	0.194	0.010
-499.639	-117.632	0.354	-0.065
-498.624	-65.910	-0.242	0.098
-497.610	800.000	0.113	-0.492
-496.595	395.486	-0.029	0.062
-495.581	-65.056	-0.027	-0.011
-494.566	-71.425	0.142	0.054
-493.551	-200.000	-0.168	-0.001
-492.537	41.526	-0.268	-0.246
-491.522	-100.070	-0.070	-0.018
-490.508	-71.829	-0.269	0.102
-489.493	-200.000	0.023	-0.114
-488.478	800.000	-0.069	-0.282
-487.464	-19.247	0.040	-0.025
-486.449	-89.966	0.115	0.034
-485.435	671.182	-0.072	-0.190
-484.420	-200.000	-0.042	0.263
-483.405	-81.190	-0.192	-0.064
-482.391	431.587	0.092	0.201
-481.376	-121.115	-0.318	0.054
-480.362	800.000	-0.044	0.176
-479.347	-28.178	-0.067	0.039
-478.332	-68.195	0.096	-0.038
-477.318	-120.600	-0.143	0.025
-476.303	-95.164	0.131	0.036
-475.289	-11.420	0.295	-0.197
-474.274	180.521	-0.055	0.082
-473.259	118.253	0.236	0.295
-472.245	151.349	-0.114	-0.157
-471.230	-98.538	-0.079	0.020
-470.216	81.809	-0.032	-0.036
-469.201	-118.283	-0.508	0.092
-468.186	-181.931	0.356	0.007
-467.172	39.603	-0.056	-0.051
-466.157	-200.000	0.012	-0.262
-465.143	-87.420	-0.036	0.011
-464.128	-99.284	-0.131	0.033
-463.113	744.338	0.090	-0.246
-462.099	-66.688	-0.044	-0.018
-461.084	139.051	0.179	0.239
-460.070	346.163	-0.096	-0.192
-459.055	800.000	0.003	0.015
-458.040	800.000	-0.069	-0.257
-457.026	219.442	-0.059	-0.095
-456.011	99.983	-0.104	-0.122
-454.997	0.272	-0.049	0.035
-453.982	1.121	0.238	-0.173
-452.968	227.738	0.023	-0.038
-451.953	-74.745	-0.352	0.128
-450.938	93.201	-0.098	0.112
-449.924	19.815	0.102	-0.083
-448.909	97.499	-0.053	0.061
-447.895	-23.549	0.230	0.140
-446.880	-200.000	0.078	0.453
-445.865	-139.866	-0.140	-0.015
-444.851	-81.741	-0.184	0.061
-443.836	134.927	0.179	0.235
-442.822	423.017	0.129	0.280
-441.807	13.068	0.126	0.099
-440.792	-151.048	-0.374	-0.029
-439.778	-137.016	0.275	-0.032
-438.763	-41.760	-0.166	-0.086
-437.749	-136.070	-0.087	0.010
-436.734	-200.000	0.018	-0.149
-435.719	-60.138	0.175	0.075
-434.705	-81.806	-0.168	0.056
-433.690	-200.000	0.009	0.100
-432.676	-33.380	-0.154	0.086
-431.661	-63.585	0.262	-0.109
-430.646	-200.000	0.006	0.032
-429.632	-149.931	0.273	0.022
-428.617	173.331	-0.099	-0.144
-427.603	800.000	-0.095	0.313
-426.588	159.732	-0.110	-0.155
-425.573	4.989	0.203	0.151
-424.559	-200.000	0.029	0.342
-423.544	-189.435	0.148	-0.002
-422.530	-200.000	-0.001	-0.324
-421.515	-17.873	-0.193	-0.122
-420.500	198.337	0.155	-0.241
-419.486	800.000	0.023	-0.090
-418.471	-23.297	-0.088	-0.054
-417.457	800.000	-0.031	0.097
-416.442	-121.987	0.247	0.041
-415.428	-39.210	0.271	0.144
-414.413	-110.268	0.248	-0.052
-413.398	800.000	-0.045	0.175
-412.384	-120.946	0.038	0.006
-411.369	485.079	-0.095	-0.219
-410.355	-200.000	0.042	-0.243
-409.340	-39.865	-0.149	-0.079
-408.325	-40.465	0.055	0.029
-407.311	-100.876	-0.272	0.068
-406.296	-103.507	-0.133	0.032
-405.282	36.061	-0.094	-0.084
-404.267	800.000	0.052	-0.214
-403.252	800.000	-0.092	0.401
-402.238	-91.947	0.119	0.034
-401.223	-200.000	-0.007	-0.096
-400.209	-121.710	0.300	0.050
-399.194	-128.324	-0.219	-0.031
-398.179	-200.000	0.034	-0.154
-397.165	-200.000	-0.017	0.119
-396.150	59.759	0.141	-0.140
-395.136	147.517	0.084	0.115
-394.121	-68.385	0.246	-0.097
-393.106	-83.475	0.307	0.099
-392.092	-107.382	-0.167	0.037
-391.077	800.000	-0.098	-0.316
-390.063	444.754	0.131	-0.291
-389.048	-200.000	0.039	-0.256
-388.033	93.809	-0.128	-0.146
-387.019	-200.000	-0.041	-0.244
-386.004	194.303	-0.018	-0.027
-384.990	714.858	0.096	0.258
-383.975	-128.930	-0.044	-0.006
-382.960	55.615	-0.111	0.109
-381.946	800.000	0.131	-0.399
-380.931	208.891	-0.248	-0.392
-379.917	800.000	-0.017	0.055
-378.902	-200.000	0.009	0.056
-377.888	-200.000	0.060	-0.339
-376.873	800.000	-0.079	-0.251
-375.858	-55.220	0.132	-0.060
-374.844	110.948	0.121	-0.147
-373.829	-5.615	-0.189	0.131
-372.815	800.000	-0.054	0.184
-371.800	-33.315	0.250	0.140
-370.785	48.100	0.192	-0.181
-369.771	152.830	-0.174	0.239
-368.756	-18.392	0.168	0.106
-367.742	156.722	0.057	0.080
-366.727	257.241	-0.098	0.169
-365.712	424.323	-0.078	-0.170
-364.698	-98.123	-0.230	-0.060
-363.683	800.000	-0.051	-0.221
-362.669	324.178	-0.152	-0.294
-361.654	546.832	0.071	-0.171
-360.639	800.000	0.011	-0.037
-359.625	344.542	0.058	0.116
-358.610	800.000	-0.060	-0.169
-357.596	-116.038	-0.291	-0.055
-356.581	17.219	0.109	0.087
-355.566	-78.475	0.199	0.069
-354.552	-200.000	0.045	0.218
-353.537	47.226	0.172	0.161
-352.523	312.968	-0.145	-0.276
-351.508	541.940	-0.034	0.082
-350.493	-55.976	0.080	0.036
-349.479	393.165	0.129	-0.272
-348.464	-94.158	-0.111	-0.031
-347.450	-135.206	-0.234	0.028
-346.435	-73.433	-0.103	0.038
-345.420	-55.321	0.122	0.055
-344.406	-76.315	0.163	-0.058
-343.391	515.795	-0.076	0.179
-342.377	800.000	-0.015	-0.063
-341.362	-30.217	-0.154	0.088
-340.348	800.000	0.032	-0.108
-339.333	173.260	-0.111	-0.162
-338.318	165.045	0.141	0.200
-337.304	151.144	0.178	0.244
-336.289	-66.255	-0.221	0.089
-335.275	-197.196	-0.141	0.001
-334.260	34.612	-0.086	-0.075
-333.245	-37.572	-0.245	-0.132
-332.231	297.189	0.124	0.229
-331.216	-100.639	0.421	-0.105
-330.202	-44.975	0.205	0.103
-329.187	-59.841	0.170	0.073
-328.172	-19.328	-0.140	-0.088
-327.158	-200.000	-0.006	0.263
-326.143	800.000	-0.173	-0.518
-325.129	278.156	-0.148	0.265
-324.114	31.873	0.126	-0.110
-323.099	118.744	0.201	-0.251
-322.085	13.980	0.087	0.068
-321.070	794.540	0.046	-0.127
-320.056	-165.965	0.272	-0.012
-319.041	-63.400	-0.194	0.080
-318.026	193.177	-0.109	0.166
-317.012	-133.442	-0.297	-0.038
-315.997	14.753	0.203	-0.160
-314.983	349.781	0.060	-0.120
-313.968	-100.755	-0.145	-0.036
-312.953	-38.499	0.265	0.141
-311.939	-28.326	0.275	0.160
-310.924	27.847	-0.118	-0.100
-309.910	32.661	0.088	0.076
-308.895	-99.949	-0.265	-0.067
-307.880	-147.626	-0.090	0.008
-306.866	223.716	0.226	-0.368
-305.851	55.133	0.318	-0.309
-304.837	82.032	-0.194	0.211
-303.822	22.288	-0.202	0.166
-302.807	-27.294	0.257	-0.151
-301.793	-147.314	0.085	0.007
-300.778	-74.408	0.105	-0.038
-299.764	-135.079	-0.292	0.035
-298.749	-70.258	0.200	-0.076
-297.735	21.918	-0.165	-0.135
-296.720	-8.292	-0.137	0.093
-295.705	-110.624	0.075	-0.016
-294.691	167.963	0.061	-0.087
-293.676	-114.489	-0.038	0.007
-292.662	386.930	-0.148	-0.308
-291.647	-38.925	0.191	-0.101
-290.632	24.512	0.298	0.248
-289.618	4.624	0.209	0.155
-288.603	93.058	-0.117	-0.134
-287.589	142.178	0.163	-0.218
-286.574	-170.647	-0.068	-0.002
-285.559	800.000	0.062	-0.244
-284.545	-149.865	0.239	-0.019
-283.530	597.039	-0.070	0.175
-282.516	-200.000	-0.057	0.506
-281.501	-97.996	-0.161	0.042
-280.486	78.321	0.043	0.047
-279.472	800.000	0.036	0.123
-278.457	30.435	0.063	-0.054
-277.443	200.900	0.066	0.103
-276.428	660.380	-0.025	0.064
-275.413	350.931	-0.033	-0.066
-274.399	800.000	-0.034	-0.126
-273.384	15.665	0.080	-0.063
-272.370	-200.000	0.010	0.267
-271.355	696.273	-0.068	0.181
-270.340	194.142	-0.082	0.125
-269.326	454.767	0.115	0.256
-268.311	-36.181	0.315	0.171
-267.297	800.000	-0.017	-0.073
-266.282	-52.943	0.194	0.090
-265.267	482.876	-0.109	-0.249
-264.253	78.174	0.181	-0.194
-263.238	-183.068	0.090	-0.002
-262.224	800.000	0.057	0.223
-261.209	800.000	-0.052	-0.185
-260.195	-37.764	-0.086	-0.046
-259.180	287.968	0.085	0.154
-258.165	44.346	-0.074	-0.068
-257.151	-57.721	-0.208	0.092
-256.136	-128.746	-0.315	-0.045
-255.122	-138.406	0.240	-0.027
-254.107	-177.874	0.191	-0.005
-253.092	-20.747	-0.142	0.087
-252.078	800.000	0.006	-0.026
-251.063	322.394	-0.045	0.085
-250.049	-200.000	-0.025	0.201
-249.034	-89.495	-0.241	0.071
-248.019	-75.210	-0.185	-0.066
-247.005	-18.211	0.201	0.126
-245.990	-200.000	-0.054	0.329
-244.976	45.909	-0.135	0.126
-243.961	-54.032	-0.156	0.071
-242.946	-74.748	-0.162	-0.058
-241.932	-33.466	0.289	0.161
-240.917	-173.087	0.278	-0.009
-239.903	-142.287	0.204	0.020
-238.888	800.000	0.072	0.212
-237.873	302.948	0.182	0.338
-236.859	103.265	0.092	-0.109
-235.844	44.824	0.324	-0.299
-234.830	611.477	-0.047	-0.119
-233.815	-106.614	-0.280	-0.063
-232.800	-170.312	-0.231	-0.008
-231.786	-102.591	-0.273	0.065
-230.771	-200.000	0.032	-0.248
-229.757	800.000	0.051	-0.160
-228.742	-200.000	0.001	0.006
-227.727	-200.000	0.031	0.136
-226.713	99.198	-0.033	0.038
-225.698	-200.000	0.009	0.278
-224.684	387.946	-0.164	0.341
-223.669	-200.000	-0.010	0.215
-222.655	800.000	-0.068	0.196
-221.640	165.630	-0.067	0.095
-220.625	435.451	0.039	0.086
-219.611	169.207	-0.089	-0.128
-218.596	-54.450	0.187	0.085
-217.582	-47.171	-0.100	-0.049
-216.567	-200.000	0.013	0.078
-215.552	-200.000	-0.235	-0.001
-214.538	-100.189	0.237	-0.059
-213.523	93.180	-0.055	0.062
-212.509	424.165	-0.017	0.037
-211.494	156.289	0.151	0.210
-210.479	-58.523	-0.168	-0.073
-209.465	-200.000	-0.006	0.157
-208.450	73.448	0.133	0.140
-207.436	-33.653	0.227	-0.126
-206.421	544.818	0.015	-0.035
-205.406	24.991	0.157	-0.131
-204.392	-200.000	-0.009	0.122
-203.377	371.544	0.187	0.380
-202.363	-151.057	-0.455	0.034
-201.348	-27.827	-0.268	0.156
-200.333	-19.788	0.066	0.041
-199.319	-200.000	0.045	0.276
-198.304	59.384	-0.274	0.271
-197.290	103.370	-0.171	-0.201
-196.275	-200.000	0.003	-0.060
-195.260	-200.000	-0.054	-0.252
-194.246	800.000	0.021	-0.074
-193.231	-136.512	0.146	-0.017
-192.217	-52.063	-0.203	0.094
-191.202	139.174	-0.166	0.218
-190.187	-200.000	-0.004	-0.261
-189.173	-45.029	0.019	0.010
-188.158	-106.210	-0.099	-0.022
-187.144	-116.382	-0.067	0.012
-186.129	-41.283	0.036	0.018
-185.114	-131.238	-0.308	0.041
-184.100	-65.945	0.010	0.004
-183.085	-9.547	0.201	-0.135
-182.071	-68.042	0.124	-0.048
-181.056	-131.484	0.127	0.017
-180.042	-200.000	-0.007	0.134
-179.027	235.231	-0.059	0.097
-178.012	-42.271	0.179	-0.092
-176.998	-89.854	-0.243	0.071
-175.983	800.000	-0.071	-0.306
-174.969	-200.000	0.015	0.186
-173.954	-200.000	0.007	0.089
-172.939	708.465	-0.049	-0.129
-171.925	-157.272	-0.274	-0.017
-170.910	98.820	0.091	-0.105
-169.896	455.479	0.045	0.099
-168.881	33.543	0.201	-0.175
-167.866	-200.000	-0.032	0.327
-166.852	73.589	-0.315	-0.330
-165.837	-105.778	-0.143	-0.032
-164.823	205.904	0.087	0.135
-163.808	153.661	0.058	-0.079
-162.793	-200.000	-0.038	-0.189
-161.779	-200.000	0.007	-0.235
-160.764	-106.053	0.432	0.097
-159.750	-112.516	-0.326	0.065
-158.735	19.063	-0.092	-0.074
-157.720	-200.000	0.001	0.186
-156.706	800.000	0.085	0.255
-155.691	718.989	0.091	0.242
-154.677	-20.615	-0.105	0.065
-153.662	800.000	0.029	0.122
-152.647	-200.000	-0.010	-0.390
-151.633	185.895	0.138	0.205
-150.618	443.327	0.156	-0.343
-149.604	-116.031	-0.271	0.051
-148.589	213.981	-0.085	-0.135
-147.574	-106.766	-0.265	-0.059
-146.560	-66.904	0.202	0.080
-145.545	-200.000	-0.036	0.312
-144.531	58.231	-0.110	0.108
-143.516	-139.325	-0.181	-0.019
-142.502	-200.000	0.007	0.084
-141.487	72.577	0.196	-0.205
-140.472	-10.334	0.389	-0.258
-139.458	52.579	0.054	0.052
-138.443	-137.593	0.303	0.034
-137.429	105.673	-0.139	-0.165
-136.414	66.911	0.165	0.168
-135.399	98.613	-0.256	-0.295
-134.385	-200.000	0.004	0.226
-133.370	-200.000	-0.000	0.045
-132.356	-179.592	0.108	-0.002
-131.341	-200.000	0.002	0.108
-130.326	-200.000	-0.034	-0.180
-129.312	-200.000	-0.008	0.222
-128.297	-200.000	-0.028	-0.140
-127.283	-5.513	0.319	0.219
-126.268	280.687	-0.045	0.080
-125.253	58.885	-0.206	-0.202
-124.239	-154.557	-0.144	-0.010
-123.224	-1.758	-0.174	0.123
-122.210	-92.216	0.195	0.055
