DTS Sentinel unit serial number:	SN413079Multiplexer serial number:	ORYXHardware model number:	OX4-SRSoftware version number:	ORYX F/W v4.00 Oryx Data Collector v3.7.2.0data status	okinstallation	princeton_trtdifferential loss correction	single-endedforward channel	channel 1reverse channel	N/Adate	2019/09/11time	13:28:11forward acquisition time	60.00reverse acquisition time	0.00gamma	496.2192k internal	0.2294k external	0.2294temperature offset calibration	0.9985default loss term (dB/km)	0.3790temperature slope calibration	1.0000multiplexer offset coefficient	1.0000multiplexer slope coefficient	1.0000fibre end	0.00T internal ref (°C)	41.94T ext. ref 1 (°C)	0.83T ext. ref 2 (°C)	37.08length (m)	temperature (°C)	Stokes	anti-Stokes-747.200	-103.211	0.379	0.092
-746.185	-200.000	0.021	0.418
-745.171	180.720	-0.147	-0.220
-744.156	800.000	0.047	0.179
-743.142	206.300	0.071	0.113
-742.127	471.642	-0.081	0.187
-741.112	130.769	0.045	-0.059
-740.098	458.163	-0.139	0.317
-739.083	77.567	0.091	0.099
-738.069	156.042	-0.199	0.281
-737.054	363.938	0.084	0.172
-736.039	-95.253	-0.292	0.080
-735.025	-200.000	0.008	0.175
-734.010	-122.620	-0.039	-0.006
-732.996	-51.928	0.210	-0.100
-731.981	-136.292	0.216	-0.026
-730.966	-200.000	-0.003	0.297
-729.952	-15.052	-0.072	0.047
-728.937	177.220	-0.030	-0.044
-727.923	-158.227	0.155	0.009
-726.908	151.842	-0.314	0.437
-725.894	234.731	-0.158	-0.266
-724.879	-125.795	0.161	0.025
-723.864	-105.201	-0.325	-0.076
-722.850	62.039	-0.208	0.212
-721.835	800.000	-0.061	-0.213
-720.821	-200.000	0.013	-0.068
-719.806	462.101	-0.009	-0.020
-718.791	209.703	0.034	0.055
-717.777	-200.000	0.041	0.487
-716.762	122.005	-0.220	-0.281
-715.748	-200.000	-0.046	-0.319
-714.733	-97.314	-0.045	-0.012
-713.718	-200.000	0.014	-0.151
-712.704	800.000	-0.057	-0.237
-711.689	16.647	0.016	0.013
-710.675	-43.554	0.210	0.108
-709.660	336.164	-0.024	-0.047
-708.645	12.235	0.138	-0.108
-707.631	-200.000	-0.007	-0.066
-706.616	-10.628	-0.124	-0.084
-705.602	800.000	0.031	-0.107
-704.587	-154.927	-0.588	0.040
-703.572	-200.000	0.016	0.282
-702.558	-153.860	-0.210	-0.015
-701.543	-200.000	-0.058	-0.317
-700.529	800.000	-0.073	0.303
-699.514	-128.957	-0.294	-0.042
-698.499	317.343	0.161	0.311
-697.485	77.064	0.095	0.103
-696.470	-82.038	0.029	0.010
-695.456	22.456	-0.090	-0.075
-694.441	-134.527	-0.228	-0.028
-693.426	800.000	-0.016	-0.048
-692.412	20.448	0.166	0.137
-691.397	33.823	0.199	-0.176
-690.383	-5.628	-0.111	-0.078
-689.368	-22.977	-0.161	0.099
-688.354	292.565	0.080	0.149
-687.339	800.000	0.092	0.261
-686.324	543.983	0.058	-0.142
-685.310	-100.977	0.428	-0.107
-684.295	79.464	0.016	0.018
-683.281	-94.375	-0.225	0.063
-682.266	-124.267	-0.263	-0.042
-681.251	201.441	-0.123	-0.194
-680.237	141.861	0.099	-0.133
-679.222	800.000	-0.012	-0.038
-678.208	290.003	-0.128	-0.236
-677.193	-200.000	0.010	0.317
-676.178	-86.926	-0.125	0.039
-675.164	-200.000	0.028	-0.274
-674.149	61.192	-0.076	-0.077
-673.135	511.045	0.126	-0.299
-672.120	800.000	0.107	-0.369
-671.105	-157.972	-0.414	-0.025
-670.091	-200.000	0.007	0.302
-669.076	51.390	0.084	0.081
-668.062	800.000	0.091	0.365
-667.047	-102.329	-0.110	0.027
-666.032	13.392	-0.308	0.243
-665.018	-200.000	-0.008	0.076
-664.003	37.038	-0.235	0.212
-662.989	-99.013	-0.274	-0.071
-661.974	256.888	-0.078	0.136
-660.959	-129.881	-0.111	0.016
-659.945	-68.228	-0.159	0.063
-658.930	-75.890	-0.069	0.025
-657.916	-200.000	0.008	0.060
-656.901	-75.714	0.350	-0.126
-655.886	385.304	-0.049	-0.103
-654.872	118.304	-0.228	-0.287
-653.857	800.000	-0.043	-0.166
-652.843	-88.450	-0.124	0.038
-651.828	125.061	0.189	0.243
-650.814	136.980	-0.116	0.155
-649.799	800.000	0.093	0.277
-648.784	-64.897	0.335	0.138
-647.770	-200.000	0.070	0.541
-646.755	-141.352	0.275	-0.028
-645.741	161.180	-0.249	-0.354
-644.726	105.482	-0.208	-0.250
-643.711	117.552	0.023	-0.028
-642.697	291.352	0.071	-0.131
-641.682	-80.990	0.354	0.120
-640.668	-200.000	-0.046	-0.340
-639.653	800.000	-0.068	-0.229
-638.638	18.840	0.174	-0.142
-637.624	-200.000	0.021	-0.133
-636.609	-200.000	-0.008	-0.158
-635.595	405.542	0.107	-0.231
-634.580	-51.876	0.086	0.041
-633.565	35.564	-0.376	-0.337
-632.551	-200.000	-0.012	0.069
-631.536	-12.880	0.365	0.242
-630.522	-41.421	0.183	0.096
-629.507	-79.848	0.049	0.017
-628.492	151.442	-0.157	0.217
-627.478	237.955	0.023	-0.038
-626.463	-200.000	0.009	-0.184
-625.449	800.000	0.017	0.051
-624.434	-119.915	0.419	0.073
-623.419	187.734	0.140	0.213
-622.405	-85.458	-0.052	-0.016
-621.390	-200.000	-0.033	-0.196
-620.376	233.003	0.073	-0.122
-619.361	-47.347	0.068	0.033
-618.346	481.659	0.049	0.114
-617.332	-200.000	-0.079	0.407
-616.317	-81.303	-0.315	0.106
-615.303	12.389	0.309	-0.242
-614.288	-41.519	-0.176	-0.092
-613.273	20.609	-0.329	0.271
-612.259	330.176	-0.096	0.189
-611.244	-200.000	-0.016	-0.323
-610.230	22.617	0.341	0.284
-609.215	417.798	0.028	0.060
-608.201	-200.000	0.005	-0.153
-607.186	750.762	-0.101	0.278
-606.171	-46.118	-0.190	-0.095
-605.157	-55.407	-0.078	-0.035
-604.142	-26.790	-0.258	0.153
-603.128	-135.616	-0.532	-0.064
-602.113	231.454	-0.084	-0.140
-601.098	-200.000	0.007	0.086
-600.084	272.974	-0.075	0.135
-599.069	-158.792	-0.249	0.014
-598.055	-138.049	0.158	0.018
-597.040	13.537	-0.201	0.159
-596.025	-103.090	-0.404	-0.097
-595.011	-115.950	-0.182	0.034
-593.996	-200.000	0.035	0.239
-592.982	-200.000	-0.012	0.151
-591.967	95.165	-0.040	0.047
-590.952	-161.150	0.270	0.014
-589.938	800.000	-0.122	0.470
-588.923	428.119	-0.007	-0.016
-587.909	-33.584	-0.447	-0.251
-586.894	-116.551	-0.282	-0.053
-585.879	10.386	-0.123	0.095
-584.865	-23.447	-0.367	-0.224
-583.850	-153.969	0.097	0.007
-582.836	487.770	-0.055	-0.128
-581.821	-190.921	0.396	0.004
-580.806	-200.000	0.007	-0.032
-579.792	-86.126	-0.096	0.030
-578.777	-200.000	0.034	-0.157
-577.763	-200.000	-0.006	0.239
-576.748	-200.000	0.086	0.408
-575.733	72.615	-0.168	0.178
-574.719	218.937	0.121	-0.196
-573.704	24.530	-0.065	-0.055
-572.690	-28.268	-0.062	-0.036
-571.675	-59.256	-0.089	0.039
-570.661	-44.604	0.418	-0.212
-569.646	31.623	0.147	0.128
-568.631	800.000	-0.036	-0.129
-567.617	68.550	-0.286	-0.297
-566.602	29.466	0.147	-0.127
-565.588	-9.215	-0.109	0.074
-564.573	800.000	0.135	0.435
-563.558	-83.426	-0.208	0.068
-562.544	-89.336	0.221	-0.066
-561.529	-200.000	0.021	-0.356
-560.515	370.971	-0.139	0.286
-559.500	-200.000	-0.075	-0.395
-558.485	185.406	-0.082	-0.123
-557.471	0.111	-0.153	0.111
-556.456	483.717	-0.146	0.336
-555.442	-100.970	-0.315	0.078
-554.427	-95.932	0.132	-0.036
-553.412	-200.000	0.008	0.278
-552.398	80.988	0.055	0.060
-551.383	-22.465	0.280	0.172
-550.369	-200.000	0.007	-0.189
-549.354	-128.824	0.271	0.039
-548.339	-74.154	0.112	0.041
-547.325	10.397	0.161	0.124
-546.310	-73.026	0.211	-0.079
-545.296	6.361	-0.187	0.141
-544.281	-200.000	0.069	-0.403
-543.266	278.804	0.280	-0.506
-542.252	-61.951	0.152	0.064
-541.237	-200.000	-0.022	-0.130
-540.223	80.519	-0.161	-0.176
-539.208	76.821	-0.290	-0.312
-538.193	81.178	-0.106	0.116
-537.179	330.173	0.032	0.062
-536.164	-130.452	0.297	-0.041
-535.150	326.436	-0.168	0.326
-534.135	48.971	0.161	0.153
-533.121	507.250	-0.021	0.050
-532.106	7.892	-0.154	-0.117
-531.091	800.000	-0.110	-0.350
-530.077	800.000	0.029	-0.112
-529.062	45.324	0.064	0.060
-528.048	177.033	-0.053	0.079
-527.033	5.154	0.181	-0.135
-526.018	-99.202	0.202	0.052
-525.004	-97.627	-0.141	0.037
-523.989	64.617	-0.088	0.090
-522.975	800.000	0.099	0.369
-521.960	258.721	-0.024	-0.043
-520.945	-200.000	-0.015	-0.346
-519.931	800.000	0.061	-0.182
-518.916	-200.000	0.057	-0.467
-517.902	37.116	-0.086	-0.077
-516.887	479.239	-0.055	0.125
-515.872	30.855	-0.333	-0.289
-514.858	27.928	0.295	0.252
-513.843	44.241	0.220	0.204
-512.829	26.188	-0.059	-0.050
-511.814	-60.175	0.049	-0.021
-510.799	-75.818	-0.187	0.067
-509.785	5.082	0.063	0.047
-508.770	-95.785	0.095	0.026
-507.756	-200.000	0.098	-0.494
-506.741	-180.028	0.169	-0.004
-505.726	-45.735	0.131	-0.065
-504.712	82.133	0.109	-0.120
-503.697	495.364	-0.101	-0.236
-502.683	-200.000	0.002	0.081
-501.668	-135.812	0.134	0.016
-500.653	110.357	0.092	0.112
-499.639	365.822	-0.113	-0.231
-498.624	420.971	-0.035	0.075
-497.610	32.650	-0.258	0.226
-496.595	745.751	0.018	0.050
-495.581	166.598	0.019	-0.027
-494.566	800.000	-0.084	-0.323
-493.551	126.863	0.129	0.165
-492.537	-130.876	0.276	0.037
-491.522	-200.000	-0.040	0.347
-490.508	-140.626	-0.045	-0.005
-489.493	489.598	0.044	0.102
-488.478	-160.567	0.221	0.012
-487.464	366.299	0.096	-0.195
-486.449	-65.006	0.263	0.107
-485.435	-57.172	0.065	-0.029
-484.420	92.922	0.272	-0.311
-483.405	800.000	-0.023	0.088
-482.391	-93.562	0.118	-0.033
-481.376	-200.000	0.005	-0.033
-480.362	-17.954	0.269	-0.171
-479.347	-26.395	-0.264	-0.156
-478.332	216.598	-0.094	0.152
-477.318	-95.527	-0.076	-0.021
-476.303	-126.927	0.061	-0.009
-475.289	173.539	-0.136	0.199
-474.274	-77.128	-0.194	-0.069
-473.259	-147.620	0.076	0.006
-472.245	-67.531	0.321	-0.127
-471.230	-98.690	-0.335	0.086
-470.216	-81.321	0.386	-0.129
-469.201	-100.661	-0.079	0.020
-468.186	62.597	0.191	-0.193
-467.172	-59.370	-0.140	0.061
-466.157	-200.000	-0.030	0.215
-465.143	24.270	-0.144	0.121
-464.128	-45.751	0.165	-0.082
-463.113	-130.410	-0.507	-0.069
-462.099	-55.815	-0.212	0.096
-461.084	22.274	-0.347	0.286
-460.070	-75.631	0.144	-0.052
-459.055	-15.057	0.235	0.152
-458.040	-132.732	-0.153	0.020
-457.026	450.527	-0.120	0.267
-456.011	-17.182	-0.156	-0.100
-454.997	-146.438	0.164	-0.015
-453.982	46.863	0.150	0.141
-452.968	-200.000	0.060	-0.327
-451.953	-58.810	-0.433	-0.189
-450.938	-117.466	0.332	0.061
-449.924	800.000	0.054	0.202
-448.909	800.000	0.084	0.254
-447.895	384.717	-0.182	0.379
-446.880	-106.149	0.201	-0.046
-445.865	800.000	0.033	-0.095
-444.851	84.881	-0.186	-0.206
-443.836	-14.104	-0.132	-0.086
-442.822	280.340	0.013	-0.024
-441.807	-140.028	-0.429	0.046
-440.792	-17.541	0.062	0.039
-439.778	32.574	0.069	0.060
-438.763	11.996	-0.131	0.102
-437.749	-14.627	0.267	-0.174
-436.734	-91.810	0.178	-0.051
-435.719	5.588	-0.133	-0.099
-434.705	100.146	-0.012	0.014
-433.690	-200.000	0.049	0.367
-432.676	-57.096	0.105	0.047
-431.661	24.505	0.267	0.223
-430.646	-136.188	-0.426	0.050
-429.632	388.011	-0.095	-0.198
-428.617	245.402	0.145	0.247
-427.603	-200.000	0.053	-0.295
-426.588	527.873	-0.058	0.137
-425.573	30.145	-0.224	0.193
-424.559	61.417	-0.382	-0.383
-423.544	-200.000	-0.018	-0.088
-422.530	469.453	-0.096	-0.218
-421.515	-200.000	0.024	-0.133
-420.500	563.989	-0.118	-0.288
-419.486	-93.661	-0.439	-0.122
-418.471	-72.821	-0.112	0.042
-417.457	800.000	-0.015	0.060
-416.442	199.512	0.036	-0.056
-415.428	800.000	-0.139	-0.395
-414.413	-68.728	0.181	-0.071
-413.398	241.956	0.167	0.282
-412.384	-198.033	0.256	0.002
-411.369	-200.000	0.001	0.191
-410.355	-84.596	0.184	0.058
-409.340	-174.893	0.469	0.013
-408.325	-146.393	-0.143	-0.013
-407.311	-200.000	-0.020	0.356
-406.296	-120.097	0.182	-0.031
-405.282	-200.000	0.017	-0.190
-404.267	-200.000	-0.019	0.098
-403.252	-105.580	-0.264	-0.060
-402.238	-200.000	0.008	-0.217
-401.223	-200.000	0.048	0.425
-400.209	-200.000	0.048	-0.362
-399.194	-200.000	0.071	0.326
-398.179	304.151	-0.096	-0.180
-397.165	-127.483	0.108	0.016
-396.150	-200.000	0.012	-0.119
-395.136	800.000	0.054	0.191
-394.121	-200.000	0.017	0.115
-393.106	773.552	-0.084	-0.231
-392.092	-69.895	-0.265	-0.102
-391.077	473.831	-0.043	0.099
-390.063	-200.000	-0.019	-0.108
-389.048	-200.000	0.014	-0.225
-388.033	48.308	-0.158	0.149
-387.019	-35.892	-0.286	0.156
-386.004	387.798	-0.055	-0.114
-384.990	191.396	0.062	-0.094
-383.975	-200.000	0.000	-0.268
-382.960	-61.402	-0.432	0.183
-381.946	8.884	0.186	0.141
-380.931	-89.594	0.218	0.065
-379.917	-117.246	-0.074	-0.013
-378.902	-80.414	0.110	0.037
-377.888	47.388	0.134	0.126
-376.873	-48.869	-0.216	-0.105
-375.858	-200.000	-0.072	0.349
-374.844	800.000	-0.087	0.258
-373.829	701.611	-0.047	0.124
-372.815	-125.947	0.095	0.014
-371.800	-60.675	0.318	0.136
-370.785	-200.000	0.046	0.318
-369.771	70.872	-0.161	0.168
-368.756	-200.000	0.012	0.160
-367.742	73.412	0.165	-0.174
-366.727	-164.582	-0.300	0.014
-365.712	-200.000	-0.034	-0.243
-364.698	-31.607	-0.369	-0.209
-363.683	-136.793	0.172	0.020
-362.669	-200.000	-0.020	-0.286
-361.654	-200.000	-0.007	0.064
-360.639	-42.100	0.323	-0.166
-359.625	527.444	0.041	0.097
-358.610	25.688	-0.177	0.149
-357.596	-157.616	-0.317	0.019
-356.581	-90.452	0.288	0.084
-355.566	-25.740	-0.100	0.059
-354.552	689.374	0.176	-0.465
-353.537	-200.000	-0.017	-0.178
-352.523	758.526	0.059	0.161
-351.508	-61.029	-0.330	-0.140
-350.493	-200.000	-0.001	-0.428
-349.479	-64.514	-0.335	0.137
-348.464	800.000	-0.067	0.194
-347.450	-144.963	-0.125	-0.012
-346.435	800.000	0.115	-0.427
-345.420	800.000	-0.055	-0.213
-344.406	411.347	0.092	0.197
-343.391	-121.744	0.197	0.033
-342.377	144.143	0.018	-0.024
-341.362	167.899	-0.063	0.090
-340.348	70.091	-0.224	-0.232
-339.333	800.000	0.064	-0.209
-338.318	7.345	-0.170	0.128
-337.304	-141.991	0.058	0.006
-336.289	2.864	0.073	0.053
-335.275	-200.000	0.027	-0.183
-334.260	-200.000	-0.022	-0.247
-333.245	-171.578	0.137	-0.005
-332.231	250.582	0.104	0.178
-331.216	99.964	0.398	-0.465
-330.202	-57.793	0.314	-0.138
-329.187	800.000	-0.020	-0.064
-328.172	-41.278	0.083	-0.043
-327.158	-126.783	0.156	-0.023
-326.143	-200.000	0.005	-0.381
-325.129	331.332	0.043	0.084
-324.114	-23.534	-0.024	0.015
-323.099	-150.966	0.171	0.013
-322.085	-200.000	-0.019	0.521
-321.070	-19.328	0.088	0.055
-320.056	-200.000	-0.015	-0.261
-319.041	-122.612	0.464	0.076
-318.026	-103.267	-0.088	0.021
-317.012	-50.161	0.091	0.043
-315.997	-200.000	-0.007	-0.320
-314.983	-114.187	-0.390	0.076
-313.968	-200.000	0.033	-0.221
-312.953	-200.000	-0.006	0.277
-311.939	800.000	-0.104	-0.422
-310.924	40.031	0.222	0.201
-309.910	-110.282	-0.271	-0.057
-308.895	-41.726	-0.284	0.146
-307.880	35.078	-0.198	-0.174
-306.866	-102.559	0.138	-0.033
-305.851	-53.883	-0.220	-0.101
-304.837	38.344	0.282	0.253
-303.822	-81.319	0.293	0.097
-302.807	-95.399	-0.196	-0.053
-301.793	-79.605	-0.256	-0.087
-300.778	-200.000	-0.012	-0.088
-299.764	800.000	0.073	0.250
-298.749	800.000	0.018	0.054
-297.735	-114.509	-0.192	-0.037
-296.720	-126.228	-0.461	-0.069
-295.705	71.196	-0.225	-0.235
-294.691	800.000	0.038	0.112
-293.676	-1.263	0.234	-0.166
-292.662	800.000	-0.073	-0.221
-291.647	-200.000	-0.021	0.137
-290.632	-23.932	0.072	-0.043
-289.618	-154.102	-0.269	0.018
-288.603	91.706	-0.206	0.233
-287.589	262.689	0.126	0.220
-286.574	-73.859	0.111	0.041
-285.559	-200.000	-0.028	0.151
-284.545	-58.679	0.076	-0.033
-283.530	56.029	0.210	0.205
-282.516	-155.285	0.338	-0.022
-281.501	221.765	0.045	0.072
-280.486	160.323	0.148	0.207
-279.472	-200.000	0.010	0.129
-278.457	113.326	-0.082	-0.100
-277.443	423.319	-0.032	0.069
-276.428	19.116	-0.142	-0.115
-275.413	-200.000	0.064	0.382
-274.399	80.748	0.109	0.118
-273.384	162.133	0.096	0.135
-272.370	-161.646	0.135	-0.007
-271.355	-15.895	0.281	-0.179
-270.340	800.000	-0.089	0.330
-269.326	40.467	0.167	0.151
-268.311	59.455	-0.108	0.107
-267.297	-119.945	-0.213	-0.037
-266.282	127.666	0.107	0.137
-265.267	427.304	0.009	-0.019
-264.253	-200.000	-0.035	-0.189
-263.238	-127.845	0.272	0.039
-262.224	31.075	-0.064	-0.055
-261.209	-200.000	0.050	0.404
-260.195	-93.300	0.257	-0.072
-259.180	-11.357	0.325	-0.214
-258.165	-87.832	0.501	-0.151
-257.151	547.129	-0.026	0.062
-256.136	103.418	-0.107	-0.126
-255.122	-200.000	0.015	0.124
-254.107	60.702	-0.322	-0.320
-253.092	-68.113	-0.078	0.031
-252.078	-6.174	-0.077	0.053
-251.063	-200.000	-0.033	-0.247
-250.049	58.683	-0.034	-0.033
-249.034	35.041	-0.459	0.404
-248.019	-200.000	-0.010	-0.250
-247.005	-2.804	0.397	-0.279
-245.990	-81.609	0.049	-0.016
-244.976	245.238	0.150	-0.254
-243.961	-151.143	-0.179	-0.013
-242.946	474.138	0.137	-0.310
-241.932	181.758	0.090	0.133
-240.917	-58.745	-0.305	-0.133
-239.903	-200.000	-0.045	0.220
-238.888	-99.221	-0.311	0.079
-237.873	-36.180	0.356	-0.193
-236.859	-74.875	-0.070	-0.025
-235.844	168.575	-0.092	-0.132
-234.830	14.163	-0.166	0.130
-233.815	-50.356	-0.199	-0.094
-232.800	20.437	0.277	-0.224
-231.786	800.000	-0.040	-0.158
-230.771	-4.786	0.325	0.224
-229.757	286.155	0.074	-0.133
-228.742	-58.485	-0.294	-0.128
-227.727	-138.539	-0.140	-0.015
-226.713	-200.000	0.013	-0.187
-225.698	-200.000	-0.052	0.266
-224.684	46.661	0.286	0.266
-223.669	34.632	0.322	0.282
-222.655	-200.000	0.039	-0.178
-221.640	373.326	-0.060	0.122
-220.625	-200.000	-0.030	0.278
-219.611	17.370	-0.052	-0.041
-218.596	704.531	-0.070	0.185
-217.582	534.970	-0.219	-0.519
-216.567	-13.244	0.134	-0.087
-215.552	-111.891	0.110	-0.022
-214.538	800.000	0.139	-0.486
-213.523	-160.195	0.423	-0.023
-212.509	-0.814	-0.116	-0.082
-211.494	-39.936	0.110	0.058
-210.479	2.778	-0.291	-0.212
-209.465	-53.410	-0.143	-0.066
-208.450	-43.107	0.295	-0.150
-207.436	-45.495	-0.090	-0.045
-206.421	-22.212	0.109	-0.066
-205.406	589.575	0.066	0.162
-204.392	-66.058	-0.076	0.030
-203.377	-200.000	0.011	0.231
-202.363	-160.467	-0.325	0.017
-201.348	-65.850	0.113	0.045
-200.333	650.127	-0.135	0.347
-199.319	181.956	0.067	0.099
-198.304	-31.074	0.093	-0.052
-197.290	-35.462	0.024	-0.013
-196.275	-200.000	0.005	-0.140
-195.260	291.858	0.046	0.083
-194.246	-89.930	0.209	0.061
-193.231	65.409	-0.074	0.074
-192.217	186.181	0.164	0.244
-191.202	-92.384	0.233	-0.066
-190.187	-200.000	-0.008	-0.378
-189.173	-70.862	-0.121	0.045
-188.158	-200.000	-0.032	-0.143
-187.144	-60.425	0.307	0.131
-186.129	13.274	-0.473	0.367
-185.114	174.304	-0.295	-0.427
-184.100	-132.601	-0.186	0.024
-183.085	175.635	0.232	-0.336
-182.071	-14.891	-0.151	0.097
-181.056	-200.000	0.005	0.064
-180.042	800.000	0.039	0.134
-179.027	15.069	0.152	-0.119
-178.012	380.582	0.141	0.289
-176.998	76.270	0.114	0.121
-175.983	191.913	-0.135	-0.204
-174.969	-142.223	-0.274	-0.027
-173.954	-200.000	-0.013	0.154
-172.939	-85.996	0.286	0.089
-171.925	268.752	0.109	0.191
-170.910	521.660	0.101	0.237
-169.896	255.100	0.103	-0.176
-168.881	-142.905	-0.498	-0.048
-167.866	-110.716	0.009	0.002
-166.852	-200.000	-0.022	0.350
-165.837	96.611	-0.175	0.201
-164.823	409.213	-0.094	0.200
-163.808	800.000	0.041	0.175
-162.793	11.877	0.233	0.179
-161.779	656.843	-0.118	0.303
-160.764	42.110	-0.087	-0.079
-159.750	-95.196	-0.086	0.023
-158.735	800.000	0.068	0.208
-157.720	-86.364	0.476	0.146
-156.706	800.000	-0.090	0.392
-155.691	135.353	0.150	-0.195
-154.677	46.551	-0.065	0.060
-153.662	800.000	-0.044	0.153
-152.647	27.096	-0.254	-0.213
-151.633	-200.000	0.033	-0.180
-150.618	49.300	0.009	0.008
-149.604	-42.675	0.034	-0.017
-148.589	-122.510	0.261	-0.042
-147.574	800.000	0.107	-0.315
-146.560	-200.000	-0.002	-0.025
-145.545	-200.000	-0.004	0.331
-144.531	3.509	-0.047	0.034
-143.516	-40.727	0.173	-0.089
-142.502	-107.149	-0.253	0.056
-141.487	-200.000	-0.018	0.237
-140.472	-117.602	-0.110	-0.020
-139.458	800.000	0.023	0.071
-138.443	719.121	-0.095	0.251
-137.429	-200.000	-0.000	-0.092
-136.414	800.000	-0.032	0.119
-135.399	22.015	-0.185	0.151
-134.385	-200.000	-0.012	0.086
-133.370	-68.511	0.142	0.055
-132.356	-51.758	0.226	0.105
-131.341	-14.421	0.182	-0.117
-130.326	-200.000	0.027	-0.167
-129.312	6.676	-0.102	0.076
-128.297	782.493	-0.088	-0.242
-127.283	800.000	-0.071	-0.283
-126.268	733.836	-0.060	-0.162
-125.253	104.010	0.089	-0.105
-124.239	-200.000	0.044	-0.264
-123.224	-149.668	-0.050	-0.004
-122.210	-10.737	0.074	0.049
-121.195	-143.230	-0.242	-0.023
