DTS Sentinel unit serial number:	SN413079Multiplexer serial number:	ORYXHardware model number:	OX4-SRSoftware version number:	ORYX F/W v4.00 Oryx Data Collector v3.7.2.0data status	okinstallation	princeton_trtdifferential loss correction	single-endedforward channel	channel 1reverse channel	N/Adate	2019/09/14time	20:18:35forward acquisition time	60.00reverse acquisition time	0.00gamma	496.2192k internal	0.2316k external	0.2316temperature offset calibration	1.0018default loss term (dB/km)	0.3790temperature slope calibration	1.0000multiplexer offset coefficient	1.0000multiplexer slope coefficient	1.0000fibre end	0.00T internal ref (°C)	33.75T ext. ref 1 (°C)	4.82T ext. ref 2 (°C)	28.23length (m)	temperature (°C)	Stokes	anti-Stokes-747.200	-25.329	-0.126	-0.075
-746.185	800.000	-0.115	0.401
-745.171	800.000	0.040	0.137
-744.156	538.608	-0.097	-0.233
-743.142	-200.000	-0.009	-0.162
-742.127	-200.000	-0.011	0.068
-741.112	53.864	-0.082	-0.080
-740.098	-200.000	-0.057	0.319
-739.083	-2.568	0.184	-0.130
-738.069	80.450	-0.079	0.086
-737.054	-200.000	0.019	0.270
-736.039	-61.390	-0.298	-0.127
-735.025	58.493	0.473	0.470
-734.010	-200.000	0.026	-0.308
-732.996	-200.000	-0.103	0.000
-731.981	-200.000	0.022	0.224
-730.966	276.446	0.213	0.383
-729.952	548.657	0.039	-0.095
-728.937	-132.081	-0.122	-0.016
-727.923	180.773	-0.021	-0.031
-726.908	156.079	-0.041	0.057
-725.894	-6.104	-0.341	0.236
-724.879	-121.579	-0.407	0.068
-723.864	225.382	-0.170	-0.279
-722.850	71.594	0.272	0.285
-721.835	-27.086	-0.303	0.179
-720.821	-30.962	0.139	-0.079
-719.806	167.400	-0.043	-0.061
-718.791	800.000	-0.025	0.100
-717.777	203.257	0.154	-0.241
-716.762	-22.444	-0.286	0.175
-715.748	175.556	0.110	-0.162
-714.733	40.917	-0.183	-0.167
-713.718	-38.452	-0.062	0.033
-712.704	5.892	0.150	0.112
-711.689	744.699	-0.153	-0.416
-710.675	-200.000	0.004	0.098
-709.660	142.534	-0.079	0.106
-708.645	21.906	0.231	-0.190
-707.631	-96.129	0.209	0.056
-706.616	118.510	0.180	0.225
-705.602	114.134	-0.084	-0.103
-704.587	800.000	0.096	0.280
-703.572	-81.226	0.031	0.010
-702.558	-31.964	0.207	-0.117
-701.543	191.359	0.060	-0.091
-700.529	-200.000	-0.003	-0.029
-699.514	-126.190	0.431	-0.065
-698.499	-186.189	-0.428	-0.006
-697.485	362.604	-0.089	-0.180
-696.470	-103.200	-0.369	0.088
-695.456	-166.111	-0.072	0.003
-694.441	-51.768	0.226	0.106
-693.426	-61.382	-0.054	-0.023
-692.412	-200.000	0.007	-0.274
-691.397	-3.717	0.317	0.223
-690.383	-200.000	-0.014	0.236
-689.368	-200.000	-0.035	0.207
-688.354	800.000	-0.037	-0.127
-687.339	-38.752	-0.106	-0.057
-686.324	180.935	0.120	0.178
-685.310	-124.324	0.098	0.015
-684.295	134.995	-0.114	0.150
-683.281	-103.491	0.078	-0.019
-682.266	800.000	-0.113	-0.462
-681.251	800.000	0.044	0.148
-680.237	-200.000	-0.004	0.049
-679.222	202.829	-0.055	-0.086
-678.208	375.521	0.078	0.160
-677.193	18.385	0.064	0.052
-676.178	287.361	0.121	-0.221
-675.164	-11.026	-0.128	-0.086
-674.149	800.000	-0.020	0.063
-673.135	-200.000	0.013	-0.393
-672.120	-200.000	-0.001	0.184
-671.105	-200.000	0.010	-0.061
-670.091	-49.461	0.270	-0.130
-669.076	-25.473	0.173	-0.103
-668.062	134.864	-0.109	0.143
-667.047	146.398	0.044	0.060
-666.032	-200.000	-0.021	0.357
-665.018	151.104	0.092	-0.126
-664.003	72.645	0.299	0.315
-662.989	-25.417	0.102	0.061
-661.974	-167.375	-0.484	-0.020
-660.959	-70.004	-0.013	-0.005
-659.945	-50.205	-0.274	0.131
-658.930	105.579	0.238	-0.284
-657.916	-32.824	-0.442	-0.248
-656.901	-5.496	-0.085	-0.059
-655.886	311.023	0.056	0.105
-654.872	572.992	-0.065	0.159
-653.857	-42.186	0.207	-0.107
-652.843	-47.671	-0.319	-0.156
-651.828	4.878	0.175	0.130
-650.814	-200.000	0.026	0.187
-649.799	55.212	0.275	0.269
-648.784	800.000	0.102	0.339
-647.770	-88.172	-0.222	0.067
-646.755	-28.518	0.198	0.115
-645.741	268.970	0.101	-0.179
-644.726	399.069	-0.115	0.243
-643.711	38.983	-0.204	-0.184
-642.697	-20.382	-0.077	-0.048
-641.682	80.822	-0.047	0.051
-640.668	0.136	0.160	0.115
-639.653	-61.618	0.182	0.077
-638.638	459.149	-0.119	0.268
-637.624	-200.000	-0.008	0.223
-636.609	-130.181	-0.192	0.026
-635.595	25.798	-0.180	0.152
-634.580	46.342	0.113	-0.105
-633.565	-56.909	-0.237	0.106
-632.551	38.959	-0.084	-0.075
-631.536	-200.000	-0.010	0.326
-630.522	-1.966	-0.133	-0.095
-629.507	-130.890	-0.143	0.019
-628.492	-200.000	-0.076	0.362
-627.478	-20.121	-0.211	0.131
-626.463	327.591	-0.080	0.154
-625.449	64.773	-0.009	0.009
-624.434	-53.824	-0.160	-0.073
-623.419	502.157	0.065	-0.151
-622.405	-21.061	0.349	0.215
-621.390	-200.000	0.011	-0.064
-620.376	-76.709	-0.333	0.118
-619.361	83.182	-0.250	0.275
-618.346	-200.000	0.016	-0.292
-617.332	-113.002	0.319	-0.064
-616.317	-73.876	-0.178	-0.065
-615.303	-122.873	0.171	-0.028
-614.288	-200.000	-0.032	-0.327
-613.273	-22.512	-0.134	-0.082
-612.259	-200.000	-0.026	-0.187
-611.244	174.285	0.146	0.213
-610.230	-91.727	-0.455	-0.130
-609.215	-200.000	-0.021	0.175
-608.201	-129.848	0.211	-0.029
-607.186	-200.000	-0.054	0.290
-606.171	-91.291	0.179	-0.052
-605.157	110.311	-0.087	-0.105
-604.142	-76.928	0.282	0.099
-603.128	800.000	-0.086	-0.241
-602.113	676.465	-0.142	-0.370
-601.098	-78.429	-0.125	0.043
-600.084	61.477	-0.207	-0.207
-599.069	87.164	0.258	0.287
-598.055	406.767	-0.064	0.136
-597.040	12.165	0.117	0.091
-596.025	-54.034	-0.234	-0.107
-595.011	609.284	-0.105	0.265
-593.996	-18.530	0.179	0.112
-592.982	-200.000	0.028	-0.172
-591.967	326.906	-0.144	-0.278
-590.952	208.750	-0.113	-0.178
-589.938	-112.482	0.202	-0.041
-588.923	122.208	0.096	-0.120
-587.909	-93.452	-0.155	-0.043
-586.894	23.384	0.175	-0.145
-585.879	-200.000	-0.015	-0.104
-584.865	-200.000	-0.026	-0.129
-583.850	-151.788	0.259	-0.019
-582.836	-34.640	0.267	-0.147
-581.821	-200.000	0.022	-0.209
-580.806	-134.949	0.058	-0.007
-579.792	-200.000	-0.142	-0.000
-578.777	378.928	-0.031	-0.064
-577.763	449.082	-0.103	0.229
-576.748	196.248	0.079	0.122
-575.733	580.353	-0.098	-0.243
-574.719	-126.539	-0.019	0.003
-573.704	270.002	0.114	0.201
-572.690	265.058	0.033	0.058
-571.675	-112.078	-0.202	-0.041
-570.661	-40.773	-0.090	-0.047
-569.646	-131.221	-0.073	-0.010
-568.631	318.481	-0.142	0.270
-567.617	373.774	0.099	0.202
-566.602	-200.000	-0.009	-0.454
-565.588	-35.571	0.124	-0.068
-564.573	138.610	-0.068	0.089
-563.558	-112.632	-0.322	-0.064
-562.544	-200.000	0.006	0.114
-561.529	-130.988	0.127	0.017
-560.515	-67.154	0.335	0.133
-559.500	-200.000	0.013	-0.069
-558.485	-15.108	0.098	0.063
-557.471	-200.000	0.004	-0.138
-556.456	530.763	0.028	-0.067
-555.442	125.304	-0.062	0.079
-554.427	-200.000	0.105	0.461
-553.412	-99.362	-0.242	-0.061
-552.398	458.552	-0.078	-0.175
-551.383	-32.249	0.139	-0.078
-550.369	132.018	-0.073	0.094
-549.354	30.882	0.187	-0.161
-548.339	-200.000	0.029	-0.285
-547.325	430.791	-0.069	-0.150
-546.310	-45.190	-0.194	-0.097
-545.296	-200.000	-0.083	-0.484
-544.281	41.383	0.332	-0.302
-543.266	77.569	0.110	-0.118
-542.252	-168.510	-0.466	-0.018
-541.237	315.585	-0.077	0.146
-540.223	187.566	-0.070	-0.105
-539.208	-84.792	-0.143	-0.045
-538.193	683.458	-0.051	0.133
-537.179	-36.360	0.208	0.113
-536.164	-11.723	0.175	0.115
-535.150	-39.723	-0.091	0.048
-534.135	-100.169	-0.219	-0.055
-533.121	160.655	0.178	0.250
-532.106	-78.263	-0.199	0.069
-531.091	700.319	0.045	0.120
-530.077	216.127	0.032	-0.051
-529.062	554.398	0.032	-0.076
-528.048	-200.000	0.063	0.366
-527.033	157.517	-0.232	0.322
-526.018	-67.267	-0.143	-0.057
-525.004	-200.000	-0.017	-0.394
-523.989	-200.000	-0.077	-0.514
-522.975	-200.000	-0.035	-0.180
-521.960	800.000	-0.084	-0.245
-520.945	-200.000	0.040	-0.262
-519.931	-111.311	0.194	0.040
-518.916	-200.000	0.026	-0.471
-517.902	-200.000	-0.002	-0.183
-516.887	-181.131	-0.474	0.009
-515.872	-67.145	0.226	0.089
-514.858	276.782	-0.112	0.199
-513.843	-200.000	0.035	-0.188
-512.829	-182.693	-0.180	-0.003
-511.814	-164.248	0.043	-0.002
-510.799	-200.000	-0.027	0.260
-509.785	174.971	-0.056	-0.081
-508.770	31.759	-0.273	0.236
-507.756	-68.133	0.249	-0.097
-506.741	-200.000	0.035	0.233
-505.726	29.568	0.042	0.036
-504.712	205.407	-0.164	-0.256
-503.697	-159.375	0.485	0.027
-502.683	-74.575	-0.182	0.066
-501.668	412.710	-0.045	0.097
-500.653	265.392	-0.094	-0.165
-499.639	800.000	-0.142	-0.529
-498.624	-138.170	0.133	-0.015
-497.610	7.069	0.113	0.084
-496.595	-106.032	0.264	-0.060
-495.581	-200.000	0.009	0.051
-494.566	167.694	-0.103	0.146
-493.551	219.068	0.072	-0.115
-492.537	-94.902	-0.202	-0.055
-491.522	-18.712	0.254	-0.159
-490.508	-23.450	0.018	-0.011
-489.493	292.993	0.159	-0.290
-488.478	-114.439	-0.325	-0.063
-487.464	-200.000	0.046	0.292
-486.449	-48.187	0.103	-0.050
-485.435	-59.551	-0.104	0.045
-484.420	310.500	-0.090	-0.169
-483.405	-100.951	0.211	-0.052
-482.391	-63.173	0.134	-0.055
-481.376	1.907	0.275	-0.199
-480.362	227.429	-0.050	0.081
-479.347	302.141	0.155	-0.288
-478.332	-45.930	-0.240	-0.119
-477.318	-53.585	-0.083	0.038
-476.303	159.136	-0.201	-0.280
-475.289	126.467	0.143	-0.181
-474.274	140.389	0.170	-0.225
-473.259	800.000	0.110	-0.478
-472.245	28.705	0.447	0.379
-471.230	-200.000	-0.044	0.356
-470.216	5.495	0.189	0.139
-469.201	-0.588	-0.206	-0.146
-468.186	591.722	0.058	-0.144
-467.172	800.000	0.057	-0.227
-466.157	-200.000	-0.005	0.102
-465.143	-20.643	-0.137	0.084
-464.128	-83.967	-0.202	0.064
-463.113	83.156	-0.146	-0.159
-462.099	800.000	-0.022	-0.075
-461.084	-40.886	-0.091	0.047
-460.070	5.807	-0.280	0.207
-459.055	-200.000	0.056	0.367
-458.040	-200.000	0.042	0.227
-457.026	-189.273	0.069	-0.001
-456.011	-200.000	0.006	0.209
-454.997	122.682	0.110	-0.138
-453.982	297.095	0.112	-0.207
-452.968	154.193	-0.125	-0.172
-451.953	-124.649	0.373	0.058
-450.938	-3.194	0.048	0.033
-449.924	-200.000	-0.016	-0.119
-448.909	126.822	-0.106	-0.135
-447.895	-200.000	-0.002	0.090
-446.880	-6.943	0.258	-0.175
-445.865	-200.000	-0.017	-0.241
-444.851	-200.000	0.042	-0.463
-443.836	398.962	-0.078	-0.164
-442.822	-200.000	0.005	0.228
-441.807	-74.963	0.325	0.116
-440.792	192.893	0.062	0.094
-439.778	800.000	-0.028	0.117
-438.763	-163.930	0.256	-0.012
-437.749	159.012	-0.157	-0.218
-436.734	-200.000	0.006	0.074
-435.719	523.659	-0.188	-0.443
-434.705	-62.725	-0.186	0.077
-433.690	114.796	0.224	-0.273
-432.676	-24.792	0.110	-0.066
-431.661	-11.404	-0.174	0.114
-430.646	25.354	-0.150	-0.125
-429.632	-36.041	0.189	-0.102
-428.617	-99.934	-0.137	0.034
-427.603	800.000	-0.101	0.382
-426.588	-29.932	-0.275	0.156
-425.573	-122.009	-0.232	-0.038
-424.559	100.438	0.197	-0.229
-423.544	-94.562	-0.191	0.052
-422.530	-200.000	0.005	0.099
-421.515	800.000	0.067	0.245
-420.500	-70.938	0.290	-0.109
-419.486	-54.869	-0.268	0.121
-418.471	31.882	0.162	-0.139
-417.457	-27.401	-0.279	0.162
-416.442	244.016	-0.059	-0.100
-415.428	-200.000	-0.047	0.232
-414.413	-47.599	-0.293	0.142
-413.398	-200.000	0.004	0.124
-412.384	0.003	-0.174	0.124
-411.369	-99.306	-0.221	-0.056
-410.355	-171.822	-0.166	0.005
-409.340	-200.000	0.057	0.282
-408.325	-45.752	0.019	-0.010
-407.311	50.016	0.158	-0.149
-406.296	-200.000	0.043	0.201
-405.282	-200.000	-0.023	-0.271
-404.267	-81.589	-0.262	0.086
-403.252	40.297	0.228	0.205
-402.238	28.984	-0.150	0.127
-401.223	12.605	0.119	-0.092
-400.209	168.620	-0.216	0.307
-399.194	315.635	-0.080	-0.152
-398.179	103.072	-0.168	0.196
-397.165	61.622	0.173	0.172
-396.150	-31.526	0.221	0.124
-395.136	-200.000	0.045	-0.281
-394.121	96.514	-0.132	-0.151
-393.106	-200.000	-0.021	-0.095
-392.092	248.431	0.189	0.319
-391.077	-32.577	-0.122	-0.068
-390.063	-200.000	0.009	-0.062
-389.048	-35.074	0.128	0.069
-388.033	-178.946	0.062	0.001
-387.019	-56.437	-0.140	0.062
-386.004	800.000	-0.090	-0.282
-384.990	-151.938	0.136	-0.010
-383.975	-40.107	0.245	-0.128
-382.960	-55.216	-0.027	0.012
-381.946	800.000	0.040	-0.121
-380.931	-166.488	0.192	0.008
-379.917	800.000	-0.129	-0.372
-378.902	-27.717	0.288	0.167
-377.888	-126.401	0.277	-0.041
-376.873	134.322	0.071	-0.092
-375.858	-173.557	-0.181	0.005
-374.844	-59.247	0.229	0.099
-373.829	586.971	-0.026	0.064
-372.815	-13.825	-0.221	0.143
-371.800	-200.000	0.009	-0.077
-370.785	-198.819	-0.320	0.002
-369.771	99.428	-0.058	-0.067
-368.756	67.943	-0.108	0.110
-367.742	800.000	-0.082	-0.250
-366.727	-84.292	0.332	-0.105
-365.712	23.204	0.063	-0.051
-364.698	253.997	-0.093	0.158
-363.683	-0.407	-0.237	-0.168
-362.669	-4.597	-0.319	0.220
-361.654	-102.993	-0.450	-0.107
-360.639	-153.614	-0.231	-0.016
-359.625	105.887	-0.145	0.171
-358.610	20.978	0.164	-0.133
-357.596	-96.067	0.154	0.041
-356.581	-118.639	0.366	-0.064
-355.566	305.458	0.041	-0.077
-354.552	-100.528	0.324	0.080
-353.537	800.000	-0.086	0.306
-352.523	291.941	0.215	0.390
-351.508	-40.950	0.327	-0.169
-350.493	-107.422	-0.096	-0.021
-349.479	-173.455	-0.165	-0.005
-348.464	-200.000	-0.001	0.227
-347.450	-200.000	0.005	-0.100
-346.435	104.542	-0.021	0.025
-345.420	-143.285	-0.154	0.015
-344.406	-13.858	-0.238	-0.153
-343.391	-200.000	-0.029	-0.310
-342.377	-80.164	0.151	-0.050
-341.362	26.493	-0.137	0.114
-340.348	-200.000	0.008	0.124
-339.333	167.423	0.236	0.334
-338.318	-200.000	0.015	0.327
-337.304	43.453	0.371	0.338
-336.289	602.167	0.074	0.183
-335.275	12.550	-0.060	-0.046
-334.260	131.280	-0.157	-0.201
-333.245	800.000	0.064	-0.220
-332.231	-65.896	-0.407	-0.162
-331.216	-21.219	0.195	0.119
-330.202	-61.534	-0.220	0.092
-329.187	-108.326	0.120	-0.026
-328.172	-136.143	0.078	-0.009
-327.158	-200.000	0.004	-0.297
-326.143	-120.706	0.405	0.068
-325.129	800.000	-0.055	0.179
-324.114	389.911	0.003	-0.007
-323.099	268.939	-0.197	-0.344
-322.085	-31.633	0.180	0.101
-321.070	800.000	-0.088	-0.340
-320.056	-116.482	0.441	0.081
-319.041	302.259	-0.068	0.126
-318.026	-200.000	0.027	-0.195
-317.012	800.000	0.059	-0.194
-315.997	-158.570	-0.163	-0.009
-314.983	-162.917	0.204	0.010
-313.968	-66.308	0.138	-0.055
-312.953	-200.000	0.052	-0.284
-311.939	608.244	0.063	-0.157
-310.924	106.918	-0.219	-0.259
-309.910	81.930	0.052	-0.056
-308.895	-3.764	-0.037	-0.026
-307.880	12.075	-0.184	0.141
-306.866	-200.000	0.009	0.187
-305.851	-78.810	-0.133	-0.045
-304.837	-200.000	-0.023	-0.216
-303.822	44.491	-0.128	0.117
-302.807	800.000	-0.038	-0.123
-301.793	-167.561	0.052	0.002
-300.778	800.000	0.094	-0.260
-299.764	-148.415	0.193	-0.016
-298.749	800.000	-0.124	0.435
-297.735	-83.671	0.197	0.063
-296.720	160.450	-0.130	0.181
-295.705	437.714	0.153	-0.332
-294.691	-44.620	0.312	0.155
-293.676	791.215	-0.034	-0.092
-292.662	-166.227	0.206	-0.009
-291.647	-156.966	-0.176	-0.011
-290.632	249.464	0.163	0.276
-289.618	-20.319	-0.338	0.207
-288.603	86.246	-0.182	0.200
-287.589	-163.432	-0.172	0.008
-286.574	710.040	-0.072	0.191
-285.559	-130.505	0.458	0.062
-284.545	521.108	0.055	-0.128
-283.530	33.998	-0.113	-0.098
-282.516	-50.475	-0.256	-0.120
-281.501	-185.729	-0.247	0.004
-280.486	-39.349	0.151	-0.079
-279.472	-61.331	-0.191	0.080
-278.457	-73.722	-0.207	0.075
-277.443	-11.587	-0.021	0.014
-276.428	3.571	0.094	0.068
-275.413	-1.259	-0.009	0.006
-274.399	101.622	-0.085	0.098
-273.384	-126.821	-0.196	0.029
-272.370	-200.000	-0.017	0.238
-271.355	-200.000	-0.019	0.172
-270.340	30.184	-0.244	-0.207
-269.326	-193.343	-0.258	-0.002
-268.311	65.019	0.205	0.206
-267.297	650.236	-0.088	-0.225
-266.282	-63.364	0.317	0.130
-265.267	-101.693	0.178	0.043
-264.253	466.589	-0.060	-0.133
-263.238	142.327	-0.234	-0.309
-262.224	-131.746	-0.355	-0.046
-261.209	-200.000	-0.046	-0.226
-260.195	-34.533	0.151	-0.082
-259.180	364.961	-0.112	-0.224
-258.165	-74.066	0.173	0.062
-257.151	357.424	-0.019	-0.037
-256.136	-95.994	-0.052	0.014
-255.122	-115.254	0.091	-0.017
-254.107	231.741	-0.202	0.329
-253.092	-109.798	0.160	-0.033
-252.078	800.000	-0.068	-0.283
-251.063	797.756	-0.149	-0.408
-250.049	-44.741	0.578	0.286
-249.034	-193.617	0.278	0.002
-248.019	-200.000	0.026	0.219
-247.005	192.844	-0.084	0.126
-245.990	157.408	0.096	0.132
-244.976	-200.000	0.048	-0.222
-243.961	-12.328	0.370	0.240
-242.946	-131.962	0.634	-0.082
-241.932	-200.000	-0.010	0.048
-240.917	-200.000	-0.063	-0.302
-239.903	331.064	-0.056	0.107
-238.888	50.644	0.134	-0.126
-237.873	-41.604	-0.083	-0.042
-236.859	-8.864	-0.114	0.076
-235.844	306.114	0.114	0.211
-234.830	775.950	-0.034	0.092
-233.815	-5.243	0.250	-0.171
-232.800	-46.032	-0.115	-0.056
-231.786	-104.590	0.313	-0.072
-230.771	-161.374	0.352	0.018
-229.757	800.000	0.036	-0.131
-228.742	-70.129	-0.104	0.039
-227.727	-52.975	0.270	0.123
-226.713	-3.461	0.104	-0.072
-225.698	-200.000	0.020	0.182
-224.684	800.000	0.047	0.194
-223.669	99.196	-0.055	0.063
-222.655	800.000	0.043	-0.139
-221.640	40.373	0.185	0.165
-220.625	-41.527	-0.187	0.095
-219.611	-76.755	-0.443	-0.154
-218.596	-72.339	0.222	-0.082
-217.582	-107.572	-0.462	0.100
-216.567	800.000	0.077	0.213
-215.552	800.000	0.022	0.086
-214.538	-46.345	0.222	-0.108
-213.523	-200.000	-0.014	0.150
-212.509	323.542	0.160	0.302
-211.494	-154.595	-0.259	0.017
-210.479	-47.040	-0.282	0.136
-209.465	356.369	0.053	-0.105
-208.450	17.380	0.231	0.182
-207.436	35.746	0.258	0.225
-206.421	30.455	-0.315	0.267
-205.406	-200.000	-0.115	0.001
-204.392	-83.525	0.154	0.049
-203.377	-47.442	-0.144	-0.069
-202.363	-200.000	-0.022	0.431
-201.348	800.000	0.028	0.110
-200.333	800.000	0.089	-0.381
-199.319	40.218	-0.063	-0.056
-198.304	-23.369	0.170	0.101
-197.290	83.620	0.199	0.215
-196.275	4.870	-0.074	-0.054
-195.260	-14.128	0.266	0.170
-194.246	-200.000	0.000	-0.080
-193.231	-152.760	-0.410	-0.029
-192.217	-22.607	0.305	-0.183
-191.202	267.660	-0.075	0.131
-190.187	342.505	-0.021	0.040
-189.173	370.992	-0.082	0.165
-188.158	-144.631	0.321	0.029
-187.144	-61.224	-0.321	-0.134
-186.129	49.584	0.136	-0.127
-185.114	-175.651	-0.230	-0.006
-184.100	-110.042	0.292	0.061
-183.085	-155.399	-0.205	0.013
-182.071	-136.605	0.199	0.023
-181.056	-113.631	0.105	0.020
-180.042	-200.000	0.007	0.114
-179.027	800.000	-0.017	-0.066
-178.012	96.687	-0.151	0.172
-176.998	52.355	-0.070	0.066
-175.983	-25.519	0.091	-0.053
-174.969	-53.280	0.159	-0.072
-173.954	-113.547	0.218	-0.042
-172.939	800.000	0.045	-0.135
-171.925	452.344	-0.050	-0.109
-170.910	655.359	-0.108	0.274
-169.896	-127.211	0.174	0.025
-168.881	-26.261	0.114	-0.066
-167.866	82.892	0.198	-0.214
-166.852	-97.778	-0.453	0.116
-165.837	68.214	-0.223	0.227
-164.823	-151.347	0.283	0.021
-163.808	800.000	0.013	0.043
-162.793	139.225	-0.088	-0.115
-161.779	238.030	0.155	0.255
-160.764	-7.131	0.023	0.016
-159.750	40.927	-0.104	-0.093
-158.735	-136.892	-0.199	0.023
-157.720	-200.000	-0.036	0.402
-156.706	46.799	0.128	-0.117
-155.691	510.044	0.043	0.100
-154.677	-160.498	-0.332	-0.018
-153.662	173.890	-0.024	0.035
-152.647	-75.713	0.025	-0.009
-151.633	800.000	0.043	0.174
-150.618	800.000	-0.043	0.151
-149.604	-98.460	-0.254	0.064
-148.589	-169.868	-0.370	-0.013
-147.574	-200.000	0.076	-0.433
-146.560	800.000	-0.100	0.304
-145.545	-200.000	0.001	0.365
-144.531	-18.698	0.163	-0.101
-143.516	537.721	-0.144	0.338
-142.502	-200.000	0.003	-0.312
-141.487	-147.095	0.311	-0.026
-140.472	-200.000	0.015	0.108
-139.458	-134.775	-0.022	-0.003
-138.443	-200.000	0.015	0.227
-137.429	-112.051	-0.112	-0.022
-136.414	-101.408	0.106	-0.025
-135.399	-144.150	0.263	0.024
-134.385	14.192	0.263	0.203
-133.370	-200.000	0.052	-0.472
-132.356	-50.464	0.070	0.033
-131.341	-91.029	-0.026	0.007
-130.326	-18.882	0.275	-0.169
-129.312	-93.094	0.005	0.001
-128.297	800.000	-0.055	-0.239
-127.283	-200.000	0.038	-0.309
-126.268	800.000	0.048	-0.154
-125.253	800.000	-0.021	0.059
-124.239	205.649	0.187	0.287
-123.224	-59.893	-0.196	-0.083
-122.210	800.000	-0.125	-0.353
