DTS Sentinel unit serial number:	SN413079Multiplexer serial number:	ORYXHardware model number:	OX4-SRSoftware version number:	ORYX F/W v4.00 Oryx Data Collector v3.7.2.0data status	okinstallation	princeton_trtdifferential loss correction	single-endedforward channel	channel 1reverse channel	N/Adate	2019/09/14time	03:42:35forward acquisition time	60.00reverse acquisition time	0.00gamma	496.2192k internal	0.2336k external	0.2336temperature offset calibration	1.0079default loss term (dB/km)	0.3790temperature slope calibration	1.0000multiplexer offset coefficient	1.0000multiplexer slope coefficient	1.0000fibre end	0.00T internal ref (°C)	26.64T ext. ref 1 (°C)	3.29T ext. ref 2 (°C)	21.66length (m)	temperature (°C)	Stokes	anti-Stokes-747.200	152.142	0.144	-0.198
-746.185	138.867	-0.063	-0.083
-745.171	325.475	-0.099	-0.190
-744.156	800.000	-0.111	0.353
-743.142	-200.000	0.029	-0.141
-742.127	-134.668	-0.121	-0.015
-741.112	-126.811	0.199	0.029
-740.098	97.232	-0.093	0.107
-739.083	-97.834	0.261	-0.068
-738.069	583.642	0.044	-0.109
-737.054	800.000	0.070	0.226
-736.039	-85.655	-0.357	0.111
-735.025	-22.131	0.394	-0.240
-734.010	-172.300	-0.465	-0.015
-732.996	-7.505	-0.119	-0.081
-731.981	-104.798	-0.202	-0.047
-730.966	-20.170	-0.220	-0.136
-729.952	6.627	-0.152	-0.113
-728.937	100.164	-0.244	-0.284
-727.923	280.342	0.038	0.068
-726.908	-101.648	-0.158	0.039
-725.894	800.000	-0.052	-0.165
-724.879	-27.426	0.166	-0.097
-723.864	619.182	0.043	-0.108
-722.850	204.310	0.030	-0.046
-721.835	73.914	-0.198	-0.209
-720.821	314.054	-0.065	-0.122
-719.806	-200.000	-0.033	-0.395
-718.791	-53.899	-0.279	-0.127
-717.777	109.688	0.094	0.113
-716.762	53.270	0.252	-0.243
-715.748	47.835	-0.079	0.074
-714.733	-78.376	0.096	0.033
-713.718	800.000	-0.087	-0.374
-712.704	-200.000	-0.102	-0.519
-711.689	800.000	0.009	-0.040
-710.675	-56.610	-0.201	-0.089
-709.660	216.470	-0.155	0.248
-708.645	-186.345	-0.212	-0.003
-707.631	451.369	0.035	0.078
-706.616	53.994	0.119	-0.115
-705.602	300.265	-0.082	-0.152
-704.587	-200.000	-0.025	-0.217
-703.572	213.211	-0.089	0.141
-702.558	800.000	-0.100	-0.350
-701.543	283.708	0.146	-0.262
-700.529	-200.000	0.021	0.373
-699.514	-59.233	-0.250	-0.108
-698.499	-2.716	-0.371	0.260
-697.485	-68.626	0.141	-0.055
-696.470	-200.000	-0.003	0.105
-695.456	-80.843	0.329	0.109
-694.441	-52.852	0.347	0.160
-693.426	-120.647	0.240	-0.041
-692.412	-79.002	-0.133	0.045
-691.397	57.011	0.099	-0.096
-690.383	222.291	0.167	0.270
-689.368	15.142	-0.159	-0.125
-688.354	54.593	-0.269	0.260
-687.339	91.979	-0.143	0.161
-686.324	24.752	0.085	-0.071
-685.310	-33.017	0.191	-0.106
-684.295	-87.556	-0.164	-0.050
-683.281	621.838	0.117	-0.296
-682.266	-8.083	0.134	0.090
-681.251	-114.221	0.264	-0.051
-680.237	33.111	0.119	-0.104
-679.222	-65.938	-0.181	0.073
-678.208	319.151	0.156	-0.297
-677.193	800.000	0.141	-0.478
-676.178	-200.000	0.011	-0.112
-675.164	-200.000	0.015	0.214
-674.149	-200.000	-0.058	0.564
-673.135	-112.005	0.042	-0.008
-672.120	-200.000	0.022	0.112
-671.105	-200.000	-0.052	-0.235
-670.091	-106.662	0.160	0.036
-669.076	800.000	-0.062	-0.259
-668.062	235.539	-0.088	0.146
-667.047	-200.000	0.038	0.263
-666.032	-5.105	-0.241	0.166
-665.018	-172.548	0.082	-0.003
-664.003	239.250	-0.120	-0.200
-662.989	23.958	0.021	-0.018
-661.974	-200.000	0.061	0.341
-660.959	-124.749	0.218	-0.034
-659.945	-200.000	0.048	-0.258
-658.930	43.943	-0.283	0.260
-657.916	-8.067	-0.140	0.095
-656.901	-48.724	-0.140	-0.067
-655.886	800.000	-0.085	0.259
-654.872	108.037	-0.174	0.207
-653.857	-200.000	0.001	-0.186
-652.843	147.025	0.177	0.238
-651.828	-200.000	0.053	-0.470
-650.814	-102.019	0.507	-0.122
-649.799	21.857	-0.157	0.128
-648.784	-104.615	-0.420	0.097
-647.770	-6.509	-0.038	0.026
-646.755	-43.160	0.113	0.057
-645.741	347.010	-0.263	0.519
-644.726	-139.792	0.403	-0.043
-643.711	-200.000	0.000	-0.081
-642.697	-186.271	0.190	0.003
-641.682	6.451	-0.116	0.086
-640.668	-53.693	-0.111	-0.051
-639.653	-93.736	-0.100	0.028
-638.638	25.834	0.088	0.073
-637.624	53.505	-0.107	0.103
-636.609	-126.041	-0.340	0.051
-635.595	-12.642	0.151	-0.099
-634.580	-200.000	0.013	0.162
-633.565	-53.365	-0.092	0.042
-632.551	55.313	-0.276	0.267
-631.536	74.524	-0.182	-0.191
-630.522	800.000	-0.084	-0.255
-629.507	119.028	-0.129	0.159
-628.492	301.636	-0.108	-0.199
-627.478	631.430	-0.167	-0.422
-626.463	75.464	0.051	0.054
-625.449	25.456	0.143	-0.119
-624.434	191.661	-0.133	0.200
-623.419	-136.309	0.137	-0.016
-622.405	202.724	0.308	0.475
-621.390	-190.789	0.233	-0.002
-620.376	139.818	0.074	-0.097
-619.361	-40.488	-0.221	-0.115
-618.346	-200.000	0.016	-0.078
-617.332	196.019	-0.121	0.184
-616.317	-140.678	-0.157	-0.016
-615.303	60.721	-0.241	0.239
-614.288	-24.392	0.222	0.132
-613.273	-176.795	-0.051	-0.001
-612.259	-36.349	-0.080	0.043
-611.244	-63.962	-0.079	0.032
-610.230	-59.531	-0.358	-0.154
-609.215	-94.031	-0.271	-0.074
-608.201	-82.155	-0.181	0.059
-607.186	-4.934	0.127	-0.087
-606.171	800.000	-0.019	0.077
-605.157	-149.793	0.331	-0.026
-604.142	-200.000	-0.020	0.119
-603.128	-200.000	0.051	-0.460
-602.113	-20.432	-0.330	-0.203
-601.098	34.203	-0.159	-0.138
-600.084	-200.000	-0.023	-0.188
-599.069	-200.000	-0.054	-0.353
-598.055	-101.146	-0.354	0.087
-597.040	-83.336	0.193	-0.062
-596.025	-200.000	0.050	-0.308
-595.011	54.955	-0.188	0.181
-593.996	-200.000	-0.036	-0.241
-592.982	-150.596	0.125	0.010
-591.967	800.000	-0.048	0.190
-590.952	-41.669	-0.261	0.134
-589.938	112.881	0.062	-0.075
-588.923	-86.013	0.252	-0.078
-587.909	-23.660	-0.338	0.202
-586.894	-109.717	0.266	-0.056
-585.879	315.551	-0.185	-0.349
-584.865	23.835	0.187	0.154
-583.850	-109.647	0.310	0.065
-582.836	-200.000	0.006	0.030
-581.821	800.000	0.045	0.197
-580.806	-111.058	0.143	-0.029
-579.792	-125.328	-0.135	0.021
-578.777	-91.182	-0.271	-0.077
-577.763	284.617	-0.147	-0.265
-576.748	287.224	0.016	-0.029
-575.733	359.027	0.075	-0.150
-574.719	-200.000	-0.065	0.310
-573.704	291.023	0.068	-0.123
-572.690	-144.873	-0.418	0.038
-571.675	95.931	0.065	-0.074
-570.661	-65.100	0.136	-0.055
-569.646	133.844	-0.198	0.256
-568.631	-129.895	-0.054	0.007
-567.617	137.365	-0.081	0.106
-566.602	-69.655	-0.290	0.111
-565.588	800.000	-0.044	0.177
-564.573	158.882	-0.213	-0.295
-563.558	-200.000	-0.002	-0.089
-562.544	-43.077	0.138	0.070
-561.529	-200.000	-0.069	0.350
-560.515	-151.905	-0.267	0.020
-559.500	69.381	0.140	-0.144
-558.485	-200.000	0.003	-0.099
-557.471	800.000	-0.028	-0.119
-556.456	-200.000	0.043	0.293
-555.442	-40.307	-0.435	0.225
-554.427	-151.356	-0.239	0.018
-553.412	-161.125	-0.526	0.027
-552.398	-117.046	0.331	-0.060
-551.383	800.000	-0.027	-0.080
-550.369	-85.349	0.499	-0.155
-549.354	53.309	0.458	0.438
-548.339	-90.708	-0.129	-0.037
-547.325	-145.146	0.285	-0.026
-546.310	800.000	0.108	-0.401
-545.296	-16.800	-0.155	-0.098
-544.281	-7.880	0.085	-0.057
-543.266	-200.000	-0.018	-0.178
-542.252	46.656	0.300	0.278
-541.237	-200.000	-0.013	0.249
-540.223	180.049	-0.063	-0.093
-539.208	72.230	-0.032	0.033
-538.193	-65.990	-0.177	0.070
-537.179	-200.000	0.004	-0.150
-536.164	-200.000	-0.008	0.123
-535.150	101.278	0.147	-0.171
-534.135	292.232	0.152	0.275
-533.121	-4.098	-0.065	0.045
-532.106	199.980	-0.216	0.330
-531.091	-92.593	0.186	0.052
-530.077	-71.140	-0.235	0.088
-529.062	240.733	-0.216	0.360
-528.048	-109.539	-0.138	-0.029
-527.033	331.315	0.117	-0.225
-526.018	36.083	0.055	-0.048
-525.004	800.000	0.098	-0.361
-523.989	-53.140	0.286	-0.131
-522.975	30.594	0.046	-0.039
-521.960	-112.830	0.346	-0.068
-520.945	-200.000	0.016	-0.220
-519.931	-129.713	0.235	0.032
-518.916	737.454	0.127	-0.338
-517.902	113.667	-0.030	-0.036
-516.887	-56.259	-0.171	0.076
-515.872	-129.796	-0.185	-0.025
-514.858	-200.000	0.012	-0.263
-513.843	-69.000	-0.124	-0.048
-512.829	-200.000	0.002	-0.152
-511.814	-200.000	0.028	-0.267
-510.799	-200.000	-0.006	-0.220
-509.785	-116.065	-0.083	-0.015
-508.770	-200.000	0.009	0.172
-507.756	-117.729	-0.235	0.042
-506.741	-158.744	-0.067	0.004
-505.726	-56.350	-0.341	0.151
-504.712	118.398	0.032	-0.040
-503.697	680.188	0.042	0.108
-502.683	-125.782	-0.344	0.052
-501.668	-36.733	-0.464	0.248
-500.653	-40.233	0.064	0.033
-499.639	55.212	-0.023	-0.022
-498.624	800.000	-0.036	0.153
-497.610	564.213	0.058	0.139
-496.595	800.000	-0.048	0.150
-495.581	-200.000	0.003	-0.310
-494.566	-86.945	0.648	-0.196
-493.551	-72.932	0.179	0.066
-492.537	-200.000	-0.027	0.134
-491.522	-1.181	-0.115	0.081
-490.508	-200.000	-0.053	0.324
-489.493	-200.000	0.021	-0.306
-488.478	411.305	0.054	0.114
-487.464	323.464	0.072	0.137
-486.449	-130.043	0.345	0.047
-485.435	-68.088	-0.226	0.088
-484.420	800.000	-0.058	-0.171
-483.405	-107.503	0.205	0.045
-482.391	97.346	0.235	-0.268
-481.376	-89.141	-0.173	-0.051
-480.362	-49.007	0.224	0.107
-479.347	-48.558	-0.154	-0.073
-478.332	-200.000	0.025	-0.379
-477.318	125.508	0.124	-0.155
-476.303	-200.000	0.007	0.091
-475.289	602.653	0.083	0.205
-474.274	-84.708	-0.183	0.057
-473.259	88.206	-0.112	0.124
-472.245	800.000	-0.047	-0.135
-471.230	5.109	-0.123	-0.090
-470.216	260.543	-0.169	-0.291
-469.201	-83.404	-0.149	0.047
-468.186	-200.000	-0.053	-0.249
-467.172	684.501	0.139	-0.361
-466.157	800.000	-0.107	-0.315
-465.143	7.900	0.153	-0.114
-464.128	209.518	-0.155	0.241
-463.113	-200.000	0.011	0.216
-462.099	8.643	-0.178	0.133
-461.084	-200.000	-0.010	-0.171
-460.070	-200.000	0.002	-0.125
-459.055	800.000	-0.056	0.169
-458.040	18.032	-0.060	0.047
-457.026	800.000	0.003	0.012
-456.011	-73.808	0.196	0.071
-454.997	11.573	0.170	0.130
-453.982	-39.205	0.349	-0.182
-452.968	800.000	-0.077	-0.272
-451.953	158.320	-0.148	0.204
-450.938	-19.229	0.243	-0.150
-449.924	353.070	-0.060	0.117
-448.909	-200.000	0.088	-0.540
-447.895	-68.003	-0.305	-0.118
-446.880	652.763	-0.090	-0.230
-445.865	299.476	-0.251	-0.458
-444.851	800.000	-0.046	0.181
-443.836	158.250	0.209	-0.287
-442.822	59.602	0.224	-0.220
-441.807	53.648	-0.113	-0.107
-440.792	289.962	-0.095	-0.171
-439.778	-162.263	-0.451	0.022
-438.763	12.423	0.267	-0.204
-437.749	27.606	-0.126	0.105
-436.734	15.706	0.147	0.115
-435.719	507.507	0.044	-0.102
-434.705	273.799	0.141	-0.247
-433.690	8.448	-0.013	-0.010
-432.676	9.227	0.369	0.277
-431.661	-8.828	0.186	0.124
-430.646	14.747	-0.197	0.153
-429.632	800.000	0.081	-0.241
-428.617	-102.464	-0.299	-0.071
-427.603	154.718	0.170	0.232
-426.588	-200.000	-0.048	-0.378
-425.573	106.296	0.073	0.085
-424.559	-200.000	0.004	-0.216
-423.544	-200.000	0.024	-0.153
-422.530	477.540	0.060	-0.134
-421.515	-83.489	-0.140	0.044
-420.500	679.361	0.035	0.089
-419.486	-31.389	0.194	-0.108
-418.471	-148.425	0.253	0.021
-417.457	-200.000	0.008	-0.425
-416.442	-98.369	-0.218	-0.055
-415.428	-131.177	0.132	0.017
-414.413	-168.961	0.155	-0.006
-413.398	-200.000	0.038	-0.283
-412.384	-147.655	-0.188	0.016
-411.369	-111.244	0.277	0.056
-410.355	508.730	0.148	0.342
-409.340	-200.000	-0.051	0.259
-408.325	626.462	0.068	0.169
-407.311	-137.240	0.173	-0.020
-406.296	800.000	-0.028	0.117
-405.282	-37.305	-0.191	-0.101
-404.267	-124.246	0.289	-0.045
-403.252	-40.099	-0.260	0.134
-402.238	-200.000	0.025	0.224
-401.223	115.658	-0.191	-0.231
-400.209	-200.000	-0.016	0.227
-399.194	-147.697	0.224	-0.019
-398.179	-29.400	0.208	-0.118
-397.165	575.464	-0.062	0.151
-396.150	168.251	0.158	-0.224
-395.136	-200.000	0.051	-0.228
-394.121	19.104	-0.356	-0.283
-393.106	98.641	0.071	0.081
-392.092	-81.547	-0.205	0.067
-391.077	-105.505	0.314	-0.071
-390.063	301.096	0.047	0.086
-389.048	-200.000	0.041	0.241
-388.033	115.455	0.174	-0.210
-387.019	-200.000	0.023	-0.180
-386.004	-72.849	0.320	-0.116
-384.990	501.845	-0.098	-0.225
-383.975	532.820	0.117	0.275
-382.960	-57.967	-0.351	0.152
-381.946	-200.000	0.007	0.282
-380.931	188.542	-0.083	-0.123
-379.917	0.593	0.349	0.247
-378.902	800.000	0.042	0.151
-377.888	-125.021	0.347	-0.053
-376.873	-200.000	-0.038	-0.253
-375.858	268.742	0.110	-0.192
-374.844	178.903	-0.242	-0.351
-373.829	255.160	-0.087	0.147
-372.815	-191.404	-0.288	-0.003
-371.800	3.926	0.186	-0.134
-370.785	-40.645	-0.149	-0.076
-369.771	-36.097	0.175	-0.094
-368.756	-200.000	-0.022	-0.290
-367.742	-86.695	0.204	-0.062
-366.727	-200.000	-0.009	0.149
-365.712	-83.718	-0.361	0.114
-364.698	800.000	0.076	0.230
-363.683	135.183	0.128	0.164
-362.669	-200.000	-0.000	-0.136
-361.654	217.552	-0.224	0.353
-360.639	-32.078	0.389	0.216
-359.625	-53.653	-0.356	0.161
-358.610	-15.358	0.102	0.065
-357.596	-130.426	-0.330	-0.044
-356.581	-160.773	-0.256	-0.013
-355.566	173.395	-0.124	-0.177
-354.552	-114.740	0.215	-0.041
-353.537	800.000	0.204	0.621
-352.523	377.128	-0.064	0.129
-351.508	-92.877	-0.400	0.111
-350.493	800.000	0.055	0.195
-349.479	800.000	-0.008	-0.030
-348.464	-200.000	-0.014	0.218
-347.450	-78.411	-0.231	-0.078
-346.435	11.551	-0.104	0.079
-345.420	-200.000	0.027	0.185
-344.406	-55.350	-0.322	0.143
-343.391	-112.872	0.258	-0.051
-342.377	-114.453	0.108	-0.021
-341.362	121.232	-0.189	-0.233
-340.348	-149.268	0.341	-0.027
-339.333	56.002	0.276	-0.265
-338.318	642.655	-0.077	0.194
-337.304	-100.003	0.557	0.137
-336.289	-110.604	0.118	0.024
-335.275	146.387	0.157	-0.209
-334.260	800.000	-0.079	-0.323
-333.245	-138.316	-0.224	-0.024
-332.231	800.000	0.017	-0.071
-331.216	-200.000	0.057	0.442
-330.202	329.354	0.208	0.396
-329.187	-13.664	-0.179	0.114
-328.172	757.238	0.083	-0.222
-327.158	-200.000	0.021	0.102
-326.143	-200.000	0.000	0.195
-325.129	188.790	0.089	0.132
-324.114	71.764	0.256	-0.263
-323.099	-103.372	-0.130	0.030
-322.085	-29.527	0.168	-0.095
-321.070	257.238	0.073	-0.125
-320.056	-200.000	-0.042	-0.255
-319.041	-98.798	-0.267	0.067
-318.026	168.127	0.193	0.271
-317.012	-191.368	-0.183	0.002
-315.997	749.329	0.104	-0.277
-314.983	101.358	-0.078	0.089
-313.968	-100.086	0.239	0.059
-312.953	-76.426	-0.185	0.064
-311.939	34.851	-0.049	0.042
-310.924	800.000	-0.054	0.149
-309.910	-70.378	0.112	-0.042
-308.895	216.392	0.322	0.506
-307.880	341.314	-0.059	0.114
-306.866	800.000	-0.046	0.130
-305.851	519.121	-0.069	-0.160
-304.837	-131.710	-0.145	-0.019
-303.822	-144.973	-0.072	0.006
-302.807	-200.000	-0.040	0.182
-301.793	358.771	-0.093	-0.183
-300.778	-160.492	0.173	-0.009
-299.764	-110.120	-0.087	-0.018
-298.749	199.836	-0.195	0.295
-297.735	33.015	0.244	0.209
-296.720	-134.871	0.205	0.025
-295.705	134.626	0.105	-0.134
-294.691	90.461	-0.091	-0.100
-293.676	-90.584	-0.128	0.036
-292.662	21.848	0.105	-0.085
-291.647	-183.530	-0.126	-0.002
-290.632	77.243	0.095	-0.099
-289.618	-65.989	0.375	-0.148
-288.603	-95.372	-0.131	0.035
-287.589	800.000	0.083	0.349
-286.574	116.013	0.206	0.249
-285.559	800.000	0.092	-0.289
-284.545	800.000	0.095	-0.309
-283.530	-35.830	0.329	-0.176
-282.516	-69.069	0.349	-0.133
-281.501	148.606	0.071	0.095
-280.486	-26.403	-0.204	0.118
-279.472	-120.386	0.145	-0.024
-278.457	55.228	0.025	-0.024
-277.443	-93.720	-0.202	0.055
-276.428	-200.000	-0.048	-0.239
-275.413	800.000	0.048	0.140
-274.399	6.881	0.023	-0.017
-273.384	-200.000	0.003	-0.104
-272.370	36.142	-0.052	-0.045
-271.355	661.152	0.238	-0.604
-270.340	220.385	0.146	-0.230
-269.326	800.000	0.048	0.145
-268.311	53.895	0.203	0.192
-267.297	-200.000	-0.001	0.199
-266.282	-6.910	-0.196	-0.131
-265.267	800.000	-0.078	-0.218
-264.253	169.680	-0.119	-0.167
-263.238	-159.882	-0.073	-0.004
-262.224	800.000	-0.007	-0.021
-261.209	-4.713	0.182	-0.123
-260.195	634.103	0.135	-0.337
-259.180	-154.643	0.128	-0.008
-258.165	-160.301	-0.348	-0.019
-257.151	800.000	0.130	0.399
-256.136	-85.305	-0.288	0.089
-255.122	518.110	-0.118	0.272
-254.107	510.763	0.145	-0.333
-253.092	-37.785	0.144	-0.076
-252.078	-200.000	-0.019	0.094
-251.063	-200.000	0.008	0.034
-250.049	800.000	-0.037	0.125
-249.034	-115.205	0.376	0.070
-248.019	-159.985	-0.145	-0.008
-247.005	-43.069	0.194	0.097
-245.990	-28.259	-0.181	0.103
-244.976	800.000	0.043	0.174
-243.961	163.950	0.187	0.259
-242.946	800.000	-0.044	-0.125
-241.932	320.030	0.051	-0.096
-240.917	676.854	0.062	0.159
-239.903	44.210	0.149	0.135
-238.888	-39.863	-0.112	-0.058
-237.873	31.311	0.171	0.145
-236.859	-82.002	-0.332	0.107
-235.844	402.185	0.137	-0.284
-234.830	-7.765	-0.071	-0.047
-233.815	800.000	0.130	0.517
-232.800	97.200	-0.143	0.162
-231.786	-75.201	-0.346	0.122
-230.771	-130.673	0.157	0.021
-229.757	-87.621	-0.125	0.037
-228.742	-167.077	0.031	-0.001
-227.727	579.847	-0.115	0.277
-226.713	800.000	-0.089	-0.266
-225.698	-85.195	0.024	0.007
-224.684	-135.108	0.153	-0.018
-223.669	497.366	0.091	-0.207
-222.655	65.754	-0.204	0.203
-221.640	-138.572	0.376	-0.041
-220.625	291.799	0.161	-0.289
-219.611	-2.048	-0.138	-0.095
-218.596	-30.853	-0.145	0.081
-217.582	-48.963	0.281	0.133
-216.567	430.299	0.053	0.113
-215.552	-200.000	0.028	0.146
-214.538	-200.000	0.036	0.194
-213.523	-46.112	-0.155	-0.075
-212.509	-159.745	0.190	0.010
-211.494	73.792	-0.095	-0.098
-210.479	513.411	0.086	-0.197
-209.465	185.904	-0.127	-0.186
-208.450	169.950	-0.067	0.095
-207.436	-200.000	0.008	-0.071
-206.421	80.820	-0.067	0.071
-205.406	277.293	-0.168	-0.294
-204.392	-200.000	0.004	0.318
-203.377	65.473	-0.062	-0.062
-202.363	-200.000	-0.020	0.261
-201.348	314.158	0.210	0.388
-200.333	-30.979	0.139	0.077
-199.319	123.998	0.164	0.203
-198.304	-170.288	-0.110	0.004
-197.290	262.276	0.058	0.099
-196.275	-86.162	0.146	0.044
-195.260	800.000	0.034	0.097
-194.246	800.000	-0.149	-0.421
-193.231	800.000	0.035	-0.142
-192.217	51.093	-0.214	0.200
-191.202	-200.000	-0.055	-0.269
-190.187	-200.000	-0.011	0.150
-189.173	382.714	0.075	0.153
-188.158	800.000	0.134	0.429
-187.144	399.522	0.138	-0.283
-186.129	452.065	0.194	0.422
-185.114	60.582	0.367	-0.358
-184.100	-66.923	0.101	-0.039
-183.085	-200.000	-0.035	-0.354
-182.071	-177.508	0.114	-0.003
-181.056	-178.358	-0.158	0.004
-180.042	79.255	-0.113	0.119
-179.027	-150.770	0.230	-0.017
-178.012	65.318	0.168	-0.167
-176.998	62.154	0.213	-0.208
-175.983	-200.000	-0.003	0.087
-174.969	337.726	-0.154	0.294
-173.954	-200.000	0.001	-0.093
-172.939	590.048	-0.082	0.199
-171.925	-124.603	-0.418	-0.064
-170.910	800.000	-0.079	-0.255
-169.896	-9.069	-0.242	0.159
-168.881	-200.000	-0.011	0.084
-167.866	-97.805	-0.253	0.064
-166.852	-110.285	0.234	-0.048
-165.837	-83.326	-0.308	0.097
-164.823	49.692	-0.290	0.268
-163.808	-42.284	0.023	0.012
-162.793	145.038	-0.142	-0.186
-161.779	800.000	-0.003	-0.010
-160.764	-14.577	-0.285	-0.180
-159.750	223.108	0.142	0.225
-158.735	-110.321	0.048	-0.010
-157.720	268.536	0.045	0.078
-156.706	-200.000	-0.011	-0.129
-155.691	-110.186	0.316	0.065
-154.677	315.838	0.068	0.125
-153.662	-126.010	-0.102	0.015
-152.647	-127.612	-0.093	-0.013
-151.633	-200.000	-0.050	0.239
-150.618	-200.000	0.129	0.623
-149.604	103.870	0.243	-0.281
-148.589	-200.000	0.009	0.358
-147.574	115.336	-0.265	0.317
-146.560	-122.037	0.493	-0.079
-145.545	12.973	0.118	0.089
-144.531	-118.103	0.200	0.035
-143.516	440.765	-0.194	-0.416
-142.502	-118.582	-0.240	0.042
-141.487	-200.000	-0.006	0.095
-140.472	-200.000	-0.055	0.323
-139.458	-200.000	-0.016	0.085
-138.443	-111.191	0.215	0.043
-137.429	-64.439	-0.139	0.056
-136.414	51.302	0.116	0.108
-135.399	-167.980	0.071	-0.003
-134.385	-200.000	-0.061	0.329
-133.370	-116.610	0.190	-0.034
-132.356	-145.487	-0.304	0.027
-131.341	-200.000	-0.029	-0.171
-130.326	636.541	-0.048	0.121
-129.312	800.000	-0.186	0.527
-128.297	264.120	0.209	-0.357
-127.283	27.342	0.068	0.056
-126.268	-13.893	0.314	-0.199
-125.253	191.046	0.148	0.218
-124.239	299.709	-0.063	-0.113
-123.224	314.675	0.023	-0.043
-122.210	33.138	-0.165	0.141
