DTS Sentinel unit serial number:	SN413079Multiplexer serial number:	ORYXHardware model number:	OX4-SRSoftware version number:	ORYX F/W v4.00 Oryx Data Collector v3.7.2.0data status	okinstallation	princeton_trtdifferential loss correction	single-endedforward channel	channel 1reverse channel	N/Adate	2019/09/16time	06:22:35forward acquisition time	60.00reverse acquisition time	0.00gamma	496.2192k internal	0.2331k external	0.2331temperature offset calibration	0.9984default loss term (dB/km)	0.3790temperature slope calibration	1.0000multiplexer offset coefficient	1.0000multiplexer slope coefficient	1.0000fibre end	0.00T internal ref (°C)	27.41T ext. ref 1 (°C)	11.33T ext. ref 2 (°C)	21.62length (m)	temperature (°C)	Stokes	anti-Stokes-747.200	150.094	-0.132	0.181
-746.185	87.266	-0.141	0.157
-745.171	-200.000	0.083	-0.470
-744.156	800.000	-0.057	0.167
-743.142	-31.101	0.092	-0.052
-742.127	800.000	-0.020	-0.061
-741.112	91.833	-0.108	-0.122
-740.098	24.240	0.325	-0.270
-739.083	-23.653	0.224	0.135
-738.069	-200.000	0.110	0.000
-737.054	395.585	-0.027	-0.056
-736.039	49.711	-0.439	-0.416
-735.025	-200.000	0.014	0.104
-734.010	21.797	0.170	0.139
-732.996	459.350	-0.161	-0.360
-731.981	57.140	0.193	-0.190
-730.966	-200.000	0.009	-0.266
-729.952	110.911	-0.238	-0.289
-728.937	-200.000	0.001	-0.231
-727.923	603.971	-0.109	-0.273
-726.908	-200.000	-0.007	-0.090
-725.894	180.657	-0.239	-0.352
-724.879	23.909	0.091	0.076
-723.864	-90.046	-0.307	-0.090
-722.850	288.928	0.040	0.073
-721.835	-79.380	-0.224	0.076
-720.821	164.263	-0.222	0.315
-719.806	97.789	0.230	-0.266
-718.791	800.000	0.153	-0.548
-717.777	-200.000	0.006	-0.325
-716.762	800.000	-0.060	-0.178
-715.748	26.455	0.165	-0.138
-714.733	223.816	0.133	0.215
-713.718	-100.816	0.131	-0.032
-712.704	100.451	0.070	-0.082
-711.689	-37.164	0.335	-0.180
-710.675	3.057	0.084	0.061
-709.660	800.000	0.036	0.106
-708.645	55.139	-0.116	-0.112
-707.631	65.141	0.194	-0.197
-706.616	267.997	0.151	-0.266
-705.602	-123.983	0.242	-0.038
-704.587	39.184	0.081	0.072
-703.572	209.928	0.270	0.426
-702.558	133.407	-0.111	0.145
-701.543	-112.415	-0.089	0.018
-700.529	800.000	0.035	-0.101
-699.514	-200.000	-0.005	0.321
-698.499	64.582	-0.089	-0.090
-697.485	89.182	0.213	-0.238
-696.470	800.000	0.025	0.071
-695.456	472.015	0.132	0.299
-694.441	-64.079	0.075	0.031
-693.426	-92.196	0.235	0.067
-692.412	-78.682	0.213	0.073
-691.397	-123.293	-0.280	0.045
-690.383	-200.000	0.038	-0.359
-689.368	-200.000	0.051	-0.292
-688.354	800.000	0.046	-0.135
-687.339	-148.506	0.325	-0.027
-686.324	116.293	0.024	-0.029
-685.310	154.888	0.164	-0.227
-684.295	-22.949	-0.269	-0.163
-683.281	51.009	0.152	0.145
-682.266	800.000	0.101	-0.309
-681.251	559.555	-0.123	-0.298
-680.237	112.214	-0.092	-0.112
-679.222	-200.000	0.006	-0.144
-678.208	-200.000	-0.000	-0.049
-677.193	-7.111	0.272	-0.185
-676.178	-70.947	-0.413	-0.156
-675.164	195.156	0.074	0.113
-674.149	-162.103	0.251	0.013
-673.135	-126.136	-0.011	-0.002
-672.120	-17.777	-0.077	0.048
-671.105	800.000	-0.018	0.077
-670.091	800.000	-0.105	-0.332
-669.076	-114.650	-0.075	-0.014
-668.062	137.650	-0.213	-0.280
-667.047	800.000	-0.061	-0.180
-666.032	-200.000	-0.017	-0.140
-665.018	39.512	0.169	-0.152
-664.003	-123.657	-0.207	-0.033
-662.989	152.213	-0.189	0.259
-661.974	-8.386	-0.348	-0.235
-660.959	80.764	0.392	0.424
-659.945	635.056	0.121	0.307
-658.930	607.102	-0.094	0.235
-657.916	557.934	0.071	-0.173
-656.901	772.385	0.091	0.249
-655.886	-97.848	-0.515	0.133
-654.872	80.198	0.206	0.222
-653.857	542.013	0.041	0.098
-652.843	90.433	-0.139	-0.156
-651.828	-6.504	-0.184	0.126
-650.814	-129.558	0.090	-0.013
-649.799	-88.237	-0.160	-0.048
-648.784	800.000	0.103	0.354
-647.770	232.046	-0.027	0.045
-646.755	7.618	-0.124	0.093
-645.741	67.233	0.176	-0.180
-644.726	105.340	-0.071	-0.084
-643.711	762.557	-0.033	0.091
-642.697	-200.000	0.014	0.129
-641.682	108.395	0.235	0.282
-640.668	-107.972	-0.186	-0.040
-639.653	397.757	-0.041	-0.087
-638.638	690.293	-0.079	-0.208
-637.624	13.902	0.213	0.166
-636.609	135.705	0.081	0.106
-635.595	-200.000	0.039	0.292
-634.580	103.765	0.174	-0.205
-633.565	-97.335	-0.337	-0.088
-632.551	-21.874	0.210	-0.128
-631.536	-200.000	-0.028	0.199
-630.522	-38.820	-0.071	0.038
-629.507	-200.000	-0.032	-0.276
-628.492	-200.000	0.041	0.344
-627.478	301.786	-0.133	-0.246
-626.463	800.000	-0.089	-0.340
-625.449	-46.062	0.078	-0.038
-624.434	-64.501	0.145	0.059
-623.419	367.334	0.008	0.017
-622.405	643.359	0.064	-0.163
-621.390	40.602	0.136	-0.123
-620.376	-21.531	0.154	-0.094
-619.361	-200.000	0.049	0.279
-618.346	608.921	0.118	-0.294
-617.332	329.901	-0.072	-0.139
-616.317	800.000	-0.012	0.037
-615.303	-200.000	0.008	-0.277
-614.288	172.823	0.105	-0.151
-613.273	-28.971	-0.188	0.108
-612.259	-84.487	0.272	0.086
-611.244	-64.082	-0.108	-0.044
-610.230	124.279	-0.121	-0.153
-609.215	-31.217	-0.241	-0.136
-608.201	-104.582	-0.322	-0.074
-607.186	140.578	-0.182	-0.241
-606.171	-200.000	-0.026	0.232
-605.157	-196.525	0.161	0.001
-604.142	-200.000	-0.025	-0.283
-603.128	96.102	0.107	-0.122
-602.113	-38.908	-0.267	-0.141
-601.098	-92.419	-0.301	0.085
-600.084	-146.812	0.168	0.014
-599.069	474.277	0.073	0.166
-598.055	800.000	-0.130	0.409
-597.040	73.310	0.438	0.458
-596.025	-88.073	-0.286	-0.086
-595.011	270.419	-0.151	0.266
-593.996	-200.000	-0.006	0.305
-592.982	85.837	-0.091	0.100
-591.967	800.000	0.058	0.239
-590.952	800.000	-0.058	-0.249
-589.938	-200.000	-0.049	0.313
-588.923	-167.882	0.334	0.013
-587.909	-97.414	-0.249	0.065
-586.894	-129.801	0.232	-0.032
-585.879	144.112	-0.096	-0.128
-584.865	800.000	0.012	-0.050
-583.850	-6.300	0.155	-0.106
-582.836	-176.513	-0.215	0.006
-581.821	-200.000	0.002	0.075
-580.806	127.443	-0.141	-0.180
-579.792	43.799	-0.054	-0.049
-578.777	-200.000	-0.009	0.074
-577.763	-133.020	0.269	0.034
-576.748	-30.273	0.236	0.134
-575.733	211.742	0.078	-0.123
-574.719	87.708	-0.214	-0.237
-573.704	103.195	-0.103	-0.121
-572.690	541.265	0.098	0.233
-571.675	-79.578	-0.148	-0.050
-570.661	46.506	-0.146	-0.135
-569.646	-52.611	0.168	-0.078
-568.631	-200.000	0.038	0.170
-567.617	158.956	0.245	0.340
-566.602	-113.341	-0.172	-0.034
-565.588	14.248	0.154	0.120
-564.573	-86.791	-0.154	-0.047
-563.558	163.414	0.091	-0.129
-562.544	-200.000	-0.029	-0.174
-561.529	178.689	0.169	-0.247
-560.515	-32.940	0.190	0.106
-559.500	800.000	-0.101	-0.307
-558.485	-163.186	-0.355	-0.017
-557.471	-200.000	0.012	0.263
-556.456	800.000	-0.156	-0.449
-555.442	-200.000	-0.034	0.399
-554.427	-13.906	-0.150	-0.097
-553.412	-200.000	-0.073	-0.349
-552.398	-121.235	0.248	0.041
-551.383	160.872	-0.172	0.239
-550.369	-15.937	0.220	0.140
-549.354	153.318	0.177	-0.242
-548.339	126.904	0.183	-0.232
-547.325	-44.240	0.304	0.152
-546.310	800.000	0.036	-0.127
-545.296	-59.233	0.099	-0.043
-544.281	108.688	-0.040	-0.047
-543.266	-200.000	-0.018	0.095
-542.252	50.288	-0.201	0.190
-541.237	800.000	0.071	-0.307
-540.223	228.088	0.208	-0.338
-539.208	-9.876	0.394	-0.262
-538.193	16.271	0.049	0.039
-537.179	-200.000	0.003	-0.225
-536.164	225.819	0.303	0.490
-535.150	800.000	0.200	-0.554
-534.135	753.516	-0.113	-0.305
-533.121	97.398	-0.161	-0.184
-532.106	509.422	-0.025	-0.057
-531.091	-21.224	-0.159	-0.097
-530.077	365.745	0.100	-0.201
-529.062	-200.000	0.076	0.000
-528.048	46.584	-0.232	-0.215
-527.033	448.050	0.080	-0.176
-526.018	222.470	-0.224	0.360
-525.004	-115.677	-0.223	0.042
-523.989	273.667	0.030	-0.053
-522.975	-200.000	0.012	-0.141
-521.960	800.000	-0.067	-0.270
-520.945	-51.136	-0.088	-0.041
-519.931	-173.311	0.334	0.010
-518.916	64.298	-0.044	-0.044
-517.902	-34.095	-0.039	0.022
-516.887	-200.000	-0.006	0.056
-515.872	-93.943	-0.261	-0.072
-514.858	-200.000	0.049	0.367
-513.843	-200.000	0.049	0.250
-512.829	-183.578	-0.134	-0.002
-511.814	176.046	-0.095	-0.137
-510.799	506.175	0.070	0.163
-509.785	-200.000	-0.097	-0.484
-508.770	-167.172	-0.351	0.014
-507.756	-103.276	-0.289	0.068
-506.741	-38.943	0.276	0.145
-505.726	-27.771	0.155	0.090
-504.712	-120.333	-0.112	-0.019
-503.697	800.000	-0.038	0.141
-502.683	66.540	0.061	0.062
-501.668	-200.000	0.029	0.209
-500.653	118.023	-0.158	0.194
-499.639	800.000	0.041	-0.147
-498.624	24.903	-0.168	-0.139
-497.610	-115.610	0.159	0.030
-496.595	61.316	0.118	-0.117
-495.581	160.416	-0.113	0.157
-494.566	14.776	-0.217	-0.169
-493.551	-44.491	0.288	-0.143
-492.537	91.673	-0.204	0.228
-491.522	-40.741	0.102	-0.053
-490.508	2.079	-0.116	0.084
-489.493	601.656	0.113	0.281
-488.478	393.491	-0.035	-0.072
-487.464	-68.877	-0.243	-0.094
-486.449	80.664	-0.051	-0.055
-485.435	-119.527	0.157	-0.027
-484.420	-200.000	-0.010	0.120
-483.405	101.719	-0.135	-0.157
-482.391	39.763	0.154	0.138
-481.376	476.745	-0.089	-0.201
-480.362	89.839	-0.105	-0.117
-479.347	428.426	-0.061	-0.132
-478.332	762.579	0.094	-0.255
-477.318	26.901	0.146	0.122
-476.303	-10.237	0.118	-0.078
-475.289	39.511	-0.124	0.111
-474.274	-62.759	-0.122	0.050
-473.259	-31.582	0.159	-0.089
-472.245	-137.415	-0.251	-0.028
-471.230	130.444	-0.205	0.262
-470.216	24.091	0.186	-0.153
-469.201	-200.000	0.069	-0.328
-468.186	800.000	0.110	-0.373
-467.172	154.205	-0.029	-0.040
-466.157	106.164	-0.238	-0.281
-465.143	-82.139	-0.337	-0.109
-464.128	800.000	0.027	-0.103
-463.113	408.830	0.039	0.083
-462.099	800.000	-0.020	0.070
-461.084	-200.000	-0.012	0.135
-460.070	800.000	-0.039	-0.140
-459.055	-117.202	0.356	-0.064
-458.040	-33.465	-0.186	-0.103
-457.026	164.209	0.070	-0.099
-456.011	501.065	0.105	0.241
-454.997	47.500	-0.055	0.051
-453.982	-200.000	-0.017	-0.214
-452.968	110.206	0.097	0.116
-451.953	800.000	-0.086	-0.240
-450.938	631.924	-0.022	0.055
-449.924	158.166	-0.207	-0.286
-448.909	222.827	-0.109	-0.175
-447.895	-127.998	0.267	-0.038
-446.880	359.341	-0.036	0.071
-445.865	-125.500	-0.327	-0.050
-444.851	-200.000	0.034	0.306
-443.836	245.485	-0.164	-0.274
-442.822	-200.000	-0.011	-0.066
-441.807	-200.000	0.015	0.191
-440.792	-17.735	0.358	-0.224
-439.778	-67.273	-0.204	-0.080
-438.763	48.781	-0.204	-0.191
-437.749	-98.353	-0.325	-0.083
-436.734	76.745	-0.072	-0.076
-435.719	-57.293	-0.105	0.046
-434.705	-130.757	0.343	-0.046
-433.690	402.912	-0.087	-0.181
-432.676	324.992	0.117	-0.222
-431.661	800.000	0.068	0.228
-430.646	800.000	-0.030	0.105
-429.632	-77.493	-0.156	-0.054
-428.617	154.512	0.245	-0.334
-427.603	-200.000	0.004	-0.177
-426.588	365.540	-0.151	-0.302
-425.573	2.840	0.159	0.115
-424.559	-94.600	-0.190	0.051
-423.544	405.382	-0.185	0.387
-422.530	-142.478	0.205	-0.020
-421.515	64.299	-0.071	-0.071
-420.500	-103.568	0.030	-0.007
-419.486	-20.368	0.136	-0.083
-418.471	-113.517	0.418	-0.081
-417.457	-177.161	-0.393	-0.010
-416.442	-200.000	0.101	0.577
-415.428	-88.487	-0.248	0.074
-414.413	-200.000	0.009	0.176
-413.398	29.390	-0.250	0.211
-412.384	-200.000	-0.010	-0.068
-411.369	-200.000	-0.015	0.182
-410.355	-28.759	-0.090	-0.051
-409.340	-200.000	-0.025	-0.111
-408.325	59.735	-0.298	0.293
-407.311	47.904	-0.312	-0.290
-406.296	636.185	-0.040	0.102
-405.282	145.249	-0.057	0.076
-404.267	63.044	0.157	0.156
-403.252	291.097	-0.144	0.261
-402.238	142.129	-0.151	-0.198
-401.223	800.000	0.032	-0.117
-400.209	165.581	-0.239	0.336
-399.194	-22.709	-0.133	0.080
-398.179	800.000	-0.021	-0.091
-397.165	-86.535	0.103	-0.031
-396.150	-200.000	0.000	0.206
-395.136	-50.941	-0.258	0.120
-394.121	132.950	0.066	0.084
-393.106	-200.000	-0.022	0.128
-392.092	94.704	0.139	0.157
-391.077	-200.000	-0.039	0.257
-390.063	-176.313	-0.208	0.005
-389.048	755.699	0.203	-0.546
-388.033	198.204	-0.078	-0.118
-387.019	238.268	-0.043	-0.071
-386.004	-86.888	0.096	0.029
-384.990	25.779	-0.424	-0.351
-383.975	-148.979	-0.451	-0.036
-382.960	131.186	-0.125	-0.160
-381.946	-58.962	0.154	-0.066
-380.931	10.452	0.249	0.188
-379.917	162.283	0.204	-0.283
-378.902	-74.097	-0.147	0.053
-377.888	-19.479	0.071	-0.044
-376.873	359.189	-0.103	0.205
-375.858	120.807	0.276	-0.340
-374.844	321.768	0.109	-0.206
-373.829	-200.000	-0.014	-0.082
-372.815	-33.945	0.284	0.155
-371.800	-200.000	-0.022	-0.144
-370.785	-137.066	-0.175	0.020
-369.771	800.000	-0.029	0.095
-368.756	54.958	0.047	0.045
-367.742	393.001	0.172	0.356
-366.727	-184.640	0.275	0.004
-365.712	-200.000	-0.016	0.280
-364.698	-12.023	-0.232	0.151
-363.683	-200.000	-0.008	-0.238
-362.669	-112.360	-0.179	0.036
-361.654	-200.000	-0.069	0.565
-360.639	-80.152	0.227	-0.075
-359.625	89.169	-0.104	-0.114
-358.610	-135.518	-0.221	0.026
-357.596	-13.985	0.169	0.108
-356.581	152.413	0.076	0.103
-355.566	54.979	-0.208	0.199
-354.552	-39.701	0.186	-0.096
-353.537	800.000	0.083	0.238
-352.523	-93.743	0.286	-0.078
-351.508	25.691	0.038	0.031
-350.493	-132.623	-0.189	-0.024
-349.479	238.232	0.174	-0.286
-348.464	72.398	-0.111	0.114
-347.450	-15.247	0.083	-0.053
-346.435	800.000	0.106	0.333
-345.420	107.193	0.348	0.410
-344.406	0.302	0.221	0.156
-343.391	586.603	0.060	0.147
-342.377	-54.928	-0.091	-0.041
-341.362	511.795	-0.094	0.216
-340.348	-36.587	-0.204	0.109
-339.333	68.976	0.072	-0.074
-338.318	-200.000	0.001	0.372
-337.304	-71.990	-0.245	-0.090
-336.289	-200.000	-0.007	-0.051
-335.275	-102.187	-0.440	0.105
-334.260	-107.164	-0.588	0.128
-333.245	-200.000	0.026	0.120
-332.231	-8.896	-0.202	0.134
-331.216	77.563	-0.062	-0.066
-330.202	-54.025	0.201	-0.090
-329.187	584.296	0.072	-0.176
-328.172	88.900	0.052	-0.057
-327.158	-129.777	-0.032	-0.004
-326.143	-42.015	0.343	-0.174
-325.129	-91.157	-0.377	-0.107
-324.114	311.401	0.106	-0.196
-323.099	219.007	0.037	0.059
-322.085	541.050	-0.058	0.136
-321.070	-105.565	-0.205	0.046
-320.056	96.006	0.247	0.279
-319.041	-90.363	-0.323	-0.093
-318.026	-200.000	-0.055	0.251
-317.012	35.324	0.072	0.062
-315.997	-143.045	-0.300	-0.029
-314.983	17.867	-0.169	-0.133
-313.968	-200.000	0.007	-0.341
-312.953	225.625	0.221	-0.355
-311.939	800.000	0.094	-0.305
-310.924	-69.679	0.359	0.136
-309.910	221.333	0.031	-0.049
-308.895	-172.316	-0.077	0.002
-307.880	-200.000	0.014	0.124
-306.866	-200.000	-0.022	-0.176
-305.851	-113.350	0.143	-0.028
-304.837	-79.290	-0.237	0.079
-303.822	-200.000	0.017	-0.296
-302.807	-133.160	0.054	-0.007
-301.793	800.000	0.134	-0.387
-300.778	-1.078	-0.124	-0.087
-299.764	394.731	0.011	0.024
-298.749	-200.000	-0.003	-0.283
-297.735	-200.000	-0.033	-0.165
-296.720	-200.000	0.051	-0.231
-295.705	-63.743	-0.214	0.087
-294.691	-200.000	0.025	0.189
-293.676	26.981	0.120	0.099
-292.662	800.000	0.103	-0.298
-291.647	-129.052	0.171	-0.024
-290.632	26.324	-0.224	0.185
-289.618	97.169	0.317	0.359
-288.603	800.000	0.030	0.098
-287.589	-200.000	-0.031	0.297
-286.574	40.449	-0.239	0.213
-285.559	69.631	0.045	0.046
-284.545	-200.000	-0.029	-0.521
-283.530	-156.208	0.206	-0.013
-282.516	-16.199	-0.351	-0.220
-281.501	35.340	-0.090	-0.078
-280.486	-32.238	0.296	-0.163
-279.472	104.752	-0.182	0.211
-278.457	-60.759	0.144	-0.060
-277.443	-134.996	0.444	0.053
-276.428	-33.560	0.222	0.121
-275.413	-200.000	-0.049	-0.238
-274.399	49.785	-0.250	0.233
-273.384	-200.000	0.038	-0.286
-272.370	629.929	-0.099	0.248
-271.355	100.264	0.118	-0.136
-270.340	404.106	-0.135	0.282
-269.326	800.000	-0.091	0.277
-268.311	-200.000	0.017	-0.100
-267.297	612.393	0.239	0.590
-266.282	97.827	-0.117	0.133
-265.267	111.667	0.045	-0.054
-264.253	-124.798	-0.065	-0.010
-263.238	-200.000	0.014	0.173
-262.224	-112.031	0.210	-0.042
-261.209	-86.954	0.289	-0.087
-260.195	-21.035	0.422	0.255
-259.180	439.060	0.058	0.125
-258.165	252.471	0.053	-0.090
-257.151	199.576	0.022	0.034
-256.136	-200.000	-0.043	0.353
-255.122	-200.000	0.038	0.277
-254.107	9.914	-0.050	0.038
-253.092	-200.000	0.267	-0.001
-252.078	-69.363	0.087	-0.033
-251.063	800.000	0.076	0.249
-250.049	-200.000	-0.032	0.326
-249.034	17.988	0.216	0.170
-248.019	-62.765	0.068	0.028
-247.005	-200.000	0.011	0.319
-245.990	-40.527	-0.105	-0.054
-244.976	800.000	-0.120	-0.470
-243.961	-181.986	-0.093	-0.002
-242.946	800.000	-0.081	0.230
-241.932	-200.000	-0.016	0.265
-240.917	800.000	0.039	0.120
-239.903	800.000	-0.045	0.146
-238.888	-43.580	0.070	-0.035
-237.873	-25.453	0.144	-0.084
-236.859	-182.070	0.276	0.005
-235.844	-200.000	0.001	-0.214
-234.830	-200.000	0.021	-0.217
-233.815	-200.000	-0.001	-0.051
-232.800	89.573	0.094	-0.103
-231.786	81.079	-0.248	0.264
-230.771	0.101	-0.066	0.046
-229.757	-200.000	0.020	-0.140
-228.742	-77.385	0.515	0.176
-227.727	-200.000	-0.055	-0.255
-226.713	110.293	-0.185	-0.219
-225.698	-142.000	0.197	0.019
-224.684	-0.410	-0.023	0.016
-223.669	96.879	-0.129	0.146
-222.655	132.138	-0.089	-0.113
-221.640	123.026	0.152	-0.188
-220.625	-127.451	-0.171	-0.025
-219.611	-200.000	-0.014	0.258
-218.596	0.521	0.281	-0.198
-217.582	800.000	-0.030	0.082
-216.567	800.000	-0.062	0.187
-215.552	-69.495	0.082	-0.031
-214.538	-50.095	0.200	0.093
-213.523	158.603	0.046	0.063
-212.509	-101.207	-0.220	-0.053
-211.494	44.945	0.169	-0.154
-210.479	-200.000	0.037	-0.245
-209.465	126.955	0.167	-0.208
-208.450	81.131	0.228	-0.243
-207.436	168.832	-0.108	0.152
-206.421	-65.715	0.278	-0.110
-205.406	-200.000	0.060	-0.452
-204.392	800.000	0.194	0.560
-203.377	-200.000	0.072	0.325
-202.363	-200.000	-0.024	0.321
-201.348	-83.830	-0.309	-0.097
-200.333	58.196	-0.145	-0.140
-199.319	800.000	0.077	0.305
-198.304	-50.313	-0.149	0.069
-197.290	-200.000	-0.027	0.262
-196.275	-65.660	-0.297	-0.117
-195.260	800.000	-0.049	-0.142
-194.246	-28.187	-0.052	-0.030
-193.231	-30.172	0.468	-0.262
-192.217	133.660	0.108	0.137
-191.202	-200.000	-0.041	0.250
-190.187	-167.649	-0.545	0.021
-189.173	112.571	-0.240	-0.287
-188.158	-200.000	0.048	0.224
-187.144	-137.866	-0.141	0.015
-186.129	175.299	0.100	-0.143
-185.114	222.783	0.132	-0.209
-184.100	18.484	0.053	-0.042
-183.085	0.764	0.272	0.192
-182.071	800.000	-0.031	0.117
-181.056	76.340	-0.068	-0.071
-180.042	-159.370	-0.347	-0.019
-179.027	-200.000	0.056	0.361
-178.012	-60.071	0.219	0.092
-176.998	20.146	-0.197	0.156
-175.983	-200.000	-0.055	0.286
-174.969	447.521	0.116	0.252
-173.954	26.439	0.056	0.046
-172.939	-19.654	0.111	0.067
-171.925	-63.859	0.092	-0.037
-170.910	491.683	0.057	0.130
-169.896	-18.988	0.154	-0.095
-168.881	-79.378	0.357	0.119
-167.866	800.000	-0.109	0.316
-166.852	-60.049	-0.208	-0.087
-165.837	2.427	-0.155	-0.110
-164.823	-179.543	-0.196	0.004
-163.808	52.918	0.160	-0.151
-162.793	-0.217	-0.126	-0.088
-161.779	272.398	-0.098	0.170
-160.764	351.427	0.120	-0.233
-159.750	-57.236	0.304	0.132
-158.735	-200.000	0.051	-0.391
-157.720	800.000	0.052	-0.146
-156.706	-56.552	0.288	0.126
-155.691	-96.297	0.093	0.024
-154.677	136.044	-0.003	0.004
-153.662	-104.635	0.095	0.022
-152.647	184.601	-0.188	-0.273
-151.633	-136.761	0.315	0.036
-150.618	-200.000	-0.011	-0.435
-149.604	153.873	0.218	0.293
-148.589	287.288	-0.071	0.126
-147.574	-143.745	-0.444	0.041
-146.560	-109.138	-0.204	-0.043
-145.545	138.017	-0.160	0.207
-144.531	274.330	0.165	-0.288
-143.516	346.392	-0.031	-0.059
-142.502	800.000	0.020	0.061
-141.487	-0.364	0.099	-0.069
-140.472	74.741	-0.178	0.184
-139.458	-175.307	0.141	0.004
-138.443	7.286	-0.137	-0.101
-137.429	800.000	-0.043	-0.174
-136.414	-200.000	-0.016	-0.085
-135.399	-83.292	-0.109	0.035
-134.385	-200.000	-0.030	0.347
-133.370	-12.107	-0.054	0.035
-132.356	275.172	0.059	0.103
-131.341	-1.796	0.128	-0.089
-130.326	-31.279	-0.155	-0.086
-129.312	-52.216	0.060	0.027
-128.297	800.000	0.055	-0.155
-127.283	-200.000	0.005	-0.238
-126.268	-109.935	-0.038	0.008
-125.253	-11.111	-0.057	0.037
-124.239	-52.675	-0.184	-0.083
-123.224	-61.480	0.268	-0.110
-122.210	800.000	0.060	-0.245
-121.195	415.643	0.102	0.214
