DTS Sentinel unit serial number:	SN413079Multiplexer serial number:	ORYXHardware model number:	OX4-SRSoftware version number:	ORYX F/W v4.00 Oryx Data Collector v3.7.2.0data status	okinstallation	princeton_trtdifferential loss correction	single-endedforward channel	channel 1reverse channel	N/Adate	2019/09/19time	02:42:35forward acquisition time	60.00reverse acquisition time	0.00gamma	496.2192k internal	0.2344k external	0.2344temperature offset calibration	1.0019default loss term (dB/km)	0.3790temperature slope calibration	1.0000multiplexer offset coefficient	1.0000multiplexer slope coefficient	1.0000fibre end	0.00T internal ref (°C)	20.94T ext. ref 1 (°C)	0.67T ext. ref 2 (°C)	14.69length (m)	temperature (°C)	Stokes	anti-Stokes-747.200	210.310	0.132	0.207
-746.185	118.623	-0.241	0.297
-745.171	-200.000	-0.033	0.196
-744.156	-186.352	-0.118	0.002
-743.142	-200.000	-0.043	-0.334
-742.127	583.842	-0.168	0.412
-741.112	-87.184	-0.130	0.040
-740.098	800.000	-0.033	-0.133
-739.083	-200.000	0.037	-0.207
-738.069	483.323	0.126	0.287
-737.054	142.019	0.391	0.519
-736.039	-155.192	-0.283	0.018
-735.025	-161.315	0.173	-0.009
-734.010	-200.000	-0.006	-0.659
-732.996	187.544	0.182	-0.272
-731.981	-200.000	-0.029	-0.238
-730.966	-200.000	0.055	-0.309
-729.952	-200.000	0.034	-0.157
-728.937	201.011	0.239	-0.368
-727.923	717.726	0.050	-0.132
-726.908	-167.615	0.337	-0.013
-725.894	-59.311	0.279	0.120
-724.879	-76.920	-0.386	-0.135
-723.864	-0.003	-0.317	-0.226
-722.850	-59.885	-0.241	-0.103
-721.835	800.000	0.034	0.136
-720.821	800.000	-0.144	-0.526
-719.806	668.184	-0.129	0.333
-718.791	124.258	0.010	0.012
-717.777	-9.158	-0.256	-0.171
-716.762	699.737	-0.104	-0.272
-715.748	-15.142	0.329	0.210
-714.733	-117.846	-0.106	0.019
-713.718	256.151	-0.167	-0.286
-712.704	-117.047	0.247	-0.045
-711.689	129.835	-0.179	-0.229
-710.675	-34.604	0.230	-0.126
-709.660	-94.610	-0.053	0.014
-708.645	137.002	0.195	-0.254
-707.631	258.300	-0.164	0.282
-706.616	129.408	0.060	0.077
-705.602	-91.948	-0.023	0.006
-704.587	-89.737	0.348	-0.102
-703.572	-200.000	0.034	0.305
-702.558	543.356	0.132	-0.315
-701.543	-141.359	-0.310	0.031
-700.529	699.039	-0.088	-0.230
-699.514	-49.180	0.200	-0.095
-698.499	81.772	-0.177	-0.192
-697.485	0.691	0.240	-0.172
-696.470	3.683	0.346	-0.252
-695.456	-200.000	0.005	-0.224
-694.441	37.021	0.261	0.231
-693.426	216.392	-0.205	-0.325
-692.412	69.833	-0.210	-0.217
-691.397	206.552	-0.089	-0.138
-690.383	20.901	-0.376	-0.304
-689.368	-66.788	-0.017	0.007
-688.354	-88.938	-0.066	-0.020
-687.339	-200.000	-0.018	0.185
-686.324	-57.580	-0.236	-0.103
-685.310	-200.000	-0.001	0.059
-684.295	-105.247	-0.240	-0.055
-683.281	-77.138	0.061	0.021
-682.266	624.521	-0.029	-0.074
-681.251	-195.023	-0.341	-0.003
-680.237	-49.285	-0.123	-0.058
-679.222	612.140	-0.133	-0.332
-678.208	662.455	0.096	0.248
-677.193	-200.000	0.004	0.310
-676.178	-124.001	0.063	-0.010
-675.164	-82.988	0.312	0.101
-674.149	-200.000	-0.055	0.261
-673.135	800.000	0.114	-0.410
-672.120	-200.000	0.021	0.138
-671.105	-8.574	-0.157	0.105
-670.091	474.015	-0.144	-0.323
-669.076	156.460	0.163	-0.224
-668.062	211.938	0.104	-0.163
-667.047	550.050	-0.044	0.104
-666.032	-175.933	-0.138	0.004
-665.018	263.448	-0.102	-0.177
-664.003	-151.460	-0.243	-0.018
-662.989	290.003	0.062	-0.112
-661.974	-39.341	0.233	-0.122
-660.959	138.679	-0.172	-0.225
-659.945	-200.000	-0.216	0.000
-658.930	306.321	0.116	0.216
-657.916	320.836	0.053	0.101
-656.901	205.112	-0.184	0.285
-655.886	332.616	-0.061	0.117
-654.872	-40.251	0.284	-0.147
-653.857	-71.626	-0.093	-0.035
-652.843	-200.000	-0.055	-0.269
-651.828	371.615	0.073	0.147
-650.814	-2.932	-0.067	-0.047
-649.799	485.803	-0.071	0.161
-648.784	-200.000	-0.019	0.107
-647.770	-144.060	-0.113	-0.011
-646.755	349.066	-0.059	0.115
-645.741	32.487	-0.275	0.237
-644.726	-45.056	0.417	0.207
-643.711	13.689	0.382	-0.296
-642.697	800.000	-0.085	-0.285
-641.682	453.209	-0.081	-0.179
-640.668	-200.000	0.039	-0.230
-639.653	97.527	-0.100	0.115
-638.638	114.536	-0.127	-0.154
-637.624	320.869	0.113	0.213
-636.609	800.000	0.061	0.231
-635.595	-200.000	0.014	0.216
-634.580	710.973	0.110	-0.291
-633.565	800.000	-0.055	0.164
-632.551	44.724	0.178	-0.163
-631.536	-134.179	0.191	0.023
-630.522	16.810	0.091	0.072
-629.507	-114.582	0.378	-0.072
-628.492	209.526	-0.178	0.278
-627.478	-91.405	0.216	-0.061
-626.463	-200.000	0.002	0.154
-625.449	800.000	-0.015	0.044
-624.434	-140.059	-0.260	-0.027
-623.419	662.121	0.042	-0.108
-622.405	-200.000	0.000	-0.146
-621.390	-179.575	-0.330	-0.007
-620.376	4.595	0.124	0.091
-619.361	70.195	0.231	-0.237
-618.346	-109.492	-0.317	0.067
-617.332	-200.000	0.032	0.303
-616.317	-71.665	0.257	-0.095
-615.303	-200.000	0.045	0.311
-614.288	92.671	0.132	0.149
-613.273	416.106	0.039	0.083
-612.259	681.763	-0.040	0.104
-611.244	175.428	0.074	0.107
-610.230	85.954	-0.064	-0.070
-609.215	-131.527	-0.239	-0.031
-608.201	800.000	0.047	-0.144
-607.186	-200.000	0.047	0.288
-606.171	-200.000	0.012	-0.381
-605.157	800.000	-0.061	0.238
-604.142	800.000	-0.032	0.119
-603.128	-147.625	-0.328	0.027
-602.113	449.690	-0.102	-0.223
-601.098	-108.891	-0.260	-0.055
-600.084	-13.724	0.319	0.205
-599.069	187.067	0.092	-0.136
-598.055	-39.966	-0.032	0.017
-597.040	82.221	-0.105	0.113
-596.025	42.073	-0.404	0.365
-595.011	-45.455	0.104	0.051
-593.996	128.366	0.206	0.260
-592.982	-200.000	-0.001	-0.323
-591.967	-12.914	-0.274	-0.177
-590.952	794.281	-0.111	-0.303
-589.938	800.000	-0.058	-0.249
-588.923	-200.000	0.005	0.161
-587.909	491.798	-0.109	-0.247
-586.894	-162.835	0.195	0.009
-585.879	800.000	-0.053	0.201
-584.865	167.223	-0.113	-0.159
-583.850	-157.461	-0.461	0.028
-582.836	-1.529	-0.097	-0.068
-581.821	-82.460	-0.124	-0.040
-580.806	-177.101	-0.094	0.002
-579.792	-200.000	0.036	0.225
-578.777	-200.000	0.089	-0.403
-577.763	48.452	0.246	-0.229
-576.748	-200.000	-0.023	-0.159
-575.733	-11.279	0.115	-0.075
-574.719	234.695	-0.055	-0.090
-573.704	82.390	-0.102	0.110
-572.690	276.433	-0.097	-0.171
-571.675	2.103	0.311	0.224
-570.661	484.061	0.142	-0.321
-569.646	70.017	-0.080	-0.082
-568.631	-200.000	0.019	0.307
-567.617	147.582	-0.097	0.130
-566.602	-108.632	0.376	0.080
-565.588	433.001	0.072	-0.155
-564.573	178.659	-0.107	-0.156
-563.558	800.000	-0.015	-0.062
-562.544	-200.000	-0.007	-0.151
-561.529	146.457	-0.096	-0.129
-560.515	-20.649	-0.203	0.124
-559.500	-144.080	0.231	-0.021
-558.485	-109.866	0.280	0.058
-557.471	250.640	0.057	-0.096
-556.456	-130.470	-0.131	-0.018
-555.442	-15.652	-0.073	-0.046
-554.427	601.669	-0.029	-0.072
-553.412	-200.000	0.033	0.384
-552.398	800.000	0.044	0.132
-551.383	-37.215	-0.134	-0.071
-550.369	-44.531	-0.078	0.039
-549.354	-137.096	-0.134	0.015
-548.339	800.000	-0.057	-0.228
-547.325	88.167	0.121	-0.133
-546.310	-200.000	-0.025	-0.186
-545.296	-152.817	0.185	0.013
-544.281	-91.491	0.203	0.057
-543.266	-200.000	0.026	-0.148
-542.252	-10.751	-0.097	0.063
-541.237	75.075	-0.115	0.120
-540.223	-69.744	-0.257	-0.098
-539.208	-120.455	-0.306	0.052
-538.193	559.612	-0.021	0.049
-537.179	-81.348	-0.123	0.040
-536.164	39.105	-0.166	-0.148
-535.150	-44.754	0.069	-0.034
-534.135	-112.373	0.481	0.096
-533.121	352.446	-0.200	-0.393
-532.106	-115.663	-0.169	-0.032
-531.091	-200.000	-0.003	0.291
-530.077	250.749	0.203	-0.343
-529.062	-200.000	-0.002	-0.115
-528.048	83.374	0.154	-0.167
-527.033	46.316	-0.243	-0.224
-526.018	-77.162	0.143	-0.050
-525.004	98.585	0.107	0.123
-523.989	-27.368	-0.091	0.052
-522.975	162.006	0.101	0.141
-521.960	36.922	-0.189	-0.166
-520.945	225.758	0.259	0.416
-519.931	-134.380	-0.101	0.012
-518.916	-74.312	0.285	-0.102
-517.902	-75.702	-0.216	-0.076
-516.887	31.108	0.281	-0.239
-515.872	103.984	-0.012	0.014
-514.858	-72.928	-0.295	0.108
-513.843	0.633	0.059	-0.042
-512.829	-200.000	-0.056	-0.356
-511.814	800.000	-0.093	-0.313
-510.799	-7.297	-0.269	0.181
-509.785	248.303	0.123	-0.207
-508.770	-200.000	-0.033	0.222
-507.756	-178.901	0.385	-0.009
-506.741	336.223	0.028	0.054
-505.726	800.000	-0.037	-0.144
-504.712	-51.009	0.123	-0.057
-503.697	764.986	0.190	0.512
-502.683	23.558	-0.161	-0.131
-501.668	480.093	0.143	0.322
-500.653	447.918	-0.034	0.075
-499.639	-4.097	0.156	-0.107
-498.624	-200.000	0.022	-0.108
-497.610	-130.099	-0.071	-0.010
-496.595	-41.834	-0.093	0.047
-495.581	31.562	0.240	-0.205
-494.566	-166.712	0.147	-0.006
-493.551	54.562	-0.233	0.223
-492.537	-200.000	-0.048	-0.286
-491.522	90.411	0.195	-0.217
-490.508	-200.000	-0.002	0.066
-489.493	-200.000	-0.059	0.310
-488.478	124.943	-0.085	0.106
-487.464	39.619	0.193	-0.171
-486.449	17.535	-0.154	-0.121
-485.435	384.785	0.107	-0.218
-484.420	-47.889	0.213	-0.102
-483.405	-200.000	-0.041	-0.290
-482.391	550.245	-0.062	-0.148
-481.376	-138.351	0.278	-0.030
-480.362	-200.000	0.044	-0.190
-479.347	196.270	0.134	0.201
-478.332	800.000	-0.077	0.223
-477.318	87.741	0.112	-0.123
-476.303	390.363	0.035	-0.072
-475.289	-84.566	0.165	0.052
-474.274	81.865	0.189	0.203
-473.259	616.365	0.062	-0.155
-472.245	-200.000	0.016	0.108
-471.230	196.826	0.224	0.338
-470.216	18.047	0.022	-0.018
-469.201	-200.000	-0.032	-0.333
-468.186	381.881	0.091	-0.185
-467.172	523.613	0.137	-0.320
-466.157	-149.174	0.119	-0.009
-465.143	23.422	0.125	0.102
-464.128	27.904	-0.111	0.093
-463.113	288.589	-0.099	-0.177
-462.099	176.475	0.018	-0.026
-461.084	800.000	0.065	-0.186
-460.070	-200.000	-0.013	-0.103
-459.055	22.182	-0.105	-0.085
-458.040	40.764	0.075	-0.066
-457.026	13.846	-0.038	0.029
-456.011	-200.000	0.011	0.054
-454.997	184.022	-0.124	-0.182
-453.982	47.514	0.232	0.214
-452.968	146.556	0.176	0.234
-451.953	-57.261	0.033	-0.014
-450.938	800.000	0.076	-0.273
-449.924	-53.757	-0.047	-0.021
-448.909	-160.866	0.200	-0.010
-447.895	-146.990	-0.101	-0.009
-446.880	547.778	0.057	0.134
-445.865	339.685	-0.079	-0.151
-444.851	-143.767	-0.166	-0.015
-443.836	178.175	0.061	0.088
-442.822	-73.025	-0.346	-0.126
-441.807	-130.382	0.312	0.042
-440.792	-121.035	0.172	0.028
-439.778	247.535	-0.149	0.249
-438.763	-200.000	0.036	-0.224
-437.749	-27.174	0.278	-0.160
-436.734	-200.000	-0.005	-0.242
-435.719	469.125	-0.031	0.068
-434.705	-142.913	-0.427	0.041
-433.690	-50.736	-0.126	0.058
-432.676	-39.469	-0.186	0.096
-431.661	-87.382	0.178	0.053
-430.646	193.607	-0.103	0.154
-429.632	-10.198	-0.184	-0.121
-428.617	-147.979	0.319	-0.026
-427.603	-200.000	-0.034	0.173
-426.588	800.000	0.167	-0.490
-425.573	90.332	-0.139	0.154
-424.559	-52.938	-0.192	0.087
-423.544	56.163	-0.240	-0.230
-422.530	200.626	-0.225	-0.342
-421.515	800.000	0.041	0.143
-420.500	-200.000	-0.037	0.330
-419.486	130.403	0.197	0.249
-418.471	-72.465	0.273	-0.100
-417.457	-200.000	-0.015	-0.086
-416.442	85.500	0.264	0.287
-415.428	26.952	0.221	0.183
-414.413	800.000	0.077	0.217
-413.398	176.213	0.059	0.085
-412.384	535.634	0.190	-0.445
-411.369	-118.840	0.178	0.031
-410.355	-92.633	0.122	-0.034
-409.340	8.045	0.076	-0.057
-408.325	-33.345	0.135	-0.074
-407.311	200.693	0.206	-0.313
-406.296	-134.877	-0.367	-0.044
-405.282	58.738	-0.175	-0.170
-404.267	127.246	0.203	-0.255
-403.252	800.000	0.023	0.069
-402.238	45.401	-0.186	0.170
-401.223	-200.000	0.013	0.103
-400.209	334.604	-0.104	-0.200
-399.194	62.848	-0.087	-0.086
-398.179	-118.995	0.169	-0.029
-397.165	-7.963	0.296	0.197
-396.150	-200.000	-0.008	-0.109
-395.136	-136.405	0.231	-0.027
-394.121	237.903	0.057	0.094
-393.106	800.000	-0.024	-0.092
-392.092	494.857	0.122	-0.276
-391.077	-200.000	-0.007	-0.095
-390.063	-91.124	-0.198	0.056
-389.048	-200.000	0.013	0.154
-388.033	-200.000	0.008	0.041
-387.019	-200.000	-0.008	0.174
-386.004	-71.786	-0.094	0.034
-384.990	454.101	-0.066	0.144
-383.975	319.556	0.138	-0.258
-382.960	720.752	-0.128	-0.336
-381.946	165.956	0.033	-0.047
-380.931	451.571	0.031	0.068
-379.917	41.832	0.119	-0.107
-378.902	-200.000	0.042	-0.252
-377.888	-88.470	0.403	-0.119
-376.873	505.446	-0.071	0.162
-375.858	167.979	0.156	-0.219
-374.844	-42.870	0.113	0.057
-373.829	77.364	0.162	0.170
-372.815	127.208	-0.186	0.232
-371.800	256.453	0.087	-0.147
-370.785	373.948	0.157	0.315
-369.771	-68.231	0.032	0.012
-368.756	-14.882	0.324	0.205
-367.742	-200.000	-0.027	0.134
-366.727	-35.305	-0.105	0.056
-365.712	-7.880	0.208	0.138
-364.698	77.386	0.179	0.188
-363.683	-135.477	-0.517	-0.061
-362.669	-119.756	0.129	-0.022
-361.654	507.565	0.059	-0.136
-360.639	137.047	-0.053	0.068
-359.625	-42.138	-0.258	0.130
-358.610	-200.000	0.048	-0.233
-357.596	-166.268	-0.228	0.009
-356.581	-150.543	0.155	-0.012
-355.566	-47.310	-0.282	-0.136
-354.552	-11.941	0.310	0.200
-353.537	800.000	-0.073	0.238
-352.523	62.220	0.179	0.176
-351.508	-84.239	-0.209	0.065
-350.493	614.691	0.162	0.400
-349.479	-67.060	0.080	0.031
-348.464	800.000	0.074	-0.272
-347.450	-161.892	0.118	0.006
-346.435	40.116	0.170	-0.151
-345.420	-135.031	-0.374	0.044
-344.406	318.333	0.080	-0.149
-343.391	800.000	-0.163	-0.472
-342.377	-158.633	-0.198	-0.011
-341.362	100.771	-0.143	0.164
-340.348	13.811	0.187	0.143
-339.333	105.822	-0.136	0.159
-338.318	-200.000	-0.075	0.337
-337.304	-200.000	0.031	0.173
-336.289	-200.000	-0.116	-0.503
-335.275	-169.389	-0.069	0.002
-334.260	800.000	-0.026	0.077
-333.245	-31.464	0.146	-0.081
-332.231	-145.488	-0.301	-0.027
-331.216	-200.000	0.040	0.465
-330.202	-102.428	-0.204	0.048
-329.187	800.000	0.060	0.206
-328.172	-43.473	-0.237	0.118
-327.158	-30.673	-0.135	0.075
-326.143	59.751	0.083	-0.081
-325.129	-54.521	0.102	0.046
-324.114	-200.000	0.066	-0.391
-323.099	544.690	-0.092	0.216
-322.085	-3.832	0.198	-0.136
-321.070	-176.255	-0.123	-0.003
-320.056	800.000	-0.116	-0.485
-319.041	-117.829	-0.198	0.035
-318.026	42.339	0.058	0.052
-317.012	800.000	-0.049	-0.162
-315.997	-56.195	0.291	0.128
-314.983	585.962	0.031	0.076
-313.968	36.740	-0.081	-0.070
-312.953	478.879	-0.126	0.282
-311.939	202.874	0.043	0.066
-310.924	397.629	-0.071	-0.145
-309.910	-200.000	0.015	-0.380
-308.895	201.509	-0.137	0.207
-307.880	87.099	-0.255	-0.277
-306.866	339.715	-0.110	0.210
-305.851	-54.226	0.041	-0.018
-304.837	800.000	-0.092	-0.256
-303.822	-119.884	-0.141	-0.024
-302.807	-44.903	0.140	0.068
-301.793	-200.000	-0.039	0.342
-300.778	134.520	-0.209	0.267
-299.764	800.000	0.080	0.268
-298.749	-200.000	0.038	-0.283
-297.735	-0.181	-0.155	-0.108
-296.720	-152.261	0.369	-0.026
-295.705	133.658	0.081	-0.103
-294.691	800.000	0.053	0.152
-293.676	173.474	0.070	0.100
-292.662	371.984	0.034	-0.068
-291.647	-106.608	0.116	-0.025
-290.632	-29.631	-0.329	0.185
-289.618	-78.028	0.093	0.032
-288.603	152.334	-0.191	0.256
-287.589	-106.143	-0.303	-0.067
-286.574	326.021	0.069	-0.129
-285.559	-200.000	0.036	-0.216
-284.545	158.685	0.004	-0.006
-283.530	-129.464	-0.399	0.054
-282.516	-200.000	-0.042	0.401
-281.501	800.000	-0.040	0.162
-280.486	-40.707	0.187	0.095
-279.472	243.864	-0.061	0.100
-278.457	800.000	0.047	0.145
-277.443	7.977	0.250	0.184
-276.428	800.000	-0.072	-0.262
-275.413	-53.173	0.186	-0.084
-274.399	-42.097	-0.182	-0.091
-273.384	800.000	-0.024	0.096
-272.370	-186.724	0.175	-0.002
-271.355	-54.820	-0.206	-0.091
-270.340	414.754	0.089	-0.186
-269.326	87.316	0.095	-0.103
-268.311	-0.651	0.112	0.078
-267.297	166.254	0.242	0.336
-266.282	-63.983	0.163	0.065
-265.267	-64.201	-0.262	-0.105
-264.253	-200.000	-0.015	-0.110
-263.238	-84.390	0.219	0.068
-262.224	-200.000	-0.011	0.149
-261.209	-200.000	-0.041	0.000
-260.195	9.230	-0.121	0.090
-259.180	764.356	0.040	-0.107
-258.165	419.723	0.133	0.280
-257.151	85.373	-0.032	0.035
-256.136	90.323	0.155	0.170
-255.122	29.582	0.051	0.043
-254.107	40.689	-0.109	0.096
-253.092	5.998	-0.383	-0.279
-252.078	-200.000	-0.028	-0.237
-251.063	-56.463	-0.354	0.154
-250.049	-31.800	0.139	0.077
-249.034	-18.621	0.118	0.072
-248.019	800.000	-0.027	-0.075
-247.005	-200.000	0.025	0.160
-245.990	-70.130	-0.441	0.164
-244.976	14.775	-0.084	-0.064
-243.961	-141.318	0.196	0.020
-242.946	165.946	-0.281	0.390
-241.932	-106.924	0.318	0.069
-240.917	80.010	0.163	0.172
-239.903	-186.788	-0.408	0.006
-238.888	229.603	0.170	-0.273
-237.873	-34.117	0.283	-0.152
-236.859	-125.901	-0.335	0.050
-235.844	-44.116	0.124	-0.061
-234.830	117.038	-0.093	0.112
-233.815	-99.987	0.200	0.049
-232.800	-105.112	0.269	-0.060
-231.786	23.791	-0.195	0.157
-230.771	-147.513	-0.193	-0.016
-229.757	-200.000	0.040	-0.191
-228.742	-41.485	-0.295	-0.149
-227.727	748.792	-0.053	-0.141
-226.713	78.430	0.050	0.053
-225.698	-200.000	0.000	-0.097
-224.684	-200.000	-0.024	0.296
-223.669	-134.598	-0.275	0.033
-222.655	36.197	-0.197	0.170
-221.640	180.035	-0.157	-0.226
-220.625	143.123	-0.210	0.274
-219.611	800.000	0.043	0.158
-218.596	-95.162	-0.328	0.087
-217.582	-113.657	-0.269	0.052
-216.567	-163.666	0.085	0.004
-215.552	800.000	-0.083	0.283
-214.538	-31.305	0.158	0.087
-213.523	-11.184	-0.229	0.148
-212.509	-200.000	0.033	-0.152
-211.494	-47.901	0.313	0.148
-210.479	104.242	0.071	-0.082
-209.465	-126.449	0.342	0.050
-208.450	-48.998	-0.185	-0.087
-207.436	195.997	-0.179	-0.266
-206.421	-114.809	-0.306	-0.057
-205.406	332.822	-0.116	0.219
-204.392	800.000	0.024	0.076
-203.377	-57.017	0.227	0.098
-202.363	800.000	0.039	-0.149
-201.348	-200.000	0.027	0.275
-200.333	41.344	0.184	-0.163
-199.319	734.515	-0.120	0.314
-198.304	-114.889	0.109	-0.020
-197.290	154.874	-0.359	0.483
-196.275	80.057	0.140	0.147
-195.260	35.385	0.210	0.180
-194.246	-200.000	0.044	0.279
-193.231	-200.000	-0.027	-0.119
-192.217	-1.804	0.190	0.131
-191.202	203.925	-0.088	0.133
-190.187	-64.250	0.095	-0.038
-189.173	-123.458	-0.312	-0.049
-188.158	-114.143	0.156	0.029
-187.144	-200.000	-0.084	0.474
-186.129	-94.314	0.278	0.074
-185.114	800.000	0.108	-0.303
-184.100	310.462	-0.091	-0.166
-183.085	362.828	-0.040	0.079
-182.071	800.000	0.094	0.305
-181.056	800.000	-0.141	-0.391
-180.042	211.504	-0.210	-0.323
-179.027	3.144	0.219	0.156
-178.012	-200.000	0.017	-0.289
-176.998	-128.520	0.058	-0.008
-175.983	203.147	-0.126	-0.191
-174.969	77.165	-0.130	-0.136
-173.954	-117.561	-0.105	0.018
-172.939	795.996	0.086	0.232
-171.925	-200.000	0.043	0.205
-170.910	11.129	0.097	-0.073
-169.896	-200.000	0.011	-0.076
-168.881	800.000	-0.060	-0.221
-167.866	-1.060	-0.190	-0.131
-166.852	-200.000	-0.018	-0.238
-165.837	-200.000	-0.013	0.203
-164.823	-16.230	-0.030	0.019
-163.808	-103.260	-0.269	0.062
-162.793	-39.725	0.183	0.094
-161.779	800.000	0.093	-0.262
-160.764	800.000	0.095	-0.316
-159.750	-200.000	-0.013	-0.520
-158.735	108.009	0.176	0.205
-157.720	24.007	0.073	0.059
-156.706	73.250	-0.151	-0.154
-155.691	23.193	-0.155	-0.124
-154.677	150.879	-0.264	0.351
-153.662	155.237	0.053	-0.071
-152.647	280.280	-0.180	0.315
-151.633	-200.000	0.009	-0.327
-150.618	297.722	-0.066	0.118
-149.604	227.064	-0.291	0.463
-148.589	328.847	0.085	0.160
-147.574	-32.388	-0.243	0.132
-146.560	-200.000	0.000	0.037
-145.545	-146.806	0.129	-0.011
-144.531	87.698	0.221	-0.239
-143.516	-86.261	0.192	0.058
-142.502	-79.563	-0.361	-0.119
-141.487	-98.802	0.268	-0.067
-140.472	95.086	-0.140	0.156
-139.458	-47.349	0.346	-0.165
-138.443	-200.000	-0.038	-0.211
-137.429	42.002	0.071	-0.063
-136.414	142.264	0.038	0.049
-135.399	13.115	0.175	0.132
-134.385	0.487	0.148	-0.103
-133.370	-12.115	-0.112	0.072
-132.356	800.000	-0.057	-0.168
-131.341	-37.536	0.277	0.144
-130.326	2.606	0.078	0.055
-129.312	-101.708	-0.344	-0.082
-128.297	-200.000	0.020	0.133
-127.283	294.844	-0.076	-0.137
-126.268	-200.000	-0.021	-0.142
-125.253	800.000	0.080	-0.323
-124.239	149.872	0.060	0.080
-123.224	-200.000	0.026	-0.134
-122.210	-200.000	-0.027	0.189
-121.195	-200.000	0.024	0.172
