DTS Sentinel unit serial number:	SN413079Multiplexer serial number:	ORYXHardware model number:	OX4-SRSoftware version number:	ORYX F/W v4.00 Oryx Data Collector v3.7.2.0data status	okinstallation	princeton_trtdifferential loss correction	single-endedforward channel	channel 1reverse channel	N/Adate	2019/09/12time	22:22:35forward acquisition time	60.00reverse acquisition time	0.00gamma	496.2192k internal	0.2326k external	0.2326temperature offset calibration	1.0150default loss term (dB/km)	0.3790temperature slope calibration	1.0000multiplexer offset coefficient	1.0000multiplexer slope coefficient	1.0000fibre end	0.00T internal ref (°C)	29.77T ext. ref 1 (°C)	3.72T ext. ref 2 (°C)	24.35length (m)	temperature (°C)	Stokes	anti-Stokes-747.200	66.957	0.281	-0.288
-746.185	-200.000	0.032	0.182
-745.171	288.583	0.160	-0.291
-744.156	-87.817	-0.254	0.077
-743.142	174.063	0.106	0.154
-742.127	151.891	0.138	0.190
-741.112	19.208	-0.052	-0.042
-740.098	109.738	-0.117	0.141
-739.083	-200.000	0.045	0.228
-738.069	-59.559	0.242	0.105
-737.054	-49.498	0.028	0.013
-736.039	29.521	-0.051	0.044
-735.025	-95.662	0.282	0.076
-734.010	179.998	-0.281	-0.416
-732.996	126.617	-0.250	-0.320
-731.981	-200.000	0.009	0.522
-730.966	-103.291	-0.218	-0.052
-729.952	-6.746	-0.368	-0.252
-728.937	-49.580	-0.312	-0.150
-727.923	-30.725	0.162	0.092
-726.908	-91.724	-0.042	-0.012
-725.894	-6.459	-0.272	-0.187
-724.879	-152.869	0.142	-0.010
-723.864	-80.701	0.209	0.070
-722.850	314.883	0.056	-0.106
-721.835	-200.000	-0.054	-0.247
-720.821	173.398	-0.023	-0.033
-719.806	241.025	-0.144	-0.243
-718.791	-95.921	-0.179	-0.048
-717.777	134.283	-0.094	0.122
-716.762	-37.697	-0.334	0.179
-715.748	800.000	0.105	0.364
-714.733	-48.441	0.258	-0.125
-713.718	-167.075	-0.252	-0.010
-712.704	87.510	-0.188	-0.209
-711.689	198.435	-0.211	-0.325
-710.675	29.024	-0.296	-0.253
-709.660	118.747	-0.193	-0.240
-708.645	174.513	-0.227	-0.331
-707.631	286.710	-0.230	-0.419
-706.616	-141.574	0.240	-0.024
-705.602	9.555	-0.231	0.176
-704.587	-90.697	0.269	0.078
-703.572	-34.866	0.182	-0.100
-702.558	151.491	0.126	0.173
-701.543	-134.348	-0.156	-0.019
-700.529	-49.422	0.251	0.120
-699.514	-153.257	-0.274	-0.019
-698.499	-3.529	-0.361	-0.253
-697.485	-100.750	-0.423	-0.105
-696.470	371.830	0.247	0.506
-695.456	-200.000	-0.010	0.100
-694.441	-16.127	0.423	0.271
-693.426	-168.676	-0.392	-0.015
-692.412	61.805	0.290	-0.290
-691.397	394.199	-0.022	0.047
-690.383	54.477	-0.024	-0.024
-689.368	308.020	0.183	-0.344
-688.354	-200.000	0.050	-0.231
-687.339	-115.373	0.229	0.043
-686.324	-200.000	-0.136	-0.000
-685.310	351.957	-0.113	-0.225
-684.295	391.204	-0.016	-0.034
-683.281	-200.000	0.006	-0.178
-682.266	800.000	0.074	-0.239
-681.251	33.391	0.153	0.133
-680.237	49.555	0.192	-0.182
-679.222	470.503	-0.078	0.177
-678.208	-37.297	-0.289	0.155
-677.193	631.187	0.114	-0.291
-676.178	122.219	0.208	-0.261
-675.164	82.351	0.170	-0.185
-674.149	-41.478	-0.078	-0.040
-673.135	257.016	-0.025	0.044
-672.120	-0.205	0.317	-0.227
-671.105	-93.554	0.149	0.041
-670.091	-200.000	-0.033	-0.337
-669.076	-86.713	0.196	-0.060
-668.062	566.653	-0.147	-0.359
-667.047	-200.000	-0.042	-0.327
-666.032	18.523	-0.051	-0.041
-665.018	-15.133	0.022	-0.014
-664.003	-164.206	0.312	-0.014
-662.989	-75.841	0.365	0.130
-661.974	151.719	0.094	0.129
-660.959	800.000	0.034	-0.124
-659.945	725.033	-0.071	-0.189
-658.930	7.593	0.262	-0.197
-657.916	239.725	-0.061	-0.102
-656.901	800.000	0.065	-0.246
-655.886	334.056	-0.154	-0.300
-654.872	5.093	-0.138	0.102
-653.857	-54.933	-0.112	-0.051
-652.843	15.914	0.258	0.204
-651.828	-141.522	-0.166	-0.017
-650.814	447.141	-0.074	0.164
-649.799	-25.272	-0.333	0.198
-648.784	251.741	0.035	0.060
-647.770	185.794	-0.046	-0.069
-646.755	-27.572	-0.378	-0.220
-645.741	-133.834	0.077	0.010
-644.726	-89.531	0.317	-0.093
-643.711	-153.518	-0.328	0.023
-642.697	-119.921	0.295	0.051
-641.682	-118.412	0.248	-0.044
-640.668	594.527	-0.068	0.170
-639.653	-43.050	-0.195	-0.099
-638.638	-48.587	0.153	-0.074
-637.624	-60.634	-0.312	-0.133
-636.609	-32.960	0.043	0.024
-635.595	800.000	0.017	-0.071
-634.580	468.498	-0.119	0.269
-633.565	463.106	-0.078	0.175
-632.551	365.547	-0.057	-0.115
-631.536	-105.725	0.274	0.062
-630.522	121.177	0.105	0.131
-629.507	-120.139	-0.144	-0.025
-628.492	-5.874	0.121	0.083
-627.478	800.000	-0.083	0.236
-626.463	69.798	-0.089	0.092
-625.449	62.813	-0.049	0.049
-624.434	96.725	-0.280	-0.322
-623.419	-39.994	0.104	-0.054
-622.405	-14.469	-0.128	0.083
-621.390	102.766	-0.096	0.112
-620.376	-62.736	0.066	0.028
-619.361	-130.774	0.198	-0.027
-618.346	6.880	-0.089	0.066
-617.332	-104.884	0.142	0.033
-616.317	-29.656	0.156	-0.089
-615.303	39.415	0.200	-0.180
-614.288	-39.035	0.212	-0.112
-613.273	-92.585	0.118	-0.033
-612.259	107.551	-0.074	0.089
-611.244	-72.231	-0.393	0.146
-610.230	-74.979	0.109	-0.039
-609.215	-94.527	-0.150	-0.041
-608.201	21.677	-0.128	0.105
-607.186	96.576	0.022	-0.025
-606.171	-200.000	-0.000	-0.255
-605.157	171.939	-0.118	0.171
-604.142	-200.000	-0.027	-0.243
-603.128	-57.402	0.109	0.048
-602.113	358.590	-0.125	-0.251
-601.098	-115.387	0.327	0.062
-600.084	-73.810	-0.098	0.036
-599.069	-93.571	0.304	-0.084
-598.055	-103.774	-0.289	0.068
-597.040	168.793	0.131	-0.187
-596.025	800.000	-0.070	0.228
-595.011	413.138	-0.045	-0.095
-593.996	258.524	-0.006	-0.010
-592.982	54.546	0.182	-0.176
-591.967	-68.421	0.214	0.083
-590.952	-59.431	0.379	0.163
-589.938	-57.034	0.202	-0.089
-588.923	361.345	-0.060	-0.121
-587.909	-200.000	0.058	-0.474
-586.894	123.706	0.227	0.286
-585.879	-32.357	-0.227	-0.127
-584.865	-36.849	0.064	0.035
-583.850	-64.671	0.148	-0.060
-582.836	-84.995	-0.102	0.032
-581.821	-53.582	-0.227	0.104
-580.806	121.416	0.094	-0.118
-579.792	-153.260	-0.126	0.009
-578.777	-116.317	0.136	0.025
-577.763	4.514	-0.088	-0.065
-576.748	76.867	0.011	-0.011
-575.733	-42.092	0.342	-0.175
-574.719	-80.411	0.199	0.067
-573.704	-200.000	0.014	-0.395
-572.690	800.000	0.094	-0.278
-571.675	-18.176	-0.042	0.026
-570.661	-200.000	-0.006	0.065
-569.646	-38.194	0.325	-0.173
-568.631	-27.783	-0.079	-0.046
-567.617	-77.871	0.154	-0.053
-566.602	129.069	-0.238	0.304
-565.588	165.722	-0.139	0.198
-564.573	800.000	0.037	-0.110
-563.558	-83.055	0.227	0.073
-562.544	800.000	0.028	0.094
-561.529	-108.572	-0.286	-0.062
-560.515	42.512	0.207	-0.189
-559.500	244.411	-0.140	0.235
-558.485	-200.000	-0.059	-0.327
-557.471	9.333	0.034	0.026
-556.456	131.353	0.095	0.123
-555.442	-200.000	-0.003	-0.077
-554.427	259.502	-0.081	0.139
-553.412	751.038	0.073	0.197
-552.398	-168.930	-0.219	-0.008
-551.383	21.920	-0.137	0.112
-550.369	-200.000	-0.007	0.316
-549.354	800.000	0.056	-0.178
-548.339	-81.207	-0.075	0.025
-547.325	-8.883	-0.164	0.110
-546.310	-200.000	-0.004	-0.074
-545.296	-88.037	0.187	-0.056
-544.281	-200.000	0.058	-0.330
-543.266	-200.000	-0.005	0.026
-542.252	-65.714	-0.137	0.055
-541.237	-200.000	-0.008	-0.279
-540.223	-200.000	0.028	0.154
-539.208	-170.746	0.178	0.006
-538.193	-92.749	-0.219	0.061
-537.179	711.696	-0.136	0.360
-536.164	354.054	0.125	-0.248
-535.150	-200.000	-0.036	-0.197
-534.135	-200.000	-0.015	0.262
-533.121	322.784	0.086	-0.164
-532.106	413.000	-0.096	-0.204
-531.091	33.292	-0.128	0.111
-530.077	-62.617	-0.245	0.102
-529.062	800.000	-0.080	-0.268
-528.048	-2.522	0.135	0.094
-527.033	759.917	0.135	0.366
-526.018	800.000	-0.136	0.465
-525.004	-35.539	-0.346	0.188
-523.989	-200.000	-0.022	-0.320
-522.975	-140.194	0.117	-0.012
-521.960	-17.346	0.256	0.161
-520.945	800.000	-0.090	-0.302
-519.931	-112.711	0.284	-0.056
-518.916	-200.000	-0.017	0.093
-517.902	208.022	0.231	0.360
-516.887	-26.353	-0.254	0.149
-515.872	-120.924	-0.126	-0.021
-514.858	599.412	0.101	-0.249
-513.843	-165.899	-0.105	-0.005
-512.829	41.476	0.252	-0.228
-511.814	-78.176	-0.274	0.094
-510.799	-91.876	0.266	-0.075
-509.785	51.721	0.268	-0.255
-508.770	-200.000	-0.007	0.061
-507.756	-150.211	0.039	-0.003
-506.741	-200.000	0.073	-0.346
-505.726	-18.725	-0.109	-0.068
-504.712	-105.897	0.157	-0.035
-503.697	-91.472	-0.330	-0.094
-502.683	-200.000	0.019	-0.102
-501.668	15.327	-0.134	-0.105
-500.653	-130.480	-0.094	0.013
-499.639	171.254	-0.162	0.232
-498.624	-200.000	-0.004	-0.223
-497.610	-21.744	0.355	-0.216
-496.595	36.738	0.221	-0.195
-495.581	-100.087	-0.368	-0.092
-494.566	303.694	-0.046	0.084
-493.551	594.092	0.015	0.036
-492.537	219.886	-0.045	-0.072
-491.522	-50.414	0.188	0.089
-490.508	-100.302	-0.081	-0.020
-489.493	50.850	-0.142	0.134
-488.478	-200.000	0.012	-0.106
-487.464	-61.000	0.222	-0.094
-486.449	-100.231	-0.161	0.040
-485.435	-184.253	0.232	0.004
-484.420	-200.000	0.027	0.244
-483.405	-176.720	0.220	0.006
-482.391	-147.067	0.178	0.015
-481.376	-42.788	0.322	-0.163
-480.362	38.690	-0.024	-0.021
-479.347	-91.863	-0.403	-0.114
-478.332	142.925	0.123	-0.164
-477.318	6.563	0.013	-0.010
-476.303	-130.729	-0.128	-0.017
-475.289	-123.771	0.272	0.043
-474.274	-200.000	-0.004	0.416
-473.259	645.728	-0.148	0.376
-472.245	-200.000	0.017	0.146
-471.230	-51.058	-0.277	0.130
-470.216	-179.555	0.032	-0.001
-469.201	181.681	0.130	0.191
-468.186	-159.949	-0.322	0.018
-467.172	-9.832	0.099	0.065
-466.157	-200.000	0.001	0.147
-465.143	44.928	0.152	-0.139
-464.128	-63.983	-0.139	-0.057
-463.113	-104.790	0.305	-0.070
-462.099	234.400	0.161	-0.264
-461.084	800.000	0.055	-0.205
-460.070	26.715	0.054	0.045
-459.055	-135.687	-0.197	0.023
-458.040	74.578	0.177	-0.186
-457.026	-142.281	0.222	-0.022
-456.011	-13.858	-0.266	-0.172
-454.997	-126.514	-0.240	-0.036
-453.982	-37.435	0.080	-0.043
-452.968	65.973	-0.145	-0.147
-451.953	205.766	0.024	0.037
-450.938	126.763	-0.121	-0.153
-449.924	-159.299	-0.216	0.012
-448.909	132.062	-0.233	0.299
-447.895	155.930	0.012	0.016
-446.880	-11.425	-0.163	0.107
-445.865	-93.805	-0.234	-0.064
-444.851	-15.087	0.239	0.153
-443.836	115.120	-0.168	0.204
-442.822	-87.529	0.105	-0.032
-441.807	-33.528	-0.259	0.143
-440.792	-12.194	-0.206	0.134
-439.778	-98.038	-0.234	-0.060
-438.763	-71.420	0.385	-0.144
-437.749	-79.496	-0.095	0.032
-436.734	-14.225	0.078	-0.050
-435.719	-14.314	0.252	-0.162
-434.705	-25.059	-0.212	-0.125
-433.690	-91.973	-0.306	0.086
-432.676	-189.073	-0.178	-0.002
-431.661	-64.850	-0.103	0.041
-430.646	-69.230	-0.230	-0.088
-429.632	-200.000	-0.008	0.165
-428.617	-200.000	0.088	-0.589
-427.603	-200.000	-0.011	0.330
-426.588	650.940	-0.050	-0.127
-425.573	-142.026	0.170	-0.017
-424.559	105.997	-0.121	-0.143
-423.544	206.585	0.042	-0.065
-422.530	-84.828	-0.132	0.041
-421.515	800.000	-0.078	-0.299
-420.500	684.027	-0.068	0.177
-419.486	105.582	0.116	0.136
-418.471	-115.576	-0.624	-0.117
-417.457	77.459	0.098	-0.104
-416.442	-200.000	0.012	-0.058
-415.428	149.287	0.187	0.252
-414.413	-43.934	0.234	-0.117
-413.398	27.339	-0.069	-0.058
-412.384	-174.011	0.124	-0.004
-411.369	31.640	-0.371	0.318
-410.355	84.324	-0.273	0.297
-409.340	800.000	0.093	-0.394
-408.325	243.531	-0.112	0.187
-407.311	2.709	0.273	-0.197
-406.296	-200.000	0.036	-0.198
-405.282	23.384	0.277	0.227
-404.267	-58.990	-0.105	0.045
-403.252	800.000	-0.112	-0.323
-402.238	218.814	0.223	0.354
-401.223	191.399	0.042	0.063
-400.209	-200.000	0.037	0.210
-399.194	-200.000	0.004	0.148
-398.179	-128.927	0.053	0.007
-397.165	-64.162	0.054	0.022
-396.150	-200.000	0.030	0.250
-395.136	-135.691	-0.320	-0.038
-394.121	106.513	0.098	0.116
-393.106	-54.980	-0.540	0.242
-392.092	-200.000	-0.019	0.112
-391.077	25.954	-0.045	-0.037
-390.063	630.478	0.018	0.044
-389.048	800.000	-0.020	-0.066
-388.033	-78.942	-0.170	0.057
-387.019	7.458	0.104	0.077
-386.004	60.305	-0.364	0.358
-384.990	-150.809	0.051	-0.004
-383.975	241.358	-0.206	0.342
-382.960	-131.576	0.198	-0.026
-381.946	-168.902	0.254	0.009
-380.931	189.305	0.140	-0.208
-379.917	-17.106	-0.316	-0.198
-378.902	386.967	0.150	-0.308
-377.888	-200.000	-0.045	0.260
-376.873	107.403	-0.159	0.188
-375.858	-163.225	0.230	0.011
-374.844	-83.102	0.257	0.082
-373.829	-1.015	-0.128	0.090
-372.815	-111.616	-0.068	-0.014
-371.800	9.478	-0.182	0.137
-370.785	164.212	0.075	-0.105
-369.771	-200.000	0.024	-0.139
-368.756	538.284	-0.072	0.169
-367.742	61.426	-0.132	0.130
-366.727	291.809	-0.201	0.364
-365.712	-200.000	0.011	-0.220
-364.698	146.823	0.061	-0.082
-363.683	163.233	0.108	0.151
-362.669	514.709	-0.237	0.549
-361.654	800.000	-0.134	0.393
-360.639	-10.734	0.343	0.225
-359.625	-119.586	0.466	0.080
-358.610	-200.000	-0.071	-0.339
-357.596	456.262	-0.119	-0.262
-356.581	-66.435	0.158	0.062
-355.566	312.455	0.154	-0.288
-354.552	-18.351	-0.016	-0.010
-353.537	-87.747	0.032	0.009
-352.523	-9.671	-0.140	-0.093
-351.508	-7.645	-0.184	-0.124
-350.493	-200.000	0.005	0.275
-349.479	-2.061	0.092	-0.064
-348.464	-103.046	0.299	0.070
-347.450	800.000	0.036	0.153
-346.435	-188.680	0.264	-0.003
-345.420	578.420	-0.081	-0.196
-344.406	-148.594	0.278	-0.023
-343.391	-200.000	-0.009	0.152
-342.377	-148.715	0.262	0.021
-341.362	-54.712	0.305	-0.137
-340.348	-20.638	0.328	-0.200
-339.333	-158.390	0.140	-0.008
-338.318	-45.918	0.210	0.103
-337.304	-86.031	0.243	-0.074
-336.289	-200.000	-0.011	-0.255
-335.275	22.384	0.296	0.240
-334.260	99.877	0.165	0.190
-333.245	124.671	-0.133	-0.166
-332.231	-200.000	-0.008	-0.065
-331.216	563.801	0.038	0.092
-330.202	159.847	0.105	0.146
-329.187	-160.009	-0.337	0.018
-328.172	7.792	-0.207	-0.154
-327.158	-148.611	0.351	-0.028
-326.143	67.680	-0.122	-0.124
-325.129	99.532	0.346	-0.397
-324.114	-110.071	0.243	-0.050
-323.099	-7.092	-0.193	0.130
-322.085	-27.391	0.071	0.041
-321.070	-153.183	0.411	-0.029
-320.056	-51.796	0.207	-0.095
-319.041	166.539	-0.063	-0.089
-318.026	800.000	0.009	0.038
-317.012	-102.435	0.154	0.037
-315.997	-200.000	-0.010	0.135
-314.983	-200.000	-0.047	-0.205
-313.968	-200.000	0.021	-0.387
-312.953	660.071	0.120	-0.305
-311.939	69.470	0.127	0.129
-310.924	-136.807	0.041	0.005
-309.910	236.311	0.076	-0.125
-308.895	-51.306	-0.433	0.201
-307.880	298.444	-0.094	0.171
-306.866	-130.994	-0.543	0.072
-305.851	-34.510	0.180	0.098
-304.837	667.160	0.092	-0.236
-303.822	-16.272	0.124	0.078
-302.807	-44.303	-0.240	-0.119
-301.793	48.196	-0.041	0.038
-300.778	-200.000	-0.010	0.051
-299.764	-68.329	-0.348	0.134
-298.749	-200.000	-0.004	-0.054
-297.735	208.090	-0.099	0.153
-296.720	-77.434	0.470	0.162
-295.705	-200.000	-0.013	-0.236
-294.691	309.096	-0.151	0.280
-293.676	800.000	-0.077	-0.262
-292.662	800.000	0.037	0.136
-291.647	614.430	-0.160	-0.398
-290.632	-173.130	0.130	0.004
-289.618	129.511	0.169	-0.215
-288.603	-106.518	-0.337	0.074
-287.589	800.000	0.079	0.237
-286.574	289.794	-0.102	-0.183
-285.559	800.000	0.035	0.103
-284.545	-200.000	-0.054	0.499
-283.530	-15.506	-0.140	0.089
-282.516	133.913	0.129	-0.166
-281.501	273.064	-0.201	-0.352
-280.486	523.893	0.028	-0.066
-279.472	-84.597	0.060	0.019
-278.457	-200.000	0.074	-0.336
-277.443	-9.134	-0.299	0.198
-276.428	-200.000	-0.023	-0.226
-275.413	-172.296	-0.184	0.006
-274.399	78.775	0.123	0.130
-273.384	-200.000	-0.018	0.253
-272.370	-66.606	-0.263	-0.103
-271.355	-22.513	0.094	-0.056
-270.340	-200.000	0.006	-0.186
-269.326	-46.018	0.167	0.081
-268.311	6.717	-0.239	-0.176
-267.297	44.607	-0.294	0.267
-266.282	133.719	-0.231	0.296
-265.267	-200.000	0.027	0.375
-264.253	-27.076	0.173	-0.100
-263.238	43.941	-0.110	0.100
-262.224	-147.796	-0.091	0.008
-261.209	-140.379	-0.198	-0.020
-260.195	88.302	0.190	0.209
-259.180	-48.855	0.213	-0.101
-258.165	262.425	0.109	0.187
-257.151	800.000	-0.044	0.130
-256.136	-126.380	-0.110	-0.016
-255.122	80.963	-0.110	-0.118
-254.107	75.098	-0.139	-0.145
-253.092	132.528	-0.103	0.131
-252.078	259.418	0.200	-0.341
-251.063	-24.794	0.163	0.096
-250.049	-200.000	-0.039	0.212
-249.034	-200.000	0.023	0.225
-248.019	290.859	-0.101	-0.181
-247.005	-118.559	-0.014	-0.002
-245.990	-35.890	0.213	-0.114
-244.976	162.873	0.073	0.102
-243.961	-12.395	-0.180	-0.116
-242.946	716.956	-0.007	0.018
-241.932	-200.000	0.017	0.190
-240.917	-96.600	0.140	-0.037
-239.903	167.478	0.101	0.142
-238.888	-47.038	-0.274	-0.132
-237.873	-32.475	-0.077	-0.043
-236.859	128.101	0.207	-0.260
-235.844	236.462	0.035	-0.057
-234.830	160.655	-0.127	-0.175
-233.815	-200.000	-0.055	0.276
-232.800	-200.000	0.049	0.263
-231.786	-106.339	0.055	-0.012
-230.771	-200.000	0.009	0.043
-229.757	-90.414	0.220	-0.063
-228.742	91.487	-0.221	-0.245
-227.727	-200.000	-0.032	-0.422
-226.713	68.784	0.197	-0.199
-225.698	-109.851	-0.210	0.043
-224.684	-38.585	0.191	-0.100
-223.669	46.669	0.105	-0.096
-222.655	-50.549	-0.139	0.065
-221.640	-200.000	0.053	-0.425
-220.625	140.172	-0.175	-0.228
-219.611	-200.000	-0.010	0.056
-218.596	-200.000	-0.034	0.473
-217.582	108.199	-0.096	-0.113
-216.567	470.235	0.082	0.183
-215.552	478.713	0.145	0.324
-214.538	800.000	-0.112	0.389
-213.523	800.000	-0.062	-0.246
-212.509	77.384	0.231	0.243
-211.494	-107.058	-0.205	-0.045
-210.479	84.236	0.154	-0.166
-209.465	-200.000	0.015	-0.327
-208.450	70.805	0.345	-0.353
-207.436	-35.183	-0.294	-0.158
-206.421	800.000	-0.054	0.152
-205.406	-200.000	-0.017	0.092
-204.392	134.220	-0.309	0.396
-203.377	-22.258	0.160	-0.096
-202.363	14.644	-0.286	-0.220
-201.348	257.191	0.113	0.192
-200.333	-131.009	-0.202	0.027
-199.319	-200.000	0.005	0.167
-198.304	0.656	0.342	-0.241
-197.290	-87.866	0.062	0.019
-196.275	-200.000	-0.010	-0.266
-195.260	688.785	-0.109	0.281
-194.246	576.580	0.066	0.159
-193.231	281.666	0.108	-0.190
-192.217	-123.568	-0.320	-0.050
-191.202	-119.401	0.443	-0.076
-190.187	-114.236	-0.283	0.054
-189.173	-152.581	0.265	0.019
-188.158	-152.671	0.430	-0.030
-187.144	34.898	-0.183	-0.158
-186.129	207.290	0.040	0.061
-185.114	-20.862	-0.017	-0.010
-184.100	-200.000	-0.002	-0.200
-183.085	-7.955	0.178	0.119
-182.071	-200.000	0.011	0.087
-181.056	-200.000	-0.000	0.086
-180.042	62.724	0.097	-0.096
-179.027	-200.000	0.008	-0.066
-178.012	-94.436	-0.204	-0.055
-176.998	-131.515	0.054	0.007
-175.983	-71.091	0.289	-0.107
-174.969	-66.004	0.425	0.168
-173.954	-21.575	-0.109	0.065
-172.939	-117.552	-0.392	-0.070
-171.925	800.000	0.024	-0.100
-170.910	253.164	-0.083	-0.140
-169.896	800.000	-0.025	0.093
-168.881	-78.872	-0.222	-0.074
-167.866	214.765	-0.036	-0.056
-166.852	212.042	0.080	-0.124
-165.837	-137.115	-0.439	-0.049
-164.823	800.000	0.006	-0.018
-163.808	-115.962	0.075	0.014
-162.793	399.717	0.072	-0.148
-161.779	150.947	0.173	0.232
-160.764	19.898	-0.176	0.140
-159.750	85.206	-0.142	0.154
-158.735	-68.344	-0.184	-0.071
-157.720	24.231	0.198	0.161
-156.706	562.978	0.077	0.184
-155.691	-130.698	0.191	-0.025
-154.677	495.299	-0.063	-0.144
-153.662	-200.000	-0.040	-0.230
-152.647	181.299	0.158	0.229
-151.633	307.819	-0.276	0.507
-150.618	151.875	0.056	-0.075
-149.604	-121.434	0.308	0.051
-148.589	-131.317	-0.309	0.040
-147.574	482.883	-0.094	-0.211
-146.560	267.904	0.112	0.194
-145.545	486.491	-0.069	-0.154
-144.531	-198.299	-0.295	-0.002
-143.516	66.393	-0.207	-0.207
-142.502	121.413	0.143	-0.176
-141.487	69.341	0.041	0.042
-140.472	-23.079	-0.298	0.177
-139.458	146.779	-0.040	-0.053
-138.443	-127.214	-0.017	-0.002
-137.429	800.000	-0.104	-0.392
-136.414	55.304	0.162	0.155
-135.399	135.387	0.231	0.295
-134.385	45.185	0.180	0.164
-133.370	800.000	-0.044	0.151
-132.356	-46.196	0.155	0.075
-131.341	800.000	-0.074	-0.299
-130.326	256.711	0.156	-0.263
-129.312	55.221	0.207	0.197
-128.297	-27.363	0.127	-0.073
-127.283	-200.000	0.009	-0.041
-126.268	15.775	0.032	0.024
-125.253	-70.228	0.258	0.096
-124.239	44.451	-0.034	-0.031
-123.224	104.609	0.295	0.342
-122.210	-200.000	0.001	0.041
