DTS Sentinel unit serial number:	SN413079Multiplexer serial number:	ORYXHardware model number:	OX4-SRSoftware version number:	ORYX F/W v4.00 Oryx Data Collector v3.7.2.0data status	okinstallation	princeton_trtdifferential loss correction	single-endedforward channel	channel 1reverse channel	N/Adate	2019/09/16time	15:14:35forward acquisition time	60.00reverse acquisition time	0.00gamma	496.2192k internal	0.2293k external	0.2293temperature offset calibration	0.9948default loss term (dB/km)	0.3790temperature slope calibration	1.0000multiplexer offset coefficient	1.0000multiplexer slope coefficient	1.0000fibre end	0.00T internal ref (°C)	41.06T ext. ref 1 (°C)	14.56T ext. ref 2 (°C)	36.57length (m)	temperature (°C)	Stokes	anti-Stokes-747.200	-32.339	-0.185	0.105
-746.185	250.312	0.076	-0.132
-745.171	800.000	0.049	-0.190
-744.156	-28.107	-0.278	0.164
-743.142	-184.843	0.253	0.004
-742.127	260.844	-0.072	0.127
-741.112	119.079	0.134	0.169
-740.098	-12.918	-0.104	0.069
-739.083	-136.283	-0.236	-0.028
-738.069	40.930	0.198	0.183
-737.054	19.637	-0.331	-0.272
-736.039	29.717	-0.135	-0.118
-735.025	10.522	0.115	-0.089
-734.010	-126.327	0.241	-0.037
-732.996	130.757	0.056	0.074
-731.981	-126.174	-0.074	-0.011
-730.966	-131.119	-0.413	0.056
-729.952	-70.615	-0.357	0.138
-728.937	634.740	0.107	0.278
-727.923	561.953	0.039	-0.095
-726.908	-200.000	0.005	-0.269
-725.894	-13.429	-0.159	0.106
-724.879	2.172	-0.194	0.143
-723.864	800.000	0.132	0.381
-722.850	800.000	-0.094	0.270
-721.835	-200.000	0.066	-0.323
-720.821	-31.053	-0.186	0.108
-719.806	-116.666	0.051	0.010
-718.791	491.400	-0.087	0.203
-717.777	425.892	-0.026	0.058
-716.762	-154.627	0.149	-0.010
-715.748	128.630	0.180	0.235
-714.733	-200.000	-0.025	0.259
-713.718	800.000	-0.115	-0.366
-712.704	343.474	0.080	0.160
-711.689	-73.370	-0.104	-0.039
-710.675	800.000	-0.045	-0.197
-709.660	-101.445	-0.433	-0.108
-708.645	-89.438	-0.261	-0.078
-707.631	-2.489	-0.176	0.126
-706.616	-66.548	0.232	0.094
-705.602	800.000	0.035	0.122
-704.587	21.599	-0.172	-0.143
-703.572	-82.904	-0.360	-0.119
-702.558	-115.867	-0.096	0.018
-701.543	-13.965	0.192	0.126
-700.529	21.814	0.116	-0.097
-699.514	-200.000	0.021	-0.218
-698.499	197.889	-0.203	0.317
-697.485	35.662	0.158	0.142
-696.470	58.364	0.260	0.261
-695.456	-91.427	-0.267	0.078
-694.441	80.038	-0.293	-0.322
-693.426	-200.000	0.032	0.190
-692.412	-157.163	-0.212	0.013
-691.397	480.925	0.110	-0.255
-690.383	31.777	0.244	0.214
-689.368	285.010	-0.138	0.254
-688.354	800.000	-0.049	0.196
-687.339	-106.067	-0.636	0.146
-686.324	77.015	0.244	0.265
-685.310	-31.625	0.180	-0.103
-684.295	-17.355	-0.192	0.124
-683.281	378.177	0.131	-0.274
-682.266	-125.775	-0.277	-0.043
-681.251	-200.000	0.025	-0.316
-680.237	22.119	0.187	-0.156
-679.222	22.055	-0.073	-0.061
-678.208	-68.504	0.170	-0.067
-677.193	800.000	-0.070	-0.226
-676.178	389.470	-0.067	-0.141
-675.164	-4.210	-0.173	-0.122
-674.149	487.514	0.025	0.059
-673.135	-50.037	-0.178	0.086
-672.120	68.279	0.064	-0.067
-671.105	473.793	-0.022	-0.050
-670.091	84.124	0.154	0.172
-669.076	469.635	0.060	-0.137
-668.062	117.514	-0.195	-0.244
-667.047	350.403	-0.102	-0.206
-666.032	-200.000	0.022	-0.379
-665.018	-200.000	-0.043	0.197
-664.003	-167.927	0.220	-0.009
-662.989	66.886	-0.447	0.465
-661.974	307.374	-0.051	0.097
-660.959	-200.000	0.240	0.001
-659.945	-131.804	0.284	-0.038
-658.930	-112.247	-0.036	-0.007
-657.916	751.376	-0.108	-0.298
-656.901	800.000	0.014	0.061
-655.886	-200.000	0.014	0.092
-654.872	-17.354	0.176	0.113
-653.857	78.467	0.256	0.279
-652.843	-147.037	-0.176	-0.015
-651.828	150.584	0.069	0.096
-650.814	-79.641	-0.047	0.016
-649.799	168.443	-0.085	-0.123
-648.784	315.250	0.071	-0.136
-647.770	-156.941	-0.047	0.003
-646.755	170.736	0.208	0.304
-645.741	19.878	-0.203	-0.167
-644.726	800.000	-0.068	0.212
-643.711	-117.719	0.282	-0.052
-642.697	-12.140	0.138	-0.092
-641.682	-135.098	-0.059	0.007
-640.668	800.000	-0.067	0.239
-639.653	800.000	0.047	0.162
-638.638	-168.809	0.082	0.003
-637.624	-170.408	-0.176	-0.006
-636.609	-60.171	0.325	-0.141
-635.595	492.470	-0.089	-0.208
-634.580	-83.594	0.228	0.074
-633.565	-116.340	0.272	0.051
-632.551	73.176	0.262	-0.279
-631.536	-87.192	-0.241	-0.075
-630.522	-127.753	0.157	-0.023
-629.507	141.505	-0.234	-0.315
-628.492	-69.064	-0.110	0.043
-627.478	-73.294	-0.418	0.156
-626.463	-150.982	0.323	0.025
-625.449	71.419	0.101	0.107
-624.434	113.553	-0.208	0.258
-623.419	256.300	0.049	0.085
-622.405	348.691	-0.116	0.233
-621.390	-121.500	-0.155	-0.026
-620.376	81.029	-0.102	-0.112
-619.361	167.264	-0.137	-0.198
-618.346	406.567	-0.109	-0.233
-617.332	472.379	0.074	0.170
-616.317	338.130	-0.086	0.170
-615.303	-145.129	-0.051	0.005
-614.288	-200.000	0.244	0.000
-613.273	-200.000	-0.015	0.150
-612.259	-200.000	-0.087	-0.441
-611.244	79.144	-0.062	-0.068
-610.230	151.272	-0.108	-0.149
-609.215	-59.142	-0.472	-0.207
-608.201	-200.000	0.014	0.107
-607.186	-114.720	0.319	-0.062
-606.171	-174.164	-0.206	0.006
-605.157	800.000	0.060	0.255
-604.142	314.165	0.037	0.070
-603.128	365.212	0.141	-0.288
-602.113	-109.366	-0.175	0.038
-601.098	-156.747	0.212	0.013
-600.084	-10.192	0.304	0.206
-599.069	-31.647	0.106	-0.061
-598.055	201.205	-0.115	0.180
-597.040	-98.908	0.275	-0.071
-596.025	-142.763	0.099	0.010
-595.011	54.801	-0.305	0.299
-593.996	-200.000	-0.025	-0.200
-592.982	6.638	-0.210	0.159
-591.967	138.729	0.100	-0.134
-590.952	191.821	0.165	0.253
-589.938	-55.974	-0.128	0.058
-588.923	276.265	0.035	-0.064
-587.909	-64.661	-0.325	-0.134
-586.894	-200.000	0.000	0.161
-585.879	-116.447	-0.077	-0.014
-584.865	-56.508	-0.057	-0.026
-583.850	167.807	-0.246	-0.356
-582.836	-166.880	0.225	-0.009
-581.821	-200.000	-0.054	0.478
-580.806	277.590	-0.050	-0.091
-579.792	39.547	-0.157	-0.143
-578.777	-127.630	-0.381	0.056
-577.763	-1.007	0.144	-0.104
-576.748	-53.927	0.276	0.128
-575.733	-22.467	0.253	-0.156
-574.719	22.651	0.058	0.048
-573.704	-138.667	-0.142	0.016
-572.690	171.336	0.060	-0.087
-571.675	-121.137	-0.051	-0.009
-570.661	-89.430	0.290	0.087
-569.646	-200.000	-0.028	0.253
-568.631	-81.161	0.216	-0.073
-567.617	78.523	0.165	0.179
-566.602	-200.000	0.031	-0.310
-565.588	-18.147	0.326	0.207
-564.573	252.647	-0.052	-0.091
-563.558	-200.000	-0.011	0.098
-562.544	443.894	-0.110	0.246
-561.529	-141.045	-0.324	0.034
-560.515	219.363	0.073	0.119
-559.500	318.846	0.036	-0.069
-558.485	-134.948	-0.245	0.030
-557.471	-200.000	0.039	0.190
-556.456	-32.478	0.079	0.045
-555.442	149.975	0.138	0.190
-554.427	-33.797	-0.132	0.074
-553.412	-1.234	0.093	-0.067
-552.398	-95.552	-0.392	-0.107
-551.383	-200.000	-0.002	-0.389
-550.369	-158.895	0.278	-0.016
-549.354	-200.000	-0.161	-0.001
-548.339	-79.768	-0.213	0.073
-547.325	-200.000	-0.005	-0.035
-546.310	39.938	0.151	0.138
-545.296	800.000	0.016	0.046
-544.281	62.163	-0.103	-0.104
-543.266	-112.018	0.160	0.033
-542.252	640.807	-0.072	-0.187
-541.237	272.837	-0.035	-0.062
-540.223	-63.296	-0.171	0.071
-539.208	-29.413	-0.294	0.171
-538.193	249.506	-0.138	-0.238
-537.179	-2.113	0.040	-0.029
-536.164	-150.830	-0.135	0.010
-535.150	159.191	0.248	0.350
-534.135	-1.785	0.120	-0.086
-533.121	561.261	0.088	0.215
-532.106	274.825	0.051	-0.092
-531.091	-200.000	-0.024	-0.153
-530.077	-71.383	-0.148	-0.056
-529.062	93.378	0.180	0.207
-528.048	-31.898	-0.218	-0.124
-527.033	-128.849	-0.132	-0.019
-526.018	-80.095	0.201	0.068
-525.004	735.415	0.050	-0.135
-523.989	-200.000	0.048	0.242
-522.975	-5.025	0.097	-0.068
-521.960	145.673	-0.225	-0.307
-520.945	53.624	0.103	0.100
-519.931	-142.879	0.193	-0.019
-518.916	-126.797	-0.281	-0.042
-517.902	95.993	0.116	0.134
-516.887	-77.601	-0.322	0.113
-515.872	-149.083	0.257	0.021
-514.858	-25.438	0.084	0.050
-513.843	155.357	0.020	0.027
-512.829	-43.568	0.273	-0.140
-511.814	6.038	0.178	0.134
-510.799	-200.000	-0.021	0.188
-509.785	-200.000	0.007	0.138
-508.770	-200.000	-0.010	-0.160
-507.756	-68.319	0.146	0.058
-506.741	11.559	0.101	-0.079
-505.726	-9.035	0.113	-0.077
-504.712	488.407	0.090	-0.208
-503.697	-200.000	-0.071	0.324
-502.683	-200.000	0.032	0.309
-501.668	-113.891	-0.336	0.066
-500.653	-200.000	0.026	0.147
-499.639	163.032	0.142	-0.203
-498.624	-125.559	0.059	0.009
-497.610	-0.714	-0.126	-0.091
-496.595	150.618	-0.107	0.148
-495.581	800.000	-0.017	0.074
-494.566	18.337	0.142	-0.115
-493.551	196.030	-0.027	-0.042
-492.537	199.107	0.040	-0.062
-491.522	6.230	-0.163	0.123
-490.508	-142.052	0.271	-0.027
-489.493	800.000	0.097	-0.357
-488.478	800.000	-0.096	-0.293
-487.464	132.076	-0.124	0.162
-486.449	88.088	0.121	0.136
-485.435	68.939	-0.265	0.276
-484.420	52.991	-0.084	0.081
-483.405	-49.138	0.081	0.039
-482.391	-200.000	-0.029	-0.141
-481.376	-198.517	0.290	-0.002
-480.362	20.219	-0.171	0.140
-479.347	800.000	-0.013	-0.055
-478.332	-132.737	0.185	0.024
-477.318	-97.683	0.079	0.021
-476.303	-154.411	0.091	-0.006
-475.289	800.000	0.065	-0.185
-474.274	800.000	0.052	-0.178
-473.259	158.221	-0.086	0.120
-472.245	-168.280	-0.084	0.003
-471.230	-200.000	-0.036	-0.177
-470.216	-150.355	0.304	-0.024
-469.201	-200.000	0.042	-0.218
-468.186	-62.825	-0.404	0.169
-467.172	-30.825	0.250	-0.143
-466.157	49.421	-0.251	0.239
-465.143	194.949	-0.190	-0.292
-464.128	-154.057	0.155	-0.011
-463.113	4.259	0.252	0.187
-462.099	-150.322	-0.080	0.006
-461.084	800.000	0.036	0.121
-460.070	241.807	0.091	-0.154
-459.055	-117.463	0.321	-0.059
-458.040	-83.488	-0.175	-0.057
-457.026	40.740	-0.122	-0.111
-456.011	-82.285	0.050	-0.016
-454.997	18.381	0.242	-0.195
-453.982	-200.000	-0.031	0.199
-452.968	220.601	-0.067	0.108
-451.953	4.883	0.097	0.072
-450.938	-72.184	0.309	-0.116
-449.924	800.000	-0.006	0.027
-448.909	251.921	0.088	0.151
-447.895	20.723	-0.172	-0.141
-446.880	-122.509	-0.254	-0.042
-445.865	-164.479	0.212	-0.010
-444.851	-200.000	0.028	-0.162
-443.836	-136.942	-0.230	-0.027
-442.822	70.229	-0.113	-0.118
-441.807	126.988	-0.138	0.176
-440.792	-124.863	-0.195	0.030
-439.778	800.000	-0.057	0.184
-438.763	-139.846	0.150	-0.016
-437.749	333.755	-0.119	-0.232
-436.734	-73.033	0.124	-0.046
-435.719	-200.000	-0.043	0.204
-434.705	-93.947	0.164	0.046
-433.690	83.236	-0.109	0.119
-432.676	800.000	0.079	0.230
-431.661	-200.000	-0.064	0.489
-430.646	190.345	0.108	0.164
-429.632	-200.000	0.060	-0.293
-428.617	461.888	-0.062	-0.140
-427.603	-87.845	-0.411	-0.125
-426.588	-137.841	-0.236	-0.027
-425.573	668.545	0.071	0.186
-424.559	-91.774	-0.376	0.108
-423.544	-131.369	0.172	0.023
-422.530	145.447	-0.091	-0.123
-421.515	-138.758	-0.106	-0.012
-420.500	494.268	0.073	-0.168
-419.486	-169.508	0.194	0.007
-418.471	159.775	0.139	0.196
-417.457	101.290	-0.126	0.148
-416.442	-200.000	-0.019	-0.118
-415.428	128.555	0.155	-0.200
-414.413	-56.087	0.150	-0.068
-413.398	-115.973	0.197	-0.037
-412.384	-109.228	0.173	0.037
-411.369	-63.087	-0.476	0.199
-410.355	-88.457	-0.133	0.040
-409.340	239.011	0.109	0.183
-408.325	415.637	0.022	0.047
-407.311	-200.000	-0.020	-0.159
-406.296	27.758	-0.334	-0.284
-405.282	249.262	0.209	-0.357
-404.267	-200.000	-0.045	0.338
-403.252	-96.294	-0.579	-0.155
-402.238	239.300	0.032	-0.053
-401.223	800.000	-0.073	0.294
-400.209	160.607	-0.252	-0.355
-399.194	-200.000	0.011	-0.353
-398.179	-13.521	0.171	0.112
-397.165	-67.646	0.077	-0.031
-396.150	-58.852	-0.180	0.079
-395.136	-114.879	-0.231	-0.044
-394.121	190.393	-0.098	-0.148
-393.106	-81.713	0.264	0.087
-392.092	-200.000	0.019	-0.175
-391.077	-90.342	0.151	0.044
-390.063	-1.085	0.251	0.179
-389.048	-40.484	-0.136	-0.071
-388.033	-35.151	-0.238	0.131
-387.019	-167.786	0.178	-0.007
-386.004	-27.086	0.178	0.105
-384.990	398.800	-0.236	-0.498
-383.975	-185.896	0.210	-0.003
-382.960	137.835	0.057	-0.076
-381.946	800.000	-0.121	-0.348
-380.931	800.000	0.010	0.033
-379.917	-83.552	0.072	0.023
-378.902	-69.132	0.260	-0.101
-377.888	-30.572	0.193	0.110
-376.873	127.815	0.201	0.258
-375.858	-65.160	-0.362	-0.147
-374.844	167.043	0.209	-0.299
-373.829	800.000	-0.074	0.226
-372.815	-55.887	-0.170	0.077
-371.800	-133.894	-0.129	0.016
-370.785	-111.664	0.349	0.071
-369.771	-200.000	0.007	0.092
-368.756	32.847	0.171	0.149
-367.742	800.000	-0.068	-0.213
-366.727	-143.810	-0.162	-0.015
-365.712	205.733	-0.098	0.154
-364.698	-132.957	0.368	-0.047
-363.683	800.000	-0.101	0.371
-362.669	-26.500	-0.144	0.085
-361.654	-200.000	0.021	-0.186
-360.639	8.214	-0.275	0.208
-359.625	-200.000	-0.011	0.348
-358.610	-200.000	0.028	0.124
-357.596	-126.742	0.139	-0.021
-356.581	83.006	0.109	0.119
-355.566	-4.900	0.364	-0.252
-354.552	-8.158	-0.083	0.057
-353.537	-57.346	0.145	0.064
-352.523	159.864	-0.184	-0.259
-351.508	-8.149	0.283	-0.192
-350.493	-109.259	0.330	0.071
-349.479	-145.081	-0.160	0.015
-348.464	48.405	0.178	-0.168
-347.450	-200.000	0.068	0.312
-346.435	-194.404	0.235	-0.002
-345.420	800.000	0.015	0.053
-344.406	-5.701	-0.200	0.138
-343.391	-0.982	0.363	0.259
-342.377	800.000	0.115	-0.383
-341.362	-17.811	0.229	-0.144
-340.348	164.398	0.089	0.126
-339.333	224.462	-0.183	0.298
-338.318	-109.082	-0.079	-0.017
-337.304	-180.979	-0.108	0.002
-336.289	-72.409	-0.203	0.076
-335.275	-125.916	0.113	-0.017
-334.260	101.359	-0.186	0.218
-333.245	-106.587	-0.091	-0.021
-332.231	800.000	-0.033	0.115
-331.216	-32.238	-0.177	0.100
-330.202	800.000	-0.027	0.102
-329.187	309.208	0.144	0.270
-328.172	-56.683	-0.071	-0.032
-327.158	-16.682	-0.128	0.082
-326.143	599.193	-0.028	-0.070
-325.129	-97.583	-0.286	0.075
-324.114	59.601	-0.056	-0.055
-323.099	128.539	0.236	-0.303
-322.085	151.311	0.177	0.243
-321.070	-122.363	-0.205	-0.034
-320.056	138.089	-0.095	-0.125
-319.041	466.608	0.087	-0.196
-318.026	12.519	0.128	0.099
-317.012	299.896	-0.156	-0.289
-315.997	-26.457	0.163	0.096
-314.983	540.415	-0.028	-0.067
-313.968	800.000	-0.042	-0.127
-312.953	-200.000	-0.020	-0.166
-311.939	800.000	0.081	-0.285
-310.924	-93.464	0.106	-0.029
-309.910	-98.131	-0.330	0.086
-308.895	157.482	0.309	0.430
-307.880	43.476	-0.252	0.231
-306.866	800.000	0.040	0.130
-305.851	451.909	-0.107	-0.238
-304.837	-91.034	-0.223	-0.064
-303.822	169.971	0.092	-0.133
-302.807	758.895	-0.107	0.291
-301.793	8.104	0.241	-0.182
-300.778	-84.124	0.267	0.085
-299.764	-156.053	0.110	0.007
-298.749	51.665	0.270	-0.258
-297.735	-2.308	-0.163	0.115
-296.720	-144.740	-0.143	0.013
-295.705	-200.000	-0.025	-0.424
-294.691	171.326	-0.051	0.074
-293.676	-8.664	-0.143	0.096
-292.662	-62.370	0.144	-0.060
-291.647	-74.553	-0.122	0.044
-290.632	530.942	0.073	-0.172
-289.618	108.466	0.137	-0.164
-288.603	473.813	0.123	0.278
-287.589	-82.992	-0.319	0.103
-286.574	371.194	-0.071	-0.144
-285.559	-40.143	0.196	-0.103
-284.545	-81.069	-0.199	0.066
-283.530	-85.559	-0.189	0.059
-282.516	-99.378	0.454	-0.115
-281.501	-24.603	-0.112	-0.067
-280.486	800.000	0.017	-0.051
-279.472	-60.616	0.093	-0.039
-278.457	526.700	-0.071	0.167
-277.443	-13.945	0.150	0.098
-276.428	800.000	0.001	-0.002
-275.413	-32.496	-0.261	0.146
-274.399	-200.000	0.026	0.260
-273.384	342.388	-0.213	-0.419
-272.370	131.691	0.081	0.104
-271.355	576.526	0.124	0.305
-270.340	-200.000	0.009	-0.078
-269.326	74.704	0.140	0.148
-268.311	800.000	-0.050	-0.202
-267.297	800.000	-0.022	0.091
-266.282	-200.000	0.004	-0.261
-265.267	-158.449	0.429	0.025
-264.253	-75.688	0.082	0.029
-263.238	-200.000	0.043	0.251
-262.224	-200.000	0.040	0.302
-261.209	800.000	0.045	0.137
-260.195	-200.000	-0.022	0.258
-259.180	290.866	-0.115	-0.210
-258.165	800.000	0.032	-0.095
-257.151	308.888	-0.073	-0.137
-256.136	93.495	-0.134	-0.152
-255.122	-35.453	-0.174	-0.095
-254.107	-6.100	0.070	-0.048
-253.092	-200.000	0.052	-0.252
-252.078	17.767	0.391	-0.313
-251.063	-162.814	-0.131	0.006
-250.049	-34.031	0.168	0.093
-249.034	-132.418	-0.110	-0.014
-248.019	-200.000	0.050	0.342
-247.005	-200.000	0.016	-0.097
-245.990	360.194	-0.078	-0.157
-244.976	-94.020	-0.233	-0.064
-243.961	-29.303	0.067	-0.039
-242.946	-36.601	-0.146	0.079
-241.932	44.014	-0.071	0.066
-240.917	-200.000	0.111	-0.000
-239.903	-81.216	-0.114	-0.038
-238.888	-28.371	0.173	0.100
-237.873	-200.000	-0.022	0.165
-236.859	165.995	-0.112	-0.159
-235.844	614.398	0.053	-0.132
-234.830	412.601	0.162	-0.346
-233.815	80.164	-0.274	-0.296
-232.800	-29.214	0.180	0.103
-231.786	23.715	-0.109	-0.090
-230.771	-108.938	0.345	-0.074
-229.757	324.379	0.036	0.069
-228.742	-46.834	-0.197	0.096
-227.727	800.000	0.072	0.208
-226.713	-147.596	-0.157	0.013
-225.698	3.033	-0.179	0.131
-224.684	26.792	-0.119	0.100
-223.669	-104.311	0.145	0.034
-222.655	52.292	0.194	0.186
-221.640	311.244	0.204	-0.384
-220.625	416.940	0.036	-0.077
-219.611	-67.601	-0.146	0.057
-218.596	-61.475	-0.185	0.078
-217.582	-12.238	0.172	0.113
-216.567	-200.000	-0.031	-0.256
-215.552	328.100	-0.151	-0.291
-214.538	-200.000	0.049	0.300
-213.523	-200.000	-0.016	0.239
-212.509	-47.729	-0.174	-0.084
-211.494	199.520	-0.158	0.242
-210.479	-98.619	-0.121	-0.031
-209.465	-114.280	-0.526	-0.102
-208.450	800.000	0.054	-0.179
-207.436	-161.580	-0.158	0.008
-206.421	-60.234	-0.062	-0.026
-205.406	-2.326	-0.179	-0.126
-204.392	72.427	-0.193	0.201
-203.377	-200.000	-0.015	0.113
-202.363	-200.000	-0.002	-0.019
-201.348	-191.784	-0.094	-0.001
-200.333	-150.127	0.040	0.003
-199.319	-200.000	0.075	0.378
-198.304	99.264	-0.138	-0.160
-197.290	25.806	0.158	-0.132
-196.275	800.000	0.077	0.305
-195.260	196.290	-0.109	0.166
-194.246	212.114	-0.288	0.454
-193.231	11.945	0.150	0.116
-192.217	-58.297	0.007	-0.003
-191.202	800.000	0.078	-0.322
-190.187	322.985	-0.085	-0.162
-189.173	-200.000	-0.020	0.124
-188.158	-200.000	-0.036	-0.222
-187.144	800.000	0.040	-0.133
-186.129	-200.000	-0.023	0.456
-185.114	-200.000	0.023	-0.175
-184.100	114.154	0.270	-0.329
-183.085	68.957	-0.245	-0.252
-182.071	-47.973	0.225	-0.109
-181.056	-200.000	0.016	0.106
-180.042	-43.621	-0.090	0.045
-179.027	-46.371	0.325	-0.160
-178.012	-200.000	0.037	-0.363
-176.998	-200.000	0.025	-0.234
-175.983	-106.155	-0.502	0.113
-174.969	-200.000	-0.005	-0.255
-173.954	-81.396	-0.013	0.004
-172.939	800.000	0.106	0.324
-171.925	-200.000	0.060	0.280
-170.910	9.685	-0.144	0.109
-169.896	-74.902	-0.356	0.128
-168.881	-142.380	-0.307	-0.030
-167.866	800.000	-0.081	-0.297
-166.852	412.578	-0.177	0.376
-165.837	-200.000	0.036	-0.290
-164.823	800.000	0.103	-0.307
-163.808	83.884	-0.286	-0.313
-162.793	245.779	-0.205	-0.346
-161.779	-146.702	0.438	-0.038
-160.764	-200.000	0.015	0.174
-159.750	304.394	0.027	-0.050
-158.735	39.671	0.194	-0.174
-157.720	36.507	0.245	-0.216
-156.706	398.335	0.156	0.326
-155.691	232.314	0.095	-0.156
-154.677	-200.000	-0.007	0.321
-153.662	28.229	0.219	0.185
-152.647	-200.000	0.019	-0.156
-151.633	-141.077	0.483	-0.049
-150.618	-41.167	0.134	-0.069
-149.604	-86.483	-0.173	-0.053
-148.589	33.566	-0.227	0.197
-147.574	-60.344	-0.416	-0.177
-146.560	-95.033	-0.217	0.059
-145.545	527.918	0.093	0.218
-144.531	800.000	-0.122	-0.338
-143.516	-200.000	-0.002	0.098
-142.502	222.817	-0.171	0.275
-141.487	128.509	0.085	-0.108
-140.472	-7.291	0.130	0.088
-139.458	-200.000	0.060	0.433
-138.443	-95.063	-0.085	0.023
-137.429	-200.000	0.018	0.366
-136.414	145.261	0.038	-0.051
-135.399	-15.099	-0.244	0.156
-134.385	144.919	-0.156	-0.209
-133.370	-97.264	-0.228	0.059
-132.356	327.647	-0.015	-0.029
-131.341	-86.431	-0.163	0.050
-130.326	50.309	-0.073	0.069
-129.312	-101.694	0.241	-0.058
-128.297	800.000	0.068	-0.262
-127.283	-161.516	-0.124	-0.006
-126.268	-66.554	0.137	-0.054
-125.253	-183.873	0.257	0.004
-124.239	-101.136	-0.144	-0.035
-123.224	-150.355	-0.204	-0.016
-122.210	-200.000	-0.016	0.227
-121.195	-194.248	-0.198	-0.002
