DTS Sentinel unit serial number:	SN413079Multiplexer serial number:	ORYXHardware model number:	OX4-SRSoftware version number:	ORYX F/W v4.00 Oryx Data Collector v3.7.2.0data status	okinstallation	princeton_trtdifferential loss correction	single-endedforward channel	channel 1reverse channel	N/Adate	2019/09/11time	22:56:11forward acquisition time	60.00reverse acquisition time	0.00gamma	496.2192k internal	0.2316k external	0.2316temperature offset calibration	1.0067default loss term (dB/km)	0.3790temperature slope calibration	1.0000multiplexer offset coefficient	1.0000multiplexer slope coefficient	1.0000fibre end	0.00T internal ref (°C)	34.67T ext. ref 1 (°C)	1.83T ext. ref 2 (°C)	29.38length (m)	temperature (°C)	Stokes	anti-Stokes-747.200	-130.924	0.106	-0.014
-746.185	-54.190	-0.236	-0.109
-745.171	-118.991	0.319	-0.057
-744.156	779.481	-0.080	0.220
-743.142	92.791	-0.205	0.234
-742.127	140.786	0.140	0.187
-741.112	-113.330	0.237	-0.047
-740.098	448.541	-0.144	0.322
-739.083	28.836	-0.240	0.206
-738.069	82.029	0.259	0.284
-737.054	-200.000	0.003	-0.016
-736.039	800.000	-0.032	-0.133
-735.025	91.007	0.212	0.240
-734.010	158.163	0.177	-0.249
-732.996	-200.000	-0.000	0.126
-731.981	-200.000	0.006	-0.158
-730.966	413.405	-0.068	0.146
-729.952	418.593	0.143	-0.310
-728.937	101.622	-0.079	-0.093
-727.923	139.779	0.203	-0.271
-726.908	140.813	-0.100	0.133
-725.894	410.705	-0.075	0.162
-724.879	-43.922	-0.142	0.072
-723.864	-45.441	-0.252	-0.126
-722.850	-135.625	0.285	0.034
-721.835	-200.000	-0.014	0.083
-720.821	103.566	-0.220	-0.261
-719.806	-74.354	-0.160	0.059
-718.791	194.540	0.076	0.117
-717.777	-49.332	0.182	-0.088
-716.762	92.908	-0.293	-0.335
-715.748	-57.664	-0.203	0.090
-714.733	585.536	0.188	0.469
-713.718	-57.568	0.127	0.056
-712.704	53.594	-0.179	-0.173
-711.689	108.440	-0.050	-0.060
-710.675	141.186	-0.150	0.201
-709.660	79.179	-0.114	-0.124
-708.645	55.923	-0.244	-0.240
-707.631	-60.258	-0.197	0.085
-706.616	-58.195	0.085	0.037
-705.602	-200.000	0.025	0.137
-704.587	-200.000	-0.015	-0.096
-703.572	649.960	-0.014	0.037
-702.558	-108.832	0.258	-0.056
-701.543	-200.000	-0.012	-0.317
-700.529	-200.000	-0.027	-0.263
-699.514	-135.522	-0.245	0.030
-698.499	15.374	0.068	0.054
-697.485	-200.000	0.021	0.150
-696.470	452.755	-0.104	-0.232
-695.456	-200.000	0.060	0.303
-694.441	-42.512	-0.232	-0.119
-693.426	-128.090	-0.194	-0.028
-692.412	-82.308	-0.392	-0.129
-691.397	-103.006	-0.092	0.022
-690.383	-6.314	-0.058	-0.040
-689.368	-39.526	-0.292	-0.155
-688.354	-11.964	0.217	-0.144
-687.339	154.583	0.158	0.220
-686.324	-102.350	-0.338	0.082
-685.310	66.352	0.128	-0.132
-684.295	-60.261	-0.096	-0.041
-683.281	-98.518	0.128	-0.033
-682.266	74.885	-0.095	0.101
-681.251	-4.466	-0.025	0.017
-680.237	90.239	-0.087	0.098
-679.222	448.700	-0.268	0.597
-678.208	9.062	0.390	0.298
-677.193	-121.135	0.312	0.053
-676.178	800.000	0.168	0.504
-675.164	-64.875	-0.238	0.097
-674.149	-200.000	-0.048	0.374
-673.135	-108.613	-0.083	-0.018
-672.120	-140.470	-0.213	-0.022
-671.105	28.664	0.194	-0.166
-670.091	8.207	0.120	-0.091
-669.076	800.000	-0.042	0.118
-668.062	-200.000	0.036	0.381
-667.047	205.447	-0.194	0.304
-666.032	-50.204	0.254	-0.121
-665.018	14.097	-0.160	-0.126
-664.003	-40.861	-0.278	0.145
-662.989	472.663	-0.020	-0.045
-661.974	-200.000	-0.054	0.316
-660.959	-200.000	-0.012	0.231
-659.945	800.000	0.029	-0.106
-658.930	260.620	0.060	-0.105
-657.916	-200.000	0.005	0.098
-656.901	-77.432	0.291	-0.102
-655.886	121.377	-0.077	0.096
-654.872	800.000	0.066	-0.190
-653.857	-185.697	0.435	0.007
-652.843	12.167	0.179	-0.139
-651.828	175.860	-0.076	-0.111
-650.814	56.653	0.100	-0.098
-649.799	436.474	-0.129	0.284
-648.784	209.879	0.166	-0.262
-647.770	273.242	0.064	0.114
-646.755	92.952	0.128	0.146
-645.741	800.000	0.048	-0.166
-644.726	-104.626	0.184	0.043
-643.711	199.674	-0.118	-0.182
-642.697	-15.898	-0.111	-0.072
-641.682	-200.000	-0.033	-0.399
-640.668	-158.130	-0.267	-0.016
-639.653	800.000	0.042	-0.132
-638.638	-200.000	0.005	-0.081
-637.624	129.338	-0.058	0.074
-636.609	655.463	0.125	-0.324
-635.595	-200.000	-0.041	-0.292
-634.580	-65.655	-0.210	-0.085
-633.565	-200.000	0.003	-0.070
-632.551	800.000	-0.066	-0.196
-631.536	-11.647	-0.153	0.101
-630.522	-200.000	0.024	-0.148
-629.507	800.000	-0.056	-0.224
-628.492	71.138	-0.152	-0.159
-627.478	800.000	0.017	-0.051
-626.463	561.948	0.075	0.184
-625.449	800.000	-0.041	0.123
-624.434	-9.629	0.226	0.152
-623.419	-56.431	-0.180	-0.081
-622.405	-200.000	-0.037	-0.194
-621.390	-128.243	0.203	-0.029
-620.376	-200.000	-0.012	0.144
-619.361	-184.932	-0.182	-0.003
-618.346	-4.244	0.160	-0.112
-617.332	-39.297	0.197	0.104
-616.317	-80.541	-0.134	0.045
-615.303	-84.382	-0.351	-0.112
-614.288	124.805	-0.245	0.311
-613.273	-200.000	-0.012	0.428
-612.259	-34.957	-0.162	0.089
-611.244	-14.788	-0.077	-0.050
-610.230	-104.587	0.440	0.102
-609.215	-72.944	0.203	-0.075
-608.201	180.430	0.144	-0.213
-607.186	345.666	0.086	0.171
-606.171	-200.000	-0.017	-0.247
-605.157	-200.000	0.096	-0.450
-604.142	-83.966	-0.276	0.088
-603.128	431.196	0.079	-0.171
-602.113	800.000	-0.111	-0.324
-601.098	95.624	-0.007	0.008
-600.084	35.866	0.165	-0.146
-599.069	191.969	-0.136	0.207
-598.055	-109.508	-0.209	0.045
-597.040	128.514	0.072	0.092
-596.025	-200.000	-0.101	-0.474
-595.011	-116.624	0.493	-0.091
-593.996	-200.000	-0.016	-0.177
-592.982	-58.265	0.165	-0.072
-591.967	-86.896	-0.166	0.051
-590.952	103.762	0.047	-0.055
-589.938	19.482	0.182	-0.147
-588.923	36.132	0.387	0.343
-587.909	-200.000	-0.051	-0.366
-586.894	78.365	-0.146	-0.157
-585.879	-29.189	0.288	-0.166
-584.865	-200.000	0.072	0.346
-583.850	-109.478	0.253	0.054
-582.836	-129.893	0.379	-0.052
-581.821	-141.513	0.162	-0.017
-580.806	-154.763	-0.433	-0.029
-579.792	-41.814	0.042	-0.022
-578.777	-200.000	0.041	0.359
-577.763	800.000	-0.040	-0.131
-576.748	-200.000	-0.026	0.251
-575.733	243.632	0.003	-0.005
-574.719	-200.000	0.031	-0.204
-573.704	-200.000	0.037	-0.348
-572.690	102.889	-0.202	0.237
-571.675	-100.238	-0.085	-0.021
-570.661	-200.000	0.004	0.073
-569.646	-200.000	-0.037	-0.184
-568.631	-102.374	-0.070	0.017
-567.617	-200.000	-0.002	0.242
-566.602	240.197	0.065	0.109
-565.588	16.574	0.063	0.050
-564.573	-200.000	-0.011	-0.153
-563.558	139.447	-0.043	-0.057
-562.544	446.432	-0.048	-0.106
-561.529	-152.429	0.206	-0.015
-560.515	-200.000	0.029	-0.160
-559.500	-97.149	-0.166	-0.044
-558.485	-86.012	-0.165	0.051
-557.471	-91.401	-0.143	0.041
-556.456	-200.000	-0.011	-0.243
-555.442	238.493	-0.141	0.235
-554.427	-34.346	0.238	0.131
-553.412	-7.535	0.037	0.025
-552.398	-200.000	-0.083	-0.428
-551.383	128.767	-0.125	-0.160
-550.369	-200.000	0.069	-0.769
-549.354	57.734	-0.078	0.076
-548.339	73.303	-0.019	0.020
-547.325	-118.080	-0.097	-0.017
-546.310	-200.000	0.027	-0.294
-545.296	-39.796	-0.126	-0.066
-544.281	-157.681	0.172	0.010
-543.266	38.202	-0.175	-0.157
-542.252	-1.264	-0.152	0.108
-541.237	40.242	-0.277	-0.250
-540.223	-14.006	-0.296	0.192
-539.208	-147.162	0.065	0.006
-538.193	-56.591	0.274	-0.122
-537.179	800.000	0.071	0.231
-536.164	-200.000	-0.042	0.226
-535.150	348.171	0.118	0.235
-534.135	800.000	-0.042	0.161
-533.121	800.000	-0.037	-0.139
-532.106	-200.000	-0.001	-0.055
-531.091	41.293	0.109	0.099
-530.077	-200.000	0.075	0.412
-529.062	262.888	0.090	0.157
-528.048	-82.260	0.068	0.022
-527.033	-200.000	0.008	0.183
-526.018	-67.179	0.058	-0.023
-525.004	-40.060	0.444	-0.232
-523.989	220.267	-0.073	0.117
-522.975	-200.000	-0.041	0.214
-521.960	-200.000	0.029	-0.223
-520.945	1.337	0.243	0.175
-519.931	147.711	0.108	0.146
-518.916	715.197	-0.052	-0.139
-517.902	-200.000	0.000	0.169
-516.887	-17.661	-0.334	-0.211
-515.872	-173.590	0.022	0.001
-514.858	57.018	-0.158	0.154
-513.843	88.881	-0.199	-0.222
-512.829	-79.413	0.194	0.066
-511.814	-40.719	-0.305	-0.158
-510.799	-200.000	0.019	-0.133
-509.785	96.189	0.152	0.175
-508.770	18.738	-0.011	0.008
-507.756	-18.180	0.108	-0.068
-506.741	-110.755	0.189	0.039
-505.726	2.411	-0.133	-0.097
-504.712	129.711	0.103	0.132
-503.697	-41.880	-0.089	0.046
-502.683	-83.440	-0.342	0.110
-501.668	-200.000	0.033	0.373
-500.653	-162.105	-0.339	-0.017
-499.639	32.250	-0.168	0.146
-498.624	769.086	-0.021	0.056
-497.610	-200.000	-0.010	-0.076
-496.595	-87.593	0.444	-0.135
-495.581	27.960	-0.214	-0.181
-494.566	-168.562	-0.105	-0.004
-493.551	39.468	-0.154	-0.138
-492.537	800.000	-0.061	0.260
-491.522	-71.928	-0.223	-0.083
-490.508	800.000	-0.077	0.259
-489.493	-98.842	0.313	-0.080
-488.478	-200.000	0.013	0.274
-487.464	439.522	-0.056	-0.123
-486.449	-47.331	0.198	-0.097
-485.435	114.606	0.190	0.233
-484.420	-60.811	0.265	-0.113
-483.405	800.000	-0.042	-0.117
-482.391	74.945	-0.107	-0.113
-481.376	-114.867	0.056	0.011
-480.362	-5.526	0.418	-0.288
-479.347	395.531	-0.164	0.344
-478.332	800.000	-0.067	0.268
-477.318	64.371	0.145	0.146
-476.303	370.453	0.068	0.138
-475.289	-4.400	0.388	0.269
-474.274	-34.111	-0.091	-0.050
-473.259	66.167	0.287	0.291
-472.245	177.327	0.181	0.263
-471.230	237.910	-0.070	-0.116
-470.216	-200.000	-0.051	-0.364
-469.201	800.000	0.066	0.281
-468.186	-200.000	-0.001	0.078
-467.172	800.000	-0.088	-0.282
-466.157	322.924	0.037	-0.070
-465.143	-84.088	-0.377	-0.120
-464.128	-141.118	-0.263	-0.027
-463.113	-145.553	0.645	-0.058
-462.099	59.498	-0.078	-0.077
-461.084	800.000	-0.058	-0.165
-460.070	-200.000	-0.089	-0.394
-459.055	-108.531	-0.258	0.056
-458.040	728.832	0.055	-0.148
-457.026	-162.055	0.110	-0.006
-456.011	-11.033	-0.305	0.201
-454.997	-154.376	0.299	0.020
-453.982	-40.747	0.175	-0.091
-452.968	-9.218	0.202	-0.135
-451.953	-200.000	0.024	0.175
-450.938	-200.000	-0.030	-0.175
-449.924	615.005	0.102	0.256
-448.909	-109.234	0.219	-0.047
-447.895	57.855	-0.077	-0.075
-446.880	318.054	-0.068	0.129
-445.865	-33.836	-0.104	0.057
-444.851	-200.000	-0.014	-0.159
-443.836	800.000	0.027	-0.094
-442.822	390.800	-0.040	0.083
-441.807	35.549	0.145	0.127
-440.792	13.125	0.093	-0.072
-439.778	199.882	-0.153	-0.235
-438.763	48.269	0.331	0.310
-437.749	-105.851	-0.068	0.015
-436.734	424.728	-0.135	0.291
-435.719	-56.649	0.080	0.036
-434.705	800.000	0.049	-0.190
-433.690	-151.086	-0.192	-0.014
-432.676	-35.279	-0.126	-0.069
-431.661	478.640	0.129	0.292
-430.646	602.940	0.037	0.091
-429.632	121.689	-0.312	-0.390
-428.617	-30.855	0.068	0.038
-427.603	-80.384	-0.051	0.017
-426.588	800.000	0.074	0.285
-425.573	-162.006	-0.198	-0.010
-424.559	-121.885	0.380	0.063
-423.544	33.937	0.063	0.054
-422.530	20.293	-0.238	0.192
-421.515	194.335	-0.187	-0.283
-420.500	-200.000	0.004	-0.073
-419.486	70.445	0.197	-0.204
-418.471	-57.861	0.230	-0.101
-417.457	-200.000	-0.037	0.365
-416.442	-83.639	-0.304	-0.097
-415.428	-105.375	0.074	0.017
-414.413	-119.945	-0.083	0.014
-413.398	488.789	0.118	-0.271
-412.384	99.786	0.107	0.124
-411.369	10.154	-0.473	-0.360
-410.355	96.438	-0.105	-0.120
-409.340	639.079	-0.055	-0.141
-408.325	800.000	-0.092	-0.268
-407.311	-168.242	0.035	-0.001
-406.296	-83.270	0.135	0.043
-405.282	-69.682	-0.351	0.134
-404.267	-107.521	0.238	0.052
-403.252	334.943	-0.111	0.215
-402.238	800.000	0.053	0.214
-401.223	667.908	-0.070	0.182
-400.209	-87.816	0.362	0.109
-399.194	-97.132	-0.172	-0.045
-398.179	4.562	0.074	-0.055
-397.165	163.461	0.038	0.054
-396.150	672.224	-0.100	0.259
-395.136	-74.311	0.049	0.018
-394.121	39.657	-0.030	0.027
-393.106	-122.405	0.205	0.033
-392.092	74.239	0.046	-0.049
-391.077	67.231	-0.056	0.057
-390.063	34.213	-0.204	-0.178
-389.048	531.136	0.165	-0.391
-388.033	-104.749	0.335	-0.077
-387.019	587.689	0.063	-0.155
-386.004	193.453	0.079	-0.119
-384.990	-88.911	-0.179	0.053
-383.975	800.000	-0.028	-0.085
-382.960	-81.951	-0.038	0.012
-381.946	800.000	-0.099	0.366
-380.931	-13.035	0.211	0.137
-379.917	-19.425	-0.275	0.170
-378.902	-142.607	0.019	0.002
-377.888	800.000	-0.028	0.094
-376.873	75.325	-0.348	-0.366
-375.858	240.335	0.087	-0.146
-374.844	-200.000	-0.013	-0.162
-373.829	800.000	-0.095	0.346
-372.815	84.128	0.111	0.121
-371.800	17.020	-0.254	0.201
-370.785	63.505	0.089	-0.089
-369.771	182.815	-0.293	0.432
-368.756	149.887	0.146	0.198
-367.742	-46.135	0.226	-0.111
-366.727	-200.000	0.085	-0.409
-365.712	-200.000	0.006	-0.074
-364.698	-200.000	-0.005	-0.160
-363.683	150.973	0.198	0.269
-362.669	164.712	-0.241	0.339
-361.654	-0.194	-0.017	0.012
-360.639	111.718	-0.276	0.332
-359.625	-81.233	-0.041	-0.014
-358.610	-74.073	0.182	-0.066
-357.596	100.614	-0.149	-0.173
-356.581	186.169	0.226	-0.336
-355.566	-34.143	0.305	0.167
-354.552	-200.000	-0.001	-0.347
-353.537	52.329	-0.105	-0.100
-352.523	-151.466	0.346	0.026
-351.508	572.954	0.092	0.225
-350.493	800.000	-0.031	0.126
-349.479	6.849	-0.189	0.140
-348.464	59.963	-0.079	0.078
-347.450	215.722	0.098	0.156
-346.435	-117.309	-0.378	-0.068
-345.420	-200.000	0.069	-0.311
-344.406	-63.223	0.124	0.051
-343.391	315.584	0.104	-0.196
-342.377	115.429	-0.196	-0.239
-341.362	-31.967	0.143	-0.080
-340.348	-2.061	-0.206	0.144
-339.333	-48.564	0.195	-0.094
-338.318	-113.246	-0.329	-0.064
-337.304	1.577	0.271	-0.194
-336.289	246.844	-0.149	-0.251
-335.275	-200.000	-0.044	-0.333
-334.260	37.964	0.360	0.319
-333.245	249.661	0.139	0.236
-332.231	-200.000	-0.095	0.561
-331.216	72.546	-0.040	0.042
-330.202	-58.757	0.362	0.156
-329.187	800.000	0.005	-0.017
-328.172	-71.050	0.236	0.088
-327.158	104.513	-0.227	-0.266
-326.143	-28.279	0.191	0.110
-325.129	468.352	-0.166	-0.370
-324.114	-65.452	-0.388	-0.155
-323.099	-142.004	-0.137	0.014
-322.085	746.549	-0.104	-0.279
-321.070	26.017	0.084	-0.070
-320.056	493.355	-0.055	0.127
-319.041	35.602	-0.349	0.305
-318.026	75.675	-0.080	0.084
-317.012	-200.000	-0.013	-0.159
-315.997	486.165	-0.124	0.282
-314.983	242.345	0.120	0.199
-313.968	269.964	-0.132	0.231
-312.953	266.412	0.145	-0.253
-311.939	194.284	0.109	-0.164
-310.924	-46.623	-0.290	-0.142
-309.910	-200.000	0.022	-0.163
-308.895	-109.700	0.088	-0.018
-307.880	-3.342	-0.113	0.078
-306.866	-113.270	0.061	-0.012
-305.851	255.412	0.127	-0.217
-304.837	732.416	-0.161	-0.429
-303.822	-166.804	0.268	-0.011
-302.807	-200.000	-0.001	-0.240
-301.793	-135.529	-0.089	0.011
-300.778	-100.664	0.052	0.013
-299.764	-118.693	-0.224	0.039
-298.749	800.000	0.032	0.110
-297.735	-156.200	-0.101	0.006
-296.720	307.707	0.095	0.176
-295.705	-34.127	-0.161	-0.088
-294.691	154.962	0.221	0.303
-293.676	-20.537	-0.105	-0.064
-292.662	-112.107	0.087	-0.017
-291.647	685.928	0.139	0.362
-290.632	-200.000	-0.005	-0.322
-289.618	-200.000	-0.011	0.247
-288.603	-121.816	-0.219	0.036
-287.589	-172.455	-0.114	-0.004
-286.574	-61.265	-0.205	0.086
-285.559	134.485	-0.076	-0.099
-284.545	23.416	0.168	0.137
-283.530	800.000	0.079	-0.243
-282.516	338.349	-0.035	-0.068
-281.501	-186.303	0.146	-0.002
-280.486	393.428	-0.108	0.223
-279.472	-67.290	0.369	0.144
-278.457	20.649	-0.380	0.306
-277.443	-80.457	-0.196	-0.065
-276.428	9.616	0.262	-0.197
-275.413	10.126	-0.204	0.154
-274.399	474.484	-0.076	0.169
-273.384	-156.281	-0.181	-0.011
-272.370	800.000	0.052	0.172
-271.355	-192.185	0.326	0.003
-270.340	-129.841	0.335	-0.046
-269.326	64.273	0.094	0.094
-268.311	-113.492	-0.340	-0.066
-267.297	-4.109	0.070	-0.048
-266.282	145.502	-0.137	-0.183
-265.267	-138.946	0.337	-0.036
-264.253	234.643	0.076	-0.125
-263.238	-111.238	-0.286	-0.058
-262.224	-98.046	-0.460	-0.118
-261.209	-124.352	0.084	0.013
-260.195	-200.000	-0.024	0.132
-259.180	15.771	0.216	0.169
-258.165	-34.143	-0.157	-0.086
-257.151	421.791	-0.169	0.361
-256.136	151.269	-0.045	-0.061
-255.122	-20.376	0.126	-0.077
-254.107	-136.911	-0.230	0.026
-253.092	142.884	0.112	-0.147
-252.078	27.379	0.235	0.196
-251.063	-114.842	-0.275	-0.052
-250.049	-23.849	-0.169	0.100
-249.034	-27.528	-0.304	-0.176
-248.019	546.527	0.210	-0.499
-247.005	-200.000	0.030	0.332
-245.990	103.551	0.190	-0.222
-244.976	800.000	0.013	-0.034
-243.961	332.059	-0.068	-0.130
-242.946	-63.998	-0.214	-0.087
-241.932	178.998	0.167	0.242
-240.917	-129.019	0.051	-0.007
-239.903	97.707	-0.109	-0.124
-238.888	16.869	0.017	-0.014
-237.873	266.346	-0.112	0.194
-236.859	800.000	0.067	0.256
-235.844	-200.000	-0.008	0.128
-234.830	19.152	0.148	-0.118
-233.815	-31.553	-0.203	-0.113
-232.800	540.891	0.095	-0.225
-231.786	55.643	0.099	0.096
-230.771	302.783	-0.075	0.137
-229.757	18.111	-0.105	-0.083
-228.742	-5.637	0.463	0.315
-227.727	83.063	0.041	0.045
-226.713	-200.000	-0.040	0.216
-225.698	57.906	-0.193	-0.188
-224.684	800.000	0.020	0.068
-223.669	800.000	0.044	0.131
-222.655	236.261	-0.168	0.275
-221.640	-171.902	-0.310	0.010
-220.625	7.100	0.258	-0.191
-219.611	37.083	0.128	-0.112
-218.596	-200.000	0.013	-0.248
-217.582	800.000	-0.078	0.281
-216.567	-120.505	0.181	0.030
-215.552	-33.005	-0.071	0.039
-214.538	-95.750	0.281	0.074
-213.523	213.064	0.132	-0.207
-212.509	800.000	0.097	-0.417
-211.494	-129.695	-0.070	-0.010
-210.479	-40.657	0.274	0.141
-209.465	-35.129	-0.225	0.121
-208.450	-105.110	-0.040	-0.009
-207.436	-200.000	0.003	-0.037
-206.421	800.000	0.080	0.248
-205.406	15.343	-0.329	0.256
-204.392	-200.000	0.080	-0.371
-203.377	173.087	0.204	-0.292
-202.363	-41.179	0.342	0.175
-201.348	-11.985	-0.232	-0.150
-200.333	-200.000	-0.047	0.499
-199.319	103.252	-0.172	0.199
-198.304	-200.000	0.057	0.369
-197.290	-82.965	-0.135	0.043
-196.275	43.625	-0.062	0.056
-195.260	-185.799	0.265	0.004
-194.246	-90.754	-0.064	-0.018
-193.231	24.538	0.106	-0.087
-192.217	198.936	-0.216	0.328
-191.202	-105.661	0.398	0.089
-190.187	56.501	-0.262	0.253
-189.173	55.062	-0.200	0.191
-188.158	58.279	-0.015	0.015
-187.144	-93.504	-0.173	0.048
-186.129	201.383	0.053	-0.081
-185.114	6.734	0.254	-0.187
-184.100	88.340	0.042	0.047
-183.085	-144.597	-0.166	-0.015
-182.071	-95.372	-0.259	-0.069
-181.056	-119.573	0.004	0.001
-180.042	-34.976	0.221	0.119
-179.027	800.000	-0.136	-0.405
-178.012	412.319	0.025	-0.053
-176.998	-200.000	0.007	0.216
-175.983	-99.454	0.499	0.124
-174.969	-200.000	0.046	0.318
-173.954	473.269	0.177	0.396
-172.939	315.541	0.079	0.147
-171.925	-126.412	-0.544	0.080
-170.910	209.739	0.169	-0.263
-169.896	-67.368	0.270	0.105
-168.881	-50.342	0.033	0.015
-167.866	115.611	0.174	-0.211
-166.852	48.940	-0.140	0.130
-165.837	24.085	-0.062	-0.051
-164.823	-118.817	-0.225	-0.039
-163.808	800.000	0.042	0.181
-162.793	-80.794	-0.210	-0.069
-161.779	432.467	-0.117	-0.251
-160.764	444.189	0.154	-0.334
-159.750	800.000	-0.034	0.144
-158.735	81.143	0.190	-0.203
-157.720	611.692	0.020	0.049
-156.706	-85.791	-0.118	-0.036
-155.691	800.000	-0.114	-0.332
-154.677	800.000	-0.048	0.143
-153.662	-78.008	0.098	0.034
-152.647	149.315	0.155	0.208
-151.633	800.000	-0.072	0.258
-150.618	-90.533	0.407	0.116
-149.604	-200.000	0.016	-0.117
-148.589	-80.481	-0.285	-0.094
-147.574	-99.490	-0.117	0.029
-146.560	-130.421	-0.056	0.007
-145.545	459.758	0.120	0.264
-144.531	610.306	0.066	0.163
-143.516	292.929	0.056	-0.102
-142.502	12.261	0.139	0.106
-141.487	-200.000	-0.028	-0.388
-140.472	38.183	0.420	0.370
-139.458	-200.000	0.027	-0.127
-138.443	-200.000	0.024	0.126
-137.429	53.411	-0.025	-0.023
-136.414	58.590	0.162	0.157
-135.399	73.342	0.199	0.206
-134.385	-101.307	-0.455	-0.110
-133.370	248.329	-0.161	-0.269
-132.356	-54.608	0.254	0.114
-131.341	9.859	-0.158	-0.119
-130.326	33.686	-0.087	-0.075
-129.312	685.473	0.099	0.255
-128.297	283.326	-0.144	0.255
-127.283	146.138	-0.168	-0.223
-126.268	-200.000	-0.012	0.235
-125.253	-200.000	-0.013	0.238
-124.239	26.789	0.243	-0.202
-123.224	92.585	-0.044	-0.049
-122.210	800.000	-0.039	-0.166
-121.195	-20.553	-0.068	-0.041
