DTS Sentinel unit serial number:	SN413079Multiplexer serial number:	ORYXHardware model number:	OX4-SRSoftware version number:	ORYX F/W v4.00 Oryx Data Collector v3.7.2.0data status	okinstallation	princeton_trtdifferential loss correction	single-endedforward channel	channel 1reverse channel	N/Adate	2019/09/16time	03:14:35forward acquisition time	60.00reverse acquisition time	0.00gamma	496.2192k internal	0.2330k external	0.2330temperature offset calibration	0.9978default loss term (dB/km)	0.3790temperature slope calibration	1.0000multiplexer offset coefficient	1.0000multiplexer slope coefficient	1.0000fibre end	0.00T internal ref (°C)	27.75T ext. ref 1 (°C)	10.49T ext. ref 2 (°C)	21.99length (m)	temperature (°C)	Stokes	anti-Stokes-747.200	320.640	-0.066	-0.126
-746.185	-200.000	-0.021	0.208
-745.171	-59.015	0.347	0.151
-744.156	800.000	-0.106	0.325
-743.142	204.357	-0.258	0.402
-742.127	15.219	0.189	0.150
-741.112	-18.471	0.089	0.056
-740.098	613.496	0.164	0.414
-739.083	-200.000	-0.044	-0.279
-738.069	200.972	0.244	0.377
-737.054	-200.000	0.049	-0.392
-736.039	-94.456	-0.365	-0.100
-735.025	-99.363	0.331	0.084
-734.010	-200.000	0.006	-0.067
-732.996	69.362	0.042	-0.043
-731.981	-200.000	0.066	-0.429
-730.966	-21.426	-0.221	-0.136
-729.952	612.093	-0.052	0.130
-728.937	-118.222	-0.086	0.015
-727.923	-69.890	-0.454	-0.174
-726.908	-200.000	0.014	-0.399
-725.894	-14.776	-0.180	0.117
-724.879	357.536	0.057	0.114
-723.864	349.021	0.158	-0.314
-722.850	-40.436	-0.126	-0.066
-721.835	-15.221	-0.091	-0.059
-720.821	-122.301	-0.411	0.067
-719.806	181.839	0.168	-0.248
-718.791	-200.000	0.018	0.218
-717.777	-110.568	-0.292	-0.061
-716.762	-15.416	-0.293	-0.188
-715.748	294.020	0.183	-0.336
-714.733	75.322	0.096	0.102
-713.718	-17.991	0.231	-0.146
-712.704	5.452	-0.246	-0.182
-711.689	262.919	0.129	-0.225
-710.675	-174.438	-0.217	0.006
-709.660	-60.910	-0.058	-0.025
-708.645	-34.489	0.318	0.175
-707.631	-130.418	0.103	-0.014
-706.616	283.714	-0.072	-0.130
-705.602	-82.616	0.065	0.021
-704.587	-200.000	0.023	0.103
-703.572	-76.912	0.124	0.043
-702.558	55.382	0.152	-0.147
-701.543	-35.209	0.163	-0.089
-700.529	-155.429	-0.459	0.030
-699.514	33.194	-0.166	-0.144
-698.499	-200.000	-0.000	0.121
-697.485	155.590	0.133	0.185
-696.470	800.000	0.077	-0.242
-695.456	-200.000	0.017	-0.163
-694.441	-2.746	0.127	-0.090
-693.426	-122.383	-0.152	0.025
-692.412	-200.000	0.002	-0.055
-691.397	-8.486	-0.159	0.107
-690.383	23.838	-0.165	0.136
-689.368	604.118	-0.217	0.541
-688.354	800.000	0.098	0.389
-687.339	273.947	0.119	-0.211
-686.324	154.523	0.162	0.223
-685.310	-53.525	0.132	-0.060
-684.295	57.268	0.173	-0.170
-683.281	-112.445	-0.274	0.055
-682.266	800.000	-0.018	0.052
-681.251	128.998	-0.209	0.268
-680.237	-65.306	-0.388	-0.157
-679.222	213.145	-0.138	0.219
-678.208	290.597	-0.128	0.234
-677.193	97.154	-0.064	-0.074
-676.178	-68.171	0.303	-0.118
-675.164	98.923	-0.158	-0.184
-674.149	-57.398	0.172	0.076
-673.135	40.157	0.242	-0.219
-672.120	281.518	0.013	0.023
-671.105	-200.000	-0.040	0.317
-670.091	-200.000	-0.010	-0.145
-669.076	101.861	-0.469	0.549
-668.062	-116.275	-0.379	-0.070
-667.047	-122.083	-0.199	-0.033
-666.032	94.478	0.136	-0.156
-665.018	-27.798	0.202	-0.118
-664.003	-145.742	-0.346	0.031
-662.989	-200.000	-0.037	-0.195
-661.974	16.913	0.137	-0.109
-660.959	-200.000	0.076	0.000
-659.945	414.694	0.013	-0.028
-658.930	-127.057	0.042	0.006
-657.916	29.002	0.180	0.153
-656.901	629.971	-0.090	0.228
-655.886	-65.406	-0.257	-0.104
-654.872	15.167	0.075	0.059
-653.857	665.920	-0.103	0.268
-652.843	-38.844	0.311	-0.164
-651.828	-132.087	0.221	-0.029
-650.814	-97.904	-0.050	-0.013
-649.799	-15.097	0.180	0.115
-648.784	102.128	-0.074	0.087
-647.770	-132.469	-0.187	-0.024
-646.755	-46.227	0.121	-0.060
-645.741	-53.388	0.286	0.132
-644.726	37.312	0.058	-0.052
-643.711	-32.942	0.281	0.156
-642.697	-100.713	0.087	-0.022
-641.682	600.880	0.158	0.393
-640.668	-200.000	0.002	-0.321
-639.653	-200.000	-0.060	0.350
-638.638	800.000	0.125	-0.362
-637.624	411.026	0.060	-0.127
-636.609	-18.458	0.345	0.216
-635.595	-200.000	0.023	-0.556
-634.580	800.000	-0.084	0.343
-633.565	-48.600	-0.200	0.096
-632.551	175.255	0.142	-0.207
-631.536	78.076	-0.204	0.218
-630.522	-137.815	0.197	-0.022
-629.507	-42.610	0.257	0.131
-628.492	-200.000	0.008	0.403
-627.478	-107.229	0.105	-0.023
-626.463	-131.493	-0.258	-0.034
-625.449	800.000	-0.053	0.151
-624.434	-112.593	-0.255	-0.051
-623.419	-109.612	0.256	-0.054
-622.405	378.104	0.061	0.126
-621.390	72.736	0.138	0.144
-620.376	336.400	0.034	-0.066
-619.361	221.897	-0.067	-0.107
-618.346	287.614	0.049	0.088
-617.332	370.662	0.051	0.104
-616.317	-35.447	-0.199	0.108
-615.303	-124.920	-0.086	0.013
-614.288	-107.061	0.285	0.063
-613.273	-200.000	0.043	0.252
-612.259	78.267	-0.079	0.084
-611.244	-9.289	0.100	0.067
-610.230	6.668	-0.051	0.038
-609.215	64.317	0.269	0.272
-608.201	498.568	0.103	-0.238
-607.186	160.244	0.218	-0.305
-606.171	800.000	0.114	-0.320
-605.157	125.544	-0.319	-0.404
-604.142	-121.700	-0.194	-0.032
-603.128	800.000	-0.036	0.156
-602.113	800.000	-0.083	0.240
-601.098	-200.000	-0.059	-0.307
-600.084	800.000	-0.127	-0.383
-599.069	98.793	0.050	0.058
-598.055	-200.000	0.002	-0.191
-597.040	134.550	-0.058	-0.075
-596.025	800.000	-0.058	-0.220
-595.011	-200.000	-0.021	-0.188
-593.996	285.213	-0.116	0.209
-592.982	-70.496	0.280	0.106
-591.967	243.527	0.153	-0.257
-590.952	-146.006	0.271	0.024
-589.938	-157.292	0.219	-0.013
-588.923	-200.000	0.066	0.361
-587.909	800.000	-0.087	-0.264
-586.894	-47.019	-0.335	-0.164
-585.879	800.000	-0.038	-0.114
-584.865	-97.924	0.105	0.027
-583.850	-148.430	0.507	0.042
-582.836	13.528	-0.076	0.059
-581.821	-68.082	-0.078	0.031
-580.806	-87.992	-0.189	0.057
-579.792	354.024	0.177	0.352
-578.777	39.990	0.121	0.109
-577.763	-54.473	-0.115	0.052
-576.748	-141.594	-0.112	0.011
-575.733	-200.000	0.012	0.203
-574.719	800.000	-0.083	-0.256
-573.704	-200.000	-0.006	-0.240
-572.690	460.995	0.046	-0.103
-571.675	1.717	0.064	0.046
-570.661	-20.492	-0.145	0.089
-569.646	800.000	-0.100	-0.400
-568.631	-200.000	-0.015	0.271
-567.617	-200.000	0.008	-0.044
-566.602	-111.601	-0.250	-0.051
-565.588	98.327	-0.211	-0.243
-564.573	800.000	0.131	-0.439
-563.558	-106.992	0.128	-0.028
-562.544	-160.395	-0.310	0.017
-561.529	123.279	-0.126	-0.158
-560.515	361.015	0.063	-0.127
-559.500	32.274	0.214	-0.184
-558.485	-200.000	-0.015	0.170
-557.471	-60.858	0.334	0.141
-556.456	368.577	0.015	-0.031
-555.442	-200.000	0.063	-0.364
-554.427	800.000	0.046	0.164
-553.412	-200.000	0.040	-0.195
-552.398	800.000	0.089	-0.267
-551.383	-91.349	0.144	-0.041
-550.369	-108.381	0.201	0.043
-549.354	32.360	-0.047	-0.040
-548.339	257.570	-0.169	-0.290
-547.325	218.041	0.119	-0.190
-546.310	75.124	0.167	0.175
-545.296	35.073	-0.225	0.197
-544.281	22.965	-0.055	-0.045
-543.266	411.605	0.046	0.098
-542.252	800.000	-0.102	0.332
-541.237	53.891	-0.167	-0.160
-540.223	-22.829	-0.190	-0.115
-539.208	42.526	0.372	-0.338
-538.193	800.000	-0.023	0.089
-537.179	479.161	0.130	-0.295
-536.164	-200.000	-0.020	-0.147
-535.150	579.437	-0.111	0.271
-534.135	80.510	-0.054	-0.058
-533.121	213.748	-0.037	-0.059
-532.106	-43.114	-0.202	0.102
-531.091	-11.305	-0.030	0.020
-530.077	129.355	0.065	-0.083
-529.062	42.227	0.142	-0.128
-528.048	705.663	0.049	0.129
-527.033	-95.734	-0.295	0.079
-526.018	612.248	0.094	0.234
-525.004	-89.515	0.252	-0.074
-523.989	-178.046	-0.061	-0.001
-522.975	538.066	0.085	-0.201
-521.960	-129.079	-0.289	-0.040
-520.945	-78.679	0.236	0.080
-519.931	135.995	0.114	0.149
-518.916	36.034	0.117	-0.103
-517.902	-35.997	0.142	-0.077
-516.887	183.686	0.066	0.097
-515.872	54.372	-0.259	0.248
-514.858	-168.717	0.251	0.009
-513.843	694.837	0.091	0.237
-512.829	-79.196	-0.154	-0.052
-511.814	134.766	-0.090	0.116
-510.799	-53.680	0.132	0.060
-509.785	-125.091	0.189	-0.029
-508.770	-100.318	-0.302	-0.075
-507.756	-200.000	-0.016	-0.294
-506.741	117.676	-0.113	-0.139
-505.726	68.347	-0.162	0.166
-504.712	800.000	0.070	-0.280
-503.697	139.006	-0.092	-0.121
-502.683	-200.000	0.012	0.087
-501.668	-38.526	-0.080	0.042
-500.653	-44.309	-0.086	0.043
-499.639	-200.000	-0.026	0.222
-498.624	-77.994	0.211	0.072
-497.610	-200.000	0.016	-0.162
-496.595	-97.120	0.295	0.077
-495.581	-200.000	-0.000	-0.067
-494.566	-58.624	0.195	-0.084
-493.551	-6.454	0.117	-0.080
-492.537	-72.230	0.147	-0.054
-491.522	-200.000	-0.050	0.254
-490.508	800.000	0.099	0.394
-489.493	-68.312	0.329	0.127
-488.478	182.922	0.171	-0.252
-487.464	4.758	-0.071	0.052
-486.449	429.998	-0.072	0.155
-485.435	25.820	-0.102	-0.085
-484.420	-73.601	-0.262	0.095
-483.405	-21.576	0.364	-0.221
-482.391	-20.702	0.136	0.083
-481.376	-15.363	-0.136	0.087
-480.362	800.000	-0.090	0.325
-479.347	-125.336	-0.220	-0.034
-478.332	800.000	0.024	0.074
-477.318	-200.000	0.004	-0.044
-476.303	-200.000	0.021	-0.146
-475.289	-29.867	-0.114	-0.065
-474.274	-20.802	-0.112	0.068
-473.259	467.143	-0.139	-0.309
-472.245	184.791	0.027	0.041
-471.230	512.443	-0.042	0.098
-470.216	-9.600	-0.088	0.058
-469.201	57.498	0.171	-0.166
-468.186	-56.073	-0.267	0.118
-467.172	558.531	-0.072	-0.172
-466.157	-49.916	-0.291	0.137
-465.143	329.607	0.103	-0.198
-464.128	310.844	-0.134	0.250
-463.113	118.747	0.018	0.023
-462.099	-200.000	0.013	-0.327
-461.084	800.000	0.118	-0.324
-460.070	81.577	0.112	0.121
-459.055	35.153	-0.119	0.104
-458.040	-200.000	0.046	0.296
-457.026	-76.497	-0.294	-0.103
-456.011	174.483	-0.085	-0.123
-454.997	-7.100	0.062	0.042
-453.982	-97.871	-0.284	0.073
-452.968	-152.034	0.276	-0.020
-451.953	-8.844	0.154	-0.103
-450.938	-200.000	-0.037	-0.222
-449.924	-16.796	-0.336	-0.212
-448.909	690.102	-0.055	0.142
-447.895	-200.000	0.008	0.276
-446.880	16.513	0.430	0.338
-445.865	800.000	0.064	0.253
-444.851	800.000	-0.097	0.316
-443.836	-169.219	-0.246	-0.009
-442.822	-24.036	0.129	-0.077
-441.807	800.000	-0.013	0.047
-440.792	-106.817	-0.142	0.031
-439.778	-45.144	-0.237	0.117
-438.763	-153.395	-0.195	-0.013
-437.749	-33.354	-0.100	-0.055
-436.734	71.256	-0.145	0.149
-435.719	40.836	0.167	-0.150
-434.705	-200.000	0.000	0.063
-433.690	-86.519	-0.402	0.123
-432.676	-52.262	-0.146	-0.067
-431.661	-90.132	-0.127	0.037
-430.646	5.410	-0.266	-0.195
-429.632	87.769	0.076	0.084
-428.617	-64.210	-0.024	-0.010
-427.603	-31.918	-0.042	-0.023
-426.588	-200.000	0.013	-0.283
-425.573	-81.194	-0.268	0.088
-424.559	-9.426	0.215	0.143
-423.544	24.990	0.222	0.183
-422.530	-200.000	0.035	-0.216
-421.515	-49.318	-0.319	0.151
-420.500	-117.852	0.151	-0.027
-419.486	800.000	-0.076	0.243
-418.471	45.971	0.236	0.217
-417.457	-66.279	-0.195	0.077
-416.442	187.331	0.216	0.320
-415.428	-29.621	-0.297	0.169
-414.413	9.059	0.130	-0.097
-413.398	72.690	0.081	0.084
-412.384	-99.724	0.188	0.047
-411.369	-49.313	0.144	-0.068
-410.355	398.582	-0.142	0.296
-409.340	-101.971	-0.058	-0.014
-408.325	695.652	-0.131	0.343
-407.311	-126.127	0.107	-0.016
-406.296	36.285	-0.255	-0.223
-405.282	-200.000	-0.004	-0.370
-404.267	-200.000	-0.016	-0.452
-403.252	-100.345	0.192	-0.047
-402.238	-132.765	-0.149	-0.019
-401.223	-64.397	0.250	-0.101
-400.209	538.140	0.068	-0.159
-399.194	-111.958	0.310	-0.062
-398.179	146.707	0.157	0.210
-397.165	800.000	-0.033	0.118
-396.150	-78.625	-0.182	0.062
-395.136	-8.923	-0.044	-0.030
-394.121	191.954	-0.083	0.124
-393.106	369.086	-0.088	0.176
-392.092	-34.541	-0.282	-0.153
-391.077	-200.000	-0.015	-0.398
-390.063	30.125	0.087	0.074
-389.048	-132.841	0.155	-0.020
-388.033	-200.000	0.038	-0.387
-387.019	-44.325	0.248	-0.123
-386.004	-200.000	0.011	0.074
-384.990	14.903	0.313	-0.243
-383.975	-83.737	-0.318	0.101
-382.960	1.609	0.146	-0.104
-381.946	800.000	-0.023	-0.086
-380.931	800.000	0.137	0.454
-379.917	800.000	-0.076	-0.245
-378.902	23.712	0.192	-0.157
-377.888	-13.777	-0.084	-0.054
-376.873	2.772	-0.189	-0.136
-375.858	-35.084	0.185	0.100
-374.844	42.282	0.282	-0.255
-373.829	37.218	0.204	-0.179
-372.815	392.886	0.075	-0.156
-371.800	263.324	0.181	-0.311
-370.785	498.801	-0.132	-0.301
-369.771	-75.490	-0.115	-0.041
-368.756	-200.000	-0.031	-0.224
-367.742	179.326	0.118	-0.172
-366.727	187.573	-0.184	-0.273
-365.712	130.809	-0.076	0.096
-364.698	14.139	-0.209	-0.162
-363.683	-196.564	-0.217	-0.001
-362.669	150.694	-0.172	-0.232
-361.654	-184.156	-0.147	0.002
-360.639	-42.811	-0.312	-0.157
-359.625	68.596	0.163	-0.166
-358.610	800.000	-0.110	-0.328
-357.596	-2.629	0.055	0.038
-356.581	-97.421	-0.306	-0.079
-355.566	-200.000	0.022	-0.166
-354.552	800.000	-0.119	-0.329
-353.537	9.186	0.224	-0.168
-352.523	46.011	0.175	0.160
-351.508	49.944	-0.129	-0.121
-350.493	148.735	0.156	0.208
-349.479	-200.000	0.022	0.327
-348.464	272.283	-0.098	-0.171
-347.450	-168.923	0.253	0.009
-346.435	-19.682	-0.195	-0.120
-345.420	-200.000	0.025	-0.147
-344.406	-164.393	-0.131	-0.006
-343.391	-2.624	0.103	0.071
-342.377	-200.000	-0.028	-0.261
-341.362	316.562	0.077	0.144
-340.348	-42.051	-0.172	0.087
-339.333	-108.851	-0.353	0.075
-338.318	-77.076	-0.192	0.066
-337.304	-4.728	-0.274	-0.188
-336.289	-69.255	-0.147	0.056
-335.275	198.507	-0.189	-0.286
-334.260	270.480	-0.131	-0.227
-333.245	90.183	-0.094	0.104
-332.231	470.910	0.083	-0.185
-331.216	-200.000	-0.015	0.372
-330.202	-31.066	0.072	-0.040
-329.187	-134.801	0.396	0.048
-328.172	-200.000	-0.074	-0.354
-327.158	33.309	0.185	0.159
-326.143	394.049	-0.087	-0.179
-325.129	133.519	0.061	-0.079
-324.114	300.812	0.134	0.246
-323.099	-100.817	0.052	0.013
-322.085	-200.000	-0.045	-0.209
-321.070	-200.000	-0.036	0.392
-320.056	-119.072	0.303	0.053
-319.041	-91.256	-0.064	0.018
-318.026	72.031	-0.214	0.220
-317.012	520.435	0.082	0.191
-315.997	4.296	0.219	0.159
-314.983	-13.877	0.084	-0.054
-313.968	-100.516	-0.093	-0.023
-312.953	-148.367	0.066	0.005
-311.939	800.000	0.070	0.193
-310.924	-12.214	0.340	0.220
-309.910	-84.238	-0.383	0.120
-308.895	800.000	0.055	-0.151
-307.880	34.174	-0.113	-0.097
-306.866	-58.038	-0.255	0.110
-305.851	21.130	0.067	-0.054
-304.837	-200.000	0.025	0.132
-303.822	576.385	0.142	-0.342
-302.807	59.056	-0.081	-0.079
-301.793	-38.000	-0.252	0.132
-300.778	135.281	0.175	-0.225
-299.764	-200.000	-0.017	0.415
-298.749	157.904	0.238	0.327
-297.735	-195.665	0.123	0.001
-296.720	-23.564	-0.210	-0.124
-295.705	800.000	-0.052	0.144
-294.691	529.040	0.110	-0.258
-293.676	-80.518	-0.364	0.120
-292.662	-14.612	0.135	-0.086
-291.647	-63.880	-0.046	0.019
-290.632	10.693	-0.295	-0.223
-289.618	-127.726	-0.488	0.070
-288.603	86.271	0.021	-0.023
-287.589	-200.000	-0.001	-0.233
-286.574	-2.123	0.228	0.158
-285.559	-120.330	-0.248	0.042
-284.545	-200.000	0.051	-0.254
-283.530	-146.711	-0.153	-0.013
-282.516	-9.785	-0.028	0.018
-281.501	-16.859	0.228	0.142
-280.486	-200.000	0.002	0.121
-279.472	-200.000	0.015	-0.142
-278.457	283.038	0.078	0.139
-277.443	-200.000	-0.021	0.119
-276.428	0.712	0.133	-0.094
-275.413	119.067	-0.236	0.288
-274.399	-18.797	-0.184	-0.114
-273.384	765.269	0.124	0.333
-272.370	-67.128	-0.118	-0.046
-271.355	-200.000	0.031	-0.223
-270.340	272.057	0.173	0.301
-269.326	341.752	0.082	-0.159
-268.311	261.525	-0.171	0.293
-267.297	67.372	0.181	0.182
-266.282	791.956	-0.074	-0.201
-265.267	-63.963	0.152	-0.061
-264.253	497.789	0.182	-0.414
-263.238	800.000	0.035	0.137
-262.224	-200.000	-0.008	-0.062
-261.209	-28.739	0.303	-0.172
-260.195	800.000	0.030	-0.094
-259.180	-200.000	-0.040	0.352
-258.165	-200.000	0.058	0.405
-257.151	-200.000	-0.003	0.059
-256.136	-40.155	0.353	0.182
-255.122	800.000	0.098	0.405
-254.107	524.584	0.026	-0.060
-253.092	-200.000	0.057	0.249
-252.078	800.000	-0.064	-0.176
-251.063	21.458	0.252	-0.203
-250.049	-126.119	0.205	-0.030
-249.034	19.096	0.074	-0.059
-248.019	24.174	0.131	-0.107
-247.005	-83.343	-0.033	-0.010
-245.990	-14.182	0.051	0.032
-244.976	-47.738	-0.178	-0.085
-243.961	-191.325	0.247	-0.002
-242.946	4.267	0.066	0.048
-241.932	-14.610	-0.124	-0.079
-240.917	-126.493	0.304	-0.045
-239.903	31.342	-0.090	-0.076
-238.888	8.845	-0.146	-0.109
-237.873	69.743	-0.180	0.183
-236.859	-200.000	0.003	-0.251
-235.844	-165.865	-0.118	-0.005
-234.830	-200.000	0.038	0.306
-233.815	800.000	0.104	-0.377
-232.800	5.117	0.228	-0.165
-231.786	-200.000	-0.044	0.227
-230.771	-160.636	0.263	0.014
-229.757	148.532	-0.106	0.141
-228.742	-200.000	-0.062	0.317
-227.727	-21.598	0.271	0.163
-226.713	33.418	-0.217	0.186
-225.698	-69.836	-0.222	-0.084
-224.684	-44.888	-0.293	-0.144
-223.669	-82.722	0.135	-0.043
-222.655	14.037	-0.120	0.092
-221.640	-159.549	0.163	0.009
-220.625	7.561	-0.171	0.126
-219.611	106.664	0.224	0.262
-218.596	-126.859	0.199	0.029
-217.582	-200.000	-0.086	-0.384
-216.567	800.000	-0.015	0.051
-215.552	0.718	-0.046	0.032
-214.538	-155.959	0.195	-0.012
-213.523	87.388	0.124	-0.135
-212.509	-32.409	-0.313	-0.172
-211.494	-200.000	0.050	0.259
-210.479	-183.070	-0.408	-0.007
-209.465	-102.142	0.081	-0.019
-208.450	77.741	0.178	-0.187
-207.436	96.697	-0.133	0.151
-206.421	-105.453	0.253	-0.057
-205.406	-200.000	-0.039	-0.175
-204.392	-167.420	-0.263	0.010
-203.377	-17.078	-0.548	-0.341
-202.363	-174.380	-0.074	-0.002
-201.348	220.792	-0.040	-0.063
-200.333	-106.270	-0.089	-0.020
-199.319	-110.053	-0.206	0.043
-198.304	800.000	0.059	0.172
-197.290	-64.555	-0.293	0.117
-196.275	-195.656	-0.064	-0.000
-195.260	55.689	-0.156	-0.149
-194.246	-71.516	0.379	-0.140
-193.231	260.696	0.039	0.067
-192.217	-200.000	0.064	0.458
-191.202	-200.000	-0.001	0.040
-190.187	-200.000	-0.034	0.310
-189.173	-200.000	0.058	-0.308
-188.158	351.967	-0.161	0.314
-187.144	639.672	-0.089	0.222
-186.129	-74.850	-0.353	0.125
-185.114	-200.000	0.140	0.000
-184.100	-5.278	0.095	-0.064
-183.085	-101.569	0.362	0.087
-182.071	-90.991	0.343	0.097
-181.056	380.057	0.148	0.299
-180.042	-141.537	-0.173	-0.017
-179.027	-74.168	-0.378	-0.135
-178.012	-23.563	0.257	0.152
-176.998	800.000	-0.069	0.201
-175.983	-128.888	0.328	-0.045
-174.969	143.449	-0.152	-0.199
-173.954	-200.000	-0.042	0.333
-172.939	89.628	-0.318	0.349
-171.925	800.000	-0.047	0.139
-170.910	-135.104	0.202	0.024
-169.896	-105.969	0.188	-0.042
-168.881	82.746	0.200	-0.214
-167.866	292.969	-0.075	0.135
-166.852	-134.600	-0.379	0.045
-165.837	-200.000	-0.002	0.264
-164.823	-45.755	-0.288	0.140
-163.808	-39.050	0.443	0.229
-162.793	800.000	-0.066	0.181
-161.779	-200.000	0.035	0.473
-160.764	50.004	-0.180	-0.167
-159.750	-12.188	0.239	0.154
-158.735	800.000	-0.058	0.247
-157.720	46.496	0.158	0.144
-156.706	-99.455	0.412	-0.102
-155.691	521.218	-0.121	-0.279
-154.677	303.983	-0.177	-0.322
-153.662	-155.700	-0.282	0.018
-152.647	800.000	-0.062	-0.258
-151.633	-36.029	-0.119	0.063
-150.618	800.000	0.039	0.120
-149.604	800.000	-0.076	0.276
-148.589	-100.916	-0.210	0.051
-147.574	789.083	0.114	-0.309
-146.560	-39.623	0.195	-0.100
-145.545	-31.477	0.187	0.103
-144.531	-163.838	-0.435	-0.020
-143.516	102.171	0.063	0.072
-142.502	55.696	0.414	0.394
-141.487	-84.644	-0.259	-0.080
-140.472	-112.062	0.179	0.036
-139.458	-200.000	-0.057	0.351
-138.443	-200.000	0.004	0.331
-137.429	-200.000	0.023	-0.179
-136.414	-59.647	0.371	0.157
-135.399	8.076	0.161	-0.119
-134.385	318.968	-0.079	-0.147
-133.370	-200.000	0.011	0.447
-132.356	-200.000	0.005	0.154
-131.341	217.965	-0.266	-0.417
-130.326	155.820	0.088	0.119
-129.312	-200.000	-0.016	0.234
-128.297	800.000	0.020	0.073
-127.283	312.945	-0.069	0.128
-126.268	69.347	-0.060	-0.061
-125.253	-200.000	-0.001	-0.035
-124.239	-14.938	0.206	-0.130
-123.224	471.371	0.092	0.204
-122.210	-200.000	0.006	0.142
-121.195	-0.539	0.191	-0.133
