DTS Sentinel unit serial number:	SN413079Multiplexer serial number:	ORYXHardware model number:	OX4-SRSoftware version number:	ORYX F/W v4.00 Oryx Data Collector v3.7.2.0data status	okinstallation	princeton_trtdifferential loss correction	single-endedforward channel	channel 1reverse channel	N/Adate	2019/09/13time	01:14:35forward acquisition time	60.00reverse acquisition time	0.00gamma	496.2192k internal	0.2330k external	0.2330temperature offset calibration	1.0141default loss term (dB/km)	0.3790temperature slope calibration	1.0000multiplexer offset coefficient	1.0000multiplexer slope coefficient	1.0000fibre end	0.00T internal ref (°C)	27.94T ext. ref 1 (°C)	3.69T ext. ref 2 (°C)	22.56length (m)	temperature (°C)	Stokes	anti-Stokes-747.200	-200.000	0.001	0.218
-746.185	-170.471	-0.144	0.005
-745.171	248.574	-0.056	0.095
-744.156	-200.000	-0.023	0.108
-743.142	-200.000	0.019	0.163
-742.127	-185.260	-0.200	-0.003
-741.112	-18.490	0.272	0.171
-740.098	800.000	-0.057	-0.175
-739.083	-89.524	-0.180	0.053
-738.069	47.788	-0.378	0.355
-737.054	-200.000	0.052	-0.320
-736.039	20.928	-0.244	-0.199
-735.025	330.980	0.203	0.393
-734.010	-75.635	-0.316	0.113
-732.996	-200.000	0.048	0.334
-731.981	-33.031	0.102	0.057
-730.966	95.823	-0.287	-0.330
-729.952	-178.964	-0.425	0.010
-728.937	257.854	0.113	0.195
-727.923	502.495	-0.035	-0.082
-726.908	-82.900	0.294	0.095
-725.894	0.535	-0.163	-0.117
-724.879	-111.598	-0.287	-0.059
-723.864	8.179	-0.314	-0.238
-722.850	168.039	-0.037	0.053
-721.835	-200.000	-0.021	-0.259
-720.821	68.443	0.083	-0.086
-719.806	-2.377	-0.241	0.170
-718.791	-200.000	0.011	-0.078
-717.777	-63.640	0.290	0.120
-716.762	178.710	-0.091	-0.134
-715.748	159.783	0.093	-0.131
-714.733	275.261	0.136	-0.243
-713.718	411.786	0.104	0.222
-712.704	17.402	0.179	0.143
-711.689	-90.112	-0.055	-0.016
-710.675	800.000	-0.125	-0.445
-709.660	-42.521	-0.262	0.134
-708.645	-60.605	-0.276	0.118
-707.631	-69.057	0.150	0.058
-706.616	800.000	0.072	0.202
-705.602	33.447	0.197	-0.172
-704.587	-200.000	-0.001	0.051
-703.572	-31.949	0.285	0.160
-702.558	800.000	0.061	-0.259
-701.543	-156.231	0.139	0.009
-700.529	-55.889	0.106	0.047
-699.514	235.621	0.061	-0.101
-698.499	-47.547	-0.275	-0.134
-697.485	800.000	0.056	-0.196
-696.470	17.504	-0.148	-0.118
-695.456	-50.697	0.128	-0.061
-694.441	44.123	-0.210	-0.194
-693.426	-129.561	0.236	-0.033
-692.412	212.628	-0.014	-0.023
-691.397	-105.761	0.088	-0.020
-690.383	54.243	0.291	0.282
-689.368	800.000	-0.042	0.120
-688.354	-200.000	0.002	0.329
-687.339	-132.956	0.231	-0.030
-686.324	-186.706	-0.211	-0.003
-685.310	-200.000	0.008	-0.118
-684.295	800.000	0.019	0.057
-683.281	-110.441	0.487	0.102
-682.266	176.387	-0.057	-0.084
-681.251	79.576	-0.167	0.180
-680.237	352.595	-0.072	-0.143
-679.222	-119.957	0.152	-0.026
-678.208	126.095	-0.194	0.247
-677.193	800.000	-0.041	-0.114
-676.178	-8.667	-0.205	-0.138
-675.164	-74.326	-0.181	0.066
-674.149	27.699	-0.156	-0.132
-673.135	126.028	-0.077	0.098
-672.120	136.634	0.137	0.180
-671.105	215.989	-0.085	-0.136
-670.091	343.741	0.084	-0.166
-669.076	800.000	0.088	-0.326
-668.062	-59.330	0.145	-0.062
-667.047	-68.799	-0.025	0.010
-666.032	-175.985	-0.363	-0.010
-665.018	-116.647	0.033	0.006
-664.003	-54.606	-0.396	-0.180
-662.989	252.118	-0.224	-0.383
-661.974	787.386	-0.084	-0.232
-660.959	242.841	-0.072	-0.122
-659.945	634.079	0.070	0.179
-658.930	-200.000	0.054	-0.277
-657.916	-0.836	0.089	-0.063
-656.901	-15.879	0.163	0.104
-655.886	-7.150	-0.267	-0.181
-654.872	-200.000	-0.001	0.112
-653.857	42.787	0.210	-0.192
-652.843	-73.119	-0.054	0.020
-651.828	-43.821	-0.389	-0.197
-650.814	67.653	-0.146	-0.149
-649.799	364.368	-0.136	0.274
-648.784	-200.000	-0.002	0.245
-647.770	-200.000	-0.005	0.309
-646.755	363.674	0.087	0.176
-645.741	-200.000	0.038	-0.351
-644.726	168.933	-0.159	-0.227
-643.711	101.190	-0.025	0.029
-642.697	-182.529	-0.105	-0.002
-641.682	61.637	0.045	-0.045
-640.668	117.994	0.154	0.191
-639.653	-21.302	-0.159	0.097
-638.638	274.202	-0.073	-0.130
-637.624	443.571	0.124	-0.273
-636.609	-11.381	-0.149	-0.098
-635.595	-145.034	0.156	0.014
-634.580	8.401	0.242	-0.183
-633.565	435.886	0.086	-0.187
-632.551	29.218	-0.212	-0.180
-631.536	439.504	-0.022	0.049
-630.522	243.641	0.029	0.049
-629.507	19.293	-0.108	0.087
-628.492	-200.000	0.032	0.180
-627.478	-200.000	0.013	-0.121
-626.463	292.581	0.106	0.193
-625.449	-187.453	-0.057	-0.001
-624.434	35.443	0.056	0.049
-623.419	-106.183	-0.137	0.031
-622.405	44.312	0.217	-0.200
-621.390	79.018	0.182	0.195
-620.376	-200.000	-0.081	0.389
-619.361	-200.000	0.001	0.133
-618.346	21.910	-0.270	-0.220
-617.332	-200.000	0.020	0.106
-616.317	-200.000	0.004	0.031
-615.303	33.888	-0.058	-0.051
-614.288	800.000	0.033	-0.102
-613.273	-133.535	0.079	-0.010
-612.259	214.794	-0.065	-0.102
-611.244	100.033	-0.233	-0.271
-610.230	-30.504	-0.305	0.173
-609.215	-46.514	0.326	0.160
-608.201	-15.569	0.212	-0.135
-607.186	-85.694	-0.116	0.036
-606.171	-162.253	-0.419	-0.021
-605.157	-200.000	0.009	-0.191
-604.142	574.109	-0.055	0.133
-603.128	-177.315	-0.217	-0.005
-602.113	152.089	-0.173	-0.236
-601.098	91.827	-0.252	0.284
-600.084	-73.217	-0.148	0.054
-599.069	566.583	0.122	0.295
-598.055	-138.483	-0.136	0.015
-597.040	-132.370	-0.234	-0.030
-596.025	75.915	-0.080	0.084
-595.011	118.226	0.132	-0.163
-593.996	113.830	-0.216	-0.262
-592.982	108.796	-0.038	0.046
-591.967	-32.866	0.171	0.095
-590.952	308.038	-0.155	0.289
-589.938	-95.903	-0.258	0.069
-588.923	-61.241	-0.287	-0.121
-587.909	-7.334	-0.356	0.241
-586.894	-112.861	-0.207	-0.041
-585.879	-74.475	0.322	0.116
-584.865	529.359	0.092	0.216
-583.850	148.897	0.032	-0.044
-582.836	-53.123	0.198	-0.091
-581.821	-200.000	-0.002	-0.035
-580.806	41.379	-0.316	0.286
-579.792	-82.333	-0.178	0.058
-578.777	-200.000	0.057	0.310
-577.763	-36.748	0.157	-0.084
-576.748	800.000	0.089	-0.314
-575.733	108.855	0.198	-0.237
-574.719	-5.096	0.331	-0.228
-573.704	689.700	0.095	-0.248
-572.690	64.646	-0.134	0.135
-571.675	-200.000	-0.016	-0.433
-570.661	193.006	-0.171	-0.258
-569.646	-63.034	0.145	-0.060
-568.631	-93.765	-0.295	0.081
-567.617	-187.442	0.465	-0.006
-566.602	192.203	-0.087	-0.132
-565.588	377.186	0.089	0.182
-564.573	26.372	-0.028	-0.023
-563.558	349.140	0.031	-0.062
-562.544	-60.236	-0.408	0.174
-561.529	700.304	-0.103	-0.270
-560.515	-157.303	0.164	0.010
-559.500	400.593	0.120	0.252
-558.485	-33.639	0.121	0.067
-557.471	-200.000	0.033	-0.324
-556.456	8.340	-0.264	0.198
-555.442	800.000	0.023	0.099
-554.427	-200.000	-0.002	0.087
-553.412	-200.000	0.004	0.091
-552.398	139.819	-0.291	0.383
-551.383	-16.079	-0.028	-0.018
-550.369	-94.865	-0.148	0.040
-549.354	-200.000	0.123	-0.552
-548.339	-96.535	-0.101	0.027
-547.325	111.330	-0.047	-0.057
-546.310	8.836	-0.123	-0.093
-545.296	479.154	0.057	-0.128
-544.281	800.000	0.040	0.156
-543.266	227.279	-0.148	0.240
-542.252	292.563	-0.142	-0.258
-541.237	-200.000	-0.002	-0.073
-540.223	-162.658	0.348	0.017
-539.208	-200.000	0.081	-0.460
-538.193	-200.000	0.065	0.427
-537.179	-110.157	0.197	-0.041
-536.164	577.586	-0.052	0.126
-535.150	-66.671	0.091	0.036
-534.135	-49.416	0.396	0.188
-533.121	-200.000	0.013	-0.173
-532.106	-87.186	0.103	-0.031
-531.091	40.441	-0.092	0.083
-530.077	-200.000	-0.043	0.232
-529.062	178.330	0.108	0.157
-528.048	145.766	-0.133	-0.178
-527.033	-67.854	-0.267	0.104
-526.018	-26.628	0.052	-0.031
-525.004	-162.441	-0.327	0.016
-523.989	115.034	0.157	-0.191
-522.975	800.000	0.132	-0.436
-521.960	800.000	-0.067	0.246
-520.945	-200.000	-0.008	-0.091
-519.931	57.044	-0.297	-0.289
-518.916	-198.249	-0.436	0.003
-517.902	20.707	0.150	-0.121
-516.887	301.298	-0.143	-0.264
-515.872	463.189	-0.036	-0.079
-514.858	-25.551	0.165	0.097
-513.843	52.477	0.205	-0.195
-512.829	160.176	-0.110	0.152
-511.814	-37.373	0.157	-0.084
-510.799	-121.150	0.062	0.010
-509.785	-200.000	-0.010	0.151
-508.770	-199.506	0.114	-0.001
-507.756	-200.000	-0.009	-0.067
-506.741	147.952	0.155	0.209
-505.726	800.000	-0.065	-0.248
-504.712	1.608	-0.451	-0.324
-503.697	5.725	-0.030	-0.022
-502.683	284.849	-0.134	-0.241
-501.668	-67.957	0.248	0.097
-500.653	2.751	-0.356	-0.258
-499.639	239.076	-0.124	-0.205
-498.624	-200.000	0.037	0.324
-497.610	89.936	0.258	-0.287
-496.595	724.881	-0.055	-0.146
-495.581	-200.000	0.021	0.094
-494.566	-200.000	0.007	0.089
-493.551	-56.086	-0.084	-0.037
-492.537	81.940	0.105	-0.114
-491.522	-33.711	-0.168	0.092
-490.508	-93.303	-0.248	-0.069
-489.493	800.000	-0.110	0.337
-488.478	29.189	0.304	0.257
-487.464	129.173	0.186	0.236
-486.449	-62.642	0.166	-0.069
-485.435	-33.345	0.256	0.141
-484.420	-115.989	0.124	-0.023
-483.405	32.989	-0.095	0.082
-482.391	-200.000	0.003	0.242
-481.376	-133.576	0.137	0.017
-480.362	-75.724	-0.071	-0.025
-479.347	800.000	-0.008	0.029
-478.332	217.062	-0.287	0.455
-477.318	-89.368	0.115	0.034
-476.303	-144.438	-0.224	0.021
-475.289	-59.059	-0.210	-0.090
-474.274	41.756	-0.133	-0.120
-473.259	-200.000	-0.003	0.171
-472.245	-96.235	-0.227	-0.060
-471.230	-158.932	-0.110	0.006
-470.216	-83.911	-0.111	0.035
-469.201	-39.882	0.317	-0.165
-468.186	800.000	-0.044	-0.149
-467.172	31.646	0.110	-0.095
-466.157	-57.589	0.132	-0.057
-465.143	-16.388	0.212	0.134
-464.128	800.000	0.116	0.355
-463.113	-141.579	-0.121	0.012
-462.099	-200.000	-0.056	-0.269
-461.084	227.000	0.149	0.242
-460.070	-127.923	-0.254	0.036
-459.055	422.493	-0.090	-0.193
-458.040	-200.000	-0.020	0.166
-457.026	-110.107	0.311	-0.065
-456.011	-41.775	0.129	0.066
-454.997	-200.000	0.020	-0.223
-453.982	12.491	-0.153	-0.118
-452.968	296.411	-0.074	0.136
-451.953	-200.000	0.014	0.077
-450.938	-64.405	-0.327	-0.132
-449.924	-200.000	0.018	-0.189
-448.909	-200.000	0.012	-0.158
-447.895	26.978	0.242	-0.202
-446.880	174.172	0.033	0.047
-445.865	-200.000	0.001	-0.255
-444.851	800.000	-0.036	0.120
-443.836	152.794	0.177	0.241
-442.822	-17.049	0.045	0.028
-441.807	-134.072	-0.198	0.024
-440.792	800.000	-0.058	-0.210
-439.778	-79.899	-0.250	-0.083
-438.763	-67.977	0.235	-0.091
-437.749	479.573	0.025	-0.057
-436.734	-200.000	-0.022	0.468
-435.719	163.821	-0.113	-0.158
-434.705	-152.339	-0.224	-0.016
-433.690	-200.000	0.020	0.087
-432.676	-76.941	-0.408	0.142
-431.661	-74.679	0.156	-0.056
-430.646	-73.452	-0.172	0.062
-429.632	-200.000	-0.011	0.059
-428.617	-73.350	0.278	0.101
-427.603	-200.000	-0.017	0.139
-426.588	800.000	-0.086	0.274
-425.573	-117.674	-0.457	-0.082
-424.559	-122.418	-0.063	0.010
-423.544	-200.000	-0.009	0.228
-422.530	-108.395	-0.181	0.039
-421.515	800.000	-0.073	-0.254
-420.500	-82.670	0.238	0.077
-419.486	-76.264	0.198	0.069
-418.471	375.906	-0.073	-0.149
-417.457	-130.656	-0.119	0.016
-416.442	-50.687	-0.091	-0.042
-415.428	112.917	0.036	0.044
-414.413	-57.467	-0.136	0.059
-413.398	233.834	-0.115	-0.188
-412.384	759.420	0.188	-0.507
-411.369	-63.125	0.244	-0.100
-410.355	-200.000	0.023	0.118
-409.340	800.000	-0.030	-0.114
-408.325	-1.157	0.125	0.088
-407.311	-88.336	-0.222	0.066
-406.296	479.047	-0.076	0.171
-405.282	800.000	0.088	0.365
-404.267	-107.315	-0.274	-0.060
-403.252	800.000	0.063	0.205
-402.238	-130.422	-0.284	-0.038
-401.223	20.903	-0.242	0.195
-400.209	-138.566	0.192	-0.021
-399.194	84.682	-0.046	-0.050
-398.179	74.466	-0.140	0.147
-397.165	-166.647	0.105	0.004
-396.150	-63.037	-0.280	0.115
-395.136	60.299	0.231	0.227
-394.121	493.456	-0.089	-0.203
-393.106	-200.000	-0.057	0.322
-392.092	-152.345	0.337	-0.024
-391.077	-54.716	-0.240	-0.108
-390.063	800.000	-0.092	0.353
-389.048	-108.702	-0.165	-0.035
-388.033	-60.129	0.272	0.115
-387.019	255.470	0.118	0.200
-386.004	-105.268	-0.133	0.030
-384.990	7.042	0.293	0.217
-383.975	-132.630	0.124	-0.016
-382.960	-45.443	0.162	-0.080
-381.946	-7.513	-0.101	0.068
-380.931	-65.914	0.125	-0.049
-379.917	-200.000	0.008	-0.195
-378.902	-200.000	0.009	0.170
-377.888	-145.814	0.264	0.023
-376.873	-1.513	-0.260	-0.182
-375.858	-79.861	0.358	-0.120
-374.844	-36.637	0.328	-0.175
-373.829	-200.000	-0.012	0.270
-372.815	800.000	-0.114	0.344
-371.800	-200.000	-0.033	-0.180
-370.785	37.772	0.179	0.158
-369.771	-57.604	-0.099	0.043
-368.756	-90.192	0.278	0.080
-367.742	218.125	0.155	-0.245
-366.727	525.600	0.044	-0.103
-365.712	-117.408	0.279	-0.050
-364.698	-200.000	0.011	0.294
-363.683	-87.299	0.190	0.057
-362.669	149.671	0.181	0.244
-361.654	-121.740	0.283	-0.046
-360.639	483.018	0.129	0.290
-359.625	-122.285	-0.476	-0.077
-358.610	27.710	0.170	0.142
-357.596	-124.231	-0.309	-0.048
-356.581	250.928	0.215	-0.363
-355.566	2.204	0.209	-0.150
-354.552	800.000	-0.091	-0.279
-353.537	-200.000	-0.077	-0.370
-352.523	96.096	-0.157	0.178
-351.508	91.386	0.106	-0.119
-350.493	37.202	0.101	0.089
-349.479	-5.147	0.181	-0.124
-348.464	234.250	0.144	0.235
-347.450	267.046	-0.034	0.059
-346.435	2.528	-0.049	-0.035
-345.420	207.511	-0.213	0.329
-344.406	-34.506	-0.136	0.074
-343.391	58.689	0.311	-0.303
-342.377	-194.185	-0.183	-0.001
-341.362	-200.000	-0.052	0.388
-340.348	-200.000	-0.239	-0.001
-339.333	219.943	-0.055	0.087
-338.318	-200.000	-0.014	0.064
-337.304	-35.611	0.085	0.046
-336.289	-45.797	0.116	-0.057
-335.275	121.900	-0.177	-0.218
-334.260	-200.000	0.014	-0.155
-333.245	144.341	-0.129	0.170
-332.231	-28.882	0.170	-0.097
-331.216	-200.000	0.005	-0.031
-330.202	800.000	-0.082	0.264
-329.187	-122.645	0.206	-0.033
-328.172	800.000	-0.111	0.306
-327.158	239.215	0.151	0.249
-326.143	-200.000	0.002	0.130
-325.129	-169.754	0.328	0.012
-324.114	-17.668	-0.299	0.186
-323.099	29.089	-0.151	-0.127
-322.085	-120.196	-0.420	-0.071
-321.070	800.000	0.145	-0.405
-320.056	-76.084	-0.206	-0.072
-319.041	-200.000	0.005	-0.369
-318.026	312.413	0.226	-0.420
-317.012	-34.805	-0.202	-0.109
-315.997	-200.000	0.082	0.357
-314.983	30.092	-0.118	0.100
-313.968	-39.054	0.235	0.122
-312.953	-54.036	-0.156	-0.070
-311.939	556.869	-0.059	0.141
-310.924	602.113	-0.093	-0.229
-309.910	516.688	0.173	-0.400
-308.895	800.000	-0.015	0.058
-307.880	67.497	-0.132	-0.134
-306.866	219.602	0.072	-0.113
-305.851	23.025	-0.317	0.257
-304.837	-70.079	-0.286	-0.108
-303.822	-200.000	0.023	-0.105
-302.807	84.040	0.196	-0.212
-301.793	55.420	0.263	-0.252
-300.778	-111.530	-0.085	-0.017
-299.764	-200.000	0.037	0.357
-298.749	167.144	-0.119	-0.167
-297.735	800.000	0.074	-0.211
-296.720	-100.724	0.074	-0.018
-295.705	3.190	0.147	0.106
-294.691	-50.544	-0.076	0.036
-293.676	-200.000	0.006	0.263
-292.662	-200.000	0.010	0.227
-291.647	-102.578	0.310	-0.073
-290.632	-14.760	-0.269	0.171
-289.618	-186.463	0.189	-0.003
-288.603	151.662	0.248	0.334
-287.589	-89.636	-0.308	0.089
-286.574	23.968	0.109	0.089
-285.559	463.867	0.102	0.226
-284.545	-181.910	0.332	-0.006
-283.530	-200.000	0.009	-0.116
-282.516	-200.000	0.018	-0.145
-281.501	-14.542	0.234	0.149
-280.486	-37.874	-0.271	0.142
-279.472	-200.000	0.029	-0.334
-278.457	-23.241	-0.182	0.108
-277.443	308.331	0.122	0.226
-276.428	-61.777	-0.127	0.052
-275.413	269.835	0.105	0.183
-274.399	-140.922	0.085	0.009
-273.384	380.250	-0.071	-0.143
-272.370	449.861	-0.025	-0.055
-271.355	-200.000	0.003	-0.022
-270.340	140.052	0.086	-0.112
-269.326	-26.446	0.238	0.138
-268.311	87.195	-0.187	0.205
-267.297	-70.024	-0.120	0.045
-266.282	-106.183	-0.383	0.085
-265.267	-140.148	0.331	0.034
-264.253	-200.000	-0.030	0.406
-263.238	-137.882	-0.254	-0.028
-262.224	87.254	0.160	-0.174
-261.209	-43.636	-0.112	-0.056
-260.195	800.000	-0.078	0.317
-259.180	147.158	0.158	-0.210
-258.165	-122.348	-0.208	-0.034
-257.151	198.402	-0.141	-0.213
-256.136	-119.515	0.240	-0.041
-255.122	43.262	-0.186	-0.168
-254.107	-81.748	-0.138	0.045
-253.092	130.849	-0.137	0.174
-252.078	-10.172	0.448	-0.294
-251.063	-78.838	0.225	0.076
-250.049	-108.338	-0.218	0.046
-249.034	429.303	-0.088	-0.187
-248.019	-50.714	0.370	-0.172
-247.005	-112.752	-0.242	0.047
-245.990	-144.856	0.202	0.018
-244.976	-169.099	0.267	0.010
-243.961	-79.666	0.115	0.038
-242.946	-200.000	0.045	0.434
-241.932	-9.088	-0.225	0.149
-240.917	178.821	0.167	-0.241
-239.903	90.647	-0.235	-0.260
-238.888	-200.000	0.009	-0.126
-237.873	-18.120	0.060	0.037
-236.859	777.827	0.058	-0.156
-235.844	800.000	0.063	-0.202
-234.830	-174.336	0.307	-0.009
-233.815	800.000	-0.032	0.114
-232.800	-138.756	-0.117	-0.013
-231.786	-200.000	0.056	-0.318
-230.771	-121.468	-0.426	0.070
-229.757	-200.000	-0.021	-0.359
-228.742	48.279	0.279	-0.258
-227.727	800.000	0.043	-0.140
-226.713	32.215	0.175	-0.149
-225.698	-123.935	-0.079	0.012
-224.684	-116.916	0.140	0.025
-223.669	-57.204	0.276	0.120
-222.655	71.905	0.130	-0.133
-221.640	3.162	-0.254	-0.182
-220.625	299.371	0.184	0.335
-219.611	-85.806	-0.054	-0.016
-218.596	-3.331	-0.084	-0.058
-217.582	-121.809	-0.175	-0.029
-216.567	167.058	-0.093	-0.130
-215.552	-85.817	-0.271	-0.083
-214.538	17.699	0.236	0.185
-213.523	-66.847	0.212	0.083
-212.509	139.752	0.148	0.193
-211.494	115.315	0.077	-0.092
-210.479	444.317	-0.049	0.106
-209.465	75.893	0.277	0.289
-208.450	-97.213	-0.147	-0.038
-207.436	-200.000	0.024	0.178
-206.421	372.458	0.079	0.157
-205.406	-200.000	-0.029	0.131
-204.392	446.351	-0.101	0.219
-203.377	321.421	-0.028	0.052
-202.363	-18.651	-0.206	-0.126
-201.348	0.035	0.209	-0.147
-200.333	615.680	0.073	-0.180
-199.319	705.153	0.074	0.193
-198.304	667.301	-0.093	-0.237
-197.290	25.339	0.149	0.122
-196.275	-115.413	0.261	0.049
-195.260	3.976	0.111	-0.080
-194.246	-162.030	0.156	0.008
-193.231	545.056	0.046	0.109
-192.217	800.000	-0.087	0.314
-191.202	-13.867	-0.280	-0.178
-190.187	-117.412	0.162	-0.029
-189.173	-200.000	0.048	-0.328
-188.158	116.525	-0.315	-0.381
-187.144	565.936	0.103	-0.246
-186.129	104.294	-0.182	-0.211
-185.114	800.000	-0.126	-0.454
-184.100	-121.213	0.088	0.015
-183.085	-24.113	0.214	-0.126
-182.071	288.730	-0.170	-0.304
-181.056	-78.825	0.613	-0.206
-180.042	-106.807	-0.224	-0.049
-179.027	800.000	0.022	-0.067
-178.012	-41.935	0.391	0.197
-176.998	-70.966	-0.068	0.025
-175.983	800.000	0.156	-0.442
-174.969	-31.666	-0.142	-0.079
-173.954	-71.730	-0.085	0.031
-172.939	70.191	-0.097	-0.099
-171.925	-11.999	-0.102	-0.066
-170.910	-34.668	0.162	0.087
-169.896	800.000	0.041	0.129
-168.881	-200.000	-0.017	0.144
-167.866	414.268	-0.169	0.355
-166.852	800.000	-0.108	0.317
-165.837	-91.653	0.384	0.108
-164.823	-47.516	-0.053	0.025
-163.808	-200.000	0.021	0.120
-162.793	88.338	0.071	0.077
-161.779	-44.227	0.333	0.164
-160.764	37.627	-0.109	-0.095
-159.750	-27.445	0.099	-0.057
-158.735	189.766	-0.157	0.232
-157.720	164.014	-0.162	0.224
-156.706	797.876	0.073	-0.198
-155.691	-200.000	-0.020	0.113
-154.677	-200.000	0.058	-0.294
-153.662	-200.000	0.033	-0.283
-152.647	-22.399	0.306	0.183
-151.633	800.000	0.078	-0.268
-150.618	300.823	0.231	0.419
-149.604	-138.562	0.073	0.008
-148.589	17.545	-0.219	0.172
-147.574	255.065	0.131	0.220
-146.560	406.778	-0.105	0.218
-145.545	508.973	0.049	-0.112
-144.531	-44.074	-0.060	-0.030
-143.516	53.829	0.148	0.140
-142.502	106.111	0.219	0.255
-141.487	668.621	0.035	0.089
-140.472	191.268	-0.183	-0.272
-139.458	79.003	0.149	0.156
-138.443	-152.034	-0.242	0.017
-137.429	-200.000	0.245	-0.000
-136.414	385.960	-0.131	0.265
-135.399	800.000	-0.028	-0.120
-134.385	-82.171	0.267	-0.085
-133.370	19.263	-0.098	0.077
-132.356	6.469	0.242	-0.176
-131.341	-88.111	-0.106	-0.031
-130.326	-182.210	0.114	-0.002
-129.312	-77.512	-0.094	-0.032
-128.297	800.000	0.067	0.212
-127.283	-89.777	0.240	0.069
-126.268	-100.987	-0.171	0.041
-125.253	-116.531	0.188	0.034
-124.239	295.386	-0.149	-0.269
-123.224	2.245	0.225	-0.160
-122.210	-138.783	-0.517	-0.055
-121.195	-134.139	0.062	-0.008
