DTS Sentinel unit serial number:	SN413079Multiplexer serial number:	ORYXHardware model number:	OX4-SRSoftware version number:	ORYX F/W v4.00 Oryx Data Collector v3.7.2.0data status	okinstallation	princeton_trtdifferential loss correction	single-endedforward channel	channel 1reverse channel	N/Adate	2019/09/17time	04:22:35forward acquisition time	60.00reverse acquisition time	0.00gamma	496.2192k internal	0.2323k external	0.2323temperature offset calibration	0.9960default loss term (dB/km)	0.3790temperature slope calibration	1.0000multiplexer offset coefficient	1.0000multiplexer slope coefficient	1.0000fibre end	0.00T internal ref (°C)	29.75T ext. ref 1 (°C)	0.14T ext. ref 2 (°C)	24.23length (m)	temperature (°C)	Stokes	anti-Stokes-747.200	61.517	-0.185	-0.186
-746.185	-1.604	0.145	0.103
-745.171	403.715	0.137	0.291
-744.156	150.895	-0.295	0.405
-743.142	800.000	-0.057	-0.221
-742.127	-70.796	-0.275	0.105
-741.112	403.512	0.124	-0.262
-740.098	-23.824	-0.242	0.146
-739.083	800.000	-0.022	-0.092
-738.069	564.215	0.098	0.240
-737.054	50.497	-0.109	-0.104
-736.039	800.000	0.121	0.489
-735.025	241.104	0.118	0.199
-734.010	800.000	0.096	-0.288
-732.996	-172.148	-0.429	-0.014
-731.981	-73.707	-0.098	-0.036
-730.966	-163.754	-0.109	-0.005
-729.952	-68.770	-0.242	0.094
-728.937	-200.000	0.007	0.107
-727.923	-148.775	0.202	0.017
-726.908	-143.954	-0.281	0.027
-725.894	442.669	0.076	-0.168
-724.879	-90.586	-0.202	-0.059
-723.864	-165.299	-0.215	0.010
-722.850	-200.000	-0.043	0.311
-721.835	28.081	0.071	0.060
-720.821	-200.000	0.096	0.498
-719.806	30.651	-0.157	-0.135
-718.791	239.578	-0.140	-0.236
-717.777	-155.543	0.185	0.012
-716.762	178.059	0.223	-0.328
-715.748	-117.158	-0.136	0.025
-714.733	-124.783	-0.174	0.027
-713.718	322.005	0.074	0.141
-712.704	104.347	-0.069	-0.082
-711.689	238.613	-0.203	-0.340
-710.675	-36.734	-0.109	0.059
-709.660	-156.208	0.197	0.013
-708.645	26.113	-0.203	-0.171
-707.631	114.608	-0.151	0.185
-706.616	227.011	-0.228	-0.374
-705.602	-86.786	0.362	-0.112
-704.587	800.000	-0.093	0.264
-703.572	800.000	-0.061	0.200
-702.558	424.210	-0.032	-0.070
-701.543	-75.903	0.217	-0.077
-700.529	-98.305	0.202	-0.052
-699.514	-44.962	-0.418	-0.210
-698.499	800.000	0.099	0.296
-697.485	-148.929	0.213	-0.017
-696.470	-140.226	-0.228	0.024
-695.456	-46.749	-0.143	0.070
-694.441	-200.000	0.012	-0.107
-693.426	-200.000	0.016	-0.220
-692.412	-165.041	-0.149	0.007
-691.397	-200.000	0.005	-0.030
-690.383	27.755	-0.275	-0.234
-689.368	-200.000	-0.013	0.293
-688.354	-118.665	0.137	-0.024
-687.339	-108.614	-0.116	0.025
-686.324	282.148	0.138	-0.249
-685.310	98.834	-0.214	-0.249
-684.295	-200.000	-0.016	-0.202
-683.281	34.423	0.368	-0.324
-682.266	-200.000	-0.016	-0.286
-681.251	-133.839	-0.273	-0.034
-680.237	-177.103	0.194	-0.005
-679.222	-20.826	-0.138	0.085
-678.208	-74.419	0.197	-0.072
-677.193	-200.000	0.026	0.267
-676.178	21.513	0.316	0.259
-675.164	-150.569	-0.274	0.021
-674.149	757.994	-0.116	0.315
-673.135	-17.943	-0.065	0.041
-672.120	-130.703	-0.208	0.028
-671.105	20.738	0.087	-0.071
-670.091	-130.370	-0.328	-0.045
-669.076	-11.973	0.216	0.142
-668.062	-22.797	-0.307	-0.186
-667.047	-200.000	-0.096	-0.430
-666.032	177.821	-0.249	-0.366
-665.018	-127.394	-0.163	-0.024
-664.003	94.958	-0.084	0.097
-662.989	516.819	0.075	-0.177
-661.974	800.000	-0.042	-0.169
-660.959	35.800	-0.096	-0.085
-659.945	-111.838	-0.482	-0.098
-658.930	800.000	-0.010	0.041
-657.916	800.000	-0.124	-0.350
-656.901	800.000	0.066	-0.201
-655.886	8.557	0.073	-0.056
-654.872	-116.435	-0.080	0.015
-653.857	187.248	0.115	-0.172
-652.843	191.023	0.067	0.102
-651.828	65.008	-0.036	0.037
-650.814	-149.791	0.351	-0.028
-649.799	-97.490	-0.091	0.024
-648.784	-27.019	-0.056	-0.033
-647.770	716.530	-0.065	0.174
-646.755	-83.392	0.437	0.141
-645.741	-140.849	0.073	0.008
-644.726	-156.642	0.365	0.023
-643.711	83.814	-0.102	-0.111
-642.697	52.794	-0.131	0.126
-641.682	-34.442	0.186	0.102
-640.668	2.655	-0.271	0.197
-639.653	-95.351	0.150	-0.041
-638.638	41.409	0.253	-0.230
-637.624	-110.671	-0.459	0.095
-636.609	103.964	-0.270	0.319
-635.595	98.548	-0.170	-0.197
-634.580	18.709	0.176	-0.141
-633.565	103.111	-0.162	0.191
-632.551	-79.454	-0.182	-0.062
-631.536	-200.000	-0.030	-0.143
-630.522	-93.401	0.434	0.121
-629.507	-16.403	-0.079	-0.050
-628.492	363.861	0.131	-0.266
-627.478	800.000	0.038	0.143
-626.463	-139.530	-0.228	-0.024
-625.449	-200.000	-0.018	-0.088
-624.434	-169.087	0.170	-0.006
-623.419	-72.596	0.175	0.065
-622.405	-125.484	0.105	-0.016
-621.390	-124.845	0.136	-0.021
-620.376	41.102	-0.423	-0.384
-619.361	-200.000	0.033	-0.426
-618.346	-61.081	-0.353	-0.150
-617.332	800.000	0.089	0.324
-616.317	-120.870	0.241	0.041
-615.303	86.665	0.212	0.235
-614.288	-105.104	0.208	0.048
-613.273	226.635	-0.110	-0.179
-612.259	-44.922	0.092	-0.046
-611.244	530.986	0.092	-0.218
-610.230	-200.000	0.009	-0.061
-609.215	-200.000	0.064	-0.318
-608.201	-107.039	-0.120	-0.027
-607.186	-200.000	0.035	0.296
-606.171	159.026	0.066	-0.092
-605.157	-78.965	0.119	0.041
-604.142	660.412	-0.159	-0.412
-603.128	-200.000	-0.027	-0.275
-602.113	61.091	-0.220	-0.219
-601.098	800.000	0.037	-0.156
-600.084	-39.459	0.095	-0.050
-599.069	57.568	-0.081	-0.079
-598.055	-81.459	0.080	-0.027
-597.040	-127.269	0.342	0.050
-596.025	56.156	-0.141	0.138
-595.011	-18.377	0.157	0.098
-593.996	-103.284	-0.293	-0.069
-592.982	226.523	0.290	-0.473
-591.967	-1.031	0.027	-0.019
-590.952	25.900	-0.222	-0.186
-589.938	-200.000	0.001	-0.471
-588.923	-145.503	0.022	0.002
-587.909	288.860	-0.057	0.104
-586.894	-158.366	0.137	-0.008
-585.879	367.796	0.042	-0.086
-584.865	-11.454	0.309	-0.204
-583.850	-200.000	-0.038	0.276
-582.836	1.349	0.164	-0.118
-581.821	-200.000	0.005	-0.041
-580.806	335.688	0.185	-0.359
-579.792	8.044	-0.128	-0.096
-578.777	450.687	0.034	0.075
-577.763	58.103	0.236	-0.232
-576.748	-61.045	0.240	0.102
-575.733	13.088	-0.102	0.079
-574.719	-134.336	-0.487	-0.060
-573.704	507.997	-0.100	-0.232
-572.690	-200.000	-0.009	0.111
-571.675	-200.000	0.026	0.175
-570.661	-111.566	0.119	0.024
-569.646	249.348	0.080	0.135
-568.631	87.736	-0.214	0.237
-567.617	-87.252	0.200	0.061
-566.602	800.000	-0.072	-0.255
-565.588	800.000	0.046	-0.174
-564.573	-200.000	0.011	0.236
-563.558	-141.397	-0.213	-0.022
-562.544	2.603	0.192	-0.140
-561.529	-75.396	0.207	-0.074
-560.515	-200.000	-0.041	0.243
-559.500	-200.000	-0.041	0.309
-558.485	291.254	-0.034	-0.062
-557.471	-33.285	-0.104	0.058
-556.456	-127.185	-0.342	0.050
-555.442	17.700	0.130	0.104
-554.427	609.753	0.088	0.219
-553.412	-197.163	-0.167	0.001
-552.398	121.997	-0.099	0.124
-551.383	-36.941	-0.247	-0.133
-550.369	-103.061	0.113	-0.027
-549.354	-58.854	-0.083	0.036
-548.339	13.599	-0.195	0.152
-547.325	85.697	0.089	-0.098
-546.310	609.618	0.040	0.101
-545.296	430.656	0.109	0.236
-544.281	-200.000	0.305	-0.001
-543.266	-4.538	0.094	-0.065
-542.252	-74.568	-0.170	0.061
-541.237	110.012	0.130	-0.157
-540.223	-200.000	0.021	0.283
-539.208	42.647	0.045	0.041
-538.193	133.111	0.247	-0.319
-537.179	-200.000	0.052	-0.388
-536.164	-101.834	0.151	-0.037
-535.150	-132.006	-0.177	-0.023
-534.135	-76.680	0.045	0.016
-533.121	-170.927	0.148	0.005
-532.106	-159.499	-0.266	-0.015
-531.091	-99.054	-0.480	0.122
-530.077	-41.007	0.089	-0.046
-529.062	179.997	0.174	-0.255
-528.048	247.470	-0.197	-0.333
-527.033	-46.749	-0.170	-0.083
-526.018	-130.267	-0.194	0.026
-525.004	-103.512	0.143	0.034
-523.989	-200.000	-0.034	-0.462
-522.975	88.589	0.123	0.137
-521.960	-50.406	-0.469	0.222
-520.945	133.861	0.275	0.357
-519.931	-18.928	0.298	-0.186
-518.916	156.697	-0.162	-0.225
-517.902	558.071	0.073	-0.177
-516.887	-111.066	0.373	-0.077
-515.872	-136.393	0.029	-0.003
-514.858	28.853	-0.182	-0.154
-513.843	111.048	-0.187	-0.226
-512.829	-200.000	-0.047	0.214
-511.814	508.636	-0.171	-0.397
-510.799	-39.923	0.261	0.136
-509.785	385.617	0.047	0.096
-508.770	-42.604	-0.112	0.057
-507.756	-91.327	-0.150	-0.043
-506.741	10.628	0.125	-0.095
-505.726	-191.216	-0.303	-0.003
-504.712	-121.092	0.136	-0.023
-503.697	30.525	0.085	-0.073
-502.683	160.842	-0.173	-0.242
-501.668	364.821	0.098	-0.198
-500.653	162.562	0.284	-0.399
-499.639	-200.000	-0.069	0.303
-498.624	-50.379	-0.309	0.146
-497.610	-21.899	0.119	0.072
-496.595	111.633	-0.203	-0.245
-495.581	-91.772	-0.118	0.033
-494.566	130.833	-0.382	-0.490
-493.551	34.642	0.160	0.140
-492.537	25.537	-0.227	0.189
-491.522	51.929	0.295	-0.280
-490.508	-200.000	-0.114	-0.519
-489.493	196.062	-0.236	-0.359
-488.478	-200.000	-0.010	0.410
-487.464	11.308	0.117	-0.090
-486.449	-148.218	0.144	-0.012
-485.435	13.485	-0.072	-0.056
-484.420	-163.649	-0.245	-0.012
-483.405	-200.000	0.044	-0.201
-482.391	-200.000	-0.015	-0.266
-481.376	169.136	0.153	-0.218
-480.362	-55.682	-0.077	0.034
-479.347	-85.036	-0.209	-0.066
-478.332	-38.694	-0.087	0.046
-477.318	-106.954	0.266	0.059
-476.303	23.714	-0.335	0.275
-475.289	-179.756	-0.213	-0.005
-474.274	-82.801	-0.156	-0.050
-473.259	780.636	-0.063	-0.173
-472.245	-103.814	0.154	-0.036
-471.230	295.377	-0.129	0.237
-470.216	356.441	-0.077	0.153
-469.201	-106.636	-0.167	-0.037
-468.186	-123.417	-0.135	0.022
-467.172	-200.000	-0.018	-0.221
-466.157	-117.277	-0.045	-0.008
-465.143	70.251	0.308	0.318
-464.128	44.032	-0.158	0.145
-463.113	-200.000	-0.010	-0.071
-462.099	-200.000	-0.006	-0.359
-461.084	21.461	0.120	-0.098
-460.070	439.942	0.079	0.171
-459.055	-200.000	-0.027	-0.263
-458.040	-103.648	-0.229	0.054
-457.026	472.296	0.106	-0.238
-456.011	58.358	0.149	0.146
-454.997	-2.485	-0.182	0.128
-453.982	297.137	-0.099	0.182
-452.968	53.897	-0.180	0.172
-451.953	314.398	-0.062	0.116
-450.938	132.416	0.241	0.310
-449.924	-46.946	0.142	-0.069
-448.909	-8.295	0.381	0.256
-447.895	-60.366	0.144	-0.061
-446.880	39.869	-0.203	-0.182
-445.865	-200.000	-0.007	-0.130
-444.851	-137.934	-0.125	0.014
-443.836	800.000	0.039	0.149
-442.822	-26.437	0.347	-0.203
-441.807	247.968	-0.105	0.178
-440.792	-200.000	0.022	-0.151
-439.778	800.000	0.061	0.169
-438.763	75.209	-0.034	-0.035
-437.749	-21.033	-0.197	-0.120
-436.734	46.780	-0.096	-0.089
-435.719	800.000	0.029	-0.103
-434.705	-76.963	-0.271	0.095
-433.690	-124.615	0.010	0.002
-432.676	800.000	-0.011	0.032
-431.661	800.000	0.033	0.097
-430.646	57.336	-0.210	0.205
-429.632	602.752	0.062	0.154
-428.617	800.000	-0.061	-0.259
-427.603	148.743	0.276	-0.372
-426.588	155.752	-0.034	0.046
-425.573	800.000	0.045	-0.131
-424.559	-71.118	-0.253	-0.095
-423.544	-73.306	0.230	0.084
-422.530	-200.000	-0.005	-0.035
-421.515	-137.826	0.185	-0.021
-420.500	800.000	-0.062	-0.207
-419.486	800.000	-0.023	-0.088
-418.471	-200.000	0.012	-0.182
-417.457	78.258	-0.018	-0.019
-416.442	217.740	0.131	0.208
-415.428	-200.000	0.070	0.343
-414.413	-52.953	-0.420	0.193
-413.398	-54.446	-0.081	-0.036
-412.384	140.159	0.191	0.251
-411.369	130.568	-0.164	0.209
-410.355	387.816	0.124	0.255
-409.340	48.151	0.052	0.048
-408.325	200.587	-0.101	-0.154
-407.311	-104.277	0.207	-0.048
-406.296	800.000	0.043	0.121
-405.282	800.000	0.076	0.234
-404.267	-200.000	-0.017	0.134
-403.252	-94.259	-0.225	0.061
-402.238	21.637	0.129	-0.105
-401.223	-200.000	0.041	0.199
-400.209	535.367	-0.040	-0.094
-399.194	496.597	-0.097	-0.221
-398.179	46.331	0.039	0.036
-397.165	25.856	0.037	0.031
-396.150	-200.000	-0.017	0.159
-395.136	-200.000	0.033	-0.152
-394.121	-53.882	-0.264	-0.120
-393.106	800.000	-0.033	0.095
-392.092	800.000	-0.051	0.155
-391.077	66.898	0.206	-0.209
-390.063	800.000	0.116	0.339
-389.048	800.000	0.071	0.263
-388.033	88.530	-0.191	0.211
-387.019	-200.000	-0.029	-0.166
-386.004	-200.000	-0.010	-0.250
-384.990	141.829	0.311	-0.411
-383.975	-63.455	-0.183	-0.075
-382.960	-200.000	0.004	-0.086
-381.946	51.460	-0.146	0.138
-380.931	-127.017	0.193	-0.028
-379.917	-118.060	-0.439	0.078
-378.902	50.272	-0.062	0.058
-377.888	-117.496	-0.265	0.048
-376.873	-200.000	-0.047	0.254
-375.858	-200.000	-0.007	0.100
-374.844	281.723	-0.105	0.187
-373.829	237.727	-0.055	0.091
-372.815	-160.530	0.175	-0.009
-371.800	19.736	-0.390	0.313
-370.785	-113.764	-0.126	0.024
-369.771	-200.000	-0.049	-0.322
-368.756	800.000	0.052	0.172
-367.742	800.000	-0.049	-0.154
-366.727	113.665	0.092	-0.111
-365.712	4.758	-0.124	0.091
-364.698	686.466	-0.048	0.124
-363.683	800.000	-0.124	-0.450
-362.669	247.239	0.244	-0.409
-361.654	-155.767	-0.217	-0.014
-360.639	-114.368	-0.112	0.021
-359.625	37.117	0.050	0.044
-358.610	-67.478	0.155	0.060
-357.596	142.324	0.128	-0.169
-356.581	13.045	0.187	-0.144
-355.566	132.633	-0.261	0.334
-354.552	-157.870	-0.283	0.017
-353.537	-86.845	0.200	0.061
-352.523	-63.130	-0.097	0.040
-351.508	-0.305	0.313	-0.221
-350.493	800.000	-0.039	0.148
-349.479	24.050	-0.271	0.222
-348.464	-7.254	0.211	-0.142
-347.450	-55.713	0.259	0.115
-346.435	-164.922	-0.133	-0.006
-345.420	679.720	0.140	-0.363
-344.406	-200.000	-0.008	0.113
-343.391	-200.000	-0.009	0.207
-342.377	-46.624	0.079	0.038
-341.362	462.381	0.168	-0.374
-340.348	313.342	0.058	-0.108
-339.333	-176.844	0.123	-0.003
-338.318	-158.977	0.344	-0.019
-337.304	-115.243	-0.359	0.068
-336.289	-36.925	-0.037	0.020
-335.275	-76.958	-0.253	-0.088
-334.260	-17.213	-0.128	0.080
-333.245	-200.000	-0.030	0.299
-332.231	704.954	-0.066	0.173
-331.216	-200.000	-0.025	0.480
-330.202	800.000	-0.094	0.342
-329.187	62.703	-0.093	0.092
-328.172	232.539	-0.081	0.132
-327.158	406.302	0.145	0.305
-326.143	68.497	-0.113	0.115
-325.129	-200.000	0.040	0.269
-324.114	-154.662	-0.214	0.014
-323.099	-47.392	0.216	0.105
-322.085	-200.000	-0.013	-0.323
-321.070	43.879	-0.143	0.130
-320.056	-200.000	0.018	0.309
-319.041	324.503	0.094	0.177
-318.026	261.756	0.045	0.077
-317.012	-200.000	0.004	0.105
-315.997	-200.000	-0.012	0.241
-314.983	48.178	0.186	-0.173
-313.968	-57.859	0.060	-0.026
-312.953	800.000	-0.064	0.192
-311.939	-67.687	-0.445	-0.173
-310.924	-200.000	-0.011	-0.242
-309.910	-200.000	-0.015	0.157
-308.895	-81.777	-0.151	-0.049
-307.880	-122.170	-0.318	-0.052
-306.866	19.389	0.245	0.195
-305.851	13.218	0.321	0.246
-304.837	92.878	0.087	-0.098
-303.822	-43.348	-0.167	0.084
-302.807	-200.000	0.009	-0.086
-301.793	33.868	-0.207	0.179
-300.778	-200.000	0.087	0.400
-299.764	-57.545	0.109	0.047
-298.749	-17.256	0.124	-0.077
-297.735	32.497	-0.226	-0.194
-296.720	540.732	0.100	0.237
-295.705	-83.065	-0.059	0.019
-294.691	-133.187	-0.135	0.017
-293.676	-78.174	0.255	-0.087
-292.662	219.327	-0.136	0.216
-291.647	-3.693	0.193	0.133
-290.632	-171.070	-0.397	-0.013
-289.618	39.536	0.036	-0.032
-288.603	496.089	0.182	-0.415
-287.589	-200.000	-0.052	-0.249
-286.574	800.000	0.074	-0.242
-285.559	-81.893	-0.230	-0.075
-284.545	64.877	0.130	0.130
-283.530	103.446	-0.248	-0.289
-282.516	144.427	0.076	-0.101
-281.501	-146.085	0.334	-0.029
-280.486	-200.000	-0.025	0.272
-279.472	144.687	0.164	0.217
-278.457	-14.531	-0.272	-0.173
-277.443	241.235	0.152	0.251
-276.428	-151.538	0.366	-0.027
-275.413	-200.000	-0.023	-0.176
-274.399	312.944	-0.062	0.115
-273.384	-109.850	0.114	0.024
-272.370	-22.559	0.097	-0.058
-271.355	225.780	0.081	-0.130
-270.340	-136.154	0.207	-0.024
-269.326	255.727	0.141	0.239
-268.311	-47.459	-0.210	-0.101
-267.297	-200.000	-0.008	0.227
-266.282	86.760	0.160	0.175
-265.267	-103.707	0.144	-0.033
-264.253	268.145	0.139	0.241
-263.238	638.391	0.087	-0.219
-262.224	-29.073	0.105	-0.060
-261.209	81.141	0.092	0.098
-260.195	676.954	-0.088	-0.226
-259.180	-200.000	-0.121	0.000
-258.165	800.000	0.097	0.321
-257.151	-127.995	-0.186	-0.026
-256.136	-113.230	0.215	-0.042
-255.122	-103.959	0.171	-0.039
-254.107	57.866	-0.102	0.099
-253.092	-100.591	0.057	0.014
-252.078	-68.304	0.164	0.063
-251.063	-200.000	-0.009	-0.094
-250.049	-44.323	-0.104	-0.052
-249.034	-142.874	-0.205	-0.020
-248.019	-51.419	-0.066	0.031
-247.005	-46.134	-0.209	0.102
-245.990	138.593	-0.162	0.211
-244.976	-200.000	0.008	-0.316
-243.961	-200.000	0.015	0.427
-242.946	320.678	-0.100	0.188
-241.932	-136.846	-0.087	0.010
-240.917	800.000	0.031	0.107
-239.903	800.000	0.077	0.266
-238.888	-51.173	-0.349	0.162
-237.873	-107.318	0.312	0.068
-236.859	-57.890	-0.079	0.034
-235.844	46.049	0.146	-0.134
-234.830	9.975	0.339	-0.255
-233.815	231.619	0.167	-0.272
-232.800	147.338	0.027	-0.036
-231.786	71.698	-0.144	-0.148
-230.771	379.624	-0.105	-0.212
-229.757	-122.593	0.189	-0.030
-228.742	48.002	0.079	-0.073
-227.727	-200.000	0.023	-0.175
-226.713	-62.248	0.341	0.141
-225.698	-180.966	-0.126	-0.003
-224.684	-200.000	0.098	0.495
-223.669	-200.000	-0.039	0.267
-222.655	20.389	0.474	-0.379
-221.640	-200.000	0.005	-0.270
-220.625	-200.000	0.014	0.206
-219.611	584.492	0.069	0.168
-218.596	455.169	-0.029	0.064
-217.582	188.374	-0.123	-0.181
-216.567	-159.805	-0.110	0.006
-215.552	68.716	0.166	-0.169
-214.538	-74.862	-0.185	0.066
-213.523	-200.000	-0.005	-0.125
-212.509	-200.000	-0.025	0.152
-211.494	638.065	-0.137	0.343
-210.479	-36.209	0.111	-0.060
-209.465	-144.718	0.095	-0.009
-208.450	11.453	0.259	0.196
-207.436	-104.209	-0.173	-0.040
-206.421	-200.000	-0.016	0.146
-205.406	13.275	0.280	0.215
-204.392	-94.343	-0.314	-0.085
-203.377	105.267	-0.193	-0.226
-202.363	-54.657	-0.106	-0.047
-201.348	28.876	-0.111	-0.093
-200.333	-107.537	-0.135	-0.029
-199.319	-200.000	-0.000	-0.016
-198.304	34.434	0.137	0.119
-197.290	-95.038	0.212	-0.057
-196.275	77.264	-0.159	-0.167
-195.260	-68.398	-0.301	-0.115
-194.246	-200.000	0.017	-0.276
-193.231	-142.205	0.061	-0.006
-192.217	-200.000	0.008	0.258
-191.202	4.458	0.242	-0.175
-190.187	-121.454	-0.144	-0.024
-189.173	385.041	0.128	0.261
-188.158	-200.000	0.056	0.299
-187.144	-165.064	-0.257	-0.011
-186.129	-7.376	0.227	0.152
-185.114	-200.000	-0.034	0.208
-184.100	-75.527	-0.222	-0.078
-183.085	-87.848	0.164	-0.049
-182.071	-200.000	-0.054	-0.239
-181.056	-32.991	-0.201	0.110
-180.042	295.261	0.069	-0.125
-179.027	89.767	0.299	0.330
-178.012	323.881	0.208	-0.392
-176.998	-200.000	-0.057	0.293
-175.983	799.659	0.037	0.099
-174.969	356.893	0.009	-0.018
-173.954	-90.127	-0.255	0.073
-172.939	32.166	0.220	-0.188
-171.925	-86.700	0.227	0.068
-170.910	178.469	0.081	-0.116
-169.896	-200.000	0.047	-0.266
-168.881	-55.327	-0.092	-0.041
-167.866	800.000	-0.080	0.222
-166.852	-76.052	0.251	-0.087
-165.837	-200.000	-0.032	0.182
-164.823	-148.600	-0.207	0.017
-163.808	-53.007	-0.313	0.142
-162.793	-25.898	0.235	0.136
-161.779	136.568	0.056	0.072
-160.764	48.152	0.294	-0.271
-159.750	-64.944	0.225	-0.090
-158.735	389.785	-0.097	0.198
-157.720	686.694	0.210	0.541
-156.706	-100.402	0.097	-0.024
-155.691	-200.000	0.009	-0.212
-154.677	-98.285	-0.273	-0.069
-153.662	129.821	0.056	0.070
-152.647	-89.435	0.151	0.044
-151.633	-12.655	-0.106	-0.068
-150.618	-104.352	0.229	0.052
-149.604	-91.117	-0.183	-0.052
-148.589	-141.105	0.419	-0.042
-147.574	624.682	0.060	-0.148
-146.560	75.644	-0.067	0.070
-145.545	102.345	0.124	0.142
-144.531	-200.000	-0.027	0.292
-143.516	800.000	-0.060	0.177
-142.502	-118.401	0.232	0.041
-141.487	-200.000	-0.033	0.221
-140.472	150.025	-0.043	0.057
-139.458	95.087	-0.194	-0.218
-138.443	-200.000	0.029	-0.221
-137.429	-181.260	0.291	0.006
-136.414	97.430	0.045	-0.051
-135.399	448.725	0.042	-0.091
-134.385	-200.000	0.007	0.126
-133.370	-49.192	0.063	0.030
-132.356	-115.253	0.164	0.031
-131.341	680.973	-0.077	0.199
-130.326	800.000	0.031	-0.091
-129.312	-200.000	0.020	-0.315
-128.297	39.825	0.167	0.148
-127.283	-87.974	0.316	-0.093
-126.268	800.000	-0.057	0.203
-125.253	-183.248	0.264	-0.005
-124.239	-112.524	0.171	-0.034
-123.224	-148.386	0.212	-0.017
-122.210	-133.632	0.151	0.019
