DTS Sentinel unit serial number:	SN413079Multiplexer serial number:	ORYXHardware model number:	OX4-SRSoftware version number:	ORYX F/W v4.00 Oryx Data Collector v3.7.2.0data status	okinstallation	princeton_trtdifferential loss correction	single-endedforward channel	channel 1reverse channel	N/Adate	2019/09/10time	21:28:11forward acquisition time	60.00reverse acquisition time	0.00gamma	496.2192k internal	0.2330k external	0.2330temperature offset calibration	0.9937default loss term (dB/km)	0.3790temperature slope calibration	1.0000multiplexer offset coefficient	1.0000multiplexer slope coefficient	1.0000fibre end	0.00T internal ref (°C)	31.19T ext. ref 1 (°C)	-0.31T ext. ref 2 (°C)	24.39length (m)	temperature (°C)	Stokes	anti-Stokes-747.200	-51.813	-0.069	-0.033
-746.185	800.000	0.073	0.285
-745.171	335.629	0.106	0.208
-744.156	298.729	-0.224	0.415
-743.142	-178.844	-0.089	0.002
-742.127	22.187	0.113	0.093
-741.112	81.571	-0.285	0.311
-740.098	-200.000	0.004	-0.096
-739.083	35.946	-0.269	-0.238
-738.069	16.760	-0.318	0.254
-737.054	18.857	-0.064	0.051
-736.039	800.000	0.087	-0.285
-735.025	208.251	0.214	0.337
-734.010	210.694	-0.192	0.304
-732.996	420.627	-0.073	-0.157
-731.981	-120.670	-0.141	-0.024
-730.966	552.076	-0.145	-0.350
-729.952	-168.280	-0.429	-0.017
-728.937	-112.507	0.044	-0.009
-727.923	378.260	-0.107	-0.220
-726.908	-78.144	-0.407	-0.141
-725.894	-57.781	-0.130	0.057
-724.879	-145.465	0.203	0.018
-723.864	-108.525	-0.238	-0.052
-722.850	-101.566	-0.412	0.101
-721.835	267.552	0.061	-0.108
-720.821	-200.000	0.005	0.047
-719.806	279.429	0.049	-0.087
-718.791	-108.047	-0.239	-0.052
-717.777	187.136	-0.200	-0.301
-716.762	-47.655	-0.127	0.062
-715.748	-73.309	-0.138	-0.051
-714.733	-36.322	0.272	-0.147
-713.718	-200.000	0.037	-0.415
-712.704	113.543	-0.174	-0.212
-711.689	-200.000	0.063	-0.276
-710.675	-134.872	-0.071	-0.009
-709.660	800.000	-0.023	-0.068
-708.645	319.700	-0.141	0.270
-707.631	-113.289	0.338	-0.067
-706.616	-177.395	0.190	0.005
-705.602	182.583	-0.014	0.021
-704.587	-10.399	-0.092	0.061
-703.572	-37.016	-0.296	-0.160
-702.558	-200.000	0.015	0.231
-701.543	108.549	-0.174	-0.208
-700.529	-200.000	0.016	-0.150
-699.514	-68.997	0.160	-0.062
-698.499	103.197	-0.179	-0.211
-697.485	-37.697	-0.316	0.169
-696.470	87.405	-0.165	-0.184
-695.456	-200.000	-0.045	0.222
-694.441	-200.000	-0.006	0.181
-693.426	-20.664	-0.239	0.148
-692.412	-59.137	-0.202	-0.087
-691.397	-74.944	0.211	-0.076
-690.383	-39.230	-0.438	-0.231
-689.368	-200.000	-0.013	-0.297
-688.354	414.617	0.091	-0.195
-687.339	-200.000	-0.008	0.370
-686.324	293.201	-0.077	-0.140
-685.310	179.239	-0.121	0.178
-684.295	-34.105	0.160	-0.088
-683.281	183.283	0.134	-0.198
-682.266	-12.417	-0.254	-0.167
-681.251	-58.531	0.025	0.011
-680.237	12.882	0.194	0.150
-679.222	-116.896	0.096	-0.018
-678.208	149.493	-0.205	0.278
-677.193	800.000	-0.090	-0.331
-676.178	368.591	0.071	-0.145
-675.164	-75.499	-0.134	-0.048
-674.149	-43.652	-0.243	0.123
-673.135	-19.857	-0.047	0.029
-672.120	202.185	0.238	0.368
-671.105	-200.000	0.035	0.524
-670.091	-138.575	-0.094	0.010
-669.076	555.980	-0.046	-0.112
-668.062	-190.878	-0.263	0.003
-667.047	-160.094	0.115	-0.006
-666.032	30.233	-0.071	0.061
-665.018	-200.000	0.013	0.371
-664.003	353.364	-0.108	0.215
-662.989	-200.000	-0.004	-0.060
-661.974	243.436	0.158	0.266
-660.959	-163.271	0.126	0.006
-659.945	800.000	-0.040	-0.132
-658.930	-54.882	0.267	-0.121
-657.916	-135.007	-0.292	-0.035
-656.901	-200.000	0.010	-0.238
-655.886	-161.607	0.119	-0.006
-654.872	51.443	-0.371	-0.354
-653.857	-5.066	-0.259	-0.179
-652.843	-100.721	0.202	-0.050
-651.828	85.240	-0.144	0.159
-650.814	-13.191	-0.092	-0.060
-649.799	64.422	-0.166	0.167
-648.784	-145.890	-0.362	0.032
-647.770	-59.005	0.422	0.183
-646.755	-39.318	0.168	0.089
-645.741	-200.000	-0.022	-0.261
-644.726	582.213	-0.104	0.255
-643.711	-129.205	0.130	-0.018
-642.697	-200.000	0.010	-0.112
-641.682	800.000	-0.048	-0.199
-640.668	-200.000	0.018	0.141
-639.653	40.662	-0.244	0.221
-638.638	-67.359	-0.271	-0.107
-637.624	333.365	-0.061	-0.118
-636.609	734.917	0.086	-0.231
-635.595	24.450	-0.098	0.082
-634.580	-52.912	-0.316	0.146
-633.565	29.922	0.100	0.085
-632.551	357.519	-0.163	-0.326
-631.536	-90.621	0.337	0.098
-630.522	-103.467	0.180	-0.042
-629.507	-156.427	0.118	0.007
-628.492	-9.907	0.258	0.172
-627.478	-18.932	-0.263	-0.164
-626.463	-175.490	0.207	-0.006
-625.449	-51.889	0.228	-0.106
-624.434	800.000	-0.022	0.097
-623.419	-200.000	-0.001	-0.116
-622.405	-200.000	-0.013	-0.093
-621.390	-200.000	0.011	0.058
-620.376	-134.492	0.206	-0.025
-619.361	-200.000	-0.026	-0.121
-618.346	800.000	0.095	-0.351
-617.332	-34.763	0.108	0.059
-616.317	446.417	-0.117	-0.258
-615.303	410.108	0.082	-0.173
-614.288	275.743	-0.094	0.166
-613.273	134.795	-0.287	0.373
-612.259	-9.069	-0.181	0.121
-611.244	305.493	0.192	0.358
-610.230	617.135	0.095	-0.239
-609.215	686.341	-0.062	-0.163
-608.201	-152.671	0.268	0.019
-607.186	64.876	-0.188	0.190
-606.171	240.740	-0.197	0.329
-605.157	-153.828	-0.222	-0.015
-604.142	49.971	0.072	-0.068
-603.128	18.360	-0.060	-0.048
-602.113	-200.000	-0.007	-0.151
-601.098	-44.095	0.381	0.192
-600.084	474.751	0.123	-0.277
-599.069	36.903	0.095	-0.084
-598.055	-83.415	-0.190	-0.061
-597.040	-108.817	-0.174	-0.037
-596.025	-27.516	-0.068	0.040
-595.011	127.510	-0.268	0.340
-593.996	-5.988	-0.176	0.120
-592.982	-65.176	0.068	0.027
-591.967	39.180	-0.146	-0.131
-590.952	-153.676	0.187	0.013
-589.938	56.475	0.277	-0.269
-588.923	-200.000	0.022	0.106
-587.909	-145.399	0.109	0.010
-586.894	800.000	0.065	0.236
-585.879	-169.811	0.306	-0.011
-584.865	-38.531	0.309	-0.163
-583.850	-200.000	0.029	-0.222
-582.836	-200.000	-0.002	-0.110
-581.821	-200.000	-0.038	-0.226
-580.806	48.245	-0.082	-0.077
-579.792	-70.539	-0.229	-0.087
-578.777	-46.305	-0.230	0.113
-577.763	-106.125	0.103	0.023
-576.748	-200.000	-0.070	-0.392
-575.733	-200.000	0.016	-0.176
-574.719	-200.000	0.045	0.258
-573.704	-82.886	-0.108	-0.035
-572.690	320.176	0.148	0.281
-571.675	205.657	0.145	-0.225
-570.661	-133.541	-0.218	0.027
-569.646	144.238	0.194	0.258
-568.631	261.292	0.086	0.149
-567.617	656.523	0.141	0.363
-566.602	800.000	0.082	0.345
-565.588	-9.687	-0.157	0.104
-564.573	41.794	-0.124	0.112
-563.558	749.310	-0.065	-0.174
-562.544	-200.000	0.010	-0.071
-561.529	-14.956	-0.197	-0.126
-560.515	-47.057	-0.222	-0.108
-559.500	94.727	-0.238	-0.270
-558.485	44.612	0.190	-0.175
-557.471	-143.373	0.455	0.044
-556.456	-200.000	0.011	0.131
-555.442	-60.660	0.250	-0.106
-554.427	-200.000	-0.009	-0.423
-553.412	-84.528	0.143	-0.045
-552.398	-67.773	0.114	0.045
-551.383	103.763	0.152	0.179
-550.369	-105.449	-0.054	-0.012
-549.354	-14.713	0.239	-0.153
-548.339	194.066	0.102	-0.154
-547.325	176.704	-0.169	0.246
-546.310	-89.141	0.129	-0.038
-545.296	46.773	-0.220	0.204
-544.281	-200.000	0.016	-0.139
-543.266	652.294	0.053	0.135
-542.252	109.622	-0.163	0.195
-541.237	-113.108	-0.157	0.031
-540.223	-200.000	0.000	-0.011
-539.208	150.719	0.158	0.214
-538.193	-39.257	-0.266	-0.140
-537.179	245.108	0.093	0.157
-536.164	-200.000	0.004	0.062
-535.150	-35.767	0.269	0.146
-534.135	-153.694	-0.135	-0.009
-533.121	-111.499	-0.153	-0.031
-532.106	800.000	-0.043	-0.152
-531.091	-160.640	0.352	-0.019
-530.077	-67.568	0.161	0.063
-529.062	-17.963	-0.108	0.068
-528.048	-200.000	0.043	-0.385
-527.033	-19.307	0.110	-0.068
-526.018	93.966	-0.093	0.106
-525.004	3.136	0.138	0.100
-523.989	153.271	-0.098	0.134
-522.975	-200.000	0.051	0.492
-521.960	800.000	-0.147	0.505
-520.945	-64.192	0.080	-0.032
-519.931	-200.000	-0.026	-0.294
-518.916	-33.566	-0.091	0.050
-517.902	20.618	0.076	0.061
-516.887	237.926	-0.120	0.199
-515.872	-51.810	0.275	0.128
-514.858	-178.236	-0.381	-0.009
-513.843	-189.782	0.069	-0.001
-512.829	-200.000	0.057	0.320
-511.814	72.743	-0.118	0.123
-510.799	-87.249	-0.045	0.014
-509.785	-107.078	0.510	-0.112
-508.770	-200.000	-0.384	-0.002
-507.756	149.535	-0.176	-0.237
-506.741	-5.870	-0.177	0.121
-505.726	-42.416	0.322	-0.164
-504.712	493.952	-0.117	0.267
-503.697	800.000	-0.065	-0.188
-502.683	29.954	-0.063	-0.054
-501.668	480.425	0.023	0.052
-500.653	151.567	-0.176	0.239
-499.639	318.484	-0.143	0.270
-498.624	133.221	0.235	0.303
-497.610	-134.736	-0.245	0.030
-496.595	-78.546	0.165	-0.056
-495.581	-41.806	-0.082	0.042
-494.566	-44.902	0.027	0.013
-493.551	243.670	-0.244	-0.408
-492.537	3.837	-0.330	0.240
-491.522	-108.024	-0.297	-0.064
-490.508	32.689	-0.364	-0.314
-489.493	-200.000	-0.031	0.267
-488.478	-200.000	-0.021	0.325
-487.464	-16.744	0.129	-0.081
-486.449	-200.000	-0.125	0.653
-485.435	96.412	0.264	0.301
-484.420	-200.000	-0.015	0.163
-483.405	-28.470	0.207	0.119
-482.391	44.429	-0.081	-0.074
-481.376	-140.286	-0.140	-0.015
-480.362	289.550	-0.080	0.144
-479.347	-65.830	-0.229	0.091
-478.332	-123.731	-0.272	0.043
-477.318	81.094	0.058	0.062
-476.303	-126.930	0.277	0.041
-475.289	251.955	0.103	0.175
-474.274	-171.499	-0.323	-0.011
-473.259	95.530	0.133	0.152
-472.245	-26.624	-0.159	-0.093
-471.230	-107.878	-0.389	-0.084
-470.216	-100.426	-0.246	0.061
-469.201	-200.000	-0.010	-0.271
-468.186	456.783	-0.046	0.102
-467.172	-72.570	0.462	0.170
-466.157	-88.102	-0.251	0.075
-465.143	476.670	-0.098	0.221
-464.128	-130.117	-0.173	0.023
-463.113	-36.698	0.331	-0.177
-462.099	32.129	-0.114	0.098
-461.084	-58.445	-0.272	0.117
-460.070	168.674	0.122	-0.173
-459.055	290.738	-0.149	-0.270
-458.040	708.043	-0.091	-0.238
-457.026	115.830	-0.047	-0.058
-456.011	385.455	-0.019	0.039
-454.997	-111.975	0.091	-0.018
-453.982	255.500	-0.046	0.078
-452.968	10.930	0.355	0.270
-451.953	-200.000	-0.004	-0.137
-450.938	800.000	0.049	-0.210
-449.924	-49.363	0.156	-0.074
-448.909	51.934	-0.129	-0.122
-447.895	-107.970	0.435	0.094
-446.880	800.000	0.093	-0.342
-445.865	-5.497	0.311	-0.212
-444.851	41.325	-0.130	-0.117
-443.836	-122.715	0.368	-0.059
-442.822	-200.000	-0.024	-0.314
-441.807	-9.794	-0.200	-0.133
-440.792	148.947	0.061	0.082
-439.778	162.722	0.128	0.178
-438.763	96.947	0.145	0.166
-437.749	-96.773	0.262	0.069
-436.734	-67.960	0.365	0.142
-435.719	-84.713	-0.062	0.019
-434.705	50.654	-0.376	0.354
-433.690	800.000	0.059	-0.227
-432.676	-200.000	0.035	0.228
-431.661	-200.000	-0.034	-0.198
-430.646	-200.000	0.001	0.284
-429.632	28.474	-0.039	0.033
-428.617	-158.749	0.309	-0.018
-427.603	545.375	-0.176	-0.418
-426.588	800.000	0.028	0.090
-425.573	-126.685	-0.026	0.004
-424.559	800.000	0.200	-0.657
-423.544	-134.438	-0.102	0.012
-422.530	-158.791	0.130	0.007
-421.515	-200.000	-0.002	-0.051
-420.500	53.922	-0.235	-0.225
-419.486	-22.018	0.179	-0.108
-418.471	154.897	0.031	0.043
-417.457	154.070	-0.059	-0.081
-416.442	-200.000	0.031	0.180
-415.428	89.097	-0.148	0.164
-414.413	800.000	-0.113	0.391
-413.398	235.644	0.143	-0.235
-412.384	-88.596	-0.257	0.076
-411.369	-39.912	-0.052	-0.027
-410.355	-100.876	-0.240	-0.059
-409.340	800.000	0.030	0.096
-408.325	-96.559	-0.058	0.015
-407.311	159.481	0.290	0.401
-406.296	-200.000	-0.043	0.349
-405.282	-200.000	-0.013	-0.117
-404.267	192.331	-0.086	0.129
-403.252	119.522	0.244	0.300
-402.238	40.345	-0.206	0.184
-401.223	442.779	0.157	-0.341
-400.209	358.449	0.040	-0.078
-399.194	125.128	-0.124	0.156
-398.179	104.751	-0.150	0.175
-397.165	-144.652	-0.169	-0.015
-396.150	-81.004	0.217	0.071
-395.136	-94.358	0.153	0.042
-394.121	-20.863	0.137	-0.084
-393.106	259.623	0.076	-0.130
-392.092	741.992	0.080	-0.213
-391.077	24.996	-0.233	0.192
-390.063	-66.557	0.424	0.167
-389.048	73.711	-0.127	0.133
-388.033	-112.906	0.247	-0.049
-387.019	-200.000	0.066	0.302
-386.004	27.332	0.096	0.080
-384.990	-81.905	-0.264	0.086
-383.975	-200.000	-0.021	0.179
-382.960	223.546	0.080	0.128
-381.946	92.490	0.236	-0.264
-380.931	108.161	0.118	-0.140
-379.917	25.936	0.246	-0.203
-378.902	-200.000	-0.009	-0.091
-377.888	-76.352	-0.105	-0.037
-376.873	-7.045	-0.344	0.232
-375.858	-200.000	0.021	0.266
-374.844	58.982	-0.318	0.310
-373.829	-200.000	0.021	0.118
-372.815	-75.580	0.216	0.076
-371.800	-126.425	-0.252	0.037
-370.785	-33.737	0.358	-0.196
-369.771	-200.000	-0.044	-0.309
-368.756	234.705	-0.136	-0.223
-367.742	34.180	0.166	0.143
-366.727	174.502	0.065	-0.093
-365.712	-200.000	0.019	-0.143
-364.698	-62.772	0.145	-0.060
-363.683	-89.000	-0.342	-0.100
-362.669	183.994	0.042	0.061
-361.654	800.000	0.068	-0.210
-360.639	-46.799	0.206	-0.100
-359.625	-200.000	0.007	-0.135
-358.610	-17.601	-0.093	0.058
-357.596	-200.000	0.016	-0.342
-356.581	374.090	0.095	0.192
-355.566	800.000	-0.047	0.199
-354.552	-159.149	-0.388	-0.022
-353.537	-25.380	-0.269	0.158
-352.523	-44.060	-0.161	0.080
-351.508	663.978	-0.042	-0.107
-350.493	-200.000	-0.019	-0.321
-349.479	-77.457	0.210	-0.072
-348.464	-200.000	-0.014	-0.153
-347.450	361.300	-0.124	0.247
-346.435	-200.000	0.053	-0.474
-345.420	-151.497	0.430	0.032
-344.406	125.355	-0.214	0.268
-343.391	-79.356	-0.379	-0.127
-342.377	464.675	0.090	0.201
-341.362	69.373	-0.237	0.242
-340.348	289.160	0.106	-0.190
-339.333	-112.101	0.401	0.080
-338.318	-99.755	-0.178	0.044
-337.304	-36.869	-0.272	-0.144
-336.289	-200.000	0.033	-0.283
-335.275	111.248	-0.157	0.187
-334.260	-53.892	-0.325	-0.147
-333.245	800.000	0.044	-0.187
-332.231	102.759	0.178	-0.206
-331.216	82.739	0.070	-0.075
-330.202	276.376	-0.035	-0.061
-329.187	124.282	0.116	-0.144
-328.172	340.444	0.179	0.346
-327.158	-200.000	0.009	0.200
-326.143	679.987	0.079	-0.203
-325.129	-55.301	0.095	-0.042
-324.114	-31.084	0.188	0.105
-323.099	-43.125	-0.105	0.053
-322.085	31.371	0.254	-0.216
-321.070	37.244	-0.228	-0.200
-320.056	-30.321	-0.201	0.113
-319.041	-172.602	-0.097	-0.003
-318.026	442.670	-0.045	0.097
-317.012	326.519	-0.046	0.087
-315.997	-9.892	-0.373	0.246
-314.983	-200.000	-0.031	0.227
-313.968	121.508	-0.174	0.215
-312.953	-143.984	-0.470	-0.044
-311.939	543.393	0.180	-0.424
-310.924	-84.978	0.103	-0.032
-309.910	249.685	-0.100	-0.168
-308.895	-4.263	-0.243	-0.166
-307.880	-152.808	-0.366	-0.026
-306.866	-46.994	-0.166	-0.080
-305.851	109.972	0.161	0.192
-304.837	-200.000	0.025	0.221
-303.822	-200.000	-0.398	-0.002
-302.807	236.941	0.145	0.237
-301.793	800.000	-0.079	-0.242
-300.778	94.112	0.176	0.198
-299.764	-19.386	-0.190	0.116
-298.749	-200.000	0.021	-0.352
-297.735	-39.487	-0.055	0.029
-296.720	3.752	0.073	0.052
-295.705	-48.005	0.240	-0.115
-294.691	-200.000	-0.011	-0.246
-293.676	53.857	0.144	-0.137
-292.662	-5.100	-0.118	0.080
-291.647	-106.541	0.322	-0.071
-290.632	-130.983	-0.067	-0.009
-289.618	-118.647	-0.248	-0.043
-288.603	146.397	0.039	-0.052
-287.589	-15.029	0.131	0.083
-286.574	5.007	-0.291	-0.212
-285.559	-200.000	0.037	0.220
-284.545	58.828	0.088	0.085
-283.530	-200.000	-0.015	-0.298
-282.516	-148.033	-0.356	0.029
-281.501	-120.940	-0.247	-0.041
-280.486	146.071	-0.078	0.104
-279.472	476.436	-0.058	0.130
-278.457	323.549	-0.116	-0.219
-277.443	501.906	-0.059	0.134
-276.428	39.978	0.129	-0.114
-275.413	116.174	-0.058	0.070
-274.399	273.905	-0.096	0.168
-273.384	-150.033	0.083	-0.006
-272.370	23.312	-0.166	0.135
-271.355	35.669	-0.053	-0.046
-270.340	-200.000	-0.015	-0.195
-269.326	195.565	0.041	-0.062
-268.311	604.016	-0.110	-0.272
-267.297	-51.549	-0.071	-0.033
-266.282	-50.639	-0.462	-0.215
-265.267	-41.727	-0.306	-0.155
-264.253	437.954	-0.093	0.201
-263.238	-200.000	0.012	0.211
-262.224	-89.699	-0.015	-0.004
-261.209	166.762	-0.116	0.163
-260.195	-200.000	0.003	-0.104
-259.180	-200.000	0.007	0.187
-258.165	82.606	0.163	-0.175
-257.151	-154.293	0.239	-0.016
-256.136	38.323	0.176	-0.155
-255.122	-200.000	0.077	0.334
-254.107	-200.000	-0.041	0.341
-253.092	-123.552	0.192	0.030
-252.078	192.942	-0.036	-0.053
-251.063	800.000	0.053	-0.207
-250.049	-200.000	-0.005	-0.025
-249.034	-30.685	-0.230	0.129
-248.019	-108.963	0.159	0.034
-247.005	298.779	0.175	-0.319
-245.990	-27.539	-0.363	-0.208
-244.976	-49.676	0.223	0.105
-243.961	-200.000	0.006	0.102
-242.946	94.656	-0.207	-0.233
-241.932	200.201	0.135	-0.205
-240.917	-46.175	0.147	-0.071
-239.903	99.873	0.400	-0.457
-238.888	33.759	0.184	-0.158
-237.873	-4.912	-0.134	0.091
-236.859	554.854	-0.035	-0.084
-235.844	800.000	0.084	0.295
-234.830	129.040	0.198	0.250
-233.815	-200.000	0.032	-0.181
-232.800	-72.331	0.264	-0.097
-231.786	-79.301	-0.260	0.087
-230.771	140.988	-0.144	-0.188
-229.757	485.208	0.085	0.190
-228.742	312.985	0.085	0.157
-227.727	-149.309	0.185	0.015
-226.713	126.671	-0.101	0.126
-225.698	-8.360	0.224	-0.149
-224.684	-154.908	0.089	-0.006
-223.669	31.327	-0.149	0.126
-222.655	446.970	0.029	-0.063
-221.640	345.344	-0.143	0.277
-220.625	-88.024	0.090	0.027
-219.611	-34.570	0.066	-0.035
-218.596	-200.000	0.019	-0.205
-217.582	-15.803	0.318	-0.200
-216.567	26.407	0.106	0.087
-215.552	-200.000	-0.026	-0.246
-214.538	-158.570	0.015	0.001
-213.523	-200.000	0.081	0.370
-212.509	-89.389	0.179	-0.052
-211.494	-160.463	-0.255	0.013
-210.479	18.899	0.183	-0.145
-209.465	-200.000	0.009	-0.062
-208.450	-49.044	-0.395	0.187
-207.436	-58.819	0.094	-0.040
-206.421	-93.166	0.108	0.030
-205.406	-160.892	0.395	-0.021
-204.392	-115.956	0.402	-0.074
-203.377	-200.000	0.007	-0.121
-202.363	-200.000	-0.017	0.211
-201.348	800.000	-0.013	0.039
-200.333	800.000	-0.050	-0.160
-199.319	470.018	0.110	-0.243
-198.304	75.069	0.138	0.143
-197.290	-69.888	-0.184	-0.069
-196.275	281.495	-0.042	0.075
-195.260	800.000	0.078	0.318
-194.246	-35.031	0.193	0.104
-193.231	-146.841	0.296	-0.025
-192.217	-73.534	0.236	-0.085
-191.202	-139.367	-0.227	0.024
-190.187	632.335	0.106	0.265
-189.173	57.501	0.070	0.067
-188.158	109.033	-0.078	-0.092
-187.144	-16.209	0.424	-0.265
-186.129	800.000	0.092	-0.305
-185.114	45.797	-0.159	-0.145
-184.100	-58.532	-0.093	-0.040
-183.085	800.000	-0.042	-0.148
-182.071	267.172	-0.117	-0.202
-181.056	-200.000	-0.003	0.343
-180.042	142.912	0.037	0.049
-179.027	-26.184	0.162	-0.094
-178.012	-24.999	0.148	-0.086
-176.998	-56.886	0.205	-0.089
-175.983	-200.000	0.016	-0.304
-174.969	800.000	0.100	-0.323
-173.954	274.956	0.087	0.151
-172.939	-34.574	-0.290	0.157
-171.925	233.817	0.056	-0.091
-170.910	91.211	-0.074	-0.082
-169.896	-200.000	0.004	-0.139
-168.881	-30.232	-0.436	-0.244
-167.866	41.656	-0.206	-0.184
-166.852	608.213	0.045	-0.112
-165.837	379.787	0.026	0.052
-164.823	-162.025	0.284	0.014
-163.808	332.717	0.086	0.163
-162.793	549.095	0.132	0.311
-161.779	-200.000	0.079	-0.389
-160.764	380.300	0.130	-0.263
-159.750	5.514	-0.194	0.141
-158.735	558.033	-0.113	0.268
-157.720	-142.459	-0.134	-0.013
-156.706	-129.926	-0.210	0.028
-155.691	37.337	0.179	0.156
-154.677	503.194	0.045	0.102
-153.662	323.847	-0.028	-0.052
-152.647	-200.000	-0.001	-0.051
-151.633	-200.000	-0.044	-0.219
-150.618	-125.684	0.123	0.018
-149.604	117.661	0.133	-0.161
-148.589	83.685	0.133	0.143
-147.574	800.000	-0.010	-0.041
-146.560	125.789	0.069	-0.086
-145.545	-149.047	-0.646	0.051
-144.531	-200.000	-0.038	-0.248
-143.516	188.045	0.092	0.136
-142.502	-64.350	0.273	-0.109
-141.487	213.265	-0.134	-0.209
-140.472	-121.876	0.282	0.046
-139.458	800.000	-0.066	0.213
-138.443	-6.126	0.139	0.094
-137.429	177.634	0.057	0.081
-136.414	36.709	-0.072	-0.062
-135.399	161.040	0.211	-0.289
-134.385	-128.635	0.278	0.039
-133.370	332.496	0.051	0.097
-132.356	74.554	0.147	0.152
-131.341	800.000	-0.103	-0.335
-130.326	205.076	-0.120	0.184
-129.312	57.024	0.131	-0.126
-128.297	-25.402	0.242	-0.141
-127.283	275.107	0.124	-0.216
-126.268	26.228	-0.164	0.135
-125.253	-114.053	0.386	0.074
-124.239	-147.099	-0.158	-0.013
-123.224	-200.000	0.029	0.180
-122.210	70.438	-0.117	-0.119
