DTS Sentinel unit serial number:	SN413079Multiplexer serial number:	ORYXHardware model number:	OX4-SRSoftware version number:	ORYX F/W v4.00 Oryx Data Collector v3.7.2.0data status	okinstallation	princeton_trtdifferential loss correction	single-endedforward channel	channel 1reverse channel	N/Adate	2019/09/14time	07:46:35forward acquisition time	60.00reverse acquisition time	0.00gamma	496.2192k internal	0.2336k external	0.2336temperature offset calibration	1.0073default loss term (dB/km)	0.3790temperature slope calibration	1.0000multiplexer offset coefficient	1.0000multiplexer slope coefficient	1.0000fibre end	0.00T internal ref (°C)	26.44T ext. ref 1 (°C)	3.48T ext. ref 2 (°C)	22.69length (m)	temperature (°C)	Stokes	anti-Stokes-747.200	209.408	0.155	-0.244
-746.185	-134.180	-0.336	0.042
-745.171	73.738	-0.196	0.206
-744.156	133.476	-0.197	0.256
-743.142	17.231	0.154	-0.122
-742.127	30.986	0.216	-0.186
-741.112	520.582	-0.169	0.397
-740.098	-81.741	0.076	0.025
-739.083	-200.000	0.056	-0.282
-738.069	-200.000	0.000	0.027
-737.054	179.378	0.089	-0.131
-736.039	457.387	-0.064	-0.142
-735.025	-54.067	0.213	0.097
-734.010	-200.000	-0.323	0.000
-732.996	-102.959	-0.456	-0.109
-731.981	-18.609	-0.213	-0.133
-730.966	-200.000	0.130	-0.593
-729.952	29.101	-0.266	-0.227
-728.937	58.049	-0.108	-0.106
-727.923	-200.000	0.001	0.241
-726.908	-39.794	0.136	0.071
-725.894	86.146	-0.087	-0.096
-724.879	115.483	-0.171	0.210
-723.864	-70.534	0.346	-0.132
-722.850	192.202	0.110	-0.167
-721.835	283.668	-0.114	-0.206
-720.821	-118.332	0.230	0.041
-719.806	-175.785	-0.056	0.002
-718.791	-65.105	0.238	-0.096
-717.777	5.848	0.217	-0.161
-716.762	-200.000	0.060	-0.286
-715.748	91.222	-0.176	-0.198
-714.733	173.685	-0.069	0.099
-713.718	40.206	0.284	0.257
-712.704	12.755	0.389	0.302
-711.689	-114.607	-0.164	-0.031
-710.675	-65.196	0.283	-0.114
-709.660	-200.000	0.084	0.466
-708.645	800.000	-0.060	0.170
-707.631	580.115	0.055	0.134
-706.616	-200.000	0.025	0.127
-705.602	355.596	0.036	-0.072
-704.587	-200.000	-0.005	0.027
-703.572	-136.128	-0.351	-0.041
-702.558	-200.000	-0.015	0.265
-701.543	-200.000	0.049	-0.303
-700.529	-200.000	-0.019	-0.192
-699.514	10.738	0.170	-0.130
-698.499	160.548	-0.114	-0.159
-697.485	-110.978	0.303	0.062
-696.470	-101.344	-0.240	-0.059
-695.456	9.866	0.163	0.124
-694.441	494.054	-0.127	-0.292
-693.426	-96.783	-0.512	-0.135
-692.412	260.944	0.124	-0.214
-691.397	-200.000	-0.044	-0.309
-690.383	31.530	0.075	0.064
-689.368	150.195	0.044	-0.060
-688.354	-200.000	0.046	0.249
-687.339	-200.000	-0.022	0.260
-686.324	-34.676	-0.334	0.183
-685.310	-63.931	-0.318	0.130
-684.295	-21.531	0.055	-0.034
-683.281	-158.893	-0.367	0.021
-682.266	-43.476	0.355	0.180
-681.251	-79.255	0.108	0.037
-680.237	270.943	-0.247	-0.435
-679.222	-74.269	0.183	-0.066
-678.208	-131.563	-0.321	0.042
-677.193	-132.398	0.123	0.016
-676.178	-200.000	-0.022	-0.517
-675.164	-200.000	-0.011	-0.167
-674.149	-38.947	-0.254	0.134
-673.135	-85.512	0.134	-0.042
-672.120	702.138	0.036	0.096
-671.105	-55.444	-0.147	-0.066
-670.091	645.683	0.093	-0.238
-669.076	800.000	-0.017	0.062
-668.062	66.389	0.346	-0.352
-667.047	-200.000	0.023	0.130
-666.032	-153.597	0.235	0.016
-665.018	-18.527	-0.170	-0.106
-664.003	-1.380	0.269	0.190
-662.989	-10.776	-0.214	-0.142
-661.974	800.000	-0.064	0.204
-660.959	110.015	0.266	0.319
-659.945	-37.628	0.166	0.088
-658.930	-200.000	0.002	-0.058
-657.916	-200.000	-0.006	0.054
-656.901	-85.156	-0.360	0.113
-655.886	178.183	0.234	0.341
-654.872	173.523	-0.111	0.160
-653.857	582.253	-0.080	-0.197
-652.843	94.922	-0.132	0.150
-651.828	-166.922	-0.345	0.014
-650.814	800.000	-0.152	0.434
-649.799	-162.612	0.342	0.017
-648.784	-106.717	-0.110	0.025
-647.770	-104.754	-0.192	0.044
-646.755	1.977	-0.170	0.123
-645.741	-117.788	-0.166	0.030
-644.726	249.907	-0.159	0.271
-643.711	72.958	-0.097	0.101
-642.697	800.000	-0.046	0.161
-641.682	80.249	-0.191	0.206
-640.668	-200.000	-0.004	0.275
-639.653	83.853	-0.145	0.158
-638.638	-200.000	0.185	0.001
-637.624	-84.347	-0.453	-0.143
-636.609	-117.833	0.149	-0.027
-635.595	-29.675	0.022	0.012
-634.580	-97.883	-0.129	0.033
-633.565	800.000	0.107	-0.438
-632.551	-84.705	0.179	0.056
-631.536	-200.000	0.090	-0.548
-630.522	148.878	0.237	-0.320
-629.507	46.750	-0.185	0.171
-628.492	55.216	0.125	-0.121
-627.478	-87.954	0.217	0.065
-626.463	-3.225	-0.394	-0.275
-625.449	103.155	-0.134	-0.157
-624.434	-200.000	-0.029	0.252
-623.419	-151.160	0.260	0.019
-622.405	-52.376	-0.075	-0.035
-621.390	-83.835	0.409	-0.130
-620.376	767.022	-0.004	-0.012
-619.361	-88.444	0.109	0.032
-618.346	455.999	0.043	0.096
-617.332	-123.684	-0.518	0.082
-616.317	-187.935	-0.106	0.001
-615.303	153.512	0.137	-0.187
-614.288	52.184	0.238	-0.227
-613.273	50.724	0.119	-0.113
-612.259	-200.000	0.004	-0.044
-611.244	29.579	0.408	-0.346
-610.230	-96.927	0.219	0.057
-609.215	-33.534	-0.103	0.057
-608.201	27.158	-0.085	-0.071
-607.186	-200.000	0.025	0.483
-606.171	-148.674	-0.356	-0.029
-605.157	-77.028	-0.127	0.044
-604.142	191.137	-0.054	0.081
-603.128	-200.000	0.045	0.344
-602.113	431.300	-0.147	-0.317
-601.098	800.000	-0.057	0.219
-600.084	34.418	0.086	-0.075
-599.069	-200.000	-0.045	-0.263
-598.055	800.000	-0.029	-0.081
-597.040	-13.293	-0.152	-0.099
-596.025	142.833	-0.040	-0.053
-595.011	135.155	-0.080	0.104
-593.996	-200.000	-0.086	-0.433
-592.982	800.000	0.034	0.134
-591.967	-122.303	-0.366	0.060
-590.952	-103.666	-0.257	-0.060
-589.938	375.261	0.030	-0.060
-588.923	-117.723	-0.212	-0.038
-587.909	-23.545	-0.105	-0.063
-586.894	800.000	0.022	-0.082
-585.879	-200.000	0.019	-0.090
-584.865	800.000	0.032	-0.117
-583.850	323.079	0.085	-0.162
-582.836	86.212	-0.227	-0.249
-581.821	412.667	-0.033	-0.069
-580.806	191.015	-0.227	0.341
-579.792	-200.000	0.026	0.141
-578.777	800.000	-0.067	0.293
-577.763	57.388	-0.149	0.145
-576.748	800.000	-0.074	-0.226
-575.733	142.797	0.123	-0.163
-574.719	800.000	-0.118	0.436
-573.704	201.068	-0.125	0.192
-572.690	38.947	-0.091	-0.081
-571.675	-135.321	0.159	0.019
-570.661	198.602	0.146	-0.223
-569.646	157.767	0.279	-0.385
-568.631	259.630	0.223	-0.383
-567.617	-147.954	-0.403	0.033
-566.602	-98.042	0.089	-0.023
-565.588	-116.738	-0.067	0.012
-564.573	-200.000	0.051	-0.245
-563.558	333.254	0.057	0.109
-562.544	-86.221	0.264	-0.081
-561.529	436.557	0.102	0.221
-560.515	470.331	-0.102	0.229
-559.500	-46.702	-0.206	-0.101
-558.485	513.711	0.140	0.325
-557.471	177.830	0.093	-0.135
-556.456	-76.159	-0.061	-0.022
-555.442	800.000	-0.055	0.233
-554.427	-200.000	-0.014	0.147
-553.412	38.186	-0.192	0.170
-552.398	677.923	0.126	-0.327
-551.383	-91.394	0.449	-0.128
-550.369	-70.004	0.235	0.089
-549.354	-11.666	-0.043	0.028
-548.339	-200.000	-0.063	0.292
-547.325	189.125	-0.100	0.149
-546.310	-49.177	0.156	-0.074
-545.296	-200.000	0.031	-0.290
-544.281	225.472	0.290	0.468
-543.266	-33.639	-0.183	0.101
-542.252	19.095	0.195	0.156
-541.237	169.154	-0.240	0.341
-540.223	612.636	0.175	0.437
-539.208	-107.727	0.174	-0.038
-538.193	13.166	0.135	0.105
-537.179	-200.000	-0.013	0.134
-536.164	547.666	0.109	-0.260
-535.150	-50.303	0.093	-0.044
-534.135	-12.495	-0.206	0.134
-533.121	-82.614	-0.058	0.019
-532.106	354.186	0.109	0.215
-531.091	311.719	0.088	-0.164
-530.077	240.066	0.129	0.214
-529.062	-100.590	-0.328	0.081
-528.048	-200.000	-0.005	0.264
-527.033	-56.667	-0.131	0.058
-526.018	90.835	0.256	0.286
-525.004	-23.468	0.328	-0.196
-523.989	-200.000	0.019	-0.252
-522.975	279.464	-0.161	-0.286
-521.960	140.457	0.166	0.218
-520.945	-9.310	-0.112	0.075
-519.931	-41.359	-0.297	-0.152
-518.916	41.850	-0.236	0.213
-517.902	-200.000	0.036	0.192
-516.887	-200.000	0.044	0.241
-515.872	134.723	0.199	-0.256
-514.858	-45.860	-0.153	0.075
-513.843	-109.905	-0.132	0.028
-512.829	165.122	0.047	0.065
-511.814	29.527	-0.133	0.113
-510.799	-56.958	-0.382	0.168
-509.785	92.534	0.230	-0.258
-508.770	125.804	-0.098	0.123
-507.756	800.000	0.084	0.276
-506.741	-73.009	0.260	-0.095
-505.726	-200.000	0.085	-0.425
-504.712	-108.155	0.152	0.033
-503.697	-178.283	0.142	0.003
-502.683	-200.000	0.038	0.178
-501.668	79.302	0.336	-0.359
-500.653	398.595	0.111	0.230
-499.639	-63.831	-0.278	-0.113
-498.624	13.369	-0.064	-0.050
-497.610	-71.709	-0.377	0.140
-496.595	-200.000	0.011	-0.170
-495.581	75.336	-0.126	-0.132
-494.566	205.004	-0.189	-0.292
-493.551	93.731	0.107	-0.121
-492.537	-200.000	0.022	-0.312
-491.522	-200.000	0.026	0.200
-490.508	-32.340	-0.239	-0.133
-489.493	-134.587	-0.252	0.031
-488.478	-200.000	-0.032	-0.193
-487.464	-137.761	-0.318	0.036
-486.449	-13.573	0.296	-0.191
-485.435	720.683	0.061	-0.161
-484.420	-131.402	-0.229	0.030
-483.405	-128.446	0.033	0.005
-482.391	-59.212	-0.278	-0.119
-481.376	-5.874	0.250	0.170
-480.362	-200.000	-0.011	0.094
-479.347	-37.342	-0.004	0.002
-478.332	-22.585	-0.132	-0.079
-477.318	-200.000	-0.034	0.173
-476.303	800.000	0.071	0.226
-475.289	31.389	0.246	-0.210
-474.274	76.932	0.228	-0.241
-473.259	118.053	0.236	-0.289
-472.245	-73.059	-0.098	-0.036
-471.230	-164.973	0.039	-0.002
-470.216	-200.000	-0.002	-0.124
-469.201	-36.670	-0.167	-0.089
-468.186	456.155	-0.145	0.320
-467.172	-59.770	0.219	-0.093
-466.157	-200.000	0.018	0.086
-465.143	170.667	-0.167	-0.238
-464.128	-51.277	-0.194	-0.090
-463.113	-37.935	-0.134	-0.071
-462.099	-134.112	0.324	-0.040
-461.084	-67.009	0.165	-0.065
-460.070	780.276	0.101	-0.275
-459.055	-19.103	0.143	-0.088
-458.040	466.335	-0.169	-0.376
-457.026	-200.000	-0.007	0.140
-456.011	292.888	0.227	-0.411
-454.997	66.863	0.264	-0.267
-453.982	53.712	0.074	-0.070
-452.968	-190.904	-0.024	-0.000
-451.953	-131.719	-0.226	-0.029
-450.938	139.256	0.051	-0.066
-449.924	164.090	0.096	0.134
-448.909	307.735	-0.082	-0.152
-447.895	90.555	-0.075	-0.084
-446.880	-6.551	0.279	0.189
-445.865	-200.000	-0.023	-0.220
-444.851	-19.082	-0.234	-0.145
-443.836	105.020	-0.064	-0.075
-442.822	145.288	0.101	0.135
-441.807	-95.522	-0.362	0.096
-440.792	46.042	-0.156	0.144
-439.778	-200.000	0.083	0.379
-438.763	53.399	-0.136	0.130
-437.749	-3.068	-0.116	0.080
-436.734	-146.262	-0.321	0.028
-435.719	800.000	0.045	0.137
-434.705	-200.000	0.003	-0.017
-433.690	27.237	0.124	0.104
-432.676	800.000	-0.017	-0.056
-431.661	457.931	0.125	0.275
-430.646	-39.086	-0.042	-0.022
-429.632	-66.898	0.144	-0.057
-428.617	-200.000	0.001	-0.016
-427.603	40.628	0.155	-0.139
-426.588	534.505	0.028	0.066
-425.573	-72.530	0.543	-0.199
-424.559	83.821	0.220	0.239
-423.544	800.000	0.077	-0.213
-422.530	800.000	0.026	0.104
-421.515	800.000	-0.119	0.393
-420.500	91.186	-0.077	-0.086
-419.486	-200.000	0.083	0.375
-418.471	-12.456	0.096	0.062
-417.457	-131.805	-0.366	0.048
-416.442	-2.000	0.087	-0.060
-415.428	-54.856	-0.166	-0.074
-414.413	86.340	-0.197	-0.215
-413.398	319.279	0.072	-0.135
-412.384	-97.988	-0.314	0.080
-411.369	800.000	-0.053	-0.192
-410.355	-17.744	-0.200	0.124
-409.340	-200.000	-0.019	0.129
-408.325	-55.462	-0.308	0.137
-407.311	-34.976	0.453	-0.245
-406.296	-52.380	0.262	-0.120
-405.282	-200.000	-0.004	0.045
-404.267	-71.820	-0.156	0.057
-403.252	5.098	-0.154	-0.113
-402.238	359.593	0.085	-0.168
-401.223	-200.000	-0.008	-0.652
-400.209	101.990	0.105	0.122
-399.194	800.000	0.093	0.367
-398.179	-31.034	-0.311	-0.174
-397.165	367.924	-0.047	-0.094
-396.150	800.000	-0.049	-0.149
-395.136	86.935	-0.275	-0.301
-394.121	-200.000	-0.094	-0.449
-393.106	800.000	-0.078	0.284
-392.092	800.000	0.115	0.349
-391.077	-200.000	-0.077	0.483
-390.063	154.698	0.052	0.071
-389.048	-43.850	0.257	-0.128
-388.033	-86.872	0.334	0.101
-387.019	-200.000	-0.011	0.337
-386.004	-200.000	0.020	0.113
-384.990	-61.269	0.158	0.066
-383.975	180.132	-0.123	-0.179
-382.960	-76.635	0.157	-0.055
-381.946	-200.000	0.005	0.067
-380.931	800.000	-0.110	0.433
-379.917	137.124	-0.093	-0.120
-378.902	-68.454	-0.174	-0.067
-377.888	632.892	-0.119	0.297
-376.873	-65.144	-0.237	-0.095
-375.858	179.994	-0.075	-0.109
-374.844	-120.388	0.327	-0.055
-373.829	-156.148	-0.166	-0.010
-372.815	61.225	0.081	-0.080
-371.800	-145.811	-0.170	-0.015
-370.785	42.533	-0.258	-0.233
-369.771	-42.719	0.357	-0.180
-368.756	-200.000	0.029	-0.189
-367.742	-92.762	-0.314	0.087
-366.727	-79.677	-0.313	0.104
-365.712	89.305	-0.113	0.125
-364.698	-108.842	0.120	-0.025
-363.683	52.245	0.217	0.205
-362.669	154.870	0.063	-0.085
-361.654	-200.000	0.021	-0.187
-360.639	-49.094	0.321	-0.152
-359.625	-39.429	0.097	-0.050
-358.610	800.000	0.021	0.087
-357.596	243.373	0.120	-0.200
-356.581	25.637	-0.420	-0.346
-355.566	360.400	0.043	0.084
-354.552	82.992	0.184	-0.197
-353.537	-38.445	-0.244	-0.128
-352.523	-135.764	0.173	-0.020
-351.508	-200.000	-0.019	0.126
-350.493	-120.945	0.039	0.007
-349.479	-32.145	-0.485	0.268
-348.464	359.243	0.152	0.300
-347.450	472.701	-0.240	-0.534
-346.435	-98.072	0.243	0.062
-345.420	-152.029	-0.085	0.006
-344.406	-131.800	-0.159	-0.021
-343.391	-54.115	0.473	0.213
-342.377	158.643	-0.098	0.135
-341.362	-113.545	0.095	0.018
-340.348	-181.283	0.370	-0.007
-339.333	-200.000	0.006	0.186
-338.318	83.100	0.078	-0.084
-337.304	-66.268	-0.371	-0.146
-336.289	-28.999	0.095	0.054
-335.275	26.069	-0.386	-0.319
-334.260	122.716	-0.101	-0.125
-333.245	-83.516	0.148	0.047
-332.231	73.652	-0.221	-0.229
-331.216	27.926	0.318	-0.265
-330.202	800.000	0.040	0.159
-329.187	800.000	0.044	0.166
-328.172	-87.123	-0.190	-0.057
-327.158	-84.525	-0.377	0.118
-326.143	-200.000	0.025	-0.216
-325.129	52.252	-0.155	0.146
-324.114	205.281	-0.033	0.050
-323.099	-200.000	0.000	0.245
-322.085	-83.981	0.194	0.061
-321.070	-136.736	0.230	-0.026
-320.056	-77.922	0.099	0.034
-319.041	63.412	0.203	0.201
-318.026	800.000	0.077	0.326
-317.012	800.000	0.101	-0.282
-315.997	-41.233	-0.123	-0.063
-314.983	-77.460	-0.195	-0.067
-313.968	-39.248	-0.345	-0.179
-312.953	-150.369	-0.362	-0.028
-311.939	-200.000	-0.014	-0.407
-310.924	-75.913	-0.238	0.083
-309.910	-50.032	0.149	0.070
-308.895	-106.119	0.249	0.055
-307.880	151.750	-0.131	0.176
-306.866	-89.724	0.242	-0.070
-305.851	-200.000	0.051	0.298
-304.837	-112.912	-0.166	0.033
-303.822	-200.000	0.016	0.370
-302.807	-108.964	0.336	0.071
-301.793	-200.000	0.043	0.196
-300.778	28.409	-0.203	0.169
-299.764	-41.213	0.217	0.110
-298.749	-200.000	-0.034	0.207
-297.735	-56.770	-0.191	-0.083
-296.720	-200.000	-0.018	-0.427
-295.705	-200.000	0.019	-0.094
-294.691	-98.567	0.212	-0.054
-293.676	800.000	-0.022	-0.078
-292.662	800.000	-0.161	-0.454
-291.647	5.991	0.186	-0.136
-290.632	71.985	-0.108	0.111
-289.618	-34.531	-0.163	0.088
-288.603	120.095	0.140	-0.171
-287.589	-110.702	0.181	-0.037
-286.574	800.000	-0.041	0.162
-285.559	-69.916	0.273	-0.103
-284.545	131.044	0.136	-0.173
-283.530	-119.713	-0.091	0.015
-282.516	56.273	0.104	-0.100
-281.501	203.250	-0.128	0.195
-280.486	-200.000	0.018	0.099
-279.472	800.000	0.124	0.359
-278.457	-183.310	0.227	0.004
-277.443	-154.806	0.218	-0.014
-276.428	317.218	0.070	-0.131
-275.413	270.028	-0.199	0.346
-274.399	800.000	0.011	-0.036
-273.384	198.274	0.167	0.252
-272.370	29.810	-0.201	0.168
-271.355	76.017	-0.135	0.141
-270.340	-43.678	-0.114	-0.057
-269.326	-200.000	0.027	0.215
-268.311	-16.922	-0.053	0.033
-267.297	290.833	0.076	0.136
-266.282	-42.399	-0.138	-0.069
-265.267	-87.815	-0.183	-0.054
-264.253	-200.000	0.018	0.126
-263.238	-14.327	-0.037	-0.024
-262.224	1.385	0.129	-0.091
-261.209	-25.947	0.395	0.229
-260.195	18.736	-0.141	0.111
-259.180	-63.802	-0.143	0.058
-258.165	-96.326	0.158	0.041
-257.151	53.277	0.115	-0.108
-256.136	-35.884	0.082	0.044
-255.122	0.263	-0.164	0.115
-254.107	152.124	-0.092	0.124
-253.092	800.000	0.055	0.183
-252.078	800.000	0.081	0.222
-251.063	212.498	0.024	0.038
-250.049	-45.066	0.181	0.089
-249.034	4.494	-0.087	0.063
-248.019	565.235	0.024	-0.056
-247.005	-135.296	-0.300	-0.035
-245.990	-117.562	0.113	-0.020
-244.976	-200.000	0.015	-0.156
-243.961	-200.000	-0.052	-0.342
-242.946	7.807	0.191	0.141
-241.932	-200.000	0.007	0.089
-240.917	166.196	0.056	0.078
-239.903	-200.000	0.002	0.014
-238.888	-90.127	-0.070	-0.020
-237.873	-2.902	0.208	-0.143
-236.859	800.000	-0.038	0.143
-235.844	-77.047	0.107	-0.037
-234.830	-96.469	0.509	-0.132
-233.815	-200.000	-0.008	0.150
-232.800	421.583	-0.045	-0.094
-231.786	-200.000	-0.037	0.377
-230.771	19.984	0.215	0.171
-229.757	237.371	0.185	-0.302
-228.742	304.125	0.096	0.175
-227.727	-200.000	-0.013	-0.162
-226.713	-27.458	0.289	0.165
-225.698	53.598	-0.249	-0.235
-224.684	-123.298	-0.077	-0.012
-223.669	371.263	0.175	-0.349
-222.655	-132.304	0.136	-0.017
-221.640	348.357	0.141	0.273
-220.625	-116.351	-0.074	0.014
-219.611	-200.000	-0.009	-0.313
-218.596	197.476	-0.049	-0.074
-217.582	-98.449	-0.450	0.113
-216.567	219.496	-0.115	0.181
-215.552	-200.000	0.010	0.099
-214.538	-200.000	0.028	-0.132
-213.523	83.316	0.164	-0.175
-212.509	108.617	-0.182	-0.214
-211.494	-200.000	0.001	0.156
-210.479	-12.779	-0.136	-0.087
-209.465	700.255	-0.088	-0.229
-208.450	-4.094	0.137	0.093
-207.436	127.622	-0.084	0.104
-206.421	126.949	-0.037	-0.046
-205.406	-200.000	0.049	-0.396
-204.392	22.710	-0.224	-0.181
-203.377	-200.000	-0.001	0.227
-202.363	0.409	-0.141	0.099
-201.348	-28.220	-0.167	-0.095
-200.333	236.369	0.144	0.235
-199.319	43.567	-0.386	0.347
-198.304	219.529	-0.085	-0.134
-197.290	-200.000	0.038	0.183
-196.275	800.000	0.110	-0.462
-195.260	37.935	-0.316	0.276
-194.246	7.791	-0.204	-0.150
-193.231	305.369	-0.088	-0.160
-192.217	238.311	0.086	-0.141
-191.202	-200.000	-0.002	-0.258
-190.187	-85.897	0.200	-0.061
-189.173	-77.915	0.278	0.094
-188.158	-153.922	0.182	0.012
-187.144	-93.353	0.302	0.082
-186.129	800.000	0.086	-0.342
-185.114	-62.531	0.269	0.110
-184.100	110.526	-0.012	-0.014
-183.085	115.526	-0.089	0.107
-182.071	800.000	-0.043	0.142
-181.056	36.367	0.212	-0.184
-180.042	794.509	-0.115	0.312
-179.027	134.938	-0.213	0.271
-178.012	-77.732	0.073	-0.025
-176.998	-112.162	0.360	0.071
-175.983	-83.120	-0.117	-0.037
-174.969	-66.062	0.164	-0.064
-173.954	-103.972	0.287	-0.066
-172.939	-135.248	0.084	-0.010
-171.925	-91.736	0.217	0.061
-170.910	213.978	0.207	0.322
-169.896	-200.000	-0.050	0.364
-168.881	-200.000	-0.012	0.183
-167.866	156.123	0.069	0.093
-166.852	-44.045	0.062	-0.031
-165.837	216.240	-0.060	-0.094
-164.823	-133.581	0.299	-0.037
-163.808	-200.000	-0.009	-0.295
-162.793	-200.000	0.000	-0.391
-161.779	-142.003	0.052	0.005
-160.764	-131.821	-0.375	0.048
-159.750	-200.000	0.010	0.109
-158.735	-0.218	-0.159	0.111
-157.720	673.013	-0.059	0.150
-156.706	-122.078	-0.181	0.029
-155.691	800.000	0.015	-0.062
-154.677	-52.113	-0.439	0.200
-153.662	-6.973	0.206	-0.137
-152.647	34.340	0.241	-0.206
-151.633	215.712	-0.063	-0.098
-150.618	-144.730	-0.219	0.020
-149.604	-47.641	0.095	0.045
-148.589	96.270	0.222	0.249
-147.574	-151.557	-0.365	-0.027
-146.560	211.490	-0.068	-0.105
-145.545	133.743	-0.109	-0.138
-144.531	-116.661	-0.245	0.044
-143.516	34.445	-0.231	-0.198
-142.502	-101.401	0.412	0.099
-141.487	800.000	-0.030	-0.120
-140.472	-1.659	-0.124	0.086
-139.458	83.393	-0.075	-0.080
-138.443	104.956	0.120	0.138
-137.429	-30.150	0.436	0.243
-136.414	800.000	0.071	0.235
-135.399	-143.951	0.476	-0.044
-134.385	385.893	0.086	-0.174
-133.370	598.296	-0.097	0.236
-132.356	-77.719	-0.502	0.170
-131.341	334.565	0.143	0.272
-130.326	307.196	0.278	0.509
-129.312	82.129	0.163	-0.173
-128.297	-57.966	0.291	0.125
-127.283	-168.605	-0.317	-0.012
-126.268	100.655	0.173	0.198
-125.253	-156.143	0.238	0.015
-124.239	549.302	-0.108	0.255
-123.224	-62.235	0.183	0.075
-122.210	-106.109	-0.358	-0.079
-121.195	62.663	-0.257	0.252
