DTS Sentinel unit serial number:	SN413079Multiplexer serial number:	ORYXHardware model number:	OX4-SRSoftware version number:	ORYX F/W v4.00 Oryx Data Collector v3.7.2.0data status	okinstallation	princeton_trtdifferential loss correction	single-endedforward channel	channel 1reverse channel	N/Adate	2019/09/10time	19:36:11forward acquisition time	60.00reverse acquisition time	0.00gamma	496.2192k internal	0.2321k external	0.2321temperature offset calibration	0.9928default loss term (dB/km)	0.3790temperature slope calibration	1.0000multiplexer offset coefficient	1.0000multiplexer slope coefficient	1.0000fibre end	0.00T internal ref (°C)	33.31T ext. ref 1 (°C)	-0.34T ext. ref 2 (°C)	26.09length (m)	temperature (°C)	Stokes	anti-Stokes-747.200	-200.000	0.016	0.127
-746.185	-200.000	0.015	0.232
-745.171	-200.000	0.001	0.143
-744.156	-200.000	0.015	0.446
-743.142	622.919	-0.038	-0.098
-742.127	-106.702	0.177	0.040
-741.112	87.241	-0.078	0.087
-740.098	199.150	-0.212	0.328
-739.083	-157.285	-0.231	0.014
-738.069	-92.321	-0.155	-0.044
-737.054	362.648	0.093	0.190
-736.039	-59.463	-0.323	0.140
-735.025	-200.000	0.039	-0.267
-734.010	800.000	0.073	-0.223
-732.996	347.518	-0.087	-0.172
-731.981	154.496	0.107	-0.148
-730.966	412.675	0.060	-0.129
-729.952	105.079	-0.114	-0.136
-728.937	-200.000	0.037	-0.201
-727.923	800.000	0.007	0.025
-726.908	-117.157	0.223	-0.041
-725.894	428.163	-0.171	0.373
-724.879	-200.000	0.012	0.097
-723.864	309.219	0.150	-0.284
-722.850	63.971	0.175	0.177
-721.835	-98.909	-0.262	0.067
-720.821	800.000	0.093	-0.390
-719.806	-200.000	0.010	-0.152
-718.791	-106.361	0.211	0.048
-717.777	46.518	-0.219	-0.205
-716.762	116.507	-0.065	-0.080
-715.748	-41.786	-0.204	0.106
-714.733	394.806	-0.192	-0.405
-713.718	-123.853	-0.183	-0.029
-712.704	-200.000	0.008	-0.154
-711.689	9.759	0.048	0.037
-710.675	-200.000	0.047	-0.274
-709.660	-20.233	-0.346	-0.215
-708.645	-6.881	0.410	0.281
-707.631	20.441	-0.157	-0.128
-706.616	-200.000	-0.065	-0.302
-705.602	-90.919	0.334	0.097
-704.587	-68.450	-0.230	0.090
-703.572	-43.386	-0.152	-0.078
-702.558	443.170	0.172	0.380
-701.543	241.542	-0.223	-0.376
-700.529	101.278	0.149	-0.175
-699.514	-200.000	-0.009	-0.084
-698.499	-126.097	-0.187	0.028
-697.485	-200.000	0.393	-0.001
-696.470	-132.029	0.180	-0.024
-695.456	-127.524	-0.386	-0.057
-694.441	300.571	-0.079	-0.147
-693.426	-126.974	0.167	-0.025
-692.412	759.007	0.035	-0.097
-691.397	800.000	0.025	-0.095
-690.383	-200.000	-0.051	-0.274
-689.368	-106.591	-0.263	-0.059
-688.354	-162.666	0.166	0.008
-687.339	-160.417	0.256	0.014
-686.324	185.405	0.135	0.202
-685.310	-200.000	-0.010	-0.296
-684.295	213.052	-0.210	0.334
-683.281	-88.690	0.165	-0.049
-682.266	-200.000	0.021	-0.267
-681.251	148.884	0.249	0.340
-680.237	-30.618	-0.419	-0.239
-679.222	-80.359	0.094	-0.032
-678.208	19.261	0.215	0.174
-677.193	41.360	-0.051	-0.046
-676.178	-27.856	0.190	0.111
-675.164	-200.000	0.033	0.242
-674.149	593.470	0.068	-0.169
-673.135	124.412	-0.247	-0.314
-672.120	-58.673	0.177	-0.077
-671.105	-58.396	0.204	-0.089
-670.091	800.000	0.030	-0.120
-669.076	800.000	-0.063	-0.259
-668.062	-200.000	-0.008	-0.125
-667.047	-200.000	0.015	-0.101
-666.032	116.859	0.227	0.281
-665.018	104.188	0.045	0.054
-664.003	-67.483	-0.179	-0.071
-662.989	-39.513	0.111	-0.059
-661.974	252.453	-0.156	-0.268
-660.959	48.724	-0.424	0.400
-659.945	386.209	0.096	-0.200
-658.930	-150.334	-0.071	0.006
-657.916	146.960	0.119	0.161
-656.901	-200.000	-0.157	0.000
-655.886	-27.921	0.158	0.092
-654.872	800.000	-0.053	0.170
-653.857	-200.000	0.002	0.321
-652.843	-21.489	-0.062	-0.038
-651.828	-200.000	0.024	-0.109
-650.814	-200.000	-0.005	-0.153
-649.799	-54.593	-0.221	-0.101
-648.784	336.808	-0.171	0.334
-647.770	629.331	0.065	-0.165
-646.755	-146.999	0.153	0.013
-645.741	-33.876	-0.284	0.158
-644.726	-200.000	-0.005	0.265
-643.711	-58.877	-0.186	0.081
-642.697	137.452	0.074	0.098
-641.682	800.000	-0.029	0.090
-640.668	-200.000	0.071	-0.476
-639.653	-200.000	0.073	-0.371
-638.638	88.459	0.249	0.279
-637.624	681.059	-0.085	-0.223
-636.609	293.953	0.181	-0.333
-635.595	492.460	-0.111	-0.255
-634.580	71.794	-0.168	0.175
-633.565	628.857	-0.069	-0.175
-632.551	138.076	0.025	0.033
-631.536	134.309	-0.068	0.089
-630.522	272.606	-0.269	-0.477
-629.507	-127.989	-0.464	0.067
-628.492	-10.958	0.087	0.058
-627.478	193.129	-0.254	-0.386
-626.463	-23.978	-0.158	-0.095
-625.449	-200.000	-0.009	-0.065
-624.434	389.798	-0.038	0.080
-623.419	-58.094	0.118	0.052
-622.405	20.306	0.199	-0.162
-621.390	568.986	-0.115	0.282
-620.376	-200.000	-0.002	0.223
-619.361	-22.762	0.092	0.056
-618.346	-200.000	0.020	-0.332
-617.332	144.879	-0.084	-0.114
-616.317	-110.651	0.019	-0.004
-615.303	-57.930	0.091	0.040
-614.288	-123.924	-0.135	0.021
-613.273	-170.977	-0.244	0.008
-612.259	800.000	-0.033	-0.093
-611.244	190.532	-0.054	0.082
-610.230	800.000	0.021	-0.074
-609.215	-200.000	0.002	0.330
-608.201	67.357	-0.120	-0.123
-607.186	-124.800	-0.260	-0.040
-606.171	-91.011	0.113	-0.033
-605.157	-200.000	-0.007	-0.350
-604.142	220.884	0.236	-0.381
-603.128	505.006	-0.175	-0.407
-602.113	-200.000	-0.040	0.427
-601.098	-9.893	0.277	-0.185
-600.084	-200.000	0.047	-0.254
-599.069	-126.569	-0.188	0.028
-598.055	-169.096	-0.107	-0.004
-597.040	239.968	0.223	0.374
-596.025	61.976	0.184	-0.184
-595.011	-54.334	0.232	0.106
-593.996	-200.000	-0.009	0.198
-592.982	-117.526	-0.130	-0.024
-591.967	-107.011	0.245	0.054
-590.952	-150.456	-0.397	0.031
-589.938	-121.147	-0.259	0.044
-588.923	-67.986	-0.153	-0.060
-587.909	42.441	-0.190	0.174
-586.894	-161.485	-0.426	0.022
-585.879	357.162	-0.161	0.322
-584.865	800.000	0.036	-0.113
-583.850	-200.000	0.029	-0.245
-582.836	-58.792	0.182	0.079
-581.821	-200.000	0.033	-0.352
-580.806	800.000	0.070	-0.221
-579.792	493.985	0.148	0.340
-578.777	508.265	-0.175	-0.409
-577.763	-200.000	0.020	-0.172
-576.748	24.545	0.232	-0.193
-575.733	293.507	-0.259	-0.475
-574.719	88.732	-0.224	-0.251
-573.704	-200.000	-0.013	-0.078
-572.690	800.000	0.036	-0.121
-571.675	716.643	-0.044	-0.118
-570.661	170.451	0.135	0.193
-569.646	-200.000	-0.001	0.098
-568.631	-2.208	0.189	-0.133
-567.617	-200.000	0.006	-0.066
-566.602	3.723	0.221	0.162
-565.588	431.218	0.181	0.394
-564.573	75.092	-0.020	-0.022
-563.558	60.504	0.192	-0.191
-562.544	117.760	-0.280	-0.346
-561.529	-120.632	0.053	-0.009
-560.515	-86.245	0.208	-0.064
-559.500	-130.009	-0.206	-0.028
-558.485	25.041	-0.227	0.189
-557.471	208.901	-0.089	0.140
-556.456	-81.537	0.184	-0.061
-555.442	220.534	-0.049	0.078
-554.427	56.788	0.141	0.138
-553.412	-68.447	-0.163	0.064
-552.398	800.000	-0.028	-0.106
-551.383	-44.079	-0.191	-0.096
-550.369	-89.649	-0.166	-0.049
-549.354	-93.573	-0.317	0.088
-548.339	237.133	-0.090	-0.150
-547.325	436.995	0.040	0.087
-546.310	560.847	-0.115	-0.280
-545.296	-79.268	-0.238	0.081
-544.281	-200.000	0.034	-0.211
-543.266	-200.000	0.041	0.224
-542.252	-79.605	-0.177	0.060
-541.237	732.500	-0.025	-0.067
-540.223	-76.658	0.129	0.045
-539.208	-167.135	0.161	0.007
-538.193	-200.000	0.014	-0.165
-537.179	-200.000	-0.028	0.258
-536.164	-0.406	-0.164	0.117
-535.150	-139.670	0.171	-0.018
-534.135	800.000	0.063	0.257
-533.121	50.695	-0.200	0.190
-532.106	800.000	-0.156	-0.520
-531.091	453.546	0.054	-0.121
-530.077	-200.000	0.070	-0.322
-529.062	-96.416	0.086	0.023
-528.048	-144.044	0.213	-0.020
-527.033	181.462	-0.053	-0.078
-526.018	-142.760	-0.165	-0.016
-525.004	800.000	-0.055	-0.237
-523.989	-59.877	0.157	0.067
-522.975	-21.854	-0.069	-0.042
-521.960	-6.337	-0.240	-0.164
-520.945	-199.626	-0.225	-0.001
-519.931	-81.341	0.300	0.099
-518.916	-121.349	-0.078	0.013
-517.902	111.975	0.103	-0.125
-516.887	581.325	0.035	-0.086
-515.872	-137.072	-0.050	-0.006
-514.858	-200.000	-0.017	-0.289
-513.843	-55.645	0.127	0.057
-512.829	37.822	-0.093	0.083
-511.814	158.936	-0.156	-0.217
-510.799	-160.587	-0.289	-0.015
-509.785	39.161	-0.218	0.195
-508.770	20.454	0.197	-0.160
-507.756	-17.366	0.195	0.123
-506.741	-200.000	-0.068	0.370
-505.726	-200.000	-0.011	-0.095
-504.712	124.911	0.034	0.043
-503.697	207.017	-0.055	-0.086
-502.683	-94.304	0.066	0.018
-501.668	306.991	-0.137	0.255
-500.653	-61.874	0.454	0.190
-499.639	-118.511	0.248	-0.044
-498.624	156.483	0.240	-0.331
-497.610	10.374	0.165	0.126
-496.595	28.333	-0.348	0.295
-495.581	-127.320	0.317	-0.046
-494.566	25.492	0.072	0.060
-493.551	-111.972	-0.101	-0.020
-492.537	9.928	0.124	-0.094
-491.522	-12.055	-0.164	0.107
-490.508	15.744	-0.135	0.106
-489.493	-16.851	0.185	0.117
-488.478	-99.606	0.115	0.029
-487.464	-200.000	-0.008	-0.178
-486.449	121.331	-0.091	0.114
-485.435	-103.372	-0.115	0.027
-484.420	77.131	0.091	-0.097
-483.405	319.195	0.107	-0.203
-482.391	-21.932	0.045	-0.027
-481.376	194.060	-0.106	0.161
-480.362	-30.586	-0.176	-0.099
-479.347	102.948	0.215	-0.251
-478.332	94.665	-0.119	0.136
-477.318	-87.641	0.176	0.053
-476.303	73.246	0.211	0.220
-475.289	420.637	0.093	-0.199
-474.274	-25.735	-0.084	-0.050
-473.259	800.000	-0.009	-0.032
-472.245	-58.777	-0.380	-0.164
-471.230	-100.367	-0.269	0.067
-470.216	-200.000	-0.024	-0.507
-469.201	-46.623	0.102	0.050
-468.186	306.604	0.184	0.342
-467.172	106.287	0.100	-0.119
-466.157	800.000	-0.117	0.357
-465.143	218.035	-0.156	0.249
-464.128	190.210	0.045	0.068
-463.113	267.688	0.055	0.096
-462.099	-30.643	0.458	-0.259
-461.084	-78.060	-0.314	0.108
-460.070	800.000	0.050	0.161
-459.055	-45.949	-0.173	-0.085
-458.040	53.386	0.038	0.036
-457.026	-168.323	0.313	0.012
-456.011	62.236	-0.067	-0.067
-454.997	-81.514	-0.523	0.172
-453.982	-155.961	0.128	-0.008
-452.968	-79.823	0.252	0.085
-451.953	-28.030	-0.191	0.111
-450.938	21.477	0.340	0.276
-449.924	-27.642	0.377	0.219
-448.909	800.000	0.086	0.306
-447.895	800.000	0.037	-0.133
-446.880	219.002	0.249	-0.398
-445.865	-116.157	0.146	0.027
-444.851	800.000	0.070	0.214
-443.836	800.000	0.076	0.310
-442.822	-200.000	0.012	-0.058
-441.807	109.842	0.202	-0.242
-440.792	233.877	-0.196	0.322
-439.778	800.000	0.020	0.073
-438.763	-200.000	-0.012	-0.290
-437.749	-99.180	0.049	-0.012
-436.734	-70.583	0.312	0.118
-435.719	-135.470	0.267	-0.032
-434.705	-89.056	-0.286	0.084
-433.690	132.653	-0.095	-0.122
-432.676	156.771	0.041	-0.056
-431.661	-4.845	0.342	-0.235
-430.646	356.053	-0.141	0.280
-429.632	337.390	-0.040	0.077
-428.617	-135.754	-0.395	0.047
-427.603	800.000	0.078	-0.219
-426.588	44.365	0.196	-0.180
-425.573	-88.200	-0.303	0.091
-424.559	-82.085	0.495	-0.161
-423.544	-200.000	-0.014	0.134
-422.530	-97.017	0.134	-0.035
-421.515	34.174	0.089	-0.078
-420.500	-20.986	-0.160	0.097
-419.486	-200.000	-0.019	0.173
-418.471	407.284	0.116	0.245
-417.457	800.000	-0.015	-0.051
-416.442	-200.000	-0.023	-0.184
-415.428	-117.216	0.212	0.038
-414.413	-90.692	0.019	-0.006
-413.398	15.946	0.236	-0.185
-412.384	-200.000	-0.062	-0.330
-411.369	-123.536	0.138	-0.022
-410.355	243.611	0.150	-0.251
-409.340	0.330	0.212	-0.151
-408.325	52.842	-0.069	0.066
-407.311	300.770	-0.056	-0.104
-406.296	-158.097	-0.125	0.007
-405.282	5.587	0.156	-0.115
-404.267	-200.000	0.020	0.130
-403.252	74.851	0.105	0.110
-402.238	46.325	0.102	0.094
-401.223	325.486	0.019	-0.037
-400.209	-94.756	-0.168	0.045
-399.194	217.972	-0.173	0.275
-398.179	-117.693	-0.345	-0.062
-397.165	69.250	-0.103	-0.106
-396.150	-200.000	0.048	-0.217
-395.136	-106.047	-0.130	0.029
-394.121	-117.786	-0.168	0.030
-393.106	-58.056	0.097	-0.042
-392.092	-200.000	0.015	0.277
-391.077	-98.272	-0.129	-0.033
-390.063	-1.096	0.095	-0.067
-389.048	-200.000	-0.014	0.118
-388.033	-200.000	-0.041	0.280
-387.019	168.337	-0.147	-0.208
-386.004	63.312	-0.112	0.112
-384.990	800.000	-0.076	0.312
-383.975	704.632	0.100	-0.262
-382.960	340.124	0.125	-0.243
-381.946	-130.098	-0.172	0.023
-380.931	19.670	0.180	0.145
-379.917	-102.982	0.286	-0.068
-378.902	800.000	0.011	0.047
-377.888	-174.197	0.178	-0.005
-376.873	-76.857	0.258	0.090
-375.858	-77.781	0.073	-0.025
-374.844	232.683	-0.183	0.300
-373.829	-31.258	-0.125	0.070
-372.815	14.623	-0.322	-0.251
-371.800	-70.340	-0.243	0.092
-370.785	26.430	-0.142	0.118
-369.771	65.349	0.092	-0.093
-368.756	-7.068	0.147	0.100
-367.742	-104.576	0.231	0.053
-366.727	212.016	0.102	-0.160
-365.712	-200.000	0.017	-0.078
-364.698	66.871	0.089	0.090
-363.683	53.273	-0.097	-0.093
-362.669	503.062	-0.046	0.105
-361.654	-9.058	-0.326	0.217
-360.639	-49.024	0.240	0.114
-359.625	103.070	0.118	0.137
-358.610	800.000	0.018	0.051
-357.596	16.989	-0.093	0.073
-356.581	15.908	-0.291	-0.228
-355.566	800.000	-0.044	0.161
-354.552	-197.579	0.141	-0.001
-353.537	-200.000	-0.002	0.053
-352.523	-120.265	-0.304	-0.052
-351.508	-200.000	-0.017	0.075
-350.493	56.424	0.136	0.131
-349.479	-200.000	-0.012	-0.131
-348.464	800.000	0.071	-0.219
-347.450	-200.000	-0.003	0.190
-346.435	-200.000	0.012	-0.422
-345.420	-40.213	-0.102	-0.053
-344.406	800.000	-0.085	0.271
-343.391	-56.741	-0.048	0.021
-342.377	-121.532	-0.151	0.025
-341.362	54.940	-0.106	-0.102
-340.348	-200.000	-0.009	0.269
-339.333	-200.000	0.064	-0.338
-338.318	-81.539	0.288	-0.094
-337.304	148.124	0.226	-0.303
-336.289	-93.557	0.179	-0.049
-335.275	-163.376	-0.131	-0.006
-334.260	472.791	-0.078	0.176
-333.245	-200.000	-0.028	0.223
-332.231	282.663	-0.146	-0.261
-331.216	-14.125	-0.166	-0.107
-330.202	-15.798	-0.210	0.133
-329.187	-46.465	0.266	-0.130
-328.172	-104.721	-0.146	-0.033
-327.158	-200.000	0.020	0.198
-326.143	-200.000	-0.031	-0.142
-325.129	800.000	0.064	-0.248
-324.114	124.622	0.051	-0.064
-323.099	71.791	0.093	0.096
-322.085	-35.116	0.303	-0.164
-321.070	686.741	0.092	-0.239
-320.056	430.806	-0.089	-0.192
-319.041	800.000	-0.092	0.324
-318.026	68.818	0.057	-0.058
-317.012	-171.047	0.252	0.008
-315.997	-93.993	0.086	0.023
-314.983	-41.288	-0.016	0.008
-313.968	181.832	0.059	-0.086
-312.953	-27.331	-0.086	0.050
-311.939	110.605	0.171	0.204
-310.924	274.991	-0.106	0.187
-309.910	539.143	0.071	0.167
-308.895	800.000	0.108	0.434
-307.880	-152.050	-0.103	0.007
-306.866	535.032	-0.103	0.242
-305.851	96.286	-0.280	0.319
-304.837	800.000	0.029	0.085
-303.822	47.180	-0.327	0.302
-302.807	-115.394	0.254	-0.048
-301.793	800.000	-0.076	-0.238
-300.778	-33.347	-0.067	0.037
-299.764	-125.908	-0.279	0.042
-298.749	230.379	0.161	-0.261
-297.735	43.978	-0.218	0.198
-296.720	800.000	0.069	0.193
-295.705	7.678	0.048	-0.036
-294.691	784.167	0.096	0.260
-293.676	-26.725	-0.148	-0.086
-292.662	-84.939	-0.244	0.076
-291.647	101.454	-0.211	0.245
-290.632	-80.719	-0.129	-0.043
-289.618	-78.580	0.180	0.061
-288.603	-200.000	0.002	0.315
-287.589	-98.505	-0.274	-0.070
-286.574	46.663	-0.289	-0.266
-285.559	800.000	-0.046	-0.159
-284.545	-65.565	0.149	0.059
-283.530	-164.568	-0.471	-0.021
-282.516	-32.237	0.028	0.015
-281.501	800.000	0.059	0.174
-280.486	-162.651	0.200	-0.010
-279.472	-200.000	-0.054	-0.253
-278.457	-128.685	0.224	0.031
-277.443	-125.707	0.120	-0.018
-276.428	-200.000	-0.024	-0.178
-275.413	-66.011	0.177	-0.070
-274.399	18.188	-0.165	-0.131
-273.384	186.539	0.105	-0.154
-272.370	-29.489	0.214	-0.121
-271.355	-90.301	-0.171	-0.049
-270.340	-147.459	0.309	0.026
-269.326	-49.380	0.331	-0.157
-268.311	800.000	0.018	0.064
-267.297	61.397	-0.196	-0.194
-266.282	1.359	0.242	-0.172
-265.267	800.000	0.086	-0.263
-264.253	87.776	-0.063	-0.069
-263.238	-84.422	0.237	0.074
-262.224	-15.819	-0.066	-0.042
-261.209	45.176	0.440	-0.402
-260.195	202.494	-0.067	0.103
-259.180	-21.859	-0.151	-0.091
-258.165	-31.954	0.422	0.235
-257.151	-37.176	-0.354	0.188
-256.136	467.047	-0.127	0.282
-255.122	11.354	0.246	0.187
-254.107	-60.162	-0.397	0.168
-253.092	-169.107	-0.136	-0.005
-252.078	-200.000	0.041	0.264
-251.063	158.700	-0.020	0.027
-250.049	27.007	-0.195	-0.162
-249.034	21.125	0.210	-0.169
-248.019	655.621	0.089	-0.228
-247.005	-84.600	-0.120	0.037
-245.990	-108.375	-0.186	-0.040
-244.976	28.473	0.271	0.227
-243.961	-200.000	-0.012	0.251
-242.946	5.849	0.134	0.098
-241.932	-200.000	-0.008	0.100
-240.917	-200.000	0.014	0.119
-239.903	800.000	0.084	-0.305
-238.888	-45.196	0.071	-0.035
-237.873	800.000	-0.072	0.266
-236.859	-200.000	0.027	0.169
-235.844	-146.497	0.143	0.012
-234.830	-153.428	0.131	-0.009
-233.815	69.072	0.127	-0.130
-232.800	102.117	-0.124	0.144
-231.786	-200.000	0.007	-0.083
-230.771	-52.339	0.101	-0.046
-229.757	-55.125	0.294	-0.131
-228.742	-45.022	-0.195	-0.096
-227.727	-69.699	-0.334	0.127
-226.713	800.000	-0.026	0.104
-225.698	-38.040	-0.224	0.118
-224.684	-190.317	-0.271	-0.003
-223.669	-200.000	-0.015	-0.201
-222.655	2.198	0.306	0.219
-221.640	234.016	-0.083	-0.135
-220.625	-64.389	0.272	0.110
-219.611	-51.922	0.086	0.040
-218.596	59.156	0.086	0.084
-217.582	-48.587	-0.310	-0.148
-216.567	163.806	-0.191	-0.266
-215.552	800.000	-0.099	0.272
-214.538	-200.000	0.011	-0.087
-213.523	800.000	0.136	-0.476
-212.509	58.635	-0.100	0.097
-211.494	120.695	0.152	0.187
-210.479	785.979	0.108	-0.292
-209.465	800.000	0.086	0.314
-208.450	-11.983	0.324	-0.210
-207.436	139.254	-0.059	0.077
-206.421	-107.804	-0.118	-0.025
-205.406	800.000	0.082	-0.297
-204.392	114.770	-0.181	0.219
-203.377	550.699	0.089	0.210
-202.363	800.000	-0.039	0.149
-201.348	-104.959	-0.120	-0.027
-200.333	424.439	-0.087	-0.186
-199.319	-43.759	0.246	-0.123
-198.304	18.579	-0.101	-0.080
-197.290	-67.717	0.045	0.017
-196.275	-44.597	0.151	0.075
-195.260	800.000	0.060	-0.254
-194.246	525.431	0.009	0.020
-193.231	2.321	-0.101	0.072
-192.217	306.818	-0.036	0.066
-191.202	86.720	0.223	0.243
-190.187	800.000	-0.050	0.160
-189.173	128.340	-0.134	0.169
-188.158	5.614	-0.398	0.291
-187.144	258.609	0.320	0.545
-186.129	-112.315	-0.218	0.043
-185.114	800.000	0.065	-0.231
-184.100	-80.378	0.164	0.054
-183.085	245.843	0.337	0.561
-182.071	-33.458	-0.135	-0.074
-181.056	-13.396	-0.127	-0.082
-180.042	-22.633	0.108	-0.064
-179.027	-200.000	-0.051	0.317
-178.012	-200.000	-0.004	0.308
-176.998	-12.835	0.216	-0.139
-175.983	-85.746	0.403	0.124
-174.969	238.439	0.134	0.219
-173.954	-200.000	0.025	-0.284
-172.939	376.501	-0.047	0.095
-171.925	216.135	0.162	-0.254
-170.910	800.000	0.042	-0.170
-169.896	-61.206	-0.395	-0.164
-168.881	-200.000	0.014	-0.233
-167.866	-31.382	-0.225	-0.125
-166.852	328.893	0.210	0.399
-165.837	51.368	0.161	0.151
-164.823	60.936	-0.278	-0.273
-163.808	-19.222	-0.205	-0.126
-162.793	-39.126	0.273	0.142
-161.779	691.093	-0.049	-0.126
-160.764	-200.000	0.038	0.170
-159.750	42.892	-0.097	0.087
-158.735	-159.251	-0.090	-0.005
-157.720	-200.000	-0.034	0.256
-156.706	-200.000	-0.058	-0.257
-155.691	800.000	0.055	0.164
-154.677	-153.364	0.130	0.009
-153.662	795.133	-0.038	0.102
-152.647	800.000	-0.034	0.134
-151.633	65.800	0.158	-0.158
-150.618	-52.880	0.495	0.225
-149.604	29.115	-0.417	0.349
-148.589	77.548	0.267	-0.280
-147.574	36.573	0.123	0.108
-146.560	30.568	-0.177	-0.149
-145.545	-17.823	0.051	0.031
-144.531	-200.000	0.073	0.435
-143.516	-172.735	0.172	-0.005
-142.502	303.605	0.096	0.176
-141.487	-106.740	0.251	0.055
-140.472	-77.150	-0.186	0.064
-139.458	-94.404	0.227	-0.061
-138.443	317.809	-0.193	0.361
-137.429	-132.967	-0.133	0.017
-136.414	99.894	-0.216	0.247
-135.399	-106.520	-0.118	0.026
-134.385	-200.000	0.049	-0.251
-133.370	-118.249	0.078	0.014
-132.356	-89.679	0.170	-0.049
-131.341	800.000	-0.043	-0.117
-130.326	164.036	0.173	-0.241
-129.312	10.340	-0.305	0.229
-128.297	-144.031	0.332	0.031
-127.283	-11.356	0.185	0.120
-126.268	16.807	0.240	0.187
-125.253	-160.028	-0.212	-0.011
-124.239	-200.000	-0.028	0.137
-123.224	-138.522	-0.165	0.018
-122.210	470.525	-0.049	-0.108
-121.195	4.573	0.250	-0.181
