DTS Sentinel unit serial number:	SN413079Multiplexer serial number:	ORYXHardware model number:	OX4-SRSoftware version number:	ORYX F/W v4.00 Oryx Data Collector v3.7.2.0data status	okinstallation	princeton_trtdifferential loss correction	single-endedforward channel	channel 1reverse channel	N/Adate	2019/09/17time	01:58:35forward acquisition time	60.00reverse acquisition time	0.00gamma	496.2192k internal	0.2324k external	0.2324temperature offset calibration	0.9958default loss term (dB/km)	0.3790temperature slope calibration	1.0000multiplexer offset coefficient	1.0000multiplexer slope coefficient	1.0000fibre end	0.00T internal ref (°C)	29.66T ext. ref 1 (°C)	0.12T ext. ref 2 (°C)	24.52length (m)	temperature (°C)	Stokes	anti-Stokes-747.200	-28.132	-0.218	-0.128
-746.185	-110.162	-0.379	-0.080
-745.171	-200.000	-0.027	-0.182
-744.156	-200.000	-0.000	0.245
-743.142	-126.736	-0.152	-0.023
-742.127	383.310	-0.179	0.372
-741.112	48.787	-0.061	-0.058
-740.098	-200.000	-0.032	0.204
-739.083	417.135	0.102	-0.220
-738.069	194.590	-0.133	0.204
-737.054	800.000	-0.167	-0.506
-736.039	-71.573	-0.278	-0.105
-735.025	-111.397	-0.189	0.039
-734.010	-6.636	-0.088	0.061
-732.996	-200.000	-0.030	-0.182
-731.981	800.000	-0.034	0.109
-730.966	98.041	0.257	-0.298
-729.952	-16.604	-0.221	-0.141
-728.937	800.000	-0.043	0.172
-727.923	22.508	-0.059	0.049
-726.908	-200.000	0.048	-0.227
-725.894	65.973	-0.149	0.153
-724.879	66.450	-0.308	0.316
-723.864	-200.000	-0.002	-0.067
-722.850	-68.336	0.295	-0.116
-721.835	82.853	-0.133	0.145
-720.821	-104.565	0.049	0.011
-719.806	-81.282	-0.118	-0.039
-718.791	105.662	0.140	0.167
-717.777	474.767	-0.104	-0.236
-716.762	-91.821	-0.111	-0.032
-715.748	-66.660	0.070	-0.028
-714.733	-164.243	-0.391	0.018
-713.718	-144.012	0.267	0.025
-712.704	268.215	-0.086	-0.152
-711.689	-200.000	-0.011	-0.289
-710.675	-94.724	-0.211	-0.058
-709.660	-84.119	-0.268	-0.086
-708.645	-54.538	0.446	-0.204
-707.631	277.968	-0.048	-0.086
-706.616	84.556	-0.118	-0.130
-705.602	-200.000	0.028	-0.126
-704.587	-33.621	0.313	-0.174
-703.572	0.206	-0.105	0.076
-702.558	-200.000	0.005	0.238
-701.543	-162.943	-0.137	-0.007
-700.529	-27.473	-0.118	-0.069
-699.514	800.000	0.076	0.267
-698.499	332.651	-0.232	-0.451
-697.485	-113.397	-0.344	-0.068
-696.470	-63.213	0.233	-0.097
-695.456	-94.423	-0.357	-0.098
-694.441	-200.000	-0.017	-0.089
-693.426	40.852	-0.143	-0.130
-692.412	-73.186	-0.275	0.101
-691.397	-30.000	-0.372	0.213
-690.383	550.488	-0.044	-0.106
-689.368	-52.705	0.268	-0.124
-688.354	269.202	-0.070	0.123
-687.339	-200.000	-0.016	-0.146
-686.324	800.000	0.056	0.242
-685.310	-77.571	-0.049	-0.017
-684.295	-124.103	-0.193	-0.031
-683.281	-67.581	-0.294	0.116
-682.266	625.549	-0.087	-0.221
-681.251	-80.474	-0.397	0.133
-680.237	-200.000	-0.022	-0.261
-679.222	-112.834	-0.422	0.084
-678.208	5.623	-0.187	0.139
-677.193	-2.337	0.191	-0.135
-676.178	-200.000	-0.039	0.204
-675.164	-150.570	-0.333	0.026
-674.149	-136.387	0.181	0.021
-673.135	53.687	-0.093	-0.090
-672.120	23.461	-0.163	0.135
-671.105	-71.359	-0.191	-0.072
-670.091	83.164	-0.209	-0.229
-669.076	4.028	-0.133	-0.098
-668.062	-118.441	0.197	0.035
-667.047	800.000	0.052	0.187
-666.032	-74.617	-0.047	-0.017
-665.018	-30.224	0.232	-0.133
-664.003	11.452	-0.061	-0.047
-662.989	800.000	-0.099	0.302
-661.974	-73.638	0.063	0.023
-660.959	172.100	-0.140	0.202
-659.945	-200.000	-0.024	0.211
-658.930	-58.380	0.186	-0.081
-657.916	650.980	0.089	-0.229
-656.901	-153.572	-0.065	0.005
-655.886	-81.398	-0.259	0.086
-654.872	28.661	0.146	-0.125
-653.857	418.506	-0.174	-0.375
-652.843	-132.100	-0.147	-0.019
-651.828	2.364	-0.217	0.158
-650.814	-4.431	0.066	0.046
-649.799	-89.352	0.146	-0.043
-648.784	-200.000	-0.006	-0.038
-647.770	-131.411	-0.257	-0.034
-646.755	800.000	0.040	-0.120
-645.741	690.056	-0.065	0.172
-644.726	62.128	0.188	0.189
-643.711	-57.882	-0.379	0.167
-642.697	-155.542	0.313	0.020
-641.682	-200.000	-0.056	-0.385
-640.668	-200.000	0.049	-0.260
-639.653	48.525	0.194	-0.182
-638.638	-112.480	-0.503	0.101
-637.624	-200.000	-0.000	-0.096
-636.609	23.488	-0.294	0.244
-635.595	-200.000	-0.016	-0.093
-634.580	-77.686	0.321	0.112
-633.565	-100.716	-0.026	-0.006
-632.551	-200.000	-0.021	0.381
-631.536	22.809	0.116	-0.095
-630.522	800.000	-0.068	-0.220
-629.507	-200.000	0.046	0.249
-628.492	96.479	-0.221	-0.254
-627.478	42.532	-0.161	-0.147
-626.463	-152.095	0.353	0.026
-625.449	308.784	-0.061	-0.114
-624.434	117.294	-0.109	-0.135
-623.419	-15.878	-0.356	-0.228
-622.405	176.387	-0.127	0.185
-621.390	-200.000	-0.025	0.180
-620.376	417.253	-0.145	-0.310
-619.361	-86.708	-0.218	-0.067
-618.346	-200.000	-0.077	0.362
-617.332	-200.000	0.020	0.122
-616.317	3.772	0.031	-0.023
-615.303	-83.767	0.134	-0.043
-614.288	697.419	0.035	0.092
-613.273	-17.257	0.134	-0.085
-612.259	-0.836	-0.163	0.116
-611.244	104.412	0.242	-0.286
-610.230	800.000	-0.129	-0.379
-609.215	63.890	0.091	0.092
-608.201	-200.000	-0.009	0.128
-607.186	-84.657	0.380	0.120
-606.171	-138.834	0.535	-0.058
-605.157	-38.616	-0.332	0.176
-604.142	-74.155	-0.333	0.121
-603.128	-200.000	0.003	0.178
-602.113	222.572	-0.178	0.287
-601.098	-159.283	-0.139	-0.008
-600.084	207.353	0.061	-0.095
-599.069	-16.239	-0.178	-0.113
-598.055	-200.000	0.071	0.338
-597.040	-200.000	-0.022	0.228
-596.025	-200.000	-0.084	-0.382
-595.011	-84.912	-0.326	-0.103
-593.996	-165.004	0.367	0.016
-592.982	-163.305	-0.206	-0.010
-591.967	800.000	0.089	0.329
-590.952	-77.413	-0.134	0.047
-589.938	-105.806	-0.287	-0.065
-588.923	98.292	0.208	0.240
-587.909	-156.889	0.413	-0.025
-586.894	157.969	0.137	0.190
-585.879	454.850	-0.132	-0.295
-584.865	23.219	0.309	0.255
-583.850	800.000	0.182	0.507
-582.836	-200.000	0.007	-0.304
-581.821	40.620	-0.162	0.146
-580.806	42.169	0.130	0.119
-579.792	-70.447	-0.116	0.044
-578.777	-41.351	0.116	-0.060
-577.763	-197.241	-0.132	0.001
-576.748	-200.000	0.012	-0.154
-575.733	-200.000	0.030	-0.201
-574.719	639.352	0.108	0.275
-573.704	-200.000	-0.229	-0.001
-572.690	800.000	0.087	-0.245
-571.675	8.726	-0.207	-0.156
-570.661	-121.234	0.137	-0.023
-569.646	263.190	-0.027	0.048
-568.631	445.982	-0.200	-0.441
-567.617	-95.727	0.280	0.075
-566.602	-23.153	-0.099	-0.060
-565.588	-200.000	-0.025	-0.354
-564.573	-10.075	-0.270	-0.180
-563.558	800.000	0.111	-0.308
-562.544	-200.000	-0.069	-0.363
-561.529	-200.000	0.079	-0.347
-560.515	-200.000	-0.046	0.466
-559.500	-12.719	0.351	0.230
-558.485	800.000	0.049	-0.173
-557.471	-128.104	0.362	0.052
-556.456	113.351	-0.112	-0.136
-555.442	48.234	-0.038	-0.035
-554.427	-200.000	-0.030	-0.141
-553.412	800.000	-0.107	-0.324
-552.398	-176.667	0.308	0.008
-551.383	154.293	-0.266	-0.366
-550.369	800.000	0.076	-0.233
-549.354	-21.453	-0.196	-0.120
-548.339	113.438	0.056	0.068
-547.325	800.000	-0.088	-0.371
-546.310	415.457	-0.072	-0.153
-545.296	330.364	0.127	0.245
-544.281	112.573	0.101	0.123
-543.266	-21.134	-0.306	-0.187
-542.252	-180.534	-0.041	-0.001
-541.237	-53.750	0.131	0.060
-540.223	-200.000	0.015	-0.157
-539.208	186.295	-0.064	0.095
-538.193	151.177	-0.097	-0.133
-537.179	-107.060	0.182	0.040
-536.164	-94.572	0.469	0.128
-535.150	-200.000	0.034	0.260
-534.135	330.654	0.252	0.485
-533.121	-200.000	0.008	0.214
-532.106	19.040	-0.150	-0.121
-531.091	5.835	-0.204	-0.151
-530.077	-200.000	-0.002	-0.072
-529.062	800.000	0.009	0.031
-528.048	-78.343	-0.160	-0.055
-527.033	144.165	0.128	0.171
-526.018	-110.287	0.157	-0.033
-525.004	800.000	0.080	0.337
-523.989	-200.000	0.063	0.362
-522.975	-200.000	0.060	0.270
-521.960	-200.000	0.019	0.099
-520.945	242.256	-0.138	-0.231
-519.931	223.866	-0.160	-0.258
-518.916	128.185	0.124	-0.158
-517.902	323.298	-0.109	-0.208
-516.887	-200.000	-0.013	-0.170
-515.872	81.931	-0.155	0.168
-514.858	38.181	-0.028	-0.025
-513.843	333.206	0.130	0.251
-512.829	-77.613	0.192	0.067
-511.814	-47.801	0.189	0.092
-510.799	62.827	-0.069	0.070
-509.785	193.144	0.110	0.166
-508.770	-135.157	0.157	0.019
-507.756	13.008	-0.285	-0.220
-506.741	24.763	0.221	-0.183
-505.726	-136.217	-0.319	0.037
-504.712	436.264	-0.041	-0.089
-503.697	43.289	-0.139	0.127
-502.683	77.426	-0.206	-0.219
-501.668	-200.000	0.035	-0.320
-500.653	-200.000	0.017	-0.137
-499.639	-178.853	-0.230	0.005
-498.624	131.401	-0.124	-0.159
-497.610	-48.592	0.127	-0.061
-496.595	-170.634	-0.254	-0.009
-495.581	-29.278	0.081	-0.046
-494.566	-200.000	0.013	-0.110
-493.551	131.455	0.221	-0.284
-492.537	-200.000	-0.018	0.083
-491.522	-55.678	0.101	-0.045
-490.508	-200.000	0.035	-0.156
-489.493	522.181	0.074	-0.174
-488.478	77.270	-0.138	0.147
-487.464	14.736	-0.046	0.036
-486.449	64.649	0.092	0.092
-485.435	-162.491	-0.146	-0.007
-484.420	-200.000	0.024	-0.336
-483.405	800.000	-0.039	-0.145
-482.391	234.646	0.174	-0.287
-481.376	800.000	0.049	0.199
-480.362	-178.200	0.141	-0.003
-479.347	0.568	-0.331	-0.237
-478.332	190.731	0.178	0.267
-477.318	615.590	-0.101	0.254
-476.303	-200.000	0.016	-0.119
-475.289	296.199	-0.098	-0.179
-474.274	800.000	-0.035	0.103
-473.259	107.550	0.049	0.058
-472.245	-153.604	-0.216	-0.015
-471.230	148.198	0.019	-0.025
-470.216	-10.710	0.399	0.264
-469.201	141.722	-0.137	0.181
-468.186	219.563	-0.047	-0.075
-467.172	-148.494	-0.280	0.023
-466.157	-23.316	-0.306	0.184
-465.143	-200.000	0.001	0.527
-464.128	59.385	-0.193	-0.190
-463.113	169.061	0.214	0.305
-462.099	85.622	-0.134	-0.147
-461.084	-111.985	0.147	-0.030
-460.070	-109.364	-0.280	0.059
-459.055	-200.000	0.001	-0.469
-458.040	54.466	-0.131	0.126
-457.026	800.000	-0.049	-0.188
-456.011	-144.717	-0.286	-0.026
-454.997	-200.000	0.003	0.171
-453.982	126.470	-0.125	0.157
-452.968	69.266	0.207	-0.212
-451.953	7.220	-0.302	-0.225
-450.938	-3.626	-0.059	-0.041
-449.924	-200.000	-0.013	0.136
-448.909	270.850	-0.080	0.141
-447.895	-129.576	0.095	0.013
-446.880	800.000	-0.080	-0.318
-445.865	202.643	0.100	0.154
-444.851	490.053	-0.118	-0.268
-443.836	60.567	0.039	0.039
-442.822	25.862	-0.125	0.104
-441.807	181.925	0.289	0.425
-440.792	30.547	-0.105	0.090
-439.778	-200.000	-0.017	0.077
-438.763	51.786	0.116	-0.110
-437.749	95.619	0.190	0.216
-436.734	234.207	-0.121	0.198
-435.719	-104.744	-0.046	0.011
-434.705	-97.358	0.335	0.087
-433.690	-200.000	-0.066	0.498
-432.676	52.739	-0.353	0.337
-431.661	-83.683	0.119	-0.038
-430.646	-91.892	-0.109	-0.031
-429.632	184.884	0.056	0.083
-428.617	-200.000	0.024	0.228
-427.603	9.417	0.287	-0.217
-426.588	-200.000	0.030	0.196
-425.573	199.572	-0.073	-0.112
-424.559	-156.268	0.255	-0.016
-423.544	220.517	0.036	-0.058
-422.530	42.329	-0.128	-0.116
-421.515	14.168	-0.042	-0.033
-420.500	183.572	-0.083	0.122
-419.486	4.814	0.224	-0.164
-418.471	-105.012	-0.138	0.031
-417.457	-39.119	-0.142	0.074
-416.442	-129.219	0.168	0.023
-415.428	800.000	0.016	-0.068
-414.413	-71.816	-0.131	-0.049
-413.398	97.446	-0.196	-0.224
-412.384	56.884	0.070	-0.068
-411.369	109.934	0.094	-0.112
-410.355	-135.139	-0.103	0.012
-409.340	-2.743	-0.214	-0.149
-408.325	-87.571	0.278	0.084
-407.311	55.529	-0.141	0.136
-406.296	551.659	-0.081	0.195
-405.282	-92.411	0.330	0.093
-404.267	272.322	-0.068	-0.119
-403.252	-13.020	-0.221	0.143
-402.238	-91.635	0.146	-0.041
-401.223	-107.097	-0.108	0.024
-400.209	25.048	0.140	0.116
-399.194	-162.892	-0.047	-0.002
-398.179	800.000	0.006	-0.018
-397.165	175.605	-0.183	-0.264
-396.150	133.622	-0.267	-0.344
-395.136	-200.000	-0.014	0.259
-394.121	-200.000	-0.005	-0.154
-393.106	69.950	-0.418	-0.430
-392.092	23.735	-0.134	-0.110
-391.077	90.681	0.321	0.358
-390.063	800.000	0.044	-0.135
-389.048	-44.488	-0.177	-0.088
-388.033	-200.000	0.057	-0.406
-387.019	-96.979	-0.022	0.006
-386.004	271.342	0.053	0.092
-384.990	-102.571	0.411	-0.098
-383.975	-84.937	0.064	-0.020
-382.960	7.576	0.354	0.264
-381.946	9.490	0.089	0.067
-380.931	-134.065	0.138	0.017
-379.917	-97.242	0.163	-0.042
-378.902	-200.000	-0.086	-0.471
-377.888	800.000	-0.049	0.212
-376.873	800.000	0.005	0.018
-375.858	497.615	-0.031	-0.071
-374.844	268.075	-0.195	0.340
-373.829	-200.000	-0.021	-0.399
-372.815	800.000	0.073	-0.255
-371.800	-200.000	-0.014	0.072
-370.785	3.793	0.131	0.095
-369.771	-200.000	-0.047	0.210
-368.756	-6.776	0.289	0.196
-367.742	-53.074	-0.260	-0.119
-366.727	-200.000	0.061	-0.302
-365.712	-97.808	-0.171	0.044
-364.698	-56.460	-0.220	0.097
-363.683	-160.367	0.203	0.011
-362.669	59.650	0.122	-0.119
-361.654	164.628	-0.193	-0.270
-360.639	-200.000	-0.098	-0.432
-359.625	-81.681	0.108	-0.035
-358.610	-200.000	-0.018	0.136
-357.596	169.968	0.098	0.139
-356.581	-42.239	0.327	0.166
-355.566	292.368	0.071	0.129
-354.552	124.538	-0.157	0.197
-353.537	20.398	-0.221	-0.178
-352.523	56.106	0.073	0.070
-351.508	43.842	0.188	0.171
-350.493	13.729	-0.096	0.074
-349.479	-68.529	0.205	-0.079
-348.464	30.966	-0.116	-0.099
-347.450	251.249	0.056	-0.094
-346.435	-98.053	-0.198	-0.051
-345.420	-156.412	0.116	-0.007
-344.406	503.417	-0.051	-0.117
-343.391	800.000	0.031	-0.090
-342.377	-36.195	0.161	-0.086
-341.362	114.383	0.050	-0.061
-340.348	-94.327	0.175	-0.048
-339.333	800.000	-0.102	0.305
-338.318	144.543	-0.089	0.118
-337.304	178.134	-0.168	0.243
-336.289	215.283	-0.117	0.185
-335.275	800.000	-0.061	-0.195
-334.260	-200.000	0.017	0.182
-333.245	-130.143	-0.038	-0.005
-332.231	-73.420	-0.252	-0.091
-331.216	-116.769	0.266	0.049
-330.202	-200.000	-0.006	-0.061
-329.187	688.030	-0.109	-0.284
-328.172	467.891	-0.187	-0.416
-327.158	-74.319	0.299	-0.107
-326.143	-200.000	0.039	0.181
-325.129	800.000	-0.056	0.220
-324.114	414.010	-0.106	0.224
-323.099	207.500	-0.138	-0.214
-322.085	800.000	-0.107	-0.326
-321.070	48.864	-0.038	0.035
-320.056	793.985	0.054	0.147
-319.041	-47.593	0.153	0.074
-318.026	383.187	0.100	-0.204
-317.012	-51.392	0.066	0.031
-315.997	800.000	0.040	-0.134
-314.983	534.641	-0.090	0.211
-313.968	-102.579	-0.357	0.085
-312.953	800.000	-0.157	0.505
-311.939	-51.965	-0.215	0.099
-310.924	-185.121	0.222	0.003
-309.910	-57.844	0.289	-0.125
-308.895	-53.320	-0.038	-0.017
-307.880	-51.443	0.226	0.105
-306.866	-130.157	-0.366	0.050
-305.851	391.946	0.031	0.065
-304.837	-153.719	-0.077	0.005
-303.822	41.923	-0.308	0.278
-302.807	244.724	-0.057	-0.096
-301.793	-70.964	0.248	0.093
-300.778	-8.558	-0.108	0.072
-299.764	3.622	-0.206	-0.149
-298.749	-142.177	0.143	-0.014
-297.735	-109.334	0.234	0.049
-296.720	123.700	0.118	-0.147
-295.705	-38.405	0.103	0.054
-294.691	-200.000	-0.017	0.130
-293.676	-44.720	-0.166	0.082
-292.662	-30.307	0.189	0.106
-291.647	121.718	0.193	0.238
-290.632	-62.116	0.094	-0.039
-289.618	-200.000	0.016	-0.221
-288.603	-82.184	0.109	-0.035
-287.589	89.102	-0.057	0.063
-286.574	296.065	0.102	-0.184
-285.559	800.000	-0.060	-0.174
-284.545	800.000	0.046	-0.152
-283.530	-19.253	0.328	-0.202
-282.516	-108.929	-0.281	0.060
-281.501	181.329	0.215	-0.313
-280.486	87.443	-0.255	-0.280
-279.472	229.719	0.146	0.237
-278.457	-157.818	-0.399	0.023
-277.443	221.850	0.097	-0.154
-276.428	79.451	0.194	0.206
-275.413	16.931	0.146	-0.115
-274.399	-80.535	-0.038	-0.013
-273.384	800.000	0.020	-0.065
-272.370	800.000	0.069	0.205
-271.355	208.613	-0.125	-0.194
-270.340	788.365	0.126	0.343
-269.326	-104.577	-0.295	0.068
-268.311	-38.496	0.319	0.167
-267.297	-200.000	-0.016	0.257
-266.282	-25.010	-0.067	0.039
-265.267	360.757	0.086	0.170
-264.253	-95.378	0.145	-0.039
-263.238	439.100	0.113	-0.244
-262.224	45.605	0.217	0.199
-261.209	-200.000	-0.002	-0.027
-260.195	-85.623	-0.242	0.075
-259.180	289.506	0.089	-0.160
-258.165	-200.000	-0.101	-0.621
-257.151	-200.000	0.006	-0.032
-256.136	-200.000	0.006	-0.111
-255.122	800.000	0.098	0.325
-254.107	28.336	0.037	0.031
-253.092	60.171	0.196	-0.192
-252.078	109.294	0.069	0.081
-251.063	15.075	0.229	-0.178
-250.049	-46.725	0.318	-0.154
-249.034	800.000	-0.041	-0.154
-248.019	238.703	0.053	0.087
-247.005	-137.672	0.095	0.011
-245.990	23.288	-0.120	-0.098
-244.976	401.479	0.202	-0.421
-243.961	800.000	-0.064	-0.181
-242.946	-137.164	0.022	0.002
-241.932	-78.316	0.403	0.137
-240.917	58.664	0.139	0.135
-239.903	276.048	-0.092	-0.163
-238.888	-96.040	-0.187	-0.049
-237.873	63.255	-0.346	0.344
-236.859	33.149	-0.442	0.379
-235.844	490.000	-0.044	-0.099
-234.830	-4.848	0.129	0.088
-233.815	-200.000	0.017	-0.092
-232.800	-177.005	0.246	-0.006
-231.786	793.519	0.082	0.223
-230.771	443.761	0.024	0.051
-229.757	800.000	-0.080	-0.346
-228.742	255.433	0.219	-0.371
-227.727	800.000	-0.053	0.153
-226.713	-200.000	-0.009	0.053
-225.698	-72.114	0.140	0.052
-224.684	478.010	-0.056	0.125
-223.669	-70.574	0.197	0.074
-222.655	-41.102	0.238	0.122
-221.640	-200.000	0.006	-0.134
-220.625	767.599	0.029	0.078
-219.611	413.960	-0.113	-0.237
-218.596	282.437	-0.138	-0.245
-217.582	174.312	-0.196	0.281
-216.567	-148.026	-0.104	0.009
-215.552	691.436	0.040	-0.103
-214.538	-47.428	-0.376	0.181
-213.523	-200.000	0.072	0.376
-212.509	-103.755	0.491	0.114
-211.494	107.592	-0.096	-0.113
-210.479	-96.276	0.142	0.037
-209.465	626.313	-0.084	0.211
-208.450	-200.000	-0.002	-0.148
-207.436	-109.901	0.046	-0.010
-206.421	-117.579	-0.098	-0.018
-205.406	73.204	-0.148	0.153
-204.392	280.360	-0.153	0.271
-203.377	-59.037	-0.094	-0.040
-202.363	-142.049	0.373	-0.037
-201.348	-200.000	0.050	0.245
-200.333	180.165	-0.108	-0.157
-199.319	-72.854	-0.160	0.058
-198.304	187.659	0.047	-0.069
-197.290	-164.484	-0.059	-0.003
-196.275	39.560	-0.190	0.169
-195.260	-12.405	0.261	0.168
-194.246	-59.970	0.205	0.087
-193.231	-93.985	0.127	0.035
-192.217	-72.805	-0.346	-0.126
-191.202	-80.118	0.104	0.035
-190.187	-10.088	-0.079	-0.052
-189.173	800.000	0.083	-0.233
-188.158	155.158	-0.114	-0.155
-187.144	-100.050	0.270	-0.066
-186.129	-91.584	-0.157	0.044
-185.114	49.028	0.234	0.217
-184.100	245.424	0.020	-0.034
-183.085	800.000	-0.084	0.357
-182.071	-116.697	-0.111	-0.020
-181.056	-59.133	0.114	0.049
-180.042	-200.000	0.004	-0.081
-179.027	-200.000	0.011	0.301
-178.012	-71.048	-0.150	-0.056
-176.998	232.671	0.154	-0.250
-175.983	241.038	-0.153	0.253
-174.969	-200.000	0.008	-0.251
-173.954	74.609	0.192	0.200
-172.939	-20.569	-0.141	-0.085
-171.925	-200.000	-0.038	-0.195
-170.910	-83.086	0.080	-0.025
-169.896	-35.827	0.117	0.063
-168.881	-157.207	-0.095	0.006
-167.866	383.886	0.147	0.300
-166.852	-8.150	0.127	-0.085
-165.837	-200.000	0.053	0.322
-164.823	-200.000	-0.003	0.182
-163.808	-200.000	-0.016	0.175
-162.793	22.996	-0.214	-0.173
-161.779	-70.524	0.110	-0.041
-160.764	-12.780	0.183	-0.117
-159.750	-61.323	-0.350	0.145
-158.735	-101.372	-0.125	0.030
-157.720	800.000	0.077	0.262
-156.706	-80.431	0.155	0.051
-155.691	-154.866	-0.241	0.016
-154.677	111.012	-0.057	0.068
-153.662	44.086	-0.083	0.075
-152.647	443.160	0.131	0.284
-151.633	174.386	-0.064	-0.092
-150.618	800.000	0.023	-0.063
-149.604	-50.376	-0.064	-0.030
-148.589	-4.176	0.068	-0.046
-147.574	-45.617	-0.185	-0.090
-146.560	391.327	0.046	-0.095
-145.545	12.338	-0.197	-0.150
-144.531	585.066	0.101	-0.244
-143.516	-165.085	-0.275	-0.012
-142.502	88.172	0.213	-0.233
-141.487	351.992	-0.143	0.279
-140.472	-200.000	-0.046	0.282
-139.458	-107.662	0.105	0.023
-138.443	-130.693	0.062	0.008
-137.429	-78.913	-0.347	0.116
-136.414	-122.330	-0.267	0.043
-135.399	159.561	-0.107	0.147
-134.385	192.039	-0.045	-0.067
-133.370	-49.529	0.237	0.111
-132.356	-68.153	-0.202	-0.078
-131.341	-93.954	0.339	0.092
-130.326	2.153	0.057	-0.041
-129.312	-132.913	-0.306	0.038
-128.297	57.230	0.113	0.109
-127.283	32.365	-0.063	-0.053
-126.268	258.202	0.199	0.338
-125.253	-1.706	0.176	0.122
-124.239	260.560	0.061	-0.104
-123.224	72.831	0.178	-0.183
-122.210	344.259	0.113	-0.218
