DTS Sentinel unit serial number:	SN413079Multiplexer serial number:	ORYXHardware model number:	OX4-SRSoftware version number:	ORYX F/W v4.00 Oryx Data Collector v3.7.2.0data status	okinstallation	princeton_trtdifferential loss correction	single-endedforward channel	channel 1reverse channel	N/Adate	2019/09/18time	19:10:35forward acquisition time	60.00reverse acquisition time	0.00gamma	496.2192k internal	0.2314k external	0.2314temperature offset calibration	1.0040default loss term (dB/km)	0.3790temperature slope calibration	1.0000multiplexer offset coefficient	1.0000multiplexer slope coefficient	1.0000fibre end	0.00T internal ref (°C)	34.94T ext. ref 1 (°C)	1.22T ext. ref 2 (°C)	24.09length (m)	temperature (°C)	Stokes	anti-Stokes-747.200	-110.515	-0.221	-0.046
-746.185	800.000	0.036	-0.135
-745.171	462.406	0.154	-0.348
-744.156	-56.906	0.082	0.037
-743.142	-144.610	-0.392	-0.037
-742.127	151.659	0.162	0.224
-741.112	69.521	0.114	0.119
-740.098	-77.160	-0.293	0.103
-739.083	-200.000	-0.057	0.628
-738.069	63.092	0.163	0.166
-737.054	-133.502	-0.427	-0.054
-736.039	-58.948	-0.294	0.129
-735.025	-114.234	0.317	0.062
-734.010	-200.000	-0.014	0.107
-732.996	800.000	-0.185	-0.577
-731.981	190.243	0.113	0.173
-730.966	800.000	0.052	0.191
-729.952	-129.099	0.052	0.007
-728.937	256.128	0.137	-0.239
-727.923	53.875	-0.255	0.248
-726.908	-79.980	-0.189	-0.064
-725.894	-138.245	-0.168	0.019
-724.879	800.000	0.126	-0.370
-723.864	-32.109	-0.200	0.113
-722.850	124.792	-0.237	-0.302
-721.835	-200.000	0.044	-0.200
-720.821	423.546	-0.043	-0.093
-719.806	-109.827	-0.364	-0.077
-718.791	34.451	0.052	-0.046
-717.777	279.164	-0.103	0.185
-716.762	-200.000	0.026	-0.338
-715.748	-96.988	0.299	0.079
-714.733	-88.711	-0.078	-0.024
-713.718	395.079	-0.085	0.179
-712.704	20.256	-0.168	0.137
-711.689	125.079	0.133	-0.169
-710.675	204.925	0.187	-0.294
-709.660	467.952	0.033	-0.075
-708.645	4.823	0.239	0.178
-707.631	-200.000	0.105	0.000
-706.616	94.553	-0.301	-0.346
-705.602	137.615	-0.069	-0.091
-704.587	43.456	-0.096	0.089
-703.572	415.716	-0.124	0.267
-702.558	800.000	-0.094	-0.312
-701.543	-56.092	0.160	-0.072
-700.529	800.000	0.040	-0.149
-699.514	401.534	-0.084	-0.178
-698.499	-112.404	-0.183	-0.037
-697.485	-51.118	0.119	-0.057
-696.470	-137.341	0.365	0.042
-695.456	-47.404	0.061	0.030
-694.441	-34.092	-0.145	0.081
-693.426	-200.000	0.003	0.036
-692.412	-200.000	-0.012	-0.106
-691.397	-19.839	0.201	-0.126
-690.383	-160.515	-0.134	-0.007
-689.368	113.097	-0.200	0.245
-688.354	22.028	-0.098	-0.081
-687.339	-16.340	0.210	-0.135
-686.324	-158.066	-0.449	-0.027
-685.310	800.000	0.114	-0.407
-684.295	-10.488	-0.085	0.057
-683.281	29.957	0.034	-0.029
-682.266	103.893	0.208	0.247
-681.251	16.904	-0.192	-0.154
-680.237	-131.617	-0.204	-0.027
-679.222	-200.000	-0.065	0.325
-678.208	-200.000	-0.001	0.103
-677.193	252.936	-0.159	-0.274
-676.178	-1.305	0.115	-0.082
-675.164	52.939	0.268	-0.259
-674.149	-93.839	0.233	-0.065
-673.135	-135.181	0.136	0.016
-672.120	304.481	0.111	0.208
-671.105	-200.000	0.007	0.119
-670.091	127.656	-0.103	-0.132
-669.076	-104.974	-0.204	0.047
-668.062	84.398	0.073	0.080
-667.047	119.132	-0.224	0.279
-666.032	800.000	0.019	-0.060
-665.018	-168.413	0.275	0.011
-664.003	-195.030	-0.370	0.003
-662.989	800.000	0.060	0.228
-661.974	-200.000	-0.022	0.139
-660.959	282.116	-0.045	-0.082
-659.945	87.192	0.047	-0.053
-658.930	-100.116	-0.325	-0.082
-657.916	155.597	0.057	0.079
-656.901	-183.377	0.363	-0.006
-655.886	-200.000	0.030	0.195
-654.872	125.038	0.230	0.293
-653.857	-99.002	-0.329	-0.084
-652.843	-97.386	-0.492	-0.129
-651.828	-36.792	-0.170	0.092
-650.814	324.774	0.148	0.285
-649.799	-10.970	0.199	-0.133
-648.784	192.669	-0.196	-0.299
-647.770	27.504	0.434	-0.369
-646.755	276.468	-0.182	-0.326
-645.741	26.192	-0.095	0.080
-644.726	800.000	-0.035	-0.121
-643.711	-17.533	0.078	-0.049
-642.697	800.000	-0.136	-0.384
-641.682	97.244	-0.179	-0.207
-640.668	-200.000	0.014	0.435
-639.653	-200.000	0.001	-0.499
-638.638	-40.136	-0.081	0.042
-637.624	193.424	-0.182	-0.278
-636.609	72.331	0.117	-0.123
-635.595	-16.458	0.203	-0.130
-634.580	545.774	0.030	0.071
-633.565	-200.000	0.069	-0.315
-632.551	-59.889	-0.149	-0.064
-631.536	330.814	0.109	0.212
-630.522	107.521	-0.261	0.314
-629.507	496.649	0.222	-0.516
-628.492	649.272	-0.055	0.141
-627.478	-101.279	-0.286	0.071
-626.463	-46.167	0.214	0.106
-625.449	-9.572	0.075	-0.050
-624.434	800.000	0.085	-0.351
-623.419	-62.769	-0.202	-0.084
-622.405	-124.994	0.250	-0.039
-621.390	-92.992	-0.163	0.046
-620.376	158.437	-0.082	0.115
-619.361	194.967	0.353	0.541
-618.346	-34.643	0.320	0.177
-617.332	-75.450	0.147	-0.053
-616.317	50.016	-0.094	-0.090
-615.303	-164.435	-0.120	0.006
-614.288	-200.000	0.026	0.249
-613.273	-119.825	-0.054	-0.009
-612.259	-56.773	0.170	0.076
-611.244	-200.000	0.014	-0.243
-610.230	-200.000	0.063	-0.328
-609.215	-53.835	0.155	-0.071
-608.201	212.004	-0.191	-0.303
-607.186	-200.000	0.093	-0.423
-606.171	-200.000	-0.070	-0.575
-605.157	40.352	0.004	-0.004
-604.142	-78.291	0.246	0.085
-603.128	-200.000	0.029	-0.212
-602.113	3.747	-0.102	-0.075
-601.098	-200.000	-0.014	-0.098
-600.084	800.000	-0.116	-0.404
-599.069	162.647	0.127	-0.179
-598.055	49.899	-0.032	0.031
-597.040	-134.061	0.465	-0.058
-596.025	-44.326	0.254	-0.128
-595.011	284.858	-0.131	-0.237
-593.996	-124.326	0.130	0.020
-592.982	42.214	-0.087	-0.080
-591.967	-88.741	-0.483	0.145
-590.952	44.196	-0.092	-0.085
-589.938	333.332	0.170	-0.331
-588.923	-81.445	-0.125	-0.042
-587.909	656.451	-0.040	-0.104
-586.894	-90.032	-0.167	0.049
-585.879	-200.000	-0.032	0.248
-584.865	-51.396	0.135	-0.064
-583.850	-70.687	-0.197	-0.075
-582.836	-4.741	0.092	-0.064
-581.821	65.465	0.234	0.239
-580.806	9.167	-0.143	-0.109
-579.792	-126.356	0.142	-0.021
-578.777	164.286	-0.110	0.157
-577.763	190.967	-0.278	0.422
-576.748	-58.185	-0.360	0.158
-575.733	88.822	0.231	-0.258
-574.719	128.055	0.164	0.210
-573.704	275.507	-0.071	-0.127
-572.690	36.545	-0.271	0.241
-571.675	-36.423	-0.211	-0.115
-570.661	-200.000	-0.001	0.045
-569.646	-37.057	-0.208	0.112
-568.631	118.051	0.035	0.043
-567.617	800.000	-0.032	0.121
-566.602	737.937	-0.032	0.087
-565.588	-174.742	-0.027	-0.001
-564.573	-200.000	-0.056	0.265
-563.558	-14.277	-0.128	0.083
-562.544	57.304	0.104	0.102
-561.529	173.798	-0.121	-0.176
-560.515	-89.969	-0.131	0.038
-559.500	-12.994	0.090	0.059
-558.485	-59.420	-0.211	0.091
-557.471	-48.298	0.011	-0.005
-556.456	120.998	0.329	0.412
-555.442	-200.000	-0.029	0.190
-554.427	429.128	0.106	0.231
-553.412	712.272	-0.137	-0.364
-552.398	-53.173	0.244	-0.113
-551.383	-16.354	0.299	0.191
-550.369	288.142	-0.073	-0.133
-549.354	48.163	-0.039	-0.037
-548.339	-119.983	0.275	0.048
-547.325	331.149	0.143	0.277
-546.310	-24.069	-0.117	-0.070
-545.296	-200.000	0.174	0.000
-544.281	-55.052	0.233	-0.106
-543.266	-39.365	0.031	0.016
-542.252	-13.866	-0.061	-0.040
-541.237	-200.000	0.029	0.162
-540.223	-200.000	-0.022	0.126
-539.208	-108.520	-0.242	0.052
-538.193	342.397	-0.049	0.097
-537.179	-200.000	-0.024	-0.261
-536.164	800.000	0.069	0.243
-535.150	-200.000	0.013	0.103
-534.135	800.000	-0.147	0.543
-533.121	-146.061	0.411	0.037
-532.106	-171.771	-0.402	0.013
-531.091	-200.000	0.009	-0.257
-530.077	-116.190	-0.072	0.013
-529.062	-193.336	0.320	0.003
-528.048	-167.040	-0.211	0.009
-527.033	-92.001	0.130	-0.037
-526.018	-25.687	0.241	-0.143
-525.004	349.052	-0.129	-0.256
-523.989	-168.393	-0.209	0.008
-522.975	15.491	0.131	0.103
-521.960	800.000	0.101	-0.297
-520.945	151.420	0.147	-0.202
-519.931	222.838	0.141	0.228
-518.916	589.616	-0.066	0.165
-517.902	800.000	-0.039	-0.152
-516.887	-80.266	-0.522	-0.175
-515.872	-161.313	-0.307	-0.016
-514.858	239.089	-0.189	-0.316
-513.843	800.000	0.061	-0.223
-512.829	226.485	0.026	-0.043
-511.814	-28.592	0.131	0.076
-510.799	42.772	0.228	0.208
-509.785	468.431	0.067	0.150
-508.770	800.000	0.044	0.141
-507.756	-6.828	0.090	0.062
-506.741	133.188	-0.141	0.183
-505.726	-136.770	-0.336	0.039
-504.712	199.017	-0.225	-0.346
-503.697	89.063	0.257	-0.287
-502.683	-200.000	-0.033	-0.184
-501.668	-124.167	-0.123	0.019
-500.653	-79.160	0.135	0.046
-499.639	-200.000	0.011	-0.120
-498.624	76.236	0.051	-0.054
-497.610	13.702	-0.233	-0.181
-496.595	356.724	-0.110	0.219
-495.581	269.982	0.080	-0.141
-494.566	-105.022	0.177	-0.041
-493.551	800.000	-0.049	-0.199
-492.537	58.888	-0.110	0.108
-491.522	-42.582	-0.132	0.068
-490.508	97.614	-0.036	0.042
-489.493	-43.604	0.248	0.125
-488.478	-200.000	0.011	-0.216
-487.464	-60.843	0.182	-0.077
-486.449	-91.288	-0.422	-0.121
-485.435	-80.392	-0.491	0.164
-484.420	-80.030	0.414	-0.139
-483.405	-100.715	-0.262	0.065
-482.391	-200.000	0.029	-0.137
-481.376	-200.000	-0.039	-0.209
-480.362	800.000	0.042	0.178
-479.347	-17.447	-0.136	0.086
-478.332	-92.293	-0.137	0.039
-477.318	-150.100	0.233	0.018
-476.303	-45.256	0.179	0.089
-475.289	-49.314	-0.312	-0.149
-474.274	-200.000	0.024	-0.409
-473.259	-114.724	0.174	-0.033
-472.245	719.328	-0.051	-0.135
-471.230	27.855	-0.059	-0.050
-470.216	1.158	-0.365	0.263
-469.201	-8.171	-0.360	0.243
-468.186	71.550	0.135	0.140
-467.172	-80.870	-0.141	0.047
-466.157	64.050	-0.315	0.318
-465.143	-2.242	0.226	-0.159
-464.128	-157.649	0.261	-0.016
-463.113	-152.530	-0.073	0.005
-462.099	800.000	0.026	0.114
-461.084	497.572	0.046	-0.107
-460.070	46.024	-0.166	0.154
-459.055	371.972	0.054	-0.109
-458.040	133.677	0.055	0.072
-457.026	23.153	0.325	0.268
-456.011	800.000	0.084	0.282
-454.997	800.000	0.012	0.040
-453.982	105.407	0.287	-0.340
-452.968	80.108	0.202	0.217
-451.953	-106.508	0.191	-0.043
-450.938	188.516	0.191	-0.287
-449.924	55.286	-0.196	0.190
-448.909	-11.770	-0.366	0.241
-447.895	-197.153	0.183	0.001
-446.880	800.000	-0.090	-0.263
-445.865	-59.984	-0.099	-0.042
-444.851	590.666	0.134	0.330
-443.836	-56.467	-0.144	0.064
-442.822	-200.000	0.019	-0.119
-441.807	271.815	0.085	-0.150
-440.792	347.517	-0.156	-0.308
-439.778	110.659	0.055	0.066
-438.763	53.974	-0.385	0.370
-437.749	-190.464	-0.165	-0.002
-436.734	631.379	0.023	-0.058
-435.719	-88.122	-0.049	0.015
-434.705	-200.000	-0.015	0.199
-433.690	-27.611	-0.067	-0.039
-432.676	195.640	0.062	0.095
-431.661	49.407	-0.051	0.048
-430.646	394.176	-0.028	0.059
-429.632	-92.368	0.279	-0.079
-428.617	-200.000	-0.007	-0.054
-427.603	-111.878	-0.182	-0.037
-426.588	-22.039	0.131	0.080
-425.573	548.376	0.173	0.416
-424.559	-68.056	-0.229	-0.089
-423.544	36.278	-0.184	0.162
-422.530	-34.025	-0.138	-0.076
-421.515	-200.000	-0.016	0.400
-420.500	-128.093	0.304	-0.044
-419.486	-200.000	-0.003	0.160
-418.471	800.000	0.071	-0.237
-417.457	-200.000	0.037	-0.319
-416.442	-4.175	0.179	-0.124
-415.428	-122.072	0.274	-0.045
-414.413	270.723	-0.062	-0.108
-413.398	501.782	0.028	0.064
-412.384	-188.681	-0.569	0.007
-411.369	800.000	-0.058	-0.180
-410.355	-200.000	-0.007	0.282
-409.340	-4.265	0.130	-0.090
-408.325	12.734	-0.202	-0.156
-407.311	-88.895	-0.220	0.065
-406.296	800.000	0.071	-0.203
-405.282	468.218	0.080	0.180
-404.267	-98.565	-0.369	-0.094
-403.252	-58.490	-0.359	0.156
-402.238	427.084	0.126	0.273
-401.223	-111.403	0.323	-0.066
-400.209	69.780	-0.097	-0.100
-399.194	39.410	-0.253	-0.227
-398.179	20.394	-0.030	0.024
-397.165	160.442	-0.062	0.087
-396.150	-86.996	-0.201	-0.061
-395.136	-142.280	0.282	0.028
-394.121	187.542	-0.113	0.169
-393.106	63.439	0.128	0.128
-392.092	-35.486	0.053	0.029
-391.077	259.068	-0.091	0.157
-390.063	-165.283	-0.018	0.001
-389.048	407.764	0.080	-0.170
-388.033	-49.422	-0.293	0.140
-387.019	-43.683	0.087	0.044
-386.004	474.181	0.075	-0.169
-384.990	-59.597	-0.105	0.045
-383.975	279.290	0.183	0.327
-382.960	-200.000	-0.022	-0.132
-381.946	-46.387	-0.106	-0.052
-380.931	-25.982	-0.174	-0.102
-379.917	800.000	0.036	-0.136
-378.902	-57.397	0.106	0.047
-377.888	-42.629	-0.069	-0.035
-376.873	4.428	-0.044	0.032
-375.858	-132.583	-0.199	0.026
-374.844	648.974	0.076	0.194
-373.829	-200.000	-0.030	-0.377
-372.815	266.071	-0.133	0.231
-371.800	11.415	0.242	-0.185
-370.785	-64.325	-0.220	0.090
-369.771	-147.853	0.302	-0.025
-368.756	-32.218	0.263	-0.147
-367.742	-31.645	0.228	-0.128
-366.727	-123.326	0.268	-0.043
-365.712	-165.441	-0.336	-0.015
-364.698	-200.000	0.015	0.148
-363.683	800.000	0.034	-0.102
-362.669	110.977	-0.106	-0.127
-361.654	800.000	0.109	0.327
-360.639	800.000	-0.042	-0.159
-359.625	-42.158	-0.148	-0.076
-358.610	-134.323	0.150	0.018
-357.596	-73.723	-0.265	-0.096
-356.581	-76.636	0.135	-0.047
-355.566	-1.595	0.108	-0.076
-354.552	-140.517	0.054	0.006
-353.537	800.000	-0.042	0.144
-352.523	-200.000	0.006	-0.191
-351.508	120.110	-0.088	0.109
-350.493	-169.623	0.193	-0.007
-349.479	-26.673	0.048	0.028
-348.464	156.406	-0.041	0.057
-347.450	134.846	-0.048	0.062
-346.435	-48.160	-0.162	-0.078
-345.420	58.992	0.196	0.192
-344.406	174.993	-0.104	0.151
-343.391	-18.105	-0.070	0.044
-342.377	-200.000	0.023	0.217
-341.362	-65.448	-0.302	-0.121
-340.348	-200.000	-0.011	-0.056
-339.333	-106.407	-0.112	0.025
-338.318	-20.083	0.069	0.043
-337.304	-200.000	0.011	-0.103
-336.289	1.587	0.255	-0.183
-335.275	661.174	0.118	-0.302
-334.260	-123.369	-0.165	0.026
-333.245	-158.163	0.242	0.014
-332.231	-79.560	-0.095	-0.032
-331.216	50.749	-0.214	0.203
-330.202	-53.527	0.211	-0.096
-329.187	557.804	0.033	-0.079
-328.172	135.548	-0.077	-0.100
-327.158	-196.840	0.209	0.001
-326.143	562.537	-0.111	0.267
-325.129	-29.849	-0.277	0.157
-324.114	-45.335	-0.150	-0.074
-323.099	-200.000	0.007	-0.063
-322.085	-59.017	0.149	0.064
-321.070	1.346	-0.150	-0.108
-320.056	-200.000	-0.016	-0.100
-319.041	-200.000	0.035	0.154
-318.026	15.026	-0.048	0.037
-317.012	-200.000	-0.031	0.345
-315.997	-101.943	-0.260	0.063
-314.983	-28.818	-0.160	0.092
-313.968	800.000	0.099	-0.322
-312.953	81.187	0.356	-0.383
-311.939	-142.325	-0.044	-0.004
-310.924	-200.000	-0.074	0.448
-309.910	-147.621	0.094	-0.008
-308.895	-59.306	-0.313	-0.134
-307.880	-94.812	0.215	-0.058
-306.866	90.285	-0.197	-0.220
-305.851	800.000	-0.043	-0.155
-304.837	7.891	-0.115	0.086
-303.822	-200.000	0.030	-0.353
-302.807	-200.000	0.051	0.224
-301.793	-200.000	0.067	-0.305
-300.778	-200.000	-0.008	0.230
-299.764	-89.999	0.085	0.025
-298.749	800.000	-0.051	0.183
-297.735	-110.171	-0.159	0.033
-296.720	-34.469	0.177	-0.096
-295.705	-55.249	0.295	0.132
-294.691	80.345	-0.129	0.138
-293.676	322.828	0.122	0.231
-292.662	-102.060	0.055	0.013
-291.647	800.000	-0.070	-0.203
-290.632	83.383	0.190	0.206
-289.618	342.873	0.123	0.240
-288.603	28.067	0.021	0.017
-287.589	-79.124	0.066	0.022
-286.574	800.000	0.066	0.208
-285.559	-138.669	-0.118	0.013
-284.545	251.349	-0.053	-0.090
-283.530	-200.000	0.016	0.255
-282.516	-4.711	-0.073	0.050
-281.501	229.939	0.093	-0.152
-280.486	62.408	-0.132	0.132
-279.472	449.049	0.065	-0.142
-278.457	-168.875	0.199	0.007
-277.443	-149.471	-0.072	-0.006
-276.428	-144.635	0.170	0.016
-275.413	142.620	-0.046	-0.061
-274.399	-126.328	0.124	-0.018
-273.384	-100.428	0.039	0.010
-272.370	-113.814	0.231	0.045
-271.355	244.129	0.182	-0.304
-270.340	-37.353	0.205	0.109
-269.326	112.905	-0.075	-0.090
-268.311	-65.746	0.118	-0.047
-267.297	800.000	0.137	-0.395
-266.282	-102.332	-0.245	0.058
-265.267	67.548	-0.142	0.144
-264.253	4.623	0.092	0.067
-263.238	-200.000	0.089	0.485
-262.224	800.000	0.011	0.030
-261.209	97.353	-0.046	-0.053
-260.195	45.993	0.222	-0.204
-259.180	111.139	-0.201	-0.241
-258.165	-12.623	0.223	-0.145
-257.151	-10.561	-0.380	0.250
-256.136	609.249	0.080	-0.198
-255.122	-200.000	-0.015	0.300
-254.107	-169.504	-0.238	0.009
-253.092	800.000	0.121	0.350
-252.078	114.952	0.186	-0.225
-251.063	514.355	-0.054	-0.126
-250.049	800.000	-0.098	0.294
-249.034	800.000	0.109	-0.422
-248.019	-68.666	0.186	-0.071
-247.005	-8.838	-0.318	0.212
-245.990	171.033	-0.150	-0.214
-244.976	-200.000	0.008	0.192
-243.961	-200.000	0.020	-0.146
-242.946	49.775	-0.251	-0.235
-241.932	-25.190	0.136	-0.080
-240.917	-98.986	0.105	-0.027
-239.903	800.000	0.086	0.290
-238.888	11.625	-0.196	0.149
-237.873	-74.903	0.316	-0.112
-236.859	32.105	0.202	-0.173
-235.844	-200.000	-0.062	-0.334
-234.830	-38.049	-0.187	0.098
-233.815	-200.000	0.089	-0.000
-232.800	800.000	0.078	-0.222
-231.786	211.949	0.127	-0.199
-230.771	63.131	-0.146	-0.145
-229.757	209.531	0.051	-0.079
-228.742	-107.208	-0.322	0.070
-227.727	86.163	-0.003	0.003
-226.713	-111.259	0.471	-0.096
-225.698	490.417	-0.074	0.167
-224.684	-200.000	0.015	0.082
-223.669	174.521	0.186	0.267
-222.655	-17.918	0.165	-0.103
-221.640	-63.847	0.303	0.123
-220.625	800.000	-0.122	0.456
-219.611	36.176	-0.305	0.267
-218.596	-200.000	-0.012	0.072
-217.582	-193.297	0.157	0.001
-216.567	-200.000	-0.010	0.076
-215.552	523.024	0.092	0.215
-214.538	-110.893	-0.238	0.049
-213.523	49.108	0.164	0.153
-212.509	100.739	-0.133	-0.153
-211.494	-200.000	0.024	0.346
-210.479	-81.552	0.111	0.036
-209.465	10.829	0.125	0.094
-208.450	106.050	0.166	0.195
-207.436	527.175	-0.010	0.024
-206.421	14.903	-0.070	0.055
-205.406	33.743	0.390	0.337
-204.392	-15.984	0.202	0.128
-203.377	-200.000	-0.043	0.203
-202.363	194.352	0.083	0.124
-201.348	760.795	-0.053	0.142
-200.333	42.602	0.248	0.224
-199.319	-200.000	0.001	0.081
-198.304	436.725	-0.082	-0.177
-197.290	69.574	-0.238	-0.244
-196.275	-49.340	0.236	-0.112
-195.260	61.744	-0.065	0.064
-194.246	323.526	0.027	0.052
-193.231	-139.941	-0.184	0.019
-192.217	-200.000	0.077	0.375
-191.202	747.832	0.062	0.167
-190.187	2.874	-0.081	-0.059
-189.173	-150.111	-0.286	0.022
-188.158	387.883	0.133	0.274
-187.144	800.000	-0.111	0.397
-186.129	-32.642	0.204	-0.112
-185.114	-62.640	0.168	-0.069
-184.100	-154.596	-0.077	-0.005
-183.085	800.000	-0.041	0.159
-182.071	213.757	0.059	0.092
-181.056	529.130	-0.109	0.255
-180.042	-200.000	-0.014	0.148
-179.027	-200.000	0.016	-0.358
-178.012	28.135	0.298	0.249
-176.998	174.687	-0.302	-0.433
-175.983	61.984	-0.035	0.034
-174.969	104.436	0.219	-0.255
-173.954	-91.640	-0.258	-0.073
-172.939	34.927	0.070	0.061
-171.925	-45.448	0.130	-0.064
-170.910	-88.211	0.241	0.072
-169.896	490.098	0.046	0.104
-168.881	-200.000	0.024	-0.236
-167.866	-44.971	-0.246	-0.121
-166.852	-200.000	-0.010	0.168
-165.837	333.163	0.086	0.164
-164.823	-68.045	0.372	-0.144
-163.808	-32.629	-0.223	-0.123
-162.793	363.616	-0.057	-0.113
-161.779	19.928	-0.027	-0.022
-160.764	-200.000	0.032	-0.149
-159.750	-95.545	-0.212	0.056
-158.735	701.366	-0.012	-0.032
-157.720	-96.882	-0.333	-0.087
-156.706	-200.000	-0.029	0.207
-155.691	121.957	0.138	-0.171
-154.677	27.900	-0.035	-0.029
-153.662	800.000	0.003	0.009
-152.647	-47.958	0.135	-0.065
-151.633	66.927	-0.123	0.124
-150.618	362.607	0.092	-0.183
-149.604	-172.728	0.350	-0.011
-148.589	-104.113	0.368	-0.085
-147.574	-136.690	-0.149	-0.017
-146.560	49.668	-0.158	-0.148
-145.545	109.931	0.070	0.083
-144.531	800.000	-0.027	0.110
-143.516	177.475	0.219	0.316
-142.502	-115.456	0.197	-0.037
-141.487	800.000	0.110	0.313
-140.472	-31.860	0.190	0.105
-139.458	-200.000	0.027	0.231
-138.443	59.530	-0.196	-0.191
-137.429	-94.435	0.238	-0.064
-136.414	-111.692	0.385	0.077
-135.399	82.085	-0.019	0.020
-134.385	800.000	-0.119	0.334
-133.370	46.096	-0.092	0.084
-132.356	385.398	-0.152	0.310
-131.341	184.878	0.069	0.101
-130.326	-104.974	-0.255	-0.058
-129.312	-200.000	-0.042	0.229
-128.297	-60.646	0.170	-0.071
-127.283	408.007	0.198	0.414
-126.268	-117.788	0.291	0.052
-125.253	-55.041	0.324	0.144
-124.239	17.075	0.281	0.220
-123.224	-200.000	0.007	-0.437
-122.210	34.678	0.236	-0.204
-121.195	800.000	0.103	0.417
-120.180	103.234	-0.036	0.042
