DTS Sentinel unit serial number:	SN413079Multiplexer serial number:	ORYXHardware model number:	OX4-SRSoftware version number:	ORYX F/W v4.00 Oryx Data Collector v3.7.2.0data status	okinstallation	princeton_trtdifferential loss correction	single-endedforward channel	channel 1reverse channel	N/Adate	2019/09/13time	17:06:35forward acquisition time	60.00reverse acquisition time	0.00gamma	496.2192k internal	0.2298k external	0.2298temperature offset calibration	1.0141default loss term (dB/km)	0.3790temperature slope calibration	1.0000multiplexer offset coefficient	1.0000multiplexer slope coefficient	1.0000fibre end	0.00T internal ref (°C)	35.17T ext. ref 1 (°C)	4.81T ext. ref 2 (°C)	34.90length (m)	temperature (°C)	Stokes	anti-Stokes-747.200	33.157	-0.078	0.069
-746.185	-102.307	-0.374	0.092
-745.171	-200.000	-0.021	-0.174
-744.156	-51.373	-0.220	0.105
-743.142	-175.662	-0.214	-0.006
-742.127	30.270	-0.171	-0.149
-741.112	35.870	0.190	0.171
-740.098	532.956	-0.057	-0.138
-739.083	-53.642	0.226	-0.106
-738.069	102.362	0.225	0.269
-737.054	6.714	0.102	0.077
-736.039	-110.400	-0.155	0.033
-735.025	-200.000	0.097	0.501
-734.010	-46.487	-0.289	-0.145
-732.996	106.671	0.091	-0.111
-731.981	-28.861	-0.062	-0.036
-730.966	72.062	-0.245	-0.260
-729.952	-92.602	-0.376	-0.108
-728.937	-107.238	-0.227	0.051
-727.923	-126.046	-0.191	0.029
-726.908	241.767	-0.198	-0.338
-725.894	-33.264	-0.032	0.018
-724.879	-49.285	0.310	0.151
-723.864	20.850	0.097	-0.080
-722.850	89.570	-0.144	-0.164
-721.835	351.814	0.048	-0.097
-720.821	-90.622	-0.237	-0.070
-719.806	152.933	0.019	-0.027
-718.791	63.156	-0.169	0.173
-717.777	-67.155	-0.055	-0.022
-716.762	-106.635	0.306	-0.069
-715.748	-17.018	-0.143	-0.092
-714.733	-51.395	-0.088	-0.042
-713.718	-87.335	0.290	-0.090
-712.704	211.713	0.071	-0.114
-711.689	-103.316	-0.218	-0.052
-710.675	800.000	0.092	-0.338
-709.660	246.038	0.024	0.042
-708.645	-85.021	0.153	-0.049
-707.631	-117.087	-0.288	0.053
-706.616	-187.926	-0.249	0.003
-705.602	-68.965	-0.298	-0.117
-704.587	-57.005	-0.140	-0.063
-703.572	-114.070	-0.272	-0.054
-702.558	2.961	0.085	0.063
-701.543	-122.139	-0.270	0.045
-700.529	746.016	0.019	-0.053
-699.514	-114.003	0.147	-0.029
-698.499	260.786	0.103	0.181
-697.485	19.027	0.294	-0.240
-696.470	67.880	0.310	0.324
-695.456	324.086	-0.026	-0.051
-694.441	-90.299	-0.079	0.023
-693.426	-94.536	-0.206	-0.057
-692.412	-34.227	-0.178	-0.099
-691.397	-5.096	0.116	-0.081
-690.383	-109.349	-0.082	-0.018
-689.368	7.738	0.071	-0.054
-688.354	58.147	-0.111	-0.110
-687.339	8.103	-0.220	0.168
-686.324	-108.822	0.424	0.092
-685.310	76.840	-0.058	0.063
-684.295	-35.415	0.135	-0.075
-683.281	17.610	0.133	-0.108
-682.266	-200.000	-0.035	0.294
-681.251	-74.815	-0.196	0.072
-680.237	192.098	-0.058	0.089
-679.222	-106.117	-0.120	-0.027
-678.208	-200.000	-0.007	-0.226
-677.193	204.085	0.075	0.119
-676.178	-168.168	-0.548	-0.022
-675.164	-200.000	0.031	0.212
-674.149	345.305	-0.012	0.024
-673.135	-56.492	-0.124	0.056
-672.120	-200.000	-0.014	-0.119
-671.105	-200.000	0.023	-0.157
-670.091	-89.395	0.127	0.038
-669.076	-109.363	0.080	-0.017
-668.062	332.315	-0.056	0.110
-667.047	264.782	0.225	0.400
-666.032	-134.665	0.304	-0.038
-665.018	-200.000	0.011	0.180
-664.003	-188.789	-0.145	0.002
-662.989	-200.000	-0.004	-0.166
-661.974	252.887	-0.086	0.149
-660.959	-115.917	-0.249	0.047
-659.945	-88.920	-0.179	-0.054
-658.930	-173.019	0.328	0.010
-657.916	-7.210	-0.117	0.081
-656.901	456.235	-0.255	0.577
-655.886	-164.355	0.345	0.016
-654.872	65.038	0.267	0.274
-653.857	-97.156	0.278	0.074
-652.843	800.000	-0.064	-0.229
-651.828	103.108	0.147	-0.175
-650.814	-42.215	0.204	-0.106
-649.799	339.102	0.140	-0.277
-648.784	590.685	0.139	-0.350
-647.770	800.000	0.060	0.185
-646.755	800.000	-0.073	-0.224
-645.741	-67.504	-0.267	-0.106
-644.726	-139.390	0.270	-0.029
-643.711	127.800	0.056	-0.073
-642.697	56.087	-0.140	-0.138
-641.682	-42.840	0.159	-0.082
-640.668	469.650	-0.047	-0.108
-639.653	-54.935	-0.015	-0.007
-638.638	-95.960	-0.024	0.006
-637.624	-158.994	0.254	-0.015
-636.609	219.310	-0.146	-0.237
-635.595	253.244	-0.015	0.026
-634.580	-135.074	0.193	-0.024
-633.565	-200.000	0.048	-0.214
-632.551	-137.868	0.057	0.006
-631.536	-200.000	0.011	-0.130
-630.522	58.476	-0.122	-0.122
-629.507	-200.000	-0.005	-0.066
-628.492	-200.000	-0.037	0.186
-627.478	125.069	-0.045	-0.058
-626.463	116.509	0.173	0.216
-625.449	-95.933	0.268	0.072
-624.434	-200.000	-0.018	-0.135
-623.419	-200.000	0.007	0.100
-622.405	-38.715	-0.177	-0.095
-621.390	-68.094	-0.222	0.088
-620.376	800.000	-0.061	0.226
-619.361	800.000	0.022	-0.084
-618.346	-200.000	0.011	-0.098
-617.332	-200.000	-0.002	0.130
-616.317	-200.000	0.079	-0.519
-615.303	-81.479	0.229	-0.077
-614.288	-58.963	0.186	-0.082
-613.273	543.869	0.081	0.197
-612.259	75.384	0.194	0.208
-611.244	-82.655	0.185	0.061
-610.230	-63.264	-0.134	-0.056
-609.215	-82.524	0.355	0.117
-608.201	-151.574	-0.167	0.013
-607.186	167.692	0.210	0.304
-606.171	-42.044	-0.361	0.188
-605.157	-24.443	0.083	0.050
-604.142	-108.341	-0.361	0.079
-603.128	-200.000	0.049	0.248
-602.113	800.000	0.044	0.191
-601.098	763.857	0.068	0.186
-600.084	-66.490	0.520	-0.210
-599.069	-122.895	-0.340	-0.056
-598.055	-200.000	0.005	-0.077
-597.040	10.355	-0.303	-0.234
-596.025	-200.000	0.143	-0.000
-595.011	-58.759	-0.280	-0.123
-593.996	-127.895	0.267	-0.039
-592.982	1.161	0.069	0.050
-591.967	81.024	0.118	-0.129
-590.952	800.000	-0.025	0.082
-589.938	-200.000	0.001	-0.191
-588.923	83.771	0.021	-0.023
-587.909	-116.556	-0.365	0.068
-586.894	-90.051	-0.114	-0.034
-585.879	-16.406	-0.411	-0.265
-584.865	104.897	-0.065	-0.077
-583.850	-65.413	0.100	-0.041
-582.836	-68.780	-0.254	0.100
-581.821	800.000	0.071	-0.226
-580.806	-158.497	-0.094	0.006
-579.792	800.000	0.083	-0.315
-578.777	480.695	0.043	-0.100
-577.763	153.014	-0.188	-0.261
-576.748	-200.000	-0.001	0.286
-575.733	-200.000	0.009	-0.072
-574.719	-105.483	-0.305	0.070
-573.704	-83.885	-0.320	-0.103
-572.690	252.822	-0.209	0.362
-571.675	174.249	0.120	-0.176
-570.661	-59.722	0.113	0.049
-569.646	194.032	0.051	0.078
-568.631	-74.848	0.184	-0.067
-567.617	279.381	0.068	-0.123
-566.602	-200.000	-0.001	0.167
-565.588	460.338	0.027	-0.060
-564.573	-200.000	0.050	-0.226
-563.558	142.008	0.196	-0.264
-562.544	-91.811	0.373	-0.107
-561.529	800.000	-0.063	0.204
-560.515	-155.441	0.127	0.008
-559.500	-67.969	-0.273	0.108
-558.485	-58.182	-0.093	-0.041
-557.471	-64.111	-0.051	-0.021
-556.456	129.597	-0.156	0.202
-555.442	-141.665	0.375	-0.038
-554.427	-52.994	-0.083	0.039
-553.412	38.802	-0.255	0.230
-552.398	286.426	0.055	0.101
-551.383	-37.167	-0.273	0.148
-550.369	-29.755	-0.327	-0.189
-549.354	-110.752	-0.247	0.052
-548.339	-200.000	0.026	0.192
-547.325	-59.034	0.092	0.040
-546.310	6.839	-0.146	0.110
-545.296	-200.000	0.024	0.118
-544.281	-101.166	0.090	0.022
-543.266	-39.568	0.052	0.028
-542.252	211.798	0.099	0.157
-541.237	-200.000	-0.014	-0.273
-540.223	196.060	0.059	-0.091
-539.208	-84.219	0.245	-0.079
-538.193	-200.000	-0.012	0.098
-537.179	191.489	-0.065	0.100
-536.164	19.462	0.043	0.035
-535.150	131.379	-0.051	-0.066
-534.135	-200.000	0.028	0.309
-533.121	800.000	0.018	0.053
-532.106	-78.026	-0.259	-0.090
-531.091	141.169	0.120	-0.161
-530.077	51.290	0.027	-0.026
-529.062	-47.982	-0.228	0.112
-528.048	-106.336	-0.242	-0.055
-527.033	-200.000	-0.002	-0.242
-526.018	-118.145	0.283	-0.051
-525.004	34.703	0.071	-0.063
-523.989	-54.925	-0.131	0.060
-522.975	9.355	-0.385	-0.295
-521.960	-173.638	0.540	0.016
-520.945	-141.061	0.320	-0.033
-519.931	-200.000	0.003	-0.020
-518.916	-70.212	0.394	0.152
-517.902	141.462	-0.190	0.255
-516.887	15.801	0.134	0.107
-515.872	-161.164	-0.348	-0.018
-514.858	107.132	0.106	-0.128
-513.843	122.600	0.016	-0.020
-512.829	178.120	0.240	0.354
-511.814	270.268	-0.101	0.180
-510.799	-83.072	0.157	0.051
-509.785	800.000	-0.023	-0.075
-508.770	48.700	-0.364	-0.346
-507.756	-200.000	-0.010	-0.092
-506.741	382.635	-0.071	-0.148
-505.726	402.902	0.045	-0.097
-504.712	79.349	-0.124	0.135
-503.697	-200.000	-0.004	-0.037
-502.683	-200.000	-0.006	-0.040
-501.668	219.199	0.150	-0.243
-500.653	-200.000	-0.013	-0.072
-499.639	-70.362	0.299	-0.115
-498.624	289.898	0.016	-0.029
-497.610	-13.132	-0.353	0.232
-496.595	-53.801	-0.164	0.076
-495.581	800.000	0.040	-0.124
-494.566	-162.448	-0.093	0.005
-493.551	-200.000	-0.011	0.252
-492.537	331.637	-0.112	-0.219
-491.522	-200.000	-0.017	0.227
-490.508	-200.000	-0.032	0.152
-489.493	-200.000	0.006	-0.186
-488.478	-128.953	-0.235	0.033
-487.464	-92.450	0.206	-0.059
-486.449	800.000	-0.013	0.037
-485.435	-153.459	0.339	0.024
-484.420	171.010	0.144	-0.209
-483.405	580.306	-0.028	0.069
-482.391	-149.247	0.143	-0.012
-481.376	800.000	-0.127	-0.451
-480.362	640.867	-0.033	-0.084
-479.347	-70.029	-0.340	-0.131
-478.332	-14.964	-0.049	-0.032
-477.318	55.761	-0.028	0.027
-476.303	800.000	-0.043	0.173
-475.289	-102.679	0.339	-0.082
-474.274	-96.302	0.157	-0.042
-473.259	-19.926	-0.183	0.114
-472.245	-22.233	-0.220	0.135
-471.230	-200.000	0.035	-0.292
-470.216	12.338	0.139	-0.108
-469.201	602.092	0.091	-0.228
-468.186	800.000	-0.016	0.065
-467.172	-200.000	0.002	0.239
-466.157	800.000	-0.014	-0.044
-465.143	4.525	0.132	0.098
-464.128	-108.179	-0.121	0.026
-463.113	-78.790	-0.140	-0.048
-462.099	800.000	-0.078	-0.253
-461.084	-97.143	-0.278	-0.073
-460.070	-5.503	-0.221	-0.153
-459.055	56.419	-0.180	-0.177
-458.040	-134.509	0.216	-0.027
-457.026	-56.220	0.034	-0.015
-456.011	246.644	0.192	0.326
-454.997	-5.843	0.084	0.058
-453.982	-97.041	0.194	-0.051
-452.968	800.000	-0.015	0.045
-451.953	246.250	-0.106	0.181
-450.938	-185.149	-0.187	-0.003
-449.924	-75.155	-0.166	0.060
-448.909	132.960	-0.097	-0.126
-447.895	-200.000	0.042	-0.278
-446.880	401.136	0.108	0.229
-445.865	-103.944	0.278	0.065
-444.851	-31.771	0.083	0.047
-443.836	-124.485	0.091	0.014
-442.822	-47.079	0.268	0.132
-441.807	800.000	0.053	0.196
-440.792	209.310	-0.181	0.286
-439.778	-71.441	-0.114	-0.043
-438.763	-98.180	0.153	-0.040
-437.749	-200.000	0.001	-0.085
-436.734	-125.490	0.365	0.056
-435.719	-189.794	-0.110	-0.001
-434.705	399.787	0.202	-0.428
-433.690	800.000	0.087	-0.328
-432.676	15.500	-0.024	0.019
-431.661	-38.577	-0.152	0.081
-430.646	686.134	-0.123	0.325
-429.632	43.288	-0.027	0.024
-428.617	-81.367	-0.241	-0.080
-427.603	-120.211	-0.320	-0.055
-426.588	92.936	0.232	-0.265
-425.573	-37.425	0.237	0.128
-424.559	715.623	-0.076	-0.204
-423.544	-27.812	-0.268	0.157
-422.530	800.000	0.081	0.237
-421.515	-200.000	-0.038	0.360
-420.500	514.189	-0.157	0.370
-419.486	-200.000	0.033	0.260
-418.471	229.377	-0.016	-0.027
-417.457	-104.059	0.015	-0.004
-416.442	24.021	0.415	-0.345
-415.428	15.304	-0.314	-0.248
-414.413	-26.137	-0.080	0.047
-413.398	566.239	-0.116	0.285
-412.384	195.270	0.050	-0.077
-411.369	-84.520	0.123	-0.039
-410.355	-18.595	0.248	-0.156
-409.340	685.530	0.108	0.285
-408.325	265.721	-0.114	0.201
-407.311	-200.000	0.026	0.423
-406.296	-12.023	0.239	-0.158
-405.282	-93.485	0.225	0.063
-404.267	800.000	-0.095	0.327
-403.252	-81.957	0.226	0.075
-402.238	219.220	0.120	-0.193
-401.223	800.000	0.008	-0.028
-400.209	8.016	-0.220	-0.166
-399.194	23.921	0.129	0.107
-398.179	242.968	0.092	-0.156
-397.165	-104.238	0.167	0.039
-396.150	-133.444	-0.537	-0.068
-395.136	-19.495	-0.137	-0.086
-394.121	214.539	-0.125	0.200
-393.106	152.329	-0.367	-0.505
-392.092	800.000	-0.067	0.199
-391.077	800.000	-0.009	0.037
-390.063	84.519	0.249	0.275
-389.048	5.609	0.101	0.075
-388.033	539.527	0.120	-0.287
-387.019	-51.878	0.361	-0.169
-386.004	800.000	-0.005	0.019
-384.990	-200.000	-0.011	-0.061
-383.975	-62.676	-0.130	0.054
-382.960	-200.000	0.025	0.438
-381.946	152.053	-0.152	-0.208
-380.931	-174.516	0.044	0.001
-379.917	42.397	-0.099	-0.090
-378.902	-26.696	-0.180	-0.106
-377.888	147.490	-0.174	0.235
-376.873	172.617	-0.157	-0.228
-375.858	-51.770	0.060	-0.028
-374.844	-59.533	0.298	-0.129
-373.829	37.443	0.078	0.070
-372.815	-200.000	0.007	0.344
-371.800	61.661	0.119	0.119
-370.785	44.134	-0.352	0.325
-369.771	-200.000	-0.038	-0.178
-368.756	-200.000	0.022	0.129
-367.742	747.600	0.025	-0.067
-366.727	52.528	0.203	0.195
-365.712	-102.963	0.481	-0.115
-364.698	-200.000	-0.015	-0.199
-363.683	-94.168	0.102	-0.028
-362.669	118.179	-0.163	0.202
-361.654	25.581	-0.055	-0.046
-360.639	-30.324	0.363	0.207
-359.625	-200.000	-0.053	0.304
-358.610	800.000	0.035	-0.119
-357.596	-15.016	0.220	-0.142
-356.581	-110.992	0.194	-0.040
-355.566	-124.750	0.318	0.049
-354.552	18.406	0.078	-0.063
-353.537	-136.213	-0.326	0.038
-352.523	453.440	0.075	-0.168
-351.508	-73.235	0.407	-0.150
-350.493	-31.070	-0.177	0.100
-349.479	-129.577	0.102	0.014
-348.464	638.641	-0.073	0.186
-347.450	-88.353	-0.290	-0.087
-346.435	800.000	0.019	0.068
-345.420	800.000	0.092	-0.313
-344.406	-38.621	0.126	0.067
-343.391	-200.000	-0.042	0.203
-342.377	-11.557	-0.257	0.170
-341.362	-200.000	-0.003	-0.299
-340.348	-48.841	0.307	0.148
-339.333	-200.000	-0.028	0.141
-338.318	362.956	0.086	-0.174
-337.304	-200.000	0.024	0.512
-336.289	15.667	-0.129	0.102
-335.275	-134.751	-0.320	0.039
-334.260	-41.545	-0.100	-0.052
-333.245	-134.851	-0.168	0.021
-332.231	-43.852	-0.242	0.123
-331.216	40.169	-0.094	0.084
-330.202	222.999	-0.125	-0.203
-329.187	-16.915	-0.244	0.155
-328.172	-79.454	0.126	0.043
-327.158	178.290	-0.117	0.171
-326.143	-153.800	-0.191	-0.013
-325.129	-0.032	0.218	0.156
-324.114	291.189	-0.110	0.201
-323.099	800.000	-0.092	-0.300
-322.085	-26.618	-0.344	-0.202
-321.070	396.759	0.095	-0.200
-320.056	187.402	0.010	-0.015
-319.041	-33.450	-0.186	0.103
-318.026	-94.345	0.160	-0.044
-317.012	-95.166	0.290	-0.078
-315.997	-200.000	0.011	0.189
-314.983	318.869	-0.165	-0.315
-313.968	120.689	-0.105	0.131
-312.953	-200.000	-0.010	-0.212
-311.939	393.706	-0.096	-0.201
-310.924	800.000	0.005	0.019
-309.910	317.584	0.136	0.257
-308.895	-80.239	-0.088	0.029
-307.880	-7.619	-0.203	-0.138
-306.866	-174.499	0.169	-0.005
-305.851	255.632	-0.230	-0.395
-304.837	-81.061	0.144	-0.048
-303.822	84.158	0.131	-0.143
-302.807	74.234	-0.207	0.218
-301.793	-12.996	0.237	0.155
-300.778	-10.877	-0.286	0.190
-299.764	-200.000	-0.031	-0.164
-298.749	800.000	-0.066	0.241
-297.735	-200.000	0.028	0.222
-296.720	30.537	0.222	-0.190
-295.705	28.396	0.148	-0.126
-294.691	21.226	0.242	-0.197
-293.676	-126.130	0.084	0.013
-292.662	154.637	-0.245	-0.337
-291.647	224.959	0.093	-0.150
-290.632	-200.000	0.023	-0.100
-289.618	-200.000	-0.010	0.107
-288.603	-29.135	-0.577	-0.332
-287.589	-25.482	-0.348	0.206
-286.574	609.248	-0.072	-0.180
-285.559	-15.610	0.167	-0.107
-284.545	-79.343	-0.082	-0.028
-283.530	597.209	0.150	0.373
-282.516	-146.628	0.387	-0.034
-281.501	-53.716	0.143	0.066
-280.486	417.478	0.192	0.411
-279.472	-85.343	-0.309	0.097
-278.457	59.483	0.217	-0.215
-277.443	-52.774	0.278	0.128
-276.428	800.000	0.053	-0.149
-275.413	224.687	-0.041	-0.066
-274.399	-200.000	0.054	-0.285
-273.384	117.019	0.177	0.217
-272.370	-200.000	-0.003	-0.019
-271.355	-113.005	-0.334	-0.066
-270.340	-30.072	0.179	-0.102
-269.326	-95.504	-0.434	-0.117
-268.311	88.984	-0.274	-0.306
-267.297	-200.000	0.001	0.064
-266.282	169.281	-0.190	-0.271
-265.267	-88.759	-0.311	0.093
-264.253	-100.059	0.309	0.077
-263.238	-200.000	-0.066	-0.347
-262.224	-41.420	0.284	-0.147
-261.209	-145.618	0.198	0.018
-260.195	50.553	-0.074	0.070
-259.180	676.645	-0.131	-0.340
-258.165	-118.464	-0.236	-0.042
-257.151	296.330	-0.068	0.124
-256.136	-48.815	-0.217	0.104
-255.122	-88.949	-0.256	-0.076
-254.107	739.997	-0.030	0.081
-253.092	-167.726	-0.174	0.007
-252.078	-27.245	-0.204	0.119
-251.063	-200.000	0.020	0.363
-250.049	-126.853	-0.156	0.023
-249.034	590.213	-0.086	0.212
-248.019	-200.000	-0.002	-0.176
-247.005	-188.801	0.164	-0.002
-245.990	585.108	0.134	0.329
-244.976	-73.709	0.319	0.116
-243.961	-25.821	0.243	0.143
-242.946	24.999	0.168	-0.140
-241.932	800.000	-0.044	-0.135
-240.917	748.372	0.082	0.220
-239.903	-169.995	0.373	-0.013
-238.888	360.129	0.112	-0.224
-237.873	-23.323	0.022	-0.013
-236.859	169.801	0.054	-0.077
-235.844	800.000	-0.077	-0.280
-234.830	51.435	0.271	-0.258
-233.815	800.000	0.143	0.408
-232.800	124.015	0.113	0.142
-231.786	386.529	-0.019	-0.040
-230.771	-82.032	-0.200	0.065
-229.757	-145.423	0.213	0.019
-228.742	-45.109	-0.175	0.087
-227.727	-91.659	-0.310	0.088
-226.713	-26.781	-0.244	-0.143
-225.698	-200.000	0.030	0.213
-224.684	23.987	0.154	0.127
-223.669	9.305	0.163	0.124
-222.655	-34.664	-0.142	0.078
-221.640	88.469	0.168	0.187
-220.625	128.067	0.018	-0.023
-219.611	-200.000	0.005	0.034
-218.596	-93.538	-0.338	-0.093
-217.582	112.398	0.046	0.056
-216.567	-70.193	-0.201	0.076
-215.552	-104.612	-0.116	0.027
-214.538	-56.150	-0.193	0.086
-213.523	-112.877	0.113	0.022
-212.509	800.000	-0.013	0.042
-211.494	19.462	0.207	-0.166
-210.479	-50.928	0.077	-0.036
-209.465	-40.125	0.172	0.090
-208.450	-72.208	-0.235	-0.087
-207.436	245.051	0.047	0.079
-206.421	800.000	0.061	-0.207
-205.406	-96.284	-0.397	-0.105
-204.392	61.681	0.029	0.029
-203.377	80.527	-0.211	0.227
-202.363	335.678	0.074	0.143
-201.348	206.544	-0.332	-0.516
-200.333	307.665	0.105	-0.196
-199.319	480.631	0.082	0.187
-198.304	-3.100	0.260	0.181
-197.290	-200.000	0.005	-0.058
-196.275	-82.543	-0.281	0.091
-195.260	621.962	-0.101	0.254
-194.246	-68.342	0.145	0.056
-193.231	-132.711	-0.260	0.033
-192.217	-45.994	0.279	-0.138
-191.202	-196.638	-0.440	-0.003
-190.187	-128.270	0.282	-0.040
-189.173	287.943	-0.188	0.341
-188.158	-52.126	-0.487	0.226
-187.144	-60.271	0.192	-0.082
-186.129	800.000	0.085	0.303
-185.114	240.030	0.148	0.247
-184.100	800.000	-0.097	0.287
-183.085	41.794	-0.157	0.142
-182.071	101.188	0.049	0.057
-181.056	482.014	-0.138	0.313
-180.042	800.000	0.029	0.086
-179.027	115.107	0.269	-0.328
-178.012	800.000	0.076	0.231
-176.998	-80.542	0.212	0.071
-175.983	-45.011	0.338	-0.168
-174.969	-170.625	0.205	-0.007
-173.954	800.000	0.043	0.163
-172.939	-73.615	-0.504	-0.184
-171.925	620.733	0.106	-0.266
-170.910	800.000	0.087	-0.275
-169.896	-200.000	-0.021	0.153
-168.881	303.462	0.086	-0.159
-167.866	-200.000	0.014	-0.137
-166.852	800.000	-0.066	0.278
-165.837	-200.000	-0.045	0.208
-164.823	559.317	0.068	0.163
-163.808	-163.784	0.493	-0.023
-162.793	-200.000	0.044	-0.300
-161.779	-200.000	-0.003	-0.084
-160.764	-27.181	0.140	-0.081
-159.750	34.960	0.183	-0.160
-158.735	-29.649	0.128	-0.073
-157.720	800.000	0.037	0.146
-156.706	-55.384	-0.061	0.027
-155.691	126.814	0.062	-0.078
-154.677	88.002	-0.142	-0.157
-153.662	-21.009	0.342	0.209
-152.647	16.403	-0.124	-0.098
-151.633	-200.000	0.074	-0.366
-150.618	800.000	-0.065	-0.240
-149.604	-144.060	-0.193	-0.018
-148.589	57.950	0.194	0.190
-147.574	-87.032	0.292	0.089
-146.560	362.007	-0.098	-0.196
-145.545	-36.903	0.309	-0.165
-144.531	800.000	0.030	-0.104
-143.516	-21.887	0.194	0.118
-142.502	-87.443	0.217	0.065
-141.487	25.688	0.452	0.376
-140.472	207.171	-0.143	-0.223
-139.458	-200.000	-0.013	-0.180
-138.443	175.949	0.146	-0.212
-137.429	109.184	-0.131	-0.156
-136.414	-44.991	0.149	-0.074
-135.399	30.935	-0.136	-0.116
-134.385	-200.000	-0.007	0.178
-133.370	-200.000	-0.010	-0.182
-132.356	51.483	0.284	-0.269
-131.341	-144.411	0.152	-0.014
-130.326	-200.000	0.020	-0.304
-129.312	243.052	-0.079	0.133
-128.297	-200.000	-0.006	-0.263
-127.283	-200.000	-0.005	0.122
-126.268	-200.000	-0.014	0.160
-125.253	50.446	0.087	0.082
-124.239	317.475	-0.089	0.168
-123.224	56.401	-0.171	-0.166
-122.210	111.733	0.229	0.275
