DTS Sentinel unit serial number:	SN413079Multiplexer serial number:	ORYXHardware model number:	OX4-SRSoftware version number:	ORYX F/W v4.00 Oryx Data Collector v3.7.2.0data status	okinstallation	princeton_trtdifferential loss correction	single-endedforward channel	channel 1reverse channel	N/Adate	2019/09/15time	19:30:35forward acquisition time	60.00reverse acquisition time	0.00gamma	496.2192k internal	0.2300k external	0.2300temperature offset calibration	0.9955default loss term (dB/km)	0.3790temperature slope calibration	1.0000multiplexer offset coefficient	1.0000multiplexer slope coefficient	1.0000fibre end	0.00T internal ref (°C)	38.67T ext. ref 1 (°C)	7.31T ext. ref 2 (°C)	28.14length (m)	temperature (°C)	Stokes	anti-Stokes-747.200	-74.609	-0.096	-0.035
-746.185	-102.381	-0.126	0.031
-745.171	73.966	-0.265	0.283
-744.156	384.533	-0.058	0.122
-743.142	-134.495	-0.209	-0.026
-742.127	-104.326	0.094	-0.022
-741.112	36.911	-0.186	-0.168
-740.098	-200.000	-0.044	0.385
-739.083	129.448	0.088	-0.114
-738.069	-179.825	-0.229	0.005
-737.054	-200.000	-0.040	0.195
-736.039	-80.510	0.155	0.053
-735.025	-200.000	0.003	-0.313
-734.010	-88.138	-0.366	-0.112
-732.996	800.000	-0.019	-0.075
-731.981	1.457	-0.042	0.031
-730.966	-200.000	-0.110	-0.604
-729.952	587.060	-0.186	-0.466
-728.937	-140.983	-0.109	-0.011
-727.923	-96.967	-0.222	-0.059
-726.908	572.518	-0.144	0.359
-725.894	-68.801	0.127	0.050
-724.879	800.000	-0.026	-0.102
-723.864	-107.804	-0.065	0.014
-722.850	-47.250	-0.208	0.103
-721.835	-148.333	-0.464	-0.039
-720.821	800.000	-0.089	-0.297
-719.806	800.000	-0.120	-0.418
-718.791	51.715	0.298	-0.289
-717.777	-134.439	0.058	-0.007
-716.762	-46.487	0.110	-0.055
-715.748	-200.000	-0.020	-0.114
-714.733	-200.000	-0.021	-0.216
-713.718	152.108	-0.055	-0.077
-712.704	800.000	-0.059	-0.240
-711.689	571.857	-0.089	0.222
-710.675	128.828	-0.062	-0.080
-709.660	-59.391	-0.378	-0.166
-708.645	560.609	-0.079	-0.194
-707.631	101.679	-0.279	-0.331
-706.616	160.570	-0.211	-0.300
-705.602	152.265	-0.138	-0.192
-704.587	51.047	-0.230	-0.222
-703.572	782.232	-0.099	0.277
-702.558	800.000	-0.095	-0.269
-701.543	800.000	-0.085	-0.277
-700.529	-110.202	0.233	-0.050
-699.514	-117.882	0.236	0.043
-698.499	-83.409	0.109	0.035
-697.485	-200.000	0.056	-0.562
-696.470	-2.497	-0.223	0.159
-695.456	-46.727	0.311	-0.155
-694.441	-143.280	0.188	-0.018
-693.426	-66.987	-0.285	-0.114
-692.412	23.103	0.041	-0.035
-691.397	-55.467	0.268	-0.122
-690.383	-200.000	0.011	-0.076
-689.368	170.991	0.061	0.090
-688.354	-40.984	-0.205	0.108
-687.339	-61.933	0.109	-0.046
-686.324	-41.938	0.137	0.071
-685.310	800.000	-0.034	-0.101
-684.295	-81.355	0.397	0.133
-683.281	213.284	-0.090	-0.145
-682.266	-179.366	-0.522	-0.012
-681.251	134.778	0.119	-0.157
-680.237	2.678	-0.129	-0.095
-679.222	79.832	-0.144	-0.157
-678.208	-200.000	-0.000	-0.169
-677.193	-200.000	-0.005	-0.043
-676.178	-5.794	-0.205	-0.143
-675.164	-112.068	0.159	0.033
-674.149	236.208	-0.082	0.139
-673.135	-50.870	0.193	0.092
-672.120	-145.986	-0.284	0.026
-671.105	4.923	-0.196	0.147
-670.091	-102.322	-0.420	-0.102
-669.076	213.175	-0.071	-0.113
-668.062	800.000	-0.055	0.154
-667.047	-38.330	0.152	0.082
-666.032	439.167	0.097	-0.215
-665.018	414.502	0.024	-0.051
-664.003	-200.000	-0.006	0.199
-662.989	3.241	0.109	-0.081
-661.974	25.510	-0.222	0.188
-660.959	162.679	0.076	0.108
-659.945	320.427	0.038	-0.073
-658.930	800.000	-0.013	-0.055
-657.916	85.410	0.330	0.369
-656.901	-131.227	0.121	0.016
-655.886	29.236	-0.243	0.210
-654.872	-200.000	0.005	-0.109
-653.857	160.905	-0.343	-0.486
-652.843	-147.772	-0.182	-0.015
-651.828	800.000	0.094	-0.342
-650.814	136.277	-0.042	0.055
-649.799	310.487	-0.187	-0.356
-648.784	-35.856	0.156	-0.086
-647.770	743.321	0.108	-0.295
-646.755	449.005	-0.163	-0.365
-645.741	182.882	0.012	0.018
-644.726	-200.000	0.027	-0.296
-643.711	-30.445	0.106	0.061
-642.697	-200.000	-0.001	0.101
-641.682	202.202	-0.038	0.060
-640.668	-148.104	-0.351	0.030
-639.653	-113.290	-0.155	0.031
-638.638	-200.000	0.005	-0.346
-637.624	-108.580	-0.188	-0.041
-636.609	699.559	0.042	0.113
-635.595	-56.277	0.439	0.198
-634.580	55.662	0.191	-0.188
-633.565	172.239	-0.189	-0.276
-632.551	371.774	-0.052	0.108
-631.536	316.175	-0.053	-0.101
-630.522	-33.074	-0.132	-0.074
-629.507	263.564	-0.037	-0.065
-628.492	-30.329	0.151	-0.087
-627.478	-22.652	0.129	0.079
-626.463	800.000	-0.048	0.163
-625.449	-102.176	-0.267	0.065
-624.434	-29.067	-0.301	0.175
-623.419	573.435	-0.077	0.192
-622.405	149.675	0.131	-0.181
-621.390	-132.580	-0.305	0.040
-620.376	-76.714	0.245	0.087
-619.361	-98.440	-0.244	0.063
-618.346	-94.266	-0.380	0.106
-617.332	35.418	0.150	0.134
-616.317	352.037	0.183	0.368
-615.303	73.029	0.113	-0.120
-614.288	-99.419	0.224	-0.057
-613.273	54.138	-0.295	-0.288
-612.259	657.584	-0.175	-0.455
-611.244	800.000	0.034	0.130
-610.230	122.380	0.158	-0.200
-609.215	248.337	0.144	0.248
-608.201	-177.561	0.343	-0.008
-607.186	-178.109	-0.067	-0.002
-606.171	608.643	-0.098	0.247
-605.157	800.000	0.132	-0.463
-604.142	-13.329	-0.334	-0.220
-603.128	-125.867	-0.182	0.028
-602.113	800.000	0.033	-0.129
-601.098	332.893	-0.115	0.226
-600.084	488.756	0.122	0.283
-599.069	-47.057	0.214	0.106
-598.055	-200.000	-0.025	-0.214
-597.040	510.781	-0.078	-0.184
-596.025	-12.418	0.213	0.141
-595.011	-122.465	-0.148	-0.024
-593.996	357.878	0.076	0.153
-592.982	150.925	-0.119	-0.164
-591.967	330.079	-0.169	-0.329
-590.952	272.577	-0.074	0.133
-589.938	-66.186	-0.204	0.082
-588.923	62.533	-0.214	-0.217
-587.909	800.000	-0.021	-0.064
-586.894	800.000	0.076	0.241
-585.879	-200.000	0.005	0.268
-584.865	-200.000	-0.055	-0.339
-583.850	-88.939	0.215	-0.065
-582.836	-171.259	-0.410	0.014
-581.821	86.795	-0.081	0.091
-580.806	-41.975	-0.101	0.053
-579.792	-32.389	0.208	0.117
-578.777	-200.000	0.026	0.154
-577.763	-70.648	-0.137	-0.052
-576.748	-12.188	0.204	-0.136
-575.733	-200.000	-0.018	0.216
-574.719	53.947	-0.201	-0.195
-573.704	-200.000	-0.027	-0.153
-572.690	800.000	0.075	0.230
-571.675	241.732	-0.015	-0.025
-570.661	429.320	0.066	0.145
-569.646	84.952	-0.320	0.355
-568.631	-70.669	-0.308	0.118
-567.617	-27.676	0.184	-0.108
-566.602	-114.090	0.226	0.044
-565.588	-200.000	-0.001	-0.212
-564.573	-200.000	0.020	-0.098
-563.558	-141.902	0.070	0.007
-562.544	-83.149	-0.376	-0.122
-561.529	800.000	-0.076	-0.229
-560.515	-157.371	0.392	0.024
-559.500	-85.608	0.211	0.066
-558.485	131.309	0.188	-0.245
-557.471	304.040	-0.131	-0.247
-556.456	-3.721	0.302	0.212
-555.442	-141.199	0.122	-0.013
-554.427	-108.335	-0.113	-0.025
-553.412	199.047	0.235	0.364
-552.398	-26.036	0.162	0.097
-551.383	-200.000	-0.021	0.269
-550.369	-37.312	-0.204	-0.110
-549.354	128.815	0.124	-0.160
-548.339	104.724	0.343	-0.410
-547.325	399.938	-0.090	-0.191
-546.310	-200.000	-0.077	-0.380
-545.296	798.932	0.101	-0.283
-544.281	-70.783	0.138	-0.053
-543.266	-11.034	-0.241	0.161
-542.252	800.000	-0.022	-0.079
-541.237	2.193	0.119	0.087
-540.223	297.598	-0.029	0.053
-539.208	-143.357	0.290	-0.028
-538.193	781.506	-0.019	-0.053
-537.179	36.983	0.042	0.038
-536.164	178.152	0.113	0.166
-535.150	-85.852	0.174	0.055
-534.135	-95.085	0.080	-0.022
-533.121	800.000	0.029	0.085
-532.106	618.623	-0.057	0.144
-531.091	-130.539	0.304	-0.042
-530.077	163.442	-0.024	-0.034
-529.062	-99.485	0.405	-0.103
-528.048	-153.949	-0.127	0.009
-527.033	-146.825	0.041	-0.004
-526.018	16.410	-0.279	-0.223
-525.004	-118.117	-0.210	0.038
-523.989	-13.772	-0.223	-0.146
-522.975	-200.000	0.031	0.342
-521.960	-200.000	-0.020	-0.363
-520.945	222.873	-0.055	0.090
-519.931	-200.000	-0.009	-0.100
-518.916	-47.621	0.297	0.146
-517.902	-104.812	-0.164	0.038
-516.887	1.536	-0.385	-0.280
-515.872	-115.426	-0.171	0.033
-514.858	-8.409	0.022	-0.015
-513.843	84.007	-0.082	-0.091
-512.829	-163.952	0.294	-0.014
-511.814	-48.584	0.267	0.130
-510.799	-68.867	0.156	0.061
-509.785	-100.284	-0.289	-0.073
-508.770	102.760	0.135	0.159
-507.756	30.626	-0.348	-0.301
-506.741	800.000	-0.121	-0.347
-505.726	-200.000	0.004	-0.082
-504.712	-22.419	0.318	0.194
-503.697	-7.837	0.118	0.080
-502.683	-200.000	0.026	-0.177
-501.668	65.172	-0.020	0.021
-500.653	-116.932	-0.302	-0.056
-499.639	-13.561	-0.161	-0.106
-498.624	11.886	-0.054	0.042
-497.610	800.000	-0.051	0.217
-496.595	65.662	0.111	-0.113
-495.581	-94.344	0.226	0.062
-494.566	-200.000	0.019	0.125
-493.551	-200.000	-0.009	-0.132
-492.537	149.739	0.067	-0.092
-491.522	-51.719	0.211	0.099
-490.508	-116.867	-0.290	-0.054
-489.493	-87.386	0.211	0.065
-488.478	-150.263	0.189	-0.015
-487.464	-200.000	0.038	-0.217
-486.449	-82.432	0.245	-0.080
-485.435	305.387	-0.078	-0.145
-484.420	29.805	-0.232	0.200
-483.405	-200.000	0.069	-0.330
-482.391	-30.964	-0.038	-0.022
-481.376	-67.777	-0.178	-0.070
-480.362	462.148	-0.130	0.294
-479.347	35.204	-0.206	0.182
-478.332	261.059	0.056	-0.097
-477.318	800.000	0.038	0.157
-476.303	78.876	-0.172	-0.186
-475.289	-106.462	0.296	-0.067
-474.274	-200.000	-0.009	-0.091
-473.259	-200.000	0.027	-0.352
-472.245	237.728	0.109	0.183
-471.230	239.390	0.010	0.017
-470.216	-200.000	0.008	-0.049
-469.201	-83.230	0.197	0.064
-468.186	-60.230	0.149	-0.064
-467.172	-34.970	0.141	-0.078
-466.157	-200.000	-0.042	-0.229
-465.143	-200.000	-0.012	0.235
-464.128	9.637	-0.126	0.096
-463.113	-200.000	-0.004	-0.027
-462.099	-98.408	0.145	0.038
-461.084	-200.000	0.033	0.337
-460.070	-95.429	-0.363	-0.098
-459.055	-134.867	0.318	-0.039
-458.040	-47.149	0.223	-0.109
-457.026	119.666	0.024	0.030
-456.011	800.000	0.080	-0.250
-454.997	-18.288	-0.344	0.217
-453.982	-120.504	0.220	0.038
-452.968	227.968	0.238	0.390
-451.953	73.838	0.237	-0.250
-450.938	-183.101	0.250	0.004
-449.924	2.540	-0.343	0.251
-448.909	678.604	0.042	-0.111
-447.895	404.730	0.043	0.091
-446.880	756.047	0.076	0.207
-445.865	166.426	0.233	-0.333
-444.851	-109.754	-0.140	0.030
-443.836	365.933	-0.074	-0.151
-442.822	99.414	-0.214	0.249
-441.807	590.810	-0.114	-0.283
-440.792	-200.000	-0.032	-0.240
-439.778	-104.067	0.372	0.087
-438.763	-76.503	-0.096	0.034
-437.749	-76.221	-0.212	0.075
-436.734	-6.229	0.060	0.041
-435.719	-75.261	0.031	0.011
-434.705	-158.485	-0.502	0.029
-433.690	-200.000	0.010	-0.251
-432.676	321.963	-0.024	0.046
-431.661	-80.196	-0.279	0.094
-430.646	-38.675	0.162	0.086
-429.632	-123.669	0.134	-0.021
-428.617	127.207	0.064	0.082
-427.603	453.173	0.082	0.184
-426.588	-99.507	0.252	-0.064
-425.573	5.165	0.221	-0.164
-424.559	-133.193	-0.109	0.014
-423.544	800.000	0.164	0.456
-422.530	-200.000	-0.035	-0.307
-421.515	-134.373	-0.119	0.015
-420.500	-95.939	-0.339	0.091
-419.486	688.915	-0.048	-0.128
-418.471	-155.405	0.069	0.004
-417.457	-8.759	-0.132	0.089
-416.442	-51.290	-0.078	0.037
-415.428	597.588	-0.014	0.036
-414.413	-200.000	0.020	0.180
-413.398	467.968	-0.126	-0.284
-412.384	-200.000	-0.013	-0.091
-411.369	-50.528	0.245	0.116
-410.355	-122.128	0.137	0.023
-409.340	-108.565	0.080	-0.017
-408.325	-64.054	-0.065	-0.027
-407.311	-48.085	-0.217	-0.105
-406.296	800.000	0.043	-0.139
-405.282	800.000	-0.027	0.075
-404.267	78.288	0.078	-0.084
-403.252	-5.659	-0.308	0.212
-402.238	-200.000	0.043	0.208
-401.223	449.482	0.063	-0.139
-400.209	14.166	-0.214	-0.168
-399.194	-35.611	0.066	0.036
-398.179	115.115	0.040	-0.049
-397.165	-54.486	0.134	-0.061
-396.150	87.540	0.099	-0.111
-395.136	172.078	-0.074	0.107
-394.121	13.924	-0.107	0.083
-393.106	272.619	0.094	-0.168
-392.092	800.000	-0.092	-0.275
-391.077	-130.795	0.148	0.020
-390.063	800.000	-0.036	0.126
-389.048	-34.331	-0.182	-0.101
-388.033	-38.909	0.022	-0.012
-387.019	-35.840	0.130	0.071
-386.004	384.064	0.272	-0.563
-384.990	-78.117	-0.231	-0.080
-383.975	-67.208	0.141	-0.056
-382.960	-182.794	0.293	0.005
-381.946	800.000	0.088	0.277
-380.931	-200.000	0.014	-0.216
-379.917	-139.939	-0.217	0.023
-378.902	166.094	-0.178	0.254
-377.888	-141.335	-0.089	-0.009
-376.873	-124.095	-0.319	0.050
-375.858	-10.771	-0.241	-0.160
-374.844	-79.879	0.423	0.143
-373.829	69.590	0.172	-0.178
-372.815	24.614	-0.361	-0.301
-371.800	-113.973	-0.183	-0.036
-370.785	347.901	-0.094	-0.186
-369.771	-200.000	0.012	-0.071
-368.756	-200.000	-0.008	0.258
-367.742	377.884	0.066	0.137
-366.727	10.077	0.108	0.083
-365.712	3.860	0.131	0.096
-364.698	-200.000	-0.025	0.279
-363.683	254.940	-0.058	0.100
-362.669	-47.245	-0.137	0.067
-361.654	-87.556	0.275	0.084
-360.639	-105.550	0.235	-0.053
-359.625	54.261	0.171	-0.165
-358.610	457.326	0.094	0.210
-357.596	-127.359	-0.344	-0.050
-356.581	352.301	0.080	0.160
-355.566	319.077	-0.111	-0.211
-354.552	776.531	0.051	-0.139
-353.537	-63.692	-0.071	0.029
-352.523	6.140	0.229	0.171
-351.508	288.641	0.186	0.339
-350.493	-164.299	0.219	0.010
-349.479	-87.052	0.322	-0.099
-348.464	-73.043	0.153	0.056
-347.450	297.627	0.066	-0.121
-346.435	-200.000	-0.013	-0.330
-345.420	-200.000	-0.023	0.310
-344.406	-93.826	-0.145	-0.040
-343.391	148.906	0.147	0.200
-342.377	211.152	0.032	-0.050
-341.362	-61.170	-0.122	0.052
-340.348	173.377	0.019	-0.027
-339.333	800.000	0.051	-0.146
-338.318	-200.000	0.010	-0.044
-337.304	-129.725	0.111	0.015
-336.289	147.249	-0.177	0.239
-335.275	-62.720	-0.074	0.031
-334.260	261.925	0.122	0.212
-333.245	180.062	0.169	0.248
-332.231	-31.335	-0.286	0.162
-331.216	800.000	0.091	0.350
-330.202	-14.718	0.099	-0.064
-329.187	35.445	-0.241	-0.212
-328.172	140.112	-0.153	-0.203
-327.158	-77.320	-0.456	0.159
-326.143	-200.000	0.018	0.302
-325.129	-112.142	0.299	-0.060
-324.114	284.687	-0.061	-0.111
-323.099	-80.641	-0.037	-0.012
-322.085	108.059	0.048	-0.057
-321.070	-161.408	-0.309	-0.016
-320.056	462.300	-0.076	-0.171
-319.041	-76.888	0.053	0.019
-318.026	109.274	-0.146	0.176
-317.012	44.640	0.173	-0.160
-315.997	-200.000	0.042	0.214
-314.983	-200.000	0.052	0.453
-313.968	-129.950	0.112	0.015
-312.953	-49.333	0.256	0.122
-311.939	-200.000	0.009	0.058
-310.924	125.459	0.106	-0.134
-309.910	690.010	-0.146	-0.382
-308.895	800.000	0.067	-0.242
-307.880	1.333	0.148	0.106
-306.866	-200.000	-0.043	0.231
-305.851	210.817	0.111	-0.176
-304.837	18.854	0.084	0.068
-303.822	-52.854	-0.295	-0.136
-302.807	800.000	-0.050	-0.196
-301.793	669.804	-0.041	-0.107
-300.778	-50.994	0.040	-0.019
-299.764	90.180	0.179	-0.200
-298.749	-161.269	-0.316	-0.016
-297.735	-90.685	-0.067	-0.019
-296.720	342.654	-0.032	0.064
-295.705	-67.636	-0.165	0.065
-294.691	-14.243	-0.115	0.074
-293.676	-118.746	-0.301	0.053
-292.662	114.851	-0.070	0.086
-291.647	-40.745	-0.189	0.098
-290.632	-200.000	-0.039	-0.523
-289.618	-200.000	-0.004	-0.222
-288.603	-134.138	0.177	0.022
-287.589	-200.000	-0.034	0.224
-286.574	-200.000	0.020	0.235
-285.559	47.189	-0.100	0.093
-284.545	-45.535	-0.384	0.190
-283.530	101.098	0.069	0.080
-282.516	247.240	-0.117	0.197
-281.501	-200.000	-0.036	0.158
-280.486	88.851	0.222	-0.248
-279.472	-125.363	0.301	-0.046
-278.457	-133.346	0.233	0.029
-277.443	175.820	0.077	0.112
-276.428	97.677	0.299	-0.344
-275.413	800.000	0.074	-0.277
-274.399	800.000	-0.010	-0.041
-273.384	-200.000	0.022	-0.166
-272.370	-11.275	0.139	-0.091
-271.355	-179.238	-0.048	-0.001
-270.340	800.000	0.088	-0.354
-269.326	15.252	-0.133	-0.104
-268.311	-200.000	0.080	-0.355
-267.297	-25.489	-0.257	-0.152
-266.282	197.053	-0.124	0.189
-265.267	-124.762	-0.188	-0.029
-264.253	129.292	0.178	0.227
-263.238	199.466	-0.104	-0.160
-262.224	800.000	-0.007	-0.023
-261.209	-129.336	0.137	-0.019
-260.195	286.067	-0.115	0.207
-259.180	360.422	0.045	0.089
-258.165	671.811	0.061	0.159
-257.151	215.489	-0.115	0.182
-256.136	-200.000	0.042	0.465
-255.122	104.286	0.131	-0.154
-254.107	196.602	0.065	-0.099
-253.092	-56.062	-0.383	-0.171
-252.078	63.910	0.029	-0.029
-251.063	-87.956	-0.044	-0.013
-250.049	-97.214	-0.300	0.078
-249.034	214.292	0.002	-0.004
-248.019	-164.072	0.141	0.007
-247.005	-49.465	0.096	0.046
-245.990	106.760	-0.145	-0.172
-244.976	8.833	-0.162	-0.122
-243.961	-200.000	0.017	0.176
-242.946	-149.138	0.311	-0.025
-241.932	14.083	-0.195	-0.152
-240.917	800.000	0.086	0.248
-239.903	220.201	0.040	0.064
-238.888	-124.491	-0.335	0.052
-237.873	-68.443	-0.062	0.024
-236.859	800.000	-0.069	-0.200
-235.844	511.035	0.091	0.211
-234.830	-200.000	-0.052	-0.236
-233.815	800.000	0.124	0.410
-232.800	-13.950	-0.192	-0.124
-231.786	16.408	0.151	0.119
-230.771	-8.570	0.344	-0.231
-229.757	7.373	-0.133	0.099
-228.742	-112.759	0.306	-0.061
-227.727	43.782	-0.234	0.215
-226.713	-79.880	0.252	0.085
-225.698	-117.852	-0.201	-0.036
-224.684	106.658	0.118	0.140
-223.669	168.180	0.132	0.188
-222.655	-183.389	0.323	0.006
-221.640	-200.000	-0.044	0.256
-220.625	50.830	0.097	0.092
-219.611	800.000	0.145	-0.458
-218.596	-83.862	0.260	0.083
-217.582	196.644	0.194	-0.295
-216.567	-200.000	0.011	0.085
-215.552	577.049	-0.088	0.215
-214.538	-200.000	-0.050	-0.408
-213.523	159.801	0.205	-0.286
-212.509	52.591	-0.201	0.192
-211.494	-170.459	0.191	-0.007
-210.479	-155.585	-0.095	-0.006
-209.465	34.244	-0.074	0.064
-208.450	327.040	0.116	0.222
-207.436	-25.249	0.291	-0.172
-206.421	-200.000	-0.012	-0.055
-205.406	293.592	0.051	-0.093
-204.392	-200.000	0.009	0.323
-203.377	29.243	0.137	-0.116
-202.363	398.624	-0.025	-0.051
-201.348	74.779	-0.037	-0.039
-200.333	-200.000	-0.037	0.254
-199.319	525.101	0.159	0.374
-198.304	136.054	-0.072	0.094
-197.290	-149.947	-0.251	-0.020
-196.275	-144.165	-0.245	0.023
-195.260	800.000	0.024	-0.084
-194.246	74.517	-0.285	-0.299
-193.231	-92.955	0.046	0.013
-192.217	800.000	0.071	-0.222
-191.202	566.595	-0.041	-0.100
-190.187	500.271	-0.064	0.148
-189.173	-200.000	0.058	0.310
-188.158	800.000	-0.081	0.305
-187.144	15.493	0.176	-0.138
-186.129	93.352	-0.214	0.241
-185.114	-88.593	-0.139	0.041
-184.100	-128.461	0.371	0.053
-183.085	-59.199	0.303	0.130
-182.071	197.080	-0.126	-0.191
-181.056	3.792	-0.108	0.079
-180.042	-200.000	0.000	0.317
-179.027	29.404	-0.243	0.206
-178.012	175.393	-0.128	0.186
-176.998	-200.000	0.012	-0.232
-175.983	-14.257	-0.253	0.163
-174.969	334.358	-0.078	0.151
-173.954	-115.529	-0.256	0.048
-172.939	-200.000	-0.020	0.311
-171.925	-84.619	-0.111	0.035
-170.910	-131.428	0.304	0.040
-169.896	-15.396	-0.134	0.086
-168.881	118.405	0.023	0.029
-167.866	-20.249	-0.333	0.205
-166.852	-83.594	0.079	-0.025
-165.837	800.000	0.087	0.285
-164.823	-17.587	-0.187	0.117
-163.808	-35.987	-0.185	0.100
-162.793	800.000	-0.096	0.376
-161.779	103.399	0.246	0.288
-160.764	-9.531	0.231	-0.153
-159.750	800.000	-0.065	-0.261
-158.735	135.132	0.151	-0.195
-157.720	33.082	-0.345	-0.298
-156.706	-145.894	0.111	-0.010
-155.691	145.489	-0.134	0.179
-154.677	-60.376	-0.090	-0.038
-153.662	90.969	0.218	0.244
-152.647	210.932	-0.074	0.116
-151.633	32.141	0.134	-0.115
-150.618	-10.925	0.186	0.122
-149.604	-85.608	-0.058	-0.018
-148.589	-86.389	0.072	-0.022
-147.574	800.000	-0.065	0.231
-146.560	-80.037	-0.286	-0.096
-145.545	-200.000	-0.064	0.418
-144.531	-134.601	0.201	0.024
-143.516	-42.774	-0.484	-0.245
-142.502	800.000	0.053	-0.156
-141.487	47.148	-0.216	-0.200
-140.472	213.571	0.215	0.338
-139.458	800.000	0.097	-0.308
-138.443	107.902	0.043	-0.051
-137.429	-71.294	-0.264	0.099
-136.414	-200.000	0.003	-0.135
-135.399	33.993	0.024	-0.021
-134.385	-200.000	-0.033	0.265
-133.370	-200.000	-0.011	-0.070
-132.356	-101.695	-0.247	-0.060
-131.341	39.219	0.176	0.157
-130.326	-200.000	-0.038	0.261
-129.312	754.593	-0.105	0.282
-128.297	-24.605	0.390	0.231
-127.283	588.758	-0.076	0.185
-126.268	-200.000	0.007	0.295
-125.253	-145.598	-0.412	-0.037
-124.239	800.000	0.110	0.419
-123.224	78.801	0.133	-0.142
-122.210	-50.223	-0.172	-0.081
