DTS Sentinel unit serial number:	SN413079Multiplexer serial number:	ORYXHardware model number:	OX4-SRSoftware version number:	ORYX F/W v4.00 Oryx Data Collector v3.7.2.0data status	okinstallation	princeton_trtdifferential loss correction	single-endedforward channel	channel 1reverse channel	N/Adate	2019/09/11time	19:16:11forward acquisition time	60.00reverse acquisition time	0.00gamma	496.2192k internal	0.2293k external	0.2293temperature offset calibration	1.0016default loss term (dB/km)	0.3790temperature slope calibration	1.0000multiplexer offset coefficient	1.0000multiplexer slope coefficient	1.0000fibre end	0.00T internal ref (°C)	41.28T ext. ref 1 (°C)	1.26T ext. ref 2 (°C)	33.45length (m)	temperature (°C)	Stokes	anti-Stokes-747.200	116.041	0.055	0.069
-746.185	52.281	-0.264	0.257
-745.171	699.010	-0.054	0.145
-744.156	363.671	0.051	-0.106
-743.142	800.000	-0.047	0.161
-742.127	-146.263	0.183	0.016
-741.112	10.415	-0.284	0.222
-740.098	-200.000	0.051	0.408
-739.083	-200.000	0.015	0.164
-738.069	98.424	0.304	0.359
-737.054	-120.020	0.198	-0.035
-736.039	347.614	0.116	-0.233
-735.025	-24.272	0.207	-0.126
-734.010	115.818	0.064	0.080
-732.996	-70.870	0.097	-0.037
-731.981	173.854	0.052	-0.077
-730.966	-90.098	0.105	-0.031
-729.952	-200.000	-0.004	0.241
-728.937	174.421	-0.161	-0.238
-727.923	-33.513	-0.278	-0.157
-726.908	-200.000	0.001	0.367
-725.894	207.821	-0.116	0.185
-724.879	800.000	-0.054	-0.174
-723.864	113.885	-0.187	0.232
-722.850	236.721	-0.037	-0.062
-721.835	-105.639	-0.237	0.055
-720.821	168.096	0.066	-0.096
-719.806	-200.000	-0.013	0.125
-718.791	-118.675	-0.254	0.046
-717.777	17.306	0.262	-0.213
-716.762	-99.788	0.333	-0.085
-715.748	-200.000	0.005	0.200
-714.733	-53.436	0.313	0.147
-713.718	-200.000	-0.033	0.329
-712.704	15.958	-0.125	0.100
-711.689	800.000	0.036	0.124
-710.675	-57.931	-0.292	-0.130
-709.660	328.309	0.078	0.153
-708.645	-139.946	0.293	-0.032
-707.631	5.219	0.226	0.170
-706.616	-200.000	0.011	-0.367
-705.602	552.729	-0.065	0.159
-704.587	61.470	-0.256	-0.260
-703.572	-200.000	-0.028	0.397
-702.558	586.619	-0.128	0.322
-701.543	8.895	-0.329	0.253
-700.529	-191.741	-0.269	0.003
-699.514	-200.000	-0.042	-0.195
-698.499	93.330	-0.196	-0.227
-697.485	-200.000	-0.035	-0.202
-696.470	-149.500	0.247	0.020
-695.456	-154.573	0.043	0.003
-694.441	-6.445	-0.284	0.198
-693.426	-26.925	-0.170	0.102
-692.412	-83.894	0.119	0.039
-691.397	13.596	-0.171	-0.135
-690.383	-92.825	0.122	0.035
-689.368	-94.777	-0.117	0.032
-688.354	45.976	-0.077	-0.073
-687.339	454.663	0.087	-0.197
-686.324	-99.308	0.061	0.016
-685.310	-36.747	-0.183	-0.100
-684.295	-200.000	-0.029	-0.206
-683.281	-7.060	-0.147	0.102
-682.266	800.000	0.018	0.067
-681.251	453.892	0.041	0.092
-680.237	-200.000	0.006	-0.062
-679.222	43.445	-0.043	-0.040
-678.208	-200.000	-0.009	0.059
-677.193	800.000	0.041	0.126
-676.178	128.151	0.137	-0.178
-675.164	-134.588	0.304	0.038
-674.149	800.000	-0.019	0.053
-673.135	-200.000	0.140	0.000
-672.120	112.257	-0.045	-0.056
-671.105	83.239	-0.304	-0.338
-670.091	494.095	-0.111	-0.261
-669.076	-107.301	-0.105	-0.024
-668.062	-97.268	-0.133	-0.035
-667.047	-200.000	0.026	-0.474
-666.032	-96.668	-0.107	0.029
-665.018	191.249	0.029	-0.044
-664.003	-4.541	0.163	0.115
-662.989	-124.968	0.192	0.030
-661.974	-69.303	-0.335	0.131
-660.959	111.880	0.167	-0.206
-659.945	62.049	0.210	0.214
-658.930	-154.495	-0.088	-0.006
-657.916	-55.933	0.221	-0.101
-656.901	209.573	0.021	0.033
-655.886	125.018	-0.032	-0.041
-654.872	-135.159	0.149	0.018
-653.857	88.922	-0.061	0.069
-652.843	-124.417	0.355	-0.056
-651.828	-21.955	0.386	0.239
-650.814	110.783	-0.123	-0.151
-649.799	189.967	-0.088	-0.135
-648.784	-103.530	-0.149	0.036
-647.770	-100.894	0.245	0.061
-646.755	-37.595	0.110	-0.060
-645.741	-200.000	-0.039	0.192
-644.726	800.000	-0.050	-0.174
-643.711	-33.739	0.114	-0.064
-642.697	179.828	0.124	0.185
-641.682	744.337	0.076	-0.208
-640.668	-200.000	-0.029	-0.165
-639.653	-200.000	-0.022	0.118
-638.638	-159.189	-0.089	-0.005
-637.624	500.807	-0.126	-0.295
-636.609	-200.000	-0.023	0.226
-635.595	-161.659	-0.100	0.005
-634.580	-3.267	0.119	0.084
-633.565	-68.868	-0.118	0.047
-632.551	100.244	-0.108	-0.127
-631.536	-190.101	0.461	0.005
-630.522	-78.370	-0.218	0.076
-629.507	5.885	0.023	-0.017
-628.492	47.327	-0.288	-0.273
-627.478	-200.000	0.013	-0.393
-626.463	-8.222	0.021	-0.015
-625.449	800.000	0.085	0.288
-624.434	-159.969	-0.324	-0.018
-623.419	35.812	-0.137	-0.123
-622.405	-91.315	0.070	0.020
-621.390	-200.000	0.011	-0.121
-620.376	-116.142	0.307	0.058
-619.361	-125.225	-0.171	0.027
-618.346	72.132	0.176	-0.186
-617.332	-70.657	0.153	0.059
-616.317	158.984	-0.111	0.157
-615.303	-200.000	0.019	-0.167
-614.288	-32.774	-0.236	0.134
-613.273	182.272	-0.135	0.202
-612.259	46.958	-0.009	-0.009
-611.244	800.000	0.074	0.265
-610.230	450.812	0.061	-0.137
-609.215	17.180	-0.261	-0.211
-608.201	-200.000	0.005	-0.180
-607.186	361.920	0.114	-0.233
-606.171	800.000	0.098	-0.405
-605.157	-184.233	-0.077	-0.001
-604.142	-200.000	-0.023	-0.165
-603.128	-200.000	-0.018	-0.157
-602.113	299.049	-0.072	-0.136
-601.098	-200.000	-0.017	-0.226
-600.084	121.966	0.057	0.072
-599.069	800.000	0.058	0.179
-598.055	-200.000	-0.012	-0.148
-597.040	-28.552	-0.241	-0.141
-596.025	-58.650	0.246	-0.108
-595.011	24.766	0.082	-0.069
-593.996	-89.793	0.118	0.035
-592.982	130.104	-0.014	0.018
-591.967	247.422	0.214	0.368
-590.952	193.280	0.151	0.232
-589.938	-25.355	-0.112	0.067
-588.923	-170.024	-0.214	0.008
-587.909	-88.782	0.244	-0.074
-586.894	4.129	-0.135	0.101
-585.879	800.000	-0.122	0.434
-584.865	-41.258	0.156	0.082
-583.850	-62.631	0.098	0.041
-582.836	148.596	-0.117	-0.160
-581.821	-200.000	-0.024	0.234
-580.806	-69.394	-0.027	-0.011
-579.792	214.103	0.126	0.203
-578.777	-46.327	-0.369	0.184
-577.763	-200.000	-0.121	-0.653
-576.748	800.000	-0.052	-0.155
-575.733	-42.942	0.282	-0.145
-574.719	-200.000	-0.037	0.236
-573.704	800.000	0.037	-0.113
-572.690	370.080	-0.145	0.299
-571.675	48.103	0.173	-0.164
-570.661	-13.983	-0.233	0.153
-569.646	-200.000	-0.010	0.073
-568.631	800.000	0.074	0.249
-567.617	-200.000	0.038	-0.237
-566.602	800.000	0.044	-0.176
-565.588	63.900	-0.420	0.429
-564.573	-59.848	-0.278	-0.121
-563.558	20.130	-0.167	0.137
-562.544	-200.000	0.000	0.171
-561.529	-89.296	0.050	0.015
-560.515	28.707	0.268	-0.231
-559.500	217.213	-0.096	-0.155
-558.485	-113.339	0.212	-0.042
-557.471	800.000	-0.064	0.218
-556.456	62.699	-0.502	-0.509
-555.442	-200.000	0.006	0.097
-554.427	399.105	0.151	-0.320
-553.412	125.378	-0.179	0.230
-552.398	201.315	0.025	0.040
-551.383	301.209	0.030	0.056
-550.369	-89.435	0.353	0.105
-549.354	-62.957	0.295	0.124
-548.339	800.000	0.051	0.160
-547.325	34.525	0.256	-0.227
-546.310	-200.000	-0.020	-0.178
-545.296	-81.078	0.191	0.064
-544.281	91.886	0.196	-0.224
-543.266	355.327	-0.206	-0.417
-542.252	800.000	-0.020	0.068
-541.237	-200.000	-0.013	0.091
-540.223	4.264	0.129	0.096
-539.208	40.304	-0.245	-0.224
-538.193	140.715	0.323	-0.433
-537.179	233.729	0.068	0.114
-536.164	63.963	-0.349	0.356
-535.150	447.535	-0.112	0.249
-534.135	-138.068	-0.144	-0.016
-533.121	-1.245	-0.177	-0.127
-532.106	189.626	0.217	0.331
-531.091	-200.000	-0.021	0.210
-530.077	-72.411	-0.040	0.015
-529.062	-36.837	-0.378	-0.206
-528.048	-82.259	0.113	0.037
-527.033	-200.000	0.044	-0.224
-526.018	15.526	-0.253	-0.201
-525.004	-92.634	0.245	-0.070
-523.989	800.000	0.081	-0.343
-522.975	-200.000	-0.031	-0.345
-521.960	800.000	0.077	0.293
-520.945	18.362	0.149	0.121
-519.931	268.901	0.126	-0.224
-518.916	56.928	-0.338	0.334
-517.902	-200.000	0.022	0.201
-516.887	309.030	-0.083	0.156
-515.872	184.023	0.205	0.308
-514.858	800.000	-0.031	0.101
-513.843	-179.170	0.264	0.006
-512.829	-116.534	-0.236	-0.044
-511.814	768.860	-0.098	0.271
-510.799	-133.243	-0.134	-0.017
-509.785	-121.752	0.165	0.028
-508.770	800.000	-0.021	-0.075
-507.756	35.024	-0.177	-0.157
-506.741	645.236	-0.042	0.108
-505.726	-53.806	-0.144	0.067
-504.712	594.807	-0.024	-0.061
-503.697	129.480	-0.166	-0.216
-502.683	-157.832	0.102	-0.006
-501.668	-34.482	-0.164	-0.091
-500.653	1.986	0.274	0.200
-499.639	-34.230	-0.213	0.119
-498.624	108.309	-0.184	0.223
-497.610	-23.238	-0.266	0.162
-496.595	147.622	-0.325	-0.443
-495.581	113.212	-0.265	-0.326
-494.566	-28.663	-0.242	0.141
-493.551	800.000	0.171	0.479
-492.537	-94.802	0.206	0.057
-491.522	-200.000	0.027	-0.261
-490.508	-50.463	-0.400	-0.191
-489.493	130.266	0.182	0.236
-488.478	144.557	0.115	-0.155
-487.464	268.474	-0.124	-0.221
-486.449	317.342	0.153	-0.293
-485.435	-119.719	0.225	-0.039
-484.420	800.000	-0.067	-0.223
-483.405	-134.504	0.178	-0.022
-482.391	78.461	0.062	-0.067
-481.376	-200.000	0.024	-0.170
-480.362	-21.046	-0.190	0.118
-479.347	-109.194	-0.202	-0.043
-478.332	-49.909	-0.298	0.143
-477.318	144.318	0.149	0.201
-476.303	-200.000	0.035	0.316
-475.289	-18.166	0.167	0.106
-474.274	-76.199	0.112	0.040
-473.259	-145.189	0.445	0.041
-472.245	800.000	0.095	0.302
-471.230	-200.000	-0.026	-0.304
-470.216	-200.000	-0.020	-0.127
-469.201	558.236	-0.149	-0.365
-468.186	54.988	-0.098	0.096
-467.172	-16.131	-0.233	-0.150
-466.157	186.251	0.060	-0.090
-465.143	202.563	0.184	0.288
-464.128	-200.000	-0.592	-0.002
-463.113	398.332	0.098	-0.208
-462.099	-157.042	-0.314	0.019
-461.084	800.000	-0.059	0.199
-460.070	-3.463	0.282	-0.199
-459.055	80.956	-0.108	0.118
-458.040	-200.000	-0.015	0.231
-457.026	-162.826	-0.145	0.007
-456.011	-29.022	0.396	-0.230
-454.997	49.740	-0.077	0.073
-453.982	-101.634	0.377	-0.093
-452.968	-200.000	0.058	-0.298
-451.953	422.118	0.025	-0.054
-450.938	90.595	0.177	-0.201
-449.924	82.048	-0.020	-0.021
-448.909	516.810	0.086	0.203
-447.895	-200.000	0.016	-0.139
-446.880	800.000	0.031	0.125
-445.865	800.000	-0.045	-0.173
-444.851	-55.123	0.162	-0.074
-443.836	258.298	-0.072	-0.125
-442.822	159.931	-0.052	0.073
-441.807	-53.179	0.342	-0.159
-440.792	-37.221	-0.225	-0.121
-439.778	-169.063	0.135	-0.005
-438.763	76.515	0.169	0.182
-437.749	-200.000	-0.041	0.300
-436.734	149.825	-0.146	0.200
-435.719	-130.487	-0.164	0.022
-434.705	-8.720	0.377	-0.256
-433.690	529.402	-0.059	0.142
-432.676	-67.573	-0.142	-0.056
-431.661	279.131	-0.350	-0.631
-430.646	45.517	-0.126	-0.117
-429.632	205.620	-0.029	-0.046
-428.617	212.033	-0.075	-0.120
-427.603	148.688	0.127	0.174
-426.588	-46.163	0.147	0.073
-425.573	191.594	-0.046	-0.070
-424.559	138.139	0.026	0.035
-423.544	528.581	-0.063	0.151
-422.530	-91.018	0.617	-0.179
-421.515	-93.255	-0.322	0.090
-420.500	40.848	-0.030	-0.027
-419.486	-30.783	0.221	0.126
-418.471	-152.062	0.055	0.004
-417.457	22.519	-0.051	-0.042
-416.442	-200.000	-0.006	-0.060
-415.428	-19.518	-0.047	0.030
-414.413	-94.149	0.138	-0.038
-413.398	-200.000	-0.034	-0.309
-412.384	347.073	0.111	0.221
-411.369	-200.000	0.006	0.139
-410.355	-149.448	0.048	-0.004
-409.340	-200.000	-0.064	0.443
-408.325	-98.277	-0.345	-0.089
-407.311	800.000	0.116	-0.376
-406.296	-200.000	-0.041	-0.239
-405.282	116.342	0.252	0.312
-404.267	-55.007	-0.159	0.073
-403.252	-110.766	-0.190	0.040
-402.238	29.596	0.063	-0.054
-401.223	-24.978	0.150	-0.090
-400.209	-200.000	-0.018	0.194
-399.194	-102.316	0.258	-0.063
-398.179	-200.000	-0.208	-0.001
-397.165	-134.142	0.207	-0.026
-396.150	634.924	-0.099	-0.253
-395.136	224.773	0.081	-0.132
-394.121	-111.659	-0.388	-0.079
-393.106	-72.569	-0.178	-0.066
-392.092	-56.632	-0.187	-0.084
-391.077	800.000	-0.070	0.219
-390.063	184.071	-0.077	-0.114
-389.048	800.000	-0.057	0.240
-388.033	-46.626	0.081	-0.040
-387.019	800.000	0.021	0.068
-386.004	49.088	0.140	0.133
-384.990	-56.253	-0.127	-0.057
-383.975	118.505	0.304	-0.379
-382.960	-41.281	-0.037	-0.019
-381.946	-200.000	-0.047	0.272
-380.931	800.000	-0.048	-0.194
-379.917	800.000	0.023	0.088
-378.902	109.537	-0.070	0.084
-377.888	24.344	0.212	0.177
-376.873	77.127	0.121	0.130
-375.858	-200.000	0.006	0.150
-374.844	71.134	0.075	-0.078
-373.829	-22.480	-0.189	-0.116
-372.815	800.000	0.057	-0.186
-371.800	-2.412	0.024	-0.017
-370.785	-200.000	0.077	0.343
-369.771	-134.826	0.158	-0.019
-368.756	-72.598	0.338	-0.126
-367.742	-148.470	-0.306	0.025
-366.727	186.213	0.133	0.199
-365.712	-38.146	0.066	-0.035
-364.698	244.131	-0.036	0.062
-363.683	194.036	0.030	0.045
-362.669	-80.853	0.108	-0.036
-361.654	-62.895	-0.182	-0.076
-360.639	-95.695	0.309	0.083
-359.625	-200.000	-0.021	-0.136
-358.610	800.000	-0.046	-0.148
-357.596	-80.478	-0.130	0.044
-356.581	116.095	0.141	0.174
-355.566	551.863	0.058	0.141
-354.552	800.000	0.030	0.088
-353.537	-36.235	-0.145	0.079
-352.523	800.000	0.078	0.255
-351.508	-134.513	0.027	0.003
-350.493	-131.916	-0.142	-0.019
-349.479	132.021	0.059	-0.076
-348.464	-200.000	0.009	0.095
-347.450	-133.987	-0.522	0.065
-346.435	-22.791	0.133	0.081
-345.420	164.733	0.107	0.153
-344.406	234.790	0.100	0.166
-343.391	126.438	-0.057	-0.073
-342.377	-32.484	-0.168	-0.094
-341.362	229.026	0.048	0.078
-340.348	121.920	-0.056	-0.070
-339.333	800.000	0.070	0.302
-338.318	-147.216	-0.192	0.016
-337.304	-4.226	0.279	-0.194
-336.289	275.003	0.073	0.130
-335.275	655.856	-0.126	0.325
-334.260	81.010	0.067	0.073
-333.245	-106.444	0.539	-0.121
-332.231	-200.000	-0.035	-0.271
-331.216	-200.000	-0.003	-0.168
-330.202	150.635	0.237	-0.324
-329.187	-200.000	-0.012	-0.259
-328.172	-76.639	-0.096	-0.034
-327.158	26.788	0.092	-0.077
-326.143	495.795	-0.233	-0.539
-325.129	-71.740	0.232	-0.087
-324.114	-200.000	-0.021	-0.124
-323.099	32.176	0.223	0.194
-322.085	800.000	0.046	0.161
-321.070	421.133	-0.044	0.094
-320.056	82.307	0.198	-0.216
-319.041	-148.661	0.123	-0.010
-318.026	800.000	-0.078	-0.331
-317.012	-101.539	0.093	-0.023
-315.997	118.885	-0.204	-0.253
-314.983	-200.000	-0.036	0.282
-313.968	229.866	0.054	-0.088
-312.953	-200.000	-0.014	-0.186
-311.939	363.567	-0.139	0.282
-310.924	-97.504	0.145	-0.038
-309.910	-63.090	-0.356	-0.148
-308.895	255.486	-0.034	-0.058
-307.880	-139.640	0.032	-0.003
-306.866	-200.000	0.022	0.379
-305.851	-68.661	0.312	0.122
-304.837	-57.105	-0.115	-0.051
-303.822	-45.167	-0.385	-0.193
-302.807	-76.755	-0.173	-0.061
-301.793	89.270	0.396	-0.443
-300.778	800.000	-0.093	0.385
-299.764	-70.813	0.374	-0.142
-298.749	-200.000	-0.012	-0.135
-297.735	-44.371	-0.209	0.105
-296.720	213.980	-0.040	-0.063
-295.705	-79.333	0.108	-0.037
-294.691	-200.000	0.075	-0.378
-293.676	51.830	-0.109	0.105
-292.662	476.780	-0.010	0.023
-291.647	-85.092	0.134	-0.042
-290.632	-111.484	-0.290	-0.059
-289.618	115.222	0.114	0.140
-288.603	-77.866	0.407	-0.141
-287.589	-200.000	0.003	-0.352
-286.574	-123.107	0.151	0.024
-285.559	240.830	-0.087	-0.146
-284.545	-37.917	-0.515	0.275
-283.530	800.000	-0.036	-0.113
-282.516	800.000	-0.027	0.114
-281.501	-28.313	0.102	0.059
-280.486	800.000	-0.072	0.224
-279.472	154.158	0.142	-0.195
-278.457	46.371	-0.103	-0.096
-277.443	-200.000	-0.008	-0.154
-276.428	71.954	0.062	0.064
-275.413	-151.764	-0.245	0.018
-274.399	-78.311	0.105	0.036
-273.384	-98.733	-0.041	-0.011
-272.370	-119.971	-0.141	0.024
-271.355	148.264	0.186	0.253
-270.340	-200.000	0.012	0.055
-269.326	-89.107	0.081	-0.024
-268.311	-151.751	0.272	0.020
-267.297	-47.296	-0.049	0.024
-266.282	-197.880	0.191	-0.001
-265.267	-133.990	-0.455	0.057
-264.253	60.291	0.106	-0.106
-263.238	-63.597	0.159	-0.066
-262.224	-125.053	0.199	-0.031
-261.209	85.188	0.076	-0.084
-260.195	32.781	-0.095	-0.082
-259.180	-173.665	0.115	-0.003
-258.165	-161.645	0.086	-0.004
-257.151	-60.566	-0.189	-0.081
-256.136	-200.000	-0.043	-0.196
-255.122	-179.494	-0.518	0.011
-254.107	-200.000	-0.020	-0.158
-253.092	44.826	0.124	0.114
-252.078	-90.982	-0.352	-0.101
-251.063	-200.000	-0.015	0.166
-250.049	-62.833	0.213	-0.089
-249.034	98.962	-0.132	0.153
-248.019	198.196	-0.124	-0.190
-247.005	482.455	-0.111	0.254
-245.990	-190.185	-0.197	-0.002
-244.976	-143.547	-0.262	0.025
-243.961	-13.987	-0.098	0.063
-242.946	262.214	0.026	-0.046
-241.932	69.130	0.283	0.292
-240.917	-200.000	-0.025	0.173
-239.903	-143.770	-0.443	-0.042
-238.888	32.448	0.274	0.238
-237.873	19.473	-0.105	-0.084
-236.859	14.155	0.094	-0.073
-235.844	101.003	0.207	0.241
-234.830	-110.807	-0.206	-0.043
-233.815	137.504	-0.050	0.065
-232.800	-11.183	-0.074	-0.049
-231.786	-148.961	0.374	0.030
-230.771	800.000	-0.018	0.058
-229.757	-38.036	-0.110	0.059
-228.742	-200.000	0.044	0.298
-227.727	-36.097	0.128	0.070
-226.713	-125.733	-0.133	-0.020
-225.698	800.000	0.075	-0.302
-224.684	188.795	-0.099	0.149
-223.669	-17.653	0.243	0.153
-222.655	-10.808	0.199	0.132
-221.640	-106.291	0.376	-0.084
-220.625	-200.000	-0.008	0.137
-219.611	-62.006	-0.154	-0.064
-218.596	-51.915	0.114	-0.053
-217.582	87.497	-0.083	0.092
-216.567	757.071	0.073	-0.199
-215.552	513.434	-0.056	0.131
-214.538	-64.439	0.297	-0.121
-213.523	100.434	0.155	0.181
-212.509	-98.887	0.142	0.036
-211.494	382.390	-0.028	0.059
-210.479	119.571	0.109	0.136
-209.465	-200.000	0.010	0.067
-208.450	713.537	0.020	0.052
-207.436	228.961	0.145	0.237
-206.421	38.942	0.250	0.224
-205.406	344.143	0.106	-0.209
-204.392	16.295	0.046	-0.036
-203.377	-29.780	0.223	0.127
-202.363	-161.694	0.399	-0.020
-201.348	-64.911	-0.167	-0.068
-200.333	55.764	-0.187	0.182
-199.319	-86.733	-0.325	0.099
-198.304	22.271	0.139	0.113
-197.290	800.000	-0.113	-0.415
-196.275	239.463	0.335	0.558
-195.260	15.343	-0.217	-0.170
-194.246	126.891	0.193	0.245
-193.231	-200.000	0.005	0.107
-192.217	103.340	0.102	-0.120
-191.202	260.912	0.147	-0.254
-190.187	6.094	-0.207	-0.153
-189.173	187.281	0.172	-0.256
-188.158	3.829	0.010	0.008
-187.144	-12.872	-0.221	-0.144
-186.129	-200.000	0.021	-0.169
-185.114	141.903	0.164	0.218
-184.100	245.329	-0.193	0.324
-183.085	245.641	-0.112	0.189
-182.071	770.163	-0.112	0.306
-181.056	-85.865	-0.269	-0.083
-180.042	-200.000	0.012	0.115
-179.027	800.000	-0.059	0.210
-178.012	92.424	-0.127	-0.143
-176.998	-33.912	-0.190	0.104
-175.983	-60.990	0.066	-0.028
-174.969	-93.758	-0.138	-0.038
-173.954	800.000	-0.037	-0.118
-172.939	-137.250	0.059	0.007
-171.925	-34.502	0.154	-0.084
-170.910	800.000	-0.014	0.044
-169.896	68.968	-0.070	0.072
-168.881	-200.000	-0.007	-0.241
-167.866	-65.512	-0.274	0.110
-166.852	250.142	0.190	0.323
-165.837	32.354	0.174	-0.151
-164.823	12.103	-0.117	0.090
-163.808	22.558	-0.330	-0.270
-162.793	16.968	-0.300	0.237
-161.779	193.519	0.122	0.184
-160.764	800.000	0.130	0.538
-159.750	-56.060	-0.056	0.025
-158.735	388.476	-0.122	-0.252
-157.720	-200.000	-0.005	-0.105
-156.706	758.634	0.029	0.078
-155.691	332.639	0.142	0.275
-154.677	800.000	0.060	0.223
-153.662	56.639	-0.079	-0.076
-152.647	165.652	-0.145	0.205
-151.633	-49.301	0.290	0.139
-150.618	34.635	-0.165	0.144
-149.604	800.000	0.125	0.396
-148.589	118.500	-0.098	-0.120
-147.574	256.290	0.132	-0.227
-146.560	-200.000	0.036	0.173
-145.545	-200.000	0.051	0.455
-144.531	-175.975	-0.141	0.004
-143.516	-200.000	-0.015	-0.108
-142.502	165.304	0.215	0.304
-141.487	-41.811	0.114	-0.058
-140.472	-200.000	-0.014	0.107
-139.458	-96.636	-0.284	0.075
-138.443	3.092	0.069	0.050
-137.429	800.000	0.031	-0.113
-136.414	-200.000	-0.016	-0.184
-135.399	-49.839	-0.236	0.112
-134.385	-109.415	-0.446	-0.094
-133.370	800.000	-0.065	-0.274
-132.356	-117.574	-0.238	0.043
-131.341	-110.963	-0.162	-0.033
-130.326	-20.950	0.024	0.015
-129.312	159.302	0.112	0.156
-128.297	35.162	-0.098	0.086
-127.283	4.435	0.025	-0.018
-126.268	-96.582	0.372	-0.098
-125.253	800.000	-0.097	0.364
-124.239	443.428	-0.086	0.188
-123.224	81.630	0.177	-0.192
-122.210	24.337	-0.047	-0.039
-121.195	32.956	0.248	0.214
