DTS Sentinel unit serial number:	SN413079Multiplexer serial number:	ORYXHardware model number:	OX4-SRSoftware version number:	ORYX F/W v4.00 Oryx Data Collector v3.7.2.0data status	okinstallation	princeton_trtdifferential loss correction	single-endedforward channel	channel 1reverse channel	N/Adate	2019/09/17time	22:06:35forward acquisition time	60.00reverse acquisition time	0.00gamma	496.2192k internal	0.2341k external	0.2341temperature offset calibration	0.9976default loss term (dB/km)	0.3790temperature slope calibration	1.0000multiplexer offset coefficient	1.0000multiplexer slope coefficient	1.0000fibre end	0.00T internal ref (°C)	25.91T ext. ref 1 (°C)	0.18T ext. ref 2 (°C)	18.82length (m)	temperature (°C)	Stokes	anti-Stokes-747.200	-40.197	0.351	-0.183
-746.185	117.212	-0.200	0.246
-745.171	31.231	0.333	0.287
-744.156	-108.376	-0.448	0.097
-743.142	33.196	-0.229	0.199
-742.127	-113.819	-0.079	0.015
-741.112	-57.630	-0.164	0.072
-740.098	-153.736	-0.203	0.014
-739.083	-200.000	-0.049	-0.291
-738.069	208.761	0.143	0.224
-737.054	-190.185	-0.173	-0.002
-736.039	-126.738	-0.213	-0.031
-735.025	-53.980	0.351	-0.160
-734.010	-39.816	-0.461	-0.241
-732.996	-107.133	-0.123	-0.027
-731.981	540.887	-0.111	-0.266
-730.966	-45.551	0.269	0.133
-729.952	208.874	0.059	0.092
-728.937	-134.581	-0.170	-0.021
-727.923	-98.055	0.206	0.053
-726.908	-200.000	0.028	-0.145
-725.894	121.758	-0.117	-0.146
-724.879	800.000	-0.061	-0.179
-723.864	-200.000	-0.052	0.278
-722.850	-64.032	-0.273	0.112
-721.835	800.000	0.033	0.095
-720.821	-68.221	0.140	-0.055
-719.806	800.000	-0.106	-0.299
-718.791	-55.882	-0.188	-0.084
-717.777	-56.801	0.168	-0.074
-716.762	106.666	-0.147	-0.175
-715.748	36.582	-0.100	-0.089
-714.733	800.000	0.060	0.230
-713.718	800.000	-0.031	-0.106
-712.704	-137.272	-0.459	-0.052
-711.689	-91.684	0.376	-0.107
-710.675	800.000	0.061	-0.226
-709.660	10.053	0.293	-0.222
-708.645	-31.339	0.323	-0.182
-707.631	-40.040	0.191	-0.100
-706.616	40.920	-0.195	-0.176
-705.602	523.981	0.088	0.206
-704.587	5.628	-0.382	0.282
-703.572	29.544	-0.070	-0.060
-702.558	-80.129	-0.175	-0.059
-701.543	13.185	-0.196	-0.152
-700.529	13.394	0.249	-0.193
-699.514	800.000	0.038	0.109
-698.499	11.506	-0.083	0.064
-697.485	17.861	0.236	-0.188
-696.470	-200.000	0.013	0.431
-695.456	800.000	-0.064	0.222
-694.441	64.772	-0.082	-0.083
-693.426	125.923	-0.099	0.125
-692.412	-200.000	0.001	-0.224
-691.397	-24.512	-0.268	0.159
-690.383	-14.658	0.155	-0.100
-689.368	-45.983	-0.278	0.137
-688.354	-14.333	-0.135	0.087
-687.339	-62.449	-0.365	-0.152
-686.324	12.348	-0.305	-0.235
-685.310	15.201	-0.211	0.166
-684.295	800.000	-0.090	-0.319
-683.281	524.412	-0.082	0.194
-682.266	26.816	0.066	0.055
-681.251	-200.000	0.029	0.214
-680.237	130.618	-0.110	-0.141
-679.222	103.116	-0.118	-0.139
-678.208	202.951	0.015	-0.023
-677.193	-89.771	-0.274	0.080
-676.178	-200.000	-0.047	0.332
-675.164	-117.625	0.351	-0.063
-674.149	-62.606	0.318	-0.132
-673.135	-27.679	-0.243	-0.141
-672.120	-200.000	-0.004	-0.272
-671.105	-200.000	-0.090	0.587
-670.091	529.315	0.071	-0.168
-669.076	490.772	0.045	-0.102
-668.062	63.655	-0.179	-0.180
-667.047	-18.637	0.127	0.079
-666.032	156.891	-0.200	0.276
-665.018	29.928	-0.049	-0.042
-664.003	1.772	-0.134	-0.096
-662.989	319.424	-0.187	0.355
-661.974	-47.362	0.212	-0.103
-660.959	-200.000	0.030	-0.296
-659.945	-121.489	0.193	-0.032
-658.930	134.236	-0.054	-0.070
-657.916	-100.009	0.358	0.089
-656.901	-200.000	-0.001	-0.098
-655.886	28.203	-0.037	0.031
-654.872	-177.967	-0.162	-0.004
-653.857	800.000	0.132	-0.544
-652.843	-143.477	-0.118	-0.011
-651.828	-100.471	-0.258	0.064
-650.814	415.873	-0.060	0.128
-649.799	-200.000	-0.035	-0.443
-648.784	330.628	0.154	-0.297
-647.770	45.472	0.177	-0.164
-646.755	-38.198	0.077	0.041
-645.741	195.529	-0.129	-0.196
-644.726	576.858	-0.144	0.350
-643.711	-16.749	-0.242	0.153
-642.697	168.426	0.187	0.265
-641.682	6.262	-0.149	-0.111
-640.668	800.000	-0.104	-0.307
-639.653	-67.319	-0.314	-0.123
-638.638	226.898	0.130	-0.210
-637.624	530.542	-0.121	0.285
-636.609	471.115	-0.108	-0.243
-635.595	85.244	-0.108	-0.118
-634.580	79.356	0.111	0.119
-633.565	-78.340	-0.319	0.109
-632.551	-152.018	-0.096	-0.007
-631.536	-12.539	0.208	0.135
-630.522	800.000	-0.036	-0.131
-629.507	-200.000	0.040	-0.184
-628.492	-200.000	0.028	-0.138
-627.478	-33.439	-0.220	-0.121
-626.463	-46.550	-0.162	0.079
-625.449	141.496	0.295	-0.389
-624.434	-85.278	0.083	-0.026
-623.419	448.718	-0.054	-0.119
-622.405	-45.553	0.083	0.041
-621.390	-200.000	0.013	0.100
-620.376	203.718	0.044	-0.068
-619.361	583.239	0.077	0.188
-618.346	-122.638	-0.076	-0.012
-617.332	-137.396	-0.251	-0.028
-616.317	-55.851	-0.136	-0.061
-615.303	-92.194	0.336	-0.095
-614.288	60.046	-0.260	-0.256
-613.273	-70.041	0.285	-0.108
-612.259	-12.232	0.108	-0.071
-611.244	261.103	-0.206	0.356
-610.230	28.957	-0.374	-0.316
-609.215	592.198	-0.123	0.302
-608.201	-1.306	0.214	0.151
-607.186	-43.967	0.303	0.152
-606.171	318.144	-0.138	0.260
-605.157	-45.913	0.299	-0.147
-604.142	-45.742	-0.300	-0.148
-603.128	-24.708	-0.287	-0.170
-602.113	164.415	0.092	-0.130
-601.098	-200.000	0.003	0.100
-600.084	-65.385	-0.196	0.078
-599.069	-200.000	-0.046	-0.234
-598.055	-71.434	0.215	-0.080
-597.040	217.671	-0.174	-0.276
-596.025	800.000	0.016	0.047
-595.011	226.014	-0.054	0.087
-593.996	-134.159	-0.118	-0.015
-592.982	-73.702	0.178	-0.064
-591.967	-154.717	0.088	-0.006
-590.952	800.000	0.101	-0.345
-589.938	-139.074	0.289	-0.031
-588.923	-78.993	-0.446	-0.151
-587.909	-65.144	0.198	0.079
-586.894	691.231	-0.046	-0.119
-585.879	-20.461	-0.145	-0.089
-584.865	800.000	0.035	0.135
-583.850	47.149	0.120	0.111
-582.836	-200.000	0.037	-0.330
-581.821	-73.134	0.533	-0.195
-580.806	-1.041	-0.131	0.092
-579.792	-158.312	0.379	0.022
-578.777	53.066	-0.117	-0.112
-577.763	800.000	-0.014	-0.054
-576.748	800.000	-0.110	0.354
-575.733	518.130	-0.122	-0.285
-574.719	101.089	-0.191	0.222
-573.704	-125.689	0.221	-0.033
-572.690	-159.078	-0.274	-0.015
-571.675	-11.346	-0.260	0.170
-570.661	-138.899	0.451	-0.049
-569.646	738.285	-0.131	0.350
-568.631	-99.505	-0.286	-0.072
-567.617	347.135	0.094	0.184
-566.602	-70.200	0.117	-0.044
-565.588	375.137	0.050	0.101
-564.573	271.706	0.086	-0.151
-563.558	-200.000	0.043	-0.260
-562.544	800.000	0.027	-0.114
-561.529	-200.000	0.040	-0.216
-560.515	-151.948	-0.096	0.007
-559.500	-200.000	-0.020	0.102
-558.485	95.887	0.130	0.148
-557.471	-15.739	-0.201	0.128
-556.456	269.137	0.233	0.407
-555.442	-29.299	-0.104	0.059
-554.427	-44.654	-0.206	0.102
-553.412	-110.100	0.263	-0.055
-552.398	800.000	0.071	-0.228
-551.383	-200.000	-0.009	-0.262
-550.369	28.206	-0.172	-0.145
-549.354	-140.780	-0.258	-0.026
-548.339	-102.426	-0.174	-0.041
-547.325	211.555	-0.163	0.255
-546.310	-137.636	-0.218	0.024
-545.296	800.000	0.084	-0.294
-544.281	-179.888	-0.153	-0.003
-543.266	-200.000	-0.001	-0.250
-542.252	-119.977	0.447	0.076
-541.237	-200.000	-0.020	0.211
-540.223	-96.561	0.257	0.067
-539.208	-117.818	0.250	-0.045
-538.193	-109.536	-0.129	-0.027
-537.179	800.000	0.107	0.369
-536.164	355.359	-0.070	0.139
-535.150	-31.007	-0.069	0.039
-534.135	-87.480	-0.220	-0.066
-533.121	-200.000	0.014	0.071
-532.106	-157.944	0.170	0.010
-531.091	106.469	-0.156	-0.184
-530.077	-200.000	0.053	-0.406
-529.062	-126.602	-0.153	0.023
-528.048	63.907	0.197	0.197
-527.033	-55.627	0.198	0.088
-526.018	44.139	0.121	-0.111
-525.004	800.000	-0.042	-0.156
-523.989	-200.000	-0.024	0.301
-522.975	-106.698	-0.157	0.035
-521.960	206.940	-0.225	0.349
-520.945	-200.000	-0.001	-0.149
-519.931	-120.266	0.520	0.088
-518.916	125.079	0.094	0.117
-517.902	217.583	0.221	0.351
-516.887	-156.250	0.509	-0.032
-515.872	-53.917	-0.212	-0.096
-514.858	-200.000	-0.070	-0.456
-513.843	-82.474	0.238	0.077
-512.829	542.927	0.118	-0.280
-511.814	-9.438	-0.191	0.127
-510.799	77.595	0.332	0.351
-509.785	800.000	0.023	-0.085
-508.770	800.000	-0.079	-0.220
-507.756	446.112	-0.049	0.108
-506.741	-25.769	0.255	0.149
-505.726	86.426	-0.085	-0.093
-504.712	-90.795	0.360	-0.103
-503.697	-143.715	0.219	-0.021
-502.683	189.613	0.161	-0.239
-501.668	800.000	0.042	-0.126
-500.653	-110.439	0.109	0.022
-499.639	-72.824	0.139	0.051
-498.624	-128.401	0.232	-0.033
-497.610	-197.592	-0.168	-0.001
-496.595	50.100	-0.031	0.029
-495.581	-200.000	0.051	-0.300
-494.566	49.680	0.029	-0.027
-493.551	-149.709	-0.445	0.035
-492.537	-23.569	-0.206	-0.123
-491.522	181.263	0.293	-0.427
-490.508	800.000	-0.016	-0.063
-489.493	-65.622	0.166	0.066
-488.478	-67.713	0.104	0.040
-487.464	-83.836	-0.199	-0.063
-486.449	-200.000	-0.003	0.389
-485.435	-77.692	-0.142	0.049
-484.420	98.419	0.168	0.192
-483.405	800.000	0.051	0.150
-482.391	-27.394	-0.107	-0.061
-481.376	775.221	0.069	0.186
-480.362	214.991	-0.085	-0.133
-479.347	39.808	-0.214	-0.190
-478.332	622.736	-0.128	0.319
-477.318	-132.287	0.481	0.062
-476.303	684.605	0.072	0.185
-475.289	165.294	-0.076	-0.106
-474.274	-200.000	-0.011	0.149
-473.259	-57.312	-0.091	0.040
-472.245	20.825	-0.231	-0.185
-471.230	-99.877	-0.343	0.085
-470.216	-126.677	0.320	-0.047
-469.201	-31.112	-0.291	0.163
-468.186	-138.290	-0.183	0.020
-467.172	13.775	0.057	-0.044
-466.157	800.000	0.052	0.209
-465.143	-200.000	0.013	0.092
-464.128	-30.098	-0.202	-0.114
-463.113	-106.385	0.227	-0.050
-462.099	123.367	-0.226	-0.281
-461.084	352.703	-0.192	-0.378
-460.070	725.171	-0.017	0.045
-459.055	-6.120	-0.086	-0.058
-458.040	-117.812	-0.091	0.016
-457.026	64.226	-0.041	0.041
-456.011	-91.451	0.095	-0.027
-454.997	-200.000	-0.045	-0.264
-453.982	-32.830	0.164	0.090
-452.968	-171.240	0.063	0.002
-451.953	-145.644	-0.922	-0.082
-450.938	-200.000	-0.058	-0.463
-449.924	-44.568	-0.368	0.182
-448.909	26.788	0.245	-0.203
-447.895	121.178	-0.062	0.076
-446.880	62.286	0.136	0.135
-445.865	199.188	0.155	0.235
-444.851	60.904	-0.212	0.209
-443.836	-166.352	-0.178	-0.007
-442.822	-86.283	-0.223	-0.068
-441.807	-35.031	0.188	-0.101
-440.792	97.514	-0.189	-0.215
-439.778	63.377	-0.185	-0.184
-438.763	-170.154	0.105	-0.004
-437.749	800.000	0.121	-0.352
-436.734	31.429	0.123	0.104
-435.719	107.744	-0.176	-0.208
-434.705	-200.000	0.015	0.154
-433.690	-18.907	-0.198	-0.122
-432.676	471.272	0.114	0.254
-431.661	-133.358	0.201	-0.025
-430.646	280.988	-0.222	0.393
-429.632	175.441	0.199	0.286
-428.617	181.025	-0.160	-0.232
-427.603	36.828	-0.223	0.195
-426.588	513.070	0.119	0.274
-425.573	800.000	-0.125	0.461
-424.559	59.488	-0.114	0.112
-423.544	-13.922	-0.271	0.173
-422.530	-25.927	0.276	-0.161
-421.515	117.279	-0.094	0.115
-420.500	17.712	0.139	0.110
-419.486	137.249	0.036	0.047
-418.471	-200.000	0.047	0.438
-417.457	-63.413	-0.086	0.035
-416.442	-200.000	-0.013	-0.216
-415.428	6.913	-0.040	-0.030
-414.413	224.475	0.049	0.078
-413.398	-127.556	0.109	-0.016
-412.384	-107.870	-0.210	0.045
-411.369	11.522	0.069	0.053
-410.355	141.170	-0.145	-0.190
-409.340	40.625	-0.047	-0.042
-408.325	46.242	0.175	-0.161
-407.311	-62.395	-0.357	-0.147
-406.296	-100.152	0.173	0.043
-405.282	-71.370	-0.188	0.070
-404.267	-200.000	-0.075	-0.342
-403.252	-135.668	0.246	-0.029
-402.238	-31.142	0.347	-0.194
-401.223	-22.129	-0.148	-0.089
-400.209	494.424	0.087	-0.198
-399.194	-105.553	-0.166	0.037
-398.179	542.590	-0.100	0.235
-397.165	93.932	-0.028	0.031
-396.150	188.898	0.126	0.187
-395.136	47.962	0.083	-0.077
-394.121	435.377	0.078	0.169
-393.106	-23.315	0.150	-0.089
-392.092	-83.416	-0.120	-0.038
-391.077	800.000	-0.084	0.247
-390.063	-200.000	0.009	0.418
-389.048	-83.232	-0.143	0.045
-388.033	216.710	-0.086	-0.136
-387.019	398.391	-0.014	-0.029
-386.004	-200.000	0.024	0.316
-384.990	-73.057	-0.285	0.103
-383.975	213.461	0.225	0.351
-382.960	-200.000	-0.001	0.009
-381.946	164.916	-0.167	0.234
-380.931	-200.000	-0.005	0.202
-379.917	52.163	-0.432	-0.407
-378.902	4.922	-0.271	0.197
-377.888	-200.000	0.014	0.189
-376.873	800.000	0.036	-0.101
-375.858	-108.918	-0.121	0.026
-374.844	-200.000	-0.023	-0.155
-373.829	-200.000	-0.005	-0.246
-372.815	157.857	-0.046	0.063
-371.800	-65.796	-0.135	0.053
-370.785	1.753	0.099	-0.071
-369.771	800.000	-0.015	-0.061
-368.756	112.822	-0.205	-0.245
-367.742	37.791	-0.099	0.087
-366.727	169.933	0.194	0.274
-365.712	155.802	-0.098	0.133
-364.698	699.670	0.119	-0.309
-363.683	-200.000	-0.005	0.097
-362.669	-200.000	-0.001	-0.126
-361.654	269.949	0.131	-0.227
-360.639	800.000	-0.031	0.089
-359.625	229.696	-0.114	0.184
-358.610	-200.000	-0.067	0.472
-357.596	-200.000	0.046	-0.390
-356.581	-200.000	-0.011	0.205
-355.566	707.201	0.063	-0.165
-354.552	483.080	-0.081	-0.182
-353.537	-200.000	0.037	-0.214
-352.523	-3.207	0.050	-0.034
-351.508	83.694	0.217	0.233
-350.493	-200.000	-0.126	0.581
-349.479	-20.767	-0.198	0.120
-348.464	-58.136	0.263	0.113
-347.450	800.000	0.069	0.212
-346.435	227.107	-0.070	-0.113
-345.420	-69.027	0.326	0.124
-344.406	800.000	-0.024	0.091
-343.391	-127.049	0.154	-0.022
-342.377	-23.527	0.050	-0.030
-341.362	308.593	-0.093	-0.171
-340.348	-143.010	0.081	-0.008
-339.333	800.000	0.085	-0.322
-338.318	800.000	0.100	-0.295
-337.304	-86.461	0.452	0.137
-336.289	-187.675	-0.251	-0.003
-335.275	-106.579	-0.095	-0.021
-334.260	759.349	-0.078	-0.207
-333.245	640.137	-0.126	-0.316
-332.231	189.246	0.104	0.153
-331.216	-139.281	0.199	-0.021
-330.202	25.356	-0.212	0.174
-329.187	-85.717	0.078	0.024
-328.172	53.525	0.266	-0.252
-327.158	154.630	0.098	0.133
-326.143	622.909	-0.092	0.228
-325.129	209.805	0.167	0.258
-324.114	74.416	0.198	-0.205
-323.099	239.699	0.023	-0.038
-322.085	653.301	0.030	0.076
-321.070	624.876	-0.155	0.386
-320.056	484.284	-0.033	-0.073
-319.041	49.453	0.058	-0.054
-318.026	72.273	-0.098	-0.100
-317.012	103.610	0.072	0.083
-315.997	652.188	-0.120	0.303
-314.983	240.035	0.178	0.293
-313.968	-33.089	0.391	0.214
-312.953	-35.550	-0.202	-0.108
-311.939	-200.000	0.001	-0.643
-310.924	-98.489	-0.341	0.086
-309.910	-129.104	-0.344	0.047
-308.895	800.000	-0.064	-0.212
-307.880	-140.740	0.502	-0.051
-306.866	-70.598	0.098	-0.036
-305.851	-69.383	0.180	-0.068
-304.837	-80.637	0.557	0.183
-303.822	-195.698	0.208	-0.001
-302.807	13.367	0.203	0.155
-301.793	0.664	-0.138	-0.097
-300.778	-35.121	0.170	0.091
-299.764	262.287	-0.134	0.229
-298.749	-200.000	-0.051	-0.438
-297.735	800.000	-0.050	-0.138
-296.720	-21.034	0.119	-0.072
-295.705	-112.108	0.227	0.045
-294.691	-95.721	-0.389	-0.102
-293.676	-200.000	0.001	-0.335
-292.662	-200.000	-0.019	-0.480
-291.647	800.000	-0.042	0.151
-290.632	-62.000	-0.236	-0.097
-289.618	-200.000	-0.001	0.184
-288.603	-105.648	-0.090	0.020
-287.589	40.028	0.162	-0.143
-286.574	-107.611	-0.239	-0.051
-285.559	34.024	0.223	0.191
-284.545	-86.494	0.081	0.025
-283.530	-113.785	-0.550	0.105
-282.516	70.476	-0.279	0.284
-281.501	800.000	0.095	0.357
-280.486	-77.810	-0.354	-0.120
-279.472	-96.475	0.313	0.081
-278.457	800.000	0.065	0.261
-277.443	-27.956	-0.114	0.065
-276.428	-114.599	-0.079	0.015
-275.413	186.368	0.245	-0.359
-274.399	-152.572	-0.116	0.008
-273.384	-8.640	-0.240	-0.159
-272.370	-200.000	-0.008	0.354
-271.355	-167.679	0.145	0.006
-270.340	114.461	0.081	0.098
-269.326	-91.817	0.278	0.078
-268.311	134.512	0.228	-0.291
-267.297	-25.645	0.124	0.072
-266.282	178.306	0.160	-0.230
-265.267	-200.000	0.000	-0.099
-264.253	87.919	-0.065	0.070
-263.238	-32.108	-0.272	-0.150
-262.224	378.684	-0.099	0.198
-261.209	800.000	0.112	0.310
-260.195	-127.833	0.218	0.031
-259.180	-200.000	-0.054	0.386
-258.165	-108.851	0.406	0.085
-257.151	800.000	-0.016	0.047
-256.136	62.582	0.054	0.053
-255.122	-200.000	0.006	-0.134
-254.107	382.561	-0.066	-0.133
-253.092	191.138	0.175	-0.259
-252.078	800.000	-0.063	0.246
-251.063	69.575	-0.149	0.151
-250.049	-200.000	0.047	0.243
-249.034	251.197	-0.079	-0.131
-248.019	223.921	0.107	-0.170
-247.005	-90.209	-0.168	0.048
-245.990	21.273	0.103	-0.083
-244.976	638.023	-0.068	-0.170
-243.961	-96.386	0.161	-0.042
-242.946	84.521	-0.267	0.287
-241.932	-200.000	-0.170	0.000
-240.917	44.509	0.133	0.120
-239.903	-36.599	-0.137	0.072
-238.888	33.544	-0.025	0.021
-237.873	-200.000	-0.031	0.215
-236.859	800.000	0.074	-0.313
-235.844	354.092	-0.084	0.165
-234.830	-200.000	0.046	-0.263
-233.815	69.376	-0.056	-0.057
-232.800	290.789	-0.172	-0.308
-231.786	182.091	-0.135	0.196
-230.771	163.167	0.200	0.276
-229.757	644.274	0.033	0.083
-228.742	-200.000	-0.013	-0.307
-227.727	-74.838	0.170	0.060
-226.713	494.854	0.038	0.086
-225.698	-200.000	-0.008	0.655
-224.684	43.718	0.126	0.113
-223.669	800.000	-0.124	-0.419
-222.655	-38.756	0.186	0.097
-221.640	-165.598	0.209	0.009
-220.625	60.051	0.114	0.111
-219.611	-143.506	-0.105	0.010
-218.596	-149.901	-0.170	-0.013
-217.582	35.014	0.104	0.089
-216.567	-30.216	0.176	0.098
-215.552	-200.000	-0.016	-0.141
-214.538	-200.000	-0.011	-0.211
-213.523	-200.000	0.126	-0.000
-212.509	800.000	0.048	0.154
-211.494	572.885	-0.045	0.108
-210.479	176.789	0.068	0.097
-209.465	617.731	-0.066	-0.162
-208.450	305.045	0.065	0.119
-207.436	125.218	-0.056	-0.070
-206.421	-52.486	-0.103	-0.047
-205.406	760.069	-0.092	-0.246
-204.392	-200.000	0.047	-0.252
-203.377	552.252	0.140	0.331
-202.363	-96.020	-0.006	-0.001
-201.348	20.865	-0.064	0.051
-200.333	-155.624	0.339	-0.021
-199.319	171.565	0.194	0.273
-198.304	800.000	0.029	0.116
-197.290	-97.445	-0.165	-0.042
-196.275	659.263	0.077	-0.193
-195.260	159.658	0.012	-0.016
-194.246	-111.376	0.143	0.029
-193.231	150.264	0.114	-0.151
-192.217	32.718	0.174	0.148
-191.202	-77.577	-0.215	0.073
-190.187	800.000	-0.120	-0.395
-189.173	-112.080	-0.226	-0.045
-188.158	-200.000	0.001	0.180
-187.144	752.098	-0.027	-0.072
-186.129	-200.000	-0.063	0.337
-185.114	-200.000	-0.008	-0.182
-184.100	312.591	0.120	0.220
-183.085	-129.555	-0.464	-0.063
-182.071	-27.924	-0.238	-0.135
-181.056	-200.000	0.008	0.252
-180.042	-105.355	0.242	0.054
-179.027	-19.865	0.114	0.069
-178.012	-142.270	0.090	0.009
-176.998	44.685	0.105	-0.094
-175.983	-200.000	-0.006	0.272
-174.969	582.570	-0.087	-0.209
-173.954	-200.000	-0.014	-0.150
-172.939	-59.877	-0.088	0.037
-171.925	34.648	0.162	-0.139
-170.910	-67.304	0.182	-0.070
-169.896	561.134	-0.052	-0.124
-168.881	80.947	0.048	-0.051
-167.866	95.165	-0.333	0.372
-166.852	800.000	-0.058	0.169
-165.837	-200.000	0.000	-0.119
-164.823	-45.241	0.203	-0.099
-163.808	594.907	0.198	-0.479
-162.793	-200.000	-0.016	-0.266
-161.779	-96.196	-0.372	-0.097
-160.764	-149.647	0.246	-0.019
-159.750	-107.935	-0.363	0.077
-158.735	-131.488	0.290	0.037
-157.720	127.995	-0.138	0.172
-156.706	81.711	-0.121	-0.129
-155.691	280.184	-0.119	-0.209
-154.677	9.292	0.307	-0.228
-153.662	104.474	0.088	0.102
-152.647	196.683	0.036	0.054
-151.633	-200.000	-0.003	0.174
-150.618	-106.255	0.262	-0.057
-149.604	-62.947	0.125	0.051
-148.589	-200.000	0.023	0.132
-147.574	-200.000	-0.005	-0.105
-146.560	129.654	0.156	0.195
-145.545	385.603	-0.063	0.126
-144.531	34.044	0.397	0.339
-143.516	-187.175	0.600	0.008
-142.502	53.006	-0.091	-0.086
-141.487	60.280	-0.133	0.129
-140.472	800.000	-0.113	0.372
-139.458	76.213	0.226	0.234
-138.443	277.609	0.200	0.349
-137.429	-67.997	-0.101	0.038
-136.414	265.123	-0.117	0.199
-135.399	-87.614	-0.293	-0.087
-134.385	283.460	-0.176	-0.309
-133.370	-142.190	-0.346	0.034
-132.356	-64.325	0.035	-0.014
-131.341	-91.870	0.124	-0.034
-130.326	-200.000	-0.008	0.166
-129.312	-200.000	-0.051	0.237
-128.297	-200.000	-0.023	-0.156
-127.283	28.584	-0.178	0.147
-126.268	-200.000	-0.015	0.134
-125.253	67.465	0.196	-0.195
-124.239	9.194	0.164	-0.121
-123.224	-4.188	-0.149	0.101
-122.210	219.714	0.082	0.129
