DTS Sentinel unit serial number:	SN413079Multiplexer serial number:	ORYXHardware model number:	OX4-SRSoftware version number:	ORYX F/W v4.00 Oryx Data Collector v3.7.2.0data status	okinstallation	princeton_trtdifferential loss correction	single-endedforward channel	channel 1reverse channel	N/Adate	2019/09/15time	17:18:35forward acquisition time	60.00reverse acquisition time	0.00gamma	496.2192k internal	0.2291k external	0.2291temperature offset calibration	0.9927default loss term (dB/km)	0.3790temperature slope calibration	1.0000multiplexer offset coefficient	1.0000multiplexer slope coefficient	1.0000fibre end	0.00T internal ref (°C)	44.75T ext. ref 1 (°C)	6.04T ext. ref 2 (°C)	40.18length (m)	temperature (°C)	Stokes	anti-Stokes-747.200	800.000	0.055	-0.236
-746.185	800.000	0.027	-0.118
-745.171	173.231	0.142	-0.209
-744.156	157.357	-0.152	0.216
-743.142	800.000	-0.088	-0.333
-742.127	-200.000	0.021	-0.120
-741.112	-91.789	-0.118	-0.034
-740.098	-200.000	0.012	-0.176
-739.083	309.012	0.125	-0.238
-738.069	-61.069	-0.100	-0.043
-737.054	-143.519	-0.045	0.004
-736.039	64.208	-0.136	0.140
-735.025	103.937	0.274	0.330
-734.010	-73.990	-0.111	0.041
-732.996	-200.000	0.008	-0.301
-731.981	75.408	0.156	-0.169
-730.966	-71.739	0.396	-0.151
-729.952	-49.284	0.298	0.146
-728.937	-45.002	-0.152	-0.077
-727.923	69.127	0.222	0.234
-726.908	586.778	-0.130	-0.327
-725.894	55.366	-0.092	0.091
-724.879	-115.336	0.081	0.016
-723.864	49.454	0.149	-0.143
-722.850	800.000	-0.071	-0.222
-721.835	-41.886	-0.157	0.083
-720.821	128.860	-0.151	-0.197
-719.806	-200.000	0.002	-0.084
-718.791	175.148	-0.257	-0.381
-717.777	59.383	0.083	0.084
-716.762	80.050	0.041	0.045
-715.748	131.684	-0.029	0.039
-714.733	-74.088	0.311	-0.115
-713.718	252.564	-0.147	0.255
-712.704	-200.000	-0.013	0.277
-711.689	34.386	0.129	-0.115
-710.675	800.000	0.091	-0.279
-709.660	-43.866	0.317	-0.163
-708.645	590.089	-0.048	-0.122
-707.631	-49.689	0.210	-0.102
-706.616	149.078	-0.092	0.128
-705.602	800.000	0.078	-0.340
-704.587	22.940	-0.473	-0.397
-703.572	800.000	0.057	0.198
-702.558	-186.827	0.249	0.004
-701.543	13.817	0.144	-0.114
-700.529	-12.562	0.271	-0.181
-699.514	37.682	0.190	-0.173
-698.499	800.000	-0.075	-0.223
-697.485	-200.000	-0.040	-0.322
-696.470	-151.624	0.161	-0.012
-695.456	-11.672	-0.012	-0.008
-694.441	-105.192	0.265	-0.062
-693.426	159.967	-0.064	-0.092
-692.412	110.230	0.120	-0.147
-691.397	-200.000	-0.050	-0.240
-690.383	88.065	0.231	-0.261
-689.368	-200.000	-0.012	0.061
-688.354	-46.408	-0.550	-0.276
-687.339	-156.509	0.150	0.010
-686.324	-78.567	0.270	-0.094
-685.310	-78.030	-0.214	0.075
-684.295	2.833	0.350	-0.259
-683.281	178.195	-0.298	-0.444
-682.266	-101.058	0.158	0.039
-681.251	52.127	0.074	-0.072
-680.237	-143.762	-0.317	0.031
-679.222	594.591	0.079	0.199
-678.208	-200.000	-0.023	0.181
-677.193	-147.979	-0.267	0.023
-676.178	-58.411	-0.187	-0.083
-675.164	-159.265	-0.312	-0.018
-674.149	72.943	0.026	0.028
-673.135	-29.194	0.112	-0.066
-672.120	-200.000	-0.011	-0.141
-671.105	34.996	0.309	-0.276
-670.091	80.037	-0.086	-0.095
-669.076	-30.028	0.295	0.171
-668.062	270.644	-0.143	0.258
-667.047	65.810	-0.016	0.017
-666.032	108.574	-0.117	-0.143
-665.018	-200.000	-0.042	0.000
-664.003	29.463	-0.124	-0.107
-662.989	-58.410	-0.421	0.187
-661.974	-159.947	0.243	0.014
-660.959	-85.121	-0.127	0.040
-659.945	-39.942	-0.429	-0.228
-658.930	-53.472	-0.349	-0.163
-657.916	-160.741	0.305	-0.016
-656.901	-123.884	-0.318	-0.051
-655.886	382.715	-0.171	0.358
-654.872	12.142	0.364	0.286
-653.857	280.788	-0.130	0.237
-652.843	-200.000	-0.003	-0.289
-651.828	-200.000	0.019	-0.184
-650.814	-72.792	-0.235	0.088
-649.799	-96.914	-0.317	-0.085
-648.784	307.422	0.075	0.143
-647.770	409.382	-0.131	-0.283
-646.755	800.000	-0.067	-0.214
-645.741	435.211	-0.071	-0.158
-644.726	-47.013	0.181	-0.090
-643.711	-116.295	-0.119	-0.023
-642.697	20.558	-0.312	0.257
-641.682	257.080	0.090	-0.158
-640.668	104.849	0.245	-0.295
-639.653	1.743	0.290	0.213
-638.638	36.358	0.247	-0.222
-637.624	365.640	0.130	0.268
-636.609	193.785	-0.163	0.252
-635.595	-25.904	-0.097	0.058
-634.580	687.992	0.108	0.287
-633.565	-200.000	-0.037	-0.208
-632.551	-57.424	0.217	-0.097
-631.536	69.134	-0.050	0.052
-630.522	88.559	0.180	0.204
-629.507	330.066	0.043	0.084
-628.492	56.430	0.095	-0.094
-627.478	-54.524	0.245	-0.113
-626.463	-200.000	0.128	-0.573
-625.449	119.015	0.171	-0.216
-624.434	231.862	0.078	-0.130
-623.419	-158.654	0.199	-0.012
-622.405	-114.997	0.146	0.028
-621.390	66.985	0.474	0.492
-620.376	-30.171	-0.088	-0.051
-619.361	-131.184	0.226	-0.031
-618.346	70.798	-0.054	-0.057
-617.332	569.652	0.107	0.265
-616.317	800.000	-0.065	0.283
-615.303	-138.218	0.176	-0.020
-614.288	424.867	-0.051	0.111
-613.273	-51.507	-0.471	0.224
-612.259	-21.654	0.509	0.316
-611.244	-200.000	0.036	-0.207
-610.230	294.623	-0.134	0.250
-609.215	800.000	0.064	-0.237
-608.201	-39.379	0.124	-0.066
-607.186	-196.768	-0.299	-0.002
-606.171	-0.055	0.160	0.116
-605.157	-35.704	0.117	-0.064
-604.142	729.507	-0.040	-0.107
-603.128	124.492	0.138	-0.176
-602.113	-200.000	-0.012	-0.321
-601.098	52.422	0.248	-0.241
-600.084	40.276	0.157	0.144
-599.069	-75.947	-0.181	-0.065
-598.055	800.000	0.110	0.369
-597.040	547.139	-0.081	0.198
-596.025	-200.000	-0.049	0.271
-595.011	-47.258	-0.300	-0.149
-593.996	-200.000	-0.018	-0.114
-592.982	215.105	-0.062	-0.100
-591.967	-18.287	-0.271	-0.172
-590.952	226.168	-0.140	-0.232
-589.938	145.903	-0.276	0.377
-588.923	77.624	-0.168	0.182
-587.909	-69.138	0.324	0.127
-586.894	-200.000	0.033	0.250
-585.879	-100.626	-0.251	-0.063
-584.865	34.379	-0.078	0.069
-583.850	-84.866	-0.200	-0.064
-582.836	341.906	0.077	-0.153
-581.821	473.017	0.108	-0.248
-580.806	744.299	0.145	0.396
-579.792	800.000	-0.082	-0.232
-578.777	142.664	-0.260	0.351
-577.763	-122.682	0.183	-0.030
-576.748	-200.000	-0.002	0.153
-575.733	-128.143	-0.214	-0.031
-574.719	-16.349	-0.101	-0.065
-573.704	-99.965	-0.051	-0.013
-572.690	28.726	0.217	-0.187
-571.675	490.974	0.068	-0.158
-570.661	211.151	-0.101	0.162
-569.646	471.896	0.080	0.184
-568.631	51.894	0.047	-0.046
-567.617	107.815	-0.123	-0.149
-566.602	242.107	0.060	0.102
-565.588	221.797	-0.091	-0.149
-564.573	-91.774	-0.518	0.150
-563.558	67.440	0.021	-0.021
-562.544	-200.000	0.004	-0.060
-561.529	-60.723	-0.014	-0.006
-560.515	553.725	-0.063	-0.153
-559.500	183.438	0.086	-0.129
-558.485	178.166	-0.189	-0.280
-557.471	-15.036	-0.286	0.186
-556.456	-54.298	-0.429	-0.198
-555.442	272.498	0.104	-0.187
-554.427	242.374	0.075	0.128
-553.412	-70.087	0.089	0.035
-552.398	-97.563	-0.350	-0.092
-551.383	-200.000	-0.027	0.191
-550.369	256.949	0.015	0.026
-549.354	314.366	-0.041	-0.079
-548.339	-68.513	0.124	-0.049
-547.325	-82.127	-0.146	0.048
-546.310	178.330	-0.068	-0.101
-545.296	-200.000	-0.050	-0.270
-544.281	5.421	-0.170	-0.127
-543.266	-2.953	-0.083	-0.059
-542.252	34.796	0.181	0.161
-541.237	171.975	-0.239	-0.349
-540.223	66.952	0.046	0.048
-539.208	-145.580	-0.373	0.034
-538.193	-10.993	0.071	0.048
-537.179	74.147	-0.121	-0.129
-536.164	800.000	0.030	-0.096
-535.150	186.687	0.135	-0.204
-534.135	-200.000	0.003	0.129
-533.121	-74.717	-0.090	0.033
-532.106	-200.000	0.008	0.261
-531.091	800.000	0.009	-0.030
-530.077	-77.149	0.153	-0.054
-529.062	-96.822	-0.023	-0.006
-528.048	-200.000	-0.032	-0.302
-527.033	-11.520	0.205	-0.137
-526.018	800.000	0.041	0.134
-525.004	-67.476	0.242	0.096
-523.989	143.777	0.085	0.114
-522.975	407.014	-0.179	0.383
-521.960	-125.922	-0.322	-0.049
-520.945	-200.000	0.014	-0.151
-519.931	420.096	-0.061	-0.133
-518.916	-200.000	-0.038	0.238
-517.902	-91.740	0.166	0.048
-516.887	208.312	-0.101	0.159
-515.872	118.699	-0.280	-0.351
-514.858	800.000	0.018	0.075
-513.843	379.122	-0.096	0.199
-512.829	-200.000	-0.006	-0.034
-511.814	798.688	0.073	0.203
-510.799	-63.437	-0.174	0.073
-509.785	-152.720	-0.082	-0.006
-508.770	259.966	0.165	0.289
-507.756	-200.000	-0.024	0.165
-506.741	32.076	0.114	0.100
-505.726	14.004	0.236	0.186
-504.712	256.516	0.092	0.160
-503.697	-200.000	0.053	0.309
-502.683	230.234	-0.203	0.337
-501.668	599.012	-0.070	-0.177
-500.653	-200.000	-0.011	0.084
-499.639	-138.571	-0.119	0.013
-498.624	-188.166	-0.454	0.006
-497.610	-127.413	0.390	-0.058
-496.595	314.016	0.087	0.166
-495.581	-200.000	-0.027	-0.212
-494.566	3.070	-0.229	-0.169
-493.551	-97.597	0.227	-0.060
-492.537	-64.502	0.107	-0.044
-491.522	-10.224	0.098	0.066
-490.508	-138.198	-0.173	0.019
-489.493	-200.000	0.043	-0.333
-488.478	-200.000	-0.001	-0.144
-487.464	-168.085	-0.207	0.008
-486.449	-44.052	-0.150	-0.076
-485.435	-3.035	0.188	-0.133
-484.420	251.358	0.201	-0.347
-483.405	105.459	-0.156	-0.187
-482.391	-0.020	0.205	-0.148
-481.376	-60.695	0.438	-0.188
-480.362	-36.693	0.109	0.059
-479.347	-134.653	0.101	0.012
-478.332	-46.228	-0.126	-0.063
-477.318	-176.397	-0.217	0.006
-476.303	-156.862	-0.342	0.021
-475.289	303.779	-0.178	0.335
-474.274	2.575	-0.192	0.141
-473.259	-200.000	-0.029	0.387
-472.245	170.189	0.176	0.255
-471.230	-92.355	0.239	0.068
-470.216	21.718	-0.056	0.046
-469.201	800.000	-0.048	0.156
-468.186	48.553	-0.188	-0.178
-467.172	-67.232	-0.260	-0.104
-466.157	-53.548	-0.301	0.140
-465.143	-200.000	0.050	-0.355
-464.128	800.000	0.055	0.212
-463.113	-42.360	-0.159	0.082
-462.099	110.157	-0.189	-0.230
-461.084	41.319	0.095	-0.087
-460.070	60.776	0.202	0.202
-459.055	294.310	-0.072	0.133
-458.040	-48.085	-0.224	-0.110
-457.026	73.599	-0.031	0.033
-456.011	800.000	-0.089	-0.389
-454.997	800.000	-0.014	0.055
-453.982	489.202	0.116	-0.268
-452.968	99.906	-0.104	-0.123
-451.953	-200.000	-0.019	-0.099
-450.938	154.254	0.172	-0.239
-449.924	800.000	0.045	0.175
-448.909	-136.070	0.053	-0.006
-447.895	23.888	0.144	-0.121
-446.880	703.332	0.093	0.248
-445.865	287.356	-0.127	0.232
-444.851	339.873	-0.088	-0.173
-443.836	-31.383	0.246	-0.140
-442.822	30.827	-0.102	0.089
-441.807	-105.897	-0.119	0.027
-440.792	650.065	0.111	-0.288
-439.778	92.293	0.197	-0.225
-438.763	249.513	0.042	-0.072
-437.749	-200.000	0.013	0.189
-436.734	12.350	0.166	-0.130
-435.719	-69.867	0.204	-0.079
-434.705	-200.000	-0.022	0.193
-433.690	800.000	0.082	-0.272
-432.676	800.000	-0.039	-0.135
-431.661	25.080	-0.174	-0.146
-430.646	-60.816	0.304	-0.130
-429.632	-94.014	-0.243	-0.068
-428.617	-200.000	-0.019	0.131
-427.603	-15.142	0.291	-0.189
-426.588	-200.000	0.026	0.135
-425.573	314.249	-0.230	0.438
-424.559	-99.526	-0.065	-0.016
-423.544	421.509	0.151	0.328
-422.530	67.374	0.116	-0.120
-421.515	113.222	-0.156	-0.191
-420.500	43.250	0.118	-0.109
-419.486	-181.110	0.158	-0.003
-418.471	137.721	-0.250	0.331
-417.457	-129.834	0.132	-0.018
-416.442	-72.787	-0.298	-0.111
-415.428	-26.832	-0.172	0.102
-414.413	-31.287	-0.112	0.064
-413.398	20.529	0.329	-0.269
-412.384	-35.144	-0.144	-0.079
-411.369	547.331	0.029	0.069
-410.355	-108.451	-0.356	0.077
-409.340	307.770	0.109	-0.205
-408.325	-200.000	0.015	-0.163
-407.311	-58.721	-0.078	-0.034
-406.296	-64.174	0.271	0.112
-405.282	-84.034	0.260	0.084
-404.267	145.214	0.130	0.176
-403.252	57.793	-0.159	-0.157
-402.238	-200.000	0.025	0.153
-401.223	-200.000	0.028	0.400
-400.209	-169.177	0.212	-0.008
-399.194	12.261	-0.119	-0.093
-398.179	-200.000	0.006	0.131
-397.165	134.278	-0.041	-0.054
-396.150	4.423	-0.252	0.187
-395.136	-134.571	-0.158	0.020
-394.121	-75.378	0.072	0.026
-393.106	-62.614	0.300	-0.126
-392.092	-200.000	0.010	-0.463
-391.077	359.829	0.095	-0.191
-390.063	-200.000	0.034	0.375
-389.048	-0.225	-0.035	0.025
-388.033	395.469	0.105	0.220
-387.019	84.025	0.122	-0.134
-386.004	66.056	-0.208	-0.213
-384.990	-144.246	-0.199	-0.019
-383.975	800.000	0.067	-0.222
-382.960	524.371	0.047	0.111
-381.946	-200.000	-0.001	0.070
-380.931	800.000	-0.030	0.107
-379.917	-109.465	0.161	-0.034
-378.902	253.445	-0.120	0.206
-377.888	-200.000	-0.016	0.352
-376.873	41.136	0.164	-0.149
-375.858	104.000	-0.120	-0.142
-374.844	-139.059	0.075	-0.008
-373.829	-45.792	0.111	-0.055
-372.815	800.000	0.124	0.402
-371.800	21.244	0.186	-0.152
-370.785	-200.000	0.011	0.235
-369.771	800.000	-0.024	0.088
-368.756	800.000	0.079	0.297
-367.742	800.000	0.048	-0.153
-366.727	231.734	0.161	-0.266
-365.712	-32.640	0.042	-0.024
-364.698	311.836	-0.096	-0.182
-363.683	115.755	0.106	-0.131
-362.669	125.172	-0.076	0.097
-361.654	30.731	-0.272	0.234
-360.639	104.093	-0.249	0.296
-359.625	-145.992	0.505	-0.045
-358.610	-200.000	-0.002	-0.147
-357.596	-4.918	-0.378	0.263
-356.581	167.951	-0.094	-0.135
-355.566	46.595	0.190	0.178
-354.552	-0.444	0.308	-0.220
-353.537	-73.138	-0.187	0.069
-352.523	-200.000	-0.058	0.380
-351.508	136.018	0.143	0.188
-350.493	768.541	0.076	-0.209
-349.479	-200.000	-0.045	-0.240
-348.464	-200.000	0.008	-0.216
-347.450	-119.873	0.035	0.006
-346.435	-200.000	0.048	-0.234
-345.420	365.427	0.223	-0.452
-344.406	114.640	-0.131	-0.161
-343.391	800.000	-0.038	0.130
-342.377	800.000	-0.087	0.302
-341.362	90.360	0.126	0.142
-340.348	-24.672	0.158	-0.094
-339.333	228.551	-0.079	0.130
-338.318	-200.000	0.026	0.142
-337.304	-11.251	0.129	0.086
-336.289	-36.808	-0.066	-0.036
-335.275	282.479	0.230	-0.415
-334.260	47.800	0.202	-0.190
-333.245	399.889	0.072	-0.153
-332.231	800.000	0.033	0.104
-331.216	383.299	0.014	-0.028
-330.202	-35.867	0.098	-0.054
-329.187	-200.000	-0.034	-0.190
-328.172	-200.000	-0.055	0.393
-327.158	17.354	-0.163	-0.130
-326.143	800.000	-0.088	0.255
-325.129	528.134	-0.078	-0.185
-324.114	-100.310	-0.124	0.031
-323.099	-200.000	0.004	0.036
-322.085	-200.000	-0.018	0.253
-321.070	12.212	-0.122	0.094
-320.056	232.680	0.147	-0.243
-319.041	270.662	0.067	0.119
-318.026	62.473	-0.115	-0.116
-317.012	-19.705	-0.115	-0.072
-315.997	37.317	0.010	0.009
-314.983	-45.321	-0.177	-0.088
-313.968	99.006	0.067	-0.078
-312.953	264.393	-0.051	-0.090
-311.939	-200.000	-0.050	-0.352
-310.924	265.639	-0.079	0.139
-309.910	-36.580	-0.026	-0.014
-308.895	-200.000	0.018	-0.130
-307.880	-200.000	0.007	-0.105
-306.866	-103.290	-0.130	-0.031
-305.851	-174.536	0.105	-0.003
-304.837	-86.537	0.239	-0.074
-303.822	-105.250	0.109	-0.025
-302.807	12.885	-0.061	0.048
-301.793	686.025	0.079	0.207
-300.778	82.910	0.074	0.081
-299.764	-13.536	-0.255	0.166
-298.749	-143.492	0.399	-0.038
-297.735	48.585	0.192	-0.181
-296.720	-62.864	-0.450	-0.188
-295.705	-200.000	-0.019	0.099
-294.691	567.228	0.122	-0.299
-293.676	-200.000	-0.023	0.119
-292.662	800.000	0.121	0.391
-291.647	-200.000	-0.021	0.143
-290.632	64.906	0.188	0.191
-289.618	-58.837	-0.158	-0.069
-288.603	650.081	0.043	-0.110
-287.589	-31.743	-0.351	-0.198
-286.574	-136.301	0.241	-0.028
-285.559	149.818	0.075	0.102
-284.545	-81.149	-0.133	0.044
-283.530	106.661	-0.228	-0.271
-282.516	149.109	0.194	-0.265
-281.501	-98.195	0.255	0.066
-280.486	-65.197	0.158	0.064
-279.472	-86.569	-0.426	0.131
-278.457	-1.086	0.184	0.131
-277.443	-31.636	-0.168	0.095
-276.428	-108.106	-0.221	0.048
-275.413	664.433	0.108	0.280
-274.399	-200.000	-0.040	0.300
-273.384	-28.818	-0.123	0.071
-272.370	38.129	0.087	0.078
-271.355	36.846	-0.252	0.224
-270.340	-20.326	0.351	0.217
-269.326	-107.348	0.435	-0.096
-268.311	85.629	0.282	-0.311
-267.297	46.768	-0.117	0.109
-266.282	-61.512	0.075	0.032
-265.267	-200.000	0.007	-0.271
-264.253	-67.253	0.291	0.115
-263.238	-63.028	-0.143	-0.059
-262.224	-200.000	0.073	-0.347
-261.209	396.460	-0.213	-0.448
-260.195	24.492	0.201	0.167
-259.180	-200.000	0.087	0.390
-258.165	36.353	-0.260	0.230
-257.151	-63.964	-0.052	0.022
-256.136	159.938	0.135	-0.189
-255.122	800.000	0.084	0.260
-254.107	135.909	-0.258	-0.338
-253.092	672.893	0.018	0.047
-252.078	-200.000	-0.017	0.097
-251.063	-200.000	-0.013	-0.070
-250.049	149.505	0.286	-0.389
-249.034	-85.035	0.370	0.116
-248.019	489.237	0.125	-0.288
-247.005	87.554	-0.148	-0.164
-245.990	28.941	-0.101	-0.086
-244.976	454.628	0.118	0.263
-243.961	51.918	0.199	-0.191
-242.946	-21.069	-0.380	-0.234
-241.932	-200.000	0.009	-0.175
-240.917	-185.787	0.114	0.002
-239.903	-200.000	0.014	-0.077
-238.888	-38.122	0.187	-0.100
-237.873	-26.960	-0.172	-0.101
-236.859	-111.650	0.208	0.042
-235.844	336.706	-0.081	-0.158
-234.830	-25.236	-0.131	-0.078
-233.815	587.510	0.066	0.164
-232.800	-200.000	0.180	0.001
-231.786	50.327	0.216	0.205
-230.771	65.026	0.177	0.179
-229.757	-200.000	-0.015	-0.068
-228.742	-200.000	-0.031	-0.196
-227.727	312.692	-0.183	0.345
-226.713	-56.304	0.185	-0.083
-225.698	-200.000	0.026	0.281
-224.684	-23.524	0.272	-0.164
-223.669	320.368	-0.059	0.112
-222.655	797.647	0.037	0.103
-221.640	-178.295	-0.401	0.009
-220.625	-200.000	-0.004	-0.210
-219.611	-112.129	-0.329	-0.066
-218.596	-200.000	-0.003	-0.021
-217.582	-68.166	-0.255	-0.099
-216.567	-200.000	-0.033	-0.179
-215.552	-100.219	-0.162	0.040
-214.538	-87.581	-0.171	0.052
-213.523	68.537	-0.196	0.202
-212.509	-55.941	-0.061	-0.027
-211.494	155.667	0.165	0.228
-210.479	800.000	-0.038	0.152
-209.465	800.000	-0.051	0.155
-208.450	-75.264	0.244	0.087
-207.436	405.357	-0.016	-0.034
-206.421	-117.973	0.056	-0.010
-205.406	654.166	0.074	-0.190
-204.392	-134.419	0.234	-0.029
-203.377	70.296	-0.123	0.128
-202.363	-200.000	-0.005	0.258
-201.348	-7.682	-0.163	0.111
-200.333	-145.608	-0.323	0.029
-199.319	-200.000	0.024	-0.188
-198.304	800.000	-0.067	-0.243
-197.290	-200.000	-0.025	0.210
-196.275	678.599	-0.156	0.407
-195.260	343.313	-0.057	-0.112
-194.246	520.375	0.100	0.236
-193.231	-195.523	0.213	-0.002
-192.217	258.173	0.122	-0.210
-191.202	-112.506	-0.161	-0.032
-190.187	58.716	0.247	0.243
-189.173	-105.058	-0.189	-0.043
-188.158	130.940	0.228	-0.293
-187.144	-200.000	0.008	-0.055
-186.129	-36.616	0.347	-0.187
-185.114	-35.093	0.358	-0.196
-184.100	94.198	0.196	-0.223
-183.085	-161.717	-0.223	0.011
-182.071	775.172	-0.115	-0.314
-181.056	800.000	0.108	-0.303
-180.042	177.402	-0.104	0.152
-179.027	800.000	-0.055	0.225
-178.012	-200.000	0.036	-0.250
-176.998	-200.000	0.012	-0.109
-175.983	-56.927	0.050	-0.022
-174.969	-78.520	-0.273	0.094
-173.954	-200.000	-0.001	0.187
-172.939	-122.593	0.064	-0.010
-171.925	178.373	0.087	0.128
-170.910	-24.530	-0.125	0.075
-169.896	70.967	0.128	-0.133
-168.881	800.000	-0.155	0.615
-167.866	-83.749	-0.252	0.080
-166.852	800.000	0.053	0.213
-165.837	-107.443	-0.082	-0.018
-164.823	81.155	0.285	0.308
-163.808	-139.978	-0.095	-0.010
-162.793	-200.000	0.035	-0.204
-161.779	800.000	0.054	-0.227
-160.764	-111.248	-0.112	-0.023
-159.750	-78.278	0.080	-0.027
-158.735	553.270	-0.055	0.132
-157.720	800.000	-0.120	0.425
-156.706	96.157	-0.136	0.155
-155.691	89.100	-0.159	-0.177
-154.677	-1.329	-0.251	0.177
-153.662	110.421	-0.232	0.278
-152.647	317.054	0.151	-0.286
-151.633	-16.452	-0.145	0.092
-150.618	-200.000	-0.039	0.185
-149.604	253.924	-0.060	0.102
-148.589	-60.173	0.340	-0.145
-147.574	-19.438	0.155	-0.096
-146.560	-5.907	0.119	0.082
-145.545	91.767	0.058	-0.066
-144.531	-200.000	0.017	-0.103
-143.516	-108.665	-0.243	-0.052
-142.502	67.909	0.151	0.154
-141.487	1.509	-0.289	0.208
-140.472	-122.986	0.113	0.018
-139.458	-18.732	0.238	0.148
-138.443	-121.314	0.162	-0.027
-137.429	17.203	-0.214	-0.170
-136.414	-200.000	0.030	-0.398
-135.399	-105.481	-0.044	0.010
-134.385	-18.060	-0.036	-0.023
-133.370	121.942	-0.199	-0.248
-132.356	9.707	0.165	0.125
-131.341	-27.066	-0.004	-0.002
-130.326	800.000	0.030	-0.100
-129.312	-13.390	-0.365	0.237
-128.297	319.252	-0.046	-0.087
-127.283	-109.665	-0.148	-0.031
-126.268	331.089	-0.077	0.148
-125.253	-24.471	0.019	-0.011
-124.239	31.435	-0.062	-0.053
-123.224	-200.000	0.007	0.181
-122.210	-103.574	0.165	-0.039
-121.195	58.379	-0.088	0.086
