DTS Sentinel unit serial number:	SN413079Multiplexer serial number:	ORYXHardware model number:	OX4-SRSoftware version number:	ORYX F/W v4.00 Oryx Data Collector v3.7.2.0data status	okinstallation	princeton_trtdifferential loss correction	single-endedforward channel	channel 1reverse channel	N/Adate	2019/09/14time	08:02:35forward acquisition time	60.00reverse acquisition time	0.00gamma	496.2192k internal	0.2333k external	0.2333temperature offset calibration	1.0068default loss term (dB/km)	0.3790temperature slope calibration	1.0000multiplexer offset coefficient	1.0000multiplexer slope coefficient	1.0000fibre end	0.00T internal ref (°C)	26.94T ext. ref 1 (°C)	3.53T ext. ref 2 (°C)	24.81length (m)	temperature (°C)	Stokes	anti-Stokes-747.200	-116.714	0.161	0.030
-746.185	-130.949	0.145	-0.020
-745.171	-69.116	0.266	-0.103
-744.156	-182.084	-0.138	-0.003
-743.142	277.612	0.124	-0.221
-742.127	162.141	0.005	0.007
-741.112	472.379	0.032	0.072
-740.098	-200.000	0.017	0.308
-739.083	195.956	0.263	0.402
-738.069	273.794	-0.144	0.255
-737.054	-40.861	-0.269	-0.140
-736.039	-27.993	0.368	0.214
-735.025	-200.000	-0.020	0.169
-734.010	-65.677	-0.189	-0.076
-732.996	-92.426	0.195	-0.055
-731.981	392.598	-0.043	-0.089
-730.966	280.075	-0.232	-0.416
-729.952	-119.548	-0.120	0.021
-728.937	195.879	-0.101	-0.155
-727.923	-48.189	0.133	0.064
-726.908	513.939	-0.060	-0.140
-725.894	203.611	-0.033	-0.052
-724.879	-200.000	-0.027	-0.162
-723.864	126.757	0.039	0.050
-722.850	-107.116	-0.259	-0.057
-721.835	-200.000	0.016	0.097
-720.821	-200.000	-0.032	0.520
-719.806	-69.318	-0.418	0.161
-718.791	57.456	-0.260	0.255
-717.777	679.584	0.018	-0.048
-716.762	-76.136	0.194	0.069
-715.748	800.000	0.120	-0.342
-714.733	800.000	0.026	0.082
-713.718	123.632	-0.189	-0.238
-712.704	-200.000	-0.011	-0.112
-711.689	-24.446	-0.199	-0.119
-710.675	-23.416	-0.090	0.054
-709.660	-131.446	-0.329	-0.044
-708.645	-150.242	-0.231	-0.018
-707.631	36.028	0.083	0.073
-706.616	-37.513	-0.126	-0.067
-705.602	-131.460	0.431	0.057
-704.587	-17.372	-0.239	-0.151
-703.572	-171.975	-0.284	0.009
-702.558	-124.083	-0.273	-0.043
-701.543	444.465	-0.203	-0.447
-700.529	58.437	0.134	-0.132
-699.514	-143.541	-0.356	0.034
-698.499	-108.719	-0.205	-0.044
-697.485	-74.381	0.181	-0.065
-696.470	-155.812	-0.343	0.022
-695.456	-200.000	-0.026	0.259
-694.441	-50.268	-0.110	-0.052
-693.426	-200.000	-0.029	-0.160
-692.412	-58.295	-0.126	-0.055
-691.397	-128.868	0.109	0.015
-690.383	-200.000	-0.016	-0.291
-689.368	68.612	-0.221	-0.227
-688.354	-47.815	-0.169	0.082
-687.339	-93.494	0.246	-0.068
-686.324	2.885	-0.066	-0.048
-685.310	800.000	0.022	-0.086
-684.295	-16.146	0.199	-0.127
-683.281	-200.000	0.015	-0.123
-682.266	22.246	0.208	0.170
-681.251	393.874	0.047	-0.099
-680.237	316.665	-0.154	-0.293
-679.222	441.654	0.119	0.262
-678.208	-95.782	-0.221	0.059
-677.193	-200.000	-0.068	-0.544
-676.178	315.243	0.029	0.054
-675.164	106.167	-0.152	-0.181
-674.149	229.692	-0.100	0.164
-673.135	-200.000	-0.011	-0.059
-672.120	-49.083	-0.319	-0.153
-671.105	576.878	-0.016	-0.040
-670.091	-55.689	-0.282	-0.127
-669.076	-105.200	-0.101	0.023
-668.062	-65.666	-0.321	-0.129
-667.047	-200.000	0.000	-0.160
-666.032	56.157	-0.031	-0.030
-665.018	-200.000	-0.041	-0.197
-664.003	800.000	0.057	0.189
-662.989	171.344	0.153	0.220
-661.974	72.517	0.159	-0.166
-660.959	414.547	-0.176	-0.376
-659.945	538.334	0.186	-0.443
-658.930	9.290	-0.050	0.038
-657.916	136.984	-0.145	0.190
-656.901	-137.520	0.134	0.015
-655.886	-65.186	0.298	0.120
-654.872	358.824	-0.112	-0.225
-653.857	-104.317	0.075	0.017
-652.843	42.649	-0.150	0.137
-651.828	-66.671	-0.172	0.068
-650.814	800.000	0.044	0.174
-649.799	47.145	0.208	0.194
-648.784	-108.881	0.106	-0.023
-647.770	164.324	-0.202	0.285
-646.755	800.000	0.054	-0.158
-645.741	256.373	0.180	-0.309
-644.726	-169.147	-0.170	-0.006
-643.711	58.055	-0.209	0.205
-642.697	-73.576	0.177	0.064
-641.682	238.218	-0.152	-0.253
-640.668	158.053	0.166	0.230
-639.653	-26.627	0.277	-0.163
-638.638	-68.711	0.045	-0.017
-637.624	-79.972	0.191	0.064
-636.609	-52.297	0.125	-0.058
-635.595	232.853	0.186	0.306
-634.580	800.000	0.010	-0.038
-633.565	800.000	-0.072	-0.240
-632.551	-46.694	-0.252	-0.124
-631.536	560.586	0.026	0.063
-630.522	116.720	0.155	-0.190
-629.507	571.959	0.060	0.146
-628.492	800.000	-0.106	0.391
-627.478	800.000	-0.026	0.079
-626.463	145.700	0.141	-0.189
-625.449	2.420	-0.387	-0.281
-624.434	-60.769	-0.276	0.117
-623.419	497.411	0.047	-0.108
-622.405	-98.095	-0.299	0.077
-621.390	743.669	0.115	0.309
-620.376	-34.376	-0.175	-0.096
-619.361	37.033	0.180	0.159
-618.346	68.951	-0.105	-0.108
-617.332	-125.400	0.330	-0.050
-616.317	-64.141	-0.231	-0.094
-615.303	-69.244	-0.116	0.045
-614.288	-200.000	0.113	-0.000
-613.273	-107.514	0.244	-0.053
-612.259	94.679	0.194	0.221
-611.244	560.507	0.038	-0.092
-610.230	329.280	0.102	-0.197
-609.215	-126.912	-0.246	0.036
-608.201	177.538	0.088	-0.128
-607.186	-112.082	-0.151	-0.030
-606.171	228.803	0.061	0.099
-605.157	-149.309	0.398	-0.032
-604.142	178.078	-0.184	-0.269
-603.128	9.755	0.151	-0.114
-602.113	-200.000	0.022	-0.252
-601.098	91.210	-0.152	-0.171
-600.084	-136.389	0.441	-0.051
-599.069	-24.136	0.048	-0.029
-598.055	87.793	-0.122	-0.135
-597.040	-200.000	-0.060	-0.390
-596.025	-200.000	-0.008	-0.083
-595.011	-62.332	-0.042	-0.018
-593.996	-135.161	0.118	-0.014
-592.982	-136.501	0.248	-0.029
-591.967	-81.870	0.205	0.067
-590.952	-34.530	-0.191	-0.105
-589.938	-200.000	0.034	0.171
-588.923	-200.000	0.057	0.478
-587.909	212.831	0.068	-0.107
-586.894	230.015	0.126	0.206
-585.879	-42.319	-0.198	-0.101
-584.865	-38.849	0.292	-0.154
-583.850	69.660	0.207	-0.213
-582.836	800.000	-0.003	-0.013
-581.821	-150.339	0.122	0.009
-580.806	-200.000	-0.131	-0.000
-579.792	-97.021	-0.181	-0.047
-578.777	-98.044	-0.062	0.016
-577.763	335.171	-0.158	0.305
-576.748	249.899	0.153	-0.259
-575.733	97.479	-0.209	-0.240
-574.719	-60.998	-0.140	-0.059
-573.704	-130.891	-0.126	-0.017
-572.690	86.412	-0.272	-0.300
-571.675	97.990	0.038	0.044
-570.661	-103.742	-0.176	-0.041
-569.646	800.000	-0.054	-0.173
-568.631	104.384	-0.251	0.295
-567.617	-23.813	0.286	0.171
-566.602	336.836	0.099	0.192
-565.588	39.678	0.100	-0.090
-564.573	-146.863	0.250	0.022
-563.558	-200.000	-0.043	0.281
-562.544	-140.170	0.224	-0.023
-561.529	139.296	-0.031	-0.041
-560.515	-130.985	0.140	0.019
-559.500	84.834	-0.167	-0.183
-558.485	-200.000	0.006	0.095
-557.471	-118.214	0.243	-0.043
-556.456	368.013	0.204	-0.412
-555.442	-8.650	-0.291	0.195
-554.427	71.299	-0.131	-0.136
-553.412	80.077	0.191	-0.205
-552.398	-114.152	0.125	0.024
-551.383	-53.014	-0.168	-0.077
-550.369	66.599	0.280	-0.284
-549.354	172.626	0.224	-0.322
-548.339	31.616	-0.155	-0.133
-547.325	-49.178	-0.237	0.113
-546.310	-0.440	-0.115	0.081
-545.296	52.540	0.147	-0.140
-544.281	115.898	-0.015	0.018
-543.266	-46.800	0.308	-0.150
-542.252	-200.000	-0.041	-0.302
-541.237	-62.201	-0.440	0.183
-540.223	-25.347	-0.208	0.123
-539.208	800.000	0.058	-0.181
-538.193	258.605	-0.142	0.245
-537.179	-153.590	-0.085	0.006
-536.164	-27.707	0.224	-0.129
-535.150	-75.154	0.206	-0.074
-534.135	362.197	-0.095	-0.189
-533.121	257.363	-0.073	0.125
-532.106	-200.000	-0.028	-0.169
-531.091	-200.000	0.001	-0.013
-530.077	-31.018	0.087	-0.049
-529.062	800.000	-0.050	0.166
-528.048	-200.000	-0.029	-0.302
-527.033	20.961	0.124	-0.101
-526.018	-147.757	0.116	-0.010
-525.004	800.000	0.077	0.251
-523.989	-200.000	0.011	-0.069
-522.975	-200.000	-0.017	-0.073
-521.960	-200.000	-0.018	-0.121
-520.945	97.145	-0.035	0.040
-519.931	800.000	-0.115	0.324
-518.916	-200.000	0.012	0.101
-517.902	448.440	-0.159	-0.349
-516.887	-200.000	0.068	-0.516
-515.872	88.727	-0.069	-0.077
-514.858	321.804	0.049	0.093
-513.843	-200.000	0.026	-0.275
-512.829	282.258	0.074	-0.133
-511.814	800.000	0.040	-0.139
-510.799	101.824	0.110	-0.128
-509.785	512.982	-0.073	-0.170
-508.770	426.948	-0.051	0.110
-507.756	-200.000	-0.014	0.143
-506.741	-33.274	-0.227	0.125
-505.726	800.000	-0.072	-0.266
-504.712	227.754	-0.055	0.089
-503.697	-192.596	0.274	-0.003
-502.683	-64.271	0.048	0.019
-501.668	-126.563	-0.164	-0.024
-500.653	-118.848	0.084	0.015
-499.639	-108.985	0.130	0.028
-498.624	364.291	-0.115	-0.230
-497.610	134.353	0.246	-0.317
-496.595	-92.217	-0.291	0.082
-495.581	13.725	0.206	0.159
-494.566	800.000	-0.033	0.108
-493.551	-200.000	-0.013	0.088
-492.537	-11.206	0.299	0.196
-491.522	185.207	-0.153	-0.227
-490.508	226.798	0.189	-0.305
-489.493	-200.000	-0.015	-0.276
-488.478	-187.916	0.329	-0.004
-487.464	51.842	-0.279	0.265
-486.449	-94.461	-0.181	-0.049
-485.435	-200.000	-0.003	-0.100
-484.420	-112.206	0.109	0.022
-483.405	-200.000	0.018	-0.216
-482.391	-88.416	0.428	-0.127
-481.376	-63.122	0.168	0.069
-480.362	-162.894	-0.171	-0.008
-479.347	-34.806	0.123	0.067
-478.332	6.224	-0.187	0.138
-477.318	800.000	0.094	-0.370
-476.303	-29.903	0.210	0.119
-475.289	507.061	0.066	-0.153
-474.274	13.912	0.181	0.140
-473.259	-162.887	-0.028	0.001
-472.245	-121.734	0.268	0.044
-471.230	-62.247	-0.361	-0.150
-470.216	-200.000	0.416	0.000
-469.201	-27.388	0.149	-0.086
-468.186	-181.710	-0.436	0.008
-467.172	100.493	-0.206	0.238
-466.157	156.898	-0.158	0.217
-465.143	116.832	-0.155	0.190
-464.128	-128.632	0.148	-0.021
-463.113	-28.939	0.224	0.128
-462.099	257.617	0.084	-0.143
-461.084	427.082	-0.140	0.300
-460.070	-135.673	-0.193	-0.023
-459.055	789.022	-0.040	0.108
-458.040	-200.000	0.030	-0.278
-457.026	525.062	-0.052	0.122
-456.011	-112.625	-0.139	0.028
-454.997	-178.232	0.121	-0.003
-453.982	-35.866	-0.104	-0.056
-452.968	75.796	-0.462	-0.485
-451.953	-200.000	0.061	-0.382
-450.938	-200.000	-0.032	0.378
-449.924	-138.413	-0.178	-0.020
-448.909	-8.297	-0.085	-0.057
-447.895	185.000	-0.035	0.051
-446.880	-200.000	-0.014	0.258
-445.865	-87.056	0.448	-0.135
-444.851	-0.136	0.202	-0.143
-443.836	71.236	-0.060	0.062
-442.822	800.000	-0.100	-0.297
-441.807	55.726	-0.142	-0.137
-440.792	-161.213	-0.253	-0.013
-439.778	249.955	0.028	0.047
-438.763	-200.000	-0.038	-0.276
-437.749	183.353	-0.120	-0.176
-436.734	149.424	0.033	-0.044
-435.719	246.536	0.051	-0.085
-434.705	-200.000	0.029	0.299
-433.690	502.076	0.085	0.195
-432.676	587.762	-0.048	0.117
-431.661	-186.144	-0.171	-0.002
-430.646	-200.000	-0.051	0.300
-429.632	-183.295	-0.498	0.009
-428.617	23.989	-0.228	-0.187
-427.603	72.357	-0.118	-0.122
-426.588	-102.552	-0.441	0.105
-425.573	702.008	0.062	0.163
-424.559	-17.402	-0.041	-0.025
-423.544	-200.000	0.014	0.173
-422.530	-165.496	-0.353	0.015
-421.515	800.000	0.109	0.330
-420.500	-76.952	0.191	0.066
-419.486	-200.000	0.005	0.095
-418.471	137.406	-0.216	-0.281
-417.457	-128.284	-0.346	-0.049
-416.442	26.775	0.182	-0.152
-415.428	-165.866	-0.232	-0.010
-414.413	23.941	0.073	-0.060
-413.398	-44.429	-0.132	-0.066
-412.384	-200.000	0.092	-0.448
-411.369	-72.429	-0.167	0.061
-410.355	-148.228	-0.188	0.015
-409.340	-200.000	0.159	-0.000
-408.325	-65.033	0.193	-0.077
-407.311	-122.210	-0.063	-0.010
-406.296	251.457	-0.137	0.231
-405.282	-126.270	0.363	0.054
-404.267	-145.586	-0.374	-0.033
-403.252	214.900	0.081	0.128
-402.238	-142.250	0.213	-0.021
-401.223	-95.580	-0.228	0.061
-400.209	223.057	-0.060	-0.096
-399.194	-200.000	-0.033	0.167
-398.179	85.180	0.117	0.127
-397.165	63.080	0.162	0.161
-396.150	101.066	-0.157	-0.182
-395.136	-60.102	-0.330	-0.139
-394.121	-44.490	0.149	0.074
-393.106	100.495	-0.150	0.173
-392.092	239.607	0.144	0.238
-391.077	-58.033	-0.360	-0.156
-390.063	83.498	0.087	-0.094
-389.048	335.493	-0.026	0.050
-388.033	-102.313	-0.110	-0.026
-387.019	-64.576	0.187	-0.075
-386.004	98.261	-0.223	0.254
-384.990	59.902	-0.239	-0.234
-383.975	-82.431	0.356	0.115
-382.960	800.000	0.087	0.341
-381.946	107.955	-0.162	0.192
-380.931	694.988	0.057	-0.148
-379.917	-200.000	-0.000	0.047
-378.902	-78.758	0.108	0.036
-377.888	-97.913	0.166	0.042
-376.873	-200.000	0.029	0.147
-375.858	-61.071	-0.172	-0.072
-374.844	800.000	0.051	-0.148
-373.829	95.688	-0.171	-0.194
-372.815	-110.224	-0.039	-0.008
-371.800	-128.636	0.120	-0.017
-370.785	156.607	-0.230	-0.315
-369.771	-101.904	0.136	-0.033
-368.756	-200.000	0.010	-0.488
-367.742	800.000	-0.022	-0.063
-366.727	-35.274	-0.159	0.086
-365.712	-117.590	0.173	-0.031
-364.698	75.281	-0.130	0.136
-363.683	-200.000	0.019	0.133
-362.669	-34.755	-0.207	0.112
-361.654	12.491	-0.230	-0.176
-360.639	-63.907	-0.209	-0.085
-359.625	35.070	0.111	-0.096
-358.610	-59.427	0.195	0.083
-357.596	-34.894	0.063	-0.034
-356.581	-84.238	-0.078	-0.025
-355.566	9.447	-0.265	0.199
-354.552	-32.611	-0.059	0.032
-353.537	356.287	0.175	0.345
-352.523	-200.000	-0.007	0.110
-351.508	800.000	0.075	-0.286
-350.493	-16.801	0.259	-0.162
-349.479	682.969	-0.052	-0.134
-348.464	138.449	-0.067	0.087
-347.450	311.131	-0.093	-0.172
-346.435	24.896	0.069	0.057
-345.420	69.030	-0.343	0.349
-344.406	33.751	0.133	-0.115
-343.391	-200.000	-0.059	0.337
-342.377	165.681	0.184	0.258
-341.362	-200.000	-0.025	-0.114
-340.348	24.492	-0.372	0.304
-339.333	527.773	0.082	-0.192
-338.318	-148.061	0.162	-0.013
-337.304	24.185	0.134	-0.109
-336.289	-86.288	-0.181	0.055
-335.275	-116.933	0.224	-0.041
-334.260	800.000	0.046	0.135
-333.245	286.018	0.120	-0.215
-332.231	-200.000	0.004	-0.294
-331.216	165.054	-0.165	-0.230
-330.202	95.197	-0.148	0.166
-329.187	-97.436	-0.208	-0.054
-328.172	-53.361	-0.159	-0.072
-327.158	-136.490	-0.264	-0.030
-326.143	4.100	0.121	0.088
-325.129	-200.000	-0.067	-0.298
-324.114	-200.000	0.011	0.287
-323.099	800.000	-0.036	-0.136
-322.085	-125.463	0.206	0.031
-321.070	51.403	-0.227	-0.213
-320.056	17.691	-0.236	-0.186
-319.041	-108.468	0.343	-0.073
-318.026	165.719	-0.202	-0.282
-317.012	-200.000	0.034	-0.195
-315.997	-200.000	-0.058	-0.474
-314.983	-125.224	0.133	0.020
-313.968	-148.412	0.157	-0.013
-312.953	-24.522	-0.215	0.127
-311.939	4.541	0.163	-0.118
-310.924	275.338	-0.107	-0.187
-309.910	5.509	-0.162	-0.118
-308.895	-50.505	-0.337	0.157
-307.880	-200.000	0.060	0.412
-306.866	-200.000	-0.056	0.365
-305.851	800.000	-0.091	0.335
-304.837	-33.932	-0.246	0.134
-303.822	-113.074	0.329	-0.064
-302.807	-50.775	-0.401	0.186
-301.793	-84.437	0.227	-0.071
-300.778	89.351	0.039	0.043
-299.764	54.415	-0.239	-0.228
-298.749	10.842	-0.254	0.191
-297.735	64.001	-0.150	-0.149
-296.720	800.000	-0.024	-0.089
-295.705	49.322	0.208	0.193
-294.691	164.099	0.074	-0.104
-293.676	-11.648	-0.030	-0.020
-292.662	47.806	0.156	0.144
-291.647	-37.914	-0.134	-0.070
-290.632	23.415	-0.094	-0.076
-289.618	148.882	-0.151	-0.201
-288.603	-162.911	0.090	0.004
-287.589	-4.508	0.216	0.148
-286.574	800.000	0.039	-0.137
-285.559	80.241	0.031	0.033
-284.545	800.000	0.049	-0.175
-283.530	800.000	0.147	-0.408
-282.516	-66.944	-0.129	0.050
-281.501	-200.000	-0.023	0.171
-280.486	-135.573	0.387	0.045
-279.472	269.815	0.169	0.293
-278.457	-35.813	-0.031	0.016
-277.443	651.478	-0.114	-0.289
-276.428	67.421	-0.236	-0.238
-275.413	93.241	0.137	0.154
-274.399	4.974	0.311	0.226
-273.384	457.441	-0.164	0.359
-272.370	-22.982	0.294	0.175
-271.355	800.000	0.069	-0.238
-270.340	339.747	0.172	-0.332
-269.326	-13.312	-0.144	-0.092
-268.311	-200.000	0.011	-0.078
-267.297	-200.000	0.049	-0.215
-266.282	172.005	-0.140	0.199
-265.267	131.241	0.102	-0.129
-264.253	-63.402	0.120	-0.049
-263.238	-200.000	-0.002	0.231
-262.224	327.270	-0.177	-0.334
-261.209	245.283	-0.217	0.360
-260.195	-62.627	0.376	0.154
-259.180	-103.682	0.117	0.027
-258.165	132.855	-0.234	-0.298
-257.151	-30.131	-0.133	-0.075
-256.136	-113.898	0.184	-0.035
-255.122	45.987	-0.354	-0.323
-254.107	46.709	0.070	-0.064
-253.092	-25.422	0.164	0.096
-252.078	40.433	0.123	0.109
-251.063	-92.687	-0.135	0.037
-250.049	-67.547	-0.244	0.095
-249.034	351.024	-0.137	0.267
-248.019	594.372	0.031	0.076
-247.005	501.863	-0.123	0.280
-245.990	355.010	0.061	-0.120
-244.976	-84.171	0.379	0.119
-243.961	800.000	0.116	0.470
-242.946	800.000	0.079	0.299
-241.932	-105.316	0.168	0.038
-240.917	153.363	-0.193	-0.261
-239.903	-200.000	0.050	0.283
-238.888	498.268	-0.134	0.303
-237.873	70.171	0.111	-0.113
-236.859	-116.963	0.320	-0.058
-235.844	-150.922	-0.319	0.024
-234.830	525.518	0.068	0.157
-233.815	-162.397	0.194	0.009
-232.800	-152.568	0.409	0.029
-231.786	-200.000	-0.005	0.310
-230.771	65.749	-0.149	-0.149
-229.757	116.350	0.074	0.089
-228.742	-200.000	0.065	0.393
-227.727	-100.407	0.196	0.048
-226.713	36.551	0.279	0.243
-225.698	800.000	0.060	0.218
-224.684	279.358	0.130	0.228
-223.669	-200.000	0.020	0.251
-222.655	-200.000	0.000	0.012
-221.640	113.065	0.183	0.219
-220.625	-161.163	0.152	-0.008
-219.611	272.646	0.139	-0.242
-218.596	-114.702	-0.116	-0.022
-217.582	-200.000	-0.090	0.464
-216.567	49.113	0.256	-0.237
-215.552	160.238	-0.096	0.131
-214.538	248.397	0.033	0.055
-213.523	-171.256	0.139	0.005
-212.509	436.665	0.057	-0.121
-211.494	-200.000	-0.080	-0.377
-210.479	-56.947	-0.311	-0.135
-209.465	275.921	-0.181	0.316
-208.450	-123.837	0.129	-0.020
-207.436	-47.294	-0.427	0.205
-206.421	-3.406	0.154	-0.105
-205.406	-62.028	-0.029	-0.012
-204.392	-200.000	-0.054	0.257
-203.377	-200.000	0.016	0.489
-202.363	27.799	0.050	-0.042
-201.348	-130.029	0.357	0.048
-200.333	-200.000	-0.003	0.198
-199.319	-43.392	0.140	0.070
-198.304	95.854	0.062	0.070
-197.290	-47.221	0.064	-0.031
-196.275	-123.294	-0.401	-0.063
-195.260	800.000	-0.065	-0.203
-194.246	174.827	-0.161	-0.229
-193.231	-200.000	-0.060	0.270
-192.217	-200.000	-0.024	-0.152
-191.202	-34.343	-0.327	-0.176
-190.187	800.000	0.055	-0.159
-189.173	32.322	-0.028	-0.024
-188.158	-79.746	-0.153	0.051
-187.144	8.200	0.148	0.109
-186.129	-38.739	-0.111	-0.057
-185.114	-200.000	0.071	0.388
-184.100	14.845	0.169	0.130
-183.085	386.524	0.019	-0.038
-182.071	-102.517	0.089	-0.021
-181.056	-68.091	0.178	0.068
-180.042	-112.764	0.152	-0.030
-179.027	-24.937	0.269	-0.157
-178.012	507.066	0.048	-0.110
-176.998	-56.150	-0.108	-0.047
-175.983	-200.000	-0.015	-0.170
-174.969	-69.144	-0.181	0.069
-173.954	800.000	-0.093	0.329
-172.939	-200.000	-0.054	0.280
-171.925	-80.209	-0.320	-0.105
-170.910	-157.947	0.187	0.011
-169.896	-28.207	0.133	-0.076
-168.881	800.000	0.077	0.278
-167.866	-68.313	0.111	-0.043
-166.852	360.969	-0.040	0.079
-165.837	-83.314	0.323	0.102
-164.823	-87.549	-0.176	-0.052
-163.808	-200.000	-0.035	0.366
-162.793	-79.542	-0.393	0.130
-161.779	55.071	0.062	0.059
-160.764	-2.648	0.392	0.269
-159.750	253.650	0.080	0.134
-158.735	-94.817	-0.089	0.024
-157.720	-48.598	-0.106	0.050
-156.706	-200.000	-0.001	0.179
-155.691	81.367	0.184	0.195
-154.677	-104.186	0.380	0.087
-153.662	-200.000	-0.003	0.067
-152.647	8.251	0.262	0.193
-151.633	248.187	0.064	-0.106
-150.618	-180.485	-0.124	-0.003
-149.604	32.079	0.113	-0.096
-148.589	-200.000	-0.009	-0.074
-147.574	260.999	0.125	0.213
-146.560	800.000	0.018	-0.054
-145.545	800.000	-0.045	0.184
-144.531	8.572	-0.172	-0.128
-143.516	193.131	0.095	-0.141
-142.502	103.172	-0.066	0.076
-141.487	-119.264	0.081	0.014
-140.472	800.000	-0.069	0.294
-139.458	258.986	-0.133	-0.225
-138.443	-122.096	0.193	-0.031
-137.429	15.508	-0.150	-0.116
-136.414	327.127	-0.138	-0.260
-135.399	-59.827	0.185	0.078
-134.385	-200.000	-0.089	-0.420
-133.370	-32.192	0.125	-0.069
-132.356	443.394	-0.051	-0.109
-131.341	-200.000	-0.011	0.208
-130.326	-122.544	0.208	-0.033
-129.312	-200.000	0.028	-0.125
-128.297	-154.474	0.386	0.025
-127.283	101.857	-0.215	-0.247
-126.268	220.100	-0.273	-0.430
-125.253	669.987	-0.070	-0.178
-124.239	-62.896	-0.117	0.047
-123.224	-39.598	0.153	0.078
-122.210	800.000	0.070	0.265
