DTS Sentinel unit serial number:	SN413079Multiplexer serial number:	ORYXHardware model number:	OX4-SRSoftware version number:	ORYX F/W v4.00 Oryx Data Collector v3.7.2.0data status	okinstallation	princeton_trtdifferential loss correction	single-endedforward channel	channel 1reverse channel	N/Adate	2019/09/13time	19:54:35forward acquisition time	60.00reverse acquisition time	0.00gamma	496.2192k internal	0.2329k external	0.2329temperature offset calibration	1.0086default loss term (dB/km)	0.3790temperature slope calibration	1.0000multiplexer offset coefficient	1.0000multiplexer slope coefficient	1.0000fibre end	0.00T internal ref (°C)	29.95T ext. ref 1 (°C)	3.29T ext. ref 2 (°C)	24.04length (m)	temperature (°C)	Stokes	anti-Stokes-747.200	309.759	0.050	-0.095
-746.185	32.712	0.195	0.170
-745.171	481.656	0.023	0.053
-744.156	726.758	0.059	0.158
-743.142	-110.219	-0.094	-0.020
-742.127	-200.000	-0.004	0.148
-741.112	-183.040	0.210	0.004
-740.098	12.840	-0.196	-0.153
-739.083	-79.484	0.261	-0.089
-738.069	418.904	0.032	-0.069
-737.054	-112.855	0.131	0.026
-736.039	109.637	-0.150	-0.182
-735.025	64.539	0.142	0.144
-734.010	800.000	-0.068	-0.193
-732.996	116.162	-0.098	-0.121
-731.981	461.312	-0.074	0.166
-730.966	-129.138	-0.503	-0.071
-729.952	69.369	-0.307	-0.318
-728.937	-200.000	0.011	-0.129
-727.923	-151.575	-0.246	0.018
-726.908	-147.588	-0.200	0.017
-725.894	-29.196	-0.188	0.109
-724.879	800.000	0.077	-0.302
-723.864	-40.321	-0.165	0.086
-722.850	111.113	-0.177	-0.214
-721.835	305.659	-0.095	-0.178
-720.821	-45.244	0.258	-0.129
-719.806	103.266	-0.193	0.228
-718.791	298.922	-0.137	-0.254
-717.777	-56.022	0.089	0.040
-716.762	-11.524	-0.120	-0.080
-715.748	-25.518	-0.144	-0.085
-714.733	-47.179	0.222	0.109
-713.718	188.684	0.137	-0.206
-712.704	367.563	0.090	0.183
-711.689	800.000	-0.073	0.252
-710.675	-100.639	0.331	0.082
-709.660	800.000	-0.109	0.392
-708.645	-123.887	-0.443	0.070
-707.631	-66.135	-0.313	-0.126
-706.616	508.338	0.079	-0.185
-705.602	-82.214	0.107	-0.035
-704.587	-14.571	0.152	0.098
-703.572	-130.559	0.117	0.016
-702.558	-200.000	-0.020	-0.169
-701.543	-105.348	-0.221	0.051
-700.529	179.401	0.008	-0.012
-699.514	800.000	0.108	0.303
-698.499	-37.976	-0.422	-0.225
-697.485	-2.035	-0.234	0.166
-696.470	80.003	-0.250	0.270
-695.456	-200.000	-0.067	0.321
-694.441	-136.291	-0.262	-0.031
-693.426	169.506	-0.142	0.204
-692.412	82.530	0.143	0.156
-691.397	-119.073	-0.149	0.026
-690.383	-200.000	0.013	-0.304
-689.368	105.602	-0.146	-0.173
-688.354	-200.000	0.046	-0.240
-687.339	-80.104	-0.104	-0.035
-686.324	-200.000	0.006	-0.167
-685.310	-121.486	-0.518	0.086
-684.295	-54.810	0.090	0.041
-683.281	8.026	-0.130	0.098
-682.266	-109.443	-0.164	0.035
-681.251	-115.540	0.330	0.062
-680.237	-87.103	0.234	0.071
-679.222	-49.449	-0.244	0.117
-678.208	-200.000	-0.001	-0.177
-677.193	-175.680	0.169	-0.005
-676.178	182.126	-0.187	0.278
-675.164	-139.131	-0.163	0.018
-674.149	-97.754	-0.249	0.065
-673.135	-41.735	0.085	-0.044
-672.120	39.155	0.227	0.204
-671.105	-35.812	0.065	0.035
-670.091	-4.058	0.196	0.137
-669.076	-94.455	-0.156	-0.043
-668.062	800.000	-0.034	0.128
-667.047	39.922	0.171	0.154
-666.032	-200.000	0.017	0.254
-665.018	-168.893	0.421	-0.016
-664.003	648.674	-0.078	0.200
-662.989	800.000	-0.023	0.075
-661.974	-200.000	-0.050	-0.240
-660.959	-94.255	-0.200	-0.055
-659.945	-24.488	0.204	0.122
-658.930	-89.775	-0.358	-0.105
-657.916	800.000	0.072	-0.233
-656.901	-200.000	-0.051	0.367
-655.886	71.906	-0.335	-0.349
-654.872	320.829	-0.068	0.130
-653.857	110.045	-0.097	0.116
-652.843	42.741	-0.137	0.125
-651.828	161.194	0.079	-0.111
-650.814	-61.031	-0.301	0.127
-649.799	-92.887	0.142	-0.040
-648.784	150.785	0.221	0.302
-647.770	-89.531	-0.277	0.082
-646.755	-200.000	-0.018	0.281
-645.741	-97.717	-0.150	0.039
-644.726	67.232	-0.176	-0.181
-643.711	155.357	0.191	0.264
-642.697	27.433	-0.079	0.067
-641.682	-100.328	0.276	0.069
-640.668	-89.227	0.160	0.047
-639.653	67.911	-0.089	-0.091
-638.638	-112.213	0.145	0.029
-637.624	448.763	0.148	-0.327
-636.609	-115.256	-0.233	0.044
-635.595	-130.044	-0.185	-0.025
-634.580	-137.990	-0.110	0.012
-633.565	-12.322	-0.151	0.099
-632.551	-52.017	0.083	-0.039
-631.536	172.869	-0.260	-0.376
-630.522	800.000	0.054	-0.198
-629.507	156.650	-0.099	0.137
-628.492	185.028	-0.098	0.146
-627.478	800.000	-0.036	-0.143
-626.463	-82.595	-0.213	0.069
-625.449	-66.847	-0.252	0.100
-624.434	800.000	0.009	0.033
-623.419	303.493	0.078	0.145
-622.405	304.319	0.061	-0.114
-621.390	-36.187	-0.322	-0.174
-620.376	-200.000	0.012	-0.262
-619.361	-84.229	-0.247	-0.078
-618.346	-155.784	0.346	0.022
-617.332	63.083	0.088	0.089
-616.317	-125.530	-0.462	0.070
-615.303	90.048	0.097	-0.109
-614.288	211.787	-0.089	-0.141
-613.273	-174.995	0.346	0.010
-612.259	-168.186	0.210	-0.008
-611.244	217.113	-0.112	-0.179
-610.230	251.248	-0.171	-0.292
-609.215	-200.000	-0.017	0.165
-608.201	-18.907	0.243	0.152
-607.186	800.000	0.077	0.256
-606.171	-78.881	-0.026	0.009
-605.157	-167.301	-0.231	-0.009
-604.142	110.964	-0.089	-0.108
-603.128	26.789	0.106	-0.089
-602.113	584.933	-0.017	0.041
-601.098	-175.858	-0.343	-0.009
-600.084	-40.639	-0.365	-0.190
-599.069	-200.000	0.021	-0.325
-598.055	800.000	-0.064	-0.177
-597.040	800.000	-0.018	-0.078
-596.025	175.951	-0.054	-0.078
-595.011	-137.974	0.355	-0.040
-593.996	29.107	-0.251	0.213
-592.982	-150.955	0.180	-0.014
-591.967	-117.056	0.227	-0.041
-590.952	-42.552	-0.025	0.013
-589.938	478.020	0.086	-0.195
-588.923	31.042	-0.097	-0.083
-587.909	-100.387	0.071	0.018
-586.894	12.314	-0.267	-0.206
-585.879	-97.123	-0.165	0.043
-584.865	-24.358	0.226	0.135
-583.850	44.769	-0.072	-0.066
-582.836	-67.199	-0.198	-0.078
-581.821	358.846	0.096	-0.191
-580.806	90.825	-0.222	-0.250
-579.792	122.979	0.106	0.133
-578.777	426.513	0.134	0.289
-577.763	122.204	0.146	0.182
-576.748	-81.405	-0.193	0.064
-575.733	-44.971	0.181	-0.090
-574.719	-164.155	0.169	-0.008
-573.704	-2.167	-0.309	0.217
-572.690	34.107	-0.158	-0.138
-571.675	534.004	0.089	0.210
-570.661	-200.000	0.001	-0.080
-569.646	800.000	0.114	-0.464
-568.631	102.862	0.090	0.106
-567.617	265.076	-0.009	0.016
-566.602	-200.000	0.037	-0.319
-565.588	495.934	-0.184	-0.423
-564.573	-200.000	0.014	-0.082
-563.558	-36.813	0.219	-0.118
-562.544	-79.988	-0.201	-0.068
-561.529	-70.600	0.161	0.061
-560.515	197.645	-0.219	0.335
-559.500	-48.419	-0.257	-0.124
-558.485	800.000	0.021	-0.088
-557.471	577.368	-0.023	-0.056
-556.456	800.000	0.017	-0.073
-555.442	105.223	0.158	0.187
-554.427	775.522	0.125	0.343
-553.412	-200.000	0.005	-0.079
-552.398	262.470	0.044	0.076
-551.383	81.389	-0.085	0.091
-550.369	27.954	-0.171	-0.144
-549.354	6.764	-0.057	0.042
-548.339	-109.683	-0.279	0.059
-547.325	-14.550	-0.058	-0.037
-546.310	201.663	-0.055	-0.085
-545.296	-60.852	-0.094	0.040
-544.281	-40.997	0.106	0.055
-543.266	-72.910	-0.160	-0.059
-542.252	-93.152	0.102	0.028
-541.237	54.285	-0.173	0.166
-540.223	46.659	0.072	-0.067
-539.208	-58.086	0.175	-0.076
-538.193	563.974	-0.108	0.263
-537.179	350.356	0.089	0.175
-536.164	-89.362	-0.066	0.019
-535.150	359.821	0.128	-0.257
-534.135	30.226	0.087	0.075
-533.121	-44.787	-0.089	0.044
-532.106	-200.000	-0.018	-0.142
-531.091	-52.530	-0.098	-0.045
-530.077	-121.797	-0.338	0.056
-529.062	39.657	-0.106	0.095
-528.048	-56.023	0.136	0.061
-527.033	-119.337	-0.306	-0.053
-526.018	-13.510	-0.377	0.244
-525.004	-41.716	-0.346	-0.177
-523.989	-108.703	-0.184	-0.039
-522.975	-71.342	-0.227	0.085
-521.960	-200.000	0.004	-0.035
-520.945	-70.490	0.237	0.090
-519.931	800.000	-0.009	-0.029
-518.916	94.692	-0.219	-0.249
-517.902	-47.571	0.159	0.077
-516.887	-183.754	-0.104	-0.002
-515.872	243.346	-0.073	-0.122
-514.858	-50.400	-0.175	-0.083
-513.843	268.814	0.063	-0.111
-512.829	46.276	-0.185	-0.171
-511.814	49.476	-0.252	-0.236
-510.799	-1.774	0.166	-0.117
-509.785	-16.824	-0.149	-0.094
-508.770	-44.168	-0.270	0.135
-507.756	606.849	-0.066	-0.163
-506.741	-200.000	0.045	0.268
-505.726	796.130	-0.088	0.241
-504.712	-136.736	0.226	-0.026
-503.697	31.705	-0.086	-0.073
-502.683	-200.000	0.019	-0.092
-501.668	-200.000	-0.026	-0.292
-500.653	-71.789	-0.292	-0.109
-499.639	239.218	-0.150	-0.248
-498.624	800.000	0.035	0.112
-497.610	7.184	0.142	-0.106
-496.595	14.150	-0.141	-0.109
-495.581	-200.000	-0.025	0.181
-494.566	-200.000	-0.055	-0.284
-493.551	418.194	-0.071	0.151
-492.537	-41.013	0.206	-0.106
-491.522	-139.611	0.255	0.027
-490.508	-145.436	-0.214	0.019
-489.493	398.260	0.103	0.215
-488.478	-109.677	-0.215	0.045
-487.464	12.235	0.065	0.050
-486.449	800.000	0.051	-0.184
-485.435	51.147	0.149	-0.141
-484.420	21.822	0.257	0.208
-483.405	206.035	-0.326	-0.506
-482.391	613.123	0.082	-0.205
-481.376	800.000	-0.048	0.168
-480.362	34.253	-0.158	0.138
-479.347	-200.000	-0.016	-0.106
-478.332	518.833	-0.026	-0.060
-477.318	538.397	0.049	-0.115
-476.303	54.062	0.237	-0.227
-475.289	-200.000	-0.018	-0.146
-474.274	234.295	0.200	-0.328
-473.259	-45.908	0.169	-0.083
-472.245	-200.000	0.051	0.303
-471.230	-136.198	0.270	0.032
-470.216	-200.000	-0.039	0.259
-469.201	-200.000	-0.027	0.163
-468.186	406.219	-0.140	-0.295
-467.172	-106.487	-0.137	0.030
-466.157	800.000	0.110	-0.311
-465.143	5.226	-0.068	-0.050
-464.128	-95.755	-0.115	-0.031
-463.113	487.254	0.092	-0.210
-462.099	2.959	0.055	0.040
-461.084	-200.000	0.038	0.218
-460.070	-127.748	0.312	-0.045
-459.055	-172.706	0.127	-0.004
-458.040	-126.396	0.346	0.051
-457.026	-41.943	0.262	-0.134
-456.011	-200.000	-0.008	-0.221
-454.997	115.566	0.073	-0.089
-453.982	-111.208	0.154	-0.031
-452.968	-42.272	0.158	-0.080
-451.953	800.000	-0.068	0.195
-450.938	-110.884	-0.145	-0.030
-449.924	-11.339	-0.325	0.213
-448.909	-63.222	0.324	-0.133
-447.895	502.611	0.063	0.146
-446.880	-126.402	-0.576	-0.086
-445.865	800.000	0.108	-0.452
-444.851	46.280	-0.232	0.215
-443.836	-200.000	0.035	-0.226
-442.822	-200.000	-0.018	0.265
-441.807	-5.878	0.047	-0.032
-440.792	50.832	-0.097	-0.092
-439.778	183.722	0.176	-0.259
-438.763	-133.471	-0.177	-0.022
-437.749	-109.361	0.321	0.068
-436.734	-95.989	-0.159	0.042
-435.719	188.781	-0.059	0.088
-434.705	401.841	0.031	-0.065
-433.690	0.790	-0.104	0.074
-432.676	-107.064	0.144	-0.032
-431.661	-200.000	-0.006	0.073
-430.646	-43.571	0.058	0.029
-429.632	-200.000	0.045	-0.236
-428.617	-200.000	0.030	0.143
-427.603	-156.764	0.083	0.005
-426.588	702.199	-0.018	-0.048
-425.573	-52.976	-0.119	0.055
-424.559	800.000	-0.092	-0.312
-423.544	-66.581	0.193	-0.076
-422.530	-200.000	0.010	-0.130
-421.515	428.605	0.023	0.050
-420.500	369.871	0.040	-0.081
-419.486	650.372	0.068	0.174
-418.471	-200.000	-0.033	0.143
-417.457	-200.000	-0.004	0.061
-416.442	-4.749	0.059	0.040
-415.428	-112.087	-0.409	-0.082
-414.413	-34.204	-0.301	0.165
-413.398	611.065	0.066	-0.164
-412.384	-200.000	0.039	-0.257
-411.369	-143.042	0.195	0.019
-410.355	222.324	0.106	0.169
-409.340	118.595	0.042	-0.052
-408.325	174.213	-0.061	-0.088
-407.311	163.373	-0.100	-0.140
-406.296	-178.390	0.431	0.010
-405.282	87.443	-0.043	-0.047
-404.267	-27.131	0.173	0.100
-403.252	365.710	-0.121	-0.243
-402.238	-56.535	-0.372	-0.164
-401.223	800.000	0.056	-0.229
-400.209	-72.763	-0.426	0.156
-399.194	12.865	-0.232	-0.178
-398.179	-82.210	0.326	-0.106
-397.165	-103.152	0.210	0.049
-396.150	800.000	0.121	-0.370
-395.136	-72.949	-0.139	0.051
-394.121	211.648	-0.105	0.164
-393.106	-200.000	-0.059	0.340
-392.092	156.670	-0.047	-0.064
-391.077	-200.000	0.021	-0.129
-390.063	800.000	0.073	0.237
-389.048	-185.299	0.164	-0.003
-388.033	-68.696	0.172	0.066
-387.019	800.000	0.073	0.219
-386.004	800.000	-0.041	0.158
-384.990	800.000	0.068	0.242
-383.975	-200.000	0.065	-0.283
-382.960	-65.612	0.152	-0.061
-381.946	-63.295	-0.247	0.101
-380.931	800.000	-0.115	0.401
-379.917	-81.233	0.247	0.081
-378.902	-107.084	-0.601	0.132
-377.888	800.000	-0.029	-0.124
-376.873	-0.437	0.135	-0.095
-375.858	52.002	-0.030	0.028
-374.844	351.809	-0.081	0.160
-373.829	-78.644	0.116	0.039
-372.815	118.190	-0.088	-0.108
-371.800	-154.284	-0.163	0.011
-370.785	6.517	-0.243	0.179
-369.771	143.469	-0.055	0.073
-368.756	-195.517	0.165	0.001
-367.742	-11.638	0.217	-0.142
-366.727	768.924	-0.138	0.372
-365.712	800.000	0.081	0.306
-364.698	356.338	0.095	0.188
-363.683	73.359	0.021	0.022
-362.669	-121.673	-0.418	-0.069
-361.654	12.020	0.105	-0.080
-360.639	800.000	-0.069	-0.237
-359.625	-29.414	0.140	-0.079
-358.610	288.865	0.086	0.154
-357.596	-200.000	0.049	-0.360
-356.581	6.161	0.176	-0.130
-355.566	276.532	0.157	0.278
-354.552	-59.525	-0.167	-0.071
-353.537	14.009	-0.155	0.120
-352.523	-20.968	-0.129	0.078
-351.508	-61.398	0.587	0.245
-350.493	12.821	0.289	-0.221
-349.479	95.446	0.282	0.319
-348.464	-200.000	-0.024	-0.215
-347.450	-200.000	-0.010	0.188
-346.435	-200.000	-0.029	0.311
-345.420	-200.000	0.060	-0.305
-344.406	-63.144	-0.326	0.133
-343.391	33.808	0.415	-0.358
-342.377	-119.338	0.322	-0.056
-341.362	327.910	0.136	0.258
-340.348	-116.869	-0.127	-0.023
-339.333	-20.738	-0.189	-0.115
-338.318	451.118	0.151	0.330
-337.304	800.000	0.060	0.182
-336.289	-121.988	0.138	0.022
-335.275	49.197	-0.130	0.122
-334.260	62.383	0.099	0.098
-333.245	47.641	0.129	-0.119
-332.231	-27.830	0.372	-0.214
-331.216	-42.862	0.202	-0.102
-330.202	800.000	0.094	0.285
-329.187	-19.849	0.195	-0.119
-328.172	202.986	0.125	-0.191
-327.158	-200.000	0.005	0.043
-326.143	54.796	0.077	0.074
-325.129	800.000	0.067	0.205
-324.114	198.513	0.044	0.066
-323.099	-69.924	-0.185	0.070
-322.085	5.469	0.222	-0.163
-321.070	63.016	-0.130	0.129
-320.056	-64.793	-0.411	0.165
-319.041	146.072	0.078	0.104
-318.026	12.686	0.067	-0.051
-317.012	5.608	0.238	-0.174
-315.997	-3.109	-0.135	-0.093
-314.983	663.517	-0.074	0.188
-313.968	-200.000	0.004	0.117
-312.953	140.712	-0.149	0.195
-311.939	800.000	0.106	0.312
-310.924	153.380	-0.096	-0.130
-309.910	200.959	0.191	-0.292
-308.895	222.036	-0.247	-0.394
-307.880	-25.287	0.233	0.137
-306.866	-150.679	0.177	-0.013
-305.851	-200.000	0.073	-0.365
-304.837	-200.000	0.065	0.288
-303.822	604.726	-0.110	0.272
-302.807	-92.971	0.109	0.030
-301.793	345.908	-0.032	-0.061
-300.778	-108.775	-0.275	-0.058
-299.764	-95.949	0.365	-0.096
-298.749	-200.000	0.042	0.190
-297.735	649.872	-0.078	0.197
-296.720	-200.000	0.017	0.133
-295.705	-44.308	-0.119	-0.059
-294.691	80.287	-0.148	0.158
-293.676	800.000	-0.083	-0.333
-292.662	800.000	0.023	0.070
-291.647	-16.996	-0.186	-0.116
-290.632	-200.000	-0.013	-0.089
-289.618	130.259	0.238	-0.301
-288.603	-150.612	0.047	-0.004
-287.589	60.814	0.101	0.099
-286.574	-35.598	-0.182	0.098
-285.559	-121.099	-0.236	-0.039
-284.545	-200.000	-0.027	0.295
-283.530	-95.412	-0.248	0.066
-282.516	-200.000	0.011	0.065
-281.501	800.000	0.038	-0.160
-280.486	-200.000	0.020	-0.104
-279.472	800.000	0.049	-0.210
-278.457	84.664	0.133	0.144
-277.443	-15.438	0.267	-0.169
-276.428	-46.944	0.184	-0.089
-275.413	-76.730	0.172	-0.060
-274.399	-200.000	-0.033	-0.169
-273.384	-200.000	0.039	0.243
-272.370	201.239	0.185	0.282
-271.355	439.422	0.100	0.216
-270.340	-200.000	0.025	-0.173
-269.326	-123.904	0.361	0.056
-268.311	-200.000	-0.005	-0.334
-267.297	109.763	-0.190	0.226
-266.282	52.252	-0.199	-0.187
-265.267	800.000	-0.108	0.339
-264.253	522.115	-0.161	-0.374
-263.238	-200.000	-0.033	0.194
-262.224	-141.791	-0.287	0.028
-261.209	61.938	-0.153	-0.150
-260.195	800.000	-0.032	-0.135
-259.180	208.860	0.147	-0.228
-258.165	-175.244	-0.135	-0.004
-257.151	-200.000	0.054	0.562
-256.136	217.546	0.150	-0.236
-255.122	-200.000	0.007	0.258
-254.107	12.200	-0.236	0.179
-253.092	-167.686	0.133	0.005
-252.078	-112.031	-0.176	0.035
-251.063	-200.000	0.002	-0.347
-250.049	215.868	0.105	-0.164
-249.034	-59.084	-0.243	-0.104
-248.019	155.551	0.128	0.174
-247.005	610.812	-0.068	-0.168
-245.990	-117.379	0.418	0.075
-244.976	295.259	0.106	0.191
-243.961	-200.000	-0.038	-0.183
-242.946	618.287	0.123	0.306
-241.932	182.560	-0.142	0.208
-240.917	-200.000	-0.017	-0.079
-239.903	-55.109	-0.196	-0.087
-238.888	800.000	-0.080	0.315
-237.873	178.382	-0.243	0.350
-236.859	-96.451	-0.146	0.038
-235.844	-55.229	0.122	-0.054
-234.830	-90.185	-0.153	0.044
-233.815	534.984	0.127	-0.297
-232.800	77.907	-0.099	0.104
-231.786	800.000	-0.071	0.245
-230.771	346.106	0.108	0.210
-229.757	155.640	0.066	0.089
-228.742	-66.403	0.235	0.092
-227.727	-5.654	0.113	0.077
-226.713	351.466	0.084	-0.165
-225.698	403.563	-0.145	0.302
-224.684	225.896	-0.045	0.072
-223.669	800.000	-0.110	-0.304
-222.655	800.000	0.042	0.164
-221.640	-16.859	0.069	0.043
-220.625	229.022	0.143	0.230
-219.611	14.182	0.138	0.106
-218.596	-200.000	0.015	0.244
-217.582	-200.000	0.041	0.181
-216.567	-60.268	-0.249	-0.105
-215.552	534.987	0.149	0.349
-214.538	20.165	0.303	0.241
-213.523	60.133	-0.114	0.111
-212.509	-40.410	0.242	0.124
-211.494	4.172	-0.264	0.191
-210.479	236.256	-0.101	-0.166
-209.465	-200.000	0.008	0.185
-208.450	148.133	0.102	-0.136
-207.436	50.296	0.157	0.146
-206.421	85.929	0.246	-0.267
-205.406	85.357	0.003	0.003
-204.392	256.452	-0.048	-0.082
-203.377	181.789	-0.072	0.105
-202.363	485.349	-0.147	-0.331
-201.348	406.294	-0.200	0.416
-200.333	29.548	0.428	0.359
-199.319	678.532	0.072	-0.184
-198.304	-71.292	0.251	-0.093
-197.290	-200.000	0.004	-0.032
-196.275	207.292	-0.124	-0.190
-195.260	45.647	0.227	-0.207
-194.246	-118.048	0.564	-0.099
-193.231	-126.385	-0.041	0.006
-192.217	800.000	0.025	0.069
-191.202	-19.954	-0.199	-0.121
-190.187	406.984	0.049	-0.102
-189.173	92.817	0.227	-0.253
-188.158	63.326	-0.195	-0.192
-187.144	800.000	0.074	-0.304
-186.129	800.000	-0.017	0.061
-185.114	233.008	0.036	0.058
-184.100	-47.150	0.054	-0.026
-183.085	-54.244	-0.138	0.062
-182.071	-91.982	-0.201	0.056
-181.056	-78.058	0.175	-0.060
-180.042	-48.720	0.086	-0.041
-179.027	-72.709	-0.181	-0.066
-178.012	-25.537	0.142	0.082
-176.998	249.098	0.051	-0.085
-175.983	163.304	0.050	-0.070
-174.969	800.000	0.147	0.451
-173.954	800.000	0.063	0.262
-172.939	-186.319	0.164	-0.002
-171.925	380.146	-0.105	0.212
-170.910	677.435	0.137	0.350
-169.896	-200.000	0.009	-0.038
-168.881	-200.000	-0.004	0.145
-167.866	19.064	-0.229	0.181
-166.852	-200.000	-0.009	0.262
-165.837	345.853	-0.105	0.202
-164.823	492.048	0.109	-0.246
-163.808	154.831	-0.127	0.172
-162.793	-53.631	0.345	-0.155
-161.779	336.208	-0.101	0.192
-160.764	229.054	0.145	0.232
-159.750	781.437	-0.098	0.264
-158.735	-86.716	0.107	0.032
-157.720	180.025	-0.292	-0.422
-156.706	-200.000	-0.020	-0.189
-155.691	-123.502	-0.254	0.040
-154.677	-146.203	0.157	-0.014
-153.662	133.620	-0.085	0.108
-152.647	-200.000	0.019	-0.413
-151.633	489.664	0.085	-0.191
-150.618	800.000	0.123	0.393
-149.604	-165.581	0.229	0.010
-148.589	281.092	-0.110	0.194
-147.574	93.615	0.163	-0.182
-146.560	-200.000	0.014	-0.180
-145.545	-200.000	-0.042	0.211
-144.531	-53.022	0.137	0.062
-143.516	-58.726	-0.294	-0.125
-142.502	-90.493	-0.118	-0.034
-141.487	-122.120	0.225	-0.036
-140.472	-187.226	-0.025	0.000
-139.458	191.325	0.249	0.369
-138.443	-118.256	0.348	-0.061
-137.429	-186.598	0.254	-0.004
-136.414	-199.569	0.213	0.001
-135.399	-117.987	0.207	-0.037
-134.385	-10.961	0.155	0.101
-133.370	-67.955	0.137	-0.053
-132.356	-69.802	0.190	0.071
-131.341	-200.000	-0.009	0.247
-130.326	-7.790	0.258	0.171
-129.312	-74.115	0.245	-0.087
-128.297	-200.000	-0.000	0.189
-127.283	15.829	-0.131	-0.102
-126.268	53.089	0.110	0.104
-125.253	800.000	0.076	0.319
-124.239	-155.964	0.162	0.010
-123.224	62.443	0.041	-0.040
-122.210	84.869	0.188	-0.203
-121.195	800.000	-0.005	0.019
-120.180	-200.000	-0.018	0.085
