DTS Sentinel unit serial number:	SN413079Multiplexer serial number:	ORYXHardware model number:	OX4-SRSoftware version number:	ORYX F/W v4.00 Oryx Data Collector v3.7.2.0data status	okinstallation	princeton_trtdifferential loss correction	single-endedforward channel	channel 1reverse channel	N/Adate	2019/09/17time	13:14:35forward acquisition time	60.00reverse acquisition time	0.00gamma	496.2192k internal	0.2311k external	0.2311temperature offset calibration	0.9968default loss term (dB/km)	0.3790temperature slope calibration	1.0000multiplexer offset coefficient	1.0000multiplexer slope coefficient	1.0000fibre end	0.00T internal ref (°C)	33.98T ext. ref 1 (°C)	0.42T ext. ref 2 (°C)	31.64length (m)	temperature (°C)	Stokes	anti-Stokes-747.200	566.898	-0.010	0.026
-746.185	-200.000	0.031	-0.221
-745.171	800.000	-0.102	-0.296
-744.156	96.720	0.093	0.108
-743.142	153.727	0.020	-0.028
-742.127	24.386	-0.350	0.294
-741.112	181.566	-0.096	-0.144
-740.098	201.721	-0.098	0.153
-739.083	261.635	-0.152	-0.266
-738.069	75.535	-0.110	0.118
-737.054	-200.000	0.039	-0.317
-736.039	-104.600	-0.207	-0.049
-735.025	410.116	-0.092	0.199
-734.010	800.000	0.061	0.218
-732.996	148.089	-0.079	0.109
-731.981	-200.000	-0.000	0.103
-730.966	-118.930	-0.126	0.022
-729.952	220.286	-0.186	-0.302
-728.937	112.190	-0.146	-0.179
-727.923	-105.189	0.083	-0.019
-726.908	-102.538	-0.241	0.058
-725.894	-66.435	-0.262	-0.106
-724.879	-19.656	-0.179	0.112
-723.864	-200.000	-0.002	0.064
-722.850	787.082	-0.014	-0.039
-721.835	-49.632	-0.145	-0.070
-720.821	62.603	0.337	0.342
-719.806	800.000	-0.093	-0.359
-718.791	271.333	0.102	-0.183
-717.777	642.337	-0.158	0.408
-716.762	104.184	-0.402	-0.480
-715.748	176.850	0.103	-0.152
-714.733	365.127	-0.235	-0.481
-713.718	800.000	0.020	-0.056
-712.704	-53.123	-0.274	0.128
-711.689	733.727	0.032	-0.086
-710.675	37.824	0.245	-0.220
-709.660	26.453	0.239	0.202
-708.645	-113.245	-0.273	-0.054
-707.631	330.138	0.121	0.237
-706.616	-31.404	-0.204	-0.116
-705.602	89.642	-0.196	0.222
-704.587	-135.422	-0.329	-0.040
-703.572	-157.600	-0.044	0.003
-702.558	-62.616	-0.076	-0.032
-701.543	541.108	0.055	0.133
-700.529	11.158	0.091	0.071
-699.514	-173.593	0.337	-0.010
-698.499	1.880	-0.199	-0.146
-697.485	-132.733	-0.251	0.032
-696.470	627.953	-0.039	-0.100
-695.456	593.824	-0.105	-0.264
-694.441	-124.225	-0.374	-0.059
-693.426	-72.747	-0.108	-0.040
-692.412	-200.000	0.047	0.262
-691.397	-200.000	-0.012	-0.252
-690.383	-200.000	-0.029	-0.185
-689.368	577.733	0.007	0.017
-688.354	800.000	-0.034	0.108
-687.339	800.000	0.051	0.186
-686.324	-51.445	-0.286	-0.135
-685.310	-0.391	-0.263	0.190
-684.295	147.723	0.083	-0.113
-683.281	-200.000	0.003	-0.165
-682.266	-20.620	-0.301	0.187
-681.251	-178.385	-0.214	-0.005
-680.237	493.358	-0.082	-0.189
-679.222	438.459	-0.171	0.377
-678.208	-200.000	0.050	0.267
-677.193	383.459	0.078	-0.163
-676.178	-87.354	-0.334	0.102
-675.164	82.431	0.187	-0.205
-674.149	-122.399	-0.212	-0.035
-673.135	-200.000	0.103	-0.530
-672.120	218.781	0.125	-0.203
-671.105	735.045	0.033	0.091
-670.091	-44.652	-0.331	0.167
-669.076	115.953	-0.213	-0.263
-668.062	79.397	0.214	0.232
-667.047	-200.000	0.005	-0.095
-666.032	-128.926	0.036	-0.005
-665.018	100.384	-0.206	-0.242
-664.003	308.440	-0.131	-0.247
-662.989	493.748	-0.048	0.112
-661.974	261.539	0.260	0.456
-660.959	33.015	0.209	0.183
-659.945	-200.000	0.020	0.116
-658.930	-16.552	0.125	-0.080
-657.916	800.000	-0.026	-0.084
-656.901	287.783	0.115	-0.211
-655.886	79.754	-0.131	0.142
-654.872	82.989	0.059	0.065
-653.857	-200.000	0.044	-0.538
-652.843	87.337	-0.209	-0.234
-651.828	83.056	0.046	0.050
-650.814	-85.693	0.235	-0.074
-649.799	-200.000	0.008	-0.087
-648.784	513.853	0.049	-0.115
-647.770	174.306	-0.172	-0.251
-646.755	706.362	0.104	-0.277
-645.741	800.000	0.076	-0.286
-644.726	-12.169	-0.139	0.092
-643.711	-111.317	0.289	0.060
-642.697	-200.000	0.016	-0.136
-641.682	-133.651	0.188	0.024
-640.668	47.465	-0.172	0.162
-639.653	-86.954	-0.052	0.016
-638.638	-200.000	0.030	-0.576
-637.624	643.700	-0.136	0.349
-636.609	57.929	0.098	-0.097
-635.595	-49.166	0.118	0.057
-634.580	209.054	0.031	-0.048
-633.565	124.881	-0.249	-0.317
-632.551	-90.132	-0.077	0.023
-631.536	-114.980	-0.119	-0.023
-630.522	-4.960	-0.106	-0.074
-629.507	800.000	-0.058	0.238
-628.492	-200.000	-0.001	-0.021
-627.478	-200.000	-0.015	0.133
-626.463	-54.086	0.323	0.148
-625.449	194.694	-0.146	-0.223
-624.434	-92.008	0.077	-0.022
-623.419	48.310	-0.225	-0.213
-622.405	-200.000	-0.008	0.224
-621.390	-200.000	0.017	-0.256
-620.376	-138.833	0.183	-0.020
-619.361	-74.896	-0.257	0.093
-618.346	452.655	-0.029	0.065
-617.332	800.000	0.082	0.273
-616.317	800.000	0.061	-0.249
-615.303	-200.000	0.073	-0.396
-614.288	157.637	0.075	-0.105
-613.273	62.441	0.083	0.083
-612.259	-200.000	0.047	-0.318
-611.244	185.425	-0.093	-0.140
-610.230	-135.406	-0.596	-0.072
-609.215	-200.000	0.015	-0.140
-608.201	-191.376	-0.246	0.003
-607.186	-155.072	0.176	0.012
-606.171	-16.791	0.203	-0.130
-605.157	-200.000	0.001	0.259
-604.142	170.202	0.095	0.137
-603.128	29.995	-0.194	0.167
-602.113	27.626	0.192	-0.163
-601.098	397.877	0.132	0.280
-600.084	800.000	-0.058	0.218
-599.069	3.791	0.192	0.141
-598.055	296.823	0.072	0.133
-597.040	-34.752	-0.222	0.122
-596.025	-127.162	0.184	-0.027
-595.011	-167.530	0.139	-0.006
-593.996	68.633	-0.152	-0.157
-592.982	800.000	0.031	0.093
-591.967	259.300	-0.072	-0.126
-590.952	-200.000	-0.020	0.195
-589.938	-42.170	-0.198	-0.102
-588.923	-200.000	-0.004	-0.087
-587.909	76.398	-0.129	0.138
-586.894	800.000	0.076	-0.305
-585.879	159.909	-0.135	0.190
-584.865	82.389	0.014	0.015
-583.850	38.969	-0.131	0.118
-582.836	800.000	0.038	-0.136
-581.821	-49.990	-0.102	-0.049
-580.806	-115.190	-0.268	-0.051
-579.792	29.730	-0.196	-0.168
-578.777	800.000	-0.078	-0.227
-577.763	-174.652	0.104	-0.003
-576.748	-48.009	0.164	-0.080
-575.733	596.487	0.151	0.377
-574.719	-200.000	-0.022	-0.136
-573.704	-84.839	-0.096	-0.030
-572.690	-200.000	-0.020	0.253
-571.675	214.869	0.164	0.261
-570.661	-44.964	0.190	0.095
-569.646	-26.618	0.260	0.153
-568.631	176.500	-0.082	-0.121
-567.617	215.024	-0.046	-0.074
-566.602	39.661	0.170	0.154
-565.588	-25.420	-0.464	-0.276
-564.573	-8.695	-0.258	-0.174
-563.558	-15.632	0.096	0.062
-562.544	-75.084	-0.361	-0.130
-561.529	-90.202	0.218	0.064
-560.515	-200.000	0.001	-0.078
-559.500	-200.000	-0.027	0.179
-558.485	-200.000	-0.002	0.162
-557.471	-27.573	0.240	-0.141
-556.456	-106.686	-0.208	-0.047
-555.442	-200.000	0.002	-0.187
-554.427	-36.614	0.065	-0.035
-553.412	141.740	-0.238	-0.318
-552.398	173.731	-0.208	-0.303
-551.383	-200.000	0.015	-0.148
-550.369	-5.504	-0.087	-0.060
-549.354	-200.000	0.022	0.122
-548.339	-192.069	-0.327	0.003
-547.325	349.664	0.099	-0.196
-546.310	19.146	-0.142	-0.115
-545.296	-93.096	0.140	-0.039
-544.281	-120.523	-0.140	0.024
-543.266	-28.200	-0.069	-0.040
-542.252	59.073	-0.048	0.048
-541.237	-70.995	-0.394	-0.149
-540.223	-56.982	0.129	0.057
-539.208	249.018	-0.085	-0.145
-538.193	800.000	-0.039	0.129
-537.179	-200.000	0.023	-0.164
-536.164	-19.646	-0.169	0.105
-535.150	-50.681	-0.083	0.039
-534.135	-136.128	0.120	0.014
-533.121	-200.000	0.011	0.231
-532.106	76.019	0.217	-0.231
-531.091	6.217	-0.160	-0.120
-530.077	249.422	-0.076	0.130
-529.062	51.223	0.156	0.149
-528.048	323.475	0.097	-0.186
-527.033	112.404	0.139	0.169
-526.018	20.779	0.080	0.065
-525.004	711.494	-0.048	-0.127
-523.989	800.000	0.061	0.244
-522.975	-110.047	0.262	0.055
-521.960	-98.518	0.159	-0.041
-520.945	-200.000	0.016	-0.080
-519.931	163.293	-0.216	0.306
-518.916	108.584	0.136	0.164
-517.902	800.000	-0.078	0.293
-516.887	800.000	0.058	0.224
-515.872	-162.460	-0.157	-0.008
-514.858	444.302	0.125	0.275
-513.843	-127.466	0.211	0.031
-512.829	-60.296	-0.066	0.028
-511.814	800.000	0.142	-0.410
-510.799	-200.000	0.005	-0.328
-509.785	-200.000	0.011	0.187
-508.770	-2.374	-0.295	0.208
-507.756	-200.000	0.041	-0.487
-506.741	-200.000	-0.034	0.206
-505.726	155.513	-0.201	0.278
-504.712	-76.215	0.105	0.037
-503.697	-167.695	-0.159	-0.006
-502.683	-200.000	0.035	0.350
-501.668	325.176	0.070	-0.134
-500.653	397.957	0.102	0.215
-499.639	14.426	-0.104	0.082
-498.624	483.844	-0.084	0.192
-497.610	202.023	-0.121	0.187
-496.595	-200.000	-0.007	-0.074
-495.581	-200.000	0.051	0.312
-494.566	459.762	0.134	-0.299
-493.551	-89.209	0.199	0.059
-492.537	800.000	0.082	0.276
-491.522	-105.904	-0.112	0.025
-490.508	-78.175	0.231	0.080
-489.493	800.000	0.143	0.477
-488.478	136.555	0.020	-0.027
-487.464	-129.048	-0.337	0.047
-486.449	272.071	0.049	-0.087
-485.435	-95.580	-0.217	0.058
-484.420	-130.559	0.126	-0.017
-483.405	319.914	0.106	0.203
-482.391	136.320	-0.115	0.151
-481.376	-200.000	-0.005	0.205
-480.362	-90.740	-0.041	0.012
-479.347	325.598	-0.072	-0.139
-478.332	30.276	0.229	-0.197
-477.318	800.000	0.040	-0.125
-476.303	-82.381	0.072	-0.024
-475.289	252.790	0.139	-0.239
-474.274	131.203	-0.099	-0.127
-473.259	-200.000	-0.008	-0.077
-472.245	-193.534	0.223	-0.002
-471.230	327.691	-0.091	-0.176
-470.216	-139.159	-0.037	0.004
-469.201	-10.358	-0.111	-0.074
-468.186	398.725	-0.112	-0.236
-467.172	-113.843	-0.240	-0.047
-466.157	639.555	-0.004	-0.011
-465.143	67.199	0.337	0.345
-464.128	-91.223	0.226	0.065
-463.113	-60.935	0.059	-0.025
-462.099	800.000	0.043	0.136
-461.084	-78.788	-0.183	-0.063
-460.070	-35.198	0.102	-0.056
-459.055	292.702	-0.120	-0.220
-458.040	-118.142	-0.306	0.055
-457.026	361.877	0.027	-0.054
-456.011	800.000	0.055	-0.223
-454.997	-139.696	0.102	-0.011
-453.982	58.112	0.053	-0.052
-452.968	-122.362	0.246	-0.040
-451.953	-200.000	0.021	-0.387
-450.938	-1.696	0.189	-0.133
-449.924	-116.003	0.139	0.026
-448.909	-26.896	0.127	-0.075
-447.895	165.832	-0.186	-0.264
-446.880	25.470	0.240	0.201
-445.865	63.083	0.185	-0.186
-444.851	-156.030	0.185	0.012
-443.836	-78.986	-0.157	-0.053
-442.822	73.924	0.083	-0.087
-441.807	-144.194	0.288	0.027
-440.792	-60.638	-0.291	-0.124
-439.778	800.000	0.034	0.128
-438.763	-200.000	0.019	0.500
-437.749	800.000	0.087	0.296
-436.734	558.914	-0.095	-0.229
-435.719	68.391	-0.043	-0.044
-434.705	-124.713	-0.305	0.047
-433.690	800.000	-0.043	0.141
-432.676	-96.922	-0.195	0.051
-431.661	-112.678	0.434	0.087
-430.646	79.685	-0.027	0.029
-429.632	-114.811	0.225	-0.043
-428.617	-174.494	0.214	0.006
-427.603	50.149	-0.333	-0.315
-426.588	-68.482	0.250	-0.097
-425.573	122.291	-0.019	-0.024
-424.559	187.904	-0.073	-0.109
-423.544	-200.000	0.003	-0.025
-422.530	-84.096	-0.270	-0.086
-421.515	23.657	0.133	0.110
-420.500	184.882	-0.075	-0.111
-419.486	321.425	-0.123	-0.234
-418.471	-76.917	0.299	-0.105
-417.457	-9.123	-0.148	-0.099
-416.442	-117.032	-0.285	-0.052
-415.428	800.000	-0.010	-0.034
-414.413	668.414	-0.083	0.216
-413.398	491.585	0.007	-0.015
-412.384	94.623	-0.073	-0.083
-411.369	4.975	-0.255	-0.188
-410.355	230.110	0.158	0.259
-409.340	-200.000	-0.012	-0.362
-408.325	-200.000	-0.183	-0.000
-407.311	4.231	-0.061	-0.045
-406.296	115.835	0.192	0.235
-405.282	172.007	0.195	-0.281
-404.267	800.000	0.049	-0.192
-403.252	-72.008	-0.295	0.110
-402.238	-43.069	-0.292	0.148
-401.223	640.205	0.140	0.357
-400.209	-83.441	-0.127	0.041
-399.194	-151.332	-0.376	0.028
-398.179	9.068	0.174	0.131
-397.165	-70.738	-0.043	0.016
-396.150	-122.525	0.231	-0.038
-395.136	95.579	-0.104	-0.119
-394.121	666.658	-0.016	0.042
-393.106	475.606	-0.105	-0.238
-392.092	-77.308	-0.261	0.091
-391.077	253.401	0.047	-0.081
-390.063	-172.584	0.299	-0.009
-389.048	345.466	0.164	0.322
-388.033	800.000	0.109	0.341
-387.019	-200.000	0.030	0.368
-386.004	90.399	-0.209	0.234
-384.990	800.000	0.095	-0.287
-383.975	230.796	-0.040	-0.065
-382.960	94.234	0.071	-0.081
-381.946	-200.000	-0.043	0.219
-380.931	95.422	-0.257	0.293
-379.917	800.000	-0.173	-0.541
-378.902	-142.496	0.190	0.019
-377.888	800.000	0.108	0.351
-376.873	245.124	0.199	0.335
-375.858	-115.136	0.125	0.024
-374.844	130.320	-0.008	-0.011
-373.829	-200.000	-0.003	-0.072
-372.815	-189.660	0.206	0.002
-371.800	152.615	0.207	-0.282
-370.785	-200.000	-0.054	0.350
-369.771	45.372	-0.146	-0.135
-368.756	-113.669	-0.289	0.056
-367.742	375.309	-0.183	-0.374
-366.727	376.097	-0.106	-0.217
-365.712	800.000	-0.056	0.194
-364.698	800.000	0.066	0.281
-363.683	-118.891	-0.059	-0.010
-362.669	15.062	0.182	-0.143
-361.654	117.785	0.130	-0.160
-360.639	-162.760	0.182	-0.009
-359.625	-22.744	-0.199	0.120
-358.610	175.188	-0.151	0.218
-357.596	800.000	-0.080	-0.285
-356.581	-154.934	0.363	0.024
-355.566	-44.672	-0.195	-0.097
-354.552	-200.000	0.008	-0.055
-353.537	-52.987	0.347	0.160
-352.523	-200.000	-0.020	-0.225
-351.508	-200.000	-0.051	0.260
-350.493	183.797	-0.072	-0.106
-349.479	4.359	-0.059	-0.043
-348.464	97.069	-0.192	-0.220
-347.450	-200.000	-0.044	-0.361
-346.435	3.792	-0.126	0.092
-345.420	-200.000	0.006	-0.092
-344.406	800.000	0.064	-0.225
-343.391	343.050	-0.097	0.191
-342.377	12.294	0.113	-0.087
-341.362	198.956	-0.132	0.201
-340.348	-66.986	-0.290	-0.114
-339.333	154.806	0.131	0.180
-338.318	-66.755	-0.206	-0.082
-337.304	-178.466	0.375	-0.009
-336.289	-12.961	-0.184	0.119
-335.275	188.055	0.181	-0.270
-334.260	246.883	-0.124	0.209
-333.245	-85.695	-0.041	0.013
-332.231	-200.000	-0.010	0.226
-331.216	40.876	0.134	-0.120
-330.202	800.000	0.055	0.227
-329.187	-55.514	-0.219	0.098
-328.172	-171.551	-0.211	-0.007
-327.158	-200.000	0.001	-0.247
-326.143	417.793	0.089	0.190
-325.129	206.513	0.051	-0.079
-324.114	-116.446	0.190	-0.035
-323.099	-47.144	0.115	-0.056
-322.085	800.000	0.022	0.087
-321.070	447.223	0.101	-0.223
-320.056	-200.000	-0.018	-0.177
-319.041	135.615	0.073	0.095
-318.026	318.926	0.112	0.213
-317.012	-113.523	-0.294	-0.058
-315.997	-44.443	-0.143	-0.071
-314.983	-177.584	-0.187	-0.005
-313.968	-9.774	-0.281	0.187
-312.953	-130.331	-0.237	0.032
-311.939	-200.000	-0.007	-0.061
-310.924	-121.366	0.090	0.015
-309.910	-101.535	0.383	-0.093
-308.895	800.000	0.076	-0.314
-307.880	302.335	0.246	-0.455
-306.866	-75.335	0.108	-0.039
-305.851	-125.584	0.346	-0.052
-304.837	-200.000	-0.288	0.000
-303.822	164.954	0.078	0.110
-302.807	-106.543	0.448	-0.100
-301.793	-128.102	-0.025	0.004
-300.778	-10.267	-0.068	0.045
-299.764	-200.000	-0.045	-0.340
-298.749	536.889	-0.046	0.108
-297.735	527.286	-0.118	0.276
-296.720	148.342	0.077	-0.103
-295.705	-200.000	-0.001	-0.072
-294.691	-17.728	0.073	-0.046
-293.676	154.504	-0.202	0.277
-292.662	-17.044	-0.135	0.085
-291.647	-9.790	-0.304	0.202
-290.632	800.000	-0.049	0.178
-289.618	-32.081	0.399	-0.222
-288.603	800.000	0.109	-0.356
-287.589	800.000	-0.052	-0.197
-286.574	-69.889	-0.193	-0.074
-285.559	-48.896	-0.211	0.101
-284.545	-50.758	0.315	-0.148
-283.530	-200.000	0.001	0.012
-282.516	-72.703	-0.017	0.006
-281.501	5.308	-0.235	0.173
-280.486	298.747	0.143	0.262
-279.472	-179.809	-0.284	-0.006
-278.457	800.000	-0.047	-0.147
-277.443	40.809	-0.113	0.102
-276.428	800.000	-0.030	0.088
-275.413	-200.000	-0.031	-0.214
-274.399	-30.278	0.253	-0.143
-273.384	72.389	-0.189	0.196
-272.370	-81.287	0.073	-0.024
-271.355	-75.375	0.165	0.059
-270.340	800.000	-0.084	0.331
-269.326	382.530	-0.062	0.127
-268.311	-113.106	-0.140	-0.028
-267.297	168.807	0.195	0.276
-266.282	-33.935	-0.155	-0.085
-265.267	253.589	-0.127	0.216
-264.253	-200.000	-0.001	0.339
-263.238	800.000	-0.238	0.679
-262.224	-28.493	-0.137	-0.079
-261.209	609.780	0.110	0.272
-260.195	-84.497	0.106	0.033
-259.180	-59.494	0.129	-0.055
-258.165	-11.259	-0.056	-0.036
-257.151	-200.000	-0.020	-0.355
-256.136	-154.771	0.068	0.005
-255.122	-72.183	-0.442	-0.163
-254.107	658.280	-0.052	0.134
-253.092	-51.480	-0.368	0.171
-252.078	71.103	-0.056	0.057
-251.063	-116.432	0.044	0.008
-250.049	-81.050	0.216	-0.071
-249.034	-200.000	-0.013	-0.079
-248.019	-200.000	0.021	0.124
-247.005	113.194	0.210	-0.253
-245.990	-132.547	0.220	0.028
-244.976	399.524	0.100	-0.210
-243.961	-112.879	0.360	0.071
-242.946	-200.000	0.046	0.386
-241.932	-49.680	0.055	0.026
-240.917	-200.000	-0.005	0.357
-239.903	800.000	0.095	0.290
-238.888	390.396	-0.107	-0.220
-237.873	-25.580	0.138	0.081
-236.859	-136.886	0.125	0.014
-235.844	-131.691	0.246	0.032
-234.830	-200.000	-0.042	0.283
-233.815	-130.145	0.032	0.004
-232.800	622.384	-0.066	-0.164
-231.786	-124.918	0.215	-0.033
-230.771	800.000	0.015	-0.045
-229.757	-107.382	0.086	0.019
-228.742	14.015	0.219	-0.169
-227.727	-141.446	0.323	0.033
-226.713	-97.515	0.225	0.058
-225.698	-78.708	0.060	0.020
-224.684	96.746	0.224	0.255
-223.669	-131.011	-0.044	-0.006
-222.655	-200.000	-0.042	0.209
-221.640	-200.000	-0.013	-0.169
-220.625	-8.337	0.195	-0.130
-219.611	-200.000	0.011	-0.102
-218.596	-38.345	0.224	0.118
-217.582	-24.710	0.144	0.085
-216.567	90.336	0.051	-0.057
-215.552	547.008	-0.104	-0.247
-214.538	-50.775	-0.211	-0.099
-213.523	-65.331	-0.278	0.111
-212.509	-200.000	0.080	-0.374
-211.494	74.149	-0.153	0.160
-210.479	-200.000	0.053	-0.310
-209.465	20.443	-0.174	0.140
-208.450	450.094	-0.124	0.272
-207.436	-20.237	0.195	0.120
-206.421	-121.178	0.207	0.034
-205.406	181.621	0.029	-0.042
-204.392	55.538	-0.118	0.113
-203.377	-200.000	0.011	0.334
-202.363	-77.950	0.324	0.111
-201.348	-124.337	-0.109	-0.017
-200.333	83.399	-0.200	-0.216
-199.319	800.000	-0.064	-0.206
-198.304	12.673	-0.124	-0.095
-197.290	800.000	-0.077	0.222
-196.275	-46.111	-0.042	0.020
-195.260	-188.126	-0.334	-0.004
-194.246	-131.168	-0.193	0.026
-193.231	-90.699	-0.316	0.091
-192.217	705.921	-0.135	0.355
-191.202	-132.731	-0.242	0.031
-190.187	21.120	0.093	0.075
-189.173	15.688	0.431	-0.336
-188.158	13.589	-0.110	0.084
-187.144	132.514	0.268	0.343
-186.129	371.269	-0.112	0.226
-185.114	-79.312	-0.176	0.059
-184.100	275.363	-0.139	0.246
-183.085	-200.000	0.020	-0.328
-182.071	-65.289	0.323	-0.129
-181.056	-3.292	-0.103	0.072
-180.042	296.221	-0.012	0.022
-179.027	-58.495	0.170	0.073
-178.012	-119.939	-0.445	0.076
-176.998	-200.000	0.008	-0.203
-175.983	1.254	-0.255	-0.182
-174.969	-26.776	0.196	-0.114
-173.954	111.753	0.288	0.345
-172.939	-82.883	0.105	0.034
-171.925	-24.502	0.070	-0.041
-170.910	-200.000	-0.052	-0.313
-169.896	126.501	0.052	0.065
-168.881	252.524	-0.187	-0.316
-167.866	134.570	0.082	0.106
-166.852	76.034	0.033	-0.034
-165.837	800.000	0.044	-0.143
-164.823	-63.917	0.478	0.194
-163.808	227.568	0.196	-0.317
-162.793	775.803	0.080	0.217
-161.779	-200.000	-0.001	0.017
-160.764	311.957	0.081	0.151
-159.750	75.916	0.197	-0.206
-158.735	-59.867	-0.067	0.029
-157.720	45.251	-0.144	0.132
-156.706	95.357	0.125	0.141
-155.691	-200.000	0.101	-0.508
-154.677	343.164	0.121	-0.235
-153.662	-81.689	-0.144	0.047
-152.647	240.866	-0.063	-0.105
-151.633	-200.000	0.026	-0.176
-150.618	471.889	-0.207	-0.462
-149.604	-14.780	-0.207	0.132
-148.589	-200.000	-0.004	0.342
-147.574	-61.592	0.161	0.067
-146.560	-200.000	0.027	0.311
-145.545	-200.000	-0.085	-0.490
-144.531	-90.476	0.158	-0.046
-143.516	265.597	-0.191	-0.331
-142.502	-200.000	-0.028	-0.339
-141.487	-200.000	0.012	0.080
-140.472	-81.072	0.226	0.074
-139.458	76.935	0.045	0.047
-138.443	800.000	-0.100	0.434
-137.429	-166.668	0.318	-0.013
-136.414	-195.254	0.108	0.001
-135.399	-200.000	0.021	0.122
-134.385	-200.000	0.020	0.268
-133.370	-105.978	-0.199	-0.044
-132.356	-200.000	0.052	-0.231
-131.341	-108.701	0.210	-0.045
-130.326	-82.724	-0.187	0.060
-129.312	193.764	0.191	-0.286
-128.297	155.180	0.179	-0.244
-127.283	289.208	-0.079	0.143
-126.268	800.000	0.175	0.480
-125.253	-146.877	-0.197	-0.017
-124.239	-115.850	0.255	0.047
-123.224	90.393	-0.062	-0.068
-122.210	355.293	0.115	0.227
