DTS Sentinel unit serial number:	SN413079Multiplexer serial number:	ORYXHardware model number:	OX4-SRSoftware version number:	ORYX F/W v4.00 Oryx Data Collector v3.7.2.0data status	okinstallation	princeton_trtdifferential loss correction	single-endedforward channel	channel 1reverse channel	N/Adate	2019/09/17time	16:42:35forward acquisition time	60.00reverse acquisition time	0.00gamma	496.2192k internal	0.2292k external	0.2292temperature offset calibration	0.9956default loss term (dB/km)	0.3790temperature slope calibration	1.0000multiplexer offset coefficient	1.0000multiplexer slope coefficient	1.0000fibre end	0.00T internal ref (°C)	42.05T ext. ref 1 (°C)	0.35T ext. ref 2 (°C)	38.64length (m)	temperature (°C)	Stokes	anti-Stokes-747.200	87.446	0.122	0.138
-746.185	467.042	0.136	0.312
-745.171	-84.628	-0.198	-0.064
-744.156	31.290	-0.193	0.169
-743.142	-117.423	-0.301	-0.056
-742.127	266.330	-0.187	0.335
-741.112	-200.000	0.003	0.140
-740.098	-200.000	0.010	0.063
-739.083	-142.261	-0.138	0.014
-738.069	800.000	-0.069	0.240
-737.054	-2.864	0.353	-0.253
-736.039	-200.000	0.006	-0.143
-735.025	-21.535	-0.107	-0.067
-734.010	-115.387	-0.378	-0.073
-732.996	-2.306	-0.152	-0.109
-731.981	-57.823	-0.195	0.087
-730.966	-200.000	0.053	0.272
-729.952	-173.489	-0.023	-0.001
-728.937	-200.000	0.023	-0.230
-727.923	800.000	0.045	-0.138
-726.908	-23.283	-0.098	0.060
-725.894	-101.048	-0.222	0.056
-724.879	30.505	0.125	-0.110
-723.864	-139.864	0.034	-0.004
-722.850	-90.231	0.221	0.066
-721.835	-69.564	-0.232	0.091
-720.821	42.995	-0.176	0.164
-719.806	-103.951	0.103	-0.024
-718.791	-200.000	0.052	-0.505
-717.777	-200.000	0.007	0.111
-716.762	-4.475	0.140	0.099
-715.748	800.000	-0.048	-0.162
-714.733	-6.011	-0.050	0.035
-713.718	130.725	0.169	0.222
-712.704	-25.446	0.212	0.128
-711.689	-92.910	-0.436	0.125
-710.675	95.467	-0.384	-0.447
-709.660	800.000	0.066	-0.202
-708.645	-200.000	0.004	-0.118
-707.631	800.000	-0.039	0.156
-706.616	-39.488	-0.230	0.123
-705.602	-101.860	0.240	0.059
-704.587	225.440	0.055	0.091
-703.572	163.513	-0.116	-0.167
-702.558	118.050	-0.205	0.258
-701.543	292.655	-0.106	-0.198
-700.529	-200.000	0.010	0.051
-699.514	163.389	-0.155	0.222
-698.499	-171.839	-0.298	-0.010
-697.485	40.632	0.159	-0.146
-696.470	-200.000	0.027	-0.237
-695.456	-200.000	0.008	0.146
-694.441	-43.628	0.176	-0.091
-693.426	-197.629	-0.077	0.000
-692.412	-200.000	-0.007	0.519
-691.397	-3.207	-0.140	-0.099
-690.383	-57.306	-0.051	-0.023
-689.368	-105.227	-0.159	-0.037
-688.354	334.023	-0.019	-0.038
-687.339	79.075	-0.368	-0.402
-686.324	71.583	-0.071	-0.075
-685.310	246.274	0.092	0.158
-684.295	-52.157	-0.096	0.046
-683.281	800.000	0.131	-0.380
-682.266	-200.000	-0.024	0.359
-681.251	-200.000	-0.020	0.118
-680.237	-51.137	-0.132	-0.063
-679.222	-147.293	-0.142	-0.012
-678.208	800.000	0.018	0.068
-677.193	-86.060	-0.167	0.053
-676.178	-169.540	-0.239	-0.009
-675.164	251.767	0.132	0.230
-674.149	-164.345	-0.245	0.011
-673.135	-82.997	-0.222	-0.073
-672.120	800.000	-0.090	-0.290
-671.105	-159.566	0.164	-0.009
-670.091	-30.719	-0.222	-0.128
-669.076	-172.478	-0.178	-0.006
-668.062	-200.000	-0.041	-0.256
-667.047	-62.981	0.162	-0.068
-666.032	-200.000	0.070	-0.378
-665.018	581.727	0.110	-0.275
-664.003	800.000	-0.015	-0.057
-662.989	43.681	-0.164	0.153
-661.974	701.706	0.030	0.080
-660.959	-85.364	0.287	0.091
-659.945	-31.689	-0.447	-0.256
-658.930	300.180	-0.153	-0.288
-657.916	92.449	-0.161	0.185
-656.901	419.233	-0.065	-0.141
-655.886	166.109	-0.195	0.281
-654.872	192.957	0.184	0.283
-653.857	-31.642	-0.222	-0.127
-652.843	800.000	-0.043	-0.192
-651.828	56.100	-0.180	-0.178
-650.814	470.836	0.043	-0.100
-649.799	66.748	0.306	-0.318
-648.784	42.751	-0.281	-0.261
-647.770	-200.000	-0.010	0.206
-646.755	-96.371	0.149	0.040
-645.741	178.700	-0.147	-0.220
-644.726	-99.896	0.121	0.031
-643.711	-200.000	0.072	-0.331
-642.697	-111.082	0.361	-0.075
-641.682	333.338	0.071	0.140
-640.668	-46.596	-0.025	-0.013
-639.653	800.000	-0.078	0.248
-638.638	-200.000	-0.033	-0.190
-637.624	56.721	-0.289	0.287
-636.609	800.000	-0.027	0.082
-635.595	68.363	0.241	0.252
-634.580	85.336	-0.110	0.123
-633.565	-127.117	0.138	0.021
-632.551	-185.266	-0.092	-0.001
-631.536	-165.807	-0.268	0.012
-630.522	-149.084	0.143	-0.012
-629.507	36.873	-0.024	-0.022
-628.492	46.300	-0.229	-0.217
-627.478	-7.905	-0.339	-0.233
-626.463	19.478	-0.125	0.102
-625.449	-200.000	-0.000	-0.007
-624.434	-145.446	0.260	0.024
-623.419	119.030	-0.171	-0.216
-622.405	-40.465	-0.064	-0.034
-621.390	297.810	-0.037	-0.070
-620.376	-200.000	0.006	0.069
-619.361	-77.859	-0.140	-0.049
-618.346	249.655	0.121	-0.208
-617.332	800.000	-0.048	-0.165
-616.317	28.927	-0.098	0.085
-615.303	400.776	-0.035	-0.074
-614.288	-96.224	0.282	-0.076
-613.273	-136.718	-0.072	-0.008
-612.259	201.963	-0.062	-0.098
-611.244	-200.000	0.009	-0.286
-610.230	230.875	0.119	0.199
-609.215	432.632	-0.036	-0.080
-608.201	66.895	-0.225	0.233
-607.186	201.826	-0.142	0.224
-606.171	39.364	-0.141	-0.128
-605.157	583.258	0.059	-0.147
-604.142	-200.000	0.006	0.086
-603.128	162.235	-0.130	-0.186
-602.113	158.291	0.062	0.088
-601.098	800.000	-0.007	-0.027
-600.084	270.452	0.011	0.020
-599.069	586.118	-0.066	-0.164
-598.055	-200.000	0.018	0.193
-597.040	-171.430	-0.285	0.010
-596.025	163.086	-0.172	-0.246
-595.011	342.010	-0.107	0.213
-593.996	-65.082	-0.429	-0.176
-592.982	-67.729	-0.197	0.078
-591.967	-123.838	0.213	0.034
-590.952	251.766	-0.063	-0.110
-589.938	211.629	-0.090	-0.145
-588.923	-200.000	0.001	-0.056
-587.909	-60.259	-0.243	-0.105
-586.894	22.021	-0.366	0.303
-585.879	800.000	0.016	0.053
-584.865	-44.741	-0.156	0.079
-583.850	26.833	0.324	-0.276
-582.836	-153.158	-0.252	-0.018
-581.821	800.000	-0.042	0.150
-580.806	-51.936	-0.233	0.110
-579.792	-81.866	0.147	-0.049
-578.777	-22.281	0.260	0.160
-577.763	235.974	-0.058	0.097
-576.748	-54.219	-0.156	0.072
-575.733	-165.376	-0.061	0.003
-574.719	-200.000	0.083	-0.414
-573.704	-200.000	-0.054	0.263
-572.690	495.433	0.023	-0.055
-571.675	60.596	0.203	0.205
-570.661	214.238	-0.095	0.153
-569.646	174.336	-0.169	-0.248
-568.631	-108.341	0.287	0.063
-567.617	150.397	-0.099	-0.137
-566.602	-42.729	0.249	-0.129
-565.588	78.166	0.217	0.236
-564.573	214.443	0.223	-0.359
-563.558	303.165	-0.078	0.147
-562.544	-86.439	0.307	0.096
-561.529	693.762	-0.025	0.068
-560.515	44.428	-0.156	-0.146
-559.500	255.273	-0.081	0.142
-558.485	-38.631	-0.115	-0.062
-557.471	-82.494	0.059	-0.020
-556.456	35.603	-0.082	-0.073
-555.442	800.000	-0.089	-0.309
-554.427	-115.910	-0.135	-0.026
-553.412	0.142	-0.150	-0.109
-552.398	-4.688	0.239	-0.168
-551.383	-159.760	-0.358	-0.020
-550.369	232.105	0.038	0.063
-549.354	180.852	-0.094	0.140
-548.339	209.183	-0.076	-0.121
-547.325	800.000	0.024	-0.091
-546.310	-159.720	0.347	0.019
-545.296	-92.494	-0.226	0.065
-544.281	-200.000	0.016	-0.100
-543.266	-38.866	-0.143	-0.077
-542.252	20.641	0.146	0.120
-541.237	800.000	-0.118	-0.348
-540.223	-200.000	-0.018	0.374
-539.208	217.567	0.071	-0.115
-538.193	365.570	0.143	0.293
-537.179	763.721	-0.021	-0.059
-536.164	108.337	-0.122	0.147
-535.150	-20.447	0.084	0.053
-534.135	-200.000	-0.006	0.094
-533.121	-48.922	0.302	0.147
-532.106	-57.158	0.074	-0.033
-531.091	284.927	-0.067	0.123
-530.077	800.000	-0.021	0.061
-529.062	-200.000	0.014	0.210
-528.048	-91.518	0.217	0.063
-527.033	128.806	0.131	0.169
-526.018	304.383	0.108	0.203
-525.004	55.479	0.023	-0.022
-523.989	-200.000	-0.037	-0.184
-522.975	-168.728	-0.133	0.005
-521.960	4.854	0.019	-0.014
-520.945	113.060	-0.082	0.101
-519.931	800.000	-0.035	-0.151
-518.916	-180.463	0.203	-0.004
-517.902	-90.568	-0.178	0.052
-516.887	-61.424	-0.237	0.101
-515.872	800.000	-0.166	-0.650
-514.858	57.824	0.122	0.122
-513.843	64.337	-0.220	0.225
-512.829	-90.349	-0.350	-0.103
-511.814	800.000	0.037	-0.141
-510.799	800.000	0.060	0.170
-509.785	24.318	0.172	0.145
-508.770	-66.009	-0.255	0.103
-507.756	800.000	0.112	-0.437
-506.741	18.045	-0.150	-0.121
-505.726	93.602	-0.137	0.157
-504.712	263.170	0.188	-0.331
-503.697	-200.000	0.004	0.171
-502.683	179.353	0.267	-0.395
-501.668	-200.000	-0.051	-0.231
-500.653	-200.000	-0.029	0.236
-499.639	-75.497	-0.229	0.083
-498.624	800.000	-0.068	-0.198
-497.610	-131.912	0.164	-0.022
-496.595	-177.910	-0.464	-0.011
-495.581	353.580	-0.084	-0.169
-494.566	-45.450	0.185	-0.093
-493.551	-8.303	-0.167	-0.114
-492.537	-19.220	-0.322	-0.203
-491.522	-39.519	-0.122	-0.065
-490.508	162.669	0.054	-0.077
-489.493	24.954	0.113	0.095
-488.478	-34.553	0.278	-0.154
-487.464	264.865	-0.101	-0.178
-486.449	12.387	0.146	0.114
-485.435	-112.452	0.038	0.008
-484.420	-142.890	0.301	0.030
-483.405	800.000	-0.081	0.247
-482.391	-159.640	0.181	0.010
-481.376	59.115	0.197	-0.196
-480.362	-39.420	0.412	-0.219
-479.347	222.271	-0.051	-0.083
-478.332	767.723	0.102	-0.282
-477.318	-200.000	-0.037	0.324
-476.303	-132.802	0.195	-0.025
-475.289	-29.205	0.270	-0.157
-474.274	19.219	0.336	0.273
-473.259	156.601	-0.152	-0.213
-472.245	7.670	-0.158	0.120
-471.230	-26.662	0.226	0.134
-470.216	-48.002	-0.159	-0.078
-469.201	-200.000	-0.044	-0.416
-468.186	-26.970	-0.240	-0.142
-467.172	-49.116	0.066	-0.032
-466.157	-200.000	0.033	-0.311
-465.143	-147.601	0.124	-0.011
-464.128	-200.000	0.027	-0.271
-463.113	604.847	0.130	0.327
-462.099	333.216	0.123	0.240
-461.084	-30.644	-0.256	0.147
-460.070	264.734	-0.097	-0.171
-459.055	-200.000	0.049	-0.522
-458.040	-48.347	0.225	-0.110
-457.026	604.439	0.046	-0.117
-456.011	110.851	0.092	0.112
-454.997	323.161	-0.230	-0.443
-453.982	55.136	-0.209	-0.204
-452.968	-46.933	-0.067	0.033
-451.953	-11.105	0.330	0.220
-450.938	-55.319	0.301	-0.137
-449.924	-7.605	0.282	0.193
-448.909	266.274	-0.133	0.235
-447.895	-200.000	0.018	0.506
-446.880	-200.000	-0.016	-0.216
-445.865	-16.868	-0.243	-0.156
-444.851	-2.462	0.159	-0.112
-443.836	-200.000	-0.014	0.282
-442.822	-25.712	-0.369	-0.220
-441.807	2.972	-0.055	-0.041
-440.792	483.360	0.090	0.207
-439.778	-123.469	-0.188	0.030
-438.763	472.816	0.019	0.043
-437.749	251.105	-0.089	0.154
-436.734	-91.984	-0.086	-0.025
-435.719	714.378	-0.036	0.097
-434.705	-177.323	-0.042	0.001
-433.690	-114.083	-0.085	0.017
-432.676	46.217	0.082	-0.077
-431.661	-200.000	-0.015	-0.255
-430.646	800.000	0.048	0.188
-429.632	-114.132	0.051	-0.010
-428.617	28.662	0.194	0.166
-427.603	-200.000	0.046	0.204
-426.588	800.000	0.038	-0.127
-425.573	133.302	0.081	-0.105
-424.559	-48.743	-0.273	-0.132
-423.544	162.120	0.130	0.185
-422.530	-200.000	0.034	0.180
-421.515	-200.000	-0.003	-0.220
-420.500	16.201	0.107	0.085
-419.486	-150.270	-0.140	-0.011
-418.471	213.953	0.164	0.262
-417.457	800.000	0.103	-0.322
-416.442	-77.560	0.246	-0.086
-415.428	-86.551	-0.247	0.077
-414.413	-200.000	0.005	0.222
-413.398	92.991	-0.083	0.094
-412.384	139.224	0.215	-0.286
-411.369	72.171	-0.078	-0.082
-410.355	-96.499	-0.055	-0.015
-409.340	34.260	-0.034	-0.030
-408.325	-81.744	-0.283	0.094
-407.311	402.788	0.140	-0.297
-406.296	-4.198	-0.203	0.142
-405.282	-200.000	0.017	0.102
-404.267	313.474	0.097	0.185
-403.252	47.957	0.182	0.172
-402.238	-200.000	0.004	0.116
-401.223	-74.126	0.364	-0.133
-400.209	-125.109	0.319	-0.049
-399.194	315.866	-0.151	0.287
-398.179	-93.217	0.070	0.020
-397.165	12.882	-0.087	-0.068
-396.150	-17.172	-0.058	-0.037
-395.136	-58.192	0.083	-0.036
-394.121	62.748	-0.228	0.230
-393.106	-168.792	-0.112	-0.004
-392.092	-85.976	-0.112	0.035
-391.077	-38.819	0.067	-0.036
-390.063	21.737	0.128	-0.105
-389.048	-200.000	0.040	-0.293
-388.033	-200.000	0.014	-0.112
-387.019	-123.208	-0.206	-0.033
-386.004	204.924	-0.082	-0.128
-384.990	-108.110	0.072	-0.016
-383.975	126.008	-0.214	-0.273
-382.960	78.926	-0.197	-0.212
-381.946	-118.168	-0.312	0.056
-380.931	567.872	-0.117	0.287
-379.917	207.538	0.170	-0.267
-378.902	800.000	0.132	-0.390
-377.888	109.410	0.078	-0.095
-376.873	299.898	0.086	-0.160
-375.858	80.464	-0.106	0.116
-374.844	800.000	-0.063	0.240
-373.829	-99.724	-0.130	-0.033
-372.815	636.642	0.141	-0.360
-371.800	-82.426	0.273	-0.090
-370.785	-200.000	-0.039	0.205
-369.771	-78.169	0.132	0.046
-368.756	-40.260	0.150	0.079
-367.742	337.500	-0.061	-0.120
-366.727	160.565	-0.100	0.141
-365.712	273.689	-0.091	0.163
-364.698	-153.195	-0.062	0.004
-363.683	249.288	-0.147	0.251
-362.669	10.742	0.133	-0.102
-361.654	-162.163	0.203	0.010
-360.639	-18.821	-0.143	0.090
-359.625	172.822	-0.048	-0.070
-358.610	800.000	-0.050	0.174
-357.596	-200.000	0.048	-0.258
-356.581	-45.914	0.353	0.176
-355.566	443.976	0.131	0.289
-354.552	-180.691	-0.135	-0.003
-353.537	800.000	0.064	0.232
-352.523	-132.300	-0.245	-0.032
-351.508	14.633	0.246	0.194
-350.493	-89.702	0.433	-0.128
-349.479	246.986	-0.157	-0.266
-348.464	-68.224	0.081	0.032
-347.450	210.221	-0.271	-0.429
-346.435	79.103	-0.081	-0.087
-345.420	143.900	-0.135	-0.182
-344.406	-117.208	0.268	0.049
-343.391	47.939	-0.043	-0.041
-342.377	19.242	-0.064	0.052
-341.362	157.711	0.044	0.061
-340.348	124.041	0.132	-0.167
-339.333	-56.302	-0.176	-0.079
-338.318	-28.673	0.220	0.128
-337.304	81.099	0.197	0.214
-336.289	295.917	-0.070	0.129
-335.275	-99.733	-0.384	-0.097
-334.260	-133.976	-0.159	0.020
-333.245	-74.788	0.192	0.070
-332.231	800.000	-0.073	0.231
-331.216	-22.272	-0.076	0.046
-330.202	-124.561	-0.274	0.043
-329.187	-114.113	-0.098	-0.019
-328.172	66.060	-0.253	-0.259
-327.158	800.000	0.022	0.067
-326.143	-51.370	-0.192	-0.090
-325.129	-9.803	-0.350	0.234
-324.114	140.307	-0.171	0.227
-323.099	-90.198	-0.152	0.044
-322.085	-200.000	-0.027	-0.389
-321.070	-200.000	0.004	-0.269
-320.056	-49.072	-0.155	0.074
-319.041	800.000	-0.065	0.182
-318.026	-200.000	0.006	-0.178
-317.012	15.691	0.041	0.032
-315.997	-200.000	0.024	0.115
-314.983	40.009	0.123	-0.111
-313.968	-200.000	-0.010	0.250
-312.953	140.652	-0.114	-0.151
-311.939	-60.226	-0.124	-0.053
-310.924	-200.000	-0.054	0.402
-309.910	73.442	0.031	-0.033
-308.895	-137.004	0.384	0.044
-307.880	-182.959	-0.151	0.003
-306.866	665.046	0.020	0.052
-305.851	-200.000	-0.029	-0.344
-304.837	-113.630	-0.185	0.036
-303.822	49.835	0.110	0.104
-302.807	432.692	-0.124	0.270
-301.793	3.284	-0.233	0.171
-300.778	800.000	-0.090	0.268
-299.764	-70.373	0.215	-0.082
-298.749	-110.185	-0.103	0.022
-297.735	-200.000	-0.034	0.254
-296.720	-200.000	0.018	0.128
-295.705	-10.474	0.178	0.119
-294.691	311.437	-0.085	0.159
-293.676	-111.513	0.411	-0.084
-292.662	800.000	-0.027	-0.111
-291.647	800.000	0.055	0.196
-290.632	-200.000	-0.025	-0.278
-289.618	167.672	0.221	-0.316
-288.603	-99.800	-0.109	-0.027
-287.589	-89.658	0.157	-0.046
-286.574	-86.393	0.112	0.035
-285.559	281.391	-0.146	0.264
-284.545	408.804	0.038	0.082
-283.530	786.481	-0.077	-0.211
-282.516	118.409	0.149	-0.185
-281.501	224.946	-0.130	0.212
-280.486	-200.000	-0.035	0.307
-279.472	-4.579	0.166	-0.116
-278.457	800.000	0.034	-0.117
-277.443	311.262	-0.077	0.144
-276.428	6.119	-0.104	-0.078
-275.413	-125.348	0.458	-0.070
-274.399	-200.000	0.046	0.355
-273.384	-56.193	0.079	-0.035
-272.370	-61.314	0.045	0.019
-271.355	-45.374	-0.332	-0.165
-270.340	800.000	-0.032	-0.090
-269.326	190.489	0.047	-0.071
-268.311	500.484	0.047	0.109
-267.297	156.081	0.093	0.129
-266.282	172.477	-0.111	-0.160
-265.267	-173.770	0.083	-0.002
-264.253	-71.964	0.117	0.044
-263.238	-200.000	-0.029	-0.269
-262.224	-122.263	0.147	0.024
-261.209	292.104	-0.047	-0.087
-260.195	-82.322	0.232	0.076
-259.180	-9.510	-0.217	0.145
-258.165	90.488	-0.277	-0.312
-257.151	-200.000	-0.032	0.164
-256.136	-200.000	-0.044	-0.391
-255.122	34.472	-0.261	-0.229
-254.107	203.030	-0.106	-0.164
-253.092	213.234	0.104	-0.166
-252.078	800.000	0.074	0.218
-251.063	75.817	0.293	0.311
-250.049	800.000	0.066	0.216
-249.034	198.557	-0.125	0.191
-248.019	260.990	-0.224	0.390
-247.005	-200.000	-0.007	0.077
-245.990	294.997	-0.100	-0.184
-244.976	46.892	-0.129	0.121
-243.961	171.443	-0.090	0.130
-242.946	6.196	-0.266	0.198
-241.932	800.000	-0.056	-0.229
-240.917	-200.000	-0.013	0.213
-239.903	-64.552	0.124	-0.050
-238.888	-66.026	-0.180	-0.072
-237.873	-200.000	0.064	-0.285
-236.859	-129.653	0.122	-0.017
-235.844	167.762	0.144	0.205
-234.830	-157.452	0.205	0.012
-233.815	128.619	0.063	0.081
-232.800	-200.000	0.028	-0.357
-231.786	-139.589	-0.214	0.023
-230.771	-28.584	0.089	0.051
-229.757	-166.227	0.403	0.017
-228.742	93.757	-0.183	-0.208
-227.727	-32.382	-0.128	-0.072
-226.713	-135.511	-0.122	0.015
-225.698	-115.441	0.064	0.012
-224.684	800.000	0.036	-0.136
-223.669	-113.018	0.282	-0.056
-222.655	-148.355	-0.181	0.015
-221.640	-111.618	0.356	-0.072
-220.625	-56.071	-0.036	0.016
-219.611	800.000	0.021	0.061
-218.596	-102.364	-0.142	-0.034
-217.582	-96.758	-0.266	-0.070
-216.567	-121.791	-0.225	0.037
-215.552	328.817	-0.085	0.164
-214.538	-200.000	0.035	-0.175
-213.523	-129.523	0.151	-0.021
-212.509	-133.697	0.096	0.012
-211.494	-28.010	0.141	0.082
-210.479	-96.683	0.039	-0.010
-209.465	-200.000	0.032	0.156
-208.450	125.148	0.093	0.117
-207.436	-104.011	0.100	-0.023
-206.421	-200.000	-0.004	0.282
-205.406	800.000	-0.091	0.393
-204.392	800.000	0.187	0.626
-203.377	200.253	0.195	0.300
-202.363	-43.555	-0.168	-0.085
-201.348	-108.270	0.266	-0.058
-200.333	472.162	0.060	-0.136
-199.319	-35.246	-0.274	0.149
-198.304	285.426	-0.107	-0.192
-197.290	420.010	-0.102	-0.219
-196.275	74.024	0.195	-0.205
-195.260	-129.968	0.029	0.004
-194.246	120.424	0.170	0.212
-193.231	5.340	-0.160	-0.119
-192.217	323.815	-0.121	-0.232
-191.202	-49.465	0.237	-0.113
-190.187	-64.958	-0.234	-0.095
-189.173	-3.055	0.243	0.170
-188.158	-68.278	0.194	-0.076
-187.144	-200.000	-0.018	0.354
-186.129	68.855	0.057	0.058
-185.114	-86.912	0.344	-0.105
-184.100	-43.187	-0.271	0.138
-183.085	14.761	0.208	0.163
-182.071	74.258	0.080	0.084
-181.056	387.440	0.113	-0.233
-180.042	220.376	0.209	0.335
-179.027	-97.927	0.239	-0.062
-178.012	397.524	0.059	-0.123
-176.998	800.000	0.101	-0.325
-175.983	-19.833	-0.160	0.099
-174.969	274.512	-0.256	0.454
-173.954	-200.000	0.051	0.256
-172.939	53.404	0.059	0.056
-171.925	569.439	0.081	-0.198
-170.910	-85.247	0.142	-0.044
-169.896	247.797	-0.153	0.258
-168.881	39.071	0.082	0.073
-167.866	201.856	0.080	0.124
-166.852	391.199	-0.184	0.382
-165.837	140.003	0.158	0.208
-164.823	204.736	0.130	0.201
-163.808	-200.000	-0.022	0.238
-162.793	-117.528	0.224	0.040
-161.779	354.965	0.088	-0.174
-160.764	6.418	0.101	-0.075
-159.750	800.000	0.088	0.290
-158.735	158.244	-0.194	0.269
-157.720	800.000	0.026	0.095
-156.706	61.589	0.062	0.061
-155.691	-78.130	0.196	-0.068
-154.677	300.042	0.087	-0.160
-153.662	-0.955	0.194	-0.137
-152.647	33.686	0.083	-0.072
-151.633	113.536	-0.155	-0.189
-150.618	151.469	-0.102	0.139
-149.604	155.294	0.104	0.143
-148.589	136.745	0.151	0.197
-147.574	157.462	-0.067	-0.093
-146.560	29.203	-0.177	0.150
-145.545	49.807	-0.043	-0.041
-144.531	-109.432	0.298	-0.063
-143.516	-81.672	0.231	-0.076
-142.502	800.000	-0.032	0.089
-141.487	15.055	0.168	0.132
-140.472	91.154	-0.097	-0.109
-139.458	338.606	-0.095	-0.185
-138.443	31.139	-0.039	-0.033
-137.429	65.256	-0.121	0.122
-136.414	-37.021	-0.130	-0.069
-135.399	534.188	0.093	-0.220
-134.385	800.000	0.027	0.093
-133.370	-107.518	-0.311	-0.068
-132.356	386.412	-0.138	-0.284
-131.341	700.595	-0.077	-0.202
-130.326	195.296	0.021	0.032
-129.312	2.755	0.101	-0.073
-128.297	-200.000	0.083	0.400
-127.283	-200.000	0.002	0.036
-126.268	374.542	0.090	-0.183
-125.253	421.241	0.071	0.153
-124.239	-109.726	0.067	-0.014
-123.224	261.497	0.047	-0.082
-122.210	80.154	0.032	-0.034
-121.195	303.715	0.085	-0.158
