DTS Sentinel unit serial number:	SN413079Multiplexer serial number:	ORYXHardware model number:	OX4-SRSoftware version number:	ORYX F/W v4.00 Oryx Data Collector v3.7.2.0data status	okinstallation	princeton_trtdifferential loss correction	single-endedforward channel	channel 1reverse channel	N/Adate	2019/09/17time	20:22:35forward acquisition time	60.00reverse acquisition time	0.00gamma	496.2192k internal	0.2327k external	0.2327temperature offset calibration	0.9978default loss term (dB/km)	0.3790temperature slope calibration	1.0000multiplexer offset coefficient	1.0000multiplexer slope coefficient	1.0000fibre end	0.00T internal ref (°C)	31.25T ext. ref 1 (°C)	0.22T ext. ref 2 (°C)	21.73length (m)	temperature (°C)	Stokes	anti-Stokes-747.200	32.364	0.151	0.131
-746.185	-200.000	0.085	0.593
-745.171	-98.154	0.384	-0.099
-744.156	24.285	0.199	0.166
-743.142	-130.568	-0.254	0.035
-742.127	-142.262	-0.161	-0.016
-741.112	-76.991	-0.196	-0.069
-740.098	67.421	0.077	0.079
-739.083	-200.000	0.049	-0.245
-738.069	-200.000	0.003	0.508
-737.054	76.159	0.041	0.043
-736.039	-91.420	-0.168	-0.048
-735.025	-200.000	0.017	-0.093
-734.010	657.128	-0.039	0.101
-732.996	800.000	-0.105	-0.313
-731.981	800.000	0.058	0.228
-730.966	800.000	0.102	-0.337
-729.952	-33.582	-0.234	-0.130
-728.937	48.278	-0.234	0.220
-727.923	-88.326	-0.297	0.089
-726.908	59.697	0.090	0.089
-725.894	95.229	-0.063	-0.072
-724.879	-75.010	0.139	-0.050
-723.864	112.584	0.097	-0.119
-722.850	151.135	-0.158	-0.216
-721.835	-112.277	0.203	-0.041
-720.821	-158.433	-0.120	0.007
-719.806	-115.137	0.448	-0.085
-718.791	158.662	-0.181	0.253
-717.777	-40.819	0.264	0.138
-716.762	263.600	-0.041	0.071
-715.748	156.606	-0.153	-0.213
-714.733	309.729	0.187	-0.353
-713.718	800.000	-0.096	-0.351
-712.704	-73.005	0.243	0.090
-711.689	459.868	0.069	-0.155
-710.675	413.020	-0.012	0.026
-709.660	703.850	-0.076	-0.202
-708.645	-131.093	0.132	0.018
-707.631	115.692	0.164	-0.202
-706.616	155.848	0.339	-0.471
-705.602	-200.000	0.021	0.209
-704.587	-71.134	-0.141	-0.053
-703.572	-78.377	-0.178	-0.061
-702.558	298.569	0.074	-0.138
-701.543	-85.655	0.156	0.049
-700.529	34.303	0.251	-0.221
-699.514	-66.501	-0.094	0.037
-698.499	-70.480	-0.058	-0.022
-697.485	800.000	-0.009	0.037
-696.470	-8.179	0.320	0.217
-695.456	-103.617	0.299	-0.071
-694.441	-200.000	-0.039	0.316
-693.426	-200.000	-0.039	0.266
-692.412	-126.675	0.371	-0.055
-691.397	136.702	0.099	0.130
-690.383	-45.207	0.180	0.090
-689.368	29.241	0.210	0.179
-688.354	-184.877	-0.223	-0.004
-687.339	-169.660	0.187	0.007
-686.324	-185.509	-0.194	0.003
-685.310	-57.885	-0.160	-0.071
-684.295	-164.522	-0.367	0.017
-683.281	523.052	-0.089	0.209
-682.266	641.820	-0.089	0.228
-681.251	253.012	-0.219	-0.376
-680.237	-51.533	-0.229	-0.108
-679.222	582.705	0.109	0.268
-678.208	1.551	-0.198	-0.143
-677.193	3.297	-0.080	-0.059
-676.178	269.882	-0.106	-0.188
-675.164	542.147	-0.064	-0.153
-674.149	-97.533	0.258	-0.067
-673.135	800.000	-0.054	0.212
-672.120	-104.557	0.230	-0.053
-671.105	-200.000	-0.016	-0.342
-670.091	-77.783	-0.197	0.069
-669.076	-123.581	-0.135	-0.022
-668.062	-139.112	-0.313	0.034
-667.047	89.589	0.088	0.099
-666.032	-77.321	0.133	-0.046
-665.018	58.226	-0.116	0.115
-664.003	-86.351	-0.044	-0.013
-662.989	39.048	-0.166	-0.149
-661.974	594.004	0.012	0.030
-660.959	-200.000	-0.011	0.132
-659.945	800.000	-0.008	-0.027
-658.930	560.775	0.052	0.125
-657.916	-92.463	0.156	0.044
-656.901	-77.349	-0.329	0.115
-655.886	-59.902	-0.100	0.043
-654.872	364.036	-0.174	-0.351
-653.857	-200.000	0.021	-0.148
-652.843	12.878	-0.350	0.272
-651.828	-131.911	0.102	0.013
-650.814	800.000	0.076	-0.251
-649.799	64.097	-0.196	-0.198
-648.784	424.239	-0.089	-0.193
-647.770	-200.000	-0.028	0.288
-646.755	-172.528	0.149	0.005
-645.741	487.936	-0.222	-0.508
-644.726	-200.000	-0.014	-0.067
-643.711	450.636	-0.052	-0.116
-642.697	-34.004	-0.223	0.123
-641.682	292.064	-0.131	-0.240
-640.668	-200.000	-0.047	-0.398
-639.653	-112.729	0.119	-0.024
-638.638	-53.743	-0.483	0.221
-637.624	190.570	-0.229	0.346
-636.609	-12.370	0.122	-0.080
-635.595	-136.554	-0.405	0.047
-634.580	-133.434	-0.057	-0.007
-633.565	-200.000	0.002	0.132
-632.551	800.000	0.059	-0.201
-631.536	123.452	-0.211	-0.266
-630.522	800.000	0.156	-0.460
-629.507	121.080	-0.140	-0.175
-628.492	-26.590	-0.075	-0.044
-627.478	800.000	-0.100	-0.283
-626.463	214.105	0.185	-0.293
-625.449	538.252	0.117	-0.278
-624.434	-89.747	-0.194	-0.057
-623.419	216.436	-0.101	0.162
-622.405	88.048	0.224	0.249
-621.390	-77.300	-0.148	-0.052
-620.376	-118.111	0.521	0.093
-619.361	-31.777	-0.213	0.120
-618.346	684.474	0.011	-0.028
-617.332	195.396	-0.026	0.039
-616.317	800.000	-0.053	-0.160
-615.303	51.389	-0.154	-0.147
-614.288	800.000	-0.040	-0.125
-613.273	-200.000	-0.023	0.291
-612.259	-200.000	-0.044	-0.221
-611.244	800.000	-0.041	-0.131
-610.230	-161.461	-0.215	-0.011
-609.215	800.000	0.025	-0.107
-608.201	-113.523	-0.321	0.063
-607.186	800.000	-0.048	0.139
-606.171	-200.000	0.026	-0.267
-605.157	508.993	-0.162	0.377
-604.142	800.000	0.019	0.078
-603.128	150.969	0.124	-0.169
-602.113	127.980	-0.150	0.191
-601.098	184.661	0.172	0.255
-600.084	73.030	0.146	0.153
-599.069	381.521	-0.032	-0.065
-598.055	522.263	-0.078	0.183
-597.040	57.571	0.034	0.033
-596.025	62.342	0.225	0.225
-595.011	-117.580	0.095	0.017
-593.996	-66.852	-0.214	-0.085
-592.982	-60.889	-0.177	-0.075
-591.967	-200.000	0.015	0.256
-590.952	56.364	0.135	-0.131
-589.938	-200.000	-0.016	0.179
-588.923	14.283	0.306	-0.239
-587.909	-200.000	0.002	0.316
-586.894	50.590	0.090	0.085
-585.879	-87.515	0.074	0.022
-584.865	405.912	-0.122	-0.258
-583.850	-145.885	-0.092	-0.008
-582.836	-200.000	-0.017	0.277
-581.821	2.206	-0.006	0.005
-580.806	150.405	0.195	-0.265
-579.792	194.780	0.043	-0.065
-578.777	-54.147	0.109	-0.050
-577.763	134.190	-0.088	-0.114
-576.748	725.957	-0.057	0.151
-575.733	-61.638	-0.161	0.068
-574.719	-8.374	0.090	-0.061
-573.704	71.883	-0.108	0.113
-572.690	63.145	0.247	-0.248
-571.675	800.000	0.054	0.171
-570.661	76.185	0.204	-0.216
-569.646	800.000	0.028	0.101
-568.631	106.103	0.044	-0.052
-567.617	680.495	-0.113	-0.294
-566.602	800.000	-0.095	-0.335
-565.588	39.305	-0.065	0.059
-564.573	-168.922	-0.281	-0.011
-563.558	73.229	-0.159	-0.167
-562.544	364.535	0.208	0.418
-561.529	-4.678	-0.122	0.084
-560.515	-124.005	-0.093	0.015
-559.500	-93.871	-0.236	-0.065
-558.485	-24.339	0.196	-0.117
-557.471	-200.000	0.077	-0.434
-556.456	-200.000	0.026	-0.265
-555.442	800.000	-0.078	0.260
-554.427	800.000	-0.063	0.209
-553.412	305.870	-0.101	0.187
-552.398	98.874	-0.089	-0.103
-551.383	-158.158	-0.119	-0.007
-550.369	800.000	-0.045	-0.163
-549.354	800.000	0.052	-0.179
-548.339	12.467	0.089	0.068
-547.325	-200.000	0.005	-0.080
-546.310	79.090	0.123	0.132
-545.296	-168.568	-0.253	0.010
-544.281	-200.000	-0.032	-0.146
-543.266	-94.470	-0.310	-0.085
-542.252	-39.987	0.056	0.029
-541.237	-200.000	0.007	0.085
-540.223	84.329	0.069	0.075
-539.208	5.152	-0.168	0.124
-538.193	-95.417	-0.089	-0.024
-537.179	173.822	-0.027	0.039
-536.164	-111.008	0.778	0.160
-535.150	-85.169	0.444	-0.139
-534.135	800.000	-0.021	0.057
-533.121	214.913	0.167	0.264
-532.106	-38.699	-0.088	0.047
-531.091	69.708	0.053	-0.055
-530.077	161.001	-0.127	0.177
-529.062	-170.418	0.106	0.004
-528.048	800.000	0.029	0.104
-527.033	-170.211	-0.071	0.003
-526.018	83.226	-0.080	-0.087
-525.004	-113.817	-0.137	-0.027
-523.989	-200.000	-0.006	-0.194
-522.975	2.867	0.107	0.077
-521.960	-200.000	-0.005	0.053
-520.945	800.000	0.167	0.501
-519.931	-173.670	0.199	0.006
-518.916	-66.358	0.246	-0.098
-517.902	800.000	0.049	0.212
-516.887	170.511	-0.099	0.141
-515.872	-200.000	-0.021	0.235
-514.858	33.593	-0.123	0.106
-513.843	-124.024	-0.063	-0.010
-512.829	254.349	-0.111	-0.190
-511.814	-200.000	0.001	0.295
-510.799	-200.000	0.010	-0.144
-509.785	800.000	-0.076	-0.330
-508.770	30.584	-0.265	-0.227
-507.756	-63.829	-0.233	-0.095
-506.741	800.000	0.069	0.245
-505.726	-200.000	-0.039	0.207
-504.712	-29.296	0.258	0.148
-503.697	-200.000	0.017	-0.175
-502.683	-186.858	-0.032	0.000
-501.668	341.436	-0.127	-0.247
-500.653	-51.136	0.096	0.045
-499.639	-170.848	0.126	-0.004
-498.624	-58.987	-0.428	0.184
-497.610	280.025	-0.107	-0.190
-496.595	-24.887	0.124	-0.073
-495.581	121.453	-0.158	-0.196
-494.566	-30.936	0.241	-0.136
-493.551	-44.678	-0.297	-0.148
-492.537	-4.431	-0.100	0.069
-491.522	150.255	0.297	-0.403
-490.508	502.693	0.129	-0.299
-489.493	-13.344	0.223	0.145
-488.478	-167.651	0.318	0.013
-487.464	153.644	-0.097	-0.132
-486.449	411.359	-0.070	-0.148
-485.435	772.788	0.060	-0.162
-484.420	326.937	0.101	-0.192
-483.405	304.987	0.168	-0.312
-482.391	121.548	-0.046	0.057
-481.376	204.913	0.067	-0.104
-480.362	-102.630	-0.150	0.036
-479.347	-200.000	-0.032	-0.228
-478.332	374.522	-0.096	0.195
-477.318	800.000	-0.082	0.252
-476.303	800.000	0.038	0.121
-475.289	-42.230	0.232	-0.118
-474.274	-200.000	-0.019	0.126
-473.259	800.000	-0.059	-0.166
-472.245	-40.255	0.054	0.028
-471.230	-140.496	-0.216	0.022
-470.216	-200.000	-0.002	0.316
-469.201	232.161	-0.045	-0.074
-468.186	-200.000	0.015	-0.075
-467.172	-125.087	-0.262	0.040
-466.157	35.843	-0.127	-0.112
-465.143	-200.000	-0.087	0.000
-464.128	-168.487	0.027	-0.001
-463.113	426.722	0.029	-0.063
-462.099	-73.433	0.572	-0.208
-461.084	-24.157	0.169	-0.101
-460.070	196.796	0.070	-0.107
-459.055	-200.000	0.013	0.157
-458.040	-192.472	-0.255	-0.002
-457.026	3.808	-0.273	0.199
-456.011	129.983	0.283	-0.361
-454.997	6.568	-0.236	-0.175
-453.982	-50.801	-0.132	-0.062
-452.968	-200.000	-0.003	0.086
-451.953	162.729	-0.163	-0.228
-450.938	-92.553	-0.353	-0.099
-449.924	86.453	-0.124	-0.136
-448.909	-32.009	0.317	0.177
-447.895	-200.000	0.002	-0.129
-446.880	296.257	-0.079	0.144
-445.865	-137.838	-0.097	-0.011
-444.851	10.117	0.240	-0.181
-443.836	-85.390	-0.165	-0.051
-442.822	-200.000	0.035	0.238
-441.807	-16.480	0.231	-0.146
-440.792	-200.000	-0.000	0.181
-439.778	-200.000	0.046	-0.319
-438.763	510.832	-0.049	0.113
-437.749	800.000	-0.089	-0.321
-436.734	-32.594	-0.067	-0.037
-435.719	77.561	0.135	-0.143
-434.705	271.300	0.129	-0.226
-433.690	-111.977	-0.472	-0.095
-432.676	-47.931	0.028	-0.013
-431.661	28.949	-0.190	-0.161
-430.646	135.055	-0.094	-0.121
-429.632	78.911	-0.032	-0.034
-428.617	800.000	0.029	0.091
-427.603	209.887	-0.153	0.238
-426.588	11.668	0.028	-0.022
-425.573	428.188	-0.093	-0.199
-424.559	20.769	-0.154	0.124
-423.544	-86.658	-0.290	0.088
-422.530	-44.387	-0.054	0.027
-421.515	800.000	0.062	0.226
-420.500	-149.264	0.235	0.019
-419.486	-200.000	0.008	-0.314
-418.471	-200.000	0.041	-0.282
-417.457	461.562	-0.051	0.113
-416.442	250.749	0.124	-0.209
-415.428	133.314	-0.133	-0.172
-414.413	265.920	-0.195	-0.338
-413.398	223.494	0.059	-0.094
-412.384	800.000	0.094	0.275
-411.369	-101.310	0.240	0.058
-410.355	-97.656	-0.066	0.017
-409.340	-200.000	0.014	-0.129
-408.325	-102.912	-0.362	-0.085
-407.311	-200.000	0.075	0.329
-406.296	8.163	0.186	-0.139
-405.282	8.111	0.206	-0.154
-404.267	-200.000	0.021	0.303
-403.252	-179.062	0.053	0.001
-402.238	800.000	-0.031	0.118
-401.223	-200.000	0.032	-0.145
-400.209	-152.137	0.128	0.009
-399.194	-35.456	-0.334	-0.181
-398.179	14.828	0.201	-0.156
-397.165	800.000	0.049	-0.141
-396.150	134.759	0.090	0.117
-395.136	800.000	0.048	0.192
-394.121	718.469	-0.090	-0.238
-393.106	171.196	0.211	0.301
-392.092	-167.878	-0.114	-0.004
-391.077	34.901	-0.240	0.208
-390.063	501.181	0.080	0.183
-389.048	-28.824	0.099	-0.057
-388.033	-12.432	-0.361	-0.234
-387.019	-112.634	0.188	0.037
-386.004	800.000	0.080	-0.272
-384.990	30.746	-0.161	0.137
-383.975	-134.769	-0.243	-0.029
-382.960	-200.000	-0.031	0.136
-381.946	-200.000	-0.055	0.281
-380.931	81.364	-0.083	-0.089
-379.917	-64.674	0.306	0.123
-378.902	-200.000	0.060	0.447
-377.888	-200.000	0.009	-0.063
-376.873	-112.538	0.198	-0.039
-375.858	249.776	0.140	-0.236
-374.844	-166.134	-0.253	-0.011
-373.829	581.595	-0.092	0.224
-372.815	-26.034	-0.085	0.049
-371.800	284.745	-0.099	-0.178
-370.785	243.182	-0.104	-0.173
-369.771	-69.417	-0.221	0.084
-368.756	-200.000	0.035	-0.153
-367.742	7.848	0.353	0.263
-366.727	666.824	0.042	0.108
-365.712	173.093	0.078	0.111
-364.698	-19.018	0.371	-0.229
-363.683	164.087	0.251	-0.351
-362.669	-142.493	-0.278	0.027
-361.654	800.000	0.031	-0.112
-360.639	-40.947	-0.139	0.071
-359.625	-91.932	-0.246	-0.069
-358.610	178.070	-0.201	-0.291
-357.596	800.000	0.110	0.343
-356.581	7.963	0.195	0.145
-355.566	-200.000	-0.031	0.179
-354.552	-52.086	-0.381	0.176
-353.537	-200.000	-0.055	-0.347
-352.523	-200.000	-0.042	-0.297
-351.508	-126.559	0.355	-0.052
-350.493	800.000	-0.073	-0.232
-349.479	-200.000	-0.019	0.300
-348.464	-16.550	0.242	0.152
-347.450	-200.000	-0.028	-0.266
-346.435	-200.000	-0.004	-0.168
-345.420	-11.536	-0.215	-0.140
-344.406	257.449	-0.087	-0.148
-343.391	-191.523	0.299	0.003
-342.377	-163.418	0.145	-0.007
-341.362	-76.325	0.382	-0.133
-340.348	800.000	-0.190	-0.565
-339.333	90.352	-0.225	0.250
-338.318	-200.000	0.004	0.250
-337.304	24.948	0.256	-0.211
-336.289	-200.000	-0.033	-0.251
-335.275	47.705	0.219	0.203
-334.260	446.555	-0.045	0.099
-333.245	255.878	-0.116	0.197
-332.231	30.983	0.323	0.275
-331.216	-16.141	-0.113	-0.071
-330.202	-90.065	0.225	0.065
-329.187	-200.000	0.001	0.343
-328.172	44.972	0.156	-0.142
-327.158	1.313	-0.170	0.121
-326.143	640.264	-0.094	0.236
-325.129	-200.000	0.004	-0.170
-324.114	800.000	-0.115	-0.362
-323.099	-0.293	-0.099	0.070
-322.085	-108.937	-0.052	-0.011
-321.070	-200.000	-0.017	-0.107
-320.056	-61.230	-0.124	-0.052
-319.041	800.000	-0.052	0.177
-318.026	800.000	0.083	-0.345
-317.012	-200.000	0.021	-0.126
-315.997	-8.305	0.263	-0.175
-314.983	-87.092	-0.300	0.091
-313.968	-97.738	-0.238	0.061
-312.953	-94.810	0.217	0.058
-311.939	173.879	-0.076	0.108
-310.924	-190.271	-0.095	-0.001
-309.910	33.266	-0.195	-0.167
-308.895	-160.144	-0.486	-0.026
-307.880	-85.836	0.077	-0.024
-306.866	560.737	0.028	-0.067
-305.851	-66.610	0.106	0.042
-304.837	-200.000	0.047	0.208
-303.822	8.539	0.030	-0.023
-302.807	36.298	-0.203	0.177
-301.793	-36.461	0.317	0.169
-300.778	800.000	0.062	0.245
-299.764	-200.000	0.047	0.306
-298.749	-101.670	0.172	-0.041
-297.735	250.770	0.109	0.184
-296.720	800.000	-0.074	-0.203
-295.705	489.081	-0.100	0.226
-294.691	45.498	0.041	0.038
-293.676	-200.000	-0.032	-0.251
-292.662	-200.000	-0.010	-0.097
-291.647	-200.000	0.008	-0.123
-290.632	-200.000	-0.017	-0.271
-289.618	123.998	0.019	0.023
-288.603	220.489	-0.220	0.350
-287.589	-200.000	-0.049	0.312
-286.574	-20.872	-0.121	-0.074
-285.559	-5.108	0.135	-0.092
-284.545	-89.511	-0.289	0.084
-283.530	92.448	-0.097	0.108
-282.516	800.000	-0.092	0.263
-281.501	-17.650	0.300	0.187
-280.486	383.738	-0.069	-0.140
-279.472	675.103	0.125	-0.322
-278.457	-78.414	0.227	-0.077
-277.443	-14.736	-0.152	-0.097
-276.428	800.000	0.065	0.265
-275.413	-103.773	-0.266	-0.062
-274.399	197.995	0.106	0.160
-273.384	-102.185	0.180	-0.043
-272.370	668.762	0.119	-0.304
-271.355	532.585	-0.106	-0.247
-270.340	800.000	0.094	0.279
-269.326	736.499	0.134	0.356
-268.311	-188.116	-0.200	0.003
-267.297	-109.423	0.392	0.082
-266.282	772.814	-0.064	-0.173
-265.267	317.579	0.107	0.199
-264.253	15.145	-0.182	0.141
-263.238	-19.769	0.360	-0.220
-262.224	515.877	-0.021	0.049
-261.209	800.000	0.115	0.432
-260.195	-12.035	-0.099	0.064
-259.180	-55.409	-0.170	0.075
-258.165	-40.924	-0.206	0.105
-257.151	-155.460	0.242	-0.015
-256.136	-200.000	0.013	0.064
-255.122	-200.000	-0.029	0.248
-254.107	-117.359	0.069	-0.012
-253.092	208.710	-0.141	-0.219
-252.078	357.966	0.222	-0.439
-251.063	103.155	-0.110	0.127
-250.049	-200.000	0.067	-0.316
-249.034	-100.236	-0.229	-0.056
-248.019	105.924	-0.220	-0.257
-247.005	800.000	0.118	0.390
-245.990	-46.293	0.258	0.126
-244.976	-0.730	-0.101	-0.071
-243.961	-76.803	-0.104	-0.036
-242.946	69.242	0.204	-0.207
-241.932	-108.722	-0.202	-0.043
-240.917	-200.000	-0.005	0.212
-239.903	386.057	0.166	0.338
-238.888	8.558	0.138	0.103
-237.873	361.378	0.166	0.329
-236.859	-200.000	-0.044	-0.343
-235.844	-100.532	-0.079	0.019
-234.830	-134.000	-0.304	0.037
-233.815	-200.000	0.029	-0.000
-232.800	35.500	0.195	0.169
-231.786	-73.958	0.282	0.101
-230.771	-94.791	-0.306	0.082
-229.757	-200.000	0.025	-0.281
-228.742	217.798	0.030	0.047
-227.727	119.205	0.037	-0.045
-226.713	-67.264	0.255	0.099
-225.698	-100.502	0.076	0.019
-224.684	410.209	-0.062	0.131
-223.669	312.849	-0.080	-0.148
-222.655	-200.000	-0.006	0.164
-221.640	290.651	0.057	0.103
-220.625	-56.830	0.128	-0.056
-219.611	38.764	0.195	0.172
-218.596	-200.000	0.044	0.224
-217.582	-142.621	0.155	0.015
-216.567	800.000	-0.069	-0.214
-215.552	-200.000	-0.005	0.358
-214.538	119.210	-0.073	0.089
-213.523	-108.371	0.342	-0.073
-212.509	-26.302	-0.511	0.296
-211.494	800.000	0.047	-0.186
-210.479	120.774	-0.099	-0.122
-209.465	-88.200	0.115	-0.034
-208.450	-75.271	-0.236	-0.083
-207.436	51.726	-0.224	0.210
-206.421	-6.283	0.182	0.122
-205.406	-200.000	0.061	0.359
-204.392	280.464	-0.174	0.307
-203.377	-4.672	0.142	-0.097
-202.363	-64.656	0.241	0.096
-201.348	-102.887	0.265	0.062
-200.333	-125.656	-0.109	-0.016
-199.319	186.572	-0.026	-0.038
-198.304	-55.291	0.384	-0.170
-197.290	-18.232	-0.251	-0.155
-196.275	263.362	0.093	0.160
-195.260	-43.380	-0.135	-0.068
-194.246	-110.295	0.273	-0.056
-193.231	62.907	0.183	0.181
-192.217	-89.972	0.247	0.071
-191.202	800.000	-0.076	0.329
-190.187	154.933	0.077	0.104
-189.173	-188.230	0.095	0.001
-188.158	-15.445	0.063	-0.039
-187.144	800.000	0.042	0.159
-186.129	-0.092	0.153	0.107
-185.114	158.301	0.025	-0.035
-184.100	581.143	-0.139	0.336
-183.085	-69.033	0.232	0.088
-182.071	-200.000	-0.018	-0.123
-181.056	-49.559	-0.086	0.040
-180.042	1.509	0.125	-0.088
-179.027	-200.000	0.045	0.209
-178.012	-167.641	0.163	0.006
-176.998	-133.761	-0.127	-0.016
-175.983	-144.021	-0.266	0.025
-174.969	155.671	0.081	0.110
-173.954	135.482	0.062	-0.079
-172.939	147.781	-0.118	-0.157
-171.925	800.000	-0.114	0.332
-170.910	-200.000	-0.054	0.342
-169.896	-102.222	0.190	-0.045
-168.881	-9.822	-0.202	0.132
-167.866	-34.049	-0.207	-0.112
-166.852	-32.935	0.170	-0.093
-165.837	403.354	0.033	0.069
-164.823	-200.000	0.008	-0.121
-163.808	149.814	0.022	0.030
-162.793	-117.958	0.280	0.049
-161.779	80.321	0.107	-0.114
-160.764	246.488	0.181	0.300
-159.750	-200.000	0.012	0.383
-158.735	-121.611	0.089	-0.015
-157.720	-86.068	-0.260	-0.079
-156.706	-200.000	-0.018	-0.209
-155.691	-29.331	0.095	-0.054
-154.677	-200.000	0.090	0.464
-153.662	337.852	0.170	0.326
-152.647	-46.813	-0.144	0.069
-151.633	-15.529	0.472	-0.297
-150.618	800.000	0.095	0.260
-149.604	720.491	0.031	-0.080
-148.589	-99.735	0.581	-0.143
-147.574	-77.445	0.139	0.047
-146.560	-185.275	0.147	0.002
-145.545	-6.061	-0.103	0.070
-144.531	-31.929	-0.068	0.037
-143.516	-88.375	0.423	0.125
-142.502	-138.472	-0.282	-0.031
-141.487	-36.923	0.265	0.140
-140.472	-14.543	-0.090	-0.057
-139.458	-200.000	-0.030	-0.293
-138.443	88.514	0.230	0.252
-137.429	135.589	0.092	-0.118
-136.414	111.535	-0.204	0.242
-135.399	-200.000	0.036	0.175
-134.385	129.001	-0.159	0.200
-133.370	513.857	-0.124	0.284
-132.356	-200.000	0.021	0.225
-131.341	-200.000	0.003	0.060
-130.326	-106.690	0.149	-0.032
-129.312	460.642	0.013	-0.028
-128.297	-106.432	0.142	0.031
-127.283	-51.582	0.240	-0.110
-126.268	196.518	0.082	-0.122
-125.253	800.000	0.026	0.108
-124.239	-74.694	-0.188	-0.067
-123.224	13.550	0.160	-0.122
-122.210	-200.000	-0.013	0.275
