DTS Sentinel unit serial number:	SN413079Multiplexer serial number:	ORYXHardware model number:	OX4-SRSoftware version number:	ORYX F/W v4.00 Oryx Data Collector v3.7.2.0data status	okinstallation	princeton_trtdifferential loss correction	single-endedforward channel	channel 1reverse channel	N/Adate	2019/09/15time	11:26:35forward acquisition time	60.00reverse acquisition time	0.00gamma	496.2192k internal	0.2308k external	0.2308temperature offset calibration	0.9990default loss term (dB/km)	0.3790temperature slope calibration	1.0000multiplexer offset coefficient	1.0000multiplexer slope coefficient	1.0000fibre end	0.00T internal ref (°C)	34.31T ext. ref 1 (°C)	5.03T ext. ref 2 (°C)	29.66length (m)	temperature (°C)	Stokes	anti-Stokes-747.200	197.807	0.236	0.367
-746.185	800.000	-0.145	0.449
-745.171	-200.000	-0.013	-0.088
-744.156	166.044	-0.308	0.443
-743.142	-33.260	0.021	0.012
-742.127	177.008	-0.234	0.347
-741.112	-150.328	-0.339	-0.027
-740.098	800.000	0.040	0.163
-739.083	-168.077	0.179	-0.007
-738.069	234.475	-0.068	0.114
-737.054	73.475	0.189	-0.201
-736.039	111.109	-0.073	0.090
-735.025	-60.180	0.318	-0.138
-734.010	800.000	0.063	0.252
-732.996	-59.925	-0.195	-0.084
-731.981	-18.186	-0.226	0.144
-730.966	-200.000	0.042	-0.280
-729.952	54.916	-0.126	-0.123
-728.937	-41.551	-0.303	-0.158
-727.923	95.030	0.042	-0.048
-726.908	800.000	0.096	-0.302
-725.894	27.322	0.255	-0.218
-724.879	-64.201	-0.092	-0.038
-723.864	276.867	-0.068	-0.122
-722.850	51.233	-0.167	-0.161
-721.835	-187.861	-0.099	0.001
-720.821	-52.514	0.367	-0.172
-719.806	195.407	-0.118	0.182
-718.791	800.000	-0.075	0.265
-717.777	-123.815	-0.336	-0.054
-716.762	-200.000	0.021	-0.341
-715.748	-94.937	-0.205	-0.056
-714.733	800.000	-0.018	0.067
-713.718	490.046	0.159	-0.368
-712.704	234.097	-0.035	-0.058
-711.689	-67.487	-0.430	0.171
-710.675	40.423	0.129	-0.118
-709.660	-170.808	-0.150	-0.005
-708.645	-3.052	-0.086	0.061
-707.631	-42.572	0.036	0.019
-706.616	114.493	-0.114	-0.141
-705.602	-200.000	0.000	-0.263
-704.587	9.617	-0.170	0.130
-703.572	10.922	0.145	-0.112
-702.558	43.223	-0.177	-0.164
-701.543	-135.825	-0.263	-0.032
-700.529	275.637	-0.119	0.214
-699.514	-200.000	-0.002	0.190
-698.499	-200.000	0.016	-0.314
-697.485	127.009	-0.221	-0.285
-696.470	800.000	0.031	0.130
-695.456	178.234	-0.107	0.158
-694.441	-50.478	0.282	-0.135
-693.426	-200.000	-0.009	-0.188
-692.412	-55.054	-0.230	-0.105
-691.397	-80.844	-0.364	-0.122
-690.383	423.970	0.072	0.156
-689.368	-98.211	0.176	0.046
-688.354	49.406	0.084	-0.080
-687.339	-43.630	-0.097	-0.049
-686.324	346.146	-0.100	-0.200
-685.310	-109.166	-0.382	-0.082
-684.295	452.537	0.159	-0.356
-683.281	-200.000	-0.071	-0.456
-682.266	-126.024	-0.034	-0.005
-681.251	-200.000	-0.019	0.176
-680.237	336.341	-0.162	-0.319
-679.222	800.000	0.021	-0.059
-678.208	-10.656	-0.246	-0.165
-677.193	-38.817	0.292	0.156
-676.178	77.515	-0.325	-0.350
-675.164	-200.000	-0.014	0.135
-674.149	-95.250	-0.301	-0.082
-673.135	184.593	-0.218	-0.328
-672.120	33.086	-0.211	0.186
-671.105	-200.000	-0.024	-0.110
-670.091	124.112	0.292	-0.372
-669.076	703.074	0.068	-0.182
-668.062	-200.000	0.002	-0.320
-667.047	-200.000	-0.007	-0.199
-666.032	-160.891	-0.553	-0.030
-665.018	4.888	-0.042	0.032
-664.003	686.704	0.042	-0.112
-662.989	-200.000	0.011	-0.105
-661.974	-200.000	-0.014	0.237
-660.959	800.000	-0.034	0.096
-659.945	359.346	0.136	0.276
-658.930	-138.577	-0.258	-0.029
-657.916	35.813	0.055	0.049
-656.901	23.686	0.149	0.124
-655.886	-200.000	-0.032	-0.415
-654.872	417.450	-0.116	-0.250
-653.857	-200.000	0.017	0.137
-652.843	201.349	0.099	-0.155
-651.828	-88.036	0.062	-0.019
-650.814	155.693	-0.129	-0.180
-649.799	-200.000	0.012	0.152
-648.784	51.208	0.176	0.169
-647.770	-6.889	0.180	-0.124
-646.755	-20.171	0.212	0.132
-645.741	-81.375	-0.297	0.099
-644.726	-200.000	0.030	0.381
-643.711	40.348	-0.410	-0.374
-642.697	457.772	-0.019	0.042
-641.682	-35.669	0.269	0.148
-640.668	11.312	-0.056	-0.044
-639.653	-200.000	-0.009	-0.205
-638.638	296.589	-0.107	0.198
-637.624	70.454	-0.083	0.087
-636.609	-109.254	0.209	0.045
-635.595	65.257	0.141	-0.144
-634.580	451.422	-0.036	0.081
-633.565	87.441	-0.141	0.158
-632.551	-200.000	-0.153	0.000
-631.536	132.623	-0.199	-0.260
-630.522	134.163	-0.082	-0.107
-629.507	110.851	0.111	-0.136
-628.492	800.000	0.091	-0.339
-627.478	470.979	0.084	0.191
-626.463	41.921	0.226	-0.207
-625.449	497.934	0.001	-0.003
-624.434	12.299	-0.093	0.073
-623.419	-200.000	-0.018	-0.417
-622.405	102.930	-0.111	-0.131
-621.390	37.240	0.291	0.261
-620.376	689.989	-0.131	0.347
-619.361	-200.000	-0.013	0.181
-618.346	-41.145	-0.037	0.019
-617.332	-200.000	0.004	-0.185
-616.317	-160.665	0.125	-0.007
-615.303	800.000	-0.078	-0.234
-614.288	385.733	-0.077	-0.162
-613.273	292.434	0.062	0.114
-612.259	-95.590	-0.292	0.079
-611.244	-183.259	0.123	-0.002
-610.230	-135.853	0.363	0.043
-609.215	-9.452	-0.303	-0.204
-608.201	-20.778	-0.316	0.196
-607.186	163.549	0.160	-0.227
-606.171	-147.630	0.195	0.017
-605.157	-46.804	-0.348	0.172
-604.142	-200.000	-0.048	-0.229
-603.128	-52.490	-0.057	-0.027
-602.113	-70.450	0.161	0.062
-601.098	200.391	-0.053	0.082
-600.084	150.777	-0.169	0.232
-599.069	800.000	0.078	0.270
-598.055	53.152	-0.254	-0.246
-597.040	257.001	0.048	-0.083
-596.025	-200.000	-0.019	0.245
-595.011	-184.446	-0.132	-0.002
-593.996	-200.000	-0.005	-0.272
-592.982	-142.811	-0.061	0.006
-591.967	-18.804	-0.269	0.169
-590.952	264.379	0.107	0.189
-589.938	-103.881	0.167	0.039
-588.923	-146.863	0.102	-0.009
-587.909	-33.846	0.132	0.073
-586.894	509.421	-0.063	-0.148
-585.879	511.370	0.221	-0.519
-584.865	-137.614	-0.143	0.016
-583.850	56.310	-0.059	-0.058
-582.836	800.000	0.040	0.140
-581.821	794.338	0.105	0.291
-580.806	-16.990	-0.223	-0.142
-579.792	-80.681	0.121	-0.041
-578.777	-200.000	-0.002	-0.220
-577.763	-64.250	-0.225	-0.092
-576.748	-119.720	0.265	-0.046
-575.733	-84.048	-0.216	-0.069
-574.719	800.000	0.028	-0.116
-573.704	-200.000	-0.029	-0.308
-572.690	-200.000	-0.026	0.201
-571.675	-66.345	-0.362	0.145
-570.661	-97.866	0.300	0.078
-569.646	-89.889	0.285	0.084
-568.631	185.420	-0.225	-0.337
-567.617	33.236	-0.082	-0.071
-566.602	-200.000	-0.019	0.096
-565.588	256.542	0.103	0.178
-564.573	800.000	-0.087	-0.252
-563.558	-200.000	-0.046	0.244
-562.544	-10.371	-0.212	0.142
-561.529	-200.000	0.016	0.379
-560.515	493.573	-0.123	0.285
-559.500	50.583	0.308	-0.294
-558.485	-53.460	-0.061	-0.028
-557.471	-52.700	0.131	0.061
-556.456	715.302	0.079	-0.211
-555.442	-96.712	-0.177	0.047
-554.427	-36.019	-0.187	-0.102
-553.412	16.111	0.207	-0.164
-552.398	389.237	0.049	-0.102
-551.383	-148.476	-0.324	0.027
-550.369	800.000	-0.042	0.145
-549.354	91.210	-0.058	-0.066
-548.339	732.860	-0.062	0.167
-547.325	-93.154	-0.209	-0.059
-546.310	205.441	0.234	0.366
-545.296	800.000	-0.057	0.239
-544.281	-111.459	-0.231	0.047
-543.266	-56.801	-0.250	-0.111
-542.252	183.978	0.051	-0.076
-541.237	-200.000	0.031	0.242
-540.223	800.000	0.020	0.075
-539.208	-200.000	-0.012	0.111
-538.193	-154.754	-0.017	-0.001
-537.179	191.038	-0.186	-0.282
-536.164	211.863	-0.168	-0.266
-535.150	-57.401	-0.134	0.059
-534.135	45.103	0.250	-0.232
-533.121	-200.000	0.027	-0.146
-532.106	-200.000	-0.020	0.173
-531.091	40.602	-0.061	0.056
-530.077	175.137	0.112	-0.163
-529.062	73.152	0.170	0.179
-528.048	143.316	-0.114	-0.153
-527.033	195.305	0.145	-0.222
-526.018	-200.000	0.025	-0.232
-525.004	-31.428	0.113	0.064
-523.989	-75.798	0.374	-0.134
-522.975	30.921	0.240	0.207
-521.960	-78.737	-0.313	-0.108
-520.945	7.414	-0.300	0.226
-519.931	-88.571	0.494	-0.148
-518.916	22.511	-0.297	-0.244
-517.902	100.977	-0.211	-0.247
-516.887	-200.000	0.011	-0.185
-515.872	-171.617	0.100	0.003
-514.858	13.099	-0.201	-0.156
-513.843	-63.259	0.044	-0.018
-512.829	800.000	-0.059	-0.187
-511.814	33.827	-0.184	-0.161
-510.799	-111.611	0.271	0.055
-509.785	19.469	0.234	0.189
-508.770	56.642	0.093	0.091
-507.756	-166.805	0.162	0.007
-506.741	-26.718	-0.018	0.011
-505.726	242.930	-0.069	0.117
-504.712	-84.412	-0.171	0.054
-503.697	-13.718	0.199	0.129
-502.683	622.294	-0.083	-0.210
-501.668	800.000	0.070	0.226
-500.653	-200.000	0.005	-0.096
-499.639	-126.178	-0.130	-0.020
-498.624	-132.763	0.280	0.036
-497.610	-117.446	-0.217	0.040
-496.595	100.495	0.433	0.506
-495.581	-30.366	-0.192	0.110
-494.566	62.004	0.203	0.204
-493.551	268.463	0.169	0.297
-492.537	800.000	-0.038	-0.154
-491.522	-81.285	0.168	0.056
-490.508	-101.401	0.211	0.052
-489.493	-200.000	0.005	0.094
-488.478	-76.694	-0.292	0.103
-487.464	-200.000	-0.261	0.000
-486.449	256.515	0.150	0.260
-485.435	-31.751	-0.385	0.217
-484.420	800.000	-0.128	0.372
-483.405	-162.356	0.215	0.011
-482.391	-200.000	-0.048	-0.443
-481.376	800.000	-0.044	0.158
-480.362	-118.054	-0.074	0.013
-479.347	348.743	0.043	-0.085
-478.332	-56.844	0.278	-0.124
-477.318	-108.255	-0.299	-0.065
-476.303	-27.526	0.092	0.054
-475.289	129.358	0.086	0.111
-474.274	-60.083	0.126	0.054
-473.259	-98.157	-0.187	0.048
-472.245	-89.964	0.073	0.022
-471.230	63.103	0.312	-0.314
-470.216	-200.000	0.028	0.199
-469.201	-200.000	-0.008	-0.166
-468.186	-105.670	-0.182	-0.041
-467.172	800.000	0.005	-0.017
-466.157	-91.134	-0.427	-0.123
-465.143	12.988	-0.100	-0.078
-464.128	-71.269	0.165	0.062
-463.113	-200.000	-0.017	-0.145
-462.099	-48.529	0.113	-0.055
-461.084	710.471	0.089	0.237
-460.070	-200.000	0.008	-0.100
-459.055	-200.000	0.045	0.538
-458.040	-51.629	0.116	0.054
-457.026	800.000	0.025	-0.084
-456.011	33.152	-0.130	0.113
-454.997	800.000	-0.020	0.075
-453.982	-14.646	0.103	0.066
-452.968	800.000	0.071	0.276
-451.953	-200.000	0.088	0.478
-450.938	681.646	-0.041	-0.108
-449.924	339.553	-0.050	-0.098
-448.909	800.000	-0.074	0.306
-447.895	225.281	-0.083	0.135
-446.880	-63.552	-0.134	-0.055
-445.865	42.211	-0.136	-0.125
-444.851	-80.812	0.102	-0.034
-443.836	-200.000	0.048	-0.254
-442.822	-134.633	-0.380	0.047
-441.807	1.993	-0.189	-0.137
-440.792	-111.697	-0.186	0.038
-439.778	76.560	-0.343	0.365
-438.763	-127.119	-0.288	-0.042
-437.749	-2.928	0.103	-0.072
-436.734	-118.939	-0.098	-0.017
-435.719	286.217	-0.044	0.079
-434.705	315.808	0.124	0.234
-433.690	800.000	0.047	-0.195
-432.676	418.041	0.120	0.256
-431.661	18.496	-0.300	-0.241
-430.646	162.502	0.142	0.199
-429.632	-44.952	-0.287	-0.143
-428.617	-167.730	0.143	0.006
-427.603	-155.049	0.330	-0.022
-426.588	219.040	0.111	-0.178
-425.573	-200.000	0.018	-0.152
-424.559	-47.033	0.165	-0.081
-423.544	265.433	-0.202	-0.353
-422.530	153.013	-0.040	-0.054
-421.515	-88.640	-0.131	-0.039
-420.500	-130.681	0.142	-0.019
-419.486	22.650	0.272	-0.224
-418.471	62.513	0.046	0.046
-417.457	-85.265	0.218	0.068
-416.442	627.045	0.167	0.424
-415.428	800.000	0.036	-0.101
-414.413	45.599	0.282	-0.261
-413.398	204.791	0.173	0.269
-412.384	60.635	-0.174	0.173
-411.369	-88.937	0.281	0.084
-410.355	-115.692	0.287	-0.054
-409.340	466.321	0.106	-0.237
-408.325	-200.000	0.054	-0.246
-407.311	379.718	0.033	-0.069
-406.296	-4.272	0.074	0.051
-405.282	-200.000	-0.213	-0.001
-404.267	91.814	0.075	-0.085
-403.252	-20.324	-0.260	0.161
-402.238	-92.475	0.076	0.021
-401.223	800.000	0.043	-0.176
-400.209	-129.665	-0.196	0.027
-399.194	-125.014	-0.258	-0.040
-398.179	-200.000	-0.008	0.113
-397.165	95.142	-0.031	-0.035
-396.150	-149.883	0.121	-0.009
-395.136	-200.000	0.015	0.088
-394.121	800.000	0.042	-0.139
-393.106	82.795	-0.034	0.037
-392.092	97.122	0.060	0.069
-391.077	1.696	0.307	0.221
-390.063	374.605	-0.053	-0.108
-389.048	-200.000	0.018	-0.234
-388.033	800.000	-0.069	-0.250
-387.019	-200.000	0.001	0.158
-386.004	308.897	0.120	-0.225
-384.990	123.330	-0.221	-0.277
-383.975	-123.939	0.066	-0.010
-382.960	-200.000	-0.012	0.199
-381.946	-6.859	-0.107	0.073
-380.931	800.000	-0.062	0.192
-379.917	19.734	-0.158	0.128
-378.902	74.724	-0.203	0.214
-377.888	41.493	0.284	-0.257
-376.873	-66.576	0.334	-0.133
-375.858	-60.616	0.079	0.034
-374.844	172.730	0.108	-0.155
-373.829	-171.977	0.149	-0.005
-372.815	-200.000	-0.003	-0.031
-371.800	75.908	-0.050	0.053
-370.785	-200.000	0.115	0.565
-369.771	-190.878	-0.108	-0.001
-368.756	-59.163	-0.291	0.126
-367.742	-200.000	0.024	0.296
-366.727	85.325	-0.204	0.224
-365.712	215.395	0.138	-0.218
-364.698	91.895	0.198	-0.223
-363.683	287.177	-0.129	-0.233
-362.669	-68.590	-0.211	0.082
-361.654	58.848	0.105	0.103
-360.639	-23.269	-0.128	0.077
-359.625	180.388	-0.055	-0.080
-358.610	-5.736	0.123	0.085
-357.596	-121.728	-0.180	0.030
-356.581	-61.277	-0.236	-0.100
-355.566	800.000	0.048	0.135
-354.552	-43.491	0.452	-0.229
-353.537	506.601	0.114	0.265
-352.523	90.319	-0.128	0.143
-351.508	-119.793	0.343	-0.059
-350.493	183.579	0.166	-0.245
-349.479	-200.000	0.041	-0.221
-348.464	-149.188	-0.178	0.014
-347.450	-200.000	0.004	-0.021
-346.435	800.000	-0.020	0.057
-345.420	-25.716	-0.184	0.109
-344.406	285.418	-0.212	-0.382
-343.391	-110.832	-0.137	0.028
-342.377	142.981	-0.014	-0.018
-341.362	-132.614	0.531	0.068
-340.348	536.837	-0.058	-0.138
-339.333	-102.695	-0.113	0.027
-338.318	-200.000	0.025	-0.141
-337.304	-180.557	0.154	0.003
-336.289	25.138	-0.228	-0.189
-335.275	-6.709	0.120	-0.082
-334.260	-72.558	0.378	0.139
-333.245	288.385	-0.093	0.169
-332.231	399.681	0.152	0.319
-331.216	-71.260	0.201	-0.075
-330.202	-77.212	0.241	0.084
-329.187	-98.233	-0.209	-0.054
-328.172	-200.000	-0.003	0.107
-327.158	-175.016	0.321	0.009
-326.143	-133.639	-0.034	-0.004
-325.129	800.000	-0.110	-0.426
-324.114	-94.366	-0.114	0.031
-323.099	136.232	-0.070	0.092
-322.085	-134.048	-0.140	0.017
-321.070	258.284	-0.088	-0.152
-320.056	506.553	0.086	0.199
-319.041	-200.000	0.004	0.129
-318.026	800.000	-0.066	-0.226
-317.012	-116.747	0.216	-0.040
-315.997	-77.810	-0.149	0.051
-314.983	171.824	0.062	0.089
-313.968	653.729	-0.079	-0.202
-312.953	-70.264	0.236	0.089
-311.939	7.993	0.246	-0.184
-310.924	141.621	-0.238	0.315
-309.910	-200.000	-0.006	-0.122
-308.895	412.020	-0.012	-0.025
-307.880	246.174	-0.161	0.272
-306.866	-200.000	0.003	0.093
-305.851	-55.859	0.174	-0.077
-304.837	-47.763	-0.099	-0.048
-303.822	-200.000	-0.001	0.162
-302.807	-200.000	0.054	0.258
-301.793	-41.236	-0.320	0.165
-300.778	35.397	0.210	0.184
-299.764	-200.000	0.014	-0.107
-298.749	-11.424	-0.187	-0.123
-297.735	-190.915	0.173	-0.002
-296.720	-200.000	-0.010	-0.094
-295.705	800.000	0.039	0.156
-294.691	-106.535	0.232	-0.052
-293.676	800.000	0.013	0.039
-292.662	48.523	-0.161	0.151
-291.647	800.000	0.054	-0.218
-290.632	-200.000	-0.004	-0.339
-289.618	-105.956	0.077	0.017
-288.603	800.000	-0.056	0.182
-287.589	68.362	0.061	0.062
-286.574	-200.000	-0.023	0.150
-285.559	-200.000	-0.012	0.106
-284.545	800.000	-0.100	0.336
-283.530	800.000	0.050	-0.198
-282.516	330.432	-0.085	0.163
-281.501	-200.000	-0.008	-0.250
-280.486	-159.454	0.117	-0.006
-279.472	739.097	0.027	0.072
-278.457	61.853	0.301	-0.299
-277.443	800.000	0.113	0.350
-276.428	-200.000	0.000	0.019
-275.413	55.482	0.142	0.137
-274.399	-25.625	-0.411	-0.242
-273.384	800.000	0.031	-0.119
-272.370	431.862	0.063	-0.135
-271.355	-146.746	0.102	-0.009
-270.340	-20.930	-0.118	0.072
-269.326	-33.525	-0.077	0.042
-268.311	-200.000	-0.012	-0.077
-267.297	-52.478	-0.384	-0.177
-266.282	186.958	-0.142	-0.211
-265.267	-72.758	-0.304	-0.112
-264.253	-136.655	-0.269	-0.031
-263.238	121.150	-0.096	-0.120
-262.224	-79.587	0.219	-0.074
-261.209	-28.169	0.186	-0.107
-260.195	-133.835	-0.203	0.025
-259.180	-24.701	-0.134	0.079
-258.165	-200.000	0.014	0.198
-257.151	-200.000	-0.009	-0.080
-256.136	-123.135	0.363	0.058
-255.122	264.069	-0.116	-0.202
-254.107	71.674	0.156	0.162
-253.092	-200.000	0.015	-0.094
-252.078	711.893	0.099	0.261
-251.063	34.224	0.211	0.183
-250.049	-126.741	-0.299	-0.044
-249.034	-200.000	0.027	-0.146
-248.019	-123.651	-0.161	0.025
-247.005	306.115	-0.062	-0.115
-245.990	-61.256	0.230	-0.097
-244.976	309.376	-0.013	0.025
-243.961	-116.189	-0.307	-0.057
-242.946	48.181	0.165	-0.153
-241.932	296.802	-0.215	0.393
-240.917	-64.687	0.100	-0.040
-239.903	-2.335	-0.158	-0.110
-238.888	0.837	-0.155	0.111
-237.873	65.301	0.093	0.094
-236.859	53.150	0.115	0.110
-235.844	38.176	0.095	0.084
-234.830	800.000	-0.007	0.026
-233.815	-18.469	0.196	-0.122
-232.800	48.328	0.181	0.169
-231.786	-200.000	0.004	0.088
-230.771	-92.675	0.252	0.070
-229.757	92.649	0.204	-0.229
-228.742	161.163	0.184	0.257
-227.727	19.310	-0.158	0.126
-226.713	-200.000	0.002	-0.027
-225.698	77.684	-0.224	-0.237
-224.684	-34.279	-0.092	-0.050
-223.669	800.000	0.070	-0.219
-222.655	-68.175	0.158	0.061
-221.640	88.682	0.173	0.192
-220.625	-27.428	-0.271	0.157
-219.611	-76.852	-0.338	0.118
-218.596	-12.477	-0.221	0.143
-217.582	-15.162	-0.195	0.125
-216.567	122.404	0.143	0.178
-215.552	263.659	-0.152	0.264
-214.538	58.685	0.108	-0.106
-213.523	-161.886	0.128	0.006
-212.509	-92.133	0.239	-0.067
-211.494	-121.360	-0.338	-0.056
-210.479	56.987	0.175	-0.169
-209.465	364.813	0.053	0.107
-208.450	73.327	0.106	0.110
-207.436	703.707	-0.057	0.149
-206.421	-78.324	0.146	0.050
-205.406	-200.000	-0.019	-0.359
-204.392	-137.650	-0.337	-0.038
-203.377	-200.000	0.016	0.116
-202.363	290.180	0.158	-0.285
-201.348	26.103	0.065	0.054
-200.333	-137.870	0.299	0.033
-199.319	62.763	-0.083	-0.082
-198.304	-161.993	-0.442	-0.022
-197.290	-61.306	0.129	-0.054
-196.275	-20.271	0.106	-0.065
-195.260	-8.579	0.142	-0.095
-194.246	-200.000	-0.023	-0.120
-193.231	44.875	0.140	-0.129
-192.217	-75.530	-0.230	-0.081
-191.202	722.147	-0.103	0.273
-190.187	-200.000	0.016	0.226
-189.173	73.759	0.253	-0.264
-188.158	22.722	0.417	0.339
-187.144	-200.000	0.048	0.287
-186.129	-88.563	0.167	0.049
-185.114	-129.345	0.325	0.045
-184.100	-200.000	0.052	-0.330
-183.085	-50.444	0.206	-0.097
-182.071	39.083	-0.193	-0.172
-181.056	-135.921	0.273	0.032
-180.042	9.575	0.032	-0.024
-179.027	473.088	-0.143	0.320
-178.012	-76.203	-0.301	-0.106
-176.998	-108.376	0.053	-0.011
-175.983	-200.000	0.002	-0.258
-174.969	800.000	-0.061	0.244
-173.954	-86.848	-0.140	0.042
-172.939	-42.157	0.184	0.093
-171.925	-102.760	-0.069	-0.016
-170.910	-22.654	0.321	-0.193
-169.896	-69.842	-0.355	0.135
-168.881	-194.475	-0.231	0.002
-167.866	-28.926	0.254	-0.145
-166.852	451.838	0.154	-0.337
-165.837	-200.000	0.005	-0.207
-164.823	-149.816	-0.427	-0.033
-163.808	-79.885	0.158	0.053
-162.793	106.528	-0.180	-0.213
-161.779	-29.137	0.130	-0.074
-160.764	-64.028	-0.284	-0.115
-159.750	350.935	0.013	0.025
-158.735	-145.392	-0.167	-0.015
-157.720	38.971	-0.189	0.168
-156.706	800.000	-0.054	-0.181
-155.691	687.312	0.106	-0.275
-154.677	-38.554	-0.410	-0.215
-153.662	235.158	0.048	-0.078
-152.647	800.000	0.079	-0.307
-151.633	-75.673	0.118	0.042
-150.618	43.900	-0.274	0.250
-149.604	800.000	0.090	-0.319
-148.589	-24.510	-0.313	-0.185
-147.574	17.988	-0.025	-0.020
-146.560	764.101	-0.085	-0.230
-145.545	800.000	-0.048	-0.155
-144.531	55.031	0.033	0.032
-143.516	74.476	-0.285	-0.298
-142.502	-49.731	-0.085	-0.040
-141.487	-200.000	0.024	-0.131
-140.472	-25.988	0.146	-0.086
-139.458	-200.000	0.006	0.410
-138.443	-124.926	0.082	-0.013
-137.429	800.000	-0.088	-0.264
-136.414	-31.731	0.138	-0.077
-135.399	33.275	-0.273	-0.235
-134.385	800.000	-0.104	-0.353
-133.370	123.962	-0.251	0.313
-132.356	-200.000	-0.001	-0.010
-131.341	602.455	0.141	0.348
-130.326	-200.000	-0.031	-0.291
-129.312	800.000	-0.064	-0.262
-128.297	-200.000	-0.029	0.546
-127.283	199.642	-0.081	0.124
-126.268	-76.313	-0.323	0.113
-125.253	-84.382	0.252	0.079
-124.239	-82.220	-0.255	-0.082
-123.224	800.000	-0.025	-0.103
-122.210	-200.000	-0.010	-0.084
