DTS Sentinel unit serial number:	SN413079Multiplexer serial number:	ORYXHardware model number:	OX4-SRSoftware version number:	ORYX F/W v4.00 Oryx Data Collector v3.7.2.0data status	okinstallation	princeton_trtdifferential loss correction	single-endedforward channel	channel 1reverse channel	N/Adate	2019/09/16time	06:14:36forward acquisition time	60.00reverse acquisition time	0.00gamma	496.2192k internal	0.2331k external	0.2331temperature offset calibration	0.9981default loss term (dB/km)	0.3790temperature slope calibration	1.0000multiplexer offset coefficient	1.0000multiplexer slope coefficient	1.0000fibre end	0.00T internal ref (°C)	27.44T ext. ref 1 (°C)	11.31T ext. ref 2 (°C)	21.69length (m)	temperature (°C)	Stokes	anti-Stokes-747.200	-73.757	0.376	-0.138
-746.185	-34.297	-0.156	0.086
-745.171	-200.000	-0.019	-0.136
-744.156	-130.134	-0.338	0.046
-743.142	-17.456	-0.209	0.132
-742.127	14.120	0.118	-0.093
-741.112	-97.449	0.410	-0.107
-740.098	47.349	-0.071	-0.067
-739.083	-129.878	-0.198	-0.027
-738.069	41.741	0.072	-0.065
-737.054	800.000	0.069	-0.289
-736.039	85.031	-0.118	-0.130
-735.025	100.002	0.050	0.059
-734.010	-16.898	-0.442	-0.281
-732.996	41.273	-0.091	0.083
-731.981	-73.939	-0.291	0.106
-730.966	-82.059	-0.112	-0.037
-729.952	-76.014	0.072	0.026
-728.937	-46.534	-0.166	-0.082
-727.923	1.841	0.195	-0.141
-726.908	-105.517	-0.244	0.056
-725.894	-63.149	-0.189	0.079
-724.879	-123.286	-0.603	0.097
-723.864	-39.872	-0.150	-0.079
-722.850	214.068	0.176	0.280
-721.835	21.702	0.199	0.163
-720.821	-200.000	0.019	-0.208
-719.806	-151.012	-0.155	0.012
-718.791	800.000	-0.030	0.112
-717.777	-83.456	-0.136	0.044
-716.762	63.053	-0.014	-0.014
-715.748	-200.000	-0.003	0.043
-714.733	-190.704	-0.410	-0.004
-713.718	800.000	-0.017	-0.059
-712.704	459.740	0.092	-0.206
-711.689	800.000	-0.112	-0.373
-710.675	132.952	0.269	-0.349
-709.660	800.000	-0.073	0.208
-708.645	800.000	0.063	0.175
-707.631	-130.120	-0.353	-0.048
-706.616	-101.622	0.239	-0.058
-705.602	54.012	0.270	-0.261
-704.587	49.139	0.204	-0.192
-703.572	-1.534	0.184	-0.130
-702.558	-200.000	0.019	0.166
-701.543	-200.000	-0.004	-0.252
-700.529	106.058	-0.105	0.125
-699.514	800.000	0.074	0.207
-698.499	171.641	0.107	-0.155
-697.485	132.610	-0.194	-0.252
-696.470	-64.938	-0.163	-0.066
-695.456	-200.000	-0.016	-0.252
-694.441	-142.631	0.110	-0.011
-693.426	197.247	0.083	0.127
-692.412	-200.000	0.011	0.093
-691.397	-200.000	0.019	0.218
-690.383	360.510	-0.167	0.335
-689.368	-52.303	0.352	-0.164
-688.354	-58.217	-0.173	0.076
-687.339	-200.000	-0.015	-0.135
-686.324	-53.151	-0.130	0.060
-685.310	-112.847	0.168	0.033
-684.295	249.506	-0.254	0.433
-683.281	-102.169	-0.288	0.070
-682.266	-128.450	-0.274	-0.039
-681.251	-80.740	0.198	0.066
-680.237	-37.112	0.125	-0.067
-679.222	800.000	-0.058	0.178
-678.208	-18.198	-0.161	0.101
-677.193	255.422	-0.143	-0.246
-676.178	-143.404	-0.246	0.024
-675.164	-200.000	-0.026	-0.280
-674.149	-200.000	-0.000	0.076
-673.135	-181.838	0.238	-0.005
-672.120	-84.017	-0.193	-0.062
-671.105	27.460	0.352	-0.297
-670.091	-158.628	-0.297	-0.017
-669.076	17.228	-0.081	0.065
-668.062	-130.110	-0.210	-0.029
-667.047	-200.000	-0.020	0.147
-666.032	262.903	-0.072	0.126
-665.018	-91.186	-0.215	-0.062
-664.003	-83.412	-0.190	-0.061
-662.989	70.776	-0.044	0.046
-661.974	-71.830	0.255	0.095
-660.959	-200.000	-0.022	-0.150
-659.945	247.363	-0.192	-0.325
-658.930	-135.792	-0.161	-0.019
-657.916	50.397	0.171	0.162
-656.901	391.598	-0.041	0.085
-655.886	62.762	0.201	0.202
-654.872	43.474	-0.123	-0.113
-653.857	207.565	-0.052	0.082
-652.843	124.083	0.090	-0.114
-651.828	200.575	0.106	-0.163
-650.814	735.687	0.066	-0.176
-649.799	800.000	0.015	0.054
-648.784	260.803	-0.050	-0.087
-647.770	74.515	0.187	0.197
-646.755	553.772	-0.018	-0.044
-645.741	-75.386	0.336	-0.120
-644.726	-89.032	-0.225	0.067
-643.711	-200.000	0.035	0.319
-642.697	410.896	-0.055	0.117
-641.682	-66.724	0.186	0.074
-640.668	142.733	0.093	0.123
-639.653	-96.719	-0.279	0.074
-638.638	-26.307	0.124	0.073
-637.624	185.492	-0.182	0.271
-636.609	-111.075	0.120	-0.025
-635.595	-115.378	-0.082	0.015
-634.580	-200.000	0.019	-0.156
-633.565	23.099	0.169	-0.139
-632.551	135.196	0.166	-0.216
-631.536	486.144	0.166	-0.379
-630.522	-200.000	0.005	-0.138
-629.507	-200.000	0.005	-0.052
-628.492	-180.388	-0.415	0.009
-627.478	800.000	0.023	0.100
-626.463	800.000	0.085	0.310
-625.449	-115.379	-0.302	-0.057
-624.434	-200.000	-0.014	-0.065
-623.419	202.009	-0.166	0.256
-622.405	800.000	0.074	0.222
-621.390	79.087	-0.111	0.119
-620.376	-31.369	-0.112	0.063
-619.361	-155.809	0.303	0.019
-618.346	-60.565	-0.273	-0.116
-617.332	-111.333	-0.244	-0.050
-616.317	-6.943	-0.273	0.186
-615.303	-110.629	-0.188	-0.039
-614.288	800.000	-0.033	-0.134
-613.273	111.972	0.099	-0.120
-612.259	90.348	-0.119	-0.133
-611.244	331.925	-0.110	0.213
-610.230	800.000	-0.093	-0.398
-609.215	-174.507	-0.640	-0.018
-608.201	194.207	0.198	-0.300
-607.186	34.716	-0.200	-0.175
-606.171	-69.905	-0.173	-0.066
-605.157	35.976	0.074	0.066
-604.142	-35.615	-0.158	-0.086
-603.128	91.075	-0.078	-0.088
-602.113	-35.995	0.121	-0.066
-601.098	135.969	0.132	-0.172
-600.084	61.796	-0.317	-0.316
-599.069	800.000	-0.094	0.356
-598.055	-200.000	-0.031	0.152
-597.040	144.715	0.088	0.118
-596.025	186.268	-0.096	-0.143
-595.011	175.560	0.046	0.067
-593.996	-153.198	-0.100	0.007
-592.982	-25.459	0.045	0.027
-591.967	9.172	-0.402	-0.304
-590.952	-200.000	0.015	-0.098
-589.938	177.615	-0.066	-0.096
-588.923	195.343	0.243	-0.370
-587.909	578.050	0.101	-0.246
-586.894	-115.852	0.252	-0.047
-585.879	-51.231	-0.224	0.105
-584.865	-200.000	0.034	-0.216
-583.850	-200.000	0.012	-0.100
-582.836	138.630	-0.222	-0.291
-581.821	-104.762	-0.605	0.139
-580.806	153.729	-0.078	-0.106
-579.792	770.435	0.124	0.339
-578.777	-200.000	0.017	0.164
-577.763	-173.769	-0.191	0.006
-576.748	149.699	0.139	-0.188
-575.733	800.000	-0.124	-0.413
-574.719	164.723	-0.174	0.246
-573.704	-10.288	-0.214	0.142
-572.690	-200.000	0.062	-0.275
-571.675	-81.480	-0.118	-0.039
-570.661	-200.000	0.004	0.089
-569.646	-17.976	0.127	-0.080
-568.631	-31.290	0.114	-0.064
-567.617	-123.728	-0.193	-0.031
-566.602	-68.704	0.240	-0.093
-565.588	0.247	-0.110	-0.078
-564.573	-200.000	-0.020	-0.230
-563.558	48.989	-0.154	-0.145
-562.544	56.275	-0.161	0.156
-561.529	800.000	-0.079	-0.245
-560.515	197.858	-0.085	0.131
-559.500	-0.700	0.280	0.198
-558.485	59.525	-0.116	0.114
-557.471	800.000	0.248	0.693
-556.456	-152.839	-0.423	-0.030
-555.442	37.762	-0.236	0.210
-554.427	204.890	0.122	0.189
-553.412	-114.016	-0.209	-0.040
-552.398	-64.338	0.340	-0.138
-551.383	-200.000	-0.017	-0.201
-550.369	-56.959	0.216	0.095
-549.354	243.593	0.217	-0.363
-548.339	225.841	-0.182	0.295
-547.325	8.832	-0.072	-0.054
-546.310	-122.770	0.143	-0.023
-545.296	-200.000	0.044	-0.198
-544.281	11.356	-0.342	-0.261
-543.266	-200.000	-0.011	-0.054
-542.252	611.176	-0.084	0.209
-541.237	97.798	-0.112	0.128
-540.223	-84.443	-0.219	-0.069
-539.208	-200.000	-0.001	0.174
-538.193	800.000	0.054	-0.182
-537.179	-200.000	-0.005	0.070
-536.164	90.300	-0.256	0.286
-535.150	318.093	-0.139	0.262
-534.135	-46.796	-0.046	0.023
-533.121	75.781	0.133	-0.141
-532.106	-200.000	0.009	0.161
-531.091	-54.213	0.087	-0.040
-530.077	78.462	-0.178	-0.190
-529.062	0.142	0.113	-0.080
-528.048	-39.522	-0.321	0.168
-527.033	88.535	-0.164	0.182
-526.018	452.497	-0.188	-0.415
-525.004	-187.670	-0.183	0.002
-523.989	-200.000	0.000	-0.162
-522.975	-84.284	-0.122	0.039
-521.960	-200.000	0.040	0.285
-520.945	-155.917	-0.239	0.015
-519.931	-139.509	-0.150	-0.016
-518.916	63.460	-0.095	0.095
-517.902	-70.211	-0.296	-0.112
-516.887	-33.759	0.425	0.234
-515.872	458.730	0.172	0.381
-514.858	97.800	-0.163	0.187
-513.843	-185.452	-0.347	-0.005
-512.829	615.962	0.061	-0.153
-511.814	-100.068	0.216	0.054
-510.799	-82.488	-0.206	0.067
-509.785	-36.697	-0.160	-0.086
-508.770	59.561	0.175	-0.172
-507.756	-146.890	0.395	0.034
-506.741	10.957	0.125	0.095
-505.726	231.851	-0.111	0.181
-504.712	-110.774	-0.147	-0.030
-503.697	-195.498	0.296	-0.002
-502.683	68.556	-0.291	-0.297
-501.668	-103.220	-0.091	-0.021
-500.653	-200.000	0.006	-0.162
-499.639	221.725	0.135	0.216
-498.624	-155.767	0.042	0.003
-497.610	-200.000	-0.054	0.493
-496.595	-144.318	0.072	-0.007
-495.581	-89.505	-0.332	-0.097
-494.566	-76.718	0.089	0.031
-493.551	-34.674	-0.162	-0.088
-492.537	219.864	0.078	0.124
-491.522	135.727	0.136	0.177
-490.508	48.777	0.159	0.149
-489.493	-132.320	0.510	-0.066
-488.478	95.404	0.242	0.275
-487.464	-195.927	-0.176	0.001
-486.449	800.000	-0.116	-0.382
-485.435	800.000	-0.064	0.186
-484.420	-192.940	0.360	-0.003
-483.405	-200.000	0.001	0.096
-482.391	87.369	0.154	0.170
-481.376	32.247	0.165	0.142
-480.362	-200.000	-0.030	0.167
-479.347	222.536	0.035	0.056
-478.332	19.745	-0.154	-0.123
-477.318	800.000	-0.034	-0.123
-476.303	800.000	-0.085	0.295
-475.289	12.177	-0.115	-0.088
-474.274	180.694	0.131	-0.191
-473.259	134.931	-0.283	-0.366
-472.245	-88.554	0.175	0.052
-471.230	177.995	0.129	-0.188
-470.216	60.542	-0.123	0.121
-469.201	209.573	-0.127	0.198
-468.186	-45.227	0.121	-0.060
-467.172	74.001	-0.228	0.238
-466.157	-149.393	-0.223	-0.018
-465.143	-200.000	0.034	-0.196
-464.128	-61.785	0.229	0.095
-463.113	-80.135	0.264	0.088
-462.099	129.051	0.086	0.109
-461.084	93.026	0.171	-0.192
-460.070	800.000	-0.090	-0.312
-459.055	800.000	0.050	-0.145
-458.040	-96.603	-0.184	0.048
-457.026	98.920	0.158	0.181
-456.011	-107.319	-0.244	0.053
-454.997	39.314	-0.235	0.209
-453.982	-200.000	0.014	-0.323
-452.968	67.443	0.148	-0.150
-451.953	-157.212	-0.149	-0.009
-450.938	2.380	0.058	0.041
-449.924	-200.000	-0.004	0.042
-448.909	-46.630	0.073	0.036
-447.895	-41.257	0.311	0.159
-446.880	676.584	0.116	-0.300
-445.865	-200.000	0.013	0.175
-444.851	-10.172	0.008	0.005
-443.836	67.829	0.126	-0.128
-442.822	18.191	0.411	0.326
-441.807	531.066	-0.085	0.200
-440.792	-172.747	0.523	-0.016
-439.778	800.000	0.101	-0.333
-438.763	-200.000	-0.026	-0.113
-437.749	253.129	0.135	0.228
-436.734	-128.006	0.344	0.049
-435.719	566.261	0.060	0.145
-434.705	-86.296	-0.726	0.222
-433.690	-140.134	-0.185	0.019
-432.676	-85.912	0.187	0.058
-431.661	162.114	0.098	-0.137
-430.646	235.009	0.029	-0.048
-429.632	252.785	-0.126	-0.214
-428.617	584.972	0.042	0.103
-427.603	42.754	-0.175	0.158
-426.588	32.997	0.122	0.105
-425.573	-52.049	-0.103	0.048
-424.559	-200.000	0.006	0.078
-423.544	-200.000	-0.038	0.482
-422.530	233.363	-0.042	-0.069
-421.515	21.515	0.251	-0.203
-420.500	42.516	0.263	0.238
-419.486	474.163	-0.106	0.237
-418.471	800.000	0.096	0.331
-417.457	12.787	0.299	-0.230
-416.442	-86.684	0.146	-0.044
-415.428	-200.000	0.021	0.202
-414.413	-200.000	0.025	-0.112
-413.398	800.000	0.086	-0.263
-412.384	-2.124	0.140	-0.098
-411.369	277.857	0.017	-0.031
-410.355	-42.773	0.121	-0.061
-409.340	524.263	-0.045	-0.106
-408.325	210.199	-0.169	-0.263
-407.311	-200.000	0.018	-0.349
-406.296	28.117	0.538	-0.451
-405.282	181.706	-0.166	-0.243
-404.267	-179.550	0.133	0.003
-403.252	179.492	-0.118	-0.172
-402.238	-200.000	-0.012	-0.442
-401.223	-57.628	-0.289	-0.126
-400.209	-200.000	-0.005	-0.136
-399.194	161.944	0.028	-0.038
-398.179	800.000	0.087	-0.240
-397.165	102.820	-0.122	0.142
-396.150	276.571	0.054	-0.095
-395.136	24.337	-0.125	0.103
-394.121	52.204	-0.092	-0.088
-393.106	800.000	0.131	0.395
-392.092	254.343	-0.026	0.044
-391.077	800.000	-0.108	-0.337
-390.063	774.998	-0.055	0.150
-389.048	70.526	-0.216	0.222
-388.033	9.346	-0.354	-0.266
-387.019	-24.129	0.122	-0.072
-386.004	247.331	-0.221	-0.370
-384.990	115.709	0.306	-0.371
-383.975	-105.644	-0.324	0.073
-382.960	-200.000	-0.035	0.232
-381.946	-32.497	-0.123	0.068
-380.931	-67.128	-0.175	-0.068
-379.917	-86.663	-0.446	-0.136
-378.902	501.766	0.100	0.229
-377.888	-181.530	0.256	0.005
-376.873	-85.875	0.246	0.075
-375.858	26.770	0.284	0.236
-374.844	334.683	0.067	0.128
-373.829	104.703	0.172	0.201
-372.815	142.922	-0.100	-0.132
-371.800	-80.723	-0.235	-0.078
-370.785	3.589	0.311	0.225
-369.771	-200.000	0.016	0.097
-368.756	-80.096	-0.140	-0.047
-367.742	-188.641	-0.344	0.004
-366.727	-100.170	-0.199	0.049
-365.712	-105.844	0.249	0.056
-364.698	-200.000	-0.067	0.301
-363.683	182.362	0.091	-0.133
-362.669	-200.000	0.035	0.229
-361.654	-42.876	-0.275	-0.139
-360.639	-109.102	-0.387	-0.082
-359.625	-52.699	-0.149	-0.068
-358.610	217.145	0.092	0.145
-357.596	36.934	0.178	-0.156
-356.581	32.807	0.342	0.293
-355.566	-200.000	-0.002	-0.083
-354.552	169.791	0.106	0.151
-353.537	-15.579	0.183	-0.116
-352.523	47.766	-0.115	-0.106
-351.508	-157.945	0.397	0.023
-350.493	104.814	0.077	0.090
-349.479	-50.877	-0.103	-0.048
-348.464	-109.409	-0.121	0.025
-347.450	0.174	-0.183	-0.129
-346.435	32.587	0.205	-0.175
-345.420	-200.000	0.015	-0.262
-344.406	-108.721	-0.095	0.020
-343.391	-38.397	0.255	0.134
-342.377	54.890	0.254	-0.243
-341.362	205.406	-0.205	0.315
-340.348	-200.000	0.002	-0.217
-339.333	-170.759	-0.071	0.002
-338.318	148.788	-0.018	0.024
-337.304	-112.521	0.226	-0.045
-336.289	84.219	-0.323	0.349
-335.275	800.000	0.038	-0.117
-334.260	-200.000	-0.018	-0.099
-333.245	-85.417	0.299	-0.092
-332.231	86.217	-0.139	-0.152
-331.216	312.198	0.048	-0.089
-330.202	-112.922	0.235	0.046
-329.187	266.607	0.161	-0.279
-328.172	29.707	0.118	0.100
-327.158	86.905	-0.070	0.077
-326.143	-18.035	0.270	-0.168
-325.129	-11.257	-0.172	-0.112
-324.114	-80.111	0.101	-0.034
-323.099	-200.000	-0.016	-0.117
-322.085	-102.255	0.305	0.073
-321.070	473.775	-0.090	0.200
-320.056	99.905	0.209	-0.240
-319.041	-200.000	-0.093	-0.454
-318.026	-139.744	-0.175	0.018
-317.012	68.514	0.036	-0.036
-315.997	783.937	0.084	-0.227
-314.983	50.928	-0.192	-0.180
-313.968	-200.000	0.020	0.347
-312.953	-26.688	0.288	0.167
-311.939	-200.000	0.006	-0.305
-310.924	24.765	-0.189	0.155
-309.910	-129.075	0.229	0.032
-308.895	107.867	-0.211	0.249
-307.880	800.000	0.150	-0.424
-306.866	22.863	0.127	0.103
-305.851	50.119	-0.267	-0.250
-304.837	-200.000	-0.061	0.383
-303.822	800.000	-0.070	0.212
-302.807	-3.079	-0.190	0.131
-301.793	-26.334	0.386	0.224
-300.778	172.802	0.087	0.124
-299.764	800.000	0.095	-0.364
-298.749	151.406	0.184	-0.248
-297.735	13.229	0.305	-0.234
-296.720	-200.000	-0.031	0.321
-295.705	-91.340	0.221	-0.063
-294.691	-11.460	0.108	-0.070
-293.676	800.000	0.085	-0.255
-292.662	14.744	0.173	-0.134
-291.647	-112.561	0.198	0.039
-290.632	-170.470	-0.354	0.012
-289.618	-135.912	-0.118	0.014
-288.603	-85.096	-0.210	0.065
-287.589	-130.454	-0.298	-0.040
-286.574	-80.731	-0.093	0.030
-285.559	-184.642	0.585	-0.009
-284.545	-200.000	-0.059	0.310
-283.530	-114.326	0.307	0.059
-282.516	-123.434	-0.178	-0.028
-281.501	344.098	0.138	0.268
-280.486	-200.000	0.016	-0.176
-279.472	162.488	0.119	0.165
-278.457	-20.100	0.253	-0.154
-277.443	-30.954	-0.122	0.068
-276.428	-168.568	0.239	-0.009
-275.413	-164.979	-0.324	0.014
-274.399	132.900	-0.162	0.206
-273.384	-200.000	-0.007	-0.096
-272.370	-200.000	-0.003	0.125
-271.355	-200.000	-0.025	0.285
-270.340	294.996	-0.256	-0.463
-269.326	800.000	0.008	-0.032
-268.311	303.878	-0.061	-0.112
-267.297	682.100	-0.036	0.092
-266.282	63.093	-0.107	0.106
-265.267	328.422	0.028	0.053
-264.253	-200.000	0.041	-0.206
-263.238	-200.000	-0.007	0.081
-262.224	-200.000	-0.005	0.186
-261.209	-200.000	-0.073	-0.354
-260.195	-104.398	0.161	-0.037
-259.180	800.000	-0.096	0.294
-258.165	800.000	0.072	0.258
-257.151	294.886	0.078	0.140
-256.136	480.996	0.023	-0.052
-255.122	800.000	0.039	0.128
-254.107	-200.000	-0.017	0.258
-253.092	-97.460	-0.405	-0.104
-252.078	-141.925	0.350	0.034
-251.063	-70.801	0.245	0.091
-250.049	-134.214	0.300	-0.036
-249.034	-61.647	-0.199	-0.082
-248.019	800.000	-0.046	-0.125
-247.005	38.679	-0.199	0.175
-245.990	-164.200	0.194	0.009
-244.976	-134.385	-0.195	0.024
-243.961	-179.843	-0.214	-0.005
-242.946	-23.420	0.059	-0.035
-241.932	-131.458	0.129	-0.017
-240.917	-200.000	0.049	0.246
-239.903	-173.386	-0.379	0.011
-238.888	-164.765	0.200	-0.009
-237.873	71.436	-0.143	0.146
-236.859	-200.000	-0.023	0.195
-235.844	-4.224	-0.236	0.161
-234.830	114.213	-0.194	-0.233
-233.815	22.926	0.066	0.053
-232.800	-9.582	-0.285	-0.188
-231.786	-92.324	0.438	0.122
-230.771	734.763	0.145	0.383
-229.757	42.777	-0.046	-0.041
-228.742	-98.494	0.361	0.091
-227.727	524.764	-0.095	0.220
-226.713	25.605	-0.171	0.140
-225.698	229.551	0.096	0.154
-224.684	209.075	0.080	-0.123
-223.669	32.517	0.103	-0.088
-222.655	-200.000	0.011	0.135
-221.640	39.550	0.018	-0.016
-220.625	210.383	0.108	-0.168
-219.611	-200.000	0.001	-0.007
-218.596	-47.088	0.211	-0.101
-217.582	-200.000	-0.012	0.119
-216.567	105.352	0.217	-0.253
-215.552	457.858	0.091	0.200
-214.538	-200.000	-0.011	0.115
-213.523	-66.355	-0.282	-0.110
-212.509	-200.000	-0.022	0.312
-211.494	-200.000	0.034	0.405
-210.479	199.933	-0.140	0.212
-209.465	800.000	-0.031	0.114
-208.450	-14.638	0.232	0.147
-207.436	-16.962	0.140	-0.087
-206.421	667.499	0.028	-0.070
-205.406	53.800	0.073	-0.069
-204.392	101.075	0.010	-0.011
-203.377	308.943	-0.024	-0.043
-202.363	800.000	-0.020	-0.073
-201.348	800.000	-0.066	-0.179
-200.333	198.543	0.121	-0.182
-199.319	-200.000	-0.042	-0.262
-198.304	-200.000	-0.023	-0.166
-197.290	-200.000	-0.007	-0.206
-196.275	800.000	0.093	-0.304
-195.260	-200.000	-0.040	-0.298
-194.246	-128.274	0.502	0.071
-193.231	800.000	-0.081	-0.296
-192.217	131.414	0.034	-0.043
-191.202	39.337	-0.082	-0.072
-190.187	800.000	-0.090	0.387
-189.173	-200.000	0.031	0.373
-188.158	-18.202	0.192	-0.119
-187.144	-23.608	0.205	0.121
-186.129	-200.000	0.021	-0.129
-185.114	-200.000	-0.015	0.080
-184.100	2.245	0.173	0.123
-183.085	145.713	0.129	-0.171
-182.071	9.116	-0.265	0.197
-181.056	-200.000	0.033	0.262
-180.042	-200.000	-0.049	-0.322
-179.027	-87.533	0.276	0.082
-178.012	-200.000	-0.027	-0.134
-176.998	800.000	-0.026	-0.076
-175.983	57.497	0.186	0.179
-174.969	-30.981	-0.265	-0.147
-173.954	-56.188	0.222	0.097
-172.939	-94.748	-0.237	-0.063
-171.925	800.000	0.018	-0.065
-170.910	231.858	0.058	0.093
-169.896	-143.454	-0.178	-0.017
-168.881	-13.331	-0.172	0.110
-167.866	-200.000	-0.058	-0.324
-166.852	-200.000	0.038	-0.166
-165.837	581.602	0.159	0.383
-164.823	139.436	0.080	-0.104
-163.808	-137.547	-0.288	-0.032
-162.793	-140.028	0.188	0.019
-161.779	27.576	0.157	0.130
-160.764	170.870	0.069	-0.097
-159.750	-17.382	-0.286	0.177
-158.735	200.090	0.118	0.178
-157.720	-200.000	0.018	0.091
-156.706	358.702	-0.129	-0.253
-155.691	220.963	-0.137	-0.217
-154.677	-200.000	-0.030	0.191
-153.662	-117.088	0.132	0.024
-152.647	27.943	0.014	-0.012
-151.633	20.779	0.178	0.142
-150.618	330.178	0.079	0.149
-149.604	-78.706	0.439	0.147
-148.589	-141.301	0.131	0.013
-147.574	-82.661	-0.213	-0.068
-146.560	800.000	0.068	-0.189
-145.545	-41.460	0.152	-0.077
-144.531	-200.000	0.061	0.311
-143.516	19.871	-0.077	0.061
-142.502	438.135	-0.039	0.083
-141.487	-124.688	0.281	-0.043
-140.472	-200.000	-0.023	0.330
-139.458	103.487	0.253	-0.292
-138.443	599.586	-0.077	-0.189
-137.429	785.617	0.044	0.118
-136.414	-47.335	-0.291	-0.139
-135.399	207.622	-0.215	-0.329
-134.385	567.662	0.137	-0.328
-133.370	87.013	0.194	0.211
-132.356	-9.216	-0.238	0.156
-131.341	-200.000	-0.021	0.191
-130.326	-174.333	0.258	0.007
-129.312	-76.897	0.141	-0.048
-128.297	800.000	0.106	0.355
-127.283	-87.469	-0.237	0.070
-126.268	12.690	0.235	0.178
-125.253	138.864	0.080	-0.104
-124.239	-200.000	0.040	0.232
-123.224	-174.314	-0.166	-0.005
-122.210	800.000	-0.055	-0.166
-121.195	576.392	0.179	-0.430
