DTS Sentinel unit serial number:	SN413079Multiplexer serial number:	ORYXHardware model number:	OX4-SRSoftware version number:	ORYX F/W v4.00 Oryx Data Collector v3.7.2.0data status	okinstallation	princeton_trtdifferential loss correction	single-endedforward channel	channel 1reverse channel	N/Adate	2019/09/13time	09:06:35forward acquisition time	60.00reverse acquisition time	0.00gamma	496.2192k internal	0.2327k external	0.2327temperature offset calibration	1.0157default loss term (dB/km)	0.3790temperature slope calibration	1.0000multiplexer offset coefficient	1.0000multiplexer slope coefficient	1.0000fibre end	0.00T internal ref (°C)	28.69T ext. ref 1 (°C)	4.36T ext. ref 2 (°C)	26.06length (m)	temperature (°C)	Stokes	anti-Stokes-747.200	-29.245	-0.145	-0.084
-746.185	550.078	-0.136	0.330
-745.171	18.984	0.064	0.052
-744.156	-5.050	0.072	-0.050
-743.142	-122.476	-0.314	0.051
-742.127	-60.652	-0.234	0.100
-741.112	-200.000	-0.002	0.170
-740.098	200.393	0.109	0.169
-739.083	77.465	-0.103	-0.110
-738.069	158.975	0.238	0.334
-737.054	800.000	0.077	-0.273
-736.039	-44.625	-0.383	-0.193
-735.025	-4.794	0.330	0.230
-734.010	37.194	0.145	-0.129
-732.996	117.515	-0.031	-0.039
-731.981	-113.927	-0.229	0.045
-730.966	-80.225	-0.189	-0.064
-729.952	800.000	-0.103	-0.306
-728.937	800.000	-0.041	-0.132
-727.923	-200.000	0.044	-0.223
-726.908	-99.143	0.344	0.088
-725.894	-200.000	0.041	0.201
-724.879	-200.000	-0.002	-0.051
-723.864	-200.000	0.002	0.082
-722.850	-158.627	0.243	0.014
-721.835	686.004	-0.116	-0.305
-720.821	-174.775	-0.414	-0.012
-719.806	-200.000	0.037	0.311
-718.791	-169.092	0.239	-0.009
-717.777	800.000	-0.039	-0.133
-716.762	110.957	-0.158	-0.192
-715.748	736.674	-0.055	0.149
-714.733	800.000	-0.084	0.356
-713.718	-11.012	-0.241	-0.160
-712.704	-97.486	0.144	-0.038
-711.689	-198.396	0.346	0.002
-710.675	-200.000	-0.024	0.144
-709.660	605.605	0.031	-0.078
-708.645	512.444	0.089	-0.208
-707.631	-200.000	-0.025	0.319
-706.616	703.722	-0.055	0.146
-705.602	-84.578	-0.142	0.045
-704.587	-200.000	0.005	-0.029
-703.572	-200.000	-0.014	-0.366
-702.558	16.829	-0.156	-0.124
-701.543	-124.229	0.369	-0.058
-700.529	280.116	-0.181	-0.325
-699.514	161.901	0.100	-0.141
-698.499	-69.206	0.272	-0.105
-697.485	585.412	-0.124	-0.308
-696.470	0.702	-0.170	0.122
-695.456	431.450	-0.092	-0.201
-694.441	115.721	0.197	-0.242
-693.426	-65.452	0.312	0.126
-692.412	-153.763	-0.072	-0.005
-691.397	-96.987	0.223	-0.059
-690.383	351.918	0.108	0.215
-689.368	58.516	-0.299	0.295
-688.354	66.111	0.140	0.143
-687.339	202.018	0.101	-0.157
-686.324	48.986	0.202	-0.191
-685.310	800.000	-0.065	0.189
-684.295	298.650	-0.159	0.294
-683.281	-200.000	0.017	-0.145
-682.266	800.000	-0.070	0.234
-681.251	302.502	-0.094	-0.175
-680.237	328.556	-0.093	0.180
-679.222	-113.985	0.292	-0.057
-678.208	800.000	0.024	-0.090
-677.193	-51.410	0.137	-0.065
-676.178	-100.145	-0.324	0.081
-675.164	78.505	0.291	0.313
-674.149	-143.974	0.145	-0.014
-673.135	-200.000	0.014	0.127
-672.120	300.080	-0.049	0.092
-671.105	800.000	0.135	-0.442
-670.091	-200.000	-0.023	-0.348
-669.076	-200.000	-0.020	-0.180
-668.062	-78.756	-0.270	-0.093
-667.047	526.971	0.157	-0.373
-666.032	-161.972	0.104	-0.005
-665.018	205.650	-0.110	-0.171
-664.003	-195.412	-0.092	0.001
-662.989	-63.178	-0.214	-0.089
-661.974	54.801	0.090	0.087
-660.959	800.000	-0.060	0.222
-659.945	-57.629	-0.305	-0.134
-658.930	800.000	0.035	0.131
-657.916	-137.724	0.200	0.023
-656.901	-138.574	0.183	-0.020
-655.886	29.353	-0.369	0.315
-654.872	443.997	-0.046	-0.101
-653.857	-200.000	0.001	-0.067
-652.843	-200.000	-0.006	-0.190
-651.828	800.000	-0.042	0.171
-650.814	800.000	-0.137	-0.532
-649.799	-94.445	-0.312	-0.085
-648.784	800.000	0.033	-0.144
-647.770	557.605	0.104	-0.252
-646.755	100.201	-0.147	-0.172
-645.741	729.727	0.061	-0.165
-644.726	800.000	0.065	0.218
-643.711	800.000	0.082	0.273
-642.697	-200.000	-0.001	0.118
-641.682	-12.272	-0.142	0.093
-640.668	-14.046	-0.153	-0.099
-639.653	-76.537	-0.227	0.080
-638.638	800.000	0.115	0.351
-637.624	3.951	-0.142	-0.104
-636.609	-200.000	-0.033	-0.241
-635.595	296.762	-0.103	-0.190
-634.580	359.324	-0.225	-0.453
-633.565	290.751	-0.194	0.353
-632.551	-159.208	-0.220	-0.012
-631.536	-64.585	0.149	-0.061
-630.522	-25.607	-0.202	0.120
-629.507	-2.285	-0.398	-0.280
-628.492	465.966	-0.044	-0.099
-627.478	106.617	-0.118	-0.140
-626.463	-41.039	0.220	-0.114
-625.449	-200.000	0.003	0.019
-624.434	1.740	-0.196	0.142
-623.419	-61.444	-0.278	0.117
-622.405	-200.000	-0.009	0.286
-621.390	-9.824	-0.293	0.196
-620.376	-200.000	0.003	0.112
-619.361	-45.756	0.172	0.086
-618.346	800.000	-0.076	-0.321
-617.332	-51.376	-0.214	0.101
-616.317	174.068	0.050	-0.072
-615.303	-82.254	-0.172	-0.056
-614.288	55.464	0.030	0.029
-613.273	-84.290	0.444	0.141
-612.259	193.351	-0.226	-0.342
-611.244	-13.275	0.133	0.087
-610.230	153.996	-0.135	-0.186
-609.215	-158.325	0.311	-0.018
-608.201	-58.043	-0.085	0.037
-607.186	-100.444	-0.039	-0.010
-606.171	108.455	-0.139	-0.167
-605.157	-179.675	-0.394	0.009
-604.142	93.833	0.106	0.120
-603.128	-180.385	0.168	0.004
-602.113	-33.182	-0.214	-0.119
-601.098	595.684	-0.045	-0.113
-600.084	-47.547	0.505	0.246
-599.069	329.916	0.101	-0.196
-598.055	-200.000	0.028	-0.189
-597.040	-62.178	-0.238	0.100
-596.025	800.000	0.112	0.351
-595.011	-23.332	0.076	0.046
-593.996	-74.203	0.176	-0.064
-592.982	800.000	0.086	-0.275
-591.967	-80.766	-0.316	-0.105
-590.952	800.000	-0.044	-0.147
-589.938	-200.000	0.015	-0.081
-588.923	-123.281	-0.257	0.041
-587.909	7.212	-0.096	0.072
-586.894	155.324	0.210	-0.289
-585.879	-121.143	-0.229	-0.038
-584.865	71.634	-0.066	-0.069
-583.850	-200.000	-0.004	-0.212
-582.836	71.291	0.089	-0.092
-581.821	96.482	-0.096	-0.110
-580.806	-200.000	-0.014	0.191
-579.792	138.794	0.191	-0.252
-578.777	-163.456	-0.105	0.005
-577.763	14.008	-0.086	-0.067
-576.748	-111.470	-0.164	-0.033
-575.733	91.988	0.089	-0.100
-574.719	800.000	-0.120	-0.492
-573.704	140.014	0.122	0.162
-572.690	498.829	0.151	0.349
-571.675	800.000	-0.091	0.278
-570.661	27.352	0.180	-0.151
-569.646	-34.051	0.136	-0.075
-568.631	-200.000	0.006	-0.215
-567.617	-160.711	-0.152	0.008
-566.602	-200.000	-0.013	-0.138
-565.588	18.557	0.121	-0.096
-564.573	800.000	0.071	-0.211
-563.558	-115.889	0.168	-0.031
-562.544	-200.000	0.001	-0.041
-561.529	800.000	-0.034	-0.130
-560.515	-108.439	0.200	0.043
-559.500	-9.264	0.209	0.140
-558.485	483.038	-0.032	-0.072
-557.471	-86.615	-0.116	-0.035
-556.456	800.000	0.051	-0.178
-555.442	-183.361	0.353	-0.006
-554.427	0.342	-0.238	-0.170
-553.412	253.523	-0.082	-0.140
-552.398	-36.587	0.129	0.069
-551.383	-82.073	0.467	0.152
-550.369	-141.358	-0.609	0.062
-549.354	341.994	-0.099	-0.195
-548.339	-200.000	-0.014	-0.170
-547.325	57.552	0.105	-0.103
-546.310	-131.233	0.102	-0.014
-545.296	67.157	0.024	-0.024
-544.281	15.241	-0.065	-0.051
-543.266	-77.537	-0.153	0.053
-542.252	30.223	0.233	-0.199
-541.237	-33.688	0.246	0.136
-540.223	-200.000	-0.088	0.416
-539.208	800.000	-0.062	0.211
-538.193	800.000	-0.103	0.319
-537.179	163.270	0.079	0.111
-536.164	-133.321	-0.249	0.031
-535.150	10.576	-0.093	0.071
-534.135	-71.409	-0.126	-0.047
-533.121	615.747	-0.077	0.194
-532.106	-138.105	-0.180	-0.020
-531.091	-108.428	-0.300	-0.065
-530.077	235.380	0.109	0.181
-529.062	-42.908	-0.313	0.159
-528.048	-166.627	0.191	-0.008
-527.033	-192.227	-0.382	0.004
-526.018	-158.687	0.221	-0.013
-525.004	-200.000	0.005	-0.066
-523.989	53.669	0.107	0.103
-522.975	549.134	0.138	0.331
-521.960	-61.633	-0.168	0.071
-520.945	-200.000	0.008	-0.403
-519.931	489.314	-0.149	0.340
-518.916	-191.483	-0.155	-0.002
-517.902	-200.000	-0.053	0.455
-516.887	-67.680	0.076	0.030
-515.872	15.415	-0.041	0.032
-514.858	800.000	0.067	0.234
-513.843	-68.854	-0.213	0.082
-512.829	118.747	-0.027	0.033
-511.814	-79.008	-0.252	-0.086
-510.799	17.522	0.224	0.178
-509.785	-47.740	0.369	0.178
-508.770	61.174	0.188	0.187
-507.756	99.881	0.176	0.204
-506.741	800.000	-0.116	0.339
-505.726	-102.102	-0.223	0.054
-504.712	800.000	-0.054	0.201
-503.697	50.573	0.192	0.182
-502.683	-77.230	-0.137	0.048
-501.668	54.590	-0.230	0.221
-500.653	4.189	-0.164	0.120
-499.639	-151.679	-0.170	-0.013
-498.624	9.227	0.030	0.023
-497.610	564.550	0.051	-0.124
-496.595	124.166	0.057	-0.072
-495.581	551.799	0.067	0.161
-494.566	800.000	0.036	0.125
-493.551	704.116	0.093	-0.245
-492.537	-15.191	0.233	0.149
-491.522	-51.119	0.224	-0.105
-490.508	-200.000	-0.001	-0.256
-489.493	125.005	-0.083	-0.104
-488.478	404.314	-0.091	0.192
-487.464	86.699	-0.376	-0.415
-486.449	-200.000	-0.027	-0.263
-485.435	-140.787	0.213	0.022
-484.420	-80.748	-0.183	-0.061
-483.405	350.715	0.149	0.293
-482.391	-9.328	-0.397	0.265
-481.376	800.000	0.038	0.108
-480.362	-88.949	-0.457	-0.135
-479.347	78.314	0.455	0.485
-478.332	422.806	-0.080	0.171
-477.318	800.000	-0.091	-0.277
-476.303	-200.000	0.037	-0.379
-475.289	14.319	0.141	0.109
-474.274	355.484	0.071	-0.142
-473.259	-156.905	-0.159	-0.010
-472.245	-66.683	-0.130	0.051
-471.230	-84.021	0.300	-0.095
-470.216	-200.000	-0.027	-0.356
-469.201	-0.628	0.096	-0.068
-468.186	547.420	-0.106	-0.254
-467.172	340.938	0.051	0.100
-466.157	-108.022	0.076	0.016
-465.143	-126.764	0.306	0.045
-464.128	-25.326	-0.094	-0.055
-463.113	103.909	0.099	0.116
-462.099	147.633	-0.047	0.063
-461.084	-20.090	-0.232	-0.143
-460.070	246.481	0.074	-0.125
-459.055	275.926	-0.072	-0.128
-458.040	521.599	0.056	-0.131
-457.026	798.036	0.115	-0.317
-456.011	347.019	0.076	-0.149
-454.997	61.282	-0.183	0.181
-453.982	-200.000	-0.055	0.593
-452.968	-200.000	0.020	-0.373
-451.953	-9.691	0.103	0.068
-450.938	46.877	-0.054	0.050
-449.924	-34.755	-0.150	-0.082
-448.909	800.000	0.050	-0.206
-447.895	142.413	0.221	-0.293
-446.880	-0.208	-0.112	-0.080
-445.865	800.000	0.026	0.074
-444.851	-94.751	0.117	0.032
-443.836	201.298	0.076	0.117
-442.822	-200.000	0.012	-0.287
-441.807	-68.781	0.494	0.190
-440.792	-200.000	0.049	0.254
-439.778	413.963	0.038	0.081
-438.763	-22.687	-0.064	-0.038
-437.749	162.761	0.103	-0.144
-436.734	-51.792	0.231	-0.107
-435.719	521.116	-0.024	-0.057
-434.705	-162.956	-0.213	-0.010
-433.690	-63.596	-0.169	-0.069
-432.676	-84.219	0.238	0.075
-431.661	-130.847	-0.098	0.013
-430.646	285.880	-0.118	0.212
-429.632	-121.369	-0.492	0.082
-428.617	176.692	-0.152	0.220
-427.603	542.204	-0.122	-0.289
-426.588	-200.000	-0.019	-0.258
-425.573	-200.000	-0.017	0.305
-424.559	-93.063	0.120	-0.033
-423.544	-200.000	0.033	-0.481
-422.530	489.049	0.109	-0.249
-421.515	-151.907	0.048	0.003
-420.500	800.000	-0.069	-0.252
-419.486	-70.769	0.347	-0.131
-418.471	89.021	-0.146	0.162
-417.457	-148.551	0.344	0.028
-416.442	-200.000	0.031	-0.218
-415.428	-200.000	-0.023	0.183
-414.413	-75.960	0.095	-0.034
-413.398	202.844	0.059	-0.091
-412.384	171.312	-0.150	0.214
-411.369	-165.542	0.146	-0.006
-410.355	800.000	0.026	-0.073
-409.340	800.000	0.042	0.135
-408.325	-21.142	0.209	0.127
-407.311	167.089	0.082	-0.116
-406.296	173.845	0.064	0.091
-405.282	-94.853	0.193	-0.052
-404.267	-37.225	0.242	0.129
-403.252	800.000	0.077	0.214
-402.238	111.796	-0.349	-0.419
-401.223	-200.000	-0.020	0.235
-400.209	91.325	-0.126	0.141
-399.194	184.509	-0.100	-0.147
-398.179	524.075	0.143	0.334
-397.165	-200.000	0.025	-0.268
-396.150	21.398	0.203	0.164
-395.136	-61.058	-0.159	0.067
-394.121	225.987	-0.103	0.167
-393.106	800.000	0.015	-0.056
-392.092	104.666	0.071	-0.083
-391.077	-50.398	0.213	-0.100
-390.063	-72.310	-0.071	-0.026
-389.048	-200.000	-0.016	-0.367
-388.033	-200.000	0.005	-0.114
-387.019	-200.000	0.003	-0.238
-386.004	9.094	0.207	0.155
-384.990	-191.083	-0.310	-0.003
-383.975	264.825	0.072	0.125
-382.960	800.000	0.084	0.293
-381.946	-200.000	-0.010	-0.117
-380.931	62.841	0.133	0.132
-379.917	-29.346	0.224	0.128
-378.902	-177.482	-0.156	-0.004
-377.888	76.776	0.194	-0.205
-376.873	-177.742	-0.337	0.008
-375.858	114.138	0.126	0.153
-374.844	-33.383	0.124	-0.068
-373.829	178.303	0.167	-0.242
-372.815	615.902	0.095	-0.236
-371.800	-88.831	0.117	0.035
-370.785	15.758	0.086	-0.067
-369.771	-125.813	0.212	-0.032
-368.756	-16.893	0.056	-0.035
-367.742	33.168	-0.262	-0.225
-366.727	187.077	0.094	0.139
-365.712	800.000	-0.081	-0.261
-364.698	-136.681	0.440	0.050
-363.683	-63.161	-0.433	0.178
-362.669	-172.844	0.161	-0.005
-361.654	800.000	-0.041	-0.122
-360.639	-200.000	0.017	-0.181
-359.625	-29.302	-0.074	0.042
-358.610	800.000	-0.020	0.069
-357.596	-34.153	0.128	-0.070
-356.581	440.906	0.018	0.039
-355.566	224.216	-0.085	0.137
-354.552	-85.506	-0.049	-0.015
-353.537	-82.236	-0.340	-0.110
-352.523	-200.000	-0.077	-0.455
-351.508	-13.106	0.218	-0.140
-350.493	163.771	-0.203	0.284
-349.479	-81.903	0.296	-0.096
-348.464	61.420	0.170	-0.168
-347.450	124.491	-0.111	0.139
-346.435	-200.000	-0.024	0.145
-345.420	-200.000	-0.020	-0.142
-344.406	158.382	0.180	0.248
-343.391	-200.000	0.009	0.236
-342.377	800.000	0.092	0.267
-341.362	342.634	0.137	0.267
-340.348	800.000	-0.180	0.522
-339.333	-69.121	-0.250	0.095
-338.318	-200.000	0.047	0.298
-337.304	39.737	0.137	-0.122
-336.289	800.000	0.091	-0.344
-335.275	-200.000	0.008	0.144
-334.260	111.182	-0.148	0.177
-333.245	-200.000	0.003	0.297
-332.231	-110.375	0.265	-0.055
-331.216	-92.256	0.188	0.053
-330.202	-200.000	0.011	-0.267
-329.187	39.086	-0.199	0.177
-328.172	-22.627	-0.067	0.040
-327.158	-200.000	-0.012	0.189
-326.143	103.295	-0.084	0.098
-325.129	800.000	0.099	-0.364
-324.114	-56.452	-0.056	0.024
-323.099	-43.046	0.265	0.133
-322.085	426.475	0.063	0.135
-321.070	-91.854	-0.211	-0.059
-320.056	-200.000	-0.080	-0.366
-319.041	-158.330	-0.323	-0.019
-318.026	155.748	-0.147	0.201
-317.012	-104.089	0.121	-0.028
-315.997	-114.708	0.137	0.026
-314.983	-200.000	-0.018	-0.148
-313.968	-84.699	0.103	0.032
-312.953	-137.477	-0.124	-0.014
-311.939	-2.495	-0.122	-0.084
-310.924	259.322	0.041	-0.070
-309.910	-32.750	0.199	0.110
-308.895	112.688	-0.081	-0.097
-307.880	-23.906	0.311	0.184
-306.866	226.402	-0.108	-0.173
-305.851	-200.000	-0.009	-0.088
-304.837	186.893	-0.084	0.124
-303.822	-99.638	-0.191	-0.047
-302.807	-33.272	0.092	0.051
-301.793	-141.082	-0.298	-0.030
-300.778	126.694	-0.004	0.005
-299.764	-94.192	-0.097	-0.026
-298.749	448.859	0.158	-0.344
-297.735	-200.000	-0.007	0.113
-296.720	17.026	0.112	0.088
-295.705	-51.011	-0.161	-0.075
-294.691	-62.399	-0.311	0.128
-293.676	49.613	0.206	0.192
-292.662	-11.282	-0.033	0.022
-291.647	264.123	-0.172	0.297
-290.632	203.913	0.075	-0.115
-289.618	-3.174	0.109	-0.076
-288.603	800.000	0.046	0.149
-287.589	-158.917	-0.101	0.006
-286.574	-90.347	-0.357	0.103
-285.559	-16.391	-0.086	-0.054
-284.545	800.000	-0.009	0.034
-283.530	-111.860	-0.193	0.039
-282.516	-200.000	0.003	-0.120
-281.501	-200.000	0.004	0.215
-280.486	-11.030	0.208	0.136
-279.472	326.783	0.160	-0.304
-278.457	-38.117	-0.112	0.059
-277.443	-16.755	-0.084	-0.053
-276.428	388.951	0.121	0.249
-275.413	230.904	-0.074	0.121
-274.399	-105.399	0.276	-0.062
-273.384	66.701	0.045	0.045
-272.370	106.363	0.165	0.193
-271.355	-200.000	-0.049	-0.355
-270.340	-61.833	0.199	-0.083
-269.326	20.861	-0.084	0.068
-268.311	-200.000	0.026	-0.150
-267.297	467.789	-0.110	-0.244
-266.282	-139.310	-0.129	-0.014
-265.267	11.661	0.199	0.151
-264.253	800.000	-0.056	0.210
-263.238	-26.216	-0.273	0.159
-262.224	-143.069	-0.200	-0.019
-261.209	800.000	0.032	-0.107
-260.195	-48.176	-0.126	0.060
-259.180	580.448	-0.113	-0.273
-258.165	38.679	0.182	-0.160
-257.151	-103.292	0.191	-0.045
-256.136	52.505	0.153	0.144
-255.122	-130.773	0.306	-0.041
-254.107	18.282	-0.229	-0.181
-253.092	127.123	-0.135	0.170
-252.078	-59.538	0.192	-0.082
-251.063	-118.624	0.150	0.026
-250.049	164.599	0.091	-0.127
-249.034	19.952	-0.067	0.053
-248.019	648.952	0.032	-0.080
-247.005	-86.180	-0.228	-0.070
-245.990	224.867	-0.135	-0.216
-244.976	800.000	0.015	-0.059
-243.961	-200.000	-0.013	-0.116
-242.946	-103.369	0.235	0.055
-241.932	800.000	0.038	0.129
-240.917	-63.245	0.221	0.090
-239.903	800.000	-0.054	0.166
-238.888	-70.875	0.186	0.069
-237.873	-101.146	-0.178	-0.043
-236.859	-140.498	0.177	0.018
-235.844	395.488	-0.097	0.199
-234.830	115.905	-0.023	-0.028
-233.815	-33.387	-0.246	-0.134
-232.800	-58.221	-0.255	-0.110
-231.786	-43.956	-0.211	0.105
-230.771	126.483	-0.058	0.072
-229.757	654.766	0.052	-0.133
-228.742	28.810	0.299	0.250
-227.727	-170.171	0.151	0.005
-226.713	-200.000	-0.005	0.032
-225.698	718.195	0.142	0.373
-224.684	-25.240	0.180	-0.105
-223.669	48.358	-0.250	0.231
-222.655	-200.000	-0.068	0.309
-221.640	-23.030	0.071	0.042
-220.625	-17.646	0.135	-0.084
-219.611	800.000	-0.004	0.015
-218.596	84.708	0.230	-0.248
-217.582	-200.000	0.016	0.185
-216.567	-65.527	-0.283	0.112
-215.552	-22.560	-0.279	-0.167
-214.538	800.000	-0.133	-0.431
-213.523	196.192	0.189	-0.284
-212.509	-135.692	-0.449	0.053
-211.494	9.792	-0.041	-0.031
-210.479	-130.931	0.360	0.048
-209.465	-26.206	0.139	0.080
-208.450	-51.933	-0.243	-0.111
-207.436	260.423	-0.165	-0.282
-206.421	-11.245	0.113	-0.074
-205.406	-119.128	0.111	-0.019
-204.392	649.735	0.029	0.073
-203.377	-52.936	0.230	-0.104
-202.363	-73.684	0.321	-0.115
-201.348	43.112	-0.164	0.148
-200.333	-47.780	0.193	-0.092
-199.319	111.773	-0.092	-0.109
-198.304	97.547	-0.122	0.138
-197.290	3.945	-0.073	0.053
-196.275	-32.361	-0.108	-0.059
-195.260	-200.000	-0.046	-0.251
-194.246	-136.575	0.237	-0.027
-193.231	-3.211	0.249	-0.171
-192.217	158.750	0.164	-0.225
-191.202	75.326	-0.143	0.149
-190.187	800.000	0.044	0.166
-189.173	-90.522	0.420	0.120
-188.158	204.038	-0.193	0.294
-187.144	-33.945	-0.062	0.034
-186.129	44.162	-0.072	0.065
-185.114	598.535	0.127	-0.312
-184.100	800.000	-0.063	0.224
-183.085	-5.757	0.327	-0.221
-182.071	-80.176	0.191	-0.063
-181.056	800.000	-0.027	0.085
-180.042	-127.988	-0.158	0.022
-179.027	263.250	-0.134	0.229
-178.012	57.101	-0.214	-0.206
-176.998	-75.271	0.176	-0.062
-175.983	-116.783	-0.258	0.047
-174.969	800.000	-0.116	-0.499
-173.954	-139.285	0.156	-0.017
-172.939	-57.377	0.117	0.051
-171.925	-4.320	-0.215	0.147
-170.910	17.353	-0.272	0.213
-169.896	-200.000	-0.022	0.255
-168.881	-39.705	-0.353	0.182
-167.866	800.000	0.026	-0.083
-166.852	-200.000	0.016	0.270
-165.837	-200.000	0.003	0.284
-164.823	800.000	-0.011	0.044
-163.808	670.992	-0.062	0.158
-162.793	-109.072	0.118	-0.025
-161.779	61.352	0.086	0.085
-160.764	-140.344	0.528	0.054
-159.750	-100.920	0.129	0.031
-158.735	18.394	0.193	0.152
-157.720	-171.918	0.312	0.010
-156.706	-200.000	0.053	0.241
-155.691	-200.000	-0.004	-0.130
-154.677	366.509	0.062	-0.124
-153.662	-4.467	0.076	-0.052
-152.647	173.178	0.092	0.131
-151.633	174.035	-0.179	-0.254
-150.618	118.431	-0.066	-0.081
-149.604	-72.530	-0.070	-0.025
-148.589	800.000	-0.068	0.209
-147.574	192.108	-0.052	0.077
-146.560	-78.481	0.178	-0.060
-145.545	180.831	0.195	0.282
-144.531	112.383	0.138	-0.164
-143.516	-48.593	0.326	0.154
-142.502	-146.000	-0.246	-0.021
-141.487	163.780	0.122	-0.169
-140.472	316.393	-0.098	-0.183
-139.458	162.771	-0.097	-0.134
-138.443	-5.229	0.213	0.144
-137.429	-200.000	0.003	0.314
-136.414	32.223	-0.384	0.326
-135.399	-91.141	0.104	0.029
-134.385	-200.000	0.030	0.349
-133.370	322.998	0.197	-0.370
-132.356	104.142	0.145	0.168
-131.341	257.447	0.128	0.216
-130.326	-122.197	0.074	-0.012
-129.312	-169.075	-0.099	0.004
-128.297	64.344	-0.078	0.077
-127.283	-200.000	-0.018	-0.280
-126.268	-39.163	0.224	-0.116
-125.253	94.281	0.161	-0.180
-124.239	79.119	-0.188	0.198
-123.224	164.275	-0.056	-0.078
-122.210	255.728	0.101	-0.171
-121.195	-88.352	0.125	-0.037
