DTS Sentinel unit serial number:	SN413079Multiplexer serial number:	ORYXHardware model number:	OX4-SRSoftware version number:	ORYX F/W v4.00 Oryx Data Collector v3.7.2.0data status	okinstallation	princeton_trtdifferential loss correction	single-endedforward channel	channel 1reverse channel	N/Adate	2019/09/11time	03:32:11forward acquisition time	60.00reverse acquisition time	0.00gamma	496.2192k internal	0.2331k external	0.2331temperature offset calibration	0.9926default loss term (dB/km)	0.3790temperature slope calibration	1.0000multiplexer offset coefficient	1.0000multiplexer slope coefficient	1.0000fibre end	0.00T internal ref (°C)	29.45T ext. ref 1 (°C)	-0.30T ext. ref 2 (°C)	23.97length (m)	temperature (°C)	Stokes	anti-Stokes-747.200	368.888	0.136	0.277
-746.185	-200.000	0.037	0.218
-745.171	-32.299	-0.230	0.129
-744.156	25.938	-0.168	-0.141
-743.142	120.347	-0.109	-0.137
-742.127	56.536	0.271	0.265
-741.112	-73.649	-0.295	-0.108
-740.098	-144.454	-0.269	0.025
-739.083	380.213	0.070	-0.144
-738.069	51.383	0.125	0.120
-737.054	-200.000	0.016	0.252
-736.039	-97.787	-0.147	0.038
-735.025	-18.049	0.213	-0.135
-734.010	-128.741	-0.141	0.020
-732.996	-100.006	0.152	0.038
-731.981	-200.000	0.041	0.338
-730.966	-52.226	0.077	0.036
-729.952	141.128	-0.242	0.322
-728.937	-199.965	0.100	0.000
-727.923	473.986	-0.083	-0.189
-726.908	-200.000	-0.003	-0.211
-725.894	39.536	-0.178	0.160
-724.879	-200.000	0.034	-0.177
-723.864	103.697	-0.145	0.171
-722.850	800.000	-0.065	-0.271
-721.835	-200.000	0.020	-0.284
-720.821	-108.960	0.138	-0.030
-719.806	330.768	-0.089	0.172
-718.791	-149.101	0.523	0.042
-717.777	-60.348	-0.217	0.093
-716.762	300.601	0.241	-0.447
-715.748	-176.254	-0.173	-0.005
-714.733	162.562	0.030	0.042
-713.718	75.000	-0.125	0.133
-712.704	131.163	-0.080	-0.103
-711.689	-137.453	-0.261	0.030
-710.675	-64.876	-0.225	-0.091
-709.660	383.541	0.124	-0.256
-708.645	-51.049	0.541	-0.255
-707.631	9.595	-0.106	-0.081
-706.616	336.420	0.123	0.241
-705.602	119.030	-0.188	-0.234
-704.587	33.376	0.235	-0.205
-703.572	80.126	0.214	0.231
-702.558	326.681	-0.096	-0.185
-701.543	-20.292	0.257	-0.159
-700.529	-200.000	-0.015	-0.183
-699.514	165.640	0.102	0.145
-698.499	-200.000	0.047	-0.426
-697.485	136.786	-0.210	-0.276
-696.470	3.514	0.338	-0.248
-695.456	-130.902	-0.244	-0.033
-694.441	-94.642	-0.250	-0.068
-693.426	168.891	-0.161	-0.231
-692.412	-200.000	0.008	-0.108
-691.397	-68.525	0.213	0.083
-690.383	-119.387	-0.263	-0.046
-689.368	-200.000	-0.027	-0.171
-688.354	-65.391	0.155	-0.063
-687.339	542.028	0.108	0.258
-686.324	79.651	-0.163	0.176
-685.310	-11.212	-0.233	0.154
-684.295	-159.083	-0.216	-0.012
-683.281	-91.083	-0.228	-0.066
-682.266	101.583	-0.137	0.160
-681.251	14.931	-0.297	-0.233
-680.237	264.316	-0.105	-0.184
-679.222	-200.000	0.023	-0.120
-678.208	-97.906	0.295	-0.077
-677.193	-200.000	0.048	-0.284
-676.178	-110.434	-0.107	0.022
-675.164	-139.090	-0.293	0.032
-674.149	800.000	0.090	-0.362
-673.135	554.868	-0.027	0.066
-672.120	-112.453	0.130	0.026
-671.105	121.985	-0.226	-0.283
-670.091	800.000	-0.016	0.046
-669.076	-2.667	-0.084	0.059
-668.062	-79.351	0.559	0.190
-667.047	-103.645	0.103	0.024
-666.032	-200.000	-0.032	-0.198
-665.018	800.000	-0.137	-0.441
-664.003	77.175	0.210	-0.224
-662.989	-77.850	0.213	-0.074
-661.974	-29.011	0.140	-0.080
-660.959	-200.000	0.037	0.196
-659.945	-1.595	0.190	-0.134
-658.930	-166.765	-0.123	0.005
-657.916	10.867	0.276	0.211
-656.901	639.651	0.136	0.346
-655.886	82.436	0.023	0.025
-654.872	-49.305	-0.214	-0.102
-653.857	-110.058	0.102	0.021
-652.843	-37.264	-0.156	-0.084
-651.828	67.687	-0.163	-0.167
-650.814	240.891	0.049	-0.083
-649.799	84.926	-0.193	0.212
-648.784	-200.000	-0.025	0.113
-647.770	-200.000	-0.005	-0.371
-646.755	120.350	-0.138	-0.172
-645.741	254.251	-0.016	0.027
-644.726	451.573	-0.083	-0.185
-643.711	-0.955	0.082	-0.058
-642.697	733.673	0.078	0.210
-641.682	280.458	0.127	-0.227
-640.668	42.994	-0.091	-0.083
-639.653	-43.343	0.213	-0.108
-638.638	-84.605	0.255	-0.081
-637.624	216.224	0.106	0.169
-636.609	-75.519	-0.433	-0.154
-635.595	-55.828	0.361	0.162
-634.580	-200.000	-0.014	0.118
-633.565	196.994	-0.121	0.185
-632.551	-200.000	-0.047	0.319
-631.536	-43.968	0.103	0.052
-630.522	800.000	0.075	-0.229
-629.507	-200.000	0.005	-0.035
-628.492	-77.965	0.149	-0.051
-627.478	-83.523	-0.341	-0.109
-626.463	800.000	0.051	0.172
-625.449	-82.694	-0.069	-0.022
-624.434	312.767	0.264	-0.496
-623.419	64.275	0.106	-0.106
-622.405	0.559	-0.254	0.182
-621.390	-112.984	-0.042	0.008
-620.376	800.000	0.023	0.072
-619.361	-112.998	-0.056	0.011
-618.346	-108.850	0.462	-0.099
-617.332	-110.242	-0.293	-0.061
-616.317	-200.000	-0.014	-0.139
-615.303	150.965	-0.069	-0.094
-614.288	-128.913	-0.042	0.006
-613.273	623.224	0.043	-0.107
-612.259	203.544	0.087	0.134
-611.244	379.932	-0.049	0.101
-610.230	-106.080	-0.133	-0.030
-609.215	542.942	-0.049	-0.116
-608.201	97.988	0.274	-0.316
-607.186	179.774	0.032	-0.046
-606.171	800.000	0.017	-0.052
-605.157	-20.224	-0.084	0.052
-604.142	3.746	-0.215	-0.157
-603.128	-34.483	-0.217	-0.119
-602.113	1.660	0.070	-0.051
-601.098	558.220	0.014	0.035
-600.084	-119.255	-0.098	-0.017
-599.069	-200.000	-0.081	-0.391
-598.055	-200.000	-0.096	0.000
-597.040	763.598	0.056	0.153
-596.025	-200.000	-0.004	-0.184
-595.011	-152.829	-0.266	0.019
-593.996	-84.164	-0.327	0.104
-592.982	127.186	0.023	0.029
-591.967	186.824	-0.170	0.253
-590.952	-56.586	0.261	-0.116
-589.938	157.925	-0.290	-0.402
-588.923	-107.586	-0.265	0.058
-587.909	800.000	0.025	0.100
-586.894	165.373	0.216	-0.305
-585.879	-200.000	0.039	0.433
-584.865	-200.000	0.032	-0.251
-583.850	-200.000	0.019	0.260
-582.836	204.312	-0.184	-0.286
-581.821	-15.134	0.078	-0.050
-580.806	-31.921	-0.118	-0.066
-579.792	-24.166	-0.082	0.049
-578.777	125.475	-0.068	0.086
-577.763	21.059	-0.243	-0.197
-576.748	-35.553	-0.196	-0.106
-575.733	-200.000	-0.009	-0.419
-574.719	529.707	0.033	-0.077
-573.704	-88.994	0.079	0.023
-572.690	-98.264	-0.016	0.004
-571.675	800.000	-0.087	0.242
-570.661	-52.858	0.182	0.084
-569.646	-151.534	-0.217	0.016
-568.631	-200.000	0.013	0.072
-567.617	-200.000	-0.014	0.138
-566.602	-11.497	-0.064	0.042
-565.588	269.770	-0.110	-0.193
-564.573	-90.758	0.086	0.025
-563.558	26.699	-0.068	0.057
-562.544	278.015	0.092	0.164
-561.529	-81.615	0.219	-0.072
-560.515	111.079	-0.258	-0.311
-559.500	184.893	0.092	0.137
-558.485	-169.847	-0.507	-0.018
-557.471	-115.154	0.207	-0.039
-556.456	-29.610	0.352	0.201
-555.442	-65.551	0.038	-0.015
-554.427	287.679	0.029	-0.052
-553.412	-25.196	-0.323	-0.191
-552.398	28.375	0.098	-0.083
-551.383	-200.000	-0.191	-0.001
-550.369	-137.063	0.345	-0.039
-549.354	-92.107	-0.574	0.162
-548.339	-58.935	0.283	-0.122
-547.325	800.000	0.097	-0.363
-546.310	-106.603	0.204	0.045
-545.296	800.000	0.027	-0.089
-544.281	473.670	-0.063	-0.141
-543.266	800.000	-0.060	-0.187
-542.252	182.895	0.153	0.226
-541.237	-200.000	0.025	0.343
-540.223	140.339	0.180	-0.238
-539.208	-13.250	-0.263	-0.171
-538.193	157.265	-0.120	-0.165
-537.179	-80.354	0.266	0.089
-536.164	-200.000	0.008	0.128
-535.150	-0.524	-0.146	0.104
-534.135	115.997	-0.072	0.088
-533.121	306.158	0.063	0.118
-532.106	800.000	0.069	0.248
-531.091	-137.535	0.062	0.007
-530.077	800.000	-0.114	-0.318
-529.062	-200.000	-0.017	-0.189
-528.048	-200.000	-0.024	0.353
-527.033	148.198	0.162	0.218
-526.018	91.725	-0.124	-0.139
-525.004	-14.715	-0.211	-0.135
-523.989	-51.251	0.344	0.161
-522.975	470.967	-0.021	-0.048
-521.960	-35.554	0.073	-0.039
-520.945	-13.933	-0.174	-0.112
-519.931	-200.000	-0.077	0.000
-518.916	132.672	-0.182	0.235
-517.902	-34.975	-0.216	-0.117
-516.887	54.599	-0.193	-0.185
-515.872	-75.333	0.235	0.084
-514.858	85.540	-0.165	0.181
-513.843	-59.587	0.073	0.031
-512.829	-134.889	0.424	0.051
-511.814	7.969	0.302	0.226
-510.799	73.817	0.291	0.304
-509.785	-162.130	0.049	-0.002
-508.770	-67.332	0.406	0.159
-507.756	-132.965	-0.149	-0.019
-506.741	-76.384	0.414	0.145
-505.726	46.733	0.223	-0.206
-504.712	104.318	0.195	-0.229
-503.697	73.034	-0.156	-0.162
-502.683	-117.120	-0.195	-0.035
-501.668	-200.000	-0.003	0.068
-500.653	-122.882	-0.020	0.003
-499.639	206.563	0.065	0.101
-498.624	79.673	-0.205	0.219
-497.610	44.713	0.477	0.437
-496.595	227.305	-0.055	0.088
-495.581	-200.000	0.003	-0.267
-494.566	800.000	0.083	-0.283
-493.551	543.635	0.082	-0.195
-492.537	693.910	0.027	0.070
-491.522	41.224	0.235	-0.212
-490.508	800.000	-0.054	-0.204
-489.493	153.187	0.020	-0.027
-488.478	1.634	-0.066	0.048
-487.464	800.000	-0.032	-0.105
-486.449	172.625	-0.068	-0.098
-485.435	234.469	0.040	0.065
-484.420	-200.000	-0.057	-0.314
-483.405	-55.090	-0.349	-0.156
-482.391	-200.000	-0.002	-0.077
-481.376	-84.242	-0.186	0.059
-480.362	-110.735	0.419	0.086
-479.347	-8.330	-0.156	0.104
-478.332	-2.799	-0.114	-0.079
-477.318	188.173	0.063	0.094
-476.303	60.979	-0.321	0.317
-475.289	-96.301	0.169	0.045
-474.274	-200.000	0.038	0.275
-473.259	-200.000	0.003	0.074
-472.245	-63.347	0.381	0.156
-471.230	106.253	-0.080	0.094
-470.216	263.319	-0.162	0.280
-469.201	483.491	-0.094	0.213
-468.186	173.840	-0.211	0.304
-467.172	-40.337	-0.059	0.031
-466.157	-79.855	0.268	0.090
-465.143	-200.000	-0.028	-0.182
-464.128	-93.992	0.252	-0.069
-463.113	-200.000	-0.007	0.296
-462.099	76.020	-0.060	-0.063
-461.084	509.666	0.093	0.215
-460.070	144.473	0.091	-0.120
-459.055	-200.000	-0.023	-0.344
-458.040	-200.000	0.022	0.569
-457.026	800.000	0.032	0.119
-456.011	128.352	-0.111	-0.140
-454.997	-200.000	0.007	-0.067
-453.982	-200.000	-0.022	0.146
-452.968	420.452	-0.084	-0.179
-451.953	65.917	-0.179	0.180
-450.938	-64.333	0.118	0.048
-449.924	-93.511	0.388	0.107
-448.909	-60.640	0.412	-0.174
-447.895	386.393	-0.034	0.071
-446.880	354.300	0.104	-0.206
-445.865	-200.000	-0.007	-0.256
-444.851	-94.061	-0.240	-0.065
-443.836	-16.937	-0.214	0.135
-442.822	-83.105	0.043	0.014
-441.807	-4.457	0.196	0.135
-440.792	195.446	0.102	-0.154
-439.778	-69.243	0.296	-0.113
-438.763	-52.240	-0.382	0.176
-437.749	-154.399	-0.087	0.006
-436.734	-130.164	-0.455	0.062
-435.719	61.941	-0.127	-0.125
-434.705	-188.501	0.008	0.000
-433.690	34.692	0.289	-0.251
-432.676	137.796	-0.386	0.503
-431.661	-98.603	-0.163	0.041
-430.646	69.795	0.214	-0.220
-429.632	-200.000	0.009	-0.099
-428.617	452.289	-0.130	-0.286
-427.603	-15.445	0.284	-0.180
-426.588	-0.852	0.314	-0.221
-425.573	1.131	-0.041	-0.029
-424.559	721.866	-0.095	-0.251
-423.544	-109.099	-0.124	0.026
-422.530	269.858	0.018	-0.032
-421.515	-72.894	0.084	-0.031
-420.500	465.122	0.148	0.328
-419.486	184.601	0.067	0.098
-418.471	-70.591	-0.116	0.044
-417.457	-6.136	-0.115	-0.078
-416.442	-85.872	-0.059	-0.018
-415.428	12.947	0.359	-0.276
-414.413	-27.740	-0.211	0.122
-413.398	26.361	-0.173	0.144
-412.384	275.689	0.135	0.238
-411.369	157.377	0.047	-0.065
-410.355	800.000	0.055	-0.171
-409.340	-189.477	-0.157	0.002
-408.325	800.000	0.087	-0.333
-407.311	70.056	0.341	-0.350
-406.296	474.177	0.042	-0.095
-405.282	622.164	0.034	-0.085
-404.267	800.000	0.029	-0.111
-403.252	-27.604	0.381	-0.220
-402.238	-68.454	-0.407	0.157
-401.223	-10.322	-0.043	0.028
-400.209	800.000	0.062	0.175
-399.194	-200.000	0.052	-0.326
-398.179	-7.749	-0.084	0.057
-397.165	38.613	0.067	-0.060
-396.150	800.000	0.097	0.313
-395.136	-27.048	-0.064	0.037
-394.121	-200.000	0.010	0.044
-393.106	-13.050	-0.368	0.238
-392.092	43.789	0.067	0.061
-391.077	201.736	-0.254	-0.389
-390.063	243.415	0.095	0.158
-389.048	-141.204	-0.434	-0.044
-388.033	800.000	-0.053	-0.188
-387.019	-108.112	0.122	-0.026
-386.004	-31.082	-0.207	0.116
-384.990	-95.827	0.091	0.024
-383.975	108.264	-0.046	-0.055
-382.960	126.350	0.160	-0.200
-381.946	667.587	-0.091	-0.233
-380.931	-17.893	-0.195	-0.121
-379.917	79.515	0.156	-0.167
-378.902	243.422	-0.166	0.276
-377.888	800.000	0.100	0.327
-376.873	212.229	0.206	0.322
-375.858	-110.113	0.246	-0.051
-374.844	-84.770	0.331	-0.103
-373.829	57.182	-0.096	-0.093
-372.815	158.156	-0.118	-0.162
-371.800	214.188	-0.019	0.030
-370.785	-200.000	0.010	0.158
-369.771	-77.981	0.269	0.092
-368.756	665.615	-0.053	-0.135
-367.742	325.960	-0.117	-0.223
-366.727	264.537	0.174	-0.301
-365.712	-58.175	0.464	-0.201
-364.698	-140.422	0.175	-0.018
-363.683	-130.047	0.240	0.033
-362.669	-139.151	0.197	0.021
-361.654	-200.000	-0.028	0.218
-360.639	-200.000	0.054	0.317
-359.625	73.552	-0.082	-0.085
-358.610	-69.165	0.233	0.089
-357.596	-95.806	-0.063	0.017
-356.581	-28.493	-0.123	0.070
-355.566	-117.185	-0.166	0.030
-354.552	-16.710	-0.133	0.083
-353.537	800.000	0.031	-0.112
-352.523	34.392	0.120	-0.104
-351.508	-18.983	-0.334	0.206
-350.493	539.401	0.048	0.114
-349.479	220.383	-0.137	-0.217
-348.464	-108.831	0.285	-0.060
-347.450	-200.000	-0.030	-0.141
-346.435	-200.000	-0.073	-0.324
-345.420	-79.635	-0.195	0.065
-344.406	-200.000	0.009	-0.168
-343.391	219.920	0.057	0.091
-342.377	35.515	0.158	-0.138
-341.362	800.000	-0.023	-0.080
-340.348	-8.170	0.304	-0.203
-339.333	-62.599	0.273	-0.112
-338.318	126.050	0.104	-0.130
-337.304	561.383	0.064	-0.153
-336.289	212.217	0.043	-0.067
-335.275	800.000	-0.061	0.235
-334.260	103.500	-0.234	0.272
-333.245	34.320	0.262	0.227
-332.231	137.908	0.028	-0.037
-331.216	-120.642	-0.287	-0.048
-330.202	414.155	-0.135	0.285
-329.187	-200.000	-0.036	0.218
-328.172	383.333	0.197	0.401
-327.158	-82.242	-0.090	-0.029
-326.143	193.246	0.120	0.179
-325.129	-112.613	0.152	-0.030
-324.114	-200.000	-0.043	-0.221
-323.099	-200.000	0.015	-0.281
-322.085	236.006	0.142	-0.232
-321.070	-122.176	-0.176	0.029
-320.056	465.220	-0.131	0.290
-319.041	-200.000	-0.011	-0.182
-318.026	95.086	0.238	-0.268
-317.012	35.423	0.273	0.237
-315.997	-139.661	-0.385	-0.041
-314.983	-18.657	-0.515	0.318
-313.968	-73.461	-0.056	-0.020
-312.953	347.222	-0.027	-0.053
-311.939	-125.467	-0.329	0.050
-310.924	-39.119	0.127	-0.066
-309.910	84.574	0.240	0.260
-308.895	800.000	0.082	0.258
-307.880	287.482	0.084	0.150
-306.866	-26.344	-0.149	0.087
-305.851	-12.093	0.043	-0.028
-304.837	-47.134	-0.099	-0.048
-303.822	106.892	-0.117	-0.137
-302.807	382.156	-0.161	-0.327
-301.793	91.549	0.045	0.050
-300.778	-151.324	0.204	-0.015
-299.764	444.040	0.024	0.053
-298.749	34.787	0.106	0.091
-297.735	-137.725	0.052	0.006
-296.720	-108.635	0.071	0.015
-295.705	1.701	0.096	-0.068
-294.691	0.788	0.107	-0.076
-293.676	46.737	-0.244	-0.224
-292.662	-200.000	0.021	-0.386
-291.647	-106.903	0.143	0.031
-290.632	12.590	0.364	-0.278
-289.618	12.089	0.163	0.124
-288.603	55.421	-0.106	-0.102
-287.589	-164.706	0.142	-0.006
-286.574	343.005	0.048	0.093
-285.559	-200.000	0.002	0.142
-284.545	162.337	-0.117	0.162
-283.530	73.456	0.073	-0.075
-282.516	84.030	-0.078	0.084
-281.501	25.195	-0.155	-0.128
-280.486	-200.000	0.003	0.015
-279.472	243.973	0.045	-0.075
-278.457	800.000	-0.099	0.310
-277.443	-154.295	-0.259	0.017
-276.428	39.439	0.174	0.154
-275.413	-79.140	0.185	0.062
-274.399	-23.734	-0.151	0.089
-273.384	-200.000	0.009	-0.248
-272.370	396.281	0.043	0.089
-271.355	-96.797	0.281	-0.073
-270.340	199.561	-0.189	0.286
-269.326	-114.441	0.183	0.035
-268.311	293.408	0.180	0.325
-267.297	-34.938	0.296	0.159
-266.282	207.483	0.172	0.265
-265.267	251.339	0.016	0.027
-264.253	-200.000	-0.010	0.251
-263.238	159.435	0.044	-0.060
-262.224	360.199	0.067	-0.132
-261.209	-152.574	0.169	0.012
-260.195	458.352	-0.096	0.212
-259.180	-127.682	-0.130	-0.019
-258.165	-175.287	-0.220	0.006
-257.151	204.053	-0.309	-0.472
-256.136	-27.498	0.129	-0.074
-255.122	29.404	-0.167	-0.140
-254.107	-47.874	0.062	-0.029
-253.092	-200.000	0.003	-0.247
-252.078	8.766	-0.274	0.204
-251.063	120.788	0.032	-0.039
-250.049	-146.261	-0.235	0.020
-249.034	111.158	-0.143	0.171
-248.019	-112.928	-0.268	-0.052
-247.005	582.552	-0.119	0.288
-245.990	382.909	0.027	0.054
-244.976	45.892	0.275	0.252
-243.961	-86.915	-0.473	0.142
-242.946	-138.795	0.537	0.058
-241.932	-60.468	-0.160	0.067
-240.917	-46.192	-0.378	0.184
-239.903	33.552	0.204	0.175
-238.888	-62.654	-0.107	0.044
-237.873	-74.141	-0.047	0.017
-236.859	800.000	-0.037	0.117
-235.844	58.550	-0.198	-0.191
-234.830	800.000	-0.011	-0.042
-233.815	-125.869	-0.143	0.021
-232.800	-3.087	-0.119	0.082
-231.786	-200.000	0.023	0.195
-230.771	-200.000	-0.023	0.205
-229.757	-200.000	-0.018	0.384
-228.742	-83.230	0.244	0.077
-227.727	32.704	0.139	-0.119
-226.713	-200.000	-0.012	0.053
-225.698	-89.512	0.147	-0.043
-224.684	-34.200	0.028	0.015
-223.669	-51.774	-0.158	0.073
-222.655	-116.578	-0.200	0.036
-221.640	-99.175	0.298	-0.074
-220.625	-200.000	-0.010	-0.205
-219.611	284.359	-0.072	-0.128
-218.596	50.598	0.184	-0.171
-217.582	-69.958	0.205	0.077
-216.567	144.364	0.150	0.197
-215.552	-114.404	0.317	0.060
-214.538	368.487	-0.122	0.244
-213.523	-164.842	0.179	0.008
-212.509	-142.856	-0.532	-0.051
-211.494	-200.000	-0.066	0.379
-210.479	-200.000	0.033	0.299
-209.465	326.422	-0.112	0.211
-208.450	428.190	0.078	0.167
-207.436	-59.355	0.221	0.094
-206.421	-200.000	-0.003	0.104
-205.406	51.320	-0.180	0.169
-204.392	-171.315	-0.410	0.014
-203.377	299.614	-0.112	0.204
-202.363	440.971	0.071	0.152
-201.348	-183.910	-0.095	-0.002
-200.333	134.697	-0.158	-0.202
-199.319	-15.227	0.141	0.089
-198.304	-56.990	-0.103	-0.045
-197.290	511.124	-0.047	-0.109
-196.275	33.326	0.230	-0.197
-195.260	-41.769	-0.372	-0.188
-194.246	-113.387	-0.084	0.016
-193.231	-87.935	0.155	0.046
-192.217	-127.009	0.142	0.021
-191.202	-200.000	0.011	0.202
-190.187	-136.340	-0.064	0.007
-189.173	-81.701	-0.178	-0.057
-188.158	-152.546	-0.299	0.021
-187.144	64.172	0.052	0.052
-186.129	-91.879	-0.022	0.006
-185.114	-54.804	0.235	0.105
-184.100	275.246	0.143	0.250
-183.085	73.834	-0.193	-0.199
-182.071	451.942	0.069	-0.151
-181.056	312.994	-0.028	0.053
-180.042	327.930	-0.043	-0.081
-179.027	800.000	0.057	-0.177
-178.012	-5.598	0.175	-0.118
-176.998	105.597	0.203	-0.236
-175.983	-200.000	0.041	-0.220
-174.969	800.000	0.072	-0.230
-173.954	-129.266	0.362	-0.050
-172.939	197.832	-0.081	0.122
-171.925	-118.517	-0.239	-0.042
-170.910	-48.750	-0.405	-0.191
-169.896	101.234	0.263	0.302
-168.881	2.683	0.163	-0.116
-167.866	-10.784	-0.242	0.157
-166.852	-130.444	0.261	-0.035
-165.837	252.758	-0.070	-0.118
-164.823	-113.564	0.243	-0.047
-163.808	158.948	-0.106	-0.145
-162.793	645.490	0.112	-0.281
-161.779	-142.207	-0.152	-0.015
-160.764	-200.000	0.066	-0.357
-159.750	-54.554	-0.228	0.101
-158.735	-200.000	0.006	0.185
-157.720	88.175	-0.131	0.143
-156.706	-200.000	0.048	-0.348
-155.691	-115.551	-0.278	0.051
-154.677	800.000	0.062	-0.230
-153.662	-37.623	-0.053	-0.028
-152.647	392.819	-0.177	0.362
-151.633	-13.303	-0.272	0.174
-150.618	-27.022	-0.205	0.118
-149.604	-200.000	-0.025	0.303
-148.589	-200.000	-0.003	0.040
-147.574	-200.000	0.066	-0.405
-146.560	12.543	0.473	0.359
-145.545	-100.085	0.108	-0.027
-144.531	-200.000	0.001	0.135
-143.516	-88.985	-0.127	-0.037
-142.502	-162.995	0.104	0.005
-141.487	-149.636	0.358	0.028
-140.472	-137.333	-0.271	-0.030
-139.458	0.849	-0.096	-0.067
-138.443	-200.000	0.010	-0.123
-137.429	800.000	0.005	0.022
-136.414	369.111	-0.244	-0.486
-135.399	-166.183	-0.177	-0.007
-134.385	-25.026	0.370	0.216
-133.370	-104.493	0.011	0.002
-132.356	119.412	-0.263	-0.320
-131.341	-108.162	0.090	0.019
-130.326	-155.485	-0.186	0.012
-129.312	800.000	0.019	0.074
-128.297	-141.606	0.255	0.025
-127.283	-61.249	-0.163	0.067
-126.268	-14.689	-0.043	-0.027
-125.253	-175.272	0.265	0.007
-124.239	-111.461	0.316	0.063
-123.224	-39.804	0.156	0.080
-122.210	-84.042	-0.199	-0.062
-121.195	-130.945	0.165	0.022
