DTS Sentinel unit serial number:	SN413079Multiplexer serial number:	ORYXHardware model number:	OX4-SRSoftware version number:	ORYX F/W v4.00 Oryx Data Collector v3.7.2.0data status	okinstallation	princeton_trtdifferential loss correction	single-endedforward channel	channel 1reverse channel	N/Adate	2019/09/12time	18:18:34forward acquisition time	15.00reverse acquisition time	0.00gamma	496.2192k internal	0.2317k external	0.2317temperature offset calibration	1.0104default loss term (dB/km)	0.3790temperature slope calibration	1.0000multiplexer offset coefficient	1.0000multiplexer slope coefficient	1.0000fibre end	0.00T internal ref (°C)	33.44T ext. ref 1 (°C)	2.92T ext. ref 2 (°C)	28.10length (m)	temperature (°C)	Stokes	anti-Stokes-747.200	-200.000	-0.005	0.340
-746.185	-200.000	-0.072	0.997
-745.171	-200.000	-0.133	1.039
-744.156	-200.000	-0.008	-0.381
-743.142	80.480	0.363	0.396
-742.127	19.713	-0.220	0.179
-741.112	-200.000	-0.011	-0.219
-740.098	150.292	0.707	0.972
-739.083	-91.752	0.576	-0.166
-738.069	-200.000	0.027	-0.464
-737.054	-4.877	0.203	-0.142
-736.039	-109.444	-1.012	-0.217
-735.025	370.098	-0.279	-0.572
-734.010	-127.689	-0.917	-0.134
-732.996	-200.000	-0.047	0.213
-731.981	156.361	-0.092	-0.129
-730.966	44.813	-1.036	-0.964
-729.952	-40.033	1.033	0.545
-728.937	-200.000	-0.001	0.306
-727.923	-200.000	0.107	-0.491
-726.908	310.067	0.266	-0.504
-725.894	-162.234	0.554	-0.028
-724.879	163.998	0.246	0.351
-723.864	-56.259	-0.735	0.331
-722.850	-200.000	0.025	0.544
-721.835	259.482	-0.407	-0.711
-720.821	-3.722	0.523	0.368
-719.806	-80.271	0.434	-0.147
-718.791	-200.000	-0.031	-0.648
-717.777	-200.000	-0.073	-0.388
-716.762	200.477	-0.328	0.509
-715.748	154.205	0.302	0.419
-714.733	-200.000	-0.132	0.629
-713.718	-200.000	-0.026	-0.336
-712.704	37.087	0.098	0.088
-711.689	-16.353	-0.930	0.597
-710.675	236.734	-0.088	0.148
-709.660	99.765	0.367	-0.430
-708.645	-127.421	-0.816	0.120
-707.631	-36.734	0.588	0.319
-706.616	341.615	0.064	-0.126
-705.602	-21.460	-0.456	0.281
-704.587	132.336	-0.283	-0.369
-703.572	-200.000	0.005	-0.185
-702.558	185.641	0.129	-0.194
-701.543	-93.886	0.227	0.063
-700.529	800.000	0.252	-0.743
-699.514	-200.000	0.054	-0.895
-698.499	-200.000	0.008	0.212
-697.485	-104.487	-0.670	-0.157
-696.470	-123.707	-0.251	0.040
-695.456	119.895	-0.082	-0.103
-694.441	-63.574	0.421	0.175
-693.426	-29.989	-0.313	-0.180
-692.412	-33.051	-0.355	-0.199
-691.397	-68.041	-0.528	0.208
-690.383	-130.806	0.081	0.011
-689.368	-56.381	0.256	-0.115
-688.354	-13.747	-0.363	-0.237
-687.339	44.994	-0.341	0.318
-686.324	800.000	-0.271	0.789
-685.310	-58.340	0.324	-0.142
-684.295	-66.848	-0.616	-0.246
-683.281	385.136	0.397	-0.828
-682.266	-200.000	-0.006	-0.250
-681.251	-133.468	-0.791	-0.100
-680.237	-53.287	0.768	0.356
-679.222	18.738	0.123	0.099
-678.208	2.816	-0.462	-0.338
-677.193	1.081	0.421	-0.305
-676.178	171.149	0.261	0.378
-675.164	800.000	-0.258	-0.853
-674.149	97.225	0.516	0.598
-673.135	-20.577	-0.946	-0.587
-672.120	-200.000	0.052	-0.650
-671.105	-90.802	-0.228	-0.066
-670.091	64.932	0.864	-0.881
-669.076	-154.287	0.122	0.008
-668.062	-109.292	0.755	0.162
-667.047	-200.000	-0.160	-1.010
-666.032	-200.000	0.081	-0.371
-665.018	-34.938	0.500	-0.275
-664.003	-76.694	0.859	0.304
-662.989	217.800	-0.338	0.545
-661.974	273.996	-0.335	-0.598
-660.959	31.806	-0.594	-0.516
-659.945	286.510	-0.358	0.652
-658.930	474.440	0.342	-0.780
-657.916	234.154	-0.399	-0.663
-656.901	94.487	0.246	-0.282
-655.886	-100.160	0.823	0.207
-654.872	-22.337	-0.867	-0.530
-653.857	-81.140	-0.861	0.287
-652.843	-76.661	-0.680	0.241
-651.828	425.172	0.126	0.274
-650.814	-200.000	0.020	-0.158
-649.799	-109.468	0.215	0.046
-648.784	-200.000	-0.077	-0.652
-647.770	-200.000	-0.051	-1.320
-646.755	66.184	-0.297	-0.304
-645.741	126.457	-0.328	-0.418
-644.726	-200.000	-0.024	0.141
-643.711	552.916	0.255	-0.617
-642.697	462.901	-0.069	-0.155
-641.682	111.273	-0.443	0.538
-640.668	-57.789	-0.607	-0.268
-639.653	103.306	0.478	0.565
-638.638	-75.341	-0.536	-0.193
-637.624	139.062	0.227	-0.300
-636.609	-115.688	-0.612	0.116
-635.595	185.530	0.833	1.248
-634.580	800.000	-0.265	-0.869
-633.565	-94.531	0.848	-0.233
-632.551	-200.000	0.047	0.472
-631.536	-140.586	0.197	0.021
-630.522	-13.781	1.113	0.726
-629.507	-200.000	-0.162	0.895
-628.492	427.610	0.096	0.209
-627.478	-200.000	0.073	-0.572
-626.463	-121.322	0.382	-0.064
-625.449	-117.320	-0.721	0.132
-624.434	-182.390	0.454	-0.008
-623.419	-148.255	0.758	-0.063
-622.405	-200.000	0.010	0.168
-621.390	32.065	-0.254	-0.220
-620.376	588.940	-0.242	-0.600
-619.361	42.770	-0.451	0.414
-618.346	-200.000	0.043	-0.610
-617.332	-44.565	-0.913	-0.460
-616.317	-200.000	0.091	0.884
-615.303	135.482	0.117	0.154
-614.288	92.681	-0.503	0.572
-613.273	-200.000	-0.090	0.445
-612.259	278.370	0.369	-0.663
-611.244	161.322	-0.352	0.496
-610.230	800.000	-0.018	0.068
-609.215	136.488	-0.340	0.447
-608.201	-45.633	-0.414	-0.206
-607.186	257.191	-0.501	0.867
-606.171	800.000	-0.207	0.864
-605.157	-65.861	-0.443	0.178
-604.142	-200.000	-0.112	0.769
-603.128	316.790	0.174	-0.330
-602.113	800.000	-0.122	0.496
-601.098	-200.000	-0.044	-0.819
-600.084	-15.534	0.156	-0.100
-599.069	716.045	0.055	0.148
-598.055	-152.271	0.647	0.047
-597.040	-63.562	-0.704	-0.291
-596.025	56.811	0.103	-0.101
-595.011	-123.810	-0.258	-0.041
-593.996	17.954	0.459	0.368
-592.982	28.182	-0.627	-0.532
-591.967	-129.046	0.371	-0.052
-590.952	-5.671	-0.318	0.219
-589.938	103.694	-0.184	0.218
-588.923	-200.000	0.009	0.141
-587.909	123.079	0.615	0.775
-586.894	-40.244	-0.647	-0.339
-585.879	-153.244	-0.797	0.056
-584.865	-200.000	-0.072	0.410
-583.850	-62.660	-0.494	-0.206
-582.836	-164.703	0.706	0.032
-581.821	282.588	-0.474	0.855
-580.806	800.000	-0.066	0.236
-579.792	-22.937	0.566	-0.344
-578.777	38.463	-0.095	0.086
-577.763	-172.285	-0.773	-0.025
-576.748	800.000	-0.241	-0.754
-575.733	102.311	0.222	0.261
-574.719	-89.125	0.407	0.121
-573.704	-36.967	-0.692	0.373
-572.690	-8.576	0.548	-0.370
-571.675	-58.021	0.270	0.118
-570.661	-90.374	0.785	0.229
-569.646	-157.511	0.317	-0.019
-568.631	279.352	0.200	-0.358
-567.617	-129.410	0.546	0.076
-566.602	738.586	-0.350	0.945
-565.588	275.656	0.034	-0.060
-564.573	86.171	-0.052	0.057
-563.558	-66.566	0.496	0.198
-562.544	-152.603	0.477	-0.034
-561.529	18.526	0.465	0.374
-560.515	800.000	-0.118	0.345
-559.500	-18.832	-0.639	0.400
-558.485	800.000	0.090	0.314
-557.471	-78.728	1.036	0.355
-556.456	-18.720	1.127	0.706
-555.442	20.662	0.898	-0.731
-554.427	-119.934	-0.733	-0.127
-553.412	-140.758	-0.384	0.040
-552.398	-135.566	0.184	-0.022
-551.383	-25.315	0.290	0.173
-550.369	-38.926	0.409	-0.217
-549.354	-125.394	0.286	-0.044
-548.339	-17.514	0.843	-0.533
-547.325	-145.620	-0.517	0.046
-546.310	-85.489	0.916	0.287
-545.296	203.523	0.529	-0.823
-544.281	77.998	-0.190	-0.204
-543.266	166.325	0.133	0.189
-542.252	22.184	0.544	0.446
-541.237	43.973	0.596	0.549
-540.223	800.000	0.157	-0.442
-539.208	-131.849	-0.700	0.092
-538.193	-102.725	0.262	-0.063
-537.179	423.097	-0.444	0.959
-536.164	99.654	-0.090	-0.104
-535.150	352.592	-0.203	0.403
-534.135	-106.827	0.950	0.212
-533.121	199.580	0.195	0.300
-532.106	800.000	-0.068	-0.268
-531.091	-115.734	1.464	0.275
-530.077	119.942	0.276	-0.344
-529.062	193.703	-0.171	-0.260
-528.048	-55.066	-0.484	-0.219
-527.033	-200.000	0.086	0.416
-526.018	616.424	-0.104	0.261
-525.004	-108.763	0.973	0.209
-523.989	800.000	0.218	-0.824
-522.975	-156.050	0.656	0.042
-521.960	-56.946	0.593	0.263
-520.945	-96.814	0.398	0.105
-519.931	-200.000	-0.147	0.678
-518.916	-107.520	0.660	0.145
-517.902	-10.221	0.679	0.452
-516.887	-145.551	0.332	0.030
-515.872	372.883	-0.216	-0.441
-514.858	-192.412	-0.243	-0.002
-513.843	-200.000	0.069	0.671
-512.829	-50.264	-0.611	-0.290
-511.814	800.000	-0.120	0.361
-510.799	-200.000	-0.080	-0.420
-509.785	44.444	-0.117	0.108
-508.770	-200.000	-0.553	-0.001
-507.756	67.591	-0.416	0.426
-506.741	98.277	-0.312	-0.361
-505.726	-200.000	-0.032	0.180
-504.712	-50.314	0.105	-0.050
-503.697	-116.936	-0.432	-0.079
-502.683	-200.000	-0.284	-1.403
-501.668	-150.943	-0.439	-0.033
-500.653	-88.515	0.579	0.173
-499.639	43.842	-0.239	-0.219
-498.624	-25.344	-0.467	0.277
-497.610	-122.775	-0.892	-0.145
-496.595	29.167	0.408	0.347
-495.581	-200.000	-0.258	1.225
-494.566	-163.307	-0.510	0.024
-493.551	-59.086	0.507	-0.219
-492.537	208.443	-0.743	-1.164
-491.522	-81.384	-0.490	0.162
-490.508	122.781	0.412	-0.517
-489.493	24.685	-0.059	0.049
-488.478	-191.737	-0.336	0.003
-487.464	88.362	-0.114	0.126
-486.449	-34.459	0.469	0.258
-485.435	-85.983	0.523	0.162
-484.420	-200.000	-0.030	0.309
-483.405	64.435	0.221	0.223
-482.391	-88.158	-0.916	0.275
-481.376	553.813	-0.325	-0.784
-480.362	-21.990	-0.814	0.495
-479.347	79.630	-0.367	0.395
-478.332	-200.000	0.116	-0.750
-477.318	-89.289	-0.594	0.175
-476.303	420.823	0.272	-0.583
-475.289	283.458	0.268	-0.482
-474.274	-10.148	-0.684	-0.455
-473.259	-95.407	0.487	0.131
-472.245	800.000	-0.176	0.558
-471.230	533.140	-0.132	-0.314
-470.216	77.605	-0.190	-0.203
-469.201	21.453	-0.293	0.239
-468.186	-90.349	-0.916	-0.266
-467.172	339.187	0.372	0.725
-466.157	181.935	-0.235	-0.346
-465.143	-70.015	-0.375	0.143
-464.128	-67.951	0.693	0.271
-463.113	112.543	-0.510	-0.618
-462.099	-140.163	-0.073	0.008
-461.084	133.438	-0.062	0.081
-460.070	-78.634	-0.224	-0.077
-459.055	335.012	0.201	0.389
-458.040	173.575	-0.108	-0.156
-457.026	800.000	0.135	-0.480
-456.011	-118.005	0.590	0.106
-454.997	-200.000	0.011	-0.285
-453.982	62.873	0.517	0.518
-452.968	-54.302	-0.686	0.312
-451.953	504.930	-0.290	-0.672
-450.938	-145.557	0.495	-0.044
-449.924	-200.000	0.140	-0.861
-448.909	504.139	-0.301	-0.698
-447.895	86.368	-0.088	0.097
-446.880	800.000	0.161	-0.556
-445.865	27.958	0.493	-0.416
-444.851	63.843	-0.425	-0.427
-443.836	196.347	0.213	0.325
-442.822	-161.964	-0.331	-0.017
-441.807	800.000	-0.055	-0.199
-440.792	-26.727	0.357	-0.209
-439.778	162.229	-0.294	0.412
-438.763	-157.955	0.025	0.001
-437.749	52.164	-0.365	-0.348
-436.734	-162.327	-0.451	-0.022
-435.719	-8.392	0.298	0.201
-434.705	23.003	-0.442	0.363
-433.690	49.507	-0.788	0.742
-432.676	800.000	0.167	0.659
-431.661	-160.982	0.915	0.048
-430.646	213.162	-0.163	-0.257
-429.632	-200.000	0.055	0.851
-428.617	-108.256	0.284	-0.061
-427.603	-106.673	0.446	0.099
-426.588	-200.000	0.071	0.443
-425.573	-86.040	0.810	0.250
-424.559	-200.000	-1.031	0.003
-423.544	38.875	0.274	0.245
-422.530	-159.929	0.270	0.015
-421.515	-82.998	-0.776	-0.250
-420.500	-26.062	-0.667	-0.392
-419.486	-133.026	0.774	-0.098
-418.471	449.496	0.226	-0.498
-417.457	-47.011	-0.265	-0.129
-416.442	-45.755	-1.066	-0.527
-415.428	-200.000	0.056	0.524
-414.413	-4.376	0.449	0.310
-413.398	-112.849	-0.539	0.107
-412.384	-49.979	0.464	-0.220
-411.369	-107.465	0.267	0.058
-410.355	10.558	-0.373	0.284
-409.340	-113.751	-0.416	-0.081
-408.325	-101.019	-0.441	0.108
-407.311	800.000	0.092	0.300
-406.296	113.601	-0.219	-0.266
-405.282	-49.908	-1.086	0.515
-404.267	180.125	-0.187	0.274
-403.252	-162.001	0.130	-0.007
-402.238	-42.305	-0.229	-0.117
-401.223	72.386	-0.512	0.533
-400.209	-97.978	0.326	0.084
-399.194	-200.000	0.032	-0.324
-398.179	111.562	-0.050	-0.061
-397.165	-1.814	0.633	0.445
-396.150	106.362	-0.352	-0.417
-395.136	252.669	-0.346	-0.590
-394.121	800.000	0.061	-0.183
-393.106	305.426	-0.256	-0.475
-392.092	-200.000	0.058	0.262
-391.077	-17.118	0.431	0.271
-390.063	163.759	-0.419	-0.588
-389.048	4.385	-0.378	-0.277
-388.033	-200.000	-0.019	0.231
-387.019	-13.799	0.583	0.376
-386.004	104.979	0.284	0.335
-384.990	-16.328	-0.562	-0.356
-383.975	-83.415	0.743	0.238
-382.960	-28.730	0.546	-0.314
-381.946	364.582	0.195	-0.392
-380.931	244.300	0.424	-0.711
-379.917	-41.199	0.371	0.191
-378.902	-200.000	-0.032	-0.319
-377.888	-200.000	0.054	0.459
-376.873	-200.000	0.176	-0.800
-375.858	-81.505	-0.501	0.164
-374.844	-200.000	-0.007	-0.617
-373.829	-86.453	-0.196	-0.060
-372.815	10.242	-0.454	-0.345
-371.800	48.139	0.127	0.119
-370.785	-200.000	-0.025	-0.129
-369.771	-97.497	0.141	-0.036
-368.756	-91.737	0.471	0.134
-367.742	-49.300	-0.294	-0.140
-366.727	259.298	0.120	-0.206
-365.712	126.303	0.489	-0.618
-364.698	-9.975	0.652	0.432
-363.683	-124.016	0.681	0.107
-362.669	-102.416	-0.620	-0.148
-361.654	377.606	0.392	-0.799
-360.639	-78.841	-0.396	-0.135
-359.625	-69.808	0.415	0.158
-358.610	561.409	-0.460	-1.108
-357.596	80.165	-0.384	-0.412
-356.581	-200.000	0.048	-0.898
-355.566	-76.758	0.527	0.184
-354.552	75.589	0.582	-0.613
-353.537	46.399	0.216	-0.199
-352.523	-200.000	0.035	-0.351
-351.508	-200.000	0.059	0.696
-350.493	133.127	-0.478	0.616
-349.479	427.182	0.198	0.426
-348.464	800.000	0.168	-0.714
-347.450	-99.800	-0.329	-0.082
-346.435	140.545	-0.351	0.462
-345.420	149.446	0.594	-0.801
-344.406	-94.570	0.334	-0.091
-343.391	275.664	-0.383	-0.677
-342.377	206.099	0.457	-0.708
-341.362	-34.518	-0.804	0.439
-340.348	-126.693	-1.120	0.165
-339.333	-93.399	0.072	0.020
-338.318	800.000	0.225	0.782
-337.304	167.169	-0.308	0.436
-336.289	413.667	0.239	0.506
-335.275	-188.990	0.278	-0.003
-334.260	-200.000	0.022	-0.225
-333.245	800.000	-0.162	-0.533
-332.231	-15.462	-0.506	-0.322
-331.216	-88.626	-0.446	-0.132
-330.202	-181.559	0.716	-0.014
-329.187	375.088	-0.377	-0.765
-328.172	-78.586	-0.587	-0.200
-327.158	71.326	0.168	0.174
-326.143	-32.657	-0.331	-0.184
-325.129	-33.243	-0.685	0.378
-324.114	5.300	-0.329	0.242
-323.099	77.156	-0.218	-0.231
-322.085	154.106	-0.529	-0.722
-321.070	-152.025	0.272	-0.020
-320.056	-200.000	0.030	0.544
-319.041	-165.346	0.215	-0.009
-318.026	-70.103	0.483	0.183
-317.012	23.687	0.301	0.247
-315.997	800.000	-0.065	0.199
-314.983	-200.000	-0.128	0.713
-313.968	-200.000	-0.179	-0.864
-312.953	-149.471	0.256	-0.020
-311.939	-200.000	0.017	-0.345
-310.924	800.000	-0.177	-0.541
-309.910	177.134	0.508	0.736
-308.895	192.936	-0.320	0.482
-307.880	-57.338	-0.125	-0.055
-306.866	51.813	-0.266	0.252
-305.851	91.304	-0.024	-0.027
-304.837	23.809	-0.017	-0.014
-303.822	-200.000	-0.001	0.174
-302.807	-120.520	-0.799	0.135
-301.793	28.959	-0.188	-0.159
-300.778	-115.038	0.608	-0.115
-299.764	-200.000	-0.018	-0.842
-298.749	-38.264	-0.171	0.090
-297.735	-98.734	0.393	-0.100
-296.720	134.480	0.051	0.066
-295.705	-34.861	0.390	0.212
-294.691	-200.000	-0.001	-0.179
-293.676	120.599	-0.762	0.942
-292.662	160.926	-0.433	0.601
-291.647	-200.000	-0.110	-0.680
-290.632	92.822	-0.130	-0.146
-289.618	217.307	0.264	0.418
-288.603	-21.639	0.489	0.296
-287.589	-18.144	-0.103	0.064
-286.574	800.000	-0.156	0.495
-285.559	-200.000	0.064	0.560
-284.545	675.746	0.126	-0.325
-283.530	-68.674	-0.419	0.161
-282.516	291.551	-0.346	-0.626
-281.501	-80.285	0.429	0.143
-280.486	-145.173	-0.891	0.080
-279.472	53.694	0.136	-0.130
-278.457	51.264	-0.367	0.346
-277.443	-51.444	0.133	-0.062
-276.428	-200.000	0.005	-0.447
-275.413	-5.530	0.388	-0.265
-274.399	238.061	0.358	-0.591
-273.384	-182.451	-0.726	-0.013
-272.370	-63.963	0.412	-0.167
-271.355	1.845	0.565	0.405
-270.340	335.733	0.127	0.245
-269.326	-58.075	-0.596	0.258
-268.311	-118.371	0.542	0.096
-267.297	-200.000	-0.212	-1.065
-266.282	136.900	-0.500	0.649
-265.267	-28.064	0.112	0.064
-264.253	-121.707	0.380	-0.062
-263.238	-113.005	-0.224	0.044
-262.224	-82.752	0.567	0.182
-261.209	-178.593	0.743	-0.017
-260.195	800.000	-0.151	0.443
-259.180	104.120	0.155	-0.181
-258.165	-138.263	0.362	-0.040
-257.151	215.986	-0.450	0.711
-256.136	-170.582	0.067	-0.002
-255.122	-50.706	0.615	-0.287
-254.107	-17.544	0.161	0.101
-253.092	-200.000	-0.146	-0.724
-252.078	-48.204	-1.199	0.575
-251.063	-76.416	0.656	0.229
-250.049	-43.792	0.356	0.178
-249.034	328.684	-0.553	-1.056
-248.019	-9.032	-0.141	-0.093
-247.005	1.125	0.781	-0.556
-245.990	540.890	0.148	-0.351
-244.976	-81.280	0.141	0.046
-243.961	114.594	-0.500	-0.605
-242.946	-69.310	-0.535	0.204
-241.932	150.881	-0.428	-0.577
-240.917	120.187	0.351	0.433
-239.903	-172.847	-0.130	-0.004
-238.888	800.000	-0.300	-1.136
-237.873	67.003	0.689	-0.697
-236.859	13.588	-0.203	0.156
-235.844	-77.757	0.118	-0.041
-234.830	223.734	0.406	0.650
-233.815	-200.000	-0.022	0.112
-232.800	56.094	-0.498	0.480
-231.786	-52.044	1.007	0.464
-230.771	-1.472	-1.006	-0.705
-229.757	-172.911	0.816	-0.025
-228.742	-91.222	0.590	-0.168
-227.727	-60.810	0.105	-0.044
-226.713	-54.335	-0.623	-0.280
-225.698	-30.110	0.452	-0.255
-224.684	-178.823	0.545	-0.012
-223.669	-62.642	0.526	-0.216
-222.655	-40.433	-0.401	-0.207
-221.640	11.957	-0.405	-0.308
-220.625	347.566	-0.366	-0.716
-219.611	-200.000	0.141	-0.616
-218.596	800.000	-0.118	-0.366
-217.582	356.262	0.248	0.491
-216.567	-28.491	0.231	-0.132
-215.552	-82.852	0.851	0.273
-214.538	-200.000	0.043	0.467
-213.523	255.945	0.214	0.364
-212.509	305.041	0.359	0.660
-211.494	-94.760	0.820	0.221
-210.479	154.825	-0.391	0.533
-209.465	-95.389	0.568	-0.151
-208.450	-175.622	-0.530	-0.014
-207.436	226.945	-0.209	-0.336
-206.421	633.496	0.253	-0.636
-205.406	-32.660	-0.277	0.153
-204.392	800.000	0.061	-0.232
-203.377	8.290	0.441	0.328
-202.363	800.000	-0.230	0.729
-201.348	14.988	0.259	0.201
-200.333	-200.000	0.091	-0.829
-199.319	-70.829	0.156	0.058
-198.304	-69.289	0.473	0.180
-197.290	435.320	-0.412	0.889
-196.275	34.348	-0.648	0.560
-195.260	-200.000	-0.005	-0.122
-194.246	99.078	0.091	0.104
-193.231	343.173	0.102	-0.197
-192.217	-136.804	-0.399	0.045
-191.202	-145.072	0.977	-0.088
-190.187	-98.339	0.625	-0.159
-189.173	215.869	-0.510	0.803
-188.158	34.195	0.142	-0.123
-187.144	54.359	-0.331	-0.316
-186.129	-55.941	0.308	0.136
-185.114	445.601	0.234	0.510
-184.100	440.757	0.536	1.161
-183.085	-70.399	-0.255	-0.096
-182.071	-200.000	-0.058	0.731
-181.056	20.030	0.043	0.034
-180.042	132.972	0.312	0.400
-179.027	304.675	-0.071	0.130
-178.012	-136.077	0.475	-0.055
-176.998	23.505	0.393	-0.320
-175.983	139.942	-0.635	-0.829
-174.969	8.504	0.242	0.180
-173.954	39.564	0.213	-0.189
-172.939	-200.000	-0.127	-1.014
-171.925	-138.740	-0.858	0.093
-170.910	326.811	0.583	-1.107
-169.896	-200.000	0.108	0.502
-168.881	-70.154	-0.385	0.145
-167.866	800.000	-0.277	0.804
-166.852	528.043	-0.262	0.612
-165.837	-111.783	-0.234	0.047
-164.823	368.462	0.212	-0.424
-163.808	-200.000	0.062	0.288
-162.793	-136.560	-0.187	0.021
-161.779	101.547	-0.129	0.149
-160.764	-97.881	-0.684	-0.175
-159.750	-114.043	0.848	-0.163
-158.735	-190.427	-0.665	-0.007
-157.720	800.000	-0.135	0.466
-156.706	-150.736	-0.374	0.028
-155.691	-29.150	-0.296	-0.168
-154.677	74.810	0.110	-0.114
-153.662	128.369	0.342	0.431
-152.647	47.768	-0.629	-0.581
-151.633	-133.123	-0.796	0.100
-150.618	7.612	-0.791	-0.586
-149.604	18.144	-0.475	-0.375
-148.589	67.661	-0.197	-0.199
-147.574	-139.250	0.571	0.061
-146.560	446.160	0.198	-0.430
-145.545	285.900	-0.344	0.615
-144.531	-95.998	0.397	0.105
-143.516	142.181	0.237	-0.310
-142.502	99.461	-0.272	0.312
-141.487	182.296	-0.843	-1.228
-140.472	-90.947	0.647	-0.184
-139.458	-13.294	-0.588	0.377
-138.443	104.624	-0.425	0.495
-137.429	-200.000	0.077	-0.573
-136.414	-200.000	0.089	-0.480
-135.399	-154.529	-0.475	-0.031
-134.385	-108.679	-0.410	0.087
-133.370	386.378	-0.334	-0.681
-132.356	-79.942	0.424	-0.141
-131.341	300.227	-0.333	-0.607
-130.326	103.961	0.848	-0.985
-129.312	523.698	-0.147	-0.342
-128.297	410.126	0.147	0.308
-127.283	-6.124	0.438	0.296
-126.268	800.000	0.191	-0.544
-125.253	236.191	-0.329	0.538
-124.239	-51.209	0.867	-0.401
-123.224	-64.380	-0.608	0.245
-122.210	101.252	-0.154	-0.178
