DTS Sentinel unit serial number:	SN413079Multiplexer serial number:	ORYXHardware model number:	OX4-SRSoftware version number:	ORYX F/W v4.00 Oryx Data Collector v3.7.2.0data status	okinstallation	princeton_trtdifferential loss correction	single-endedforward channel	channel 1reverse channel	N/Adate	2019/09/16time	06:02:35forward acquisition time	60.00reverse acquisition time	0.00gamma	496.2192k internal	0.2331k external	0.2331temperature offset calibration	0.9981default loss term (dB/km)	0.3790temperature slope calibration	1.0000multiplexer offset coefficient	1.0000multiplexer slope coefficient	1.0000fibre end	0.00T internal ref (°C)	27.44T ext. ref 1 (°C)	11.27T ext. ref 2 (°C)	22.08length (m)	temperature (°C)	Stokes	anti-Stokes-747.200	8.201	-0.259	0.196
-746.185	-18.821	-0.242	0.152
-745.171	-200.000	0.001	0.086
-744.156	170.374	-0.125	0.181
-743.142	-181.655	-0.252	-0.005
-742.127	-200.000	0.080	0.491
-741.112	110.819	-0.028	0.034
-740.098	75.664	0.247	0.262
-739.083	259.063	0.165	0.286
-738.069	-54.419	-0.171	-0.078
-737.054	800.000	-0.031	0.093
-736.039	-145.003	-0.101	0.009
-735.025	542.754	-0.053	0.127
-734.010	500.465	-0.058	0.136
-732.996	77.367	0.273	-0.293
-731.981	-33.607	-0.255	-0.142
-730.966	-78.797	-0.266	0.091
-729.952	-49.844	-0.275	0.131
-728.937	-105.990	-0.257	-0.058
-727.923	50.919	-0.108	-0.103
-726.908	-71.098	-0.432	0.164
-725.894	800.000	-0.029	0.097
-724.879	-170.205	-0.205	-0.007
-723.864	328.763	-0.029	0.057
-722.850	-74.971	-0.118	0.043
-721.835	386.135	0.114	-0.237
-720.821	-100.832	-0.309	-0.076
-719.806	-98.254	0.173	-0.045
-718.791	-24.341	-0.309	0.185
-717.777	-114.242	-0.198	0.038
-716.762	15.917	-0.104	-0.083
-715.748	800.000	-0.035	0.144
-714.733	11.702	-0.178	-0.137
-713.718	-22.405	-0.280	-0.170
-712.704	-200.000	0.041	-0.297
-711.689	-48.608	0.292	0.141
-710.675	217.408	0.071	-0.114
-709.660	760.152	0.133	0.364
-708.645	637.055	0.069	0.177
-707.631	-7.571	0.143	0.097
-706.616	-86.694	-0.284	0.087
-705.602	138.915	-0.086	0.113
-704.587	-162.938	-0.204	-0.010
-703.572	33.030	0.102	0.089
-702.558	475.742	-0.112	-0.255
-701.543	-200.000	0.037	-0.204
-700.529	-7.368	0.191	-0.130
-699.514	-131.848	-0.141	-0.019
-698.499	643.075	-0.072	0.185
-697.485	-133.849	-0.320	0.040
-696.470	-200.000	-0.056	0.263
-695.456	-68.978	-0.162	-0.063
-694.441	-159.294	0.187	0.011
-693.426	102.863	0.125	-0.147
-692.412	103.166	-0.172	0.202
-691.397	376.548	0.069	-0.141
-690.383	204.548	0.155	-0.241
-689.368	-51.204	-0.393	-0.185
-688.354	-32.437	0.177	0.099
-687.339	253.135	-0.188	0.322
-686.324	112.082	-0.257	0.312
-685.310	-48.134	-0.116	0.056
-684.295	-82.221	0.260	-0.085
-683.281	-153.413	-0.071	0.005
-682.266	682.938	0.102	-0.268
-681.251	257.404	0.204	0.352
-680.237	-66.233	-0.138	-0.055
-679.222	287.544	-0.104	-0.188
-678.208	-200.000	-0.023	-0.325
-677.193	132.722	-0.056	-0.072
-676.178	800.000	-0.036	0.124
-675.164	-43.230	-0.143	-0.073
-674.149	6.119	0.067	-0.050
-673.135	-0.611	-0.366	-0.261
-672.120	800.000	-0.040	-0.168
-671.105	-144.764	-0.127	-0.012
-670.091	-96.938	0.195	0.051
-669.076	158.116	-0.013	0.018
-668.062	-12.322	-0.289	-0.189
-667.047	42.395	-0.051	-0.046
-666.032	-145.554	-0.134	-0.012
-665.018	-133.616	-0.313	-0.039
-664.003	314.465	-0.154	-0.292
-662.989	-60.492	-0.242	-0.103
-661.974	-200.000	0.021	-0.112
-660.959	105.538	0.173	0.206
-659.945	56.011	-0.109	0.106
-658.930	-200.000	0.006	-0.405
-657.916	-43.878	-0.291	-0.147
-656.901	-5.543	-0.229	-0.158
-655.886	72.991	-0.128	-0.135
-654.872	-130.771	0.127	0.017
-653.857	222.775	-0.299	-0.483
-652.843	383.612	-0.095	-0.196
-651.828	-125.825	-0.244	0.037
-650.814	115.455	0.164	0.202
-649.799	-47.986	0.390	-0.189
-648.784	202.478	-0.116	-0.180
-647.770	180.162	-0.048	-0.071
-646.755	280.673	0.128	-0.229
-645.741	-49.514	-0.311	-0.149
-644.726	480.467	-0.173	0.394
-643.711	800.000	-0.087	0.266
-642.697	-200.000	-0.026	-0.224
-641.682	-1.201	0.070	0.049
-640.668	-30.377	0.094	-0.054
-639.653	331.101	-0.133	0.258
-638.638	5.653	0.352	0.261
-637.624	-200.000	0.016	0.182
-636.609	800.000	-0.049	0.158
-635.595	338.308	0.187	0.366
-634.580	-200.000	0.052	-0.230
-633.565	-200.000	-0.006	0.047
-632.551	800.000	0.061	-0.204
-631.536	-200.000	0.049	-0.271
-630.522	-200.000	0.012	0.059
-629.507	67.120	-0.198	-0.202
-628.492	-67.476	0.254	-0.100
-627.478	-116.791	0.456	0.084
-626.463	138.463	-0.151	-0.198
-625.449	-23.998	-0.242	-0.145
-624.434	-58.750	-0.024	0.010
-623.419	-200.000	0.029	0.210
-622.405	145.756	-0.255	-0.342
-621.390	79.787	-0.280	-0.302
-620.376	-53.030	-0.193	0.089
-619.361	157.263	0.048	-0.066
-618.346	-25.514	0.188	-0.111
-617.332	183.439	0.153	-0.227
-616.317	800.000	-0.052	0.210
-615.303	-200.000	-0.007	0.385
-614.288	-200.000	-0.013	0.063
-613.273	278.287	-0.130	0.232
-612.259	-106.317	-0.217	0.049
-611.244	-42.300	-0.108	0.055
-610.230	-176.835	-0.141	0.004
-609.215	-200.000	-0.001	0.035
-608.201	-5.227	-0.086	0.060
-607.186	-200.000	0.042	0.217
-606.171	-78.844	-0.423	-0.144
-605.157	110.382	0.084	0.101
-604.142	52.587	0.248	-0.237
-603.128	800.000	0.072	-0.276
-602.113	-200.000	0.008	0.100
-601.098	106.090	-0.116	0.137
-600.084	533.289	-0.036	-0.085
-599.069	-200.000	-0.011	-0.065
-598.055	52.859	-0.210	0.201
-597.040	-200.000	0.008	-0.490
-596.025	-49.743	0.133	-0.063
-595.011	-200.000	0.028	0.147
-593.996	-200.000	-0.025	0.388
-592.982	-30.404	-0.398	-0.226
-591.967	409.235	0.035	-0.075
-590.952	-200.000	0.024	0.120
-589.938	800.000	-0.070	-0.273
-588.923	-93.793	-0.243	-0.067
-587.909	-168.577	-0.225	-0.009
-586.894	253.210	0.166	-0.283
-585.879	-63.173	-0.230	0.095
-584.865	21.044	-0.271	-0.220
-583.850	800.000	-0.035	0.102
-582.836	800.000	0.036	-0.130
-581.821	102.251	0.113	0.132
-580.806	-200.000	0.012	0.178
-579.792	800.000	0.037	-0.106
-578.777	134.653	-0.146	-0.189
-577.763	33.789	0.161	-0.140
-576.748	-13.615	0.182	-0.118
-575.733	-122.066	-0.589	-0.097
-574.719	-122.027	0.205	0.034
-573.704	-105.117	0.085	-0.019
-572.690	-49.617	-0.099	-0.047
-571.675	-15.128	-0.124	0.079
-570.661	251.310	-0.077	0.131
-569.646	-79.778	0.355	-0.120
-568.631	-123.111	0.180	0.029
-567.617	-111.492	-0.357	-0.073
-566.602	-93.298	0.098	-0.027
-565.588	57.850	-0.404	0.395
-564.573	15.680	-0.144	0.113
-563.558	-105.139	0.239	-0.055
-562.544	-200.000	0.002	0.150
-561.529	-200.000	0.004	-0.216
-560.515	196.571	0.112	0.171
-559.500	-133.057	-0.154	0.019
-558.485	800.000	0.030	-0.105
-557.471	-76.028	0.105	-0.037
-556.456	-200.000	0.024	-0.186
-555.442	105.538	0.194	-0.229
-554.427	191.658	-0.038	0.057
-553.412	-200.000	0.028	-0.196
-552.398	-111.365	0.307	0.063
-551.383	-99.148	-0.275	-0.070
-550.369	237.725	-0.093	-0.155
-549.354	375.751	0.134	0.273
-548.339	-200.000	-0.013	-0.119
-547.325	-84.918	-0.477	0.150
-546.310	10.032	-0.249	-0.189
-545.296	-37.866	0.108	-0.058
-544.281	271.287	-0.096	-0.169
-543.266	800.000	-0.072	0.282
-542.252	-165.133	0.050	-0.002
-541.237	112.072	0.176	-0.212
-540.223	800.000	0.031	0.095
-539.208	50.118	0.251	0.237
-538.193	126.972	0.087	-0.110
-537.179	800.000	0.091	-0.289
-536.164	108.290	0.156	-0.186
-535.150	-38.629	0.317	-0.167
-534.135	-200.000	-0.003	0.118
-533.121	-200.000	-0.018	0.153
-532.106	-30.121	0.061	0.034
-531.091	-83.070	-0.047	0.015
-530.077	123.711	0.125	0.156
-529.062	413.490	0.088	0.186
-528.048	800.000	-0.015	-0.052
-527.033	155.012	-0.031	0.042
-526.018	-177.821	0.346	0.008
-525.004	180.089	0.175	-0.256
-523.989	-4.514	-0.074	-0.051
-522.975	545.422	0.024	-0.057
-521.960	-10.451	-0.026	0.018
-520.945	37.164	-0.082	0.073
-519.931	-7.734	-0.333	0.224
-518.916	286.759	-0.039	0.069
-517.902	96.722	0.048	0.055
-516.887	194.071	-0.235	-0.356
-515.872	30.225	-0.106	0.091
-514.858	15.918	-0.163	0.128
-513.843	-42.329	0.284	-0.145
-512.829	-58.444	-0.169	-0.073
-511.814	-200.000	-0.009	0.307
-510.799	111.474	0.152	0.183
-509.785	-152.959	-0.059	0.004
-508.770	17.607	-0.159	-0.126
-507.756	-200.000	-0.014	0.234
-506.741	800.000	-0.017	0.062
-505.726	-182.686	-0.180	0.003
-504.712	-200.000	0.194	0.001
-503.697	-24.226	0.179	0.106
-502.683	-22.758	-0.295	-0.178
-501.668	317.768	0.053	0.099
-500.653	-72.642	-0.199	0.073
-499.639	-200.000	0.012	0.124
-498.624	291.444	0.054	-0.098
-497.610	-86.249	0.169	-0.052
-496.595	-128.542	-0.162	-0.023
-495.581	489.454	0.049	-0.111
-494.566	-18.968	0.169	0.105
-493.551	430.982	0.141	0.304
-492.537	800.000	-0.033	-0.122
-491.522	-200.000	0.018	-0.238
-490.508	-155.685	-0.139	-0.009
-489.493	15.475	0.090	-0.071
-488.478	-1.295	0.144	0.102
-487.464	2.755	-0.241	-0.174
-486.449	190.254	0.192	0.288
-485.435	-42.620	0.044	0.022
-484.420	800.000	0.007	0.031
-483.405	15.994	0.334	0.262
-482.391	-126.612	-0.286	0.042
-481.376	-105.749	-0.196	0.044
-480.362	-200.000	0.044	0.221
-479.347	-200.000	-0.046	-0.239
-478.332	800.000	0.119	0.328
-477.318	-200.000	-0.070	0.317
-476.303	10.303	0.189	-0.143
-475.289	-108.405	-0.195	0.042
-474.274	-48.597	0.147	0.070
-473.259	800.000	-0.087	0.277
-472.245	-91.405	-0.093	0.027
-471.230	-119.066	-0.321	-0.056
-470.216	304.463	-0.068	-0.126
-469.201	337.931	0.123	-0.238
-468.186	-169.623	0.208	-0.008
-467.172	478.315	-0.019	0.044
-466.157	-111.484	-0.136	0.028
-465.143	-61.127	0.282	0.118
-464.128	309.690	-0.212	0.395
-463.113	-184.434	0.429	0.007
-462.099	-142.787	0.088	-0.009
-461.084	-9.569	-0.157	0.104
-460.070	177.246	-0.309	-0.448
-459.055	43.338	0.192	-0.175
-458.040	-170.852	-0.284	0.010
-457.026	-77.311	0.440	-0.152
-456.011	-184.517	-0.127	-0.002
-454.997	800.000	0.076	0.256
-453.982	-27.596	0.190	-0.110
-452.968	-82.390	0.099	0.032
-451.953	-71.276	0.245	0.091
-450.938	800.000	0.047	0.191
-449.924	-169.595	0.210	0.008
-448.909	-16.255	-0.247	0.156
-447.895	-200.000	-0.007	0.293
-446.880	-101.321	0.204	-0.049
-445.865	-128.452	-0.234	0.033
-444.851	-8.463	0.264	0.176
-443.836	-157.648	-0.295	0.018
-442.822	112.587	-0.155	-0.186
-441.807	88.707	0.116	0.128
-440.792	110.377	0.109	0.130
-439.778	15.087	0.091	-0.071
-438.763	233.847	-0.241	0.395
-437.749	88.542	0.164	0.181
-436.734	800.000	0.047	-0.144
-435.719	-148.661	0.049	-0.004
-434.705	-114.943	-0.170	0.032
-433.690	285.092	0.263	0.470
-432.676	106.613	0.201	-0.237
-431.661	800.000	-0.032	0.119
-430.646	30.807	-0.185	0.158
-429.632	104.314	-0.163	0.190
-428.617	489.229	0.071	-0.162
-427.603	67.210	0.097	0.098
-426.588	-200.000	-0.010	-0.137
-425.573	81.814	0.168	-0.181
-424.559	239.628	-0.173	-0.287
-423.544	357.657	-0.129	0.256
-422.530	-79.193	-0.047	-0.016
-421.515	316.490	-0.175	-0.329
-420.500	-167.645	-0.293	-0.012
-419.486	-4.746	0.126	0.086
-418.471	-67.401	-0.046	0.018
-417.457	713.571	0.021	0.055
-416.442	-43.130	0.070	0.035
-415.428	-200.000	0.012	-0.158
-414.413	-200.000	0.023	-0.555
-413.398	-86.196	0.307	-0.094
-412.384	-200.000	-0.002	0.292
-411.369	-200.000	-0.004	0.320
-410.355	208.540	0.141	-0.219
-409.340	-116.055	-0.224	0.041
-408.325	256.050	0.021	-0.036
-407.311	-78.413	0.236	-0.080
-406.296	213.768	0.102	-0.160
-405.282	125.550	-0.081	-0.101
-404.267	-147.523	-0.181	-0.015
-403.252	71.701	0.030	-0.031
-402.238	-104.317	0.118	0.027
-401.223	-101.334	-0.169	0.041
-400.209	519.922	0.035	-0.082
-399.194	800.000	-0.054	-0.233
-398.179	643.147	0.138	0.349
-397.165	-200.000	0.043	0.349
-396.150	-1.222	0.115	-0.080
-395.136	-200.000	0.020	0.182
-394.121	-62.989	0.365	-0.150
-393.106	91.372	0.198	-0.221
-392.092	-150.028	0.274	0.021
-391.077	800.000	0.019	-0.066
-390.063	468.924	-0.048	-0.107
-389.048	800.000	0.031	0.129
-388.033	-89.281	0.286	-0.084
-387.019	603.990	-0.129	0.318
-386.004	21.634	-0.160	-0.129
-384.990	156.351	0.206	-0.282
-383.975	-183.484	0.207	0.004
-382.960	800.000	-0.031	0.112
-381.946	152.590	-0.123	-0.167
-380.931	251.008	-0.102	-0.172
-379.917	57.682	-0.122	-0.118
-378.902	207.106	0.212	0.328
-377.888	295.411	0.068	-0.124
-376.873	800.000	-0.065	-0.195
-375.858	-145.665	0.132	0.012
-374.844	-7.345	-0.172	0.115
-373.829	800.000	0.090	-0.368
-372.815	800.000	-0.148	0.422
-371.800	-200.000	-0.005	-0.073
-370.785	577.169	0.105	0.256
-369.771	-73.262	-0.322	-0.117
-368.756	-16.413	0.401	-0.253
-367.742	192.434	0.194	0.291
-366.727	-71.436	0.275	-0.102
-365.712	19.696	-0.269	-0.215
-364.698	401.434	0.218	-0.455
-363.683	214.092	-0.153	0.239
-362.669	-107.101	-0.213	-0.047
-361.654	130.132	-0.103	0.130
-360.639	-21.558	-0.168	-0.102
-359.625	624.690	0.037	0.092
-358.610	84.477	-0.189	-0.205
-357.596	216.293	-0.145	-0.228
-356.581	-78.943	0.160	0.054
-355.566	-88.741	-0.129	-0.038
-354.552	-67.021	0.284	0.111
-353.537	327.217	-0.153	-0.292
-352.523	-16.706	-0.077	0.048
-351.508	-144.216	-0.361	-0.033
-350.493	74.481	-0.164	0.171
-349.479	-74.586	-0.090	-0.032
-348.464	-153.718	0.209	-0.014
-347.450	15.697	0.405	0.316
-346.435	137.587	0.098	0.127
-345.420	129.644	0.018	-0.023
-344.406	-53.459	-0.191	-0.087
-343.391	107.114	-0.055	0.065
-342.377	99.644	0.086	-0.099
-341.362	-200.000	0.017	-0.268
-340.348	-70.853	-0.266	-0.100
-339.333	-148.763	0.139	-0.011
-338.318	-72.287	0.303	-0.111
-337.304	44.185	0.076	-0.069
-336.289	-46.114	0.195	0.095
-335.275	-200.000	-0.023	-0.321
-334.260	-121.918	-0.154	-0.025
-333.245	-56.288	0.070	0.031
-332.231	-157.811	0.065	-0.004
-331.216	37.153	-0.247	0.216
-330.202	341.454	-0.172	-0.334
-329.187	800.000	-0.113	-0.315
-328.172	748.928	0.092	-0.245
-327.158	50.792	-0.228	-0.214
-326.143	131.978	0.211	0.268
-325.129	19.459	-0.166	0.132
-324.114	-22.569	-0.300	0.180
-323.099	783.332	0.073	0.197
-322.085	-200.000	-0.071	-0.453
-321.070	104.621	0.111	0.129
-320.056	101.108	-0.067	0.077
-319.041	161.190	-0.105	0.145
-318.026	133.390	-0.256	0.327
-317.012	-200.000	-0.008	-0.168
-315.997	234.249	0.118	-0.192
-314.983	-67.845	-0.329	0.127
-313.968	278.526	-0.100	0.176
-312.953	800.000	0.080	0.248
-311.939	-200.000	0.012	0.280
-310.924	-200.000	0.021	0.116
-309.910	-200.000	-0.007	0.037
-308.895	800.000	0.087	0.243
-307.880	400.444	-0.098	-0.204
-306.866	11.212	-0.154	-0.117
-305.851	84.792	0.205	0.222
-304.837	-200.000	0.029	0.347
-303.822	-61.799	0.210	0.087
-302.807	800.000	-0.021	0.080
-301.793	511.169	-0.037	0.085
-300.778	151.785	-0.238	-0.321
-299.764	62.901	0.060	0.059
-298.749	-128.891	-0.343	-0.048
-297.735	-44.375	-0.147	-0.073
-296.720	-133.289	0.469	-0.058
-295.705	111.275	0.134	-0.160
-294.691	-200.000	-0.052	0.260
-293.676	-73.471	0.275	0.099
-292.662	-20.732	-0.178	-0.108
-291.647	96.106	-0.138	0.156
-290.632	300.030	-0.134	0.244
-289.618	-200.000	-0.001	-0.026
-288.603	24.872	-0.156	0.128
-287.589	375.322	-0.101	0.203
-286.574	109.913	0.147	0.174
-285.559	-98.482	0.492	-0.124
-284.545	482.297	0.030	-0.068
-283.530	439.530	0.028	-0.061
-282.516	-200.000	-0.060	-0.279
-281.501	185.500	-0.097	-0.143
-280.486	69.505	0.294	0.299
-279.472	116.339	0.020	0.025
-278.457	333.037	0.142	0.272
-277.443	-200.000	0.023	0.152
-276.428	222.811	-0.059	0.094
-275.413	95.124	0.140	0.157
-274.399	-64.085	-0.282	0.114
-273.384	254.304	-0.157	0.266
-272.370	262.940	-0.202	0.347
-271.355	135.531	0.108	-0.139
-270.340	800.000	-0.077	-0.216
-269.326	363.937	-0.122	-0.242
-268.311	153.310	-0.306	-0.414
-267.297	-200.000	0.008	-0.279
-266.282	-123.475	0.287	-0.045
-265.267	27.897	0.398	0.332
-264.253	-141.262	0.102	-0.010
-263.238	151.408	-0.243	-0.326
-262.224	-89.431	-0.061	0.018
-261.209	331.532	-0.082	-0.157
-260.195	-32.483	-0.065	-0.036
-259.180	-13.123	0.133	0.086
-258.165	-169.948	-0.084	0.003
-257.151	-183.640	0.081	0.001
-256.136	800.000	-0.078	-0.251
-255.122	125.450	-0.073	-0.091
-254.107	-154.226	0.423	-0.028
-253.092	-191.760	0.149	-0.001
-252.078	-145.573	-0.267	0.024
-251.063	-200.000	-0.006	-0.235
-250.049	296.825	0.094	-0.170
-249.034	236.422	-0.107	0.175
-248.019	-74.313	0.134	0.048
-247.005	800.000	-0.047	-0.201
-245.990	0.458	-0.099	-0.070
-244.976	-127.460	0.117	-0.017
-243.961	-64.408	0.083	-0.033
-242.946	13.391	0.117	-0.090
-241.932	-23.903	-0.070	-0.041
-240.917	-7.990	-0.055	-0.037
-239.903	800.000	-0.038	-0.134
-238.888	1.481	0.190	-0.135
-237.873	538.938	0.083	-0.195
-236.859	-43.193	-0.107	0.053
-235.844	-200.000	-0.025	-0.161
-234.830	-88.219	-0.345	0.102
-233.815	-200.000	-0.031	-0.187
-232.800	-200.000	0.005	-0.035
-231.786	210.138	0.215	-0.333
-230.771	-82.727	-0.225	0.072
-229.757	394.203	-0.259	0.533
-228.742	800.000	0.062	-0.186
-227.727	-200.000	0.001	-0.156
-226.713	-200.000	0.071	-0.436
-225.698	-162.776	-0.083	0.004
-224.684	-8.945	0.413	-0.273
-223.669	800.000	0.021	-0.080
-222.655	479.258	-0.033	0.073
-221.640	-93.874	-0.122	0.033
-220.625	169.465	-0.104	0.147
-219.611	-200.000	0.011	-0.142
-218.596	105.952	-0.274	0.320
-217.582	-22.666	0.109	0.065
-216.567	-106.304	0.330	0.073
-215.552	114.318	-0.032	0.039
-214.538	14.892	0.110	-0.085
-213.523	-70.550	-0.067	-0.025
-212.509	800.000	0.018	-0.059
-211.494	365.758	-0.165	-0.328
-210.479	-200.000	0.006	-0.541
-209.465	800.000	0.053	-0.168
-208.450	-100.371	0.234	0.057
-207.436	-200.000	0.028	0.175
-206.421	-68.180	0.066	-0.025
-205.406	315.167	0.029	0.055
-204.392	86.215	-0.169	0.183
-203.377	800.000	-0.048	-0.184
-202.363	153.307	-0.183	-0.247
-201.348	9.015	-0.092	-0.068
-200.333	64.119	-0.098	0.097
-199.319	-200.000	0.048	0.248
-198.304	-64.242	0.197	-0.079
-197.290	-98.145	0.203	-0.051
-196.275	30.594	-0.187	0.158
-195.260	166.939	0.043	-0.060
-194.246	-2.324	0.196	-0.135
-193.231	-169.455	0.354	-0.013
-192.217	296.224	0.092	-0.166
-191.202	-200.000	0.004	0.453
-190.187	-166.885	-0.026	0.001
-189.173	-156.591	-0.046	0.003
-188.158	788.979	-0.058	0.158
-187.144	-27.976	-0.084	0.048
-186.129	36.534	-0.154	-0.134
-185.114	-27.871	0.392	-0.224
-184.100	-18.699	-0.094	0.057
-183.085	416.991	-0.092	0.193
-182.071	208.957	0.102	0.157
-181.056	193.192	-0.172	0.257
-180.042	207.904	-0.166	0.256
-179.027	-184.713	0.094	-0.001
-178.012	-181.138	-0.051	-0.001
-176.998	800.000	-0.107	0.304
-175.983	666.699	0.083	0.211
-174.969	-200.000	0.083	0.380
-173.954	-200.000	-0.028	-0.213
-172.939	-200.000	-0.027	0.138
-171.925	68.466	-0.055	0.056
-170.910	-14.430	0.223	0.141
-169.896	800.000	-0.059	0.243
-168.881	-103.996	-0.181	-0.042
-167.866	800.000	-0.027	-0.083
-166.852	-29.447	0.224	0.126
-165.837	733.931	-0.064	-0.170
-164.823	57.917	0.152	0.146
-163.808	770.492	0.108	0.289
-162.793	738.037	-0.053	-0.139
-161.779	-12.225	-0.161	0.104
-160.764	43.861	-0.230	0.207
-159.750	246.703	-0.047	-0.077
-158.735	173.309	-0.294	0.418
-157.720	262.702	0.158	0.270
-156.706	-200.000	-0.003	-0.104
-155.691	7.681	0.103	0.076
-154.677	5.133	0.170	-0.123
-153.662	11.803	0.328	-0.248
-152.647	-200.000	-0.019	-0.444
-151.633	-200.000	-0.079	-0.387
-150.618	477.439	-0.091	-0.202
-149.604	79.649	0.048	0.051
-148.589	-57.788	0.293	0.126
-147.574	8.497	-0.167	-0.123
-146.560	-200.000	0.062	0.375
-145.545	-200.000	-0.011	0.118
-144.531	66.873	-0.079	-0.079
-143.516	256.233	-0.200	-0.337
-142.502	-13.849	-0.122	0.078
-141.487	-52.412	-0.198	-0.090
-140.472	179.752	0.063	-0.091
-139.458	91.925	-0.188	-0.208
-138.443	407.980	0.245	-0.508
-137.429	-113.219	-0.209	-0.040
-136.414	190.661	-0.093	-0.137
-135.399	453.655	-0.138	-0.300
-134.385	119.876	0.366	0.446
-133.370	-113.162	-0.042	0.008
-132.356	-114.337	0.279	0.053
-131.341	113.532	0.170	0.202
-130.326	-0.284	-0.186	-0.130
-129.312	456.678	-0.164	-0.357
-128.297	51.145	-0.237	0.221
-127.283	-87.011	-0.305	0.091
-126.268	-200.000	0.032	0.190
-125.253	-52.834	-0.038	-0.017
-124.239	-3.250	-0.247	0.169
-123.224	-63.862	0.172	0.069
-122.210	681.260	0.049	0.125
