DTS Sentinel unit serial number:	SN413079Multiplexer serial number:	ORYXHardware model number:	OX4-SRSoftware version number:	ORYX F/W v4.00 Oryx Data Collector v3.7.2.0data status	okinstallation	princeton_trtdifferential loss correction	single-endedforward channel	channel 1reverse channel	N/Adate	2019/09/15time	00:22:35forward acquisition time	60.00reverse acquisition time	0.00gamma	496.2192k internal	0.2320k external	0.2320temperature offset calibration	0.9996default loss term (dB/km)	0.3790temperature slope calibration	1.0000multiplexer offset coefficient	1.0000multiplexer slope coefficient	1.0000fibre end	0.00T internal ref (°C)	32.14T ext. ref 1 (°C)	4.57T ext. ref 2 (°C)	27.16length (m)	temperature (°C)	Stokes	anti-Stokes-747.200	-173.836	-0.126	0.004
-746.185	800.000	-0.127	0.367
-745.171	800.000	-0.092	-0.264
-744.156	800.000	0.014	0.055
-743.142	327.020	-0.128	0.249
-742.127	676.028	0.157	0.412
-741.112	95.869	0.254	-0.293
-740.098	-75.159	-0.180	0.065
-739.083	-91.070	0.239	0.069
-738.069	94.954	-0.225	0.259
-737.054	3.930	-0.218	0.161
-736.039	718.028	0.127	-0.340
-735.025	5.013	-0.117	0.087
-734.010	800.000	0.097	-0.334
-732.996	-55.507	-0.324	-0.147
-731.981	56.806	-0.154	-0.152
-730.966	-200.000	0.003	-0.017
-729.952	-52.593	0.166	0.078
-728.937	51.093	-0.152	-0.145
-727.923	-83.585	-0.222	0.072
-726.908	-15.627	0.309	-0.199
-725.894	23.790	0.072	-0.060
-724.879	170.855	0.193	-0.279
-723.864	-191.531	-0.056	0.001
-722.850	89.769	-0.193	-0.218
-721.835	302.603	0.040	0.074
-720.821	-123.187	-0.359	0.058
-719.806	-103.349	-0.226	0.054
-718.791	-126.609	-0.258	0.039
-717.777	337.417	-0.122	0.240
-716.762	36.060	-0.105	0.094
-715.748	-131.095	0.089	0.012
-714.733	800.000	-0.044	0.128
-713.718	800.000	0.037	-0.139
-712.704	800.000	-0.060	-0.212
-711.689	-2.509	0.277	-0.196
-710.675	-200.000	-0.012	-0.079
-709.660	-200.000	-0.018	0.160
-708.645	38.553	-0.187	0.169
-707.631	-200.000	0.002	-0.270
-706.616	-101.886	-0.157	0.038
-705.602	-83.900	0.143	-0.046
-704.587	70.987	0.264	0.276
-703.572	-42.525	0.217	-0.112
-702.558	-94.601	-0.347	0.095
-701.543	760.547	-0.066	0.179
-700.529	505.520	0.038	-0.089
-699.514	731.182	-0.091	0.246
-698.499	104.003	-0.067	0.079
-697.485	69.865	0.076	0.079
-696.470	-91.403	0.201	-0.058
-695.456	8.238	0.189	-0.143
-694.441	-83.977	-0.190	-0.061
-693.426	188.369	-0.309	0.466
-692.412	800.000	0.055	-0.244
-691.397	150.494	-0.095	0.130
-690.383	-71.278	-0.199	-0.075
-689.368	-60.694	-0.160	-0.069
-688.354	800.000	0.073	0.202
-687.339	-24.528	-0.156	0.094
-686.324	-112.420	-0.255	-0.051
-685.310	-90.027	-0.158	-0.047
-684.295	-2.650	-0.168	-0.119
-683.281	10.121	-0.114	0.087
-682.266	-200.000	0.009	0.054
-681.251	-51.718	0.330	-0.155
-680.237	-64.942	-0.194	0.079
-679.222	-149.930	-0.286	0.023
-678.208	-200.000	-0.005	-0.135
-677.193	800.000	0.053	0.152
-676.178	143.366	-0.259	0.348
-675.164	172.736	-0.033	0.048
-674.149	137.858	-0.103	0.136
-673.135	716.645	0.086	0.231
-672.120	-79.557	0.126	0.043
-671.105	-200.000	0.075	-0.427
-670.091	521.284	-0.094	-0.222
-669.076	-200.000	-0.056	-0.266
-668.062	800.000	-0.055	-0.154
-667.047	217.423	0.096	-0.154
-666.032	223.261	0.054	0.088
-665.018	-72.008	-0.049	-0.018
-664.003	-70.044	-0.319	-0.123
-662.989	-75.169	-0.171	0.062
-661.974	-200.000	0.022	0.154
-660.959	-200.000	-0.062	0.316
-659.945	-11.097	-0.255	0.170
-658.930	800.000	-0.034	-0.147
-657.916	-200.000	0.011	0.287
-656.901	-52.927	0.044	-0.021
-655.886	800.000	-0.039	0.136
-654.872	-200.000	-0.033	0.301
-653.857	132.939	-0.157	0.204
-652.843	-38.062	-0.292	0.156
-651.828	13.593	-0.097	-0.076
-650.814	-65.078	-0.130	-0.053
-649.799	-70.569	-0.137	-0.052
-648.784	31.625	-0.062	0.053
-647.770	479.618	0.084	0.193
-646.755	-23.078	0.297	0.180
-645.741	168.766	-0.053	0.076
-644.726	-8.685	0.180	0.121
-643.711	21.957	0.214	0.176
-642.697	-57.506	-0.098	0.043
-641.682	-200.000	-0.006	-0.054
-640.668	800.000	0.080	-0.223
-639.653	587.606	-0.089	0.219
-638.638	484.925	0.022	0.050
-637.624	-134.162	0.499	-0.062
-636.609	-200.000	0.057	0.322
-635.595	-120.922	0.104	0.018
-634.580	-113.407	-0.347	0.068
-633.565	-140.586	0.221	0.023
-632.551	800.000	0.060	-0.214
-631.536	303.908	0.161	-0.300
-630.522	-200.000	-0.028	0.307
-629.507	41.276	-0.358	0.326
-628.492	16.111	0.118	0.094
-627.478	-191.392	0.225	0.002
-626.463	-72.922	-0.335	-0.124
-625.449	209.794	0.055	-0.087
-624.434	18.385	-0.243	0.195
-623.419	-200.000	-0.011	-0.066
-622.405	345.355	0.121	0.240
-621.390	800.000	-0.015	-0.049
-620.376	5.920	-0.366	0.272
-619.361	-200.000	-0.022	0.330
-618.346	-102.729	0.096	0.023
-617.332	-1.480	-0.299	-0.212
-616.317	312.723	-0.006	0.012
-615.303	189.954	-0.084	0.127
-614.288	282.296	-0.104	-0.187
-613.273	-45.241	0.309	-0.154
-612.259	34.588	-0.259	-0.228
-611.244	6.134	0.093	-0.069
-610.230	-128.714	-0.054	-0.008
-609.215	-43.076	-0.216	0.110
-608.201	708.307	0.102	-0.271
-607.186	-113.475	0.236	-0.047
-606.171	-21.402	-0.066	-0.040
-605.157	-141.430	0.075	0.008
-604.142	800.000	0.089	-0.342
-603.128	-200.000	0.001	0.113
-602.113	674.644	0.053	-0.138
-601.098	33.750	0.086	-0.075
-600.084	49.395	0.151	-0.142
-599.069	78.243	0.130	-0.140
-598.055	380.424	-0.102	-0.210
-597.040	-200.000	0.036	0.302
-596.025	149.118	-0.092	-0.126
-595.011	800.000	0.048	-0.193
-593.996	117.701	-0.060	0.074
-592.982	-200.000	-0.008	-0.062
-591.967	65.480	0.052	0.053
-590.952	222.252	0.159	0.256
-589.938	254.244	0.124	0.212
-588.923	372.127	-0.172	0.350
-587.909	109.566	0.305	0.368
-586.894	48.604	-0.162	0.153
-585.879	301.557	0.045	-0.084
-584.865	-200.000	-0.008	-0.270
-583.850	800.000	-0.072	0.243
-582.836	-66.029	0.187	-0.075
-581.821	800.000	-0.074	0.221
-580.806	-89.270	-0.481	0.143
-579.792	-92.870	-0.105	0.030
-578.777	-38.901	0.217	-0.115
-577.763	21.794	-0.342	-0.280
-576.748	-3.502	-0.122	0.085
-575.733	-200.000	0.022	0.146
-574.719	-126.471	-0.297	-0.044
-573.704	800.000	-0.041	-0.121
-572.690	-101.942	0.358	0.087
-571.675	-121.957	-0.132	-0.022
-570.661	-200.000	-0.001	0.110
-569.646	-52.082	-0.188	-0.088
-568.631	721.945	0.041	-0.110
-567.617	160.839	-0.214	0.300
-566.602	-200.000	0.035	-0.173
-565.588	81.007	-0.074	-0.080
-564.573	94.734	-0.051	-0.058
-563.558	-200.000	-0.047	-0.215
-562.544	414.803	0.066	0.142
-561.529	-200.000	-0.036	-0.168
-560.515	-154.203	-0.266	-0.018
-559.500	-129.952	0.459	0.063
-558.485	-9.922	-0.373	-0.249
-557.471	41.028	-0.334	-0.303
-556.456	482.306	0.133	-0.304
-555.442	123.185	-0.256	-0.322
-554.427	-17.619	0.090	-0.057
-553.412	6.734	-0.014	-0.011
-552.398	-4.984	0.250	0.173
-551.383	-70.375	0.165	-0.063
-550.369	-52.483	-0.159	0.074
-549.354	-117.871	-0.266	0.048
-548.339	-88.027	0.249	-0.075
-547.325	-73.831	0.346	0.126
-546.310	800.000	-0.062	-0.236
-545.296	266.575	0.003	-0.006
-544.281	-200.000	0.002	-0.019
-543.266	49.611	0.115	-0.109
-542.252	250.705	-0.100	0.170
-541.237	381.520	-0.063	-0.130
-540.223	402.201	-0.126	-0.265
-539.208	638.963	-0.178	-0.453
-538.193	204.040	0.126	-0.196
-537.179	4.934	-0.198	-0.146
-536.164	-197.319	-0.246	0.002
-535.150	800.000	0.128	0.358
-534.135	-200.000	-0.006	-0.253
-533.121	3.040	0.161	-0.118
-532.106	611.266	0.020	0.051
-531.091	-86.717	0.212	0.065
-530.077	0.181	-0.178	0.127
-529.062	66.789	0.224	-0.229
-528.048	449.579	0.049	-0.107
-527.033	-141.219	0.107	0.011
-526.018	335.803	0.097	0.189
-525.004	-200.000	-0.026	0.137
-523.989	-128.885	-0.368	0.052
-522.975	-163.634	-0.305	-0.014
-521.960	-103.756	0.071	-0.017
-520.945	-200.000	-0.015	-0.138
-519.931	800.000	0.074	0.257
-518.916	-102.622	-0.110	-0.026
-517.902	-200.000	-0.388	-0.002
-516.887	-200.000	-0.011	0.171
-515.872	-150.157	0.156	-0.012
-514.858	-200.000	-0.026	0.119
-513.843	319.962	-0.064	0.122
-512.829	800.000	0.062	-0.269
-511.814	-200.000	-0.020	0.092
-510.799	800.000	0.013	-0.053
-509.785	41.367	0.039	0.036
-508.770	-103.106	0.272	0.064
-507.756	800.000	-0.123	-0.388
-506.741	13.582	0.064	0.050
-505.726	11.130	-0.304	-0.233
-504.712	-200.000	-0.021	-0.134
-503.697	-38.447	0.195	0.103
-502.683	4.775	-0.095	0.070
-501.668	-162.661	-0.143	0.007
-500.653	-151.887	-0.054	0.004
-499.639	287.024	-0.131	0.237
-498.624	423.165	-0.106	0.228
-497.610	1.646	0.122	0.088
-496.595	103.820	-0.028	0.033
-495.581	800.000	0.077	-0.228
-494.566	125.266	-0.044	-0.056
-493.551	-90.080	0.170	0.050
-492.537	800.000	-0.030	0.104
-491.522	800.000	0.028	-0.096
-490.508	-10.620	0.102	-0.068
-489.493	-117.941	0.256	-0.046
-488.478	800.000	0.096	-0.359
-487.464	-121.865	0.254	0.042
-486.449	-54.860	0.152	-0.068
-485.435	72.266	-0.151	-0.158
-484.420	800.000	0.075	0.272
-483.405	-200.000	-0.014	0.140
-482.391	800.000	0.024	-0.087
-481.376	-5.300	-0.114	-0.079
-480.362	-90.648	0.118	0.034
-479.347	529.406	0.086	0.204
-478.332	800.000	0.020	-0.084
-477.318	-200.000	-0.176	0.001
-476.303	-94.469	0.144	0.039
-475.289	800.000	-0.038	0.137
-474.274	-16.379	-0.418	0.266
-473.259	7.617	0.075	-0.056
-472.245	683.296	-0.055	0.144
-471.230	-116.657	-0.355	-0.065
-470.216	-83.986	-0.211	0.067
-469.201	-32.901	0.336	0.186
-468.186	-200.000	-0.025	-0.362
-467.172	-159.585	-0.387	-0.021
-466.157	-16.847	-0.117	0.074
-465.143	55.545	0.013	0.012
-464.128	179.169	-0.119	0.175
-463.113	-94.537	-0.359	-0.098
-462.099	399.142	-0.059	-0.123
-461.084	-44.057	-0.159	0.080
-460.070	62.930	0.148	0.148
-459.055	-125.314	0.200	0.031
-458.040	148.179	-0.106	0.143
-457.026	-190.996	-0.348	0.004
-456.011	-200.000	-0.034	0.212
-454.997	-176.983	-0.044	0.001
-453.982	-131.461	-0.145	-0.019
-452.968	-200.000	0.008	-0.151
-451.953	104.305	-0.240	0.283
-450.938	-102.201	-0.209	0.050
-449.924	-30.534	0.198	-0.112
-448.909	800.000	0.075	0.234
-447.895	95.513	0.101	0.115
-446.880	99.904	-0.077	0.089
-445.865	-70.717	0.072	0.027
-444.851	-200.000	0.000	-0.076
-443.836	-17.794	-0.148	0.093
-442.822	92.738	-0.069	0.078
-441.807	-165.594	-0.198	0.009
-440.792	35.535	-0.089	0.078
-439.778	-48.012	0.095	-0.046
-438.763	-200.000	0.004	-0.213
-437.749	-138.968	-0.441	-0.048
-436.734	445.474	0.074	0.162
-435.719	-157.351	-0.091	0.005
-434.705	-200.000	-0.002	-0.063
-433.690	46.996	0.301	-0.280
-432.676	-93.817	-0.211	0.058
-431.661	485.420	-0.107	0.243
-430.646	-32.603	0.064	-0.036
-429.632	-51.934	-0.351	0.163
-428.617	-200.000	0.018	0.128
-427.603	164.170	-0.156	-0.219
-426.588	-200.000	0.047	-0.304
-425.573	-73.126	0.292	-0.107
-424.559	694.415	0.034	-0.089
-423.544	40.056	0.020	-0.018
-422.530	-125.290	-0.154	-0.024
-421.515	-200.000	0.014	-0.099
-420.500	328.521	-0.067	0.129
-419.486	-68.018	0.225	-0.088
-418.471	118.653	0.037	-0.045
-417.457	124.806	0.080	-0.100
-416.442	104.169	-0.134	0.158
-415.428	800.000	0.050	-0.185
-414.413	-15.991	-0.078	0.049
-413.398	-76.489	-0.298	-0.104
-412.384	-200.000	0.016	-0.089
-411.369	257.038	-0.099	-0.171
-410.355	-38.231	-0.161	0.085
-409.340	149.096	-0.094	-0.127
-408.325	-200.000	0.001	-0.154
-407.311	-139.205	-0.203	-0.022
-406.296	-136.721	-0.148	-0.017
-405.282	-200.000	-0.046	-0.308
-404.267	23.925	-0.077	0.063
-403.252	165.237	-0.149	-0.209
-402.238	-175.995	0.194	-0.005
-401.223	-144.530	0.220	0.020
-400.209	-128.319	-0.194	0.028
-399.194	-200.000	-0.100	0.526
-398.179	-200.000	0.011	-0.099
-397.165	123.843	-0.267	-0.334
-396.150	-200.000	0.026	-0.274
-395.136	-95.786	0.072	-0.019
-394.121	34.809	-0.146	0.128
-393.106	41.948	0.208	0.188
-392.092	137.178	-0.007	0.009
-391.077	122.081	-0.274	-0.341
-390.063	-1.023	0.190	-0.134
-389.048	-86.528	-0.128	0.039
-388.033	-110.296	-0.335	0.070
-387.019	800.000	-0.063	0.270
-386.004	-200.000	-0.008	0.136
-384.990	45.836	0.097	-0.089
-383.975	134.225	0.061	-0.078
-382.960	-200.000	-0.002	0.024
-381.946	800.000	-0.051	-0.200
-380.931	-147.954	0.253	-0.021
-379.917	-200.000	-0.048	0.321
-378.902	-91.836	-0.183	0.052
-377.888	174.908	-0.109	-0.158
-376.873	-104.475	-0.110	0.025
-375.858	-93.453	0.459	-0.127
-374.844	-200.000	0.020	-0.158
-373.829	-119.046	0.126	-0.022
-372.815	-102.387	-0.210	-0.050
-371.800	-19.967	-0.103	0.063
-370.785	374.796	0.099	0.201
-369.771	-78.292	-0.177	0.061
-368.756	174.785	-0.095	0.137
-367.742	800.000	0.051	-0.152
-366.727	-170.970	-0.079	-0.003
-365.712	-200.000	-0.013	-0.133
-364.698	800.000	0.043	-0.169
-363.683	-20.397	-0.126	0.077
-362.669	-3.372	0.270	-0.187
-361.654	-200.000	0.106	-0.481
-360.639	151.974	-0.125	0.169
-359.625	-80.023	0.074	-0.025
-358.610	87.373	-0.118	-0.130
-357.596	-200.000	-0.024	0.164
-356.581	-66.318	0.159	-0.063
-355.566	800.000	-0.074	0.215
-354.552	-89.572	0.150	0.044
-353.537	65.636	0.176	-0.177
-352.523	-38.427	0.198	0.105
-351.508	-200.000	0.005	-0.144
-350.493	135.711	-0.213	0.276
-349.479	-11.557	-0.062	-0.041
-348.464	-99.444	-0.112	0.028
-347.450	-142.776	0.163	-0.016
-346.435	0.217	-0.177	0.126
-345.420	-54.531	0.296	0.134
-344.406	181.783	0.154	-0.225
-343.391	0.902	-0.162	-0.115
-342.377	-40.430	-0.155	-0.080
-341.362	-18.730	0.263	-0.163
-340.348	96.135	0.163	0.185
-339.333	-200.000	-0.016	0.479
-338.318	800.000	0.048	0.147
-337.304	441.274	-0.089	-0.195
-336.289	27.591	0.154	0.129
-335.275	34.723	-0.212	0.185
-334.260	546.671	-0.089	0.211
-333.245	-178.329	-0.539	0.013
-332.231	38.639	0.265	0.235
-331.216	-34.042	-0.145	-0.079
-330.202	-200.000	0.044	0.358
-329.187	42.511	0.141	-0.127
-328.172	-38.291	-0.182	0.096
-327.158	538.320	0.070	-0.167
-326.143	331.211	0.036	0.068
-325.129	178.219	-0.197	0.287
-324.114	271.950	-0.143	0.251
-323.099	-200.000	-0.039	-0.245
-322.085	-107.763	-0.305	0.066
-321.070	-99.839	0.537	-0.134
-320.056	-59.708	0.258	-0.110
-319.041	-200.000	-0.020	0.096
-318.026	-88.985	-0.071	0.021
-317.012	-31.337	0.284	-0.159
-315.997	-84.261	0.409	-0.129
-314.983	-62.576	0.311	0.129
-313.968	5.544	0.210	0.154
-312.953	-200.000	0.102	-0.478
-311.939	-107.525	-0.170	0.037
-310.924	53.937	0.200	0.191
-309.910	-174.283	-0.030	0.001
-308.895	-58.474	0.113	-0.049
-307.880	40.286	0.119	-0.107
-306.866	-14.493	-0.396	-0.253
-305.851	-124.123	0.198	0.031
-304.837	15.733	0.240	0.188
-303.822	-129.082	0.144	0.020
-302.807	30.073	-0.348	-0.295
-301.793	451.019	-0.124	-0.272
-300.778	-50.219	0.255	0.120
-299.764	174.881	0.082	-0.119
-298.749	800.000	-0.036	-0.143
-297.735	-90.025	-0.199	0.058
-296.720	800.000	0.068	-0.214
-295.705	4.918	0.118	-0.087
-294.691	-66.230	-0.139	-0.055
-293.676	-99.266	0.434	0.109
-292.662	-65.320	0.171	-0.069
-291.647	-200.000	-0.060	0.474
-290.632	-200.000	0.005	-0.124
-289.618	-16.476	0.129	-0.081
-288.603	-105.424	-0.126	-0.028
-287.589	52.583	0.121	-0.115
-286.574	88.503	-0.100	-0.110
-285.559	-61.885	-0.150	0.062
-284.545	261.200	-0.019	-0.033
-283.530	732.507	-0.090	0.240
-282.516	94.639	0.266	0.300
-281.501	800.000	0.014	0.059
-280.486	5.599	-0.143	0.105
-279.472	-200.000	0.012	0.090
-278.457	286.592	0.073	-0.131
-277.443	-94.698	-0.264	-0.071
-276.428	-172.845	0.152	-0.005
-275.413	-95.209	-0.214	0.057
-274.399	-27.608	-0.211	-0.121
-273.384	-123.073	0.328	-0.052
-272.370	-79.536	-0.139	0.047
-271.355	800.000	-0.049	-0.182
-270.340	-39.228	0.200	-0.104
-269.326	-151.229	0.410	0.030
-268.311	334.357	-0.188	0.362
-267.297	-11.723	0.153	0.099
-266.282	-200.000	0.058	0.294
-265.267	-50.459	-0.047	-0.022
-264.253	-74.923	-0.061	-0.022
-263.238	-28.611	-0.122	0.070
-262.224	-27.913	-0.079	0.046
-261.209	-72.106	0.256	-0.094
-260.195	-145.054	0.104	-0.009
-259.180	75.630	0.118	-0.124
-258.165	39.710	-0.161	-0.144
-257.151	-200.000	-0.002	-0.338
-256.136	264.805	0.071	0.123
-255.122	46.241	-0.046	-0.043
-254.107	-33.440	0.141	-0.077
-253.092	-91.419	0.077	-0.022
-252.078	201.950	0.079	-0.121
-251.063	-55.564	-0.269	-0.120
-250.049	-149.235	0.048	-0.004
-249.034	-132.628	-0.277	-0.035
-248.019	-125.151	-0.163	0.025
-247.005	-200.000	-0.022	0.318
-245.990	45.320	-0.166	0.152
-244.976	-130.991	-0.243	-0.032
-243.961	-121.257	0.307	0.051
-242.946	17.706	-0.126	0.100
-241.932	12.166	0.142	-0.108
-240.917	-7.191	-0.220	-0.148
-239.903	372.512	-0.150	0.303
-238.888	-73.496	0.319	0.115
-237.873	24.989	0.139	0.114
-236.859	228.865	0.130	0.210
-235.844	-190.406	-0.159	-0.002
-234.830	-200.000	-0.029	-0.164
-233.815	800.000	0.024	-0.095
-232.800	227.278	0.132	-0.213
-231.786	39.557	-0.200	0.178
-230.771	-115.211	-0.237	-0.044
-229.757	-57.334	0.094	0.041
-228.742	-126.380	0.236	-0.035
-227.727	81.594	0.213	0.228
-226.713	137.373	-0.201	-0.261
-225.698	279.511	-0.014	0.024
-224.684	-127.711	0.445	-0.064
-223.669	-109.587	0.018	-0.004
-222.655	-9.705	0.198	-0.131
-221.640	800.000	0.047	0.176
-220.625	114.690	0.092	-0.112
-219.611	72.705	0.242	0.250
-218.596	-200.000	-0.017	-0.105
-217.582	-200.000	0.026	-0.389
-216.567	370.560	-0.080	0.161
-215.552	-165.862	0.281	0.012
-214.538	27.874	0.212	0.177
-213.523	-144.061	0.114	0.011
-212.509	-77.680	0.198	-0.068
-211.494	232.358	-0.117	-0.190
-210.479	145.738	-0.003	0.005
-209.465	-46.167	0.103	0.050
-208.450	-47.614	0.131	0.063
-207.436	118.509	-0.222	0.271
-206.421	116.640	0.022	-0.027
-205.406	244.889	-0.130	0.217
-204.392	134.285	0.099	0.127
-203.377	-200.000	-0.007	0.103
-202.363	-107.593	0.220	-0.048
-201.348	-86.249	0.344	0.105
-200.333	-92.750	-0.179	0.050
-199.319	-88.957	0.029	-0.009
-198.304	-200.000	-0.001	-0.178
-197.290	283.476	0.149	0.265
-196.275	-200.000	0.017	-0.121
-195.260	-9.446	0.204	-0.135
-194.246	-140.126	0.434	-0.045
-193.231	-45.476	0.158	0.077
-192.217	30.657	-0.085	-0.072
-191.202	-200.000	0.015	-0.138
-190.187	150.688	-0.075	-0.101
-189.173	35.785	-0.136	-0.119
-188.158	-200.000	0.020	0.231
-187.144	-200.000	0.073	0.447
-186.129	703.773	-0.149	-0.388
-185.114	-148.864	-0.209	0.017
-184.100	-31.456	0.090	-0.050
-183.085	-200.000	0.006	-0.245
-182.071	800.000	0.110	-0.397
-181.056	64.846	-0.030	-0.030
-180.042	117.576	-0.242	0.294
-179.027	-200.000	0.029	-0.312
-178.012	236.763	0.193	0.316
-176.998	-142.198	0.145	0.014
-175.983	800.000	0.059	0.214
-174.969	800.000	-0.109	0.340
-173.954	-104.936	0.401	0.091
-172.939	-46.109	0.231	-0.113
-171.925	-154.858	0.300	0.020
-170.910	-200.000	0.176	-0.001
-169.896	-59.542	0.300	-0.127
-168.881	-62.715	0.280	-0.115
-167.866	-1.209	-0.292	0.204
-166.852	284.053	-0.091	0.162
-165.837	481.367	0.062	0.138
-164.823	52.238	0.181	0.170
-163.808	-105.225	-0.299	0.068
-162.793	800.000	-0.045	0.136
-161.779	-200.000	0.187	-0.000
-160.764	-101.534	-0.108	0.026
-159.750	-200.000	-0.015	-0.081
-158.735	-130.096	-0.212	-0.029
-157.720	-79.073	-0.065	0.022
-156.706	-165.458	-0.263	-0.011
-155.691	-23.948	0.125	0.074
-154.677	411.547	-0.083	-0.175
-153.662	21.672	-0.081	0.065
-152.647	800.000	0.087	-0.246
-151.633	-200.000	0.007	-0.135
-150.618	-155.676	0.193	-0.012
-149.604	-200.000	0.012	-0.464
-148.589	-161.010	0.190	0.010
-147.574	-85.791	0.398	0.122
-146.560	-6.554	-0.148	-0.099
-145.545	800.000	0.048	0.183
-144.531	-200.000	0.001	0.091
-143.516	271.471	-0.100	-0.175
-142.502	-200.000	0.004	-0.085
-141.487	-13.904	0.225	0.144
-140.472	-200.000	0.000	0.062
-139.458	156.638	-0.176	0.241
-138.443	-130.461	-0.273	0.036
-137.429	800.000	-0.028	-0.105
-136.414	-127.512	-0.119	-0.017
-135.399	16.292	-0.129	0.101
-134.385	-72.115	0.139	0.051
-133.370	199.432	-0.051	-0.077
-132.356	15.038	-0.370	0.286
-131.341	-200.000	0.009	0.086
-130.326	-115.837	-0.188	0.035
-129.312	579.619	-0.066	-0.159
-128.297	-132.091	-0.282	-0.036
-127.283	-81.471	0.225	-0.073
-126.268	-200.000	-0.023	0.167
-125.253	-122.013	-0.257	0.042
-124.239	-104.602	-0.445	-0.101
-123.224	177.342	0.080	-0.114
-122.210	-200.000	0.058	-0.386
-121.195	63.233	0.284	-0.281
