DTS Sentinel unit serial number:	SN413079Multiplexer serial number:	ORYXHardware model number:	OX4-SRSoftware version number:	ORYX F/W v4.00 Oryx Data Collector v3.7.2.0data status	okinstallation	princeton_trtdifferential loss correction	single-endedforward channel	channel 1reverse channel	N/Adate	2019/09/14time	10:02:35forward acquisition time	60.00reverse acquisition time	0.00gamma	496.2192k internal	0.2314k external	0.2314temperature offset calibration	1.0065default loss term (dB/km)	0.3790temperature slope calibration	1.0000multiplexer offset coefficient	1.0000multiplexer slope coefficient	1.0000fibre end	0.00T internal ref (°C)	33.19T ext. ref 1 (°C)	4.01T ext. ref 2 (°C)	32.06length (m)	temperature (°C)	Stokes	anti-Stokes-747.200	306.945	0.203	0.383
-746.185	408.388	0.131	0.280
-745.171	-137.090	0.130	0.015
-744.156	105.423	0.069	0.083
-743.142	-147.056	0.593	-0.052
-742.127	-200.000	-0.052	0.413
-741.112	-159.979	0.104	0.006
-740.098	133.742	-0.155	-0.203
-739.083	-92.239	-0.138	0.040
-738.069	-200.000	-0.403	-0.000
-737.054	-88.843	-0.237	-0.071
-736.039	-27.982	0.105	0.061
-735.025	-161.593	0.143	-0.007
-734.010	-4.778	-0.012	0.008
-732.996	141.725	-0.045	0.060
-731.981	234.861	-0.125	-0.210
-730.966	28.460	0.083	0.071
-729.952	-200.000	-0.002	0.174
-728.937	-200.000	0.055	-0.317
-727.923	-162.879	-0.106	0.005
-726.908	2.941	0.140	0.103
-725.894	144.708	-0.197	-0.267
-724.879	-200.000	-0.007	-0.190
-723.864	-82.766	0.159	-0.052
-722.850	99.897	-0.165	-0.194
-721.835	-200.000	-0.030	0.156
-720.821	-51.345	-0.080	0.038
-719.806	-131.877	-0.307	-0.041
-718.791	166.680	-0.034	0.049
-717.777	57.150	-0.141	0.140
-716.762	606.329	-0.059	-0.148
-715.748	156.078	0.191	0.266
-714.733	50.563	0.229	0.220
-713.718	-46.637	-0.241	0.120
-712.704	-85.178	0.381	0.121
-711.689	-200.000	-0.027	-0.227
-710.675	-181.066	0.390	-0.008
-709.660	-200.000	0.002	-0.365
-708.645	800.000	-0.068	-0.212
-707.631	-124.804	-0.047	0.007
-706.616	730.174	0.069	-0.186
-705.602	-200.000	0.053	-0.298
-704.587	281.557	0.054	-0.097
-703.572	45.105	0.076	-0.071
-702.558	69.573	0.210	0.219
-701.543	5.907	0.162	0.121
-700.529	-120.887	0.243	0.041
-699.514	-39.197	-0.277	0.148
-698.499	117.053	0.183	-0.227
-697.485	482.269	-0.107	0.246
-696.470	-66.454	0.275	-0.111
-695.456	-200.000	-0.218	0.001
-694.441	-75.022	0.076	0.028
-693.426	-200.000	0.021	0.202
-692.412	-14.614	-0.129	0.084
-691.397	-200.000	0.020	-0.164
-690.383	7.135	0.014	0.011
-689.368	-200.000	-0.233	0.000
-688.354	391.522	0.049	-0.103
-687.339	54.358	-0.128	-0.125
-686.324	-82.562	0.136	-0.045
-685.310	-40.506	-0.224	0.117
-684.295	-114.156	-0.086	0.017
-683.281	-160.586	-0.029	0.002
-682.266	-81.539	0.278	0.093
-681.251	-47.559	0.147	0.072
-680.237	-200.000	-0.248	-0.000
-679.222	-99.558	0.191	0.049
-678.208	-39.353	0.342	-0.181
-677.193	-200.000	0.005	-0.207
-676.178	130.991	-0.233	-0.303
-675.164	-108.421	-0.222	-0.048
-674.149	257.794	-0.100	0.174
-673.135	800.000	-0.100	0.438
-672.120	-81.707	-0.086	-0.029
-671.105	-53.739	-0.179	0.083
-670.091	30.804	-0.169	-0.147
-669.076	11.292	0.064	0.049
-668.062	800.000	0.053	-0.231
-667.047	-155.811	0.111	0.007
-666.032	86.794	0.214	0.239
-665.018	-200.000	0.049	0.471
-664.003	-107.598	-0.129	-0.029
-662.989	-200.000	0.007	-0.297
-661.974	106.385	0.219	-0.262
-660.959	319.049	0.125	0.239
-659.945	-180.393	-0.065	-0.001
-658.930	-53.484	-0.245	-0.113
-657.916	800.000	0.113	-0.374
-656.901	-118.955	0.165	-0.029
-655.886	131.753	-0.042	0.055
-654.872	319.650	-0.172	-0.329
-653.857	-23.019	0.350	-0.213
-652.843	-79.120	0.312	-0.107
-651.828	800.000	-0.042	0.125
-650.814	-74.951	-0.219	-0.079
-649.799	-200.000	-0.027	-0.370
-648.784	24.558	0.170	-0.142
-647.770	-72.699	0.263	-0.098
-646.755	211.864	0.107	-0.171
-645.741	46.123	0.138	-0.129
-644.726	-8.698	-0.315	0.214
-643.711	192.934	0.194	0.297
-642.697	39.754	0.265	0.240
-641.682	244.518	-0.154	-0.261
-640.668	-59.489	-0.295	-0.128
-639.653	-200.000	-0.036	-0.417
-638.638	-200.000	-0.058	0.281
-637.624	163.079	0.338	0.480
-636.609	407.872	-0.074	0.159
-635.595	562.492	-0.162	-0.397
-634.580	18.877	-0.221	-0.179
-633.565	-200.000	0.036	-0.191
-632.551	800.000	0.032	-0.094
-631.536	-200.000	0.024	-0.116
-630.522	-200.000	-0.005	0.040
-629.507	284.950	-0.104	0.189
-628.492	-177.308	-0.170	-0.004
-627.478	800.000	0.066	0.236
-626.463	100.137	-0.228	-0.267
-625.449	800.000	0.011	0.048
-624.434	-37.174	-0.033	0.018
-623.419	-139.480	-0.408	-0.044
-622.405	33.917	-0.264	-0.232
-621.390	106.799	-0.179	0.214
-620.376	-40.329	-0.426	0.223
-619.361	-127.613	-0.164	0.024
-618.346	-68.722	-0.197	0.077
-617.332	482.760	0.076	0.175
-616.317	-167.166	0.139	0.006
-615.303	-60.792	-0.060	0.026
-614.288	17.125	-0.124	-0.099
-613.273	281.582	-0.029	0.052
-612.259	-168.713	-0.364	-0.014
-611.244	-47.869	-0.283	0.138
-610.230	69.823	0.164	0.171
-609.215	78.795	-0.173	0.186
-608.201	47.232	-0.222	-0.209
-607.186	-200.000	0.004	-0.174
-606.171	-189.305	0.319	-0.004
-605.157	425.640	-0.090	-0.195
-604.142	-130.915	0.163	-0.022
-603.128	-200.000	-0.003	-0.175
-602.113	390.832	0.029	0.061
-601.098	-100.499	0.090	-0.022
-600.084	-34.034	-0.193	0.107
-599.069	-132.421	0.073	0.009
-598.055	-99.639	0.313	0.079
-597.040	-116.240	0.132	-0.025
-596.025	-48.566	-0.249	0.121
-595.011	285.117	-0.031	-0.056
-593.996	-169.709	0.039	-0.001
-592.982	33.605	0.172	0.151
-591.967	800.000	0.116	-0.397
-590.952	222.970	-0.132	0.215
-589.938	289.935	0.079	0.145
-588.923	24.827	-0.123	-0.103
-587.909	-154.899	-0.093	-0.006
-586.894	-200.000	0.023	-0.120
-585.879	-59.741	0.326	-0.141
-584.865	222.040	0.194	0.315
-583.850	-200.000	-0.039	-0.221
-582.836	-200.000	0.087	-0.387
-581.821	-73.555	-0.177	0.065
-580.806	-200.000	0.056	0.318
-579.792	-200.000	-0.012	-0.097
-578.777	537.255	0.065	0.156
-577.763	-200.000	0.015	-0.194
-576.748	-100.611	0.224	0.056
-575.733	-200.000	0.020	-0.184
-574.719	-121.731	-0.056	0.009
-573.704	-200.000	0.006	-0.266
-572.690	-200.000	-0.002	0.228
-571.675	-97.847	0.186	0.048
-570.661	213.194	-0.121	0.192
-569.646	-200.000	0.038	-0.400
-568.631	-104.592	0.419	-0.097
-567.617	-132.623	0.036	0.005
-566.602	-144.449	-0.211	0.020
-565.588	5.518	0.087	-0.064
-564.573	-114.871	0.245	-0.047
-563.558	-48.323	0.149	0.072
-562.544	-35.936	0.019	-0.010
-561.529	183.194	-0.164	0.244
-560.515	212.329	0.070	0.111
-559.500	-165.931	-0.218	0.009
-558.485	60.141	0.126	-0.126
-557.471	-88.108	0.152	-0.046
-556.456	800.000	-0.116	-0.430
-555.442	-104.140	0.097	-0.023
-554.427	87.791	-0.131	0.147
-553.412	173.627	0.099	0.144
-552.398	44.813	0.269	-0.249
-551.383	-136.695	0.344	0.040
-550.369	800.000	0.108	-0.387
-549.354	323.445	-0.134	-0.258
-548.339	487.594	-0.035	-0.079
-547.325	-102.068	-0.185	-0.045
-546.310	-114.616	0.223	0.043
-545.296	473.355	-0.121	-0.274
-544.281	-92.675	0.460	-0.130
-543.266	-140.328	-0.205	-0.022
-542.252	-79.123	0.027	-0.009
-541.237	-32.662	0.131	-0.074
-540.223	57.806	-0.121	0.119
-539.208	-103.587	0.348	0.082
-538.193	-200.000	0.008	-0.217
-537.179	-54.123	-0.147	-0.067
-536.164	-177.847	-0.069	-0.002
-535.150	-54.054	0.143	-0.066
-534.135	-113.057	0.099	0.020
-533.121	-50.382	-0.023	-0.011
-532.106	21.438	-0.104	-0.085
-531.091	-151.482	-0.239	0.018
-530.077	10.738	-0.140	-0.108
-529.062	527.355	0.210	-0.497
-528.048	-40.653	-0.142	0.074
-527.033	-200.000	0.052	-0.435
-526.018	-179.537	-0.194	0.004
-525.004	-63.486	-0.220	-0.091
-523.989	12.302	-0.137	-0.106
-522.975	800.000	0.019	0.076
-521.960	258.982	0.095	0.165
-520.945	116.482	-0.198	-0.244
-519.931	800.000	-0.043	0.121
-518.916	127.169	0.372	-0.474
-517.902	-133.075	-0.229	0.029
-516.887	800.000	0.090	0.318
-515.872	-44.574	-0.283	0.142
-514.858	112.518	0.136	0.165
-513.843	-143.733	-0.339	-0.032
-512.829	-67.601	-0.234	-0.092
-511.814	276.725	-0.113	-0.201
-510.799	219.258	-0.118	-0.190
-509.785	-191.302	0.112	0.001
-508.770	-200.000	0.001	-0.093
-507.756	-200.000	-0.034	-0.195
-506.741	1.977	0.236	-0.171
-505.726	-70.868	-0.218	0.082
-504.712	-119.193	0.412	0.072
-503.697	37.019	-0.073	0.065
-502.683	800.000	-0.090	0.320
-501.668	-200.000	-0.048	0.247
-500.653	-167.008	-0.345	0.014
-499.639	-161.826	-0.110	0.006
-498.624	-5.690	-0.265	0.182
-497.610	-25.963	-0.224	0.132
-496.595	267.579	0.193	0.340
-495.581	131.061	-0.137	-0.177
-494.566	130.162	0.078	0.100
-493.551	197.498	0.118	0.181
-492.537	330.728	0.117	0.227
-491.522	-200.000	0.042	0.228
-490.508	61.207	-0.122	-0.122
-489.493	711.318	0.194	-0.516
-488.478	49.889	0.342	0.323
-487.464	-200.000	0.008	-0.146
-486.449	-62.986	0.435	-0.181
-485.435	800.000	-0.071	-0.284
-484.420	-123.507	-0.511	-0.082
-483.405	-101.083	-0.379	0.093
-482.391	-77.834	0.075	0.026
-481.376	670.851	0.070	0.181
-480.362	665.902	-0.131	-0.339
-479.347	-17.406	-0.143	0.090
-478.332	608.945	-0.115	-0.288
-477.318	-200.000	-0.069	-0.468
-476.303	50.534	-0.263	-0.250
-475.289	730.177	-0.057	-0.153
-474.274	-8.052	-0.057	-0.039
-473.259	-131.701	-0.103	0.014
-472.245	654.264	0.071	0.182
-471.230	16.806	-0.114	-0.091
-470.216	800.000	-0.182	0.614
-469.201	-200.000	-0.011	0.318
-468.186	726.880	0.082	-0.220
-467.172	-52.201	0.147	0.068
-466.157	-200.000	0.036	-0.162
-465.143	800.000	-0.093	0.336
-464.128	-164.213	0.243	-0.011
-463.113	-99.688	0.314	0.079
-462.099	-109.807	0.259	-0.055
-461.084	228.453	0.116	-0.190
-460.070	-117.288	0.132	-0.024
-459.055	87.090	0.238	0.264
-458.040	-90.094	0.142	-0.041
-457.026	-66.128	-0.380	-0.152
-456.011	-137.421	0.100	0.011
-454.997	526.299	-0.124	0.293
-453.982	-200.000	-0.209	0.001
-452.968	-152.864	0.213	0.015
-451.953	147.061	0.224	0.301
-450.938	-14.245	-0.052	-0.033
-449.924	279.038	0.118	0.211
-448.909	-41.810	-0.240	-0.124
-447.895	-200.000	-0.002	0.034
-446.880	-92.121	0.203	0.057
-445.865	-149.161	-0.095	-0.008
-444.851	-76.015	-0.118	-0.042
-443.836	94.499	-0.169	-0.192
-442.822	800.000	-0.076	-0.236
-441.807	53.694	0.299	-0.288
-440.792	-200.000	-0.050	0.223
-439.778	211.739	-0.120	-0.189
-438.763	-67.845	0.018	0.007
-437.749	114.285	0.228	0.279
-436.734	-200.000	-0.004	0.051
-435.719	-54.963	-0.270	0.122
-434.705	203.429	0.092	0.142
-433.690	66.644	-0.317	0.323
-432.676	-200.000	0.019	0.349
-431.661	165.659	-0.181	0.257
-430.646	63.010	-0.106	0.107
-429.632	-161.069	-0.157	0.008
-428.617	-58.906	-0.311	-0.135
-427.603	-143.441	-0.157	0.015
-426.588	414.433	0.114	0.244
-425.573	-200.000	0.035	-0.332
-424.559	-200.000	0.017	-0.106
-423.544	-200.000	-0.016	0.322
-422.530	-185.682	0.312	0.005
-421.515	800.000	0.077	0.263
-420.500	211.203	0.088	-0.138
-419.486	-200.000	0.041	-0.272
-418.471	84.662	-0.047	-0.052
-417.457	-200.000	0.043	-0.198
-416.442	61.348	0.078	0.078
-415.428	114.260	0.053	0.065
-414.413	800.000	0.065	0.209
-413.398	-120.144	0.403	-0.069
-412.384	68.103	-0.173	-0.177
-411.369	-118.979	-0.314	-0.055
-410.355	162.849	0.169	0.238
-409.340	-32.592	-0.205	-0.114
-408.325	91.918	-0.132	0.148
-407.311	89.205	0.136	-0.152
-406.296	-13.194	0.159	0.103
-405.282	-142.512	0.177	0.017
-404.267	120.989	0.271	-0.337
-403.252	16.934	0.085	0.067
-402.238	-119.779	0.119	0.021
-401.223	-73.187	0.241	0.088
-400.209	-145.037	-0.205	0.019
-399.194	-9.952	0.183	0.122
-398.179	-24.946	0.142	0.084
-397.165	800.000	0.087	0.316
-396.150	532.983	0.029	0.070
-395.136	135.218	-0.091	0.119
-394.121	295.128	0.103	-0.189
-393.106	612.987	0.022	0.056
-392.092	389.743	0.114	0.236
-391.077	-24.401	-0.163	-0.097
-390.063	-87.809	0.136	0.041
-389.048	-76.882	-0.116	0.041
-388.033	114.216	-0.187	0.227
-387.019	-16.744	-0.065	-0.041
-386.004	74.185	-0.235	0.247
-384.990	460.199	-0.116	-0.258
-383.975	-22.969	0.111	-0.067
-382.960	-53.107	-0.385	0.177
-381.946	109.770	-0.105	-0.126
-380.931	567.738	-0.009	0.021
-379.917	800.000	0.050	-0.191
-378.902	-76.267	0.105	0.037
-377.888	4.420	0.264	-0.194
-376.873	800.000	-0.078	-0.236
-375.858	198.926	0.015	0.024
-374.844	-86.171	0.356	0.110
-373.829	-30.939	-0.284	0.160
-372.815	-2.178	0.104	-0.073
-371.800	-45.512	-0.151	-0.075
-370.785	-46.222	-0.116	0.057
-369.771	-26.582	0.099	-0.058
-368.756	186.274	0.120	0.179
-367.742	-110.843	-0.137	0.028
-366.727	800.000	0.064	0.220
-365.712	-200.000	-0.034	0.161
-364.698	-200.000	-0.014	0.069
-363.683	212.322	0.077	-0.121
-362.669	-173.293	0.305	-0.009
-361.654	-41.707	0.191	0.098
-360.639	34.480	0.125	0.109
-359.625	7.676	0.210	-0.157
-358.610	196.612	0.151	0.229
-357.596	187.276	-0.074	-0.110
-356.581	573.430	-0.093	0.226
-355.566	58.367	0.156	0.153
-354.552	39.699	0.132	-0.118
-353.537	-200.000	-0.006	-0.338
-352.523	-95.589	-0.294	-0.079
-351.508	664.580	0.123	-0.318
-350.493	207.256	0.046	-0.072
-349.479	419.684	0.120	-0.257
-348.464	-200.000	0.027	-0.193
-347.450	13.955	-0.255	-0.198
-346.435	121.257	0.119	0.148
-345.420	-181.534	-0.158	0.003
-344.406	-200.000	-0.379	-0.002
-343.391	-149.757	0.201	-0.016
-342.377	-63.866	-0.237	0.097
-341.362	229.633	0.109	-0.178
-340.348	-122.225	-0.141	0.023
-339.333	64.173	-0.070	0.070
-338.318	-38.014	0.381	-0.202
-337.304	362.072	-0.068	-0.135
-336.289	-200.000	-0.057	0.277
-335.275	597.586	-0.049	-0.120
-334.260	-27.072	0.360	0.210
-333.245	-40.362	0.096	-0.050
-332.231	309.142	0.200	0.373
-331.216	-99.836	0.213	0.053
-330.202	-46.546	0.093	0.045
-329.187	800.000	-0.016	0.046
-328.172	22.118	-0.102	0.083
-327.158	452.976	0.049	-0.108
-326.143	-63.183	0.258	-0.106
-325.129	-200.000	0.009	-0.407
-324.114	-156.991	-0.174	-0.011
-323.099	-102.277	0.355	0.085
-322.085	20.190	-0.080	0.065
-321.070	27.656	0.115	-0.096
-320.056	-67.868	-0.028	0.011
-319.041	118.107	-0.261	-0.321
-318.026	565.529	0.036	0.088
-317.012	-118.584	0.392	0.069
-315.997	800.000	0.030	0.116
-314.983	800.000	0.054	0.180
-313.968	-46.781	-0.332	0.162
-312.953	48.670	0.106	0.099
-311.939	29.803	0.132	0.113
-310.924	800.000	-0.043	0.187
-309.910	-200.000	-0.002	0.015
-308.895	-132.947	-0.158	-0.020
-307.880	800.000	0.053	0.219
-306.866	-86.651	-0.398	-0.122
-305.851	-119.418	0.077	0.013
-304.837	153.394	-0.085	-0.115
-303.822	-146.312	0.446	-0.039
-302.807	437.397	0.179	0.388
-301.793	310.161	-0.108	-0.201
-300.778	-200.000	-0.016	-0.096
-299.764	-137.538	-0.121	0.014
-298.749	52.209	-0.089	0.084
-297.735	-53.926	-0.113	0.051
-296.720	-129.227	0.247	0.034
-295.705	-58.503	-0.087	0.038
-294.691	-160.055	0.084	0.005
-293.676	-60.476	0.226	0.096
-292.662	-200.000	-0.005	0.227
-291.647	-26.320	-0.238	0.139
-290.632	3.567	-0.381	-0.277
-289.618	800.000	-0.080	0.232
-288.603	-200.000	0.067	-0.313
-287.589	-29.637	-0.310	-0.176
-286.574	-200.000	0.003	0.027
-285.559	-124.486	-0.229	0.036
-284.545	162.691	-0.049	0.068
-283.530	96.544	0.061	-0.069
-282.516	328.380	0.238	-0.454
-281.501	-200.000	0.047	0.303
-280.486	41.048	-0.086	-0.077
-279.472	170.053	-0.105	0.150
-278.457	-54.281	0.245	0.111
-277.443	-200.000	0.013	-0.150
-276.428	54.910	0.205	0.197
-275.413	800.000	-0.051	-0.190
-274.399	58.889	-0.309	-0.302
-273.384	44.232	0.135	-0.123
-272.370	-125.897	-0.160	-0.024
-271.355	-108.575	-0.186	-0.040
-270.340	152.469	-0.166	0.225
-269.326	-118.106	-0.098	-0.017
-268.311	6.030	0.216	-0.160
-267.297	-200.000	0.013	0.074
-266.282	304.409	0.040	0.073
-265.267	800.000	-0.119	-0.414
-264.253	59.092	0.172	-0.168
-263.238	-68.812	-0.198	0.076
-262.224	428.649	-0.098	-0.211
-261.209	58.707	-0.159	-0.155
-260.195	-200.000	-0.077	-0.371
-259.180	-200.000	-0.004	-0.287
-258.165	53.600	-0.157	0.150
-257.151	-135.423	0.352	-0.042
-256.136	-14.460	-0.189	0.121
-255.122	63.682	0.083	-0.082
-254.107	-200.000	0.062	-0.359
-253.092	800.000	0.068	-0.196
-252.078	-200.000	-0.025	0.441
-251.063	480.172	-0.161	0.363
-250.049	264.536	-0.232	0.402
-249.034	-128.672	0.360	0.051
-248.019	-200.000	-0.035	0.298
-247.005	-131.494	0.222	0.029
-245.990	800.000	0.061	0.187
-244.976	-200.000	0.050	0.236
-243.961	269.479	-0.159	0.277
-242.946	455.637	-0.016	0.036
-241.932	602.760	0.156	0.385
-240.917	-200.000	0.050	-0.251
-239.903	800.000	-0.049	-0.213
-238.888	800.000	0.023	-0.068
-237.873	37.046	-0.173	-0.152
-236.859	-90.707	0.387	-0.111
-235.844	-151.673	-0.035	-0.003
-234.830	-129.430	-0.374	-0.052
-233.815	565.051	0.087	-0.209
-232.800	312.879	-0.079	0.147
-231.786	-45.349	0.192	0.095
-230.771	-159.480	-0.135	0.007
-229.757	-141.389	-0.109	0.011
-228.742	-200.000	0.001	0.072
-227.727	-200.000	-0.082	-0.362
-226.713	42.142	0.393	-0.354
-225.698	-200.000	0.007	-0.149
-224.684	-177.337	-0.227	-0.006
-223.669	77.269	0.031	-0.033
-222.655	-148.954	-0.286	0.023
-221.640	-164.139	0.456	-0.021
-220.625	-62.875	0.123	-0.050
-219.611	46.754	-0.310	-0.286
-218.596	800.000	-0.079	0.268
-217.582	-21.434	-0.250	0.152
-216.567	800.000	0.091	-0.284
-215.552	-88.156	-0.155	-0.046
-214.538	576.483	0.008	-0.019
-213.523	800.000	0.112	-0.418
-212.509	-200.000	-0.025	0.163
-211.494	-200.000	-0.009	-0.117
-210.479	597.961	0.027	0.067
-209.465	159.253	0.062	0.086
-208.450	-200.000	-0.042	0.324
-207.436	-200.000	0.004	0.275
-206.421	-136.207	0.239	0.028
-205.406	141.631	0.157	0.207
-204.392	800.000	-0.028	0.116
-203.377	-61.567	0.092	0.038
-202.363	111.903	0.160	0.192
-201.348	310.559	-0.018	-0.033
-200.333	-200.000	0.038	-0.268
-199.319	-70.995	-0.324	0.121
-198.304	-12.675	0.206	0.133
-197.290	-25.263	0.212	0.125
-196.275	800.000	-0.041	0.124
-195.260	25.549	-0.143	-0.118
-194.246	-200.000	0.006	0.160
-193.231	-66.804	0.264	0.104
-192.217	800.000	0.122	0.400
-191.202	-200.000	0.003	0.163
-190.187	-83.148	-0.192	-0.061
-189.173	-200.000	-0.025	0.151
-188.158	-139.240	0.142	0.015
-187.144	-85.709	0.095	-0.029
-186.129	800.000	-0.090	0.360
-185.114	273.753	-0.097	0.170
-184.100	-200.000	-0.049	-0.215
-183.085	103.830	0.016	-0.019
-182.071	-7.333	0.216	-0.145
-181.056	-68.940	-0.258	-0.099
-180.042	-200.000	0.004	0.042
-179.027	-200.000	0.059	0.304
-178.012	420.766	0.045	0.096
-176.998	800.000	0.117	0.342
-175.983	29.498	-0.048	-0.041
-174.969	-200.000	-0.007	-0.273
-173.954	-29.214	0.324	0.184
-172.939	153.555	0.049	-0.066
-171.925	800.000	-0.034	-0.147
-170.910	131.665	0.211	0.269
-169.896	126.948	-0.355	-0.446
-168.881	-28.834	-0.217	0.124
-167.866	-95.216	0.455	-0.122
-166.852	-156.870	-0.046	0.003
-165.837	218.459	-0.088	-0.140
-164.823	-134.309	0.304	0.037
-163.808	-46.028	0.093	0.046
-162.793	170.670	-0.203	0.288
-161.779	-76.750	-0.188	0.065
-160.764	44.616	-0.105	0.096
-159.750	123.950	-0.190	0.236
-158.735	-80.819	0.128	0.042
-157.720	-200.000	-0.003	-0.461
-156.706	-47.527	0.119	-0.057
-155.691	-136.586	-0.323	-0.037
-154.677	-200.000	-0.069	0.324
-153.662	-129.738	-0.147	-0.020
-152.647	-189.180	0.211	0.002
-151.633	-146.921	-0.161	0.014
-150.618	231.464	0.106	-0.172
-149.604	-187.555	0.072	0.001
-148.589	628.601	0.058	-0.146
-147.574	-200.000	-0.013	-0.063
-146.560	356.914	-0.102	0.202
-145.545	-200.000	-0.003	-0.143
-144.531	103.582	-0.233	0.271
-143.516	-79.002	0.267	0.090
-142.502	-200.000	-0.023	-0.126
-141.487	800.000	0.025	0.081
-140.472	-47.447	0.216	0.104
-139.458	800.000	0.075	0.249
-138.443	284.679	-0.090	0.161
-137.429	-24.552	0.317	0.187
-136.414	87.050	0.256	0.280
-135.399	684.222	-0.059	0.153
-134.385	-72.303	0.143	0.053
-133.370	800.000	-0.073	0.291
-132.356	164.941	0.225	-0.315
-131.341	-200.000	-0.018	0.147
-130.326	-3.334	0.237	-0.163
-129.312	-68.674	0.281	-0.108
-128.297	-81.603	0.286	0.093
-127.283	332.673	-0.204	0.390
-126.268	53.496	-0.073	0.069
-125.253	124.259	0.193	-0.240
-124.239	16.486	0.253	0.198
-123.224	-33.465	0.039	0.021
-122.210	313.392	0.109	-0.203
-121.195	300.848	-0.108	-0.197
