DTS Sentinel unit serial number:	SN413079Multiplexer serial number:	ORYXHardware model number:	OX4-SRSoftware version number:	ORYX F/W v4.00 Oryx Data Collector v3.7.2.0data status	okinstallation	princeton_trtdifferential loss correction	single-endedforward channel	channel 1reverse channel	N/Adate	2019/09/12time	18:00:34forward acquisition time	15.00reverse acquisition time	0.00gamma	496.2192k internal	0.2319k external	0.2319temperature offset calibration	1.0097default loss term (dB/km)	0.3790temperature slope calibration	1.0000multiplexer offset coefficient	1.0000multiplexer slope coefficient	1.0000fibre end	0.00T internal ref (°C)	33.81T ext. ref 1 (°C)	2.89T ext. ref 2 (°C)	28.26length (m)	temperature (°C)	Stokes	anti-Stokes-747.200	1.508	-0.629	0.458
-746.185	-54.755	-0.715	-0.327
-745.171	267.818	0.413	0.732
-744.156	-49.830	-0.935	-0.449
-743.142	-71.888	0.444	0.167
-742.127	369.497	0.258	-0.529
-741.112	-200.000	-0.143	-1.148
-740.098	107.563	0.551	0.663
-739.083	-97.719	0.545	-0.143
-738.069	-22.638	0.482	0.294
-737.054	119.707	0.350	0.439
-736.039	-49.217	0.607	-0.293
-735.025	-112.362	0.295	-0.060
-734.010	145.998	0.084	0.114
-732.996	-200.000	0.050	0.245
-731.981	-115.402	-0.417	-0.080
-730.966	-90.363	-0.324	0.095
-729.952	88.368	0.725	-0.814
-728.937	-200.000	-0.215	1.247
-727.923	-137.118	-0.335	-0.039
-726.908	-200.000	0.101	-0.472
-725.894	190.003	0.041	0.062
-724.879	-200.000	0.131	0.817
-723.864	-53.016	-0.763	-0.355
-722.850	18.974	0.317	0.257
-721.835	800.000	0.099	-0.326
-720.821	-81.144	0.966	0.323
-719.806	4.273	0.165	-0.122
-718.791	96.531	0.384	-0.444
-717.777	-58.830	0.291	-0.127
-716.762	-94.294	-0.507	0.140
-715.748	-65.200	0.395	-0.161
-714.733	-83.397	-0.323	-0.105
-713.718	-200.000	0.027	0.122
-712.704	115.088	0.261	0.322
-711.689	291.365	0.594	1.092
-710.675	49.411	-0.339	-0.322
-709.660	-200.000	0.001	-0.054
-708.645	800.000	-0.102	0.408
-707.631	-112.350	-0.465	-0.094
-706.616	79.185	-0.656	-0.710
-705.602	800.000	-0.079	-0.330
-704.587	24.558	-0.561	-0.469
-703.572	441.597	-0.043	0.096
-702.558	-82.490	0.643	-0.211
-701.543	-50.184	0.078	-0.037
-700.529	-200.000	-0.067	-0.556
-699.514	-67.383	0.128	-0.051
-698.499	-164.712	-1.062	-0.048
-697.485	45.625	0.324	0.302
-696.470	-149.768	-0.556	-0.044
-695.456	135.047	-0.495	-0.650
-694.441	275.052	0.570	-1.020
-693.426	25.006	0.406	-0.340
-692.412	-90.006	-0.163	-0.048
-691.397	-13.055	-0.714	0.469
-690.383	26.133	0.079	-0.067
-689.368	448.926	-0.208	-0.463
-688.354	-133.132	-0.517	0.066
-687.339	225.106	0.370	-0.604
-686.324	-31.607	0.777	0.440
-685.310	-26.860	-1.043	0.615
-684.295	-200.000	0.626	-0.001
-683.281	148.877	-0.022	-0.030
-682.266	-53.107	-0.993	0.461
-681.251	-200.000	-0.055	0.402
-680.237	57.333	-0.712	-0.702
-679.222	447.957	-0.134	-0.297
-678.208	-200.000	0.176	-0.857
-677.193	-116.180	0.515	0.096
-676.178	800.000	-0.160	-0.461
-675.164	800.000	-0.207	-0.644
-674.149	71.648	-0.322	0.338
-673.135	165.426	0.207	-0.296
-672.120	-154.500	0.592	-0.040
-671.105	-200.000	-0.001	-0.255
-670.091	-39.110	-0.493	0.262
-669.076	-106.539	0.783	-0.176
-668.062	-200.000	0.087	-0.561
-667.047	-123.348	0.807	0.130
-666.032	-62.243	-0.275	-0.116
-665.018	-45.424	0.440	-0.220
-664.003	379.740	-0.130	-0.270
-662.989	800.000	-0.270	0.825
-661.974	-84.131	-0.313	0.100
-660.959	111.584	0.063	-0.076
-659.945	-32.858	-0.269	0.151
-658.930	66.813	0.449	0.461
-657.916	493.699	-0.339	0.785
-656.901	-200.000	-0.009	0.285
-655.886	800.000	0.185	-0.749
-654.872	-200.000	-0.011	0.967
-653.857	140.322	-0.402	-0.534
-652.843	-52.924	-0.263	-0.122
-651.828	800.000	0.093	0.365
-650.814	91.492	0.501	-0.567
-649.799	157.395	0.184	0.257
-648.784	327.869	-0.205	0.396
-647.770	-143.126	-0.507	0.049
-646.755	163.890	-0.226	-0.321
-645.741	-125.592	-0.390	-0.060
-644.726	598.083	-0.356	0.889
-643.711	259.689	0.279	-0.485
-642.697	800.000	-0.267	-0.942
-641.682	-134.353	0.417	-0.052
-640.668	107.849	0.419	-0.503
-639.653	-10.477	-0.324	0.217
-638.638	-73.168	-0.289	0.107
-637.624	-132.692	-0.502	0.065
-636.609	-119.685	0.774	-0.135
-635.595	193.164	0.216	-0.329
-634.580	250.562	0.426	-0.729
-633.565	800.000	0.270	-0.873
-632.551	-73.118	-0.321	0.118
-631.536	171.921	0.278	0.402
-630.522	4.039	0.420	-0.309
-629.507	-120.683	0.343	-0.058
-628.492	11.775	-0.280	0.217
-627.478	-200.000	-0.077	-0.705
-626.463	-20.559	0.332	0.205
-625.449	-55.493	-0.359	0.162
-624.434	-200.000	-0.017	0.521
-623.419	-78.581	-0.599	0.206
-622.405	-200.000	-0.101	0.657
-621.390	109.258	0.299	0.361
-620.376	-200.000	0.061	0.484
-619.361	476.438	-0.202	-0.459
-618.346	-200.000	-0.124	0.619
-617.332	91.371	0.066	0.074
-616.317	-200.000	0.017	0.256
-615.303	-44.985	-0.201	0.101
-614.288	-97.537	-0.515	0.135
-613.273	-121.642	0.432	-0.072
-612.259	-10.885	-0.669	0.445
-611.244	144.378	-0.030	-0.040
-610.230	183.935	-0.223	-0.332
-609.215	-182.092	0.245	-0.005
-608.201	-93.906	-0.725	-0.201
-607.186	-200.000	-0.062	-0.412
-606.171	52.670	-0.530	0.510
-605.157	-200.000	0.051	-0.570
-604.142	1.944	-0.497	-0.361
-603.128	51.613	0.701	-0.671
-602.113	-56.211	0.217	-0.097
-601.098	-34.414	-0.650	0.358
-600.084	-200.000	-0.128	0.683
-599.069	69.465	-0.134	0.139
-598.055	-66.932	-0.556	0.221
-597.040	-21.703	0.352	-0.215
-596.025	173.120	0.103	-0.149
-595.011	236.412	-0.313	0.521
-593.996	-67.229	-0.228	-0.090
-592.982	-176.972	-0.673	0.017
-591.967	-195.615	-0.171	0.001
-590.952	19.653	-0.390	0.316
-589.938	315.669	0.132	-0.250
-588.923	-110.757	-0.771	0.160
-587.909	8.265	0.637	0.481
-586.894	-200.000	0.016	0.106
-585.879	-17.658	0.353	0.223
-584.865	-57.504	-0.640	0.282
-583.850	-140.283	0.579	0.061
-582.836	106.287	0.232	0.276
-581.821	42.510	0.268	-0.245
-580.806	-200.000	0.029	1.155
-579.792	-21.478	-0.137	-0.084
-578.777	-88.524	0.257	-0.077
-577.763	-83.703	0.654	-0.210
-576.748	-1.561	0.601	-0.426
-575.733	-135.146	0.482	0.058
-574.719	52.904	0.537	-0.516
-573.704	207.388	0.460	-0.722
-572.690	-107.870	-0.366	0.080
-571.675	800.000	0.298	-1.081
-570.661	7.687	-0.334	-0.251
-569.646	15.567	-0.667	-0.526
-568.631	-152.066	-0.929	0.068
-567.617	-63.714	0.296	-0.122
-566.602	267.459	0.307	-0.539
-565.588	-92.077	0.097	0.027
-564.573	-6.907	-0.383	-0.262
-563.558	-25.287	-0.351	-0.209
-562.544	-163.209	0.287	-0.014
-561.529	-185.413	-1.366	0.021
-560.515	96.692	-0.640	0.736
-559.500	-139.006	-0.792	0.086
-558.485	-200.000	-0.095	0.475
-557.471	241.250	0.324	0.543
-556.456	285.789	0.294	-0.533
-555.442	500.560	-0.353	0.817
-554.427	-126.915	0.256	0.038
-553.412	-200.000	0.030	0.515
-552.398	-27.506	-0.536	0.313
-551.383	-181.519	-0.598	0.012
-550.369	-26.290	-0.311	-0.183
-549.354	19.046	0.752	-0.605
-548.339	73.148	0.602	-0.632
-547.325	48.377	0.098	-0.092
-546.310	-200.000	0.032	-0.745
-545.296	224.134	-0.195	0.316
-544.281	36.600	-0.222	0.197
-543.266	-38.349	0.130	-0.069
-542.252	-20.966	0.555	0.341
-541.237	-200.000	0.089	-0.472
-540.223	-129.647	0.386	-0.054
-539.208	800.000	0.136	-0.480
-538.193	-117.570	-0.749	0.136
-537.179	-200.000	-0.005	0.070
-536.164	800.000	0.269	-0.814
-535.150	-51.705	0.374	0.175
-534.135	-88.741	0.349	0.104
-533.121	-63.907	-1.127	0.462
-532.106	-149.068	-0.460	0.037
-531.091	-45.647	-0.306	0.152
-530.077	-200.000	-0.078	0.650
-529.062	-200.000	-0.021	-0.311
-528.048	-26.912	-0.316	0.185
-527.033	800.000	0.113	-0.362
-526.018	-200.000	0.061	0.418
-525.004	448.818	-0.157	0.347
-523.989	76.833	-0.221	-0.236
-522.975	-200.000	-0.093	0.527
-521.960	234.727	0.573	0.948
-520.945	22.504	0.504	-0.413
-519.931	-77.488	0.403	0.140
-518.916	-72.218	0.349	0.130
-517.902	330.814	0.153	0.296
-516.887	-121.680	-0.739	-0.123
-515.872	258.555	-0.259	0.447
-514.858	485.621	0.077	-0.176
-513.843	11.153	0.262	0.201
-512.829	685.494	-0.092	0.241
-511.814	-148.689	-0.962	0.078
-510.799	500.975	0.110	0.255
-509.785	-200.000	-0.095	0.470
-508.770	-200.000	-0.043	-0.316
-507.756	31.907	-0.083	-0.072
-506.741	-28.923	0.276	-0.159
-505.726	-200.000	-0.056	-0.578
-504.712	-34.525	0.157	-0.086
-503.697	-79.086	-0.590	-0.201
-502.683	119.662	-0.220	-0.273
-501.668	-31.939	0.356	0.200
-500.653	-125.693	-1.154	-0.175
-499.639	346.411	-0.201	-0.396
-498.624	-200.000	-0.659	-0.003
-497.610	-72.176	-0.578	0.215
-496.595	164.501	0.386	0.545
-495.581	-53.530	-1.370	0.628
-494.566	7.311	-0.116	0.086
-493.551	209.389	0.566	0.888
-492.537	800.000	0.322	0.961
-491.522	800.000	0.046	0.195
-490.508	95.355	0.311	-0.355
-489.493	-60.406	0.515	0.220
-488.478	-200.000	-0.024	0.150
-487.464	800.000	0.140	-0.557
-486.449	132.625	-0.258	-0.333
-485.435	44.908	-0.184	-0.170
-484.420	232.806	0.181	-0.298
-483.405	800.000	-0.150	0.435
-482.391	-200.000	-0.095	1.049
-481.376	-59.993	-0.706	-0.302
-480.362	50.893	0.542	0.515
-479.347	800.000	0.355	1.070
-478.332	269.532	0.147	0.258
-477.318	-116.291	0.764	-0.142
-476.303	-200.000	0.044	0.616
-475.289	-49.421	-0.012	0.006
-474.274	25.349	-0.341	-0.284
-473.259	379.611	0.219	-0.449
-472.245	-15.203	0.117	0.075
-471.230	-5.563	0.364	0.250
-470.216	52.105	0.534	-0.510
-469.201	-56.083	-0.442	-0.197
-468.186	77.955	-0.581	-0.620
-467.172	-126.026	0.594	-0.089
-466.157	-58.329	-0.575	-0.250
-465.143	-90.486	-0.514	-0.149
-464.128	-25.043	-0.143	0.085
-463.113	-68.116	-0.272	-0.106
-462.099	376.854	0.260	0.532
-461.084	77.391	-0.206	-0.220
-460.070	-75.263	0.400	-0.143
-459.055	-63.670	0.581	0.238
-458.040	-37.434	-0.211	-0.113
-457.026	-200.000	-0.021	0.240
-456.011	-4.090	0.432	-0.300
-454.997	350.002	-0.089	0.175
-453.982	10.391	0.365	0.278
-452.968	-117.737	0.352	-0.063
-451.953	154.870	0.360	-0.495
-450.938	70.026	-0.200	-0.207
-449.924	-133.238	0.903	-0.114
-448.909	217.000	-0.445	0.709
-447.895	-40.089	0.624	-0.325
-446.880	-200.000	-0.036	-0.368
-445.865	277.395	0.412	0.733
-444.851	-42.819	-0.405	-0.206
-443.836	71.693	0.405	0.421
-442.822	130.490	-0.035	0.044
-441.807	-200.000	-0.038	0.499
-440.792	348.679	-0.384	0.757
-439.778	231.078	0.145	0.238
-438.763	97.206	-0.524	0.601
-437.749	-24.847	-0.434	0.257
-436.734	-200.000	0.033	0.294
-435.719	-200.000	-0.000	-0.565
-434.705	0.179	0.324	0.231
-433.690	-200.000	0.083	-0.673
-432.676	-200.000	0.077	-0.427
-431.661	-48.734	0.347	-0.167
-430.646	-163.762	0.775	-0.036
-429.632	-54.714	-0.500	-0.226
-428.617	252.001	0.490	-0.833
-427.603	642.868	0.270	0.689
-426.588	586.048	-0.103	0.252
-425.573	-127.610	-0.573	0.083
-424.559	220.327	0.321	0.514
-423.544	268.453	-0.080	0.140
-422.530	14.988	-0.132	0.103
-421.515	26.677	-0.540	-0.451
-420.500	394.286	0.229	-0.476
-419.486	-113.718	0.122	0.024
-418.471	-200.000	-0.079	0.725
-417.457	91.228	0.433	0.486
-416.442	94.578	-0.390	-0.443
-415.428	182.190	-0.390	-0.574
-414.413	214.297	0.360	-0.569
-413.398	266.931	-0.391	0.683
-412.384	391.499	0.229	-0.476
-411.369	235.016	-0.196	-0.324
-410.355	800.000	0.035	-0.112
-409.340	165.508	0.300	-0.424
-408.325	159.947	-0.509	0.709
-407.311	367.571	0.138	-0.279
-406.296	-35.355	0.378	-0.205
-405.282	29.399	0.457	-0.388
-404.267	-85.624	0.844	-0.262
-403.252	104.770	-0.602	-0.708
-402.238	-59.187	0.762	-0.328
-401.223	-200.000	0.107	-0.501
-400.209	-36.034	0.560	-0.302
-399.194	796.549	-0.033	0.091
-398.179	23.884	-0.414	0.340
-397.165	-200.000	0.092	-0.489
-396.150	62.863	-0.116	0.116
-395.136	-162.502	-0.280	0.014
-394.121	115.449	-0.381	0.465
-393.106	-30.327	0.282	-0.160
-392.092	532.873	0.247	0.583
-391.077	800.000	-0.120	-0.499
-390.063	0.541	-0.596	0.425
-389.048	-139.983	0.806	0.085
-388.033	-95.974	0.377	-0.100
-387.019	-200.000	-0.052	0.386
-386.004	184.095	0.169	0.249
-384.990	-36.493	-0.473	0.254
-383.975	-73.042	0.449	0.164
-382.960	-59.066	-0.470	0.202
-381.946	-200.000	-0.023	-0.894
-380.931	-143.110	-0.279	0.027
-379.917	-200.000	-0.043	0.190
-378.902	-168.528	1.326	0.050
-377.888	278.327	-0.353	-0.628
-376.873	18.771	-0.099	-0.079
-375.858	-170.980	0.692	-0.024
-374.844	-200.000	0.063	0.417
-373.829	37.170	-0.373	0.329
-372.815	-99.853	-0.191	-0.048
-371.800	451.334	-0.128	0.282
-370.785	121.164	-0.461	-0.572
-369.771	-149.262	-0.954	-0.076
-368.756	178.163	-0.291	-0.423
-367.742	66.718	-0.540	-0.547
-366.727	8.667	0.240	0.180
-365.712	737.380	0.346	-0.925
-364.698	53.481	-0.389	-0.372
-363.683	-200.000	0.039	-0.706
-362.669	27.367	-0.437	-0.366
-361.654	-4.769	0.583	-0.401
-360.639	-119.043	0.403	0.070
-359.625	291.270	0.321	-0.582
-358.610	-200.000	0.168	-0.837
-357.596	-200.000	0.098	-0.765
-356.581	-200.000	0.047	0.662
-355.566	800.000	0.195	-0.646
-354.552	800.000	-0.156	0.494
-353.537	-35.051	-0.117	0.064
-352.523	8.883	0.791	0.594
-351.508	188.606	0.147	0.219
-350.493	-200.000	0.012	0.232
-349.479	-29.925	0.269	-0.152
-348.464	800.000	0.124	0.441
-347.450	57.483	0.282	0.274
-346.435	7.232	-0.369	0.274
-345.420	27.397	-0.563	0.472
-344.406	-176.871	-1.079	0.027
-343.391	800.000	0.138	-0.489
-342.377	-94.659	0.182	-0.049
-341.362	139.748	-0.102	0.134
-340.348	103.068	0.333	-0.389
-339.333	-39.257	0.153	0.080
-338.318	-164.029	-0.201	-0.009
-337.304	-157.881	0.302	-0.018
-336.289	145.865	-0.301	0.401
-335.275	793.675	-0.173	0.473
-334.260	-102.448	0.285	-0.068
-333.245	-87.180	0.386	0.117
-332.231	41.124	0.499	0.449
-331.216	-184.013	-0.092	0.002
-330.202	541.726	0.265	-0.629
-329.187	59.882	0.554	-0.544
-328.172	-123.776	1.165	0.183
-327.158	656.132	0.104	-0.266
-326.143	322.802	0.176	0.335
-325.129	-28.387	-0.273	0.157
-324.114	-174.523	-0.786	0.022
-323.099	-200.000	-0.028	0.421
-322.085	-63.119	0.306	-0.126
-321.070	-58.377	0.093	-0.040
-320.056	-138.751	0.194	-0.021
-319.041	-200.000	-0.009	0.505
-318.026	-179.691	0.465	0.010
-317.012	800.000	-0.153	-0.442
-315.997	101.715	0.163	-0.189
-314.983	42.364	0.427	-0.386
-313.968	-129.136	-0.319	0.044
-312.953	-8.761	-0.394	0.263
-311.939	-49.145	0.024	-0.011
-310.924	-176.134	-0.415	0.011
-309.910	-15.000	0.682	-0.435
-308.895	59.623	0.436	0.428
-307.880	151.186	-0.151	0.205
-306.866	-171.777	-0.642	-0.021
-305.851	800.000	0.205	0.764
-304.837	-86.496	0.985	-0.301
-303.822	63.551	0.361	0.361
-302.807	474.939	-0.173	0.387
-301.793	-92.249	-0.625	0.175
-300.778	-87.799	-0.604	-0.181
-299.764	409.455	-0.205	0.432
-298.749	-92.109	0.343	0.096
-297.735	741.013	-0.102	-0.271
-296.720	23.458	-0.156	-0.127
-295.705	-11.296	0.948	-0.621
-294.691	108.260	0.401	-0.476
-293.676	139.100	0.162	0.211
-292.662	-177.485	0.326	0.008
-291.647	80.072	0.444	-0.474
-290.632	418.233	0.292	-0.621
-289.618	-92.745	0.676	0.188
-288.603	163.453	0.501	0.700
-287.589	-57.524	0.430	-0.187
-286.574	83.236	-0.824	-0.891
-285.559	203.509	0.516	0.793
-284.545	-81.879	0.412	0.134
-283.530	-123.692	-0.534	-0.084
-282.516	-22.114	-0.403	-0.243
-281.501	800.000	0.080	-0.303
-280.486	272.412	-0.149	-0.261
-279.472	-10.954	0.293	-0.192
-278.457	70.744	-0.649	0.667
-277.443	-130.960	-0.325	-0.043
-276.428	800.000	-0.054	-0.195
-275.413	17.561	-0.467	-0.369
-274.399	-120.367	0.283	-0.048
-273.384	-200.000	0.071	0.554
-272.370	422.727	-0.136	-0.291
-271.355	143.802	-0.501	-0.663
-270.340	354.624	-0.085	-0.168
-269.326	-200.000	-0.026	0.231
-268.311	429.969	0.075	0.160
-267.297	-78.388	-0.249	0.085
-266.282	-101.712	-0.414	-0.100
-265.267	125.439	0.114	-0.143
-264.253	97.423	0.366	-0.417
-263.238	-14.899	-0.583	0.371
-262.224	-200.000	-0.120	0.686
-261.209	69.473	0.708	-0.724
-260.195	-153.797	0.498	-0.034
-259.180	-200.000	-0.584	-0.001
-258.165	-98.107	-0.349	0.089
-257.151	-28.535	-0.091	0.052
-256.136	66.556	0.357	0.360
-255.122	-200.000	-0.003	-0.425
-254.107	267.406	0.025	0.043
-253.092	-26.644	0.734	-0.426
-252.078	117.118	-0.245	0.298
-251.063	-18.024	0.209	0.130
-250.049	-126.406	0.309	-0.046
-249.034	44.021	0.168	-0.153
-248.019	800.000	0.101	-0.394
-247.005	-109.629	-0.619	0.129
-245.990	-200.000	0.121	0.654
-244.976	46.897	0.408	0.376
-243.961	-200.000	0.067	-0.447
-242.946	-75.478	0.584	0.206
-241.932	218.388	0.222	0.351
-240.917	477.193	0.375	-0.842
-239.903	73.096	0.190	-0.197
-238.888	-200.000	-0.050	0.708
-237.873	18.012	-0.346	0.273
-236.859	-200.000	-0.125	0.643
-235.844	800.000	-0.065	0.231
-234.830	-200.000	-0.014	0.652
-233.815	-24.506	-0.122	0.072
-232.800	800.000	-0.092	0.266
-231.786	76.080	-0.254	0.267
-230.771	-113.662	-0.732	-0.142
-229.757	-107.634	0.231	0.050
-228.742	85.282	-0.163	-0.178
-227.727	-193.073	-0.453	0.004
-226.713	-200.000	-0.000	0.255
-225.698	-200.000	-0.007	0.303
-224.684	-134.103	-0.276	0.034
-223.669	369.275	0.257	0.516
-222.655	-180.608	0.860	-0.018
-221.640	-48.112	0.545	-0.261
-220.625	800.000	0.204	0.682
-219.611	-84.313	0.876	0.275
-218.596	106.617	0.416	0.489
-217.582	-41.168	0.215	-0.110
-216.567	-143.332	-0.329	0.031
-215.552	-70.247	0.233	-0.088
-214.538	95.268	-0.432	0.488
-213.523	492.404	0.560	-1.272
-212.509	43.420	0.486	-0.440
-211.494	-171.470	0.125	0.004
-210.479	19.332	-0.069	0.055
-209.465	-200.000	0.204	0.906
-208.450	-140.472	0.658	-0.068
-207.436	130.134	0.412	-0.523
-206.421	-22.022	-0.726	-0.437
-205.406	429.601	-0.275	0.590
-204.392	-167.226	0.146	0.006
-203.377	-200.000	-0.034	0.306
-202.363	489.197	-0.162	0.367
-201.348	-145.697	-0.792	0.070
-200.333	800.000	-0.060	-0.247
-199.319	179.265	-0.084	-0.122
-198.304	287.787	0.054	-0.097
-197.290	-200.000	-0.009	0.516
-196.275	800.000	-0.234	0.861
-195.260	81.783	-0.616	0.660
-194.246	-83.270	0.224	0.071
-193.231	26.330	-0.160	0.132
-192.217	-63.087	0.114	-0.046
-191.202	-121.959	0.350	0.057
-190.187	-200.000	0.069	-0.559
-189.173	201.527	0.325	-0.495
-188.158	-58.011	0.285	0.123
-187.144	739.071	-0.224	-0.596
-186.129	124.478	-0.411	-0.511
-185.114	-52.054	-1.109	0.510
-184.100	-60.596	-0.600	-0.252
-183.085	-200.000	0.247	-1.260
-182.071	289.299	-0.112	-0.200
-181.056	-200.000	-0.128	-0.791
-180.042	96.271	0.111	-0.125
-179.027	800.000	0.063	-0.246
-178.012	-44.643	-0.533	-0.264
-176.998	107.391	-0.155	0.182
-175.983	42.504	-0.705	-0.634
-174.969	-24.542	-0.491	-0.289
-173.954	-89.740	-0.555	-0.161
-172.939	367.815	-0.357	-0.713
-171.925	-200.000	-0.074	-0.688
-170.910	272.848	0.089	-0.155
-169.896	346.007	0.215	-0.418
-168.881	-27.367	0.420	0.242
-167.866	159.280	-0.362	-0.498
-166.852	609.418	-0.118	0.291
-165.837	-125.496	-0.902	0.136
-164.823	-49.426	0.442	-0.209
-163.808	8.379	0.620	-0.461
-162.793	273.383	-0.245	0.429
-161.779	-1.246	0.408	-0.285
-160.764	159.240	0.235	0.323
-159.750	-157.030	-0.446	-0.027
-158.735	-111.299	-0.159	-0.032
-157.720	-73.712	-0.675	-0.243
-156.706	-50.465	0.732	0.342
-155.691	-200.000	-0.068	0.830
-154.677	-200.000	-0.093	0.496
-153.662	-177.643	0.488	0.012
-152.647	800.000	-0.066	-0.248
-151.633	9.955	0.719	0.540
-150.618	800.000	0.018	-0.071
-149.604	-125.091	-0.156	0.024
-148.589	-13.315	-0.324	-0.208
-147.574	47.456	0.518	0.478
-146.560	615.408	0.393	0.973
-145.545	-200.000	-0.233	1.275
-144.531	800.000	0.216	0.643
-143.516	153.973	0.251	0.341
-142.502	75.659	0.411	-0.429
-141.487	747.645	-0.112	0.298
-140.472	-200.000	-0.033	-0.510
-139.458	473.401	-0.202	-0.451
-138.443	-87.917	-0.159	-0.047
-137.429	30.884	0.687	-0.581
-136.414	690.635	-0.152	-0.394
-135.399	78.364	0.087	-0.092
-134.385	769.516	0.069	0.184
-133.370	-151.163	-0.576	-0.043
-132.356	-200.000	0.034	0.164
-131.341	-66.517	0.495	0.194
-130.326	-101.211	-0.308	0.074
-129.312	-70.042	0.497	-0.187
-128.297	-200.000	0.064	-0.494
-127.283	-200.000	-0.101	0.977
-126.268	-86.117	0.554	0.169
-125.253	-95.315	0.821	-0.218
-124.239	741.052	0.188	-0.499
-123.224	-128.102	0.473	0.067
-122.210	-173.995	-0.574	-0.017
-121.195	-115.847	0.542	-0.100
