DTS Sentinel unit serial number:	SN413079Multiplexer serial number:	ORYXHardware model number:	OX4-SRSoftware version number:	ORYX F/W v4.00 Oryx Data Collector v3.7.2.0data status	okinstallation	princeton_trtdifferential loss correction	single-endedforward channel	channel 1reverse channel	N/Adate	2019/09/14time	00:02:35forward acquisition time	60.00reverse acquisition time	0.00gamma	496.2192k internal	0.2337k external	0.2337temperature offset calibration	1.0077default loss term (dB/km)	0.3790temperature slope calibration	1.0000multiplexer offset coefficient	1.0000multiplexer slope coefficient	1.0000fibre end	0.00T internal ref (°C)	26.50T ext. ref 1 (°C)	3.16T ext. ref 2 (°C)	21.37length (m)	temperature (°C)	Stokes	anti-Stokes-747.200	301.690	-0.118	-0.220
-746.185	127.178	-0.183	0.234
-745.171	40.218	-0.230	0.208
-744.156	-2.372	-0.122	0.086
-743.142	-103.122	-0.331	0.079
-742.127	-200.000	-0.039	0.350
-741.112	101.793	-0.018	0.021
-740.098	466.767	-0.041	0.092
-739.083	-89.017	-0.104	-0.031
-738.069	-200.000	0.050	0.327
-737.054	-53.115	-0.317	0.146
-736.039	439.396	-0.065	-0.143
-735.025	-173.469	-0.023	-0.001
-734.010	-135.399	-0.212	0.025
-732.996	96.272	-0.263	-0.302
-731.981	94.841	-0.183	0.208
-730.966	238.293	0.108	-0.179
-729.952	-104.793	-0.452	0.104
-728.937	-128.890	-0.164	0.023
-727.923	-79.241	-0.338	-0.115
-726.908	-13.820	-0.098	0.064
-725.894	411.777	0.013	-0.027
-724.879	-200.000	-0.038	-0.336
-723.864	31.197	-0.246	0.212
-722.850	-200.000	0.008	-0.137
-721.835	800.000	0.100	-0.376
-720.821	-184.037	-0.216	0.004
-719.806	-115.800	-0.220	0.041
-718.791	-48.697	-0.465	-0.224
-717.777	75.760	0.083	0.088
-716.762	-200.000	-0.082	-0.434
-715.748	193.083	0.110	0.166
-714.733	-167.532	-0.420	0.017
-713.718	-164.006	0.225	-0.010
-712.704	-200.000	0.004	-0.257
-711.689	-93.474	0.198	-0.055
-710.675	399.270	-0.136	0.285
-709.660	-73.061	-0.265	-0.097
-708.645	194.187	-0.169	-0.256
-707.631	68.729	-0.172	-0.177
-706.616	-200.000	0.003	-0.160
-705.602	-165.824	-0.364	-0.016
-704.587	-200.000	0.004	0.060
-703.572	46.449	-0.155	-0.145
-702.558	800.000	-0.058	0.164
-701.543	-99.429	0.045	-0.011
-700.529	146.632	0.117	-0.158
-699.514	-200.000	0.012	-0.216
-698.499	-200.000	0.007	-0.232
-697.485	-200.000	-0.046	-0.408
-696.470	-93.656	-0.339	0.094
-695.456	-41.230	-0.276	0.143
-694.441	-200.000	-0.035	-0.185
-693.426	78.347	0.059	-0.063
-692.412	-200.000	-0.056	-0.454
-691.397	522.741	-0.166	-0.392
-690.383	-200.000	-0.098	-0.469
-689.368	800.000	-0.057	-0.174
-688.354	800.000	0.043	0.172
-687.339	-181.615	-0.316	0.006
-686.324	93.498	-0.276	-0.313
-685.310	281.911	0.088	-0.159
-684.295	-64.535	-0.120	0.049
-683.281	-52.311	-0.189	0.087
-682.266	-96.627	-0.295	0.078
-681.251	-74.480	-0.375	0.135
-680.237	168.703	-0.130	-0.186
-679.222	-181.724	0.257	0.005
-678.208	-74.236	-0.197	0.071
-677.193	-200.000	-0.043	0.359
-676.178	-200.000	0.035	-0.292
-675.164	-6.225	-0.387	0.264
-674.149	-92.504	-0.203	0.057
-673.135	-200.000	0.020	-0.142
-672.120	-84.653	-0.220	0.069
-671.105	62.454	0.186	-0.186
-670.091	800.000	-0.065	-0.252
-669.076	-158.432	-0.093	0.005
-668.062	441.206	-0.069	0.150
-667.047	-146.168	-0.223	0.020
-666.032	-22.555	-0.151	-0.091
-665.018	-200.000	-0.006	-0.336
-664.003	-66.723	-0.341	-0.135
-662.989	-171.980	0.189	0.006
-661.974	23.401	-0.227	0.186
-660.959	554.471	0.033	-0.080
-659.945	-61.582	0.284	0.119
-658.930	-200.000	-0.044	0.404
-657.916	144.082	-0.280	0.373
-656.901	-33.219	0.254	-0.141
-655.886	-122.439	-0.211	-0.034
-654.872	148.197	0.012	0.016
-653.857	171.287	-0.234	-0.336
-652.843	94.834	0.065	0.074
-651.828	-200.000	0.009	0.072
-650.814	128.464	0.053	0.068
-649.799	-200.000	0.004	-0.165
-648.784	58.420	0.098	0.097
-647.770	-109.647	0.200	-0.042
-646.755	9.990	-0.054	-0.041
-645.741	80.356	-0.164	0.176
-644.726	135.342	-0.143	-0.186
-643.711	-154.184	0.209	0.014
-642.697	800.000	0.100	-0.322
-641.682	-166.645	-0.192	-0.008
-640.668	-77.659	0.288	0.100
-639.653	267.304	0.016	0.029
-638.638	-108.922	-0.263	-0.056
-637.624	-170.194	0.388	0.014
-636.609	-111.380	0.181	-0.037
-635.595	551.031	-0.041	-0.099
-634.580	-49.806	0.166	0.079
-633.565	-31.310	-0.320	0.180
-632.551	-32.536	0.109	0.061
-631.536	-82.218	-0.109	-0.036
-630.522	19.947	-0.359	-0.289
-629.507	-12.850	0.041	0.027
-628.492	333.175	-0.135	-0.260
-627.478	-147.839	-0.209	0.017
-626.463	159.429	-0.144	0.200
-625.449	85.040	-0.032	-0.035
-624.434	127.129	0.047	-0.059
-623.419	-94.959	0.335	-0.091
-622.405	41.887	-0.308	-0.279
-621.390	-200.000	0.001	0.285
-620.376	-200.000	0.066	-0.300
-619.361	158.949	-0.108	0.149
-618.346	256.228	0.162	0.277
-617.332	140.749	0.223	-0.294
-616.317	-200.000	-0.020	-0.095
-615.303	-72.085	-0.229	-0.085
-614.288	517.676	0.107	-0.250
-613.273	-162.346	0.456	-0.023
-612.259	-13.681	-0.153	-0.099
-611.244	-200.000	0.001	0.096
-610.230	-127.688	-0.337	-0.049
-609.215	21.854	0.203	-0.165
-608.201	-165.886	-0.183	-0.008
-607.186	-39.161	0.190	0.100
-606.171	112.825	0.236	-0.285
-605.157	118.118	0.180	-0.222
-604.142	-46.324	-0.096	-0.047
-603.128	-97.016	-0.238	-0.062
-602.113	10.077	-0.146	-0.110
-601.098	-17.778	0.339	-0.213
-600.084	-66.964	-0.280	0.111
-599.069	-159.643	-0.297	0.016
-598.055	-200.000	-0.017	-0.165
-597.040	-91.747	0.072	-0.020
-596.025	204.264	0.218	0.337
-595.011	-51.521	0.304	-0.142
-593.996	-113.286	-0.068	0.013
-592.982	-62.391	0.017	-0.007
-591.967	-168.699	-0.162	0.006
-590.952	-9.951	0.151	0.100
-589.938	800.000	0.057	0.222
-588.923	-200.000	-0.023	-0.254
-587.909	52.706	-0.252	0.241
-586.894	-200.000	0.023	0.166
-585.879	-19.795	-0.189	0.116
-584.865	-43.352	-0.288	-0.145
-583.850	126.489	0.117	-0.148
-582.836	676.881	-0.113	-0.292
-581.821	-82.952	0.243	0.078
-580.806	-105.177	-0.131	0.030
-579.792	-200.000	-0.019	-0.166
-578.777	176.510	-0.173	-0.251
-577.763	0.874	0.119	-0.085
-576.748	291.298	-0.075	-0.137
-575.733	-91.788	0.177	0.050
-574.719	540.944	-0.157	0.373
-573.704	-115.747	-0.103	-0.019
-572.690	56.904	-0.238	0.231
-571.675	-25.189	-0.175	-0.104
-570.661	-75.971	0.155	0.055
-569.646	641.439	-0.049	-0.125
-568.631	280.784	0.079	0.141
-567.617	-162.701	0.034	0.002
-566.602	800.000	-0.071	-0.203
-565.588	800.000	0.083	0.246
-564.573	-145.323	0.093	0.008
-563.558	227.320	0.133	-0.216
-562.544	179.094	-0.122	-0.179
-561.529	-139.006	0.102	0.011
-560.515	66.746	-0.183	-0.186
-559.500	-200.000	-0.042	-0.294
-558.485	155.508	-0.205	0.282
-557.471	-200.000	-0.013	-0.147
-556.456	55.617	-0.195	0.188
-555.442	334.900	0.034	-0.066
-554.427	-200.000	-0.026	-0.322
-553.412	-194.703	-0.222	-0.002
-552.398	-113.790	-0.035	0.007
-551.383	-129.537	-0.134	-0.019
-550.369	-103.845	-0.233	-0.054
-549.354	149.312	0.022	0.030
-548.339	211.546	-0.066	0.104
-547.325	-75.148	0.400	0.142
-546.310	-200.000	-0.015	0.179
-545.296	-27.053	-0.202	0.117
-544.281	-163.674	0.352	0.017
-543.266	-200.000	-0.006	-0.165
-542.252	-156.695	-0.247	-0.015
-541.237	-183.121	-0.205	0.004
-540.223	514.718	-0.052	0.120
-539.208	-159.302	0.352	0.020
-538.193	800.000	-0.004	0.012
-537.179	-126.455	-0.463	0.069
-536.164	-171.779	-0.493	0.016
-535.150	-200.000	-0.039	0.228
-534.135	342.434	-0.059	0.115
-533.121	48.746	-0.029	0.027
-532.106	-117.614	0.103	-0.019
-531.091	270.744	0.178	0.312
-530.077	-45.562	-0.202	0.099
-529.062	46.462	-0.153	0.141
-528.048	75.142	-0.201	-0.211
-527.033	-200.000	0.069	-0.349
-526.018	-200.000	-0.013	-0.230
-525.004	-154.351	0.236	0.016
-523.989	291.738	-0.060	0.109
-522.975	-200.000	0.033	0.460
-521.960	-76.087	-0.365	0.128
-520.945	-176.069	-0.094	-0.002
-519.931	-71.996	0.194	-0.072
-518.916	-117.913	-0.198	0.035
-517.902	800.000	0.074	-0.244
-516.887	-200.000	0.026	-0.262
-515.872	-109.692	-0.126	0.026
-514.858	-42.525	0.155	-0.078
-513.843	-200.000	0.052	0.295
-512.829	702.404	-0.068	0.177
-511.814	-158.484	0.221	-0.013
-510.799	-104.520	0.244	0.056
-509.785	787.777	-0.040	-0.110
-508.770	85.097	0.189	-0.206
-507.756	0.714	0.081	0.058
-506.741	43.787	-0.096	0.088
-505.726	8.274	-0.157	0.117
-504.712	-116.886	-0.310	0.056
-503.697	-114.201	0.214	0.041
-502.683	-200.000	-0.020	-0.368
-501.668	-200.000	0.011	-0.215
-500.653	-180.001	-0.222	-0.005
-499.639	-200.000	0.002	0.170
-498.624	272.484	-0.132	-0.232
-497.610	-32.523	-0.056	0.031
-496.595	2.003	0.219	-0.157
-495.581	-178.794	-0.265	0.006
-494.566	-118.417	-0.214	0.038
-493.551	-10.430	0.166	0.109
-492.537	68.961	0.069	-0.071
-491.522	800.000	-0.022	-0.062
-490.508	-42.135	0.123	0.063
-489.493	-127.435	0.400	-0.058
-488.478	281.818	0.138	0.247
-487.464	-200.000	-0.033	0.366
-486.449	393.826	0.194	0.402
-485.435	-200.000	0.029	0.282
-484.420	313.546	0.075	-0.140
-483.405	357.749	0.271	0.537
-482.391	-79.385	-0.197	0.066
-481.376	-200.000	0.091	-0.588
-480.362	800.000	0.024	-0.077
-479.347	-200.000	0.005	-0.054
-478.332	102.122	0.036	-0.042
-477.318	-133.773	-0.148	-0.018
-476.303	594.546	-0.077	0.190
-475.289	800.000	-0.072	-0.243
-474.274	800.000	0.114	0.345
-473.259	109.998	-0.203	0.242
-472.245	9.796	-0.176	0.132
-471.230	-200.000	0.018	0.129
-470.216	-200.000	0.074	-0.473
-469.201	-106.797	0.171	0.038
-468.186	506.852	-0.038	0.087
-467.172	-200.000	0.024	0.143
-466.157	70.156	-0.188	0.192
-465.143	-74.142	0.211	-0.076
-464.128	-200.000	0.003	0.190
-463.113	149.389	-0.123	0.165
-462.099	-25.850	0.211	-0.123
-461.084	633.848	0.084	-0.212
-460.070	44.126	0.149	-0.136
-459.055	-85.468	-0.227	0.070
-458.040	-172.242	-0.306	-0.010
-457.026	800.000	-0.026	-0.081
-456.011	-60.956	-0.330	0.139
-454.997	-10.009	0.140	0.092
-453.982	-200.000	-0.009	-0.228
-452.968	160.578	0.241	-0.334
-451.953	133.267	-0.258	-0.331
-450.938	-140.459	0.029	0.003
-449.924	145.460	0.069	-0.092
-448.909	-104.439	0.230	0.053
-447.895	-200.000	-0.027	0.187
-446.880	-200.000	-0.007	-0.115
-445.865	469.435	-0.025	-0.057
-444.851	376.347	0.049	-0.100
-443.836	-200.000	0.031	-0.356
-442.822	-179.864	-0.198	0.004
-441.807	154.033	-0.125	0.170
-440.792	-200.000	-0.009	0.310
-439.778	423.476	-0.076	0.162
-438.763	-107.016	0.044	0.010
-437.749	-95.569	-0.046	-0.012
-436.734	-84.893	-0.215	-0.067
-435.719	96.773	0.193	-0.219
-434.705	23.827	-0.083	0.067
-433.690	188.655	0.064	-0.096
-432.676	-12.528	0.140	-0.090
-431.661	-200.000	-0.010	0.093
-430.646	-200.000	-0.055	-0.393
-429.632	-200.000	0.033	0.305
-428.617	800.000	-0.060	0.199
-427.603	221.962	-0.066	-0.106
-426.588	-16.642	0.143	0.090
-425.573	-134.281	-0.082	0.010
-424.559	-73.007	0.116	0.042
-423.544	-200.000	-0.007	-0.108
-422.530	171.187	-0.125	0.178
-421.515	169.999	0.104	-0.148
-420.500	60.917	-0.184	0.181
-419.486	121.317	-0.117	-0.144
-418.471	-200.000	-0.007	0.146
-417.457	-33.431	0.177	-0.097
-416.442	-81.232	-0.324	0.106
-415.428	21.518	-0.369	-0.297
-414.413	-200.000	0.014	0.219
-413.398	-60.367	-0.278	-0.117
-412.384	748.432	0.121	-0.323
-411.369	-31.789	0.175	-0.097
-410.355	-27.515	-0.186	0.107
-409.340	65.020	0.150	-0.150
-408.325	358.297	-0.126	-0.249
-407.311	-2.653	-0.161	0.111
-406.296	-102.881	0.140	0.033
-405.282	9.000	0.033	0.025
-404.267	443.039	-0.132	-0.286
-403.252	-103.085	-0.147	0.034
-402.238	15.614	0.163	-0.127
-401.223	229.504	-0.115	0.185
-400.209	-200.000	0.011	0.309
-399.194	194.313	0.077	0.115
-398.179	52.959	-0.101	0.095
-397.165	96.859	0.241	-0.273
-396.150	588.304	0.097	-0.237
-395.136	800.000	0.016	0.054
-394.121	43.272	0.214	0.193
-393.106	-23.513	0.128	-0.076
-392.092	6.139	-0.024	-0.017
-391.077	66.154	-0.090	0.090
-390.063	-149.830	-0.074	-0.006
-389.048	271.754	0.068	0.119
-388.033	-70.656	-0.255	0.095
-387.019	511.899	0.100	-0.231
-386.004	110.442	0.341	-0.405
-384.990	-77.382	0.231	0.079
-383.975	-200.000	-0.003	0.103
-382.960	695.609	-0.019	-0.049
-381.946	-200.000	-0.043	0.204
-380.931	54.536	0.213	-0.203
-379.917	-147.246	-0.461	-0.039
-378.902	-82.573	0.174	-0.056
-377.888	16.332	0.073	0.057
-376.873	6.962	-0.160	-0.118
-375.858	-92.337	0.261	0.073
-374.844	-107.532	0.309	0.067
-373.829	-200.000	-0.044	-0.344
-372.815	231.144	-0.166	0.269
-371.800	266.491	0.028	-0.049
-370.785	-6.027	0.098	0.067
-369.771	21.172	0.175	0.140
-368.756	513.363	-0.042	0.097
-367.742	13.100	-0.221	0.169
-366.727	-108.118	-0.137	-0.029
-365.712	-1.179	0.421	-0.294
-364.698	-21.243	-0.168	-0.102
-363.683	128.885	0.123	0.156
-362.669	51.353	-0.153	-0.144
-361.654	-186.856	0.384	-0.005
-360.639	48.152	0.100	0.092
-359.625	234.515	-0.165	-0.269
-358.610	-0.259	-0.053	0.038
-357.596	-152.771	0.323	-0.023
-356.581	136.786	0.222	0.287
-355.566	-91.248	0.080	0.023
-354.552	38.002	-0.282	0.248
-353.537	-62.542	0.144	0.059
-352.523	-200.000	-0.054	0.353
-351.508	87.234	0.182	0.199
-350.493	-134.570	0.018	0.002
-349.479	31.454	-0.246	-0.209
-348.464	212.544	-0.194	-0.302
-347.450	489.075	0.162	-0.366
-346.435	-93.870	-0.168	-0.046
-345.420	292.599	-0.061	-0.109
-344.406	-22.792	-0.300	0.179
-343.391	-50.162	-0.163	-0.076
-342.377	73.070	0.153	-0.158
-341.362	26.730	-0.209	-0.173
-340.348	800.000	-0.036	0.129
-339.333	-30.133	0.036	0.020
-338.318	481.394	-0.026	0.059
-337.304	-55.856	-0.032	0.014
-336.289	-1.456	-0.291	-0.203
-335.275	-200.000	0.023	-0.228
-334.260	-200.000	0.003	0.292
-333.245	-64.753	-0.064	-0.025
-332.231	428.019	-0.133	0.283
-331.216	-72.103	-0.135	0.049
-330.202	390.732	-0.137	0.280
-329.187	39.070	0.233	-0.206
-328.172	80.201	-0.067	0.071
-327.158	572.638	0.155	0.374
-326.143	90.021	0.173	0.191
-325.129	791.500	0.028	0.075
-324.114	-200.000	0.012	-0.108
-323.099	-125.035	-0.075	-0.011
-322.085	-56.187	-0.089	0.039
-321.070	52.252	-0.199	-0.187
-320.056	-192.353	0.548	0.005
-319.041	-42.062	0.106	0.054
-318.026	-10.824	-0.054	0.035
-317.012	-200.000	0.001	0.023
-315.997	-22.768	-0.094	0.056
-314.983	-49.656	0.301	-0.141
-313.968	-98.528	0.063	-0.016
-312.953	-37.233	0.416	-0.219
-311.939	-165.557	0.374	0.016
-310.924	344.658	-0.170	-0.330
-309.910	99.274	0.081	0.092
-308.895	139.118	0.230	-0.298
-307.880	-58.619	-0.104	-0.044
-306.866	146.124	0.105	-0.139
-305.851	-21.215	0.074	-0.044
-304.837	-200.000	0.001	-0.226
-303.822	-108.633	0.367	0.078
-302.807	-24.226	-0.139	-0.082
-301.793	-55.222	-0.186	0.083
-300.778	800.000	0.050	0.175
-299.764	800.000	-0.076	-0.231
-298.749	800.000	0.016	0.066
-297.735	-200.000	0.009	-0.180
-296.720	-62.698	-0.341	-0.139
-295.705	-141.405	0.072	-0.007
-294.691	8.246	-0.259	-0.192
-293.676	-200.000	-0.003	0.098
-292.662	-80.880	-0.097	-0.032
-291.647	111.065	0.269	-0.320
-290.632	-200.000	0.031	0.157
-289.618	16.257	0.192	0.150
-288.603	-136.354	0.435	0.050
-287.589	-41.657	0.179	0.091
-286.574	-58.908	-0.112	-0.048
-285.559	-137.188	-0.549	0.062
-284.545	-27.436	0.295	-0.169
-283.530	-200.000	0.027	-0.130
-282.516	-122.324	-0.039	-0.006
-281.501	-200.000	-0.006	-0.149
-280.486	-200.000	-0.029	0.361
-279.472	-22.546	0.323	0.193
-278.457	136.573	0.102	0.131
-277.443	-200.000	-0.010	-0.186
-276.428	267.517	0.100	0.173
-275.413	84.206	0.067	-0.072
-274.399	355.646	-0.137	0.269
-273.384	45.635	-0.142	-0.129
-272.370	-200.000	-0.005	0.097
-271.355	51.124	-0.036	0.034
-270.340	-200.000	-0.027	0.303
-269.326	-189.957	0.152	0.002
-268.311	32.242	-0.158	0.135
-267.297	-168.221	0.419	-0.016
-266.282	-41.836	0.329	0.166
-265.267	800.000	0.045	-0.167
-264.253	-186.396	0.140	0.002
-263.238	-101.765	-0.229	0.055
-262.224	-12.481	0.437	-0.281
-261.209	6.398	0.283	0.207
-260.195	105.113	0.132	-0.153
-259.180	-58.355	-0.236	0.101
-258.165	134.691	0.139	-0.178
-257.151	-181.642	0.010	0.000
-256.136	800.000	0.070	-0.276
-255.122	-80.251	0.165	0.054
-254.107	2.996	0.065	-0.047
-253.092	618.251	-0.142	0.352
-252.078	-1.370	0.287	-0.199
-251.063	-15.108	-0.331	0.209
-250.049	-70.735	0.089	0.033
-249.034	103.086	0.087	0.101
-248.019	-163.792	-0.095	-0.004
-247.005	-39.426	0.173	0.089
-245.990	-107.928	-0.500	0.107
-244.976	800.000	0.106	0.345
-243.961	3.387	0.067	-0.048
-242.946	-85.450	0.235	0.072
-241.932	-60.456	-0.207	0.086
-240.917	130.025	0.223	0.281
-239.903	-22.510	-0.118	-0.070
-238.888	-50.730	-0.327	-0.152
-237.873	186.445	0.182	0.266
-236.859	223.847	0.074	0.117
-235.844	-101.373	-0.264	-0.063
-234.830	164.862	0.249	0.346
-233.815	-69.178	-0.200	-0.076
-232.800	35.694	0.249	-0.216
-231.786	-118.732	0.401	0.070
-230.771	-178.962	0.296	0.007
-229.757	150.399	0.142	0.190
-228.742	-200.000	0.002	-0.157
-227.727	-60.106	0.178	0.075
-226.713	65.575	-0.152	0.151
-225.698	-72.786	-0.139	-0.050
-224.684	174.502	-0.172	-0.245
-223.669	520.359	0.124	0.286
-222.655	-42.822	-0.297	0.148
-221.640	-154.895	-0.063	0.004
-220.625	-179.595	0.058	0.001
-219.611	-94.037	-0.385	-0.104
-218.596	80.933	0.159	0.169
-217.582	-200.000	0.020	-0.135
-216.567	-200.000	-0.028	-0.119
-215.552	158.566	-0.184	0.252
-214.538	-99.130	0.307	0.077
-213.523	285.120	0.114	-0.202
-212.509	224.025	0.123	-0.196
-211.494	800.000	0.048	-0.189
-210.479	-49.302	0.114	0.054
-209.465	188.860	-0.014	-0.021
-208.450	197.066	-0.054	-0.081
-207.436	-46.428	-0.413	0.199
-206.421	-200.000	-0.028	-0.181
-205.406	325.295	0.096	-0.180
-204.392	524.338	-0.075	0.174
-203.377	192.970	-0.161	0.240
-202.363	800.000	-0.031	-0.129
-201.348	-90.868	-0.210	-0.059
-200.333	8.043	0.043	-0.032
-199.319	415.885	-0.118	-0.247
-198.304	28.739	0.146	0.122
-197.290	-200.000	0.000	0.128
-196.275	-200.000	0.016	0.215
-195.260	13.844	0.175	0.134
-194.246	-91.063	0.180	0.051
-193.231	-102.889	-0.295	0.069
-192.217	29.759	-0.142	-0.119
-191.202	-56.008	0.162	0.071
-190.187	-128.590	0.053	0.007
-189.173	205.141	0.130	0.199
-188.158	-25.099	0.175	0.102
-187.144	800.000	-0.053	0.226
-186.129	361.476	-0.042	-0.084
-185.114	71.573	0.151	-0.154
-184.100	266.682	-0.236	-0.404
-183.085	396.956	0.066	0.135
-182.071	246.076	0.195	-0.323
-181.056	-200.000	-0.010	-0.078
-180.042	78.519	-0.099	0.104
-179.027	800.000	-0.110	0.308
-178.012	-88.712	-0.166	0.049
-176.998	-200.000	-0.060	0.302
-175.983	-108.658	-0.170	-0.036
-174.969	-159.393	-0.239	0.013
-173.954	-114.842	-0.332	-0.062
-172.939	-17.046	-0.193	0.120
-171.925	-167.405	0.239	0.009
-170.910	-165.568	-0.078	0.003
-169.896	-200.000	-0.044	-0.342
-168.881	-200.000	0.011	-0.063
-167.866	-64.210	0.059	0.024
-166.852	-48.781	0.174	-0.082
-165.837	450.770	0.025	-0.054
-164.823	-99.337	-0.051	0.013
-163.808	416.391	-0.172	0.360
-162.793	-77.725	0.153	-0.052
-161.779	-132.208	0.263	0.033
-160.764	174.041	-0.141	-0.199
-159.750	-51.233	-0.214	-0.099
-158.735	214.763	-0.080	0.124
-157.720	-139.704	0.282	0.029
-156.706	-200.000	0.005	0.199
-155.691	786.251	0.077	0.207
-154.677	7.786	-0.187	0.138
-153.662	-36.383	0.171	0.090
-152.647	26.825	0.049	0.040
-151.633	-41.687	-0.186	0.094
-150.618	-59.281	0.277	-0.117
-149.604	168.383	-0.153	0.214
-148.589	-200.000	-0.047	0.235
-147.574	-200.000	0.015	0.133
-146.560	72.410	-0.152	-0.155
-145.545	-1.103	-0.321	0.222
-144.531	800.000	-0.075	0.266
-143.516	-94.103	0.348	-0.094
-142.502	18.035	-0.183	0.143
-141.487	-83.456	-0.147	0.046
-140.472	-52.394	0.470	0.213
-139.458	-198.917	0.064	0.000
-138.443	-17.800	-0.303	-0.187
-137.429	-40.135	-0.063	-0.032
-136.414	-63.269	-0.247	0.100
-135.399	348.886	-0.107	0.207
-134.385	349.743	0.107	-0.206
-133.370	-155.884	-0.096	0.006
-132.356	-149.662	-0.145	0.011
-131.341	-182.058	-0.415	-0.008
-130.326	222.559	0.041	0.065
-129.312	466.348	-0.050	0.110
-128.297	-42.134	-0.175	0.088
-127.283	124.804	-0.102	0.126
-126.268	-3.395	0.224	-0.153
-125.253	-200.000	-0.027	-0.330
-124.239	-103.404	-0.059	0.014
-123.224	278.895	0.054	-0.094
-122.210	-94.529	0.100	-0.027
