DTS Sentinel unit serial number:	SN413079Multiplexer serial number:	ORYXHardware model number:	OX4-SRSoftware version number:	ORYX F/W v4.00 Oryx Data Collector v3.7.2.0data status	okinstallation	princeton_trtdifferential loss correction	single-endedforward channel	channel 1reverse channel	N/Adate	2019/09/16time	21:22:35forward acquisition time	60.00reverse acquisition time	0.00gamma	496.2192k internal	0.2325k external	0.2325temperature offset calibration	0.9951default loss term (dB/km)	0.3790temperature slope calibration	1.0000multiplexer offset coefficient	1.0000multiplexer slope coefficient	1.0000fibre end	0.00T internal ref (°C)	31.62T ext. ref 1 (°C)	0.05T ext. ref 2 (°C)	25.39length (m)	temperature (°C)	Stokes	anti-Stokes-747.200	-200.000	-0.045	0.272
-746.185	-60.068	-0.219	-0.094
-745.171	28.461	0.072	0.061
-744.156	800.000	0.131	0.402
-743.142	-79.946	-0.298	0.101
-742.127	189.020	0.132	0.199
-741.112	-26.706	0.060	-0.035
-740.098	-94.698	-0.173	0.047
-739.083	-169.440	-0.399	0.015
-738.069	-79.452	-0.186	-0.063
-737.054	-84.267	0.181	0.058
-736.039	-21.125	-0.301	-0.185
-735.025	656.197	0.047	-0.122
-734.010	28.363	0.359	-0.306
-732.996	170.960	0.222	-0.321
-731.981	-200.000	0.017	-0.146
-730.966	-66.065	0.145	0.058
-729.952	-200.000	-0.006	0.118
-728.937	119.802	-0.223	-0.279
-727.923	800.000	-0.023	0.079
-726.908	-154.345	0.088	0.006
-725.894	-117.311	0.310	-0.057
-724.879	-200.000	0.004	0.050
-723.864	-40.102	-0.218	-0.115
-722.850	-123.056	-0.112	-0.018
-721.835	-10.766	-0.262	0.174
-720.821	800.000	0.068	-0.258
-719.806	115.337	-0.070	0.087
-718.791	-80.273	0.215	0.072
-717.777	-38.845	-0.271	0.144
-716.762	-200.000	0.063	-0.381
-715.748	158.861	0.265	-0.371
-714.733	87.472	-0.023	-0.026
-713.718	-23.671	0.321	-0.194
-712.704	-97.622	-0.069	-0.018
-711.689	-200.000	0.008	-0.384
-710.675	-114.821	0.088	0.017
-709.660	655.923	0.015	-0.040
-708.645	-186.515	0.188	0.003
-707.631	-200.000	-0.242	-0.001
-706.616	800.000	-0.034	0.094
-705.602	-200.000	-0.049	0.375
-704.587	-200.000	-0.109	-0.773
-703.572	800.000	0.028	-0.091
-702.558	-200.000	-0.028	0.262
-701.543	195.492	-0.115	0.175
-700.529	-123.324	0.268	0.043
-699.514	58.804	0.185	-0.183
-698.499	-25.537	0.202	-0.120
-697.485	113.642	0.192	-0.235
-696.470	477.969	-0.054	-0.124
-695.456	204.419	-0.178	0.278
-694.441	-34.911	-0.174	-0.096
-693.426	-108.488	-0.087	0.019
-692.412	146.725	0.133	-0.180
-691.397	800.000	-0.064	-0.202
-690.383	68.552	-0.333	0.344
-689.368	800.000	0.103	-0.438
-688.354	-77.136	0.227	0.080
-687.339	-200.000	0.015	-0.237
-686.324	-82.310	-0.183	0.060
-685.310	443.805	0.104	-0.230
-684.295	-35.789	-0.067	-0.036
-683.281	398.601	0.087	-0.182
-682.266	7.520	-0.124	-0.093
-681.251	137.325	0.115	-0.151
-680.237	-200.000	-0.023	-0.622
-679.222	-200.000	0.011	-0.210
-678.208	698.415	-0.011	0.028
-677.193	30.615	0.070	0.060
-676.178	40.225	0.088	-0.080
-675.164	549.207	-0.131	0.315
-674.149	43.470	-0.056	-0.051
-673.135	97.815	0.153	0.177
-672.120	800.000	0.042	0.127
-671.105	70.342	-0.136	0.142
-670.091	27.984	0.445	-0.377
-669.076	-178.687	0.080	-0.002
-668.062	-200.000	-0.040	-0.193
-667.047	378.276	0.140	0.289
-666.032	-200.000	-0.039	0.459
-665.018	108.556	-0.221	-0.265
-664.003	-125.314	-0.206	0.032
-662.989	-200.000	0.061	-0.308
-661.974	185.284	-0.238	-0.355
-660.959	-164.422	-0.254	-0.012
-659.945	500.391	-0.044	0.102
-658.930	-200.000	-0.330	0.001
-657.916	-75.145	-0.069	-0.025
-656.901	-33.145	0.060	0.033
-655.886	64.818	-0.398	-0.403
-654.872	43.582	-0.106	0.098
-653.857	-200.000	0.070	0.394
-652.843	-37.566	-0.191	-0.102
-651.828	-200.000	-0.056	-0.265
-650.814	-170.248	0.136	-0.005
-649.799	7.006	0.165	0.123
-648.784	227.060	0.153	-0.250
-647.770	80.700	0.163	-0.176
-646.755	-58.624	0.114	-0.050
-645.741	-75.769	-0.212	-0.076
-644.726	-120.432	0.278	-0.047
-643.711	54.793	-0.290	0.281
-642.697	800.000	0.021	0.074
-641.682	146.279	-0.152	0.205
-640.668	-200.000	-0.001	-0.068
-639.653	111.413	0.167	-0.203
-638.638	-200.000	0.003	0.217
-637.624	-101.101	0.262	0.065
-636.609	-13.861	0.133	0.087
-635.595	-89.003	-0.258	-0.077
-634.580	26.717	0.151	-0.127
-633.565	581.922	-0.114	-0.280
-632.551	113.242	-0.118	-0.143
-631.536	48.013	-0.154	-0.144
-630.522	-73.892	0.076	-0.028
-629.507	39.877	-0.091	-0.082
-628.492	-136.395	0.216	0.025
-627.478	-78.902	-0.129	0.044
-626.463	-37.416	-0.466	-0.250
-625.449	340.368	0.147	-0.289
-624.434	-200.000	-0.009	0.073
-623.419	294.030	0.164	0.300
-622.405	186.771	-0.082	-0.123
-621.390	-200.000	-0.028	-0.231
-620.376	-200.000	-0.010	-0.409
-619.361	126.603	-0.365	-0.464
-618.346	-200.000	0.020	0.227
-617.332	142.938	0.054	-0.073
-616.317	-200.000	-0.016	0.248
-615.303	-200.000	-0.002	0.190
-614.288	262.932	0.049	-0.085
-613.273	197.954	0.070	0.107
-612.259	87.909	-0.187	0.209
-611.244	117.475	0.090	-0.111
-610.230	35.117	-0.224	-0.197
-609.215	-200.000	0.014	-0.174
-608.201	62.184	0.158	-0.158
-607.186	369.985	0.081	0.164
-606.171	-139.834	0.241	0.026
-605.157	225.531	0.300	-0.487
-604.142	-6.596	-0.152	0.104
-603.128	-200.000	0.020	-0.370
-602.113	207.695	-0.043	0.068
-601.098	-128.971	-0.214	0.030
-600.084	137.910	-0.112	-0.148
-599.069	243.438	0.062	-0.104
-598.055	-15.205	-0.180	0.116
-597.040	-93.785	-0.094	0.026
-596.025	338.430	0.049	-0.095
-595.011	45.861	0.042	-0.039
-593.996	347.495	0.064	0.126
-592.982	-138.156	0.219	-0.024
-591.967	-200.000	0.059	-0.357
-590.952	800.000	-0.051	-0.185
-589.938	433.743	0.132	-0.288
-588.923	48.445	-0.168	0.158
-587.909	-123.511	0.361	-0.058
-586.894	375.584	0.058	-0.118
-585.879	27.090	0.149	0.126
-584.865	-130.506	0.390	0.053
-583.850	-96.258	0.157	-0.042
-582.836	123.162	0.117	-0.147
-581.821	260.997	-0.063	-0.109
-580.806	101.656	0.114	-0.133
-579.792	-76.747	0.403	-0.142
-578.777	468.959	-0.083	-0.187
-577.763	-200.000	0.172	0.000
-576.748	104.005	0.327	0.386
-575.733	5.632	0.222	-0.165
-574.719	-139.838	-0.195	0.021
-573.704	-16.980	-0.202	0.128
-572.690	-200.000	0.066	-0.352
-571.675	-137.307	-0.105	0.012
-570.661	180.430	0.136	0.201
-569.646	-106.239	-0.086	-0.019
-568.631	-69.640	-0.080	0.031
-567.617	800.000	0.035	-0.131
-566.602	495.738	0.059	0.136
-565.588	20.113	-0.153	-0.123
-564.573	276.244	0.105	-0.187
-563.558	-200.000	0.049	-0.226
-562.544	38.071	0.108	-0.097
-561.529	344.061	-0.091	0.179
-560.515	-142.275	-0.134	0.013
-559.500	74.879	-0.120	-0.126
-558.485	-200.000	0.006	0.103
-557.471	800.000	-0.099	-0.379
-556.456	-200.000	0.031	-0.265
-555.442	520.140	0.247	0.579
-554.427	-170.419	-0.427	-0.015
-553.412	383.523	0.115	-0.237
-552.398	-200.000	-0.007	-0.164
-551.383	-200.000	-0.014	-0.181
-550.369	-138.154	-0.058	0.006
-549.354	-200.000	-0.044	0.253
-548.339	81.666	-0.184	0.199
-547.325	134.483	0.205	-0.266
-546.310	-200.000	0.057	0.305
-545.296	347.758	0.052	-0.102
-544.281	625.759	-0.043	-0.109
-543.266	-98.545	-0.270	0.069
-542.252	49.106	0.071	-0.067
-541.237	-92.263	0.292	0.083
-540.223	160.798	0.159	-0.223
-539.208	112.018	0.193	0.234
-538.193	541.153	-0.207	-0.493
-537.179	-76.839	-0.280	-0.098
-536.164	6.043	0.051	0.037
-535.150	58.978	-0.223	0.220
-534.135	800.000	0.090	0.286
-533.121	315.851	-0.025	-0.047
-532.106	-47.712	-0.230	0.112
-531.091	476.731	-0.027	-0.061
-530.077	299.859	-0.045	-0.083
-529.062	-200.000	-0.005	-0.241
-528.048	-68.855	0.195	0.075
-527.033	-46.200	0.235	-0.116
-526.018	800.000	-0.083	-0.340
-525.004	-23.043	-0.239	-0.144
-523.989	-86.134	0.611	0.189
-522.975	543.742	0.137	-0.327
-521.960	-53.709	-0.025	-0.011
-520.945	-200.000	0.023	0.117
-519.931	-200.000	0.011	-0.265
-518.916	-200.000	0.063	0.409
-517.902	-104.742	-0.326	0.075
-516.887	-24.313	0.206	0.123
-515.872	30.070	0.089	0.076
-514.858	-176.424	0.323	-0.008
-513.843	-90.620	-0.226	0.065
-512.829	800.000	0.032	0.129
-511.814	54.748	-0.209	0.202
-510.799	-130.723	-0.123	0.017
-509.785	200.851	-0.190	-0.292
-508.770	5.149	-0.163	0.120
-507.756	-200.000	-0.038	0.422
-506.741	-81.559	-0.172	0.057
-505.726	130.023	0.156	0.199
-504.712	184.619	-0.038	-0.056
-503.697	11.306	0.105	0.080
-502.683	-103.511	-0.383	0.090
-501.668	800.000	-0.038	-0.152
-500.653	-47.748	-0.150	-0.073
-499.639	110.037	-0.093	-0.112
-498.624	387.903	0.165	0.341
-497.610	-132.163	-0.268	-0.035
-496.595	44.550	0.090	-0.083
-495.581	87.281	-0.094	-0.104
-494.566	164.127	-0.130	0.182
-493.551	-75.560	-0.267	0.095
-492.537	800.000	-0.117	0.342
-491.522	313.792	-0.095	0.178
-490.508	-93.062	0.167	-0.047
-489.493	-164.728	0.098	-0.004
-488.478	800.000	0.085	0.266
-487.464	35.936	0.216	-0.190
-486.449	116.036	-0.071	-0.087
-485.435	-121.070	0.072	-0.012
-484.420	211.648	0.069	0.108
-483.405	-44.478	0.175	0.087
-482.391	-63.104	0.202	0.083
-481.376	800.000	-0.050	-0.164
-480.362	-61.346	-0.499	0.210
-479.347	-146.130	0.341	-0.030
-478.332	95.581	-0.069	-0.078
-477.318	-100.787	-0.298	0.073
-476.303	333.883	-0.076	-0.147
-475.289	74.774	-0.349	-0.367
-474.274	-200.000	-0.048	-0.374
-473.259	561.888	-0.137	0.331
-472.245	-57.953	0.228	-0.099
-471.230	-71.112	-0.134	-0.050
-470.216	-189.990	-0.127	0.001
-469.201	225.735	-0.101	-0.164
-468.186	99.054	-0.114	-0.131
-467.172	-48.922	-0.421	0.201
-466.157	-200.000	-0.028	0.150
-465.143	-200.000	0.048	0.328
-464.128	-37.352	-0.376	0.201
-463.113	460.399	0.137	0.305
-462.099	189.842	0.044	0.066
-461.084	83.497	0.223	-0.243
-460.070	91.773	-0.214	-0.240
-459.055	589.500	0.054	0.133
-458.040	280.663	0.110	0.196
-457.026	-200.000	0.362	-0.001
-456.011	-200.000	0.027	-0.321
-454.997	-200.000	0.018	-0.130
-453.982	-43.548	-0.233	0.117
-452.968	-110.038	-0.453	-0.095
-451.953	137.637	-0.220	0.287
-450.938	-200.000	-0.007	-0.139
-449.924	-200.000	0.037	0.165
-448.909	800.000	0.012	-0.039
-447.895	-200.000	0.001	-0.142
-446.880	-82.111	-0.333	0.108
-445.865	-98.165	-0.113	-0.029
-444.851	378.638	-0.078	0.159
-443.836	-133.549	0.260	-0.032
-442.822	49.701	-0.195	-0.183
-441.807	658.689	-0.126	0.322
-440.792	26.359	-0.045	-0.037
-439.778	-200.000	-0.048	0.215
-438.763	89.965	0.061	0.068
-437.749	-56.688	-0.149	0.066
-436.734	201.231	0.111	-0.171
-435.719	-51.331	-0.159	0.074
-434.705	195.422	0.164	0.249
-433.690	133.750	-0.090	-0.116
-432.676	87.267	0.092	0.101
-431.661	-29.578	0.053	-0.030
-430.646	-26.762	-0.183	0.107
-429.632	538.815	-0.017	-0.040
-428.617	-102.408	-0.352	0.084
-427.603	79.442	-0.132	0.142
-426.588	363.375	0.196	-0.392
-425.573	-200.000	0.029	-0.385
-424.559	-21.986	-0.100	0.060
-423.544	-73.576	0.228	0.083
-422.530	-200.000	0.056	-0.334
-421.515	800.000	0.049	-0.171
-420.500	-89.153	0.232	-0.068
-419.486	-200.000	-0.001	-0.219
-418.471	-200.000	0.007	0.283
-417.457	112.695	-0.132	0.159
-416.442	291.108	0.133	0.240
-415.428	-3.152	-0.326	0.226
-414.413	-106.381	0.128	-0.028
-413.398	52.954	-0.186	-0.177
-412.384	-137.588	-0.131	0.015
-411.369	496.316	-0.058	0.133
-410.355	-200.000	-0.050	0.313
-409.340	-104.975	-0.268	0.061
-408.325	-200.000	-0.032	-0.182
-407.311	-115.390	0.098	0.018
-406.296	-75.358	-0.199	-0.071
-405.282	-200.000	-0.026	0.131
-404.267	-200.000	0.071	0.387
-403.252	71.224	-0.225	0.232
-402.238	-31.899	0.230	0.129
-401.223	-200.000	0.047	-0.207
-400.209	800.000	-0.103	-0.330
-399.194	-200.000	-0.036	-0.367
-398.179	24.989	0.049	-0.040
-397.165	-135.418	0.139	0.017
-396.150	-115.546	0.023	0.004
-395.136	311.940	0.102	0.191
-394.121	103.869	0.073	0.085
-393.106	-57.192	0.407	-0.178
-392.092	-200.000	0.010	0.044
-391.077	800.000	-0.059	0.198
-390.063	193.781	0.113	-0.171
-389.048	201.987	0.024	-0.036
-388.033	104.255	0.186	0.218
-387.019	-146.250	0.188	-0.016
-386.004	-96.446	-0.278	-0.073
-384.990	-36.142	0.117	-0.063
-383.975	-51.054	-0.336	-0.157
-382.960	-200.000	-0.035	0.181
-381.946	-200.000	0.013	-0.329
-380.931	-70.144	-0.155	0.059
-379.917	-200.000	-0.051	0.401
-378.902	-59.179	-0.199	-0.085
-377.888	586.811	-0.059	-0.145
-376.873	-200.000	0.027	0.162
-375.858	5.668	0.206	-0.151
-374.844	95.670	0.073	0.083
-373.829	-130.994	0.209	-0.028
-372.815	360.342	0.107	-0.212
-371.800	98.942	-0.071	-0.082
-370.785	17.524	-0.192	0.152
-369.771	-191.261	0.157	-0.002
-368.756	-82.259	-0.338	0.110
-367.742	-169.588	0.114	-0.004
-366.727	116.818	0.024	-0.029
-365.712	-150.840	0.169	-0.013
-364.698	-78.042	0.054	0.018
-363.683	797.634	0.081	0.222
-362.669	264.530	0.059	0.102
-361.654	-67.167	-0.070	0.027
-360.639	-46.271	0.148	-0.072
-359.625	-89.916	0.193	-0.056
-358.610	-200.000	0.041	-0.307
-357.596	-47.736	0.199	-0.096
-356.581	-100.145	0.163	0.040
-355.566	182.146	-0.111	0.162
-354.552	-200.000	0.025	-0.157
-353.537	-86.240	0.101	0.031
-352.523	-200.000	-0.002	0.143
-351.508	9.064	0.272	-0.204
-350.493	191.890	0.159	0.239
-349.479	800.000	-0.141	0.535
-348.464	800.000	-0.072	0.242
-347.450	800.000	0.133	0.394
-346.435	23.923	0.175	-0.144
-345.420	-200.000	0.032	0.249
-344.406	198.330	-0.095	0.144
-343.391	19.852	0.137	-0.110
-342.377	684.412	0.054	0.141
-341.362	-77.443	-0.064	0.022
-340.348	250.482	-0.122	0.206
-339.333	-14.262	-0.112	0.072
-338.318	76.127	0.208	-0.218
-337.304	15.300	0.203	0.158
-336.289	800.000	0.083	-0.317
-335.275	100.608	-0.120	-0.138
-334.260	469.905	-0.226	-0.505
-333.245	-200.000	-0.002	-0.188
-332.231	-11.265	-0.330	0.216
-331.216	35.977	0.181	-0.158
-330.202	87.508	-0.347	0.382
-329.187	-182.021	0.378	-0.007
-328.172	-200.000	-0.040	-0.286
-327.158	63.571	-0.047	-0.047
-326.143	-200.000	0.025	-0.122
-325.129	-65.592	0.275	0.110
-324.114	138.300	-0.082	0.107
-323.099	-200.000	-0.001	0.007
-322.085	-177.987	0.216	-0.005
-321.070	-70.953	0.140	0.052
-320.056	-91.398	-0.339	-0.096
-319.041	273.196	-0.095	-0.167
-318.026	279.296	0.062	-0.110
-317.012	-200.000	0.009	-0.179
-315.997	-200.000	0.010	0.322
-314.983	-123.218	0.188	-0.030
-313.968	25.408	0.297	0.245
-312.953	-200.000	0.055	-0.328
-311.939	-17.191	-0.190	-0.119
-310.924	309.559	0.095	0.177
-309.910	105.977	-0.022	-0.026
-308.895	175.297	-0.075	0.108
-307.880	-7.009	0.128	0.086
-306.866	250.548	0.117	-0.198
-305.851	-200.000	-0.011	0.060
-304.837	537.188	-0.081	-0.192
-303.822	166.287	-0.151	-0.212
-302.807	-15.795	-0.321	0.203
-301.793	-23.092	-0.059	-0.035
-300.778	-200.000	-0.007	0.164
-299.764	413.430	0.054	-0.113
-298.749	52.558	0.180	-0.171
-297.735	-73.327	-0.025	0.009
-296.720	681.522	-0.131	0.340
-295.705	800.000	-0.105	-0.353
-294.691	-200.000	0.053	0.241
-293.676	392.231	0.087	0.180
-292.662	-88.992	-0.132	0.039
-291.647	16.057	0.122	0.096
-290.632	-200.000	0.015	-0.103
-289.618	800.000	0.071	0.264
-288.603	-91.316	-0.280	-0.079
-287.589	-73.288	0.319	-0.116
-286.574	-50.668	0.292	-0.136
-285.559	191.300	-0.084	0.126
-284.545	-200.000	-0.010	0.064
-283.530	152.354	0.127	0.171
-282.516	39.181	-0.161	0.142
-281.501	257.266	-0.210	0.358
-280.486	-49.776	-0.223	0.105
-279.472	-4.331	-0.312	0.214
-278.457	23.180	-0.320	0.260
-277.443	530.284	-0.043	-0.100
-276.428	800.000	0.073	0.290
-275.413	-108.704	0.158	0.034
-274.399	279.111	-0.089	-0.157
-273.384	100.271	0.180	-0.207
-272.370	281.664	-0.060	-0.106
-271.355	-17.728	0.209	-0.130
-270.340	191.783	-0.115	-0.171
-269.326	-22.297	0.179	0.108
-268.311	-106.162	-0.051	0.011
-267.297	-200.000	-0.025	-0.127
-266.282	-200.000	-0.005	0.434
-265.267	441.236	0.131	-0.283
-264.253	9.105	-0.308	-0.231
-263.238	-79.890	-0.478	0.159
-262.224	330.439	0.038	0.073
-261.209	9.737	0.167	-0.125
-260.195	800.000	-0.075	-0.301
-259.180	751.661	0.096	-0.257
-258.165	-200.000	0.032	0.412
-257.151	-127.344	-0.261	-0.038
-256.136	93.942	0.207	-0.232
-255.122	118.106	-0.112	-0.137
-254.107	-94.975	0.257	-0.069
-253.092	26.566	0.134	0.111
-252.078	-177.871	0.355	-0.008
-251.063	800.000	-0.100	-0.393
-250.049	-200.000	-0.012	-0.120
-249.034	-85.359	0.308	0.095
-248.019	330.444	-0.128	-0.244
-247.005	-200.000	-0.013	0.062
-245.990	-24.846	-0.348	0.205
-244.976	603.819	0.100	0.245
-243.961	309.276	-0.112	-0.206
-242.946	130.372	0.136	0.173
-241.932	800.000	0.092	-0.361
-240.917	-25.952	0.195	-0.114
-239.903	262.452	-0.094	-0.162
-238.888	-72.992	0.146	-0.053
-237.873	264.516	0.106	-0.183
-236.859	338.282	0.110	-0.212
-235.844	800.000	0.008	-0.024
-234.830	7.177	-0.125	0.092
-233.815	-200.000	-0.101	0.462
-232.800	0.087	-0.067	-0.047
-231.786	-138.693	0.404	0.044
-230.771	-143.215	0.265	-0.025
-229.757	466.122	-0.065	0.145
-228.742	107.072	0.084	0.098
-227.727	-200.000	0.011	-0.163
-226.713	240.112	-0.137	-0.226
-225.698	141.027	0.124	0.162
-224.684	-200.000	0.000	0.008
-223.669	160.796	-0.162	0.224
-222.655	435.006	-0.039	-0.084
-221.640	-36.874	-0.356	-0.189
-220.625	188.735	0.111	0.163
-219.611	175.431	0.093	0.133
-218.596	118.315	0.068	0.083
-217.582	451.678	0.048	0.104
-216.567	-146.403	0.393	0.034
-215.552	159.253	-0.029	-0.039
-214.538	159.232	-0.249	0.343
-213.523	-63.560	0.112	0.045
-212.509	-200.000	0.016	0.231
-211.494	800.000	-0.047	0.175
-210.479	231.371	0.062	-0.101
-209.465	-200.000	-0.003	0.540
-208.450	28.409	0.239	-0.200
-207.436	-174.532	0.127	0.004
-206.421	195.293	0.030	0.045
-205.406	-200.000	0.007	0.180
-204.392	210.048	0.095	0.148
-203.377	-200.000	0.029	0.189
-202.363	417.033	-0.054	0.113
-201.348	-200.000	-0.047	-0.322
-200.333	-56.476	0.037	-0.016
-199.319	-200.000	0.027	0.120
-198.304	800.000	0.052	0.183
-197.290	361.222	-0.036	-0.072
-196.275	425.386	0.097	0.206
-195.260	-159.161	0.131	0.007
-194.246	800.000	-0.085	-0.310
-193.231	-200.000	-0.022	0.200
-192.217	9.869	-0.194	0.145
-191.202	169.418	0.051	0.072
-190.187	-200.000	0.012	-0.168
-189.173	669.579	-0.126	-0.323
-188.158	-7.332	0.094	-0.063
-187.144	-7.482	-0.113	-0.075
-186.129	-11.746	-0.160	-0.104
-185.114	-200.000	0.034	-0.177
-184.100	800.000	-0.120	-0.366
-183.085	89.019	0.105	0.116
-182.071	-200.000	-0.022	0.201
-181.056	-73.723	0.175	0.063
-180.042	-92.275	-0.061	-0.017
-179.027	-200.000	0.041	-0.179
-178.012	35.821	-0.065	0.056
-176.998	-134.090	-0.230	-0.028
-175.983	-200.000	-0.016	0.230
-174.969	64.955	0.232	-0.231
-173.954	-21.575	-0.363	0.218
-172.939	-200.000	-0.024	-0.167
-171.925	-42.558	-0.523	-0.263
-170.910	-200.000	-0.048	0.308
-169.896	95.057	0.249	0.280
-168.881	-50.588	0.205	0.096
-167.866	-79.764	0.381	-0.126
-166.852	800.000	-0.034	0.122
-165.837	-200.000	0.004	0.130
-164.823	800.000	0.051	-0.201
-163.808	-78.229	-0.024	0.008
-162.793	-90.159	-0.136	0.039
-161.779	15.071	-0.081	0.062
-160.764	-200.000	0.067	0.473
-159.750	800.000	-0.082	-0.314
-158.735	87.170	0.020	0.022
-157.720	8.180	0.214	-0.158
-156.706	386.526	0.057	0.116
-155.691	-42.402	-0.163	-0.082
-154.677	800.000	-0.081	0.300
-153.662	157.508	-0.133	-0.181
-152.647	-132.946	-0.267	-0.034
-151.633	9.752	0.462	0.345
-150.618	-48.714	-0.278	-0.132
-149.604	-200.000	-0.046	0.257
-148.589	-173.489	-0.219	-0.007
-147.574	137.937	0.085	-0.110
-146.560	800.000	0.026	-0.110
-145.545	-82.431	-0.437	-0.140
-144.531	-200.000	-0.019	0.402
-143.516	-133.492	-0.095	-0.012
-142.502	-4.145	0.162	0.111
-141.487	-69.328	0.062	-0.023
-140.472	-97.844	0.244	0.062
-139.458	-23.067	-0.289	0.171
-138.443	-80.822	-0.170	0.056
-137.429	-200.000	-0.016	-0.286
-136.414	800.000	0.100	0.294
-135.399	-73.900	-0.303	0.108
-134.385	32.237	-0.149	0.127
-133.370	556.075	0.012	-0.029
-132.356	-152.156	0.366	0.026
-131.341	-90.070	-0.239	-0.069
-130.326	26.689	-0.164	-0.135
-129.312	58.401	0.086	-0.083
-128.297	-200.000	-0.019	-0.282
-127.283	-75.989	-0.094	0.033
-126.268	-40.440	-0.067	0.034
-125.253	402.127	0.223	-0.461
-124.239	-3.116	-0.220	-0.151
-123.224	-117.484	0.251	-0.045
-122.210	173.735	0.047	0.067
-121.195	-200.000	0.000	0.077
