DTS Sentinel unit serial number:	SN413079Multiplexer serial number:	ORYXHardware model number:	OX4-SRSoftware version number:	ORYX F/W v4.00 Oryx Data Collector v3.7.2.0data status	okinstallation	princeton_trtdifferential loss correction	single-endedforward channel	channel 1reverse channel	N/Adate	2019/09/11time	01:48:11forward acquisition time	60.00reverse acquisition time	0.00gamma	496.2192k internal	0.2331k external	0.2331temperature offset calibration	0.9927default loss term (dB/km)	0.3790temperature slope calibration	1.0000multiplexer offset coefficient	1.0000multiplexer slope coefficient	1.0000fibre end	0.00T internal ref (°C)	29.19T ext. ref 1 (°C)	-0.31T ext. ref 2 (°C)	23.09length (m)	temperature (°C)	Stokes	anti-Stokes-747.200	-50.780	-0.121	-0.057
-746.185	-94.105	-0.134	0.037
-745.171	800.000	0.039	0.133
-744.156	22.559	-0.191	0.157
-743.142	37.710	-0.282	-0.252
-742.127	285.042	0.054	-0.098
-741.112	-11.248	0.088	-0.058
-740.098	491.563	-0.013	-0.030
-739.083	-129.719	0.349	-0.048
-738.069	137.134	-0.283	0.373
-737.054	-2.398	-0.125	0.088
-736.039	-99.942	-0.381	0.096
-735.025	800.000	0.111	0.327
-734.010	-111.378	-0.305	-0.063
-732.996	25.180	0.131	-0.110
-731.981	-121.462	0.196	0.033
-730.966	15.107	-0.063	0.050
-729.952	-200.000	-0.007	-0.171
-728.937	175.571	-0.207	-0.303
-727.923	5.405	0.224	-0.166
-726.908	74.386	0.103	-0.108
-725.894	312.032	-0.054	-0.102
-724.879	399.884	0.065	0.138
-723.864	-1.412	-0.176	-0.125
-722.850	-162.912	-0.100	0.005
-721.835	-36.487	0.204	-0.111
-720.821	-200.000	-0.003	-0.236
-719.806	-185.380	-0.421	-0.006
-718.791	-200.000	0.004	-0.114
-717.777	800.000	-0.005	0.022
-716.762	-155.902	-0.262	-0.017
-715.748	-97.250	-0.124	-0.032
-714.733	420.487	-0.157	0.339
-713.718	800.000	-0.027	0.096
-712.704	-200.000	-0.042	0.201
-711.689	-75.682	-0.154	0.055
-710.675	319.284	-0.090	-0.172
-709.660	9.905	-0.122	-0.093
-708.645	-200.000	-0.050	-0.390
-707.631	-200.000	-0.018	-0.143
-706.616	113.702	0.137	0.167
-705.602	238.392	0.136	0.227
-704.587	714.921	0.121	0.322
-703.572	311.554	-0.190	-0.358
-702.558	-132.802	0.413	-0.053
-701.543	80.679	0.085	0.092
-700.529	92.620	-0.137	0.155
-699.514	-108.103	-0.068	-0.015
-698.499	110.320	0.135	-0.162
-697.485	-200.000	0.036	0.236
-696.470	-200.000	-0.014	0.332
-695.456	-76.123	-0.117	-0.041
-694.441	-200.000	-0.054	0.251
-693.426	690.264	0.061	0.160
-692.412	800.000	-0.141	0.442
-691.397	-101.673	0.388	0.095
-690.383	0.356	-0.172	-0.123
-689.368	526.965	0.114	-0.270
-688.354	800.000	0.058	0.204
-687.339	365.443	-0.167	0.337
-686.324	-67.290	-0.433	0.171
-685.310	-154.357	0.538	0.036
-684.295	800.000	-0.035	0.100
-683.281	-122.220	-0.134	0.022
-682.266	-43.589	0.200	0.101
-681.251	57.493	-0.217	-0.212
-680.237	36.791	0.167	-0.148
-679.222	673.987	-0.121	-0.314
-678.208	-151.362	0.133	0.010
-677.193	-200.000	0.016	-0.194
-676.178	-8.202	-0.166	-0.112
-675.164	-200.000	0.029	-0.234
-674.149	44.887	-0.072	0.067
-673.135	-139.316	-0.149	0.016
-672.120	-33.690	-0.316	-0.175
-671.105	800.000	0.046	0.184
-670.091	-45.051	0.065	0.033
-669.076	309.235	0.267	-0.500
-668.062	20.567	0.271	-0.220
-667.047	47.663	-0.088	0.082
-666.032	56.132	-0.116	-0.113
-665.018	-200.000	-0.005	-0.288
-664.003	177.304	0.332	-0.484
-662.989	800.000	0.079	0.302
-661.974	165.738	-0.092	-0.131
-660.959	42.678	-0.278	-0.254
-659.945	11.648	0.280	0.215
-658.930	-32.139	-0.433	-0.243
-657.916	141.864	-0.024	-0.032
-656.901	-156.899	0.255	-0.016
-655.886	-115.232	-0.455	0.086
-654.872	800.000	0.073	-0.293
-653.857	716.516	-0.023	0.060
-652.843	20.743	-0.111	0.090
-651.828	8.669	-0.430	0.325
-650.814	301.685	0.111	0.205
-649.799	90.620	0.314	0.352
-648.784	-200.000	0.060	0.308
-647.770	-200.000	0.005	0.135
-646.755	-83.854	0.127	-0.041
-645.741	-200.000	0.017	-0.115
-644.726	95.407	-0.110	-0.126
-643.711	149.768	-0.210	-0.286
-642.697	251.416	0.132	-0.226
-641.682	-200.000	-0.041	0.381
-640.668	-200.000	-0.032	-0.183
-639.653	31.051	-0.299	0.257
-638.638	-29.009	0.341	0.196
-637.624	-77.352	0.154	0.054
-636.609	-58.151	0.139	0.061
-635.595	-148.764	-0.130	0.011
-634.580	392.377	-0.032	-0.066
-633.565	-114.800	0.210	-0.040
-632.551	800.000	-0.033	0.119
-631.536	758.787	-0.090	0.243
-630.522	216.063	0.267	-0.425
-629.507	-200.000	-0.111	-0.489
-628.492	180.210	0.107	0.157
-627.478	-2.277	0.050	-0.035
-626.463	-90.697	0.225	-0.065
-625.449	6.794	-0.240	0.179
-624.434	28.864	-0.190	0.161
-623.419	-200.000	0.000	-0.078
-622.405	26.755	0.151	0.127
-621.390	800.000	-0.045	-0.195
-620.376	135.530	-0.154	-0.201
-619.361	421.947	-0.084	0.179
-618.346	-200.000	-0.038	0.376
-617.332	-73.088	-0.311	0.114
-616.317	51.583	-0.279	0.266
-615.303	-200.000	0.043	-0.290
-614.288	-134.375	-0.175	0.021
-613.273	121.812	-0.038	-0.048
-612.259	188.355	0.127	-0.190
-611.244	-170.635	-0.291	-0.010
-610.230	-38.512	0.157	0.083
-609.215	62.265	0.104	0.104
-608.201	9.309	-0.156	0.118
-607.186	-33.450	-0.194	0.107
-606.171	-193.929	-0.030	-0.000
-605.157	-200.000	-0.039	-0.341
-604.142	-200.000	-0.022	0.184
-603.128	-106.229	-0.259	0.058
-602.113	26.191	0.122	-0.102
-601.098	463.656	0.105	-0.234
-600.084	-77.975	0.218	-0.075
-599.069	-200.000	-0.001	0.193
-598.055	800.000	-0.072	0.306
-597.040	800.000	0.078	-0.232
-596.025	-83.456	-0.154	0.049
-595.011	24.910	-0.224	-0.186
-593.996	38.560	0.044	0.039
-592.982	382.481	-0.073	0.150
-591.967	43.727	0.167	0.152
-590.952	110.753	0.426	0.512
-589.938	-76.817	0.101	-0.035
-588.923	-200.000	-0.003	0.106
-587.909	800.000	-0.071	0.301
-586.894	800.000	-0.133	0.422
-585.879	800.000	-0.009	0.031
-584.865	0.633	-0.130	0.093
-583.850	-123.629	0.228	0.036
-582.836	72.845	0.129	0.135
-581.821	24.956	0.146	0.121
-580.806	155.981	-0.073	-0.100
-579.792	353.901	-0.150	0.298
-578.777	550.787	0.116	0.279
-577.763	-122.213	-0.295	-0.048
-576.748	486.861	0.022	-0.050
-575.733	800.000	-0.112	0.421
-574.719	368.566	0.185	0.373
-573.704	-89.416	-0.134	-0.039
-572.690	268.749	0.122	-0.215
-571.675	383.776	-0.066	-0.137
-570.661	53.387	-0.175	-0.167
-569.646	-200.000	-0.009	0.139
-568.631	-200.000	0.021	-0.138
-567.617	90.285	0.136	-0.152
-566.602	134.752	0.056	0.073
-565.588	800.000	0.031	-0.127
-564.573	-200.000	0.008	0.059
-563.558	-200.000	-0.075	-0.389
-562.544	-130.883	0.343	0.046
-561.529	233.683	-0.145	0.239
-560.515	-71.005	0.079	0.030
-559.500	-61.722	-0.209	-0.087
-558.485	-200.000	0.040	0.225
-557.471	-61.850	-0.109	-0.046
-556.456	-200.000	-0.000	0.139
-555.442	-86.506	0.349	-0.107
-554.427	-27.122	0.188	-0.109
-553.412	601.693	0.173	0.430
-552.398	86.577	-0.030	-0.033
-551.383	-141.016	-0.479	0.049
-550.369	-174.529	0.078	0.002
-549.354	-200.000	0.028	-0.127
-548.339	67.646	-0.087	-0.088
-547.325	-84.989	0.144	-0.045
-546.310	97.526	-0.084	0.096
-545.296	-17.838	-0.087	-0.055
-544.281	800.000	-0.021	0.069
-543.266	-51.849	-0.104	-0.048
-542.252	800.000	-0.042	-0.131
-541.237	-172.879	-0.193	0.006
-540.223	-50.421	-0.220	0.104
-539.208	800.000	-0.030	-0.093
-538.193	51.655	-0.217	-0.206
-537.179	122.556	0.053	0.067
-536.164	-200.000	0.018	-0.154
-535.150	236.238	-0.047	-0.077
-534.135	-105.424	0.098	0.022
-533.121	292.720	-0.118	-0.214
-532.106	800.000	-0.067	0.241
-531.091	800.000	0.031	-0.125
-530.077	-125.372	-0.123	0.019
-529.062	652.823	-0.061	0.155
-528.048	-87.006	-0.077	-0.023
-527.033	-41.085	-0.266	0.137
-526.018	-63.038	-0.432	-0.178
-525.004	797.276	0.047	-0.130
-523.989	157.115	0.143	0.197
-522.975	-61.152	-0.141	0.059
-521.960	-131.716	0.144	0.019
-520.945	-200.000	-0.019	0.144
-519.931	-78.028	0.392	0.135
-518.916	-93.778	-0.037	-0.010
-517.902	-200.000	-0.057	0.429
-516.887	-200.000	-0.044	-0.208
-515.872	-121.586	0.081	-0.013
-514.858	304.518	-0.030	0.055
-513.843	-119.777	-0.417	-0.072
-512.829	-130.746	0.323	0.043
-511.814	-12.385	-0.025	-0.016
-510.799	-42.406	-0.270	-0.137
-509.785	418.244	-0.189	-0.404
-508.770	26.312	-0.121	0.101
-507.756	800.000	0.072	-0.229
-506.741	-200.000	0.027	-0.215
-505.726	216.621	-0.138	0.219
-504.712	-200.000	0.029	-0.292
-503.697	-88.366	-0.443	-0.132
-502.683	-118.472	-0.280	-0.049
-501.668	-172.536	0.457	-0.014
-500.653	127.000	0.089	-0.112
-499.639	-94.208	-0.309	-0.084
-498.624	135.598	-0.141	-0.183
-497.610	350.205	-0.086	0.169
-496.595	-130.079	0.242	-0.033
-495.581	-17.185	0.334	-0.210
-494.566	-40.268	0.110	-0.057
-493.551	79.540	0.232	-0.248
-492.537	14.980	-0.441	-0.344
-491.522	-200.000	-0.020	-0.228
-490.508	-200.000	0.016	0.097
-489.493	800.000	0.036	0.127
-488.478	-40.270	-0.079	-0.041
-487.464	-200.000	0.049	-0.451
-486.449	164.088	0.062	0.087
-485.435	800.000	-0.099	-0.287
-484.420	-200.000	0.002	-0.098
-483.405	-200.000	-0.056	0.371
-482.391	800.000	0.028	0.100
-481.376	-88.160	0.184	0.055
-480.362	772.070	0.119	-0.324
-479.347	473.242	0.046	0.103
-478.332	61.219	0.024	0.024
-477.318	-200.000	-0.063	0.310
-476.303	93.001	-0.173	0.194
-475.289	185.909	-0.223	0.331
-474.274	164.023	0.074	-0.104
-473.259	-165.342	0.472	0.021
-472.245	-146.275	-0.240	0.021
-471.230	-200.000	0.010	0.087
-470.216	-54.279	0.135	-0.061
-469.201	-32.101	0.094	-0.053
-468.186	338.269	-0.196	0.379
-467.172	166.642	0.048	-0.068
-466.157	107.340	-0.084	0.100
-465.143	25.808	-0.192	0.159
-464.128	-18.384	0.240	0.149
-463.113	-119.583	0.203	-0.035
-462.099	32.173	0.111	-0.095
-461.084	38.849	-0.051	0.045
-460.070	-6.456	-0.101	0.069
-459.055	538.074	-0.066	-0.156
-458.040	207.228	0.085	-0.132
-457.026	-86.166	-0.169	-0.052
-456.011	25.763	-0.133	0.111
-454.997	-48.318	-0.078	-0.037
-453.982	7.960	-0.105	-0.079
-452.968	-57.565	0.066	0.029
-451.953	64.406	0.115	-0.116
-450.938	-200.000	-0.003	0.024
-449.924	224.503	-0.158	-0.254
-448.909	-70.271	0.262	-0.099
-447.895	-63.544	0.409	-0.167
-446.880	-44.366	-0.170	-0.085
-445.865	73.996	0.271	0.283
-444.851	223.457	-0.086	0.138
-443.836	414.549	-0.130	0.276
-442.822	-71.750	-0.054	-0.020
-441.807	-36.884	0.281	-0.150
-440.792	-95.453	0.168	0.045
-439.778	-200.000	-0.074	0.364
-438.763	-24.610	0.118	0.070
-437.749	-62.861	0.204	-0.084
-436.734	-57.120	-0.159	-0.070
-435.719	120.657	-0.184	0.228
-434.705	115.762	-0.141	-0.172
-433.690	-139.385	0.194	0.021
-432.676	19.310	-0.072	-0.058
-431.661	-19.944	-0.117	-0.072
-430.646	-200.000	0.037	0.209
-429.632	-91.609	-0.121	-0.034
-428.617	-200.000	-0.002	-0.075
-427.603	-200.000	0.003	0.107
-426.588	-200.000	-0.037	0.259
-425.573	375.391	0.230	0.467
-424.559	47.375	0.114	-0.105
-423.544	6.619	-0.143	0.106
-422.530	-132.067	0.346	-0.045
-421.515	-16.470	0.347	-0.219
-420.500	664.098	-0.013	0.033
-419.486	264.047	-0.146	0.252
-418.471	291.538	0.093	-0.169
-417.457	-200.000	0.047	-0.325
-416.442	-113.562	0.140	-0.027
-415.428	-46.922	-0.166	-0.081
-414.413	84.874	-0.115	-0.126
-413.398	-200.000	-0.010	0.077
-412.384	66.722	0.156	0.158
-411.369	260.619	-0.046	0.078
-410.355	-200.000	-0.047	-0.234
-409.340	-200.000	-0.027	-0.182
-408.325	87.800	-0.099	-0.109
-407.311	-176.725	-0.313	0.008
-406.296	-200.000	-0.011	-0.089
-405.282	800.000	-0.075	0.282
-404.267	-44.486	-0.188	-0.093
-403.252	13.095	-0.269	0.207
-402.238	-200.000	-0.060	-0.335
-401.223	20.990	-0.062	0.050
-400.209	10.952	-0.115	-0.087
-399.194	572.574	0.151	-0.366
-398.179	80.587	0.180	-0.192
-397.165	288.616	-0.037	-0.067
-396.150	59.444	-0.187	-0.183
-395.136	800.000	0.061	0.229
-394.121	800.000	0.041	-0.114
-393.106	-17.844	-0.195	-0.121
-392.092	-200.000	0.010	-0.193
-391.077	73.259	-0.142	0.147
-390.063	75.662	-0.214	-0.225
-389.048	136.200	0.055	-0.071
-388.033	543.760	0.053	-0.125
-387.019	419.865	-0.216	0.459
-386.004	-200.000	0.033	0.000
-384.990	-152.749	-0.084	-0.006
-383.975	267.581	0.062	-0.108
-382.960	-116.846	-0.277	0.050
-381.946	-200.000	-0.002	-0.312
-380.931	-200.000	-0.046	-0.283
-379.917	-117.756	-0.141	-0.025
-378.902	-200.000	-0.006	0.328
-377.888	-78.102	-0.203	0.069
-376.873	400.755	-0.254	-0.528
-375.858	-36.473	0.136	-0.073
-374.844	152.211	-0.364	-0.492
-373.829	478.207	0.166	-0.374
-372.815	-123.582	0.097	0.015
-371.800	419.098	0.160	0.340
-370.785	800.000	0.040	0.130
-369.771	-127.843	0.275	-0.039
-368.756	354.780	-0.060	0.119
-367.742	-84.988	-0.188	0.058
-366.727	102.570	-0.038	-0.044
-365.712	-62.196	0.286	0.118
-364.698	-200.000	-0.007	0.114
-363.683	800.000	-0.027	0.088
-362.669	-145.391	-0.123	-0.011
-361.654	-93.821	0.348	-0.095
-360.639	800.000	-0.095	0.379
-359.625	-48.618	-0.313	-0.149
-358.610	-93.567	0.023	0.006
-357.596	-83.233	0.346	-0.110
-356.581	-200.000	-0.024	-0.219
-355.566	18.773	-0.007	0.006
-354.552	261.749	-0.102	-0.175
-353.537	-200.000	-0.053	0.240
-352.523	259.040	-0.119	0.204
-351.508	-200.000	0.012	0.165
-350.493	34.428	0.277	-0.239
-349.479	135.791	-0.127	-0.164
-348.464	394.353	0.135	0.278
-347.450	82.647	0.166	0.179
-346.435	-82.484	0.185	-0.060
-345.420	-123.645	-0.148	-0.023
-344.406	-74.539	0.293	-0.105
-343.391	198.477	0.160	-0.242
-342.377	40.953	0.239	-0.214
-341.362	107.486	-0.135	-0.159
-340.348	341.434	-0.138	0.267
-339.333	77.309	0.165	0.174
-338.318	-200.000	-0.081	-0.356
-337.304	-79.782	0.375	0.125
-336.289	-10.717	-0.288	0.189
-335.275	12.352	-0.255	0.194
-334.260	-45.446	-0.133	0.065
-333.245	50.890	0.146	0.137
-332.231	800.000	-0.060	-0.201
-331.216	-200.000	0.042	-0.224
-330.202	-75.683	-0.122	0.043
-329.187	-200.000	0.004	0.330
-328.172	13.330	0.149	-0.114
-327.158	95.867	-0.199	0.225
-326.143	635.933	0.095	0.239
-325.129	-155.096	0.108	0.007
-324.114	125.226	-0.130	0.162
-323.099	-142.009	0.321	0.032
-322.085	16.994	-0.172	-0.135
-321.070	128.875	-0.113	-0.142
-320.056	800.000	-0.056	-0.238
-319.041	-29.284	0.149	0.085
-318.026	800.000	0.097	-0.392
-317.012	-2.836	-0.129	0.089
-315.997	30.378	-0.180	0.152
-314.983	609.709	-0.065	-0.162
-313.968	-36.793	0.059	0.031
-312.953	-128.600	-0.078	-0.011
-311.939	-200.000	-0.017	-0.089
-310.924	-200.000	0.086	0.414
-309.910	-200.000	0.007	0.071
-308.895	111.799	0.164	0.196
-307.880	552.457	0.048	-0.115
-306.866	798.452	-0.121	-0.330
-305.851	-167.956	0.225	-0.009
-304.837	-46.546	0.264	-0.128
-303.822	-57.590	0.030	0.013
-302.807	-200.000	-0.070	0.316
-301.793	-93.909	0.145	-0.039
-300.778	747.002	0.105	-0.281
-299.764	-200.000	0.027	0.217
-298.749	-139.061	-0.348	-0.037
-297.735	-76.633	0.139	0.048
-296.720	-57.764	0.299	0.129
-295.705	132.463	0.123	0.157
-294.691	-80.283	0.121	0.040
-293.676	-9.546	0.226	0.149
-292.662	391.928	-0.070	-0.144
-291.647	419.005	-0.126	0.266
-290.632	800.000	-0.066	0.184
-289.618	-70.818	0.132	-0.049
-288.603	-200.000	0.006	0.093
-287.589	-136.416	0.152	-0.017
-286.574	-200.000	0.022	0.202
-285.559	-200.000	-0.027	-0.365
-284.545	800.000	-0.038	0.156
-283.530	-200.000	-0.047	0.212
-282.516	496.101	0.102	-0.233
-281.501	5.575	0.215	-0.157
-280.486	-56.206	0.071	0.031
-279.472	161.984	-0.329	0.455
-278.457	473.015	0.090	-0.201
-277.443	-103.167	-0.226	-0.053
-276.428	304.554	-0.072	-0.132
-275.413	146.785	-0.118	-0.157
-274.399	800.000	0.009	0.035
-273.384	-65.611	-0.327	0.130
-272.370	183.255	0.103	0.150
-271.355	-200.000	0.008	0.368
-270.340	-51.057	0.129	0.060
-269.326	-200.000	0.027	-0.224
-268.311	800.000	-0.076	-0.265
-267.297	399.795	0.066	0.137
-266.282	126.214	-0.338	-0.422
-265.267	-4.041	-0.089	-0.061
-264.253	-168.383	0.306	0.012
-263.238	443.418	-0.167	-0.361
-262.224	-68.764	-0.187	0.071
-261.209	-40.674	0.316	-0.162
-260.195	20.496	-0.335	-0.267
-259.180	7.084	-0.270	-0.198
-258.165	1.265	0.122	-0.086
-257.151	800.000	-0.153	-0.479
-256.136	-64.217	-0.195	-0.078
-255.122	82.281	0.190	-0.204
-254.107	800.000	0.078	-0.327
-253.092	-87.360	0.262	-0.078
-252.078	800.000	0.087	-0.342
-251.063	91.107	0.121	-0.134
-250.049	45.585	-0.061	0.055
-249.034	-135.168	-0.358	-0.042
-248.019	30.893	0.193	-0.163
-247.005	-80.884	-0.098	-0.032
-245.990	348.752	-0.085	0.166
-244.976	-200.000	0.025	0.153
-243.961	606.549	0.014	0.035
-242.946	111.317	0.052	-0.061
-241.932	-107.617	0.249	-0.054
-240.917	-200.000	-0.031	0.184
-239.903	18.178	-0.274	-0.216
-238.888	800.000	0.017	-0.062
-237.873	145.562	-0.215	0.285
-236.859	-200.000	-0.044	-0.262
-235.844	-60.167	0.106	0.045
-234.830	617.383	-0.074	0.184
-233.815	800.000	-0.016	0.067
-232.800	-164.389	0.162	0.007
-231.786	-82.005	0.190	0.061
-230.771	-3.477	-0.362	0.248
-229.757	233.361	-0.091	0.148
-228.742	-200.000	-0.000	0.059
-227.727	2.236	-0.155	-0.110
-226.713	298.495	0.116	0.211
-225.698	800.000	0.062	0.193
-224.684	-71.035	0.279	0.104
-223.669	-200.000	0.022	0.253
-222.655	-0.647	0.281	-0.197
-221.640	242.904	0.048	0.079
-220.625	-75.298	-0.369	-0.130
-219.611	-127.075	-0.211	0.030
-218.596	104.440	0.074	0.086
-217.582	-1.282	-0.112	0.078
-216.567	458.765	-0.048	-0.106
-215.552	800.000	-0.031	0.095
-214.538	800.000	-0.028	-0.102
-213.523	209.003	-0.212	0.327
-212.509	792.935	-0.092	0.251
-211.494	-98.002	0.115	0.029
-210.479	58.192	-0.127	-0.123
-209.465	-200.000	0.019	-0.104
-208.450	-200.000	-0.013	-0.332
-207.436	-73.185	-0.073	0.026
-206.421	20.826	-0.091	-0.072
-205.406	4.193	0.230	0.166
-204.392	-163.731	-0.020	0.001
-203.377	-36.812	0.142	-0.075
-202.363	16.761	0.225	0.175
-201.348	155.292	-0.118	-0.160
-200.333	108.798	0.121	0.142
-199.319	-30.186	-0.231	0.129
-198.304	-48.870	0.109	-0.051
-197.290	121.761	0.011	-0.013
-196.275	84.487	0.105	-0.113
-195.260	172.117	-0.198	0.281
-194.246	398.130	0.068	-0.140
-193.231	-73.060	-0.256	0.093
-192.217	800.000	0.043	0.133
-191.202	-52.107	0.157	-0.072
-190.187	-200.000	-0.030	0.219
-189.173	691.337	0.089	0.231
-188.158	104.961	0.121	0.140
-187.144	243.845	0.058	-0.096
-186.129	448.067	-0.059	0.127
-185.114	-200.000	-0.023	-0.288
-184.100	-69.219	0.093	-0.035
-183.085	118.812	-0.130	0.159
-182.071	-115.072	0.198	-0.037
-181.056	0.810	-0.112	-0.079
-180.042	-94.014	0.182	0.049
-179.027	-77.489	0.289	0.099
-178.012	427.052	0.096	-0.204
-176.998	-117.442	0.265	0.047
-175.983	151.595	0.116	-0.155
-174.969	-200.000	0.004	0.024
-173.954	-35.779	0.296	0.158
-172.939	510.078	0.157	0.359
-171.925	-56.270	-0.200	-0.088
-170.910	-100.570	0.282	-0.068
-169.896	-34.550	0.218	-0.117
-168.881	-174.561	-0.175	0.005
-167.866	-200.000	0.050	0.236
-166.852	-200.000	-0.049	-0.360
-165.837	12.101	0.304	0.230
-164.823	90.808	0.244	0.269
-163.808	172.470	0.065	-0.091
-162.793	-58.789	-0.215	-0.092
-161.779	-200.000	0.059	0.357
-160.764	13.643	0.050	-0.038
-159.750	-200.000	0.049	-0.524
-158.735	122.923	-0.073	-0.090
-157.720	-59.452	0.195	-0.083
-156.706	145.892	-0.019	0.025
-155.691	-112.696	0.277	0.054
-154.677	450.536	0.131	-0.285
-153.662	124.384	0.127	-0.157
-152.647	-38.667	-0.257	0.133
-151.633	162.706	0.206	-0.284
-150.618	-200.000	0.010	0.179
-149.604	-152.897	-0.224	-0.016
-148.589	201.545	-0.137	0.207
-147.574	310.016	-0.151	-0.278
-146.560	48.323	0.252	0.232
-145.545	-23.729	-0.264	-0.156
-144.531	-152.336	-0.570	-0.040
-143.516	79.171	0.145	-0.152
-142.502	-130.652	0.408	0.054
-141.487	276.767	0.059	-0.103
-140.472	236.503	0.108	0.176
-139.458	-19.698	-0.207	0.126
-138.443	-140.624	-0.496	-0.051
-137.429	800.000	0.048	-0.185
-136.414	800.000	-0.092	-0.296
-135.399	-200.000	0.061	-0.326
-134.385	19.374	-0.194	0.153
-133.370	-126.862	0.447	0.065
-132.356	-127.003	-0.136	-0.020
-131.341	-40.013	0.201	-0.103
-130.326	-24.943	0.216	-0.126
-129.312	-31.800	0.134	-0.074
-128.297	332.509	-0.008	0.015
-127.283	529.596	0.076	0.176
-126.268	-97.199	-0.394	-0.101
-125.253	-40.945	0.193	-0.098
-124.239	800.000	0.080	-0.247
-123.224	-35.114	-0.289	0.155
-122.210	-137.933	0.115	-0.013
-121.195	227.553	0.058	-0.093
