DTS Sentinel unit serial number:	SN413079Multiplexer serial number:	ORYXHardware model number:	OX4-SRSoftware version number:	ORYX F/W v4.00 Oryx Data Collector v3.7.2.0data status	okinstallation	princeton_trtdifferential loss correction	single-endedforward channel	channel 1reverse channel	N/Adate	2019/09/14time	11:18:35forward acquisition time	60.00reverse acquisition time	0.00gamma	496.2192k internal	0.2297k external	0.2297temperature offset calibration	1.0087default loss term (dB/km)	0.3790temperature slope calibration	1.0000multiplexer offset coefficient	1.0000multiplexer slope coefficient	1.0000fibre end	0.00T internal ref (°C)	36.62T ext. ref 1 (°C)	4.50T ext. ref 2 (°C)	33.05length (m)	temperature (°C)	Stokes	anti-Stokes-747.200	19.108	0.160	-0.131
-746.185	-200.000	-0.037	0.609
-745.171	-200.000	-0.096	0.586
-744.156	800.000	0.104	0.416
-743.142	-73.788	0.456	-0.169
-742.127	232.628	-0.088	0.148
-741.112	-157.358	-0.234	-0.014
-740.098	-161.631	0.239	0.012
-739.083	800.000	-0.045	0.191
-738.069	-140.712	-0.087	0.009
-737.054	-49.118	0.083	0.041
-736.039	88.101	-0.159	-0.180
-735.025	-124.355	-0.134	-0.021
-734.010	-187.321	-0.073	-0.001
-732.996	105.373	-0.089	-0.107
-731.981	-123.469	0.165	0.027
-730.966	399.993	0.062	0.132
-729.952	-43.423	-0.207	0.107
-728.937	-106.966	0.142	0.032
-727.923	-152.260	0.412	-0.030
-726.908	-100.258	-0.251	-0.064
-725.894	-72.549	0.230	0.087
-724.879	133.818	-0.179	-0.237
-723.864	-200.000	0.025	0.159
-722.850	-150.654	-0.154	0.012
-721.835	363.708	0.218	-0.447
-720.821	-200.000	0.016	-0.318
-719.806	-49.604	-0.098	0.048
-718.791	80.062	0.080	0.087
-717.777	-200.000	0.024	-0.268
-716.762	0.867	-0.173	0.126
-715.748	-200.000	-0.019	0.150
-714.733	-21.620	-0.238	0.148
-713.718	-99.684	-0.143	0.037
-712.704	-102.785	-0.227	0.055
-711.689	-112.202	-0.378	-0.077
-710.675	280.923	0.192	-0.350
-709.660	-109.872	0.250	-0.054
-708.645	-200.000	0.042	-0.275
-707.631	188.220	-0.083	0.126
-706.616	246.024	-0.141	0.243
-705.602	-200.000	-0.001	-0.010
-704.587	-112.690	-0.072	0.015
-703.572	8.562	-0.194	-0.149
-702.558	-200.000	0.036	-0.260
-701.543	-80.111	-0.105	-0.036
-700.529	-125.343	0.136	0.021
-699.514	-162.577	0.190	0.010
-698.499	-93.935	0.211	-0.059
-697.485	-33.148	0.344	-0.194
-696.470	-200.000	-0.001	-0.291
-695.456	-129.568	0.141	0.020
-694.441	-34.031	0.148	-0.083
-693.426	128.600	0.090	-0.117
-692.412	270.639	0.054	0.097
-691.397	105.180	-0.239	0.287
-690.383	-106.922	-0.328	-0.074
-689.368	-200.000	0.025	0.130
-688.354	36.049	-0.094	0.085
-687.339	-200.000	0.056	-0.398
-686.324	-96.782	0.205	0.055
-685.310	-103.293	0.332	0.080
-684.295	-12.108	-0.294	-0.196
-683.281	-144.204	-0.200	0.019
-682.266	-129.094	-0.249	0.035
-681.251	-200.000	0.046	0.415
-680.237	98.852	0.242	0.285
-679.222	-162.933	-0.251	-0.012
-678.208	-15.771	-0.217	0.141
-677.193	-78.508	-0.183	-0.064
-676.178	-67.252	-0.175	-0.070
-675.164	-155.950	0.272	-0.018
-674.149	-147.863	0.183	0.016
-673.135	800.000	-0.083	-0.250
-672.120	-184.404	0.212	0.004
-671.105	-81.697	0.080	0.027
-670.091	111.753	0.247	0.304
-669.076	33.842	-0.339	0.300
-668.062	-45.188	-0.130	0.066
-667.047	800.000	0.037	-0.132
-666.032	800.000	0.073	-0.311
-665.018	6.597	0.226	-0.171
-664.003	800.000	-0.134	-0.386
-662.989	-98.124	0.393	-0.103
-661.974	800.000	0.097	-0.298
-660.959	-200.000	-0.022	-0.106
-659.945	-70.078	-0.216	0.084
-658.930	-69.846	0.117	0.045
-657.916	-8.636	-0.249	-0.170
-656.901	29.961	0.090	0.078
-655.886	295.337	-0.045	0.084
-654.872	800.000	0.059	0.206
-653.857	800.000	-0.077	0.335
-652.843	-7.611	0.101	-0.069
-651.828	264.315	-0.047	-0.083
-650.814	-80.505	-0.360	-0.122
-649.799	-11.681	0.259	-0.173
-648.784	405.403	-0.220	0.471
-647.770	-151.228	0.278	0.021
-646.755	800.000	-0.079	-0.262
-645.741	-200.000	0.031	-0.307
-644.726	-185.613	-0.191	-0.003
-643.711	158.470	-0.111	-0.157
-642.697	-64.225	0.298	0.123
-641.682	52.482	-0.138	-0.134
-640.668	404.457	-0.108	0.232
-639.653	80.410	-0.111	-0.121
-638.638	11.942	0.123	-0.096
-637.624	-74.263	-0.153	0.056
-636.609	354.083	0.149	-0.300
-635.595	-22.271	0.336	-0.207
-634.580	116.109	0.164	0.205
-633.565	35.896	0.116	-0.104
-632.551	800.000	-0.129	-0.368
-631.536	525.237	0.168	-0.401
-630.522	-200.000	0.037	-0.333
-629.507	48.567	-0.188	-0.179
-628.492	-200.000	-0.008	-0.139
-627.478	154.238	-0.083	0.115
-626.463	9.733	-0.086	0.066
-625.449	-200.000	-0.013	0.107
-624.434	-55.991	0.128	-0.058
-623.419	-109.572	-0.585	-0.125
-622.405	800.000	-0.121	-0.394
-621.390	-101.622	-0.445	0.110
-620.376	-200.000	-0.028	-0.212
-619.361	64.808	-0.096	0.099
-618.346	90.817	-0.229	0.261
-617.332	78.680	0.148	-0.161
-616.317	-200.000	0.000	-0.133
-615.303	800.000	0.173	0.600
-614.288	56.780	-0.129	0.128
-613.273	-86.612	0.052	-0.016
-612.259	-200.000	0.042	0.244
-611.244	-28.129	-0.110	-0.064
-610.230	492.276	0.161	-0.374
-609.215	-26.740	-0.174	-0.103
-608.201	49.575	-0.239	0.229
-607.186	-135.929	-0.131	0.016
-606.171	800.000	0.087	0.369
-605.157	-55.055	-0.127	-0.058
-604.142	800.000	-0.034	0.111
-603.128	800.000	0.099	0.314
-602.113	374.352	0.091	0.187
-601.098	-200.000	0.005	0.104
-600.084	-85.632	-0.214	-0.068
-599.069	-73.949	0.219	0.081
-598.055	158.910	-0.069	-0.097
-597.040	273.055	-0.143	-0.257
-596.025	30.648	0.070	-0.060
-595.011	514.675	-0.072	0.172
-593.996	800.000	-0.057	0.235
-592.982	349.539	-0.086	-0.173
-591.967	800.000	-0.046	-0.170
-590.952	-116.061	-0.145	0.027
-589.938	60.160	-0.112	0.112
-588.923	-200.000	-0.054	-0.357
-587.909	189.048	-0.152	0.231
-586.894	-132.991	-0.515	0.066
-585.879	-200.000	-0.041	-0.429
-584.865	-108.087	-0.279	-0.061
-583.850	230.463	0.070	0.116
-582.836	50.284	-0.088	0.084
-581.821	-121.271	-0.143	-0.024
-580.806	-108.363	0.048	-0.010
-579.792	-88.328	-0.176	0.053
-578.777	-200.000	-0.078	0.000
-577.763	-142.983	-0.079	0.008
-576.748	-200.000	-0.001	-0.144
-575.733	-105.556	-0.339	0.078
-574.719	-103.872	-0.100	0.024
-573.704	800.000	-0.068	-0.232
-572.690	-100.773	-0.009	0.002
-571.675	726.427	-0.093	0.251
-570.661	-140.761	0.092	-0.010
-569.646	682.597	-0.102	0.270
-568.631	-74.270	0.305	-0.112
-567.617	-15.098	0.165	0.107
-566.602	800.000	0.155	-0.509
-565.588	-176.013	-0.209	-0.006
-564.573	-200.000	0.018	0.144
-563.558	788.817	-0.074	-0.205
-562.544	18.605	-0.095	0.077
-561.529	-200.000	-0.008	0.062
-560.515	-16.511	0.060	0.038
-559.500	118.530	-0.141	0.177
-558.485	66.265	0.143	-0.147
-557.471	-129.148	0.266	-0.038
-556.456	410.668	0.024	0.052
-555.442	-128.867	-0.382	0.054
-554.427	54.234	0.073	0.071
-553.412	62.085	0.177	0.179
-552.398	-200.000	0.072	-0.404
-551.383	-200.000	0.031	-0.372
-550.369	-111.682	-0.167	-0.034
-549.354	-105.336	-0.254	-0.059
-548.339	-118.648	0.222	-0.040
-547.325	-200.000	0.018	0.169
-546.310	-200.000	0.053	-0.251
-545.296	-200.000	0.059	0.392
-544.281	71.860	-0.068	0.072
-543.266	-101.858	-0.174	-0.043
-542.252	-154.868	-0.358	-0.024
-541.237	217.699	-0.109	0.176
-540.223	-75.018	-0.194	0.070
-539.208	-200.000	0.064	0.287
-538.193	-57.893	0.224	-0.099
-537.179	-72.651	-0.289	-0.108
-536.164	800.000	0.008	-0.035
-535.150	124.728	0.117	-0.149
-534.135	-200.000	0.027	-0.135
-533.121	800.000	0.006	-0.018
-532.106	800.000	0.035	0.131
-531.091	-111.500	-0.130	0.027
-530.077	-1.523	-0.187	0.133
-529.062	-200.000	-0.014	0.140
-528.048	-44.603	0.296	0.150
-527.033	800.000	0.018	0.060
-526.018	-200.000	0.038	0.210
-525.004	-143.912	0.271	0.026
-523.989	-146.623	0.084	0.007
-522.975	68.455	0.041	-0.042
-521.960	492.770	0.130	-0.303
-520.945	-65.268	-0.074	0.030
-519.931	800.000	0.041	-0.152
-518.916	-47.653	-0.378	0.185
-517.902	-200.000	0.030	-0.366
-516.887	-200.000	0.025	0.145
-515.872	-139.248	-0.377	-0.041
-514.858	-52.589	-0.246	-0.115
-513.843	236.245	0.118	0.198
-512.829	-200.000	0.035	-0.635
-511.814	-200.000	0.069	0.311
-510.799	-37.128	0.014	-0.008
-509.785	147.450	-0.366	0.499
-508.770	10.117	-0.463	0.356
-507.756	800.000	-0.046	0.196
-506.741	-121.071	0.327	0.056
-505.726	149.005	0.097	-0.133
-504.712	504.388	-0.084	0.196
-503.697	-11.929	0.156	-0.104
-502.683	-14.722	0.249	-0.162
-501.668	-200.000	-0.009	-0.242
-500.653	-200.000	-0.021	0.315
-499.639	-1.672	-0.419	-0.299
-498.624	-100.092	0.167	-0.042
-497.610	783.784	0.067	-0.187
-496.595	-82.000	-0.049	0.016
-495.581	387.289	-0.162	0.338
-494.566	-60.929	0.250	0.107
-493.551	800.000	0.026	-0.095
-492.537	12.914	0.155	-0.121
-491.522	-94.948	0.171	-0.047
-490.508	51.110	-0.171	0.164
-489.493	800.000	0.046	-0.145
-488.478	-25.863	-0.038	-0.023
-487.464	-200.000	0.029	-0.183
-486.449	-200.000	-0.010	0.187
-485.435	31.506	-0.167	0.145
-484.420	9.430	0.204	-0.156
-483.405	-145.674	0.428	0.039
-482.391	-200.000	-0.027	-0.315
-481.376	800.000	-0.069	-0.269
-480.362	-200.000	0.033	-0.168
-479.347	-200.000	0.002	0.399
-478.332	37.378	0.151	0.135
-477.318	-85.473	0.121	0.038
-476.303	68.757	0.141	-0.146
-475.289	95.449	-0.045	0.052
-474.274	-200.000	0.010	0.207
-473.259	-181.064	0.339	-0.007
-472.245	304.994	0.055	-0.104
-471.230	-7.402	-0.198	0.135
-470.216	800.000	-0.068	-0.298
-469.201	-200.000	0.048	-0.000
-468.186	58.019	-0.225	0.222
-467.172	337.284	-0.057	-0.113
-466.157	-200.000	-0.001	0.003
-465.143	99.820	0.189	0.222
-464.128	800.000	0.047	-0.175
-463.113	-200.000	-0.010	-0.155
-462.099	-131.158	0.264	-0.035
-461.084	364.416	-0.090	0.183
-460.070	-23.217	0.270	-0.164
-459.055	800.000	0.106	-0.395
-458.040	279.109	0.178	0.321
-457.026	213.028	-0.229	-0.365
-456.011	-52.136	0.175	0.082
-454.997	83.525	0.012	-0.014
-453.982	800.000	0.048	0.145
-452.968	-143.390	0.134	-0.013
-451.953	146.599	-0.102	-0.138
-450.938	-200.000	-0.005	0.145
-449.924	-107.867	0.052	0.011
-448.909	-42.655	-0.240	0.123
-447.895	-200.000	-0.008	-0.058
-446.880	72.915	-0.027	-0.029
-445.865	124.405	-0.192	0.244
-444.851	296.440	-0.138	0.255
-443.836	-200.000	-0.041	0.205
-442.822	721.138	-0.063	0.169
-441.807	610.061	0.153	-0.385
-440.792	-200.000	0.006	-0.119
-439.778	38.297	0.137	-0.123
-438.763	-61.181	-0.082	0.035
-437.749	20.115	0.103	-0.084
-436.734	-72.295	-0.336	-0.126
-435.719	33.175	-0.214	0.187
-434.705	800.000	-0.043	-0.121
-433.690	-66.858	-0.101	0.040
-432.676	800.000	-0.114	0.481
-431.661	-105.538	-0.288	0.066
-430.646	-169.376	-0.139	0.005
-429.632	-200.000	0.021	0.324
-428.617	-200.000	-0.013	-0.163
-427.603	43.070	-0.105	-0.097
-426.588	-43.667	0.165	0.084
-425.573	-21.360	-0.074	0.046
-424.559	573.919	0.109	0.269
-423.544	167.074	-0.116	0.166
-422.530	190.457	0.070	-0.105
-421.515	136.161	-0.136	-0.178
-420.500	35.545	-0.171	-0.151
-419.486	-200.000	-0.005	-0.126
-418.471	-102.978	0.067	0.016
-417.457	800.000	0.088	-0.260
-416.442	-200.000	-0.026	-0.358
-415.428	201.539	0.157	0.244
-414.413	-200.000	-0.017	-0.369
-413.398	-152.221	0.087	-0.006
-412.384	-132.390	-0.193	-0.025
-411.369	-35.168	-0.203	-0.112
-410.355	679.717	0.060	-0.158
-409.340	800.000	0.098	0.286
-408.325	48.595	-0.167	0.158
-407.311	-70.288	-0.223	-0.085
-406.296	192.931	-0.016	-0.024
-405.282	-200.000	-0.003	-0.177
-404.267	474.659	0.061	0.138
-403.252	133.620	0.079	-0.103
-402.238	111.391	-0.118	-0.143
-401.223	48.191	0.056	-0.053
-400.209	-76.141	0.224	-0.080
-399.194	290.278	0.150	-0.274
-398.179	-107.388	0.293	0.065
-397.165	269.238	0.140	-0.247
-396.150	-139.556	-0.127	-0.014
-395.136	-73.293	-0.309	-0.114
-394.121	-200.000	0.024	-0.277
-393.106	-96.103	-0.432	0.116
-392.092	242.494	0.231	0.390
-391.077	-124.564	0.287	-0.045
-390.063	-121.939	-0.343	0.057
-389.048	72.464	0.194	-0.204
-388.033	107.243	-0.178	-0.213
-387.019	-48.366	-0.302	0.146
-386.004	639.037	-0.091	0.233
-384.990	-10.732	-0.152	0.101
-383.975	-103.047	0.212	-0.050
-382.960	87.582	0.179	0.200
-381.946	562.297	-0.024	0.058
-380.931	16.861	0.333	0.265
-379.917	50.662	0.016	0.015
-378.902	80.849	-0.184	0.200
-377.888	80.646	-0.087	0.094
-376.873	800.000	-0.054	-0.201
-375.858	-81.543	0.173	0.057
-374.844	-200.000	0.045	-0.584
-373.829	-200.000	0.128	0.000
-372.815	-151.226	-0.173	-0.013
-371.800	800.000	-0.100	0.281
-370.785	-200.000	-0.021	-0.244
-369.771	-200.000	0.096	0.000
-368.756	-195.242	0.338	0.003
-367.742	-200.000	-0.012	0.142
-366.727	348.025	0.160	-0.318
-365.712	160.856	-0.134	-0.188
-364.698	6.522	0.147	-0.110
-363.683	66.203	-0.122	0.124
-362.669	111.898	0.312	-0.379
-361.654	123.527	-0.101	-0.127
-360.639	800.000	-0.031	0.101
-359.625	-88.300	-0.147	-0.044
-358.610	-200.000	-0.044	0.393
-357.596	165.509	-0.129	-0.184
-356.581	-0.089	0.188	-0.135
-355.566	-128.631	-0.120	0.017
-354.552	67.104	-0.096	-0.099
-353.537	-7.741	-0.198	0.135
-352.523	86.166	0.175	0.194
-351.508	48.682	0.233	0.220
-350.493	357.444	0.074	-0.148
-349.479	-200.000	-0.003	-0.113
-348.464	49.044	-0.195	0.185
-347.450	-200.000	0.017	0.000
-346.435	542.065	-0.042	-0.100
-345.420	500.818	-0.023	0.053
-344.406	-200.000	0.043	-0.340
-343.391	-111.854	0.172	-0.035
-342.377	302.359	-0.079	-0.146
-341.362	-140.392	0.239	0.025
-340.348	-177.961	-0.209	-0.005
-339.333	223.554	-0.267	0.433
-338.318	-200.000	0.010	0.210
-337.304	-120.977	0.138	-0.023
-336.289	16.393	-0.063	0.050
-335.275	-131.745	-0.227	-0.030
-334.260	800.000	0.051	-0.178
-333.245	-41.794	-0.403	0.208
-332.231	-66.232	0.200	-0.080
-331.216	-200.000	0.005	0.066
-330.202	-1.547	-0.029	0.021
-329.187	-172.489	0.104	-0.003
-328.172	-155.275	0.197	-0.013
-327.158	14.542	0.286	-0.224
-326.143	99.243	-0.173	-0.201
-325.129	445.564	0.142	0.314
-324.114	-200.000	0.008	-0.038
-323.099	-190.405	0.092	0.001
-322.085	800.000	-0.091	0.256
-321.070	800.000	0.087	0.325
-320.056	23.191	0.160	0.132
-319.041	281.187	-0.079	-0.141
-318.026	792.433	0.083	-0.230
-317.012	-114.185	0.137	-0.027
-315.997	-200.000	-0.018	0.117
-314.983	-5.005	-0.182	-0.126
-313.968	-36.692	0.283	0.153
-312.953	43.969	-0.019	-0.017
-311.939	-123.730	0.098	-0.016
-310.924	-82.764	0.242	0.078
-309.910	365.260	-0.146	-0.296
-308.895	0.732	0.062	-0.045
-307.880	-200.000	0.041	-0.443
-306.866	-200.000	-0.010	0.064
-305.851	47.854	0.214	0.200
-304.837	-63.989	-0.101	-0.042
-303.822	172.111	0.074	-0.106
-302.807	-45.144	0.364	0.181
-301.793	800.000	0.060	0.248
-300.778	-40.330	-0.086	0.045
-299.764	53.023	-0.104	-0.100
-298.749	800.000	0.022	0.068
-297.735	709.648	-0.060	0.160
-296.720	-39.450	0.373	-0.196
-295.705	-44.284	0.515	-0.259
-294.691	18.949	-0.314	-0.252
-293.676	12.386	-0.036	-0.028
-292.662	148.483	0.023	0.032
-291.647	663.442	0.068	0.175
-290.632	-123.394	-0.215	0.034
-289.618	-200.000	-0.008	0.211
-288.603	175.324	0.070	0.102
-287.589	800.000	0.097	0.279
-286.574	12.791	0.313	-0.242
-285.559	184.674	0.194	0.289
-284.545	11.674	-0.173	0.133
-283.530	-135.283	-0.405	0.049
-282.516	-70.949	-0.204	-0.077
-281.501	-200.000	-0.019	-0.214
-280.486	-200.000	-0.062	0.368
-279.472	800.000	-0.176	-0.491
-278.457	-200.000	-0.021	0.348
-277.443	-200.000	0.040	0.229
-276.428	3.570	-0.074	0.054
-275.413	-110.590	-0.140	0.029
-274.399	-41.618	0.086	-0.044
-273.384	616.535	-0.064	-0.162
-272.370	-153.064	0.233	0.016
-271.355	-74.215	-0.174	0.063
-270.340	-66.323	-0.081	-0.032
-269.326	-200.000	0.295	-0.001
-268.311	-75.974	0.102	-0.036
-267.297	62.633	-0.176	-0.176
-266.282	-45.065	-0.149	-0.074
-265.267	-200.000	-0.013	0.336
-264.253	404.046	0.034	0.072
-263.238	27.672	0.182	0.154
-262.224	92.593	-0.190	0.215
-261.209	-200.000	0.053	0.236
-260.195	-69.628	-0.172	0.066
-259.180	-129.165	0.128	-0.018
-258.165	29.162	-0.212	-0.180
-257.151	-159.536	-0.315	0.018
-256.136	199.996	0.131	0.202
-255.122	800.000	0.098	0.406
-254.107	-200.000	0.008	-0.203
-253.092	-90.356	0.280	-0.081
-252.078	-92.044	0.313	0.089
-251.063	143.572	0.096	-0.128
-250.049	165.692	0.156	-0.222
-249.034	-181.769	0.171	0.003
-248.019	-56.028	0.209	0.093
-247.005	-200.000	-0.015	0.100
-245.990	-73.095	0.094	0.035
-244.976	-111.282	0.134	0.027
-243.961	-180.515	0.436	0.009
-242.946	-200.000	0.011	0.395
-241.932	-74.710	0.208	0.075
-240.917	800.000	-0.112	-0.320
-239.903	800.000	-0.099	0.296
-238.888	-76.545	0.192	-0.068
-237.873	111.902	0.063	-0.077
-236.859	-200.000	0.013	-0.248
-235.844	-146.714	0.149	-0.013
-234.830	203.974	0.266	0.412
-233.815	-200.000	-0.004	0.300
-232.800	-200.000	0.006	-0.116
-231.786	-200.000	0.033	-0.219
-230.771	-21.655	-0.080	-0.049
-229.757	232.271	-0.018	-0.029
-228.742	-51.432	-0.287	0.134
-227.727	-139.395	-0.096	0.010
-226.713	497.028	0.039	-0.090
-225.698	80.130	-0.101	-0.109
-224.684	-108.472	-0.164	-0.035
-223.669	389.209	-0.132	-0.274
-222.655	36.000	0.128	0.113
-221.640	60.163	-0.055	-0.054
-220.625	-56.157	-0.109	-0.048
-219.611	431.752	-0.067	0.146
-218.596	149.464	-0.134	-0.182
-217.582	-25.334	0.189	0.112
-216.567	142.473	-0.062	0.083
-215.552	703.770	0.041	-0.109
-214.538	-200.000	0.021	0.228
-213.523	-200.000	-0.034	0.415
-212.509	-200.000	-0.017	0.136
-211.494	34.293	0.342	0.298
-210.479	245.073	-0.181	-0.304
-209.465	369.254	0.132	0.268
-208.450	-127.000	-0.067	-0.010
-207.436	623.608	0.075	0.190
-206.421	98.058	0.052	-0.060
-205.406	-200.000	0.005	-0.147
-204.392	-23.067	0.152	0.091
-203.377	414.968	-0.182	0.388
-202.363	-122.503	-0.443	-0.072
-201.348	-173.290	-0.131	0.004
-200.333	-101.778	0.326	0.079
-199.319	432.317	0.170	0.369
-198.304	20.986	0.021	0.017
-197.290	-34.122	0.419	-0.230
-196.275	114.973	0.124	0.152
-195.260	546.983	0.100	0.239
-194.246	270.978	-0.126	-0.221
-193.231	-200.000	-0.048	-0.354
-192.217	800.000	0.075	0.210
-191.202	-200.000	0.041	-0.329
-190.187	800.000	0.010	0.031
-189.173	7.808	0.120	-0.090
-188.158	488.902	-0.128	-0.292
-187.144	29.021	-0.136	-0.115
-186.129	-200.000	0.037	-0.175
-185.114	-37.196	0.053	-0.028
-184.100	397.806	0.154	-0.322
-183.085	53.755	0.184	-0.177
-182.071	-162.175	0.223	0.011
-181.056	800.000	-0.059	0.209
-180.042	-141.776	-0.144	0.014
-179.027	-200.000	-0.002	-0.128
-178.012	-67.753	-0.126	-0.049
-176.998	-15.365	-0.240	0.153
-175.983	79.997	-0.179	0.192
-174.969	800.000	0.059	0.212
-173.954	-96.778	0.479	-0.126
-172.939	-37.979	-0.149	-0.079
-171.925	76.074	0.304	0.321
-170.910	705.368	0.051	0.134
-169.896	124.956	-0.137	0.173
-168.881	-200.000	-0.010	-0.365
-167.866	111.417	-0.233	-0.281
-166.852	800.000	0.011	0.046
-165.837	293.868	0.088	-0.161
-164.823	-200.000	0.015	-0.064
-163.808	800.000	0.048	-0.151
-162.793	56.413	-0.112	0.109
-161.779	90.482	0.261	0.292
-160.764	765.652	-0.018	-0.050
-159.750	800.000	-0.068	-0.210
-158.735	49.732	-0.106	0.099
-157.720	682.872	0.017	0.044
-156.706	31.178	0.099	0.085
-155.691	-45.062	0.042	0.021
-154.677	-86.177	0.436	-0.134
-153.662	89.463	-0.183	0.203
-152.647	118.422	0.156	-0.192
-151.633	-25.533	0.109	0.064
-150.618	800.000	-0.066	0.205
-149.604	-7.761	-0.290	-0.195
-148.589	-200.000	0.072	-0.000
-147.574	-200.000	0.024	-0.209
-146.560	87.405	0.054	-0.059
-145.545	-200.000	0.019	-0.324
-144.531	61.047	0.060	0.059
-143.516	-52.958	0.089	0.041
-142.502	355.819	-0.047	0.094
-141.487	-163.902	0.178	-0.008
-140.472	-34.010	0.205	-0.113
-139.458	260.568	0.040	0.068
-138.443	800.000	0.087	0.304
-137.429	-102.479	0.109	-0.026
-136.414	126.974	0.168	-0.212
-135.399	115.883	-0.073	0.089
-134.385	63.633	-0.277	-0.277
-133.370	24.367	0.028	-0.023
-132.356	-200.000	0.026	-0.193
-131.341	-200.000	0.020	0.194
-130.326	-200.000	-0.011	-0.221
-129.312	-70.062	-0.241	-0.092
-128.297	584.965	-0.098	0.240
-127.283	12.323	0.270	-0.208
-126.268	62.396	-0.223	-0.222
-125.253	31.323	-0.244	0.209
-124.239	-178.511	-0.114	0.003
-123.224	-200.000	-0.000	-0.166
-122.210	-200.000	0.032	0.251
