DTS Sentinel unit serial number:	SN413079Multiplexer serial number:	ORYXHardware model number:	OX4-SRSoftware version number:	ORYX F/W v4.00 Oryx Data Collector v3.7.2.0data status	okinstallation	princeton_trtdifferential loss correction	single-endedforward channel	channel 1reverse channel	N/Adate	2019/09/16time	23:54:35forward acquisition time	60.00reverse acquisition time	0.00gamma	496.2192k internal	0.2325k external	0.2325temperature offset calibration	0.9957default loss term (dB/km)	0.3790temperature slope calibration	1.0000multiplexer offset coefficient	1.0000multiplexer slope coefficient	1.0000fibre end	0.00T internal ref (°C)	29.62T ext. ref 1 (°C)	0.09T ext. ref 2 (°C)	23.93length (m)	temperature (°C)	Stokes	anti-Stokes-747.200	679.299	-0.065	-0.170
-746.185	-8.936	0.038	0.025
-745.171	-127.139	-0.189	-0.028
-744.156	800.000	-0.123	0.427
-743.142	74.443	0.051	0.054
-742.127	-200.000	-0.005	0.070
-741.112	271.959	0.192	-0.342
-740.098	-51.386	0.081	0.038
-739.083	113.898	0.085	0.104
-738.069	-139.657	-0.333	0.036
-737.054	426.569	0.059	0.128
-736.039	16.735	-0.343	-0.273
-735.025	29.482	-0.079	0.068
-734.010	-82.471	-0.186	0.061
-732.996	388.006	0.016	-0.034
-731.981	-93.693	0.294	-0.082
-730.966	1.591	-0.143	-0.104
-729.952	520.267	-0.035	-0.084
-728.937	-200.000	0.035	-0.384
-727.923	-54.861	-0.205	0.093
-726.908	-84.393	-0.185	-0.059
-725.894	-200.000	0.014	0.351
-724.879	-200.000	0.014	-0.231
-723.864	6.536	-0.135	-0.101
-722.850	-152.913	0.119	0.009
-721.835	-20.887	-0.046	0.029
-720.821	-87.984	0.516	-0.156
-719.806	-200.000	0.023	-0.120
-718.791	-130.900	-0.082	0.011
-717.777	800.000	-0.028	0.080
-716.762	-41.936	0.141	0.073
-715.748	-175.827	-0.123	0.003
-714.733	-51.745	-0.140	0.066
-713.718	800.000	-0.081	-0.238
-712.704	-200.000	-0.016	-0.189
-711.689	-200.000	0.001	0.316
-710.675	465.409	0.024	-0.054
-709.660	-74.623	-0.249	-0.090
-708.645	-37.451	0.075	0.040
-707.631	20.072	-0.132	-0.107
-706.616	-124.839	0.102	0.016
-705.602	800.000	-0.062	-0.243
-704.587	-177.382	0.123	-0.003
-703.572	-34.012	-0.253	0.140
-702.558	-81.779	-0.142	0.047
-701.543	204.798	-0.069	-0.107
-700.529	-119.485	0.390	0.068
-699.514	288.091	-0.170	0.311
-698.499	181.324	0.023	0.034
-697.485	-88.752	0.145	-0.043
-696.470	-61.988	-0.201	0.085
-695.456	265.646	-0.098	-0.172
-694.441	236.146	-0.142	0.237
-693.426	800.000	0.113	-0.376
-692.412	-41.032	-0.278	-0.145
-691.397	204.173	-0.089	-0.139
-690.383	-45.190	0.168	-0.084
-689.368	109.884	0.131	0.158
-688.354	-200.000	0.039	0.375
-687.339	0.400	0.160	-0.115
-686.324	800.000	0.031	-0.110
-685.310	129.023	-0.170	0.218
-684.295	800.000	0.079	0.240
-683.281	50.128	0.129	0.122
-682.266	-186.030	0.026	-0.000
-681.251	441.309	-0.039	-0.085
-680.237	-132.087	0.119	-0.016
-679.222	34.281	-0.132	-0.116
-678.208	84.589	0.152	0.167
-677.193	800.000	0.031	0.104
-676.178	-100.261	0.103	-0.026
-675.164	50.559	-0.170	0.161
-674.149	126.075	0.143	0.182
-673.135	-73.263	-0.015	-0.005
-672.120	424.106	0.130	-0.281
-671.105	-69.975	-0.229	0.088
-670.091	-97.795	0.061	-0.016
-669.076	-200.000	-0.072	0.371
-668.062	60.269	0.029	-0.029
-667.047	21.916	0.105	0.086
-666.032	13.409	0.039	-0.030
-665.018	-200.000	0.006	0.066
-664.003	-49.191	0.214	0.103
-662.989	15.381	-0.126	0.099
-661.974	-200.000	-0.000	-0.154
-660.959	1.884	0.128	-0.093
-659.945	95.288	-0.062	-0.071
-658.930	30.353	0.073	0.063
-657.916	-136.970	0.149	0.017
-656.901	-173.687	0.314	-0.009
-655.886	462.766	-0.175	-0.393
-654.872	-79.319	0.284	-0.097
-653.857	449.902	-0.033	-0.072
-652.843	-103.262	0.385	0.091
-651.828	-44.665	-0.139	-0.070
-650.814	-11.485	0.317	-0.210
-649.799	-200.000	-0.009	0.047
-648.784	-200.000	-0.004	0.190
-647.770	109.023	-0.048	0.058
-646.755	238.514	-0.190	-0.317
-645.741	-111.909	0.250	0.051
-644.726	53.666	0.075	-0.073
-643.711	-140.304	-0.241	-0.025
-642.697	800.000	-0.023	-0.065
-641.682	114.277	-0.132	-0.162
-640.668	60.729	0.119	0.118
-639.653	-1.829	0.006	0.004
-638.638	-56.269	0.349	0.156
-637.624	-128.177	0.361	-0.052
-636.609	115.961	-0.177	0.218
-635.595	-46.531	-0.126	-0.062
-634.580	-109.204	-0.276	0.059
-633.565	-200.000	0.007	0.101
-632.551	-56.771	-0.265	-0.118
-631.536	-82.166	0.116	-0.038
-630.522	-35.423	-0.107	0.059
-629.507	5.858	0.116	0.086
-628.492	-11.835	0.121	0.080
-627.478	240.997	-0.155	0.259
-626.463	-200.000	-0.057	-0.417
-625.449	-200.000	0.048	0.349
-624.434	-175.226	-0.282	-0.008
-623.419	43.617	0.182	-0.167
-622.405	194.979	0.043	0.065
-621.390	229.165	-0.174	-0.286
-620.376	329.273	-0.178	0.343
-619.361	-83.757	0.126	0.040
-618.346	1.312	0.244	-0.176
-617.332	-148.412	0.274	0.023
-616.317	-144.289	0.269	-0.025
-615.303	-200.000	0.043	-0.288
-614.288	-83.878	-0.103	-0.033
-613.273	-41.998	0.062	-0.032
-612.259	-200.000	0.003	0.161
-611.244	185.894	-0.106	0.158
-610.230	162.816	0.229	-0.323
-609.215	-191.570	0.275	-0.003
-608.201	176.593	-0.185	0.269
-607.186	94.445	0.043	0.049
-606.171	77.406	-0.106	-0.113
-605.157	-27.209	0.420	0.246
-604.142	-68.837	-0.073	-0.028
-603.128	-82.273	-0.053	0.017
-602.113	12.769	0.186	0.144
-601.098	285.903	0.167	-0.302
-600.084	148.555	-0.122	-0.166
-599.069	800.000	0.046	-0.134
-598.055	-200.000	-0.047	-0.230
-597.040	73.145	-0.028	-0.029
-596.025	800.000	-0.079	0.249
-595.011	109.013	-0.039	0.047
-593.996	-200.000	-0.020	0.284
-592.982	-24.252	-0.085	0.051
-591.967	178.210	-0.112	-0.164
-590.952	-200.000	0.009	0.154
-589.938	-200.000	0.011	0.176
-588.923	152.320	-0.098	-0.134
-587.909	73.567	-0.438	-0.460
-586.894	127.050	-0.025	-0.031
-585.879	-75.423	-0.089	0.032
-584.865	-93.797	-0.347	0.096
-583.850	339.659	0.028	-0.055
-582.836	-48.200	0.287	-0.139
-581.821	77.033	0.261	-0.277
-580.806	-146.518	-0.122	-0.011
-579.792	800.000	-0.077	0.290
-578.777	-109.637	-0.216	-0.046
-577.763	-57.846	0.084	-0.037
-576.748	-178.843	0.133	0.003
-575.733	77.969	-0.197	-0.210
-574.719	800.000	0.036	-0.126
-573.704	-61.128	-0.107	-0.045
-572.690	70.445	0.205	0.213
-571.675	275.055	0.108	-0.191
-570.661	363.154	-0.177	0.356
-569.646	140.280	-0.204	0.270
-568.631	-107.785	-0.157	0.034
-567.617	12.373	0.098	0.076
-566.602	164.543	-0.069	0.098
-565.588	111.008	0.218	0.263
-564.573	-200.000	0.015	0.223
-563.558	255.904	-0.066	-0.113
-562.544	537.694	-0.132	0.314
-561.529	-10.580	0.146	-0.097
-560.515	-140.405	-0.252	0.026
-559.500	-66.155	-0.069	-0.028
-558.485	-83.275	-0.288	0.093
-557.471	30.800	0.127	-0.109
-556.456	700.765	0.105	0.278
-555.442	322.303	0.097	0.185
-554.427	-28.944	-0.293	-0.168
-553.412	-200.000	0.002	0.149
-552.398	341.775	-0.093	0.182
-551.383	-200.000	-0.005	-0.343
-550.369	-153.829	-0.373	0.026
-549.354	-126.133	0.282	0.042
-548.339	197.315	-0.072	-0.110
-547.325	-148.440	-0.326	0.027
-546.310	-12.979	-0.193	-0.126
-545.296	94.889	0.013	-0.015
-544.281	-152.521	-0.309	0.022
-543.266	336.078	-0.076	0.147
-542.252	800.000	-0.065	-0.190
-541.237	318.849	-0.223	0.424
-540.223	-57.038	-0.087	0.038
-539.208	10.251	-0.096	0.073
-538.193	-52.682	0.088	-0.041
-537.179	-37.887	0.302	-0.161
-536.164	80.655	0.056	0.061
-535.150	707.593	-0.098	-0.258
-534.135	-137.489	0.277	0.031
-533.121	-137.231	0.156	0.018
-532.106	-200.000	-0.018	-0.150
-531.091	378.515	-0.147	-0.301
-530.077	132.030	-0.064	-0.083
-529.062	-171.592	0.127	0.004
-528.048	80.695	0.131	-0.141
-527.033	-200.000	0.044	-0.203
-526.018	407.231	-0.108	0.228
-525.004	232.108	0.181	-0.296
-523.989	88.851	-0.062	0.069
-522.975	-162.336	0.204	-0.010
-521.960	-200.000	0.003	0.153
-520.945	-28.745	-0.143	-0.083
-519.931	-37.584	0.130	0.069
-518.916	-43.034	0.168	0.085
-517.902	16.549	-0.108	0.085
-516.887	-48.565	0.329	0.158
-515.872	40.983	-0.093	-0.084
-514.858	-72.481	-0.293	-0.108
-513.843	-125.777	-0.160	0.024
-512.829	55.642	0.259	-0.251
-511.814	-87.835	0.218	0.066
-510.799	10.816	0.307	-0.234
-509.785	-45.980	0.068	-0.033
-508.770	122.636	-0.072	0.090
-507.756	-200.000	-0.016	0.415
-506.741	9.451	-0.113	-0.086
-505.726	-200.000	0.042	-0.308
-504.712	800.000	0.051	0.164
-503.697	-200.000	0.049	0.346
-502.683	495.504	0.076	0.174
-501.668	800.000	0.068	-0.188
-500.653	205.921	0.151	-0.235
-499.639	-200.000	-0.019	-0.247
-498.624	-187.481	0.582	0.008
-497.610	-128.479	-0.124	-0.018
-496.595	22.821	-0.312	-0.256
-495.581	-200.000	0.020	0.259
-494.566	-200.000	0.034	-0.180
-493.551	-27.339	-0.090	-0.052
-492.537	-129.131	0.131	-0.018
-491.522	100.470	0.149	-0.173
-490.508	-67.399	0.479	0.188
-489.493	34.874	-0.201	0.176
-488.478	110.426	-0.044	-0.053
-487.464	-11.020	-0.066	-0.044
-486.449	23.718	-0.233	-0.192
-485.435	329.260	-0.142	-0.272
-484.420	800.000	-0.150	-0.533
-483.405	-200.000	0.026	-0.143
-482.391	426.099	-0.128	0.276
-481.376	205.148	0.156	0.242
-480.362	160.414	0.064	0.089
-479.347	-119.994	-0.084	0.014
-478.332	-144.579	-0.189	-0.017
-477.318	-43.088	-0.071	-0.036
-476.303	265.518	0.049	0.085
-475.289	800.000	-0.086	0.237
-474.274	-103.749	-0.176	-0.041
-473.259	122.212	-0.228	-0.284
-472.245	-100.517	0.156	0.038
-471.230	101.481	0.249	-0.290
-470.216	294.765	0.142	-0.260
-469.201	188.008	0.191	0.284
-468.186	89.998	0.184	0.205
-467.172	-42.969	-0.124	-0.063
-466.157	-45.768	0.215	0.106
-465.143	-200.000	-0.071	-0.369
-464.128	193.830	-0.149	-0.226
-463.113	23.204	-0.252	0.207
-462.099	-200.000	-0.022	-0.241
-461.084	-138.422	-0.123	0.014
-460.070	-128.896	0.142	0.020
-459.055	-200.000	-0.021	-0.240
-458.040	-200.000	-0.018	0.201
-457.026	-100.196	0.330	-0.082
-456.011	47.884	0.183	0.170
-454.997	800.000	0.075	-0.222
-453.982	-66.185	0.129	-0.051
-452.968	64.634	-0.359	-0.361
-451.953	-45.510	0.073	0.036
-450.938	117.969	0.043	0.052
-449.924	-164.523	0.264	-0.012
-448.909	-200.000	0.002	-0.147
-447.895	-84.167	-0.239	0.076
-446.880	-56.647	-0.304	-0.134
-445.865	-200.000	-0.016	0.225
-444.851	-15.772	0.170	-0.108
-443.836	800.000	0.062	0.211
-442.822	-195.577	0.314	0.002
-441.807	434.496	0.080	-0.174
-440.792	-93.758	-0.289	-0.079
-439.778	108.692	-0.168	0.200
-438.763	310.433	0.141	-0.262
-437.749	-200.000	0.014	0.159
-436.734	-143.720	-0.263	-0.025
-435.719	-98.232	-0.249	0.064
-434.705	48.346	0.142	-0.132
-433.690	37.580	-0.114	0.101
-432.676	-48.579	-0.047	-0.023
-431.661	112.710	0.123	-0.149
-430.646	116.271	-0.268	0.327
-429.632	65.099	-0.063	0.063
-428.617	1.666	-0.184	0.132
-427.603	316.897	0.075	0.140
-426.588	-200.000	-0.011	-0.159
-425.573	-104.800	0.179	0.041
-424.559	110.010	-0.168	-0.200
-423.544	800.000	-0.049	0.196
-422.530	284.652	0.064	0.114
-421.515	111.357	-0.295	-0.354
-420.500	-101.272	0.094	0.023
-419.486	394.437	-0.058	-0.121
-418.471	581.972	0.122	-0.298
-417.457	217.843	0.168	-0.267
-416.442	-49.882	0.105	-0.049
-415.428	-35.779	-0.043	-0.023
-414.413	-122.960	-0.207	0.033
-413.398	285.702	0.021	-0.039
-412.384	-200.000	-0.007	0.179
-411.369	3.942	-0.058	0.042
-410.355	-200.000	-0.064	-0.294
-409.340	-6.886	0.079	0.053
-408.325	-49.896	-0.115	0.054
-407.311	71.722	-0.264	0.273
-406.296	-58.661	-0.107	-0.046
-405.282	800.000	-0.070	0.280
-404.267	-27.593	0.053	-0.030
-403.252	-145.631	0.134	0.012
-402.238	-77.221	-0.189	-0.065
-401.223	-142.345	-0.153	0.015
-400.209	49.362	-0.156	-0.146
-399.194	-30.545	0.137	0.077
-398.179	277.892	-0.205	0.363
-397.165	73.142	0.083	0.087
-396.150	800.000	0.066	-0.249
-395.136	-5.117	-0.134	-0.092
-394.121	-64.352	0.532	-0.215
-393.106	42.942	-0.200	0.181
-392.092	-91.402	0.104	-0.029
-391.077	-37.289	-0.174	-0.093
-390.063	-87.613	-0.125	-0.037
-389.048	-200.000	0.002	0.227
-388.033	-200.000	-0.004	0.056
-387.019	314.161	-0.144	-0.269
-386.004	-130.456	0.350	0.047
-384.990	-24.812	0.296	-0.175
-383.975	-78.005	-0.187	0.064
-382.960	376.294	0.075	0.153
-381.946	-113.230	-0.206	0.040
-380.931	195.246	0.007	0.011
-379.917	-200.000	0.020	-0.110
-378.902	800.000	-0.036	0.116
-377.888	378.883	0.068	-0.138
-376.873	-15.714	-0.315	-0.200
-375.858	-200.000	0.000	-0.161
-374.844	-117.690	0.284	-0.051
-373.829	70.655	-0.026	0.026
-372.815	-102.820	-0.301	-0.071
-371.800	-200.000	-0.008	-0.271
-370.785	-83.608	-0.080	0.026
-369.771	197.413	0.124	-0.189
-368.756	-33.781	-0.319	0.175
-367.742	3.644	0.158	0.114
-366.727	24.313	0.214	0.176
-365.712	72.632	-0.140	0.145
-364.698	171.354	0.051	-0.072
-363.683	-200.000	0.010	0.119
-362.669	395.296	-0.048	-0.100
-361.654	60.016	-0.048	-0.047
-360.639	-69.091	0.041	-0.016
-359.625	430.155	0.115	0.246
-358.610	792.192	0.054	0.148
-357.596	384.479	-0.108	0.221
-356.581	-147.590	0.040	0.003
-355.566	91.530	0.090	-0.101
-354.552	28.719	0.107	0.090
-353.537	-200.000	-0.047	-0.218
-352.523	-88.283	0.380	0.113
-351.508	2.971	0.109	0.079
-350.493	-178.866	0.292	0.007
-349.479	-172.898	-0.354	-0.011
-348.464	117.273	-0.160	-0.196
-347.450	-15.082	0.181	0.115
-346.435	-82.655	-0.151	-0.049
-345.420	800.000	-0.044	0.125
-344.406	251.501	0.051	0.086
-343.391	-111.209	0.208	-0.042
-342.377	-200.000	0.006	0.058
-341.362	-33.215	-0.151	-0.083
-340.348	-83.462	-0.202	0.064
-339.333	-65.251	0.117	-0.047
-338.318	-200.000	-0.041	0.243
-337.304	800.000	-0.060	0.238
-336.289	-5.773	-0.184	-0.125
-335.275	-200.000	-0.017	0.103
-334.260	-27.854	0.211	0.121
-333.245	630.660	-0.067	-0.169
-332.231	489.987	0.085	0.192
-331.216	-124.136	0.340	0.053
-330.202	259.074	0.074	-0.127
-329.187	-200.000	0.030	0.190
-328.172	573.286	-0.125	0.301
-327.158	328.927	0.105	-0.200
-326.143	455.629	-0.150	-0.331
-325.129	-158.088	-0.057	0.003
-324.114	-186.243	-0.251	0.004
-323.099	-74.719	0.145	0.052
-322.085	800.000	0.091	0.338
-321.070	-29.588	-0.165	-0.094
-320.056	800.000	0.046	-0.152
-319.041	0.585	0.079	-0.056
-318.026	-118.315	-0.146	-0.026
-317.012	-109.315	0.165	0.035
-315.997	-20.915	0.238	-0.145
-314.983	-111.197	0.230	0.047
-313.968	-169.174	0.211	0.008
-312.953	-200.000	-0.055	0.313
-311.939	-146.532	-0.322	-0.028
-310.924	-160.071	0.155	0.008
-309.910	147.723	-0.136	0.181
-308.895	110.260	-0.117	-0.140
-307.880	115.754	-0.165	0.200
-306.866	-13.440	0.110	-0.071
-305.851	-50.068	0.289	-0.136
-304.837	88.498	0.150	-0.165
-303.822	214.767	-0.174	-0.274
-302.807	-129.850	0.072	0.010
-301.793	-53.189	0.158	-0.072
-300.778	274.557	-0.036	0.063
-299.764	115.725	0.176	0.214
-298.749	800.000	0.063	-0.181
-297.735	-3.037	-0.268	-0.186
-296.720	-200.000	0.035	0.241
-295.705	301.520	0.100	-0.183
-294.691	27.314	0.448	0.373
-293.676	380.363	-0.111	0.227
-292.662	116.918	0.055	-0.067
-291.647	-38.909	-0.112	0.058
-290.632	-81.627	0.091	0.030
-289.618	-84.439	-0.322	0.101
-288.603	138.553	0.063	0.082
-287.589	-81.858	0.013	0.004
-286.574	-114.193	0.230	-0.044
-285.559	-115.558	-0.196	-0.036
-284.545	-128.640	0.174	0.024
-283.530	-20.074	-0.427	0.261
-282.516	-86.564	0.024	0.007
-281.501	-200.000	-0.055	-0.436
-280.486	-120.030	0.267	0.045
-279.472	39.632	-0.029	0.026
-278.457	-69.479	-0.149	0.057
-277.443	-169.117	-0.372	0.014
-276.428	-200.000	0.034	0.273
-275.413	-54.920	0.406	0.181
-274.399	-10.811	0.086	0.057
-273.384	-84.808	0.155	-0.048
-272.370	-181.344	0.170	0.003
-271.355	-108.653	0.298	-0.063
-270.340	800.000	-0.109	0.313
-269.326	-75.069	-0.147	-0.052
-268.311	-69.555	-0.244	-0.092
-267.297	-163.601	0.277	0.013
-266.282	800.000	-0.032	-0.117
-265.267	123.108	-0.120	-0.149
-264.253	95.833	-0.340	-0.384
-263.238	-103.574	0.106	0.025
-262.224	-200.000	-0.030	0.281
-261.209	-200.000	0.002	0.227
-260.195	-200.000	0.002	-0.070
-259.180	116.045	0.100	-0.121
-258.165	800.000	-0.056	-0.228
-257.151	-27.989	-0.141	-0.081
-256.136	-19.071	-0.068	0.042
-255.122	-200.000	-0.047	0.331
-254.107	-148.727	0.331	-0.027
-253.092	800.000	0.016	-0.059
-252.078	-96.566	0.437	0.114
-251.063	-200.000	-0.050	0.479
-250.049	-200.000	0.043	-0.229
-249.034	-41.173	-0.212	0.108
-248.019	33.398	-0.403	0.346
-247.005	145.834	0.032	-0.042
-245.990	-94.539	0.092	0.025
-244.976	-200.000	-0.063	-0.279
-243.961	-22.500	0.106	-0.064
-242.946	-186.203	-0.212	-0.003
-241.932	-143.340	0.104	-0.010
-240.917	-44.129	-0.154	-0.076
-239.903	-200.000	0.045	0.238
-238.888	-200.000	0.009	0.131
-237.873	-44.856	-0.316	0.156
-236.859	261.680	-0.014	0.023
-235.844	-114.413	-0.525	0.100
-234.830	151.126	0.225	-0.303
-233.815	-36.223	-0.308	0.164
-232.800	517.847	0.086	0.199
-231.786	-167.567	-0.157	-0.006
-230.771	-200.000	0.028	0.215
-229.757	-200.000	0.012	0.096
-228.742	28.325	0.210	0.176
-227.727	289.758	-0.085	-0.153
-226.713	-112.621	-0.224	0.044
-225.698	-186.867	0.370	0.005
-224.684	21.401	-0.236	0.189
-223.669	95.933	0.119	-0.135
-222.655	-13.337	0.079	-0.051
-221.640	-1.167	0.066	-0.046
-220.625	505.493	-0.058	-0.133
-219.611	-200.000	0.270	0.000
-218.596	-170.320	-0.468	-0.016
-217.582	644.946	-0.137	-0.344
-216.567	800.000	0.037	-0.113
-215.552	-80.172	0.058	-0.019
-214.538	-52.117	0.291	-0.134
-213.523	-11.002	-0.438	-0.286
-212.509	-177.821	0.158	0.004
-211.494	-200.000	-0.041	0.228
-210.479	-127.569	0.114	0.016
-209.465	344.793	-0.155	0.301
-208.450	-188.220	0.170	0.002
-207.436	-160.425	0.077	0.004
-206.421	-2.851	0.070	-0.049
-205.406	620.457	-0.053	0.131
-204.392	619.556	-0.070	0.173
-203.377	-116.824	0.165	0.030
-202.363	72.009	0.150	-0.154
-201.348	46.301	-0.091	0.084
-200.333	348.270	-0.074	-0.144
-199.319	800.000	-0.027	-0.109
-198.304	-166.744	-0.038	0.002
-197.290	-61.445	-0.374	-0.155
-196.275	800.000	-0.120	-0.399
-195.260	168.062	0.063	0.089
-194.246	93.638	0.149	-0.167
-193.231	-200.000	-0.015	0.134
-192.217	-153.429	0.265	-0.018
-191.202	-39.265	0.210	0.109
-190.187	-43.108	0.146	-0.073
-189.173	-42.972	-0.139	-0.070
-188.158	800.000	-0.070	0.210
-187.144	94.607	0.120	0.135
-186.129	141.561	0.090	-0.117
-185.114	-71.091	0.266	0.099
-184.100	-49.034	0.133	-0.063
-183.085	60.465	-0.135	-0.132
-182.071	800.000	-0.028	-0.100
-181.056	22.293	-0.110	0.089
-180.042	145.746	-0.187	0.247
-179.027	-142.043	0.386	0.038
-178.012	23.867	-0.207	0.168
-176.998	504.203	-0.048	0.111
-175.983	477.093	0.061	0.136
-174.969	-50.307	-0.064	-0.030
-173.954	-59.204	-0.175	0.074
-172.939	12.902	0.327	-0.249
-171.925	91.333	0.200	0.222
-170.910	21.590	0.127	-0.102
-169.896	168.852	-0.114	-0.160
-168.881	-200.000	0.006	-0.166
-167.866	800.000	-0.050	-0.149
-166.852	-178.450	0.203	0.005
-165.837	31.997	0.162	0.138
-164.823	800.000	0.094	0.294
-163.808	242.454	-0.072	-0.119
-162.793	-56.983	-0.176	-0.077
-161.779	-11.942	0.297	-0.192
-160.764	800.000	-0.070	-0.196
-159.750	313.378	-0.015	-0.029
-158.735	-200.000	-0.035	0.159
-157.720	800.000	0.092	-0.303
-156.706	-70.177	-0.161	0.060
-155.691	-33.913	0.167	0.090
-154.677	-114.377	0.435	-0.083
-153.662	462.923	-0.101	0.222
-152.647	800.000	-0.061	-0.189
-151.633	-200.000	-0.000	0.113
-150.618	-32.199	-0.068	0.037
-149.604	-137.920	0.164	0.018
-148.589	-144.894	0.242	0.022
-147.574	800.000	0.047	0.134
-146.560	235.608	-0.077	0.126
-145.545	143.222	-0.151	-0.198
-144.531	-124.395	0.084	-0.013
-143.516	22.468	-0.031	0.025
-142.502	-115.863	0.089	0.016
-141.487	95.554	0.092	-0.104
-140.472	-200.000	0.024	0.108
-139.458	-82.539	-0.250	-0.080
-138.443	-14.731	0.310	-0.196
-137.429	-200.000	-0.002	-0.164
-136.414	17.663	0.091	-0.071
-135.399	-10.746	0.152	0.099
-134.385	307.539	-0.093	-0.170
-133.370	-200.000	0.068	0.345
-132.356	800.000	-0.059	-0.185
-131.341	-110.623	0.217	-0.044
-130.326	324.200	-0.137	0.258
-129.312	608.885	0.118	-0.290
-128.297	-156.069	-0.087	0.005
-127.283	800.000	-0.080	-0.227
-126.268	54.816	-0.086	-0.082
-125.253	-200.000	-0.073	-0.439
-124.239	-200.000	0.010	-0.170
-123.224	-200.000	-0.001	-0.128
-122.210	-19.947	0.243	0.148
-121.195	677.842	-0.094	-0.240
