DTS Sentinel unit serial number:	SN413079Multiplexer serial number:	ORYXHardware model number:	OX4-SRSoftware version number:	ORYX F/W v4.00 Oryx Data Collector v3.7.2.0data status	okinstallation	princeton_trtdifferential loss correction	single-endedforward channel	channel 1reverse channel	N/Adate	2019/09/10time	19:48:11forward acquisition time	60.00reverse acquisition time	0.00gamma	496.2192k internal	0.2322k external	0.2322temperature offset calibration	0.9934default loss term (dB/km)	0.3790temperature slope calibration	1.0000multiplexer offset coefficient	1.0000multiplexer slope coefficient	1.0000fibre end	0.00T internal ref (°C)	32.94T ext. ref 1 (°C)	-0.31T ext. ref 2 (°C)	25.69length (m)	temperature (°C)	Stokes	anti-Stokes-747.200	-127.609	0.106	0.015
-746.185	-12.977	-0.159	0.105
-745.171	1.005	-0.176	-0.127
-744.156	-60.047	0.295	0.127
-743.142	-171.295	0.079	0.003
-742.127	614.208	-0.185	0.469
-741.112	61.399	-0.078	0.079
-740.098	223.944	-0.069	0.113
-739.083	78.403	-0.164	0.177
-738.069	800.000	-0.111	0.446
-737.054	246.664	0.131	0.223
-736.039	-62.737	-0.118	-0.049
-735.025	-164.880	-0.272	0.012
-734.010	-8.199	-0.304	0.207
-732.996	-200.000	0.015	0.174
-731.981	-200.000	0.014	0.259
-730.966	63.024	-0.247	-0.250
-729.952	4.655	0.170	0.126
-728.937	-62.766	-0.446	-0.186
-727.923	-25.460	-0.224	-0.133
-726.908	-200.000	-0.027	-0.333
-725.894	46.673	-0.412	0.387
-724.879	72.634	-0.121	0.127
-723.864	21.651	-0.233	-0.192
-722.850	-200.000	-0.043	-0.370
-721.835	453.806	0.054	0.122
-720.821	-58.195	-0.183	-0.080
-719.806	17.367	-0.129	0.104
-718.791	318.826	-0.060	-0.115
-717.777	-144.621	-0.197	-0.018
-716.762	-131.487	-0.173	0.023
-715.748	644.417	-0.065	0.167
-714.733	-110.687	-0.305	0.064
-713.718	460.929	0.032	-0.072
-712.704	-137.199	0.171	0.020
-711.689	9.958	0.115	0.088
-710.675	-200.000	0.016	0.181
-709.660	318.881	-0.016	0.031
-708.645	-200.000	0.056	-0.430
-707.631	-65.505	-0.263	0.107
-706.616	-118.805	-0.259	0.046
-705.602	800.000	0.033	0.140
-704.587	-92.185	0.067	0.019
-703.572	-151.200	-0.328	0.025
-702.558	-200.000	-0.026	0.173
-701.543	-50.965	0.197	0.093
-700.529	123.309	0.084	0.106
-699.514	99.230	-0.078	0.091
-698.499	800.000	-0.053	-0.199
-697.485	800.000	-0.057	-0.212
-696.470	-200.000	0.016	-0.198
-695.456	800.000	0.104	-0.311
-694.441	-11.847	-0.156	0.103
-693.426	-92.617	0.186	-0.052
-692.412	300.127	-0.090	0.167
-691.397	-93.355	-0.147	0.041
-690.383	-200.000	-0.011	-0.381
-689.368	-200.000	0.015	-0.118
-688.354	-126.434	-0.147	-0.022
-687.339	-130.491	-0.347	-0.047
-686.324	18.997	0.095	0.077
-685.310	800.000	-0.062	0.188
-684.295	171.653	-0.037	-0.053
-683.281	90.496	-0.249	-0.281
-682.266	319.564	-0.056	-0.107
-681.251	-200.000	-0.015	-0.236
-680.237	800.000	-0.011	-0.045
-679.222	-33.549	-0.283	0.158
-678.208	56.134	0.043	0.042
-677.193	-79.278	-0.075	-0.026
-676.178	66.066	-0.088	0.090
-675.164	-200.000	-0.787	-0.004
-674.149	-200.000	-0.014	-0.467
-673.135	-200.000	-0.033	0.173
-672.120	-120.724	-0.102	-0.017
-671.105	13.321	0.321	-0.251
-670.091	800.000	0.100	-0.282
-669.076	-156.982	-0.371	0.023
-668.062	-98.580	-0.312	-0.080
-667.047	800.000	0.046	-0.145
-666.032	424.641	0.169	-0.367
-665.018	-61.912	-0.290	-0.122
-664.003	-108.820	-0.148	-0.032
-662.989	-19.115	0.275	-0.172
-661.974	-2.231	0.055	-0.039
-660.959	-200.000	-0.178	-0.001
-659.945	122.435	-0.249	-0.313
-658.930	-59.491	-0.132	-0.057
-657.916	-200.000	0.037	-0.216
-656.901	-3.189	0.293	0.206
-655.886	282.854	0.087	0.157
-654.872	157.539	0.023	-0.033
-653.857	800.000	0.037	-0.149
-652.843	-200.000	0.020	0.097
-651.828	-19.180	-0.241	-0.150
-650.814	-163.361	-0.149	-0.007
-649.799	-20.038	0.266	0.165
-648.784	-200.000	0.012	-0.214
-647.770	-200.000	0.084	-0.377
-646.755	123.394	-0.205	-0.258
-645.741	432.221	0.095	-0.208
-644.726	-200.000	0.067	-0.298
-643.711	205.383	0.139	-0.218
-642.697	-41.658	0.286	0.148
-641.682	69.398	-0.189	0.196
-640.668	-93.532	0.308	0.086
-639.653	-200.000	0.060	0.374
-638.638	-127.560	0.262	0.038
-637.624	-52.102	-0.148	-0.069
-636.609	800.000	-0.039	-0.154
-635.595	-200.000	-0.010	-0.334
-634.580	362.689	-0.102	0.206
-633.565	-159.450	0.217	0.012
-632.551	-200.000	0.010	-0.217
-631.536	72.300	0.111	-0.116
-630.522	-49.964	0.252	0.120
-629.507	-200.000	-0.007	-0.206
-628.492	411.479	0.034	-0.072
-627.478	300.701	0.045	0.083
-626.463	-88.028	-0.170	-0.051
-625.449	-23.234	-0.223	-0.135
-624.434	800.000	-0.061	-0.176
-623.419	-152.194	0.181	0.013
-622.405	59.143	0.214	-0.211
-621.390	314.880	0.153	0.289
-620.376	-200.000	0.005	-0.073
-619.361	-118.240	-0.164	-0.029
-618.346	-19.647	0.392	0.244
-617.332	-200.000	-0.030	-0.496
-616.317	-36.289	0.426	-0.231
-615.303	-48.503	0.078	-0.038
-614.288	-3.715	0.330	0.230
-613.273	123.252	0.168	0.211
-612.259	-100.061	-0.252	0.063
-611.244	75.174	-0.323	-0.342
-610.230	-200.000	-0.050	0.509
-609.215	462.278	0.094	-0.211
-608.201	-38.835	-0.242	0.128
-607.186	-107.081	0.129	-0.029
-606.171	800.000	0.040	0.144
-605.157	282.419	0.125	-0.225
-604.142	-148.855	-0.267	-0.022
-603.128	39.722	-0.096	-0.086
-602.113	785.147	0.091	-0.251
-601.098	-200.000	0.007	-0.088
-600.084	207.493	-0.202	-0.317
-599.069	386.474	-0.113	0.234
-598.055	-200.000	-0.032	-0.226
-597.040	-200.000	0.052	0.362
-596.025	-135.759	0.045	0.005
-595.011	27.396	-0.227	-0.191
-593.996	-200.000	0.032	-0.256
-592.982	-93.067	-0.228	-0.064
-591.967	-174.635	0.186	0.005
-590.952	654.548	-0.087	-0.225
-589.938	176.263	-0.385	0.562
-588.923	-54.407	-0.165	-0.075
-587.909	-48.827	-0.021	0.010
-586.894	-92.307	-0.213	0.060
-585.879	-200.000	0.112	0.644
-584.865	-51.134	0.410	0.193
-583.850	115.799	-0.122	-0.150
-582.836	-27.041	0.305	0.179
-581.821	176.066	0.249	-0.364
-580.806	-26.076	0.197	-0.116
-579.792	92.895	-0.117	0.132
-578.777	264.648	-0.075	0.131
-577.763	41.382	-0.240	0.218
-576.748	-72.685	-0.424	-0.157
-575.733	-200.000	0.014	-0.327
-574.719	20.464	-0.228	0.185
-573.704	-200.000	-0.028	0.260
-572.690	-114.011	0.138	0.027
-571.675	138.978	0.111	-0.147
-570.661	601.442	-0.049	0.121
-569.646	800.000	0.028	-0.113
-568.631	-81.393	-0.192	0.064
-567.617	242.536	-0.148	0.249
-566.602	-200.000	-0.008	0.153
-565.588	-200.000	-0.000	0.279
-564.573	394.346	-0.141	0.295
-563.558	-200.000	-0.025	0.229
-562.544	-100.012	0.103	0.026
-561.529	226.438	-0.120	0.195
-560.515	77.946	0.199	-0.213
-559.500	-151.006	0.219	0.017
-558.485	415.574	-0.015	-0.031
-557.471	-37.774	-0.346	0.184
-556.456	-49.540	-0.106	0.050
-555.442	270.617	0.158	-0.278
-554.427	-129.799	-0.108	-0.015
-553.412	-200.000	0.057	-0.260
-552.398	-145.995	0.409	-0.036
-551.383	-200.000	0.031	-0.162
-550.369	-200.000	0.071	0.000
-549.354	-78.789	-0.105	-0.036
-548.339	-200.000	0.023	-0.484
-547.325	-200.000	0.045	-0.438
-546.310	-111.630	0.306	0.062
-545.296	-78.841	0.147	0.050
-544.281	-179.659	0.628	0.014
-543.266	-95.371	-0.206	-0.055
-542.252	169.227	0.045	0.064
-541.237	-200.000	0.015	-0.429
-540.223	-9.485	-0.262	-0.175
-539.208	64.445	-0.209	-0.211
-538.193	680.527	-0.037	-0.096
-537.179	-200.000	0.001	0.337
-536.164	-91.601	-0.211	-0.060
-535.150	342.553	-0.209	-0.410
-534.135	-49.813	-0.117	0.056
-533.121	-80.731	0.390	-0.130
-532.106	-117.376	0.293	-0.053
-531.091	-200.000	0.003	-0.181
-530.077	590.982	0.207	0.511
-529.062	800.000	-0.072	0.250
-528.048	-31.259	-0.360	0.203
-527.033	308.911	0.043	-0.081
-526.018	392.276	0.104	0.217
-525.004	800.000	-0.063	0.242
-523.989	-37.517	0.175	-0.094
-522.975	1.317	-0.091	-0.066
-521.960	392.790	0.184	0.382
-520.945	479.237	-0.083	-0.189
-519.931	3.055	0.277	0.202
-518.916	-64.857	0.173	-0.070
-517.902	19.655	0.045	0.036
-516.887	-200.000	-0.040	0.178
-515.872	16.763	-0.247	0.196
-514.858	-95.538	-0.460	0.124
-513.843	109.702	-0.206	-0.247
-512.829	444.678	0.017	0.036
-511.814	-200.000	-0.057	-0.291
-510.799	-200.000	0.010	-0.220
-509.785	9.873	0.200	0.152
-508.770	-1.771	0.248	-0.175
-507.756	631.241	0.179	-0.452
-506.741	29.581	-0.102	-0.087
-505.726	-88.207	-0.208	0.062
-504.712	-69.496	-0.156	0.060
-503.697	92.483	0.256	-0.289
-502.683	4.499	0.123	-0.091
-501.668	494.318	-0.088	0.203
-500.653	-136.161	0.045	-0.005
-499.639	612.759	-0.028	-0.071
-498.624	245.394	-0.153	-0.258
-497.610	11.646	-0.376	0.289
-496.595	-1.375	0.142	-0.100
-495.581	44.484	0.107	-0.098
-494.566	-81.436	-0.235	-0.077
-493.551	57.501	-0.161	-0.158
-492.537	800.000	-0.103	0.309
-491.522	800.000	0.070	0.202
-490.508	591.185	-0.114	0.282
-489.493	13.141	0.183	0.141
-488.478	-108.742	-0.146	-0.031
-487.464	-200.000	0.037	-0.211
-486.449	-200.000	0.017	0.102
-485.435	-103.298	0.295	0.070
-484.420	-109.327	-0.222	-0.047
-483.405	-93.998	-0.139	0.038
-482.391	433.153	0.091	0.197
-481.376	-200.000	0.013	0.309
-480.362	138.134	0.127	-0.167
-479.347	328.062	-0.259	-0.498
-478.332	-20.555	0.122	-0.075
-477.318	140.171	-0.056	-0.074
-476.303	-21.078	0.102	0.063
-475.289	800.000	0.076	0.273
-474.274	67.150	0.125	-0.127
-473.259	177.691	-0.236	-0.344
-472.245	-26.405	-0.140	-0.082
-471.230	-91.743	0.116	0.033
-470.216	-158.119	0.141	0.008
-469.201	-59.365	-0.103	-0.044
-468.186	41.768	-0.119	-0.108
-467.172	-200.000	0.000	-0.180
-466.157	49.815	-0.212	0.200
-465.143	-72.991	-0.129	-0.047
-464.128	-159.974	0.102	-0.006
-463.113	-160.411	-0.357	-0.019
-462.099	-88.535	0.358	0.107
-461.084	800.000	0.041	-0.178
-460.070	-69.450	0.335	-0.128
-459.055	-169.032	0.239	0.009
-458.040	152.177	-0.216	-0.294
-457.026	31.100	-0.344	0.295
-456.011	-40.277	0.287	0.149
-454.997	61.703	-0.179	0.177
-453.982	200.701	-0.137	-0.210
-452.968	93.599	-0.105	0.118
-451.953	-59.591	0.073	0.031
-450.938	-154.510	0.243	-0.016
-449.924	-200.000	-0.049	-0.303
-448.909	268.453	-0.019	-0.033
-447.895	775.594	-0.078	-0.214
-446.880	-4.694	0.103	-0.071
-445.865	-49.056	-0.128	-0.061
-444.851	230.507	0.082	0.135
-443.836	-200.000	0.054	0.491
-442.822	-86.352	0.071	0.022
-441.807	800.000	-0.061	-0.197
-440.792	-50.366	0.140	0.066
-439.778	800.000	-0.082	0.252
-438.763	-22.129	-0.134	-0.081
-437.749	138.315	0.111	-0.145
-436.734	800.000	-0.069	-0.251
-435.719	-145.675	0.301	0.027
-434.705	-122.763	0.222	0.036
-433.690	14.931	-0.237	-0.185
-432.676	-90.833	0.207	-0.059
-431.661	-200.000	0.007	0.217
-430.646	-7.123	0.079	-0.054
-429.632	-113.061	0.119	0.023
-428.617	-199.210	0.113	-0.001
-427.603	85.777	0.138	-0.151
-426.588	776.451	0.088	-0.239
-425.573	332.880	-0.050	0.097
-424.559	2.519	-0.260	0.188
-423.544	-17.564	0.166	0.104
-422.530	-7.380	-0.223	0.151
-421.515	50.885	0.078	0.073
-420.500	-126.676	0.253	-0.037
-419.486	-26.081	0.136	0.080
-418.471	75.822	0.204	0.215
-417.457	-42.670	-0.098	-0.050
-416.442	155.642	0.160	0.220
-415.428	532.697	-0.085	0.200
-414.413	62.456	0.122	-0.122
-413.398	800.000	-0.014	-0.042
-412.384	-86.926	-0.213	-0.065
-411.369	-104.853	0.223	-0.051
-410.355	-69.795	-0.063	0.024
-409.340	-200.000	0.016	0.109
-408.325	-95.669	-0.132	-0.035
-407.311	-200.000	-0.015	0.115
-406.296	-18.709	-0.243	0.151
-405.282	-200.000	-0.076	0.373
-404.267	-199.363	-0.140	0.001
-403.252	-161.472	-0.216	0.011
-402.238	800.000	0.102	-0.323
-401.223	470.829	0.090	0.201
-400.209	-200.000	-0.052	-0.254
-399.194	176.312	-0.215	-0.312
-398.179	-128.968	-0.203	-0.028
-397.165	363.369	0.094	-0.188
-396.150	800.000	-0.023	-0.088
-395.136	800.000	0.015	0.042
-394.121	-37.287	-0.130	0.069
-393.106	500.753	-0.154	-0.354
-392.092	573.915	-0.095	0.232
-391.077	25.884	-0.454	0.377
-390.063	-200.000	-0.027	0.133
-389.048	-130.913	0.092	-0.012
-388.033	170.614	-0.105	-0.149
-387.019	210.871	0.116	-0.181
-386.004	-71.258	0.105	-0.039
-384.990	565.374	0.107	-0.258
-383.975	-200.000	-0.008	0.041
-382.960	-200.000	0.027	-0.202
-381.946	-200.000	0.029	0.148
-380.931	-200.000	0.066	0.330
-379.917	23.104	0.150	0.123
-378.902	-92.765	-0.155	0.043
-377.888	335.249	-0.094	-0.182
-376.873	109.852	0.155	-0.185
-375.858	257.749	0.139	-0.238
-374.844	155.494	-0.034	0.046
-373.829	-0.904	0.106	0.075
-372.815	-21.619	0.354	-0.215
-371.800	5.742	-0.267	0.197
-370.785	123.174	0.100	-0.125
-369.771	-155.127	-0.260	0.017
-368.756	-39.562	-0.164	-0.085
-367.742	109.568	-0.207	0.247
-366.727	-140.212	0.220	0.023
-365.712	-200.000	0.042	0.322
-364.698	303.927	-0.117	0.216
-363.683	-87.161	0.221	-0.067
-362.669	40.193	0.118	0.106
-361.654	800.000	0.017	-0.048
-360.639	557.408	-0.073	0.174
-359.625	-87.024	-0.214	-0.065
-358.610	1.456	0.113	-0.081
-357.596	30.246	-0.280	-0.238
-356.581	-200.000	-0.013	-0.234
-355.566	336.087	0.119	-0.230
-354.552	-21.063	0.343	-0.209
-353.537	165.231	-0.080	0.113
-352.523	-146.716	-0.311	-0.027
-351.508	-114.831	-0.161	-0.030
-350.493	598.951	0.044	-0.108
-349.479	-200.000	-0.014	0.093
-348.464	75.830	-0.095	0.100
-347.450	590.209	0.125	0.308
-346.435	120.660	0.235	0.290
-345.420	-94.012	-0.216	0.059
-344.406	-64.128	-0.225	-0.091
-343.391	141.538	0.144	-0.190
-342.377	99.581	-0.145	0.167
-341.362	800.000	-0.028	0.116
-340.348	510.658	-0.124	0.288
-339.333	121.864	-0.363	0.450
-338.318	800.000	-0.060	0.233
-337.304	129.323	-0.158	-0.201
-336.289	42.826	0.204	-0.185
-335.275	-74.000	-0.055	0.020
-334.260	-83.797	-0.044	0.014
-333.245	48.898	0.300	-0.280
-332.231	-122.751	-0.589	-0.095
-331.216	-200.000	-0.041	0.260
-330.202	-22.438	-0.296	-0.178
-329.187	-110.299	-0.076	-0.016
-328.172	-112.825	-0.095	0.019
-327.158	-73.715	0.280	0.101
-326.143	312.079	-0.157	0.293
-325.129	-61.245	0.276	0.116
-324.114	-105.297	-0.268	0.061
-323.099	20.826	-0.203	-0.164
-322.085	800.000	-0.009	-0.030
-321.070	-200.000	-0.030	0.186
-320.056	208.064	0.175	0.271
-319.041	800.000	-0.021	0.071
-318.026	24.924	-0.120	-0.099
-317.012	19.016	0.230	0.183
-315.997	-37.117	-0.030	0.016
-314.983	-134.167	-0.098	0.012
-313.968	-97.110	0.127	0.033
-312.953	145.909	-0.299	0.398
-311.939	-200.000	-0.013	0.107
-310.924	505.272	0.059	0.136
-309.910	800.000	-0.148	-0.461
-308.895	-13.755	0.165	0.106
-307.880	-58.684	-0.073	0.031
-306.866	800.000	-0.027	0.113
-305.851	17.472	-0.221	0.174
-304.837	-200.000	-0.001	-0.169
-303.822	-24.748	0.153	0.090
-302.807	101.937	-0.221	-0.256
-301.793	292.552	-0.158	0.286
-300.778	-118.570	-0.105	-0.018
-299.764	645.561	0.068	-0.173
-298.749	-200.000	0.018	0.253
-297.735	107.388	0.167	0.197
-296.720	-95.739	-0.200	-0.053
-295.705	26.910	-0.092	-0.077
-294.691	-59.833	-0.209	0.089
-293.676	-137.702	-0.066	0.007
-292.662	-151.371	-0.309	0.023
-291.647	292.249	-0.163	-0.295
-290.632	-72.487	0.079	0.029
-289.618	156.622	0.072	0.098
-288.603	6.341	0.191	0.141
-287.589	69.641	-0.153	0.157
-286.574	800.000	-0.151	-0.506
-285.559	800.000	-0.087	-0.268
-284.545	203.882	0.056	-0.086
-283.530	-1.016	0.379	-0.266
-282.516	574.401	0.046	-0.112
-281.501	-200.000	-0.060	-0.322
-280.486	-200.000	0.057	-0.276
-279.472	205.783	0.115	-0.177
-278.457	268.440	-0.057	0.098
-277.443	-121.699	-0.180	0.030
-276.428	-200.000	0.002	-0.019
-275.413	1.443	0.208	0.148
-274.399	-78.961	-0.302	-0.102
-273.384	800.000	0.068	-0.196
-272.370	-19.539	0.060	-0.037
-271.355	-3.290	0.231	-0.160
-270.340	-152.630	0.357	0.025
-269.326	-79.578	-0.341	0.114
-268.311	52.374	0.103	0.097
-267.297	-200.000	-0.001	0.404
-266.282	800.000	0.022	0.085
-265.267	-114.671	-0.219	-0.042
-264.253	800.000	0.061	0.222
-263.238	-83.995	0.153	0.048
-262.224	-129.921	0.249	0.034
-261.209	-110.495	-0.192	0.039
-260.195	66.768	-0.123	-0.124
-259.180	10.175	-0.192	0.145
-258.165	-124.523	0.366	-0.056
-257.151	-200.000	0.018	0.124
-256.136	-200.000	-0.023	-0.172
-255.122	-127.269	0.202	0.029
-254.107	-153.365	-0.140	0.010
-253.092	-172.010	0.186	-0.006
-252.078	196.829	0.106	0.160
-251.063	800.000	0.106	-0.402
-250.049	62.035	0.126	0.125
-249.034	-200.000	-0.003	-0.023
-248.019	800.000	-0.087	-0.346
-247.005	-98.689	0.109	0.027
-245.990	245.405	0.139	0.232
-244.976	487.314	-0.151	0.342
-243.961	800.000	-0.069	-0.202
-242.946	169.447	0.078	-0.110
-241.932	-120.652	0.028	-0.005
-240.917	800.000	0.094	0.272
-239.903	-195.769	0.103	0.001
-238.888	-200.000	0.094	0.518
-237.873	800.000	0.054	0.197
-236.859	-93.781	0.150	0.041
-235.844	472.526	-0.044	-0.099
-234.830	-119.425	-0.052	-0.009
-233.815	-200.000	-0.012	-0.238
-232.800	-82.442	0.069	-0.022
-231.786	156.506	0.172	0.235
-230.771	180.721	-0.172	-0.251
-229.757	84.681	0.102	0.111
-228.742	-127.500	0.250	-0.036
-227.727	-171.136	-0.364	0.012
-226.713	64.783	0.091	0.091
-225.698	-74.023	-0.070	0.025
-224.684	-37.000	0.125	0.066
-223.669	-105.932	0.236	-0.053
-222.655	72.524	0.088	-0.090
-221.640	57.443	0.104	0.101
-220.625	-63.440	-0.255	-0.104
-219.611	-160.274	0.200	-0.011
-218.596	109.602	0.052	0.062
-217.582	-200.000	-0.019	-0.138
-216.567	152.000	0.354	0.477
-215.552	34.910	-0.161	-0.140
-214.538	800.000	-0.015	-0.050
-213.523	112.018	-0.039	-0.047
-212.509	-200.000	-0.038	0.225
-211.494	-94.808	0.366	0.098
-210.479	15.338	-0.446	-0.346
-209.465	-104.179	0.114	0.026
-208.450	372.255	-0.103	0.208
-207.436	108.452	-0.263	-0.311
-206.421	232.041	-0.072	0.116
-205.406	-115.805	-0.185	0.034
-204.392	-56.890	-0.079	0.035
-203.377	-88.785	-0.169	-0.050
-202.363	513.702	0.063	0.146
-201.348	159.110	0.065	0.090
-200.333	225.544	0.129	0.207
-199.319	525.541	0.091	0.212
-198.304	488.817	-0.070	0.157
-197.290	55.889	0.168	0.161
-196.275	60.813	-0.413	-0.405
-195.260	-68.231	0.192	-0.074
-194.246	7.044	0.125	0.092
-193.231	246.510	-0.059	-0.098
-192.217	122.725	-0.141	0.175
-191.202	80.384	0.099	-0.105
-190.187	532.770	-0.077	-0.181
-189.173	439.446	-0.025	-0.054
-188.158	800.000	-0.022	0.065
-187.144	-140.449	-0.257	-0.026
-186.129	42.642	0.265	0.238
-185.114	-0.585	0.218	0.153
-184.100	-41.549	0.236	0.120
-183.085	-200.000	-0.015	-0.213
-182.071	101.368	-0.126	-0.145
-181.056	-99.602	0.250	0.062
-180.042	-200.000	-0.022	-0.334
-179.027	-97.505	0.174	0.045
-178.012	800.000	-0.047	0.185
-176.998	562.121	-0.030	0.071
-175.983	-155.364	-0.253	-0.016
-174.969	-64.916	-0.218	-0.087
-173.954	-63.277	0.295	0.120
-172.939	281.951	-0.098	-0.174
-171.925	-13.571	0.073	0.047
-170.910	458.051	0.122	-0.268
-169.896	-112.917	0.282	0.055
-168.881	-94.577	-0.237	0.064
-167.866	-14.157	0.284	-0.181
-166.852	-200.000	0.010	-0.045
-165.837	8.552	0.189	-0.141
-164.823	166.668	-0.079	0.111
-163.808	1.946	-0.172	0.122
-162.793	800.000	0.063	0.265
-161.779	-200.000	0.053	0.323
-160.764	-176.956	0.030	-0.001
-159.750	205.182	-0.053	0.081
-158.735	-90.603	-0.153	0.044
-157.720	-200.000	-0.049	-0.280
-156.706	-121.168	-0.093	-0.015
-155.691	53.676	-0.148	-0.141
-154.677	143.156	0.122	0.160
-153.662	103.411	0.021	0.024
-152.647	-200.000	0.002	-0.121
-151.633	-86.959	0.152	-0.046
-150.618	800.000	0.026	-0.074
-149.604	-109.418	0.092	0.019
-148.589	53.444	0.147	-0.139
-147.574	-97.750	-0.419	0.107
-146.560	-54.677	-0.182	0.081
-145.545	-24.367	0.136	-0.080
-144.531	-32.722	-0.117	0.064
-143.516	-33.426	-0.168	-0.092
-142.502	19.841	-0.021	-0.016
-141.487	800.000	0.040	0.170
-140.472	300.881	-0.054	0.098
-139.458	-44.206	0.345	0.170
-138.443	-124.109	-0.259	0.040
-137.429	70.466	-0.124	-0.127
-136.414	-78.232	0.324	0.110
-135.399	12.654	-0.077	0.059
-134.385	72.670	-0.260	0.268
-133.370	-31.202	0.229	-0.127
-132.356	-200.000	-0.012	-0.243
-131.341	-88.514	0.148	0.043
-130.326	76.180	-0.257	0.269
-129.312	800.000	0.070	-0.228
-128.297	-111.624	-0.649	-0.130
-127.283	247.016	0.106	-0.176
-126.268	33.631	-0.055	-0.047
-125.253	-19.073	-0.201	0.123
-124.239	-10.515	0.045	-0.029
-123.224	-145.825	-0.042	0.004
-122.210	-167.201	0.070	0.003
-121.195	167.472	-0.161	0.226
