DTS Sentinel unit serial number:	SN413079Multiplexer serial number:	ORYXHardware model number:	OX4-SRSoftware version number:	ORYX F/W v4.00 Oryx Data Collector v3.7.2.0data status	okinstallation	princeton_trtdifferential loss correction	single-endedforward channel	channel 1reverse channel	N/Adate	2019/09/12time	18:38:34forward acquisition time	15.00reverse acquisition time	0.00gamma	496.2192k internal	0.2318k external	0.2318temperature offset calibration	1.0103default loss term (dB/km)	0.3790temperature slope calibration	1.0000multiplexer offset coefficient	1.0000multiplexer slope coefficient	1.0000fibre end	0.00T internal ref (°C)	33.12T ext. ref 1 (°C)	2.95T ext. ref 2 (°C)	27.71length (m)	temperature (°C)	Stokes	anti-Stokes-747.200	106.122	0.390	0.468
-746.185	800.000	-0.081	-0.255
-745.171	800.000	-0.041	-0.173
-744.156	6.489	0.232	0.175
-743.142	247.374	0.426	-0.728
-742.127	-141.666	-0.379	0.039
-741.112	-21.024	0.555	0.344
-740.098	-200.000	-0.100	0.821
-739.083	800.000	-0.197	-0.586
-738.069	397.998	0.047	-0.099
-737.054	241.498	0.067	0.113
-736.039	179.601	0.292	-0.432
-735.025	800.000	-0.081	0.300
-734.010	241.439	-0.487	0.823
-732.996	-150.131	-0.375	0.029
-731.981	507.646	-0.225	0.528
-730.966	-200.000	-0.023	-0.340
-729.952	31.621	0.737	-0.641
-728.937	-126.959	0.546	0.081
-727.923	-73.875	0.496	-0.182
-726.908	98.901	-0.193	-0.225
-725.894	800.000	-0.241	-0.698
-724.879	-33.972	0.393	0.219
-723.864	92.798	-0.441	-0.504
-722.850	-137.891	0.783	0.088
-721.835	-114.170	0.576	0.113
-720.821	-62.484	-0.398	0.167
-719.806	-28.022	0.620	-0.363
-718.791	430.113	0.121	-0.264
-717.777	119.785	-0.197	-0.247
-716.762	710.516	-0.309	0.825
-715.748	-200.000	0.129	-0.693
-714.733	250.162	-0.277	0.476
-713.718	-200.000	-0.023	-0.394
-712.704	-86.099	0.522	0.163
-711.689	800.000	0.135	-0.518
-710.675	-153.148	0.656	0.046
-709.660	-11.020	-0.783	0.522
-708.645	-200.000	0.021	0.408
-707.631	-129.997	0.409	0.057
-706.616	-200.000	-0.061	0.754
-705.602	-69.429	0.523	0.203
-704.587	-200.000	0.162	1.022
-703.572	-87.660	0.147	-0.045
-702.558	361.199	0.013	0.025
-701.543	800.000	-0.084	-0.331
-700.529	-94.047	0.380	-0.105
-699.514	135.351	-0.865	1.137
-698.499	-200.000	0.019	0.117
-697.485	-5.659	-0.317	0.219
-696.470	225.998	-0.233	0.382
-695.456	800.000	-0.128	-0.492
-694.441	44.662	0.401	-0.372
-693.426	121.149	0.412	-0.518
-692.412	-200.000	0.037	0.244
-691.397	-200.000	0.145	-0.908
-690.383	-200.000	-0.081	-0.511
-689.368	73.390	0.012	0.013
-688.354	-76.147	0.659	0.235
-687.339	-200.000	-0.064	0.418
-686.324	-52.970	-0.562	-0.261
-685.310	-153.157	-0.352	0.025
-684.295	-15.675	-0.239	-0.154
-683.281	-2.687	0.793	0.560
-682.266	27.644	0.592	0.503
-681.251	1.325	-0.893	0.648
-680.237	73.921	-0.243	0.257
-679.222	-176.382	-0.256	-0.007
-678.208	-119.336	-0.257	-0.045
-677.193	-200.000	0.053	-0.923
-676.178	800.000	-0.107	0.339
-675.164	-200.000	0.451	0.000
-674.149	-112.051	-0.460	0.093
-673.135	-200.000	0.070	-0.908
-672.120	-200.000	-0.025	0.881
-671.105	-200.000	-0.052	-0.375
-670.091	-75.815	0.600	0.215
-669.076	107.771	0.549	-0.660
-668.062	-27.468	0.264	0.155
-667.047	74.081	-0.179	0.190
-666.032	800.000	0.249	0.753
-665.018	-181.541	-0.375	0.007
-664.003	-200.000	0.078	-0.546
-662.989	-200.000	0.199	-1.530
-661.974	800.000	-0.218	0.754
-660.959	118.368	0.135	-0.168
-659.945	-200.000	0.046	0.369
-658.930	-71.243	-0.163	-0.062
-657.916	800.000	0.219	-0.695
-656.901	-118.360	-0.468	0.084
-655.886	457.910	0.189	0.424
-654.872	-82.968	-0.559	-0.182
-653.857	800.000	0.299	-1.088
-652.843	71.574	-0.638	-0.669
-651.828	-125.075	-0.717	-0.111
-650.814	67.110	-0.160	0.164
-649.799	79.987	-0.314	-0.340
-648.784	164.073	-0.486	-0.691
-647.770	-69.569	-0.671	-0.259
-646.755	49.632	0.473	0.449
-645.741	82.316	-0.299	0.327
-644.726	-200.000	0.035	0.417
-643.711	140.249	-0.336	-0.447
-642.697	139.992	-0.389	-0.517
-641.682	-106.162	0.201	0.045
-640.668	26.698	-0.278	0.234
-639.653	58.061	0.684	-0.675
-638.638	-141.414	0.404	0.041
-637.624	711.012	-0.160	-0.428
-636.609	-60.952	0.226	-0.096
-635.595	26.863	0.317	-0.268
-634.580	309.988	-0.233	-0.439
-633.565	-51.476	-0.312	0.147
-632.551	42.764	-0.264	0.243
-631.536	-7.799	0.199	0.135
-630.522	800.000	-0.077	0.263
-629.507	-123.990	-0.417	-0.066
-628.492	-200.000	0.002	0.200
-627.478	133.048	-0.529	0.689
-626.463	-87.895	0.678	0.205
-625.449	-62.202	0.350	-0.147
-624.434	675.377	-0.237	0.621
-623.419	-116.708	0.552	-0.102
-622.405	300.809	-0.330	-0.614
-621.390	-145.810	0.203	0.018
-620.376	-51.994	0.543	0.254
-619.361	776.400	-0.124	-0.342
-618.346	-64.340	0.343	-0.141
-617.332	313.169	0.137	0.259
-616.317	-200.000	0.072	0.899
-615.303	-132.096	0.584	0.076
-614.288	800.000	-0.069	0.223
-613.273	376.507	-0.442	0.909
-612.259	656.435	-0.057	0.147
-611.244	-66.073	0.861	0.346
-610.230	-126.912	0.665	0.099
-609.215	800.000	0.102	0.434
-608.201	-103.483	0.277	0.065
-607.186	652.195	-0.326	0.840
-606.171	50.847	-0.419	0.400
-605.157	20.436	-0.655	0.533
-604.142	95.065	0.430	-0.493
-603.128	-92.026	-0.544	0.155
-602.113	287.200	-0.277	-0.504
-601.098	-78.181	-0.329	-0.114
-600.084	-200.000	0.107	-0.937
-599.069	-12.475	0.230	-0.151
-598.055	-60.431	0.397	0.170
-597.040	243.058	0.054	-0.091
-596.025	-96.218	0.209	0.056
-595.011	507.972	-0.187	0.436
-593.996	-46.429	-0.394	-0.194
-592.982	-16.246	0.933	-0.596
-591.967	64.007	0.405	0.409
-590.952	182.812	0.199	-0.296
-589.938	800.000	-0.160	0.552
-588.923	66.143	0.268	-0.273
-587.909	-76.020	0.631	0.225
-586.894	-7.568	-0.553	0.376
-585.879	532.295	0.411	-0.979
-584.865	800.000	0.197	-0.826
-583.850	-50.510	-0.483	-0.229
-582.836	99.617	-0.226	-0.264
-581.821	567.991	0.145	-0.354
-580.806	-200.000	-0.048	-0.288
-579.792	-73.498	-1.000	0.367
-578.777	-34.176	-0.339	-0.187
-577.763	800.000	-0.245	-0.831
-576.748	-42.718	-0.533	-0.272
-575.733	800.000	0.201	0.567
-574.719	-97.453	-0.058	0.015
-573.704	-60.795	0.162	0.069
-572.690	800.000	-0.135	0.580
-571.675	236.489	-0.235	0.390
-570.661	-33.580	-0.299	-0.166
-569.646	-46.502	0.277	0.137
-568.631	194.161	-0.152	-0.232
-567.617	753.037	0.138	0.374
-566.602	-200.000	0.105	0.508
-565.588	-102.932	-0.553	-0.132
-564.573	-70.284	-0.395	0.151
-563.558	-76.088	0.429	-0.152
-562.544	-80.554	0.414	0.139
-561.529	-44.929	0.237	0.119
-560.515	179.528	-0.101	0.149
-559.500	-46.983	0.323	0.159
-558.485	358.029	-0.248	-0.497
-557.471	-200.000	-0.007	0.279
-556.456	168.792	0.184	0.264
-555.442	-200.000	-0.070	0.768
-554.427	-115.278	0.346	0.066
-553.412	-200.000	-0.037	0.325
-552.398	17.165	-0.733	0.584
-551.383	30.453	0.559	-0.480
-550.369	800.000	0.148	0.415
-549.354	-109.246	0.863	-0.184
-548.339	9.627	0.371	0.282
-547.325	145.818	0.461	-0.620
-546.310	80.801	0.259	-0.281
-545.296	800.000	0.071	-0.292
-544.281	63.950	-0.313	0.316
-543.266	33.303	0.496	0.433
-542.252	-55.430	-0.284	-0.128
-541.237	800.000	-0.163	-0.492
-540.223	-155.513	-0.220	0.014
-539.208	98.233	-0.150	0.173
-538.193	147.087	-0.590	-0.796
-537.179	169.278	-0.381	0.546
-536.164	-55.767	0.167	0.075
-535.150	421.450	-0.238	-0.512
-534.135	-200.000	-0.079	-0.589
-533.121	-200.000	-0.035	-0.531
-532.106	800.000	0.209	-0.846
-531.091	-200.000	0.082	-0.629
-530.077	149.563	0.399	-0.543
-529.062	-22.037	-0.506	0.308
-528.048	25.899	1.020	0.853
-527.033	-27.138	-0.750	-0.439
-526.018	800.000	0.136	0.412
-525.004	-81.856	-0.612	0.201
-523.989	560.607	-0.233	-0.565
-522.975	-102.687	0.590	-0.141
-521.960	70.736	-0.466	-0.484
-520.945	311.994	0.196	-0.369
-519.931	800.000	0.146	0.560
-518.916	-37.174	-0.246	0.132
-517.902	-183.332	-0.569	-0.010
-516.887	-200.000	-0.042	-0.436
-515.872	268.688	-0.216	0.381
-514.858	-86.112	-0.448	-0.139
-513.843	462.664	-0.143	0.320
-512.829	130.575	-0.071	-0.091
-511.814	-177.943	0.675	0.016
-510.799	578.802	-0.095	0.233
-509.785	800.000	-0.237	0.668
-508.770	-41.453	-0.281	-0.145
-507.756	-200.000	0.008	0.596
-506.741	44.867	-0.363	0.335
-505.726	-40.257	0.583	0.304
-504.712	-7.813	0.462	0.313
-503.697	-86.117	-0.627	-0.194
-502.683	-94.396	-0.101	-0.027
-501.668	800.000	0.110	-0.306
-500.653	11.315	0.216	-0.166
-499.639	788.856	-0.216	0.595
-498.624	-200.000	-0.065	-0.578
-497.610	137.303	0.408	-0.534
-496.595	12.922	-0.344	-0.266
-495.581	-93.663	0.872	0.241
-494.566	126.915	0.541	0.687
-493.551	-151.121	-0.828	-0.062
-492.537	800.000	0.228	0.656
-491.522	153.210	0.561	0.769
-490.508	-90.436	-0.768	-0.223
-489.493	-109.710	-0.466	0.098
-488.478	-91.590	-0.635	-0.181
-487.464	-200.000	0.015	1.122
-486.449	-106.479	1.090	-0.244
-485.435	563.307	0.417	-1.010
-484.420	-186.382	-0.458	-0.007
-483.405	-144.282	-0.151	0.014
-482.391	-113.653	-1.175	-0.230
-481.376	20.881	-0.758	-0.616
-480.362	110.113	-0.181	-0.218
-479.347	27.883	-0.439	-0.371
-478.332	497.790	0.083	0.190
-477.318	-108.678	0.530	-0.114
-476.303	-105.870	-0.689	0.156
-475.289	-29.578	-0.451	0.258
-474.274	-48.361	-0.062	0.030
-473.259	-44.887	0.084	0.042
-472.245	637.474	0.465	-1.182
-471.230	800.000	-0.303	-0.871
-470.216	800.000	-0.232	-0.843
-469.201	50.364	-0.388	-0.367
-468.186	32.568	-0.694	-0.601
-467.172	365.064	0.162	0.326
-466.157	800.000	-0.186	-0.582
-465.143	800.000	-0.078	-0.235
-464.128	800.000	-0.135	0.445
-463.113	-88.099	-0.407	-0.122
-462.099	-200.000	-0.021	-0.224
-461.084	-200.000	-0.073	-0.550
-460.070	-108.693	-0.746	0.160
-459.055	50.653	-0.292	0.277
-458.040	685.126	0.241	0.630
-457.026	98.495	0.705	0.813
-456.011	-144.544	0.379	-0.035
-454.997	515.949	-0.107	-0.250
-453.982	-66.115	0.468	-0.187
-452.968	800.000	0.233	-0.766
-451.953	-121.372	-0.397	-0.066
-450.938	18.410	-0.192	0.153
-449.924	370.391	-0.295	-0.598
-448.909	-200.000	-0.013	0.155
-447.895	-33.701	0.616	0.340
-446.880	24.124	-0.536	-0.442
-445.865	-86.504	0.824	0.253
-444.851	-95.297	-0.816	0.220
-443.836	-153.513	1.140	-0.079
-442.822	-26.979	0.380	0.222
-441.807	2.599	0.284	-0.206
-440.792	85.549	0.335	0.368
-439.778	-175.597	0.611	0.017
-438.763	-86.175	-0.799	0.246
-437.749	-36.757	-0.428	0.230
-436.734	664.305	0.373	-0.963
-435.719	800.000	0.193	0.797
-434.705	-105.611	-0.799	0.181
-433.690	-146.089	-0.449	-0.040
-432.676	245.704	0.339	-0.571
-431.661	95.107	0.107	-0.122
-430.646	800.000	0.202	-0.703
-429.632	-79.445	0.456	0.154
-428.617	-54.422	0.410	0.186
-427.603	-112.913	-0.908	-0.180
-426.588	-64.013	0.335	-0.137
-425.573	340.481	0.248	0.484
-424.559	-200.000	0.086	-0.548
-423.544	-200.000	-0.100	0.855
-422.530	-15.058	0.870	0.557
-421.515	800.000	-0.188	-0.564
-420.500	-200.000	0.080	0.432
-419.486	84.155	0.761	-0.831
-418.471	-65.090	0.413	0.167
-417.457	130.410	-0.387	-0.496
-416.442	-30.901	0.775	0.438
-415.428	339.641	-0.160	-0.311
-414.413	-129.365	-0.319	0.044
-413.398	25.881	-0.457	-0.380
-412.384	-70.108	-0.302	-0.115
-411.369	-106.519	0.392	0.087
-410.355	-200.000	-0.000	-0.375
-409.340	631.155	-0.300	-0.758
-408.325	156.637	-0.641	-0.885
-407.311	800.000	-0.128	0.483
-406.296	-200.000	-0.036	-0.401
-405.282	-200.000	-0.031	-0.534
-404.267	-123.209	-0.887	0.142
-403.252	-9.919	-0.797	0.529
-402.238	714.585	0.252	-0.666
-401.223	-200.000	-0.017	-0.592
-400.209	-158.158	1.539	-0.090
-399.194	285.607	-0.265	0.476
-398.179	-69.567	-0.486	0.186
-397.165	800.000	0.180	0.584
-396.150	84.451	0.245	0.267
-395.136	480.065	0.367	-0.830
-394.121	-26.356	0.381	0.223
-393.106	573.370	-0.092	-0.223
-392.092	-95.121	-0.274	-0.074
-391.077	-12.067	0.601	-0.393
-390.063	155.019	-0.136	0.186
-389.048	800.000	-0.103	-0.432
-388.033	-56.095	-0.370	0.165
-387.019	201.938	0.413	-0.635
-386.004	249.745	-0.367	-0.621
-384.990	705.981	-0.172	-0.452
-383.975	-128.962	0.393	0.055
-382.960	-149.434	-0.192	0.015
-381.946	570.169	-0.174	-0.422
-380.931	-64.639	-0.228	-0.092
-379.917	-17.525	-0.475	0.298
-378.902	33.600	-0.206	0.179
-377.888	-44.578	-0.782	0.390
-376.873	379.956	-0.339	-0.694
-375.858	-109.681	-0.611	-0.128
-374.844	800.000	0.098	-0.286
-373.829	-96.316	-0.684	-0.181
-372.815	90.279	0.093	0.104
-371.800	-69.241	0.292	-0.112
-370.785	800.000	0.375	1.058
-369.771	49.606	-0.558	-0.524
-368.756	-193.348	0.334	-0.003
-367.742	103.493	-0.366	-0.428
-366.727	800.000	0.085	0.295
-365.712	284.903	0.148	0.265
-364.698	800.000	0.234	-0.723
-363.683	-161.650	0.695	-0.035
-362.669	-57.190	0.567	-0.249
-361.654	-36.662	-0.436	-0.233
-360.639	-2.578	0.624	0.435
-359.625	-200.000	0.034	-0.441
-358.610	-87.468	-1.236	-0.373
-357.596	228.845	0.500	-0.812
-356.581	-103.561	-1.038	-0.243
-355.566	-139.325	0.381	-0.041
-354.552	800.000	0.195	0.646
-353.537	162.971	0.549	-0.768
-352.523	1.733	0.693	0.498
-351.508	306.191	-0.245	0.454
-350.493	611.267	0.164	-0.409
-349.479	-200.000	0.017	-0.861
-348.464	-200.000	0.106	-0.727
-347.450	800.000	0.349	1.142
-346.435	-200.000	0.036	0.680
-345.420	800.000	0.102	0.292
-344.406	15.382	0.189	0.148
-343.391	-200.000	-0.025	-0.326
-342.377	-200.000	0.079	0.563
-341.362	-200.000	-0.078	0.533
-340.348	-145.995	-0.538	0.047
-339.333	800.000	-0.098	-0.326
-338.318	213.206	0.539	0.848
-337.304	260.695	0.320	-0.552
-336.289	208.933	0.715	-1.115
-335.275	653.576	0.307	-0.784
-334.260	800.000	-0.114	-0.379
-333.245	1.735	0.291	0.209
-332.231	-19.152	0.161	0.100
-331.216	-10.990	0.386	-0.254
-330.202	251.919	-0.136	0.231
-329.187	-85.855	0.516	-0.159
-328.172	7.094	-0.099	0.074
-327.158	227.443	0.377	0.610
-326.143	800.000	0.217	-0.893
-325.129	-46.115	0.147	-0.072
-324.114	-200.000	0.038	-0.177
-323.099	-0.060	0.273	0.193
-322.085	166.787	0.572	-0.807
-321.070	45.302	0.741	0.681
-320.056	4.033	-0.335	0.244
-319.041	-112.037	-0.522	-0.105
-318.026	449.308	-0.074	0.162
-317.012	-113.030	-0.104	-0.020
-315.997	-79.334	0.524	-0.176
-314.983	74.930	0.533	-0.559
-313.968	-16.361	0.119	-0.075
-312.953	-76.482	0.173	0.061
-311.939	453.135	-0.267	-0.587
-310.924	82.926	-0.087	0.094
-309.910	800.000	0.243	-0.917
-308.895	707.430	-0.255	-0.671
-307.880	-163.673	-0.901	0.042
-306.866	45.545	-0.591	0.543
-305.851	800.000	0.199	0.705
-304.837	-47.687	-1.155	-0.557
-303.822	351.494	0.202	0.398
-302.807	-200.000	0.048	0.836
-301.793	-200.000	-0.077	0.754
-300.778	34.636	0.174	0.152
-299.764	203.043	0.200	0.308
-298.749	-112.386	0.835	0.166
-297.735	-46.917	-0.923	-0.449
-296.720	23.145	0.493	-0.402
-295.705	-70.821	0.249	0.094
-294.691	585.440	0.394	0.964
-293.676	-150.537	-0.261	0.020
-292.662	51.806	0.324	0.307
-291.647	493.358	0.300	0.684
-290.632	-200.000	-0.053	0.681
-289.618	103.808	-0.295	-0.344
-288.603	2.135	-0.710	-0.510
-287.589	-200.000	0.081	-0.786
-286.574	-64.402	0.549	0.222
-285.559	-137.469	-1.067	0.120
-284.545	136.405	0.359	-0.466
-283.530	-103.113	-0.164	0.039
-282.516	0.723	0.260	0.185
-281.501	8.621	-1.112	0.832
-280.486	80.822	0.510	0.547
-279.472	491.898	0.181	-0.412
-278.457	-63.407	-0.545	0.223
-277.443	-93.957	1.286	0.351
-276.428	346.655	0.237	0.463
-275.413	492.864	0.195	0.444
-274.399	-180.263	-1.128	-0.023
-273.384	-200.000	0.002	-0.266
-272.370	-37.994	-0.191	-0.101
-271.355	-154.105	-0.449	0.030
-270.340	563.592	0.278	-0.669
-269.326	554.128	0.188	0.448
-268.311	152.787	0.302	-0.410
-267.297	800.000	0.165	0.664
-266.282	-200.000	-0.017	-0.288
-265.267	225.913	0.418	-0.673
-264.253	19.329	-0.346	-0.276
-263.238	126.073	-0.351	-0.441
-262.224	92.117	-0.253	0.283
-261.209	77.271	-0.673	0.711
-260.195	231.812	0.208	-0.338
-259.180	120.956	0.300	0.370
-258.165	-200.000	0.084	-0.395
-257.151	800.000	-0.190	0.648
-256.136	800.000	-0.090	-0.385
-255.122	-200.000	0.080	0.890
-254.107	800.000	0.220	0.755
-253.092	-84.355	0.347	0.109
-252.078	-85.522	0.417	-0.129
-251.063	-101.104	0.371	-0.090
-250.049	195.567	-0.655	0.988
-249.034	35.271	-0.317	0.275
-248.019	-200.000	-0.110	-0.592
-247.005	59.949	-0.600	0.588
-245.990	-200.000	-0.157	0.001
-244.976	66.809	0.824	0.832
-243.961	7.087	-0.563	0.417
-242.946	-200.000	0.031	0.314
-241.932	161.667	-0.342	0.474
-240.917	327.025	0.252	0.480
-239.903	-73.449	0.404	-0.147
-238.888	589.504	0.107	0.263
-237.873	-200.000	-0.006	-0.042
-236.859	-95.527	-0.327	0.087
-235.844	-200.000	0.030	0.729
-234.830	-200.000	0.083	-0.671
-233.815	95.704	-0.327	-0.370
-232.800	-111.748	0.812	-0.163
-231.786	-126.093	-0.129	0.019
-230.771	41.799	-0.389	-0.350
-229.757	-108.685	-0.267	0.057
-228.742	-0.649	-0.849	-0.597
-227.727	1.472	0.438	0.313
-226.713	251.167	0.252	0.425
-225.698	-24.068	0.553	-0.328
-224.684	-1.775	0.528	0.369
-223.669	479.272	-0.266	-0.598
-222.655	94.147	0.053	-0.060
-221.640	-8.958	0.428	0.284
-220.625	271.303	-0.491	0.857
-219.611	-200.000	0.050	-0.240
-218.596	-127.018	-0.375	0.055
-217.582	-46.882	0.635	-0.308
-216.567	-45.609	0.713	0.350
-215.552	-200.000	0.144	-0.660
-214.538	137.518	-0.225	0.292
-213.523	538.922	0.255	-0.600
-212.509	800.000	-0.082	-0.303
-211.494	-110.328	0.315	0.065
-210.479	96.505	-0.529	0.600
-209.465	256.537	0.174	0.296
-208.450	417.836	-0.083	0.176
-207.436	-11.661	-0.818	-0.532
-206.421	19.161	0.810	-0.644
-205.406	42.102	0.446	-0.401
-204.392	-28.197	-0.054	-0.031
-203.377	-75.471	-0.082	-0.029
-202.363	-33.827	-0.334	0.182
-201.348	-16.285	0.086	-0.054
-200.333	-121.676	-0.914	0.150
-199.319	-26.228	0.498	0.290
-198.304	438.361	0.170	0.367
-197.290	274.215	0.173	0.302
-196.275	-200.000	-0.011	0.355
-195.260	242.091	0.592	0.981
-194.246	577.807	0.344	0.833
-193.231	81.046	-0.279	-0.298
-192.217	-26.246	-0.617	-0.359
-191.202	361.526	0.263	0.523
-190.187	300.877	-0.275	0.503
-189.173	12.694	-0.515	0.394
-188.158	-74.599	-0.733	0.261
-187.144	-200.000	-0.070	-0.407
-186.129	800.000	-0.147	0.557
-185.114	755.231	0.198	0.530
-184.100	29.442	0.228	-0.192
-183.085	58.764	0.284	0.276
-182.071	-155.738	0.988	-0.063
-181.056	-119.408	1.040	0.179
-180.042	206.087	-0.162	0.249
-179.027	71.078	-0.304	0.312
-178.012	187.983	-0.449	-0.664
-176.998	490.266	-0.485	1.099
-175.983	-136.671	0.220	0.025
-174.969	-87.019	-0.222	0.067
-173.954	-200.000	-0.076	0.482
-172.939	-57.412	0.379	0.165
-171.925	800.000	0.059	-0.253
-170.910	-200.000	-0.084	0.445
-169.896	720.760	-0.158	-0.416
-168.881	-157.209	0.833	-0.050
-167.866	-7.718	-0.183	0.122
-166.852	-35.833	-0.643	0.344
-165.837	67.377	0.296	0.299
-164.823	-105.875	-0.936	0.209
-163.808	22.459	-0.309	-0.250
-162.793	-125.025	0.341	-0.052
-161.779	800.000	-0.198	0.605
-160.764	791.077	-0.170	-0.462
-159.750	-141.060	0.485	-0.049
-158.735	-200.000	0.071	0.375
-157.720	-135.977	0.797	-0.093
-156.706	-200.000	0.105	-0.484
-155.691	-200.000	-0.091	-0.463
-154.677	-200.000	-0.020	0.893
-153.662	-200.000	-0.021	-0.407
-152.647	-115.878	-0.906	-0.167
-151.633	453.190	0.388	-0.849
-150.618	-96.375	-1.014	0.265
-149.604	-4.819	-0.801	-0.546
-148.589	247.957	0.142	-0.238
-147.574	-200.000	-0.021	0.291
-146.560	303.546	0.342	0.627
-145.545	800.000	-0.198	-0.831
-144.531	166.783	0.464	-0.651
-143.516	-12.915	-0.430	-0.277
-142.502	-85.243	0.740	0.229
-141.487	-27.850	-0.600	-0.344
-140.472	-113.009	-0.504	-0.098
-139.458	-81.555	0.735	-0.239
-138.443	-104.107	0.070	-0.016
-137.429	133.647	0.572	0.731
-136.414	-54.994	-0.556	0.248
-135.399	-200.000	0.087	0.624
-134.385	426.072	0.131	-0.278
-133.370	276.498	-0.233	0.409
-132.356	8.621	0.215	-0.160
-131.341	484.049	-0.348	0.781
-130.326	140.155	0.319	-0.415
-129.312	-30.258	0.487	0.273
-128.297	800.000	-0.046	0.185
-127.283	123.699	-0.260	-0.322
-126.268	-200.000	-0.009	-0.240
-125.253	381.911	0.079	0.161
-124.239	-52.971	0.644	-0.292
-123.224	800.000	0.124	0.397
-122.210	82.006	-0.427	-0.457
-121.195	147.029	0.610	-0.810
-120.180	-56.146	0.499	0.219
