DTS Sentinel unit serial number:	SN413079Multiplexer serial number:	ORYXHardware model number:	OX4-SRSoftware version number:	ORYX F/W v4.00 Oryx Data Collector v3.7.2.0data status	okinstallation	princeton_trtdifferential loss correction	single-endedforward channel	channel 1reverse channel	N/Adate	2019/09/12time	13:36:11forward acquisition time	60.00reverse acquisition time	0.00gamma	496.2192k internal	0.2292k external	0.2292temperature offset calibration	1.0050default loss term (dB/km)	0.3790temperature slope calibration	1.0000multiplexer offset coefficient	1.0000multiplexer slope coefficient	1.0000fibre end	0.00T internal ref (°C)	41.06T ext. ref 1 (°C)	2.14T ext. ref 2 (°C)	36.25length (m)	temperature (°C)	Stokes	anti-Stokes-747.200	515.812	0.063	-0.151
-746.185	455.688	0.073	-0.167
-745.171	574.942	-0.128	0.319
-744.156	119.809	-0.188	0.238
-743.142	536.448	0.022	-0.054
-742.127	-18.282	-0.127	0.082
-741.112	-144.687	0.202	-0.019
-740.098	-35.259	0.218	-0.122
-739.083	-200.000	-0.020	-0.147
-738.069	-200.000	0.071	0.498
-737.054	421.043	-0.132	0.289
-736.039	115.602	-0.132	0.166
-735.025	597.660	-0.043	0.109
-734.010	-113.220	0.135	0.027
-732.996	609.504	-0.162	-0.414
-731.981	457.406	-0.014	0.032
-730.966	800.000	0.090	0.361
-729.952	800.000	-0.091	0.303
-728.937	597.440	0.149	0.378
-727.923	-200.000	-0.132	-0.001
-726.908	-130.002	-0.145	0.020
-725.894	800.000	0.024	0.087
-724.879	-51.573	-0.460	-0.220
-723.864	365.174	-0.020	0.041
-722.850	-200.000	0.036	-0.330
-721.835	-200.000	0.029	0.201
-720.821	-57.450	0.029	0.013
-719.806	-200.000	-0.010	-0.058
-718.791	410.804	-0.253	0.549
-717.777	518.810	0.061	-0.145
-716.762	125.710	-0.100	-0.129
-715.748	-0.523	-0.244	0.177
-714.733	-190.932	0.231	0.002
-713.718	-200.000	0.005	0.080
-712.704	80.969	0.230	-0.253
-711.689	-38.649	0.133	-0.072
-710.675	800.000	-0.043	0.140
-709.660	-142.894	-0.166	0.017
-708.645	705.215	0.032	0.085
-707.631	-55.549	0.216	0.099
-706.616	-101.168	-0.411	0.103
-705.602	58.090	-0.064	-0.064
-704.587	-49.058	-0.097	-0.047
-703.572	-200.000	-0.026	-0.258
-702.558	-49.826	-0.220	0.107
-701.543	-200.000	0.004	-0.057
-700.529	-151.491	-0.524	0.040
-699.514	800.000	0.012	-0.048
-698.499	57.936	0.174	0.174
-697.485	-132.224	0.129	0.017
-696.470	-39.218	-0.226	0.121
-695.456	11.328	-0.200	0.156
-694.441	-127.338	-0.461	0.069
-693.426	-144.748	-0.091	0.009
-692.412	-6.523	0.089	-0.062
-691.397	800.000	-0.065	-0.186
-690.383	-43.619	0.054	0.028
-689.368	757.944	0.015	0.043
-688.354	-64.770	-0.325	-0.135
-687.339	-145.215	0.118	0.011
-686.324	420.801	-0.130	-0.285
-685.310	-62.561	0.084	-0.035
-684.295	-200.000	-0.042	0.195
-683.281	121.539	0.120	0.153
-682.266	800.000	0.022	0.070
-681.251	3.034	-0.224	-0.166
-680.237	-45.204	0.132	0.067
-679.222	800.000	-0.027	-0.096
-678.208	389.001	-0.155	-0.328
-677.193	-114.041	0.209	0.041
-676.178	-143.849	0.231	-0.022
-675.164	31.301	0.038	0.033
-674.149	130.047	-0.268	0.350
-673.135	-149.630	-0.316	0.025
-672.120	-160.274	-0.209	0.012
-671.105	448.137	-0.085	-0.192
-670.091	169.351	0.044	-0.064
-669.076	13.205	0.038	0.030
-668.062	-200.000	-0.071	-0.399
-667.047	800.000	-0.032	-0.122
-666.032	26.789	-0.093	0.080
-665.018	800.000	0.051	-0.221
-664.003	-45.445	-0.403	-0.204
-662.989	800.000	-0.106	0.428
-661.974	-57.695	-0.174	0.078
-660.959	-141.752	-0.393	0.040
-659.945	800.000	-0.042	0.162
-658.930	311.176	0.124	-0.236
-657.916	-200.000	0.016	-0.152
-656.901	-106.482	-0.125	0.028
-655.886	-200.000	0.009	-0.063
-654.872	-146.787	-0.335	-0.029
-653.857	-8.674	-0.275	0.188
-652.843	239.931	-0.129	0.220
-651.828	-18.456	0.256	0.163
-650.814	-61.336	0.120	0.052
-649.799	-50.063	-0.423	0.204
-648.784	-51.193	-0.317	-0.151
-647.770	-164.619	0.036	-0.002
-646.755	-183.427	-0.148	-0.003
-645.741	-45.550	-0.115	0.058
-644.726	152.492	0.050	-0.069
-643.711	800.000	0.035	-0.110
-642.697	-80.486	0.096	0.033
-641.682	81.237	-0.146	0.161
-640.668	41.689	-0.317	0.293
-639.653	452.419	0.061	-0.138
-638.638	207.635	0.221	0.351
-637.624	-98.609	0.209	0.054
-636.609	340.530	0.021	0.042
-635.595	602.374	0.234	-0.594
-634.580	-57.031	0.042	-0.019
-633.565	-149.338	-0.217	0.018
-632.551	-144.904	-0.285	0.027
-631.536	287.996	-0.281	-0.518
-630.522	35.976	0.057	0.051
-629.507	-140.492	-0.094	-0.010
-628.492	-200.000	0.005	0.039
-627.478	-200.000	0.043	0.207
-626.463	568.456	0.142	-0.352
-625.449	252.208	-0.099	0.173
-624.434	66.791	0.203	-0.211
-623.419	-8.434	0.176	-0.121
-622.405	-200.000	0.008	0.153
-621.390	-200.000	-0.012	0.286
-620.376	-109.388	-0.190	-0.041
-619.361	-66.558	0.163	0.066
-618.346	36.033	0.027	0.024
-617.332	70.568	-0.068	-0.072
-616.317	800.000	0.069	0.238
-615.303	124.333	0.174	-0.223
-614.288	22.007	-0.265	-0.220
-613.273	-104.451	-0.182	-0.043
-612.259	-50.774	0.272	-0.130
-611.244	-96.758	-0.121	0.032
-610.230	-200.000	0.003	0.213
-609.215	103.793	-0.187	-0.223
-608.201	800.000	0.077	-0.260
-607.186	800.000	-0.034	-0.100
-606.171	-14.446	-0.203	0.133
-605.157	-200.000	0.030	-0.150
-604.142	-130.721	0.028	-0.004
-603.128	3.119	-0.103	0.077
-602.113	-200.000	0.018	0.115
-601.098	-0.071	0.174	0.126
-600.084	1.694	-0.085	0.062
-599.069	88.160	-0.214	0.242
-598.055	-76.818	0.238	0.085
-597.040	-63.559	-0.255	0.107
-596.025	-2.700	-0.117	0.084
-595.011	-68.740	-0.221	-0.087
-593.996	123.545	-0.042	-0.054
-592.982	63.798	0.240	0.245
-591.967	74.609	0.049	0.053
-590.952	-19.160	0.098	0.062
-589.938	552.971	-0.094	-0.230
-588.923	232.346	0.206	-0.344
-587.909	-200.000	-0.039	-0.482
-586.894	-151.733	-0.199	-0.015
-585.879	800.000	-0.021	-0.064
-584.865	-200.000	-0.002	-0.008
-583.850	-82.542	0.044	0.015
-582.836	256.610	0.127	0.222
-581.821	800.000	0.054	0.164
-580.806	-111.340	-0.097	-0.020
-579.792	129.582	-0.214	-0.278
-578.777	-105.253	-0.115	0.027
-577.763	-71.515	0.096	0.036
-576.748	-107.869	0.136	-0.030
-575.733	800.000	-0.041	0.151
-574.719	-28.984	0.187	0.109
-573.704	254.636	-0.114	0.198
-572.690	32.157	0.213	-0.186
-571.675	-93.828	0.195	0.055
-570.661	57.226	-0.207	0.206
-569.646	394.834	0.143	0.304
-568.631	181.096	0.123	0.183
-567.617	-200.000	-0.002	-0.204
-566.602	-200.000	0.038	0.443
-565.588	553.626	0.088	-0.214
-564.573	-51.059	0.038	-0.018
-563.558	2.145	-0.230	-0.169
-562.544	83.069	-0.104	-0.116
-561.529	800.000	-0.076	0.309
-560.515	-128.205	0.262	-0.038
-559.500	103.900	0.087	-0.104
-558.485	-93.146	-0.154	-0.044
-557.471	42.202	-0.225	-0.208
-556.456	135.759	-0.131	-0.173
-555.442	-200.000	-0.030	-0.167
-554.427	-190.359	-0.031	-0.000
-553.412	498.124	0.107	0.250
-552.398	475.203	0.128	-0.293
-551.383	132.652	0.134	-0.175
-550.369	-66.058	-0.056	0.023
-549.354	171.210	-0.127	-0.185
-548.339	-200.000	-0.019	0.102
-547.325	-107.011	-0.136	0.030
-546.310	-200.000	0.040	0.310
-545.296	188.221	0.105	-0.160
-544.281	-84.107	-0.225	0.073
-543.266	-200.000	-0.003	-0.217
-542.252	14.014	-0.089	0.070
-541.237	-62.279	0.321	0.136
-540.223	400.586	0.044	0.095
-539.208	-194.781	-0.220	-0.002
-538.193	35.675	-0.112	0.100
-537.179	-65.548	0.338	0.138
-536.164	-9.370	0.152	-0.103
-535.150	-59.876	-0.282	-0.123
-534.135	-108.644	-0.014	-0.003
-533.121	-200.000	-0.019	-0.142
-532.106	120.763	-0.156	0.197
-531.091	90.192	0.064	-0.072
-530.077	-61.578	-0.063	0.027
-529.062	67.219	-0.144	0.149
-528.048	-150.623	-0.248	0.019
-527.033	129.535	-0.193	0.251
-526.018	800.000	-0.067	0.236
-525.004	21.150	0.199	0.164
-523.989	-83.670	-0.482	0.156
-522.975	-54.526	-0.225	0.103
-521.960	-200.000	-0.029	0.279
-520.945	-127.994	-0.067	0.010
-519.931	280.871	0.163	0.295
-518.916	0.186	-0.214	-0.155
-517.902	-114.993	-0.186	-0.036
-516.887	-155.104	-0.161	0.011
-515.872	-134.639	0.068	-0.008
-514.858	124.436	-0.167	0.213
-513.843	43.162	-0.225	-0.209
-512.829	470.325	0.060	-0.136
-511.814	173.398	-0.279	0.408
-510.799	85.986	-0.044	-0.049
-509.785	800.000	-0.024	-0.075
-508.770	10.705	-0.171	0.132
-507.756	79.985	-0.273	0.298
-506.741	-200.000	0.047	0.311
-505.726	222.691	0.018	-0.029
-504.712	-200.000	-0.015	-0.474
-503.697	-42.231	-0.374	0.194
-502.683	82.351	0.353	-0.389
-501.668	567.415	-0.059	0.145
-500.653	800.000	0.114	-0.374
-499.639	79.390	-0.271	-0.295
-498.624	-103.776	-0.308	-0.073
-497.610	-159.422	0.324	0.018
-496.595	34.983	-0.101	-0.090
-495.581	25.007	0.135	-0.114
-494.566	-200.000	0.029	0.294
-493.551	35.559	0.228	-0.203
-492.537	-138.014	0.277	-0.031
-491.522	-135.878	0.443	0.053
-490.508	-83.037	-0.102	-0.033
-489.493	-200.000	-0.007	0.069
-488.478	-200.000	0.032	-0.203
-487.464	800.000	0.082	-0.309
-486.449	75.148	0.157	0.168
-485.435	-184.448	0.299	-0.005
-484.420	-200.000	-0.012	-0.268
-483.405	-200.000	-0.002	-0.020
-482.391	15.038	0.276	-0.219
-481.376	-200.000	0.029	-0.199
-480.362	-142.101	0.185	-0.019
-479.347	-148.315	0.033	-0.003
-478.332	310.175	0.128	0.242
-477.318	-200.000	0.009	0.437
-476.303	-200.000	0.031	-0.229
-475.289	-1.966	0.056	-0.040
-474.274	-174.219	-0.195	-0.006
-473.259	-119.100	-0.266	0.047
-472.245	-200.000	0.055	-0.346
-471.230	83.326	-0.314	-0.347
-470.216	-53.823	0.338	-0.156
-469.201	25.894	-0.020	0.017
-468.186	-200.000	-0.007	0.131
-467.172	-163.914	0.136	-0.006
-466.157	-107.145	0.222	-0.050
-465.143	800.000	0.052	0.193
-464.128	800.000	-0.042	0.159
-463.113	-200.000	0.026	0.139
-462.099	74.637	0.172	0.183
-461.084	23.347	-0.244	0.203
-460.070	800.000	0.038	-0.135
-459.055	477.628	0.079	0.180
-458.040	66.390	0.235	0.242
-457.026	-200.000	-0.008	-0.144
-456.011	39.030	0.269	0.244
-454.997	344.633	0.026	-0.051
-453.982	800.000	0.109	0.317
-452.968	-35.647	0.290	-0.159
-451.953	-134.646	-0.156	-0.019
-450.938	800.000	-0.100	0.293
-449.924	800.000	-0.099	-0.320
-448.909	34.111	0.218	0.192
-447.895	-79.919	-0.207	-0.070
-446.880	800.000	0.065	-0.240
-445.865	-200.000	-0.001	0.154
-444.851	325.611	0.106	0.205
-443.836	52.158	0.138	-0.133
-442.822	-103.474	0.239	-0.057
-441.807	362.074	-0.135	0.274
-440.792	-200.000	0.017	0.140
-439.778	-14.587	-0.108	0.070
-438.763	-200.000	0.026	-0.182
-437.749	-138.309	-0.395	-0.044
-436.734	-200.000	-0.035	0.342
-435.719	-110.497	-0.526	0.110
-434.705	-200.000	-0.001	-0.019
-433.690	123.501	-0.111	-0.141
-432.676	53.468	-0.081	-0.078
-431.661	-73.763	-0.216	0.079
-430.646	800.000	-0.113	-0.352
-429.632	-10.720	-0.043	-0.029
-428.617	-169.165	-0.167	-0.006
-427.603	-193.098	-0.160	-0.001
-426.588	-9.047	0.124	-0.084
-425.573	28.108	-0.053	0.046
-424.559	-200.000	-0.042	0.220
-423.544	-83.565	0.084	0.027
-422.530	275.010	-0.121	0.216
-421.515	-90.235	0.237	0.070
-420.500	83.162	0.246	0.271
-419.486	16.614	-0.100	0.080
-418.471	203.752	-0.107	0.168
-417.457	15.969	-0.029	-0.023
-416.442	383.891	-0.035	-0.072
-415.428	800.000	0.046	0.128
-414.413	-55.684	-0.090	-0.041
-413.398	129.087	-0.247	-0.318
-412.384	64.757	-0.137	0.139
-411.369	103.486	-0.107	-0.127
-410.355	69.664	0.218	0.227
-409.340	-27.617	-0.107	0.063
-408.325	-159.230	-0.331	0.019
-407.311	800.000	-0.090	0.313
-406.296	-200.000	0.045	0.277
-405.282	-77.363	-0.005	0.002
-404.267	-88.617	0.392	-0.118
-403.252	-74.767	-0.268	-0.097
-402.238	50.338	0.301	-0.287
-401.223	30.262	0.076	-0.065
-400.209	-80.200	-0.273	0.092
-399.194	-112.456	0.510	0.103
-398.179	31.517	0.100	-0.087
-397.165	174.755	-0.171	0.250
-396.150	-83.783	0.171	0.055
-395.136	121.980	-0.034	0.042
-394.121	800.000	-0.020	0.072
-393.106	800.000	-0.050	-0.152
-392.092	800.000	0.056	0.244
-391.077	-200.000	-0.094	-0.460
-390.063	-37.851	0.207	-0.111
-389.048	42.895	0.079	0.073
-388.033	412.530	-0.165	-0.355
-387.019	158.807	-0.132	0.185
-386.004	-20.307	0.044	-0.027
-384.990	129.098	0.185	0.238
-383.975	800.000	-0.075	-0.238
-382.960	-200.000	-0.087	-0.421
-381.946	-100.239	-0.067	-0.017
-380.931	7.382	-0.320	0.241
-379.917	-200.000	-0.033	-0.258
-378.902	-6.551	-0.244	-0.168
-377.888	-97.408	-0.383	-0.101
-376.873	131.923	-0.133	0.173
-375.858	-80.836	0.262	-0.088
-374.844	183.801	-0.020	-0.030
-373.829	14.498	0.096	-0.075
-372.815	800.000	-0.045	0.135
-371.800	74.097	0.139	0.148
-370.785	-100.694	0.115	0.029
-369.771	-162.989	0.193	0.009
-368.756	-122.954	-0.154	0.025
-367.742	115.779	0.075	-0.093
-366.727	-142.646	-0.267	0.026
-365.712	-147.900	0.134	0.011
-364.698	-200.000	-0.015	0.473
-363.683	-38.186	-0.132	0.070
-362.669	800.000	-0.060	-0.189
-361.654	-200.000	0.034	-0.422
-360.639	-61.748	0.157	0.067
-359.625	800.000	0.030	-0.093
-358.610	93.085	0.265	0.302
-357.596	-200.000	-0.040	-0.275
-356.581	115.801	0.287	0.355
-355.566	-49.546	0.082	0.039
-354.552	-27.093	0.264	-0.155
-353.537	-200.000	-0.035	-0.370
-352.523	-135.986	0.169	0.020
-351.508	-117.677	-0.380	-0.069
-350.493	41.703	0.144	-0.132
-349.479	800.000	-0.091	-0.341
-348.464	-19.937	0.170	-0.106
-347.450	343.117	0.103	0.203
-346.435	655.075	-0.008	0.022
-345.420	-4.919	-0.247	-0.171
-344.406	376.808	0.199	-0.410
-343.391	71.992	0.113	-0.118
-342.377	273.241	-0.184	0.328
-341.362	9.589	-0.111	-0.084
-340.348	-174.291	-0.342	0.010
-339.333	-200.000	-0.007	0.054
-338.318	-200.000	-0.027	0.209
-337.304	301.796	0.055	-0.103
-336.289	154.113	-0.240	0.332
-335.275	-148.766	-0.161	0.013
-334.260	249.758	0.140	-0.240
-333.245	133.377	0.162	-0.211
-332.231	251.093	0.052	0.089
-331.216	-8.317	0.090	-0.061
-330.202	332.378	-0.186	0.361
-329.187	-200.000	0.016	-0.129
-328.172	-25.641	0.169	-0.100
-327.158	-14.349	-0.131	-0.085
-326.143	-7.447	0.102	0.070
-325.129	-3.557	-0.199	-0.139
-324.114	800.000	-0.045	0.165
-323.099	567.240	-0.134	-0.328
-322.085	571.892	0.120	-0.295
-321.070	221.790	-0.105	-0.170
-320.056	-70.289	-0.293	0.112
-319.041	800.000	0.034	0.140
-318.026	11.348	0.117	-0.090
-317.012	-20.621	-0.181	0.112
-315.997	-91.278	0.116	-0.033
-314.983	520.372	-0.105	-0.248
-313.968	-50.511	-0.034	0.016
-312.953	800.000	0.040	0.123
-311.939	-36.201	-0.186	0.101
-310.924	125.194	0.118	0.149
-309.910	-52.021	0.377	-0.176
-308.895	-200.000	0.009	0.168
-307.880	-200.000	0.045	0.255
-306.866	800.000	0.030	0.116
-305.851	-200.000	-0.010	-0.085
-304.837	-29.703	0.242	-0.139
-303.822	674.809	0.023	0.059
-302.807	-163.154	0.250	0.012
-301.793	210.976	0.199	0.314
-300.778	-152.618	-0.164	-0.012
-299.764	800.000	-0.029	-0.122
-298.749	-48.652	-0.077	-0.037
-297.735	-118.120	0.169	0.030
-296.720	0.305	-0.304	-0.218
-295.705	147.431	0.200	-0.270
-294.691	-177.609	0.208	-0.005
-293.676	800.000	0.052	0.179
-292.662	800.000	0.066	0.212
-291.647	-30.780	0.353	0.201
-290.632	-66.473	-0.186	0.074
-289.618	-192.870	-0.070	0.001
-288.603	88.977	-0.163	0.182
-287.589	400.049	-0.158	-0.333
-286.574	-105.113	0.182	0.042
-285.559	-63.083	-0.270	0.112
-284.545	-64.546	0.259	0.106
-283.530	182.226	-0.113	0.167
-282.516	151.953	0.116	-0.160
-281.501	150.454	0.233	0.318
-280.486	-200.000	0.007	0.136
-279.472	5.994	0.044	0.033
-278.457	-146.453	0.236	-0.021
-277.443	-5.478	0.078	-0.054
-276.428	-52.425	0.193	-0.090
-275.413	701.046	0.056	0.148
-274.399	-125.477	-0.238	0.036
-273.384	-200.000	-0.020	0.263
-272.370	532.245	-0.038	-0.090
-271.355	-200.000	0.028	-0.137
-270.340	800.000	0.048	0.204
-269.326	-76.930	-0.119	-0.042
-268.311	150.891	-0.083	-0.113
-267.297	315.227	0.167	-0.317
-266.282	-75.657	0.321	0.115
-265.267	-142.023	-0.220	0.022
-264.253	-27.288	0.234	-0.137
-263.238	-163.158	0.176	0.009
-262.224	-11.945	0.131	0.086
-261.209	-200.000	0.042	0.294
-260.195	76.577	0.068	-0.073
-259.180	16.174	-0.156	-0.123
-258.165	800.000	0.069	0.228
-257.151	593.194	0.073	0.181
-256.136	307.622	0.225	0.421
-255.122	800.000	-0.055	0.162
-254.107	-82.018	-0.127	0.042
-253.092	-200.000	0.115	-0.544
-252.078	189.030	0.206	0.310
-251.063	561.137	-0.096	-0.234
-250.049	407.330	0.071	0.150
-249.034	160.930	0.207	0.291
-248.019	-96.654	0.119	0.032
-247.005	800.000	-0.016	0.065
-245.990	-58.720	0.122	-0.053
-244.976	-58.784	0.055	-0.024
-243.961	389.288	0.070	-0.146
-242.946	-21.882	0.125	0.076
-241.932	-87.451	-0.083	0.025
-240.917	99.173	0.118	-0.137
-239.903	-83.791	0.165	-0.053
-238.888	-165.921	0.141	-0.006
-237.873	-200.000	-0.041	-0.252
-236.859	47.649	0.122	-0.114
-235.844	-99.845	-0.165	-0.041
-234.830	-102.537	-0.593	-0.142
-233.815	-149.199	-0.062	-0.005
-232.800	150.755	0.101	0.138
-231.786	413.285	0.075	-0.160
-230.771	102.563	0.259	-0.304
-229.757	800.000	0.016	-0.056
-228.742	-48.885	0.204	-0.098
-227.727	-45.455	0.508	-0.252
-226.713	-125.115	-0.192	-0.029
-225.698	-200.000	0.051	-0.388
-224.684	-35.473	0.209	-0.114
-223.669	800.000	0.047	-0.141
-222.655	-71.845	0.271	0.101
-221.640	14.935	0.224	-0.176
-220.625	-109.912	-0.085	-0.018
-219.611	-19.912	-0.213	-0.132
-218.596	-200.000	0.021	0.150
-217.582	-158.764	-0.180	0.010
-216.567	-200.000	0.010	-0.063
-215.552	87.954	-0.147	0.164
-214.538	800.000	0.020	-0.072
-213.523	-20.157	-0.113	0.070
-212.509	-52.810	0.126	-0.058
-211.494	-152.818	0.298	0.021
-210.479	800.000	0.024	-0.092
-209.465	-85.644	-0.475	-0.148
-208.450	43.249	0.181	-0.166
-207.436	253.491	-0.167	0.286
-206.421	407.741	0.177	-0.375
-205.406	3.468	0.230	0.168
-204.392	-200.000	0.016	0.465
-203.377	431.280	0.047	-0.101
-202.363	110.145	-0.293	0.352
-201.348	-60.500	0.121	-0.051
-200.333	-82.748	0.176	-0.057
-199.319	-110.873	0.230	-0.048
-198.304	-7.851	-0.185	0.125
-197.290	-61.167	-0.266	0.112
-196.275	-69.963	-0.227	0.087
-195.260	45.842	0.150	-0.139
-194.246	153.320	-0.171	0.234
-193.231	-133.721	0.036	-0.004
-192.217	-7.180	0.171	-0.116
-191.202	-58.517	-0.323	0.140
-190.187	-28.228	0.143	0.083
-189.173	-153.246	-0.153	-0.011
-188.158	95.708	-0.110	-0.126
-187.144	-119.620	0.471	-0.082
-186.129	-81.388	0.045	0.015
-185.114	221.232	-0.112	-0.180
-184.100	-200.000	0.039	-0.236
-183.085	-0.768	0.227	0.161
-182.071	110.388	0.191	-0.230
-181.056	800.000	-0.028	0.103
-180.042	246.504	0.079	-0.133
-179.027	-106.183	-0.062	-0.014
-178.012	311.371	0.108	-0.202
-176.998	-153.938	0.072	-0.005
-175.983	755.868	-0.059	0.159
-174.969	800.000	0.038	-0.145
-173.954	-89.849	-0.205	0.060
-172.939	196.410	-0.258	-0.393
-171.925	179.339	0.068	0.099
-170.910	38.413	-0.073	-0.065
-169.896	47.093	0.140	0.130
-168.881	190.130	0.126	-0.190
-167.866	-99.700	-0.158	0.040
-166.852	271.259	0.187	0.329
-165.837	-91.080	0.123	-0.035
-164.823	77.208	-0.206	-0.219
-163.808	160.949	-0.113	-0.158
-162.793	-47.353	0.148	0.072
-161.779	248.447	-0.067	0.113
-160.764	-200.000	0.027	0.279
-159.750	59.281	0.144	-0.142
-158.735	725.277	-0.216	0.576
-157.720	-200.000	-0.045	-0.208
-156.706	261.307	0.118	0.204
-155.691	-200.000	-0.041	-0.202
-154.677	503.363	-0.145	-0.335
-153.662	225.392	-0.183	-0.296
-152.647	581.897	-0.076	0.187
-151.633	57.107	-0.308	0.300
-150.618	-86.764	-0.201	0.061
-149.604	800.000	0.076	-0.247
-148.589	-200.000	-0.052	-0.370
-147.574	800.000	0.057	-0.194
-146.560	-68.231	-0.005	0.002
-145.545	-85.025	-0.447	-0.140
-144.531	211.861	-0.188	-0.297
-143.516	-92.622	0.326	0.091
-142.502	-14.863	-0.213	0.137
-141.487	-200.000	0.103	0.468
-140.472	-200.000	0.048	0.235
-139.458	-38.191	0.145	0.077
-138.443	-96.344	-0.054	0.014
-137.429	272.769	0.116	-0.204
-136.414	-200.000	0.012	0.197
-135.399	800.000	-0.037	0.125
-134.385	-141.908	0.162	-0.016
-133.370	466.049	0.043	0.096
-132.356	-200.000	-0.019	-0.298
-131.341	614.999	-0.073	-0.184
-130.326	-103.108	-0.083	0.020
-129.312	2.062	0.161	-0.116
-128.297	262.453	-0.075	-0.130
-127.283	300.849	-0.052	-0.096
-126.268	31.365	0.115	0.099
-125.253	-50.882	0.006	-0.003
-124.239	-27.773	-0.059	-0.034
-123.224	-2.575	0.222	0.155
-122.210	131.840	-0.080	-0.103
-121.195	800.000	0.109	-0.311
