DTS Sentinel unit serial number:	SN413079Multiplexer serial number:	ORYXHardware model number:	OX4-SRSoftware version number:	ORYX F/W v4.00 Oryx Data Collector v3.7.2.0data status	okinstallation	princeton_trtdifferential loss correction	single-endedforward channel	channel 1reverse channel	N/Adate	2019/09/15time	03:26:35forward acquisition time	60.00reverse acquisition time	0.00gamma	496.2192k internal	0.2324k external	0.2324temperature offset calibration	0.9990default loss term (dB/km)	0.3790temperature slope calibration	1.0000multiplexer offset coefficient	1.0000multiplexer slope coefficient	1.0000fibre end	0.00T internal ref (°C)	31.03T ext. ref 1 (°C)	4.61T ext. ref 2 (°C)	25.76length (m)	temperature (°C)	Stokes	anti-Stokes-747.200	-200.000	-0.003	0.087
-746.185	158.871	0.194	0.272
-745.171	-89.927	0.360	0.106
-744.156	96.738	0.131	-0.152
-743.142	-200.000	-0.040	0.227
-742.127	744.065	0.085	0.231
-741.112	162.592	0.095	0.134
-740.098	-89.177	-0.028	-0.008
-739.083	-200.000	0.013	0.311
-738.069	-87.492	-0.325	0.099
-737.054	-120.129	0.394	-0.068
-736.039	-106.804	0.066	0.015
-735.025	130.087	0.152	-0.196
-734.010	-92.496	-0.201	0.057
-732.996	215.504	0.027	-0.043
-731.981	-170.597	0.298	0.010
-730.966	800.000	-0.116	0.340
-729.952	82.206	-0.137	-0.150
-728.937	-7.000	0.140	-0.096
-727.923	97.326	0.129	-0.149
-726.908	91.344	0.139	-0.158
-725.894	17.298	-0.267	-0.214
-724.879	157.510	0.129	-0.181
-723.864	-42.864	0.092	-0.047
-722.850	584.495	-0.094	-0.233
-721.835	-68.886	-0.124	0.048
-720.821	800.000	-0.061	0.185
-719.806	-48.772	-0.202	0.098
-718.791	-105.885	0.085	0.019
-717.777	-71.190	0.169	0.064
-716.762	82.833	0.141	-0.155
-715.748	354.438	0.083	-0.167
-714.733	46.032	-0.162	0.151
-713.718	101.410	0.118	0.139
-712.704	-14.557	-0.109	-0.071
-711.689	404.153	0.040	-0.085
-710.675	60.465	0.081	0.080
-709.660	-71.417	-0.161	-0.061
-708.645	-60.786	-0.268	-0.115
-707.631	427.547	0.169	0.367
-706.616	14.192	-0.249	0.196
-705.602	14.864	-0.239	-0.188
-704.587	-1.515	0.045	-0.032
-703.572	-139.479	0.380	-0.041
-702.558	-200.000	-0.027	-0.129
-701.543	3.696	-0.196	0.144
-700.529	-48.265	0.242	-0.118
-699.514	451.536	0.040	-0.089
-698.499	-138.039	-0.036	0.004
-697.485	-36.570	-0.013	0.007
-696.470	-200.000	-0.024	0.305
-695.456	47.979	-0.071	-0.067
-694.441	-135.767	0.265	0.032
-693.426	-36.840	-0.031	-0.017
-692.412	177.320	0.187	-0.274
-691.397	-200.000	-0.037	-0.229
-690.383	121.105	0.223	-0.279
-689.368	55.937	-0.175	-0.171
-688.354	800.000	0.044	-0.125
-687.339	154.724	0.263	-0.364
-686.324	-200.000	0.006	0.229
-685.310	48.906	-0.116	0.109
-684.295	-29.453	-0.298	0.172
-683.281	-200.000	-0.003	0.039
-682.266	-200.000	-0.036	0.202
-681.251	-200.000	0.030	0.263
-680.237	320.953	0.202	-0.388
-679.222	-180.460	0.328	0.007
-678.208	-200.000	0.012	-0.136
-677.193	800.000	0.089	-0.283
-676.178	-200.000	0.052	0.373
-675.164	705.243	-0.084	0.223
-674.149	83.335	-0.270	-0.297
-673.135	-200.000	0.002	-0.054
-672.120	34.538	-0.060	0.053
-671.105	-200.000	0.013	-0.088
-670.091	-200.000	0.001	0.037
-669.076	-60.596	-0.181	0.077
-668.062	-66.999	0.333	0.132
-667.047	-9.174	-0.055	0.037
-666.032	-106.048	-0.236	-0.053
-665.018	121.019	0.197	-0.247
-664.003	-200.000	0.045	-0.271
-662.989	108.771	-0.115	-0.138
-661.974	-186.466	0.125	0.002
-660.959	361.526	-0.117	0.237
-659.945	-6.095	-0.294	0.202
-658.930	-9.359	0.120	-0.081
-657.916	31.562	0.263	0.227
-656.901	383.241	-0.154	-0.318
-655.886	-200.000	-0.076	0.373
-654.872	39.972	0.281	0.254
-653.857	800.000	-0.085	-0.237
-652.843	51.505	-0.218	-0.209
-651.828	142.610	0.038	-0.051
-650.814	-51.621	-0.135	-0.063
-649.799	-200.000	0.029	-0.137
-648.784	622.677	-0.171	-0.433
-647.770	-49.539	-0.075	-0.036
-646.755	165.156	0.185	0.263
-645.741	124.799	-0.055	0.069
-644.726	99.675	-0.039	-0.045
-643.711	-93.271	0.050	0.014
-642.697	55.022	-0.096	0.093
-641.682	-31.418	-0.093	0.053
-640.668	183.845	0.204	0.303
-639.653	-131.749	-0.263	0.035
-638.638	18.669	-0.195	0.157
-637.624	39.099	-0.176	-0.159
-636.609	-53.100	0.094	0.043
-635.595	800.000	0.105	0.383
-634.580	-200.000	0.043	-0.206
-633.565	216.877	0.073	0.118
-632.551	40.413	0.106	0.096
-631.536	42.537	-0.158	-0.145
-630.522	66.632	-0.354	-0.361
-629.507	123.551	-0.088	-0.111
-628.492	340.750	-0.087	0.171
-627.478	711.232	0.047	0.124
-626.463	-145.715	-0.086	0.008
-625.449	101.193	0.075	0.088
-624.434	-109.169	0.295	-0.063
-623.419	-43.988	-0.080	0.040
-622.405	194.381	0.102	-0.155
-621.390	93.317	-0.075	0.086
-620.376	-22.250	-0.162	-0.099
-619.361	-155.144	-0.140	-0.009
-618.346	800.000	0.038	0.132
-617.332	800.000	0.045	0.130
-616.317	-200.000	0.053	0.295
-615.303	-33.598	-0.095	-0.053
-614.288	134.709	-0.171	-0.222
-613.273	800.000	-0.110	0.338
-612.259	13.477	-0.030	0.023
-611.244	-200.000	-0.065	0.376
-610.230	800.000	0.084	-0.252
-609.215	800.000	-0.055	-0.226
-608.201	37.901	0.177	0.158
-607.186	800.000	0.045	-0.192
-606.171	-33.046	-0.057	-0.032
-605.157	-95.578	0.188	0.051
-604.142	-200.000	0.010	-0.054
-603.128	77.615	-0.219	-0.235
-602.113	4.260	0.186	-0.137
-601.098	476.864	0.197	-0.448
-600.084	614.025	0.079	-0.199
-599.069	-101.431	0.072	-0.018
-598.055	358.387	0.135	-0.271
-597.040	-195.012	-0.312	0.002
-596.025	7.896	-0.097	-0.073
-595.011	171.844	0.219	-0.316
-593.996	253.484	0.111	-0.190
-592.982	-144.315	0.099	0.009
-591.967	134.174	-0.146	0.190
-590.952	-170.961	0.099	-0.003
-589.938	19.559	-0.331	-0.267
-588.923	23.453	0.169	0.139
-587.909	6.213	-0.176	0.131
-586.894	-200.000	0.039	0.380
-585.879	-103.055	-0.437	-0.104
-584.865	670.997	-0.065	-0.168
-583.850	31.814	0.116	-0.100
-582.836	-56.055	0.113	0.051
-581.821	186.104	-0.068	-0.102
-580.806	-81.844	0.078	0.026
-579.792	259.928	0.144	0.250
-578.777	-112.670	-0.148	0.030
-577.763	-59.201	-0.295	0.127
-576.748	800.000	-0.094	-0.338
-575.733	-200.000	0.022	0.191
-574.719	58.058	-0.226	-0.222
-573.704	-58.624	0.178	0.077
-572.690	-148.294	0.088	0.007
-571.675	51.583	-0.233	0.222
-570.661	31.771	0.062	0.053
-569.646	-200.000	0.043	-0.386
-568.631	275.977	0.022	0.040
-567.617	-1.044	0.028	-0.020
-566.602	-200.000	-0.025	0.192
-565.588	-44.545	0.184	0.092
-564.573	-200.000	0.015	-0.191
-563.558	-131.162	0.086	-0.011
-562.544	190.578	0.103	0.155
-561.529	-46.787	-0.182	0.089
-560.515	-165.366	-0.250	0.011
-559.500	-165.844	0.156	0.007
-558.485	-70.117	0.184	0.070
-557.471	-13.984	-0.191	-0.123
-556.456	322.928	0.048	0.092
-555.442	800.000	-0.030	-0.099
-554.427	-62.107	-0.114	0.048
-553.412	10.747	0.049	-0.038
-552.398	-119.154	-0.048	-0.008
-551.383	397.769	-0.133	0.280
-550.369	-149.497	-0.200	0.016
-549.354	-200.000	-0.003	-0.417
-548.339	220.393	0.101	0.162
-547.325	800.000	-0.043	0.156
-546.310	-96.411	0.163	0.043
-545.296	800.000	0.073	0.264
-544.281	800.000	0.078	-0.318
-543.266	-200.000	0.008	-0.126
-542.252	-119.837	-0.198	-0.034
-541.237	70.715	0.234	-0.242
-540.223	92.806	-0.174	-0.196
-539.208	-200.000	0.034	0.383
-538.193	110.066	-0.134	-0.161
-537.179	-200.000	-0.016	0.166
-536.164	-103.860	0.257	-0.060
-535.150	444.464	-0.110	0.243
-534.135	314.785	-0.047	0.088
-533.121	-159.333	-0.166	-0.009
-532.106	-68.789	0.374	-0.145
-531.091	71.111	0.097	0.101
-530.077	22.070	0.157	-0.128
-529.062	138.986	0.166	-0.219
-528.048	-36.792	0.296	0.159
-527.033	-200.000	-0.004	-0.207
-526.018	629.543	-0.076	0.192
-525.004	-50.185	0.312	-0.148
-523.989	-76.994	-0.100	0.035
-522.975	800.000	0.092	-0.278
-521.960	-52.351	0.123	0.057
-520.945	-13.897	0.342	0.221
-519.931	-44.578	-0.172	0.086
-518.916	46.055	-0.160	0.149
-517.902	-200.000	-0.052	0.247
-516.887	-124.457	0.183	-0.028
-515.872	71.194	-0.248	-0.258
-514.858	-72.121	0.141	-0.052
-513.843	357.754	-0.081	-0.161
-512.829	321.525	-0.105	-0.200
-511.814	-60.726	-0.177	0.075
-510.799	-17.664	-0.081	-0.051
-509.785	800.000	0.129	0.367
-508.770	-14.487	0.043	-0.028
-507.756	-96.692	-0.219	0.058
-506.741	-200.000	0.026	-0.126
-505.726	-200.000	0.007	0.172
-504.712	11.661	0.284	-0.218
-503.697	451.382	-0.047	-0.104
-502.683	207.771	0.172	-0.269
-501.668	-44.135	-0.170	0.085
-500.653	-75.684	-0.307	0.109
-499.639	-200.000	0.132	-0.000
-498.624	-62.963	-0.213	0.088
-497.610	184.422	0.138	0.204
-496.595	-200.000	0.018	-0.346
-495.581	325.732	0.111	0.212
-494.566	265.350	0.175	0.305
-493.551	-57.700	-0.243	0.106
-492.537	-200.000	-0.052	-0.311
-491.522	-114.962	0.330	0.063
-490.508	-134.952	0.172	0.021
-489.493	1.460	0.030	0.021
-488.478	-93.556	-0.187	-0.052
-487.464	277.858	-0.138	0.245
-486.449	368.309	0.104	-0.210
-485.435	512.013	0.061	-0.142
-484.420	-200.000	-0.017	0.383
-483.405	-0.144	-0.131	0.093
-482.391	-189.040	0.101	0.001
-481.376	-113.790	-0.533	0.104
-480.362	-200.000	0.004	-0.228
-479.347	-145.505	-0.314	-0.028
-478.332	-200.000	0.060	-0.280
-477.318	-84.713	0.227	-0.071
-476.303	800.000	-0.086	0.237
-475.289	-9.772	0.264	0.175
-474.274	-120.312	-0.297	-0.051
-473.259	376.661	-0.043	0.087
-472.245	222.839	-0.052	0.083
-471.230	82.487	0.139	-0.150
-470.216	349.903	0.088	-0.174
-469.201	0.498	-0.224	-0.160
-468.186	334.737	0.221	-0.428
-467.172	-40.200	0.069	-0.036
-466.157	-66.415	-0.255	-0.101
-465.143	-200.000	0.001	0.194
-464.128	-128.281	-0.458	0.065
-463.113	-200.000	-0.003	0.114
-462.099	118.411	0.177	0.217
-461.084	-95.090	0.080	-0.022
-460.070	509.586	0.049	0.114
-459.055	162.278	0.030	-0.042
-458.040	-200.000	0.071	0.408
-457.026	800.000	-0.050	0.209
-456.011	136.251	-0.134	-0.175
-454.997	-200.000	0.045	-0.356
-453.982	64.352	0.127	-0.127
-452.968	800.000	-0.051	0.164
-451.953	91.359	0.029	0.033
-450.938	800.000	0.044	-0.153
-449.924	489.909	0.094	-0.215
-448.909	-110.043	-0.157	0.033
-447.895	145.851	0.158	0.211
-446.880	800.000	0.041	-0.141
-445.865	-137.609	-0.293	0.033
-444.851	800.000	-0.058	-0.195
-443.836	-200.000	-0.018	-0.359
-442.822	784.915	-0.055	-0.151
-441.807	130.579	-0.104	-0.133
-440.792	800.000	0.047	-0.139
-439.778	-162.638	0.085	0.004
-438.763	147.101	0.170	0.228
-437.749	249.556	-0.112	0.189
-436.734	-74.401	0.135	-0.049
-435.719	-81.550	-0.130	0.042
-434.705	-61.087	0.278	0.117
-433.690	-29.736	-0.351	0.200
-432.676	-79.024	-0.210	0.071
-431.661	-122.450	0.162	-0.026
-430.646	-113.688	-0.234	0.046
-429.632	-28.417	0.200	0.115
-428.617	6.348	-0.243	-0.180
-427.603	-21.321	-0.147	0.090
-426.588	36.372	0.063	0.055
-425.573	-168.137	-0.206	-0.008
-424.559	-85.054	0.093	-0.029
-423.544	-153.111	0.302	0.021
-422.530	-200.000	0.017	-0.188
-421.515	595.448	0.067	-0.166
-420.500	800.000	-0.096	-0.342
-419.486	-97.479	-0.203	0.053
-418.471	-66.746	-0.219	0.087
-417.457	-200.000	0.009	-0.106
-416.442	18.273	0.136	-0.108
-415.428	800.000	-0.105	0.425
-414.413	-51.892	-0.390	-0.181
-413.398	81.813	0.208	-0.224
-412.384	-145.867	0.330	-0.029
-411.369	-200.000	0.001	-0.213
-410.355	-169.641	-0.332	-0.012
-409.340	800.000	-0.015	0.057
-408.325	-160.413	-0.325	0.017
-407.311	115.708	0.169	-0.206
-406.296	-200.000	-0.037	0.213
-405.282	800.000	0.034	0.115
-404.267	-1.410	0.145	-0.102
-403.252	-62.769	-0.234	-0.096
-402.238	54.862	-0.100	-0.096
-401.223	-109.192	-0.152	-0.032
-400.209	486.442	0.091	0.208
-399.194	800.000	0.045	0.136
-398.179	48.620	0.264	-0.247
-397.165	-58.037	0.175	0.076
-396.150	-153.573	-0.088	-0.006
-395.136	-200.000	-0.011	0.179
-394.121	-200.000	0.005	0.094
-393.106	-200.000	-0.007	0.165
-392.092	800.000	0.094	-0.361
-391.077	-111.203	-0.017	0.003
-390.063	-90.975	-0.422	0.121
-389.048	596.182	0.078	-0.193
-388.033	745.735	-0.045	-0.121
-387.019	800.000	-0.091	-0.255
-386.004	60.946	0.378	-0.373
-384.990	242.445	0.080	0.134
-383.975	-142.765	0.123	0.012
-382.960	-200.000	0.066	-0.372
-381.946	-60.809	-0.313	-0.132
-380.931	-57.401	0.302	0.132
-379.917	0.091	0.179	-0.127
-378.902	156.385	0.051	0.070
-377.888	-200.000	-0.072	0.510
-376.873	44.521	-0.138	-0.127
-375.858	101.935	-0.043	0.050
-374.844	-102.510	0.342	0.081
-373.829	-41.824	-0.114	-0.058
-372.815	319.161	-0.187	0.353
-371.800	-5.868	-0.251	-0.171
-370.785	-200.000	-0.004	0.045
-369.771	131.355	-0.220	-0.282
-368.756	23.766	0.150	0.123
-367.742	167.930	0.058	-0.082
-366.727	503.847	0.114	0.262
-365.712	-76.596	-0.083	0.029
-364.698	30.310	0.113	0.096
-363.683	-200.000	0.022	0.236
-362.669	200.515	-0.148	0.227
-361.654	-52.135	0.240	-0.111
-360.639	791.567	0.098	0.268
-359.625	-200.000	-0.051	0.248
-358.610	-57.035	0.223	0.098
-357.596	49.872	-0.229	-0.214
-356.581	218.967	-0.052	-0.083
-355.566	-110.696	0.238	-0.049
-354.552	-115.017	0.197	0.037
-353.537	-112.466	0.185	-0.037
-352.523	800.000	-0.078	-0.279
-351.508	182.182	-0.053	-0.077
-350.493	-105.380	-0.104	-0.023
-349.479	-32.369	-0.289	-0.160
-348.464	-150.602	-0.170	0.013
-347.450	144.565	0.157	-0.209
-346.435	-200.000	0.021	-0.436
-345.420	71.406	-0.086	0.088
-344.406	-133.291	-0.142	0.018
-343.391	800.000	0.069	-0.233
-342.377	-9.512	0.176	0.117
-341.362	6.360	0.181	-0.134
-340.348	-200.000	0.006	-0.228
-339.333	473.393	-0.038	-0.086
-338.318	-200.000	-0.005	0.163
-337.304	-162.272	-0.149	-0.007
-336.289	210.170	0.153	0.239
-335.275	-200.000	0.112	0.499
-334.260	-200.000	-0.009	0.098
-333.245	-200.000	0.065	-0.351
-332.231	-18.295	0.223	-0.138
-331.216	-73.078	-0.033	-0.012
-330.202	-91.915	-0.101	-0.028
-329.187	202.059	-0.062	0.095
-328.172	-120.589	0.161	0.027
-327.158	19.607	-0.247	-0.197
-326.143	-128.095	0.240	0.034
-325.129	663.523	0.105	-0.268
-324.114	453.729	-0.163	0.358
-323.099	132.107	0.232	-0.297
-322.085	-56.450	-0.193	-0.085
-321.070	123.739	0.156	0.194
-320.056	-88.267	-0.429	0.128
-319.041	-96.870	0.382	0.100
-318.026	-149.490	-0.185	-0.015
-317.012	-106.534	-0.038	-0.008
-315.997	-200.000	0.033	-0.248
-314.983	104.662	0.108	0.126
-313.968	-200.000	-0.044	0.222
-312.953	4.381	0.131	0.095
-311.939	-77.698	0.261	0.090
-310.924	19.654	0.248	0.198
-309.910	-32.940	-0.262	0.145
-308.895	532.008	-0.052	-0.121
-307.880	-82.246	-0.177	-0.057
-306.866	800.000	-0.017	0.060
-305.851	-119.376	0.425	-0.073
-304.837	-200.000	0.049	-0.221
-303.822	-200.000	0.058	0.265
-302.807	14.293	0.236	0.183
-301.793	83.155	-0.103	0.111
-300.778	-14.503	-0.190	-0.122
-299.764	30.856	0.136	-0.115
-298.749	-150.045	0.152	0.012
-297.735	479.558	-0.036	0.082
-296.720	-173.564	-0.021	0.001
-295.705	-190.301	-0.111	0.001
-294.691	-200.000	-0.028	-0.260
-293.676	-46.128	0.212	0.104
-292.662	512.773	0.050	0.117
-291.647	663.854	0.064	0.163
-290.632	800.000	0.035	0.148
-289.618	504.087	-0.085	0.196
-288.603	9.546	-0.233	0.175
-287.589	-200.000	-0.050	-0.401
-286.574	-131.830	0.160	-0.021
-285.559	37.108	-0.145	0.127
-284.545	-200.000	0.014	-0.328
-283.530	9.877	-0.142	0.107
-282.516	318.419	-0.047	0.088
-281.501	-200.000	0.060	-0.347
-280.486	-45.340	-0.143	0.071
-279.472	254.119	-0.126	-0.214
-278.457	278.924	0.168	0.298
-277.443	48.451	0.319	0.297
-276.428	194.915	-0.034	-0.051
-275.413	-39.120	0.079	-0.041
-274.399	-200.000	-0.013	-0.122
-273.384	-89.913	-0.295	0.085
-272.370	-170.810	-0.079	0.003
-271.355	60.906	-0.189	0.186
-270.340	-184.592	0.391	0.006
-269.326	-139.451	0.330	0.035
-268.311	274.888	0.254	0.446
-267.297	2.691	0.226	-0.163
-266.282	800.000	-0.013	0.053
-265.267	14.425	-0.125	0.096
-264.253	800.000	-0.136	-0.460
-263.238	-133.549	0.148	0.018
-262.224	11.266	0.148	-0.112
-261.209	800.000	-0.120	0.371
-260.195	105.371	-0.080	-0.094
-259.180	179.342	-0.008	-0.012
-258.165	-7.465	-0.322	0.216
-257.151	-92.809	-0.155	-0.043
-256.136	800.000	-0.091	0.261
-255.122	40.425	-0.268	0.239
-254.107	-52.781	0.107	-0.049
-253.092	-65.446	0.290	0.116
-252.078	-25.739	0.159	-0.093
-251.063	-128.713	-0.094	-0.013
-250.049	800.000	0.072	0.197
-249.034	31.843	0.234	-0.200
-248.019	800.000	0.117	0.357
-247.005	-200.000	-0.056	-0.260
-245.990	-200.000	-0.019	-0.230
-244.976	-101.745	0.380	0.091
-243.961	-79.309	0.184	-0.062
-242.946	800.000	0.069	0.205
-241.932	-200.000	-0.002	0.152
-240.917	-92.118	-0.119	-0.033
-239.903	-162.402	0.117	-0.006
-238.888	-200.000	-0.035	-0.289
-237.873	-200.000	-0.042	0.279
-236.859	200.281	0.169	0.258
-235.844	-138.178	0.084	0.009
-234.830	84.713	0.180	-0.195
-233.815	632.522	0.051	0.128
-232.800	61.450	0.094	0.093
-231.786	-200.000	-0.011	-0.058
-230.771	7.649	0.140	-0.104
-229.757	-185.385	0.575	-0.009
-228.742	-140.781	-0.278	0.028
-227.727	145.684	0.109	-0.145
-226.713	-10.538	0.293	0.192
-225.698	-115.029	0.051	-0.010
-224.684	-200.000	-0.026	0.147
-223.669	800.000	-0.077	0.286
-222.655	18.092	-0.136	-0.107
-221.640	-56.855	-0.071	-0.031
-220.625	187.421	-0.133	0.196
-219.611	-200.000	0.006	0.227
-218.596	-152.803	-0.129	0.009
-217.582	276.064	-0.055	-0.096
-216.567	227.145	0.094	0.151
-215.552	-20.702	-0.134	0.081
-214.538	-97.795	-0.211	-0.054
-213.523	-103.081	-0.160	0.038
-212.509	-48.356	-0.211	-0.101
-211.494	800.000	-0.040	-0.138
-210.479	385.354	0.096	-0.196
-209.465	-17.025	-0.117	-0.073
-208.450	-70.141	0.116	-0.044
-207.436	-126.512	-0.253	0.037
-206.421	511.097	0.073	0.169
-205.406	-38.309	-0.315	-0.165
-204.392	13.282	-0.238	-0.182
-203.377	-75.891	0.277	0.097
-202.363	-48.049	-0.187	-0.089
-201.348	800.000	-0.080	0.337
-200.333	800.000	0.022	0.084
-199.319	71.316	-0.183	0.187
-198.304	78.665	0.099	0.105
-197.290	-200.000	-0.003	-0.149
-196.275	-84.018	-0.126	0.040
-195.260	-108.817	-0.416	-0.088
-194.246	42.793	0.167	-0.150
-193.231	-40.170	0.366	-0.188
-192.217	359.173	-0.090	0.178
-191.202	-48.636	-0.370	0.175
-190.187	47.910	-0.236	-0.218
-189.173	276.033	0.101	-0.178
-188.158	-54.997	0.110	-0.049
-187.144	-200.000	-0.058	-0.268
-186.129	-93.391	0.316	0.086
-185.114	-67.187	0.245	-0.095
-184.100	126.548	-0.070	-0.088
-183.085	489.178	0.098	-0.221
-182.071	800.000	-0.011	0.040
-181.056	-120.312	0.120	-0.020
-180.042	39.588	-0.105	0.093
-179.027	-124.470	0.250	-0.038
-178.012	26.698	-0.188	-0.156
-176.998	800.000	-0.074	-0.204
-175.983	692.895	0.063	-0.163
-174.969	-51.849	0.333	0.153
-173.954	800.000	-0.108	0.460
-172.939	-106.067	0.265	-0.059
-171.925	260.631	-0.067	0.114
-170.910	71.364	-0.202	0.207
-169.896	-102.314	-0.215	0.051
-168.881	-105.898	0.447	-0.100
-167.866	800.000	0.075	-0.228
-166.852	128.450	-0.064	0.081
-165.837	-11.610	0.175	-0.114
-164.823	135.907	0.111	0.142
-163.808	-15.376	0.054	0.034
-162.793	43.366	-0.134	0.121
-161.779	444.521	0.092	0.199
-160.764	-182.369	0.042	0.001
-159.750	-200.000	-0.178	0.000
-158.735	-40.928	0.146	0.074
-157.720	-56.830	-0.164	0.072
-156.706	232.521	-0.132	0.215
-155.691	73.112	-0.314	-0.324
-154.677	-103.465	-0.094	0.022
-153.662	336.705	0.186	-0.357
-152.647	122.222	-0.180	0.222
-151.633	493.624	0.038	0.085
-150.618	255.836	0.024	0.040
-149.604	800.000	0.034	-0.112
-148.589	48.776	0.231	-0.213
-147.574	800.000	0.166	0.506
-146.560	473.014	-0.062	-0.138
-145.545	-200.000	-0.051	-0.310
-144.531	65.951	0.038	0.038
-143.516	-142.285	0.320	-0.031
-142.502	-18.755	-0.227	-0.140
-141.487	-200.000	0.016	-0.104
-140.472	-200.000	0.032	-0.474
-139.458	-200.000	0.046	-0.239
-138.443	-200.000	-0.020	-0.173
-137.429	-200.000	0.033	-0.000
-136.414	-120.569	0.148	0.025
-135.399	-143.848	0.198	0.018
-134.385	-35.468	-0.023	-0.012
-133.370	521.048	0.121	0.280
-132.356	110.360	0.124	0.147
-131.341	157.903	-0.027	0.037
-130.326	-36.239	-0.264	-0.140
-129.312	1.607	0.456	-0.324
-128.297	83.489	-0.019	0.020
-127.283	-26.157	0.132	0.077
-126.268	-110.444	-0.370	-0.076
-125.253	-62.717	0.169	0.069
-124.239	31.759	0.130	-0.110
-123.224	-28.858	0.124	0.070
-122.210	-46.820	-0.145	-0.070
-121.195	800.000	0.087	-0.329
-120.180	-20.773	0.235	-0.142
