DTS Sentinel unit serial number:	SN413079Multiplexer serial number:	ORYXHardware model number:	OX4-SRSoftware version number:	ORYX F/W v4.00 Oryx Data Collector v3.7.2.0data status	okinstallation	princeton_trtdifferential loss correction	single-endedforward channel	channel 1reverse channel	N/Adate	2019/09/12time	19:24:34forward acquisition time	15.00reverse acquisition time	0.00gamma	496.2192k internal	0.2321k external	0.2321temperature offset calibration	1.0126default loss term (dB/km)	0.3790temperature slope calibration	1.0000multiplexer offset coefficient	1.0000multiplexer slope coefficient	1.0000fibre end	0.00T internal ref (°C)	32.37T ext. ref 1 (°C)	3.30T ext. ref 2 (°C)	26.91length (m)	temperature (°C)	Stokes	anti-Stokes-747.200	-200.000	-0.012	0.273
-746.185	110.434	-0.252	0.307
-745.171	171.346	0.243	-0.353
-744.156	21.362	-0.224	-0.184
-743.142	73.246	0.545	0.576
-742.127	-41.741	0.898	-0.466
-741.112	601.822	-0.162	-0.407
-740.098	51.461	0.484	0.464
-739.083	138.118	0.117	-0.154
-738.069	85.480	1.058	1.174
-737.054	339.642	0.462	-0.910
-736.039	662.268	-0.291	-0.758
-735.025	348.448	0.110	-0.220
-734.010	-110.888	-0.929	-0.193
-732.996	64.657	-0.043	0.043
-731.981	-93.371	0.624	-0.175
-730.966	800.000	0.172	0.486
-729.952	451.996	-0.131	-0.293
-728.937	63.357	0.435	-0.440
-727.923	-148.040	-0.705	0.059
-726.908	800.000	-0.347	-0.970
-725.894	501.053	0.359	-0.838
-724.879	6.380	0.124	0.093
-723.864	800.000	-0.227	0.838
-722.850	41.982	-0.495	-0.454
-721.835	-200.000	-0.034	-0.374
-720.821	-200.000	-0.135	-0.948
-719.806	-104.726	0.813	0.189
-718.791	-187.218	0.724	0.010
-717.777	775.999	-0.122	-0.337
-716.762	-0.001	-0.254	0.182
-715.748	-158.422	-0.740	-0.043
-714.733	-169.590	0.333	-0.012
-713.718	10.905	-0.470	0.362
-712.704	204.805	0.061	-0.095
-711.689	800.000	0.049	-0.212
-710.675	-48.189	-0.380	0.185
-709.660	-67.913	1.044	0.411
-708.645	-200.000	-0.084	1.236
-707.631	800.000	0.140	0.514
-706.616	-65.617	1.203	0.487
-705.602	-67.362	-0.460	-0.182
-704.587	-10.293	0.149	-0.100
-703.572	-99.787	0.139	-0.035
-702.558	629.796	-0.088	0.225
-701.543	800.000	-0.215	0.656
-700.529	-77.585	-0.444	-0.155
-699.514	800.000	0.116	-0.340
-698.499	800.000	-0.045	0.152
-697.485	746.475	-0.434	1.178
-696.470	390.010	0.293	-0.614
-695.456	-200.000	-0.061	0.325
-694.441	328.927	-0.076	-0.148
-693.426	-72.459	-0.830	-0.310
-692.412	-161.115	-0.579	-0.030
-691.397	649.500	0.151	0.390
-690.383	-56.912	0.808	-0.360
-689.368	-96.945	-1.082	0.286
-688.354	-200.000	-0.061	-0.734
-687.339	-200.000	-0.035	-0.381
-686.324	800.000	0.125	0.420
-685.310	-131.178	0.649	0.087
-684.295	-169.033	-0.872	0.033
-683.281	280.105	0.107	-0.193
-682.266	9.603	-0.316	-0.241
-681.251	653.544	-0.450	1.164
-680.237	67.428	-0.370	-0.381
-679.222	-200.000	0.063	-0.340
-678.208	-91.931	-0.671	-0.192
-677.193	195.329	0.117	0.179
-676.178	514.955	-0.194	-0.457
-675.164	204.036	-0.637	-0.994
-674.149	10.554	0.144	-0.110
-673.135	-107.436	0.594	-0.131
-672.120	12.412	-0.360	0.280
-671.105	-200.000	-0.062	0.417
-670.091	800.000	0.118	0.328
-669.076	-140.062	1.044	0.111
-668.062	0.044	-0.417	-0.299
-667.047	42.274	-0.085	0.078
-666.032	-200.000	-0.053	-0.240
-665.018	240.060	-0.369	0.620
-664.003	24.492	0.591	0.493
-662.989	289.678	0.045	-0.082
-661.974	75.482	-0.365	-0.388
-660.959	-173.975	0.240	0.007
-659.945	-88.202	0.093	-0.028
-658.930	-194.505	-0.188	0.002
-657.916	-67.248	-0.162	-0.064
-656.901	48.625	0.574	0.542
-655.886	-200.000	-0.021	0.114
-654.872	-5.847	-0.343	-0.237
-653.857	800.000	-0.139	-0.538
-652.843	-66.765	0.828	-0.330
-651.828	-9.651	-0.348	-0.233
-650.814	-73.800	-0.434	-0.159
-649.799	-105.288	0.108	0.025
-648.784	-94.783	0.573	0.157
-647.770	-200.000	0.010	0.284
-646.755	-41.382	-0.283	-0.147
-645.741	-145.900	-0.272	-0.024
-644.726	-200.000	0.006	0.296
-643.711	-200.000	0.080	0.719
-642.697	-132.232	-0.325	0.042
-641.682	-58.122	0.763	-0.335
-640.668	-24.057	0.493	-0.296
-639.653	11.659	0.330	-0.255
-638.638	-200.000	-0.030	-0.176
-637.624	-53.263	-0.405	0.187
-636.609	611.725	0.293	-0.738
-635.595	-200.000	-0.140	-0.809
-634.580	139.489	-0.513	-0.680
-633.565	-63.558	0.102	0.042
-632.551	-42.090	0.351	-0.181
-631.536	800.000	0.176	-0.573
-630.522	-200.000	0.102	0.966
-629.507	2.136	-0.489	0.355
-628.492	-200.000	0.018	0.092
-627.478	290.242	-0.024	0.044
-626.463	-200.000	-0.026	-0.182
-625.449	-142.944	-0.856	-0.083
-624.434	530.000	-0.252	-0.598
-623.419	145.455	-0.466	0.627
-622.405	699.531	-0.067	0.177
-621.390	-45.092	-0.454	0.227
-620.376	-86.826	0.574	0.176
-619.361	-43.224	1.266	0.645
-618.346	-103.597	-0.541	0.128
-617.332	-200.000	0.029	0.605
-616.317	100.421	-0.290	0.338
-615.303	-200.000	-0.018	0.501
-614.288	105.781	-0.462	0.549
-613.273	-84.565	-0.237	-0.075
-612.259	201.210	-0.491	-0.760
-611.244	249.546	-0.165	-0.281
-610.230	115.144	-0.092	0.114
-609.215	-200.000	-0.768	0.003
-608.201	-168.908	0.738	0.028
-607.186	-123.125	-1.204	0.194
-606.171	-65.780	0.271	0.109
-605.157	-72.840	0.488	-0.181
-604.142	-86.737	-0.361	-0.111
-603.128	-200.000	-0.038	0.179
-602.113	-68.954	0.651	0.252
-601.098	108.814	0.536	0.644
-600.084	-17.976	-0.769	0.484
-599.069	-200.000	0.184	0.904
-598.055	13.655	0.451	-0.352
-597.040	199.737	-0.272	-0.419
-596.025	166.846	0.148	0.210
-595.011	-28.662	-0.594	-0.344
-593.996	-6.702	-1.002	0.685
-592.982	72.041	0.341	-0.357
-591.967	130.248	-0.424	-0.545
-590.952	-95.918	-0.673	0.180
-589.938	-96.754	1.096	0.289
-588.923	173.532	0.308	0.446
-587.909	-83.691	-0.603	-0.193
-586.894	-200.000	-0.003	-0.556
-585.879	640.990	-0.277	0.707
-584.865	369.566	0.418	-0.850
-583.850	503.162	-0.167	-0.387
-582.836	40.863	-0.123	-0.112
-581.821	81.401	-0.459	-0.499
-580.806	36.202	0.658	-0.582
-579.792	-132.456	0.621	-0.080
-578.777	156.621	-0.164	0.227
-577.763	-99.851	-0.391	-0.098
-576.748	385.363	-0.417	-0.863
-575.733	293.808	0.198	0.364
-574.719	-200.000	-0.108	-0.845
-573.704	400.224	-0.508	1.069
-572.690	-200.000	-0.027	-0.480
-571.675	-166.052	0.596	0.025
-570.661	-14.029	-0.396	0.257
-569.646	-25.663	-0.774	0.459
-568.631	2.823	-1.064	-0.775
-567.617	-114.005	0.072	-0.014
-566.602	-80.762	-0.593	-0.198
-565.588	-89.131	-0.401	-0.119
-564.573	-145.765	-0.491	0.044
-563.558	800.000	0.083	0.299
-562.544	110.482	-0.217	0.262
-561.529	14.954	0.243	-0.191
-560.515	800.000	0.216	-0.639
-559.500	-109.855	0.729	0.153
-558.485	217.216	0.363	-0.580
-557.471	-115.141	-0.663	0.126
-556.456	-158.960	0.763	-0.043
-555.442	-38.856	-0.330	-0.175
-554.427	-200.000	0.007	-0.284
-553.412	83.458	-0.240	0.263
-552.398	20.673	-0.033	0.027
-551.383	13.220	-0.224	-0.174
-550.369	-200.000	-0.129	-0.589
-549.354	8.255	0.169	0.127
-548.339	-137.512	0.815	-0.092
-547.325	-200.000	-0.101	0.568
-546.310	-200.000	-0.020	-0.189
-545.296	-188.437	0.754	-0.009
-544.281	-200.000	0.075	0.000
-543.266	-200.000	0.061	-0.595
-542.252	-9.737	-0.398	-0.266
-541.237	-30.453	-0.229	-0.130
-540.223	-175.364	-0.274	-0.008
-539.208	-200.000	0.043	-0.561
-538.193	-53.725	0.486	-0.222
-537.179	-117.971	-0.269	-0.048
-536.164	-110.580	0.133	0.028
-535.150	-62.841	0.179	-0.074
-534.135	-200.000	-0.078	-0.346
-533.121	-92.692	0.269	0.075
-532.106	-200.000	0.044	0.786
-531.091	-14.005	0.478	-0.309
-530.077	6.492	0.359	0.267
-529.062	800.000	0.176	-0.551
-528.048	-200.000	0.014	-0.481
-527.033	201.512	-0.086	0.132
-526.018	-200.000	0.069	0.534
-525.004	523.055	-0.293	-0.689
-523.989	-77.463	-0.420	0.146
-522.975	-19.397	-0.416	-0.258
-521.960	102.635	-0.547	0.642
-520.945	-32.029	-0.281	0.158
-519.931	10.816	-0.346	-0.265
-518.916	529.177	0.190	0.449
-517.902	-200.000	-0.046	0.502
-516.887	-59.583	0.800	-0.344
-515.872	-61.936	-0.071	-0.030
-514.858	-101.583	-0.722	-0.176
-513.843	635.142	0.237	-0.603
-512.829	16.541	-0.549	0.435
-511.814	315.804	0.110	0.209
-510.799	451.556	-0.139	0.308
-509.785	324.767	0.195	-0.373
-508.770	-38.356	0.204	0.108
-507.756	-200.000	0.057	0.928
-506.741	9.286	0.093	-0.070
-505.726	-200.000	-0.251	-1.577
-504.712	-200.000	-0.191	1.338
-503.697	-57.905	0.500	0.219
-502.683	-80.440	-0.748	0.250
-501.668	-200.000	0.017	0.290
-500.653	184.401	-0.132	0.195
-499.639	-200.000	0.131	-0.884
-498.624	-64.848	-0.609	-0.247
-497.610	-45.385	-0.314	0.156
-496.595	800.000	-0.143	0.438
-495.581	346.193	0.282	-0.556
-494.566	175.618	0.346	-0.502
-493.551	178.908	-0.624	0.913
-492.537	-200.000	0.198	1.187
-491.522	-193.844	0.623	0.005
-490.508	244.238	0.350	-0.587
-489.493	644.212	0.183	0.467
-488.478	566.746	-0.145	0.352
-487.464	-107.300	0.800	0.176
-486.449	380.157	0.332	-0.680
-485.435	-12.296	0.328	-0.215
-484.420	-48.887	-0.567	0.272
-483.405	-153.365	-0.523	0.036
-482.391	-100.559	-0.422	-0.104
-481.376	-200.000	0.004	0.500
-480.362	101.756	-0.444	-0.518
-479.347	800.000	-0.188	-0.710
-478.332	-102.458	-0.568	-0.136
-477.318	-101.607	1.330	-0.323
-476.303	-200.000	0.064	-1.097
-475.289	181.911	-0.111	0.163
-474.274	-20.741	-0.281	0.173
-473.259	-133.078	0.978	0.124
-472.245	-200.000	-0.105	0.527
-471.230	58.906	-0.098	0.097
-470.216	-200.000	-0.074	-0.997
-469.201	170.498	0.065	-0.093
-468.186	-88.805	0.751	0.223
-467.172	-57.404	-0.294	-0.129
-466.157	-162.111	-0.369	-0.019
-465.143	7.467	0.191	-0.142
-464.128	-200.000	-0.042	-0.668
-463.113	-123.316	0.277	-0.044
-462.099	140.639	-0.465	-0.614
-461.084	-200.000	0.059	0.331
-460.070	305.067	-0.374	0.694
-459.055	305.611	-0.113	-0.209
-458.040	800.000	0.178	0.546
-457.026	-37.094	-0.373	-0.200
-456.011	-200.000	-0.045	0.820
-454.997	178.143	-0.568	0.828
-453.982	34.064	0.189	0.165
-452.968	59.723	0.320	-0.316
-451.953	-12.078	-0.741	-0.485
-450.938	-79.021	0.234	0.079
-449.924	92.359	-0.415	0.467
-448.909	154.069	0.441	-0.605
-447.895	-14.178	0.257	-0.166
-446.880	800.000	-0.106	0.425
-445.865	-42.598	-0.339	-0.172
-444.851	348.142	0.235	0.463
-443.836	145.126	0.315	-0.421
-442.822	-100.970	-0.758	-0.186
-441.807	-74.034	-0.540	0.196
-440.792	178.277	-0.477	0.696
-439.778	-200.000	0.611	0.000
-438.763	-37.903	-0.031	0.016
-437.749	800.000	-0.256	-0.735
-436.734	800.000	-0.053	0.171
-435.719	-43.055	0.399	0.202
-434.705	187.929	-0.086	0.128
-433.690	-200.000	0.123	-0.739
-432.676	344.686	0.294	-0.576
-431.661	28.544	0.322	-0.272
-430.646	-200.000	0.032	-0.279
-429.632	80.502	0.434	0.466
-428.617	-90.911	0.538	0.154
-427.603	-200.000	-0.076	0.544
-426.588	-167.261	-0.516	0.021
-425.573	-200.000	0.167	-0.844
-424.559	-41.395	-0.433	-0.223
-423.544	-104.036	-0.403	-0.094
-422.530	-149.422	1.117	-0.089
-421.515	-26.471	-0.960	-0.562
-420.500	82.538	-0.214	-0.232
-419.486	-37.873	0.599	0.318
-418.471	-63.730	0.639	0.261
-417.457	315.224	-0.203	-0.383
-416.442	260.630	-0.135	0.233
-415.428	131.696	-0.058	0.074
-414.413	-200.000	0.047	-1.271
-413.398	127.381	0.276	0.349
-412.384	1.432	-0.455	-0.327
-411.369	-200.000	-0.003	0.077
-410.355	-7.493	-0.376	-0.254
-409.340	-48.056	0.742	-0.357
-408.325	-200.000	0.038	1.291
-407.311	-18.358	-0.511	-0.319
-406.296	-95.016	1.014	0.273
-405.282	557.672	-0.075	0.180
-404.267	108.176	0.485	0.577
-403.252	-156.618	-0.155	-0.010
-402.238	58.906	0.441	-0.432
-401.223	489.977	-0.185	0.421
-400.209	688.410	-0.475	1.237
-399.194	-128.775	0.503	0.071
-398.179	-37.611	-0.710	-0.377
-397.165	68.676	-0.442	-0.452
-396.150	-93.562	0.869	0.239
-395.136	800.000	0.065	0.190
-394.121	800.000	-0.074	0.289
-393.106	-139.540	0.121	0.013
-392.092	-191.457	-0.259	-0.003
-391.077	-153.763	0.325	-0.022
-390.063	-11.551	-0.036	0.023
-389.048	-53.689	0.553	0.252
-388.033	14.960	0.208	-0.162
-387.019	-200.000	0.070	-0.414
-386.004	-115.663	0.670	0.125
-384.990	221.369	0.204	-0.327
-383.975	-105.494	0.272	0.062
-382.960	133.859	-0.531	-0.684
-381.946	-118.485	1.058	0.187
-380.931	137.054	0.110	0.143
-379.917	-36.331	-0.772	-0.414
-378.902	-200.000	-0.007	-0.302
-377.888	608.142	-0.105	0.261
-376.873	-200.000	-0.002	0.448
-375.858	-14.900	-0.306	0.195
-374.844	117.616	-0.161	0.198
-373.829	-100.911	-0.878	0.215
-372.815	-44.592	-0.422	0.210
-371.800	-118.752	0.697	0.122
-370.785	-200.000	0.017	-0.416
-369.771	658.843	-0.271	0.694
-368.756	-41.492	0.099	-0.051
-367.742	465.350	0.155	0.345
-366.727	27.034	0.946	0.790
-365.712	130.584	-0.358	-0.457
-364.698	-110.311	0.473	-0.098
-363.683	1.089	0.914	0.653
-362.669	8.731	0.130	0.097
-361.654	-82.238	0.482	0.156
-360.639	29.869	0.834	0.707
-359.625	20.653	0.366	0.295
-358.610	54.007	-0.405	-0.388
-357.596	541.460	0.062	0.146
-356.581	27.148	0.389	-0.325
-355.566	-68.223	-0.176	0.068
-354.552	5.639	-0.411	0.302
-353.537	744.338	0.216	0.578
-352.523	35.685	0.460	-0.402
-351.508	302.612	-0.443	0.816
-350.493	-83.841	-0.021	-0.007
-349.479	-9.017	-0.576	0.384
-348.464	-200.000	0.072	-0.326
-347.450	-176.190	-0.316	0.008
-346.435	667.117	0.268	-0.689
-345.420	-200.000	-0.011	0.227
-344.406	32.158	-0.531	0.456
-343.391	-200.000	-0.032	0.734
-342.377	-115.070	-0.716	-0.135
-341.362	195.569	-0.062	-0.094
-340.348	-108.044	-0.391	-0.084
-339.333	376.364	-0.176	0.357
-338.318	-138.933	-0.277	-0.030
-337.304	112.648	0.269	0.324
-336.289	800.000	0.290	0.847
-335.275	-132.656	-0.719	-0.092
-334.260	-161.837	-0.365	-0.018
-333.245	185.114	-0.435	-0.642
-332.231	4.414	-0.466	0.340
-331.216	-20.246	-0.496	-0.304
-330.202	-200.000	0.040	-1.008
-329.187	697.819	0.190	0.496
-328.172	152.206	0.658	-0.893
-327.158	-2.795	-0.139	-0.096
-326.143	800.000	-0.142	0.598
-325.129	243.133	0.374	0.623
-324.114	800.000	-0.135	0.498
-323.099	-200.000	0.086	0.976
-322.085	-14.784	0.194	-0.124
-321.070	156.379	0.294	-0.403
-320.056	800.000	0.079	-0.297
-319.041	800.000	-0.075	-0.259
-318.026	-120.279	0.501	-0.085
-317.012	34.394	0.239	0.207
-315.997	-121.331	0.275	0.046
-314.983	-200.000	0.101	-0.603
-313.968	76.029	-0.170	0.178
-312.953	364.341	0.319	-0.638
-311.939	497.882	0.072	-0.166
-310.924	85.653	-0.225	-0.245
-309.910	77.411	0.375	0.397
-308.895	-58.132	0.535	-0.232
-307.880	177.999	0.439	0.637
-306.866	-88.891	-1.090	0.321
-305.851	320.100	-0.669	1.262
-304.837	800.000	0.084	0.322
-303.822	-200.000	-0.010	0.126
-302.807	-143.682	-0.015	-0.001
-301.793	166.275	-0.127	-0.178
-300.778	-200.000	0.006	0.094
-299.764	131.676	-0.259	0.331
-298.749	-67.447	0.336	0.131
-297.735	-200.000	-0.069	-0.310
-296.720	-24.231	-0.354	0.210
-295.705	136.160	1.157	1.497
-294.691	-200.000	0.060	-0.489
-293.676	-167.418	1.154	-0.046
-292.662	14.624	-0.392	0.304
-291.647	-62.446	0.180	0.074
-290.632	36.739	0.772	0.677
-289.618	110.406	0.702	0.837
-288.603	571.081	0.195	-0.471
-287.589	100.055	0.614	-0.706
-286.574	144.073	0.157	-0.208
-285.559	90.749	-0.054	-0.060
-284.545	-132.970	0.436	-0.055
-283.530	478.466	-0.115	-0.257
-282.516	-34.688	-0.751	-0.408
-281.501	-200.000	0.074	-0.714
-280.486	-32.146	-0.830	0.460
-279.472	61.491	-0.382	-0.377
-278.457	-116.324	-0.474	-0.087
-277.443	374.414	-0.125	-0.252
-276.428	-116.808	-0.591	-0.108
-275.413	191.919	-0.271	0.406
-274.399	18.105	-0.276	0.218
-273.384	158.866	-0.344	0.474
-272.370	191.887	0.093	0.140
-271.355	685.006	0.108	-0.279
-270.340	-200.000	0.067	0.863
-269.326	131.686	0.626	-0.798
-268.311	32.208	0.605	0.518
-267.297	-57.993	0.466	-0.202
-266.282	4.960	-0.496	-0.362
-265.267	74.027	0.540	-0.562
-264.253	389.004	-0.232	-0.477
-263.238	6.307	-0.368	0.271
-262.224	117.367	0.083	-0.101
-261.209	66.989	0.330	0.334
-260.195	-42.526	0.710	0.359
-259.180	800.000	0.194	0.578
-258.165	14.167	-0.610	-0.471
-257.151	143.422	0.173	-0.228
-256.136	213.861	0.169	-0.265
-255.122	800.000	0.151	-0.552
-254.107	800.000	0.077	0.219
-253.092	-177.237	0.380	0.009
-252.078	-100.116	0.279	-0.069
-251.063	240.083	0.466	-0.770
-250.049	800.000	-0.144	-0.543
-249.034	-190.022	-1.145	0.013
-248.019	437.741	0.349	-0.754
-247.005	167.730	0.213	-0.300
-245.990	602.441	-0.276	-0.680
-244.976	182.942	-0.061	0.089
-243.961	-200.000	-0.030	-0.262
-242.946	-126.649	-0.200	-0.029
-241.932	-48.027	-0.554	0.266
-240.917	6.197	0.320	0.235
-239.903	370.446	-0.465	-0.933
-238.888	115.336	-0.367	-0.444
-237.873	-200.000	0.141	0.737
-236.859	-53.868	-0.113	-0.051
-235.844	52.889	0.751	0.711
-234.830	-6.788	0.422	0.284
-233.815	71.874	-0.336	-0.346
-232.800	-200.000	-0.050	-0.357
-231.786	-120.052	0.114	-0.019
-230.771	20.386	-0.478	0.383
-229.757	126.855	0.419	-0.525
-228.742	-200.000	0.073	0.514
-227.727	-32.907	0.348	0.192
-226.713	-200.000	0.076	-0.331
-225.698	229.431	0.247	0.399
-224.684	-86.020	-0.197	-0.060
-223.669	67.665	-0.250	0.253
-222.655	145.735	-0.443	0.588
-221.640	509.400	0.312	-0.718
-220.625	-163.662	1.341	-0.063
-219.611	800.000	0.189	-0.568
-218.596	-74.878	0.405	0.144
-217.582	164.180	0.317	-0.443
-216.567	800.000	0.081	-0.337
-215.552	45.380	-0.889	0.812
-214.538	-200.000	0.059	1.017
-213.523	-172.187	-0.788	0.025
-212.509	79.820	0.353	0.375
-211.494	-149.338	0.509	-0.040
-210.479	-112.039	0.666	-0.133
-209.465	-45.367	0.346	-0.170
-208.450	800.000	0.183	0.770
-207.436	25.576	0.746	-0.614
-206.421	-28.732	0.219	0.125
-205.406	-200.000	-0.021	0.291
-204.392	800.000	-0.116	0.436
-203.377	-74.617	0.800	-0.285
-202.363	565.617	-0.238	-0.571
-201.348	-138.507	-0.509	0.055
-200.333	-200.000	-0.013	-0.729
-199.319	335.601	0.117	0.224
-198.304	139.133	0.311	0.405
-197.290	-200.000	0.003	-0.119
-196.275	52.171	-0.275	0.260
-195.260	-17.176	-0.289	-0.180
-194.246	-200.000	-0.159	-0.727
-193.231	119.044	-0.099	-0.121
-192.217	44.235	-0.661	-0.600
-191.202	-200.000	0.018	0.651
-190.187	311.051	-0.568	1.052
-189.173	-28.985	0.527	0.299
-188.158	-168.981	-0.014	-0.001
-187.144	41.695	-0.214	0.192
-186.129	-200.000	-0.159	-1.119
-185.114	-200.000	-0.026	-0.375
-184.100	-13.827	-0.711	-0.454
-183.085	800.000	-0.145	0.415
-182.071	12.867	-0.314	-0.240
-181.056	9.323	-0.742	-0.555
-180.042	-198.801	0.646	-0.004
-179.027	8.109	-0.276	-0.205
-178.012	73.776	-0.539	-0.558
-176.998	-110.661	0.097	-0.020
-175.983	455.495	0.180	0.396
-174.969	-200.000	-0.060	-0.319
-173.954	-133.776	0.243	-0.030
-172.939	52.284	1.186	-1.117
-171.925	-96.745	-1.462	0.380
-170.910	-23.622	-0.345	-0.205
-169.896	-133.077	0.449	0.056
-168.881	-161.427	-0.276	0.014
-167.866	66.157	-0.104	-0.104
-166.852	-121.342	-0.961	0.158
-165.837	234.927	-0.187	-0.306
-164.823	-83.371	0.656	0.208
-163.808	349.151	0.204	0.398
-162.793	234.527	-0.115	-0.187
-161.779	181.831	0.399	0.581
-160.764	193.387	0.158	-0.236
-159.750	158.118	0.126	-0.173
-158.735	-83.112	0.311	-0.099
-157.720	-0.538	0.428	0.300
-156.706	-133.868	-0.340	-0.042
-155.691	-56.107	0.760	0.334
-154.677	119.546	0.518	0.633
-153.662	-144.502	-0.667	0.061
-152.647	-162.008	-0.545	-0.027
-151.633	586.522	-0.086	-0.209
-150.618	12.493	0.474	-0.361
-149.604	-128.384	0.287	-0.040
-148.589	-92.729	-0.454	0.126
-147.574	45.238	0.543	0.495
-146.560	-41.151	0.783	-0.399
-145.545	-67.172	-0.240	0.093
-144.531	-32.425	-0.617	-0.340
-143.516	292.793	0.129	-0.231
-142.502	49.259	0.256	0.238
-141.487	-147.550	-0.398	-0.033
-140.472	-28.935	0.844	0.478
-139.458	-62.586	-0.765	0.314
-138.443	212.640	0.330	0.514
-137.429	-200.000	0.078	0.415
-136.414	-200.000	0.045	-0.441
-135.399	284.188	0.183	-0.325
-134.385	-96.344	-0.985	-0.257
-133.370	-110.594	-0.719	0.147
-132.356	-200.000	-0.044	0.441
-131.341	363.606	0.286	-0.566
-130.326	72.022	0.436	-0.447
-129.312	275.612	0.121	0.211
-128.297	800.000	0.217	0.596
-127.283	-105.192	-0.663	0.149
-126.268	352.375	-0.358	-0.700
-125.253	720.179	0.181	0.475
-124.239	74.469	0.188	-0.195
-123.224	-200.000	-0.001	0.830
-122.210	188.324	0.144	0.212
-121.195	-55.141	0.464	0.206
