DTS Sentinel unit serial number:	SN413079Multiplexer serial number:	ORYXHardware model number:	OX4-SRSoftware version number:	ORYX F/W v4.00 Oryx Data Collector v3.7.2.0data status	okinstallation	princeton_trtdifferential loss correction	single-endedforward channel	channel 1reverse channel	N/Adate	2019/09/10time	20:04:11forward acquisition time	60.00reverse acquisition time	0.00gamma	496.2192k internal	0.2324k external	0.2324temperature offset calibration	0.9931default loss term (dB/km)	0.3790temperature slope calibration	1.0000multiplexer offset coefficient	1.0000multiplexer slope coefficient	1.0000fibre end	0.00T internal ref (°C)	32.56T ext. ref 1 (°C)	-0.31T ext. ref 2 (°C)	25.58length (m)	temperature (°C)	Stokes	anti-Stokes-747.200	34.841	0.096	0.085
-746.185	188.003	-0.205	0.309
-745.171	362.473	0.075	0.151
-744.156	-65.790	-0.212	0.086
-743.142	101.521	-0.154	0.181
-742.127	-88.001	-0.131	0.040
-741.112	0.595	-0.177	0.127
-740.098	800.000	-0.115	0.455
-739.083	-43.262	-0.317	-0.162
-738.069	-60.220	-0.196	-0.084
-737.054	-200.000	0.003	0.295
-736.039	-148.968	-0.435	-0.035
-735.025	60.557	0.172	0.172
-734.010	489.140	0.147	-0.339
-732.996	-87.989	-0.181	-0.055
-731.981	-200.000	-0.008	-0.384
-730.966	-27.918	0.129	-0.076
-729.952	182.958	-0.077	0.114
-728.937	113.949	0.315	-0.386
-727.923	-200.000	-0.021	-0.453
-726.908	737.575	0.010	-0.026
-725.894	-128.500	0.359	0.051
-724.879	-181.007	-0.261	-0.005
-723.864	-200.000	0.096	-0.436
-722.850	-101.462	-0.044	0.011
-721.835	800.000	-0.049	-0.177
-720.821	-200.000	0.050	-0.264
-719.806	87.734	-0.137	0.153
-718.791	-200.000	-0.004	-0.106
-717.777	-200.000	0.000	0.142
-716.762	800.000	0.050	-0.170
-715.748	-36.384	-0.335	-0.182
-714.733	-94.327	0.431	-0.119
-713.718	-200.000	0.006	-0.094
-712.704	153.005	-0.053	-0.073
-711.689	47.506	-0.144	-0.135
-710.675	338.593	-0.051	-0.101
-709.660	-93.351	0.064	-0.018
-708.645	-67.772	0.083	-0.033
-707.631	-128.958	-0.193	-0.027
-706.616	-200.000	0.001	0.013
-705.602	176.434	0.232	-0.340
-704.587	174.731	0.124	0.180
-703.572	136.373	0.218	-0.286
-702.558	35.470	-0.232	0.205
-701.543	800.000	-0.045	0.192
-700.529	-123.458	-0.364	-0.058
-699.514	194.692	0.088	0.135
-698.499	-91.150	-0.199	0.057
-697.485	72.756	0.209	0.219
-696.470	190.931	0.221	0.335
-695.456	-93.735	-0.291	0.081
-694.441	23.467	0.137	-0.114
-693.426	200.579	0.119	0.185
-692.412	60.006	0.172	-0.171
-691.397	-200.000	0.046	0.212
-690.383	-200.000	0.002	0.123
-689.368	-114.789	-0.172	-0.033
-688.354	48.802	-0.116	-0.110
-687.339	211.614	-0.070	0.111
-686.324	15.003	0.138	-0.109
-685.310	-68.116	0.197	-0.077
-684.295	96.984	0.111	-0.128
-683.281	-72.630	0.106	-0.040
-682.266	-200.000	0.002	-0.040
-681.251	-144.013	-0.244	-0.023
-680.237	147.871	-0.121	-0.164
-679.222	140.515	-0.181	-0.241
-678.208	-88.375	-0.291	-0.088
-677.193	96.606	0.107	0.124
-676.178	-164.859	0.100	0.005
-675.164	-101.797	-0.289	-0.071
-674.149	-1.210	-0.257	-0.183
-673.135	-50.663	0.017	0.008
-672.120	-200.000	-0.028	-0.174
-671.105	-77.031	-0.252	0.089
-670.091	-200.000	0.037	0.302
-669.076	800.000	0.038	0.115
-668.062	-200.000	0.028	0.174
-667.047	-171.301	-0.441	-0.015
-666.032	-63.020	0.164	0.068
-665.018	-200.000	0.028	0.505
-664.003	800.000	0.058	-0.163
-662.989	-48.109	-0.098	0.048
-661.974	-144.968	0.219	0.020
-660.959	-200.000	0.028	0.190
-659.945	-107.539	0.134	0.030
-658.930	-70.737	-0.158	0.060
-657.916	-4.277	0.321	0.223
-656.901	-19.584	0.062	-0.039
-655.886	-10.198	0.311	-0.207
-654.872	100.379	-0.086	-0.101
-653.857	349.921	-0.058	-0.115
-652.843	-181.418	-0.366	0.007
-651.828	61.626	0.081	-0.081
-650.814	4.388	-0.142	-0.105
-649.799	-74.814	0.060	-0.022
-648.784	-43.441	-0.069	0.035
-647.770	-120.812	0.171	0.029
-646.755	108.934	-0.202	-0.243
-645.741	-129.811	-0.110	0.015
-644.726	-11.146	0.200	0.133
-643.711	305.347	0.067	-0.126
-642.697	312.171	-0.055	0.104
-641.682	124.671	-0.278	-0.352
-640.668	-200.000	0.047	-0.400
-639.653	37.810	-0.069	0.061
-638.638	-157.261	0.455	0.028
-637.624	-103.728	-0.100	-0.024
-636.609	-121.841	0.121	0.020
-635.595	351.304	-0.110	-0.219
-634.580	800.000	-0.054	-0.228
-633.565	96.089	0.158	-0.182
-632.551	-75.177	0.413	0.148
-631.536	506.383	0.111	-0.258
-630.522	-52.389	0.220	-0.102
-629.507	-37.416	-0.115	-0.062
-628.492	-127.697	0.218	-0.032
-627.478	-46.262	-0.070	-0.035
-626.463	-59.395	0.231	0.100
-625.449	261.461	0.058	-0.101
-624.434	-200.000	-0.041	-0.242
-623.419	-200.000	-0.002	-0.077
-622.405	-128.267	-0.141	-0.020
-621.390	800.000	-0.036	0.137
-620.376	800.000	0.135	-0.451
-619.361	-200.000	-0.084	-0.468
-618.346	66.345	0.053	-0.054
-617.332	-132.098	-0.280	0.037
-616.317	-192.130	0.206	-0.002
-615.303	-200.000	0.008	0.180
-614.288	-200.000	0.012	0.095
-613.273	-54.627	0.115	-0.052
-612.259	-157.044	-0.558	0.034
-611.244	-200.000	-0.022	0.114
-610.230	-70.338	-0.191	-0.073
-609.215	-108.506	0.293	-0.063
-608.201	160.950	-0.155	-0.217
-607.186	-120.259	0.152	-0.026
-606.171	24.743	-0.155	0.129
-605.157	162.393	0.042	-0.059
-604.142	-34.492	-0.206	-0.114
-603.128	-152.183	-0.337	0.025
-602.113	-200.000	-0.012	-0.074
-601.098	800.000	-0.065	0.241
-600.084	-163.840	-0.481	-0.023
-599.069	-200.000	-0.030	0.267
-598.055	-62.766	-0.301	0.125
-597.040	-105.109	0.151	-0.035
-596.025	-99.779	0.338	-0.085
-595.011	-119.158	-0.213	-0.037
-593.996	137.501	0.243	-0.319
-592.982	272.210	0.012	0.021
-591.967	800.000	0.068	-0.208
-590.952	-126.801	0.390	-0.058
-589.938	-109.516	-0.346	0.073
-588.923	800.000	-0.097	0.285
-587.909	333.105	0.034	-0.065
-586.894	-136.447	0.407	0.047
-585.879	800.000	0.003	-0.009
-584.865	220.295	-0.052	0.083
-583.850	34.569	0.206	-0.180
-582.836	30.021	-0.176	0.150
-581.821	-140.386	0.151	0.016
-580.806	-200.000	0.036	0.398
-579.792	29.952	0.065	-0.056
-578.777	-65.127	0.184	0.074
-577.763	-110.346	0.376	-0.078
-576.748	-200.000	0.091	0.000
-575.733	-200.000	-0.025	-0.122
-574.719	-200.000	-0.044	-0.299
-573.704	516.051	0.157	-0.368
-572.690	103.783	-0.119	0.140
-571.675	-26.093	-0.150	0.088
-570.661	649.048	0.052	0.132
-569.646	-200.000	-0.025	-0.199
-568.631	236.602	-0.098	0.163
-567.617	582.887	-0.072	0.177
-566.602	-165.526	-0.114	-0.005
-565.588	-109.600	0.122	-0.026
-564.573	-106.250	-0.229	0.052
-563.558	-96.029	0.298	0.079
-562.544	169.066	0.169	-0.242
-561.529	800.000	-0.061	-0.240
-560.515	79.007	-0.180	0.193
-559.500	-115.339	0.281	-0.053
-558.485	4.632	0.052	-0.038
-557.471	7.486	0.333	0.249
-556.456	-76.019	-0.143	0.051
-555.442	-9.423	-0.243	-0.163
-554.427	294.681	0.225	-0.412
-553.412	-200.000	0.063	0.333
-552.398	79.573	0.046	0.049
-551.383	208.854	-0.056	-0.088
-550.369	606.450	0.059	-0.146
-549.354	56.392	0.178	-0.174
-548.339	-181.182	-0.251	-0.005
-547.325	800.000	0.042	-0.170
-546.310	86.746	0.171	-0.189
-545.296	364.399	0.091	-0.183
-544.281	-74.534	0.297	0.107
-543.266	7.186	-0.069	0.051
-542.252	259.749	-0.158	0.273
-541.237	-93.261	-0.029	0.008
-540.223	300.016	-0.170	-0.314
-539.208	-113.324	0.191	-0.038
-538.193	-120.766	-0.558	-0.094
-537.179	88.781	0.047	-0.053
-536.164	56.268	0.156	0.151
-535.150	-4.969	0.140	0.097
-534.135	-27.890	-0.194	-0.113
-533.121	-14.767	0.073	-0.047
-532.106	-61.552	-0.144	-0.060
-531.091	-103.705	-0.195	-0.046
-530.077	800.000	0.074	0.252
-529.062	-200.000	-0.020	0.292
-528.048	-121.041	-0.297	0.050
-527.033	800.000	0.030	0.102
-526.018	800.000	-0.067	-0.224
-525.004	28.657	-0.089	-0.075
-523.989	-200.000	0.012	-0.062
-522.975	-35.130	-0.194	-0.106
-521.960	-14.958	-0.379	-0.243
-520.945	-141.562	-0.277	-0.028
-519.931	-118.987	0.307	0.054
-518.916	-200.000	0.055	-0.241
-517.902	628.667	-0.150	-0.379
-516.887	7.743	0.125	0.094
-515.872	-200.000	0.022	0.230
-514.858	214.790	0.126	0.200
-513.843	-80.760	-0.330	0.110
-512.829	-64.896	0.209	-0.085
-511.814	-79.275	-0.232	0.079
-510.799	134.329	-0.060	0.078
-509.785	-49.718	-0.050	-0.024
-508.770	13.243	-0.102	-0.079
-507.756	-200.000	0.009	0.244
-506.741	72.360	0.128	-0.133
-505.726	-132.162	0.238	0.031
-504.712	78.604	-0.240	-0.257
-503.697	-200.000	0.040	-0.297
-502.683	-37.989	-0.221	0.117
-501.668	800.000	-0.094	0.290
-500.653	-200.000	0.043	0.294
-499.639	191.957	-0.181	0.273
-498.624	-200.000	0.036	0.278
-497.610	319.053	0.038	-0.071
-496.595	-200.000	0.030	0.151
-495.581	373.144	-0.065	-0.131
-494.566	-200.000	-0.046	-0.267
-493.551	-30.973	0.242	-0.137
-492.537	-43.835	0.334	-0.168
-491.522	316.472	0.081	-0.153
-490.508	-171.141	0.218	0.007
-489.493	333.212	0.082	0.159
-488.478	-163.524	-0.089	-0.004
-487.464	148.006	0.046	0.062
-486.449	-44.845	-0.141	0.070
-485.435	-200.000	0.018	-0.115
-484.420	738.926	-0.045	0.121
-483.405	-170.226	0.305	-0.011
-482.391	-157.901	0.262	-0.015
-481.376	-200.000	0.071	0.321
-480.362	-24.835	0.196	0.117
-479.347	-133.208	-0.244	0.031
-478.332	-143.776	0.188	0.018
-477.318	-200.000	0.017	-0.208
-476.303	46.704	-0.204	-0.189
-475.289	371.288	0.115	-0.233
-474.274	-82.000	-0.167	-0.055
-473.259	325.003	-0.047	-0.090
-472.245	-158.224	0.314	-0.018
-471.230	-106.054	0.499	-0.112
-470.216	30.626	-0.178	-0.152
-469.201	-200.000	-0.013	-0.074
-468.186	-136.403	0.195	0.023
-467.172	48.134	-0.115	0.107
-466.157	-118.016	0.368	-0.066
-465.143	77.535	0.157	0.167
-464.128	170.724	0.192	0.275
-463.113	174.214	-0.134	0.193
-462.099	-200.000	0.017	0.372
-461.084	800.000	-0.034	0.149
-460.070	124.108	-0.410	0.514
-459.055	-200.000	0.010	0.123
-458.040	-21.177	-0.056	-0.034
-457.026	41.980	0.329	-0.298
-456.011	800.000	-0.046	-0.131
-454.997	17.279	-0.079	0.062
-453.982	167.798	-0.219	0.311
-452.968	6.429	-0.041	-0.031
-451.953	-200.000	-0.068	0.486
-450.938	800.000	-0.041	-0.136
-449.924	-123.984	0.389	-0.061
-448.909	-200.000	0.037	0.372
-447.895	-154.950	0.166	-0.011
-446.880	-200.000	0.001	0.039
-445.865	800.000	0.019	-0.072
-444.851	171.747	-0.115	0.165
-443.836	800.000	-0.066	-0.183
-442.822	-200.000	0.012	0.071
-441.807	-200.000	0.008	0.299
-440.792	-48.692	-0.303	-0.145
-439.778	-132.771	-0.458	0.058
-438.763	26.083	-0.076	-0.063
-437.749	4.502	0.153	-0.112
-436.734	-200.000	-0.042	-0.251
-435.719	250.880	-0.089	0.150
-434.705	-46.035	-0.244	0.120
-433.690	181.065	-0.210	0.307
-432.676	-200.000	-0.000	-0.175
-431.661	-200.000	0.010	-0.054
-430.646	-95.798	0.255	-0.068
-429.632	-197.326	-0.133	0.001
-428.617	-123.536	-0.125	0.020
-427.603	387.180	0.058	0.119
-426.588	526.363	-0.061	-0.144
-425.573	-15.094	0.281	-0.179
-424.559	-28.632	0.259	-0.149
-423.544	-91.863	-0.355	0.100
-422.530	800.000	-0.040	0.121
-421.515	-158.845	-0.187	0.011
-420.500	102.614	0.219	-0.255
-419.486	800.000	0.038	0.126
-418.471	2.022	-0.064	-0.046
-417.457	-23.480	-0.130	0.078
-416.442	348.450	0.088	-0.173
-415.428	-200.000	0.060	-0.269
-414.413	111.462	0.299	-0.360
-413.398	691.645	0.033	0.087
-412.384	-64.779	-0.219	0.088
-411.369	22.846	-0.082	-0.067
-410.355	-48.058	0.148	-0.071
-409.340	556.712	-0.057	-0.137
-408.325	-118.688	-0.344	0.060
-407.311	416.156	-0.029	-0.062
-406.296	-200.000	0.002	0.091
-405.282	-200.000	0.014	-0.340
-404.267	-130.670	-0.162	0.022
-403.252	41.056	0.124	-0.111
-402.238	-104.146	0.207	-0.048
-401.223	82.548	-0.114	-0.123
-400.209	-200.000	-0.044	0.262
-399.194	-14.354	0.145	0.093
-398.179	-64.191	0.270	-0.109
-397.165	-7.232	-0.192	-0.129
-396.150	55.297	0.310	-0.299
-395.136	-79.540	0.222	-0.075
-394.121	8.045	-0.060	0.045
-393.106	-76.775	-0.131	-0.046
-392.092	-194.959	0.027	0.000
-391.077	-94.130	-0.090	-0.025
-390.063	800.000	-0.147	0.405
-389.048	-200.000	0.011	-0.100
-388.033	-94.354	-0.186	-0.051
-387.019	41.304	-0.155	-0.140
-386.004	-200.000	0.037	0.318
-384.990	-18.380	0.028	-0.017
-383.975	-33.904	0.264	0.145
-382.960	388.776	-0.034	0.071
-381.946	-57.649	0.118	0.051
-380.931	-70.049	-0.272	0.103
-379.917	580.663	-0.104	-0.253
-378.902	89.767	0.098	-0.109
-377.888	-61.984	0.300	0.125
-376.873	5.874	0.419	0.308
-375.858	-16.700	-0.166	-0.105
-374.844	800.000	-0.075	-0.298
-373.829	105.705	-0.311	-0.366
-372.815	48.802	0.088	-0.082
-371.800	-200.000	0.019	-0.238
-370.785	800.000	-0.061	0.228
-369.771	-97.526	0.055	0.014
-368.756	-200.000	0.029	0.000
-367.742	111.154	0.137	-0.165
-366.727	-132.933	0.105	-0.013
-365.712	-200.000	0.027	-0.129
-364.698	317.987	-0.063	-0.119
-363.683	-45.742	0.139	-0.068
-362.669	138.323	0.211	-0.275
-361.654	279.262	-0.120	0.214
-360.639	76.915	-0.151	0.160
-359.625	-102.998	-0.241	0.057
-358.610	41.942	0.262	0.237
-357.596	-115.787	0.187	-0.035
-356.581	-2.331	0.191	-0.133
-355.566	-164.748	0.157	0.007
-354.552	54.527	-0.089	0.085
-353.537	494.476	0.041	-0.093
-352.523	-128.005	0.258	0.037
-351.508	477.296	0.171	0.385
-350.493	115.431	0.192	-0.233
-349.479	-108.218	-0.430	-0.092
-348.464	-200.000	0.038	0.267
-347.450	800.000	-0.039	0.162
-346.435	-92.754	-0.191	-0.053
-345.420	-67.835	0.375	-0.146
-344.406	168.441	0.187	0.265
-343.391	-108.313	0.365	0.078
-342.377	-200.000	0.019	-0.126
-341.362	56.413	0.163	-0.157
-340.348	58.633	-0.197	-0.192
-339.333	174.443	0.133	-0.192
-338.318	-114.111	-0.207	0.040
-337.304	-75.053	-0.132	-0.047
-336.289	19.342	-0.292	0.233
-335.275	-200.000	0.001	-0.066
-334.260	19.173	-0.105	-0.084
-333.245	330.001	-0.099	0.190
-332.231	374.758	0.156	0.316
-331.216	-35.624	0.396	0.213
-330.202	-80.379	0.329	0.109
-329.187	-140.131	-0.305	-0.032
-328.172	-130.190	0.105	-0.014
-327.158	-108.814	-0.151	-0.032
-326.143	-51.621	0.263	0.122
-325.129	-63.623	0.176	-0.072
-324.114	-200.000	-0.020	-0.148
-323.099	800.000	0.025	0.095
-322.085	36.431	-0.517	0.453
-321.070	215.741	0.171	0.270
-320.056	-39.018	-0.164	0.086
-319.041	243.713	0.138	-0.229
-318.026	-148.838	-0.268	-0.022
-317.012	-200.000	0.051	0.344
-315.997	224.331	0.174	-0.279
-314.983	637.289	-0.049	-0.124
-313.968	800.000	0.051	0.192
-312.953	-97.442	-0.264	-0.068
-311.939	-200.000	0.062	-0.298
-310.924	563.805	-0.094	0.227
-309.910	-4.287	0.039	-0.027
-308.895	-200.000	-0.024	-0.266
-307.880	-124.613	0.220	0.034
-306.866	535.470	-0.060	-0.140
-305.851	-200.000	-0.001	-0.108
-304.837	716.867	-0.094	-0.248
-303.822	-28.632	0.317	-0.181
-302.807	-17.744	0.246	-0.153
-301.793	-16.427	-0.109	-0.068
-300.778	100.772	0.223	-0.257
-299.764	-143.795	-0.401	-0.038
-298.749	-109.880	0.246	0.051
-297.735	640.402	0.072	0.181
-296.720	-40.271	-0.111	0.057
-295.705	-41.008	0.235	-0.121
-294.691	-200.000	-0.057	-0.366
-293.676	-4.096	-0.252	0.173
-292.662	-56.418	-0.119	0.052
-291.647	11.444	-0.105	-0.080
-290.632	-200.000	-0.052	0.307
-289.618	-75.902	-0.224	-0.079
-288.603	41.970	-0.141	0.127
-287.589	-8.540	0.226	-0.150
-286.574	-79.704	-0.071	-0.024
-285.559	6.554	-0.048	-0.036
-284.545	-50.084	-0.131	-0.061
-283.530	-100.362	0.368	-0.091
-282.516	-108.243	-0.117	0.025
-281.501	-40.389	0.371	-0.191
-280.486	22.674	0.094	-0.076
-279.472	396.987	0.084	0.175
-278.457	735.500	-0.078	0.207
-277.443	-200.000	-0.019	0.159
-276.428	-14.781	0.341	0.217
-275.413	800.000	0.030	-0.103
-274.399	-200.000	-0.006	0.130
-273.384	-49.156	-0.192	-0.091
-272.370	-13.369	-0.241	0.155
-271.355	-95.521	0.152	-0.040
-270.340	-71.689	0.209	0.077
-269.326	595.691	0.048	-0.118
-268.311	-34.972	-0.159	-0.086
-267.297	30.416	-0.061	0.052
-266.282	-200.000	-0.029	0.210
-265.267	300.714	-0.070	-0.128
-264.253	90.443	-0.213	-0.236
-263.238	86.938	-0.196	0.214
-262.224	-25.061	0.358	-0.210
-261.209	800.000	-0.027	0.105
-260.195	-169.789	-0.223	-0.008
-259.180	88.883	-0.023	0.025
-258.165	-42.406	-0.302	0.152
-257.151	-140.512	0.092	0.009
-256.136	-200.000	-0.015	0.152
-255.122	42.742	0.355	-0.320
-254.107	-42.518	-0.154	-0.078
-253.092	-87.177	0.347	-0.104
-252.078	-47.666	0.077	0.037
-251.063	695.835	0.113	0.294
-250.049	-37.669	0.296	-0.156
-249.034	151.708	0.090	0.121
-248.019	2.182	-0.115	0.083
-247.005	-102.980	-0.206	0.048
-245.990	-115.720	0.208	-0.039
-244.976	-89.764	-0.230	0.067
-243.961	21.092	0.072	-0.058
-242.946	-3.979	0.209	-0.143
-241.932	-73.535	-0.283	-0.102
-240.917	-121.069	0.227	0.038
-239.903	-136.475	-0.108	-0.012
-238.888	21.097	-0.292	-0.234
-237.873	140.551	-0.113	-0.148
-236.859	-85.699	-0.089	0.027
-235.844	223.912	-0.100	-0.159
-234.830	800.000	0.076	0.250
-233.815	-155.923	-0.076	0.005
-232.800	117.627	-0.209	0.254
-231.786	-73.539	0.149	-0.054
-230.771	-200.000	-0.353	-0.001
-229.757	-132.968	-0.295	0.037
-228.742	76.383	-0.318	0.333
-227.727	577.551	0.056	0.135
-226.713	228.282	0.095	-0.152
-225.698	800.000	0.107	-0.298
-224.684	-200.000	-0.022	0.369
-223.669	722.443	-0.150	0.395
-222.655	-43.428	-0.124	0.062
-221.640	-200.000	0.013	-0.114
-220.625	-53.101	-0.293	-0.133
-219.611	-200.000	0.037	-0.311
-218.596	65.592	-0.223	0.223
-217.582	21.166	0.060	0.048
-216.567	55.023	0.094	0.090
-215.552	-200.000	0.073	0.365
-214.538	-78.131	-0.139	0.047
-213.523	53.010	0.117	-0.111
-212.509	-200.000	0.032	0.178
-211.494	125.577	0.087	0.109
-210.479	51.173	0.061	-0.058
-209.465	711.293	-0.043	0.113
-208.450	-200.000	-0.010	-0.081
-207.436	-39.514	0.182	0.094
-206.421	65.555	-0.138	-0.138
-205.406	-58.091	-0.053	-0.023
-204.392	-170.176	-0.040	-0.001
-203.377	52.096	-0.293	0.276
-202.363	-129.771	-0.109	0.015
-201.348	285.113	0.066	0.118
-200.333	-39.556	0.139	-0.072
-199.319	-200.000	0.002	0.279
-198.304	156.028	-0.071	-0.097
-197.290	-123.986	0.167	0.026
-196.275	116.519	-0.257	-0.312
-195.260	-16.276	-0.104	0.065
-194.246	-91.477	-0.344	-0.097
-193.231	-38.729	0.165	-0.086
-192.217	-200.000	0.003	0.064
-191.202	-10.476	0.223	-0.146
-190.187	318.515	-0.063	-0.119
-189.173	800.000	-0.044	-0.178
-188.158	-200.000	0.005	-0.094
-187.144	111.826	-0.131	0.156
-186.129	125.183	0.096	0.120
-185.114	363.315	-0.113	0.225
-184.100	-50.854	-0.420	-0.195
-183.085	5.204	0.181	-0.131
-182.071	-162.135	0.313	-0.015
-181.056	267.173	-0.062	-0.108
-180.042	-200.000	0.007	0.124
-179.027	-53.323	0.152	-0.069
-178.012	-148.573	0.253	-0.020
-176.998	-129.804	-0.083	0.011
-175.983	326.902	-0.169	0.319
-174.969	200.254	-0.073	-0.110
-173.954	85.557	-0.212	-0.230
-172.939	119.453	-0.057	-0.070
-171.925	138.060	0.128	-0.165
-170.910	-168.794	-0.041	0.002
-169.896	111.233	-0.135	-0.160
-168.881	800.000	-0.104	0.298
-167.866	272.352	0.195	0.339
-166.852	90.852	0.204	0.226
-165.837	-200.000	-0.084	0.367
-164.823	-92.785	-0.223	0.062
-163.808	190.605	0.203	0.301
-162.793	-200.000	-0.024	0.191
-161.779	-128.226	-0.141	0.020
-160.764	-0.346	-0.155	0.108
-159.750	221.920	0.089	0.141
-158.735	-79.333	-0.165	0.055
-157.720	637.303	-0.150	0.375
-156.706	-37.858	0.374	0.196
-155.691	-67.968	-0.258	0.099
-154.677	-69.093	0.200	0.076
-153.662	-99.628	-0.354	-0.088
-152.647	-79.731	0.177	0.059
-151.633	267.921	-0.131	0.226
-150.618	800.000	0.064	-0.237
-149.604	-51.763	0.310	0.142
-148.589	-149.663	0.264	0.021
-147.574	50.023	0.025	-0.023
-146.560	131.407	-0.332	0.421
-145.545	800.000	0.071	0.292
-144.531	-2.808	-0.466	0.321
-143.516	28.517	0.360	-0.300
-142.502	800.000	0.055	0.232
-141.487	510.863	0.041	-0.094
-140.472	0.134	0.086	-0.060
-139.458	-34.637	-0.134	-0.072
-138.443	-73.568	-0.280	0.100
-137.429	-149.545	0.084	-0.007
-136.414	-68.380	0.181	0.069
-135.399	32.511	-0.156	0.133
-134.385	135.287	-0.189	0.242
-133.370	-142.375	-0.204	0.020
-132.356	-160.125	-0.231	0.012
-131.341	400.793	0.102	0.210
-130.326	-64.889	-0.231	0.092
-129.312	-200.000	0.016	0.086
-128.297	-200.000	0.004	0.031
-127.283	-200.000	0.005	-0.085
-126.268	-17.268	0.228	-0.141
-125.253	109.824	-0.040	0.047
-124.239	163.201	-0.256	0.355
-123.224	-151.139	0.156	0.012
-122.210	-30.743	0.065	-0.036
