DTS Sentinel unit serial number:	SN413079Multiplexer serial number:	ORYXHardware model number:	OX4-SRSoftware version number:	ORYX F/W v4.00 Oryx Data Collector v3.7.2.0data status	okinstallation	princeton_trtdifferential loss correction	single-endedforward channel	channel 1reverse channel	N/Adate	2019/09/15time	12:22:35forward acquisition time	60.00reverse acquisition time	0.00gamma	496.2192k internal	0.2302k external	0.2302temperature offset calibration	0.9988default loss term (dB/km)	0.3790temperature slope calibration	1.0000multiplexer offset coefficient	1.0000multiplexer slope coefficient	1.0000fibre end	0.00T internal ref (°C)	34.87T ext. ref 1 (°C)	5.04T ext. ref 2 (°C)	32.24length (m)	temperature (°C)	Stokes	anti-Stokes-747.200	-200.000	-0.004	-0.051
-746.185	-73.354	0.269	-0.100
-745.171	113.073	0.040	-0.050
-744.156	164.463	0.138	0.198
-743.142	-200.000	-0.022	0.343
-742.127	800.000	0.092	0.323
-741.112	35.910	0.171	0.153
-740.098	40.006	0.136	0.125
-739.083	-128.347	0.199	0.029
-738.069	-200.000	-0.005	0.139
-737.054	141.753	0.311	-0.419
-736.039	44.161	0.133	0.124
-735.025	-98.992	0.186	0.048
-734.010	-73.867	-0.261	-0.097
-732.996	-16.048	-0.279	-0.181
-731.981	60.675	0.129	-0.131
-730.966	-54.173	-0.090	0.041
-729.952	-187.250	-0.339	0.005
-728.937	800.000	-0.084	-0.336
-727.923	-82.935	-0.208	-0.068
-726.908	-200.000	-0.009	-0.171
-725.894	-47.213	-0.170	-0.084
-724.879	800.000	0.030	-0.088
-723.864	328.419	0.057	-0.112
-722.850	-90.467	-0.368	-0.109
-721.835	13.875	0.168	0.133
-720.821	133.660	-0.071	-0.093
-719.806	-167.425	0.107	0.004
-718.791	25.414	-0.242	0.204
-717.777	49.684	-0.058	0.056
-716.762	-111.407	-0.139	-0.029
-715.748	54.750	0.163	-0.160
-714.733	251.621	-0.047	0.082
-713.718	253.049	0.038	-0.066
-712.704	-200.000	-0.030	-0.217
-711.689	800.000	-0.082	0.320
-710.675	-200.000	-0.046	-0.258
-709.660	166.792	-0.047	-0.068
-708.645	-200.000	-0.041	0.385
-707.631	-137.970	-0.341	0.039
-706.616	-200.000	-0.005	-0.024
-705.602	0.567	-0.361	-0.262
-704.587	-74.856	0.170	0.062
-703.572	800.000	0.046	0.146
-702.558	-97.342	-0.206	0.055
-701.543	800.000	0.031	0.097
-700.529	-148.587	-0.181	0.015
-699.514	-200.000	-0.360	-0.002
-698.499	-70.652	0.262	0.101
-697.485	-200.000	0.031	0.189
-696.470	-132.269	0.139	0.018
-695.456	-48.422	-0.194	-0.095
-694.441	61.410	-0.076	-0.077
-693.426	-200.000	0.011	-0.088
-692.412	-100.123	0.205	-0.052
-691.397	157.728	-0.073	-0.103
-690.383	31.317	-0.057	0.050
-689.368	15.493	0.242	0.193
-688.354	495.154	0.141	0.328
-687.339	314.573	-0.108	-0.207
-686.324	78.497	-0.144	-0.156
-685.310	-57.079	-0.140	0.063
-684.295	-120.274	0.099	0.017
-683.281	-2.299	0.299	0.213
-682.266	669.340	-0.060	0.159
-681.251	83.703	0.299	0.332
-680.237	131.095	-0.318	-0.415
-679.222	41.955	-0.170	-0.157
-678.208	-17.802	-0.163	0.104
-677.193	195.731	-0.177	-0.273
-676.178	151.970	-0.151	-0.209
-675.164	-93.354	-0.167	0.047
-674.149	-124.920	-0.224	-0.035
-673.135	260.117	-0.080	-0.140
-672.120	-90.054	-0.082	-0.024
-671.105	-130.097	-0.232	-0.032
-670.091	440.919	-0.164	-0.365
-669.076	102.885	-0.109	0.130
-668.062	-200.000	0.012	0.196
-667.047	335.658	-0.069	-0.136
-666.032	-98.421	-0.083	0.022
-665.018	-151.520	-0.198	-0.015
-664.003	-112.246	-0.314	0.064
-662.989	96.845	-0.413	0.480
-661.974	33.730	-0.338	-0.298
-660.959	-93.013	0.162	-0.046
-659.945	109.293	0.092	0.111
-658.930	5.208	0.161	0.120
-657.916	800.000	-0.036	0.110
-656.901	190.287	-0.270	0.411
-655.886	-11.507	-0.320	0.214
-654.872	-94.782	0.172	0.047
-653.857	224.750	0.072	-0.118
-652.843	-200.000	0.015	-0.102
-651.828	593.916	-0.056	0.139
-650.814	-43.813	-0.457	0.234
-649.799	-51.487	-0.171	-0.081
-648.784	486.776	-0.068	0.157
-647.770	-156.506	-0.386	0.024
-646.755	-62.475	0.130	-0.055
-645.741	-85.514	0.166	-0.052
-644.726	-36.407	0.223	0.122
-643.711	-106.297	-0.060	0.014
-642.697	162.963	-0.139	-0.198
-641.682	9.984	0.179	-0.138
-640.668	-137.133	-0.174	0.020
-639.653	55.034	-0.161	-0.157
-638.638	800.000	0.075	-0.265
-637.624	-78.203	0.156	-0.054
-636.609	-11.088	0.051	-0.034
-635.595	-101.899	-0.385	-0.095
-634.580	-90.882	-0.233	0.068
-633.565	-61.293	-0.139	-0.059
-632.551	299.272	0.048	-0.089
-631.536	-91.458	0.308	-0.089
-630.522	-200.000	0.021	-0.219
-629.507	-154.344	-0.117	-0.008
-628.492	-162.140	-0.247	0.013
-627.478	-71.409	0.176	0.067
-626.463	48.291	-0.112	-0.106
-625.449	-13.664	-0.214	0.141
-624.434	-149.226	-0.136	0.011
-623.419	20.779	-0.053	-0.044
-622.405	310.051	-0.129	0.244
-621.390	800.000	-0.059	0.246
-620.376	-200.000	-0.019	-0.101
-619.361	214.332	0.118	-0.189
-618.346	800.000	0.057	-0.204
-617.332	-58.376	-0.235	-0.104
-616.317	-70.398	-0.216	-0.083
-615.303	-105.788	-0.276	0.063
-614.288	-200.000	0.028	-0.127
-613.273	-158.815	-0.123	-0.007
-612.259	-102.311	-0.170	-0.041
-611.244	-148.718	-0.053	0.004
-610.230	-36.241	-0.029	0.016
-609.215	-1.726	0.192	-0.137
-608.201	-88.490	0.094	-0.028
-607.186	-71.043	0.316	0.120
-606.171	-119.660	0.172	0.030
-605.157	800.000	-0.070	0.249
-604.142	130.302	0.037	0.049
-603.128	800.000	-0.089	-0.352
-602.113	-120.148	-0.277	0.048
-601.098	25.459	-0.088	0.074
-600.084	800.000	-0.014	0.050
-599.069	-200.000	0.074	-0.338
-598.055	593.121	0.072	0.181
-597.040	-49.952	-0.124	-0.060
-596.025	-200.000	0.003	-0.450
-595.011	-82.714	-0.015	0.005
-593.996	-14.186	0.089	-0.058
-592.982	-132.706	0.223	-0.029
-591.967	800.000	-0.069	-0.261
-590.952	-145.669	0.136	0.012
-589.938	-200.000	0.037	-0.169
-588.923	-200.000	-0.027	0.385
-587.909	-200.000	0.004	-0.163
-586.894	800.000	-0.047	0.151
-585.879	164.519	-0.156	0.223
-584.865	-200.000	-0.038	-0.317
-583.850	130.337	0.110	-0.143
-582.836	21.449	-0.409	0.337
-581.821	221.295	-0.242	0.393
-580.806	-200.000	-0.025	0.203
-579.792	-200.000	0.016	-0.233
-578.777	-69.104	0.409	0.159
-577.763	-150.597	-0.087	0.007
-576.748	52.946	-0.100	-0.097
-575.733	-106.158	-0.045	0.010
-574.719	92.466	0.060	-0.068
-573.704	-78.659	-0.166	0.058
-572.690	-170.957	-0.434	-0.015
-571.675	-37.271	-0.263	0.142
-570.661	471.337	-0.031	-0.071
-569.646	35.362	0.096	-0.086
-568.631	-92.097	0.339	-0.097
-567.617	-95.252	0.138	0.038
-566.602	-92.398	-0.394	-0.112
-565.588	574.665	-0.114	-0.282
-564.573	404.875	-0.046	-0.099
-563.558	-36.958	0.057	-0.031
-562.544	429.692	0.006	0.013
-561.529	-71.329	0.276	-0.105
-560.515	40.230	-0.104	0.094
-559.500	-97.257	0.367	-0.097
-558.485	-200.000	-0.055	0.294
-557.471	800.000	0.040	-0.122
-556.456	800.000	-0.048	0.167
-555.442	546.460	-0.163	0.395
-554.427	10.198	-0.282	0.217
-553.412	-200.000	0.009	-0.188
-552.398	202.540	0.185	-0.289
-551.383	235.505	-0.109	0.182
-550.369	-3.660	0.122	0.086
-549.354	-122.358	-0.264	0.044
-548.339	-200.000	-0.009	-0.268
-547.325	-200.000	-0.006	-0.195
-546.310	-41.353	-0.118	0.061
-545.296	-104.311	0.215	0.050
-544.281	-96.117	-0.294	-0.079
-543.266	145.023	-0.078	-0.106
-542.252	-170.292	0.401	0.014
-541.237	486.520	0.031	0.072
-540.223	-76.446	0.049	0.017
-539.208	800.000	0.067	0.257
-538.193	154.119	0.159	-0.221
-537.179	194.957	-0.217	0.333
-536.164	-200.000	-0.027	-0.509
-535.150	184.279	-0.067	-0.100
-534.135	13.846	-0.155	0.121
-533.121	-200.000	-0.052	0.347
-532.106	800.000	-0.095	0.317
-531.091	235.751	0.040	-0.067
-530.077	5.291	0.203	-0.151
-529.062	-54.643	0.277	-0.126
-528.048	-14.380	0.111	-0.072
-527.033	-97.855	-0.101	-0.026
-526.018	-200.000	0.030	0.188
-525.004	-53.376	0.343	0.159
-523.989	-59.969	0.064	-0.028
-522.975	-117.857	-0.299	0.054
-521.960	-83.589	-0.218	-0.070
-520.945	-16.446	0.236	-0.151
-519.931	550.747	0.054	-0.130
-518.916	-200.000	0.002	0.214
-517.902	-63.301	0.389	-0.162
-516.887	-39.256	0.178	-0.094
-515.872	431.466	-0.110	0.240
-514.858	-30.624	0.086	-0.049
-513.843	47.904	0.217	-0.205
-512.829	91.123	0.073	-0.082
-511.814	-63.012	0.196	0.082
-510.799	-183.259	-0.280	-0.005
-509.785	168.863	-0.129	0.186
-508.770	-103.765	-0.138	-0.033
-507.756	-132.768	0.353	0.046
-506.741	-135.655	0.071	0.009
-505.726	-29.769	0.080	-0.046
-504.712	-74.108	0.319	0.117
-503.697	-133.172	-0.177	-0.023
-502.683	-150.567	-0.174	0.013
-501.668	-3.041	-0.223	-0.157
-500.653	16.534	0.444	0.354
-499.639	-200.000	-0.015	0.137
-498.624	-40.207	-0.232	-0.122
-497.610	-162.382	0.146	0.007
-496.595	679.374	0.074	0.193
-495.581	57.684	0.156	-0.154
-494.566	-200.000	-0.015	-0.084
-493.551	-200.000	-0.001	-0.273
-492.537	262.067	0.084	-0.146
-491.522	116.737	-0.044	0.055
-490.508	54.509	0.239	0.233
-489.493	43.683	0.124	-0.114
-488.478	-53.126	0.108	0.050
-487.464	375.417	-0.118	0.242
-486.449	347.271	-0.140	-0.277
-485.435	-101.663	-0.344	-0.084
-484.420	-35.616	0.190	-0.104
-483.405	-200.000	-0.076	-0.347
-482.391	-24.755	0.147	-0.088
-481.376	209.912	-0.165	-0.261
-480.362	-56.370	-0.236	-0.106
-479.347	-146.066	0.072	0.006
-478.332	539.754	-0.058	-0.139
-477.318	-61.543	0.377	-0.160
-476.303	-65.693	-0.098	0.040
-475.289	-174.054	-0.207	0.006
-474.274	-200.000	-0.041	-0.221
-473.259	104.393	0.095	0.113
-472.245	800.000	-0.030	0.128
-471.230	-35.928	0.213	0.116
-470.216	-200.000	0.003	0.254
-469.201	151.003	0.193	0.265
-468.186	800.000	0.067	0.246
-467.172	-200.000	0.031	-0.147
-466.157	24.273	-0.097	-0.081
-465.143	-57.339	-0.204	-0.090
-464.128	-200.000	-0.024	0.372
-463.113	134.181	0.246	-0.321
-462.099	-22.752	0.101	-0.061
-461.084	-159.928	-0.108	0.006
-460.070	-91.109	-0.194	0.056
-459.055	555.470	-0.092	0.222
-458.040	111.049	-0.139	0.169
-457.026	800.000	-0.067	0.251
-456.011	12.989	0.163	-0.127
-454.997	-51.417	-0.314	0.148
-453.982	650.691	0.064	0.166
-452.968	-200.000	-0.043	-0.354
-451.953	-9.206	-0.067	0.045
-450.938	-152.064	0.191	0.014
-449.924	24.856	-0.221	0.185
-448.909	8.380	0.087	0.066
-447.895	800.000	0.093	-0.377
-446.880	60.071	-0.172	-0.172
-445.865	10.434	0.267	0.205
-444.851	134.092	0.131	0.171
-443.836	-159.387	-0.202	-0.011
-442.822	-17.505	-0.330	0.209
-441.807	-200.000	0.035	0.175
-440.792	-84.470	0.357	0.113
-439.778	430.567	-0.058	-0.126
-438.763	72.715	-0.128	-0.134
-437.749	230.279	0.045	-0.073
-436.734	-16.754	0.010	-0.007
-435.719	75.005	0.096	-0.102
-434.705	-68.722	-0.212	-0.083
-433.690	83.819	0.161	-0.177
-432.676	800.000	-0.080	-0.286
-431.661	800.000	-0.057	0.191
-430.646	-125.387	-0.193	-0.030
-429.632	440.970	0.108	-0.237
-428.617	-75.677	0.343	0.123
-427.603	-200.000	0.006	0.107
-426.588	-122.706	0.314	0.051
-425.573	-200.000	0.031	0.143
-424.559	-3.996	-0.153	0.107
-423.544	24.127	-0.288	-0.240
-422.530	147.863	0.079	-0.107
-421.515	-53.052	0.177	-0.082
-420.500	232.202	0.031	0.052
-419.486	-200.000	-0.087	0.442
-418.471	-10.775	0.164	0.109
-417.457	800.000	-0.047	-0.181
-416.442	213.182	-0.115	-0.183
-415.428	54.596	0.284	-0.276
-414.413	-200.000	0.035	-0.232
-413.398	-200.000	0.023	-0.134
-412.384	77.776	-0.064	-0.068
-411.369	-70.928	0.195	0.074
-410.355	-150.065	-0.220	-0.017
-409.340	-170.681	0.156	0.005
-408.325	560.433	0.150	0.364
-407.311	800.000	0.053	-0.224
-406.296	63.144	0.160	-0.161
-405.282	-200.000	-0.005	-0.351
-404.267	-88.885	-0.229	-0.068
-403.252	237.591	0.120	0.200
-402.238	-200.000	0.055	0.298
-401.223	-57.248	-0.150	0.066
-400.209	-200.000	0.003	0.095
-399.194	-155.459	-0.204	-0.013
-398.179	12.699	0.014	-0.011
-397.165	800.000	0.042	0.135
-396.150	-120.758	-0.234	0.040
-395.136	34.874	0.269	0.237
-394.121	-200.000	-0.010	-0.074
-393.106	-200.000	-0.015	0.322
-392.092	-84.979	0.074	0.023
-391.077	-200.000	0.059	-0.405
-390.063	719.425	-0.002	-0.006
-389.048	581.231	0.076	-0.188
-388.033	-200.000	-0.021	0.215
-387.019	25.074	0.096	-0.080
-386.004	296.261	-0.109	-0.201
-384.990	76.251	0.263	0.280
-383.975	-200.000	0.058	-0.289
-382.960	-200.000	-0.019	0.087
-381.946	-56.276	0.190	0.085
-380.931	290.341	-0.046	-0.085
-379.917	-47.974	0.082	0.040
-378.902	75.454	-0.155	0.164
-377.888	230.903	-0.117	0.192
-376.873	9.222	0.169	-0.128
-375.858	148.634	-0.091	0.124
-374.844	800.000	-0.062	-0.238
-373.829	-15.032	-0.034	-0.022
-372.815	800.000	0.102	0.300
-371.800	-200.000	0.005	-0.077
-370.785	-149.096	-0.216	-0.017
-369.771	97.570	0.279	0.322
-368.756	-51.779	0.077	-0.036
-367.742	69.305	0.348	0.359
-366.727	-200.000	0.019	0.098
-365.712	800.000	0.047	-0.137
-364.698	335.583	-0.083	-0.162
-363.683	37.817	-0.183	-0.163
-362.669	206.283	0.194	0.303
-361.654	329.449	-0.122	0.236
-360.639	-200.000	-0.011	0.261
-359.625	-90.456	-0.384	0.112
-358.610	-80.567	0.147	-0.049
-357.596	-40.877	-0.201	0.104
-356.581	-58.333	0.057	-0.025
-355.566	-68.081	-0.267	-0.105
-354.552	191.331	0.159	0.240
-353.537	59.449	0.365	-0.361
-352.523	-200.000	-0.004	0.059
-351.508	-200.000	-0.004	0.044
-350.493	78.262	-0.116	-0.125
-349.479	322.944	-0.090	0.172
-348.464	64.398	0.251	-0.254
-347.450	-200.000	-0.068	-0.323
-346.435	800.000	0.035	0.107
-345.420	770.450	-0.098	0.269
-344.406	242.000	-0.125	0.210
-343.391	-200.000	-0.031	0.223
-342.377	206.833	-0.202	-0.316
-341.362	-200.000	0.036	0.354
-340.348	-200.000	-0.059	0.281
-339.333	-200.000	-0.011	0.076
-338.318	800.000	-0.065	-0.226
-337.304	247.593	-0.140	0.237
-336.289	800.000	0.017	0.050
-335.275	-101.390	-0.225	-0.055
-334.260	-200.000	-0.042	-0.237
-333.245	30.209	-0.214	0.183
-332.231	800.000	0.043	-0.143
-331.216	-200.000	-0.017	0.129
-330.202	340.094	-0.124	0.242
-329.187	-67.650	0.243	0.095
-328.172	-200.000	-0.071	0.409
-327.158	-40.305	0.090	-0.047
-326.143	122.158	-0.165	0.207
-325.129	-112.927	0.554	0.110
-324.114	8.266	0.260	-0.196
-323.099	239.962	0.251	-0.419
-322.085	-77.179	0.254	-0.089
-321.070	-47.985	0.075	0.037
-320.056	3.503	-0.105	-0.077
-319.041	-100.982	-0.218	-0.054
-318.026	274.085	-0.167	-0.297
-317.012	21.340	0.346	0.281
-315.997	-64.774	0.205	0.083
-314.983	-92.016	-0.154	0.044
-313.968	-14.111	0.169	0.109
-312.953	-141.865	0.122	0.012
-311.939	-90.474	0.130	-0.038
-310.924	-81.533	0.422	0.139
-309.910	395.327	-0.019	0.039
-308.895	51.251	-0.127	0.120
-307.880	-75.788	0.331	-0.117
-306.866	34.439	-0.095	0.083
-305.851	30.869	-0.196	0.168
-304.837	-77.338	-0.091	0.032
-303.822	96.531	0.348	0.399
-302.807	253.647	-0.060	0.103
-301.793	-121.818	-0.211	-0.035
-300.778	268.084	-0.196	-0.344
-299.764	93.432	0.075	-0.085
-298.749	800.000	-0.068	-0.199
-297.735	-51.091	0.128	0.060
-296.720	-170.587	0.217	-0.008
-295.705	-200.000	-0.003	0.127
-294.691	493.152	-0.096	-0.219
-293.676	-44.263	-0.327	-0.164
-292.662	-146.176	0.167	0.015
-291.647	800.000	-0.042	-0.175
-290.632	-129.404	0.167	0.023
-289.618	-193.232	-0.193	-0.002
-288.603	-100.660	0.617	0.152
-287.589	-4.444	-0.329	0.227
-286.574	-15.168	-0.179	0.115
-285.559	360.729	-0.103	-0.207
-284.545	-92.058	0.337	0.095
-283.530	-157.657	-0.429	-0.026
-282.516	-147.736	-0.181	0.015
-281.501	11.366	-0.240	0.184
-280.486	-51.670	-0.055	0.026
-279.472	673.768	0.081	0.209
-278.457	-200.000	0.019	0.147
-277.443	19.912	-0.311	0.251
-276.428	-126.452	-0.084	-0.012
-275.413	41.160	0.028	-0.025
-274.399	-200.000	0.008	-0.275
-273.384	-135.405	0.073	-0.009
-272.370	-93.515	0.113	-0.031
-271.355	-200.000	-0.020	0.294
-270.340	-8.019	0.390	0.263
-269.326	49.402	0.075	0.071
-268.311	-72.638	0.222	-0.082
-267.297	-34.331	-0.215	-0.118
-266.282	3.666	0.136	-0.099
-265.267	-121.493	0.353	-0.059
-264.253	215.803	-0.098	-0.155
-263.238	30.892	0.038	-0.033
-262.224	46.314	-0.266	0.246
-261.209	-55.796	-0.129	0.058
-260.195	-200.000	0.004	0.193
-259.180	230.969	0.117	-0.192
-258.165	641.856	-0.101	-0.257
-257.151	-49.234	0.290	-0.138
-256.136	13.954	-0.135	0.105
-255.122	-132.426	0.079	-0.010
-254.107	-45.475	0.322	-0.159
-253.092	235.386	-0.067	0.111
-252.078	-21.978	0.258	-0.157
-251.063	-145.927	0.090	-0.008
-250.049	-200.000	0.015	-0.149
-249.034	273.806	0.100	-0.177
-248.019	260.524	0.045	-0.077
-247.005	-200.000	0.044	-0.279
-245.990	20.455	-0.304	0.245
-244.976	-83.450	-0.091	-0.029
-243.961	-63.173	-0.179	-0.074
-242.946	-200.000	0.004	0.116
-241.932	-67.803	-0.051	-0.020
-240.917	1.323	-0.038	0.027
-239.903	176.797	-0.099	-0.144
-238.888	-146.604	-0.406	-0.035
-237.873	800.000	-0.125	0.400
-236.859	138.768	0.306	0.401
-235.844	-200.000	-0.056	0.374
-234.830	-194.995	0.127	0.001
-233.815	-200.000	-0.002	0.195
-232.800	203.975	-0.197	-0.304
-231.786	-21.600	0.061	-0.037
-230.771	800.000	0.108	0.400
-229.757	166.314	-0.093	-0.131
-228.742	-22.168	0.087	-0.053
-227.727	800.000	0.056	-0.229
-226.713	-48.210	-0.056	0.027
-225.698	-86.939	0.172	-0.053
-224.684	-200.000	0.017	0.178
-223.669	234.145	-0.105	-0.173
-222.655	-200.000	0.005	-0.319
-221.640	-36.328	-0.317	0.171
-220.625	527.838	0.036	0.085
-219.611	-155.956	0.270	0.017
-218.596	-200.000	0.017	0.125
-217.582	-200.000	-0.030	0.141
-216.567	-178.040	-0.260	-0.006
-215.552	-80.968	-0.238	-0.079
-214.538	223.818	-0.154	-0.248
-213.523	128.867	-0.100	0.127
-212.509	-183.955	0.297	0.005
-211.494	800.000	0.039	0.142
-210.479	-71.294	-0.190	-0.071
-209.465	-52.878	0.034	0.016
-208.450	-101.041	-0.158	-0.039
-207.436	-131.533	0.244	0.032
-206.421	-200.000	-0.058	0.386
-205.406	23.616	-0.128	-0.105
-204.392	-103.119	-0.274	0.065
-203.377	-200.000	0.053	-0.329
-202.363	590.785	0.089	0.219
-201.348	-126.834	-0.237	-0.035
-200.333	-126.167	0.202	0.030
-199.319	800.000	0.052	0.164
-198.304	-174.362	0.364	0.010
-197.290	-114.224	-0.327	0.063
-196.275	-66.139	-0.020	0.008
-195.260	-67.123	-0.019	0.008
-194.246	800.000	-0.067	-0.188
-193.231	61.007	0.183	0.181
-192.217	486.576	-0.086	0.196
-191.202	800.000	0.043	-0.126
-190.187	452.719	-0.051	-0.112
-189.173	-187.081	0.316	0.004
-188.158	108.122	0.142	0.168
-187.144	-35.936	-0.050	-0.027
-186.129	758.594	0.070	0.189
-185.114	-200.000	-0.036	-0.235
-184.100	280.428	0.019	0.034
-183.085	-130.236	0.307	0.042
-182.071	214.532	0.121	-0.192
-181.056	492.858	-0.102	0.233
-180.042	-21.390	0.149	-0.091
-179.027	-200.000	-0.007	-0.254
-178.012	279.155	-0.032	-0.057
-176.998	44.534	-0.219	0.200
-175.983	798.676	-0.095	-0.262
-174.969	-59.588	-0.142	-0.061
-173.954	-51.284	0.206	0.096
-172.939	-76.414	0.181	-0.063
-171.925	-200.000	-0.033	-0.385
-170.910	92.601	0.273	0.307
-169.896	-200.000	0.012	0.342
-168.881	197.387	0.174	-0.264
-167.866	-152.716	-0.062	0.004
-166.852	800.000	0.065	-0.243
-165.837	-28.969	-0.432	-0.247
-164.823	800.000	-0.010	0.030
-163.808	47.407	-0.141	0.131
-162.793	-45.112	-0.102	-0.051
-161.779	101.764	0.166	-0.193
-160.764	-200.000	-0.041	-0.190
-159.750	-200.000	0.011	-0.512
-158.735	200.939	-0.064	0.099
-157.720	-0.888	-0.095	-0.067
-156.706	173.351	-0.101	-0.145
-155.691	-185.808	0.275	0.004
-154.677	17.319	-0.147	-0.116
-153.662	-73.374	-0.338	0.123
-152.647	373.577	0.019	-0.038
-151.633	139.451	-0.126	-0.165
-150.618	-200.000	0.031	0.343
-149.604	800.000	-0.037	0.136
-148.589	800.000	-0.077	-0.259
-147.574	159.669	0.111	0.154
-146.560	-200.000	0.035	-0.189
-145.545	166.646	-0.113	-0.159
-144.531	97.758	0.375	-0.429
-143.516	-200.000	0.043	-0.192
-142.502	46.247	-0.256	-0.236
-141.487	-2.260	0.227	0.159
-140.472	-8.069	0.193	-0.129
-139.458	-72.042	-0.171	-0.063
-138.443	-200.000	-0.019	0.346
-137.429	-14.218	0.262	0.168
-136.414	67.109	-0.147	0.149
-135.399	-138.937	0.327	-0.035
-134.385	-88.906	-0.282	0.083
-133.370	-65.294	-0.140	0.056
-132.356	-139.771	0.243	0.026
-131.341	-37.716	0.094	0.050
-130.326	-14.880	0.313	0.200
-129.312	800.000	0.153	0.453
-128.297	577.432	-0.044	-0.107
-127.283	-9.740	-0.093	-0.062
-126.268	-13.679	-0.084	-0.054
-125.253	-200.000	0.050	-0.257
-124.239	-142.681	-0.218	-0.021
-123.224	-51.807	0.137	0.063
-122.210	-200.000	0.049	0.293
