DTS Sentinel unit serial number:	SN413079Multiplexer serial number:	ORYXHardware model number:	OX4-SRSoftware version number:	ORYX F/W v4.00 Oryx Data Collector v3.7.2.0data status	okinstallation	princeton_trtdifferential loss correction	single-endedforward channel	channel 1reverse channel	N/Adate	2019/09/12time	07:36:11forward acquisition time	60.00reverse acquisition time	0.00gamma	496.2192k internal	0.2316k external	0.2316temperature offset calibration	1.0038default loss term (dB/km)	0.3790temperature slope calibration	1.0000multiplexer offset coefficient	1.0000multiplexer slope coefficient	1.0000fibre end	0.00T internal ref (°C)	32.62T ext. ref 1 (°C)	1.62T ext. ref 2 (°C)	29.17length (m)	temperature (°C)	Stokes	anti-Stokes-747.200	-200.000	-0.021	-0.160
-746.185	554.392	-0.068	-0.166
-745.171	21.131	-0.314	-0.258
-744.156	373.959	0.199	0.411
-743.142	54.767	0.163	-0.160
-742.127	283.554	0.096	-0.175
-741.112	-81.389	-0.110	-0.037
-740.098	747.894	-0.108	0.295
-739.083	-156.385	0.214	-0.014
-738.069	-63.841	-0.329	0.136
-737.054	148.431	-0.140	0.191
-736.039	48.933	-0.332	0.316
-735.025	-158.850	0.466	0.027
-734.010	-147.086	0.073	-0.006
-732.996	800.000	0.075	0.315
-731.981	800.000	0.052	-0.226
-730.966	800.000	-0.058	0.240
-729.952	26.730	0.198	-0.168
-728.937	7.003	-0.289	-0.218
-727.923	-32.749	-0.125	-0.070
-726.908	-200.000	0.057	-0.257
-725.894	49.751	-0.176	-0.168
-724.879	292.421	-0.056	-0.103
-723.864	800.000	0.085	-0.248
-722.850	-80.941	0.179	-0.060
-721.835	-200.000	-0.002	-0.045
-720.821	-55.431	0.224	0.102
-719.806	-101.803	0.309	-0.076
-718.791	251.411	0.144	-0.247
-717.777	167.254	-0.215	0.309
-716.762	-88.360	0.109	-0.033
-715.748	-200.000	-0.009	-0.183
-714.733	-34.115	-0.143	-0.080
-713.718	-120.127	-0.234	-0.040
-712.704	563.604	-0.041	0.101
-711.689	-1.549	0.283	-0.202
-710.675	333.398	-0.112	-0.219
-709.660	-114.506	0.353	0.068
-708.645	703.498	-0.097	0.259
-707.631	-200.000	-0.010	0.263
-706.616	800.000	-0.067	-0.238
-705.602	-77.780	-0.039	0.014
-704.587	-115.312	0.194	0.037
-703.572	667.196	-0.080	-0.209
-702.558	43.697	-0.053	0.049
-701.543	141.112	-0.154	0.206
-700.529	-105.861	-0.297	0.068
-699.514	48.034	0.141	0.133
-698.499	119.709	-0.114	0.143
-697.485	-200.000	-0.042	-0.339
-696.470	276.328	-0.064	0.115
-695.456	-76.412	-0.160	-0.057
-694.441	34.646	-0.112	0.099
-693.426	205.020	0.130	-0.203
-692.412	-64.836	0.075	0.031
-691.397	799.430	-0.038	-0.105
-690.383	-200.000	-0.005	-0.098
-689.368	11.839	-0.152	-0.118
-688.354	-157.834	-0.058	-0.003
-687.339	-82.939	0.195	-0.063
-686.324	157.881	-0.090	-0.126
-685.310	142.703	-0.114	0.153
-684.295	800.000	-0.117	-0.326
-683.281	-200.000	0.009	0.109
-682.266	213.180	0.147	-0.235
-681.251	102.221	0.262	-0.310
-680.237	147.382	-0.136	0.185
-679.222	-147.377	-0.257	0.022
-678.208	-107.137	-0.243	-0.054
-677.193	-155.410	0.040	0.003
-676.178	4.623	-0.096	-0.072
-675.164	-200.000	-0.023	0.159
-674.149	800.000	0.057	-0.212
-673.135	800.000	0.084	-0.308
-672.120	-90.697	0.344	-0.100
-671.105	800.000	0.033	-0.134
-670.091	-200.000	-0.108	-0.000
-669.076	-200.000	-0.006	-0.472
-668.062	9.352	-0.206	-0.157
-667.047	544.245	-0.076	0.184
-666.032	255.377	-0.020	0.035
-665.018	800.000	0.101	-0.321
-664.003	262.718	-0.051	0.088
-662.989	92.552	-0.269	0.306
-661.974	-161.187	0.308	-0.016
-660.959	96.784	-0.029	-0.034
-659.945	226.272	-0.079	0.130
-658.930	372.636	0.016	-0.033
-657.916	-58.184	0.430	0.189
-656.901	-100.157	-0.282	-0.071
-655.886	17.932	0.077	-0.062
-654.872	116.112	-0.041	0.051
-653.857	-143.562	-0.277	0.027
-652.843	-181.479	-0.184	0.004
-651.828	-190.094	0.177	-0.002
-650.814	267.036	0.080	-0.142
-649.799	59.202	-0.064	0.064
-648.784	317.908	0.057	-0.108
-647.770	-128.285	-0.104	0.015
-646.755	-200.000	-0.016	-0.128
-645.741	800.000	-0.088	0.261
-644.726	566.448	-0.031	0.075
-643.711	465.371	0.070	0.158
-642.697	-26.308	-0.307	-0.181
-641.682	-18.287	-0.138	0.087
-640.668	108.168	0.290	0.349
-639.653	-41.265	-0.447	0.233
-638.638	-200.000	0.007	-0.110
-637.624	27.415	0.282	-0.239
-636.609	-200.000	0.028	-0.256
-635.595	800.000	0.052	-0.170
-634.580	800.000	-0.070	0.244
-633.565	800.000	-0.033	-0.112
-632.551	16.922	-0.122	0.098
-631.536	-84.184	-0.118	-0.038
-630.522	-83.869	0.182	-0.058
-629.507	178.220	-0.176	-0.259
-628.492	634.039	-0.021	-0.053
-627.478	453.217	0.093	-0.207
-626.463	584.512	0.047	-0.115
-625.449	-140.053	-0.093	0.010
-624.434	-35.988	0.119	0.065
-623.419	118.516	0.105	0.130
-622.405	121.808	0.152	0.191
-621.390	-79.933	-0.044	-0.015
-620.376	800.000	0.066	0.187
-619.361	272.688	0.086	0.152
-618.346	16.019	0.045	-0.036
-617.332	126.594	0.209	-0.267
-616.317	-126.022	-0.063	0.010
-615.303	346.870	0.103	0.203
-614.288	581.287	-0.145	-0.359
-613.273	30.744	-0.160	-0.138
-612.259	219.263	-0.094	-0.152
-611.244	-200.000	0.010	-0.099
-610.230	146.575	-0.061	-0.082
-609.215	-200.000	-0.021	-0.247
-608.201	98.029	0.128	-0.149
-607.186	-200.000	-0.045	0.266
-606.171	88.950	-0.231	0.259
-605.157	-200.000	0.038	-0.289
-604.142	-67.069	-0.170	0.068
-603.128	42.321	-0.110	0.101
-602.113	95.030	0.133	-0.152
-601.098	-200.000	-0.015	0.080
-600.084	-43.457	-0.207	0.105
-599.069	720.234	-0.131	0.351
-598.055	464.195	-0.046	0.103
-597.040	-98.378	-0.038	-0.010
-596.025	-200.000	0.000	0.013
-595.011	-104.702	0.361	0.084
-593.996	-200.000	0.005	-0.161
-592.982	273.615	0.094	-0.168
-591.967	765.271	0.121	0.332
-590.952	-104.742	-0.294	0.068
-589.938	503.768	-0.030	-0.069
-588.923	-110.478	0.130	0.027
-587.909	-25.322	0.103	0.062
-586.894	29.356	-0.094	0.080
-585.879	-102.745	-0.351	0.084
-584.865	-200.000	-0.019	0.411
-583.850	204.149	0.024	0.038
-582.836	-200.000	-0.016	-0.297
-581.821	579.269	-0.132	0.325
-580.806	-115.068	0.221	-0.042
-579.792	-90.662	-0.332	0.096
-578.777	-40.431	-0.457	-0.239
-577.763	302.536	-0.077	0.143
-576.748	16.917	-0.187	-0.149
-575.733	800.000	-0.102	0.344
-574.719	-40.659	-0.396	-0.206
-573.704	91.021	-0.229	-0.258
-572.690	-109.401	0.217	-0.046
-571.675	-19.270	0.084	0.052
-570.661	800.000	0.059	-0.182
-569.646	-13.087	0.135	0.088
-568.631	-31.535	-0.335	0.189
-567.617	701.494	0.100	0.264
-566.602	-92.748	0.428	0.120
-565.588	-200.000	-0.028	-0.236
-564.573	97.704	-0.260	0.300
-563.558	442.469	0.026	0.057
-562.544	-90.704	0.111	0.032
-561.529	40.791	-0.159	-0.145
-560.515	77.092	0.134	-0.143
-559.500	-200.000	0.009	-0.183
-558.485	39.678	-0.131	0.118
-557.471	168.704	-0.082	0.117
-556.456	-200.000	0.014	0.149
-555.442	88.179	-0.322	0.359
-554.427	27.122	0.196	0.165
-553.412	-200.000	0.037	-0.299
-552.398	-25.592	0.234	0.139
-551.383	-174.659	-0.163	0.005
-550.369	30.146	0.206	-0.176
-549.354	-200.000	-0.582	0.002
-548.339	-59.143	-0.192	-0.083
-547.325	12.229	-0.132	-0.102
-546.310	12.576	0.140	-0.108
-545.296	101.108	0.042	-0.049
-544.281	-144.015	-0.065	-0.006
-543.266	42.777	-0.193	-0.176
-542.252	515.624	0.075	0.177
-541.237	-3.272	-0.101	0.071
-540.223	800.000	-0.007	-0.029
-539.208	-97.011	-0.375	-0.099
-538.193	-91.062	-0.097	-0.028
-537.179	-48.360	0.199	0.096
-536.164	800.000	-0.066	0.192
-535.150	54.282	-0.144	0.140
-534.135	55.888	0.028	0.028
-533.121	86.355	0.276	0.305
-532.106	548.490	-0.104	0.250
-531.091	-200.000	-0.150	0.000
-530.077	61.606	-0.290	-0.290
-529.062	42.857	0.196	-0.179
-528.048	800.000	-0.012	-0.049
-527.033	-44.192	0.184	0.092
-526.018	-200.000	-0.004	-0.213
-525.004	-65.692	-0.485	0.195
-523.989	767.923	-0.132	-0.361
-522.975	440.151	-0.110	-0.242
-521.960	800.000	0.042	0.162
-520.945	161.563	0.265	0.372
-519.931	-161.486	-0.131	0.007
-518.916	145.949	0.209	-0.281
-517.902	-200.000	-0.064	0.334
-516.887	-200.000	-0.035	-0.213
-515.872	360.104	0.153	-0.307
-514.858	-200.000	-0.003	0.125
-513.843	-32.172	0.187	0.105
-512.829	62.427	-0.190	-0.191
-511.814	157.942	0.052	0.072
-510.799	196.183	0.057	0.087
-509.785	-20.243	-0.014	0.009
-508.770	-112.959	0.178	-0.035
-507.756	800.000	-0.078	0.295
-506.741	99.731	-0.061	0.071
-505.726	-59.469	-0.338	-0.146
-504.712	118.497	0.110	-0.136
-503.697	-82.553	0.214	-0.070
-502.683	800.000	-0.089	0.312
-501.668	-149.020	0.303	0.024
-500.653	-2.497	-0.234	0.164
-499.639	-200.000	-0.028	-0.281
-498.624	-200.000	0.016	0.268
-497.610	314.649	-0.132	0.249
-496.595	646.171	-0.058	0.149
-495.581	-106.632	0.365	0.081
-494.566	-8.431	-0.171	0.115
-493.551	-200.000	-0.061	0.326
-492.537	147.154	-0.101	-0.136
-491.522	572.066	-0.142	-0.347
-490.508	498.089	0.074	0.171
-489.493	-200.000	-0.003	0.187
-488.478	-200.000	0.057	0.257
-487.464	-17.204	-0.265	-0.167
-486.449	-27.046	-0.075	0.044
-485.435	-92.552	-0.550	-0.155
-484.420	439.833	-0.088	0.194
-483.405	-110.358	-0.150	-0.031
-482.391	-200.000	0.018	-0.370
-481.376	-16.280	-0.180	0.114
-480.362	-55.684	0.300	0.135
-479.347	-135.159	-0.171	0.021
-478.332	-65.090	-0.106	-0.043
-477.318	-101.876	0.116	-0.028
-476.303	800.000	-0.003	0.011
-475.289	753.244	0.131	0.355
-474.274	182.625	0.084	0.125
-473.259	47.275	-0.060	-0.056
-472.245	571.804	-0.109	-0.266
-471.230	-200.000	-0.002	-0.158
-470.216	-175.625	-0.430	-0.012
-469.201	93.447	-0.161	-0.183
-468.186	164.665	-0.117	-0.165
-467.172	-131.972	0.117	-0.015
-466.157	-200.000	0.026	-0.139
-465.143	-160.999	0.148	0.008
-464.128	-144.371	0.241	0.022
-463.113	-120.901	0.065	0.011
-462.099	27.747	-0.247	-0.208
-461.084	-106.589	-0.329	-0.073
-460.070	90.688	-0.133	-0.149
-459.055	181.901	-0.139	0.205
-458.040	800.000	-0.121	0.384
-457.026	-83.184	-0.142	0.046
-456.011	-200.000	0.022	-0.241
-454.997	-1.083	0.143	-0.101
-453.982	283.767	0.086	-0.154
-452.968	-171.441	-0.277	-0.009
-451.953	78.825	-0.021	-0.022
-450.938	513.731	-0.002	-0.004
-449.924	551.154	0.019	0.045
-448.909	-113.486	-0.215	-0.042
-447.895	30.867	-0.054	-0.046
-446.880	12.737	0.258	-0.200
-445.865	-73.425	0.094	-0.034
-444.851	-129.150	0.145	-0.020
-443.836	-200.000	-0.056	-0.389
-442.822	-200.000	-0.009	-0.151
-441.807	15.066	0.227	-0.178
-440.792	88.332	-0.153	-0.170
-439.778	65.186	-0.050	0.051
-438.763	-200.000	-0.022	0.119
-437.749	-30.017	0.083	0.048
-436.734	45.899	0.066	0.061
-435.719	7.124	-0.191	-0.143
-434.705	-20.972	0.390	0.239
-433.690	278.147	-0.124	0.222
-432.676	-200.000	0.022	-0.273
-431.661	-53.236	-0.068	-0.031
-430.646	-113.462	-0.308	0.060
-429.632	-77.864	-0.131	0.045
-428.617	-200.000	-0.032	-0.407
-427.603	234.673	0.096	-0.159
-426.588	358.828	-0.063	-0.125
-425.573	800.000	-0.009	-0.026
-424.559	156.420	0.096	-0.133
-423.544	524.383	0.070	-0.165
-422.530	52.827	0.102	-0.098
-421.515	-85.603	0.229	-0.071
-420.500	20.090	0.086	-0.069
-419.486	-200.000	0.027	-0.146
-418.471	800.000	-0.084	0.234
-417.457	-200.000	0.031	-0.263
-416.442	750.053	0.100	0.269
-415.428	-200.000	0.004	-0.152
-414.413	77.653	-0.110	-0.117
-413.398	-200.000	-0.002	-0.235
-412.384	444.278	-0.124	-0.272
-411.369	118.476	-0.258	-0.319
-410.355	253.465	-0.184	0.314
-409.340	-67.154	0.227	-0.090
-408.325	-45.696	-0.217	-0.107
-407.311	-200.000	-0.037	0.324
-406.296	10.990	0.104	0.080
-405.282	-156.060	-0.172	0.011
-404.267	-200.000	0.018	0.118
-403.252	-3.108	0.361	-0.252
-402.238	800.000	-0.065	-0.211
-401.223	-101.081	-0.092	0.022
-400.209	679.910	-0.089	-0.231
-399.194	-200.000	0.070	0.323
-398.179	800.000	-0.072	-0.205
-397.165	285.612	0.047	-0.084
-396.150	-101.797	0.242	-0.059
-395.136	-133.259	0.388	-0.049
-394.121	330.912	0.072	0.139
-393.106	17.503	0.127	-0.101
-392.092	75.454	0.218	0.230
-391.077	-82.121	-0.045	-0.015
-390.063	40.871	-0.149	0.134
-389.048	-98.483	-0.392	-0.100
-388.033	800.000	0.033	-0.136
-387.019	774.234	-0.022	-0.060
-386.004	-200.000	0.014	0.324
-384.990	68.905	0.115	-0.118
-383.975	153.317	0.173	0.237
-382.960	-111.229	0.236	0.048
-381.946	-200.000	0.019	0.330
-380.931	180.144	0.187	-0.274
-379.917	-86.880	0.139	-0.042
-378.902	-0.531	0.295	-0.209
-377.888	-200.000	-0.022	-0.145
-376.873	223.946	0.142	0.229
-375.858	-110.570	0.130	0.027
-374.844	255.661	-0.154	0.264
-373.829	-35.633	-0.164	0.089
-372.815	406.272	0.138	0.290
-371.800	-64.267	-0.397	-0.162
-370.785	-200.000	0.000	0.098
-369.771	14.706	0.132	-0.103
-368.756	-125.131	0.252	0.039
-367.742	800.000	0.065	0.191
-366.727	-200.000	-0.053	0.286
-365.712	-67.097	-0.234	0.092
-364.698	-40.506	0.175	-0.091
-363.683	529.546	0.121	0.284
-362.669	-200.000	-0.041	-0.278
-361.654	555.090	0.108	-0.258
-360.639	-200.000	-0.010	-0.073
-359.625	-80.556	-0.229	-0.076
-358.610	-200.000	0.017	-0.163
-357.596	800.000	0.034	-0.123
-356.581	690.217	0.071	0.185
-355.566	643.329	-0.051	0.130
-354.552	-101.392	0.104	-0.025
-353.537	-200.000	-0.004	0.064
-352.523	-200.000	-0.007	-0.196
-351.508	131.905	-0.128	-0.164
-350.493	-11.157	-0.101	0.066
-349.479	435.874	0.181	0.392
-348.464	-11.845	0.253	0.166
-347.450	745.192	-0.202	0.542
-346.435	-116.531	0.292	0.054
-345.420	-200.000	0.044	0.205
-344.406	-167.069	0.203	-0.008
-343.391	-200.000	0.016	-0.270
-342.377	51.716	-0.037	0.036
-341.362	50.075	0.073	0.068
-340.348	-73.555	-0.248	0.090
-339.333	268.680	0.180	0.314
-338.318	46.143	0.315	0.291
-337.304	-200.000	-0.064	-0.493
-336.289	229.366	-0.199	-0.324
-335.275	523.575	0.127	-0.297
-334.260	-183.217	-0.215	0.004
-333.245	800.000	0.071	-0.241
-332.231	-37.291	-0.231	-0.123
-331.216	-200.000	0.022	0.165
-330.202	-12.637	-0.192	0.125
-329.187	18.720	0.196	0.156
-328.172	-85.327	-0.069	0.021
-327.158	75.402	0.086	-0.090
-326.143	-167.438	0.176	0.007
-325.129	800.000	0.073	-0.214
-324.114	-200.000	-0.069	-0.357
-323.099	364.379	0.084	0.169
-322.085	52.683	0.204	0.194
-321.070	255.340	-0.066	0.113
-320.056	-109.878	0.377	0.079
-319.041	213.834	-0.088	-0.138
-318.026	-38.761	0.124	-0.065
-317.012	-139.319	-0.163	-0.017
-315.997	-111.643	0.132	-0.027
-314.983	63.456	0.172	0.172
-313.968	-100.826	0.036	0.009
-312.953	800.000	0.103	0.295
-311.939	800.000	0.082	0.316
-310.924	800.000	0.067	-0.201
-309.910	-200.000	-0.002	-0.082
-308.895	424.293	-0.107	0.230
-307.880	278.216	0.109	0.194
-306.866	246.530	-0.179	0.300
-305.851	-200.000	0.003	-0.071
-304.837	-200.000	0.041	-0.273
-303.822	61.006	0.174	0.172
-302.807	205.207	-0.120	0.185
-301.793	75.069	-0.049	-0.051
-300.778	5.032	0.202	-0.148
-299.764	31.379	-0.164	0.140
-298.749	9.109	0.328	-0.247
-297.735	-154.929	-0.144	-0.009
-296.720	-41.398	-0.130	0.066
-295.705	67.304	-0.069	-0.070
-294.691	-18.354	-0.074	0.046
-293.676	-158.379	-0.310	-0.018
-292.662	106.258	0.040	0.047
-291.647	-83.909	0.233	0.074
-290.632	250.569	0.105	-0.178
-289.618	84.583	0.053	0.058
-288.603	191.952	-0.156	0.234
-287.589	-200.000	0.025	0.134
-286.574	133.837	-0.169	0.217
-285.559	139.612	-0.122	0.160
-284.545	-49.842	0.281	-0.133
-283.530	-86.735	0.079	0.024
-282.516	356.235	0.132	-0.261
-281.501	309.521	-0.171	-0.317
-280.486	-70.089	-0.284	-0.107
-279.472	-132.280	0.086	0.011
-278.457	-31.886	0.127	0.071
-277.443	-8.676	0.176	-0.117
-276.428	155.093	0.128	0.174
-275.413	-64.934	0.258	0.104
-274.399	-78.288	0.194	-0.066
-273.384	-29.246	0.239	-0.136
-272.370	245.313	-0.162	0.270
-271.355	-114.746	0.258	0.049
-270.340	375.174	0.097	-0.197
-269.326	-104.509	-0.077	-0.018
-268.311	155.172	-0.197	0.269
-267.297	97.140	0.161	-0.183
-266.282	-99.193	0.085	-0.021
-265.267	-116.920	-0.336	0.061
-264.253	5.125	-0.193	0.141
-263.238	-80.992	-0.219	0.072
-262.224	-147.564	-0.265	0.022
-261.209	800.000	0.103	0.324
-260.195	16.286	0.168	0.132
-259.180	443.776	-0.133	-0.289
-258.165	-88.590	0.249	-0.074
-257.151	-200.000	-0.042	0.190
-256.136	-147.677	0.388	-0.032
-255.122	800.000	0.106	0.294
-254.107	-200.000	0.004	-0.102
-253.092	800.000	-0.032	-0.132
-252.078	68.477	-0.032	-0.032
-251.063	-20.754	0.105	0.064
-250.049	111.262	0.057	-0.068
-249.034	-159.652	0.307	-0.017
-248.019	-124.821	0.185	-0.028
-247.005	68.298	0.143	0.145
-245.990	-57.841	0.104	-0.045
-244.976	26.422	0.240	0.199
-243.961	-31.939	0.170	0.094
-242.946	-95.251	0.229	-0.061
-241.932	-135.634	-0.163	-0.019
-240.917	800.000	-0.130	0.424
-239.903	-102.897	0.137	0.032
-238.888	685.047	-0.043	-0.112
-237.873	-200.000	0.027	0.238
-236.859	-139.651	0.124	-0.013
-235.844	-72.633	0.222	-0.081
-234.830	-153.248	-0.589	-0.041
-233.815	-162.610	0.271	-0.013
-232.800	-41.735	0.329	-0.168
-231.786	-100.080	-0.111	0.027
-230.771	196.398	0.079	-0.120
-229.757	164.698	-0.083	0.116
-228.742	-200.000	-0.022	0.285
-227.727	-200.000	-0.009	0.126
-226.713	-49.088	-0.063	-0.030
-225.698	217.230	-0.074	-0.117
-224.684	-64.967	-0.113	-0.045
-223.669	-130.680	-0.358	0.048
-222.655	-120.922	-0.157	-0.026
-221.640	152.634	-0.049	0.066
-220.625	261.477	0.067	-0.115
-219.611	-42.665	0.310	0.156
-218.596	-81.913	0.310	-0.101
-217.582	-58.872	-0.136	0.058
-216.567	642.055	0.068	-0.172
-215.552	-200.000	0.007	0.044
-214.538	-56.303	-0.064	-0.028
-213.523	-124.274	0.327	-0.051
-212.509	89.632	-0.154	-0.171
-211.494	800.000	0.097	-0.373
-210.479	738.039	0.070	-0.185
-209.465	3.953	-0.276	-0.200
-208.450	800.000	-0.073	0.308
-207.436	168.091	0.172	-0.243
-206.421	-23.276	-0.180	-0.108
-205.406	-161.293	0.198	0.010
-204.392	-28.119	0.136	0.078
-203.377	800.000	-0.073	-0.201
-202.363	-200.000	-0.024	0.389
-201.348	800.000	-0.107	-0.305
-200.333	171.778	-0.066	0.094
-199.319	800.000	-0.100	-0.319
-198.304	-57.868	0.479	-0.208
-197.290	-61.906	-0.364	0.151
-196.275	-54.429	0.199	0.089
-195.260	800.000	-0.009	0.032
-194.246	-6.534	0.112	-0.076
-193.231	-200.000	0.004	-0.091
-192.217	68.092	0.111	0.113
-191.202	-64.719	0.087	-0.035
-190.187	73.447	-0.032	0.033
-189.173	-200.000	0.040	0.223
-188.158	43.788	-0.080	-0.072
-187.144	-186.820	0.090	-0.001
-186.129	-200.000	0.017	-0.158
-185.114	-54.097	0.223	0.101
-184.100	98.874	-0.109	-0.125
-183.085	-200.000	-0.030	-0.313
-182.071	289.104	0.118	0.212
-181.056	128.553	0.197	0.249
-180.042	-108.940	-0.334	0.071
-179.027	-160.659	0.316	-0.017
-178.012	800.000	-0.074	0.213
-176.998	-39.863	0.311	0.161
-175.983	17.682	0.169	-0.133
-174.969	-56.702	-0.338	-0.148
-173.954	410.116	0.158	-0.331
-172.939	267.816	0.123	-0.213
-171.925	-23.053	-0.275	-0.164
-170.910	-163.701	-0.364	-0.017
-169.896	-89.021	-0.382	-0.112
-168.881	431.458	-0.036	0.078
-167.866	-48.971	0.062	-0.029
-166.852	370.088	-0.087	-0.174
-165.837	-180.167	-0.118	-0.002
-164.823	-7.614	-0.286	-0.191
-163.808	800.000	0.059	-0.205
-162.793	-24.638	0.069	-0.041
-161.779	24.792	0.239	0.196
-160.764	-132.969	0.374	-0.047
-159.750	-130.902	0.054	0.007
-158.735	-157.991	0.281	0.016
-157.720	-138.199	-0.030	0.003
-156.706	220.392	-0.046	-0.074
-155.691	248.694	0.126	-0.211
-154.677	392.606	0.088	0.182
-153.662	284.692	-0.152	0.270
-152.647	257.855	0.104	0.178
-151.633	-200.000	-0.011	-0.113
-150.618	-148.559	-0.190	0.015
-149.604	-106.953	0.329	-0.072
-148.589	96.445	-0.061	0.069
-147.574	193.647	0.168	0.252
-146.560	546.421	-0.086	-0.203
-145.545	-25.118	0.164	0.096
-144.531	-49.017	0.142	0.067
-143.516	-124.904	0.344	-0.052
-142.502	421.172	0.092	-0.196
-141.487	-200.000	0.010	0.099
-140.472	800.000	0.094	0.292
-139.458	11.611	-0.080	-0.061
-138.443	-140.677	-0.086	0.009
-137.429	800.000	0.044	-0.121
-136.414	800.000	-0.019	0.068
-135.399	-85.244	-0.347	-0.107
-134.385	-200.000	0.040	-0.263
-133.370	-131.221	-0.319	-0.042
-132.356	95.919	-0.068	-0.076
-131.341	-1.322	-0.158	-0.110
-130.326	298.926	0.075	-0.136
-129.312	22.814	0.186	-0.151
-128.297	-147.884	0.176	0.014
-127.283	-137.180	0.177	-0.020
-126.268	40.262	0.039	-0.035
-125.253	-9.529	0.084	-0.056
-124.239	-200.000	0.013	0.146
-123.224	211.588	-0.076	-0.119
-122.210	-16.788	0.454	0.284
