DTS Sentinel unit serial number:	SN413079Multiplexer serial number:	ORYXHardware model number:	OX4-SRSoftware version number:	ORYX F/W v4.00 Oryx Data Collector v3.7.2.0data status	okinstallation	princeton_trtdifferential loss correction	single-endedforward channel	channel 1reverse channel	N/Adate	2019/09/19time	13:22:35forward acquisition time	60.00reverse acquisition time	0.00gamma	496.2192k internal	0.2327k external	0.2327temperature offset calibration	1.0014default loss term (dB/km)	0.3790temperature slope calibration	1.0000multiplexer offset coefficient	1.0000multiplexer slope coefficient	1.0000fibre end	0.00T internal ref (°C)	29.69T ext. ref 1 (°C)	0.95T ext. ref 2 (°C)	26.96length (m)	temperature (°C)	Stokes	anti-Stokes-747.200	-41.217	0.288	0.150
-746.185	366.461	-0.115	0.233
-745.171	-94.242	0.169	0.047
-744.156	-54.622	-0.362	0.165
-743.142	-39.969	0.079	-0.041
-742.127	-200.000	0.016	0.084
-741.112	800.000	-0.115	-0.358
-740.098	550.165	0.082	-0.199
-739.083	711.522	0.049	0.130
-738.069	540.450	-0.142	0.340
-737.054	243.947	0.033	0.056
-736.039	800.000	0.047	-0.140
-735.025	-200.000	-0.002	0.405
-734.010	143.526	-0.135	0.181
-732.996	23.655	0.201	0.167
-731.981	-113.014	-0.156	0.031
-730.966	425.986	0.119	-0.258
-729.952	-115.370	-0.271	-0.052
-728.937	14.424	-0.049	0.038
-727.923	524.546	0.103	-0.243
-726.908	800.000	0.060	-0.173
-725.894	646.153	-0.036	-0.093
-724.879	-200.000	0.024	0.179
-723.864	285.802	-0.054	0.099
-722.850	-200.000	-0.066	-0.295
-721.835	-62.547	-0.223	0.093
-720.821	665.213	-0.017	-0.043
-719.806	-200.000	0.034	-0.342
-718.791	-32.693	-0.120	0.067
-717.777	24.236	0.132	0.109
-716.762	538.992	-0.088	0.211
-715.748	156.914	0.122	-0.170
-714.733	-200.000	0.036	-0.193
-713.718	46.067	-0.180	-0.168
-712.704	456.648	-0.014	-0.032
-711.689	-83.406	0.255	-0.082
-710.675	-15.846	-0.266	-0.170
-709.660	-118.783	-0.489	0.087
-708.645	-71.559	-0.204	-0.077
-707.631	-113.045	-0.230	-0.046
-706.616	-44.603	-0.021	-0.011
-705.602	27.141	-0.132	0.112
-704.587	-200.000	-0.025	0.198
-703.572	367.925	0.144	0.293
-702.558	800.000	-0.066	-0.233
-701.543	264.162	-0.184	0.322
-700.529	325.452	-0.052	-0.100
-699.514	-114.949	0.234	-0.045
-698.499	800.000	0.063	0.256
-697.485	-200.000	-0.023	-0.296
-696.470	-144.373	0.130	-0.012
-695.456	800.000	0.164	0.457
-694.441	800.000	-0.012	-0.042
-693.426	-73.145	-0.208	0.077
-692.412	-200.000	-0.038	0.219
-691.397	51.044	-0.067	0.064
-690.383	258.565	-0.211	0.366
-689.368	-73.198	-0.100	0.037
-688.354	-136.601	0.456	-0.053
-687.339	-69.924	0.089	0.034
-686.324	-134.262	0.146	-0.018
-685.310	425.689	0.085	-0.185
-684.295	122.492	0.145	0.182
-683.281	192.921	0.038	0.058
-682.266	494.769	-0.160	-0.369
-681.251	800.000	-0.118	-0.338
-680.237	198.873	0.084	-0.129
-679.222	287.107	0.013	0.023
-678.208	175.135	-0.183	-0.267
-677.193	800.000	-0.069	-0.257
-676.178	-45.773	-0.375	0.186
-675.164	600.451	-0.073	-0.181
-674.149	-112.144	-0.096	-0.019
-673.135	186.802	-0.255	-0.382
-672.120	-200.000	0.003	-0.016
-671.105	800.000	0.033	-0.135
-670.091	800.000	0.115	-0.335
-669.076	-200.000	-0.046	-0.235
-668.062	51.099	-0.184	-0.176
-667.047	11.924	0.278	-0.215
-666.032	356.959	0.162	-0.325
-665.018	25.526	0.296	-0.247
-664.003	249.219	-0.040	0.068
-662.989	175.227	0.077	-0.112
-661.974	-42.643	0.200	0.102
-660.959	-200.000	-0.025	-0.138
-659.945	624.447	-0.120	0.305
-658.930	-64.810	0.204	0.083
-657.916	-15.778	-0.178	0.114
-656.901	-166.323	-0.382	-0.016
-655.886	23.906	0.172	0.142
-654.872	119.163	-0.357	-0.443
-653.857	91.054	-0.061	0.069
-652.843	39.446	-0.192	-0.173
-651.828	-200.000	0.038	0.275
-650.814	-133.892	0.398	0.050
-649.799	-29.296	-0.129	0.074
-648.784	-26.274	-0.192	0.113
-647.770	240.344	0.004	-0.006
-646.755	-200.000	-0.005	-0.339
-645.741	341.017	-0.070	-0.138
-644.726	233.333	-0.158	0.262
-643.711	-200.000	-0.093	0.490
-642.697	-136.026	-0.207	0.024
-641.682	-37.800	-0.346	-0.185
-640.668	-200.000	-0.011	0.214
-639.653	13.237	0.079	0.062
-638.638	-200.000	0.020	-0.308
-637.624	-7.542	0.320	-0.217
-636.609	-60.158	0.052	-0.022
-635.595	14.937	-0.185	-0.145
-634.580	-35.992	-0.265	-0.144
-633.565	-153.461	0.136	-0.009
-632.551	-39.354	-0.111	-0.058
-631.536	55.368	-0.211	0.205
-630.522	-200.000	-0.023	-0.192
-629.507	6.323	0.153	-0.114
-628.492	44.945	0.161	-0.149
-627.478	92.522	0.091	-0.103
-626.463	-200.000	0.001	0.009
-625.449	-84.638	0.161	0.051
-624.434	-124.371	0.358	-0.056
-623.419	-149.934	-0.194	-0.015
-622.405	-57.335	0.212	-0.094
-621.390	800.000	-0.059	-0.176
-620.376	800.000	0.017	-0.057
-619.361	-172.482	-0.450	0.014
-618.346	800.000	0.087	0.377
-617.332	-200.000	0.021	-0.355
-616.317	-81.122	-0.230	-0.076
-615.303	-200.000	-0.059	-0.606
-614.288	363.896	-0.094	-0.191
-613.273	-114.765	0.239	0.046
-612.259	-67.927	-0.350	-0.137
-611.244	-25.979	-0.135	0.080
-610.230	800.000	0.074	-0.321
-609.215	124.926	-0.077	0.097
-608.201	-83.959	-0.362	0.115
-607.186	64.908	-0.169	-0.171
-606.171	-200.000	-0.018	0.112
-605.157	-176.189	-0.239	0.006
-604.142	-150.075	0.124	-0.010
-603.128	800.000	-0.007	-0.023
-602.113	-33.936	-0.128	0.070
-601.098	800.000	0.115	-0.464
-600.084	-23.937	0.240	0.144
-599.069	552.555	-0.007	-0.017
-598.055	800.000	-0.048	-0.192
-597.040	164.503	-0.133	-0.188
-596.025	-200.000	0.012	-0.444
-595.011	-31.152	0.129	-0.073
-593.996	-123.989	0.260	-0.041
-592.982	-54.363	-0.081	0.037
-591.967	-163.082	-0.120	0.006
-590.952	-200.000	0.038	-0.251
-589.938	800.000	0.043	0.146
-588.923	256.458	0.128	0.219
-587.909	-110.665	-0.126	-0.026
-586.894	800.000	0.076	-0.214
-585.879	-200.000	0.054	0.245
-584.865	-136.556	-0.282	-0.033
-583.850	-200.000	0.178	0.000
-582.836	-18.189	-0.154	-0.097
-581.821	66.506	0.137	0.140
-580.806	-72.279	0.496	0.184
-579.792	53.215	-0.225	-0.216
-578.777	183.363	0.105	-0.155
-577.763	-129.190	-0.131	-0.018
-576.748	-200.000	-0.005	-0.084
-575.733	662.505	-0.071	0.185
-574.719	158.818	0.175	0.244
-573.704	18.709	0.183	0.147
-572.690	-176.135	0.161	-0.004
-571.675	-39.127	0.096	0.051
-570.661	-200.000	-0.029	-0.324
-569.646	98.960	-0.219	-0.254
-568.631	800.000	-0.054	0.218
-567.617	-109.750	0.116	-0.024
-566.602	667.062	0.128	0.330
-565.588	145.682	-0.121	0.163
-564.573	-55.318	-0.395	-0.178
-563.558	641.021	0.142	0.362
-562.544	-200.000	0.023	-0.408
-561.529	-200.000	0.038	0.195
-560.515	800.000	-0.068	0.243
-559.500	-200.000	-0.046	-0.209
-558.485	151.368	-0.154	0.210
-557.471	227.305	0.066	-0.107
-556.456	-69.529	-0.150	0.058
-555.442	-91.252	-0.098	-0.028
-554.427	223.825	-0.063	-0.102
-553.412	-200.000	-0.031	0.165
-552.398	-200.000	0.040	-0.546
-551.383	640.247	-0.120	-0.306
-550.369	-66.761	-0.276	-0.109
-549.354	89.995	0.064	0.072
-548.339	-200.000	0.014	-0.072
-547.325	61.481	0.035	-0.035
-546.310	-3.273	-0.158	-0.110
-545.296	-49.574	0.036	-0.017
-544.281	285.906	-0.092	0.166
-543.266	232.694	-0.020	-0.033
-542.252	149.325	-0.106	0.144
-541.237	36.164	0.175	0.154
-540.223	-200.000	0.019	0.090
-539.208	800.000	-0.088	0.261
-538.193	-112.539	-0.134	-0.027
-537.179	329.004	-0.055	0.106
-536.164	-77.726	-0.153	0.053
-535.150	-6.787	0.053	0.036
-534.135	-88.858	-0.201	-0.060
-533.121	-150.620	0.205	0.016
-532.106	-75.753	-0.076	0.027
-531.091	-65.121	-0.270	-0.109
-530.077	8.525	0.127	-0.095
-529.062	-120.332	-0.127	0.022
-528.048	-181.983	0.215	0.004
-527.033	8.874	0.087	0.066
-526.018	-179.939	-0.065	0.001
-525.004	40.072	0.240	0.215
-523.989	61.749	0.098	-0.097
-522.975	-81.366	-0.414	0.137
-521.960	-29.842	0.368	-0.210
-520.945	2.820	-0.300	0.218
-519.931	-88.033	-0.125	0.038
-518.916	70.136	0.293	-0.302
-517.902	228.922	-0.189	-0.309
-516.887	5.780	0.071	-0.052
-515.872	41.319	0.136	-0.123
-514.858	200.103	0.156	0.239
-513.843	-194.649	0.064	0.001
-512.829	-111.510	-0.276	-0.056
-511.814	31.064	-0.287	-0.246
-510.799	-54.891	-0.219	-0.099
-509.785	-127.768	-0.529	-0.076
-508.770	-200.000	-0.019	-0.286
-507.756	-102.241	-0.245	-0.059
-506.741	-22.362	0.079	0.048
-505.726	-200.000	0.005	0.259
-504.712	-41.886	0.270	-0.138
-503.697	-37.772	0.257	0.136
-502.683	472.867	0.163	0.367
-501.668	95.559	0.176	-0.200
-500.653	362.087	0.085	0.170
-499.639	-200.000	0.001	-0.190
-498.624	-146.019	0.255	-0.023
-497.610	-34.939	-0.260	0.142
-496.595	-154.112	-0.094	-0.006
-495.581	127.063	-0.054	-0.069
-494.566	304.712	0.200	-0.371
-493.551	800.000	-0.054	-0.168
-492.537	800.000	-0.041	0.125
-491.522	-139.430	0.188	-0.020
-490.508	344.849	-0.066	0.129
-489.493	292.117	-0.084	0.154
-488.478	548.020	-0.037	0.088
-487.464	-53.390	0.160	0.073
-486.449	-106.007	0.311	-0.070
-485.435	-200.000	-0.033	0.167
-484.420	-41.631	0.083	0.042
-483.405	521.740	-0.040	-0.094
-482.391	110.206	0.199	0.239
-481.376	-71.123	0.140	0.052
-480.362	-200.000	-0.050	0.239
-479.347	-156.971	-0.137	0.008
-478.332	-200.000	-0.023	0.358
-477.318	239.189	-0.071	-0.118
-476.303	389.413	-0.077	-0.159
-475.289	-178.173	0.250	-0.006
-474.274	-67.793	-0.136	0.053
-473.259	-200.000	0.040	0.312
-472.245	653.950	0.164	0.419
-471.230	-75.315	0.227	-0.081
-470.216	22.089	-0.137	0.112
-469.201	-200.000	-0.014	0.064
-468.186	-10.333	-0.160	0.106
-467.172	-200.000	-0.045	-0.233
-466.157	-72.329	0.287	-0.106
-465.143	800.000	-0.094	0.304
-464.128	-68.275	0.122	0.047
-463.113	-95.163	0.092	0.025
-462.099	52.902	0.004	-0.004
-461.084	800.000	-0.022	0.079
-460.070	-84.679	0.145	-0.045
-459.055	-73.111	-0.415	0.152
-458.040	-200.000	-0.021	-0.212
-457.026	47.571	0.093	-0.087
-456.011	61.385	-0.304	-0.301
-454.997	539.456	0.016	-0.037
-453.982	24.043	0.166	0.136
-452.968	-200.000	-0.005	-0.195
-451.953	-200.000	-0.030	-0.212
-450.938	-200.000	0.010	-0.132
-449.924	-200.000	-0.006	0.156
-448.909	5.707	0.284	0.209
-447.895	85.920	-0.312	-0.342
-446.880	-91.770	-0.418	-0.118
-445.865	-200.000	0.061	0.453
-444.851	153.405	-0.140	0.191
-443.836	162.167	0.146	-0.204
-442.822	-195.327	0.292	-0.002
-441.807	-113.484	0.151	-0.030
-440.792	-114.460	-0.070	-0.013
-439.778	-8.859	-0.158	-0.106
-438.763	-200.000	-0.039	0.198
-437.749	-128.896	0.237	0.033
-436.734	-54.087	-0.140	0.064
-435.719	272.500	-0.137	0.241
-434.705	131.402	-0.135	0.173
-433.690	175.646	0.090	0.129
-432.676	352.516	0.134	0.265
-431.661	-109.820	0.281	0.059
-430.646	202.863	-0.089	-0.136
-429.632	-157.081	-0.179	0.011
-428.617	224.649	-0.111	0.179
-427.603	800.000	0.035	0.145
-426.588	749.109	-0.056	0.152
-425.573	540.151	-0.053	-0.125
-424.559	-31.010	-0.085	0.048
-423.544	-35.925	0.091	0.049
-422.530	-200.000	-0.122	-0.593
-421.515	-200.000	0.056	0.270
-420.500	-36.833	-0.026	-0.014
-419.486	-34.023	-0.071	-0.039
-418.471	-200.000	-0.042	-0.211
-417.457	-148.638	-0.091	-0.007
-416.442	-137.809	-0.090	-0.010
-415.428	1.672	0.208	-0.149
-414.413	365.651	-0.071	0.142
-413.398	-200.000	0.031	-0.263
-412.384	195.893	-0.242	0.367
-411.369	470.701	-0.131	0.292
-410.355	-121.769	0.231	-0.038
-409.340	-111.945	0.049	-0.010
-408.325	246.507	-0.040	-0.067
-407.311	-200.000	0.000	0.026
-406.296	155.019	-0.161	0.221
-405.282	-200.000	0.022	-0.148
-404.267	671.938	-0.091	0.233
-403.252	-200.000	-0.000	0.151
-402.238	-86.554	-0.073	-0.022
-401.223	59.734	-0.115	-0.113
-400.209	-161.799	0.263	-0.013
-399.194	-200.000	-0.014	-0.117
-398.179	-19.773	-0.261	0.160
-397.165	-74.766	0.205	0.073
-396.150	70.069	0.195	-0.200
-395.136	-26.971	-0.245	-0.142
-394.121	279.464	-0.146	-0.260
-393.106	107.505	-0.156	0.184
-392.092	800.000	0.036	0.109
-391.077	-200.000	0.043	0.189
-390.063	28.363	-0.126	0.106
-389.048	800.000	-0.059	0.207
-388.033	-128.435	0.013	0.002
-387.019	67.987	0.122	0.124
-386.004	294.999	0.147	-0.268
-384.990	-200.000	0.032	-0.169
-383.975	-56.768	0.153	-0.067
-382.960	-170.855	-0.197	0.007
-381.946	194.317	0.025	-0.037
-380.931	-200.000	0.038	0.205
-379.917	286.101	-0.232	0.416
-378.902	800.000	-0.091	0.320
-377.888	-94.108	0.120	-0.033
-376.873	57.235	-0.124	-0.120
-375.858	28.235	0.104	0.087
-374.844	800.000	-0.025	-0.105
-373.829	39.533	-0.202	-0.180
-372.815	800.000	0.022	-0.072
-371.800	47.380	0.281	0.260
-370.785	-65.026	-0.484	-0.194
-369.771	159.209	-0.056	-0.077
-368.756	-200.000	-0.012	0.101
-367.742	264.919	-0.094	-0.163
-366.727	-6.540	-0.070	0.048
-365.712	-72.205	0.236	0.087
-364.698	-200.000	0.018	0.418
-363.683	800.000	0.051	-0.173
-362.669	-109.687	-0.246	-0.051
-361.654	23.456	-0.065	-0.053
-360.639	213.808	-0.077	0.121
-359.625	339.361	0.029	-0.057
-358.610	-200.000	0.013	-0.297
-357.596	83.100	0.163	0.176
-356.581	-38.582	0.223	0.117
-355.566	228.873	0.190	0.307
-354.552	-152.652	0.227	0.016
-353.537	207.801	-0.061	0.095
-352.523	-200.000	0.026	-0.284
-351.508	-110.843	0.263	0.054
-350.493	426.549	-0.140	0.299
-349.479	-11.202	-0.216	-0.142
-348.464	-200.000	0.015	-0.296
-347.450	270.992	0.125	-0.218
-346.435	395.872	0.108	0.223
-345.420	-20.970	0.171	0.104
-344.406	-200.000	-0.009	0.075
-343.391	-11.653	0.283	-0.185
-342.377	-157.405	-0.171	-0.010
-341.362	-200.000	0.003	0.053
-340.348	-200.000	-0.031	0.157
-339.333	17.694	-0.168	-0.133
-338.318	497.303	-0.117	0.267
-337.304	-94.500	-0.228	-0.062
-336.289	-130.249	0.242	-0.033
-335.275	26.222	0.089	-0.074
-334.260	-20.712	0.229	0.139
-333.245	-160.963	-0.207	-0.011
-332.231	-54.005	-0.040	0.018
-331.216	-76.232	0.340	-0.119
-330.202	-200.000	-0.046	-0.370
-329.187	-93.691	-0.138	0.038
-328.172	-69.451	0.336	0.128
-327.158	-63.604	0.330	-0.134
-326.143	526.977	0.063	-0.147
-325.129	-69.218	0.146	-0.055
-324.114	-149.607	-0.210	-0.016
-323.099	-58.759	0.018	0.008
-322.085	-26.865	-0.204	-0.118
-321.070	578.575	0.133	-0.322
-320.056	-147.846	-0.639	0.053
-319.041	-27.794	0.165	-0.095
-318.026	-105.768	-0.351	0.079
-317.012	-200.000	-0.010	0.121
-315.997	55.329	0.088	-0.084
-314.983	-97.518	0.092	0.024
-313.968	800.000	-0.120	0.443
-312.953	-200.000	0.026	-0.313
-311.939	-200.000	-0.018	0.079
-310.924	-138.354	-0.203	-0.022
-309.910	-200.000	0.034	-0.218
-308.895	-24.070	0.203	-0.120
-307.880	-158.177	-0.343	-0.020
-306.866	-200.000	0.029	0.290
-305.851	800.000	0.046	-0.172
-304.837	-58.413	0.126	0.054
-303.822	212.135	-0.129	-0.202
-302.807	-91.538	0.067	-0.019
-301.793	757.158	-0.055	-0.148
-300.778	250.003	-0.084	0.141
-299.764	800.000	0.131	-0.360
-298.749	-22.366	-0.231	0.139
-297.735	95.074	0.016	-0.018
-296.720	800.000	-0.093	0.327
-295.705	-200.000	0.006	0.084
-294.691	-59.857	-0.105	0.044
-293.676	-200.000	-0.018	-0.299
-292.662	-61.290	0.146	0.061
-291.647	69.661	0.135	-0.138
-290.632	-69.800	-0.341	0.129
-289.618	-1.054	-0.161	-0.113
-288.603	-127.002	0.638	0.093
-287.589	-110.231	-0.192	-0.040
-286.574	-126.259	-0.341	-0.050
-285.559	-86.684	0.250	-0.076
-284.545	209.410	0.195	0.302
-283.530	102.071	0.089	0.102
-282.516	-90.960	-0.191	-0.054
-281.501	800.000	-0.032	-0.096
-280.486	-5.523	-0.123	0.083
-279.472	-97.184	0.399	-0.103
-278.457	764.812	0.034	-0.091
-277.443	-27.242	0.154	-0.089
-276.428	-200.000	0.007	0.168
-275.413	128.947	-0.165	-0.208
-274.399	-13.322	0.254	-0.163
-273.384	-113.938	0.177	-0.034
-272.370	113.993	-0.102	-0.123
-271.355	-107.003	0.576	-0.126
-270.340	79.795	0.044	0.047
-269.326	-87.087	-0.280	0.084
-268.311	-138.820	0.092	-0.010
-267.297	87.374	0.083	0.091
-266.282	-58.867	0.182	0.078
-265.267	-200.000	0.055	-0.278
-264.253	-200.000	-0.055	0.384
-263.238	56.310	0.240	-0.230
-262.224	212.144	0.104	-0.162
-261.209	461.150	0.064	-0.142
-260.195	378.190	0.065	-0.131
-259.180	-19.908	0.075	0.046
-258.165	1.508	0.148	0.105
-257.151	149.811	0.086	0.116
-256.136	63.079	-0.173	-0.171
-255.122	-88.224	-0.130	-0.038
-254.107	-200.000	-0.007	0.144
-253.092	-48.004	-0.155	-0.074
-252.078	233.887	0.038	0.062
-251.063	-89.957	-0.114	-0.033
-250.049	-200.000	-0.022	0.115
-249.034	51.962	-0.053	0.050
-248.019	-114.476	-0.406	-0.077
-247.005	240.525	0.105	-0.174
-245.990	-110.664	0.218	0.045
-244.976	1.708	0.131	0.093
-243.961	320.123	0.128	-0.240
-242.946	-147.525	-0.264	0.022
-241.932	145.310	0.057	0.076
-240.917	-1.372	0.172	0.120
-239.903	-66.610	-0.095	0.037
-238.888	20.074	0.096	0.077
-237.873	-72.930	-0.173	0.063
-236.859	-35.476	-0.179	-0.096
-235.844	-92.833	0.190	-0.053
-234.830	49.250	-0.193	-0.180
-233.815	2.336	-0.190	0.136
-232.800	-200.000	0.013	-0.251
-231.786	207.588	-0.264	-0.407
-230.771	4.002	0.454	0.328
-229.757	-14.913	0.221	-0.140
-228.742	-56.777	-0.121	0.053
-227.727	447.815	-0.065	0.141
-226.713	-104.246	0.433	0.099
-225.698	-135.555	-0.337	-0.040
-224.684	800.000	0.060	0.239
-223.669	194.422	0.077	0.116
-222.655	51.406	-0.038	0.036
-221.640	36.660	0.179	-0.157
-220.625	-24.877	0.206	0.121
-219.611	-165.222	-0.172	0.007
-218.596	42.418	-0.127	-0.114
-217.582	203.994	0.117	0.179
-216.567	-41.990	0.247	0.125
-215.552	38.757	-0.191	0.168
-214.538	170.118	0.179	0.253
-213.523	800.000	-0.026	0.092
-212.509	164.415	0.011	-0.015
-211.494	-107.039	-0.205	0.045
-210.479	-163.713	-0.108	-0.005
-209.465	180.060	0.031	0.046
-208.450	-161.314	0.258	-0.013
-207.436	291.196	-0.174	0.312
-206.421	-177.606	-0.086	-0.002
-205.406	125.601	0.098	0.122
-204.392	800.000	0.078	0.276
-203.377	-103.968	-0.114	0.026
-202.363	155.081	-0.099	0.134
-201.348	56.279	0.342	0.328
-200.333	-96.339	0.297	-0.078
-199.319	726.970	0.059	0.156
-198.304	-88.923	0.206	-0.060
-197.290	182.451	-0.080	0.116
-196.275	559.308	0.025	0.058
-195.260	278.427	0.209	0.368
-194.246	800.000	-0.029	-0.082
-193.231	54.480	0.113	0.107
-192.217	530.034	-0.072	0.168
-191.202	-200.000	0.237	0.001
-190.187	118.999	0.168	-0.204
-189.173	-141.693	0.051	0.005
-188.158	12.026	-0.057	-0.044
-187.144	622.338	0.112	0.278
-186.129	800.000	0.046	-0.188
-185.114	-56.834	0.248	0.108
-184.100	-74.741	-0.039	-0.014
-183.085	-29.135	0.164	0.093
-182.071	152.274	0.156	-0.210
-181.056	-72.764	-0.283	0.103
-180.042	-30.981	-0.201	-0.112
-179.027	800.000	0.048	0.150
-178.012	376.835	0.055	0.110
-176.998	-151.824	0.407	0.029
-175.983	96.490	-0.276	-0.311
-174.969	800.000	-0.110	0.301
-173.954	114.846	0.148	0.177
-172.939	-200.000	0.008	0.063
-171.925	-33.846	-0.234	0.127
-170.910	205.722	0.121	-0.185
-169.896	-93.566	-0.179	0.049
-168.881	-7.200	0.067	-0.045
-167.866	609.801	-0.170	-0.419
-166.852	-43.678	-0.291	-0.144
-165.837	-127.465	-0.313	-0.045
-164.823	12.411	0.407	-0.309
-163.808	-186.545	0.107	0.002
-162.793	213.127	-0.124	0.194
-161.779	143.453	-0.048	-0.063
-160.764	-69.389	0.459	-0.173
-159.750	-200.000	0.059	0.543
-158.735	-65.011	-0.187	-0.075
-157.720	31.391	0.201	0.170
-156.706	-84.902	0.313	-0.097
-155.691	800.000	-0.054	-0.159
-154.677	58.973	0.083	0.080
-153.662	7.812	-0.495	-0.365
-152.647	169.355	0.197	-0.277
-151.633	166.455	0.175	-0.245
-150.618	-200.000	0.009	-0.111
-149.604	-200.000	-0.003	-0.023
-148.589	-200.000	0.037	0.330
-147.574	15.695	-0.167	0.129
-146.560	38.677	0.152	-0.134
-145.545	-200.000	0.037	-0.204
-144.531	744.860	-0.107	-0.284
-143.516	321.214	0.093	-0.175
-142.502	-136.568	0.273	0.031
-141.487	-16.156	0.067	-0.042
-140.472	-95.486	-0.037	-0.010
-139.458	49.059	-0.259	0.239
-138.443	-200.000	-0.034	0.219
-137.429	-62.175	-0.102	-0.042
-136.414	266.138	0.066	0.114
-135.399	5.830	-0.258	-0.188
-134.385	48.528	-0.170	-0.157
-133.370	-85.662	0.037	0.011
-132.356	-65.951	-0.092	0.036
-131.341	-121.622	-0.107	0.017
-130.326	-129.770	-0.106	-0.014
-129.312	91.962	0.336	0.372
-128.297	800.000	0.058	0.181
-127.283	-126.341	0.117	0.017
-126.268	-125.884	-0.248	0.037
-125.253	-189.104	0.276	-0.003
-124.239	800.000	0.057	-0.202
-123.224	-13.487	0.194	0.123
-122.210	5.958	-0.091	0.067
-121.195	242.685	0.064	0.105
