DTS Sentinel unit serial number:	SN413079Multiplexer serial number:	ORYXHardware model number:	OX4-SRSoftware version number:	ORYX F/W v4.00 Oryx Data Collector v3.7.2.0data status	okinstallation	princeton_trtdifferential loss correction	single-endedforward channel	channel 1reverse channel	N/Adate	2019/09/14time	16:54:35forward acquisition time	60.00reverse acquisition time	0.00gamma	496.2192k internal	0.2294k external	0.2294temperature offset calibration	1.0054default loss term (dB/km)	0.3790temperature slope calibration	1.0000multiplexer offset coefficient	1.0000multiplexer slope coefficient	1.0000fibre end	0.00T internal ref (°C)	38.00T ext. ref 1 (°C)	4.99T ext. ref 2 (°C)	33.49length (m)	temperature (°C)	Stokes	anti-Stokes-747.200	26.409	-0.074	0.063
-746.185	-13.631	0.094	-0.062
-745.171	-200.000	-0.020	0.113
-744.156	207.625	-0.080	-0.128
-743.142	800.000	-0.055	-0.171
-742.127	-200.000	0.006	0.264
-741.112	-64.140	0.296	0.124
-740.098	800.000	-0.067	0.197
-739.083	112.473	0.061	0.076
-738.069	24.170	-0.199	0.168
-737.054	211.263	0.137	0.220
-736.039	190.324	-0.069	0.106
-735.025	-200.000	0.040	-0.181
-734.010	12.334	-0.214	-0.168
-732.996	-9.822	-0.122	0.083
-731.981	-89.022	-0.114	0.034
-730.966	-15.197	0.074	0.048
-729.952	93.323	-0.346	-0.400
-728.937	-200.000	0.017	-0.180
-727.923	163.244	-0.187	-0.269
-726.908	65.908	0.103	0.107
-725.894	-122.195	-0.384	-0.064
-724.879	-77.685	0.182	0.064
-723.864	-91.002	-0.157	0.046
-722.850	295.989	0.052	-0.098
-721.835	142.902	0.023	0.032
-720.821	90.925	0.196	-0.224
-719.806	-200.000	0.013	0.109
-718.791	23.693	-0.118	0.099
-717.777	-179.629	0.158	0.004
-716.762	-91.938	0.171	0.050
-715.748	37.848	-0.421	-0.382
-714.733	-119.657	0.397	0.070
-713.718	328.818	0.079	0.155
-712.704	800.000	-0.041	-0.151
-711.689	-88.792	-0.151	-0.046
-710.675	-200.000	0.058	0.467
-709.660	-24.879	0.006	0.004
-708.645	250.103	-0.030	0.052
-707.631	359.495	-0.071	0.145
-706.616	164.762	-0.044	-0.064
-705.602	329.052	0.151	0.296
-704.587	12.803	-0.258	0.204
-703.572	3.736	-0.172	0.128
-702.558	800.000	-0.021	0.068
-701.543	-79.890	-0.258	-0.089
-700.529	32.806	0.124	0.109
-699.514	201.483	-0.037	-0.057
-698.499	-200.000	0.014	0.174
-697.485	-200.000	-0.014	-0.330
-696.470	-15.121	0.208	0.136
-695.456	192.343	0.161	-0.247
-694.441	-112.304	0.342	-0.070
-693.426	136.283	0.123	-0.164
-692.412	-200.000	0.014	-0.272
-691.397	59.925	0.039	-0.039
-690.383	800.000	0.053	0.206
-689.368	-24.765	0.400	-0.243
-688.354	13.265	-0.328	0.259
-687.339	-0.344	-0.306	-0.222
-686.324	154.229	0.094	0.132
-685.310	736.947	0.035	-0.094
-684.295	-33.688	-0.245	0.138
-683.281	-37.475	-0.410	-0.223
-682.266	-131.286	-0.105	0.014
-681.251	-63.565	-0.143	0.060
-680.237	243.882	0.107	0.183
-679.222	-51.842	0.091	0.043
-678.208	194.288	0.105	-0.163
-677.193	155.251	0.063	0.089
-676.178	526.138	-0.036	-0.087
-675.164	106.113	-0.133	-0.160
-674.149	-200.000	0.020	-0.217
-673.135	256.409	0.091	0.158
-672.120	-200.000	-0.011	-0.088
-671.105	175.673	-0.137	0.203
-670.091	800.000	-0.032	0.133
-669.076	-100.038	0.152	0.039
-668.062	-134.814	-0.257	-0.032
-667.047	45.050	0.121	0.114
-666.032	82.782	0.154	0.171
-665.018	-45.582	0.070	-0.036
-664.003	200.130	0.076	-0.119
-662.989	-200.000	-0.009	0.068
-661.974	-63.858	-0.471	-0.196
-660.959	-110.139	-0.379	-0.081
-659.945	165.398	-0.100	-0.145
-658.930	119.275	0.234	-0.296
-657.916	-176.586	0.244	0.006
-656.901	-183.247	-0.103	-0.002
-655.886	2.114	-0.336	-0.247
-654.872	-118.884	0.469	0.084
-653.857	-119.786	0.123	-0.022
-652.843	106.563	-0.179	-0.217
-651.828	548.083	-0.105	-0.255
-650.814	800.000	-0.073	-0.244
-649.799	78.979	0.161	0.175
-648.784	-97.527	0.198	-0.052
-647.770	523.589	0.100	-0.239
-646.755	-200.000	0.026	-0.270
-645.741	-200.000	0.061	-0.346
-644.726	-200.000	-0.021	-0.260
-643.711	264.165	-0.103	-0.182
-642.697	-63.322	-0.137	-0.058
-641.682	-200.000	0.031	-0.197
-640.668	-101.075	0.073	-0.018
-639.653	-52.528	-0.315	-0.148
-638.638	-96.145	-0.430	-0.116
-637.624	-133.285	-0.088	0.011
-636.609	-17.544	0.129	-0.083
-635.595	127.545	-0.216	-0.279
-634.580	-61.003	0.153	-0.066
-633.565	-82.395	-0.479	-0.159
-632.551	-100.395	-0.108	0.027
-631.536	123.218	-0.183	0.234
-630.522	7.296	0.168	-0.128
-629.507	-200.000	-0.008	0.226
-628.492	-200.000	-0.028	-0.372
-627.478	-83.322	-0.245	0.080
-626.463	800.000	0.045	0.143
-625.449	194.673	0.161	0.248
-624.434	-200.000	-0.047	-0.340
-623.419	17.034	0.356	-0.287
-622.405	-130.930	0.331	-0.045
-621.390	-83.984	-0.137	0.044
-620.376	18.998	-0.106	0.086
-619.361	253.444	-0.023	0.040
-618.346	332.241	-0.129	0.253
-617.332	-168.346	-0.383	0.015
-616.317	-35.789	0.193	0.106
-615.303	438.085	-0.091	-0.203
-614.288	-200.000	0.001	-0.129
-613.273	-62.593	-0.280	-0.118
-612.259	32.761	-0.327	-0.288
-611.244	-129.490	-0.226	-0.032
-610.230	-200.000	-0.050	0.404
-609.215	296.590	0.085	0.158
-608.201	-137.344	-0.137	-0.016
-607.186	-99.472	-0.222	-0.057
-606.171	-94.447	-0.209	0.058
-605.157	-169.005	-0.019	-0.001
-604.142	-67.500	-0.213	-0.085
-603.128	494.852	0.094	0.220
-602.113	-200.000	0.015	-0.125
-601.098	689.192	0.083	0.220
-600.084	-185.155	-0.203	0.003
-599.069	-104.870	-0.195	0.046
-598.055	800.000	0.056	-0.182
-597.040	206.986	0.147	-0.233
-596.025	-167.209	0.352	0.015
-595.011	185.818	0.042	-0.063
-593.996	689.271	0.055	0.146
-592.982	24.437	-0.133	-0.111
-591.967	-123.864	0.237	-0.038
-590.952	-200.000	-0.012	0.087
-589.938	-4.358	0.306	-0.215
-588.923	-160.170	-0.189	-0.010
-587.909	94.993	0.210	0.242
-586.894	-200.000	-0.009	0.145
-585.879	-200.000	-0.009	0.137
-584.865	177.296	0.039	0.058
-583.850	70.330	0.152	-0.159
-582.836	45.168	-0.064	-0.060
-581.821	295.533	0.142	-0.264
-580.806	-75.377	0.268	0.097
-579.792	-114.590	-0.262	0.051
-578.777	84.915	0.156	-0.174
-577.763	-200.000	0.019	-0.199
-576.748	50.016	0.197	-0.189
-575.733	-74.858	-0.128	-0.047
-574.719	51.142	-0.324	-0.312
-573.704	-72.774	-0.086	-0.032
-572.690	-200.000	-0.032	0.179
-571.675	5.018	-0.185	-0.138
-570.661	19.263	0.022	0.018
-569.646	-200.000	-0.008	0.512
-568.631	47.166	-0.077	-0.072
-567.617	45.778	-0.064	-0.060
-566.602	-60.406	-0.148	0.064
-565.588	-200.000	-0.016	0.093
-564.573	-200.000	-0.024	0.118
-563.558	64.369	-0.115	-0.118
-562.544	216.654	-0.029	-0.046
-561.529	120.524	-0.078	0.099
-560.515	-88.965	0.299	0.090
-559.500	-200.000	0.011	-0.088
-558.485	-33.860	0.125	-0.070
-557.471	-97.266	-0.368	-0.098
-556.456	-87.618	-0.061	0.019
-555.442	64.269	-0.128	0.130
-554.427	-63.778	-0.235	-0.098
-553.412	77.569	-0.048	0.052
-552.398	-200.000	0.080	-0.423
-551.383	12.319	0.319	-0.250
-550.369	120.944	-0.182	-0.230
-549.354	-200.000	0.000	-0.385
-548.339	305.777	0.069	0.131
-547.325	-90.187	0.187	-0.055
-546.310	3.316	0.285	0.211
-545.296	-65.901	-0.251	0.102
-544.281	130.506	0.064	-0.084
-543.266	149.326	-0.128	-0.176
-542.252	341.781	0.116	0.230
-541.237	800.000	-0.044	-0.164
-540.223	50.341	-0.177	0.169
-539.208	-200.000	0.004	-0.289
-538.193	197.153	-0.131	0.203
-537.179	88.984	-0.051	-0.058
-536.164	21.290	-0.011	0.009
-535.150	800.000	-0.036	-0.100
-534.135	-80.798	0.084	-0.028
-533.121	24.727	-0.244	0.205
-532.106	-69.242	-0.212	-0.083
-531.091	-60.835	-0.198	-0.085
-530.077	668.727	-0.110	-0.287
-529.062	-52.031	0.406	0.191
-528.048	-7.681	-0.188	0.129
-527.033	-102.614	-0.306	-0.074
-526.018	6.761	0.081	-0.061
-525.004	130.143	0.135	0.175
-523.989	160.439	0.134	-0.190
-522.975	-3.019	-0.263	0.186
-521.960	-11.627	0.436	-0.291
-520.945	-95.361	-0.227	-0.062
-519.931	-31.360	0.188	0.107
-518.916	-64.954	-0.196	0.080
-517.902	271.808	0.153	-0.274
-516.887	-104.622	0.118	-0.028
-515.872	-4.737	0.088	-0.062
-514.858	30.274	-0.234	-0.203
-513.843	-200.000	0.029	-0.144
-512.829	244.268	0.078	-0.133
-511.814	-200.000	-0.160	0.000
-510.799	-109.000	0.061	0.013
-509.785	-200.000	0.009	-0.044
-508.770	800.000	0.079	0.349
-507.756	-139.825	0.369	0.040
-506.741	43.239	-0.038	0.035
-505.726	-115.046	-0.256	-0.049
-504.712	-149.498	-0.273	0.022
-503.697	800.000	0.025	0.088
-502.683	-58.341	0.155	0.068
-501.668	274.756	-0.170	-0.305
-500.653	-200.000	0.028	0.189
-499.639	-200.000	0.103	0.639
-498.624	-104.820	-0.281	0.065
-497.610	-200.000	0.008	-0.074
-496.595	754.440	0.036	-0.099
-495.581	22.093	0.161	-0.133
-494.566	1.291	0.131	-0.096
-493.551	52.667	-0.101	0.098
-492.537	14.406	0.167	0.132
-491.522	-5.940	-0.184	0.128
-490.508	-200.000	-0.006	-0.078
-489.493	125.120	0.073	-0.093
-488.478	-28.543	-0.082	0.048
-487.464	-186.861	0.180	0.003
-486.449	-200.000	0.043	-0.196
-485.435	88.048	0.109	0.122
-484.420	-157.020	0.182	0.011
-483.405	-200.000	-0.026	-0.125
-482.391	-86.184	-0.106	-0.033
-481.376	-98.952	-0.453	0.116
-480.362	150.983	-0.141	0.194
-479.347	-140.618	-0.198	0.021
-478.332	-200.000	-0.047	-0.279
-477.318	-155.472	0.107	-0.007
-476.303	-90.438	0.103	0.030
-475.289	32.271	-0.262	0.228
-474.274	-36.151	-0.224	0.122
-473.259	-200.000	-0.041	0.324
-472.245	-8.144	-0.334	-0.228
-471.230	-200.000	0.097	0.437
-470.216	-200.000	-0.012	0.079
-469.201	-97.979	-0.262	-0.068
-468.186	170.957	0.103	-0.149
-467.172	-51.245	-0.266	-0.126
-466.157	297.260	0.029	-0.054
-465.143	122.101	0.154	0.195
-464.128	124.352	0.177	0.225
-463.113	-121.051	0.193	-0.033
-462.099	-8.658	-0.079	0.054
-461.084	-58.478	-0.132	0.058
-460.070	-200.000	-0.032	-0.188
-459.055	-200.000	-0.034	0.173
-458.040	-57.988	0.052	0.023
-457.026	-70.192	0.445	0.171
-456.011	243.791	-0.203	-0.344
-454.997	153.201	0.159	0.219
-453.982	-200.000	-0.015	-0.272
-452.968	343.910	-0.011	-0.021
-451.953	66.520	0.123	-0.126
-450.938	243.949	-0.211	-0.358
-449.924	-200.000	0.039	-0.196
-448.909	163.135	0.078	-0.111
-447.895	-200.000	-0.031	0.260
-446.880	-52.631	0.410	0.191
-445.865	-153.507	-0.294	0.021
-444.851	-49.565	-0.373	0.180
-443.836	-200.000	0.005	-0.150
-442.822	16.872	0.137	0.110
-441.807	-200.000	-0.006	0.458
-440.792	100.658	-0.203	0.238
-439.778	-19.471	0.484	-0.303
-438.763	-87.187	-0.063	-0.019
-437.749	93.190	-0.098	0.112
-436.734	-200.000	0.026	0.319
-435.719	800.000	0.059	0.182
-434.705	-51.628	0.220	-0.104
-433.690	-130.513	-0.322	-0.044
-432.676	-200.000	-0.011	0.190
-431.661	30.455	0.074	0.064
-430.646	403.873	-0.092	0.197
-429.632	-20.715	0.187	-0.116
-428.617	76.703	0.168	-0.180
-427.603	800.000	0.115	0.397
-426.588	-102.607	-0.107	-0.026
-425.573	627.191	-0.174	0.444
-424.559	-141.316	-0.235	0.024
-423.544	-18.415	-0.078	0.049
-422.530	-168.952	0.357	-0.014
-421.515	189.631	0.197	-0.299
-420.500	116.396	0.306	-0.378
-419.486	140.569	-0.148	0.197
-418.471	-75.756	-0.150	0.054
-417.457	800.000	0.038	0.149
-416.442	800.000	0.133	0.405
-415.428	107.608	-0.052	0.062
-414.413	-200.000	0.024	-0.210
-413.398	5.546	-0.164	-0.122
-412.384	96.679	-0.164	-0.190
-411.369	37.211	0.163	0.146
-410.355	383.907	0.107	0.222
-409.340	169.825	0.046	0.067
-408.325	569.305	0.012	0.029
-407.311	202.916	-0.175	0.273
-406.296	-46.020	-0.089	0.044
-405.282	-13.922	-0.106	-0.069
-404.267	-200.000	-0.017	-0.132
-403.252	494.214	0.043	0.099
-402.238	38.472	0.325	0.292
-401.223	800.000	-0.039	0.137
-400.209	610.050	0.247	0.623
-399.194	800.000	0.038	-0.143
-398.179	61.646	0.362	-0.364
-397.165	-129.104	0.056	0.008
-396.150	-84.351	0.199	-0.064
-395.136	-200.000	-0.040	-0.272
-394.121	800.000	0.075	-0.311
-393.106	22.638	-0.032	0.026
-392.092	-41.092	0.118	0.062
-391.077	-32.891	0.256	-0.143
-390.063	-93.890	-0.176	0.049
-389.048	119.276	0.101	0.126
-388.033	-74.308	-0.139	0.051
-387.019	-162.769	0.236	-0.012
-386.004	-200.000	-0.020	0.158
-384.990	800.000	-0.082	0.248
-383.975	-127.463	-0.300	0.044
-382.960	-200.000	-0.010	0.180
-381.946	531.620	0.204	0.486
-380.931	16.955	0.241	-0.193
-379.917	-37.888	-0.159	-0.085
-378.902	-116.309	0.126	-0.024
-377.888	246.471	-0.236	0.401
-376.873	800.000	-0.024	0.094
-375.858	74.340	0.068	-0.072
-374.844	213.879	-0.132	-0.210
-373.829	57.578	-0.260	-0.256
-372.815	33.723	-0.048	0.042
-371.800	-93.554	-0.143	-0.040
-370.785	-66.813	-0.246	0.098
-369.771	-13.445	-0.265	0.173
-368.756	95.150	0.066	-0.076
-367.742	-200.000	-0.022	-0.366
-366.727	-200.000	-0.009	0.092
-365.712	-53.957	0.323	0.148
-364.698	-76.757	-0.113	-0.040
-363.683	-197.317	-0.186	-0.001
-362.669	248.714	0.159	-0.271
-361.654	33.380	-0.338	0.295
-360.639	-200.000	0.076	0.338
-359.625	-200.000	-0.005	0.079
-358.610	-105.070	0.249	-0.057
-357.596	-200.000	-0.037	0.203
-356.581	51.859	0.186	0.178
-355.566	-97.566	-0.286	0.075
-354.552	48.167	0.058	0.055
-353.537	42.635	0.311	-0.285
-352.523	-200.000	-0.031	-0.285
-351.508	31.532	-0.126	-0.109
-350.493	-32.085	0.191	-0.107
-349.479	-71.396	-0.298	-0.112
-348.464	359.799	-0.084	0.170
-347.450	-73.865	-0.245	-0.090
-346.435	33.511	0.237	-0.207
-345.420	-59.197	-0.230	0.100
-344.406	75.152	0.280	0.297
-343.391	290.223	0.049	-0.090
-342.377	-60.205	0.075	-0.032
-341.362	357.594	0.147	0.294
-340.348	-200.000	-0.000	-0.040
-339.333	5.517	-0.058	-0.043
-338.318	-200.000	-0.034	0.195
-337.304	800.000	0.087	-0.369
-336.289	-101.727	-0.338	0.082
-335.275	74.092	0.153	0.162
-334.260	800.000	-0.044	0.185
-333.245	-200.000	0.014	-0.176
-332.231	-89.954	-0.085	-0.025
-331.216	800.000	0.051	-0.186
-330.202	-19.071	-0.075	0.047
-329.187	19.327	-0.018	0.014
-328.172	-1.708	0.184	-0.130
-327.158	36.413	-0.124	-0.110
-326.143	-200.000	-0.003	0.329
-325.129	-200.000	-0.029	-0.263
-324.114	-129.265	-0.249	0.035
-323.099	-45.603	0.133	0.066
-322.085	-109.873	0.382	-0.081
-321.070	-58.764	0.256	-0.111
-320.056	-76.689	-0.313	-0.110
-319.041	81.582	-0.192	-0.209
-318.026	192.597	-0.149	0.227
-317.012	-61.781	-0.179	0.075
-315.997	205.091	-0.059	-0.092
-314.983	-125.768	0.108	-0.016
-313.968	-200.000	-0.011	0.055
-312.953	59.790	0.159	-0.157
-311.939	-86.634	-0.219	0.067
-310.924	-149.697	0.222	0.018
-309.910	592.193	0.104	0.258
-308.895	-11.037	-0.157	-0.104
-307.880	-20.980	0.267	-0.165
-306.866	-120.157	0.272	-0.047
-305.851	151.938	0.047	0.065
-304.837	4.050	0.193	0.142
-303.822	-180.886	0.405	-0.008
-302.807	57.446	-0.228	0.224
-301.793	-120.797	0.093	-0.016
-300.778	293.699	0.124	0.228
-299.764	46.318	0.289	-0.269
-298.749	-57.092	0.133	-0.059
-297.735	-85.745	-0.257	0.080
-296.720	-54.344	-0.318	0.145
-295.705	-200.000	0.002	0.178
-294.691	-106.400	-0.292	0.066
-293.676	-2.215	-0.131	0.092
-292.662	87.960	-0.200	-0.223
-291.647	-58.373	-0.169	0.074
-290.632	433.044	0.066	-0.144
-289.618	-168.403	-0.090	-0.003
-288.603	-85.158	0.260	-0.082
-287.589	-35.883	0.244	-0.133
-286.574	-200.000	-0.015	-0.091
-285.559	-200.000	-0.003	-0.034
-284.545	800.000	0.080	-0.283
-283.530	-200.000	0.088	-0.399
-282.516	-82.789	-0.104	-0.034
-281.501	79.035	-0.183	0.197
-280.486	-200.000	-0.019	0.268
-279.472	64.147	-0.306	-0.309
-278.457	53.673	-0.157	-0.152
-277.443	-107.630	-0.120	0.026
-276.428	-143.392	-0.184	-0.018
-275.413	-200.000	0.026	0.147
-274.399	-90.275	0.212	-0.062
-273.384	119.856	0.114	0.142
-272.370	378.366	-0.047	0.096
-271.355	-126.251	0.315	0.047
-270.340	-173.360	0.180	-0.005
-269.326	-84.416	-0.172	0.055
-268.311	-31.348	0.191	0.108
-267.297	-63.978	-0.220	-0.090
-266.282	-160.837	0.586	0.031
-265.267	56.673	0.179	-0.175
-264.253	116.406	-0.163	-0.201
-263.238	-200.000	0.015	-0.202
-262.224	800.000	-0.048	0.203
-261.209	6.153	0.206	0.153
-260.195	66.676	-0.120	-0.122
-259.180	549.845	0.137	0.330
-258.165	209.284	0.162	-0.254
-257.151	9.354	0.168	0.128
-256.136	-48.331	-0.032	0.015
-255.122	-200.000	-0.002	0.144
-254.107	-200.000	0.030	0.156
-253.092	800.000	-0.059	0.185
-252.078	-200.000	0.014	0.249
-251.063	-8.241	-0.158	0.107
-250.049	-139.900	-0.225	-0.024
-249.034	-159.298	-0.237	0.013
-248.019	-52.678	0.504	0.233
-247.005	-88.495	-0.193	-0.058
-245.990	10.684	-0.140	-0.107
-244.976	800.000	-0.064	-0.212
-243.961	87.946	0.145	-0.161
-242.946	-200.000	0.043	0.236
-241.932	198.561	-0.125	0.191
-240.917	800.000	-0.064	-0.263
-239.903	295.919	0.183	0.336
-238.888	-27.244	0.339	0.198
-237.873	-60.894	-0.117	-0.049
-236.859	800.000	0.133	-0.428
-235.844	-132.282	0.395	-0.051
-234.830	234.682	0.130	-0.215
-233.815	800.000	-0.014	0.055
-232.800	27.000	-0.131	0.110
-231.786	510.478	0.058	0.135
-230.771	6.031	0.136	-0.101
-229.757	-21.482	0.287	-0.176
-228.742	227.607	0.112	-0.182
-227.727	800.000	-0.064	-0.189
-226.713	-85.120	0.144	0.045
-225.698	467.532	-0.093	0.209
-224.684	800.000	-0.021	-0.059
-223.669	168.548	0.075	-0.107
-222.655	-147.512	0.224	0.019
-221.640	-33.386	0.217	-0.120
-220.625	-125.439	0.125	-0.019
-219.611	-119.746	0.232	-0.040
-218.596	741.384	0.071	0.191
-217.582	-200.000	0.030	0.209
-216.567	-200.000	-0.008	-0.150
-215.552	-200.000	0.052	-0.318
-214.538	-36.228	0.096	-0.052
-213.523	-150.300	-0.067	-0.005
-212.509	-19.907	-0.141	0.087
-211.494	-200.000	-0.001	-0.165
-210.479	800.000	0.072	-0.288
-209.465	372.328	-0.069	0.140
-208.450	50.005	-0.179	-0.169
-207.436	-190.949	0.198	-0.002
-206.421	-200.000	0.023	0.122
-205.406	9.598	0.220	-0.167
-204.392	29.233	-0.151	-0.128
-203.377	30.500	-0.286	-0.245
-202.363	125.843	0.176	-0.222
-201.348	-200.000	-0.035	-0.182
-200.333	145.165	-0.049	0.065
-199.319	95.153	0.282	0.322
-198.304	485.552	-0.078	0.178
-197.290	-100.592	-0.318	-0.079
-196.275	-200.000	0.024	0.155
-195.260	18.748	-0.132	-0.105
-194.246	-22.487	0.230	0.140
-193.231	-200.000	0.017	-0.119
-192.217	-176.533	0.372	0.010
-191.202	-200.000	0.050	-0.229
-190.187	-200.000	0.006	-0.058
-189.173	670.140	-0.094	-0.244
-188.158	68.156	0.233	0.239
-187.144	-200.000	0.030	-0.228
-186.129	-200.000	-0.016	0.567
-185.114	354.366	0.121	0.241
-184.100	-5.994	0.228	-0.156
-183.085	163.777	-0.134	-0.189
-182.071	-200.000	-0.038	0.290
-181.056	-180.068	0.204	0.004
-180.042	-92.253	-0.385	-0.109
-179.027	79.812	-0.149	-0.160
-178.012	-16.009	-0.183	-0.117
-176.998	173.758	0.105	0.152
-175.983	273.926	0.078	0.139
-174.969	-49.563	0.113	-0.054
-173.954	-200.000	-0.019	-0.126
-172.939	-200.000	-0.004	0.144
-171.925	12.326	-0.077	0.059
-170.910	-164.178	-0.415	-0.019
-169.896	-83.256	-0.052	0.017
-168.881	36.481	0.155	0.137
-167.866	291.247	0.049	0.089
-166.852	-200.000	0.024	0.197
-165.837	38.175	-0.131	-0.117
-164.823	-200.000	-0.024	-0.256
-163.808	408.608	0.094	0.199
-162.793	2.698	0.141	0.102
-161.779	-200.000	-0.040	0.192
-160.764	-200.000	0.018	0.232
-159.750	-15.937	-0.077	-0.049
-158.735	-70.189	0.191	0.073
-157.720	-26.893	-0.016	0.010
-156.706	162.811	0.074	-0.104
-155.691	-56.653	-0.302	0.134
-154.677	-10.390	-0.155	0.102
-153.662	416.617	0.102	-0.217
-152.647	-200.000	0.010	0.250
-151.633	-37.315	0.153	0.082
-150.618	800.000	0.067	0.272
-149.604	800.000	0.070	-0.199
-148.589	120.251	-0.066	-0.082
-147.574	-26.826	-0.301	0.176
-146.560	-138.451	-0.111	-0.012
-145.545	800.000	0.040	0.164
-144.531	800.000	0.007	0.026
-143.516	-200.000	-0.043	-0.248
-142.502	-37.993	0.244	0.129
-141.487	82.109	-0.208	-0.225
-140.472	91.500	-0.215	-0.241
-139.458	-200.000	0.079	-0.378
-138.443	24.388	0.116	0.096
-137.429	350.683	-0.154	0.304
-136.414	-84.025	0.139	0.044
-135.399	-135.969	0.166	0.020
-134.385	70.323	-0.239	0.246
-133.370	-25.510	0.062	-0.036
-132.356	259.287	0.234	0.403
-131.341	-200.000	0.010	-0.197
-130.326	-81.680	0.079	-0.026
-129.312	-174.201	-0.063	-0.002
-128.297	-16.996	-0.236	-0.149
-127.283	-31.592	0.189	-0.106
-126.268	46.096	0.084	0.078
-125.253	-61.059	0.251	-0.106
-124.239	-89.978	-0.195	0.057
-123.224	-200.000	0.021	0.337
-122.210	-85.042	0.151	0.047
-121.195	83.280	0.132	0.144
