DTS Sentinel unit serial number:	SN413079Multiplexer serial number:	ORYXHardware model number:	OX4-SRSoftware version number:	ORYX F/W v4.00 Oryx Data Collector v3.7.2.0data status	okinstallation	princeton_trtdifferential loss correction	single-endedforward channel	channel 1reverse channel	N/Adate	2019/09/15time	21:34:35forward acquisition time	60.00reverse acquisition time	0.00gamma	496.2192k internal	0.2329k external	0.2329temperature offset calibration	0.9965default loss term (dB/km)	0.3790temperature slope calibration	1.0000multiplexer offset coefficient	1.0000multiplexer slope coefficient	1.0000fibre end	0.00T internal ref (°C)	30.59T ext. ref 1 (°C)	8.33T ext. ref 2 (°C)	23.53length (m)	temperature (°C)	Stokes	anti-Stokes-747.200	-112.179	0.275	-0.056
-746.185	-46.716	-0.214	-0.106
-745.171	7.986	0.077	0.058
-744.156	-158.387	0.133	-0.008
-743.142	119.811	0.122	0.153
-742.127	-200.000	-0.031	0.344
-741.112	-200.000	-0.001	-0.246
-740.098	-138.025	0.087	-0.010
-739.083	55.151	-0.054	-0.052
-738.069	-200.000	0.007	-0.314
-737.054	22.337	0.166	0.136
-736.039	-39.567	-0.116	-0.061
-735.025	-36.769	0.275	-0.149
-734.010	7.201	0.246	0.185
-732.996	35.525	-0.253	-0.224
-731.981	130.249	-0.251	-0.324
-730.966	800.000	-0.048	-0.193
-729.952	800.000	-0.050	-0.199
-728.937	-72.298	0.154	0.057
-727.923	-29.648	-0.241	-0.138
-726.908	-30.213	-0.232	0.133
-725.894	16.796	-0.276	0.220
-724.879	426.185	0.043	-0.093
-723.864	-95.307	0.069	-0.019
-722.850	-86.542	0.199	0.061
-721.835	-1.943	-0.302	0.214
-720.821	60.160	-0.123	0.122
-719.806	-113.097	0.232	0.046
-718.791	-20.210	-0.152	0.094
-717.777	-36.998	0.196	-0.106
-716.762	800.000	-0.019	-0.057
-715.748	5.068	0.189	-0.140
-714.733	519.754	-0.150	-0.353
-713.718	-139.210	-0.292	0.032
-712.704	-125.699	0.570	0.087
-711.689	-148.900	-0.284	0.023
-710.675	-53.014	0.266	0.123
-709.660	296.095	-0.085	0.157
-708.645	129.253	0.080	0.103
-707.631	-49.969	-0.179	-0.085
-706.616	280.362	-0.217	-0.391
-705.602	-200.000	0.022	0.336
-704.587	-200.000	-0.089	0.410
-703.572	-200.000	0.017	0.166
-702.558	-200.000	0.068	-0.334
-701.543	94.881	0.170	-0.195
-700.529	800.000	0.042	-0.122
-699.514	-13.236	-0.243	-0.159
-698.499	-115.818	-0.159	-0.030
-697.485	113.220	-0.301	-0.368
-696.470	-200.000	0.017	-0.272
-695.456	-167.872	-0.051	0.002
-694.441	336.150	-0.121	0.237
-693.426	-200.000	0.034	-0.322
-692.412	-112.351	-0.099	-0.020
-691.397	800.000	-0.117	-0.453
-690.383	97.209	-0.214	0.246
-689.368	-200.000	-0.066	-0.400
-688.354	-142.066	0.075	-0.007
-687.339	-93.080	0.126	-0.035
-686.324	328.043	-0.058	0.113
-685.310	-157.132	0.229	-0.014
-684.295	537.460	-0.060	0.143
-683.281	-153.142	0.330	0.023
-682.266	510.335	-0.069	0.161
-681.251	-21.464	0.075	0.046
-680.237	-176.194	-0.300	-0.008
-679.222	602.822	-0.077	-0.193
-678.208	138.200	-0.094	-0.124
-677.193	-200.000	0.009	0.320
-676.178	-48.794	-0.317	-0.153
-675.164	115.346	-0.037	-0.045
-674.149	782.704	-0.058	0.160
-673.135	88.704	0.193	-0.216
-672.120	157.850	-0.109	0.152
-671.105	-32.311	-0.188	-0.105
-670.091	-200.000	0.053	-0.246
-669.076	70.333	-0.316	0.328
-668.062	800.000	0.048	-0.149
-667.047	-6.785	0.209	-0.143
-666.032	27.447	-0.210	0.177
-665.018	-151.848	-0.178	-0.013
-664.003	-97.253	0.095	-0.025
-662.989	264.060	-0.171	-0.299
-661.974	761.469	0.131	-0.357
-660.959	-67.887	0.122	-0.048
-659.945	-200.000	-0.026	-0.266
-658.930	800.000	-0.019	-0.057
-657.916	277.831	-0.063	0.112
-656.901	-200.000	0.054	-0.241
-655.886	-7.883	-0.058	0.039
-654.872	-149.740	0.253	0.020
-653.857	-65.935	0.016	0.007
-652.843	361.175	-0.056	-0.112
-651.828	369.785	0.058	-0.118
-650.814	-142.644	0.339	-0.033
-649.799	374.485	0.157	0.320
-648.784	-16.620	0.189	-0.120
-647.770	-76.637	-0.211	0.074
-646.755	-163.180	-0.085	0.004
-645.741	-200.000	-0.039	0.203
-644.726	-200.000	0.001	-0.393
-643.711	-200.000	0.031	-0.275
-642.697	58.302	0.141	0.139
-641.682	-12.658	-0.213	-0.139
-640.668	-106.401	-0.414	0.093
-639.653	-41.987	-0.283	-0.145
-638.638	-76.863	0.062	0.022
-637.624	800.000	-0.063	0.277
-636.609	-17.180	-0.162	-0.103
-635.595	691.623	-0.057	0.149
-634.580	93.150	0.069	0.079
-633.565	157.833	-0.118	-0.164
-632.551	-108.253	-0.214	-0.046
-631.536	-61.308	0.207	-0.087
-630.522	-44.714	0.144	0.072
-629.507	-126.524	-0.338	-0.050
-628.492	800.000	0.032	0.107
-627.478	285.590	0.085	0.153
-626.463	30.470	-0.234	0.201
-625.449	-45.604	-0.205	0.102
-624.434	205.909	-0.237	-0.370
-623.419	544.229	-0.080	0.190
-622.405	474.349	-0.095	-0.215
-621.390	119.435	-0.097	-0.121
-620.376	-68.019	0.221	-0.086
-619.361	78.781	-0.152	-0.163
-618.346	-102.763	0.429	-0.102
-617.332	641.070	0.080	0.205
-616.317	800.000	0.089	-0.293
-615.303	410.055	0.046	0.097
-614.288	-163.883	-0.207	-0.010
-613.273	-129.902	0.097	-0.013
-612.259	100.990	-0.020	-0.023
-611.244	-200.000	0.080	-0.399
-610.230	-29.989	0.296	-0.169
-609.215	-129.946	0.224	0.031
-608.201	-104.968	0.246	0.056
-607.186	800.000	0.027	0.099
-606.171	-86.953	-0.197	-0.060
-605.157	-67.799	-0.197	-0.077
-604.142	-74.357	0.052	0.019
-603.128	23.459	-0.158	0.131
-602.113	-97.677	-0.118	0.031
-601.098	535.456	0.119	-0.283
-600.084	134.526	0.081	-0.106
-599.069	142.967	0.188	0.251
-598.055	178.955	0.236	0.345
-597.040	-45.939	-0.081	-0.040
-596.025	-102.030	0.099	0.024
-595.011	-198.811	-0.247	-0.001
-593.996	29.115	-0.092	0.078
-592.982	-200.000	0.042	0.192
-591.967	49.752	0.160	-0.151
-590.952	-61.470	0.125	-0.052
-589.938	-200.000	0.021	-0.151
-588.923	369.501	-0.102	-0.206
-587.909	-119.780	0.098	-0.017
-586.894	212.870	0.129	0.204
-585.879	32.051	-0.185	-0.160
-584.865	-200.000	0.041	-0.369
-583.850	800.000	-0.061	0.180
-582.836	145.883	-0.047	-0.063
-581.821	-148.171	0.089	-0.007
-580.806	47.793	-0.211	0.197
-579.792	-59.850	-0.296	-0.127
-578.777	-123.454	-0.277	-0.044
-577.763	-153.670	-0.457	-0.032
-576.748	600.925	0.065	-0.161
-575.733	-200.000	0.016	0.220
-574.719	-29.118	-0.187	-0.107
-573.704	86.304	0.087	-0.096
-572.690	539.725	0.007	-0.016
-571.675	218.782	0.107	0.172
-570.661	800.000	0.038	0.159
-569.646	-113.271	0.459	-0.090
-568.631	781.068	0.115	-0.315
-567.617	-200.000	0.005	-0.091
-566.602	96.788	0.076	0.087
-565.588	800.000	-0.069	0.227
-564.573	151.984	0.049	0.067
-563.558	-128.787	0.374	-0.053
-562.544	-41.370	-0.076	-0.039
-561.529	8.320	-0.239	-0.180
-560.515	-200.000	0.013	-0.216
-559.500	-64.051	0.082	0.033
-558.485	-90.697	-0.244	0.070
-557.471	-81.903	0.297	-0.097
-556.456	0.569	0.216	0.154
-555.442	73.878	-0.124	0.130
-554.427	74.697	-0.058	-0.061
-553.412	-200.000	-0.042	-0.218
-552.398	115.692	0.135	-0.165
-551.383	-180.622	0.156	0.003
-550.369	56.583	-0.199	-0.194
-549.354	-26.472	-0.123	-0.072
-548.339	-13.495	-0.083	0.054
-547.325	-53.085	0.309	0.142
-546.310	-74.842	-0.085	-0.031
-545.296	-134.812	-0.340	-0.041
-544.281	155.340	0.041	0.056
-543.266	723.988	-0.053	0.141
-542.252	-200.000	-0.025	0.355
-541.237	-28.432	0.111	0.064
-540.223	496.135	0.173	-0.398
-539.208	54.033	-0.067	-0.064
-538.193	237.894	0.119	-0.197
-537.179	54.510	0.135	-0.130
-536.164	-29.281	0.169	0.097
-535.150	11.461	0.119	0.091
-534.135	9.225	0.243	-0.183
-533.121	-78.741	-0.214	-0.073
-532.106	333.706	0.087	0.168
-531.091	-67.442	0.134	-0.053
-530.077	215.127	-0.111	0.176
-529.062	-200.000	-0.037	-0.404
-528.048	800.000	-0.035	-0.140
-527.033	-200.000	0.025	0.122
-526.018	-65.248	0.534	0.215
-525.004	288.858	-0.113	-0.204
-523.989	94.175	0.138	-0.156
-522.975	-200.000	0.003	0.185
-521.960	-12.602	0.209	0.136
-520.945	-14.277	-0.377	0.243
-519.931	800.000	0.009	-0.031
-518.916	-70.156	-0.156	-0.059
-517.902	800.000	0.016	0.057
-516.887	800.000	-0.138	-0.396
-515.872	800.000	-0.119	0.352
-514.858	641.960	-0.058	0.148
-513.843	92.032	0.106	0.119
-512.829	-155.394	-0.130	0.008
-511.814	-62.372	-0.456	-0.189
-510.799	112.473	0.110	-0.132
-509.785	800.000	-0.005	0.018
-508.770	76.305	-0.190	-0.201
-507.756	800.000	-0.092	0.305
-506.741	-4.048	-0.378	-0.262
-505.726	-200.000	-0.033	0.181
-504.712	-95.353	0.136	0.037
-503.697	54.833	-0.091	-0.088
-502.683	718.438	-0.022	-0.058
-501.668	41.100	-0.128	0.115
-500.653	11.742	-0.246	0.188
-499.639	51.975	0.125	-0.119
-498.624	-116.246	0.311	-0.058
-497.610	87.465	-0.155	0.171
-496.595	-200.000	-0.020	-0.119
-495.581	800.000	-0.112	-0.360
-494.566	274.585	-0.103	-0.183
-493.551	124.827	-0.194	-0.243
-492.537	-59.338	0.353	0.151
-491.522	-26.134	-0.480	-0.281
-490.508	-5.767	-0.170	0.116
-489.493	800.000	0.069	0.247
-488.478	-200.000	-0.031	-0.183
-487.464	800.000	-0.125	0.404
-486.449	370.808	-0.118	0.238
-485.435	-136.108	-0.159	-0.019
-484.420	-48.130	-0.167	-0.080
-483.405	800.000	0.037	-0.105
-482.391	800.000	-0.068	-0.224
-481.376	800.000	-0.087	0.278
-480.362	-32.234	-0.203	-0.113
-479.347	-67.035	0.046	0.018
-478.332	-17.349	0.325	0.204
-477.318	216.513	0.114	0.182
-476.303	-68.712	-0.180	0.069
-475.289	10.105	0.246	0.187
-474.274	317.641	0.059	0.111
-473.259	63.744	0.072	0.072
-472.245	202.511	0.148	0.228
-471.230	-95.383	0.282	0.076
-470.216	-186.477	-0.392	0.006
-469.201	-161.483	-0.131	-0.007
-468.186	-52.033	-0.341	-0.158
-467.172	-110.586	-0.133	0.027
-466.157	-150.015	-0.259	0.020
-465.143	800.000	0.115	-0.397
-464.128	558.653	-0.080	0.192
-463.113	-125.314	-0.200	0.030
-462.099	530.472	-0.110	0.258
-461.084	-101.953	-0.204	-0.049
-460.070	37.388	-0.161	0.142
-459.055	-49.849	0.145	-0.069
-458.040	146.994	-0.214	-0.287
-457.026	67.397	0.122	0.124
-456.011	64.820	-0.206	-0.207
-454.997	-49.163	-0.219	0.104
-453.982	-54.162	0.281	0.127
-452.968	6.388	0.439	-0.324
-451.953	-200.000	0.003	0.264
-450.938	-200.000	0.012	0.096
-449.924	-150.882	0.058	-0.004
-448.909	83.170	0.024	0.026
-447.895	800.000	-0.108	-0.378
-446.880	-159.118	0.191	-0.011
-445.865	113.100	0.186	-0.225
-444.851	-98.414	-0.203	-0.052
-443.836	23.671	-0.078	-0.064
-442.822	-200.000	0.023	-0.217
-441.807	-200.000	0.020	-0.199
-440.792	26.163	-0.118	0.098
-439.778	-14.986	-0.233	0.149
-438.763	104.771	0.091	0.107
-437.749	425.055	-0.029	0.061
-436.734	22.825	-0.056	0.046
-435.719	-50.955	0.146	-0.068
-434.705	72.871	0.093	0.096
-433.690	-200.000	-0.045	0.283
-432.676	-122.153	-0.124	0.020
-431.661	57.929	-0.164	-0.160
-430.646	-185.095	0.198	0.003
-429.632	33.736	0.107	0.093
-428.617	500.038	0.052	-0.120
-427.603	-48.194	-0.338	0.162
-426.588	-1.886	-0.347	0.243
-425.573	-68.967	0.222	0.085
-424.559	-200.000	0.002	-0.448
-423.544	8.111	0.142	-0.106
-422.530	787.660	-0.076	-0.208
-421.515	41.681	-0.411	0.370
-420.500	45.148	0.122	0.112
-419.486	-43.525	-0.041	0.021
-418.471	184.171	-0.111	0.163
-417.457	59.136	-0.115	0.113
-416.442	147.580	-0.230	-0.309
-415.428	-116.542	0.176	-0.032
-414.413	100.616	-0.129	-0.148
-413.398	-111.125	-0.291	0.059
-412.384	-122.547	-0.104	-0.017
-411.369	-200.000	-0.064	-0.435
-410.355	-26.614	-0.202	-0.118
-409.340	-200.000	-0.028	-0.202
-408.325	5.318	0.193	0.142
-407.311	800.000	0.015	-0.066
-406.296	-139.620	-0.182	0.019
-405.282	159.023	0.198	0.274
-404.267	223.224	-0.209	-0.335
-403.252	32.586	0.210	-0.180
-402.238	57.891	0.057	0.055
-401.223	-200.000	0.067	0.484
-400.209	23.418	0.144	-0.117
-399.194	-200.000	-0.026	0.182
-398.179	-200.000	-0.029	0.182
-397.165	-183.900	0.127	-0.002
-396.150	-90.067	-0.032	0.009
-395.136	43.399	0.229	-0.208
-394.121	349.915	-0.190	0.373
-393.106	-159.489	0.211	0.012
-392.092	116.806	0.106	0.129
-391.077	5.372	-0.204	0.150
-390.063	221.213	-0.096	0.154
-389.048	-11.613	0.155	0.101
-388.033	565.298	0.093	-0.224
-387.019	273.271	-0.105	0.184
-386.004	-200.000	0.005	-0.130
-384.990	-86.215	0.371	-0.113
-383.975	134.721	0.148	0.190
-382.960	725.230	0.153	0.405
-381.946	85.439	-0.040	-0.044
-380.931	132.323	-0.107	-0.137
-379.917	-200.000	0.053	-0.371
-378.902	-67.941	0.142	0.055
-377.888	800.000	-0.092	0.311
-376.873	507.691	0.084	-0.194
-375.858	-200.000	0.021	-0.358
-374.844	109.917	0.243	0.289
-373.829	-118.245	0.061	-0.011
-372.815	28.811	-0.177	0.149
-371.800	654.174	-0.054	-0.136
-370.785	231.491	-0.054	0.088
-369.771	-4.570	-0.205	0.141
-368.756	33.125	0.217	-0.187
-367.742	264.296	-0.053	-0.092
-366.727	-13.632	0.400	-0.257
-365.712	-200.000	0.005	-0.219
-364.698	-131.054	-0.308	-0.041
-363.683	800.000	-0.046	0.170
-362.669	20.373	0.016	-0.013
-361.654	-200.000	0.011	0.210
-360.639	-56.294	0.230	-0.101
-359.625	-200.000	0.021	0.216
-358.610	11.934	0.133	0.101
-357.596	17.280	-0.203	0.160
-356.581	82.675	-0.119	-0.128
-355.566	800.000	0.074	-0.233
-354.552	187.921	-0.110	0.163
-353.537	-200.000	-0.063	0.349
-352.523	-156.886	-0.311	-0.019
-351.508	-67.629	0.140	-0.054
-350.493	130.882	0.104	-0.132
-349.479	457.525	-0.030	0.066
-348.464	-96.209	-0.143	-0.038
-347.450	-23.152	-0.108	-0.065
-346.435	51.573	-0.157	-0.148
-345.420	122.238	0.090	-0.112
-344.406	800.000	0.030	0.113
-343.391	33.811	0.141	-0.121
-342.377	-125.109	0.371	-0.056
-341.362	800.000	0.043	0.166
-340.348	6.433	0.120	0.088
-339.333	20.647	-0.318	-0.255
-338.318	30.005	0.210	-0.177
-337.304	316.500	0.125	-0.234
-336.289	-90.622	0.203	0.058
-335.275	-200.000	-0.002	-0.082
-334.260	84.423	-0.128	0.138
-333.245	194.919	-0.173	-0.261
-332.231	72.704	0.049	-0.051
-331.216	-49.785	0.066	-0.031
-330.202	-200.000	-0.066	-0.322
-329.187	-200.000	0.001	0.287
-328.172	455.954	0.046	0.101
-327.158	800.000	0.099	0.323
-326.143	-200.000	0.057	-0.392
-325.129	185.427	0.253	0.372
-324.114	11.792	0.113	-0.086
-323.099	800.000	-0.117	-0.405
-322.085	14.624	-0.205	0.159
-321.070	-32.518	0.195	-0.108
-320.056	-200.000	-0.026	0.115
-319.041	-110.380	-0.218	0.045
-318.026	800.000	-0.066	-0.205
-317.012	649.631	-0.081	0.205
-315.997	110.859	0.199	-0.237
-314.983	-36.942	-0.311	-0.165
-313.968	-200.000	0.012	0.129
-312.953	-90.060	0.270	0.078
-311.939	176.792	-0.170	0.244
-310.924	-200.000	0.034	-0.220
-309.910	-200.000	0.017	-0.140
-308.895	-108.496	-0.240	-0.051
-307.880	800.000	-0.046	0.190
-306.866	-200.000	-0.034	-0.263
-305.851	-35.968	-0.337	0.180
-304.837	-200.000	0.004	-0.042
-303.822	800.000	0.025	-0.106
-302.807	800.000	0.041	-0.116
-301.793	-144.593	-0.335	-0.031
-300.778	118.063	-0.051	-0.063
-299.764	-200.000	0.004	-0.057
-298.749	-101.311	0.033	-0.008
-297.735	-159.528	-0.174	0.010
-296.720	-58.242	0.344	0.148
-295.705	-79.373	-0.401	0.134
-294.691	-200.000	0.007	0.347
-293.676	800.000	0.069	0.287
-292.662	9.518	-0.048	-0.036
-291.647	49.428	0.023	-0.021
-290.632	-108.371	-0.362	-0.077
-289.618	-200.000	0.010	0.111
-288.603	-103.695	-0.220	-0.051
-287.589	-200.000	0.054	0.334
-286.574	264.209	-0.085	-0.146
-285.559	-51.271	-0.292	0.135
-284.545	95.626	0.085	0.096
-283.530	800.000	0.103	0.391
-282.516	32.275	0.122	-0.104
-281.501	-189.421	0.226	0.003
-280.486	90.900	0.141	0.156
-279.472	-14.454	0.178	0.113
-278.457	563.604	-0.044	0.106
-277.443	289.125	0.100	0.179
-276.428	143.827	-0.065	-0.086
-275.413	-60.871	0.490	-0.205
-274.399	-110.339	-0.126	0.026
-273.384	-135.218	0.177	0.021
-272.370	-11.346	0.201	0.131
-271.355	800.000	0.050	0.181
-270.340	6.569	0.284	-0.208
-269.326	800.000	-0.062	-0.224
-268.311	-18.769	0.153	-0.094
-267.297	-119.835	0.065	-0.011
-266.282	-107.036	-0.298	-0.065
-265.267	-32.083	0.158	-0.087
-264.253	800.000	0.069	-0.255
-263.238	-48.330	-0.165	-0.079
-262.224	712.059	0.033	-0.087
-261.209	-200.000	-0.012	-0.061
-260.195	-90.091	0.206	-0.059
-259.180	-45.471	-0.050	0.024
-258.165	-110.829	0.088	-0.018
-257.151	-11.924	0.190	-0.123
-256.136	165.910	-0.106	-0.148
-255.122	-84.520	0.073	-0.023
-254.107	20.257	0.268	0.214
-253.092	800.000	-0.040	0.166
-252.078	-4.552	-0.137	-0.093
-251.063	130.333	-0.015	-0.019
-250.049	-200.000	-0.036	0.186
-249.034	585.630	0.089	-0.217
-248.019	143.130	0.084	0.111
-247.005	-200.000	0.023	-0.298
-245.990	-99.425	-0.208	0.052
-244.976	-104.788	0.172	0.039
-243.961	-121.316	0.326	0.054
-242.946	-200.000	0.027	-0.171
-241.932	-100.014	0.351	-0.087
-240.917	-146.718	0.034	-0.003
-239.903	-10.346	0.136	0.089
-238.888	239.512	-0.077	0.126
-237.873	800.000	0.057	-0.244
-236.859	-46.591	0.168	0.081
-235.844	-81.859	0.220	-0.071
-234.830	-173.159	0.253	0.008
-233.815	18.212	0.288	-0.227
-232.800	-81.489	-0.148	0.048
-231.786	-42.368	0.368	-0.185
-230.771	-84.263	-0.235	-0.074
-229.757	76.779	0.093	-0.098
-228.742	-200.000	-0.073	-0.346
-227.727	23.872	0.158	-0.128
-226.713	13.328	0.084	-0.065
-225.698	-200.000	0.035	-0.351
-224.684	-200.000	0.021	-0.196
-223.669	-45.229	0.158	0.077
-222.655	327.286	-0.119	0.226
-221.640	-3.794	0.274	-0.188
-220.625	-200.000	0.039	-0.313
-219.611	272.657	-0.216	0.376
-218.596	-200.000	0.025	0.143
-217.582	403.916	-0.096	0.199
-216.567	-200.000	-0.032	-0.178
-215.552	31.612	-0.099	-0.084
-214.538	-200.000	-0.029	-0.138
-213.523	-200.000	-0.027	0.279
-212.509	-94.723	0.072	-0.019
-211.494	-2.895	-0.294	-0.202
-210.479	-200.000	-0.024	0.238
-209.465	115.443	-0.081	0.097
-208.450	-43.186	-0.147	0.074
-207.436	-100.327	0.073	-0.018
-206.421	448.400	0.087	0.190
-205.406	123.784	-0.134	0.166
-204.392	-151.835	0.126	-0.009
-203.377	266.531	0.144	0.248
-202.363	-87.375	0.197	0.059
-201.348	-131.595	0.051	0.007
-200.333	-86.957	0.410	0.123
-199.319	290.354	0.154	0.276
-198.304	498.483	-0.153	0.349
-197.290	800.000	0.017	0.061
-196.275	97.823	0.140	0.159
-195.260	-200.000	0.038	0.213
-194.246	-159.396	0.206	-0.011
-193.231	20.881	0.347	0.278
-192.217	31.930	0.138	-0.118
-191.202	207.883	0.071	0.110
-190.187	66.669	0.176	-0.176
-189.173	-200.000	0.008	0.327
-188.158	-200.000	-0.024	0.211
-187.144	597.721	0.057	-0.138
-186.129	-180.264	0.182	-0.004
-185.114	-145.911	0.288	0.025
-184.100	20.554	-0.224	0.179
-183.085	-5.397	0.099	-0.067
-182.071	-131.473	-0.176	-0.023
-181.056	120.063	-0.078	-0.096
-180.042	77.601	-0.173	-0.182
-179.027	-200.000	-0.046	0.297
-178.012	-200.000	0.015	0.221
-176.998	-9.924	-0.448	0.294
-175.983	155.920	-0.159	0.217
-174.969	800.000	0.127	0.457
-173.954	-200.000	0.036	0.266
-172.939	547.031	-0.089	-0.210
-171.925	527.370	0.174	0.405
-170.910	-55.617	0.195	-0.086
-169.896	-200.000	-0.357	0.001
-168.881	-37.142	0.031	0.016
-167.866	-146.421	0.191	0.016
-166.852	-101.062	0.229	0.055
-165.837	-200.000	0.013	0.198
-164.823	-141.782	0.192	0.019
-163.808	-128.587	-0.222	-0.031
-162.793	-99.118	-0.251	-0.063
-161.779	480.803	0.144	0.321
-160.764	-48.074	0.165	-0.079
-159.750	115.673	-0.108	-0.130
-158.735	-137.329	-0.237	-0.026
-157.720	-200.000	0.013	-0.089
-156.706	200.750	-0.042	-0.064
-155.691	-58.139	0.384	0.165
-154.677	-200.000	0.025	-0.265
-153.662	40.719	-0.318	-0.282
-152.647	800.000	-0.094	-0.258
-151.633	800.000	-0.154	-0.482
-150.618	-83.105	0.140	0.044
-149.604	592.821	-0.198	-0.480
-148.589	-14.255	0.173	-0.109
-147.574	89.751	0.197	0.216
-146.560	238.821	0.041	0.067
-145.545	136.992	-0.176	0.226
-144.531	167.856	-0.047	-0.065
-143.516	69.856	0.218	0.221
-142.502	398.611	-0.026	-0.054
-141.487	59.444	0.100	0.097
-140.472	-200.000	-0.007	-0.202
-139.458	575.613	0.063	0.151
-138.443	448.584	-0.047	-0.103
-137.429	800.000	-0.064	0.262
-136.414	186.329	-0.262	0.384
-135.399	-200.000	0.038	-0.189
-134.385	-18.270	0.121	-0.074
-133.370	166.432	-0.087	0.122
-132.356	800.000	0.041	0.162
-131.341	800.000	-0.029	0.092
-130.326	31.906	-0.220	0.186
-129.312	-200.000	0.002	0.064
-128.297	-126.728	0.160	-0.023
-127.283	-200.000	-0.016	-0.104
-126.268	-200.000	0.004	0.025
-125.253	9.706	-0.135	-0.101
-124.239	50.506	-0.104	0.097
-123.224	-105.752	-0.100	0.022
-122.210	800.000	-0.054	-0.200
-121.195	-200.000	-0.003	-0.127
