DTS Sentinel unit serial number:	SN413079Multiplexer serial number:	ORYXHardware model number:	OX4-SRSoftware version number:	ORYX F/W v4.00 Oryx Data Collector v3.7.2.0data status	okinstallation	princeton_trtdifferential loss correction	single-endedforward channel	channel 1reverse channel	N/Adate	2019/09/16time	05:34:35forward acquisition time	60.00reverse acquisition time	0.00gamma	496.2192k internal	0.2331k external	0.2331temperature offset calibration	0.9981default loss term (dB/km)	0.3790temperature slope calibration	1.0000multiplexer offset coefficient	1.0000multiplexer slope coefficient	1.0000fibre end	0.00T internal ref (°C)	27.31T ext. ref 1 (°C)	11.14T ext. ref 2 (°C)	22.09length (m)	temperature (°C)	Stokes	anti-Stokes-747.200	-32.423	0.295	0.166
-746.185	800.000	0.093	0.269
-745.171	-133.256	-0.348	0.044
-744.156	371.301	-0.084	0.171
-743.142	-200.000	-0.019	0.115
-742.127	-97.743	0.204	0.053
-741.112	-90.652	0.218	-0.064
-740.098	-200.000	-0.077	0.604
-739.083	-200.000	0.042	0.331
-738.069	110.723	0.166	0.201
-737.054	37.915	-0.045	0.040
-736.039	115.195	-0.273	-0.336
-735.025	-200.000	0.020	-0.350
-734.010	-200.000	-0.054	0.293
-732.996	402.649	-0.209	-0.443
-731.981	125.137	-0.039	-0.049
-730.966	112.695	-0.130	-0.158
-729.952	-200.000	0.004	0.065
-728.937	265.533	-0.083	-0.146
-727.923	207.111	0.096	0.151
-726.908	126.839	-0.018	-0.023
-725.894	-107.835	0.235	-0.052
-724.879	4.107	0.007	-0.005
-723.864	800.000	0.093	-0.261
-722.850	-38.575	0.329	-0.175
-721.835	-30.494	-0.267	0.152
-720.821	-46.825	-0.437	-0.215
-719.806	-200.000	-0.025	-0.419
-718.791	247.112	0.168	-0.284
-717.777	800.000	0.053	0.206
-716.762	79.111	-0.300	-0.323
-715.748	-200.000	-0.051	0.287
-714.733	-200.000	0.008	-0.053
-713.718	-200.000	0.047	-0.224
-712.704	-45.355	0.345	0.172
-711.689	-42.472	0.164	0.084
-710.675	-200.000	-0.024	0.120
-709.660	-46.521	-0.078	0.038
-708.645	5.032	-0.171	-0.126
-707.631	-27.458	-0.071	-0.042
-706.616	-174.401	-0.295	-0.009
-705.602	196.738	0.202	-0.309
-704.587	-147.010	0.216	-0.019
-703.572	33.185	0.269	0.234
-702.558	-62.938	-0.237	-0.098
-701.543	-200.000	0.031	-0.154
-700.529	-133.917	0.278	-0.035
-699.514	47.841	0.268	0.251
-698.499	-171.058	0.290	-0.010
-697.485	-66.211	0.284	-0.114
-696.470	373.652	-0.119	-0.242
-695.456	74.629	0.219	-0.232
-694.441	87.306	0.117	-0.129
-693.426	77.863	0.047	-0.051
-692.412	-108.439	-0.184	0.040
-691.397	44.471	0.250	-0.231
-690.383	255.817	0.140	-0.242
-689.368	507.568	0.117	-0.272
-688.354	800.000	0.056	-0.173
-687.339	-32.958	-0.187	-0.104
-686.324	-200.000	0.046	-0.308
-685.310	-35.459	-0.204	-0.111
-684.295	23.092	0.319	-0.263
-683.281	90.976	-0.173	-0.195
-682.266	-118.593	-0.299	-0.053
-681.251	323.880	-0.080	-0.154
-680.237	-117.458	0.171	-0.031
-679.222	-153.332	-0.217	0.015
-678.208	-200.000	0.014	-0.380
-677.193	-28.061	-0.371	-0.215
-676.178	-200.000	-0.014	-0.105
-675.164	23.131	0.159	0.131
-674.149	130.403	-0.071	0.091
-673.135	-93.799	-0.253	0.070
-672.120	-13.956	-0.108	0.070
-671.105	-68.059	-0.152	-0.060
-670.091	-200.000	0.037	0.253
-669.076	99.109	0.039	0.046
-668.062	-78.175	-0.231	0.080
-667.047	-200.000	0.026	0.251
-666.032	110.849	-0.374	0.451
-665.018	-107.508	0.384	-0.084
-664.003	290.032	-0.107	-0.194
-662.989	-43.134	-0.114	0.058
-661.974	800.000	0.029	0.122
-660.959	-86.781	0.127	0.039
-659.945	-200.000	0.065	0.288
-658.930	-200.000	0.008	-0.138
-657.916	-200.000	-0.004	0.149
-656.901	-28.879	0.253	-0.146
-655.886	-200.000	-0.034	-0.359
-654.872	-200.000	0.033	-0.147
-653.857	-112.557	-0.437	-0.087
-652.843	800.000	0.037	-0.135
-651.828	-200.000	-0.039	0.409
-650.814	-70.309	-0.144	-0.055
-649.799	-115.107	0.142	0.027
-648.784	-155.667	0.631	-0.041
-647.770	18.564	0.121	0.097
-646.755	-91.193	0.427	0.123
-645.741	74.073	0.174	-0.183
-644.726	-108.155	-0.235	0.051
-643.711	-146.697	-0.129	0.011
-642.697	187.396	0.184	0.276
-641.682	-200.000	-0.007	0.110
-640.668	-1.855	-0.307	0.217
-639.653	57.126	-0.301	0.295
-638.638	800.000	-0.080	0.310
-637.624	-144.265	-0.244	0.023
-636.609	615.707	-0.185	-0.466
-635.595	-200.000	0.019	0.124
-634.580	-140.410	0.097	0.010
-633.565	-107.198	-0.376	0.083
-632.551	-133.076	0.197	-0.025
-631.536	52.199	0.119	-0.114
-630.522	165.342	-0.149	-0.210
-629.507	141.964	-0.212	-0.282
-628.492	-55.547	-0.140	0.063
-627.478	76.789	0.059	-0.062
-626.463	-19.103	-0.133	0.083
-625.449	-32.231	0.079	0.044
-624.434	-97.803	0.112	0.029
-623.419	-3.672	-0.211	0.147
-622.405	-200.000	0.037	-0.335
-621.390	59.700	0.175	0.173
-620.376	-51.780	0.207	-0.096
-619.361	-200.000	-0.111	0.001
-618.346	800.000	-0.027	0.105
-617.332	-151.125	0.246	-0.018
-616.317	759.587	0.024	0.065
-615.303	-60.982	0.125	-0.053
-614.288	-72.072	-0.087	-0.032
-613.273	-200.000	-0.011	-0.170
-612.259	-11.825	0.167	-0.110
-611.244	-126.194	0.106	-0.016
-610.230	-200.000	-0.016	0.079
-609.215	585.227	0.080	-0.197
-608.201	800.000	-0.037	0.135
-607.186	-76.895	0.098	-0.034
-606.171	-200.000	0.018	-0.226
-605.157	-117.210	-0.268	0.049
-604.142	-200.000	-0.005	0.030
-603.128	19.981	-0.231	-0.186
-602.113	800.000	0.188	0.545
-601.098	92.693	-0.171	0.193
-600.084	85.332	-0.125	-0.137
-599.069	-168.835	0.420	-0.016
-598.055	800.000	0.074	-0.287
-597.040	407.879	-0.061	-0.130
-596.025	-121.080	-0.088	-0.015
-595.011	-100.725	0.094	-0.023
-593.996	800.000	0.120	-0.436
-592.982	33.255	0.160	0.139
-591.967	117.220	-0.129	0.159
-590.952	-200.000	0.014	-0.184
-589.938	-25.319	-0.075	-0.044
-588.923	60.605	0.033	0.033
-587.909	-17.757	-0.095	-0.060
-586.894	-154.823	-0.100	-0.007
-585.879	-105.779	0.462	-0.104
-584.865	671.177	-0.081	-0.210
-583.850	490.819	-0.006	0.013
-582.836	-61.877	0.296	-0.124
-581.821	350.182	-0.123	0.243
-580.806	-11.997	0.235	0.154
-579.792	-200.000	0.016	0.126
-578.777	-76.787	-0.128	0.045
-577.763	110.885	-0.064	0.077
-576.748	800.000	-0.067	-0.254
-575.733	-200.000	0.000	-0.229
-574.719	9.505	-0.073	-0.055
-573.704	10.894	-0.200	0.153
-572.690	-30.342	0.249	0.141
-571.675	20.302	-0.383	-0.309
-570.661	800.000	-0.147	0.475
-569.646	245.099	0.092	0.155
-568.631	154.017	0.170	0.233
-567.617	800.000	0.089	0.287
-566.602	-106.696	0.275	0.061
-565.588	9.047	0.124	0.093
-564.573	785.401	0.062	-0.171
-563.558	800.000	-0.053	0.202
-562.544	-67.310	0.069	0.027
-561.529	-98.041	0.233	0.060
-560.515	41.870	0.106	-0.096
-559.500	-200.000	0.015	0.096
-558.485	30.484	-0.247	-0.211
-557.471	-6.876	-0.204	-0.138
-556.456	218.549	-0.159	0.253
-555.442	162.775	0.020	-0.028
-554.427	-106.966	-0.140	-0.031
-553.412	2.600	-0.140	0.101
-552.398	140.157	-0.066	-0.086
-551.383	350.096	-0.139	-0.274
-550.369	730.809	-0.057	-0.151
-549.354	800.000	-0.100	0.289
-548.339	335.073	0.109	-0.211
-547.325	109.518	-0.213	-0.254
-546.310	-113.572	-0.069	-0.013
-545.296	-200.000	0.014	-0.105
-544.281	-200.000	-0.031	-0.275
-543.266	294.710	0.146	-0.267
-542.252	-112.621	0.172	0.034
-541.237	55.858	-0.108	0.105
-540.223	-61.518	0.248	0.104
-539.208	142.459	0.110	0.146
-538.193	-93.458	0.193	-0.053
-537.179	54.215	-0.118	0.113
-536.164	523.961	-0.095	-0.222
-535.150	201.505	-0.076	0.116
-534.135	17.356	-0.232	-0.184
-533.121	-200.000	0.007	-0.111
-532.106	308.684	0.114	0.212
-531.091	272.925	0.043	0.075
-530.077	27.241	-0.171	-0.143
-529.062	95.001	-0.164	-0.186
-528.048	-200.000	0.012	0.073
-527.033	39.284	-0.074	-0.066
-526.018	86.468	0.114	-0.126
-525.004	-200.000	-0.195	0.001
-523.989	-100.833	0.199	0.049
-522.975	800.000	0.034	-0.141
-521.960	-200.000	0.010	-0.115
-520.945	59.904	0.077	0.076
-519.931	800.000	-0.055	0.174
-518.916	12.753	0.169	0.130
-517.902	657.742	0.016	0.042
-516.887	743.328	0.047	-0.127
-515.872	-67.217	-0.284	-0.112
-514.858	-132.305	-0.297	-0.038
-513.843	-19.761	0.128	0.079
-512.829	-200.000	-0.002	0.009
-511.814	-56.570	-0.311	-0.138
-510.799	-118.023	-0.093	-0.017
-509.785	-200.000	0.019	0.134
-508.770	-110.372	0.191	-0.040
-507.756	-17.803	0.136	-0.085
-506.741	-171.457	0.546	-0.018
-505.726	139.469	-0.198	-0.259
-504.712	-14.007	-0.141	0.091
-503.697	133.580	-0.156	-0.201
-502.683	-200.000	-0.116	-0.000
-501.668	-200.000	-0.035	-0.185
-500.653	-91.874	0.065	-0.018
-499.639	-150.121	0.427	0.033
-498.624	800.000	-0.059	0.173
-497.610	105.448	0.157	0.185
-496.595	404.186	0.055	0.116
-495.581	77.147	0.035	-0.037
-494.566	800.000	-0.045	0.170
-493.551	-89.526	0.099	0.029
-492.537	800.000	-0.084	0.270
-491.522	-111.224	0.187	-0.038
-490.508	466.473	-0.081	-0.181
-489.493	-200.000	0.007	0.075
-488.478	-21.579	-0.153	-0.093
-487.464	127.251	0.077	-0.097
-486.449	79.165	0.325	-0.347
-485.435	15.208	-0.297	0.232
-484.420	-67.325	0.086	-0.034
-483.405	-102.807	0.217	-0.051
-482.391	-194.365	-0.278	-0.002
-481.376	71.020	0.115	-0.119
-480.362	361.928	-0.100	-0.201
-479.347	800.000	0.057	0.159
-478.332	-200.000	-0.001	-0.017
-477.318	318.905	0.111	0.210
-476.303	423.740	-0.063	-0.134
-475.289	-78.508	-0.284	0.097
-474.274	487.964	-0.174	0.396
-473.259	-200.000	0.023	-0.130
-472.245	39.130	0.077	0.068
-471.230	-200.000	0.005	-0.163
-470.216	24.556	0.161	-0.132
-469.201	27.532	-0.158	0.132
-468.186	-34.932	0.349	0.190
-467.172	-200.000	-0.027	0.154
-466.157	-200.000	-0.021	-0.267
-465.143	374.468	-0.153	0.310
-464.128	-184.500	-0.092	-0.001
-463.113	-200.000	0.327	0.001
-462.099	-200.000	0.030	0.209
-461.084	68.444	-0.222	0.227
-460.070	-39.027	-0.203	0.106
-459.055	370.094	0.032	0.064
-458.040	800.000	-0.125	-0.426
-457.026	-69.239	-0.055	0.021
-456.011	286.371	0.130	-0.233
-454.997	313.511	0.069	-0.129
-453.982	417.995	0.058	-0.124
-452.968	140.464	-0.065	0.085
-451.953	-54.419	-0.308	-0.139
-450.938	-40.266	-0.168	0.087
-449.924	-71.611	0.340	-0.126
-448.909	309.034	0.113	-0.210
-447.895	-163.166	0.028	-0.001
-446.880	-200.000	0.055	-0.266
-445.865	521.130	-0.037	-0.086
-444.851	-137.198	-0.413	-0.047
-443.836	800.000	-0.056	-0.168
-442.822	67.080	-0.167	0.169
-441.807	451.010	-0.176	0.387
-440.792	800.000	0.060	0.200
-439.778	-8.997	0.182	-0.121
-438.763	178.244	-0.157	0.228
-437.749	120.877	0.131	0.162
-436.734	257.985	0.199	-0.340
-435.719	-69.449	-0.325	-0.124
-434.705	-200.000	-0.019	0.092
-433.690	133.315	-0.027	0.035
-432.676	133.992	0.088	-0.114
-431.661	83.158	-0.083	0.090
-430.646	-113.779	-0.120	-0.023
-429.632	214.764	-0.057	-0.089
-428.617	-66.603	-0.142	0.056
-427.603	192.287	-0.125	-0.187
-426.588	-53.336	0.175	0.080
-425.573	62.176	-0.282	0.280
-424.559	378.852	-0.029	-0.058
-423.544	-200.000	0.026	-0.263
-422.530	-200.000	-0.002	0.346
-421.515	-161.797	-0.256	0.013
-420.500	-200.000	-0.034	-0.284
-419.486	-79.376	-0.284	-0.096
-418.471	227.511	-0.149	-0.241
-417.457	190.686	-0.268	-0.400
-416.442	-171.599	0.256	0.008
-415.428	-200.000	0.066	0.461
-414.413	-121.059	-0.213	0.035
-413.398	218.413	0.141	-0.223
-412.384	-31.753	-0.284	-0.158
-411.369	800.000	0.043	0.154
-410.355	47.350	0.127	0.118
-409.340	-59.513	0.029	-0.012
-408.325	-0.819	-0.064	0.045
-407.311	-114.451	0.369	0.070
-406.296	-15.589	-0.051	0.033
-405.282	-200.000	0.005	-0.331
-404.267	-133.433	-0.057	-0.007
-403.252	15.830	-0.448	0.350
-402.238	133.470	0.068	-0.087
-401.223	76.879	-0.252	-0.266
-400.209	583.782	0.040	-0.099
-399.194	-200.000	-0.032	-0.184
-398.179	800.000	0.033	-0.114
-397.165	-18.672	0.265	0.164
-396.150	228.985	0.144	-0.233
-395.136	-200.000	0.033	0.190
-394.121	258.848	0.186	0.317
-393.106	-200.000	0.065	0.309
-392.092	65.058	0.222	0.222
-391.077	-200.000	0.024	0.227
-390.063	438.492	-0.171	0.369
-389.048	-200.000	-0.044	-0.278
-388.033	-200.000	0.008	0.060
-387.019	52.670	-0.132	-0.126
-386.004	294.672	-0.065	-0.118
-384.990	-200.000	0.038	-0.309
-383.975	-140.477	0.287	0.030
-382.960	-66.975	-0.231	-0.090
-381.946	622.292	-0.067	-0.168
-380.931	-119.016	0.112	0.019
-379.917	22.762	0.126	0.102
-378.902	800.000	0.017	0.060
-377.888	45.152	-0.267	-0.244
-376.873	243.552	-0.054	-0.090
-375.858	145.614	-0.121	0.161
-374.844	414.094	-0.080	-0.168
-373.829	120.125	0.106	-0.131
-372.815	800.000	-0.055	-0.205
-371.800	71.666	-0.200	-0.206
-370.785	-110.311	0.226	0.047
-369.771	354.705	0.122	-0.241
-368.756	-167.603	0.312	0.012
-367.742	-200.000	-0.013	0.170
-366.727	158.942	0.198	0.272
-365.712	800.000	0.024	-0.072
-364.698	-130.352	-0.390	0.052
-363.683	-71.091	-0.144	0.054
-362.669	621.942	0.068	0.169
-361.654	78.211	-0.095	-0.100
-360.639	127.210	0.144	0.182
-359.625	-47.275	0.287	-0.138
-358.610	296.701	0.125	-0.228
-357.596	800.000	0.059	-0.161
-356.581	473.211	0.100	0.224
-355.566	122.914	0.133	-0.165
-354.552	61.678	-0.136	0.134
-353.537	29.874	-0.073	-0.062
-352.523	-0.227	0.261	0.184
-351.508	78.480	0.195	0.206
-350.493	52.505	0.016	-0.015
-349.479	209.221	-0.141	0.219
-348.464	21.913	-0.146	0.118
-347.450	-200.000	0.173	0.000
-346.435	-69.711	0.102	-0.039
-345.420	-102.828	0.213	0.050
-344.406	39.617	0.377	0.335
-343.391	-22.862	-0.155	-0.093
-342.377	19.523	-0.170	-0.135
-341.362	-111.775	0.236	-0.047
-340.348	-200.000	0.052	-0.456
-339.333	-44.436	0.235	-0.116
-338.318	15.887	0.313	-0.244
-337.304	679.104	-0.002	-0.004
-336.289	-42.634	0.170	-0.086
-335.275	-200.000	-0.130	0.000
-334.260	497.736	0.107	0.244
-333.245	180.899	0.106	0.154
-332.231	-200.000	0.021	-0.161
-331.216	-172.418	0.342	-0.011
-330.202	-121.752	-0.183	0.030
-329.187	-200.000	0.033	0.280
-328.172	87.637	0.135	-0.148
-327.158	100.072	0.122	-0.140
-326.143	-68.032	0.181	-0.070
-325.129	-200.000	0.044	0.392
-324.114	-68.245	-0.120	0.046
-323.099	-200.000	0.023	-0.114
-322.085	800.000	0.090	0.259
-321.070	800.000	0.120	0.377
-320.056	129.476	-0.141	-0.178
-319.041	328.234	-0.221	-0.419
-318.026	800.000	0.045	-0.127
-317.012	129.197	-0.232	0.292
-315.997	221.358	-0.193	-0.308
-314.983	607.801	-0.092	-0.228
-313.968	107.196	0.183	0.215
-312.953	800.000	0.050	-0.165
-311.939	-199.180	-0.141	-0.001
-310.924	800.000	-0.161	0.439
-309.910	-97.399	0.146	-0.038
-308.895	68.491	0.041	0.042
-307.880	-200.000	-0.050	-0.321
-306.866	-200.000	-0.025	0.131
-305.851	-20.081	0.256	-0.156
-304.837	116.612	-0.092	0.112
-303.822	-200.000	-0.004	0.058
-302.807	149.330	0.173	0.232
-301.793	-32.377	-0.198	-0.109
-300.778	-172.722	-0.257	-0.008
-299.764	114.225	-0.084	0.101
-298.749	-200.000	-0.009	-0.087
-297.735	464.751	-0.141	-0.311
-296.720	-4.563	0.194	0.132
-295.705	82.753	0.214	0.230
-294.691	425.493	0.122	-0.260
-293.676	-71.746	-0.210	0.077
-292.662	31.096	0.091	0.077
-291.647	229.768	-0.049	-0.079
-290.632	-116.868	-0.177	-0.032
-289.618	-200.000	-0.035	-0.198
-288.603	666.437	0.096	-0.246
-287.589	800.000	0.087	-0.335
-286.574	-94.556	-0.223	-0.060
-285.559	465.840	-0.023	-0.050
-284.545	355.446	-0.139	-0.274
-283.530	59.788	-0.135	-0.132
-282.516	800.000	-0.015	0.052
-281.501	74.287	0.083	-0.087
-280.486	-53.031	-0.261	0.119
-279.472	629.224	-0.101	-0.251
-278.457	800.000	-0.032	0.094
-277.443	71.733	0.112	0.115
-276.428	-38.251	0.260	0.136
-275.413	507.920	-0.165	0.378
-274.399	23.273	0.049	-0.040
-273.384	-29.094	0.309	-0.175
-272.370	-55.448	-0.315	-0.139
-271.355	-200.000	-0.013	-0.147
-270.340	800.000	0.017	0.046
-269.326	128.789	0.119	0.150
-268.311	139.049	0.106	0.138
-267.297	-200.000	-0.014	0.214
-266.282	582.767	0.043	-0.103
-265.267	19.477	-0.297	0.236
-264.253	800.000	-0.039	-0.112
-263.238	252.116	0.190	0.319
-262.224	116.702	0.095	-0.115
-261.209	800.000	-0.092	-0.300
-260.195	-6.660	0.278	0.187
-259.180	800.000	0.007	0.027
-258.165	800.000	0.062	0.212
-257.151	-47.809	-0.165	-0.079
-256.136	151.029	0.186	0.250
-255.122	-17.158	-0.097	0.061
-254.107	-77.400	-0.167	-0.057
-253.092	438.971	0.039	0.084
-252.078	800.000	0.028	-0.117
-251.063	-61.341	0.211	-0.088
-250.049	243.645	0.157	-0.260
-249.034	-6.907	-0.265	0.178
-248.019	-106.209	0.233	-0.051
-247.005	-15.267	0.170	0.107
-245.990	36.283	-0.115	-0.100
-244.976	41.974	0.161	-0.144
-243.961	324.296	0.024	0.045
-242.946	-200.000	-0.029	0.272
-241.932	10.917	-0.121	0.091
-240.917	-200.000	0.016	0.305
-239.903	411.758	-0.086	0.180
-238.888	84.414	0.145	0.157
-237.873	24.329	-0.226	0.184
-236.859	-116.181	0.227	0.042
-235.844	-125.716	0.065	-0.010
-234.830	800.000	0.057	-0.178
-233.815	800.000	-0.058	0.171
-232.800	482.611	-0.149	0.333
-231.786	-146.207	-0.136	0.012
-230.771	687.353	0.059	0.152
-229.757	-134.044	0.228	-0.028
-228.742	-200.000	0.016	-0.215
-227.727	-19.347	0.127	-0.078
-226.713	-46.228	0.134	0.065
-225.698	154.028	0.046	0.062
-224.684	217.823	-0.071	0.111
-223.669	-200.000	0.050	-0.242
-222.655	-87.403	0.369	-0.110
-221.640	87.967	0.121	0.132
-220.625	481.908	-0.063	0.141
-219.611	83.076	-0.362	-0.388
-218.596	-200.000	-0.053	0.267
-217.582	-31.271	0.294	0.163
-216.567	688.368	0.089	0.230
-215.552	-119.549	-0.406	0.069
-214.538	-60.264	0.179	0.075
-213.523	37.718	-0.159	0.139
-212.509	174.969	-0.087	-0.125
-211.494	29.607	-0.173	-0.145
-210.479	10.230	-0.218	-0.164
-209.465	800.000	-0.089	-0.264
-208.450	-0.945	0.183	0.127
-207.436	66.294	0.174	-0.174
-206.421	-144.133	0.103	0.010
-205.406	800.000	-0.050	0.163
-204.392	-200.000	0.012	-0.223
-203.377	-89.220	-0.152	0.044
-202.363	-79.803	-0.340	0.113
-201.348	-152.888	0.202	0.014
-200.333	95.212	-0.249	0.279
-199.319	602.582	0.067	0.163
-198.304	46.330	0.230	0.210
-197.290	135.942	-0.246	-0.315
-196.275	-44.141	0.204	-0.101
-195.260	800.000	0.079	0.220
-194.246	-115.517	-0.401	0.074
-193.231	-161.337	-0.377	-0.019
-192.217	-136.138	0.202	0.023
-191.202	800.000	0.068	0.231
-190.187	800.000	0.003	-0.009
-189.173	-164.132	-0.348	-0.016
-188.158	-105.577	0.037	0.008
-187.144	-125.722	-0.374	-0.056
-186.129	-79.282	0.072	-0.024
-185.114	1.397	-0.167	0.118
-184.100	-200.000	0.029	0.151
-183.085	-200.000	0.057	-0.360
-182.071	338.853	-0.084	-0.160
-181.056	-200.000	0.023	0.400
-180.042	-144.629	-0.291	-0.026
-179.027	-64.766	0.139	0.055
-178.012	800.000	0.082	0.326
-176.998	-14.313	0.168	0.106
-175.983	-160.798	0.237	-0.012
-174.969	-74.793	0.290	0.102
-173.954	8.140	-0.175	-0.129
-172.939	109.564	0.176	-0.207
-171.925	-200.000	0.012	0.297
-170.910	409.023	0.083	-0.173
-169.896	46.712	-0.073	-0.067
-168.881	-200.000	0.031	-0.142
-167.866	240.597	-0.078	-0.127
-166.852	-200.000	0.003	-0.040
-165.837	-62.895	0.234	-0.095
-164.823	-200.000	0.042	0.244
-163.808	486.428	-0.040	0.090
-162.793	-138.768	-0.279	0.030
-161.779	-200.000	-0.005	-0.098
-160.764	116.681	-0.182	0.220
-159.750	-200.000	-0.021	0.117
-158.735	-174.493	0.382	0.011
-157.720	-44.783	0.053	0.026
-156.706	-200.000	-0.006	-0.363
-155.691	800.000	0.109	-0.465
-154.677	-65.764	-0.116	-0.046
-153.662	259.924	0.116	0.198
-152.647	-32.910	-0.230	0.126
-151.633	-161.131	-0.506	0.026
-150.618	-200.000	0.061	-0.292
-149.604	-11.974	-0.327	0.211
-148.589	-55.692	0.281	-0.123
-147.574	146.297	-0.109	0.143
-146.560	-1.193	0.137	0.095
-145.545	140.655	0.123	0.159
-144.531	475.572	-0.203	0.450
-143.516	162.859	-0.012	0.017
-142.502	237.745	-0.178	0.291
-141.487	156.356	-0.114	-0.155
-140.472	374.654	0.029	-0.058
-139.458	-200.000	0.014	-0.302
-138.443	229.760	0.053	0.084
-137.429	195.685	-0.262	0.391
-136.414	-200.000	-0.020	-0.275
-135.399	4.698	-0.075	0.054
-134.385	246.855	-0.070	0.117
-133.370	-73.785	0.354	0.127
-132.356	-200.000	0.012	0.114
-131.341	-42.238	-0.101	0.051
-130.326	-56.100	-0.102	-0.044
-129.312	124.063	-0.115	-0.142
-128.297	182.951	0.173	0.251
-127.283	-200.000	-0.051	-0.314
-126.268	-200.000	-0.011	-0.203
-125.253	800.000	-0.051	-0.147
-124.239	-200.000	-0.005	0.111
-123.224	648.288	0.109	0.273
-122.210	369.670	-0.147	-0.291
-121.195	316.835	-0.137	0.255
