DTS Sentinel unit serial number:	SN413079Multiplexer serial number:	ORYXHardware model number:	OX4-SRSoftware version number:	ORYX F/W v4.00 Oryx Data Collector v3.7.2.0data status	okinstallation	princeton_trtdifferential loss correction	single-endedforward channel	channel 1reverse channel	N/Adate	2019/09/16time	07:50:35forward acquisition time	60.00reverse acquisition time	0.00gamma	496.2192k internal	0.2327k external	0.2327temperature offset calibration	0.9980default loss term (dB/km)	0.3790temperature slope calibration	1.0000multiplexer offset coefficient	1.0000multiplexer slope coefficient	1.0000fibre end	0.00T internal ref (°C)	28.19T ext. ref 1 (°C)	11.71T ext. ref 2 (°C)	24.68length (m)	temperature (°C)	Stokes	anti-Stokes-747.200	800.000	0.044	-0.174
-746.185	800.000	-0.027	0.120
-745.171	-200.000	-0.027	-0.179
-744.156	800.000	-0.060	0.235
-743.142	-37.193	0.338	0.182
-742.127	21.851	0.367	0.301
-741.112	-55.349	0.060	-0.027
-740.098	-66.463	-0.051	0.020
-739.083	207.672	0.043	0.068
-738.069	-92.751	-0.121	-0.034
-737.054	-156.557	-0.228	-0.014
-736.039	-16.921	-0.259	-0.165
-735.025	-54.274	0.240	0.110
-734.010	-37.829	-0.208	0.112
-732.996	-105.942	-0.110	-0.025
-731.981	-168.536	-0.034	0.001
-730.966	582.370	-0.028	-0.069
-729.952	197.459	-0.069	-0.105
-728.937	800.000	-0.046	0.196
-727.923	-10.340	-0.110	-0.073
-726.908	800.000	0.060	0.257
-725.894	480.457	0.111	-0.254
-724.879	-64.323	0.298	-0.122
-723.864	-81.199	-0.101	0.034
-722.850	51.909	-0.276	0.264
-721.835	402.505	-0.120	-0.255
-720.821	364.185	-0.091	0.184
-719.806	-200.000	0.071	0.455
-718.791	-126.292	-0.179	-0.027
-717.777	-36.575	-0.422	0.229
-716.762	-100.359	0.366	0.091
-715.748	800.000	0.062	-0.184
-714.733	159.876	-0.309	-0.434
-713.718	-200.000	-0.021	0.241
-712.704	-200.000	0.020	-0.133
-711.689	-200.000	-0.040	0.464
-710.675	121.603	0.116	0.145
-709.660	-146.470	-0.108	-0.010
-708.645	-200.000	-0.041	0.217
-707.631	100.202	0.144	-0.168
-706.616	453.327	0.055	0.123
-705.602	-17.459	-0.248	0.157
-704.587	-200.000	0.015	-0.136
-703.572	-103.084	0.237	0.056
-702.558	800.000	-0.110	-0.317
-701.543	-86.413	0.170	-0.053
-700.529	-160.561	-0.222	-0.012
-699.514	371.066	0.055	-0.113
-698.499	185.149	-0.040	-0.059
-697.485	-200.000	0.037	0.179
-696.470	-200.000	-0.034	-0.351
-695.456	-200.000	-0.073	-0.389
-694.441	-200.000	0.016	0.076
-693.426	-13.688	0.156	0.102
-692.412	-13.836	-0.302	-0.196
-691.397	-96.590	-0.084	-0.022
-690.383	128.688	-0.147	-0.189
-689.368	353.727	-0.104	-0.208
-688.354	-200.000	0.005	0.088
-687.339	-85.526	0.632	-0.198
-686.324	-81.818	-0.628	-0.207
-685.310	-200.000	-0.042	0.343
-684.295	-143.684	-0.230	0.022
-683.281	-38.984	-0.430	-0.228
-682.266	800.000	-0.162	-0.497
-681.251	800.000	0.024	-0.105
-680.237	123.988	-0.198	-0.250
-679.222	-200.000	-0.035	-0.295
-678.208	255.020	-0.149	0.256
-677.193	-62.873	-0.307	-0.128
-676.178	-70.161	-0.242	-0.092
-675.164	-17.649	0.168	-0.106
-674.149	41.154	0.110	-0.100
-673.135	800.000	-0.100	0.357
-672.120	143.881	0.100	0.133
-671.105	-77.973	-0.518	0.179
-670.091	335.723	-0.123	-0.240
-669.076	-11.777	0.160	-0.105
-668.062	-154.678	-0.183	-0.012
-667.047	603.586	0.048	0.120
-666.032	-61.424	0.137	0.058
-665.018	82.134	-0.068	0.074
-664.003	678.807	-0.068	-0.177
-662.989	-110.617	0.048	0.010
-661.974	-200.000	-0.039	0.255
-660.959	-200.000	-0.014	-0.316
-659.945	-62.362	0.175	0.073
-658.930	-72.707	0.221	0.082
-657.916	-131.115	-0.415	-0.055
-656.901	458.312	0.094	0.210
-655.886	-34.155	-0.065	0.036
-654.872	-175.443	0.228	-0.006
-653.857	291.715	-0.157	0.287
-652.843	800.000	-0.075	0.213
-651.828	194.905	0.130	-0.197
-650.814	-107.836	0.402	-0.088
-649.799	-200.000	-0.010	-0.334
-648.784	209.003	0.084	0.133
-647.770	-47.118	-0.368	0.180
-646.755	800.000	-0.061	-0.224
-645.741	-100.641	-0.088	-0.022
-644.726	256.773	0.194	0.335
-643.711	266.643	0.026	-0.046
-642.697	341.636	-0.176	0.345
-641.682	-200.000	0.017	0.131
-640.668	21.748	0.114	-0.093
-639.653	-119.336	-0.147	0.026
-638.638	-35.200	0.056	0.030
-637.624	-34.322	0.242	-0.133
-636.609	800.000	-0.063	-0.203
-635.595	24.652	0.344	-0.286
-634.580	30.459	0.142	-0.122
-633.565	-100.176	0.202	0.050
-632.551	-42.234	-0.175	-0.090
-631.536	-200.000	-0.011	0.262
-630.522	3.124	-0.064	-0.047
-629.507	137.549	-0.131	-0.172
-628.492	152.441	0.291	0.398
-627.478	-103.717	-0.316	0.074
-626.463	-200.000	0.008	-0.127
-625.449	-4.237	-0.117	-0.081
-624.434	-34.890	-0.145	-0.079
-623.419	-200.000	0.000	0.032
-622.405	-96.073	-0.208	0.056
-621.390	52.195	-0.190	-0.182
-620.376	-52.877	-0.139	-0.064
-619.361	-16.680	-0.146	0.093
-618.346	82.371	-0.297	-0.324
-617.332	-84.712	0.040	-0.013
-616.317	-26.969	-0.208	0.122
-615.303	-187.446	-0.511	-0.007
-614.288	53.953	-0.111	-0.107
-613.273	-46.819	-0.138	0.068
-612.259	-200.000	-0.036	0.207
-611.244	222.822	0.161	-0.260
-610.230	102.614	-0.226	0.265
-609.215	-141.023	0.128	0.013
-608.201	81.204	0.118	-0.128
-607.186	-138.911	0.226	0.025
-606.171	149.612	-0.244	-0.331
-605.157	189.684	-0.070	-0.105
-604.142	-200.000	0.015	0.128
-603.128	-33.046	-0.142	0.079
-602.113	68.752	0.155	-0.159
-601.098	261.079	-0.028	-0.048
-600.084	130.372	-0.131	0.168
-599.069	379.692	-0.165	0.339
-598.055	442.635	0.026	-0.057
-597.040	69.198	-0.212	0.219
-596.025	133.622	-0.252	0.327
-595.011	-200.000	0.013	0.345
-593.996	-200.000	-0.025	0.264
-592.982	-87.956	-0.303	0.091
-591.967	69.197	0.127	0.131
-590.952	405.410	0.094	-0.198
-589.938	319.831	0.057	-0.108
-588.923	626.831	0.022	0.056
-587.909	800.000	-0.046	-0.156
-586.894	-77.612	-0.128	0.044
-585.879	-189.883	-0.224	-0.003
-584.865	51.414	0.091	-0.087
-583.850	-70.041	0.446	-0.170
-582.836	-21.451	0.389	0.238
-581.821	278.325	-0.150	-0.267
-580.806	-14.705	-0.258	-0.166
-579.792	89.951	0.066	-0.074
-578.777	-7.636	0.240	0.162
-577.763	114.436	0.161	-0.196
-576.748	-29.341	-0.180	-0.103
-575.733	-152.026	-0.181	-0.013
-574.719	-22.690	0.135	0.082
-573.704	56.416	0.295	-0.287
-572.690	19.751	-0.037	0.030
-571.675	-200.000	0.036	0.182
-570.661	241.587	0.138	0.231
-569.646	115.387	0.187	-0.229
-568.631	-200.000	0.004	-0.114
-567.617	-1.229	0.148	-0.105
-566.602	-122.965	-0.311	-0.050
-565.588	421.024	0.120	0.258
-564.573	-8.071	0.401	0.270
-563.558	-200.000	0.024	0.233
-562.544	-200.000	0.049	0.229
-561.529	-123.052	-0.082	0.013
-560.515	-70.416	0.191	0.072
-559.500	-200.000	0.004	-0.128
-558.485	-200.000	-0.035	0.229
-557.471	800.000	0.023	-0.091
-556.456	109.019	0.005	-0.007
-555.442	-200.000	-0.036	0.198
-554.427	-20.920	-0.369	0.226
-553.412	-35.447	0.046	0.025
-552.398	-47.237	0.151	-0.073
-551.383	800.000	-0.082	0.261
-550.369	800.000	-0.045	0.179
-549.354	800.000	-0.065	-0.204
-548.339	800.000	0.078	-0.253
-547.325	692.770	-0.075	-0.196
-546.310	-160.397	-0.169	-0.009
-545.296	-127.280	0.166	0.024
-544.281	42.155	-0.133	0.121
-543.266	-51.119	-0.113	0.053
-542.252	-56.178	-0.152	0.068
-541.237	-38.179	0.275	-0.146
-540.223	342.005	0.039	-0.077
-539.208	-200.000	0.025	0.124
-538.193	-185.244	0.089	-0.001
-537.179	-163.618	0.145	-0.007
-536.164	-200.000	-0.040	0.302
-535.150	-200.000	0.056	-0.270
-534.135	-196.915	-0.165	-0.001
-533.121	-180.800	-0.183	-0.004
-532.106	-194.064	-0.302	0.002
-531.091	124.531	0.203	0.255
-530.077	-38.613	-0.251	-0.132
-529.062	147.090	-0.148	-0.199
-528.048	-14.276	0.291	0.187
-527.033	170.198	-0.150	0.214
-526.018	102.849	-0.138	0.161
-525.004	-120.576	0.540	0.092
-523.989	20.590	-0.299	-0.242
-522.975	800.000	-0.079	0.346
-521.960	-60.304	-0.307	-0.131
-520.945	-54.686	-0.083	-0.037
-519.931	-22.916	-0.157	-0.094
-518.916	800.000	-0.109	0.464
-517.902	83.918	0.069	-0.076
-516.887	391.316	0.132	-0.274
-515.872	203.631	0.075	-0.116
-514.858	-142.541	0.168	0.016
-513.843	378.193	0.080	-0.164
-512.829	-60.925	0.293	-0.124
-511.814	800.000	0.011	0.040
-510.799	86.293	-0.047	0.052
-509.785	565.868	0.073	0.177
-508.770	-200.000	0.003	-0.069
-507.756	347.946	0.071	0.140
-506.741	91.392	0.240	0.270
-505.726	800.000	-0.028	-0.093
-504.712	49.062	-0.156	-0.146
-503.697	143.493	-0.062	-0.082
-502.683	-72.867	0.369	0.135
-501.668	-200.000	-0.035	0.511
-500.653	225.391	-0.116	0.188
-499.639	122.920	-0.022	0.028
-498.624	800.000	-0.106	0.376
-497.610	-82.521	-0.020	0.006
-496.595	800.000	-0.096	-0.331
-495.581	54.752	0.260	-0.251
-494.566	-63.816	-0.361	0.148
-493.551	112.061	0.175	0.211
-492.537	-42.340	-0.173	-0.088
-491.522	-126.609	0.035	0.005
-490.508	665.029	-0.123	0.318
-489.493	-28.249	-0.362	-0.208
-488.478	-56.943	-0.397	-0.175
-487.464	239.640	-0.024	-0.039
-486.449	-110.142	0.116	-0.024
-485.435	633.572	-0.059	0.149
-484.420	-41.041	0.102	-0.052
-483.405	-200.000	-0.009	-0.100
-482.391	598.322	-0.032	-0.078
-481.376	79.857	0.228	-0.244
-480.362	125.595	-0.083	-0.105
-479.347	137.743	-0.105	0.137
-478.332	-200.000	0.003	-0.020
-477.318	30.545	-0.128	0.109
-476.303	-102.764	-0.472	0.112
-475.289	54.885	0.273	0.263
-474.274	-127.165	0.309	0.045
-473.259	-200.000	-0.012	-0.199
-472.245	-85.435	0.120	-0.037
-471.230	-68.306	0.255	0.099
-470.216	243.284	-0.088	-0.148
-469.201	764.737	0.070	0.190
-468.186	-71.047	-0.065	0.024
-467.172	-82.281	0.239	-0.078
-466.157	216.518	0.059	-0.094
-465.143	-43.084	0.241	0.122
-464.128	201.896	0.185	0.284
-463.113	-144.786	0.440	-0.040
-462.099	599.663	-0.140	-0.347
-461.084	30.988	-0.069	-0.059
-460.070	-200.000	0.027	0.225
-459.055	-68.056	0.052	0.020
-458.040	800.000	-0.063	0.183
-457.026	-200.000	0.023	-0.207
-456.011	-134.170	-0.263	0.032
-454.997	800.000	0.118	-0.351
-453.982	-48.204	0.112	-0.054
-452.968	-55.124	-0.110	0.049
-451.953	107.651	0.167	0.199
-450.938	670.113	-0.055	0.142
-449.924	284.205	0.200	-0.359
-448.909	156.505	-0.079	0.108
-447.895	188.317	0.128	0.191
-446.880	687.253	0.078	-0.202
-445.865	800.000	0.063	0.195
-444.851	191.582	0.177	0.265
-443.836	387.719	-0.153	0.314
-442.822	255.727	0.061	-0.104
-441.807	247.387	-0.122	-0.205
-440.792	68.520	-0.185	0.189
-439.778	-184.474	-0.147	-0.002
-438.763	-70.532	-0.189	0.071
-437.749	158.913	0.030	-0.041
-436.734	14.964	-0.194	-0.151
-435.719	332.580	0.144	0.276
-434.705	-142.479	-0.482	0.047
-433.690	-197.673	0.246	-0.001
-432.676	124.825	-0.127	-0.159
-431.661	126.284	0.234	0.295
-430.646	107.815	-0.113	-0.134
-429.632	-46.342	0.209	0.102
-428.617	-118.376	-0.156	0.028
-427.603	-145.404	-0.088	0.008
-426.588	-200.000	0.017	-0.188
-425.573	-200.000	-0.039	-0.197
-424.559	800.000	-0.059	-0.194
-423.544	14.222	0.216	0.168
-422.530	-200.000	-0.005	0.415
-421.515	800.000	-0.103	0.425
-420.500	-108.638	0.105	-0.022
-419.486	-113.507	0.216	-0.042
-418.471	-44.867	-0.217	0.108
-417.457	-61.560	-0.337	0.141
-416.442	-0.876	0.088	0.062
-415.428	-7.695	-0.040	0.027
-414.413	-74.654	-0.208	0.074
-413.398	-153.683	-0.137	-0.009
-412.384	-0.796	-0.184	-0.130
-411.369	-51.553	0.135	-0.063
-410.355	714.188	-0.122	-0.323
-409.340	14.559	0.043	0.033
-408.325	474.985	0.149	0.334
-407.311	227.558	0.120	-0.195
-406.296	-200.000	0.013	-0.116
-405.282	-105.955	0.432	0.097
-404.267	800.000	-0.131	-0.362
-403.252	180.383	-0.092	0.134
-402.238	401.185	-0.163	-0.339
-401.223	244.157	-0.076	-0.127
-400.209	-83.715	0.200	-0.063
-399.194	32.194	-0.137	-0.118
-398.179	-120.959	0.316	0.053
-397.165	-58.911	-0.225	0.097
-396.150	-200.000	0.021	-0.100
-395.136	70.104	0.197	0.202
-394.121	800.000	-0.005	0.021
-393.106	-125.592	0.216	-0.033
-392.092	42.708	0.088	-0.079
-391.077	-126.259	-0.357	0.053
-390.063	-50.003	-0.302	0.142
-389.048	-200.000	0.081	-0.370
-388.033	-55.539	0.090	0.040
-387.019	20.001	0.037	0.030
-386.004	59.509	-0.243	-0.238
-384.990	-108.273	0.513	-0.110
-383.975	-171.836	0.303	-0.010
-382.960	-122.154	-0.191	0.031
-381.946	325.520	-0.118	-0.225
-380.931	800.000	-0.118	-0.368
-379.917	-122.991	0.126	-0.020
-378.902	-200.000	0.001	0.039
-377.888	162.281	0.267	0.372
-376.873	-137.031	0.093	0.011
-375.858	-200.000	0.029	-0.209
-374.844	121.136	0.176	-0.218
-373.829	25.273	-0.133	-0.110
-372.815	-200.000	0.000	0.130
-371.800	251.635	0.259	-0.439
-370.785	-120.474	-0.088	-0.015
-369.771	-32.757	0.114	-0.063
-368.756	-200.000	0.006	0.166
-367.742	-200.000	-0.048	-0.285
-366.727	800.000	-0.085	-0.362
-365.712	173.751	-0.096	0.137
-364.698	-119.469	-0.155	0.027
-363.683	302.719	-0.101	0.186
-362.669	58.355	-0.142	-0.139
-361.654	217.923	0.113	0.179
-360.639	-34.840	-0.322	0.175
-359.625	-73.658	-0.052	-0.019
-358.610	-143.372	0.127	-0.012
-357.596	-200.000	-0.034	-0.322
-356.581	-200.000	0.008	-0.068
-355.566	800.000	0.058	0.168
-354.552	-200.000	0.019	-0.261
-353.537	-50.813	0.194	0.090
-352.523	71.883	-0.146	0.151
-351.508	27.540	0.066	-0.055
-350.493	124.883	0.113	-0.141
-349.479	-104.915	0.183	-0.042
-348.464	-54.254	0.101	-0.045
-347.450	-14.702	0.249	-0.159
-346.435	-82.524	0.287	-0.092
-345.420	-200.000	-0.001	-0.110
-344.406	-84.149	-0.145	0.046
-343.391	800.000	-0.087	0.257
-342.377	131.858	0.070	-0.089
-341.362	115.389	0.124	0.150
-340.348	-200.000	-0.058	-0.508
-339.333	10.171	-0.262	-0.198
-338.318	-28.910	-0.359	-0.205
-337.304	84.780	0.150	-0.163
-336.289	-47.704	0.237	0.114
-335.275	800.000	0.041	0.134
-334.260	334.199	0.031	-0.060
-333.245	-25.327	0.286	-0.168
-332.231	32.902	0.286	-0.246
-331.216	-9.523	-0.195	0.129
-330.202	-200.000	-0.035	0.263
-329.187	-182.295	-0.235	-0.004
-328.172	-47.710	0.124	-0.060
-327.158	-200.000	0.012	0.218
-326.143	68.427	-0.036	-0.037
-325.129	35.056	-0.077	0.067
-324.114	-53.404	0.441	-0.200
-323.099	6.076	0.207	-0.152
-322.085	456.586	-0.029	0.063
-321.070	800.000	0.041	0.131
-320.056	-200.000	0.006	0.081
-319.041	-200.000	0.033	-0.247
-318.026	-18.158	-0.294	0.182
-317.012	-63.178	0.254	0.104
-315.997	151.298	-0.201	0.271
-314.983	-96.326	-0.328	0.086
-313.968	75.339	-0.140	-0.146
-312.953	497.795	0.019	-0.044
-311.939	-42.743	0.221	0.112
-310.924	-45.470	0.205	-0.101
-309.910	-113.611	0.081	0.016
-308.895	53.603	0.142	-0.135
-307.880	-88.467	0.253	-0.075
-306.866	113.671	-0.101	-0.122
-305.851	95.143	-0.206	0.232
-304.837	-200.000	0.029	-0.243
-303.822	-123.393	-0.232	0.037
-302.807	429.121	-0.069	0.148
-301.793	-87.615	0.172	0.051
-300.778	-200.000	-0.021	0.152
-299.764	65.584	0.048	0.048
-298.749	52.733	-0.117	-0.110
-297.735	-144.375	0.023	-0.002
-296.720	-56.803	0.159	-0.069
-295.705	73.249	0.161	0.167
-294.691	-200.000	0.002	0.114
-293.676	351.529	-0.084	0.165
-292.662	-188.316	0.164	0.002
-291.647	-96.482	0.011	-0.003
-290.632	-200.000	-0.014	-0.307
-289.618	728.420	-0.086	0.226
-288.603	-171.092	0.291	0.010
-287.589	-109.590	-0.167	0.035
-286.574	-200.000	0.011	0.316
-285.559	-142.491	-0.289	-0.028
-284.545	-200.000	-0.004	-0.130
-283.530	800.000	-0.021	-0.068
-282.516	-200.000	-0.042	-0.311
-281.501	-188.331	0.108	-0.001
-280.486	-200.000	-0.004	-0.136
-279.472	-67.258	0.092	-0.036
-278.457	-104.384	-0.111	-0.025
-277.443	-38.434	0.107	0.056
-276.428	-31.233	-0.175	0.097
-275.413	435.565	0.074	-0.159
-274.399	-200.000	-0.035	-0.304
-273.384	122.907	0.130	-0.160
-272.370	161.860	0.028	-0.039
-271.355	251.299	-0.182	-0.306
-270.340	-84.548	0.146	-0.045
-269.326	-138.932	-0.180	-0.019
-268.311	64.309	0.048	0.048
-267.297	168.116	0.188	-0.265
-266.282	333.065	-0.125	-0.238
-265.267	52.079	0.178	-0.168
-264.253	800.000	-0.038	-0.154
-263.238	0.190	0.085	0.060
-262.224	-200.000	0.021	0.187
-261.209	25.830	0.299	0.247
-260.195	-200.000	-0.032	-0.189
-259.180	-71.019	0.184	0.068
-258.165	132.074	0.066	-0.085
-257.151	534.003	0.058	-0.136
-256.136	360.690	-0.179	0.354
-255.122	666.854	-0.121	0.308
-254.107	-118.603	-0.100	0.017
-253.092	17.471	-0.213	-0.167
-252.078	-43.305	0.208	-0.104
-251.063	52.939	-0.167	-0.158
-250.049	29.178	-0.248	-0.208
-249.034	121.764	0.140	0.173
-248.019	121.424	-0.156	0.193
-247.005	229.630	-0.222	0.359
-245.990	-200.000	-0.090	-0.401
-244.976	-200.000	0.001	-0.140
-243.961	-34.509	0.370	-0.200
-242.946	505.496	0.125	0.286
-241.932	533.076	0.100	-0.234
-240.917	-115.949	-0.174	-0.032
-239.903	341.577	-0.202	-0.391
-238.888	-200.000	-0.035	-0.250
-237.873	81.087	0.085	-0.091
-236.859	125.781	-0.182	-0.227
-235.844	-200.000	-0.056	-0.262
-234.830	504.346	-0.075	-0.172
-233.815	-200.000	-0.006	0.169
-232.800	-200.000	-0.026	-0.224
-231.786	-200.000	0.024	0.243
-230.771	-53.360	-0.344	-0.156
-229.757	221.290	0.143	0.227
-228.742	-79.322	-0.187	0.063
-227.727	800.000	0.058	-0.177
-226.713	-61.928	-0.235	0.097
-225.698	173.142	0.112	-0.160
-224.684	-21.984	-0.041	-0.025
-223.669	34.374	-0.191	0.164
-222.655	800.000	-0.061	0.226
-221.640	159.116	0.245	0.337
-220.625	-30.413	-0.330	0.185
-219.611	82.886	-0.109	-0.117
-218.596	32.628	0.182	-0.155
-217.582	-157.133	-0.203	-0.012
-216.567	356.464	0.212	-0.417
-215.552	-13.105	-0.185	0.119
-214.538	-61.568	-0.216	0.089
-213.523	119.335	-0.211	-0.258
-212.509	-62.620	-0.232	0.095
-211.494	-200.000	0.050	0.286
-210.479	800.000	-0.065	-0.196
-209.465	-200.000	-0.015	0.492
-208.450	236.068	0.124	0.202
-207.436	-73.918	-0.328	-0.118
-206.421	133.879	0.119	-0.152
-205.406	24.329	0.139	-0.114
-204.392	-200.000	-0.006	0.068
-203.377	37.330	0.129	-0.113
-202.363	296.481	0.084	-0.152
-201.348	-200.000	0.012	0.282
-200.333	65.451	-0.213	-0.213
-199.319	242.810	-0.142	-0.235
-198.304	139.666	0.168	-0.218
-197.290	-131.464	0.259	0.034
-196.275	-115.680	-0.289	-0.053
-195.260	175.209	0.144	0.206
-194.246	-141.839	0.594	0.059
-193.231	-92.047	0.293	-0.082
-192.217	-94.452	-0.181	0.049
-191.202	-200.000	-0.005	0.118
-190.187	120.946	-0.131	-0.161
-189.173	-173.852	0.182	0.005
-188.158	-35.343	-0.051	0.027
-187.144	-200.000	-0.066	0.318
-186.129	114.284	0.110	0.133
-185.114	142.975	0.197	0.258
-184.100	-10.005	0.302	-0.198
-183.085	-69.863	-0.191	-0.072
-182.071	-119.699	-0.236	0.040
-181.056	184.803	-0.056	0.082
-180.042	188.550	0.198	0.292
-179.027	27.393	0.224	0.186
-178.012	25.493	0.126	0.103
-176.998	15.289	-0.150	-0.116
-175.983	-37.252	-0.109	0.057
-174.969	620.539	-0.066	-0.165
-173.954	-54.581	-0.105	-0.047
-172.939	-200.000	0.010	0.049
-171.925	-177.872	0.364	0.009
-170.910	16.183	0.382	0.297
-169.896	38.829	-0.051	-0.045
-168.881	-13.482	0.227	0.145
-167.866	800.000	-0.072	0.287
-166.852	-22.328	0.063	0.038
-165.837	5.876	0.110	0.080
-164.823	-200.000	-0.028	0.161
-163.808	-142.508	0.040	0.004
-162.793	-46.151	0.187	-0.091
-161.779	-129.536	-0.119	-0.016
-160.764	459.197	-0.049	0.108
-159.750	346.262	0.104	-0.202
-158.735	25.073	0.262	0.215
-157.720	110.008	-0.257	-0.304
-156.706	-12.909	-0.092	-0.059
-155.691	-134.220	-0.094	0.011
-154.677	800.000	-0.058	0.161
-153.662	800.000	-0.057	0.241
-152.647	185.553	0.127	0.186
-151.633	-166.632	0.170	0.007
-150.618	115.185	0.196	0.235
-149.604	-200.000	-0.002	0.030
-148.589	355.276	-0.056	0.109
-147.574	189.537	0.115	-0.170
-146.560	320.607	-0.076	-0.141
-145.545	160.291	-0.195	-0.268
-144.531	-20.265	-0.108	-0.065
-143.516	-50.633	-0.155	0.072
-142.502	800.000	0.017	-0.054
-141.487	-118.976	0.340	-0.059
-140.472	-183.524	0.234	0.004
-139.458	-11.580	-0.011	0.007
-138.443	-111.582	-0.216	0.043
-137.429	38.464	0.398	0.349
-136.414	-14.167	-0.224	-0.143
-135.399	-200.000	-0.019	-0.219
-134.385	197.438	-0.137	0.205
-133.370	-57.882	-0.288	-0.124
-132.356	-51.536	0.232	0.106
-131.341	18.268	-0.177	-0.139
-130.326	42.978	0.123	0.111
-129.312	-200.000	-0.025	0.134
-128.297	-200.000	0.003	0.117
-127.283	329.600	0.141	0.267
-126.268	-54.318	0.278	-0.124
-125.253	-35.639	0.254	0.135
-124.239	-200.000	0.043	-0.239
-123.224	51.156	-0.069	0.065
-122.210	216.967	-0.172	0.270
