DTS Sentinel unit serial number:	SN413079Multiplexer serial number:	ORYXHardware model number:	OX4-SRSoftware version number:	ORYX F/W v4.00 Oryx Data Collector v3.7.2.0data status	okinstallation	princeton_trtdifferential loss correction	single-endedforward channel	channel 1reverse channel	N/Adate	2019/09/13time	13:26:35forward acquisition time	60.00reverse acquisition time	0.00gamma	496.2192k internal	0.2304k external	0.2304temperature offset calibration	1.0164default loss term (dB/km)	0.3790temperature slope calibration	1.0000multiplexer offset coefficient	1.0000multiplexer slope coefficient	1.0000fibre end	0.00T internal ref (°C)	35.00T ext. ref 1 (°C)	4.57T ext. ref 2 (°C)	31.04length (m)	temperature (°C)	Stokes	anti-Stokes-747.200	365.539	-0.102	-0.208
-746.185	-200.000	-0.024	0.181
-745.171	295.836	0.133	0.248
-744.156	59.241	-0.194	0.194
-743.142	224.187	-0.025	-0.040
-742.127	800.000	0.082	-0.341
-741.112	-200.000	0.016	-0.167
-740.098	-24.371	0.075	0.046
-739.083	27.951	-0.171	0.146
-738.069	77.506	0.298	0.323
-737.054	-200.000	-0.001	-0.026
-736.039	21.546	-0.271	0.224
-735.025	-200.000	0.040	-0.331
-734.010	-133.883	0.244	-0.031
-732.996	-125.424	0.368	-0.057
-731.981	-106.013	0.394	-0.090
-730.966	-61.213	-0.166	0.071
-729.952	-200.000	-0.011	-0.332
-728.937	-152.502	-0.254	-0.018
-727.923	-200.000	0.003	-0.117
-726.908	85.195	0.190	-0.212
-725.894	-200.000	-0.046	-0.290
-724.879	547.650	-0.034	0.083
-723.864	-200.000	-0.019	-0.219
-722.850	53.409	0.081	-0.079
-721.835	-200.000	0.017	0.211
-720.821	137.481	0.175	-0.233
-719.806	-90.466	-0.345	-0.102
-718.791	128.218	0.044	-0.057
-717.777	9.784	0.018	-0.014
-716.762	-200.000	0.003	-0.288
-715.748	-200.000	-0.023	-0.199
-714.733	800.000	0.057	-0.252
-713.718	-121.043	0.239	-0.041
-712.704	74.638	-0.116	-0.124
-711.689	41.848	-0.363	-0.335
-710.675	-101.275	-0.112	-0.028
-709.660	97.585	-0.175	0.204
-708.645	222.322	-0.166	-0.271
-707.631	60.003	-0.142	0.143
-706.616	95.217	-0.048	-0.056
-705.602	212.779	-0.181	-0.291
-704.587	393.486	0.085	-0.180
-703.572	276.943	-0.067	-0.122
-702.558	-92.176	0.354	0.102
-701.543	-109.593	0.083	-0.018
-700.529	-52.034	0.112	0.053
-699.514	53.995	0.278	0.272
-698.499	800.000	0.035	-0.121
-697.485	6.302	-0.267	0.201
-696.470	-47.491	-0.063	0.031
-695.456	-76.706	0.336	-0.120
-694.441	-126.029	0.090	-0.014
-693.426	-200.000	-0.021	-0.308
-692.412	-122.541	-0.281	-0.046
-691.397	-64.079	-0.205	0.085
-690.383	-77.975	0.080	0.028
-689.368	-34.357	-0.199	-0.111
-688.354	-154.009	-0.108	0.007
-687.339	-111.191	0.049	-0.010
-686.324	-200.000	-0.022	0.125
-685.310	24.723	0.178	0.149
-684.295	-195.270	-0.108	-0.001
-683.281	-170.205	0.189	-0.007
-682.266	-200.000	0.056	0.278
-681.251	-200.000	-0.011	-0.115
-680.237	800.000	-0.011	0.033
-679.222	800.000	-0.041	-0.116
-678.208	-84.014	-0.261	-0.084
-677.193	9.943	0.189	-0.146
-676.178	-75.755	0.312	0.112
-675.164	-148.750	0.127	-0.010
-674.149	-200.000	0.015	0.278
-673.135	50.503	-0.084	-0.080
-672.120	-40.014	-0.251	-0.133
-671.105	57.571	0.238	-0.237
-670.091	241.381	0.078	-0.132
-669.076	-83.510	-0.420	-0.136
-668.062	-153.085	-0.155	0.011
-667.047	-200.000	-0.010	-0.370
-666.032	18.199	0.032	0.026
-665.018	678.538	0.136	-0.358
-664.003	-200.000	0.003	-0.184
-662.989	13.321	-0.127	-0.100
-661.974	800.000	0.024	-0.085
-660.959	-200.000	0.025	0.207
-659.945	361.202	-0.194	-0.395
-658.930	-112.304	0.232	-0.047
-657.916	-9.094	0.127	-0.086
-656.901	37.529	-0.084	0.076
-655.886	-67.708	-0.111	-0.044
-654.872	25.342	-0.166	-0.140
-653.857	-52.851	-0.369	-0.173
-652.843	247.994	0.289	-0.496
-651.828	-114.625	-0.190	-0.037
-650.814	486.759	0.031	0.071
-649.799	-200.000	-0.025	0.294
-648.784	800.000	0.139	-0.400
-647.770	-0.112	-0.113	-0.082
-646.755	112.693	-0.028	-0.034
-645.741	-67.027	0.069	0.028
-644.726	800.000	0.075	0.321
-643.711	228.327	-0.047	-0.077
-642.697	-200.000	0.039	-0.202
-641.682	32.344	-0.311	0.272
-640.668	302.542	0.180	-0.338
-639.653	713.826	-0.080	0.216
-638.638	634.375	-0.021	-0.055
-637.624	37.288	0.096	-0.086
-636.609	-200.000	0.038	0.252
-635.595	-74.082	0.208	-0.076
-634.580	114.541	-0.061	-0.075
-633.565	80.519	0.051	-0.056
-632.551	367.143	0.040	-0.082
-631.536	182.977	-0.113	-0.169
-630.522	-200.000	-0.012	-0.301
-629.507	600.820	0.078	-0.197
-628.492	73.218	0.072	0.077
-627.478	-200.000	0.051	-0.322
-626.463	-94.804	0.369	-0.102
-625.449	-67.200	-0.378	-0.151
-624.434	-187.740	0.297	-0.004
-623.419	-133.168	-0.134	-0.017
-622.405	-58.022	-0.401	0.178
-621.390	-135.952	-0.121	0.014
-620.376	51.767	0.028	0.027
-619.361	-200.000	-0.052	-0.305
-618.346	-123.713	-0.023	0.004
-617.332	-128.008	0.157	-0.023
-616.317	800.000	-0.014	-0.041
-615.303	231.768	-0.027	0.046
-614.288	-174.102	0.134	-0.004
-613.273	800.000	0.164	0.484
-612.259	800.000	0.031	0.099
-611.244	7.788	-0.151	-0.115
-610.230	46.780	-0.120	0.113
-609.215	-85.951	0.249	0.078
-608.201	-60.414	0.243	-0.105
-607.186	165.270	0.121	-0.173
-606.171	-200.000	-0.033	0.325
-605.157	-163.699	-0.332	0.016
-604.142	-200.000	-0.017	-0.121
-603.128	-5.724	0.249	0.173
-602.113	-56.778	-0.098	-0.044
-601.098	-200.000	-0.037	-0.252
-600.084	-168.469	-0.285	0.011
-599.069	-44.424	0.219	0.111
-598.055	-200.000	0.029	-0.193
-597.040	-118.437	-0.398	-0.071
-596.025	-86.967	0.233	0.072
-595.011	800.000	-0.098	-0.338
-593.996	584.547	-0.117	-0.291
-592.982	13.777	-0.078	-0.061
-591.967	111.688	0.079	0.097
-590.952	-121.278	-0.188	0.032
-589.938	-23.158	-0.179	0.109
-588.923	513.130	0.069	-0.163
-587.909	-85.865	-0.082	0.026
-586.894	367.648	-0.058	0.119
-585.879	-22.193	0.174	-0.107
-584.865	343.040	0.133	0.264
-583.850	275.916	0.190	0.342
-582.836	-200.000	-0.008	0.046
-581.821	34.878	-0.089	0.079
-580.806	-5.279	-0.171	0.119
-579.792	423.766	-0.047	0.102
-578.777	-200.000	-0.024	-0.259
-577.763	51.296	-0.223	0.214
-576.748	-115.117	0.089	-0.017
-575.733	-7.203	-0.164	-0.113
-574.719	142.361	-0.065	0.087
-573.704	19.760	-0.042	-0.034
-572.690	800.000	-0.015	0.048
-571.675	-135.307	-0.209	-0.025
-570.661	-179.705	-0.085	-0.002
-569.646	-200.000	-0.018	0.095
-568.631	-200.000	-0.036	-0.473
-567.617	-161.716	0.180	0.009
-566.602	19.105	-0.151	-0.122
-565.588	800.000	0.076	0.250
-564.573	6.217	-0.069	-0.051
-563.558	98.735	-0.157	0.183
-562.544	800.000	0.108	-0.345
-561.529	-200.000	-0.015	0.289
-560.515	685.276	-0.056	-0.149
-559.500	-72.292	0.325	-0.122
-558.485	-78.444	-0.203	0.070
-557.471	10.063	-0.090	-0.069
-556.456	-200.000	-0.022	-0.112
-555.442	467.672	0.054	0.122
-554.427	-102.173	-0.210	-0.051
-553.412	-200.000	0.004	-0.106
-552.398	102.394	0.070	-0.083
-551.383	146.671	0.147	0.199
-550.369	-200.000	-0.038	-0.177
-549.354	-91.624	-0.207	0.060
-548.339	800.000	0.014	0.056
-547.325	-48.594	-0.270	-0.131
-546.310	20.369	-0.355	0.290
-545.296	-152.455	-0.461	0.033
-544.281	-38.753	-0.243	0.130
-543.266	431.768	-0.184	0.402
-542.252	111.484	0.053	-0.065
-541.237	800.000	0.093	-0.288
-540.223	9.477	-0.259	-0.198
-539.208	-111.663	0.427	-0.087
-538.193	-55.307	-0.114	-0.052
-537.179	-28.687	-0.143	0.083
-536.164	32.347	0.277	-0.241
-535.150	372.342	-0.126	-0.259
-534.135	179.484	0.075	0.111
-533.121	-164.884	-0.153	-0.007
-532.106	-163.226	-0.075	0.004
-531.091	800.000	0.070	0.207
-530.077	-0.501	0.288	-0.206
-529.062	-57.450	-0.271	-0.120
-528.048	800.000	-0.146	0.438
-527.033	-190.871	-0.260	-0.003
-526.018	523.623	0.072	-0.172
-525.004	139.116	-0.092	-0.123
-523.989	-48.669	-0.213	0.103
-522.975	-178.014	0.313	-0.008
-521.960	-200.000	0.013	-0.097
-520.945	800.000	-0.054	0.232
-519.931	110.415	0.267	-0.324
-518.916	16.633	-0.072	0.057
-517.902	-200.000	0.006	-0.093
-516.887	12.617	-0.129	-0.101
-515.872	230.107	0.088	0.145
-514.858	57.818	-0.285	-0.281
-513.843	-143.746	-0.113	-0.011
-512.829	800.000	-0.075	-0.228
-511.814	-170.370	0.116	-0.004
-510.799	237.942	0.139	0.234
-509.785	-200.000	0.017	-0.374
-508.770	-200.000	-0.019	-0.205
-507.756	-200.000	-0.001	-0.076
-506.741	331.681	0.133	-0.260
-505.726	-200.000	-0.029	-0.148
-504.712	-51.546	-0.323	-0.152
-503.697	-200.000	0.002	0.223
-502.683	-200.000	-0.053	0.252
-501.668	-21.934	-0.384	0.235
-500.653	-11.589	0.300	0.199
-499.639	-150.016	0.217	-0.017
-498.624	692.334	0.015	0.040
-497.610	283.296	0.097	-0.176
-496.595	800.000	-0.039	-0.150
-495.581	37.429	-0.206	0.184
-494.566	-12.527	-0.244	0.161
-493.551	49.112	-0.047	-0.044
-492.537	-159.096	0.082	-0.005
-491.522	-40.385	0.093	0.049
-490.508	256.827	-0.103	0.179
-489.493	293.933	-0.105	0.194
-488.478	-58.665	-0.274	-0.120
-487.464	724.235	-0.115	-0.308
-486.449	-200.000	0.012	0.095
-485.435	211.642	-0.107	-0.169
-484.420	-135.130	-0.207	0.025
-483.405	800.000	-0.053	0.229
-482.391	-66.358	-0.276	-0.111
-481.376	-52.848	0.254	-0.118
-480.362	91.912	-0.159	0.180
-479.347	-200.000	-0.028	-0.384
-478.332	204.491	-0.047	-0.073
-477.318	-41.830	-0.371	0.192
-476.303	483.352	-0.056	0.128
-475.289	-95.410	0.401	-0.108
-474.274	265.607	0.154	-0.271
-473.259	-112.168	-0.165	0.033
-472.245	116.948	-0.148	-0.183
-471.230	-132.111	-0.275	-0.036
-470.216	-6.614	-0.170	0.117
-469.201	-200.000	-0.094	0.416
-468.186	-15.152	0.167	-0.107
-467.172	800.000	-0.136	0.393
-466.157	-18.324	-0.215	0.135
-465.143	800.000	0.075	0.331
-464.128	-200.000	-0.041	-0.265
-463.113	-102.762	-0.157	-0.038
-462.099	-42.442	0.338	0.174
-461.084	575.755	0.160	-0.393
-460.070	-109.009	-0.245	0.053
-459.055	-200.000	-0.008	-0.195
-458.040	73.879	-0.041	0.043
-457.026	485.769	0.084	-0.192
-456.011	800.000	0.102	-0.296
-454.997	419.148	0.155	-0.333
-453.982	598.617	0.044	-0.110
-452.968	163.987	0.120	0.170
-451.953	224.717	0.063	0.103
-450.938	-200.000	0.013	-0.136
-449.924	800.000	-0.104	0.351
-448.909	800.000	0.021	0.077
-447.895	-200.000	-0.145	-0.001
-446.880	-39.091	-0.278	0.147
-445.865	-21.044	-0.064	-0.039
-444.851	136.049	-0.086	0.112
-443.836	164.707	0.189	0.268
-442.822	66.273	-0.152	-0.155
-441.807	-48.198	-0.105	0.051
-440.792	93.657	-0.228	0.260
-439.778	-12.190	0.139	-0.092
-438.763	-200.000	-0.005	-0.277
-437.749	203.495	0.132	0.206
-436.734	73.655	0.117	-0.123
-435.719	800.000	0.042	0.134
-434.705	109.860	-0.019	-0.023
-433.690	275.841	0.071	0.127
-432.676	7.406	-0.322	-0.242
-431.661	-200.000	0.021	0.256
-430.646	-86.370	0.351	-0.108
-429.632	-65.042	0.170	0.069
-428.617	-14.892	0.236	0.152
-427.603	-83.374	0.129	-0.042
-426.588	-200.000	0.004	-0.039
-425.573	-31.470	-0.039	0.022
-424.559	-11.826	-0.170	0.112
-423.544	66.127	0.046	0.047
-422.530	237.974	0.116	-0.194
-421.515	-69.741	0.196	0.075
-420.500	-200.000	-0.090	0.457
-419.486	-200.000	-0.056	0.271
-418.471	91.489	0.249	0.282
-417.457	-200.000	0.003	0.049
-416.442	51.538	-0.205	0.196
-415.428	91.683	-0.064	0.073
-414.413	53.384	-0.096	-0.093
-413.398	-111.634	0.133	0.027
-412.384	-73.825	0.180	0.066
-411.369	-131.246	0.042	-0.006
-410.355	-200.000	-0.002	-0.295
-409.340	-154.379	-0.076	-0.005
-408.325	-109.413	-0.248	-0.053
-407.311	-195.500	-0.495	-0.004
-406.296	-143.656	0.096	-0.009
-405.282	-27.002	-0.115	-0.068
-404.267	40.667	0.264	0.239
-403.252	-9.317	-0.046	0.031
-402.238	130.534	-0.116	-0.149
-401.223	540.226	-0.101	-0.242
-400.209	14.394	0.052	0.041
-399.194	-79.256	0.102	-0.035
-398.179	800.000	-0.059	-0.257
-397.165	800.000	-0.046	-0.140
-396.150	-110.807	0.230	-0.048
-395.136	-193.337	0.247	-0.002
-394.121	55.778	0.053	-0.051
-393.106	216.786	0.075	-0.120
-392.092	362.938	-0.204	0.411
-391.077	69.727	0.179	0.186
-390.063	-90.364	-0.244	0.071
-389.048	-200.000	0.026	-0.128
-388.033	-200.000	-0.034	0.188
-387.019	-178.530	0.182	0.004
-386.004	-163.471	-0.167	0.008
-384.990	-23.226	-0.058	0.035
-383.975	42.823	-0.160	0.146
-382.960	-146.462	-0.309	0.027
-381.946	571.378	0.032	0.077
-380.931	129.939	0.183	0.235
-379.917	-41.947	0.375	0.193
-378.902	800.000	-0.046	-0.181
-377.888	-23.329	0.126	0.076
-376.873	224.587	-0.149	0.241
-375.858	-143.534	0.220	-0.021
-374.844	711.847	0.165	-0.438
-373.829	383.192	0.059	0.121
-372.815	-200.000	0.018	0.429
-371.800	-55.725	-0.352	-0.158
-370.785	12.586	0.144	0.111
-369.771	-200.000	0.006	0.185
-368.756	-200.000	0.007	-0.080
-367.742	-10.181	-0.252	-0.168
-366.727	170.219	-0.097	-0.140
-365.712	321.479	-0.106	-0.203
-364.698	51.951	0.165	0.158
-363.683	-163.849	0.090	-0.004
-362.669	39.456	-0.153	-0.137
-361.654	3.768	0.012	0.009
-360.639	392.556	0.086	-0.179
-359.625	193.874	-0.134	-0.203
-358.610	310.224	-0.097	-0.182
-357.596	800.000	-0.017	-0.071
-356.581	-144.761	-0.099	-0.009
-355.566	165.307	-0.042	-0.060
-354.552	-79.596	-0.223	-0.076
-353.537	-14.035	-0.148	-0.096
-352.523	274.255	-0.229	-0.406
-351.508	800.000	0.080	-0.294
-350.493	-96.735	0.330	-0.087
-349.479	-41.915	-0.070	-0.036
-348.464	-200.000	-0.007	0.148
-347.450	-65.759	-0.294	0.118
-346.435	6.499	0.180	0.134
-345.420	362.344	0.171	-0.344
-344.406	-137.206	-0.260	-0.030
-343.391	-182.089	-0.130	-0.002
-342.377	129.393	0.090	-0.115
-341.362	-200.000	0.014	-0.134
-340.348	77.300	0.134	-0.143
-339.333	-60.772	0.366	-0.155
-338.318	41.070	-0.225	-0.203
-337.304	-79.874	0.212	0.072
-336.289	29.642	-0.213	0.182
-335.275	96.715	-0.021	0.024
-334.260	-18.598	-0.095	0.059
-333.245	-200.000	0.018	0.320
-332.231	161.433	0.035	-0.049
-331.216	212.518	0.098	0.155
-330.202	21.191	0.035	-0.029
-329.187	288.707	-0.081	0.147
-328.172	-200.000	0.016	-0.278
-327.158	186.010	0.091	-0.135
-326.143	-6.971	-0.177	-0.120
-325.129	800.000	-0.017	-0.048
-324.114	-67.792	-0.253	-0.099
-323.099	-115.379	0.492	0.093
-322.085	-95.788	-0.207	-0.055
-321.070	-41.900	-0.195	-0.100
-320.056	-200.000	-0.080	0.405
-319.041	-24.395	-0.076	0.045
-318.026	-200.000	0.041	-0.203
-317.012	-200.000	0.012	-0.079
-315.997	42.397	0.135	0.123
-314.983	-200.000	0.043	0.286
-313.968	-200.000	0.002	-0.043
-312.953	726.137	-0.061	-0.164
-311.939	17.789	-0.122	-0.098
-310.924	165.997	0.089	0.125
-309.910	-0.203	-0.080	0.057
-308.895	-200.000	-0.026	0.230
-307.880	300.009	-0.149	-0.275
-306.866	-27.966	0.198	-0.115
-305.851	800.000	-0.064	-0.223
-304.837	-200.000	0.030	-0.204
-303.822	-111.176	0.110	-0.023
-302.807	-200.000	-0.057	0.331
-301.793	69.986	-0.122	-0.126
-300.778	-127.144	0.389	0.057
-299.764	-200.000	0.001	-0.139
-298.749	-67.318	0.447	-0.176
-297.735	329.822	-0.053	0.101
-296.720	92.171	0.042	-0.047
-295.705	648.478	-0.142	-0.364
-294.691	-92.672	0.126	0.035
-293.676	-112.665	0.378	-0.075
-292.662	-137.697	0.073	-0.008
-291.647	-200.000	-0.053	0.426
-290.632	-13.336	-0.120	-0.078
-289.618	72.010	0.198	-0.206
-288.603	-185.980	0.045	0.001
-287.589	-30.864	0.216	0.122
-286.574	91.273	0.211	0.237
-285.559	53.824	0.090	0.086
-284.545	-109.692	0.290	-0.061
-283.530	88.110	0.133	0.148
-282.516	91.365	0.320	-0.360
-281.501	-200.000	-0.010	-0.335
-280.486	-31.438	-0.090	-0.051
-279.472	-200.000	0.002	0.070
-278.457	-5.014	0.031	-0.021
-277.443	-121.224	0.408	-0.068
-276.428	-117.535	-0.174	0.031
-275.413	-42.762	0.051	0.026
-274.399	216.999	-0.131	0.209
-273.384	-65.240	-0.522	0.210
-272.370	-166.901	-0.299	-0.012
-271.355	-76.697	-0.271	-0.095
-270.340	541.655	-0.097	0.230
-269.326	-20.232	0.112	-0.069
-268.311	-41.964	0.106	0.054
-267.297	-200.000	-0.048	0.352
-266.282	-200.000	-0.025	0.216
-265.267	-108.382	0.315	-0.068
-264.253	589.511	-0.122	-0.300
-263.238	-155.697	-0.156	0.010
-262.224	76.073	0.084	0.089
-261.209	621.905	-0.110	0.277
-260.195	-92.823	-0.100	0.028
-259.180	251.579	0.170	-0.289
-258.165	333.854	-0.136	0.264
-257.151	800.000	0.029	-0.090
-256.136	500.165	-0.052	-0.121
-255.122	800.000	-0.078	0.311
-254.107	169.737	0.013	-0.019
-253.092	-15.366	-0.206	-0.131
-252.078	-60.300	0.265	0.113
-251.063	-43.805	0.187	-0.094
-250.049	335.401	0.218	0.421
-249.034	-22.492	-0.205	-0.124
-248.019	112.283	0.195	-0.235
-247.005	-85.262	-0.287	-0.090
-245.990	-123.106	-0.304	0.049
-244.976	-67.558	-0.129	-0.051
-243.961	103.451	-0.048	0.056
-242.946	271.304	-0.065	-0.114
-241.932	36.775	-0.122	-0.107
-240.917	-193.675	0.164	0.001
-239.903	249.910	0.079	0.134
-238.888	800.000	-0.040	0.136
-237.873	-200.000	-0.052	0.233
-236.859	-157.977	0.214	-0.013
-235.844	-44.145	-0.232	-0.116
-234.830	-47.508	-0.383	0.186
-233.815	25.020	-0.058	0.048
-232.800	-59.747	-0.124	0.053
-231.786	288.190	0.152	0.275
-230.771	37.226	0.140	0.124
-229.757	-178.917	0.280	-0.006
-228.742	642.333	0.222	0.566
-227.727	-200.000	0.030	0.196
-226.713	28.861	0.224	-0.190
-225.698	87.180	-0.299	-0.330
-224.684	24.352	0.370	-0.305
-223.669	-200.000	-0.039	-0.420
-222.655	53.429	-0.183	-0.175
-221.640	215.110	0.015	-0.023
-220.625	69.584	0.142	0.146
-219.611	-113.095	0.323	-0.064
-218.596	469.204	-0.052	0.117
-217.582	-115.995	0.370	0.069
-216.567	-83.385	0.062	0.020
-215.552	208.393	-0.135	-0.210
-214.538	582.609	0.083	-0.203
-213.523	-37.099	-0.168	0.090
-212.509	-170.594	0.217	-0.008
-211.494	306.009	-0.083	0.153
-210.479	800.000	0.128	0.434
-209.465	-200.000	-0.004	0.201
-208.450	800.000	0.019	-0.073
-207.436	603.248	0.066	0.164
-206.421	800.000	0.127	0.494
-205.406	-87.278	-0.147	-0.045
-204.392	-53.682	0.323	0.147
-203.377	-44.919	0.241	-0.120
-202.363	-60.233	0.270	-0.115
-201.348	48.649	0.069	0.065
-200.333	403.060	0.008	-0.018
-199.319	191.968	0.084	0.127
-198.304	-56.851	0.328	0.145
-197.290	557.053	-0.062	0.148
-196.275	90.243	-0.130	0.145
-195.260	171.962	0.131	-0.188
-194.246	-92.474	0.261	0.073
-193.231	-92.397	0.243	-0.068
-192.217	-4.959	0.168	0.116
-191.202	-55.155	-0.144	0.064
-190.187	115.782	0.185	-0.225
-189.173	-37.588	0.177	0.094
-188.158	-151.230	0.206	-0.015
-187.144	800.000	0.055	-0.220
-186.129	800.000	0.064	-0.179
-185.114	-197.875	0.410	-0.002
-184.100	57.068	-0.070	0.068
-183.085	-200.000	-0.029	0.605
-182.071	-200.000	-0.052	0.256
-181.056	317.959	0.029	0.055
-180.042	-117.205	-0.116	-0.021
-179.027	327.876	0.066	0.126
-178.012	-46.938	-0.148	-0.072
-176.998	-65.009	-0.167	-0.067
-175.983	84.639	0.185	-0.202
-174.969	771.635	-0.079	-0.215
-173.954	-158.080	-0.166	0.010
-172.939	-23.974	-0.232	0.138
-171.925	-2.382	0.246	-0.172
-170.910	563.022	-0.023	0.054
-169.896	266.249	0.081	-0.141
-168.881	-115.160	0.337	0.063
-167.866	57.227	-0.126	-0.123
-166.852	800.000	0.028	-0.088
-165.837	-92.878	0.250	-0.070
-164.823	-86.543	0.121	-0.037
-163.808	-85.117	0.362	-0.113
-162.793	66.029	0.342	0.345
-161.779	22.087	0.075	-0.061
-160.764	-87.601	0.171	0.051
-159.750	56.726	-0.068	-0.066
-158.735	28.724	-0.158	0.133
-157.720	113.089	0.080	-0.097
-156.706	469.494	-0.051	-0.115
-155.691	90.669	-0.069	0.077
-154.677	800.000	-0.102	0.333
-153.662	544.925	-0.066	0.158
-152.647	-53.965	0.128	0.058
-151.633	444.919	-0.034	-0.075
-150.618	-64.985	-0.379	-0.152
-149.604	367.380	-0.076	0.152
-148.589	-114.137	-0.429	-0.083
-147.574	183.124	0.172	-0.253
-146.560	75.719	-0.444	-0.467
-145.545	67.184	0.069	-0.070
-144.531	-64.156	0.041	-0.017
-143.516	140.686	-0.101	-0.133
-142.502	125.598	-0.100	-0.126
-141.487	-86.616	0.066	-0.020
-140.472	230.011	-0.095	-0.155
-139.458	274.299	0.146	-0.258
-138.443	-151.113	-0.210	0.016
-137.429	-113.900	0.260	-0.050
-136.414	800.000	-0.046	0.158
-135.399	582.457	-0.098	0.239
-134.385	-117.167	-0.121	0.022
-133.370	-42.082	0.040	0.020
-132.356	-9.992	0.176	-0.116
-131.341	464.790	0.034	-0.075
-130.326	140.467	0.172	0.226
-129.312	21.560	-0.089	0.072
-128.297	247.269	0.087	-0.147
-127.283	491.344	0.117	-0.267
-126.268	81.243	0.136	-0.146
-125.253	-159.306	0.370	-0.021
-124.239	-80.947	-0.284	0.094
-123.224	800.000	0.150	0.438
-122.210	-64.798	-0.287	-0.115
