DTS Sentinel unit serial number:	SN413079Multiplexer serial number:	ORYXHardware model number:	OX4-SRSoftware version number:	ORYX F/W v4.00 Oryx Data Collector v3.7.2.0data status	okinstallation	princeton_trtdifferential loss correction	single-endedforward channel	channel 1reverse channel	N/Adate	2019/09/17time	15:58:35forward acquisition time	60.00reverse acquisition time	0.00gamma	496.2192k internal	0.2291k external	0.2291temperature offset calibration	0.9954default loss term (dB/km)	0.3790temperature slope calibration	1.0000multiplexer offset coefficient	1.0000multiplexer slope coefficient	1.0000fibre end	0.00T internal ref (°C)	39.77T ext. ref 1 (°C)	0.37T ext. ref 2 (°C)	38.78length (m)	temperature (°C)	Stokes	anti-Stokes-747.200	-84.260	0.170	-0.055
-746.185	174.301	-0.114	0.169
-745.171	800.000	-0.088	0.300
-744.156	800.000	-0.080	-0.270
-743.142	-150.239	-0.234	-0.019
-742.127	-14.607	-0.048	0.031
-741.112	800.000	-0.013	-0.046
-740.098	327.712	-0.049	0.096
-739.083	-153.984	-0.299	0.021
-738.069	13.570	0.063	0.050
-737.054	-200.000	0.038	-0.201
-736.039	8.201	-0.222	-0.171
-735.025	384.061	0.124	-0.261
-734.010	114.651	-0.316	-0.394
-732.996	-33.025	0.140	0.079
-731.981	421.275	-0.067	-0.147
-730.966	25.242	0.178	-0.152
-729.952	-166.638	-0.303	-0.013
-728.937	100.385	-0.309	-0.367
-727.923	-73.988	0.103	-0.038
-726.908	286.315	-0.095	-0.175
-725.894	171.060	-0.232	-0.340
-724.879	-96.128	-0.087	0.024
-723.864	800.000	0.060	0.176
-722.850	225.654	0.107	0.178
-721.835	188.528	-0.207	0.317
-720.821	-66.906	0.118	0.048
-719.806	-178.882	-0.056	-0.001
-718.791	-5.136	-0.255	-0.179
-717.777	-200.000	-0.049	-0.245
-716.762	56.884	-0.273	-0.272
-715.748	172.830	-0.054	0.079
-714.733	-200.000	-0.001	-0.086
-713.718	-114.190	0.321	0.063
-712.704	-129.221	-0.333	-0.047
-711.689	245.402	0.049	-0.084
-710.675	-114.969	-0.269	0.052
-709.660	-200.000	0.015	-0.093
-708.645	-200.000	0.019	0.139
-707.631	19.086	0.082	0.067
-706.616	78.623	-0.124	-0.135
-705.602	-19.867	-0.089	-0.056
-704.587	65.964	0.158	0.164
-703.572	-140.611	-0.035	-0.004
-702.558	-200.000	0.007	0.115
-701.543	-200.000	-0.048	0.339
-700.529	171.440	0.140	0.205
-699.514	251.422	0.077	0.134
-698.499	-139.367	-0.302	0.033
-697.485	176.768	-0.113	-0.168
-696.470	-134.079	-0.118	-0.015
-695.456	-14.199	-0.252	0.166
-694.441	-117.393	-0.071	-0.013
-693.426	-164.773	0.137	0.006
-692.412	127.729	-0.061	0.079
-691.397	-93.383	0.166	-0.047
-690.383	-70.590	-0.212	0.082
-689.368	-2.077	-0.260	-0.187
-688.354	-110.176	-0.188	-0.040
-687.339	73.948	-0.161	-0.172
-686.324	-91.123	-0.281	0.082
-685.310	-200.000	0.020	0.164
-684.295	88.268	0.127	0.144
-683.281	168.799	-0.175	-0.254
-682.266	-200.000	-0.008	-0.221
-681.251	-133.789	-0.341	0.043
-680.237	-154.090	-0.136	-0.009
-679.222	-200.000	-0.039	-0.358
-678.208	-104.358	0.129	0.031
-677.193	-200.000	0.011	0.050
-676.178	96.510	-0.046	-0.054
-675.164	800.000	-0.092	-0.268
-674.149	526.894	0.104	-0.250
-673.135	9.411	0.086	-0.067
-672.120	-200.000	0.005	-0.187
-671.105	-200.000	-0.003	0.061
-670.091	-200.000	0.019	0.140
-669.076	142.629	0.251	0.340
-668.062	147.370	0.118	0.163
-667.047	-200.000	0.001	0.092
-666.032	-200.000	0.031	-0.331
-665.018	294.157	0.060	-0.111
-664.003	800.000	0.075	-0.228
-662.989	-96.947	-0.257	0.069
-661.974	-117.776	-0.157	0.029
-660.959	-200.000	0.196	0.001
-659.945	259.769	0.134	-0.237
-658.930	-15.887	-0.135	-0.088
-657.916	-102.925	-0.196	-0.047
-656.901	-169.718	-0.218	0.008
-655.886	-200.000	0.023	-0.249
-654.872	-200.000	0.033	-0.327
-653.857	-200.000	-0.013	0.067
-652.843	222.788	-0.128	0.210
-651.828	-1.116	0.128	-0.092
-650.814	-121.824	0.091	-0.015
-649.799	170.695	0.127	0.185
-648.784	70.426	0.311	0.328
-647.770	153.211	0.174	0.243
-646.755	80.182	-0.131	-0.143
-645.741	-53.061	0.087	-0.041
-644.726	-120.067	-0.278	-0.049
-643.711	-86.965	-0.418	-0.130
-642.697	178.560	0.141	-0.210
-641.682	144.472	-0.254	-0.345
-640.668	-200.000	0.004	-0.269
-639.653	-100.730	0.387	-0.097
-638.638	-53.664	-0.258	-0.120
-637.624	800.000	-0.015	-0.068
-636.609	-200.000	-0.012	-0.066
-635.595	-200.000	0.017	-0.109
-634.580	4.742	0.115	0.086
-633.565	182.395	0.070	-0.105
-632.551	-108.880	-0.347	0.076
-631.536	-148.384	0.356	-0.030
-630.522	-136.735	0.156	0.018
-629.507	-200.000	0.041	-0.261
-628.492	-50.568	-0.288	0.138
-627.478	115.718	-0.266	-0.332
-626.463	80.506	-0.143	0.157
-625.449	116.935	0.085	-0.107
-624.434	-158.575	0.208	0.012
-623.419	-123.192	-0.232	0.038
-622.405	251.924	-0.228	0.395
-621.390	28.002	0.126	-0.108
-620.376	-200.000	0.020	-0.365
-619.361	358.450	-0.061	-0.124
-618.346	26.613	-0.169	-0.144
-617.332	800.000	-0.065	-0.283
-616.317	-23.713	0.055	0.033
-615.303	-80.217	0.149	0.051
-614.288	615.955	0.069	-0.176
-613.273	800.000	-0.050	0.145
-612.259	97.267	-0.074	0.086
-611.244	-200.000	-0.005	-0.104
-610.230	800.000	-0.067	0.238
-609.215	-46.554	-0.282	-0.141
-608.201	-200.000	-0.004	0.036
-607.186	19.438	-0.126	-0.103
-606.171	-200.000	0.001	-0.220
-605.157	-39.786	-0.226	-0.120
-604.142	-172.058	0.089	-0.003
-603.128	-200.000	-0.029	0.180
-602.113	-142.536	-0.153	0.015
-601.098	-54.845	-0.029	0.013
-600.084	5.185	0.195	0.146
-599.069	-101.662	-0.142	-0.035
-598.055	396.224	-0.143	0.304
-597.040	-123.764	0.234	-0.038
-596.025	-7.187	0.023	0.016
-595.011	-123.168	-0.244	-0.040
-593.996	61.907	0.184	-0.186
-592.982	-50.411	-0.145	-0.070
-591.967	315.966	0.038	-0.073
-590.952	-200.000	-0.026	-0.541
-589.938	-200.000	-0.050	-0.389
-588.923	800.000	0.099	-0.313
-587.909	91.871	-0.134	-0.153
-586.894	-128.474	-0.131	-0.019
-585.879	-146.858	0.173	0.015
-584.865	-127.311	-0.205	0.030
-583.850	-168.438	0.325	0.013
-582.836	-200.000	0.013	-0.194
-581.821	-66.523	0.074	0.030
-580.806	-200.000	-0.001	-0.298
-579.792	-200.000	0.027	0.160
-578.777	344.295	-0.034	0.068
-577.763	20.264	-0.224	-0.184
-576.748	207.280	0.030	-0.047
-575.733	-200.000	0.003	0.094
-574.719	800.000	-0.099	-0.368
-573.704	800.000	-0.030	0.111
-572.690	136.463	0.106	0.141
-571.675	-5.974	-0.219	-0.152
-570.661	174.474	0.251	-0.369
-569.646	-200.000	0.002	-0.146
-568.631	14.429	-0.197	-0.157
-567.617	800.000	-0.101	0.312
-566.602	800.000	0.131	-0.414
-565.588	30.945	-0.101	-0.088
-564.573	-79.429	0.072	-0.025
-563.558	127.514	0.045	0.057
-562.544	-200.000	0.020	0.183
-561.529	20.791	0.132	-0.109
-560.515	-3.122	-0.244	0.173
-559.500	-155.962	-0.142	-0.009
-558.485	800.000	-0.091	0.339
-557.471	-31.521	0.119	0.068
-556.456	70.788	0.068	-0.071
-555.442	445.499	0.029	0.065
-554.427	65.943	-0.070	-0.072
-553.412	22.839	0.149	-0.124
-552.398	-114.596	-0.128	-0.025
-551.383	-123.664	0.160	0.026
-550.369	3.377	0.123	-0.091
-549.354	100.425	-0.165	0.195
-548.339	-39.444	-0.133	0.071
-547.325	-97.561	0.149	0.039
-546.310	18.978	0.206	0.168
-545.296	-200.000	-0.028	0.144
-544.281	328.999	0.080	0.156
-543.266	-200.000	0.021	-0.301
-542.252	348.440	-0.085	0.171
-541.237	-81.222	-0.142	-0.048
-540.223	-180.187	0.303	-0.006
-539.208	-200.000	-0.011	0.180
-538.193	-146.544	0.199	0.018
-537.179	-7.699	0.159	-0.109
-536.164	-76.308	0.134	-0.048
-535.150	206.989	-0.250	-0.396
-534.135	-164.674	0.322	-0.015
-533.121	341.389	-0.027	0.053
-532.106	157.304	-0.266	-0.373
-531.091	-115.566	-0.057	0.011
-530.077	294.235	-0.216	0.400
-529.062	112.741	0.261	-0.322
-528.048	243.314	0.061	-0.104
-527.033	-114.202	0.071	0.014
-526.018	473.756	0.027	0.062
-525.004	-200.000	-0.053	-0.252
-523.989	428.358	0.056	-0.123
-522.975	-65.668	0.127	-0.052
-521.960	209.312	-0.026	0.042
-520.945	-72.175	0.056	-0.021
-519.931	-83.558	-0.098	0.032
-518.916	-119.706	-0.043	0.007
-517.902	535.065	0.054	-0.130
-516.887	331.912	0.113	0.221
-515.872	330.431	-0.110	0.216
-514.858	56.826	0.175	0.173
-513.843	178.046	-0.049	-0.073
-512.829	77.048	-0.072	-0.077
-511.814	-71.724	0.290	0.110
-510.799	-152.330	0.379	-0.028
-509.785	-200.000	0.026	-0.126
-508.770	149.226	-0.145	0.199
-507.756	90.464	-0.284	-0.323
-506.741	-200.000	0.013	0.204
-505.726	357.647	0.092	-0.187
-504.712	-97.492	-0.107	0.028
-503.697	88.366	-0.118	-0.133
-502.683	-60.475	-0.188	-0.081
-501.668	458.288	-0.135	-0.304
-500.653	726.091	-0.077	-0.207
-499.639	105.104	-0.162	-0.194
-498.624	-200.000	0.007	0.080
-497.610	-37.105	0.189	-0.103
-496.595	-104.361	0.215	-0.050
-495.581	-200.000	0.022	0.459
-494.566	-200.000	0.005	-0.267
-493.551	800.000	0.082	0.272
-492.537	800.000	0.038	0.113
-491.522	301.499	0.186	-0.349
-490.508	140.337	0.261	0.350
-489.493	148.803	-0.142	-0.195
-488.478	31.771	-0.068	0.060
-487.464	-1.003	-0.059	0.042
-486.449	246.939	0.105	-0.179
-485.435	-112.521	-0.400	-0.081
-484.420	348.462	-0.057	-0.113
-483.405	-36.128	0.186	0.102
-482.391	414.375	-0.111	0.240
-481.376	-200.000	0.025	-0.145
-480.362	-114.613	0.078	0.015
-479.347	88.482	0.098	0.111
-478.332	35.109	-0.096	0.085
-477.318	-200.000	-0.084	0.449
-476.303	-20.658	0.188	0.117
-475.289	-200.000	-0.052	0.255
-474.274	149.411	0.061	-0.083
-473.259	-77.502	0.058	0.020
-472.245	250.063	0.187	-0.322
-471.230	-200.000	-0.025	-0.280
-470.216	800.000	-0.092	0.287
-469.201	-129.182	0.338	0.048
-468.186	-82.918	0.275	-0.090
-467.172	181.139	0.080	-0.120
-466.157	65.348	0.222	-0.227
-465.143	-200.000	0.060	-0.451
-464.128	-88.205	0.259	-0.078
-463.113	257.711	-0.091	-0.158
-462.099	-200.000	0.017	0.174
-461.084	637.126	0.145	-0.374
-460.070	-77.345	0.226	0.079
-459.055	-190.548	-0.254	-0.003
-458.040	-118.962	-0.125	-0.022
-457.026	99.463	-0.142	0.167
-456.011	264.690	-0.135	-0.238
-454.997	288.123	-0.085	0.156
-453.982	114.061	0.232	0.285
-452.968	97.690	-0.119	0.138
-451.953	-40.499	0.387	0.204
-450.938	53.796	-0.443	0.431
-449.924	-127.909	-0.473	0.069
-448.909	-48.537	0.251	0.122
-447.895	13.782	0.066	-0.052
-446.880	-200.000	0.002	-0.087
-445.865	-177.817	0.303	-0.007
-444.851	-86.920	0.260	0.080
-443.836	83.549	-0.166	0.183
-442.822	800.000	0.027	-0.109
-441.807	249.522	0.089	-0.153
-440.792	38.989	0.109	0.099
-439.778	-40.829	0.239	-0.125
-438.763	271.896	0.116	0.206
-437.749	172.337	0.085	0.124
-436.734	-85.085	-0.076	0.024
-435.719	-169.335	0.174	-0.006
-434.705	549.661	-0.072	0.174
-433.690	583.857	-0.097	-0.242
-432.676	-161.768	-0.212	-0.011
-431.661	-51.059	0.167	0.079
-430.646	-83.033	-0.327	0.106
-429.632	176.367	0.015	0.022
-428.617	36.776	-0.174	-0.155
-427.603	122.953	-0.149	-0.188
-426.588	-200.000	0.046	-0.247
-425.573	-200.000	-0.043	-0.306
-424.559	-200.000	-0.040	0.236
-423.544	-200.000	0.018	-0.245
-422.530	800.000	-0.070	0.212
-421.515	-20.952	-0.225	-0.139
-420.500	12.068	0.155	0.120
-419.486	672.370	0.163	-0.428
-418.471	9.415	-0.117	-0.089
-417.457	-146.245	0.183	-0.016
-416.442	-46.117	0.226	-0.112
-415.428	5.104	-0.173	0.129
-414.413	-8.350	0.206	-0.140
-413.398	-54.848	0.256	0.117
-412.384	-129.116	0.158	0.022
-411.369	-200.000	-0.056	-0.381
-410.355	260.181	-0.126	0.220
-409.340	-12.691	0.121	0.080
-408.325	99.717	-0.211	0.247
-407.311	-89.883	0.161	-0.048
-406.296	25.041	0.240	0.201
-405.282	181.730	-0.020	0.030
-404.267	575.207	-0.014	0.034
-403.252	-200.000	-0.045	0.433
-402.238	800.000	-0.035	-0.139
-401.223	800.000	0.101	-0.302
-400.209	578.108	-0.052	-0.130
-399.194	118.357	-0.350	-0.436
-398.179	-200.000	-0.033	-0.252
-397.165	-33.122	-0.117	0.065
-396.150	96.614	0.116	0.134
-395.136	-200.000	0.006	-0.029
-394.121	-8.930	0.135	0.091
-393.106	-32.771	-0.171	0.096
-392.092	-77.895	-0.165	0.058
-391.077	358.865	-0.087	-0.176
-390.063	-111.944	0.228	-0.046
-389.048	-43.570	-0.214	0.109
-388.033	0.939	0.178	-0.129
-387.019	-58.404	-0.144	-0.063
-386.004	45.009	0.194	0.180
-384.990	-200.000	-0.025	0.131
-383.975	-200.000	-0.014	0.192
-382.960	-95.498	0.123	-0.033
-381.946	-131.724	0.099	-0.013
-380.931	138.554	-0.240	0.318
-379.917	-200.000	0.010	0.058
-378.902	169.611	0.095	0.137
-377.888	-200.000	-0.037	0.304
-376.873	-200.000	-0.022	0.147
-375.858	128.622	0.069	-0.089
-374.844	457.255	0.156	0.349
-373.829	-200.000	-0.003	-0.049
-372.815	155.877	0.060	-0.083
-371.800	123.675	-0.098	-0.125
-370.785	-200.000	0.007	0.137
-369.771	-200.000	-0.027	-0.138
-368.756	-7.134	-0.216	-0.148
-367.742	-200.000	-0.059	0.269
-366.727	-180.432	0.069	-0.001
-365.712	-2.461	-0.228	0.161
-364.698	-100.285	-0.163	0.041
-363.683	-83.983	-0.364	0.117
-362.669	-200.000	0.011	-0.195
-361.654	-133.926	0.377	0.047
-360.639	76.864	-0.108	-0.116
-359.625	800.000	-0.059	-0.241
-358.610	183.546	0.143	0.213
-357.596	-85.315	-0.272	-0.086
-356.581	800.000	-0.047	-0.146
-355.566	191.778	0.191	0.290
-354.552	338.194	-0.046	0.091
-353.537	-15.551	-0.160	0.103
-352.523	316.920	-0.122	-0.232
-351.508	238.612	0.104	0.175
-350.493	344.288	0.031	0.061
-349.479	-35.989	0.155	-0.085
-348.464	58.090	0.027	-0.027
-347.450	59.973	0.279	0.278
-346.435	-82.089	-0.139	0.046
-345.420	702.088	0.080	0.213
-344.406	105.596	-0.034	0.041
-343.391	-21.617	0.150	0.092
-342.377	-200.000	0.036	-0.181
-341.362	158.950	-0.110	0.155
-340.348	15.947	-0.222	-0.176
-339.333	199.030	-0.213	-0.328
-338.318	109.439	0.053	0.064
-337.304	244.734	0.045	0.076
-336.289	-82.171	-0.236	-0.077
-335.275	-200.000	0.004	-0.143
-334.260	-48.398	0.211	-0.102
-333.245	470.010	-0.045	-0.102
-332.231	2.990	0.139	0.102
-331.216	60.240	-0.148	-0.147
-330.202	-200.000	0.006	-0.048
-329.187	-200.000	0.050	0.232
-328.172	-200.000	0.078	0.530
-327.158	69.091	0.215	0.223
-326.143	-3.101	-0.243	-0.171
-325.129	317.251	0.052	0.099
-324.114	190.897	-0.207	0.314
-323.099	-200.000	-0.007	-0.214
-322.085	443.401	0.097	0.213
-321.070	-79.693	-0.119	0.041
-320.056	-5.492	-0.051	-0.035
-319.041	-200.000	0.002	0.322
-318.026	-200.000	-0.099	0.499
-317.012	-97.505	-0.251	-0.066
-315.997	110.271	0.292	-0.353
-314.983	-99.479	-0.062	-0.016
-313.968	-38.534	0.433	0.230
-312.953	-48.408	-0.137	-0.066
-311.939	53.483	-0.180	0.174
-310.924	-200.000	0.045	0.208
-309.910	171.791	-0.180	-0.260
-308.895	425.711	0.029	-0.063
-307.880	80.955	0.094	-0.102
-306.866	-109.066	0.260	-0.056
-305.851	800.000	0.089	-0.329
-304.837	-12.139	-0.047	0.031
-303.822	58.950	-0.097	0.096
-302.807	-100.363	-0.423	0.106
-301.793	-13.773	0.342	-0.223
-300.778	206.092	0.127	0.198
-299.764	645.773	-0.030	-0.077
-298.749	800.000	0.103	0.393
-297.735	800.000	0.035	-0.143
-296.720	-82.039	-0.170	0.056
-295.705	800.000	-0.033	-0.102
-294.691	-200.000	0.094	0.533
-293.676	-38.730	-0.228	0.121
-292.662	-200.000	-0.041	0.313
-291.647	187.446	0.145	0.218
-290.632	235.730	-0.044	0.073
-289.618	621.838	0.100	-0.253
-288.603	2.467	0.411	0.300
-287.589	-200.000	0.005	0.106
-286.574	800.000	0.029	0.087
-285.559	-126.554	-0.181	0.027
-284.545	-100.747	0.085	-0.021
-283.530	800.000	-0.026	0.098
-282.516	-74.287	0.209	-0.076
-281.501	-140.525	0.115	0.012
-280.486	-200.000	0.051	-0.297
-279.472	800.000	-0.026	-0.091
-278.457	-60.260	-0.237	0.102
-277.443	-67.628	-0.159	0.063
-276.428	-133.244	0.150	-0.019
-275.413	-29.386	0.143	-0.082
-274.399	429.369	0.035	0.075
-273.384	222.294	0.045	0.072
-272.370	-60.524	0.356	0.152
-271.355	-85.272	0.476	-0.150
-270.340	628.148	0.079	0.202
-269.326	-97.515	-0.197	0.052
-268.311	305.994	0.143	0.267
-267.297	68.688	0.060	-0.062
-266.282	355.023	0.215	-0.429
-265.267	15.221	-0.249	0.196
-264.253	64.694	-0.176	0.178
-263.238	-100.753	0.155	-0.038
-262.224	50.676	0.079	-0.075
-261.209	-200.000	0.027	0.132
-260.195	136.138	0.155	-0.203
-259.180	425.724	0.087	-0.187
-258.165	-69.205	0.077	0.030
-257.151	800.000	-0.071	-0.229
-256.136	-198.674	-0.309	-0.002
-255.122	10.656	-0.113	0.087
-254.107	-200.000	-0.037	0.165
-253.092	-200.000	0.031	-0.183
-252.078	-39.670	0.276	-0.145
-251.063	-97.980	-0.162	0.042
-250.049	-31.900	-0.125	-0.070
-249.034	97.243	-0.213	-0.245
-248.019	-162.258	-0.508	-0.025
-247.005	-200.000	-0.007	-0.143
-245.990	-35.082	0.311	-0.170
-244.976	-51.634	0.116	-0.054
-243.961	135.408	-0.042	-0.055
-242.946	-143.999	-0.142	0.013
-241.932	-200.000	0.051	-0.238
-240.917	-99.445	-0.310	0.078
-239.903	40.579	-0.051	0.046
-238.888	15.900	-0.142	0.112
-237.873	547.213	0.043	-0.104
-236.859	-200.000	-0.009	0.564
-235.844	115.073	-0.247	0.302
-234.830	81.604	-0.253	0.274
-233.815	800.000	0.041	-0.142
-232.800	-2.625	-0.260	-0.183
-231.786	-161.408	-0.230	0.012
-230.771	-35.464	-0.242	-0.132
-229.757	-38.495	0.198	0.105
-228.742	362.375	0.036	0.072
-227.727	-190.228	-0.036	-0.000
-226.713	649.426	0.102	0.261
-225.698	-167.054	0.238	-0.010
-224.684	13.937	0.126	-0.098
-223.669	-33.226	-0.318	0.176
-222.655	-200.000	-0.023	0.149
-221.640	53.088	-0.200	-0.192
-220.625	800.000	-0.064	0.280
-219.611	-69.216	0.194	0.075
-218.596	-46.628	0.260	0.128
-217.582	-200.000	0.011	0.078
-216.567	334.791	0.034	-0.067
-215.552	-200.000	0.034	0.359
-214.538	-111.270	0.267	-0.055
-213.523	-8.592	0.229	-0.154
-212.509	-184.594	-0.236	-0.004
-211.494	-170.152	-0.248	0.009
-210.479	-39.586	0.399	0.210
-209.465	-13.274	0.173	0.113
-208.450	-3.136	0.375	0.263
-207.436	-113.925	0.080	0.016
-206.421	129.074	0.105	0.135
-205.406	800.000	-0.079	-0.336
-204.392	-49.829	-0.169	0.081
-203.377	-180.992	-0.314	-0.006
-202.363	-200.000	-0.066	0.301
-201.348	77.893	-0.207	-0.221
-200.333	27.190	0.205	0.172
-199.319	320.924	0.112	0.213
-198.304	33.755	-0.200	-0.174
-197.290	684.657	0.060	0.158
-196.275	7.934	-0.068	-0.051
-195.260	125.112	0.142	-0.179
-194.246	1.402	-0.293	0.211
-193.231	-134.554	0.226	-0.028
-192.217	68.497	0.101	-0.104
-191.202	-161.098	-0.244	0.013
-190.187	171.213	-0.092	-0.132
-189.173	-82.307	0.067	0.022
-188.158	-93.884	-0.355	0.098
-187.144	-200.000	0.025	0.147
-186.129	-161.813	0.033	0.002
-185.114	74.974	0.087	0.092
-184.100	119.259	0.294	-0.365
-183.085	-4.855	-0.224	-0.155
-182.071	33.665	0.096	-0.083
-181.056	36.733	0.130	0.115
-180.042	-183.214	-0.090	-0.002
-179.027	741.516	0.025	-0.067
-178.012	-200.000	0.008	0.068
-176.998	153.944	0.231	0.317
-175.983	62.487	0.119	0.119
-174.969	-70.576	0.269	-0.102
-173.954	435.989	-0.116	-0.254
-172.939	-185.979	-0.103	0.002
-171.925	45.516	0.153	0.141
-170.910	211.442	-0.017	-0.026
-169.896	-200.000	-0.002	-0.140
-168.881	-143.436	-0.024	-0.002
-167.866	6.507	-0.261	0.194
-166.852	126.519	0.048	-0.061
-165.837	153.375	-0.107	-0.146
-164.823	-200.000	0.008	-0.304
-163.808	-200.000	0.006	0.056
-162.793	274.783	-0.144	-0.256
-161.779	123.960	-0.152	-0.191
-160.764	-139.939	0.163	0.017
-159.750	-101.056	-0.414	-0.102
-158.735	-112.176	-0.098	0.020
-157.720	289.354	-0.145	-0.262
-156.706	-200.000	-0.020	0.368
-155.691	297.249	0.158	0.290
-154.677	-49.863	-0.335	-0.159
-153.662	402.029	0.114	0.239
-152.647	-200.000	0.012	0.056
-151.633	325.024	0.054	0.102
-150.618	-2.370	0.341	-0.239
-149.604	-69.988	0.114	0.043
-148.589	164.534	0.043	-0.061
-147.574	-155.087	-0.083	-0.005
-146.560	-23.763	0.083	-0.050
-145.545	76.392	-0.172	0.182
-144.531	-152.165	-0.136	0.010
-143.516	-200.000	-0.051	0.377
-142.502	13.283	-0.194	0.150
-141.487	800.000	0.060	-0.232
-140.472	734.158	0.043	-0.114
-139.458	-56.505	0.108	0.048
-138.443	12.186	-0.356	0.274
-137.429	-200.000	0.015	-0.220
-136.414	-13.922	-0.065	-0.042
-135.399	-200.000	0.025	0.421
-134.385	-47.458	0.135	-0.066
-133.370	800.000	0.035	0.150
-132.356	81.477	-0.087	-0.094
-131.341	-123.041	0.267	0.043
-130.326	-33.916	0.219	0.121
-129.312	568.558	0.023	-0.057
-128.297	-42.560	-0.165	0.084
-127.283	-93.317	-0.407	0.113
-126.268	-75.914	0.403	0.143
-125.253	-50.933	-0.118	0.055
-124.239	-130.460	0.155	0.021
-123.224	44.026	0.221	-0.203
-122.210	-200.000	0.018	-0.092
-121.195	241.863	-0.146	0.244
