DTS Sentinel unit serial number:	SN413079Multiplexer serial number:	ORYXHardware model number:	OX4-SRSoftware version number:	ORYX F/W v4.00 Oryx Data Collector v3.7.2.0data status	okinstallation	princeton_trtdifferential loss correction	single-endedforward channel	channel 1reverse channel	N/Adate	2019/09/12time	03:44:11forward acquisition time	60.00reverse acquisition time	0.00gamma	496.2192k internal	0.2322k external	0.2322temperature offset calibration	1.0085default loss term (dB/km)	0.3790temperature slope calibration	1.0000multiplexer offset coefficient	1.0000multiplexer slope coefficient	1.0000fibre end	0.00T internal ref (°C)	32.16T ext. ref 1 (°C)	2.14T ext. ref 2 (°C)	27.33length (m)	temperature (°C)	Stokes	anti-Stokes-747.200	-117.094	0.076	-0.014
-746.185	-48.682	-0.243	-0.118
-745.171	16.543	-0.041	-0.033
-744.156	36.805	0.090	-0.080
-743.142	-25.364	0.181	0.108
-742.127	-200.000	-0.060	0.404
-741.112	800.000	-0.041	0.145
-740.098	360.844	-0.208	0.421
-739.083	-84.887	-0.173	0.055
-738.069	213.150	-0.124	-0.197
-737.054	-139.444	-0.188	-0.020
-736.039	309.016	-0.179	0.337
-735.025	-98.145	0.047	0.012
-734.010	-170.729	-0.148	0.005
-732.996	226.125	-0.259	-0.424
-731.981	800.000	-0.069	0.223
-730.966	-50.320	-0.052	0.025
-729.952	602.450	-0.103	0.259
-728.937	-200.000	0.001	-0.048
-727.923	309.158	0.103	0.194
-726.908	-158.958	-0.328	0.019
-725.894	-43.981	0.055	-0.028
-724.879	-200.000	0.013	-0.327
-723.864	352.672	-0.181	0.363
-722.850	253.573	-0.065	0.111
-721.835	223.301	0.018	-0.029
-720.821	70.101	0.136	-0.141
-719.806	-123.929	0.183	-0.029
-718.791	6.561	0.175	-0.131
-717.777	-28.853	-0.272	-0.158
-716.762	-153.252	0.248	0.017
-715.748	558.564	0.080	0.194
-714.733	800.000	0.051	-0.201
-713.718	371.577	-0.071	-0.145
-712.704	800.000	-0.031	-0.105
-711.689	800.000	0.067	-0.250
-710.675	-140.635	0.228	-0.024
-709.660	-56.775	0.256	-0.114
-708.645	2.624	0.259	-0.189
-707.631	377.246	-0.054	0.112
-706.616	-11.813	-0.172	-0.114
-705.602	-200.000	0.012	0.070
-704.587	-86.003	0.141	-0.044
-703.572	-27.538	0.154	0.090
-702.558	-200.000	0.001	0.126
-701.543	800.000	-0.038	-0.150
-700.529	311.571	0.132	-0.250
-699.514	-200.000	0.002	0.271
-698.499	22.503	-0.144	-0.119
-697.485	800.000	0.086	0.284
-696.470	-103.673	-0.111	-0.026
-695.456	-131.285	-0.072	-0.010
-694.441	-105.307	0.271	-0.062
-693.426	-125.374	0.105	-0.016
-692.412	-200.000	-0.007	0.372
-691.397	-147.295	-0.137	-0.012
-690.383	-200.000	0.022	-0.294
-689.368	-166.761	-0.172	-0.007
-688.354	13.649	0.331	0.259
-687.339	-149.959	-0.360	0.028
-686.324	94.279	0.149	0.170
-685.310	545.116	0.087	-0.210
-684.295	-64.274	-0.114	-0.047
-683.281	-55.895	-0.244	-0.110
-682.266	62.849	-0.196	0.197
-681.251	-126.622	0.204	-0.030
-680.237	-139.892	0.230	-0.025
-679.222	-200.000	-0.007	-0.032
-678.208	142.714	-0.172	-0.230
-677.193	78.451	0.050	0.054
-676.178	-189.682	0.446	0.005
-675.164	-2.270	-0.223	0.158
-674.149	800.000	0.025	-0.084
-673.135	386.360	-0.083	-0.173
-672.120	386.129	0.111	-0.231
-671.105	101.737	0.029	0.034
-670.091	-121.174	0.251	0.042
-669.076	209.413	0.066	0.104
-668.062	377.056	0.028	-0.057
-667.047	-200.000	-0.045	-0.218
-666.032	-38.416	-0.176	-0.094
-665.018	199.542	-0.035	-0.054
-664.003	-200.000	0.164	-0.000
-662.989	651.929	0.092	-0.238
-661.974	96.282	0.172	-0.199
-660.959	-200.000	-0.045	-0.235
-659.945	20.715	0.316	-0.257
-658.930	-43.898	-0.038	0.019
-657.916	206.762	-0.050	0.078
-656.901	111.502	-0.172	-0.209
-655.886	101.665	0.158	0.185
-654.872	800.000	-0.038	0.114
-653.857	306.747	0.126	0.235
-652.843	243.048	0.328	0.553
-651.828	66.334	-0.133	0.136
-650.814	-6.524	-0.107	0.074
-649.799	-62.021	-0.225	0.095
-648.784	377.207	0.035	-0.072
-647.770	-133.579	0.185	0.023
-646.755	800.000	0.103	-0.356
-645.741	-76.781	-0.256	0.090
-644.726	56.522	0.079	0.078
-643.711	243.861	-0.095	-0.161
-642.697	-113.517	0.183	-0.036
-641.682	-165.690	0.221	0.010
-640.668	-200.000	-0.002	0.036
-639.653	-200.000	-0.008	0.035
-638.638	90.482	-0.110	0.124
-637.624	-96.673	0.221	0.059
-636.609	131.718	0.006	-0.008
-635.595	800.000	-0.114	0.366
-634.580	800.000	0.135	-0.406
-633.565	-13.129	0.111	-0.072
-632.551	-1.002	0.069	-0.049
-631.536	-182.590	-0.422	-0.008
-630.522	203.337	-0.075	-0.116
-629.507	88.198	-0.096	-0.107
-628.492	11.478	0.184	0.142
-627.478	-200.000	-0.021	0.269
-626.463	-47.269	0.224	0.110
-625.449	-111.157	-0.176	0.036
-624.434	4.602	-0.281	-0.207
-623.419	-200.000	0.079	0.365
-622.405	-114.717	-0.067	0.013
-621.390	139.609	-0.149	0.197
-620.376	117.416	0.075	-0.093
-619.361	-200.000	-0.001	-0.052
-618.346	-141.988	0.213	0.021
-617.332	84.561	0.318	0.350
-616.317	-200.000	-0.019	0.119
-615.303	-200.000	0.009	-0.116
-614.288	-111.792	-0.167	-0.034
-613.273	-200.000	0.005	-0.075
-612.259	357.845	-0.026	-0.053
-611.244	-200.000	-0.027	0.143
-610.230	800.000	0.079	-0.255
-609.215	-5.082	-0.036	-0.025
-608.201	496.455	0.061	0.142
-607.186	-60.391	0.207	-0.089
-606.171	800.000	0.123	0.358
-605.157	800.000	-0.151	0.487
-604.142	-58.863	0.249	0.108
-603.128	-200.000	0.015	0.199
-602.113	-136.274	-0.190	-0.022
-601.098	-90.225	-0.286	-0.083
-600.084	-97.316	0.296	0.078
-599.069	54.438	-0.297	-0.288
-598.055	-24.876	0.159	0.095
-597.040	-140.741	0.148	0.015
-596.025	800.000	-0.053	0.211
-595.011	800.000	-0.071	0.230
-593.996	49.378	-0.156	-0.148
-592.982	-200.000	0.021	-0.228
-591.967	37.326	-0.412	-0.367
-590.952	-2.464	-0.071	0.050
-589.938	800.000	-0.072	0.260
-588.923	29.986	-0.145	0.124
-587.909	88.955	-0.161	0.180
-586.894	-71.628	0.212	0.079
-585.879	-102.232	-0.184	-0.044
-584.865	800.000	-0.051	-0.189
-583.850	-17.328	-0.071	-0.045
-582.836	80.482	-0.311	-0.337
-581.821	-158.221	-0.247	0.015
-580.806	214.943	-0.139	-0.221
-579.792	304.722	-0.031	0.058
-578.777	-51.020	-0.103	0.048
-577.763	214.316	0.116	0.184
-576.748	-200.000	-0.001	0.189
-575.733	-64.150	-0.233	-0.096
-574.719	-200.000	0.005	0.354
-573.704	-82.682	-0.321	-0.104
-572.690	800.000	-0.053	-0.233
-571.675	92.857	-0.150	-0.170
-570.661	554.838	-0.074	0.178
-569.646	267.380	-0.084	-0.147
-568.631	129.852	-0.080	0.102
-567.617	86.097	-0.180	-0.199
-566.602	141.309	0.125	0.167
-565.588	800.000	0.114	-0.458
-564.573	800.000	-0.028	0.095
-563.558	800.000	-0.043	-0.129
-562.544	45.953	-0.308	0.286
-561.529	-75.738	-0.195	0.069
-560.515	-20.986	-0.360	-0.221
-559.500	317.925	-0.130	-0.247
-558.485	139.126	-0.107	-0.141
-557.471	374.002	0.101	-0.206
-556.456	-159.600	-0.365	0.020
-555.442	800.000	-0.111	-0.369
-554.427	-134.502	0.131	-0.016
-553.412	239.916	0.147	-0.246
-552.398	22.534	0.104	0.085
-551.383	26.866	0.206	0.173
-550.369	110.483	-0.116	-0.140
-549.354	-25.093	0.118	0.070
-548.339	-128.034	0.024	-0.003
-547.325	-91.879	-0.068	0.019
-546.310	82.063	0.203	-0.221
-545.296	800.000	0.106	-0.296
-544.281	-10.264	0.278	-0.185
-543.266	259.431	0.090	-0.155
-542.252	-35.779	-0.290	0.157
-541.237	399.047	-0.227	-0.476
-540.223	800.000	0.055	-0.167
-539.208	-178.236	-0.077	-0.002
-538.193	-42.087	0.276	0.141
-537.179	-110.135	-0.255	0.053
-536.164	800.000	0.042	0.122
-535.150	-97.987	0.177	-0.046
-534.135	-39.651	-0.159	-0.083
-533.121	40.960	-0.030	0.027
-532.106	571.064	0.110	-0.269
-531.091	48.259	-0.197	-0.185
-530.077	-119.697	0.259	0.045
-529.062	214.051	-0.072	0.114
-528.048	-74.302	0.332	0.120
-527.033	-53.169	-0.101	-0.047
-526.018	-95.611	-0.464	0.124
-525.004	-200.000	-0.369	0.002
-523.989	-128.654	-0.285	0.040
-522.975	69.314	-0.167	0.172
-521.960	391.107	0.123	-0.256
-520.945	136.628	0.095	0.125
-519.931	90.749	-0.028	0.032
-518.916	131.975	-0.114	-0.148
-517.902	522.866	0.071	-0.166
-516.887	-200.000	-0.012	0.218
-515.872	97.205	0.128	0.148
-514.858	-155.091	0.415	-0.027
-513.843	-71.255	-0.439	0.165
-512.829	800.000	-0.083	-0.348
-511.814	-4.210	0.036	-0.025
-510.799	563.048	-0.139	0.338
-509.785	-200.000	-0.066	0.441
-508.770	-152.772	0.170	-0.012
-507.756	800.000	-0.086	-0.331
-506.741	610.922	0.109	0.272
-505.726	-120.239	0.313	0.054
-504.712	-200.000	-0.012	-0.151
-503.697	-200.000	0.049	-0.246
-502.683	800.000	-0.054	-0.155
-501.668	388.745	-0.203	0.421
-500.653	84.607	0.065	0.071
-499.639	-200.000	0.060	-0.342
-498.624	-3.945	-0.174	-0.121
-497.610	-200.000	0.004	-0.081
-496.595	-33.994	-0.134	0.074
-495.581	-200.000	0.016	0.112
-494.566	800.000	0.101	0.394
-493.551	-126.868	0.053	0.008
-492.537	81.696	-0.152	0.164
-491.522	-132.119	0.300	0.039
-490.508	-200.000	0.012	0.184
-489.493	800.000	0.055	-0.214
-488.478	-2.361	0.211	0.148
-487.464	-200.000	-0.016	0.249
-486.449	-11.073	-0.150	-0.099
-485.435	276.912	-0.080	0.142
-484.420	-79.818	0.202	0.068
-483.405	-3.407	-0.203	0.141
-482.391	-107.395	-0.210	0.046
-481.376	-200.000	-0.001	-0.044
-480.362	104.360	-0.315	0.371
-479.347	416.902	-0.083	-0.178
-478.332	55.027	-0.165	-0.160
-477.318	-200.000	0.034	0.192
-476.303	-57.153	0.300	-0.132
-475.289	-200.000	0.027	0.233
-474.274	84.619	-0.093	-0.102
-473.259	-25.636	0.237	0.140
-472.245	-39.872	-0.230	0.120
-471.230	40.873	0.217	0.196
-470.216	19.909	-0.216	0.174
-469.201	-200.000	-0.004	-0.135
-468.186	97.131	0.217	-0.249
-467.172	-200.000	-0.316	0.001
-466.157	-54.243	-0.299	-0.136
-465.143	800.000	-0.071	0.263
-464.128	800.000	-0.008	-0.025
-463.113	70.340	-0.326	-0.336
-462.099	-118.966	-0.410	0.072
-461.084	-111.876	0.253	0.051
-460.070	460.665	-0.094	0.209
-459.055	203.536	0.139	-0.215
-458.040	98.364	-0.075	0.087
-457.026	-36.731	-0.340	-0.182
-456.011	200.801	0.105	-0.161
-454.997	-166.204	-0.327	-0.014
-453.982	-200.000	-0.017	-0.389
-452.968	29.153	0.153	-0.129
-451.953	25.947	0.111	-0.092
-450.938	-100.208	0.174	-0.043
-449.924	-88.187	-0.111	-0.033
-448.909	-200.000	0.085	-0.383
-447.895	5.612	-0.193	-0.142
-446.880	800.000	0.091	-0.257
-445.865	29.176	-0.060	0.051
-444.851	-40.579	-0.070	0.036
-443.836	58.200	-0.065	0.064
-442.822	-50.944	0.075	-0.035
-441.807	-47.287	0.078	-0.038
-440.792	338.243	0.092	-0.179
-439.778	120.708	-0.217	-0.269
-438.763	67.085	0.148	-0.150
-437.749	47.742	-0.122	-0.113
-436.734	-45.113	-0.229	-0.114
-435.719	800.000	0.027	-0.110
-434.705	-61.641	0.324	0.136
-433.690	-141.346	-0.204	-0.021
-432.676	229.828	0.088	-0.144
-431.661	-29.179	-0.184	0.106
-430.646	-145.795	0.325	0.029
-429.632	451.196	0.079	-0.173
-428.617	800.000	0.067	-0.200
-427.603	11.599	0.037	-0.028
-426.588	164.422	-0.162	-0.227
-425.573	-79.784	-0.191	0.064
-424.559	800.000	-0.083	-0.286
-423.544	-62.281	-0.221	0.092
-422.530	16.985	0.148	0.117
-421.515	-192.354	0.264	0.002
-420.500	800.000	-0.076	-0.257
-419.486	44.310	0.213	-0.195
-418.471	35.678	-0.153	-0.134
-417.457	-91.999	0.248	0.070
-416.442	-60.950	0.226	0.095
-415.428	-35.448	0.321	0.174
-414.413	-41.414	0.212	-0.109
-413.398	35.151	0.241	0.210
-412.384	12.688	-0.118	-0.091
-411.369	29.818	0.100	-0.085
-410.355	-53.533	-0.195	-0.089
-409.340	266.844	-0.082	-0.142
-408.325	-24.897	0.264	0.156
-407.311	-27.132	0.221	-0.129
-406.296	-135.484	-0.152	0.018
-405.282	561.874	0.071	-0.171
-404.267	122.920	0.221	0.276
-403.252	-43.743	-0.174	-0.087
-402.238	-165.279	-0.192	0.008
-401.223	-137.693	-0.254	0.028
-400.209	-200.000	0.020	-0.265
-399.194	9.592	0.128	-0.097
-398.179	-200.000	-0.006	-0.042
-397.165	-200.000	0.010	0.201
-396.150	36.705	0.227	-0.200
-395.136	-81.429	-0.061	-0.020
-394.121	37.852	-0.062	0.055
-393.106	271.079	-0.005	-0.008
-392.092	-200.000	0.000	0.195
-391.077	800.000	-0.091	0.323
-390.063	89.562	0.061	-0.067
-389.048	178.265	0.022	-0.032
-388.033	-200.000	0.005	0.028
-387.019	-118.468	0.447	-0.079
-386.004	204.731	-0.168	0.260
-384.990	-200.000	-0.136	0.598
-383.975	-63.382	0.139	0.057
-382.960	27.449	-0.202	-0.169
-381.946	555.183	-0.079	0.191
-380.931	579.232	0.056	0.137
-379.917	748.543	0.028	0.075
-378.902	800.000	0.071	0.304
-377.888	-200.000	0.001	-0.025
-376.873	382.924	0.103	0.212
-375.858	-7.937	-0.364	-0.245
-374.844	-200.000	-0.025	0.117
-373.829	800.000	0.073	0.240
-372.815	800.000	-0.059	0.235
-371.800	98.500	0.147	0.169
-370.785	-200.000	0.012	-0.055
-369.771	-200.000	0.000	-0.123
-368.756	-200.000	-0.050	-0.239
-367.742	-57.520	-0.201	-0.088
-366.727	2.354	-0.226	0.163
-365.712	-200.000	0.002	-0.140
-364.698	-200.000	0.016	0.172
-363.683	-114.623	0.055	-0.011
-362.669	-200.000	0.037	0.189
-361.654	800.000	0.028	0.090
-360.639	268.445	0.062	0.109
-359.625	-122.714	0.397	0.064
-358.610	-200.000	-0.000	0.237
-357.596	20.308	-0.104	-0.083
-356.581	78.167	-0.173	-0.183
-355.566	-11.340	0.125	-0.082
-354.552	13.848	-0.034	0.026
-353.537	-64.991	0.181	0.073
-352.523	-200.000	0.065	-0.363
-351.508	-15.374	0.201	0.128
-350.493	8.224	0.116	0.087
-349.479	528.487	-0.082	0.194
-348.464	-128.774	-0.161	0.023
-347.450	-69.528	0.405	-0.154
-346.435	9.266	0.168	0.126
-345.420	302.959	0.137	-0.252
-344.406	-114.603	-0.156	0.030
-343.391	-143.005	0.303	0.029
-342.377	-54.656	0.242	0.109
-341.362	-112.634	0.052	-0.010
-340.348	-12.430	0.169	0.110
-339.333	-115.747	0.214	0.040
-338.318	-46.719	0.345	-0.168
-337.304	89.192	0.052	0.058
-336.289	115.979	0.109	0.133
-335.275	8.504	-0.200	-0.150
-334.260	-130.392	-0.218	-0.029
-333.245	103.112	-0.219	0.255
-332.231	-127.563	-0.046	-0.007
-331.216	117.250	0.166	0.203
-330.202	-0.954	-0.214	-0.151
-329.187	-20.479	0.329	0.201
-328.172	-200.000	0.030	-0.237
-327.158	-56.815	0.274	-0.120
-326.143	-200.000	0.001	-0.159
-325.129	103.816	0.079	0.092
-324.114	35.119	0.465	0.405
-323.099	-29.456	-0.129	0.073
-322.085	3.817	-0.038	0.027
-321.070	555.685	0.035	-0.083
-320.056	-21.668	-0.355	0.215
-319.041	800.000	0.097	0.298
-318.026	-34.071	0.156	-0.085
-317.012	-129.003	0.175	0.024
-315.997	-67.557	-0.068	-0.027
-314.983	133.786	-0.289	-0.372
-313.968	12.242	-0.102	0.078
-312.953	79.374	-0.074	0.078
-311.939	-200.000	0.006	0.407
-310.924	-118.921	0.083	-0.014
-309.910	-200.000	-0.037	0.230
-308.895	-34.609	-0.121	0.066
-307.880	-55.065	-0.411	0.184
-306.866	38.292	0.259	0.229
-305.851	-68.428	0.196	0.075
-304.837	-46.135	-0.210	-0.103
-303.822	321.298	-0.081	-0.153
-302.807	91.283	0.089	0.099
-301.793	800.000	0.051	0.217
-300.778	370.866	0.106	-0.214
-299.764	-200.000	-0.089	-0.567
-298.749	62.470	0.101	-0.100
-297.735	54.856	0.217	-0.208
-296.720	-80.634	-0.036	0.012
-295.705	228.444	0.122	0.197
-294.691	800.000	0.035	-0.131
-293.676	128.939	0.234	-0.297
-292.662	276.469	0.109	-0.193
-291.647	-200.000	0.065	0.436
-290.632	-119.374	0.237	-0.041
-289.618	-93.191	0.374	0.103
-288.603	517.667	-0.034	-0.079
-287.589	800.000	0.017	0.070
-286.574	-28.656	0.049	-0.028
-285.559	585.397	0.103	0.251
-284.545	357.508	0.153	0.303
-283.530	-184.895	-0.135	-0.002
-282.516	12.257	0.410	0.313
-281.501	44.110	-0.105	0.095
-280.486	-13.527	0.083	-0.053
-279.472	564.267	0.133	-0.320
-278.457	-22.494	-0.078	-0.047
-277.443	800.000	-0.053	-0.183
-276.428	-76.752	-0.271	-0.094
-275.413	31.029	0.103	-0.088
-274.399	-152.939	-0.061	0.004
-273.384	-200.000	0.014	0.171
-272.370	-24.683	-0.199	0.117
-271.355	-200.000	-0.005	-0.064
-270.340	800.000	0.099	-0.393
-269.326	-200.000	-0.012	-0.284
-268.311	800.000	0.081	-0.341
-267.297	-39.457	-0.307	0.160
-266.282	36.303	-0.191	-0.167
-265.267	-47.767	0.244	-0.117
-264.253	-200.000	0.044	0.193
-263.238	49.281	0.056	-0.053
-262.224	241.384	-0.139	-0.230
-261.209	-200.000	0.049	-0.268
-260.195	149.052	-0.347	0.465
-259.180	15.213	-0.147	-0.114
-258.165	-106.650	-0.273	0.060
-257.151	-200.000	-0.020	0.193
-256.136	52.118	-0.135	-0.127
-255.122	395.668	0.055	-0.114
-254.107	616.885	-0.001	0.002
-253.092	-26.436	-0.270	-0.157
-252.078	-64.352	0.078	-0.032
-251.063	-200.000	-0.009	0.109
-250.049	-86.284	-0.068	-0.021
-249.034	-24.520	0.279	0.165
-248.019	-149.310	-0.243	-0.019
-247.005	369.285	0.048	0.096
-245.990	-92.696	-0.126	-0.035
-244.976	68.338	0.110	-0.111
-243.961	-55.200	-0.302	0.135
-242.946	800.000	-0.127	-0.356
-241.932	3.954	0.146	-0.106
-240.917	-200.000	0.024	-0.183
-239.903	-200.000	-0.014	0.125
-238.888	-200.000	0.060	0.289
-237.873	-84.040	-0.168	0.053
-236.859	225.443	-0.065	-0.104
-235.844	745.219	-0.070	0.185
-234.830	-62.547	0.075	0.031
-233.815	-6.298	0.143	0.097
-232.800	800.000	-0.028	-0.122
-231.786	231.633	-0.036	-0.058
-230.771	800.000	-0.057	0.195
-229.757	-49.179	0.202	0.095
-228.742	-64.502	-0.083	0.034
-227.727	148.562	0.150	0.201
-226.713	800.000	0.047	0.168
-225.698	-76.008	-0.097	0.034
-224.684	-92.196	0.233	-0.065
-223.669	201.082	0.152	-0.231
-222.655	-53.717	0.317	0.143
-221.640	-74.175	0.168	0.060
-220.625	100.548	-0.189	0.217
-219.611	331.587	-0.090	0.172
-218.596	-105.374	0.372	-0.084
-217.582	-145.182	-0.425	-0.038
-216.567	-164.313	0.128	-0.006
-215.552	-42.148	0.191	0.096
-214.538	74.557	0.108	0.113
-213.523	10.137	-0.094	0.071
-212.509	-64.421	-0.260	-0.105
-211.494	-52.407	0.265	0.122
-210.479	800.000	0.080	-0.239
-209.465	800.000	-0.108	-0.313
-208.450	-200.000	-0.007	0.086
-207.436	800.000	-0.070	0.210
-206.421	-200.000	-0.062	0.269
-205.406	68.085	0.322	-0.326
-204.392	-78.871	0.292	0.099
-203.377	800.000	0.030	-0.100
-202.363	-3.539	-0.221	-0.152
-201.348	60.727	-0.284	-0.278
-200.333	-70.961	0.158	-0.059
-199.319	800.000	-0.019	-0.064
-198.304	58.550	-0.112	-0.108
-197.290	-200.000	-0.007	0.072
-196.275	800.000	0.045	-0.128
-195.260	21.112	-0.091	-0.073
-194.246	458.119	0.101	-0.223
-193.231	95.039	-0.201	0.226
-192.217	-200.000	-0.014	0.247
-191.202	800.000	-0.047	0.185
-190.187	800.000	0.074	0.224
-189.173	-78.304	0.090	-0.031
-188.158	241.321	-0.118	-0.195
-187.144	-200.000	0.013	-0.180
-186.129	-113.149	-0.160	0.031
-185.114	-30.258	-0.198	-0.111
-184.100	-4.339	0.145	0.099
-183.085	1.672	-0.139	-0.099
-182.071	800.000	-0.020	-0.069
-181.056	-3.028	0.219	0.151
-180.042	409.138	0.134	0.281
-179.027	-74.829	0.138	0.049
-178.012	-109.471	-0.209	0.044
-176.998	-92.435	0.197	-0.055
-175.983	-153.132	0.100	0.007
-174.969	44.291	0.066	-0.060
-173.954	-124.514	0.304	0.047
-172.939	250.075	0.275	0.461
-171.925	-69.361	0.571	0.217
-170.910	-58.096	-0.321	-0.138
-169.896	-109.028	0.210	-0.044
-168.881	-113.895	0.127	-0.024
-167.866	-52.613	0.169	-0.077
-166.852	33.429	0.032	0.028
-165.837	-170.513	-0.215	0.007
-164.823	-200.000	-0.012	-0.119
-163.808	-100.572	-0.170	-0.041
-162.793	-32.046	-0.189	0.104
-161.779	340.477	0.132	0.255
-160.764	-130.118	-0.285	-0.038
-159.750	14.665	0.269	0.208
-158.735	-173.874	0.238	0.007
-157.720	-200.000	0.001	-0.048
-156.706	-200.000	0.026	-0.332
-155.691	121.673	-0.227	0.280
-154.677	800.000	0.044	-0.134
-153.662	-95.424	0.166	-0.044
-152.647	-200.000	-0.026	-0.162
-151.633	-200.000	-0.068	-0.345
-150.618	462.852	-0.112	-0.248
-149.604	800.000	-0.151	-0.525
-148.589	243.662	0.099	0.163
-147.574	88.063	-0.235	0.258
-146.560	66.846	0.090	0.091
-145.545	131.395	0.165	0.209
-144.531	-118.807	-0.396	0.069
-143.516	-33.741	-0.155	0.084
-142.502	-200.000	0.005	-0.071
-141.487	606.434	-0.094	-0.232
-140.472	33.362	0.318	-0.272
-139.458	144.182	-0.073	-0.096
-138.443	-200.000	-0.026	-0.178
-137.429	24.523	-0.097	0.079
-136.414	543.448	-0.063	-0.149
-135.399	183.581	0.105	-0.153
-134.385	18.374	-0.115	-0.091
-133.370	-149.806	0.167	-0.013
-132.356	800.000	0.113	-0.344
-131.341	4.497	0.113	0.082
-130.326	-159.191	0.309	0.017
-129.312	113.529	-0.211	-0.253
-128.297	-127.124	0.244	-0.035
-127.283	-200.000	0.043	-0.400
-126.268	100.320	-0.149	-0.170
-125.253	127.051	0.264	-0.330
-124.239	-200.000	0.024	0.396
-123.224	-200.000	-0.021	-0.187
-122.210	-43.693	-0.275	-0.136
-121.195	-200.000	0.040	0.244
