DTS Sentinel unit serial number:	SN413079Multiplexer serial number:	ORYXHardware model number:	OX4-SRSoftware version number:	ORYX F/W v4.00 Oryx Data Collector v3.7.2.0data status	okinstallation	princeton_trtdifferential loss correction	single-endedforward channel	channel 1reverse channel	N/Adate	2019/09/12time	16:04:11forward acquisition time	60.00reverse acquisition time	0.00gamma	496.2192k internal	0.2299k external	0.2299temperature offset calibration	1.0083default loss term (dB/km)	0.3790temperature slope calibration	1.0000multiplexer offset coefficient	1.0000multiplexer slope coefficient	1.0000fibre end	0.00T internal ref (°C)	38.80T ext. ref 1 (°C)	2.51T ext. ref 2 (°C)	31.75length (m)	temperature (°C)	Stokes	anti-Stokes-747.200	-39.565	0.134	0.072
-746.185	-44.967	-0.139	0.070
-745.171	762.744	-0.041	-0.115
-744.156	-105.531	0.362	0.084
-743.142	713.338	0.125	0.339
-742.127	-200.000	0.019	0.205
-741.112	194.745	-0.257	0.398
-740.098	-59.597	-0.266	0.116
-739.083	47.235	0.185	-0.176
-738.069	257.852	0.052	0.091
-737.054	-200.000	0.021	-0.381
-736.039	-200.000	-0.010	-0.184
-735.025	130.485	0.156	0.203
-734.010	800.000	-0.048	-0.195
-732.996	516.762	0.037	-0.088
-731.981	-9.311	-0.105	0.071
-730.966	-200.000	0.032	-0.345
-729.952	-200.000	0.035	-0.424
-728.937	800.000	0.064	0.245
-727.923	29.827	0.102	0.089
-726.908	65.567	-0.313	-0.323
-725.894	-79.642	-0.134	0.046
-724.879	454.323	-0.085	0.192
-723.864	-200.000	-0.007	-0.248
-722.850	-200.000	-0.048	0.257
-721.835	753.375	-0.024	-0.066
-720.821	-111.120	-0.166	-0.035
-719.806	800.000	0.012	-0.046
-718.791	-200.000	-0.004	-0.075
-717.777	4.057	0.040	-0.030
-716.762	-73.810	-0.226	-0.084
-715.748	-200.000	0.001	-0.240
-714.733	-200.000	-0.069	-0.433
-713.718	34.969	-0.197	-0.176
-712.704	149.179	0.066	0.091
-711.689	-180.189	-0.177	-0.004
-710.675	-48.760	-0.175	-0.085
-709.660	94.305	-0.105	-0.122
-708.645	198.835	0.068	0.106
-707.631	800.000	-0.033	0.101
-706.616	167.733	0.338	-0.489
-705.602	-200.000	-0.005	0.070
-704.587	-63.225	0.455	-0.191
-703.572	465.946	0.069	-0.157
-702.558	-117.773	-0.192	0.035
-701.543	-200.000	-0.028	-0.200
-700.529	-96.702	-0.130	0.035
-699.514	-75.366	-0.131	0.047
-698.499	-200.000	-0.005	0.113
-697.485	800.000	-0.117	-0.485
-696.470	-2.354	0.116	-0.083
-695.456	-127.099	0.209	0.031
-694.441	141.004	-0.219	-0.295
-693.426	800.000	-0.049	0.158
-692.412	244.769	-0.111	0.190
-691.397	91.721	-0.144	-0.165
-690.383	39.403	0.123	0.112
-689.368	-172.588	-0.123	-0.004
-688.354	-72.541	0.523	0.197
-687.339	-200.000	-0.024	0.167
-686.324	-47.872	0.220	0.109
-685.310	-104.370	-0.275	0.065
-684.295	-145.054	0.135	0.012
-683.281	303.781	0.063	0.120
-682.266	-200.000	0.042	0.218
-681.251	-130.360	-0.342	0.047
-680.237	-24.365	-0.094	-0.057
-679.222	-129.660	0.204	0.029
-678.208	75.757	-0.129	-0.139
-677.193	-200.000	0.015	-0.234
-676.178	110.590	0.045	-0.055
-675.164	386.447	-0.061	-0.129
-674.149	-100.349	-0.162	0.041
-673.135	800.000	-0.023	0.065
-672.120	-112.935	0.203	0.041
-671.105	169.352	0.082	-0.119
-670.091	-200.000	0.083	-0.547
-669.076	-150.135	-0.345	0.027
-668.062	638.702	-0.043	0.111
-667.047	131.771	0.071	-0.093
-666.032	-200.000	0.021	-0.258
-665.018	26.632	-0.144	-0.122
-664.003	-200.000	-0.036	-0.179
-662.989	-14.911	0.026	0.017
-661.974	-79.283	0.150	-0.052
-660.959	1.765	-0.110	-0.081
-659.945	-37.160	0.463	-0.252
-658.930	504.897	-0.132	-0.312
-657.916	-143.465	-0.266	-0.026
-656.901	-158.493	0.493	0.029
-655.886	717.188	-0.098	0.266
-654.872	-200.000	-0.004	-0.132
-653.857	654.380	-0.085	-0.222
-652.843	-60.277	-0.177	-0.077
-651.828	-100.045	-0.177	0.045
-650.814	71.669	-0.064	-0.067
-649.799	-200.000	-0.014	-0.252
-648.784	149.100	-0.205	0.282
-647.770	176.657	0.131	-0.193
-646.755	-76.826	-0.214	-0.076
-645.741	248.771	-0.173	-0.297
-644.726	285.828	-0.222	-0.407
-643.711	-142.932	0.176	-0.017
-642.697	800.000	0.063	-0.200
-641.682	212.532	0.124	0.199
-640.668	-88.214	-0.154	-0.047
-639.653	305.759	-0.146	-0.276
-638.638	-200.000	-0.024	-0.523
-637.624	-200.000	0.075	0.466
-636.609	800.000	0.033	0.104
-635.595	-114.527	-0.308	-0.060
-634.580	-161.102	0.188	0.010
-633.565	-162.202	0.093	-0.005
-632.551	-123.958	0.188	0.030
-631.536	-55.461	-0.101	-0.046
-630.522	21.239	0.029	-0.024
-629.507	-138.894	0.253	0.028
-628.492	800.000	-0.043	0.165
-627.478	-62.796	0.316	0.133
-626.463	-11.081	-0.078	0.052
-625.449	-35.745	0.128	-0.070
-624.434	-79.305	0.102	-0.035
-623.419	44.297	0.248	-0.231
-622.405	-79.343	-0.129	-0.044
-621.390	800.000	-0.074	0.267
-620.376	-51.468	-0.066	0.031
-619.361	800.000	-0.091	0.265
-618.346	-44.945	0.089	0.045
-617.332	800.000	-0.123	-0.410
-616.317	81.323	-0.416	0.457
-615.303	-200.000	-0.060	-0.452
-614.288	-200.000	-0.010	0.204
-613.273	800.000	-0.030	0.120
-612.259	-98.049	-0.124	-0.032
-611.244	-200.000	-0.079	0.350
-610.230	-200.000	0.003	0.085
-609.215	232.515	-0.035	-0.058
-608.201	119.829	-0.147	0.185
-607.186	-4.832	0.056	-0.039
-606.171	-58.788	-0.370	-0.162
-605.157	140.028	-0.155	0.208
-604.142	-77.659	0.267	-0.094
-603.128	-101.669	-0.033	0.008
-602.113	102.041	-0.175	0.207
-601.098	377.480	-0.092	0.192
-600.084	-142.034	-0.453	0.046
-599.069	-16.121	0.214	0.138
-598.055	-24.102	-0.164	0.100
-597.040	-117.557	0.195	0.036
-596.025	197.675	-0.099	-0.154
-595.011	22.152	0.068	-0.057
-593.996	-200.000	-0.019	-0.265
-592.982	-85.196	0.179	0.057
-591.967	-18.304	-0.070	-0.044
-590.952	-158.445	0.139	-0.008
-589.938	102.445	-0.164	0.194
-588.923	800.000	0.046	0.152
-587.909	-124.516	0.027	0.004
-586.894	-77.987	0.196	-0.069
-585.879	-8.847	0.291	-0.198
-584.865	-88.747	0.078	-0.024
-583.850	800.000	-0.085	0.336
-582.836	-89.156	-0.193	-0.058
-581.821	16.587	0.248	0.199
-580.806	8.362	0.238	-0.181
-579.792	-200.000	0.015	0.117
-578.777	9.261	0.233	-0.179
-577.763	485.964	0.147	0.340
-576.748	-200.000	-0.011	-0.183
-575.733	-32.400	0.331	0.187
-574.719	350.656	0.024	-0.049
-573.704	75.298	0.124	-0.133
-572.690	312.543	0.242	0.461
-571.675	-143.902	-0.405	-0.039
-570.661	95.244	-0.034	0.039
-569.646	-50.547	0.175	0.084
-568.631	-89.528	0.031	-0.009
-567.617	-200.000	0.004	0.101
-566.602	-200.000	0.003	-0.092
-565.588	-101.170	0.255	-0.063
-564.573	-35.760	-0.202	-0.111
-563.558	-13.251	-0.254	0.167
-562.544	800.000	-0.094	-0.348
-561.529	-200.000	0.100	0.000
-560.515	800.000	-0.044	0.136
-559.500	-3.539	0.165	0.116
-558.485	-200.000	-0.035	-0.197
-557.471	-200.000	0.018	-0.209
-556.456	-66.464	0.052	-0.021
-555.442	175.699	-0.077	-0.113
-554.427	5.542	-0.334	-0.250
-553.412	639.164	0.067	-0.172
-552.398	800.000	0.040	-0.141
-551.383	45.847	0.207	-0.194
-550.369	-200.000	0.021	0.197
-549.354	174.465	0.104	-0.153
-548.339	129.191	0.176	-0.228
-547.325	-40.391	0.467	-0.246
-546.310	84.431	0.200	-0.221
-545.296	-141.054	-0.275	0.029
-544.281	37.801	-0.132	-0.119
-543.266	235.121	-0.237	-0.396
-542.252	257.118	0.121	0.210
-541.237	64.347	0.193	0.196
-540.223	371.891	0.150	0.309
-539.208	65.546	0.093	0.095
-538.193	-34.057	0.108	0.060
-537.179	-21.177	-0.092	0.057
-536.164	-23.743	-0.222	-0.135
-535.150	6.648	-0.097	0.073
-534.135	140.788	0.114	0.152
-533.121	-200.000	0.023	-0.122
-532.106	-200.000	0.000	0.149
-531.091	-28.713	0.241	-0.140
-530.077	-10.005	-0.311	0.209
-529.062	-57.528	0.360	-0.160
-528.048	-90.503	0.160	0.047
-527.033	352.052	-0.113	0.227
-526.018	-106.665	-0.280	0.063
-525.004	800.000	-0.064	-0.218
-523.989	56.664	-0.144	0.142
-522.975	-34.825	0.261	0.144
-521.960	-55.850	0.149	0.067
-520.945	-85.374	0.105	0.033
-519.931	-142.052	-0.062	0.006
-518.916	-77.924	0.235	-0.082
-517.902	-54.699	-0.055	0.025
-516.887	291.716	-0.131	-0.241
-515.872	-188.816	-0.423	0.005
-514.858	96.932	-0.069	0.080
-513.843	-60.393	0.056	0.024
-512.829	800.000	-0.018	-0.055
-511.814	800.000	0.055	0.155
-510.799	800.000	-0.081	-0.257
-509.785	-200.000	-0.020	0.144
-508.770	121.848	-0.152	-0.191
-507.756	128.522	-0.265	-0.342
-506.741	800.000	0.061	-0.218
-505.726	285.771	-0.084	-0.153
-504.712	-84.546	0.379	-0.121
-503.697	-200.000	0.035	-0.235
-502.683	-103.629	-0.315	-0.075
-501.668	190.217	0.114	-0.173
-500.653	252.916	0.105	0.180
-499.639	-26.656	0.132	0.078
-498.624	420.827	-0.206	0.446
-497.610	-49.634	-0.165	-0.080
-496.595	285.443	-0.047	-0.086
-495.581	-35.481	-0.253	-0.139
-494.566	-53.062	0.151	0.070
-493.551	594.598	-0.077	-0.193
-492.537	800.000	-0.054	-0.184
-491.522	310.837	-0.092	-0.174
-490.508	-200.000	0.025	-0.179
-489.493	157.638	-0.287	0.402
-488.478	40.178	0.242	-0.220
-487.464	-90.796	0.068	-0.020
-486.449	-119.752	-0.178	-0.031
-485.435	304.099	-0.061	-0.115
-484.420	-61.312	0.183	0.078
-483.405	-30.832	-0.361	0.206
-482.391	292.328	0.112	0.206
-481.376	-98.786	0.187	0.048
-480.362	32.830	0.121	0.106
-479.347	-200.000	0.000	0.156
-478.332	-159.255	-0.336	0.019
-477.318	483.373	0.086	-0.196
-476.303	-109.019	-0.089	0.019
-475.289	-182.743	-0.294	0.005
-474.274	-21.613	0.267	-0.164
-473.259	800.000	-0.071	-0.198
-472.245	595.556	0.019	-0.048
-471.230	-200.000	0.015	-0.100
-470.216	-143.980	-0.266	0.025
-469.201	-20.787	0.088	-0.055
-468.186	-133.736	0.147	0.018
-467.172	176.171	-0.062	-0.091
-466.157	-200.000	-0.046	0.632
-465.143	543.410	0.180	-0.435
-464.128	-11.969	0.357	-0.236
-463.113	-77.252	-0.300	-0.105
-462.099	-179.615	-0.340	0.007
-461.084	66.570	0.303	-0.311
-460.070	-104.715	0.464	-0.108
-459.055	323.138	-0.163	-0.313
-458.040	800.000	0.119	0.365
-457.026	800.000	0.028	-0.085
-456.011	-156.176	-0.392	-0.025
-454.997	169.347	0.083	0.120
-453.982	-62.059	-0.162	-0.068
-452.968	344.558	-0.038	-0.076
-451.953	-200.000	0.041	0.275
-450.938	-12.948	0.394	0.259
-449.924	-68.175	-0.365	-0.144
-448.909	461.955	-0.014	-0.030
-447.895	-200.000	-0.031	-0.196
-446.880	26.495	-0.206	0.174
-445.865	-2.650	0.189	-0.133
-444.851	-138.463	0.249	-0.028
-443.836	50.314	0.105	-0.100
-442.822	-151.960	-0.453	-0.033
-441.807	-115.559	0.240	0.045
-440.792	-92.623	0.143	-0.040
-439.778	-200.000	0.019	0.231
-438.763	-106.960	0.230	0.051
-437.749	1.781	-0.241	-0.175
-436.734	-200.000	0.024	0.108
-435.719	89.735	-0.132	0.149
-434.705	239.626	0.164	-0.275
-433.690	32.074	-0.168	-0.146
-432.676	-6.458	0.184	-0.126
-431.661	27.044	0.189	-0.160
-430.646	-83.600	-0.365	-0.118
-429.632	-25.826	-0.246	-0.146
-428.617	-49.515	0.126	0.061
-427.603	-13.911	0.121	0.079
-426.588	-92.653	0.272	-0.077
-425.573	153.719	0.098	0.135
-424.559	-200.000	0.019	-0.160
-423.544	88.110	0.136	-0.152
-422.530	215.720	0.130	-0.208
-421.515	7.938	-0.398	0.301
-420.500	38.543	0.094	-0.084
-419.486	-114.324	-0.233	-0.045
-418.471	10.932	0.186	0.143
-417.457	112.642	0.013	-0.016
-416.442	523.415	-0.125	-0.296
-415.428	48.174	0.070	0.066
-414.413	38.090	0.017	0.015
-413.398	-185.108	0.393	-0.006
-412.384	-30.962	0.189	0.108
-411.369	800.000	-0.143	-0.401
-410.355	212.475	0.249	-0.396
-409.340	40.368	-0.087	0.079
-408.325	-200.000	-0.008	-0.183
-407.311	-101.914	0.242	0.059
-406.296	-200.000	0.003	0.106
-405.282	-161.527	-0.234	-0.012
-404.267	159.535	-0.378	-0.529
-403.252	-200.000	0.014	-0.122
-402.238	-9.187	0.151	-0.102
-401.223	-179.628	-0.470	0.010
-400.209	-116.704	0.034	0.006
-399.194	360.230	0.146	-0.295
-398.179	-85.966	0.060	0.019
-397.165	201.484	0.209	0.323
-396.150	351.842	-0.072	0.144
-395.136	-200.000	0.061	0.419
-394.121	84.450	0.186	0.205
-393.106	40.111	0.147	0.133
-392.092	-200.000	0.016	0.085
-391.077	-14.546	-0.168	0.109
-390.063	115.969	0.322	-0.397
-389.048	-200.000	-0.027	0.261
-388.033	800.000	0.163	0.596
-387.019	-50.310	-0.237	0.113
-386.004	-98.194	-0.353	0.091
-384.990	800.000	0.090	0.268
-383.975	-200.000	-0.033	-0.213
-382.960	126.392	-0.164	-0.208
-381.946	-57.456	0.256	0.113
-380.931	-64.844	0.211	-0.086
-379.917	-200.000	-0.009	0.117
-378.902	-47.175	0.073	-0.036
-377.888	-146.516	0.204	0.018
-376.873	800.000	-0.051	-0.203
-375.858	-200.000	-0.041	0.238
-374.844	-57.988	-0.514	0.226
-373.829	-84.131	-0.184	0.059
-372.815	-170.024	0.065	-0.002
-371.800	-34.638	0.225	0.124
-370.785	-32.096	0.233	-0.131
-369.771	-200.000	0.003	-0.187
-368.756	4.355	-0.199	-0.147
-367.742	-135.539	-0.369	0.044
-366.727	-17.834	0.272	0.172
-365.712	-62.250	0.127	-0.053
-364.698	284.278	-0.092	-0.166
-363.683	66.903	-0.241	-0.246
-362.669	149.315	0.193	-0.262
-361.654	-94.469	-0.298	-0.082
-360.639	-22.389	-0.288	-0.175
-359.625	-10.899	-0.217	-0.144
-358.610	800.000	0.042	-0.133
-357.596	-4.358	-0.193	0.134
-356.581	99.239	0.162	0.188
-355.566	113.364	0.291	0.355
-354.552	-81.805	-0.286	0.094
-353.537	27.645	0.066	0.056
-352.523	-85.335	0.333	-0.104
-351.508	-79.759	0.151	0.051
-350.493	-200.000	0.006	-0.147
-349.479	87.456	-0.186	0.206
-348.464	42.477	0.256	-0.234
-347.450	75.717	0.223	-0.237
-346.435	301.632	-0.034	0.064
-345.420	800.000	-0.051	0.218
-344.406	165.376	0.045	-0.064
-343.391	-200.000	0.045	-0.346
-342.377	11.533	0.134	0.103
-341.362	47.532	-0.016	0.015
-340.348	150.458	-0.065	-0.089
-339.333	6.050	-0.262	0.195
-338.318	800.000	-0.039	-0.132
-337.304	-71.336	-0.194	0.073
-336.289	239.056	-0.128	0.214
-335.275	-122.999	-0.106	-0.017
-334.260	244.838	-0.131	0.221
-333.245	-155.070	-0.111	0.007
-332.231	150.792	-0.206	0.281
-331.216	-133.314	-0.205	0.026
-330.202	-134.756	0.377	-0.046
-329.187	-200.000	-0.045	0.419
-328.172	91.360	0.020	-0.022
-327.158	327.065	0.168	-0.323
-326.143	-200.000	0.006	0.306
-325.129	800.000	-0.015	-0.063
-324.114	234.776	-0.155	0.257
-323.099	800.000	0.061	0.200
-322.085	125.866	-0.047	0.059
-321.070	-200.000	-0.003	-0.164
-320.056	800.000	0.040	0.131
-319.041	37.240	0.192	-0.170
-318.026	-15.436	0.244	-0.157
-317.012	-200.000	0.001	0.284
-315.997	-53.478	0.406	-0.187
-314.983	185.491	-0.143	-0.212
-313.968	-7.904	0.323	-0.219
-312.953	168.409	-0.070	0.100
-311.939	-14.658	0.116	0.075
-310.924	49.605	-0.235	-0.222
-309.910	50.633	-0.173	-0.164
-308.895	67.520	0.135	0.138
-307.880	319.982	0.121	0.231
-306.866	800.000	-0.043	0.161
-305.851	-128.366	0.025	-0.004
-304.837	-200.000	-0.001	0.047
-303.822	194.746	-0.090	0.138
-302.807	32.236	0.038	0.033
-301.793	270.378	0.068	0.120
-300.778	31.478	0.226	-0.195
-299.764	603.949	-0.014	0.035
-298.749	800.000	-0.071	-0.254
-297.735	50.108	0.053	-0.050
-296.720	373.319	-0.067	-0.137
-295.705	358.018	0.102	-0.204
-294.691	103.278	-0.178	-0.209
-293.676	-141.335	0.475	-0.048
-292.662	-38.098	-0.177	-0.094
-291.647	790.725	0.084	-0.232
-290.632	96.122	0.076	0.088
-289.618	-127.605	-0.092	-0.013
-288.603	114.130	-0.064	0.078
-287.589	519.672	0.069	0.163
-286.574	-200.000	-0.010	-0.129
-285.559	-200.000	-0.009	-0.278
-284.545	-16.175	-0.238	0.152
-283.530	108.463	0.172	-0.206
-282.516	-200.000	0.013	0.301
-281.501	125.109	-0.207	-0.262
-280.486	-200.000	0.006	-0.192
-279.472	-200.000	-0.043	0.426
-278.457	68.488	0.226	-0.232
-277.443	165.149	-0.275	-0.389
-276.428	-184.579	-0.102	0.002
-275.413	212.876	0.130	-0.206
-274.399	415.403	0.162	0.347
-273.384	-49.261	0.225	0.108
-272.370	-86.823	0.232	-0.071
-271.355	70.036	-0.184	0.190
-270.340	24.165	0.132	-0.110
-269.326	-3.614	-0.272	0.189
-268.311	173.831	0.165	0.239
-267.297	130.163	0.116	-0.148
-266.282	340.472	0.069	0.134
-265.267	800.000	0.031	-0.091
-264.253	141.348	-0.048	0.064
-263.238	59.369	-0.179	0.176
-262.224	-31.428	-0.214	0.120
-261.209	-200.000	0.011	0.106
-260.195	325.065	0.104	-0.199
-259.180	-49.935	0.222	-0.105
-258.165	17.661	-0.229	0.182
-257.151	-44.732	0.281	0.140
-256.136	255.320	0.108	0.185
-255.122	-7.434	-0.161	0.109
-254.107	-114.350	-0.197	-0.038
-253.092	317.489	-0.071	-0.134
-252.078	-200.000	-0.031	0.206
-251.063	281.286	-0.223	0.400
-250.049	-105.049	-0.326	0.075
-249.034	800.000	-0.041	-0.133
-248.019	-46.952	0.300	-0.146
-247.005	90.303	-0.199	0.222
-245.990	304.068	-0.134	0.249
-244.976	-44.082	0.258	0.130
-243.961	-1.529	0.379	0.268
-242.946	800.000	-0.016	-0.052
-241.932	-49.508	0.149	0.071
-240.917	-162.316	0.353	0.018
-239.903	-200.000	0.058	0.422
-238.888	7.433	-0.324	0.243
-237.873	8.544	0.406	0.306
-236.859	-10.881	-0.204	-0.135
-235.844	-200.000	-0.002	0.063
-234.830	42.951	0.100	0.091
-233.815	57.912	-0.293	-0.287
-232.800	-200.000	-0.020	-0.264
-231.786	-93.661	0.194	0.054
-230.771	-50.393	0.359	-0.169
-229.757	-149.212	0.070	-0.006
-228.742	169.615	0.102	-0.146
-227.727	-200.000	0.006	0.274
-226.713	120.579	-0.051	0.063
-225.698	-200.000	-0.041	-0.244
-224.684	105.958	-0.171	-0.202
-223.669	800.000	-0.040	0.170
-222.655	223.084	-0.081	0.130
-221.640	-125.754	0.259	-0.039
-220.625	-81.167	-0.344	0.114
-219.611	-20.942	-0.157	0.096
-218.596	3.029	0.033	0.024
-217.582	-9.631	-0.091	0.061
-216.567	-94.278	0.058	0.016
-215.552	800.000	0.053	-0.214
-214.538	327.213	-0.107	-0.204
-213.523	592.038	0.050	-0.123
-212.509	-182.724	-0.382	-0.007
-211.494	-106.109	-0.323	-0.073
-210.479	-107.608	0.259	0.057
-209.465	212.112	0.113	0.178
-208.450	-180.681	-0.235	0.005
-207.436	-31.947	-0.184	-0.103
-206.421	15.879	0.179	0.141
-205.406	-115.825	-0.201	-0.038
-204.392	-200.000	0.004	0.137
-203.377	-80.898	0.293	-0.097
-202.363	800.000	0.098	-0.415
-201.348	-180.842	-0.192	0.004
-200.333	105.498	-0.153	0.181
-199.319	69.462	0.181	-0.186
-198.304	-200.000	-0.041	-0.313
-197.290	-200.000	-0.000	0.205
-196.275	199.666	-0.054	-0.082
-195.260	-55.268	-0.247	-0.111
-194.246	572.451	0.088	-0.213
-193.231	62.190	0.246	0.245
-192.217	177.252	0.209	-0.304
-191.202	-24.446	-0.186	-0.111
-190.187	-144.341	-0.278	-0.026
-189.173	-200.000	-0.034	-0.207
-188.158	362.544	0.127	0.255
-187.144	317.737	-0.057	0.109
-186.129	37.043	-0.222	0.196
-185.114	-13.821	0.072	-0.046
-184.100	106.488	-0.187	-0.221
-183.085	-200.000	0.054	0.290
-182.071	-156.485	-0.114	-0.007
-181.056	-19.706	-0.277	0.171
-180.042	261.389	-0.066	0.114
-179.027	800.000	0.106	0.315
-178.012	-200.000	0.002	0.056
-176.998	361.927	-0.146	0.292
-175.983	-9.080	0.138	-0.092
-174.969	133.076	0.168	0.217
-173.954	-40.358	0.232	0.120
-172.939	-200.000	-0.017	-0.234
-171.925	369.217	-0.038	-0.077
-170.910	-102.806	0.460	0.109
-169.896	-156.563	0.075	0.005
-168.881	54.157	0.296	0.285
-167.866	255.996	0.186	0.319
-166.852	36.130	-0.210	-0.184
-165.837	-200.000	0.000	-0.077
-164.823	800.000	-0.078	0.271
-163.808	160.295	0.110	0.153
-162.793	-27.768	-0.237	-0.137
-161.779	-90.762	-0.229	-0.066
-160.764	-147.528	0.138	0.012
-159.750	-200.000	-0.013	0.603
-158.735	-113.107	-0.128	-0.025
-157.720	205.438	-0.075	-0.117
-156.706	400.041	-0.054	0.113
-155.691	295.122	0.118	-0.215
-154.677	-186.069	-0.282	-0.004
-153.662	-200.000	-0.011	0.119
-152.647	28.441	-0.074	0.062
-151.633	-45.068	-0.163	0.081
-150.618	-200.000	0.006	0.315
-149.604	-80.858	0.275	0.091
-148.589	-31.129	-0.031	-0.017
-147.574	87.988	-0.165	0.182
-146.560	-200.000	-0.008	-0.216
-145.545	90.433	0.260	-0.290
-144.531	800.000	-0.125	0.401
-143.516	167.563	0.032	0.045
-142.502	-200.000	0.026	-0.324
-141.487	-21.055	0.131	0.080
-140.472	800.000	0.063	-0.200
-139.458	518.462	-0.104	-0.242
-138.443	207.754	0.170	-0.265
-137.429	751.694	-0.061	0.164
-136.414	800.000	0.084	0.264
-135.399	86.328	-0.108	0.118
-134.385	12.450	-0.246	-0.189
-133.370	-147.021	0.426	0.036
-132.356	37.636	-0.147	-0.130
-131.341	50.031	-0.156	-0.146
-130.326	-27.689	0.215	-0.124
-129.312	124.147	0.131	-0.164
-128.297	-152.444	-0.130	-0.009
-127.283	-90.332	0.298	0.086
-126.268	-117.825	0.394	0.070
-125.253	800.000	-0.093	0.285
-124.239	62.734	-0.110	0.110
-123.224	-95.025	0.172	-0.046
-122.210	800.000	-0.078	0.305
-121.195	800.000	0.081	0.303
