DTS Sentinel unit serial number:	SN413079Multiplexer serial number:	ORYXHardware model number:	OX4-SRSoftware version number:	ORYX F/W v4.00 Oryx Data Collector v3.7.2.0data status	okinstallation	princeton_trtdifferential loss correction	single-endedforward channel	channel 1reverse channel	N/Adate	2019/09/19time	07:10:35forward acquisition time	60.00reverse acquisition time	0.00gamma	496.2192k internal	0.2342k external	0.2342temperature offset calibration	1.0019default loss term (dB/km)	0.3790temperature slope calibration	1.0000multiplexer offset coefficient	1.0000multiplexer slope coefficient	1.0000fibre end	0.00T internal ref (°C)	19.05T ext. ref 1 (°C)	0.56T ext. ref 2 (°C)	13.27length (m)	temperature (°C)	Stokes	anti-Stokes-747.200	-56.084	-0.215	0.096
-746.185	-33.918	-0.437	0.241
-745.171	120.719	-0.225	0.280
-744.156	-200.000	-0.036	0.334
-743.142	-200.000	0.076	0.362
-742.127	-50.959	-0.210	-0.099
-741.112	-103.272	-0.041	0.010
-740.098	52.990	0.044	0.042
-739.083	800.000	0.018	-0.049
-738.069	-16.987	0.044	-0.028
-737.054	-200.000	0.014	0.106
-736.039	-11.487	-0.360	0.237
-735.025	-38.876	0.185	0.098
-734.010	34.613	-0.262	0.229
-732.996	-200.000	0.019	-0.255
-731.981	-68.948	-0.189	-0.073
-730.966	-127.380	-0.292	0.043
-729.952	301.904	0.086	-0.160
-728.937	-130.321	0.183	0.025
-727.923	-128.268	0.168	0.024
-726.908	-105.028	-0.259	0.059
-725.894	165.974	-0.141	0.200
-724.879	-200.000	0.034	-0.193
-723.864	-145.496	-0.043	0.004
-722.850	-200.000	-0.004	-0.261
-721.835	442.855	-0.041	0.089
-720.821	-1.560	0.048	-0.034
-719.806	-3.935	-0.226	0.157
-718.791	478.940	0.100	0.226
-717.777	-200.000	0.001	-0.032
-716.762	800.000	0.054	-0.177
-715.748	-114.317	-0.196	-0.038
-714.733	-43.531	0.073	-0.037
-713.718	-200.000	0.021	-0.286
-712.704	108.531	0.165	0.197
-711.689	800.000	0.071	0.294
-710.675	516.288	-0.174	0.406
-709.660	-200.000	-0.005	-0.067
-708.645	-200.000	0.010	-0.191
-707.631	800.000	-0.029	-0.085
-706.616	-200.000	0.020	-0.239
-705.602	103.820	0.100	-0.118
-704.587	-123.204	-0.050	0.008
-703.572	-116.183	-0.219	0.041
-702.558	-4.973	0.189	0.130
-701.543	-200.000	0.010	0.266
-700.529	253.521	-0.147	-0.252
-699.514	284.363	0.112	-0.202
-698.499	157.363	0.122	0.169
-697.485	725.929	-0.040	0.106
-696.470	529.171	-0.090	-0.212
-695.456	-119.604	-0.329	-0.057
-694.441	509.023	-0.022	0.050
-693.426	-49.151	0.071	0.034
-692.412	-200.000	-0.017	-0.431
-691.397	800.000	0.073	-0.239
-690.383	9.139	-0.208	-0.157
-689.368	73.249	-0.155	-0.162
-688.354	-200.000	0.008	-0.193
-687.339	-126.054	0.242	0.036
-686.324	-200.000	0.023	-0.142
-685.310	-44.573	-0.257	0.128
-684.295	135.503	-0.205	-0.267
-683.281	-42.344	0.103	0.052
-682.266	2.752	-0.204	0.148
-681.251	-72.710	-0.191	0.070
-680.237	396.632	-0.121	0.252
-679.222	5.966	0.187	-0.139
-678.208	-200.000	0.029	0.253
-677.193	418.150	0.052	-0.111
-676.178	-56.142	0.194	0.086
-675.164	-200.000	-0.001	0.327
-674.149	196.699	-0.145	0.220
-673.135	800.000	0.053	-0.162
-672.120	-113.900	-0.205	-0.040
-671.105	305.900	-0.113	0.210
-670.091	46.137	-0.191	0.176
-669.076	157.853	0.251	0.348
-668.062	-96.761	-0.259	0.068
-667.047	-102.735	0.066	0.016
-666.032	-172.292	-0.397	0.013
-665.018	44.326	-0.281	0.258
-664.003	63.369	0.044	-0.044
-662.989	179.079	-0.119	-0.173
-661.974	-52.586	0.228	0.105
-660.959	800.000	-0.082	0.251
-659.945	333.852	-0.219	-0.423
-658.930	329.679	-0.132	-0.254
-657.916	-46.130	0.258	0.127
-656.901	-26.043	-0.329	-0.193
-655.886	-16.082	-0.094	-0.060
-654.872	-96.209	0.403	-0.107
-653.857	-200.000	0.002	0.122
-652.843	293.310	-0.158	0.288
-651.828	800.000	-0.095	0.416
-650.814	-135.025	0.204	-0.025
-649.799	212.174	-0.156	0.246
-648.784	64.908	0.119	-0.120
-647.770	214.485	0.224	0.354
-646.755	-95.690	0.097	-0.026
-645.741	-138.580	0.451	-0.049
-644.726	-133.687	-0.066	-0.008
-643.711	-200.000	0.057	-0.268
-642.697	246.764	0.062	-0.105
-641.682	14.361	-0.481	0.374
-640.668	800.000	-0.026	-0.102
-639.653	-84.172	-0.223	0.071
-638.638	-200.000	0.014	-0.174
-637.624	-118.940	0.290	0.051
-636.609	272.959	-0.147	-0.259
-635.595	-120.699	-0.094	-0.016
-634.580	-200.000	-0.031	-0.231
-633.565	21.547	0.246	0.200
-632.551	800.000	-0.045	0.160
-631.536	85.901	-0.151	-0.166
-630.522	800.000	0.101	-0.364
-629.507	-135.806	-0.138	0.016
-628.492	-188.486	0.271	-0.003
-627.478	-131.470	0.110	-0.014
-626.463	-143.429	0.201	0.019
-625.449	286.756	0.182	0.328
-624.434	55.822	0.197	0.191
-623.419	128.949	-0.189	-0.240
-622.405	800.000	0.024	0.072
-621.390	800.000	0.138	-0.458
-620.376	54.167	-0.152	0.146
-619.361	337.805	-0.042	-0.081
-618.346	-114.675	-0.254	-0.049
-617.332	-117.042	-0.176	0.032
-616.317	-24.466	0.263	-0.156
-615.303	-200.000	0.001	-0.036
-614.288	-161.074	-0.862	-0.045
-613.273	120.528	0.063	-0.078
-612.259	-170.265	-0.337	-0.012
-611.244	800.000	-0.093	0.259
-610.230	126.707	0.127	0.161
-609.215	49.911	-0.225	-0.211
-608.201	146.503	0.261	-0.350
-607.186	-164.108	-0.224	0.010
-606.171	-158.295	-0.189	-0.011
-605.157	-168.862	0.200	0.007
-604.142	83.824	-0.144	-0.156
-603.128	800.000	0.035	-0.104
-602.113	800.000	0.017	0.056
-601.098	-150.654	-0.058	-0.004
-600.084	-200.000	-0.068	-0.565
-599.069	140.689	0.293	-0.386
-598.055	-5.471	0.151	0.103
-597.040	33.228	0.159	0.137
-596.025	800.000	-0.128	-0.432
-595.011	-59.060	0.271	0.116
-593.996	-116.858	-0.037	0.007
-592.982	-200.000	0.021	-0.091
-591.967	-24.449	-0.301	0.179
-590.952	-200.000	-0.144	-0.001
-589.938	-78.258	-0.250	0.086
-588.923	-200.000	0.004	0.068
-587.909	276.376	-0.104	-0.183
-586.894	-20.366	0.150	-0.092
-585.879	800.000	-0.061	0.252
-584.865	407.401	0.096	0.202
-583.850	-131.388	-0.268	0.035
-582.836	-200.000	-0.024	-0.415
-581.821	70.341	0.151	-0.156
-580.806	-22.895	0.334	-0.201
-579.792	359.412	-0.148	-0.294
-578.777	-85.718	-0.270	0.083
-577.763	11.703	-0.167	-0.128
-576.748	33.986	-0.110	0.095
-575.733	406.588	-0.158	0.332
-574.719	-200.000	-0.044	-0.201
-573.704	-42.336	-0.255	-0.130
-572.690	55.686	0.122	0.118
-571.675	-200.000	0.018	-0.204
-570.661	16.768	-0.067	-0.052
-569.646	107.354	0.257	-0.304
-568.631	68.185	0.042	0.043
-567.617	-200.000	0.040	-0.222
-566.602	-25.656	-0.209	-0.122
-565.588	-22.595	-0.174	0.105
-564.573	800.000	-0.025	0.091
-563.558	-136.568	-0.276	-0.032
-562.544	-200.000	0.009	-0.079
-561.529	-200.000	-0.012	-0.367
-560.515	256.865	-0.149	-0.255
-559.500	-200.000	-0.010	0.119
-558.485	-132.564	0.076	-0.010
-557.471	523.617	-0.073	0.171
-556.456	38.835	-0.050	0.044
-555.442	-200.000	0.002	-0.199
-554.427	800.000	-0.084	-0.297
-553.412	-90.104	-0.156	0.045
-552.398	208.646	-0.045	0.070
-551.383	-82.583	0.138	0.044
-550.369	-79.513	0.208	-0.070
-549.354	-200.000	0.021	0.130
-548.339	6.271	-0.056	0.041
-547.325	-134.798	0.088	-0.011
-546.310	285.256	-0.052	-0.093
-545.296	-107.898	-0.239	-0.052
-544.281	-200.000	0.016	-0.074
-543.266	800.000	0.098	-0.291
-542.252	800.000	0.103	-0.337
-541.237	26.610	0.270	0.225
-540.223	-99.320	-0.124	-0.031
-539.208	-200.000	0.001	0.281
-538.193	181.737	-0.045	-0.065
-537.179	117.576	0.039	-0.047
-536.164	115.612	0.131	-0.159
-535.150	-200.000	0.015	-0.097
-534.135	-50.751	-0.374	-0.175
-533.121	288.172	-0.185	0.333
-532.106	-13.196	-0.274	0.176
-531.091	-122.576	-0.137	-0.022
-530.077	800.000	0.024	-0.077
-529.062	-41.396	0.122	-0.062
-528.048	-134.233	-0.240	0.029
-527.033	-200.000	-0.015	0.260
-526.018	-200.000	0.273	-0.001
-525.004	-159.970	0.170	0.009
-523.989	29.154	-0.111	0.093
-522.975	307.872	-0.166	-0.307
-521.960	788.668	-0.016	-0.044
-520.945	-84.600	-0.034	-0.011
-519.931	45.060	0.083	0.076
-518.916	348.750	0.035	-0.068
-517.902	164.725	-0.030	-0.041
-516.887	-200.000	0.056	-0.281
-515.872	-200.000	-0.018	0.106
-514.858	-30.876	0.247	-0.139
-513.843	122.814	0.174	0.217
-512.829	113.142	0.059	-0.071
-511.814	-200.000	-0.282	-0.001
-510.799	-66.112	0.069	-0.027
-509.785	584.486	-0.048	-0.118
-508.770	-81.299	0.054	-0.018
-507.756	-200.000	-0.031	-0.182
-506.741	-200.000	-0.045	-0.446
-505.726	800.000	-0.080	0.302
-504.712	-126.129	0.325	-0.048
-503.697	-6.683	0.174	-0.117
-502.683	27.355	-0.177	-0.147
-501.668	-76.219	0.273	0.096
-500.653	214.773	0.160	0.251
-499.639	800.000	-0.047	-0.153
-498.624	-125.612	-0.224	0.034
-497.610	698.263	0.119	-0.309
-496.595	-25.389	0.280	0.164
-495.581	-200.000	0.004	0.112
-494.566	64.681	0.008	-0.008
-493.551	-37.552	-0.281	-0.148
-492.537	-200.000	0.016	-0.320
-491.522	-200.000	0.031	-0.162
-490.508	-200.000	-0.100	0.616
-489.493	-158.101	-0.106	-0.006
-488.478	-101.743	0.312	0.075
-487.464	-200.000	-0.049	0.285
-486.449	184.123	0.142	0.209
-485.435	-119.479	0.211	0.036
-484.420	-18.014	-0.347	0.216
-483.405	-46.234	0.062	0.030
-482.391	11.415	-0.113	0.086
-481.376	615.867	0.083	0.205
-480.362	-69.013	0.076	0.029
-479.347	-200.000	-0.031	-0.191
-478.332	-200.000	0.071	-0.328
-477.318	16.904	-0.148	0.116
-476.303	-81.360	-0.145	0.047
-475.289	-34.923	0.032	0.017
-474.274	-47.179	0.151	-0.073
-473.259	-104.552	-0.181	0.041
-472.245	81.464	-0.051	-0.054
-471.230	-66.772	0.285	0.112
-470.216	381.238	0.047	0.097
-469.201	46.256	-0.062	-0.057
-468.186	212.277	0.108	0.169
-467.172	-200.000	0.001	0.301
-466.157	94.847	0.173	-0.195
-465.143	113.846	-0.256	0.309
-464.128	461.370	-0.021	-0.046
-463.113	-62.766	0.305	0.125
-462.099	-191.892	-0.204	0.002
-461.084	50.140	0.176	-0.164
-460.070	-104.466	-0.137	-0.031
-459.055	-36.804	0.124	0.066
-458.040	800.000	-0.052	0.175
-457.026	42.328	-0.053	0.047
-456.011	-25.107	0.273	0.160
-454.997	492.528	-0.164	0.372
-453.982	-138.876	0.326	0.035
-452.968	-109.288	-0.332	-0.070
-451.953	-200.000	0.032	0.244
-450.938	58.043	0.180	0.175
-449.924	-3.414	-0.220	-0.152
-448.909	-200.000	0.036	-0.411
-447.895	133.866	-0.059	0.076
-446.880	-148.898	-0.324	-0.026
-445.865	-200.000	-0.028	-0.164
-444.851	370.897	-0.174	0.349
-443.836	800.000	0.020	-0.056
-442.822	93.459	-0.086	0.096
-441.807	-200.000	0.024	-0.143
-440.792	-137.656	0.211	0.024
-439.778	8.370	0.160	-0.119
-438.763	517.253	-0.086	-0.200
-437.749	289.824	-0.162	-0.292
-436.734	143.310	0.129	0.170
-435.719	173.075	0.068	-0.097
-434.705	-53.680	0.094	-0.043
-433.690	132.369	0.124	-0.158
-432.676	-43.155	0.295	-0.148
-431.661	-121.010	-0.147	-0.024
-430.646	63.821	0.120	0.119
-429.632	-30.910	0.010	-0.005
-428.617	-118.678	-0.211	0.037
-427.603	205.461	-0.161	-0.248
-426.588	-200.000	0.102	-0.609
-425.573	-67.910	-0.260	0.101
-424.559	386.394	-0.087	-0.177
-423.544	414.452	-0.116	-0.245
-422.530	-200.000	0.038	0.330
-421.515	84.576	-0.218	0.236
-420.500	-175.547	-0.063	0.002
-419.486	33.330	0.084	0.072
-418.471	50.137	0.082	0.077
-417.457	227.876	0.135	0.218
-416.442	279.231	-0.097	-0.172
-415.428	-200.000	0.008	0.051
-414.413	-200.000	0.060	-0.290
-413.398	344.003	-0.102	-0.197
-412.384	-85.985	0.323	-0.099
-411.369	295.942	-0.174	0.316
-410.355	273.522	-0.051	0.089
-409.340	800.000	0.082	-0.282
-408.325	-200.000	-0.022	-0.116
-407.311	21.660	-0.065	0.052
-406.296	-200.000	0.003	0.067
-405.282	176.951	0.053	0.077
-404.267	577.196	0.095	0.229
-403.252	517.197	0.079	0.183
-402.238	-77.078	-0.220	0.076
-401.223	392.797	0.145	-0.299
-400.209	30.341	-0.054	0.045
-399.194	-33.408	-0.198	-0.108
-398.179	435.698	-0.060	0.129
-397.165	-200.000	-0.007	0.057
-396.150	-49.883	0.319	0.150
-395.136	50.033	-0.114	0.107
-394.121	800.000	-0.069	0.198
-393.106	-86.287	0.317	0.096
-392.092	-57.179	-0.025	0.011
-391.077	-200.000	-0.021	0.101
-390.063	665.800	0.100	0.254
-389.048	-139.486	-0.316	-0.033
-388.033	-200.000	-0.004	0.223
-387.019	158.831	0.077	-0.106
-386.004	-98.862	-0.363	-0.091
-384.990	-36.226	-0.197	-0.105
-383.975	-122.843	-0.116	0.018
-382.960	54.219	-0.216	0.205
-381.946	-81.073	-0.094	0.031
-380.931	-92.002	-0.171	-0.048
-379.917	-130.219	0.222	-0.030
-378.902	-74.585	-0.062	0.022
-377.888	40.381	0.128	-0.113
-376.873	-46.454	0.011	-0.005
-375.858	-51.226	-0.375	-0.173
-374.844	-200.000	-0.028	-0.180
-373.829	800.000	-0.047	0.198
-372.815	22.415	0.142	-0.115
-371.800	124.710	-0.158	-0.196
-370.785	-55.610	-0.064	0.028
-369.771	-109.489	0.358	0.075
-368.756	160.185	0.259	-0.356
-367.742	-29.977	0.065	-0.036
-366.727	-168.374	0.334	0.013
-365.712	-200.000	-0.037	-0.179
-364.698	-56.479	-0.322	0.141
-363.683	97.455	0.085	0.096
-362.669	-200.000	0.013	0.078
-361.654	-163.487	0.227	-0.011
-360.639	36.395	-0.302	0.263
-359.625	-153.960	-0.118	0.008
-358.610	-200.000	0.245	0.000
-357.596	9.737	-0.349	0.261
-356.581	108.605	-0.069	-0.081
-355.566	-53.515	0.263	0.119
-354.552	-187.606	0.298	0.004
-353.537	10.860	-0.026	0.020
-352.523	154.205	0.102	0.137
-351.508	337.202	-0.049	0.093
-350.493	-200.000	0.017	-0.199
-349.479	583.671	0.060	-0.146
-348.464	18.577	0.205	0.162
-347.450	-200.000	0.037	0.334
-346.435	-111.303	0.083	-0.017
-345.420	-136.806	0.255	-0.029
-344.406	-11.647	-0.395	-0.256
-343.391	29.990	0.274	0.230
-342.377	208.895	0.131	-0.202
-341.362	99.793	-0.039	0.045
-340.348	40.255	0.171	0.152
-339.333	-36.300	0.228	-0.121
-338.318	-4.340	-0.128	-0.087
-337.304	-200.000	-0.071	0.398
-336.289	159.064	-0.087	0.119
-335.275	82.114	0.189	0.202
-334.260	800.000	-0.095	0.340
-333.245	-200.000	-0.007	-0.231
-332.231	-64.123	0.211	0.085
-331.216	145.543	0.136	0.179
-330.202	113.943	0.136	-0.162
-329.187	-53.300	0.239	-0.108
-328.172	-30.397	0.239	-0.134
-327.158	-65.027	-0.227	-0.091
-326.143	-50.671	0.300	0.139
-325.129	-99.847	-0.073	0.018
-324.114	85.299	0.234	-0.253
-323.099	-178.544	0.330	-0.008
-322.085	-200.000	0.010	0.078
-321.070	133.831	-0.056	0.072
-320.056	800.000	-0.066	0.205
-319.041	-200.000	0.020	-0.248
-318.026	-119.029	-0.247	0.043
-317.012	800.000	-0.060	0.242
-315.997	303.239	-0.136	0.248
-314.983	-96.934	-0.166	0.043
-313.968	90.135	-0.108	-0.119
-312.953	15.204	-0.179	-0.138
-311.939	-63.085	0.210	-0.085
-310.924	142.776	0.342	-0.447
-309.910	-105.897	-0.108	0.024
-308.895	230.867	-0.075	0.121
-307.880	132.560	-0.025	-0.032
-306.866	800.000	-0.072	-0.215
-305.851	-129.750	-0.137	0.019
-304.837	-200.000	-0.009	-0.258
-303.822	50.063	-0.017	0.016
-302.807	-38.453	-0.108	0.056
-301.793	800.000	0.020	0.081
-300.778	333.183	0.091	0.174
-299.764	134.778	-0.133	0.169
-298.749	-23.807	-0.154	0.091
-297.735	-68.054	0.275	0.106
-296.720	800.000	0.026	-0.086
-295.705	-200.000	-0.012	-0.220
-294.691	-51.444	-0.442	-0.203
-293.676	9.746	0.149	0.112
-292.662	176.214	-0.122	0.175
-291.647	-167.699	0.146	0.006
-290.632	624.601	-0.125	0.310
-289.618	-21.921	0.027	0.016
-288.603	-107.966	-0.168	-0.036
-287.589	780.733	-0.087	-0.234
-286.574	-79.535	-0.105	-0.035
-285.559	29.772	0.263	0.220
-284.545	-200.000	-0.066	0.311
-283.530	-146.406	0.165	0.014
-282.516	281.464	-0.041	0.072
-281.501	800.000	-0.053	0.159
-280.486	46.124	-0.151	-0.137
-279.472	-110.254	-0.037	0.008
-278.457	138.699	0.097	-0.126
-277.443	-22.384	-0.390	0.232
-276.428	-200.000	0.002	0.034
-275.413	8.609	0.117	0.087
-274.399	-200.000	0.012	0.086
-273.384	139.125	0.025	-0.033
-272.370	-83.960	-0.518	-0.162
-271.355	-141.122	0.287	0.029
-270.340	-50.790	-0.198	0.092
-269.326	156.948	0.120	0.163
-268.311	-74.590	0.133	0.047
-267.297	-24.288	-0.181	-0.106
-266.282	-141.403	0.116	-0.012
-265.267	51.233	0.195	-0.182
-264.253	-18.695	0.215	0.131
-263.238	548.444	-0.148	0.348
-262.224	-200.000	-0.024	0.123
-261.209	800.000	-0.029	-0.116
-260.195	105.884	0.336	-0.390
-259.180	531.598	0.054	-0.125
-258.165	-74.990	-0.206	-0.073
-257.151	277.457	-0.101	0.176
-256.136	450.839	0.096	-0.208
-255.122	-156.560	-0.203	0.012
-254.107	139.301	0.130	0.167
-253.092	380.717	0.084	0.170
-252.078	130.381	0.176	-0.222
-251.063	-160.513	0.156	0.008
-250.049	-170.203	0.379	-0.013
-249.034	461.561	0.079	0.172
-248.019	-127.189	0.153	0.022
-247.005	-200.000	-0.002	0.059
-245.990	-23.348	-0.316	-0.187
-244.976	-9.137	0.202	-0.133
-243.961	-64.518	-0.305	-0.122
-242.946	-62.949	0.148	-0.060
-241.932	-21.045	-0.261	-0.157
-240.917	-200.000	-0.011	-0.276
-239.903	-76.995	-0.295	-0.101
-238.888	800.000	-0.066	0.281
-237.873	800.000	0.014	-0.043
-236.859	377.916	-0.108	0.217
-235.844	518.708	0.172	-0.396
-234.830	88.989	0.197	-0.215
-233.815	-93.586	-0.084	-0.023
-232.800	-66.723	-0.135	-0.052
-231.786	800.000	0.041	-0.171
-230.771	800.000	-0.074	-0.280
-229.757	-135.200	0.390	-0.046
-228.742	-200.000	-0.028	0.267
-227.727	177.358	-0.119	0.170
-226.713	-105.411	0.083	0.018
-225.698	-172.133	0.453	0.014
-224.684	-122.967	0.137	0.022
-223.669	-75.072	-0.223	0.078
-222.655	-103.205	0.170	0.039
-221.640	-145.586	-0.112	-0.010
-220.625	-125.922	-0.269	-0.040
-219.611	-93.279	-0.138	-0.038
-218.596	388.070	-0.043	0.087
-217.582	-27.081	0.219	0.125
-216.567	-66.721	-0.267	0.104
-215.552	-63.665	-0.220	0.089
-214.538	-78.220	0.489	-0.165
-213.523	800.000	-0.041	-0.120
-212.509	-200.000	0.009	0.110
-211.494	-200.000	-0.044	-0.238
-210.479	479.595	-0.124	0.276
-209.465	432.976	0.088	0.187
-208.450	268.893	-0.137	0.236
-207.436	-200.000	-0.027	0.220
-206.421	-99.258	-0.119	-0.030
-205.406	-200.000	0.031	0.217
-204.392	-181.986	0.046	-0.001
-203.377	-156.710	0.251	0.015
-202.363	117.025	0.167	0.201
-201.348	-84.188	0.182	-0.057
-200.333	382.832	0.121	-0.243
-199.319	554.907	0.167	0.394
-198.304	58.958	0.095	-0.092
-197.290	0.748	-0.263	0.184
-196.275	-28.909	0.232	0.131
-195.260	-1.761	-0.141	0.097
-194.246	-200.000	-0.015	0.394
-193.231	-200.000	-0.001	0.187
-192.217	-17.823	0.253	0.156
-191.202	92.238	-0.123	-0.136
-190.187	155.772	-0.201	0.271
-189.173	11.631	0.066	0.050
-188.158	28.303	0.105	0.087
-187.144	-160.368	0.247	-0.013
-186.129	186.066	-0.163	-0.237
-185.114	-157.231	-0.311	-0.018
-184.100	674.268	0.059	0.149
-183.085	-61.378	-0.013	0.006
-182.071	-200.000	0.010	-0.139
-181.056	142.926	0.234	-0.304
-180.042	-18.489	-0.098	-0.060
-179.027	-200.000	-0.009	-0.164
-178.012	79.243	0.177	0.186
-176.998	700.112	0.108	-0.278
-175.983	308.233	-0.046	0.084
-174.969	800.000	0.067	0.228
-173.954	-105.771	-0.157	0.035
-172.939	-119.579	0.155	-0.026
-171.925	-200.000	-0.013	0.060
-170.910	123.829	0.250	0.307
-169.896	800.000	-0.051	0.152
-168.881	-49.104	-0.061	-0.028
-167.866	326.929	-0.181	0.340
-166.852	800.000	0.021	-0.078
-165.837	0.665	-0.142	0.099
-164.823	-112.307	0.240	0.047
-163.808	170.110	-0.124	0.174
-162.793	-171.953	0.044	0.001
-161.779	-200.000	-0.119	-0.000
-160.764	145.926	0.118	0.155
-159.750	-200.000	-0.037	-0.168
-158.735	-59.207	-0.351	0.148
-157.720	-124.309	0.159	0.024
-156.706	774.321	-0.031	0.082
-155.691	399.415	0.125	0.257
-154.677	82.437	-0.064	-0.067
-153.662	-53.262	0.416	0.187
-152.647	180.969	-0.289	-0.415
-151.633	-200.000	0.085	-0.425
-150.618	-49.697	0.297	0.138
-149.604	93.621	0.197	-0.219
-148.589	5.822	0.287	-0.208
-147.574	-128.582	0.038	0.005
-146.560	-200.000	-0.031	-0.289
-145.545	-76.540	-0.173	-0.059
-144.531	541.862	-0.091	-0.212
-143.516	-126.790	-0.396	0.057
-142.502	16.331	0.139	0.107
-141.487	-129.196	-0.054	-0.007
-140.472	800.000	-0.030	0.091
-139.458	-200.000	-0.013	0.113
-138.443	-83.832	0.367	-0.114
-137.429	-146.808	-0.343	-0.029
-136.414	-98.623	-0.181	0.045
-135.399	18.475	0.190	-0.148
-134.385	19.552	0.039	-0.031
-133.370	15.560	0.235	-0.181
-132.356	716.768	-0.047	0.122
-131.341	-147.136	0.182	0.015
-130.326	95.432	0.099	-0.110
-129.312	183.773	-0.122	-0.177
-128.297	326.538	-0.032	-0.059
-127.283	51.414	0.341	-0.317
-126.268	-32.672	-0.455	-0.247
-125.253	-24.070	-0.029	0.017
-124.239	97.366	-0.030	0.033
-123.224	425.132	-0.056	0.119
-122.210	223.569	0.049	0.078
