DTS Sentinel unit serial number:	SN413079Multiplexer serial number:	ORYXHardware model number:	OX4-SRSoftware version number:	ORYX F/W v4.00 Oryx Data Collector v3.7.2.0data status	okinstallation	princeton_trtdifferential loss correction	single-endedforward channel	channel 1reverse channel	N/Adate	2019/09/16time	06:38:35forward acquisition time	60.00reverse acquisition time	0.00gamma	496.2192k internal	0.2331k external	0.2331temperature offset calibration	0.9982default loss term (dB/km)	0.3790temperature slope calibration	1.0000multiplexer offset coefficient	1.0000multiplexer slope coefficient	1.0000fibre end	0.00T internal ref (°C)	27.37T ext. ref 1 (°C)	11.41T ext. ref 2 (°C)	21.92length (m)	temperature (°C)	Stokes	anti-Stokes-747.200	688.016	-0.060	-0.159
-746.185	696.768	-0.056	-0.149
-745.171	4.108	0.135	0.100
-744.156	170.621	-0.175	0.252
-743.142	-176.044	-0.103	0.003
-742.127	-58.687	-0.133	-0.058
-741.112	-61.847	-0.232	0.098
-740.098	-200.000	0.086	0.382
-739.083	395.519	-0.108	0.227
-738.069	-200.000	-0.051	0.392
-737.054	51.074	-0.180	0.172
-736.039	-81.486	-0.245	-0.081
-735.025	800.000	0.113	0.379
-734.010	-200.000	0.056	0.371
-732.996	76.961	-0.279	-0.298
-731.981	175.854	-0.132	0.193
-730.966	118.125	0.133	0.165
-729.952	800.000	-0.047	0.138
-728.937	-111.812	-0.237	-0.048
-727.923	-4.850	-0.235	0.163
-726.908	-139.240	-0.229	0.025
-725.894	259.416	-0.052	-0.090
-724.879	352.171	-0.157	-0.314
-723.864	7.129	-0.204	0.153
-722.850	667.079	-0.083	-0.216
-721.835	61.742	-0.055	-0.055
-720.821	800.000	0.113	0.398
-719.806	800.000	-0.056	0.215
-718.791	377.337	0.153	-0.314
-717.777	-42.408	0.217	0.111
-716.762	800.000	0.086	-0.301
-715.748	149.412	-0.095	0.129
-714.733	-52.290	-0.290	0.135
-713.718	-200.000	-0.011	-0.142
-712.704	66.868	0.137	-0.141
-711.689	-39.159	-0.319	-0.169
-710.675	-36.398	-0.116	0.063
-709.660	-68.071	0.133	0.052
-708.645	800.000	-0.040	-0.130
-707.631	128.003	-0.297	0.379
-706.616	-47.864	0.248	-0.121
-705.602	800.000	0.051	-0.197
-704.587	-56.117	0.121	-0.054
-703.572	-162.625	-0.231	-0.011
-702.558	214.913	-0.108	0.173
-701.543	-200.000	0.074	-0.366
-700.529	96.552	0.070	0.080
-699.514	-143.287	-0.277	-0.027
-698.499	-200.000	-0.077	0.448
-697.485	96.154	0.050	0.057
-696.470	562.121	-0.100	0.243
-695.456	-11.024	-0.247	-0.164
-694.441	-45.808	-0.215	-0.106
-693.426	-200.000	-0.011	-0.284
-692.412	4.915	-0.150	-0.111
-691.397	0.437	-0.129	-0.093
-690.383	-200.000	0.009	-0.288
-689.368	-19.933	-0.173	-0.107
-688.354	-127.288	0.480	-0.070
-687.339	249.849	-0.026	0.045
-686.324	-200.000	0.007	0.062
-685.310	-113.454	-0.274	0.054
-684.295	-92.920	0.260	0.073
-683.281	-148.725	0.155	-0.013
-682.266	800.000	0.139	-0.498
-681.251	474.070	0.150	-0.339
-680.237	36.537	0.176	0.156
-679.222	-174.598	0.208	-0.006
-678.208	-5.970	-0.281	-0.193
-677.193	215.894	0.100	0.160
-676.178	-200.000	-0.010	-0.250
-675.164	-200.000	-0.006	0.247
-674.149	-3.710	0.293	0.204
-673.135	-40.497	-0.163	0.085
-672.120	-149.129	-0.215	-0.017
-671.105	800.000	-0.181	0.517
-670.091	-200.000	0.017	0.156
-669.076	-200.000	-0.007	-0.190
-668.062	165.359	0.089	-0.126
-667.047	-54.397	-0.208	-0.095
-666.032	-30.050	-0.293	-0.167
-665.018	-200.000	0.009	0.075
-664.003	800.000	-0.015	-0.046
-662.989	-96.757	-0.416	-0.110
-661.974	800.000	0.025	-0.079
-660.959	584.992	0.110	0.272
-659.945	800.000	0.130	-0.414
-658.930	-30.395	-0.183	-0.104
-657.916	564.014	0.085	-0.207
-656.901	800.000	-0.044	-0.135
-655.886	-65.581	-0.213	0.086
-654.872	-103.744	-0.306	-0.072
-653.857	383.642	0.106	-0.219
-652.843	16.114	-0.249	0.197
-651.828	109.634	-0.076	0.091
-650.814	441.474	-0.068	-0.149
-649.799	-25.516	-0.227	-0.134
-648.784	-109.183	-0.362	0.077
-647.770	23.546	-0.251	0.207
-646.755	-200.000	-0.005	-0.067
-645.741	-161.928	-0.238	0.012
-644.726	-23.154	0.412	-0.249
-643.711	-0.279	-0.098	-0.070
-642.697	138.436	-0.157	0.206
-641.682	-146.415	0.286	0.025
-640.668	362.073	-0.024	-0.049
-639.653	-149.453	-0.275	0.022
-638.638	46.871	0.248	0.231
-637.624	256.872	0.055	0.095
-636.609	46.969	0.101	0.094
-635.595	134.582	-0.187	0.242
-634.580	41.326	-0.213	0.193
-633.565	391.768	-0.179	0.372
-632.551	800.000	0.125	0.493
-631.536	-158.599	0.251	-0.014
-630.522	757.143	-0.016	-0.045
-629.507	163.408	-0.153	-0.215
-628.492	544.939	0.042	0.101
-627.478	95.745	-0.081	-0.093
-626.463	-136.685	0.222	-0.026
-625.449	334.417	0.064	-0.124
-624.434	363.128	-0.156	-0.315
-623.419	-155.772	-0.328	0.021
-622.405	-200.000	0.006	-0.120
-621.390	-66.353	-0.083	0.033
-620.376	278.703	0.110	-0.197
-619.361	800.000	0.115	-0.351
-618.346	540.732	-0.044	-0.105
-617.332	-78.704	-0.215	-0.074
-616.317	-82.676	-0.183	0.059
-615.303	-163.008	0.087	0.004
-614.288	-194.424	-0.294	0.002
-613.273	-120.511	-0.241	-0.041
-612.259	462.102	-0.065	-0.146
-611.244	363.225	0.116	-0.233
-610.230	366.956	-0.195	-0.393
-609.215	166.339	0.200	0.284
-608.201	-82.235	-0.566	-0.184
-607.186	88.005	0.107	0.119
-606.171	-131.701	0.225	-0.030
-605.157	191.297	-0.095	0.143
-604.142	-128.372	0.222	-0.032
-603.128	339.306	-0.053	0.104
-602.113	280.776	-0.120	-0.216
-601.098	144.770	-0.081	-0.109
-600.084	-31.547	-0.081	0.046
-599.069	-200.000	-0.020	-0.199
-598.055	469.674	0.179	-0.401
-597.040	-200.000	-0.007	0.204
-596.025	57.167	-0.079	0.077
-595.011	-123.270	-0.152	0.024
-593.996	422.494	0.075	-0.160
-592.982	57.199	-0.221	-0.215
-591.967	-21.795	0.344	-0.210
-590.952	125.863	0.289	-0.366
-589.938	800.000	0.048	0.165
-588.923	-26.708	-0.558	-0.327
-587.909	39.345	-0.203	0.182
-586.894	152.615	-0.151	0.207
-585.879	-57.223	-0.198	-0.087
-584.865	116.156	0.123	0.151
-583.850	800.000	0.041	0.153
-582.836	800.000	-0.024	-0.095
-581.821	80.722	0.073	0.079
-580.806	97.362	-0.233	0.267
-579.792	800.000	-0.103	0.316
-578.777	-129.782	-0.066	-0.009
-577.763	800.000	-0.097	-0.378
-576.748	-200.000	0.027	-0.133
-575.733	156.938	0.051	-0.070
-574.719	109.772	0.150	-0.180
-573.704	-200.000	-0.009	-0.230
-572.690	-26.823	-0.066	0.038
-571.675	-141.825	-0.153	-0.015
-570.661	-57.557	-0.296	-0.130
-569.646	-26.801	0.061	0.036
-568.631	469.206	-0.083	0.186
-567.617	-72.111	-0.274	0.102
-566.602	69.529	-0.149	-0.154
-565.588	80.493	-0.082	0.088
-564.573	-103.592	0.306	-0.072
-563.558	16.781	-0.295	-0.233
-562.544	-95.739	0.164	0.044
-561.529	190.714	-0.257	-0.386
-560.515	-200.000	-0.019	-0.199
-559.500	84.171	0.071	-0.077
-558.485	-58.416	-0.011	-0.005
-557.471	-200.000	0.078	0.381
-556.456	-22.094	-0.037	0.022
-555.442	0.793	0.345	0.247
-554.427	-98.010	0.056	-0.014
-553.412	48.145	-0.288	0.269
-552.398	179.285	0.159	0.232
-551.383	169.390	0.067	0.096
-550.369	800.000	-0.042	-0.175
-549.354	-21.422	0.070	-0.042
-548.339	386.905	-0.007	-0.015
-547.325	-3.101	0.134	0.093
-546.310	-200.000	-0.022	-0.103
-545.296	-200.000	-0.018	-0.420
-544.281	-200.000	0.001	0.278
-543.266	151.554	0.079	0.107
-542.252	-89.484	-0.172	0.051
-541.237	-86.924	0.324	0.099
-540.223	226.491	-0.123	-0.199
-539.208	6.881	-0.122	0.091
-538.193	-58.153	-0.076	-0.033
-537.179	-200.000	0.001	-0.065
-536.164	-200.000	0.015	-0.076
-535.150	-200.000	-0.037	-0.237
-534.135	162.971	0.078	0.110
-533.121	-26.596	0.201	0.117
-532.106	-143.564	-0.268	0.025
-531.091	153.539	-0.155	-0.211
-530.077	209.864	0.177	-0.277
-529.062	-29.659	0.260	-0.148
-528.048	-114.683	-0.136	0.026
-527.033	-200.000	-0.040	-0.272
-526.018	494.790	0.149	-0.342
-525.004	-200.000	-0.002	-0.155
-523.989	-200.000	-0.027	-0.303
-522.975	-200.000	-0.013	0.148
-521.960	255.590	-0.119	-0.204
-520.945	-141.736	0.216	-0.022
-519.931	-11.559	-0.349	0.229
-518.916	29.704	0.131	0.111
-517.902	-200.000	-0.016	0.275
-516.887	-88.420	-0.314	0.094
-515.872	-114.218	0.113	-0.022
-514.858	-20.740	0.293	0.179
-513.843	-87.829	-0.295	-0.088
-512.829	-104.659	-0.035	0.008
-511.814	800.000	0.069	-0.294
-510.799	-200.000	0.007	0.076
-509.785	-80.746	0.085	0.028
-508.770	361.437	0.084	-0.167
-507.756	329.855	0.166	-0.319
-506.741	46.163	0.171	-0.158
-505.726	284.690	0.125	0.225
-504.712	-98.219	-0.104	0.027
-503.697	-112.766	0.181	-0.036
-502.683	-128.483	0.330	-0.047
-501.668	800.000	0.064	0.265
-500.653	620.237	-0.201	-0.504
-499.639	61.689	-0.242	-0.240
-498.624	-105.295	0.133	-0.030
-497.610	-159.140	0.307	-0.017
-496.595	49.313	0.091	-0.085
-495.581	-181.204	-0.071	0.001
-494.566	-27.115	-0.352	0.204
-493.551	589.447	0.051	-0.126
-492.537	30.928	0.146	-0.125
-491.522	672.938	-0.066	-0.171
-490.508	-98.890	-0.101	-0.026
-489.493	-16.968	0.195	0.122
-488.478	-37.772	-0.195	-0.103
-487.464	-200.000	-0.040	0.182
-486.449	668.666	0.029	0.074
-485.435	154.366	0.250	0.342
-484.420	-43.314	-0.105	-0.053
-483.405	-200.000	-0.021	0.133
-482.391	-200.000	0.059	0.500
-481.376	-193.196	0.228	0.002
-480.362	28.074	0.199	-0.167
-479.347	92.414	0.078	-0.088
-478.332	-69.641	-0.209	-0.080
-477.318	-200.000	-0.002	-0.044
-476.303	230.004	-0.097	0.157
-475.289	800.000	-0.049	0.163
-474.274	-56.661	-0.429	0.189
-473.259	10.441	-0.038	0.029
-472.245	42.047	0.119	0.108
-471.230	-39.481	0.106	-0.055
-470.216	-200.000	-0.035	-0.173
-469.201	-42.404	-0.196	0.100
-468.186	-200.000	-0.018	0.151
-467.172	-138.073	-0.200	-0.022
-466.157	-117.250	-0.245	-0.044
-465.143	-84.630	-0.173	-0.054
-464.128	117.083	-0.162	0.198
-463.113	446.550	-0.061	0.133
-462.099	723.245	-0.110	0.292
-461.084	800.000	0.064	0.198
-460.070	-200.000	0.003	-0.133
-459.055	176.407	0.230	-0.333
-458.040	800.000	-0.047	-0.144
-457.026	-71.994	0.220	0.081
-456.011	-184.305	0.327	-0.005
-454.997	285.921	0.163	-0.293
-453.982	-18.935	0.253	0.157
-452.968	800.000	-0.065	0.208
-451.953	-176.566	0.215	-0.005
-450.938	-200.000	0.018	0.281
-449.924	-200.000	-0.028	-0.299
-448.909	-200.000	0.014	-0.126
-447.895	-116.581	-0.283	0.052
-446.880	-15.081	-0.188	-0.120
-445.865	-104.195	-0.348	-0.080
-444.851	158.328	0.110	0.151
-443.836	200.000	0.295	-0.451
-442.822	-0.733	0.402	-0.284
-441.807	10.141	0.199	-0.150
-440.792	49.083	0.100	0.093
-439.778	800.000	-0.041	-0.131
-438.763	800.000	-0.030	-0.085
-437.749	100.938	0.230	0.266
-436.734	234.766	-0.133	-0.218
-435.719	-126.306	-0.098	-0.015
-434.705	21.655	-0.175	0.141
-433.690	-156.195	0.493	0.031
-432.676	355.895	-0.270	0.535
-431.661	-150.533	0.347	0.026
-430.646	-82.553	-0.265	0.085
-429.632	-200.000	0.093	0.415
-428.617	-100.853	-0.263	-0.064
-427.603	-200.000	0.033	-0.163
-426.588	800.000	0.114	-0.383
-425.573	-140.123	-0.152	0.016
-424.559	-71.293	0.212	0.079
-423.544	-200.000	-0.052	0.246
-422.530	11.373	-0.237	-0.180
-421.515	-55.810	0.306	0.136
-420.500	-35.394	0.200	0.108
-419.486	-51.366	0.118	-0.055
-418.471	800.000	0.058	0.213
-417.457	66.551	0.097	-0.098
-416.442	-154.574	0.187	0.012
-415.428	72.949	0.242	-0.251
-414.413	372.707	0.030	0.061
-413.398	67.556	0.069	-0.070
-412.384	-96.642	0.197	-0.052
-411.369	-139.495	-0.201	0.021
-410.355	-149.964	0.252	0.020
-409.340	-28.203	0.409	-0.235
-408.325	-22.185	0.212	0.128
-407.311	80.847	-0.088	0.094
-406.296	171.795	-0.216	-0.308
-405.282	204.044	-0.037	0.057
-404.267	430.276	-0.038	-0.082
-403.252	-200.000	-0.076	-0.379
-402.238	595.554	0.086	0.211
-401.223	52.698	-0.150	0.142
-400.209	-111.561	-0.189	0.038
-399.194	-98.282	0.085	-0.022
-398.179	-17.104	-0.070	-0.044
-397.165	-200.000	0.051	0.259
-396.150	-162.102	-0.344	0.017
-395.136	-131.929	0.216	0.028
-394.121	286.924	-0.128	0.230
-393.106	800.000	0.078	0.329
-392.092	-46.029	-0.298	-0.146
-391.077	43.123	-0.319	-0.289
-390.063	17.837	-0.201	0.159
-389.048	-13.138	0.192	-0.124
-388.033	501.459	0.110	-0.253
-387.019	592.969	0.057	0.139
-386.004	143.164	0.188	0.248
-384.990	1.960	-0.160	-0.115
-383.975	800.000	-0.091	0.363
-382.960	-200.000	-0.008	0.061
-381.946	800.000	0.038	-0.153
-380.931	304.930	0.042	0.078
-379.917	-116.136	-0.282	-0.052
-378.902	11.658	-0.294	0.224
-377.888	41.187	0.204	-0.183
-376.873	-117.076	-0.177	-0.032
-375.858	177.957	0.189	-0.273
-374.844	139.442	-0.138	-0.180
-373.829	106.667	-0.090	0.106
-372.815	330.145	0.032	-0.061
-371.800	5.056	-0.117	0.085
-370.785	746.787	0.191	-0.509
-369.771	-200.000	-0.040	0.196
-368.756	299.999	-0.126	-0.231
-367.742	168.242	0.098	-0.138
-366.727	55.425	0.144	-0.138
-365.712	11.211	0.257	-0.195
-364.698	800.000	0.029	-0.118
-363.683	-48.478	-0.212	0.101
-362.669	156.659	-0.083	-0.114
-361.654	161.419	-0.086	-0.119
-360.639	-200.000	-0.004	0.242
-359.625	-65.269	0.115	0.046
-358.610	-16.876	-0.104	-0.065
-357.596	-7.087	0.211	0.142
-356.581	351.132	-0.175	0.343
-355.566	-200.000	0.000	-0.268
-354.552	175.715	-0.068	0.098
-353.537	72.945	0.183	0.190
-352.523	-200.000	0.026	0.294
-351.508	165.286	0.119	0.166
-350.493	184.240	-0.086	-0.126
-349.479	31.073	0.007	0.006
-348.464	143.521	-0.064	0.085
-347.450	-200.000	-0.003	-0.057
-346.435	-200.000	-0.045	-0.360
-345.420	157.599	-0.110	0.151
-344.406	150.841	0.236	0.318
-343.391	-191.262	-0.227	0.002
-342.377	-200.000	0.003	0.284
-341.362	703.764	0.032	-0.083
-340.348	-200.000	-0.005	0.258
-339.333	-98.859	-0.184	-0.046
-338.318	-200.000	-0.140	-0.000
-337.304	-200.000	0.007	0.107
-336.289	-200.000	-0.039	0.305
-335.275	-200.000	-0.035	0.240
-334.260	130.086	-0.104	0.132
-333.245	-94.481	0.201	-0.054
-332.231	340.175	0.137	0.265
-331.216	68.309	-0.055	0.056
-330.202	-200.000	-0.007	-0.200
-329.187	-71.102	-0.414	0.154
-328.172	-200.000	0.038	0.164
-327.158	-104.240	-0.346	0.080
-326.143	800.000	-0.041	0.169
-325.129	17.645	0.115	-0.090
-324.114	-69.827	0.281	0.106
-323.099	-200.000	-0.015	0.094
-322.085	800.000	0.099	0.312
-321.070	33.495	0.265	-0.228
-320.056	47.565	-0.286	-0.264
-319.041	-72.679	0.195	0.071
-318.026	-58.689	0.037	-0.016
-317.012	621.217	0.125	0.311
-315.997	-119.634	-0.298	-0.051
-314.983	14.505	0.136	0.105
-313.968	800.000	-0.050	-0.199
-312.953	-200.000	-0.039	0.178
-311.939	4.948	-0.118	0.086
-310.924	-5.687	-0.087	-0.059
-309.910	-200.000	0.044	-0.254
-308.895	-111.364	-0.120	0.024
-307.880	-183.327	-0.129	-0.002
-306.866	36.040	-0.090	-0.079
-305.851	800.000	0.092	-0.371
-304.837	-119.821	0.054	0.009
-303.822	307.446	0.081	-0.150
-302.807	-200.000	0.272	0.001
-301.793	-200.000	0.017	0.125
-300.778	501.013	0.029	0.066
-299.764	94.275	0.166	0.187
-298.749	109.746	-0.157	0.186
-297.735	-61.137	0.314	-0.131
-296.720	-200.000	-0.000	0.042
-295.705	11.571	0.050	-0.038
-294.691	8.135	0.075	0.056
-293.676	-23.518	-0.313	0.186
-292.662	103.845	0.088	0.102
-291.647	91.324	0.111	-0.124
-290.632	-126.452	-0.281	0.041
-289.618	778.299	-0.020	0.055
-288.603	-10.385	0.185	-0.121
-287.589	357.583	0.079	0.155
-286.574	-81.929	-0.265	-0.086
-285.559	-64.964	-0.238	0.095
-284.545	-128.776	0.221	-0.031
-283.530	-145.563	-0.075	-0.007
-282.516	-85.510	0.359	-0.110
-281.501	800.000	-0.085	-0.247
-280.486	358.906	-0.064	0.126
-279.472	-200.000	0.049	-0.351
-278.457	-138.712	0.315	0.034
-277.443	50.733	-0.351	-0.329
-276.428	-89.357	-0.149	-0.043
-275.413	522.119	0.055	-0.128
-274.399	-97.426	0.138	0.035
-273.384	800.000	0.063	-0.172
-272.370	-113.550	-0.174	0.034
-271.355	208.760	-0.159	0.245
-270.340	82.008	0.343	-0.367
-269.326	800.000	-0.064	0.213
-268.311	166.323	-0.119	-0.167
-267.297	-200.000	-0.006	0.179
-266.282	-200.000	0.036	-0.224
-265.267	666.436	0.087	0.222
-264.253	-89.549	-0.050	-0.014
-263.238	-200.000	0.014	-0.134
-262.224	-11.848	-0.031	0.020
-261.209	-11.063	-0.228	-0.149
-260.195	-139.548	-0.390	0.041
-259.180	14.195	-0.230	-0.177
-258.165	79.864	0.214	0.227
-257.151	256.302	0.071	0.120
-256.136	-169.472	-0.384	-0.014
-255.122	800.000	-0.056	-0.188
-254.107	-145.217	0.306	-0.027
-253.092	-200.000	-0.008	-0.291
-252.078	-200.000	-0.029	-0.143
-251.063	425.621	-0.121	-0.257
-250.049	623.453	-0.111	-0.275
-249.034	83.776	-0.128	0.138
-248.019	-140.116	0.229	-0.024
-247.005	-6.031	-0.256	-0.173
-245.990	65.665	-0.304	0.304
-244.976	800.000	-0.063	0.221
-243.961	-200.000	0.049	-0.287
-242.946	480.973	-0.064	-0.143
-241.932	-95.349	0.080	-0.021
-240.917	-40.041	0.105	0.054
-239.903	-200.000	-0.013	0.373
-238.888	147.974	0.249	0.332
-237.873	-21.133	-0.239	-0.144
-236.859	130.190	-0.311	0.393
-235.844	800.000	0.104	0.285
-234.830	-116.636	0.334	0.061
-233.815	-120.767	0.144	-0.024
-232.800	-188.064	0.258	-0.003
-231.786	-44.230	0.039	0.019
-230.771	-136.071	0.234	0.027
-229.757	-200.000	0.006	-0.189
-228.742	-104.576	0.226	-0.051
-227.727	147.797	0.161	0.214
-226.713	156.184	0.209	-0.284
-225.698	615.906	0.063	0.156
-224.684	576.937	-0.052	0.126
-223.669	636.209	0.080	0.201
-222.655	-138.480	-0.249	-0.027
-221.640	-72.613	0.428	0.156
-220.625	174.593	-0.097	0.138
-219.611	366.597	-0.144	-0.287
-218.596	-200.000	0.015	0.305
-217.582	41.770	0.155	-0.139
-216.567	198.917	-0.055	-0.083
-215.552	-4.122	-0.092	-0.063
-214.538	326.756	0.026	-0.049
-213.523	-94.846	0.152	-0.041
-212.509	-44.532	-0.184	0.091
-211.494	-200.000	0.032	0.304
-210.479	800.000	-0.031	-0.116
-209.465	-96.925	0.408	0.106
-208.450	4.785	-0.136	-0.099
-207.436	390.108	0.136	0.279
-206.421	716.419	0.003	-0.009
-205.406	-141.152	0.228	-0.023
-204.392	45.255	0.108	-0.098
-203.377	-200.000	0.039	0.361
-202.363	61.661	0.033	-0.032
-201.348	-50.513	0.342	0.159
-200.333	800.000	-0.021	0.089
-199.319	800.000	-0.078	-0.221
-198.304	229.654	-0.106	0.171
-197.290	-65.529	0.093	-0.037
-196.275	541.371	0.072	-0.169
-195.260	-200.000	0.029	0.151
-194.246	-181.981	0.342	-0.006
-193.231	469.963	0.181	-0.400
-192.217	800.000	-0.076	-0.323
-191.202	73.721	-0.224	0.231
-190.187	20.834	0.097	-0.077
-189.173	396.712	-0.125	0.258
-188.158	38.209	0.188	0.165
-187.144	13.317	-0.044	-0.033
-186.129	84.365	0.053	0.057
-185.114	-61.990	-0.070	-0.029
-184.100	-165.211	0.095	0.004
-183.085	525.882	0.102	-0.237
-182.071	16.965	0.465	0.362
-181.056	1.586	0.223	0.158
-180.042	-16.842	-0.052	-0.033
-179.027	117.363	0.216	-0.261
-178.012	-72.550	0.091	0.033
-176.998	-73.646	-0.191	-0.068
-175.983	800.000	0.061	0.180
-174.969	622.700	-0.115	-0.286
-173.954	316.859	-0.119	0.221
-172.939	-103.530	0.220	-0.051
-171.925	-74.896	-0.187	0.066
-170.910	-75.591	0.131	0.046
-169.896	-69.103	0.021	0.008
-168.881	421.481	0.145	0.306
-167.866	193.766	0.121	0.181
-166.852	-53.196	-0.364	-0.164
-165.837	526.790	0.136	0.316
-164.823	464.336	-0.074	-0.162
-163.808	177.801	0.100	-0.144
-162.793	-128.121	-0.140	0.020
-161.779	601.970	-0.073	0.178
-160.764	-29.945	0.259	-0.145
-159.750	629.317	-0.206	0.511
-158.735	-52.528	-0.185	-0.084
-157.720	-200.000	-0.292	-0.000
-156.706	45.047	0.135	0.122
-155.691	-200.000	-0.024	0.110
-154.677	110.061	-0.185	-0.218
-153.662	-157.470	0.120	0.007
-152.647	-82.090	0.332	-0.106
-151.633	-200.000	0.035	-0.230
-150.618	-200.000	0.036	-0.369
-149.604	800.000	0.091	0.325
-148.589	73.940	0.169	0.175
-147.574	81.873	-0.067	0.071
-146.560	-200.000	-0.063	-0.390
-145.545	24.279	0.270	-0.220
-144.531	800.000	-0.067	0.274
-143.516	-180.563	-0.161	0.003
-142.502	81.389	0.047	-0.050
-141.487	165.883	-0.098	-0.136
-140.472	100.457	0.095	0.109
-139.458	-62.140	-0.368	0.151
-138.443	-119.122	-0.227	0.039
-137.429	484.413	0.118	0.264
-136.414	-117.289	0.272	0.049
-135.399	-67.393	-0.368	-0.142
-134.385	3.674	0.065	-0.046
-133.370	-117.574	0.089	0.016
-132.356	44.155	0.082	-0.074
-131.341	-44.074	0.388	0.192
-130.326	129.699	0.122	0.153
-129.312	-99.085	0.175	0.043
-128.297	-200.000	0.027	-0.131
-127.283	-105.531	0.286	0.064
-126.268	610.694	0.170	0.418
-125.253	-19.438	-0.199	0.121
-124.239	-200.000	-0.009	0.087
-123.224	-135.423	0.208	-0.024
-122.210	-65.526	-0.156	-0.061
-121.195	-67.926	-0.351	0.134
