DTS Sentinel unit serial number:	SN413079Multiplexer serial number:	ORYXHardware model number:	OX4-SRSoftware version number:	ORYX F/W v4.00 Oryx Data Collector v3.7.2.0data status	okinstallation	princeton_trtdifferential loss correction	single-endedforward channel	channel 1reverse channel	N/Adate	2019/09/16time	02:26:35forward acquisition time	60.00reverse acquisition time	0.00gamma	496.2192k internal	0.2331k external	0.2331temperature offset calibration	0.9976default loss term (dB/km)	0.3790temperature slope calibration	1.0000multiplexer offset coefficient	1.0000multiplexer slope coefficient	1.0000fibre end	0.00T internal ref (°C)	27.62T ext. ref 1 (°C)	10.24T ext. ref 2 (°C)	22.65length (m)	temperature (°C)	Stokes	anti-Stokes-747.200	18.032	0.238	0.191
-746.185	97.941	-0.273	0.317
-745.171	-141.767	0.262	0.026
-744.156	1.809	-0.083	0.060
-743.142	-96.536	-0.046	0.012
-742.127	283.269	-0.166	0.301
-741.112	-200.000	-0.017	0.192
-740.098	-7.260	0.107	0.073
-739.083	-136.482	0.011	-0.001
-738.069	-53.025	-0.075	-0.035
-737.054	-162.615	0.609	-0.030
-736.039	56.579	-0.176	0.172
-735.025	100.885	0.220	0.257
-734.010	234.329	-0.155	0.257
-732.996	44.049	-0.206	-0.190
-731.981	103.311	-0.207	-0.244
-730.966	800.000	-0.079	0.279
-729.952	145.841	0.101	0.136
-728.937	31.022	0.137	-0.118
-727.923	246.674	0.074	-0.125
-726.908	-143.736	-0.238	-0.023
-725.894	159.410	-0.017	-0.023
-724.879	-82.448	0.313	-0.102
-723.864	-200.000	-0.033	0.296
-722.850	33.181	-0.237	0.207
-721.835	-12.848	0.085	-0.056
-720.821	-200.000	0.026	0.246
-719.806	-25.077	-0.187	0.112
-718.791	18.012	0.090	0.072
-717.777	513.841	0.031	-0.072
-716.762	-10.957	0.026	-0.017
-715.748	-24.125	0.237	-0.142
-714.733	368.571	-0.204	0.415
-713.718	33.891	-0.180	-0.158
-712.704	-81.772	0.031	-0.010
-711.689	105.999	0.154	-0.183
-710.675	-78.124	0.173	-0.060
-709.660	-40.727	0.178	0.093
-708.645	800.000	-0.078	0.225
-707.631	-198.809	-0.221	0.001
-706.616	-200.000	-0.002	-0.115
-705.602	-127.691	0.144	-0.021
-704.587	439.216	-0.019	-0.042
-703.572	88.501	0.207	-0.231
-702.558	28.945	-0.171	-0.145
-701.543	52.999	-0.215	-0.206
-700.529	-5.693	0.211	-0.146
-699.514	63.384	-0.086	-0.087
-698.499	-29.670	0.220	-0.126
-697.485	-178.410	-0.151	-0.004
-696.470	-198.610	-0.029	0.000
-695.456	58.509	-0.238	-0.235
-694.441	-161.555	0.417	-0.022
-693.426	800.000	-0.025	-0.094
-692.412	-50.822	0.236	0.111
-691.397	-69.562	-0.140	0.054
-690.383	237.010	0.122	0.203
-689.368	-200.000	-0.039	-0.240
-688.354	-72.771	-0.064	0.024
-687.339	-143.418	0.340	-0.033
-686.324	-15.764	-0.240	0.154
-685.310	-200.000	0.012	0.157
-684.295	-97.725	0.314	0.082
-683.281	-16.260	-0.180	0.115
-682.266	-130.542	-0.107	-0.015
-681.251	266.590	0.105	0.184
-680.237	-132.213	0.262	0.034
-679.222	-152.136	-0.135	0.010
-678.208	-36.676	0.186	-0.100
-677.193	67.497	-0.140	-0.143
-676.178	800.000	-0.078	-0.273
-675.164	-200.000	0.005	0.287
-674.149	179.657	-0.097	-0.142
-673.135	363.379	0.078	0.157
-672.120	-51.428	-0.289	-0.135
-671.105	-133.885	0.373	0.047
-670.091	800.000	0.102	-0.285
-669.076	143.375	0.247	0.331
-668.062	800.000	0.088	0.272
-667.047	-100.279	-0.196	-0.049
-666.032	660.221	-0.116	-0.299
-665.018	273.306	-0.014	-0.025
-664.003	-156.394	0.123	0.008
-662.989	-17.169	0.067	0.042
-661.974	-51.021	0.263	-0.124
-660.959	192.640	-0.093	0.141
-659.945	190.597	0.170	-0.256
-658.930	-139.238	-0.160	-0.017
-657.916	692.518	0.101	0.264
-656.901	95.601	0.183	-0.210
-655.886	-11.350	0.210	0.139
-654.872	12.841	-0.223	-0.173
-653.857	-97.836	0.308	-0.080
-652.843	-200.000	-0.010	-0.067
-651.828	-70.825	0.173	-0.065
-650.814	-134.560	0.251	-0.031
-649.799	260.319	0.027	0.046
-648.784	-37.417	0.327	-0.175
-647.770	-200.000	0.049	-0.244
-646.755	-44.153	-0.381	0.192
-645.741	-118.638	0.107	0.019
-644.726	19.367	0.281	0.227
-643.711	-200.000	0.005	-0.095
-642.697	-104.638	-0.249	-0.057
-641.682	-60.370	-0.223	0.095
-640.668	-111.180	-0.157	-0.032
-639.653	13.574	0.252	0.196
-638.638	689.568	-0.059	-0.155
-637.624	59.125	0.133	-0.131
-636.609	-37.339	0.113	0.060
-635.595	158.472	-0.039	0.055
-634.580	-146.442	0.100	-0.009
-633.565	-88.006	-0.457	-0.138
-632.551	-98.552	-0.171	0.044
-631.536	-102.339	0.072	0.017
-630.522	-34.968	-0.357	0.195
-629.507	-13.229	0.051	-0.033
-628.492	32.582	0.214	-0.186
-627.478	-132.685	-0.113	-0.015
-626.463	-200.000	-0.031	0.242
-625.449	140.084	-0.166	-0.219
-624.434	90.535	0.195	-0.219
-623.419	-172.307	0.149	0.005
-622.405	-111.234	-0.267	-0.055
-621.390	5.704	0.336	-0.249
-620.376	-200.000	-0.020	-0.316
-619.361	-45.490	-0.352	0.175
-618.346	-120.342	-0.409	-0.070
-617.332	-112.352	-0.226	0.045
-616.317	-41.264	-0.365	-0.188
-615.303	9.877	0.138	0.105
-614.288	-68.046	-0.164	-0.064
-613.273	43.398	0.122	0.112
-612.259	-80.849	-0.219	0.073
-611.244	800.000	0.055	0.175
-610.230	-0.509	-0.228	0.162
-609.215	27.235	-0.237	0.199
-608.201	-155.686	-0.394	0.025
-607.186	117.350	-0.147	-0.180
-606.171	117.312	0.163	0.201
-605.157	357.834	-0.199	-0.397
-604.142	800.000	-0.043	-0.129
-603.128	170.816	-0.233	-0.334
-602.113	-200.000	0.007	-0.108
-601.098	140.868	0.169	0.223
-600.084	-43.674	-0.315	-0.159
-599.069	226.296	-0.069	-0.112
-598.055	-5.872	0.186	-0.128
-597.040	-101.259	0.211	-0.052
-596.025	61.586	-0.174	0.173
-595.011	366.946	-0.115	-0.232
-593.996	-1.595	0.134	-0.094
-592.982	-28.241	0.047	0.027
-591.967	-200.000	-0.045	0.343
-590.952	-200.000	0.002	-0.054
-589.938	-200.000	0.007	0.095
-588.923	88.771	-0.264	0.294
-587.909	7.370	0.202	-0.151
-586.894	800.000	0.050	-0.190
-585.879	-59.669	-0.283	-0.121
-584.865	-200.000	-0.052	0.298
-583.850	-123.006	0.166	0.027
-582.836	800.000	-0.112	0.325
-581.821	251.950	0.067	0.114
-580.806	39.972	-0.136	-0.122
-579.792	-22.012	0.106	-0.064
-578.777	-76.699	-0.051	-0.018
-577.763	74.634	0.065	0.068
-576.748	97.719	-0.112	0.129
-575.733	206.529	0.116	-0.181
-574.719	472.314	0.071	-0.159
-573.704	518.047	0.130	0.304
-572.690	552.422	-0.118	-0.284
-571.675	-200.000	-0.029	-0.145
-570.661	122.417	-0.189	-0.236
-569.646	-25.856	0.045	0.026
-568.631	42.304	0.287	0.261
-567.617	-3.548	-0.261	0.181
-566.602	79.579	0.192	-0.206
-565.588	139.663	0.077	-0.102
-564.573	-55.676	-0.179	-0.080
-563.558	800.000	-0.062	0.217
-562.544	-91.459	0.207	0.059
-561.529	-132.919	-0.316	0.040
-560.515	-52.664	0.034	0.016
-559.500	-19.056	-0.074	-0.046
-558.485	-200.000	0.017	0.076
-557.471	36.069	-0.019	-0.017
-556.456	179.110	0.210	-0.307
-555.442	-200.000	-0.080	0.352
-554.427	168.940	-0.211	0.301
-553.412	253.399	-0.191	-0.325
-552.398	-34.069	0.125	-0.068
-551.383	250.736	-0.117	-0.198
-550.369	-12.135	-0.137	-0.089
-549.354	-173.237	0.089	0.003
-548.339	634.214	-0.023	-0.058
-547.325	-200.000	0.006	0.275
-546.310	-200.000	-0.043	0.208
-545.296	-50.962	0.309	0.145
-544.281	-117.315	0.429	0.078
-543.266	-97.887	-0.380	0.098
-542.252	-41.894	0.149	-0.076
-541.237	800.000	0.091	0.279
-540.223	-108.826	-0.339	0.072
-539.208	-58.274	-0.161	-0.070
-538.193	-3.325	-0.296	-0.206
-537.179	-39.358	-0.363	-0.190
-536.164	184.122	-0.092	0.137
-535.150	715.192	0.068	-0.181
-534.135	-112.228	0.523	-0.105
-533.121	90.323	0.143	-0.159
-532.106	-200.000	-0.026	-0.240
-531.091	-148.543	0.136	-0.011
-530.077	-200.000	-0.018	-0.173
-529.062	-47.438	-0.216	-0.105
-528.048	-200.000	0.020	-0.161
-527.033	-82.916	0.134	-0.043
-526.018	-176.667	-0.337	-0.009
-525.004	-36.054	-0.169	-0.091
-523.989	414.423	0.050	-0.106
-522.975	-60.650	0.166	-0.070
-521.960	20.301	0.152	0.123
-520.945	-114.774	0.141	-0.027
-519.931	204.173	-0.100	0.154
-518.916	352.941	-0.090	-0.179
-517.902	28.729	-0.208	-0.175
-516.887	-200.000	0.002	0.114
-515.872	-38.700	-0.280	-0.147
-514.858	155.395	0.258	0.355
-513.843	-200.000	0.045	0.208
-512.829	-74.580	-0.107	-0.039
-511.814	123.106	-0.248	-0.310
-510.799	42.877	0.251	-0.228
-509.785	800.000	0.021	0.092
-508.770	298.700	-0.106	0.194
-507.756	101.590	-0.105	-0.122
-506.741	800.000	0.073	-0.229
-505.726	-200.000	-0.013	0.168
-504.712	-200.000	-0.066	0.327
-503.697	-200.000	-0.014	-0.102
-502.683	-200.000	-0.001	0.189
-501.668	167.527	0.069	-0.098
-500.653	143.930	0.238	-0.316
-499.639	800.000	0.028	0.089
-498.624	-109.885	-0.253	-0.053
-497.610	800.000	-0.066	-0.227
-496.595	-77.131	-0.246	-0.086
-495.581	213.511	-0.016	-0.025
-494.566	-7.333	0.247	-0.166
-493.551	-103.310	0.074	0.017
-492.537	217.917	0.081	-0.128
-491.522	-63.215	0.131	0.054
-490.508	11.318	-0.103	-0.078
-489.493	303.550	0.096	-0.178
-488.478	-1.971	0.140	0.098
-487.464	-200.000	0.005	-0.257
-486.449	-200.000	0.028	-0.240
-485.435	-61.592	0.193	0.081
-484.420	-78.286	-0.056	-0.019
-483.405	-9.606	-0.064	-0.043
-482.391	124.169	0.122	0.152
-481.376	-200.000	-0.012	-0.478
-480.362	800.000	0.047	0.189
-479.347	800.000	0.057	-0.227
-478.332	800.000	0.075	-0.252
-477.318	-200.000	-0.009	0.058
-476.303	235.983	-0.189	-0.311
-475.289	-98.944	0.321	0.081
-474.274	732.256	0.104	0.276
-473.259	-200.000	-0.026	0.166
-472.245	-85.192	0.142	0.044
-471.230	-188.448	-0.142	-0.002
-470.216	-200.000	-0.023	0.115
-469.201	268.400	-0.138	-0.240
-468.186	800.000	0.020	0.058
-467.172	-18.531	0.376	-0.233
-466.157	-160.116	0.381	-0.021
-465.143	-78.982	0.098	-0.033
-464.128	46.792	-0.263	0.244
-463.113	187.862	0.083	0.124
-462.099	221.339	0.039	0.062
-461.084	17.729	-0.338	-0.268
-460.070	-73.911	0.142	-0.051
-459.055	-95.359	0.364	-0.097
-458.040	-144.963	0.166	-0.015
-457.026	728.193	-0.135	0.360
-456.011	800.000	-0.088	-0.289
-454.997	-134.144	0.397	-0.049
-453.982	9.655	0.237	-0.179
-452.968	-152.962	-0.178	0.012
-451.953	548.864	-0.116	0.276
-450.938	235.522	0.193	-0.317
-449.924	-131.198	-0.308	0.041
-448.909	-120.374	-0.123	-0.021
-447.895	225.124	0.113	-0.181
-446.880	-93.238	0.141	-0.039
-445.865	-198.559	-0.416	-0.002
-444.851	171.404	-0.136	0.194
-443.836	-191.341	-0.092	0.001
-442.822	-57.407	-0.206	-0.090
-441.807	-37.021	0.011	-0.006
-440.792	687.029	0.132	0.342
-439.778	-125.173	0.177	-0.027
-438.763	70.597	-0.108	-0.111
-437.749	282.123	-0.205	-0.366
-436.734	-123.337	0.255	0.040
-435.719	800.000	-0.106	-0.371
-434.705	22.771	0.272	0.221
-433.690	-200.000	-0.036	0.231
-432.676	-165.956	-0.241	0.010
-431.661	-20.810	0.169	0.103
-430.646	-178.374	0.102	-0.002
-429.632	69.115	-0.226	-0.231
-428.617	-8.041	0.172	0.115
-427.603	549.286	0.039	-0.092
-426.588	-200.000	0.118	0.542
-425.573	698.141	-0.164	0.429
-424.559	-200.000	0.037	-0.295
-423.544	243.412	-0.077	-0.128
-422.530	-71.792	0.408	-0.151
-421.515	158.832	0.043	-0.060
-420.500	800.000	0.016	-0.062
-419.486	-200.000	-0.078	-0.519
-418.471	242.192	-0.142	0.237
-417.457	-113.069	0.268	0.053
-416.442	17.697	0.030	0.024
-415.428	19.805	-0.060	-0.048
-414.413	-200.000	0.000	-0.111
-413.398	-200.000	0.038	-0.191
-412.384	-200.000	-0.066	0.325
-411.369	253.983	-0.122	-0.208
-410.355	-29.307	-0.184	-0.105
-409.340	800.000	-0.055	0.163
-408.325	-82.934	-0.286	-0.092
-407.311	-66.028	-0.288	-0.114
-406.296	48.819	-0.247	-0.230
-405.282	73.617	0.285	0.296
-404.267	-99.719	-0.536	0.133
-403.252	-7.827	0.319	-0.214
-402.238	-136.606	-0.165	-0.019
-401.223	-61.958	-0.182	0.076
-400.209	53.326	0.095	0.091
-399.194	800.000	-0.095	0.314
-398.179	-140.971	0.165	0.017
-397.165	-24.398	0.120	0.071
-396.150	-200.000	-0.014	-0.204
-395.136	375.954	-0.007	-0.014
-394.121	-86.819	0.141	-0.043
-393.106	-97.984	-0.172	-0.044
-392.092	-54.882	0.101	0.045
-391.077	-200.000	-0.047	0.446
-390.063	-17.714	-0.180	0.112
-389.048	-200.000	0.004	-0.156
-388.033	409.033	-0.129	-0.271
-387.019	-111.615	0.151	0.030
-386.004	64.520	-0.080	0.080
-384.990	-119.232	0.464	0.080
-383.975	-69.193	0.116	-0.044
-382.960	-41.043	-0.294	-0.151
-381.946	-62.248	-0.175	-0.072
-380.931	-200.000	-0.030	-0.153
-379.917	-200.000	0.022	-0.159
-378.902	661.013	0.053	0.136
-377.888	800.000	-0.115	0.472
-376.873	-167.674	-0.192	-0.008
-375.858	800.000	0.075	0.234
-374.844	449.089	-0.105	0.229
-373.829	-80.766	-0.083	-0.027
-372.815	99.555	0.273	0.313
-371.800	447.847	0.175	-0.382
-370.785	-13.074	-0.235	-0.151
-369.771	-30.579	0.288	-0.162
-368.756	-63.352	-0.055	-0.022
-367.742	-30.634	-0.198	-0.111
-366.727	317.011	-0.145	-0.272
-365.712	52.125	-0.213	0.202
-364.698	50.090	0.023	-0.022
-363.683	-200.000	-0.013	0.080
-362.669	800.000	-0.099	0.291
-361.654	-200.000	-0.028	0.399
-360.639	-200.000	-0.016	-0.107
-359.625	-37.762	-0.174	-0.092
-358.610	-148.733	0.312	0.025
-357.596	-74.293	0.089	-0.032
-356.581	800.000	0.106	-0.315
-355.566	462.702	0.127	-0.282
-354.552	-135.370	0.188	-0.022
-353.537	283.423	0.060	0.107
-352.523	-118.958	0.061	-0.011
-351.508	4.227	-0.119	-0.086
-350.493	-131.647	-0.133	-0.017
-349.479	117.880	0.151	0.184
-348.464	135.487	0.307	0.396
-347.450	-64.589	0.266	0.107
-346.435	-74.635	-0.155	0.055
-345.420	800.000	0.062	-0.243
-344.406	-200.000	-0.002	0.334
-343.391	159.799	-0.085	0.117
-342.377	87.590	0.056	0.061
-341.362	46.667	-0.276	0.254
-340.348	37.910	0.110	0.097
-339.333	-200.000	-0.019	-0.166
-338.318	-135.697	0.405	0.048
-337.304	-43.416	0.221	-0.111
-336.289	-162.431	0.328	0.016
-335.275	-9.047	-0.169	0.112
-334.260	108.480	-0.192	0.227
-333.245	-200.000	0.007	0.182
-332.231	19.388	0.220	0.175
-331.216	-35.020	0.043	0.023
-330.202	320.999	0.092	0.174
-329.187	-102.867	-0.327	0.077
-328.172	-113.292	0.392	0.076
-327.158	363.368	-0.112	0.223
-326.143	-200.000	0.051	-0.225
-325.129	102.914	0.096	0.111
-324.114	191.306	-0.166	-0.248
-323.099	170.965	-0.198	0.281
-322.085	493.923	0.115	0.261
-321.070	192.452	-0.179	-0.267
-320.056	216.912	0.059	0.093
-319.041	161.038	0.110	-0.152
-318.026	522.904	-0.067	-0.156
-317.012	-120.697	0.230	-0.038
-315.997	-65.815	0.107	0.042
-314.983	-120.110	-0.120	-0.020
-313.968	338.624	-0.201	-0.387
-312.953	262.413	0.062	-0.106
-311.939	-200.000	-0.004	0.032
-310.924	376.016	-0.095	-0.191
-309.910	21.154	-0.141	0.113
-308.895	132.387	-0.098	0.125
-307.880	348.074	0.062	-0.121
-306.866	-73.964	0.127	-0.045
-305.851	150.254	-0.162	-0.218
-304.837	-35.972	-0.304	0.163
-303.822	81.677	0.121	0.130
-302.807	-118.029	0.123	0.022
-301.793	800.000	0.065	0.218
-300.778	179.911	-0.122	0.176
-299.764	-200.000	0.021	-0.151
-298.749	5.767	0.066	0.048
-297.735	166.448	0.154	0.216
-296.720	-133.167	0.284	0.036
-295.705	-200.000	0.082	-0.561
-294.691	-24.721	-0.311	0.183
-293.676	53.865	0.103	0.097
-292.662	-200.000	-0.040	-0.200
-291.647	-200.000	-0.017	-0.180
-290.632	-126.369	-0.102	0.015
-289.618	-77.950	0.267	0.091
-288.603	-200.000	0.017	-0.264
-287.589	-36.480	0.023	-0.012
-286.574	27.025	0.044	-0.036
-285.559	-25.298	0.334	0.196
-284.545	-200.000	-0.013	-0.117
-283.530	277.303	-0.075	-0.132
-282.516	-166.310	-0.293	0.012
-281.501	-111.159	-0.099	0.020
-280.486	63.569	0.356	0.353
-279.472	523.389	-0.060	-0.139
-278.457	-161.189	0.061	0.003
-277.443	-200.000	0.014	-0.099
-276.428	324.505	-0.075	-0.142
-275.413	336.852	-0.122	0.235
-274.399	-200.000	0.003	-0.205
-273.384	185.090	0.039	-0.057
-272.370	-44.850	0.148	0.073
-271.355	-81.914	-0.022	0.007
-270.340	-200.000	-0.001	0.060
-269.326	-200.000	0.003	0.040
-268.311	209.015	0.164	0.253
-267.297	-14.774	0.274	-0.174
-266.282	-61.673	-0.187	0.077
-265.267	-71.227	0.299	0.111
-264.253	-92.068	-0.332	0.093
-263.238	-109.644	-0.167	-0.035
-262.224	-200.000	0.039	0.323
-261.209	-54.584	0.136	0.061
-260.195	-172.848	-0.237	0.007
-259.180	-200.000	-0.044	0.246
-258.165	-200.000	0.021	0.221
-257.151	-74.723	-0.222	0.079
-256.136	-107.237	0.226	-0.049
-255.122	-177.445	-0.268	-0.006
-254.107	58.623	0.264	-0.256
-253.092	13.378	0.119	-0.091
-252.078	114.778	0.048	0.058
-251.063	-200.000	-0.048	0.222
-250.049	173.526	0.130	-0.185
-249.034	-200.000	-0.032	0.317
-248.019	145.020	0.261	0.345
-247.005	-151.615	-0.244	-0.018
-245.990	-200.000	-0.006	0.091
-244.976	-125.970	0.406	0.060
-243.961	-200.000	0.009	-0.090
-242.946	74.116	-0.146	-0.152
-241.932	292.902	0.186	0.335
-240.917	459.619	0.032	0.071
-239.903	104.881	0.187	-0.217
-238.888	125.468	-0.142	0.177
-237.873	-97.101	0.034	0.009
-236.859	800.000	0.052	0.190
-235.844	601.787	-0.108	-0.264
-234.830	800.000	0.056	0.179
-233.815	-17.882	0.285	0.176
-232.800	800.000	-0.069	-0.221
-231.786	-200.000	-0.019	-0.135
-230.771	55.284	-0.063	-0.060
-229.757	156.726	-0.187	0.255
-228.742	800.000	0.036	0.099
-227.727	565.296	0.162	-0.388
-226.713	-200.000	0.024	-0.107
-225.698	-52.386	-0.107	0.049
-224.684	717.892	0.041	0.106
-223.669	-126.603	0.303	-0.044
-222.655	14.887	0.142	-0.110
-221.640	-94.974	-0.286	-0.076
-220.625	187.677	-0.065	-0.095
-219.611	-92.848	-0.181	0.050
-218.596	-42.474	-0.228	-0.115
-217.582	167.698	-0.086	-0.121
-216.567	-122.124	-0.132	0.021
-215.552	-76.499	0.283	-0.098
-214.538	294.537	-0.195	-0.352
-213.523	370.038	-0.037	0.073
-212.509	-200.000	0.016	0.125
-211.494	-128.300	0.261	0.037
-210.479	-115.798	-0.126	0.023
-209.465	95.204	-0.249	-0.280
-208.450	-17.634	0.133	-0.082
-207.436	-153.973	0.066	-0.004
-206.421	-200.000	-0.008	0.259
-205.406	86.614	0.126	0.137
-204.392	-200.000	-0.002	0.090
-203.377	-52.652	0.237	0.108
-202.363	-200.000	-0.062	0.297
-201.348	-200.000	-0.091	0.525
-200.333	45.246	-0.225	-0.205
-199.319	103.512	-0.123	0.142
-198.304	558.178	-0.016	-0.039
-197.290	265.714	-0.014	-0.024
-196.275	-200.000	0.029	0.144
-195.260	671.815	-0.148	0.377
-194.246	208.410	0.185	-0.285
-193.231	19.469	0.263	0.208
-192.217	116.846	-0.175	-0.212
-191.202	800.000	0.077	-0.223
-190.187	-200.000	0.058	0.326
-189.173	106.744	-0.114	-0.134
-188.158	-200.000	-0.017	-0.114
-187.144	-120.154	0.163	0.027
-186.129	-130.931	0.145	0.019
-185.114	-62.645	-0.181	0.074
-184.100	-12.502	0.261	0.168
-183.085	-13.660	-0.179	0.114
-182.071	-200.000	0.023	0.112
-181.056	-146.449	-0.282	0.024
-180.042	800.000	0.074	-0.300
-179.027	-53.300	-0.185	0.083
-178.012	334.221	0.090	0.171
-176.998	-96.118	0.195	0.051
-175.983	-200.000	-0.025	-0.305
-174.969	-96.484	0.158	-0.041
-173.954	-6.438	-0.217	0.146
-172.939	230.446	0.069	0.111
-171.925	447.519	0.121	0.261
-170.910	-155.638	0.153	0.010
-169.896	48.616	-0.189	-0.174
-168.881	-200.000	0.048	-0.333
-167.866	-32.189	0.073	-0.040
-166.852	800.000	0.055	0.189
-165.837	-49.488	0.110	0.052
-164.823	-86.666	0.042	-0.013
-163.808	-200.000	-0.003	0.255
-162.793	-122.428	0.230	-0.037
-161.779	364.321	-0.177	-0.351
-160.764	-61.781	0.161	0.066
-159.750	-30.269	0.279	-0.156
-158.735	-200.000	0.075	0.459
-157.720	800.000	0.155	0.468
-156.706	-99.200	0.399	0.099
-155.691	85.249	0.225	-0.243
-154.677	-108.214	-0.247	0.052
-153.662	-93.892	0.330	-0.089
-152.647	303.067	-0.103	-0.188
-151.633	48.822	-0.137	-0.127
-150.618	-105.526	0.232	0.052
-149.604	384.616	0.075	-0.153
-148.589	-200.000	0.016	-0.140
-147.574	-200.000	0.037	-0.196
-146.560	-156.841	0.086	-0.005
-145.545	-19.303	-0.116	-0.071
-144.531	-152.450	0.532	-0.038
-143.516	532.079	-0.056	0.130
-142.502	-113.593	0.131	-0.025
-141.487	-114.819	0.228	0.043
-140.472	20.566	-0.069	0.055
-139.458	-86.804	-0.173	-0.052
-138.443	100.848	0.228	0.261
-137.429	-51.903	-0.274	0.125
-136.414	283.777	0.127	0.224
-135.399	-54.812	-0.270	-0.120
-134.385	-200.000	-0.003	0.033
-133.370	-200.000	0.004	-0.202
-132.356	251.925	-0.129	0.215
-131.341	66.039	0.119	0.119
-130.326	-91.234	0.044	-0.012
-129.312	-158.869	-0.133	0.007
-128.297	-39.214	0.240	0.124
-127.283	679.210	0.149	0.382
-126.268	-175.129	0.164	0.004
-125.253	-126.120	0.239	0.035
-124.239	800.000	-0.057	-0.180
-123.224	15.989	0.055	0.042
-122.210	-121.151	0.352	0.058
