DTS Sentinel unit serial number:	SN413079Multiplexer serial number:	ORYXHardware model number:	OX4-SRSoftware version number:	ORYX F/W v4.00 Oryx Data Collector v3.7.2.0data status	okinstallation	princeton_trtdifferential loss correction	single-endedforward channel	channel 1reverse channel	N/Adate	2019/09/18time	13:06:35forward acquisition time	60.00reverse acquisition time	0.00gamma	496.2192k internal	0.2316k external	0.2316temperature offset calibration	0.9977default loss term (dB/km)	0.3790temperature slope calibration	1.0000multiplexer offset coefficient	1.0000multiplexer slope coefficient	1.0000fibre end	0.00T internal ref (°C)	33.69T ext. ref 1 (°C)	0.58T ext. ref 2 (°C)	31.75length (m)	temperature (°C)	Stokes	anti-Stokes-747.200	-38.697	0.270	0.145
-746.185	-11.019	-0.432	0.289
-745.171	-200.000	-0.025	0.313
-744.156	15.131	-0.288	0.228
-743.142	-52.512	0.085	-0.040
-742.127	76.619	-0.530	0.570
-741.112	-200.000	0.058	-0.382
-740.098	-144.139	-0.052	0.005
-739.083	381.691	-0.097	-0.202
-738.069	800.000	-0.054	0.177
-737.054	619.368	-0.054	-0.138
-736.039	800.000	0.054	-0.167
-735.025	-9.252	0.215	-0.145
-734.010	-46.087	-0.261	-0.130
-732.996	762.760	-0.086	-0.237
-731.981	-24.077	-0.285	0.173
-730.966	800.000	-0.087	0.362
-729.952	190.359	0.136	-0.207
-728.937	-75.520	-0.256	-0.092
-727.923	-74.717	-0.407	0.148
-726.908	-200.000	0.055	-0.420
-725.894	175.456	-0.134	-0.196
-724.879	-166.585	-0.197	0.008
-723.864	-71.871	0.046	-0.017
-722.850	471.750	0.150	-0.341
-721.835	-200.000	0.013	0.111
-720.821	101.901	-0.153	-0.180
-719.806	105.155	-0.251	-0.300
-718.791	409.008	-0.121	-0.260
-717.777	800.000	-0.157	-0.488
-716.762	202.498	0.179	-0.280
-715.748	-130.218	-0.663	0.091
-714.733	-117.474	-0.442	-0.081
-713.718	13.340	0.295	-0.231
-712.704	-200.000	-0.062	0.352
-711.689	-102.773	0.106	-0.026
-710.675	-200.000	-0.015	-0.301
-709.660	-41.934	0.100	-0.052
-708.645	-38.338	-0.235	-0.126
-707.631	-29.207	0.086	-0.050
-706.616	362.483	0.075	-0.153
-705.602	132.757	-0.063	-0.082
-704.587	800.000	0.069	0.194
-703.572	270.009	0.011	-0.019
-702.558	-25.112	0.268	-0.160
-701.543	137.562	0.133	-0.176
-700.529	-200.000	-0.011	-0.098
-699.514	-6.887	-0.007	-0.005
-698.499	-200.000	0.046	-0.219
-697.485	154.281	0.260	-0.361
-696.470	16.282	-0.057	0.046
-695.456	-94.675	0.204	0.056
-694.441	22.517	0.069	-0.057
-693.426	-174.040	-0.243	0.007
-692.412	29.822	0.281	-0.242
-691.397	15.208	-0.085	0.067
-690.383	-200.000	-0.025	0.136
-689.368	-120.346	0.123	0.021
-688.354	640.459	-0.126	0.323
-687.339	-72.846	0.169	0.063
-686.324	-129.093	-0.125	-0.018
-685.310	800.000	-0.044	0.171
-684.295	-162.259	0.500	0.025
-683.281	370.510	0.083	-0.170
-682.266	-49.910	-0.072	0.035
-681.251	-45.498	0.071	0.036
-680.237	-9.256	-0.329	0.222
-679.222	494.018	0.075	-0.174
-678.208	13.502	-0.227	-0.178
-677.193	-200.000	-0.046	-0.305
-676.178	87.219	-0.084	0.094
-675.164	-200.000	-0.014	-0.077
-674.149	-81.076	-0.266	-0.089
-673.135	800.000	-0.052	-0.177
-672.120	-88.248	-0.214	0.065
-671.105	800.000	0.005	-0.017
-670.091	-143.046	-0.245	0.024
-669.076	800.000	-0.102	-0.285
-668.062	584.756	0.059	0.146
-667.047	536.304	0.080	-0.193
-666.032	765.058	-0.080	0.220
-665.018	-138.722	-0.286	-0.032
-664.003	-134.505	-0.131	-0.016
-662.989	800.000	0.049	0.186
-661.974	-6.303	-0.225	-0.155
-660.959	800.000	-0.106	-0.357
-659.945	-81.011	-0.286	0.096
-658.930	-5.414	-0.260	-0.180
-657.916	325.389	0.066	0.127
-656.901	-105.827	-0.056	0.013
-655.886	-174.980	-0.068	-0.002
-654.872	-29.300	-0.172	-0.100
-653.857	617.241	-0.051	-0.129
-652.843	-59.848	-0.234	-0.101
-651.828	415.235	-0.100	-0.214
-650.814	-101.125	-0.165	-0.041
-649.799	-156.115	-0.356	-0.023
-648.784	-123.014	-0.448	0.073
-647.770	-200.000	-0.031	-0.406
-646.755	227.691	-0.070	0.115
-645.741	139.793	-0.237	0.315
-644.726	-83.779	0.434	0.140
-643.711	64.530	-0.131	-0.133
-642.697	-200.000	-0.014	-0.304
-641.682	-176.291	-0.310	0.008
-640.668	586.417	-0.038	-0.093
-639.653	800.000	-0.035	-0.117
-638.638	102.847	0.238	0.282
-637.624	-200.000	-0.001	-0.272
-636.609	240.425	-0.072	-0.121
-635.595	-3.145	-0.192	0.135
-634.580	-18.081	0.234	-0.148
-633.565	286.585	-0.064	-0.116
-632.551	-15.481	-0.049	-0.031
-631.536	423.813	0.193	-0.419
-630.522	275.738	-0.119	-0.214
-629.507	-171.463	-0.203	0.007
-628.492	-125.515	-0.122	-0.019
-627.478	-100.124	0.263	0.066
-626.463	54.995	-0.093	-0.091
-625.449	-26.116	-0.246	-0.146
-624.434	-87.519	-0.071	0.022
-623.419	800.000	-0.043	0.167
-622.405	347.538	0.129	0.257
-621.390	466.017	0.042	0.096
-620.376	-136.642	-0.104	0.012
-619.361	590.680	-0.022	-0.056
-618.346	-3.760	0.179	0.125
-617.332	548.585	0.042	0.102
-616.317	145.896	0.062	-0.084
-615.303	800.000	-0.063	-0.271
-614.288	-120.270	-0.037	0.006
-613.273	-200.000	0.004	-0.073
-612.259	15.786	0.033	-0.027
-611.244	800.000	0.006	0.026
-610.230	-153.737	0.031	-0.002
-609.215	-137.010	0.147	-0.017
-608.201	38.750	-0.366	0.329
-607.186	232.705	0.113	-0.187
-606.171	138.791	0.079	-0.104
-605.157	-61.152	-0.139	-0.059
-604.142	-23.134	0.214	-0.130
-603.128	117.389	0.188	-0.233
-602.113	67.328	0.289	-0.297
-601.098	-137.213	-0.245	0.028
-600.084	-200.000	0.034	-0.270
-599.069	264.918	-0.054	0.094
-598.055	154.442	0.104	-0.144
-597.040	-45.019	-0.067	-0.033
-596.025	-165.024	0.111	-0.005
-595.011	438.240	0.057	-0.125
-593.996	-45.278	-0.072	0.036
-592.982	-56.969	-0.250	-0.111
-591.967	-132.357	0.211	-0.027
-590.952	288.940	0.051	-0.092
-589.938	79.924	0.183	-0.198
-588.923	-74.642	0.119	-0.043
-587.909	-20.406	0.109	-0.067
-586.894	-60.519	0.066	0.028
-585.879	-200.000	0.001	0.059
-584.865	31.321	-0.234	0.203
-583.850	107.657	0.148	0.178
-582.836	46.536	0.093	0.087
-581.821	-51.645	0.203	0.095
-580.806	110.672	-0.147	0.178
-579.792	-116.665	-0.270	0.050
-578.777	-200.000	0.021	-0.101
-577.763	-114.538	-0.347	0.067
-576.748	74.334	-0.127	0.134
-575.733	-200.000	0.007	-0.098
-574.719	184.246	-0.125	0.187
-573.704	-104.456	-0.204	-0.047
-572.690	350.648	0.192	0.383
-571.675	584.951	-0.025	-0.061
-570.661	419.490	0.152	-0.327
-569.646	-83.361	-0.178	-0.058
-568.631	474.901	0.077	0.175
-567.617	69.497	0.396	0.411
-566.602	-189.976	0.315	-0.004
-565.588	-200.000	0.043	-0.225
-564.573	-43.883	0.057	-0.029
-563.558	8.057	-0.176	0.133
-562.544	-200.000	-0.005	-0.163
-561.529	114.800	0.112	0.137
-560.515	290.988	0.126	-0.231
-559.500	800.000	0.042	-0.176
-558.485	21.338	-0.313	-0.256
-557.471	-78.201	-0.098	0.034
-556.456	-200.000	0.018	-0.147
-555.442	-82.308	0.251	0.082
-554.427	457.363	-0.051	0.114
-553.412	800.000	0.061	0.254
-552.398	308.750	-0.087	-0.164
-551.383	800.000	-0.064	-0.190
-550.369	536.848	-0.068	0.162
-549.354	-92.285	0.510	0.145
-548.339	-200.000	0.002	-0.186
-547.325	-116.309	0.370	0.069
-546.310	5.706	-0.051	0.038
-545.296	-200.000	0.069	-0.414
-544.281	-53.668	0.405	-0.186
-543.266	778.039	0.017	0.047
-542.252	123.274	-0.311	-0.391
-541.237	388.718	0.145	0.302
-540.223	249.584	-0.189	0.322
-539.208	800.000	-0.099	-0.371
-538.193	-165.069	0.376	0.017
-537.179	800.000	-0.059	0.170
-536.164	-29.747	-0.222	0.127
-535.150	-200.000	0.010	-0.134
-534.135	376.592	0.091	-0.186
-533.121	-98.685	-0.171	-0.044
-532.106	-49.447	0.072	-0.034
-531.091	-103.354	-0.301	-0.071
-530.077	-200.000	-0.012	-0.061
-529.062	-112.818	0.236	-0.047
-528.048	59.162	-0.090	-0.089
-527.033	-20.122	0.198	-0.123
-526.018	165.944	0.076	0.107
-525.004	168.227	-0.117	0.168
-523.989	245.213	0.303	0.512
-522.975	44.844	0.154	-0.143
-521.960	-95.306	0.075	-0.020
-520.945	139.603	-0.195	-0.259
-519.931	234.557	-0.221	0.366
-518.916	27.499	-0.123	-0.104
-517.902	92.257	-0.106	0.120
-516.887	-200.000	-0.036	-0.228
-515.872	-200.000	0.033	-0.269
-514.858	-112.895	-0.316	0.063
-513.843	-200.000	0.006	0.178
-512.829	312.199	0.094	-0.177
-511.814	-57.537	0.271	-0.119
-510.799	-54.126	-0.376	-0.172
-509.785	536.060	-0.073	0.174
-508.770	-42.209	-0.313	0.161
-507.756	74.321	0.162	0.171
-506.741	58.905	-0.095	0.094
-505.726	-93.596	-0.156	0.043
-504.712	-29.068	0.210	-0.121
-503.697	-41.907	-0.213	-0.109
-502.683	156.648	-0.106	0.147
-501.668	77.538	-0.066	0.070
-500.653	-49.164	-0.154	0.074
-499.639	800.000	-0.073	0.265
-498.624	-200.000	0.015	0.128
-497.610	149.571	0.090	0.122
-496.595	-47.750	0.318	-0.154
-495.581	-54.612	0.112	0.051
-494.566	800.000	0.065	0.228
-493.551	160.264	-0.074	-0.104
-492.537	330.807	0.046	0.090
-491.522	106.697	-0.073	-0.087
-490.508	49.572	-0.076	0.072
-489.493	578.494	0.137	0.336
-488.478	676.424	-0.057	-0.149
-487.464	96.546	-0.062	0.072
-486.449	800.000	0.122	-0.452
-485.435	-152.906	-0.320	-0.023
-484.420	177.244	0.104	0.152
-483.405	-46.073	-0.175	0.086
-482.391	-110.033	0.265	0.056
-481.376	-200.000	0.015	0.174
-480.362	11.841	0.283	-0.218
-479.347	-112.325	0.244	-0.049
-478.332	247.507	-0.101	-0.171
-477.318	800.000	-0.017	0.049
-476.303	-3.195	0.056	-0.039
-475.289	34.113	-0.153	-0.133
-474.274	70.002	-0.184	-0.190
-473.259	125.961	-0.053	-0.067
-472.245	-200.000	0.023	-0.318
-471.230	119.432	-0.248	0.308
-470.216	-176.838	-0.325	-0.008
-469.201	450.701	0.090	-0.198
-468.186	108.635	-0.234	-0.280
-467.172	268.735	0.148	-0.261
-466.157	-56.936	-0.160	0.071
-465.143	-76.288	0.157	0.056
-464.128	745.819	-0.020	0.054
-463.113	31.407	0.151	0.130
-462.099	85.673	0.112	0.123
-461.084	-200.000	-0.077	0.356
-460.070	-89.073	0.101	-0.030
-459.055	800.000	0.044	-0.177
-458.040	-200.000	-0.018	0.088
-457.026	41.118	-0.125	0.113
-456.011	35.946	0.032	0.028
-454.997	399.573	0.055	-0.115
-453.982	-39.105	0.083	-0.044
-452.968	251.598	-0.055	0.093
-451.953	202.752	0.138	-0.213
-450.938	-12.317	0.019	-0.012
-449.924	-200.000	0.054	-0.306
-448.909	441.687	-0.046	0.101
-447.895	-27.270	0.282	0.164
-446.880	474.620	0.128	-0.290
-445.865	93.508	-0.105	0.119
-444.851	-84.508	-0.304	0.096
-443.836	-88.673	0.313	-0.093
-442.822	-200.000	0.005	0.054
-441.807	100.681	0.141	-0.164
-440.792	800.000	-0.107	-0.369
-439.778	-3.906	0.181	-0.126
-438.763	800.000	0.092	0.378
-437.749	-12.032	-0.212	0.139
-436.734	116.076	-0.187	-0.229
-435.719	-105.346	-0.295	-0.067
-434.705	-76.508	0.086	0.030
-433.690	800.000	-0.066	0.191
-432.676	-195.580	0.142	0.001
-431.661	303.839	-0.144	-0.267
-430.646	33.605	0.351	-0.305
-429.632	-200.000	0.026	-0.302
-428.617	800.000	-0.029	0.122
-427.603	-200.000	0.014	-0.167
-426.588	-200.000	-0.078	-0.343
-425.573	800.000	0.068	-0.201
-424.559	-53.454	-0.255	-0.117
-423.544	-200.000	0.018	0.131
-422.530	-101.656	0.289	-0.070
-421.515	-200.000	0.016	-0.372
-420.500	-200.000	0.023	-0.199
-419.486	353.078	-0.098	0.195
-418.471	66.461	-0.321	-0.326
-417.457	241.421	0.074	0.124
-416.442	-18.909	-0.079	-0.049
-415.428	298.951	0.075	-0.139
-414.413	263.678	-0.105	-0.182
-413.398	151.425	0.126	0.172
-412.384	-5.275	-0.035	0.024
-411.369	800.000	-0.009	0.026
-410.355	62.553	0.050	0.050
-409.340	-134.468	0.047	0.006
-408.325	5.151	-0.334	-0.246
-407.311	-125.609	0.112	-0.017
-406.296	-30.857	-0.071	0.040
-405.282	173.104	-0.176	-0.254
-404.267	317.291	-0.151	0.286
-403.252	-200.000	-0.013	0.184
-402.238	139.434	-0.121	0.160
-401.223	9.380	-0.201	0.152
-400.209	-19.076	0.398	-0.247
-399.194	-6.034	0.134	-0.092
-398.179	24.687	-0.197	0.163
-397.165	-200.000	0.017	0.313
-396.150	794.336	-0.137	0.376
-395.136	-29.724	-0.076	0.043
-394.121	302.970	-0.071	-0.132
-393.106	90.332	-0.194	0.217
-392.092	-64.190	0.239	-0.097
-391.077	-90.040	-0.027	-0.008
-390.063	-112.705	0.095	0.019
-389.048	-73.502	0.150	0.055
-388.033	70.491	-0.127	-0.131
-387.019	-200.000	0.167	0.001
-386.004	-200.000	-0.068	-0.340
-384.990	-133.950	-0.457	0.057
-383.975	-142.515	0.109	-0.011
-382.960	439.062	0.092	0.201
-381.946	197.227	-0.132	0.200
-380.931	110.061	0.144	-0.173
-379.917	-53.903	0.617	0.281
-378.902	-97.920	0.305	-0.079
-377.888	-109.764	0.173	-0.036
-376.873	-98.673	-0.227	-0.058
-375.858	800.000	-0.132	0.378
-374.844	-176.335	0.459	0.012
-373.829	122.732	0.163	-0.204
-372.815	115.112	0.217	0.265
-371.800	97.129	0.220	-0.252
-370.785	-58.287	0.328	0.142
-369.771	268.191	0.085	-0.149
-368.756	-158.637	0.270	0.016
-367.742	-32.968	-0.193	0.107
-366.727	-44.518	-0.291	0.145
-365.712	-81.745	0.241	0.079
-364.698	-41.871	-0.202	0.104
-363.683	-47.607	0.194	0.094
-362.669	-0.512	0.172	-0.122
-361.654	-200.000	0.013	0.244
-360.639	-108.741	0.150	-0.032
-359.625	229.753	0.231	0.377
-358.610	-86.189	-0.325	0.100
-357.596	800.000	0.053	0.203
-356.581	146.396	-0.121	0.162
-355.566	-83.174	-0.074	-0.024
-354.552	236.620	0.062	0.102
-353.537	-200.000	0.038	0.438
-352.523	-200.000	-0.018	0.135
-351.508	-200.000	-0.002	0.224
-350.493	556.823	0.039	-0.093
-349.479	-183.507	0.379	-0.007
-348.464	110.163	-0.089	0.107
-347.450	77.789	-0.267	0.284
-346.435	-200.000	0.016	-0.094
-345.420	800.000	0.030	-0.113
-344.406	-7.807	-0.015	-0.010
-343.391	-77.201	0.382	0.133
-342.377	528.253	-0.114	0.267
-341.362	214.616	-0.209	-0.331
-340.348	-75.187	0.223	-0.079
-339.333	-138.476	0.286	0.031
-338.318	800.000	-0.062	-0.183
-337.304	-20.084	-0.079	-0.049
-336.289	23.852	0.171	0.140
-335.275	227.354	0.099	0.160
-334.260	658.736	0.117	0.301
-333.245	-2.422	0.362	0.253
-332.231	419.148	-0.169	0.361
-331.216	62.167	0.169	-0.168
-330.202	800.000	0.068	-0.296
-329.187	-200.000	-0.034	-0.211
-328.172	-59.158	-0.119	-0.051
-327.158	-7.708	0.155	-0.105
-326.143	-91.681	-0.074	0.021
-325.129	-18.545	-0.177	-0.110
-324.114	800.000	0.064	-0.273
-323.099	-52.560	0.329	-0.152
-322.085	-97.428	-0.170	-0.044
-321.070	30.486	-0.176	0.150
-320.056	204.004	0.156	0.241
-319.041	800.000	-0.107	0.444
-318.026	800.000	0.043	-0.166
-317.012	-166.955	-0.098	-0.004
-315.997	-42.490	-0.123	0.063
-314.983	-77.360	-0.116	0.040
-313.968	-200.000	-0.012	0.176
-312.953	-200.000	-0.008	-0.162
-311.939	676.911	0.025	0.065
-310.924	-161.499	-0.249	-0.013
-309.910	-35.344	0.060	-0.033
-308.895	-105.561	-0.290	0.065
-307.880	11.193	0.143	-0.109
-306.866	-43.518	0.179	-0.090
-305.851	302.608	0.106	-0.195
-304.837	42.133	-0.155	-0.140
-303.822	-125.972	-0.274	-0.041
-302.807	33.455	0.307	0.265
-301.793	263.980	-0.016	-0.027
-300.778	-200.000	-0.024	-0.311
-299.764	-30.374	0.200	-0.113
-298.749	191.119	0.153	0.229
-297.735	-101.648	-0.167	-0.040
-296.720	-36.925	0.208	0.111
-295.705	61.531	0.102	-0.101
-294.691	-42.924	-0.086	0.043
-293.676	639.924	-0.112	0.283
-292.662	-200.000	-0.012	0.146
-291.647	486.773	0.070	0.160
-290.632	-200.000	0.038	-0.229
-289.618	-8.879	-0.107	0.071
-288.603	-128.030	-0.155	0.022
-287.589	-46.946	-0.171	-0.083
-286.574	38.225	0.319	-0.283
-285.559	35.138	-0.195	0.170
-284.545	-22.984	0.161	-0.097
-283.530	-63.169	-0.328	0.135
-282.516	20.899	0.349	0.282
-281.501	551.246	0.112	0.268
-280.486	-87.759	-0.049	-0.015
-279.472	-124.512	0.188	0.029
-278.457	-147.919	0.204	-0.017
-277.443	-200.000	-0.047	0.209
-276.428	346.055	0.092	0.181
-275.413	-6.900	-0.064	-0.043
-274.399	4.008	-0.076	0.055
-273.384	60.117	-0.171	-0.168
-272.370	-30.295	0.234	-0.132
-271.355	68.397	-0.059	0.060
-270.340	47.145	-0.245	0.227
-269.326	-144.511	0.285	-0.026
-268.311	-62.785	-0.216	0.089
-267.297	-53.417	-0.235	-0.107
-266.282	-25.865	0.324	-0.190
-265.267	800.000	-0.113	0.351
-264.253	429.568	-0.142	-0.305
-263.238	617.998	-0.103	-0.258
-262.224	-125.596	0.309	-0.047
-261.209	463.729	0.019	-0.042
-260.195	283.846	-0.142	-0.254
-259.180	-200.000	0.017	0.170
-258.165	-71.959	-0.150	0.055
-257.151	64.919	-0.193	-0.193
-256.136	800.000	-0.049	0.147
-255.122	193.040	0.011	0.017
-254.107	3.515	0.240	-0.174
-253.092	-148.671	-0.267	0.022
-252.078	178.608	-0.107	0.155
-251.063	-70.500	0.143	-0.054
-250.049	-200.000	-0.093	-0.486
-249.034	85.286	-0.127	0.139
-248.019	-113.335	0.229	-0.045
-247.005	-115.779	0.368	0.069
-245.990	-116.859	-0.131	0.024
-244.976	800.000	-0.054	0.164
-243.961	43.727	-0.178	-0.162
-242.946	131.615	-0.183	-0.234
-241.932	-36.090	0.228	0.122
-240.917	263.884	-0.188	-0.324
-239.903	361.488	-0.044	0.088
-238.888	-200.000	-0.012	-0.274
-237.873	-200.000	-0.024	0.142
-236.859	-200.000	0.033	0.176
-235.844	486.401	-0.049	0.111
-234.830	-56.930	0.144	-0.063
-233.815	64.154	-0.192	-0.192
-232.800	-30.220	-0.228	-0.129
-231.786	800.000	-0.086	0.254
-230.771	-153.518	-0.306	0.021
-229.757	101.569	-0.174	0.201
-228.742	371.607	0.109	-0.220
-227.727	76.131	-0.444	0.467
-226.713	-200.000	-0.034	0.331
-225.698	-80.348	0.128	-0.043
-224.684	-117.286	0.336	0.061
-223.669	-200.000	-0.035	-0.261
-222.655	69.196	-0.112	-0.114
-221.640	-200.000	-0.049	0.312
-220.625	-124.358	0.290	-0.045
-219.611	800.000	-0.047	-0.196
-218.596	-0.756	-0.034	-0.024
-217.582	82.986	0.158	0.171
-216.567	47.879	-0.041	0.038
-215.552	-200.000	0.033	-0.158
-214.538	-114.655	-0.329	0.063
-213.523	3.001	-0.236	-0.170
-212.509	-200.000	-0.000	-0.031
-211.494	235.452	-0.108	-0.178
-210.479	-85.554	0.111	-0.034
-209.465	-148.336	0.278	0.023
-208.450	800.000	-0.056	0.198
-207.436	159.439	-0.118	-0.162
-206.421	-200.000	0.006	0.076
-205.406	800.000	0.054	0.179
-204.392	-100.477	-0.320	-0.079
-203.377	-9.054	-0.118	0.079
-202.363	-113.332	0.103	0.020
-201.348	261.559	-0.103	-0.177
-200.333	359.215	0.250	0.496
-199.319	-200.000	-0.002	0.339
-198.304	301.784	-0.048	0.088
-197.290	12.425	-0.188	-0.144
-196.275	-200.000	-0.034	0.368
-195.260	-200.000	-0.024	0.200
-194.246	-154.619	-0.304	0.020
-193.231	-200.000	-0.057	0.316
-192.217	317.283	-0.202	0.378
-191.202	-200.000	0.049	0.329
-190.187	-200.000	-0.032	0.261
-189.173	-5.829	0.395	-0.268
-188.158	18.143	0.264	-0.209
-187.144	-14.804	-0.131	-0.084
-186.129	-54.746	0.084	-0.038
-185.114	-42.775	0.242	-0.122
-184.100	-28.446	0.110	-0.063
-183.085	-136.908	-0.089	-0.010
-182.071	-200.000	0.057	-0.308
-181.056	800.000	0.045	0.145
-180.042	727.012	-0.112	0.296
-179.027	-3.124	-0.394	0.272
-178.012	-200.000	-0.031	0.226
-176.998	-200.000	0.403	0.001
-175.983	-200.000	0.017	-0.102
-174.969	-19.641	-0.072	-0.044
-173.954	800.000	0.082	-0.247
-172.939	-123.367	0.297	-0.047
-171.925	-138.492	0.162	-0.018
-170.910	154.014	-0.357	-0.485
-169.896	9.388	0.154	0.115
-168.881	-200.000	0.001	-0.141
-167.866	-169.803	-0.148	-0.005
-166.852	800.000	-0.056	-0.229
-165.837	800.000	0.032	0.135
-164.823	-150.292	-0.452	-0.035
-163.808	-200.000	0.006	-0.228
-162.793	-152.383	0.013	-0.001
-161.779	-200.000	0.047	-0.239
-160.764	-118.438	0.202	0.035
-159.750	-200.000	0.010	0.148
-158.735	6.384	0.070	0.051
-157.720	-31.772	-0.211	0.117
-156.706	102.292	0.140	-0.162
-155.691	-200.000	0.033	0.212
-154.677	235.282	-0.203	0.331
-153.662	-23.916	-0.288	-0.171
-152.647	-45.391	0.307	-0.151
-151.633	-72.246	-0.183	0.067
-150.618	800.000	0.078	0.335
-149.604	249.136	-0.207	0.347
-148.589	-1.302	0.326	0.228
-147.574	277.384	-0.066	-0.117
-146.560	106.517	-0.133	0.156
-145.545	17.672	-0.219	0.173
-144.531	-200.000	0.010	-0.058
-143.516	-200.000	-0.007	0.088
-142.502	800.000	0.049	0.136
-141.487	26.784	-0.091	-0.075
-140.472	-88.000	0.246	-0.073
-139.458	800.000	-0.057	0.196
-138.443	-106.766	0.250	0.055
-137.429	171.030	-0.091	0.129
-136.414	315.061	-0.070	0.130
-135.399	-200.000	0.032	0.147
-134.385	332.894	0.200	0.383
-133.370	-37.332	-0.117	0.062
-132.356	-200.000	0.006	-0.171
-131.341	62.194	0.088	0.086
-130.326	285.550	0.082	-0.147
-129.312	245.851	-0.087	-0.145
-128.297	-13.312	0.347	0.223
-127.283	-111.152	0.105	0.021
-126.268	-122.308	-0.228	-0.037
-125.253	-200.000	0.061	0.271
-124.239	-200.000	0.025	0.217
-123.224	-110.130	0.196	-0.040
-122.210	294.251	0.193	0.348
