DTS Sentinel unit serial number:	SN413079Multiplexer serial number:	ORYXHardware model number:	OX4-SRSoftware version number:	ORYX F/W v4.00 Oryx Data Collector v3.7.2.0data status	okinstallation	princeton_trtdifferential loss correction	single-endedforward channel	channel 1reverse channel	N/Adate	2019/09/11time	02:44:11forward acquisition time	60.00reverse acquisition time	0.00gamma	496.2192k internal	0.2332k external	0.2332temperature offset calibration	0.9924default loss term (dB/km)	0.3790temperature slope calibration	1.0000multiplexer offset coefficient	1.0000multiplexer slope coefficient	1.0000fibre end	0.00T internal ref (°C)	29.27T ext. ref 1 (°C)	-0.30T ext. ref 2 (°C)	23.13length (m)	temperature (°C)	Stokes	anti-Stokes-747.200	-88.079	0.344	-0.104
-746.185	-200.000	0.006	0.084
-745.171	-200.000	-0.012	0.086
-744.156	50.570	-0.238	0.226
-743.142	307.734	-0.098	-0.184
-742.127	-200.000	0.011	0.169
-741.112	17.518	0.176	0.141
-740.098	-200.000	0.001	0.075
-739.083	47.183	0.153	-0.144
-738.069	532.490	0.019	-0.045
-737.054	-200.000	-0.015	-0.168
-736.039	123.862	0.220	-0.278
-735.025	-200.000	-0.021	0.213
-734.010	-200.000	-0.013	-0.218
-732.996	147.123	0.126	0.170
-731.981	-115.746	-0.289	-0.054
-730.966	-200.000	0.017	-0.193
-729.952	-200.000	0.013	-0.097
-728.937	-59.342	-0.261	-0.113
-727.923	-200.000	-0.007	0.244
-726.908	-200.000	-0.017	-0.153
-725.894	-61.127	0.157	-0.067
-724.879	122.647	-0.162	-0.204
-723.864	-200.000	-0.045	0.227
-722.850	-133.560	-0.260	0.033
-721.835	-125.351	0.083	0.013
-720.821	-140.187	0.117	0.012
-719.806	-197.423	-0.258	0.002
-718.791	-200.000	-0.018	-0.262
-717.777	-79.069	-0.245	0.084
-716.762	111.831	0.125	-0.152
-715.748	792.287	0.052	-0.144
-714.733	33.913	-0.166	-0.146
-713.718	-200.000	-0.130	-0.640
-712.704	276.223	-0.076	-0.135
-711.689	119.434	-0.068	0.085
-710.675	59.148	-0.085	0.084
-709.660	-15.634	-0.229	-0.146
-708.645	207.895	0.126	0.198
-707.631	-200.000	-0.003	0.198
-706.616	-62.288	-0.235	0.098
-705.602	762.076	-0.128	-0.349
-704.587	114.692	-0.135	-0.165
-703.572	-79.659	0.177	-0.060
-702.558	87.886	-0.074	-0.083
-701.543	800.000	-0.131	0.511
-700.529	-98.390	0.324	0.083
-699.514	-133.510	0.505	0.064
-698.499	0.921	0.121	-0.087
-697.485	-157.493	-0.303	0.018
-696.470	-33.853	0.053	-0.029
-695.456	-24.407	-0.250	0.150
-694.441	292.814	-0.153	-0.280
-693.426	-40.318	-0.384	0.200
-692.412	-96.531	-0.224	-0.059
-691.397	-130.698	-0.135	0.018
-690.383	-154.626	-0.237	-0.016
-689.368	-109.789	-0.140	0.030
-688.354	-14.453	0.260	0.168
-687.339	65.019	0.072	0.073
-686.324	276.803	-0.047	-0.083
-685.310	-186.590	-0.136	-0.002
-684.295	73.869	0.190	0.200
-683.281	160.260	0.182	-0.255
-682.266	33.171	0.079	-0.068
-681.251	-80.954	-0.084	0.028
-680.237	70.354	-0.043	0.044
-679.222	800.000	0.114	0.395
-678.208	-87.593	-0.502	0.152
-677.193	-200.000	0.018	0.222
-676.178	-93.431	0.349	0.097
-675.164	800.000	0.043	0.143
-674.149	-200.000	0.051	-0.365
-673.135	-17.785	0.308	0.194
-672.120	133.565	-0.060	-0.078
-671.105	698.937	0.072	0.189
-670.091	-133.749	-0.292	0.037
-669.076	12.865	-0.182	-0.141
-668.062	-136.160	-0.227	-0.027
-667.047	-114.892	-0.275	-0.053
-666.032	75.797	-0.081	0.086
-665.018	180.014	-0.191	-0.281
-664.003	-178.283	-0.199	0.005
-662.989	11.913	0.234	-0.181
-661.974	-200.000	-0.001	-0.301
-660.959	-126.452	-0.504	0.075
-659.945	44.989	0.242	0.224
-658.930	800.000	-0.066	-0.248
-657.916	800.000	-0.008	-0.027
-656.901	-12.537	-0.041	0.027
-655.886	-161.154	0.041	0.002
-654.872	-56.895	-0.201	0.089
-653.857	-200.000	-0.003	0.109
-652.843	-27.170	0.368	-0.215
-651.828	73.055	-0.034	-0.035
-650.814	340.519	-0.041	-0.079
-649.799	-131.659	0.335	-0.044
-648.784	76.239	-0.179	-0.190
-647.770	14.416	0.100	-0.078
-646.755	-43.675	-0.060	-0.030
-645.741	636.737	0.089	-0.227
-644.726	-200.000	-0.013	-0.063
-643.711	13.264	-0.213	0.166
-642.697	800.000	0.057	-0.192
-641.682	800.000	0.043	-0.134
-640.668	590.365	0.102	-0.252
-639.653	58.343	0.307	0.302
-638.638	800.000	-0.044	-0.185
-637.624	-200.000	0.001	0.106
-636.609	800.000	0.062	-0.188
-635.595	-200.000	-0.233	0.000
-634.580	61.273	0.097	-0.096
-633.565	-36.462	0.039	-0.021
-632.551	800.000	-0.040	-0.161
-631.536	-28.051	0.355	-0.206
-630.522	800.000	-0.054	0.183
-629.507	-27.627	0.180	0.105
-628.492	-103.771	-0.213	-0.050
-627.478	496.650	0.190	-0.438
-626.463	-29.466	-0.225	0.129
-625.449	56.551	-0.174	0.170
-624.434	-44.855	0.270	-0.135
-623.419	-200.000	0.008	-0.041
-622.405	-96.774	-0.161	-0.042
-621.390	-200.000	-0.024	0.162
-620.376	111.362	-0.264	-0.318
-619.361	120.653	-0.293	0.365
-618.346	-84.631	-0.249	-0.079
-617.332	-3.890	-0.138	-0.096
-616.317	23.391	0.327	-0.269
-615.303	-29.588	-0.236	-0.135
-614.288	-119.045	0.047	-0.008
-613.273	-200.000	-0.007	-0.121
-612.259	-200.000	0.020	0.158
-611.244	-73.095	0.159	-0.058
-610.230	800.000	0.044	-0.187
-609.215	-3.098	0.353	-0.246
-608.201	21.477	0.076	0.062
-607.186	-200.000	0.000	-0.089
-606.171	-11.429	0.334	0.220
-605.157	-200.000	0.005	-0.200
-604.142	-200.000	-0.039	0.185
-603.128	498.004	-0.011	-0.025
-602.113	800.000	-0.110	-0.349
-601.098	62.893	0.261	-0.261
-600.084	317.248	0.099	0.187
-599.069	-113.880	0.248	-0.048
-598.055	800.000	-0.072	0.262
-597.040	93.930	0.202	0.230
-596.025	800.000	0.034	-0.126
-595.011	-166.051	-0.197	0.008
-593.996	318.292	-0.150	0.284
-592.982	705.698	-0.008	-0.020
-591.967	486.715	0.097	-0.222
-590.952	160.569	0.082	0.114
-589.938	119.372	-0.082	0.102
-588.923	-81.833	0.048	-0.016
-587.909	-79.240	0.140	-0.048
-586.894	-14.985	-0.223	-0.143
-585.879	-80.071	0.180	-0.060
-584.865	800.000	0.062	-0.184
-583.850	-5.919	-0.090	0.062
-582.836	291.019	-0.258	0.470
-581.821	800.000	0.220	-0.648
-580.806	90.840	-0.119	-0.133
-579.792	154.072	0.163	0.224
-578.777	-9.302	0.206	-0.138
-577.763	-68.488	0.069	0.027
-576.748	99.109	0.063	0.073
-575.733	163.536	-0.086	-0.120
-574.719	248.053	0.202	0.341
-573.704	-200.000	0.039	0.224
-572.690	55.635	-0.029	-0.028
-571.675	77.119	0.146	-0.155
-570.661	-65.512	0.189	-0.076
-569.646	-200.000	-0.013	0.148
-568.631	-114.064	-0.388	-0.075
-567.617	22.354	-0.176	-0.144
-566.602	-148.227	-0.267	-0.022
-565.588	394.825	0.093	0.194
-564.573	-136.845	0.298	0.034
-563.558	800.000	-0.047	0.138
-562.544	532.548	0.128	0.302
-561.529	-38.568	0.229	-0.121
-560.515	-200.000	-0.069	0.416
-559.500	800.000	0.063	-0.253
-558.485	-94.786	0.098	0.027
-557.471	-200.000	-0.039	0.228
-556.456	-0.845	0.408	-0.288
-555.442	-114.530	-0.282	-0.054
-554.427	-139.352	-0.319	0.034
-553.412	-200.000	0.018	0.155
-552.398	417.229	-0.035	-0.074
-551.383	800.000	-0.046	0.197
-550.369	-13.358	-0.184	0.119
-549.354	552.315	-0.123	0.296
-548.339	561.682	0.064	-0.156
-547.325	-1.695	-0.193	-0.136
-546.310	-58.402	0.135	-0.059
-545.296	-110.574	0.104	0.022
-544.281	-64.401	-0.036	-0.015
-543.266	-31.097	-0.211	-0.119
-542.252	-55.222	-0.131	0.059
-541.237	800.000	0.096	-0.371
-540.223	134.414	0.085	0.110
-539.208	-24.341	-0.089	-0.053
-538.193	146.883	0.176	-0.236
-537.179	-140.290	-0.297	0.031
-536.164	-200.000	0.111	0.000
-535.150	144.128	-0.101	0.134
-534.135	701.413	-0.027	-0.071
-533.121	99.176	0.220	-0.254
-532.106	-80.917	-0.226	0.075
-531.091	-93.712	-0.261	-0.072
-530.077	800.000	-0.067	-0.258
-529.062	151.280	-0.138	0.188
-528.048	-29.988	-0.125	-0.071
-527.033	-12.787	0.254	-0.165
-526.018	-5.751	-0.196	-0.134
-525.004	-106.125	0.134	-0.030
-523.989	800.000	0.090	-0.254
-522.975	800.000	-0.080	-0.320
-521.960	-87.736	-0.239	0.072
-520.945	-152.929	-0.111	0.008
-519.931	69.259	0.213	0.219
-518.916	-115.389	-0.441	0.083
-517.902	33.563	0.227	-0.196
-516.887	-148.123	0.273	0.023
-515.872	177.748	0.069	0.100
-514.858	-36.052	-0.269	0.145
-513.843	800.000	0.033	0.099
-512.829	-200.000	0.031	-0.311
-511.814	146.430	0.065	0.087
-510.799	-200.000	-0.018	-0.143
-509.785	-200.000	0.000	0.120
-508.770	-68.893	-0.071	0.027
-507.756	292.765	-0.127	0.231
-506.741	-200.000	-0.000	-0.067
-505.726	-70.127	0.305	-0.116
-504.712	800.000	0.051	0.152
-503.697	61.734	-0.257	-0.255
-502.683	-200.000	0.060	-0.377
-501.668	-93.472	-0.122	0.034
-500.653	69.927	-0.196	0.201
-499.639	-200.000	-0.010	-0.077
-498.624	3.829	-0.358	-0.261
-497.610	428.469	-0.107	-0.231
-496.595	-94.820	0.301	-0.081
-495.581	17.899	0.186	0.148
-494.566	800.000	0.039	-0.138
-493.551	122.741	0.170	-0.212
-492.537	430.496	-0.087	0.188
-491.522	-102.642	0.136	-0.032
-490.508	136.575	0.255	0.331
-489.493	-200.000	0.027	0.525
-488.478	75.626	0.199	-0.210
-487.464	581.441	-0.125	0.306
-486.449	11.872	0.275	-0.210
-485.435	-37.843	-0.133	-0.071
-484.420	20.279	-0.107	-0.086
-483.405	158.479	-0.091	-0.125
-482.391	-33.768	0.142	-0.078
-481.376	194.227	0.090	0.136
-480.362	167.867	0.102	0.145
-479.347	-102.921	0.096	-0.023
-478.332	-123.622	0.314	-0.050
-477.318	-27.210	-0.063	-0.037
-476.303	-104.200	0.255	-0.059
-475.289	-50.157	-0.115	-0.054
-474.274	-137.626	0.172	0.019
-473.259	-20.915	-0.122	0.075
-472.245	120.988	0.218	0.270
-471.230	166.043	-0.092	-0.130
-470.216	-170.595	0.227	0.008
-469.201	-200.000	0.027	-0.201
-468.186	-130.274	-0.301	-0.041
-467.172	191.764	-0.148	0.222
-466.157	-2.667	0.250	-0.174
-465.143	-90.587	-0.337	-0.097
-464.128	-200.000	0.001	-0.023
-463.113	800.000	0.080	0.224
-462.099	-110.173	0.307	-0.064
-461.084	-98.020	-0.359	0.092
-460.070	800.000	0.032	-0.115
-459.055	9.712	-0.303	0.229
-458.040	-123.880	-0.773	0.121
-457.026	-200.000	0.018	0.266
-456.011	-177.056	-0.346	-0.009
-454.997	-155.870	-0.247	-0.016
-453.982	-158.917	-0.100	-0.006
-452.968	-200.000	0.006	0.068
-451.953	-40.002	-0.159	-0.082
-450.938	-200.000	0.114	-0.539
-449.924	18.562	-0.115	0.092
-448.909	529.193	0.117	0.274
-447.895	-135.766	0.290	0.034
-446.880	77.849	-0.066	-0.070
-445.865	450.711	0.027	-0.058
-444.851	-19.869	-0.071	0.044
-443.836	-21.408	-0.136	0.083
-442.822	-116.420	0.215	0.040
-441.807	-200.000	0.040	0.284
-440.792	250.507	-0.044	0.074
-439.778	92.180	-0.137	-0.154
-438.763	-3.389	0.033	-0.023
-437.749	-92.416	0.052	0.015
-436.734	-200.000	-0.065	-0.371
-435.719	-200.000	0.013	0.122
-434.705	121.982	-0.114	0.141
-433.690	800.000	-0.088	-0.322
-432.676	-200.000	0.000	-0.137
-431.661	-200.000	0.007	-0.035
-430.646	800.000	0.144	0.454
-429.632	-200.000	-0.015	0.280
-428.617	185.368	-0.088	-0.130
-427.603	-5.552	-0.163	-0.111
-426.588	-137.309	-0.184	-0.021
-425.573	-131.180	0.135	-0.018
-424.559	-78.605	0.171	0.058
-423.544	-72.402	0.257	0.094
-422.530	319.323	-0.069	0.130
-421.515	-8.652	-0.201	0.134
-420.500	62.754	-0.121	-0.120
-419.486	134.525	0.289	0.372
-418.471	-22.862	0.233	0.139
-417.457	229.812	0.111	-0.179
-416.442	-150.282	0.171	0.013
-415.428	-14.822	-0.088	-0.056
-414.413	-165.486	-0.320	-0.014
-413.398	326.308	-0.104	-0.198
-412.384	-22.041	-0.295	-0.178
-411.369	113.870	0.090	-0.109
-410.355	-200.000	0.083	-0.402
-409.340	346.742	-0.113	-0.220
-408.325	800.000	0.054	0.225
-407.311	-80.546	-0.246	0.081
-406.296	45.625	0.129	-0.118
-405.282	758.038	-0.058	-0.155
-404.267	35.524	-0.322	-0.280
-403.252	-41.424	0.215	-0.110
-402.238	89.300	-0.099	-0.109
-401.223	-200.000	0.002	0.016
-400.209	58.490	-0.064	-0.063
-399.194	-26.557	-0.311	0.181
-398.179	800.000	0.017	-0.059
-397.165	8.964	0.290	0.218
-396.150	800.000	-0.002	0.008
-395.136	308.619	0.023	0.043
-394.121	-129.141	0.289	-0.040
-393.106	-200.000	0.009	0.155
-392.092	-185.973	-0.318	0.005
-391.077	46.063	0.081	0.074
-390.063	108.404	0.175	0.207
-389.048	-128.774	-0.296	-0.041
-388.033	-200.000	-0.019	-0.511
-387.019	14.595	0.103	-0.080
-386.004	-200.000	0.054	-0.346
-384.990	127.666	-0.085	0.107
-383.975	481.197	0.134	-0.301
-382.960	8.801	-0.321	-0.240
-381.946	-200.000	0.019	0.178
-380.931	-200.000	-0.001	-0.131
-379.917	-99.440	0.069	0.017
-378.902	-200.000	0.070	0.316
-377.888	36.385	0.145	-0.127
-376.873	128.809	-0.261	0.330
-375.858	-200.000	0.006	0.098
-374.844	800.000	-0.033	-0.130
-373.829	800.000	-0.017	-0.066
-372.815	156.438	0.066	0.091
-371.800	10.569	0.180	0.136
-370.785	190.372	-0.070	0.105
-369.771	224.834	0.042	-0.068
-368.756	-111.253	-0.161	-0.033
-367.742	-107.107	-0.218	-0.048
-366.727	708.651	0.084	-0.219
-365.712	227.166	0.119	-0.192
-364.698	-72.219	-0.235	0.087
-363.683	-71.725	0.282	-0.104
-362.669	-40.623	-0.078	0.040
-361.654	-80.673	-0.183	0.060
-360.639	-47.746	0.327	-0.157
-359.625	-98.733	-0.279	-0.070
-358.610	-200.000	0.002	0.114
-357.596	614.955	-0.111	-0.274
-356.581	118.059	0.007	0.009
-355.566	72.499	-0.146	-0.151
-354.552	-157.279	0.468	0.028
-353.537	800.000	-0.086	0.301
-352.523	259.413	-0.107	0.184
-351.508	-12.616	0.244	0.158
-350.493	288.949	0.020	0.035
-349.479	34.098	-0.200	-0.173
-348.464	460.772	-0.085	-0.188
-347.450	89.182	0.158	-0.174
-346.435	489.788	-0.164	0.370
-345.420	-34.565	0.063	-0.034
-344.406	-67.592	0.464	0.180
-343.391	92.162	0.094	0.105
-342.377	-91.129	0.313	-0.089
-341.362	-150.995	-0.275	0.021
-340.348	-81.001	0.207	0.068
-339.333	-200.000	0.016	0.386
-338.318	-114.890	-0.268	-0.051
-337.304	-114.393	-0.108	0.021
-336.289	-34.190	0.089	0.049
-335.275	-43.529	-0.269	-0.134
-334.260	2.019	0.245	-0.175
-333.245	-13.804	-0.270	0.173
-332.231	221.976	-0.055	-0.087
-331.216	-164.857	0.533	0.024
-330.202	-28.987	-0.147	-0.083
-329.187	-200.000	0.032	0.236
-328.172	258.744	0.080	-0.136
-327.158	-200.000	0.009	-0.132
-326.143	-200.000	0.025	-0.332
-325.129	-23.993	-0.122	-0.072
-324.114	553.247	0.131	-0.312
-323.099	12.865	0.139	-0.107
-322.085	-139.777	-0.154	0.016
-321.070	-78.459	0.367	0.125
-320.056	-200.000	0.070	0.327
-319.041	-104.405	0.239	-0.055
-318.026	-71.242	-0.215	-0.080
-317.012	-85.324	-0.124	0.038
-315.997	-36.988	-0.051	0.027
-314.983	93.593	-0.033	-0.037
-313.968	14.513	0.188	-0.145
-312.953	2.151	-0.183	-0.131
-311.939	-126.601	0.195	0.029
-310.924	-107.854	-0.073	-0.016
-309.910	39.273	0.123	0.109
-308.895	-200.000	0.247	-0.000
-307.880	162.092	-0.068	0.094
-306.866	586.609	0.149	0.362
-305.851	254.774	-0.228	0.386
-304.837	-120.008	0.264	-0.045
-303.822	800.000	0.102	0.284
-302.807	60.154	0.098	-0.096
-301.793	-42.993	-0.317	-0.159
-300.778	353.348	0.059	-0.116
-299.764	-0.554	0.203	0.142
-298.749	-200.000	0.020	0.385
-297.735	-78.011	0.143	-0.049
-296.720	-17.305	-0.172	-0.107
-295.705	800.000	0.052	0.218
-294.691	47.584	-0.126	-0.116
-293.676	214.665	0.069	-0.109
-292.662	-155.646	-0.062	0.004
-291.647	103.163	-0.123	-0.142
-290.632	50.986	0.058	-0.055
-289.618	-175.595	0.328	-0.009
-288.603	-126.221	0.283	-0.042
-287.589	-200.000	0.005	-0.178
-286.574	-108.327	-0.158	-0.034
-285.559	-35.268	0.212	0.114
-284.545	123.106	0.132	0.163
-283.530	201.831	-0.093	0.141
-282.516	-26.630	0.345	0.200
-281.501	-95.606	-0.123	-0.033
-280.486	730.793	0.063	-0.165
-279.472	265.944	-0.095	-0.163
-278.457	-200.000	-0.007	-0.186
-277.443	-43.568	0.162	0.081
-276.428	93.038	-0.185	-0.206
-275.413	-23.055	-0.131	-0.078
-274.399	-200.000	-0.010	-0.114
-273.384	-200.000	-0.006	0.040
-272.370	-2.129	-0.336	0.233
-271.355	-200.000	0.004	-0.124
-270.340	-79.374	-0.258	-0.086
-269.326	620.626	0.148	0.368
-268.311	-15.019	0.171	-0.108
-267.297	-8.117	-0.197	0.131
-266.282	41.145	0.067	-0.060
-265.267	3.468	-0.084	-0.060
-264.253	237.678	0.066	-0.109
-263.238	-200.000	0.048	0.218
-262.224	102.080	-0.206	-0.237
-261.209	-26.550	0.234	0.135
-260.195	800.000	0.010	-0.040
-259.180	-167.953	-0.142	-0.006
-258.165	-76.295	0.066	-0.023
-257.151	19.768	-0.089	-0.071
-256.136	800.000	0.047	-0.169
-255.122	-56.907	-0.141	-0.061
-254.107	-118.421	0.206	-0.036
-253.092	261.191	-0.174	-0.297
-252.078	-200.000	0.004	-0.031
-251.063	602.238	-0.085	0.210
-250.049	154.489	-0.215	0.292
-249.034	-91.489	-0.248	0.070
-248.019	-38.903	0.122	0.063
-247.005	-200.000	-0.029	-0.420
-245.990	720.196	0.004	-0.011
-244.976	391.105	0.113	0.232
-243.961	-19.131	-0.031	-0.019
-242.946	-30.429	-0.146	-0.082
-241.932	242.073	0.076	-0.126
-240.917	28.569	0.102	-0.085
-239.903	56.873	-0.111	0.107
-238.888	307.613	-0.114	0.209
-237.873	49.374	-0.077	-0.071
-236.859	504.054	-0.125	-0.285
-235.844	56.133	-0.145	0.138
-234.830	125.156	-0.106	0.132
-233.815	-80.659	-0.232	0.076
-232.800	-132.974	-0.236	-0.030
-231.786	676.520	-0.024	-0.062
-230.771	-200.000	-0.041	-0.268
-229.757	-67.088	0.340	0.132
-228.742	-85.711	0.377	-0.115
-227.727	334.719	-0.179	0.343
-226.713	-73.673	0.251	-0.090
-225.698	233.273	-0.102	0.166
-224.684	223.866	0.175	0.279
-223.669	-200.000	-0.299	0.000
-222.655	-122.998	0.313	-0.050
-221.640	-200.000	-0.003	-0.015
-220.625	96.392	-0.194	-0.219
-219.611	562.390	-0.031	-0.075
-218.596	448.698	-0.059	0.128
-217.582	-200.000	0.023	-0.285
-216.567	76.746	0.120	-0.126
-215.552	-200.000	0.069	0.377
-214.538	445.555	0.088	0.191
-213.523	152.176	0.130	-0.174
-212.509	-200.000	0.014	-0.189
-211.494	8.174	-0.204	0.151
-210.479	-129.478	-0.323	-0.044
-209.465	6.720	-0.143	-0.105
-208.450	-200.000	-0.042	0.222
-207.436	506.357	-0.122	0.279
-206.421	22.471	0.200	0.161
-205.406	263.350	-0.064	0.110
-204.392	-47.419	0.337	-0.161
-203.377	6.791	-0.207	-0.151
-202.363	673.749	-0.106	0.270
-201.348	294.772	0.017	0.031
-200.333	800.000	-0.100	-0.318
-199.319	487.390	0.117	-0.263
-198.304	-0.459	-0.341	-0.238
-197.290	188.997	0.178	0.263
-196.275	-130.565	0.252	-0.034
-195.260	345.108	0.119	0.230
-194.246	800.000	0.038	0.143
-193.231	347.695	-0.097	0.187
-192.217	-100.461	-0.289	-0.071
-191.202	438.848	0.060	0.128
-190.187	81.365	0.312	0.332
-189.173	-97.008	-0.208	0.054
-188.158	-105.017	-0.134	0.030
-187.144	254.142	0.165	0.278
-186.129	-200.000	-0.071	0.316
-185.114	-200.000	0.034	0.181
-184.100	-32.461	-0.518	0.284
-183.085	-72.811	0.371	-0.135
-182.071	28.747	0.190	-0.158
-181.056	7.008	-0.083	0.061
-180.042	181.214	-0.119	0.172
-179.027	176.273	-0.210	0.300
-178.012	503.306	0.088	0.201
-176.998	-59.598	0.188	0.079
-175.983	-200.000	-0.009	0.193
-174.969	-122.946	0.182	0.029
-173.954	-73.772	-0.221	0.079
-172.939	106.918	0.101	0.118
-171.925	23.142	-0.099	-0.080
-170.910	-46.610	-0.249	-0.120
-169.896	-200.000	0.012	0.184
-168.881	-37.989	0.233	0.122
-167.866	504.132	-0.127	0.288
-166.852	303.963	0.150	-0.274
-165.837	-163.297	0.335	-0.016
-164.823	-200.000	0.010	0.474
-163.808	-75.051	-0.068	0.024
-162.793	301.687	0.119	0.216
-161.779	14.830	0.296	0.228
-160.764	-68.246	0.247	0.094
-159.750	55.067	0.164	0.156
-158.735	-170.495	-0.166	0.006
-157.720	-60.832	-0.072	-0.030
-156.706	800.000	-0.126	-0.360
-155.691	-64.179	0.245	-0.098
-154.677	-55.942	-0.111	-0.049
-153.662	-102.430	0.116	0.027
-152.647	-64.718	-0.216	-0.086
-151.633	93.400	-0.236	0.263
-150.618	800.000	-0.074	0.232
-149.604	-43.830	0.070	-0.034
-148.589	-200.000	0.014	0.433
-147.574	75.558	-0.106	0.110
-146.560	800.000	0.062	-0.223
-145.545	800.000	-0.005	0.014
-144.531	-146.391	-0.244	0.021
-143.516	-200.000	-0.014	0.366
-142.502	-200.000	0.035	0.234
-141.487	-200.000	-0.008	-0.171
-140.472	-200.000	-0.128	-0.000
-139.458	-50.340	-0.051	-0.024
-138.443	-200.000	-0.036	-0.277
-137.429	-111.136	0.148	-0.030
-136.414	-164.456	-0.184	0.008
-135.399	63.204	0.125	-0.123
-134.385	-200.000	-0.058	0.271
-133.370	225.794	0.022	0.035
-132.356	-63.395	0.204	-0.083
-131.341	800.000	-0.043	-0.169
-130.326	-200.000	-0.039	0.307
-129.312	-52.152	-0.210	0.096
-128.297	310.454	-0.012	0.022
-127.283	-200.000	0.023	-0.099
-126.268	-200.000	-0.013	-0.252
-125.253	14.518	-0.193	0.148
-124.239	145.931	0.187	-0.246
-123.224	-7.420	0.066	0.044
-122.210	-27.861	0.258	0.147
