DTS Sentinel unit serial number:	SN413079Multiplexer serial number:	ORYXHardware model number:	OX4-SRSoftware version number:	ORYX F/W v4.00 Oryx Data Collector v3.7.2.0data status	okinstallation	princeton_trtdifferential loss correction	single-endedforward channel	channel 1reverse channel	N/Adate	2019/09/12time	00:20:11forward acquisition time	60.00reverse acquisition time	0.00gamma	496.2192k internal	0.2319k external	0.2319temperature offset calibration	1.0080default loss term (dB/km)	0.3790temperature slope calibration	1.0000multiplexer offset coefficient	1.0000multiplexer slope coefficient	1.0000fibre end	0.00T internal ref (°C)	33.56T ext. ref 1 (°C)	2.05T ext. ref 2 (°C)	28.04length (m)	temperature (°C)	Stokes	anti-Stokes-747.200	-55.988	-0.207	0.093
-746.185	-114.990	-0.251	0.048
-745.171	-88.376	-0.313	0.095
-744.156	95.425	-0.201	0.232
-743.142	190.708	-0.141	0.214
-742.127	294.069	0.021	-0.039
-741.112	4.249	0.179	-0.133
-740.098	123.394	0.081	0.103
-739.083	-71.401	0.433	-0.164
-738.069	8.250	0.105	0.080
-737.054	-200.000	0.000	-0.107
-736.039	-168.042	-0.356	-0.014
-735.025	-200.000	-0.072	0.366
-734.010	81.502	-0.205	-0.224
-732.996	-170.571	-0.036	-0.001
-731.981	-167.454	0.033	0.001
-730.966	268.800	0.047	0.083
-729.952	-200.000	-0.024	-0.164
-728.937	800.000	-0.114	-0.433
-727.923	369.310	-0.078	-0.159
-726.908	-97.945	-0.116	0.030
-725.894	612.810	0.028	0.071
-724.879	156.925	0.307	-0.429
-723.864	283.098	0.074	-0.135
-722.850	421.296	-0.169	-0.366
-721.835	5.022	-0.227	0.169
-720.821	767.511	0.036	0.098
-719.806	10.774	0.101	0.078
-718.791	-151.823	-0.145	-0.011
-717.777	554.979	0.039	-0.094
-716.762	-70.106	0.202	-0.078
-715.748	58.619	-0.274	0.272
-714.733	-83.590	0.337	-0.109
-713.718	800.000	0.042	0.147
-712.704	-127.592	0.046	0.007
-711.689	303.147	-0.082	-0.153
-710.675	-98.605	-0.197	0.051
-709.660	-120.893	0.218	-0.037
-708.645	133.065	-0.126	0.165
-707.631	-8.428	-0.169	-0.115
-706.616	-180.868	-0.250	0.005
-705.602	562.058	-0.063	0.154
-704.587	-57.355	-0.332	-0.147
-703.572	-200.000	0.080	-0.473
-702.558	-200.000	0.010	-0.065
-701.543	226.187	-0.200	-0.328
-700.529	-15.307	0.129	0.084
-699.514	551.922	0.117	0.283
-698.499	-29.375	-0.286	0.165
-697.485	-183.707	0.248	-0.004
-696.470	137.818	-0.206	0.273
-695.456	-98.988	-0.260	-0.067
-694.441	800.000	-0.079	0.319
-693.426	282.665	-0.086	0.156
-692.412	-161.505	0.110	-0.006
-691.397	-114.070	-0.118	-0.023
-690.383	-200.000	-0.006	-0.410
-689.368	765.909	0.087	-0.238
-688.354	-200.000	-0.049	0.313
-687.339	-3.144	-0.083	0.059
-686.324	-70.353	-0.194	-0.074
-685.310	92.251	0.194	0.220
-684.295	-200.000	0.012	-0.382
-683.281	-67.061	-0.191	-0.076
-682.266	-37.863	0.091	-0.049
-681.251	-144.389	-0.192	0.018
-680.237	800.000	0.050	-0.211
-679.222	67.072	-0.156	0.160
-678.208	-39.287	0.273	0.145
-677.193	34.791	0.263	-0.232
-676.178	16.910	0.243	-0.195
-675.164	49.727	-0.094	0.089
-674.149	-200.000	0.006	-0.092
-673.135	340.727	0.142	-0.279
-672.120	-124.300	0.372	0.059
-671.105	206.955	0.012	0.019
-670.091	8.522	-0.264	0.200
-669.076	301.703	-0.161	0.301
-668.062	-13.399	0.239	-0.157
-667.047	800.000	-0.117	-0.432
-666.032	-200.000	-0.034	-0.241
-665.018	-139.998	0.092	0.010
-664.003	192.506	0.119	-0.182
-662.989	-55.428	0.303	0.137
-661.974	-200.000	0.044	0.200
-660.959	-200.000	0.068	0.425
-659.945	158.910	0.148	0.207
-658.930	-200.000	0.054	0.294
-657.916	-23.350	-0.057	-0.034
-656.901	-36.279	-0.048	0.026
-655.886	140.647	-0.066	-0.088
-654.872	-21.445	0.129	-0.079
-653.857	-101.566	-0.026	-0.006
-652.843	461.169	-0.111	0.250
-651.828	-200.000	-0.033	0.269
-650.814	350.785	-0.133	0.266
-649.799	-33.384	-0.281	0.157
-648.784	-200.000	0.007	-0.069
-647.770	-200.000	0.015	0.100
-646.755	-200.000	0.025	0.216
-645.741	60.034	0.285	-0.284
-644.726	83.429	-0.323	-0.355
-643.711	28.320	0.201	0.171
-642.697	800.000	-0.055	-0.199
-641.682	-82.198	-0.241	-0.079
-640.668	800.000	-0.056	0.172
-639.653	-21.434	-0.218	-0.134
-638.638	330.020	0.077	0.149
-637.624	-3.009	-0.106	-0.074
-636.609	-200.000	-0.054	0.302
-635.595	-18.172	-0.121	-0.076
-634.580	-200.000	0.252	-0.001
-633.565	-95.137	-0.357	-0.097
-632.551	-200.000	-0.077	-0.362
-631.536	116.593	0.100	0.123
-630.522	-200.000	-0.004	-0.194
-629.507	397.271	0.048	-0.101
-628.492	-85.092	-0.186	-0.059
-627.478	12.448	-0.238	-0.185
-626.463	526.168	0.121	-0.286
-625.449	129.571	0.022	0.029
-624.434	-151.822	-0.307	-0.023
-623.419	16.227	0.146	-0.116
-622.405	74.259	-0.035	-0.037
-621.390	-200.000	-0.022	-0.170
-620.376	-66.042	-0.523	-0.210
-619.361	-84.433	0.351	-0.112
-618.346	-104.645	-0.219	-0.051
-617.332	173.526	0.056	-0.081
-616.317	114.990	-0.269	-0.330
-615.303	-200.000	0.014	-0.077
-614.288	26.072	0.118	0.099
-613.273	-80.073	-0.234	-0.079
-612.259	-26.019	0.268	0.158
-611.244	141.892	0.083	-0.110
-610.230	28.794	-0.168	-0.144
-609.215	111.916	0.107	-0.130
-608.201	182.016	-0.208	0.308
-607.186	-200.000	0.038	0.341
-606.171	476.251	-0.065	0.149
-605.157	23.261	-0.137	-0.113
-604.142	309.708	-0.234	0.441
-603.128	-111.275	-0.215	0.044
-602.113	-72.315	-0.209	-0.078
-601.098	2.559	0.184	-0.134
-600.084	128.584	0.120	0.153
-599.069	19.892	-0.194	-0.158
-598.055	44.764	-0.323	0.299
-597.040	800.000	0.061	-0.208
-596.025	-72.067	0.154	0.058
-595.011	293.214	-0.075	-0.138
-593.996	-70.775	-0.071	0.027
-592.982	2.798	0.053	-0.038
-591.967	800.000	-0.069	-0.267
-590.952	-144.284	0.358	0.034
-589.938	-200.000	0.004	-0.039
-588.923	21.253	-0.094	-0.077
-587.909	113.831	-0.009	-0.011
-586.894	800.000	0.065	-0.240
-585.879	-128.540	-0.185	0.026
-584.865	-200.000	-0.011	-0.263
-583.850	63.431	0.162	0.163
-582.836	800.000	-0.034	0.127
-581.821	45.766	0.331	0.308
-580.806	60.284	-0.198	0.196
-579.792	-200.000	0.023	0.182
-578.777	-116.692	-0.137	0.025
-577.763	-86.951	0.182	0.056
-576.748	140.915	-0.016	0.021
-575.733	-111.014	0.176	0.036
-574.719	800.000	0.053	0.211
-573.704	179.773	0.056	0.083
-572.690	-200.000	0.032	0.338
-571.675	-189.271	-0.052	0.001
-570.661	125.891	0.140	-0.178
-569.646	-92.882	0.359	-0.101
-568.631	449.093	-0.025	0.055
-567.617	-35.085	-0.212	0.116
-566.602	800.000	0.026	0.100
-565.588	-7.352	0.180	0.123
-564.573	800.000	-0.013	0.042
-563.558	110.741	0.033	-0.040
-562.544	-145.942	-0.407	0.036
-561.529	-200.000	0.020	0.447
-560.515	-57.825	0.318	-0.140
-559.500	800.000	-0.107	0.344
-558.485	93.284	-0.151	0.172
-557.471	-55.759	-0.285	0.128
-556.456	800.000	-0.030	-0.116
-555.442	108.281	0.037	-0.045
-554.427	-155.017	0.093	0.006
-553.412	76.241	0.073	-0.077
-552.398	-16.114	0.180	-0.115
-551.383	479.977	0.080	-0.182
-550.369	146.641	0.195	-0.263
-549.354	-31.763	-0.246	-0.139
-548.339	93.096	-0.047	0.053
-547.325	103.999	-0.238	-0.280
-546.310	355.096	0.146	0.292
-545.296	-104.884	-0.442	0.102
-544.281	632.688	-0.098	0.249
-543.266	68.862	0.170	0.175
-542.252	-25.934	-0.031	-0.018
-541.237	-128.454	0.311	-0.044
-540.223	7.066	-0.156	0.117
-539.208	-142.035	-0.277	-0.028
-538.193	84.302	0.037	-0.041
-537.179	800.000	0.035	0.135
-536.164	126.265	0.010	0.013
-535.150	14.938	-0.067	-0.052
-534.135	-107.750	0.200	-0.044
-533.121	365.002	0.012	0.024
-532.106	-173.633	-0.486	0.015
-531.091	135.899	0.211	-0.275
-530.077	-141.238	-0.107	0.011
-529.062	154.300	-0.103	0.141
-528.048	-145.532	0.114	0.010
-527.033	-103.646	0.210	-0.050
-526.018	-126.327	0.324	0.049
-525.004	-200.000	0.030	0.322
-523.989	-125.030	-0.212	0.033
-522.975	800.000	0.084	-0.252
-521.960	424.929	-0.108	-0.232
-520.945	800.000	-0.068	-0.258
-519.931	-17.875	-0.050	0.032
-518.916	-111.781	0.386	-0.078
-517.902	-65.662	-0.233	0.094
-516.887	694.516	-0.140	-0.368
-515.872	800.000	0.085	0.255
-514.858	-115.149	-0.482	0.092
-513.843	280.104	-0.130	0.234
-512.829	-51.706	-0.201	-0.094
-511.814	611.459	0.154	-0.387
-510.799	-144.525	-0.083	0.008
-509.785	-200.000	0.003	-0.139
-508.770	575.002	-0.041	-0.101
-507.756	-110.097	-0.199	-0.042
-506.741	261.723	0.073	0.127
-505.726	800.000	0.066	0.241
-504.712	-35.355	0.202	0.110
-503.697	800.000	-0.045	-0.148
-502.683	-77.902	0.232	0.080
-501.668	-200.000	-0.007	0.191
-500.653	800.000	-0.019	0.061
-499.639	25.671	-0.209	0.174
-498.624	39.369	-0.179	0.161
-497.610	-99.499	0.071	-0.018
-496.595	-73.985	0.302	-0.110
-495.581	-200.000	0.023	0.245
-494.566	-21.776	-0.155	0.094
-493.551	-189.251	0.118	0.001
-492.537	-200.000	0.049	-0.348
-491.522	309.386	-0.100	-0.187
-490.508	687.788	0.047	-0.124
-489.493	-200.000	0.022	0.203
-488.478	-137.369	-0.117	-0.013
-487.464	-115.706	0.076	-0.014
-486.449	45.829	0.114	0.105
-485.435	-89.136	0.034	-0.010
-484.420	104.222	0.251	0.296
-483.405	500.103	0.033	-0.075
-482.391	193.931	-0.129	-0.196
-481.376	229.673	0.043	0.071
-480.362	-35.785	0.080	0.043
-479.347	343.398	-0.109	0.214
-478.332	109.078	-0.118	0.142
-477.318	216.708	-0.233	-0.370
-476.303	40.825	-0.204	0.184
-475.289	800.000	-0.081	0.308
-474.274	-27.547	-0.335	0.195
-473.259	-71.243	0.105	0.040
-472.245	-123.430	0.302	0.048
-471.230	23.472	0.170	-0.140
-470.216	138.235	-0.115	0.151
-469.201	-116.336	0.260	0.048
-468.186	-79.283	-0.155	-0.053
-467.172	455.710	0.065	-0.144
-466.157	800.000	0.016	-0.055
-465.143	13.126	-0.177	-0.137
-464.128	271.260	0.132	-0.232
-463.113	-200.000	-0.002	0.090
-462.099	97.443	-0.173	-0.198
-461.084	190.047	0.113	0.170
-460.070	-61.316	0.166	0.070
-459.055	448.947	-0.072	0.160
-458.040	-54.102	-0.118	-0.054
-457.026	37.104	0.302	-0.267
-456.011	-67.282	0.162	-0.064
-454.997	134.887	0.144	-0.187
-453.982	-143.973	-0.302	-0.028
-452.968	-200.000	-0.024	-0.158
-451.953	-200.000	-0.033	0.355
-450.938	-200.000	0.030	0.197
-449.924	165.851	-0.075	-0.106
-448.909	800.000	-0.019	0.054
-447.895	-72.271	0.332	0.123
-446.880	-118.210	0.102	0.018
-445.865	-163.468	0.182	0.009
-444.851	-111.381	-0.216	0.044
-443.836	-115.638	0.266	-0.050
-442.822	-15.299	-0.346	0.221
-441.807	-63.049	0.168	0.069
-440.792	462.080	0.065	0.146
-439.778	-200.000	-0.100	0.574
-438.763	-105.357	0.280	-0.064
-437.749	-200.000	0.060	-0.299
-436.734	-200.000	0.051	-0.268
-435.719	-113.880	0.199	-0.039
-434.705	-200.000	-0.003	0.211
-433.690	-128.533	0.529	0.075
-432.676	151.815	0.172	-0.235
-431.661	-200.000	0.008	-0.062
-430.646	-200.000	-0.029	0.155
-429.632	643.496	-0.044	-0.111
-428.617	13.852	0.195	-0.151
-427.603	-71.764	0.209	0.078
-426.588	263.698	-0.093	-0.162
-425.573	98.681	0.129	0.148
-424.559	32.144	-0.022	-0.019
-423.544	800.000	-0.095	-0.280
-422.530	656.679	0.076	-0.194
-421.515	-200.000	0.006	0.089
-420.500	-179.769	0.314	-0.007
-419.486	173.494	-0.082	-0.118
-418.471	-106.586	0.138	-0.031
-417.457	149.155	0.074	0.100
-416.442	-32.492	-0.335	0.186
-415.428	105.804	-0.223	0.263
-414.413	-70.188	-0.119	-0.045
-413.398	14.103	0.200	-0.156
-412.384	-200.000	-0.037	0.207
-411.369	146.116	0.230	0.308
-410.355	-92.819	-0.221	0.062
-409.340	-170.043	-0.279	-0.010
-408.325	-75.771	0.158	-0.056
-407.311	-200.000	0.006	-0.275
-406.296	195.415	-0.098	0.149
-405.282	67.115	-0.024	0.025
-404.267	302.365	-0.091	-0.168
-403.252	-34.509	-0.240	-0.131
-402.238	-44.320	0.309	-0.155
-401.223	184.067	0.088	-0.130
-400.209	34.350	-0.350	-0.305
-399.194	-171.032	-0.320	0.011
-398.179	-59.140	0.035	-0.015
-397.165	10.213	-0.199	-0.151
-396.150	33.235	-0.180	0.156
-395.136	-200.000	0.021	0.187
-394.121	-71.351	-0.139	-0.052
-393.106	684.458	0.110	-0.287
-392.092	-200.000	-0.052	0.296
-391.077	472.141	-0.009	-0.019
-390.063	-108.274	0.203	-0.044
-389.048	-1.461	-0.234	0.165
-388.033	-200.000	0.001	0.179
-387.019	120.590	-0.107	-0.133
-386.004	-55.610	0.139	-0.062
-384.990	-200.000	0.033	0.469
-383.975	-158.787	-0.285	-0.016
-382.960	356.388	0.063	0.125
-381.946	77.857	0.191	-0.203
-380.931	80.652	-0.254	-0.273
-379.917	204.226	0.171	0.264
-378.902	57.951	0.176	-0.171
-377.888	-200.000	-0.028	0.265
-376.873	-166.099	0.090	-0.004
-375.858	-47.244	-0.109	0.053
-374.844	800.000	0.094	-0.304
-373.829	43.611	-0.105	-0.096
-372.815	-51.271	-0.079	-0.037
-371.800	332.160	-0.154	0.296
-370.785	371.468	-0.123	-0.249
-369.771	-7.827	0.104	0.070
-368.756	-106.464	-0.040	0.009
-367.742	111.200	-0.194	0.233
-366.727	-200.000	0.001	-0.523
-365.712	214.730	-0.060	-0.094
-364.698	-169.527	-0.179	-0.007
-363.683	174.899	0.195	0.282
-362.669	-57.013	0.135	0.059
-361.654	253.058	0.137	0.233
-360.639	485.854	-0.135	0.306
-359.625	199.993	-0.083	0.127
-358.610	17.126	0.112	-0.088
-357.596	377.292	-0.107	-0.218
-356.581	-82.052	0.188	-0.061
-355.566	4.740	-0.164	-0.120
-354.552	-153.978	0.220	-0.015
-353.537	332.067	-0.079	0.152
-352.523	472.137	-0.089	-0.199
-351.508	-109.438	-0.252	-0.053
-350.493	-164.091	-0.225	-0.010
-349.479	-40.628	-0.167	-0.086
-348.464	-129.557	-0.126	0.017
-347.450	14.266	-0.066	-0.051
-346.435	11.922	0.283	-0.217
-345.420	-200.000	-0.017	-0.300
-344.406	-118.057	0.036	-0.006
-343.391	-200.000	-0.031	0.215
-342.377	-40.616	-0.029	-0.015
-341.362	-26.399	0.088	-0.051
-340.348	-200.000	0.020	0.196
-339.333	352.194	-0.049	-0.097
-338.318	143.825	0.062	-0.082
-337.304	-99.618	0.315	-0.079
-336.289	-98.644	-0.057	-0.015
-335.275	434.674	-0.025	0.055
-334.260	-147.416	-0.394	0.033
-333.245	-96.721	0.212	0.056
-332.231	147.027	-0.141	-0.189
-331.216	-87.399	-0.199	0.060
-330.202	800.000	0.081	-0.230
-329.187	-103.206	-0.117	-0.028
-328.172	-74.976	0.216	0.077
-327.158	12.186	0.525	0.402
-326.143	590.113	-0.050	0.124
-325.129	171.754	-0.081	-0.116
-324.114	800.000	0.048	0.158
-323.099	-129.499	0.136	0.019
-322.085	2.638	-0.090	-0.065
-321.070	-127.083	-0.195	-0.028
-320.056	-200.000	0.021	-0.294
-319.041	30.167	0.026	-0.022
-318.026	-77.005	-0.565	-0.196
-317.012	-148.159	0.282	0.023
-315.997	-78.433	-0.183	0.062
-314.983	-200.000	0.000	0.237
-313.968	619.053	0.017	-0.042
-312.953	161.479	0.184	-0.256
-311.939	-53.946	-0.317	0.143
-310.924	131.896	-0.365	-0.467
-309.910	-60.700	0.203	0.086
-308.895	-58.523	0.121	0.052
-307.880	149.671	0.237	0.320
-306.866	-79.432	-0.244	-0.082
-305.851	-53.548	0.103	0.047
-304.837	800.000	-0.048	-0.199
-303.822	452.495	0.177	-0.389
-302.807	450.938	-0.298	-0.654
-301.793	126.314	0.324	0.407
-300.778	-200.000	0.061	-0.329
-299.764	488.687	-0.065	0.147
-298.749	252.604	0.053	0.090
-297.735	378.923	0.170	0.347
-296.720	263.188	0.231	-0.399
-295.705	321.108	0.058	-0.109
-294.691	84.414	0.117	0.128
-293.676	154.341	0.072	0.099
-292.662	-38.041	0.090	-0.048
-291.647	410.802	-0.127	0.267
-290.632	-29.496	0.234	0.133
-289.618	800.000	0.021	0.078
-288.603	-62.320	-0.250	-0.103
-287.589	187.380	-0.191	-0.284
-286.574	-54.836	-0.197	0.088
-285.559	-200.000	0.000	0.207
-284.545	-83.922	-0.107	-0.034
-283.530	-200.000	-0.039	-0.197
-282.516	27.914	0.314	-0.263
-281.501	-200.000	0.039	-0.172
-280.486	756.836	0.069	-0.185
-279.472	-200.000	-0.021	-0.091
-278.457	800.000	-0.102	-0.395
-277.443	-200.000	-0.052	0.240
-276.428	393.189	0.128	0.264
-275.413	38.930	0.309	-0.274
-274.399	800.000	-0.060	-0.170
-273.384	-68.747	0.122	0.047
-272.370	7.498	-0.101	-0.075
-271.355	800.000	0.099	-0.322
-270.340	-195.837	0.262	-0.002
-269.326	10.594	-0.145	-0.110
-268.311	78.571	0.066	-0.070
-267.297	-200.000	0.013	0.122
-266.282	-43.933	0.166	0.083
-265.267	185.044	-0.080	-0.118
-264.253	27.172	-0.298	-0.248
-263.238	-118.685	-0.413	0.072
-262.224	-0.939	0.166	-0.116
-261.209	278.264	0.162	-0.286
-260.195	-40.240	0.154	0.079
-259.180	-188.353	-0.022	-0.000
-258.165	1.920	0.234	0.167
-257.151	23.737	0.061	-0.050
-256.136	-132.304	-0.332	-0.043
-255.122	-200.000	-0.017	0.158
-254.107	314.687	0.032	-0.060
-253.092	-200.000	0.009	-0.178
-252.078	-33.789	-0.330	-0.181
-251.063	74.682	-0.220	-0.230
-250.049	-27.788	-0.085	-0.049
-249.034	-200.000	0.012	0.258
-248.019	-33.100	0.063	-0.035
-247.005	38.608	0.235	-0.208
-245.990	-49.467	0.255	-0.121
-244.976	-60.653	-0.067	0.028
-243.961	39.068	-0.172	-0.153
-242.946	-122.410	0.200	-0.032
-241.932	82.571	-0.330	-0.355
-240.917	-6.004	-0.157	-0.106
-239.903	-66.213	-0.205	-0.081
-238.888	-133.729	0.052	0.006
-237.873	-88.623	-0.134	0.040
-236.859	-200.000	0.008	0.197
-235.844	29.319	0.097	0.082
-234.830	59.526	-0.048	0.046
-233.815	-140.333	-0.204	-0.021
-232.800	-67.368	-0.144	0.056
-231.786	-147.957	0.132	-0.011
-230.771	37.809	0.360	0.317
-229.757	-19.049	0.348	0.214
-228.742	-130.707	0.419	-0.056
-227.727	92.463	0.112	0.125
-226.713	-164.988	0.041	0.002
-225.698	-200.000	-0.014	0.119
-224.684	-52.064	-0.176	0.081
-223.669	800.000	-0.033	0.117
-222.655	97.937	0.139	-0.159
-221.640	223.831	-0.018	-0.030
-220.625	-200.000	-0.042	-0.210
-219.611	800.000	-0.054	-0.217
-218.596	-200.000	-0.029	-0.261
-217.582	800.000	-0.065	-0.225
-216.567	-186.716	-0.115	-0.002
-215.552	-200.000	0.055	0.298
-214.538	341.873	0.075	0.145
-213.523	184.845	0.134	0.196
-212.509	-200.000	-0.037	-0.201
-211.494	800.000	-0.015	-0.059
-210.479	-77.356	0.169	0.058
-209.465	50.097	0.174	0.163
-208.450	-15.426	-0.151	-0.096
-207.436	301.212	0.101	0.185
-206.421	252.368	0.128	0.217
-205.406	-200.000	0.035	0.209
-204.392	-97.431	0.264	0.068
-203.377	-200.000	0.012	-0.089
-202.363	-99.129	0.090	-0.023
-201.348	-200.000	-0.051	-0.380
-200.333	508.171	0.077	-0.178
-199.319	-200.000	0.095	0.429
-198.304	-173.975	0.076	-0.002
-197.290	-149.886	0.261	0.020
-196.275	-60.137	0.258	-0.109
-195.260	-59.286	0.372	0.158
-194.246	14.685	0.257	0.199
-193.231	800.000	0.044	0.175
-192.217	-200.000	-0.021	0.180
-191.202	555.790	0.076	0.181
-190.187	-89.528	-0.320	-0.093
-189.173	255.938	0.110	0.186
-188.158	81.360	-0.165	0.177
-187.144	12.865	0.324	0.248
-186.129	-200.000	-0.025	-0.268
-185.114	-200.000	-0.016	0.166
-184.100	-200.000	-0.032	0.250
-183.085	-63.879	-0.242	-0.098
-182.071	614.273	-0.012	-0.031
-181.056	456.295	-0.070	0.154
-180.042	-5.215	0.154	-0.105
-179.027	176.457	-0.191	-0.274
-178.012	800.000	-0.010	0.037
-176.998	15.644	-0.379	0.295
-175.983	-46.572	0.136	-0.066
-174.969	-200.000	-0.012	0.204
-173.954	-133.672	0.465	0.057
-172.939	34.117	-0.053	0.046
-171.925	800.000	-0.085	0.362
-170.910	120.954	-0.092	0.113
-169.896	406.308	-0.093	-0.194
-168.881	33.833	0.052	-0.045
-167.866	-150.793	-0.190	0.014
-166.852	107.329	0.066	0.077
-165.837	27.634	-0.233	0.194
-164.823	166.923	0.203	0.285
-163.808	800.000	0.066	-0.185
-162.793	83.916	0.209	0.225
-161.779	-65.021	0.155	-0.062
-160.764	228.137	-0.081	-0.131
-159.750	183.588	0.105	0.154
-158.735	-142.088	0.094	0.009
-157.720	245.892	0.143	-0.238
-156.706	-137.018	0.280	-0.032
-155.691	-200.000	-0.015	0.224
-154.677	201.714	-0.156	0.238
-153.662	39.003	0.196	0.173
-152.647	-160.927	-0.189	0.010
-151.633	39.525	-0.094	0.083
-150.618	496.853	0.142	-0.324
-149.604	-36.471	0.367	0.196
-148.589	-4.868	-0.183	0.124
-147.574	-98.268	0.099	0.025
-146.560	-109.276	0.112	-0.024
-145.545	137.436	0.051	0.066
-144.531	-200.000	0.049	0.376
-143.516	800.000	0.100	-0.275
-142.502	-49.984	0.426	-0.200
-141.487	412.507	-0.240	0.505
-140.472	114.558	0.063	0.075
-139.458	800.000	0.110	0.339
-138.443	157.632	0.359	0.491
-137.429	89.363	0.185	0.204
-136.414	-6.941	-0.297	-0.199
-135.399	-191.431	0.369	-0.004
-134.385	-171.099	-0.201	0.007
-133.370	-17.810	-0.238	0.148
-132.356	-200.000	0.010	-0.209
-131.341	-18.166	0.359	0.222
-130.326	264.982	0.258	0.443
-129.312	593.263	-0.076	-0.185
-128.297	-200.000	0.019	0.352
-127.283	-200.000	0.023	-0.350
-126.268	-144.541	0.128	-0.012
-125.253	-102.384	-0.164	-0.039
-124.239	-123.500	0.293	0.046
-123.224	-13.597	0.086	0.055
-122.210	52.124	0.165	-0.156
-121.195	54.021	0.066	0.063
