DTS Sentinel unit serial number:	SN413079Multiplexer serial number:	ORYXHardware model number:	OX4-SRSoftware version number:	ORYX F/W v4.00 Oryx Data Collector v3.7.2.0data status	okinstallation	princeton_trtdifferential loss correction	single-endedforward channel	channel 1reverse channel	N/Adate	2019/09/15time	01:58:35forward acquisition time	60.00reverse acquisition time	0.00gamma	496.2192k internal	0.2322k external	0.2322temperature offset calibration	0.9985default loss term (dB/km)	0.3790temperature slope calibration	1.0000multiplexer offset coefficient	1.0000multiplexer slope coefficient	1.0000fibre end	0.00T internal ref (°C)	31.75T ext. ref 1 (°C)	4.52T ext. ref 2 (°C)	26.62length (m)	temperature (°C)	Stokes	anti-Stokes-747.200	800.000	0.112	-0.334
-746.185	446.250	0.054	-0.120
-745.171	18.661	0.231	-0.187
-744.156	240.994	0.187	0.316
-743.142	-200.000	0.011	0.144
-742.127	-200.000	0.000	0.214
-741.112	-200.000	0.002	0.064
-740.098	166.579	0.067	0.097
-739.083	337.770	-0.083	-0.163
-738.069	-200.000	0.037	-0.250
-737.054	-94.368	-0.285	0.079
-736.039	800.000	0.021	-0.061
-735.025	424.342	-0.032	0.070
-734.010	-118.596	0.148	0.026
-732.996	-48.454	-0.187	0.091
-731.981	-200.000	-0.020	-0.126
-730.966	-112.250	-0.301	-0.061
-729.952	235.117	-0.132	0.219
-728.937	14.999	0.109	0.086
-727.923	-125.980	-0.477	-0.072
-726.908	-135.030	0.036	-0.004
-725.894	-200.000	-0.015	-0.098
-724.879	-200.000	0.085	0.000
-723.864	-108.985	0.068	-0.015
-722.850	-57.512	0.068	-0.030
-721.835	800.000	0.060	-0.231
-720.821	-200.000	0.021	-0.145
-719.806	282.025	-0.097	0.175
-718.791	-116.073	-0.156	-0.029
-717.777	-181.902	0.125	-0.002
-716.762	51.640	-0.185	-0.177
-715.748	-135.307	0.209	0.025
-714.733	-103.926	-0.156	-0.037
-713.718	44.433	0.224	-0.208
-712.704	-200.000	-0.029	-0.127
-711.689	-200.000	0.016	-0.254
-710.675	77.471	-0.217	-0.233
-709.660	-200.000	-0.005	0.167
-708.645	90.027	0.149	0.168
-707.631	335.580	-0.082	-0.161
-706.616	41.653	-0.273	-0.249
-705.602	-41.200	-0.162	-0.084
-704.587	130.077	0.150	0.193
-703.572	203.009	-0.071	-0.111
-702.558	-79.580	-0.102	0.035
-701.543	-200.000	-0.013	0.209
-700.529	-46.254	-0.264	0.131
-699.514	21.971	-0.124	-0.102
-698.499	633.426	0.149	0.382
-697.485	130.644	-0.085	0.110
-696.470	-54.349	0.137	0.063
-695.456	-200.000	0.006	0.121
-694.441	-73.686	0.253	0.093
-693.426	-200.000	-0.038	-0.300
-692.412	-200.000	-0.030	0.233
-691.397	-151.150	-0.312	-0.024
-690.383	-200.000	-0.020	-0.099
-689.368	173.432	0.108	0.157
-688.354	49.201	0.247	-0.234
-687.339	-200.000	0.033	-0.194
-686.324	-24.372	0.150	-0.090
-685.310	159.980	-0.222	-0.311
-684.295	-14.283	-0.234	0.152
-683.281	43.573	0.096	-0.088
-682.266	-100.387	-0.148	-0.037
-681.251	800.000	0.094	0.374
-680.237	29.618	-0.300	0.258
-679.222	-124.260	0.286	-0.045
-678.208	276.389	-0.054	0.097
-677.193	-155.066	-0.173	-0.011
-676.178	-200.000	0.052	0.430
-675.164	181.282	-0.235	0.348
-674.149	-200.000	0.073	-0.386
-673.135	3.915	-0.110	0.081
-672.120	-155.685	0.203	0.013
-671.105	-200.000	0.004	0.126
-670.091	32.501	-0.078	0.068
-669.076	215.858	-0.140	-0.225
-668.062	593.512	0.134	-0.334
-667.047	-87.999	-0.529	-0.160
-666.032	133.741	0.231	0.301
-665.018	-38.746	-0.184	-0.098
-664.003	12.239	-0.285	-0.221
-662.989	349.601	-0.088	0.175
-661.974	176.313	0.200	0.293
-660.959	-133.889	0.131	-0.016
-659.945	-67.928	-0.222	0.087
-658.930	800.000	-0.063	0.210
-657.916	237.429	0.193	-0.323
-656.901	-27.314	-0.235	-0.138
-655.886	-60.357	-0.299	0.128
-654.872	150.879	-0.073	0.099
-653.857	-52.924	-0.347	-0.161
-652.843	-200.000	0.007	-0.536
-651.828	364.100	-0.079	-0.160
-650.814	27.122	-0.116	-0.098
-649.799	-3.724	-0.114	-0.080
-648.784	10.648	-0.124	-0.095
-647.770	800.000	0.078	0.281
-646.755	108.344	-0.208	-0.250
-645.741	-96.187	0.168	0.045
-644.726	141.393	-0.040	-0.054
-643.711	51.869	0.166	-0.159
-642.697	47.758	0.325	-0.305
-641.682	-200.000	-0.040	-0.328
-640.668	744.983	-0.132	-0.358
-639.653	136.260	0.103	-0.135
-638.638	38.676	-0.238	0.214
-637.624	-155.161	-0.245	-0.016
-636.609	-116.063	-0.194	0.036
-635.595	-87.385	-0.202	-0.062
-634.580	-39.571	-0.219	0.115
-633.565	-200.000	-0.017	0.355
-632.551	-6.928	-0.185	-0.127
-631.536	49.899	0.060	-0.057
-630.522	800.000	-0.100	-0.355
-629.507	800.000	-0.019	0.060
-628.492	66.935	0.210	-0.215
-627.478	450.536	0.182	-0.405
-626.463	-200.000	-0.016	0.112
-625.449	-161.072	0.374	-0.020
-624.434	380.144	-0.046	-0.094
-623.419	-7.706	-0.235	-0.160
-622.405	47.584	-0.180	-0.169
-621.390	76.589	0.121	0.129
-620.376	550.479	-0.077	0.186
-619.361	-200.000	-0.090	-0.841
-618.346	-33.954	-0.047	0.026
-617.332	91.575	-0.199	0.225
-616.317	-110.363	-0.184	0.038
-615.303	-30.675	0.131	0.074
-614.288	24.760	0.310	0.259
-613.273	800.000	-0.096	-0.270
-612.259	800.000	-0.041	-0.117
-611.244	-80.148	0.234	-0.079
-610.230	-200.000	-0.043	-0.213
-609.215	-167.949	0.130	0.005
-608.201	-200.000	0.005	-0.183
-607.186	800.000	-0.006	-0.021
-606.171	-35.653	0.511	0.279
-605.157	-200.000	-0.042	-0.344
-604.142	-179.007	0.211	-0.005
-603.128	-86.985	-0.266	0.081
-602.113	-200.000	-0.005	0.328
-601.098	-79.630	-0.211	-0.072
-600.084	125.428	-0.161	-0.204
-599.069	-124.579	0.047	-0.007
-598.055	800.000	-0.097	-0.276
-597.040	-90.927	0.180	0.052
-596.025	-120.853	0.130	0.022
-595.011	59.161	-0.214	-0.211
-593.996	-200.000	0.018	0.217
-592.982	134.406	-0.098	-0.128
-591.967	129.146	0.217	0.278
-590.952	26.634	-0.285	-0.240
-589.938	-91.877	0.233	0.066
-588.923	109.712	0.228	-0.275
-587.909	800.000	0.004	-0.014
-586.894	-62.529	0.369	0.154
-585.879	7.668	0.049	-0.037
-584.865	144.544	0.143	-0.192
-583.850	-157.126	-0.088	-0.005
-582.836	-9.860	0.148	0.099
-581.821	104.117	-0.170	-0.200
-580.806	-151.679	-0.099	0.007
-579.792	-200.000	0.019	-0.142
-578.777	19.289	0.154	-0.124
-577.763	181.897	0.111	0.164
-576.748	-200.000	0.037	0.214
-575.733	274.373	-0.167	0.296
-574.719	258.784	-0.090	0.155
-573.704	104.222	-0.054	0.064
-572.690	-200.000	-0.012	-0.075
-571.675	40.343	-0.295	-0.267
-570.661	-111.164	-0.150	0.031
-569.646	59.784	-0.054	-0.054
-568.631	-200.000	-0.020	-0.102
-567.617	111.957	0.304	0.368
-566.602	800.000	0.160	-0.468
-565.588	-90.060	-0.257	-0.075
-564.573	-96.627	0.087	-0.023
-563.558	800.000	-0.126	0.385
-562.544	-108.075	0.418	-0.091
-561.529	800.000	-0.046	0.143
-560.515	-200.000	-0.011	0.230
-559.500	800.000	0.079	-0.232
-558.485	115.547	-0.130	0.159
-557.471	147.553	-0.064	0.087
-556.456	-24.496	0.180	-0.108
-555.442	-41.358	0.388	0.201
-554.427	262.087	-0.062	0.108
-553.412	-200.000	-0.006	0.166
-552.398	498.080	-0.059	0.137
-551.383	-91.814	-0.200	-0.057
-550.369	-200.000	0.036	-0.271
-549.354	70.460	0.196	0.203
-548.339	800.000	0.166	-0.507
-547.325	-21.767	-0.129	0.078
-546.310	-32.892	0.242	-0.135
-545.296	-133.091	-0.145	0.018
-544.281	-200.000	-0.037	-0.232
-543.266	-200.000	-0.014	0.125
-542.252	740.620	-0.103	-0.277
-541.237	-200.000	-0.019	-0.151
-540.223	800.000	-0.056	-0.231
-539.208	800.000	0.123	0.348
-538.193	149.369	-0.050	-0.068
-537.179	505.226	-0.170	-0.395
-536.164	-200.000	-0.001	0.034
-535.150	-73.366	0.220	0.081
-534.135	218.301	-0.100	0.161
-533.121	-123.731	0.094	-0.015
-532.106	237.875	0.148	-0.245
-531.091	16.741	-0.191	-0.151
-530.077	353.928	-0.055	0.110
-529.062	-47.214	0.347	0.169
-528.048	-200.000	-0.006	-0.205
-527.033	210.166	0.064	0.100
-526.018	60.020	0.028	0.028
-525.004	124.830	0.090	0.113
-523.989	79.436	-0.171	0.184
-522.975	0.532	-0.096	0.068
-521.960	203.521	0.083	-0.129
-520.945	145.913	-0.153	0.206
-519.931	222.307	0.040	-0.065
-518.916	90.689	-0.184	-0.207
-517.902	-0.273	0.073	-0.052
-516.887	-106.069	0.188	-0.042
-515.872	711.382	0.027	-0.072
-514.858	236.399	-0.197	-0.327
-513.843	-142.377	0.276	-0.027
-512.829	-200.000	-0.002	0.053
-511.814	800.000	0.101	-0.330
-510.799	769.798	0.035	-0.095
-509.785	83.726	0.193	-0.211
-508.770	-103.649	0.401	-0.094
-507.756	800.000	-0.089	0.259
-506.741	41.284	-0.175	0.158
-505.726	694.598	-0.057	-0.151
-504.712	29.669	0.167	0.142
-503.697	-200.000	-0.075	-0.374
-502.683	-92.127	-0.521	0.148
-501.668	-137.455	0.109	0.012
-500.653	-3.923	-0.287	-0.199
-499.639	-24.802	-0.283	-0.169
-498.624	23.826	-0.089	-0.074
-497.610	-1.731	-0.222	0.156
-496.595	-7.454	0.205	-0.139
-495.581	800.000	-0.085	-0.365
-494.566	-89.885	-0.161	-0.047
-493.551	17.416	0.096	-0.076
-492.537	-0.444	-0.370	-0.263
-491.522	36.136	-0.178	0.157
-490.508	-9.951	-0.325	0.217
-489.493	678.972	-0.063	0.163
-488.478	-72.213	-0.144	-0.054
-487.464	77.642	0.193	0.206
-486.449	-148.153	0.451	-0.037
-485.435	-200.000	0.016	0.126
-484.420	42.919	-0.132	-0.120
-483.405	222.983	0.204	-0.329
-482.391	-90.934	-0.352	-0.101
-481.376	752.954	0.085	0.228
-480.362	1.972	0.102	-0.074
-479.347	118.030	-0.095	0.117
-478.332	-160.050	-0.344	-0.019
-477.318	800.000	0.099	-0.339
-476.303	-32.257	-0.056	0.031
-475.289	-200.000	-0.017	-0.194
-474.274	-4.454	-0.153	-0.105
-473.259	-62.686	-0.371	-0.154
-472.245	-43.998	0.432	0.217
-471.230	19.740	-0.165	-0.133
-470.216	-52.991	0.102	-0.047
-469.201	217.280	-0.214	0.341
-468.186	-77.373	0.089	-0.031
-467.172	184.462	0.148	0.220
-466.157	624.719	-0.061	-0.153
-465.143	-125.330	0.087	0.013
-464.128	-22.121	-0.169	0.102
-463.113	270.881	0.096	-0.169
-462.099	-133.839	-0.227	0.028
-461.084	-65.116	0.160	-0.064
-460.070	-79.410	-0.354	-0.120
-459.055	190.897	-0.110	-0.166
-458.040	403.730	-0.112	-0.236
-457.026	6.190	-0.045	0.033
-456.011	120.182	0.332	0.412
-454.997	800.000	-0.033	0.122
-453.982	-200.000	-0.011	-0.116
-452.968	178.117	0.144	-0.210
-451.953	214.654	-0.105	-0.166
-450.938	-200.000	0.001	-0.095
-449.924	800.000	0.017	-0.074
-448.909	-176.546	-0.187	0.005
-447.895	176.233	0.026	0.038
-446.880	18.561	0.043	-0.035
-445.865	-200.000	0.032	-0.198
-444.851	-84.655	0.409	-0.129
-443.836	-200.000	0.002	0.318
-442.822	-200.000	0.012	-0.234
-441.807	-74.026	-0.210	0.076
-440.792	-173.220	-0.221	0.007
-439.778	-194.754	-0.212	-0.002
-438.763	339.527	0.095	-0.185
-437.749	800.000	-0.080	0.295
-436.734	800.000	-0.067	0.219
-435.719	63.330	0.100	-0.100
-434.705	-72.909	-0.443	0.163
-433.690	-91.756	0.135	-0.038
-432.676	-200.000	-0.033	0.354
-431.661	-39.715	0.166	0.087
-430.646	276.899	0.173	-0.306
-429.632	238.705	-0.102	0.169
-428.617	-66.663	0.101	0.040
-427.603	800.000	-0.044	0.122
-426.588	243.273	0.092	-0.154
-425.573	9.660	0.229	-0.173
-424.559	80.622	-0.207	-0.222
-423.544	58.594	-0.049	0.048
-422.530	-51.578	-0.060	0.028
-421.515	-167.142	0.136	-0.006
-420.500	47.396	0.285	-0.265
-419.486	-59.350	0.023	0.010
-418.471	101.229	0.093	-0.108
-417.457	-52.199	0.230	0.106
-416.442	-97.914	0.156	-0.040
-415.428	2.904	-0.045	-0.033
-414.413	-200.000	0.008	0.262
-413.398	-28.480	-0.166	0.096
-412.384	31.294	-0.281	0.241
-411.369	488.790	-0.054	0.122
-410.355	18.958	-0.135	0.108
-409.340	-200.000	-0.006	-0.034
-408.325	186.622	-0.118	-0.175
-407.311	-9.251	0.109	0.073
-406.296	-200.000	-0.047	0.228
-405.282	-200.000	-0.009	-0.125
-404.267	355.122	0.082	-0.163
-403.252	141.431	0.211	0.279
-402.238	-199.866	-0.134	-0.001
-401.223	136.041	0.297	0.386
-400.209	-97.577	-0.035	0.009
-399.194	317.993	0.149	-0.282
-398.179	-33.176	0.403	-0.223
-397.165	167.342	-0.258	0.366
-396.150	125.838	-0.188	0.236
-395.136	-120.972	-0.152	-0.025
-394.121	-100.115	-0.177	0.044
-393.106	800.000	0.063	0.177
-392.092	407.411	0.039	0.081
-391.077	-45.090	0.072	-0.035
-390.063	-83.450	-0.053	0.017
-389.048	158.601	0.199	-0.275
-388.033	-72.159	-0.455	0.168
-387.019	157.428	0.056	-0.077
-386.004	-200.000	-0.008	0.135
-384.990	-200.000	0.049	0.378
-383.975	64.365	0.089	-0.089
-382.960	264.462	0.188	-0.326
-381.946	431.127	-0.072	-0.155
-380.931	-66.846	0.254	-0.100
-379.917	-147.108	0.635	0.054
-378.902	93.001	0.067	-0.075
-377.888	21.717	-0.292	-0.237
-376.873	-88.063	0.024	0.007
-375.858	-60.723	0.134	0.056
-374.844	800.000	-0.045	-0.137
-373.829	31.568	0.020	-0.017
-372.815	-134.932	-0.370	-0.045
-371.800	52.210	0.193	-0.184
-370.785	-0.816	0.131	-0.092
-369.771	603.426	-0.094	0.234
-368.756	91.392	-0.150	-0.168
-367.742	-58.685	0.307	-0.132
-366.727	-117.012	0.124	0.023
-365.712	-200.000	-0.032	0.231
-364.698	-42.856	-0.151	-0.077
-363.683	-110.645	-0.121	0.025
-362.669	-200.000	-0.023	0.147
-361.654	2.199	-0.096	0.069
-360.639	-200.000	-0.018	-0.145
-359.625	-124.883	-0.285	-0.044
-358.610	-200.000	-0.024	-0.276
-357.596	31.147	0.175	0.149
-356.581	-45.718	-0.223	0.110
-355.566	28.178	-0.076	-0.064
-354.552	-76.378	0.228	-0.080
-353.537	-90.042	0.162	-0.047
-352.523	371.853	0.120	-0.242
-351.508	-125.265	0.164	0.025
-350.493	18.022	0.166	0.132
-349.479	730.585	0.211	0.560
-348.464	-25.716	0.119	0.070
-347.450	68.062	-0.130	-0.132
-346.435	-156.922	-0.214	0.013
-345.420	-80.091	-0.225	0.075
-344.406	-47.129	0.074	0.036
-343.391	800.000	0.095	-0.374
-342.377	51.280	0.150	-0.141
-341.362	-84.725	0.114	0.036
-340.348	57.529	0.186	-0.181
-339.333	-117.390	-0.301	-0.054
-338.318	331.590	-0.073	0.140
-337.304	-62.654	-0.202	-0.083
-336.289	-77.103	-0.310	-0.107
-335.275	354.619	-0.049	0.097
-334.260	800.000	-0.041	-0.153
-333.245	-54.955	0.135	-0.061
-332.231	-86.466	0.184	-0.056
-331.216	800.000	0.040	-0.118
-330.202	-91.617	-0.420	0.119
-329.187	235.058	-0.053	0.087
-328.172	73.123	-0.152	0.158
-327.158	-115.581	-0.428	0.080
-326.143	273.310	0.152	0.267
-325.129	-200.000	-0.033	-0.161
-324.114	93.519	0.154	0.174
-323.099	764.045	-0.062	0.167
-322.085	76.679	-0.184	0.194
-321.070	-100.449	-0.224	-0.055
-320.056	-14.131	-0.259	-0.166
-319.041	102.328	0.094	0.109
-318.026	-67.334	0.120	0.047
-317.012	-200.000	-0.086	0.421
-315.997	92.105	-0.201	-0.225
-314.983	64.006	0.188	0.187
-313.968	-103.404	0.383	-0.090
-312.953	-68.900	0.182	-0.070
-311.939	-46.842	0.122	-0.059
-310.924	-200.000	0.008	0.170
-309.910	215.066	0.099	0.156
-308.895	-10.249	-0.058	0.039
-307.880	251.292	0.219	-0.370
-306.866	-200.000	0.008	0.097
-305.851	552.468	-0.097	0.232
-304.837	87.644	0.242	-0.266
-303.822	33.078	0.133	0.114
-302.807	-200.000	0.091	0.410
-301.793	0.746	-0.385	0.274
-300.778	-67.411	0.316	0.123
-299.764	-123.353	0.437	-0.069
-298.749	189.573	0.062	0.092
-297.735	44.356	0.195	-0.178
-296.720	-200.000	-0.039	0.331
-295.705	116.292	0.260	-0.316
-294.691	-200.000	-0.017	-0.196
-293.676	-200.000	0.031	-0.164
-292.662	-123.766	-0.111	-0.017
-291.647	-189.653	-0.063	0.001
-290.632	-200.000	-0.009	-0.379
-289.618	-117.905	0.119	-0.021
-288.603	71.368	0.143	-0.148
-287.589	-27.961	-0.248	0.143
-286.574	505.452	0.066	-0.151
-285.559	128.527	-0.100	0.127
-284.545	91.377	0.144	0.160
-283.530	-200.000	-0.023	0.432
-282.516	169.787	0.140	0.199
-281.501	800.000	0.058	0.184
-280.486	-200.000	0.012	0.195
-279.472	542.415	0.028	0.066
-278.457	455.098	-0.134	0.295
-277.443	-55.560	0.205	0.091
-276.428	-17.587	-0.142	0.089
-275.413	80.448	0.104	-0.111
-274.399	332.597	-0.023	0.043
-273.384	144.847	0.119	0.157
-272.370	87.317	0.046	0.050
-271.355	-164.450	-0.657	-0.030
-270.340	134.852	-0.167	0.215
-269.326	800.000	-0.066	-0.253
-268.311	196.676	-0.222	0.336
-267.297	295.357	0.150	0.273
-266.282	-200.000	0.003	-0.054
-265.267	-200.000	0.030	0.191
-264.253	241.085	-0.161	-0.267
-263.238	-40.026	0.117	-0.060
-262.224	800.000	0.082	0.320
-261.209	-78.795	0.174	-0.059
-260.195	-99.565	0.100	-0.025
-259.180	-200.000	0.036	0.275
-258.165	211.724	-0.120	0.188
-257.151	-68.578	-0.147	0.057
-256.136	-88.216	-0.166	0.049
-255.122	800.000	-0.042	0.147
-254.107	-92.486	0.343	-0.096
-253.092	800.000	0.092	-0.315
-252.078	391.778	0.100	0.205
-251.063	-81.165	0.257	-0.084
-250.049	-200.000	-0.033	0.158
-249.034	-147.187	-0.297	-0.025
-248.019	-10.197	-0.338	0.222
-247.005	-66.095	0.029	0.011
-245.990	-113.928	-0.094	-0.018
-244.976	-141.025	-0.136	0.014
-243.961	218.009	0.119	0.188
-242.946	381.151	0.137	0.278
-241.932	186.371	-0.087	0.128
-240.917	-200.000	-0.006	-0.179
-239.903	75.707	-0.231	0.242
-238.888	97.599	0.089	-0.101
-237.873	-200.000	-0.040	0.209
-236.859	-51.706	-0.126	0.058
-235.844	800.000	-0.057	0.224
-234.830	7.617	0.084	0.062
-233.815	490.041	0.037	0.085
-232.800	761.991	0.165	0.443
-231.786	-200.000	0.078	0.407
-230.771	236.744	-0.073	-0.119
-229.757	800.000	-0.124	-0.411
-228.742	-2.347	0.149	0.104
-227.727	8.037	0.123	0.091
-226.713	800.000	0.076	0.215
-225.698	-158.002	-0.393	-0.023
-224.684	-20.191	-0.329	-0.201
-223.669	562.018	-0.149	0.357
-222.655	-162.496	-0.295	-0.014
-221.640	-200.000	0.034	-0.181
-220.625	38.618	0.098	-0.087
-219.611	755.939	-0.132	-0.355
-218.596	49.789	-0.025	-0.024
-217.582	800.000	0.065	-0.277
-216.567	-10.359	0.395	0.259
-215.552	573.744	-0.118	0.285
-214.538	4.471	-0.133	0.097
-213.523	-200.000	-0.074	0.432
-212.509	326.479	-0.153	-0.291
-211.494	158.938	-0.024	0.033
-210.479	-169.593	-0.128	-0.005
-209.465	-200.000	-0.005	-0.168
-208.450	800.000	-0.045	0.185
-207.436	-174.428	0.373	0.011
-206.421	-200.000	-0.011	-0.418
-205.406	-78.453	0.115	0.039
-204.392	-200.000	-0.039	-0.197
-203.377	-146.464	0.046	-0.004
-202.363	749.506	-0.124	-0.331
-201.348	-200.000	-0.039	0.288
-200.333	-138.732	-0.088	-0.010
-199.319	-180.702	-0.326	0.007
-198.304	123.908	0.240	-0.298
-197.290	-118.199	-0.166	0.029
-196.275	98.172	0.083	0.094
-195.260	-169.278	0.234	0.009
-194.246	-64.135	0.194	0.078
-193.231	403.595	-0.117	0.244
-192.217	-200.000	0.012	0.055
-191.202	90.426	-0.156	0.172
-190.187	-114.395	0.136	-0.026
-189.173	-54.822	0.225	0.100
-188.158	33.193	0.199	0.170
-187.144	-200.000	0.020	0.201
-186.129	-127.016	0.177	-0.026
-185.114	-200.000	0.007	-0.059
-184.100	-91.346	0.041	0.012
-183.085	-200.000	0.060	0.384
-182.071	492.062	0.027	-0.061
-181.056	17.695	0.078	-0.062
-180.042	-165.783	0.126	-0.005
-179.027	56.278	0.112	0.107
-178.012	-74.870	-0.138	0.049
-176.998	-126.910	-0.238	0.035
-175.983	124.568	0.096	0.119
-174.969	106.060	0.067	0.079
-173.954	-176.330	-0.034	0.001
-172.939	800.000	-0.069	-0.209
-171.925	179.296	-0.081	-0.118
-170.910	15.151	0.050	0.039
-169.896	-95.326	-0.155	-0.041
-168.881	62.163	0.071	0.070
-167.866	60.755	0.192	0.188
-166.852	-46.194	-0.272	0.132
-165.837	38.979	0.219	0.193
-164.823	18.702	-0.016	0.012
-163.808	-83.798	-0.519	-0.163
-162.793	0.098	0.117	0.083
-161.779	-200.000	0.052	-0.361
-160.764	-39.264	0.282	-0.146
-159.750	-32.872	-0.309	-0.170
-158.735	-200.000	0.054	-0.241
-157.720	44.663	0.180	0.164
-156.706	178.259	0.160	0.230
-155.691	-10.805	0.316	0.206
-154.677	105.684	-0.081	-0.094
-153.662	-200.000	-0.021	-0.421
-152.647	343.364	0.041	0.080
-151.633	-172.403	0.270	-0.008
-150.618	781.871	0.054	0.145
-149.604	-121.371	-0.108	0.018
-148.589	612.552	0.079	-0.196
-147.574	77.398	0.043	0.045
-146.560	109.048	0.117	-0.138
-145.545	-90.268	0.137	0.039
-144.531	-77.408	-0.277	0.095
-143.516	329.758	-0.073	-0.139
-142.502	-74.104	-0.342	0.122
-141.487	-58.600	0.167	-0.072
-140.472	441.762	-0.100	-0.215
-139.458	217.207	-0.102	-0.160
-138.443	556.833	-0.090	-0.214
-137.429	-200.000	0.064	-0.401
-136.414	-92.331	0.140	-0.039
-135.399	800.000	-0.016	0.066
-134.385	-16.099	0.249	0.156
-133.370	24.282	0.312	-0.254
-132.356	325.123	-0.108	-0.203
-131.341	-200.000	-0.048	-0.000
-130.326	-154.517	0.249	0.016
-129.312	178.582	0.123	0.177
-128.297	34.448	-0.142	-0.123
-127.283	318.902	0.055	0.102
-126.268	421.240	-0.157	0.331
-125.253	-200.000	0.010	0.214
-124.239	-65.709	0.288	-0.114
-123.224	54.167	-0.396	-0.376
-122.210	310.949	0.063	0.116
-121.195	-30.387	0.372	0.208
