DTS Sentinel unit serial number:	SN413079Multiplexer serial number:	ORYXHardware model number:	OX4-SRSoftware version number:	ORYX F/W v4.00 Oryx Data Collector v3.7.2.0data status	okinstallation	princeton_trtdifferential loss correction	single-endedforward channel	channel 1reverse channel	N/Adate	2019/09/17time	10:02:35forward acquisition time	60.00reverse acquisition time	0.00gamma	496.2192k internal	0.2323k external	0.2323temperature offset calibration	0.9958default loss term (dB/km)	0.3790temperature slope calibration	1.0000multiplexer offset coefficient	1.0000multiplexer slope coefficient	1.0000fibre end	0.00T internal ref (°C)	29.64T ext. ref 1 (°C)	0.17T ext. ref 2 (°C)	25.33length (m)	temperature (°C)	Stokes	anti-Stokes-747.200	800.000	0.070	0.272
-746.185	181.204	-0.269	0.400
-745.171	152.535	0.351	-0.484
-744.156	-156.938	-0.066	0.004
-743.142	-187.439	0.193	-0.003
-742.127	238.454	-0.204	0.342
-741.112	78.163	-0.076	-0.082
-740.098	-166.607	-0.352	0.015
-739.083	-200.000	-0.012	0.328
-738.069	-117.105	-0.285	0.052
-737.054	-152.416	-0.394	-0.029
-736.039	-116.192	-0.522	0.098
-735.025	-31.641	0.348	0.197
-734.010	106.208	0.143	0.171
-732.996	119.221	-0.164	0.205
-731.981	72.951	-0.122	0.128
-730.966	-30.235	-0.013	-0.008
-729.952	-149.469	0.279	-0.022
-728.937	-86.823	-0.210	-0.065
-727.923	147.293	-0.014	-0.019
-726.908	163.980	0.133	-0.189
-725.894	800.000	-0.041	-0.147
-724.879	-129.023	-0.250	-0.035
-723.864	-70.868	-0.138	-0.052
-722.850	200.155	-0.215	0.334
-721.835	-81.756	0.344	0.114
-720.821	3.987	-0.328	-0.242
-719.806	-23.217	-0.249	-0.151
-718.791	-200.000	-0.021	-0.347
-717.777	-38.054	0.159	0.085
-716.762	115.872	0.092	0.113
-715.748	25.209	-0.474	0.397
-714.733	800.000	-0.045	-0.157
-713.718	26.648	0.138	-0.117
-712.704	-39.329	-0.278	0.147
-711.689	162.706	0.057	0.080
-710.675	-200.000	-0.014	0.196
-709.660	376.569	-0.108	0.222
-708.645	-84.902	-0.290	-0.092
-707.631	49.335	0.336	-0.319
-706.616	-105.580	-0.229	0.052
-705.602	81.034	0.039	0.043
-704.587	-64.647	-0.159	0.065
-703.572	-104.522	-0.294	0.068
-702.558	184.748	0.163	-0.244
-701.543	16.074	0.022	0.018
-700.529	-39.566	-0.103	0.054
-699.514	-200.000	0.037	0.201
-698.499	-182.720	0.125	0.002
-697.485	58.443	0.292	0.289
-696.470	497.280	-0.213	-0.495
-695.456	36.878	-0.370	-0.330
-694.441	800.000	-0.063	0.214
-693.426	-161.828	0.245	0.013
-692.412	48.299	-0.221	0.209
-691.397	145.959	0.134	0.181
-690.383	119.068	-0.193	-0.240
-689.368	-75.702	0.172	-0.061
-688.354	101.311	0.085	-0.099
-687.339	283.042	-0.123	-0.223
-686.324	54.999	-0.109	0.106
-685.310	-200.000	0.032	0.253
-684.295	-52.831	0.349	0.162
-683.281	-154.465	-0.199	0.013
-682.266	637.960	0.058	-0.149
-681.251	-98.914	0.354	0.091
-680.237	-17.544	0.095	0.060
-679.222	457.339	0.078	0.175
-678.208	0.979	-0.071	0.052
-677.193	-147.314	0.159	-0.014
-676.178	153.672	-0.121	0.167
-675.164	-200.000	-0.023	0.434
-674.149	316.392	0.073	-0.139
-673.135	-21.884	0.382	0.234
-672.120	64.554	0.242	-0.246
-671.105	166.616	0.229	-0.327
-670.091	-200.000	-0.008	0.093
-669.076	0.675	-0.117	0.084
-668.062	722.794	0.072	-0.192
-667.047	-36.423	0.281	-0.152
-666.032	-92.536	-0.261	-0.074
-665.018	-186.147	0.328	0.005
-664.003	-163.839	-0.204	-0.010
-662.989	72.589	0.096	-0.101
-661.974	-95.894	-0.189	-0.051
-660.959	0.118	0.121	0.087
-659.945	263.827	0.065	-0.114
-658.930	-102.361	-0.442	0.107
-657.916	-82.369	-0.098	-0.032
-656.901	-56.898	0.125	-0.055
-655.886	-113.302	-0.338	0.067
-654.872	-200.000	0.029	0.232
-653.857	-40.972	0.178	-0.092
-652.843	-133.762	0.200	-0.025
-651.828	-102.161	-0.280	-0.068
-650.814	-134.386	-0.117	0.014
-649.799	-29.785	-0.058	0.033
-648.784	800.000	-0.069	0.237
-647.770	-200.000	-0.013	-0.197
-646.755	-160.162	-0.260	-0.014
-645.741	800.000	-0.053	0.153
-644.726	-5.337	-0.239	-0.165
-643.711	-127.324	0.059	0.009
-642.697	130.646	-0.163	0.211
-641.682	497.665	0.128	-0.295
-640.668	-96.280	0.089	0.024
-639.653	800.000	-0.084	-0.347
-638.638	-81.125	-0.214	0.071
-637.624	15.575	0.128	-0.101
-636.609	-165.142	-0.102	0.005
-635.595	-200.000	0.012	0.092
-634.580	88.758	0.077	-0.086
-633.565	267.588	-0.178	-0.314
-632.551	-4.709	0.264	0.183
-631.536	800.000	-0.063	0.179
-630.522	138.367	-0.136	0.180
-629.507	-88.731	-0.327	0.098
-628.492	-200.000	0.047	0.258
-627.478	-200.000	0.000	-0.060
-626.463	679.411	0.046	-0.121
-625.449	-200.000	-0.020	0.141
-624.434	-165.965	0.174	0.007
-623.419	800.000	0.138	0.414
-622.405	-81.127	-0.072	0.024
-621.390	800.000	0.068	-0.270
-620.376	-200.000	-0.018	0.248
-619.361	-66.706	-0.162	-0.065
-618.346	-77.831	-0.240	0.083
-617.332	-146.075	-0.133	0.012
-616.317	-120.041	-0.137	0.024
-615.303	-200.000	-0.013	-0.413
-614.288	423.965	0.113	-0.245
-613.273	-122.396	0.226	0.037
-612.259	800.000	-0.061	0.179
-611.244	-30.728	0.157	0.089
-610.230	-200.000	0.004	0.229
-609.215	0.293	0.132	-0.095
-608.201	-13.826	-0.142	0.092
-607.186	-200.000	-0.026	0.130
-606.171	-200.000	-0.005	0.118
-605.157	377.994	-0.040	0.081
-604.142	313.001	0.074	0.139
-603.128	800.000	0.070	0.251
-602.113	79.734	-0.120	0.130
-601.098	-200.000	0.012	0.065
-600.084	-51.399	0.251	0.118
-599.069	-158.857	0.175	-0.010
-598.055	167.074	-0.060	0.086
-597.040	-53.427	0.213	0.098
-596.025	70.999	-0.164	0.171
-595.011	-104.241	0.269	-0.063
-593.996	-98.774	0.266	0.068
-592.982	800.000	-0.036	0.124
-591.967	-200.000	-0.046	-0.232
-590.952	147.727	0.188	-0.254
-589.938	-155.930	0.152	0.010
-588.923	-146.525	-0.180	-0.016
-587.909	-11.505	-0.279	-0.184
-586.894	-172.213	0.215	-0.007
-585.879	115.276	-0.095	-0.117
-584.865	295.414	0.167	-0.307
-583.850	-28.822	0.043	-0.025
-582.836	259.787	-0.128	-0.221
-581.821	-67.849	-0.247	0.097
-580.806	88.023	-0.257	0.286
-579.792	167.890	0.194	0.277
-578.777	184.038	-0.063	-0.094
-577.763	-200.000	0.045	-0.283
-576.748	165.297	0.187	-0.265
-575.733	-142.014	0.141	-0.014
-574.719	-99.808	0.158	-0.040
-573.704	19.767	-0.146	-0.118
-572.690	205.132	-0.119	-0.186
-571.675	-12.417	-0.179	-0.117
-570.661	-113.502	0.244	-0.048
-569.646	347.804	-0.127	-0.252
-568.631	431.958	0.170	-0.370
-567.617	57.529	-0.121	-0.118
-566.602	-29.749	0.138	-0.079
-565.588	800.000	-0.044	-0.130
-564.573	-71.652	-0.124	0.047
-563.558	-200.000	-0.004	-0.163
-562.544	-129.486	-0.406	0.056
-561.529	800.000	-0.064	0.220
-560.515	339.644	-0.225	-0.439
-559.500	-103.399	0.357	-0.084
-558.485	156.686	-0.224	-0.310
-557.471	10.123	0.259	-0.198
-556.456	-17.113	0.133	0.084
-555.442	52.120	-0.041	0.039
-554.427	307.465	-0.099	-0.185
-553.412	-110.824	-0.026	-0.005
-552.398	754.582	0.068	-0.184
-551.383	800.000	-0.058	-0.162
-550.369	191.190	-0.064	-0.097
-549.354	477.087	0.034	-0.077
-548.339	100.698	0.112	-0.130
-547.325	195.813	0.085	-0.130
-546.310	516.794	0.164	-0.384
-545.296	-46.773	0.056	0.027
-544.281	800.000	-0.045	0.136
-543.266	345.312	0.152	-0.299
-542.252	-166.862	-0.120	0.005
-541.237	-95.214	0.413	-0.111
-540.223	-200.000	-0.047	0.344
-539.208	75.988	0.135	0.143
-538.193	81.882	0.180	-0.195
-537.179	233.483	0.137	-0.225
-536.164	-27.969	0.357	-0.207
-535.150	696.317	-0.023	-0.059
-534.135	-126.949	-0.074	0.011
-533.121	498.276	-0.070	0.161
-532.106	190.750	0.050	0.075
-531.091	-200.000	0.047	0.281
-530.077	-96.757	0.052	0.014
-529.062	181.258	-0.178	-0.262
-528.048	353.526	-0.161	-0.320
-527.033	-8.155	0.375	0.253
-526.018	-200.000	0.002	0.083
-525.004	-8.910	-0.273	-0.183
-523.989	252.619	-0.175	-0.298
-522.975	800.000	-0.063	0.211
-521.960	105.912	0.333	-0.394
-520.945	-200.000	-0.014	-0.095
-519.931	-122.246	-0.416	-0.068
-518.916	-197.706	0.135	-0.001
-517.902	184.251	-0.103	-0.153
-516.887	-95.908	-0.226	-0.060
-515.872	-22.276	-0.387	0.235
-514.858	-200.000	0.000	0.393
-513.843	-19.346	0.401	-0.249
-512.829	-130.438	-0.222	-0.030
-511.814	800.000	-0.062	0.226
-510.799	-200.000	-0.018	0.113
-509.785	-68.711	-0.101	0.039
-508.770	-61.223	0.142	0.060
-507.756	-1.164	0.133	-0.094
-506.741	14.509	0.226	-0.176
-505.726	-200.000	-0.011	-0.258
-504.712	221.957	-0.087	0.140
-503.697	269.304	-0.113	0.199
-502.683	101.632	0.164	0.191
-501.668	-177.332	0.098	0.002
-500.653	-200.000	0.014	-0.171
-499.639	2.720	0.090	0.065
-498.624	800.000	-0.077	-0.259
-497.610	-200.000	0.045	0.356
-496.595	-200.000	0.023	-0.167
-495.581	-45.093	-0.208	0.103
-494.566	-193.013	-0.273	0.002
-493.551	404.605	0.080	-0.169
-492.537	-17.861	0.083	0.052
-491.522	245.245	-0.121	0.203
-490.508	800.000	-0.139	-0.531
-489.493	800.000	0.016	-0.067
-488.478	-152.863	-0.106	0.007
-487.464	-75.577	-0.065	-0.023
-486.449	40.928	0.106	0.096
-485.435	-12.196	-0.265	-0.173
-484.420	800.000	-0.102	0.347
-483.405	-200.000	-0.032	0.248
-482.391	-133.576	-0.176	-0.022
-481.376	-42.316	0.413	-0.211
-480.362	-131.706	-0.327	-0.043
-479.347	-46.075	-0.165	-0.081
-478.332	85.754	-0.117	-0.128
-477.318	-31.044	0.021	0.012
-476.303	345.032	-0.142	0.279
-475.289	-107.785	-0.243	0.053
-474.274	-49.341	0.200	0.095
-473.259	800.000	-0.098	0.370
-472.245	-41.426	-0.021	0.011
-471.230	-27.874	-0.174	0.101
-470.216	132.902	-0.173	-0.223
-469.201	-70.310	0.410	0.155
-468.186	153.713	0.081	-0.111
-467.172	800.000	0.067	-0.203
-466.157	-78.275	0.160	0.055
-465.143	-86.119	0.243	0.075
-464.128	83.409	0.272	0.296
-463.113	51.463	0.098	0.093
-462.099	17.554	0.099	0.078
-461.084	-63.740	0.157	0.064
-460.070	-37.206	-0.115	0.062
-459.055	-115.029	0.067	0.013
-458.040	42.731	0.100	0.091
-457.026	-133.538	-0.383	-0.048
-456.011	279.265	-0.107	-0.191
-454.997	251.972	-0.171	0.291
-453.982	-39.688	-0.140	0.073
-452.968	186.075	-0.194	-0.289
-451.953	393.957	0.164	-0.341
-450.938	-131.987	0.241	-0.031
-449.924	-105.930	-0.068	0.015
-448.909	-114.276	-0.095	-0.018
-447.895	-200.000	-0.014	-0.089
-446.880	56.050	0.168	-0.163
-445.865	-127.573	0.134	-0.019
-444.851	170.835	-0.092	0.132
-443.836	-200.000	0.046	0.272
-442.822	800.000	0.041	-0.158
-441.807	-33.774	-0.307	-0.169
-440.792	-51.970	0.181	0.084
-439.778	-200.000	-0.014	-0.176
-438.763	67.449	0.059	0.060
-437.749	-200.000	0.026	0.325
-436.734	-98.620	-0.181	-0.046
-435.719	-200.000	-0.004	0.022
-434.705	26.778	0.298	-0.249
-433.690	-200.000	-0.061	-0.272
-432.676	-200.000	0.005	0.244
-431.661	-200.000	0.007	0.239
-430.646	503.859	-0.068	0.157
-429.632	-115.674	-0.205	-0.038
-428.617	103.922	0.113	0.133
-427.603	-121.251	0.274	0.046
-426.588	800.000	0.100	0.348
-425.573	-20.557	-0.057	0.035
-424.559	800.000	-0.107	0.399
-423.544	54.204	-0.049	-0.047
-422.530	245.914	-0.091	0.152
-421.515	800.000	-0.004	-0.019
-420.500	-139.365	-0.245	-0.026
-419.486	-128.954	0.197	-0.028
-418.471	-59.074	-0.149	0.064
-417.457	-31.097	0.045	0.025
-416.442	7.467	0.083	0.062
-415.428	-0.996	0.226	0.160
-414.413	140.922	-0.223	-0.294
-413.398	-70.323	-0.035	0.013
-412.384	-78.748	0.312	0.106
-411.369	-143.366	-0.102	0.010
-410.355	466.303	0.051	0.115
-409.340	-200.000	0.000	-0.020
-408.325	47.756	-0.227	-0.211
-407.311	800.000	-0.039	0.157
-406.296	-85.888	0.317	0.098
-405.282	-168.720	-0.168	-0.006
-404.267	-36.811	0.170	0.091
-403.252	-56.318	-0.128	-0.057
-402.238	249.368	0.075	-0.127
-401.223	-93.770	-0.460	-0.126
-400.209	-200.000	0.011	0.145
-399.194	-142.738	-0.060	-0.006
-398.179	197.220	0.240	0.365
-397.165	-56.049	0.320	0.142
-396.150	-13.845	0.175	-0.113
-395.136	200.987	-0.133	-0.204
-394.121	-101.003	-0.083	0.020
-393.106	551.390	-0.019	-0.046
-392.092	464.176	0.111	-0.248
-391.077	550.419	0.017	0.039
-390.063	6.691	0.133	0.098
-389.048	-200.000	-0.021	0.152
-388.033	-96.817	-0.190	0.050
-387.019	-32.093	0.242	0.135
-386.004	27.486	0.262	-0.219
-384.990	-200.000	-0.032	0.463
-383.975	86.640	-0.153	0.168
-382.960	94.387	0.144	-0.162
-381.946	-144.815	0.175	0.016
-380.931	800.000	0.123	-0.400
-379.917	82.729	0.074	-0.080
-378.902	127.844	-0.217	0.274
-377.888	-22.019	-0.328	0.199
-376.873	-46.215	-0.239	-0.117
-375.858	-98.452	0.343	0.087
-374.844	-144.885	-0.228	-0.021
-373.829	267.334	-0.195	-0.339
-372.815	-200.000	0.003	-0.137
-371.800	-200.000	-0.062	0.294
-370.785	-63.412	-0.133	0.054
-369.771	-81.088	-0.098	-0.032
-368.756	-200.000	0.027	-0.230
-367.742	756.024	-0.054	-0.145
-366.727	-200.000	-0.044	0.201
-365.712	-98.974	-0.356	-0.090
-364.698	-5.059	-0.201	0.137
-363.683	34.017	-0.247	0.214
-362.669	-53.451	0.189	0.086
-361.654	166.728	-0.101	-0.143
-360.639	-200.000	0.230	-0.000
-359.625	30.414	-0.011	0.009
-358.610	-67.230	-0.088	-0.035
-357.596	53.396	0.286	-0.273
-356.581	-200.000	-0.087	-0.446
-355.566	-28.004	-0.160	-0.092
-354.552	-153.364	0.151	-0.010
-353.537	-42.908	-0.288	-0.145
-352.523	-200.000	-0.025	0.336
-351.508	-61.764	0.088	-0.037
-350.493	800.000	0.051	0.159
-349.479	-20.121	-0.180	-0.110
-348.464	-133.361	0.274	0.034
-347.450	-18.205	0.254	0.158
-346.435	-200.000	-0.041	-0.184
-345.420	-167.804	-0.139	-0.005
-344.406	137.907	-0.079	0.103
-343.391	72.684	0.269	-0.279
-342.377	92.289	0.216	0.243
-341.362	149.468	0.084	-0.114
-340.348	-66.380	-0.157	0.062
-339.333	344.050	0.243	-0.475
-338.318	-68.285	-0.099	-0.038
-337.304	-141.625	0.179	-0.018
-336.289	61.294	-0.076	-0.075
-335.275	800.000	0.035	-0.140
-334.260	-200.000	-0.004	-0.216
-333.245	-2.172	-0.288	-0.201
-332.231	272.466	0.147	0.258
-331.216	-200.000	-0.027	0.142
-330.202	356.999	-0.243	-0.482
-329.187	-56.786	-0.070	-0.031
-328.172	46.545	-0.206	0.190
-327.158	-200.000	-0.054	0.239
-326.143	75.406	0.179	-0.188
-325.129	-200.000	-0.080	0.502
-324.114	-200.000	-0.036	0.410
-323.099	-64.558	-0.144	0.058
-322.085	68.360	-0.155	0.157
-321.070	306.540	0.081	0.150
-320.056	427.565	0.166	0.355
-319.041	55.073	-0.223	0.214
-318.026	12.713	-0.160	0.123
-317.012	-200.000	0.029	-0.202
-315.997	-146.992	0.449	0.038
-314.983	363.268	0.102	-0.204
-313.968	-200.000	-0.010	0.231
-312.953	-200.000	-0.077	0.480
-311.939	800.000	0.060	-0.227
-310.924	3.996	-0.108	0.078
-309.910	38.572	0.415	0.367
-308.895	388.210	0.070	0.143
-307.880	133.953	-0.046	-0.059
-306.866	51.304	-0.180	0.169
-305.851	722.629	-0.114	0.302
-304.837	54.310	-0.156	-0.149
-303.822	-27.637	-0.082	0.047
-302.807	800.000	0.094	0.271
-301.793	-82.296	0.185	-0.060
-300.778	170.745	-0.133	0.188
-299.764	-113.250	-0.170	-0.033
-298.749	-24.885	-0.198	-0.117
-297.735	800.000	-0.109	-0.384
-296.720	-175.542	0.101	0.003
-295.705	-136.246	-0.154	-0.018
-294.691	800.000	0.066	0.217
-293.676	442.115	0.023	0.049
-292.662	-114.365	0.323	-0.062
-291.647	800.000	0.071	0.247
-290.632	-102.196	-0.401	0.096
-289.618	-200.000	-0.239	0.000
-288.603	-182.058	0.092	-0.002
-287.589	-177.574	0.052	0.001
-286.574	201.512	0.087	0.133
-285.559	-26.578	0.143	0.083
-284.545	-69.110	0.198	0.076
-283.530	195.335	-0.179	-0.270
-282.516	1.783	-0.137	0.098
-281.501	-127.311	0.343	0.050
-280.486	-84.573	0.216	0.068
-279.472	735.262	0.032	0.084
-278.457	138.759	-0.283	0.369
-277.443	48.730	-0.302	0.281
-276.428	-83.526	0.277	0.088
-275.413	297.604	0.116	-0.211
-274.399	-149.616	0.208	0.016
-273.384	-115.447	-0.069	0.013
-272.370	337.392	0.115	0.222
-271.355	800.000	0.018	0.054
-270.340	318.503	0.168	0.316
-269.326	-124.448	0.383	0.059
-268.311	-69.543	-0.352	0.134
-267.297	68.727	0.149	0.152
-266.282	-32.802	0.135	0.074
-265.267	101.177	0.152	-0.176
-264.253	257.017	0.067	0.114
-263.238	209.537	0.129	-0.201
-262.224	12.192	0.082	0.063
-261.209	-46.179	-0.187	-0.091
-260.195	113.640	0.230	-0.276
-259.180	-185.617	0.104	-0.002
-258.165	-200.000	-0.079	-0.375
-257.151	61.563	-0.233	-0.230
-256.136	-96.774	-0.310	0.081
-255.122	-200.000	0.027	-0.156
-254.107	800.000	-0.080	-0.290
-253.092	215.053	0.154	-0.242
-252.078	312.821	-0.120	-0.224
-251.063	229.314	-0.104	0.168
-250.049	448.954	0.062	-0.136
-249.034	95.716	-0.164	0.185
-248.019	-39.319	0.147	-0.077
-247.005	-75.411	0.292	0.103
-245.990	63.361	-0.405	0.402
-244.976	693.223	-0.024	-0.063
-243.961	490.296	-0.057	0.129
-242.946	800.000	-0.104	-0.351
-241.932	-117.997	-0.067	0.012
-240.917	-14.737	0.141	-0.090
-239.903	175.514	0.218	0.313
-238.888	800.000	0.117	0.358
-237.873	-158.496	0.272	-0.016
-236.859	-200.000	0.047	-0.256
-235.844	-106.130	0.466	0.104
-234.830	163.466	-0.035	-0.049
-233.815	298.955	-0.088	-0.160
-232.800	419.026	-0.154	-0.326
-231.786	201.457	0.106	0.161
-230.771	-59.229	-0.037	-0.016
-229.757	-200.000	0.061	0.318
-228.742	-154.059	0.173	0.012
-227.727	457.755	0.071	0.156
-226.713	-200.000	-0.012	-0.321
-225.698	-146.433	-0.038	0.003
-224.684	-143.014	-0.213	0.020
-223.669	-125.979	-0.196	-0.029
-222.655	-121.889	0.423	-0.069
-221.640	800.000	0.070	0.196
-220.625	-44.365	-0.096	-0.047
-219.611	58.159	-0.148	-0.143
-218.596	107.610	0.179	-0.210
-217.582	-200.000	0.017	0.163
-216.567	-2.249	0.077	-0.053
-215.552	-133.801	0.329	-0.040
-214.538	67.915	-0.161	-0.163
-213.523	-175.938	0.060	-0.002
-212.509	116.070	-0.121	0.146
-211.494	258.291	-0.109	0.186
-210.479	348.508	-0.109	-0.212
-209.465	-153.889	-0.594	0.040
-208.450	-25.331	-0.177	0.104
-207.436	-171.917	-0.135	0.004
-206.421	190.675	0.117	0.174
-205.406	-200.000	0.030	-0.275
-204.392	-176.932	0.104	0.003
-203.377	-146.098	0.280	-0.024
-202.363	-200.000	0.021	-0.126
-201.348	800.000	-0.035	0.134
-200.333	-3.383	-0.089	-0.061
-199.319	-101.920	0.277	-0.066
-198.304	93.542	0.287	0.321
-197.290	800.000	-0.041	0.141
-196.275	-200.000	0.015	0.172
-195.260	-200.000	0.071	-0.317
-194.246	322.243	-0.113	-0.214
-193.231	47.494	-0.154	-0.142
-192.217	800.000	0.139	0.445
-191.202	800.000	0.021	-0.066
-190.187	-21.681	0.111	0.067
-189.173	-200.000	-0.043	0.308
-188.158	-59.592	0.295	0.125
-187.144	188.183	-0.170	0.251
-186.129	-15.280	0.415	-0.262
-185.114	-56.321	-0.139	-0.061
-184.100	-82.974	-0.299	-0.095
-183.085	424.378	-0.053	-0.112
-182.071	244.637	-0.074	-0.123
-181.056	432.405	-0.115	-0.247
-180.042	-200.000	-0.032	-0.215
-179.027	341.211	-0.193	-0.373
-178.012	127.084	0.135	-0.169
-176.998	-27.408	-0.155	0.089
-175.983	-78.225	-0.121	-0.041
-174.969	-96.556	-0.206	0.054
-173.954	693.153	-0.035	-0.092
-172.939	-39.744	0.225	-0.116
-171.925	-44.281	0.339	-0.168
-170.910	105.273	-0.097	0.113
-169.896	-20.692	-0.092	0.056
-168.881	43.695	0.004	0.004
-167.866	234.781	-0.094	0.153
-166.852	800.000	0.094	0.259
-165.837	-51.556	0.156	0.072
-164.823	195.322	0.235	-0.352
-163.808	-6.957	-0.302	-0.203
-162.793	-40.680	-0.049	0.025
-161.779	-163.397	0.156	-0.007
-160.764	-58.821	-0.136	-0.058
-159.750	-27.916	-0.231	-0.132
-158.735	40.011	-0.180	0.160
-157.720	421.914	0.074	-0.156
-156.706	-160.786	-0.237	0.012
-155.691	-200.000	0.008	0.190
-154.677	-189.459	0.263	0.003
-153.662	163.824	-0.056	0.078
-152.647	-84.173	0.150	0.047
-151.633	25.540	0.053	-0.043
-150.618	-200.000	0.026	0.180
-149.604	-16.208	0.271	-0.170
-148.589	136.685	0.141	-0.182
-147.574	-179.192	0.226	0.005
-146.560	-200.000	-0.004	-0.095
-145.545	81.911	-0.114	-0.122
-144.531	185.439	0.125	0.183
-143.516	800.000	-0.013	0.053
-142.502	-131.486	0.213	-0.028
-141.487	-135.729	-0.223	-0.026
-140.472	-200.000	-0.127	0.566
-139.458	-200.000	0.003	0.060
-138.443	800.000	-0.060	0.246
-137.429	-200.000	-0.058	0.532
-136.414	-200.000	0.028	-0.203
-135.399	-200.000	0.036	0.156
-134.385	78.883	0.157	0.166
-133.370	-60.021	0.373	-0.157
-132.356	800.000	0.072	0.264
-131.341	-25.337	0.303	0.177
-130.326	-147.506	0.169	-0.014
-129.312	206.592	0.175	0.269
-128.297	-80.322	0.255	0.084
-127.283	-134.624	-0.358	-0.043
-126.268	9.199	0.003	-0.002
-125.253	68.119	-0.044	-0.044
-124.239	-177.133	-0.046	-0.001
-123.224	-99.699	-0.142	0.035
-122.210	74.337	0.265	0.275
