DTS Sentinel unit serial number:	SN413079Multiplexer serial number:	ORYXHardware model number:	OX4-SRSoftware version number:	ORYX F/W v4.00 Oryx Data Collector v3.7.2.0data status	okinstallation	princeton_trtdifferential loss correction	single-endedforward channel	channel 1reverse channel	N/Adate	2019/09/13time	20:42:35forward acquisition time	60.00reverse acquisition time	0.00gamma	496.2192k internal	0.2331k external	0.2331temperature offset calibration	1.0081default loss term (dB/km)	0.3790temperature slope calibration	1.0000multiplexer offset coefficient	1.0000multiplexer slope coefficient	1.0000fibre end	0.00T internal ref (°C)	28.87T ext. ref 1 (°C)	3.13T ext. ref 2 (°C)	23.41length (m)	temperature (°C)	Stokes	anti-Stokes-747.200	-47.294	0.135	-0.066
-746.185	-200.000	-0.017	0.370
-745.171	-200.000	0.057	0.362
-744.156	800.000	-0.058	0.206
-743.142	141.340	-0.114	-0.151
-742.127	800.000	-0.116	0.335
-741.112	800.000	-0.056	-0.247
-740.098	-99.931	-0.330	0.083
-739.083	786.394	0.071	-0.197
-738.069	-9.021	0.063	0.043
-737.054	-113.428	0.289	-0.057
-736.039	-133.085	0.164	0.021
-735.025	-147.152	0.206	0.018
-734.010	182.404	-0.126	0.186
-732.996	70.995	-0.255	0.266
-731.981	76.077	-0.194	-0.207
-730.966	-110.021	-0.218	-0.046
-729.952	800.000	0.025	-0.072
-728.937	-15.747	-0.227	0.146
-727.923	-25.150	-0.192	0.114
-726.908	-200.000	0.061	-0.354
-725.894	-106.522	-0.204	0.046
-724.879	426.914	-0.076	-0.165
-723.864	800.000	0.101	-0.294
-722.850	145.370	-0.212	-0.286
-721.835	800.000	0.106	-0.435
-720.821	198.532	0.157	-0.241
-719.806	4.158	-0.228	-0.168
-718.791	75.001	0.158	-0.167
-717.777	-44.329	-0.153	-0.077
-716.762	12.409	-0.154	-0.120
-715.748	232.248	-0.120	-0.198
-714.733	-83.930	0.353	-0.113
-713.718	-168.241	0.089	-0.003
-712.704	-200.000	-0.027	-0.167
-711.689	800.000	-0.077	-0.261
-710.675	-103.154	0.297	0.071
-709.660	-112.830	-0.021	-0.004
-708.645	93.549	0.136	0.155
-707.631	-27.961	0.307	0.179
-706.616	2.570	0.052	-0.038
-705.602	-112.843	0.188	0.038
-704.587	121.582	0.251	0.314
-703.572	22.744	0.215	0.177
-702.558	555.192	-0.175	-0.424
-701.543	-124.323	-0.293	-0.046
-700.529	-107.260	0.196	-0.043
-699.514	-112.457	0.222	-0.045
-698.499	-200.000	0.034	0.263
-697.485	-200.000	-0.002	-0.212
-696.470	24.359	0.175	-0.145
-695.456	251.655	0.098	-0.167
-694.441	-86.278	0.289	0.090
-693.426	553.086	0.039	-0.094
-692.412	151.090	-0.201	0.274
-691.397	52.020	0.181	-0.173
-690.383	-32.977	-0.551	-0.307
-689.368	-52.662	0.170	-0.079
-688.354	-200.000	0.017	0.129
-687.339	-39.009	0.108	-0.057
-686.324	129.343	0.040	0.051
-685.310	-97.252	0.166	0.044
-684.295	2.750	-0.184	-0.134
-683.281	-152.395	0.079	-0.006
-682.266	551.581	0.043	-0.103
-681.251	-24.958	0.153	-0.091
-680.237	-200.000	-0.036	-0.199
-679.222	-200.000	0.042	-0.230
-678.208	274.237	-0.027	-0.048
-677.193	144.014	-0.077	0.103
-676.178	0.479	0.337	-0.242
-675.164	-47.228	0.139	-0.068
-674.149	-200.000	0.026	0.155
-673.135	101.347	-0.135	-0.158
-672.120	-107.486	0.091	0.020
-671.105	-8.391	0.022	-0.015
-670.091	510.388	0.128	-0.300
-669.076	292.225	0.029	-0.053
-668.062	-83.202	0.062	0.020
-667.047	561.060	-0.115	-0.278
-666.032	355.036	-0.053	-0.106
-665.018	-18.695	0.126	-0.079
-664.003	76.110	-0.298	-0.317
-662.989	146.795	-0.234	-0.315
-661.974	-144.997	-0.331	-0.030
-660.959	251.776	-0.146	0.249
-659.945	-200.000	0.064	-0.311
-658.930	-200.000	0.058	-0.364
-657.916	800.000	-0.059	0.193
-656.901	800.000	0.028	0.093
-655.886	114.440	-0.017	0.020
-654.872	189.642	-0.143	-0.215
-653.857	398.159	0.067	0.141
-652.843	-200.000	-0.001	-0.047
-651.828	-81.815	-0.077	-0.025
-650.814	175.421	-0.117	-0.170
-649.799	-134.309	-0.717	-0.088
-648.784	239.636	-0.082	0.137
-647.770	78.008	-0.208	-0.223
-646.755	-25.418	-0.210	0.125
-645.741	248.267	-0.215	-0.364
-644.726	-20.727	0.174	-0.107
-643.711	450.846	0.062	-0.137
-642.697	-91.842	-0.209	-0.059
-641.682	51.517	0.198	0.189
-640.668	-200.000	0.020	-0.207
-639.653	708.463	0.179	-0.474
-638.638	60.891	-0.172	-0.171
-637.624	800.000	0.056	0.184
-636.609	-51.736	-0.334	-0.156
-635.595	81.944	-0.085	-0.093
-634.580	-43.687	0.077	0.039
-633.565	113.247	0.105	-0.128
-632.551	-200.000	-0.001	-0.076
-631.536	156.342	-0.044	-0.061
-630.522	-130.061	0.499	-0.068
-629.507	-200.000	0.005	0.041
-628.492	138.372	0.126	-0.165
-627.478	-168.039	0.326	0.013
-626.463	-200.000	-0.004	0.208
-625.449	-140.638	0.183	0.019
-624.434	42.111	0.179	-0.162
-623.419	800.000	0.017	-0.074
-622.405	457.704	0.044	-0.098
-621.390	-19.501	0.300	0.186
-620.376	231.278	0.041	0.068
-619.361	-200.000	0.024	-0.238
-618.346	61.503	0.132	0.131
-617.332	196.530	-0.175	-0.268
-616.317	124.927	-0.214	-0.270
-615.303	475.695	0.066	-0.150
-614.288	-132.554	-0.125	0.016
-613.273	-200.000	0.024	-0.288
-612.259	-7.986	0.366	-0.247
-611.244	630.192	-0.099	-0.251
-610.230	123.891	-0.138	-0.173
-609.215	800.000	0.066	0.190
-608.201	635.970	0.083	-0.210
-607.186	800.000	-0.129	-0.409
-606.171	-200.000	-0.032	-0.252
-605.157	296.548	0.013	-0.023
-604.142	-200.000	0.032	0.237
-603.128	-20.193	0.103	0.063
-602.113	-82.702	-0.116	-0.038
-601.098	800.000	0.075	0.282
-600.084	-99.860	-0.179	-0.045
-599.069	-19.788	0.254	0.157
-598.055	137.511	-0.123	-0.162
-597.040	35.293	0.110	-0.097
-596.025	-59.755	-0.250	0.107
-595.011	-59.257	-0.294	-0.127
-593.996	-200.000	0.001	0.097
-592.982	800.000	0.045	-0.135
-591.967	-57.466	-0.222	-0.097
-590.952	58.095	-0.208	0.204
-589.938	168.050	-0.233	-0.332
-588.923	800.000	0.014	0.059
-587.909	-66.405	-0.115	-0.046
-586.894	98.376	-0.087	0.100
-585.879	-3.147	-0.157	-0.109
-584.865	100.950	-0.111	-0.129
-583.850	-91.711	-0.309	-0.088
-582.836	199.571	0.085	-0.130
-581.821	800.000	0.072	0.263
-580.806	-28.734	-0.195	-0.112
-579.792	311.638	-0.146	-0.274
-578.777	584.553	0.156	-0.382
-577.763	539.303	0.061	-0.146
-576.748	-18.910	-0.251	-0.156
-575.733	-200.000	-0.017	-0.184
-574.719	26.744	-0.033	-0.027
-573.704	-151.449	0.373	0.028
-572.690	-143.274	0.296	-0.028
-571.675	-50.139	-0.018	0.009
-570.661	-117.773	0.094	-0.017
-569.646	27.991	-0.148	-0.125
-568.631	380.299	-0.090	0.185
-567.617	-130.501	0.285	0.039
-566.602	-200.000	-0.032	-0.148
-565.588	19.244	0.114	-0.092
-564.573	317.415	-0.071	0.135
-563.558	-200.000	-0.022	0.320
-562.544	-15.083	-0.230	0.147
-561.529	800.000	0.099	-0.338
-560.515	-55.406	-0.109	-0.049
-559.500	-200.000	0.014	-0.147
-558.485	-200.000	-0.004	0.169
-557.471	267.342	0.104	-0.181
-556.456	53.962	0.038	0.037
-555.442	800.000	0.064	0.212
-554.427	84.321	0.139	0.152
-553.412	208.997	-0.046	0.072
-552.398	333.653	-0.184	0.355
-551.383	488.914	-0.080	0.182
-550.369	-7.472	0.096	0.065
-549.354	-22.334	0.234	-0.142
-548.339	-200.000	0.048	-0.307
-547.325	-0.002	0.360	0.256
-546.310	90.358	-0.165	-0.184
-545.296	177.889	0.025	0.037
-544.281	-200.000	-0.015	0.136
-543.266	5.470	0.379	-0.279
-542.252	-200.000	-0.003	0.269
-541.237	-24.007	0.390	0.233
-540.223	800.000	0.072	-0.287
-539.208	623.276	-0.064	-0.161
-538.193	75.377	0.121	0.128
-537.179	-121.272	-0.365	-0.061
-536.164	79.545	-0.067	-0.072
-535.150	375.219	0.060	-0.123
-534.135	-156.199	-0.116	0.007
-533.121	-200.000	0.029	0.348
-532.106	518.672	0.136	-0.318
-531.091	800.000	0.148	-0.407
-530.077	587.841	0.145	0.357
-529.062	-161.389	-0.273	0.014
-528.048	704.262	0.116	0.306
-527.033	-84.687	-0.197	-0.062
-526.018	90.335	-0.200	0.223
-525.004	-93.901	-0.079	0.022
-523.989	183.034	0.076	-0.111
-522.975	71.631	0.082	-0.085
-521.960	166.018	-0.030	0.042
-520.945	800.000	-0.075	0.286
-519.931	800.000	0.023	-0.090
-518.916	800.000	0.049	-0.165
-517.902	-200.000	0.021	0.261
-516.887	800.000	0.046	-0.130
-515.872	-200.000	0.024	-0.206
-514.858	17.434	0.093	-0.074
-513.843	-88.017	-0.178	-0.053
-512.829	-99.579	-0.324	0.081
-511.814	-16.633	0.351	0.222
-510.799	-2.828	-0.128	0.089
-509.785	-200.000	0.044	-0.320
-508.770	-200.000	-0.017	0.288
-507.756	-28.961	-0.081	0.046
-506.741	-200.000	-0.005	0.270
-505.726	-136.991	0.342	-0.039
-504.712	103.780	-0.110	-0.129
-503.697	-75.695	0.078	0.028
-502.683	-200.000	-0.011	0.183
-501.668	356.529	-0.039	-0.078
-500.653	-130.960	0.239	-0.032
-499.639	800.000	-0.074	0.244
-498.624	15.842	-0.359	-0.282
-497.610	299.448	-0.101	-0.186
-496.595	-163.470	-0.236	-0.011
-495.581	-67.747	-0.350	-0.136
-494.566	800.000	-0.060	-0.194
-493.551	246.332	0.150	-0.251
-492.537	11.744	0.164	-0.126
-491.522	111.062	0.267	-0.320
-490.508	122.336	-0.136	0.170
-489.493	800.000	0.055	0.175
-488.478	-179.572	-0.271	0.006
-487.464	331.558	0.090	0.173
-486.449	-200.000	0.006	0.139
-485.435	27.016	0.101	-0.085
-484.420	119.160	-0.062	-0.076
-483.405	-95.586	0.102	-0.027
-482.391	-66.603	-0.325	-0.128
-481.376	-176.271	0.068	0.002
-480.362	1.081	-0.127	0.091
-479.347	-154.718	-0.321	-0.021
-478.332	-48.360	-0.276	0.133
-477.318	-13.239	-0.085	0.055
-476.303	535.335	-0.083	0.196
-475.289	-177.491	0.103	0.003
-474.274	0.020	-0.424	-0.301
-473.259	304.464	-0.117	-0.216
-472.245	-56.104	-0.186	0.083
-471.230	-146.552	-0.158	0.014
-470.216	52.709	0.194	0.185
-469.201	260.366	0.181	0.312
-468.186	-200.000	-0.019	0.102
-467.172	-200.000	0.045	0.508
-466.157	352.914	-0.044	-0.087
-465.143	109.311	0.301	-0.359
-464.128	800.000	0.044	0.128
-463.113	-200.000	0.033	0.225
-462.099	145.073	0.041	-0.055
-461.084	199.333	-0.064	0.097
-460.070	-18.850	0.118	0.073
-459.055	-49.381	0.228	0.108
-458.040	-129.607	-0.311	-0.043
-457.026	-143.844	-0.188	-0.018
-456.011	548.375	-0.100	0.239
-454.997	-65.930	-0.288	0.115
-453.982	365.310	-0.186	-0.372
-452.968	800.000	-0.036	-0.130
-451.953	-4.857	0.149	-0.102
-450.938	800.000	0.045	0.153
-449.924	-165.880	-0.371	0.016
-448.909	800.000	0.138	0.381
-447.895	-150.370	-0.247	-0.019
-446.880	38.594	-0.226	-0.201
-445.865	-200.000	-0.037	0.195
-444.851	301.548	-0.097	0.178
-443.836	-145.124	0.008	0.001
-442.822	-200.000	0.011	-0.073
-441.807	-126.784	0.127	-0.019
-440.792	194.370	-0.059	0.089
-439.778	12.088	0.193	-0.148
-438.763	-81.956	0.094	0.031
-437.749	-200.000	-0.038	-0.314
-436.734	12.727	-0.288	-0.221
-435.719	-27.448	0.105	0.061
-434.705	105.846	0.214	0.251
-433.690	119.743	-0.220	0.271
-432.676	-84.900	0.154	-0.048
-431.661	68.320	0.212	0.216
-430.646	-200.000	-0.063	0.390
-429.632	324.544	-0.071	-0.136
-428.617	166.526	-0.080	-0.113
-427.603	-189.234	-0.168	-0.002
-426.588	-87.052	0.193	0.058
-425.573	-66.049	-0.219	-0.087
-424.559	-200.000	-0.045	0.211
-423.544	800.000	-0.086	-0.279
-422.530	12.646	-0.202	0.155
-421.515	-40.880	-0.192	-0.098
-420.500	-70.166	0.275	0.104
-419.486	-12.252	0.051	0.033
-418.471	-200.000	0.010	-0.079
-417.457	138.039	0.186	-0.242
-416.442	800.000	0.060	0.254
-415.428	800.000	-0.058	-0.198
-414.413	-56.008	-0.296	-0.131
-413.398	-76.973	0.308	0.107
-412.384	-79.817	-0.298	0.100
-411.369	247.885	0.084	0.140
-410.355	-84.555	0.024	-0.008
-409.340	-200.000	-0.019	0.081
-408.325	-120.045	0.394	-0.067
-407.311	121.115	0.167	0.206
-406.296	481.943	0.123	0.277
-405.282	-9.160	0.130	-0.087
-404.267	-105.034	0.454	0.103
-403.252	3.020	-0.177	-0.128
-402.238	800.000	0.158	-0.496
-401.223	-2.019	-0.186	-0.130
-400.209	-25.369	-0.164	-0.096
-399.194	35.590	-0.236	0.206
-398.179	17.203	-0.120	-0.095
-397.165	72.874	0.121	-0.126
-396.150	-43.947	0.133	0.067
-395.136	-125.539	-0.220	0.033
-394.121	-200.000	0.013	-0.319
-393.106	-32.173	0.209	-0.116
-392.092	109.745	-0.321	-0.382
-391.077	28.059	-0.141	0.118
-390.063	384.172	-0.148	-0.303
-389.048	-119.768	-0.253	-0.043
-388.033	-126.936	0.218	-0.032
-387.019	-73.230	-0.124	0.045
-386.004	199.625	-0.171	-0.261
-384.990	-52.469	-0.037	0.017
-383.975	-148.999	0.437	-0.035
-382.960	-200.000	0.062	0.337
-381.946	544.348	-0.063	-0.150
-380.931	-200.000	-0.011	0.187
-379.917	26.261	-0.114	-0.095
-378.902	67.151	0.041	-0.042
-377.888	-200.000	0.021	0.225
-376.873	-200.000	-0.007	-0.205
-375.858	-83.157	0.308	0.098
-374.844	-200.000	-0.011	0.229
-373.829	153.972	0.065	0.088
-372.815	677.467	-0.089	0.230
-371.800	-200.000	-0.029	0.131
-370.785	537.172	-0.153	0.361
-369.771	800.000	-0.072	-0.283
-368.756	800.000	0.104	0.366
-367.742	444.989	-0.066	0.144
-366.727	-41.154	-0.098	-0.050
-365.712	326.426	-0.115	0.218
-364.698	-34.708	0.600	0.325
-363.683	-0.762	0.125	-0.088
-362.669	103.311	0.015	0.018
-361.654	75.083	-0.133	-0.139
-360.639	-200.000	-0.001	-0.139
-359.625	-125.425	-0.042	0.006
-358.610	-63.082	0.254	0.104
-357.596	-114.398	-0.154	-0.029
-356.581	71.596	0.163	0.167
-355.566	-200.000	0.049	0.257
-354.552	-200.000	0.001	0.098
-353.537	800.000	-0.033	0.098
-352.523	294.473	-0.123	0.223
-351.508	510.349	0.210	0.485
-350.493	1.748	-0.110	-0.079
-349.479	437.110	-0.022	-0.047
-348.464	-123.912	-0.181	0.028
-347.450	-89.626	-0.167	-0.048
-346.435	131.708	-0.077	0.098
-345.420	533.828	-0.037	0.086
-344.406	141.395	0.246	0.323
-343.391	-171.616	-0.177	-0.006
-342.377	17.436	0.137	-0.108
-341.362	14.374	0.194	0.150
-340.348	-8.625	-0.126	-0.084
-339.333	800.000	0.025	0.075
-338.318	172.063	0.105	-0.150
-337.304	-200.000	-0.000	-0.041
-336.289	800.000	-0.164	0.477
-335.275	69.241	-0.255	-0.260
-334.260	-15.706	0.185	-0.117
-333.245	176.917	0.065	0.094
-332.231	800.000	0.027	-0.081
-331.216	-200.000	0.015	-0.267
-330.202	800.000	-0.055	-0.169
-329.187	-52.931	-0.127	-0.058
-328.172	-200.000	-0.047	0.217
-327.158	-200.000	0.007	-0.147
-326.143	44.685	-0.223	-0.203
-325.129	209.757	0.118	0.183
-324.114	800.000	-0.129	0.405
-323.099	100.520	-0.157	0.180
-322.085	62.109	-0.336	-0.332
-321.070	758.520	0.052	0.139
-320.056	31.868	0.195	-0.166
-319.041	356.347	-0.078	0.155
-318.026	-170.160	-0.113	0.004
-317.012	-152.817	0.230	0.016
-315.997	-14.532	-0.289	0.184
-314.983	26.703	-0.063	-0.052
-313.968	-0.224	0.255	-0.179
-312.953	30.339	-0.081	-0.069
-311.939	-156.601	0.065	0.004
-310.924	48.491	-0.252	0.234
-309.910	12.145	-0.182	-0.138
-308.895	-200.000	0.014	0.384
-307.880	-200.000	0.020	0.289
-306.866	-4.249	0.409	-0.280
-305.851	793.583	0.181	-0.492
-304.837	-41.562	-0.050	0.026
-303.822	31.422	0.108	-0.092
-302.807	23.184	-0.096	0.078
-301.793	94.469	-0.188	0.211
-300.778	-132.258	0.287	-0.037
-299.764	-200.000	0.014	0.137
-298.749	-200.000	-0.083	0.447
-297.735	800.000	0.111	-0.395
-296.720	-200.000	0.005	0.172
-295.705	260.907	0.117	0.201
-294.691	39.268	-0.135	-0.120
-293.676	-51.877	0.370	0.170
-292.662	-34.615	0.117	-0.064
-291.647	-12.134	-0.033	0.021
-290.632	-200.000	-0.060	0.295
-289.618	800.000	0.054	-0.183
-288.603	246.571	-0.020	0.033
-287.589	-47.101	-0.132	-0.063
-286.574	95.123	-0.342	0.385
-285.559	-43.961	-0.235	0.117
-284.545	46.954	0.015	-0.014
-283.530	161.023	0.119	0.164
-282.516	112.444	0.362	0.433
-281.501	106.730	-0.160	0.188
-280.486	-56.173	-0.132	-0.058
-279.472	-55.662	0.238	-0.105
-278.457	-28.944	0.132	-0.075
-277.443	-200.000	-0.019	0.102
-276.428	413.499	-0.130	-0.273
-275.413	-200.000	-0.005	0.217
-274.399	-200.000	-0.013	-0.122
-273.384	-200.000	-0.003	-0.086
-272.370	-111.829	-0.031	-0.006
-271.355	-200.000	0.016	-0.337
-270.340	-200.000	-0.049	-0.275
-269.326	-200.000	0.017	0.081
-268.311	-200.000	0.038	-0.197
-267.297	7.453	-0.205	-0.151
-266.282	53.218	-0.171	-0.161
-265.267	-160.501	-0.085	-0.004
-264.253	418.862	-0.082	-0.173
-263.238	-60.201	0.281	0.118
-262.224	-200.000	0.049	0.320
-261.209	-107.760	0.371	0.080
-260.195	-105.814	-0.396	-0.088
-259.180	-50.837	-0.236	0.110
-258.165	-131.314	0.424	0.056
-257.151	-91.849	0.132	0.037
-256.136	800.000	-0.105	0.361
-255.122	356.330	0.132	0.260
-254.107	332.099	-0.031	-0.059
-253.092	800.000	-0.039	-0.127
-252.078	-200.000	-0.028	0.175
-251.063	10.852	0.087	-0.066
-250.049	800.000	0.084	-0.288
-249.034	603.328	-0.097	-0.238
-248.019	-200.000	-0.004	-0.249
-247.005	-200.000	0.013	0.170
-245.990	800.000	-0.144	0.424
-244.976	-200.000	-0.043	0.357
-243.961	-200.000	-0.021	0.090
-242.946	-119.863	-0.030	-0.005
-241.932	-200.000	0.018	-0.102
-240.917	222.302	0.135	0.214
-239.903	-65.081	-0.153	-0.061
-238.888	114.129	0.193	-0.232
-237.873	-97.727	-0.350	0.089
-236.859	-168.650	0.403	0.015
-235.844	378.952	0.051	-0.103
-234.830	-200.000	-0.026	0.403
-233.815	800.000	0.085	0.352
-232.800	25.490	-0.253	0.208
-231.786	68.171	-0.151	-0.153
-230.771	-200.000	0.032	0.294
-229.757	-19.736	-0.134	0.081
-228.742	-173.581	-0.162	-0.005
-227.727	-200.000	-0.019	0.166
-226.713	-7.034	0.229	-0.153
-225.698	-68.167	-0.245	-0.094
-224.684	-200.000	-0.005	0.193
-223.669	-38.301	-0.122	0.064
-222.655	-6.361	0.205	0.138
-221.640	41.579	0.251	-0.224
-220.625	-200.000	0.034	0.189
-219.611	800.000	0.059	0.242
-218.596	567.972	0.033	0.078
-217.582	-200.000	0.007	0.303
-216.567	73.179	-0.194	-0.200
-215.552	-120.249	0.386	0.065
-214.538	-200.000	-0.027	-0.407
-213.523	-200.000	0.012	0.234
-212.509	174.328	0.064	-0.091
-211.494	-150.476	-0.187	-0.014
-210.479	-27.249	0.244	-0.140
-209.465	-44.931	0.180	-0.089
-208.450	220.347	0.074	0.118
-207.436	-91.835	-0.166	0.046
-206.421	77.599	0.145	-0.152
-205.406	291.525	0.135	-0.242
-204.392	-35.647	0.249	-0.133
-203.377	800.000	-0.092	-0.303
-202.363	743.959	0.089	-0.237
-201.348	-200.000	0.015	-0.141
-200.333	42.926	0.226	-0.203
-199.319	-194.816	0.347	0.003
-198.304	-53.320	-0.065	0.030
-197.290	350.028	-0.055	-0.107
-196.275	32.542	0.304	-0.259
-195.260	-200.000	0.051	-0.221
-194.246	50.586	0.259	0.241
-193.231	-54.194	-0.474	0.212
-192.217	-130.817	0.113	-0.015
-191.202	634.070	0.102	-0.255
-190.187	-200.000	0.033	-0.202
-189.173	-108.388	0.189	-0.040
-188.158	-200.000	-0.018	-0.191
-187.144	-91.776	0.276	-0.077
-186.129	-176.422	0.219	0.006
-185.114	-200.000	-0.023	-0.135
-184.100	-126.406	0.038	0.006
-183.085	259.588	-0.181	0.308
-182.071	-3.654	-0.060	0.041
-181.056	27.434	-0.166	0.137
-180.042	-116.904	0.176	-0.032
-179.027	-93.547	0.353	0.096
-178.012	-200.000	-0.073	-0.000
-176.998	22.180	-0.218	-0.175
-175.983	800.000	0.053	-0.171
-174.969	412.535	0.061	-0.128
-173.954	6.770	0.238	0.174
-172.939	-200.000	-0.029	0.223
-171.925	-12.411	0.245	0.157
-170.910	141.140	0.191	-0.249
-169.896	-200.000	0.023	0.190
-168.881	-200.000	-0.035	0.229
-167.866	-200.000	0.029	0.140
-166.852	-108.787	0.281	0.059
-165.837	-200.000	0.033	0.220
-164.823	292.889	-0.089	0.160
-163.808	-17.601	-0.124	0.077
-162.793	39.536	0.110	0.097
-161.779	-159.138	0.229	0.013
-160.764	85.623	-0.218	-0.236
-159.750	17.775	-0.098	0.077
-158.735	83.730	-0.183	-0.197
-157.720	800.000	0.049	-0.180
-156.706	-191.764	0.216	-0.002
-155.691	149.698	-0.060	0.080
-154.677	-200.000	0.037	-0.278
-153.662	125.927	0.037	-0.047
-152.647	800.000	0.051	-0.172
-151.633	108.960	-0.124	-0.145
-150.618	-120.652	0.429	-0.071
-149.604	-159.734	0.247	-0.013
-148.589	800.000	-0.051	-0.143
-147.574	-79.687	0.232	0.077
-146.560	66.268	-0.101	0.100
-145.545	-63.361	-0.288	-0.117
-144.531	-42.511	0.222	-0.111
-143.516	-160.476	-0.467	0.025
-142.502	679.531	0.115	0.295
-141.487	-200.000	0.053	0.361
-140.472	-64.762	-0.261	0.104
-139.458	59.038	-0.280	0.271
-138.443	-138.538	-0.256	0.028
-137.429	4.508	-0.214	-0.154
-136.414	-47.023	0.125	-0.060
-135.399	-200.000	-0.013	-0.083
-134.385	800.000	-0.021	0.081
-133.370	77.291	0.210	0.219
-132.356	-63.715	0.185	-0.075
-131.341	8.341	-0.213	0.157
-130.326	-46.107	-0.123	-0.060
-129.312	-108.559	0.453	0.096
-128.297	-140.055	0.365	-0.038
-127.283	-145.135	-0.408	-0.036
-126.268	800.000	-0.043	0.158
-125.253	-150.458	0.242	0.018
-124.239	-200.000	0.041	-0.239
-123.224	96.689	0.098	-0.110
-122.210	800.000	-0.075	0.252
