DTS Sentinel unit serial number:	SN413079Multiplexer serial number:	ORYXHardware model number:	OX4-SRSoftware version number:	ORYX F/W v4.00 Oryx Data Collector v3.7.2.0data status	okinstallation	princeton_trtdifferential loss correction	single-endedforward channel	channel 1reverse channel	N/Adate	2019/09/18time	18:42:35forward acquisition time	60.00reverse acquisition time	0.00gamma	496.2192k internal	0.2299k external	0.2299temperature offset calibration	1.0017default loss term (dB/km)	0.3790temperature slope calibration	1.0000multiplexer offset coefficient	1.0000multiplexer slope coefficient	1.0000fibre end	0.00T internal ref (°C)	37.67T ext. ref 1 (°C)	0.93T ext. ref 2 (°C)	28.49length (m)	temperature (°C)	Stokes	anti-Stokes-747.200	4.984	-0.348	-0.261
-746.185	800.000	0.077	0.319
-745.171	-154.724	-0.002	0.000
-744.156	800.000	0.061	0.265
-743.142	-131.230	-0.278	-0.038
-742.127	565.150	0.111	0.274
-741.112	-200.000	-0.008	0.145
-740.098	-200.000	0.034	-0.194
-739.083	-12.179	-0.174	-0.116
-738.069	-30.687	-0.315	0.182
-737.054	-200.000	0.006	0.310
-736.039	-128.290	-0.305	0.044
-735.025	800.000	0.147	0.606
-734.010	-19.160	0.043	0.027
-732.996	52.468	-0.239	0.233
-731.981	-183.613	-0.229	-0.004
-730.966	-95.730	-0.325	-0.089
-729.952	-159.686	-0.137	0.008
-728.937	475.437	-0.051	-0.116
-727.923	238.531	-0.113	0.192
-726.908	-69.943	-0.349	-0.136
-725.894	-194.043	0.247	-0.002
-724.879	17.782	-0.137	-0.111
-723.864	-69.752	-0.293	-0.114
-722.850	605.823	0.131	-0.333
-721.835	-84.789	0.175	0.056
-720.821	-53.593	-0.246	-0.114
-719.806	-30.486	-0.415	0.240
-718.791	800.000	-0.106	-0.386
-717.777	379.791	0.101	-0.210
-716.762	-151.027	0.450	0.035
-715.748	-179.731	0.350	0.008
-714.733	-23.953	0.354	-0.216
-713.718	366.743	-0.042	0.086
-712.704	-70.396	0.231	-0.089
-711.689	-200.000	0.082	-0.392
-710.675	58.610	-0.165	-0.165
-709.660	-79.421	0.332	0.114
-708.645	-41.847	-0.362	-0.189
-707.631	226.196	-0.044	0.072
-706.616	-113.709	0.112	-0.022
-705.602	159.497	-0.120	-0.170
-704.587	800.000	-0.134	0.406
-703.572	-66.303	-0.248	0.100
-702.558	132.094	-0.265	0.348
-701.543	41.994	-0.090	0.084
-700.529	319.213	-0.089	0.171
-699.514	-144.418	0.110	0.010
-698.499	-161.531	-0.167	0.009
-697.485	-119.517	-0.114	0.020
-696.470	60.557	0.194	0.196
-695.456	259.379	-0.073	0.128
-694.441	-63.108	-0.253	-0.106
-693.426	-31.829	-0.156	0.089
-692.412	-90.154	0.116	0.034
-691.397	108.209	-0.127	-0.155
-690.383	-200.000	-0.034	0.535
-689.368	323.055	0.110	0.214
-688.354	-59.784	-0.153	-0.067
-687.339	-200.000	0.001	0.184
-686.324	-200.000	0.011	0.200
-685.310	-119.892	-0.551	-0.096
-684.295	208.320	0.142	0.225
-683.281	-200.000	-0.008	0.158
-682.266	-100.857	-0.351	0.088
-681.251	-80.160	-0.201	0.069
-680.237	39.598	-0.211	0.193
-679.222	294.474	0.085	0.158
-678.208	58.613	0.117	0.117
-677.193	-115.174	-0.137	0.026
-676.178	-113.674	-0.290	-0.058
-675.164	-200.000	-0.045	0.227
-674.149	-106.535	0.054	0.012
-673.135	246.330	-0.116	0.199
-672.120	-200.000	0.014	0.189
-671.105	-200.000	0.005	-0.266
-670.091	213.230	0.065	-0.104
-669.076	-200.000	0.002	-0.056
-668.062	-29.126	0.422	-0.246
-667.047	109.690	-0.035	-0.043
-666.032	52.388	0.078	-0.076
-665.018	-122.132	0.140	-0.023
-664.003	461.907	-0.125	0.284
-662.989	165.048	-0.165	-0.237
-661.974	446.875	-0.178	-0.399
-660.959	74.501	0.187	-0.200
-659.945	569.590	0.122	-0.301
-658.930	123.024	0.043	-0.055
-657.916	73.260	0.139	0.147
-656.901	-49.558	-0.321	0.155
-655.886	-200.000	-0.025	0.144
-654.872	200.453	-0.061	0.096
-653.857	24.222	-0.282	-0.237
-652.843	544.007	-0.046	0.112
-651.828	-28.092	0.367	0.216
-650.814	-91.323	-0.228	0.066
-649.799	-61.992	-0.169	0.072
-648.784	128.911	0.067	-0.086
-647.770	-126.253	-0.150	-0.023
-646.755	-200.000	0.065	-0.293
-645.741	-38.514	0.529	0.284
-644.726	-56.392	-0.340	0.153
-643.711	377.331	0.157	0.325
-642.697	212.865	-0.140	0.224
-641.682	96.421	0.122	-0.142
-640.668	-200.000	0.015	-0.218
-639.653	-200.000	-0.016	-0.075
-638.638	-200.000	0.004	0.084
-637.624	-12.994	-0.277	-0.183
-636.609	-46.075	0.260	-0.130
-635.595	4.461	-0.068	0.051
-634.580	-135.393	-0.407	-0.049
-633.565	-40.024	-0.071	-0.038
-632.551	-200.000	0.008	0.138
-631.536	800.000	0.068	0.208
-630.522	113.815	0.146	-0.180
-629.507	-31.495	-0.132	0.075
-628.492	800.000	-0.144	0.448
-627.478	-200.000	-0.013	0.310
-626.463	-200.000	-0.028	-0.231
-625.449	-200.000	0.007	-0.051
-624.434	-167.258	-0.249	0.010
-623.419	-58.831	-0.193	0.085
-622.405	38.218	0.147	-0.133
-621.390	119.654	0.104	0.131
-620.376	-117.261	0.405	0.075
-619.361	-200.000	-0.010	-0.188
-618.346	45.781	0.104	-0.098
-617.332	-200.000	0.003	0.251
-616.317	-80.395	0.247	-0.084
-615.303	-200.000	-0.252	0.000
-614.288	-55.758	-0.188	-0.085
-613.273	34.445	0.124	-0.110
-612.259	-172.490	-0.199	-0.006
-611.244	800.000	0.028	-0.084
-610.230	-191.432	-0.173	0.002
-609.215	1.220	0.105	0.076
-608.201	-44.084	0.078	-0.040
-607.186	-3.766	0.163	-0.115
-606.171	-149.170	0.223	0.018
-605.157	75.271	0.286	-0.306
-604.142	800.000	-0.064	-0.217
-603.128	441.311	0.078	0.172
-602.113	-65.238	-0.211	-0.086
-601.098	237.856	-0.064	-0.107
-600.084	310.462	0.108	0.205
-599.069	-47.515	0.102	0.050
-598.055	-48.649	0.119	0.058
-597.040	-200.000	0.022	-0.229
-596.025	-12.876	0.286	-0.189
-595.011	-127.606	-0.296	-0.043
-593.996	-20.170	0.131	0.082
-592.982	405.382	0.129	-0.277
-591.967	645.191	0.070	-0.182
-590.952	93.083	-0.104	0.119
-589.938	256.734	-0.067	0.117
-588.923	410.613	-0.106	-0.229
-587.909	79.958	0.073	0.079
-586.894	800.000	-0.075	-0.279
-585.879	-200.000	0.039	-0.302
-584.865	-49.166	-0.237	0.115
-583.850	-146.764	0.198	0.017
-582.836	-200.000	-0.009	-0.134
-581.821	-10.141	-0.161	0.109
-580.806	-77.297	-0.136	-0.048
-579.792	-109.944	-0.200	0.043
-578.777	49.657	-0.146	-0.140
-577.763	447.161	0.037	0.083
-576.748	-50.625	-0.095	0.045
-575.733	800.000	0.138	-0.432
-574.719	490.939	0.114	-0.265
-573.704	-30.527	-0.247	-0.142
-572.690	-54.629	0.326	0.149
-571.675	246.298	0.079	-0.135
-570.661	251.042	0.059	-0.102
-569.646	529.313	-0.146	0.349
-568.631	-31.397	0.201	-0.114
-567.617	114.768	0.086	-0.106
-566.602	-63.172	0.305	0.127
-565.588	-126.733	-0.042	0.006
-564.573	800.000	-0.009	0.026
-563.558	-200.000	0.055	-0.277
-562.544	59.959	0.271	0.271
-561.529	-13.557	0.209	-0.137
-560.515	10.779	0.135	0.104
-559.500	19.504	-0.194	-0.158
-558.485	-29.082	-0.108	0.063
-557.471	200.699	0.089	0.139
-556.456	-95.845	-0.203	-0.055
-555.442	-200.000	0.037	-0.310
-554.427	501.127	-0.100	0.234
-553.412	-170.958	0.232	0.008
-552.398	694.987	-0.091	0.242
-551.383	-149.157	-0.293	0.024
-550.369	-167.626	-0.169	0.007
-549.354	-74.224	-0.322	0.118
-548.339	369.676	-0.245	0.502
-547.325	21.413	-0.209	-0.172
-546.310	10.732	-0.190	0.147
-545.296	-45.009	-0.020	-0.010
-544.281	2.402	0.111	0.081
-543.266	456.370	-0.059	-0.132
-542.252	107.148	-0.074	0.089
-541.237	-125.888	0.250	0.038
-540.223	-139.801	-0.155	0.017
-539.208	800.000	0.100	0.396
-538.193	65.854	-0.009	-0.009
-537.179	-81.722	0.245	-0.081
-536.164	207.273	0.024	-0.038
-535.150	10.214	-0.087	-0.067
-534.135	78.997	-0.098	0.107
-533.121	800.000	0.024	0.089
-532.106	-44.149	-0.183	0.093
-531.091	-9.132	0.074	-0.050
-530.077	-200.000	-0.008	0.350
-529.062	-152.540	-0.393	0.028
-528.048	-21.900	0.269	-0.165
-527.033	-200.000	-0.016	0.082
-526.018	235.941	0.139	0.233
-525.004	156.674	0.112	-0.157
-523.989	453.481	-0.199	0.445
-522.975	-136.065	-0.168	-0.020
-521.960	-200.000	0.003	-0.135
-520.945	157.514	0.180	0.252
-519.931	-200.000	0.016	-0.073
-518.916	-2.248	-0.291	-0.207
-517.902	191.442	0.082	0.125
-516.887	55.229	-0.288	0.282
-515.872	762.227	-0.090	0.246
-514.858	-22.904	-0.227	-0.138
-513.843	-156.094	0.081	0.005
-512.829	3.550	0.291	0.214
-511.814	-61.945	0.370	-0.156
-510.799	-200.000	-0.023	-0.351
-509.785	-61.966	-0.220	-0.093
-508.770	-200.000	0.026	0.192
-507.756	-111.997	0.191	0.039
-506.741	274.623	0.178	-0.319
-505.726	-200.000	0.023	0.487
-504.712	78.854	-0.153	-0.165
-503.697	263.339	0.100	-0.175
-502.683	800.000	0.053	0.186
-501.668	-74.011	-0.236	0.087
-500.653	215.932	0.009	-0.014
-499.639	-111.271	-0.155	-0.032
-498.624	57.527	-0.188	-0.186
-497.610	4.364	-0.127	0.094
-496.595	-82.161	-0.050	-0.016
-495.581	139.632	-0.200	-0.267
-494.566	446.108	0.102	-0.227
-493.551	-200.000	-0.040	-0.185
-492.537	562.007	0.039	-0.096
-491.522	53.279	-0.234	-0.227
-490.508	-53.227	-0.118	-0.055
-489.493	800.000	0.105	-0.348
-488.478	46.517	0.203	-0.191
-487.464	-65.133	-0.355	0.145
-486.449	209.658	0.007	0.011
-485.435	-114.811	0.200	-0.039
-484.420	-101.230	0.332	0.082
-483.405	394.055	0.032	-0.067
-482.391	314.966	-0.072	-0.137
-481.376	148.189	0.136	-0.186
-480.362	348.819	-0.102	0.203
-479.347	24.848	-0.246	-0.206
-478.332	83.422	-0.071	0.078
-477.318	-27.705	0.364	0.213
-476.303	-29.156	-0.046	-0.027
-475.289	125.046	0.103	-0.131
-474.274	800.000	-0.040	-0.135
-473.259	-88.497	0.256	0.077
-472.245	-200.000	-0.000	0.121
-471.230	-18.879	0.127	0.080
-470.216	-17.730	-0.166	0.105
-469.201	800.000	-0.068	-0.220
-468.186	800.000	-0.039	0.111
-467.172	-154.191	0.196	0.013
-466.157	-86.059	-0.097	0.030
-465.143	-66.893	0.163	0.065
-464.128	275.156	-0.070	-0.125
-463.113	723.718	0.091	-0.246
-462.099	800.000	0.099	-0.307
-461.084	-200.000	-0.004	0.204
-460.070	13.370	-0.344	0.269
-459.055	-72.406	-0.178	-0.066
-458.040	-200.000	-0.034	0.406
-457.026	-20.595	0.203	-0.126
-456.011	-102.432	-0.154	-0.037
-454.997	107.225	-0.134	0.160
-453.982	-51.067	-0.158	0.075
-452.968	-67.598	-0.272	0.108
-451.953	469.185	-0.074	0.168
-450.938	-200.000	0.014	-0.248
-449.924	-113.944	-0.216	-0.042
-448.909	331.685	-0.090	0.176
-447.895	-200.000	-0.031	0.155
-446.880	800.000	0.073	0.212
-445.865	204.473	-0.263	-0.411
-444.851	-52.855	0.246	0.114
-443.836	357.825	0.180	-0.363
-442.822	-200.000	0.011	0.158
-441.807	-200.000	0.038	0.200
-440.792	123.302	0.073	-0.092
-439.778	800.000	-0.145	-0.451
-438.763	302.881	0.060	0.112
-437.749	-200.000	0.013	0.110
-436.734	-200.000	0.008	-0.117
-435.719	-33.826	-0.127	0.070
-434.705	-9.260	0.111	0.075
-433.690	-75.437	0.164	-0.059
-432.676	-154.769	-0.245	-0.016
-431.661	5.144	-0.145	0.107
-430.646	4.274	0.317	0.234
-429.632	33.652	-0.248	-0.217
-428.617	-159.066	-0.136	-0.008
-427.603	-200.000	0.134	-0.000
-426.588	-45.624	0.018	-0.009
-425.573	10.375	-0.264	-0.203
-424.559	-102.608	0.295	0.071
-423.544	623.563	-0.136	0.345
-422.530	-143.350	0.266	0.026
-421.515	-73.156	-0.183	0.068
-420.500	24.100	-0.096	-0.080
-419.486	800.000	0.054	-0.195
-418.471	800.000	-0.028	0.088
-417.457	136.795	0.092	0.121
-416.442	-178.761	-0.091	-0.002
-415.428	-91.125	0.239	0.069
-414.413	533.977	-0.131	0.313
-413.398	154.825	-0.101	0.139
-412.384	-2.330	0.162	0.114
-411.369	-200.000	-0.012	-0.104
-410.355	-62.391	0.373	0.156
-409.340	-200.000	-0.079	-0.359
-408.325	800.000	-0.092	-0.261
-407.311	35.833	-0.174	0.154
-406.296	216.603	-0.025	0.040
-405.282	87.771	0.204	-0.228
-404.267	198.131	-0.067	-0.104
-403.252	516.079	-0.088	-0.206
-402.238	-193.641	0.154	0.001
-401.223	27.660	-0.265	0.224
-400.209	-32.308	-0.095	-0.054
-399.194	-46.154	0.116	-0.057
-398.179	-200.000	-0.004	-0.050
-397.165	-18.032	-0.210	0.133
-396.150	-182.339	-0.238	0.004
-395.136	449.133	0.053	0.118
-394.121	800.000	0.143	0.497
-393.106	800.000	-0.054	-0.227
-392.092	681.299	0.050	-0.132
-391.077	-143.852	-0.138	-0.013
-390.063	-105.905	-0.213	0.048
-389.048	264.243	-0.179	0.313
-388.033	-66.756	-0.213	0.085
-387.019	-182.733	0.219	0.004
-386.004	-95.833	-0.221	0.059
-384.990	21.435	0.271	-0.221
-383.975	-200.000	-0.028	0.241
-382.960	53.266	-0.099	-0.095
-381.946	280.170	-0.070	-0.125
-380.931	-68.370	0.373	0.146
-379.917	-200.000	0.021	0.125
-378.902	6.494	-0.229	0.171
-377.888	182.816	0.055	0.082
-376.873	497.756	-0.075	0.173
-375.858	356.730	0.105	-0.211
-374.844	-69.709	0.084	0.032
-373.829	14.636	0.167	0.131
-372.815	-200.000	-0.025	-0.134
-371.800	-66.588	0.038	-0.015
-370.785	94.787	0.141	-0.161
-369.771	800.000	0.074	-0.213
-368.756	14.385	0.248	0.195
-367.742	800.000	-0.018	-0.060
-366.727	800.000	0.102	-0.336
-365.712	51.603	-0.263	-0.251
-364.698	800.000	-0.073	-0.265
-363.683	20.785	0.028	0.023
-362.669	800.000	0.049	-0.187
-361.654	-22.711	-0.090	-0.054
-360.639	136.295	0.273	-0.358
-359.625	189.811	0.083	-0.125
-358.610	163.935	0.196	-0.278
-357.596	1.468	-0.292	-0.211
-356.581	-72.278	-0.388	-0.145
-355.566	-88.649	-0.176	0.053
-354.552	-85.726	-0.145	-0.045
-353.537	4.744	-0.204	-0.150
-352.523	-104.263	-0.306	-0.071
-351.508	170.030	0.238	-0.342
-350.493	800.000	0.055	-0.226
-349.479	-146.588	-0.240	-0.021
-348.464	800.000	-0.072	0.260
-347.450	-200.000	0.020	-0.186
-346.435	-144.287	-0.073	-0.007
-345.420	-111.566	-0.151	-0.031
-344.406	-58.762	0.311	-0.135
-343.391	-200.000	-0.008	0.048
-342.377	-63.068	0.265	-0.110
-341.362	-200.000	0.040	0.353
-340.348	298.895	0.164	-0.304
-339.333	-66.191	0.588	0.235
-338.318	219.437	-0.045	0.072
-337.304	-131.267	-0.325	-0.043
-336.289	-60.249	0.219	0.094
-335.275	800.000	-0.060	-0.261
-334.260	800.000	-0.042	-0.180
-333.245	64.559	-0.080	-0.081
-332.231	-119.508	-0.205	-0.036
-331.216	-63.975	0.278	0.114
-330.202	-200.000	-0.003	0.030
-329.187	-11.226	-0.185	0.123
-328.172	-152.293	0.252	-0.018
-327.158	-69.925	0.217	-0.083
-326.143	83.400	0.278	-0.304
-325.129	-90.777	0.247	-0.072
-324.114	-200.000	-0.025	-0.355
-323.099	-34.340	0.248	0.137
-322.085	-71.385	-0.326	-0.123
-321.070	294.620	0.110	-0.201
-320.056	-91.755	0.171	0.049
-319.041	704.767	0.123	-0.327
-318.026	712.542	-0.036	0.095
-317.012	800.000	0.007	0.030
-315.997	800.000	0.128	0.436
-314.983	-53.092	-0.146	-0.067
-313.968	142.098	0.057	0.075
-312.953	-17.281	-0.342	-0.216
-311.939	336.898	-0.073	0.142
-310.924	136.131	0.024	-0.032
-309.910	-129.383	0.039	-0.005
-308.895	-166.719	0.139	0.006
-307.880	-47.274	-0.343	0.168
-306.866	16.430	-0.173	0.137
-305.851	20.178	0.414	0.335
-304.837	250.603	0.101	-0.172
-303.822	444.313	0.250	0.551
-302.807	-83.310	-0.254	0.082
-301.793	800.000	-0.008	0.030
-300.778	91.782	0.163	-0.184
-299.764	386.671	-0.185	0.384
-298.749	-145.384	-0.245	-0.022
-297.735	-200.000	-0.003	0.619
-296.720	800.000	-0.053	0.160
-295.705	-200.000	0.022	0.113
-294.691	800.000	-0.032	0.140
-293.676	127.853	-0.161	0.205
-292.662	-200.000	0.026	0.150
-291.647	-155.320	-0.264	-0.017
-290.632	-70.189	-0.200	-0.076
-289.618	248.156	0.054	0.091
-288.603	-189.081	0.320	0.004
-287.589	254.177	-0.108	0.185
-286.574	16.819	-0.073	-0.058
-285.559	56.211	0.122	-0.119
-284.545	32.068	-0.232	-0.200
-283.530	167.891	-0.085	-0.122
-282.516	127.589	-0.174	0.222
-281.501	-48.317	0.136	0.066
-280.486	-151.600	-0.300	0.022
-279.472	800.000	-0.140	0.390
-278.457	-198.926	0.138	-0.001
-277.443	118.258	-0.119	0.147
-276.428	313.756	-0.117	-0.221
-275.413	-130.706	0.231	-0.031
-274.399	448.094	0.135	-0.297
-273.384	-34.783	0.335	0.183
-272.370	-45.034	0.209	-0.104
-271.355	118.320	-0.095	-0.117
-270.340	26.808	0.274	0.230
-269.326	661.186	0.037	0.096
-268.311	80.208	-0.118	0.127
-267.297	-74.613	-0.104	0.037
-266.282	-140.021	-0.170	0.018
-265.267	182.440	-0.168	0.247
-264.253	22.926	0.361	0.296
-263.238	31.744	-0.121	0.105
-262.224	96.161	0.264	-0.303
-261.209	599.514	-0.043	-0.107
-260.195	-160.291	-0.151	-0.008
-259.180	-97.467	-0.123	-0.032
-258.165	-70.505	0.101	0.038
-257.151	50.987	0.227	0.215
-256.136	800.000	-0.099	0.352
-255.122	757.583	0.043	0.118
-254.107	-78.421	0.090	-0.031
-253.092	-90.724	0.146	0.042
-252.078	6.030	-0.214	-0.159
-251.063	377.911	0.134	0.275
-250.049	-117.480	-0.256	-0.046
-249.034	-158.603	-0.116	0.007
-248.019	800.000	-0.059	0.198
-247.005	-173.992	0.302	0.009
-245.990	-122.115	0.201	0.033
-244.976	800.000	-0.005	-0.016
-243.961	-76.963	0.225	0.078
-242.946	66.970	-0.115	0.118
-241.932	-197.143	0.137	0.001
-240.917	-25.990	0.398	-0.234
-239.903	61.523	-0.287	-0.285
-238.888	-200.000	-0.023	0.238
-237.873	40.996	0.111	0.100
-236.859	800.000	-0.058	0.203
-235.844	270.535	-0.127	0.224
-234.830	800.000	0.038	0.118
-233.815	79.511	0.062	0.066
-232.800	800.000	-0.066	0.183
-231.786	-200.000	-0.028	-0.286
-230.771	218.516	-0.103	-0.165
-229.757	295.593	0.122	-0.224
-228.742	-162.551	0.253	-0.012
-227.727	-109.971	0.399	0.084
-226.713	-114.679	0.307	0.059
-225.698	-200.000	0.063	-0.469
-224.684	273.802	-0.074	0.131
-223.669	527.693	0.170	-0.401
-222.655	-161.911	-0.232	0.012
-221.640	-113.377	0.538	-0.106
-220.625	166.716	-0.260	-0.369
-219.611	-132.238	0.088	-0.011
-218.596	-87.651	-0.137	0.041
-217.582	-69.865	0.169	0.065
-216.567	788.415	0.156	0.428
-215.552	-102.987	0.143	0.034
-214.538	375.344	-0.107	0.218
-213.523	10.356	-0.163	0.124
-212.509	-110.139	-0.236	-0.049
-211.494	466.266	-0.156	-0.349
-210.479	-102.428	0.232	-0.056
-209.465	-1.129	-0.427	-0.302
-208.450	-22.083	0.199	-0.121
-207.436	498.388	0.062	-0.142
-206.421	-75.976	-0.150	0.053
-205.406	-40.461	-0.131	0.068
-204.392	800.000	0.019	-0.073
-203.377	7.115	0.300	-0.224
-202.363	-86.574	-0.237	-0.073
-201.348	137.714	-0.103	-0.135
-200.333	-200.000	-0.009	0.169
-199.319	800.000	0.036	0.132
-198.304	3.662	-0.122	-0.089
-197.290	800.000	-0.056	0.228
-196.275	8.020	0.267	-0.200
-195.260	-40.750	-0.332	0.172
-194.246	-68.846	0.283	-0.109
-193.231	35.837	-0.112	0.098
-192.217	800.000	-0.076	-0.292
-191.202	-80.659	-0.343	0.114
-190.187	-21.459	0.011	-0.007
-189.173	-23.075	-0.332	-0.200
-188.158	-15.768	-0.222	0.141
-187.144	-1.854	0.226	0.158
-186.129	-149.403	0.221	0.018
-185.114	800.000	0.032	-0.104
-184.100	-146.009	0.249	0.022
-183.085	-36.151	0.188	-0.101
-182.071	-200.000	0.058	-0.269
-181.056	800.000	-0.089	0.315
-180.042	280.422	0.165	0.295
-179.027	211.997	-0.044	-0.069
-178.012	21.871	0.134	-0.109
-176.998	80.920	-0.046	-0.049
-175.983	-200.000	-0.023	-0.273
-174.969	-200.000	0.024	-0.245
-173.954	-93.124	0.101	0.028
-172.939	618.009	0.134	0.336
-171.925	-76.510	0.132	0.046
-170.910	-92.047	-0.275	0.078
-169.896	-69.397	0.386	0.148
-168.881	800.000	0.087	0.252
-167.866	-200.000	-0.026	0.165
-166.852	79.850	0.059	0.063
-165.837	-96.354	-0.194	-0.051
-164.823	-200.000	-0.022	-0.189
-163.808	800.000	0.159	-0.441
-162.793	-79.559	0.120	0.040
-161.779	-7.283	-0.187	-0.127
-160.764	252.297	-0.084	-0.143
-159.750	-200.000	0.388	0.001
-158.735	581.727	-0.105	-0.257
-157.720	262.624	0.171	0.296
-156.706	200.307	-0.080	0.122
-155.691	-162.216	-0.209	-0.010
-154.677	237.142	0.072	-0.119
-153.662	-200.000	0.064	0.423
-152.647	426.467	-0.056	0.119
-151.633	51.284	-0.183	0.173
-150.618	-200.000	-0.044	0.510
-149.604	-200.000	-0.040	0.215
-148.589	288.495	0.078	-0.142
-147.574	284.477	0.097	-0.174
-146.560	62.355	0.171	0.170
-145.545	-200.000	-0.022	0.109
-144.531	647.887	-0.062	0.159
-143.516	509.513	0.022	-0.051
-142.502	223.354	-0.051	0.081
-141.487	-118.348	-0.077	-0.014
-140.472	-200.000	-0.001	0.224
-139.458	-106.758	-0.149	0.033
-138.443	674.685	0.011	0.027
-137.429	146.973	0.104	0.139
-136.414	-27.111	0.179	-0.104
-135.399	-93.584	0.430	0.118
-134.385	-60.976	0.177	0.075
-133.370	721.236	-0.082	0.218
-132.356	-138.503	-0.409	-0.045
-131.341	26.313	-0.091	0.076
-130.326	-77.026	-0.101	0.035
-129.312	-94.149	0.206	0.056
-128.297	-92.328	0.355	0.100
-127.283	800.000	0.078	0.315
-126.268	281.281	0.114	-0.204
-125.253	-5.388	0.186	0.127
-124.239	-137.634	0.247	0.028
-123.224	-200.000	0.015	-0.100
-122.210	165.220	-0.204	0.287
-121.195	-200.000	-0.016	-0.082
