DTS Sentinel unit serial number:	SN413079Multiplexer serial number:	ORYXHardware model number:	OX4-SRSoftware version number:	ORYX F/W v4.00 Oryx Data Collector v3.7.2.0data status	okinstallation	princeton_trtdifferential loss correction	single-endedforward channel	channel 1reverse channel	N/Adate	2019/09/17time	00:42:35forward acquisition time	60.00reverse acquisition time	0.00gamma	496.2192k internal	0.2324k external	0.2324temperature offset calibration	0.9959default loss term (dB/km)	0.3790temperature slope calibration	1.0000multiplexer offset coefficient	1.0000multiplexer slope coefficient	1.0000fibre end	0.00T internal ref (°C)	29.44T ext. ref 1 (°C)	0.10T ext. ref 2 (°C)	24.04length (m)	temperature (°C)	Stokes	anti-Stokes-747.200	212.628	-0.052	0.083
-746.185	-72.296	-0.122	0.046
-745.171	365.265	-0.096	0.195
-744.156	77.886	-0.211	0.227
-743.142	399.945	0.069	-0.146
-742.127	411.606	-0.124	-0.267
-741.112	800.000	-0.023	0.074
-740.098	-58.427	-0.245	0.107
-739.083	-200.000	0.005	-0.031
-738.069	800.000	-0.157	0.614
-737.054	-16.513	-0.209	0.134
-736.039	-59.003	-0.405	-0.176
-735.025	-200.000	-0.008	0.376
-734.010	-113.340	-0.238	-0.047
-732.996	-200.000	0.001	0.004
-731.981	85.327	-0.155	-0.172
-730.966	800.000	0.063	-0.250
-729.952	-22.064	-0.153	0.094
-728.937	-184.716	0.277	-0.004
-727.923	123.349	0.046	0.058
-726.908	-108.704	-0.115	-0.025
-725.894	42.909	0.177	0.163
-724.879	-81.338	0.150	0.050
-723.864	253.714	-0.157	-0.270
-722.850	-200.000	0.300	0.000
-721.835	613.526	0.057	-0.144
-720.821	159.678	0.202	-0.284
-719.806	800.000	-0.094	0.336
-718.791	103.753	-0.154	-0.183
-717.777	78.553	-0.075	-0.080
-716.762	-86.092	-0.147	-0.046
-715.748	-123.204	-0.141	0.023
-714.733	7.409	0.151	-0.114
-713.718	800.000	-0.010	0.034
-712.704	-122.400	0.215	0.035
-711.689	500.858	-0.062	-0.143
-710.675	19.454	-0.135	0.109
-709.660	-200.000	0.005	-0.316
-708.645	-67.813	0.264	-0.104
-707.631	-65.790	-0.152	-0.061
-706.616	-200.000	0.046	-0.310
-705.602	800.000	0.077	0.269
-704.587	42.917	-0.062	-0.057
-703.572	744.334	0.047	-0.128
-702.558	101.847	0.232	0.273
-701.543	-43.766	-0.272	-0.138
-700.529	59.966	-0.287	0.286
-699.514	-200.000	-0.034	-0.149
-698.499	396.348	-0.198	-0.417
-697.485	22.211	0.324	0.267
-696.470	-9.737	-0.183	0.123
-695.456	383.498	0.048	-0.100
-694.441	-75.827	0.115	-0.041
-693.426	505.357	-0.098	0.229
-692.412	-103.846	0.336	-0.079
-691.397	-6.179	0.190	0.131
-690.383	-163.279	0.206	0.010
-689.368	800.000	0.054	-0.195
-688.354	-106.416	-0.145	0.033
-687.339	94.095	0.153	0.175
-686.324	-200.000	0.052	-0.487
-685.310	-200.000	0.005	-0.077
-684.295	-24.713	0.046	-0.027
-683.281	108.195	0.109	-0.131
-682.266	-102.968	-0.116	-0.028
-681.251	-174.971	-0.029	0.001
-680.237	-55.139	0.318	0.144
-679.222	-69.522	0.098	-0.038
-678.208	-10.209	0.091	-0.061
-677.193	-200.000	-0.043	-0.230
-676.178	-100.307	-0.056	0.014
-675.164	800.000	-0.082	-0.294
-674.149	481.242	0.076	-0.174
-673.135	285.456	-0.064	-0.116
-672.120	-177.673	-0.127	0.003
-671.105	145.170	-0.096	0.130
-670.091	259.095	0.083	-0.145
-669.076	-28.146	0.158	-0.092
-668.062	102.324	-0.187	0.219
-667.047	-128.454	-0.172	-0.025
-666.032	-168.390	0.215	0.008
-665.018	680.856	-0.129	-0.337
-664.003	-56.883	0.281	-0.125
-662.989	-138.992	-0.237	0.026
-661.974	148.080	-0.143	-0.194
-660.959	-8.707	-0.127	-0.086
-659.945	79.099	0.216	-0.233
-658.930	130.165	-0.104	0.133
-657.916	166.002	-0.090	0.129
-656.901	-200.000	-0.039	-0.192
-655.886	-4.465	-0.218	-0.152
-654.872	113.882	0.086	0.105
-653.857	90.040	-0.228	0.256
-652.843	-43.268	0.147	-0.075
-651.828	-92.975	-0.288	-0.081
-650.814	632.001	-0.141	0.359
-649.799	645.599	0.071	-0.182
-648.784	-105.733	-0.092	0.021
-647.770	-120.152	-0.343	0.059
-646.755	-151.810	0.202	0.015
-645.741	-200.000	-0.002	0.206
-644.726	-121.702	-0.335	-0.056
-643.711	213.563	-0.028	-0.045
-642.697	-200.000	-0.023	-0.236
-641.682	-200.000	0.002	0.067
-640.668	212.815	-0.155	-0.246
-639.653	146.398	-0.174	0.235
-638.638	-200.000	0.032	-0.141
-637.624	-117.553	0.178	0.032
-636.609	-116.733	-0.168	0.031
-635.595	420.915	-0.029	0.063
-634.580	286.932	-0.080	-0.146
-633.565	-60.561	0.241	-0.103
-632.551	800.000	0.026	0.107
-631.536	-200.000	0.022	-0.229
-630.522	-10.765	-0.077	-0.051
-629.507	-200.000	0.001	0.218
-628.492	117.095	-0.179	-0.221
-627.478	-46.848	0.037	0.018
-626.463	-132.631	-0.202	-0.026
-625.449	-1.063	0.077	0.055
-624.434	-200.000	-0.057	-0.304
-623.419	-200.000	-0.062	-0.278
-622.405	-200.000	-0.000	0.020
-621.390	-81.452	-0.121	-0.040
-620.376	-200.000	0.072	-0.329
-619.361	-62.234	0.264	0.111
-618.346	800.000	-0.105	0.340
-617.332	-42.636	-0.346	-0.177
-616.317	800.000	0.101	-0.289
-615.303	204.181	0.185	-0.289
-614.288	-136.362	0.318	-0.037
-613.273	-200.000	0.041	0.258
-612.259	-67.472	-0.073	-0.029
-611.244	-200.000	0.018	-0.099
-610.230	800.000	0.124	0.374
-609.215	-80.178	-0.111	-0.037
-608.201	575.260	0.056	-0.137
-607.186	26.831	0.046	-0.039
-606.171	-70.913	-0.319	0.121
-605.157	-108.601	0.121	-0.026
-604.142	29.073	-0.112	0.096
-603.128	241.877	0.206	0.346
-602.113	-200.000	0.013	0.204
-601.098	178.420	-0.061	-0.089
-600.084	546.905	0.101	-0.242
-599.069	468.236	0.023	0.053
-598.055	800.000	-0.103	-0.348
-597.040	800.000	0.073	-0.218
-596.025	-200.000	0.007	-0.084
-595.011	-56.710	0.255	-0.113
-593.996	52.029	-0.189	-0.180
-592.982	411.549	0.074	0.157
-591.967	242.064	0.186	-0.312
-590.952	-13.446	-0.135	0.088
-589.938	800.000	-0.106	0.331
-588.923	-200.000	0.092	-0.441
-587.909	-132.265	0.292	-0.038
-586.894	110.804	0.171	0.207
-585.879	-41.000	-0.034	-0.018
-584.865	255.129	-0.078	-0.134
-583.850	118.762	0.252	-0.312
-582.836	39.892	-0.179	-0.161
-581.821	309.221	-0.113	-0.212
-580.806	167.951	0.045	-0.064
-579.792	172.564	0.180	0.260
-578.777	79.707	-0.026	-0.028
-577.763	-200.000	-0.045	-0.372
-576.748	-150.067	0.257	0.020
-575.733	112.889	0.160	-0.194
-574.719	239.450	-0.137	0.228
-573.704	-53.543	-0.332	0.152
-572.690	-9.059	-0.160	0.108
-571.675	2.233	-0.153	0.111
-570.661	21.792	-0.273	-0.223
-569.646	800.000	0.098	-0.288
-568.631	-200.000	-0.056	-0.296
-567.617	-6.349	-0.197	0.135
-566.602	-83.374	0.440	-0.141
-565.588	13.991	0.215	0.167
-564.573	-107.287	-0.248	0.055
-563.558	46.416	0.265	0.247
-562.544	800.000	-0.059	-0.181
-561.529	41.066	0.228	-0.207
-560.515	-150.952	0.183	-0.014
-559.500	6.067	0.089	-0.066
-558.485	800.000	0.020	-0.055
-557.471	33.464	0.235	0.204
-556.456	55.805	-0.098	0.095
-555.442	685.365	0.051	0.132
-554.427	-40.368	0.440	-0.229
-553.412	436.430	0.065	-0.141
-552.398	-200.000	-0.016	-0.165
-551.383	-23.923	-0.405	0.243
-550.369	150.586	0.135	0.184
-549.354	747.248	0.107	0.288
-548.339	-97.277	0.333	0.087
-547.325	-200.000	0.012	-0.201
-546.310	-155.602	0.289	-0.019
-545.296	800.000	-0.021	-0.070
-544.281	800.000	-0.027	0.082
-543.266	-74.134	-0.107	-0.039
-542.252	-81.706	-0.088	-0.029
-541.237	-170.172	-0.178	-0.006
-540.223	138.515	0.086	0.113
-539.208	61.198	-0.277	0.276
-538.193	63.313	-0.235	0.236
-537.179	-115.325	0.390	0.074
-536.164	30.854	-0.265	-0.227
-535.150	643.628	0.097	-0.247
-534.135	-200.000	-0.079	-0.378
-533.121	191.996	0.134	0.202
-532.106	-60.513	0.270	0.115
-531.091	-200.000	0.009	0.281
-530.077	142.352	-0.062	-0.082
-529.062	-200.000	0.155	-0.001
-528.048	-12.545	0.236	-0.154
-527.033	-107.909	-0.196	0.043
-526.018	-200.000	0.020	-0.254
-525.004	800.000	-0.112	-0.406
-523.989	107.128	-0.149	-0.177
-522.975	199.318	0.235	-0.360
-521.960	-27.194	0.084	-0.049
-520.945	-49.704	-0.219	-0.104
-519.931	66.474	0.278	0.282
-518.916	-200.000	0.002	-0.314
-517.902	569.886	0.116	-0.283
-516.887	52.401	-0.112	-0.106
-515.872	-185.647	-0.609	0.009
-514.858	534.445	0.123	0.292
-513.843	-200.000	0.008	0.176
-512.829	-200.000	0.006	-0.031
-511.814	168.100	-0.089	-0.126
-510.799	-200.000	0.002	-0.180
-509.785	561.330	-0.082	-0.199
-508.770	163.803	0.222	0.312
-507.756	530.084	0.155	-0.367
-506.741	-2.200	-0.105	-0.073
-505.726	-200.000	-0.027	0.363
-504.712	229.037	0.228	-0.373
-503.697	-134.576	-0.268	-0.033
-502.683	564.411	0.187	0.453
-501.668	226.900	0.089	0.145
-500.653	-105.292	-0.195	-0.045
-499.639	127.644	-0.299	-0.380
-498.624	67.531	-0.014	-0.014
-497.610	-135.111	0.099	0.012
-496.595	800.000	-0.072	-0.220
-495.581	-71.129	-0.217	0.081
-494.566	126.192	-0.177	-0.224
-493.551	50.030	-0.089	0.084
-492.537	-200.000	-0.060	0.297
-491.522	16.953	0.068	0.054
-490.508	-194.091	-0.082	-0.001
-489.493	-105.641	-0.241	0.055
-488.478	247.082	0.026	-0.044
-487.464	-85.864	-0.233	0.072
-486.449	-200.000	-0.025	0.206
-485.435	407.644	0.077	-0.162
-484.420	541.336	0.252	0.599
-483.405	640.586	-0.051	0.130
-482.391	800.000	0.084	-0.247
-481.376	14.246	0.112	0.087
-480.362	-61.757	0.024	-0.010
-479.347	-200.000	0.028	0.368
-478.332	-49.077	0.287	-0.137
-477.318	263.009	-0.217	0.376
-476.303	268.547	0.191	0.335
-475.289	-127.054	0.271	0.040
-474.274	-200.000	0.056	-0.362
-473.259	135.864	0.083	0.108
-472.245	800.000	-0.057	-0.203
-471.230	-200.000	-0.006	-0.145
-470.216	87.895	-0.083	-0.092
-469.201	-149.001	-0.028	-0.002
-468.186	800.000	0.065	0.217
-467.172	-196.300	-0.236	0.002
-466.157	472.881	-0.082	-0.185
-465.143	-110.818	0.105	-0.022
-464.128	-200.000	0.020	-0.227
-463.113	26.883	-0.152	0.127
-462.099	252.903	-0.081	0.138
-461.084	-150.330	0.239	0.018
-460.070	-54.856	-0.154	0.069
-459.055	185.697	-0.095	0.141
-458.040	-13.429	0.075	0.048
-457.026	-141.236	0.098	0.010
-456.011	326.321	-0.070	0.133
-454.997	-200.000	-0.006	-0.117
-453.982	-134.187	0.177	-0.022
-452.968	295.293	0.052	0.094
-451.953	110.743	-0.115	0.138
-450.938	-169.241	0.261	0.010
-449.924	76.666	-0.107	0.113
-448.909	66.786	0.152	-0.155
-447.895	-47.625	-0.102	0.050
-446.880	289.554	0.042	-0.077
-445.865	-200.000	0.008	0.055
-444.851	-11.143	0.304	0.200
-443.836	335.603	-0.060	-0.117
-442.822	218.842	-0.072	-0.114
-441.807	-173.940	0.336	0.010
-440.792	-200.000	0.047	0.485
-439.778	32.120	-0.174	-0.150
-438.763	117.260	-0.216	0.264
-437.749	-135.647	-0.261	-0.031
-436.734	213.782	0.136	0.215
-435.719	304.112	0.188	0.348
-434.705	-200.000	-0.033	0.261
-433.690	-200.000	0.003	0.163
-432.676	-54.496	-0.204	-0.092
-431.661	-200.000	-0.033	0.230
-430.646	232.257	-0.245	-0.401
-429.632	64.260	-0.077	-0.078
-428.617	-29.971	0.328	-0.186
-427.603	-171.812	-0.398	0.013
-426.588	-20.249	0.232	-0.142
-425.573	-200.000	0.010	0.072
-424.559	116.729	-0.065	-0.079
-423.544	68.602	-0.132	-0.135
-422.530	16.085	0.278	0.218
-421.515	-89.836	0.057	0.017
-420.500	-141.528	-0.273	-0.027
-419.486	667.565	0.190	0.489
-418.471	-28.612	-0.246	0.141
-417.457	-53.350	-0.056	-0.025
-416.442	-200.000	-0.024	-0.238
-415.428	-200.000	0.043	0.317
-414.413	161.778	0.122	0.170
-413.398	-143.069	-0.293	-0.028
-412.384	-26.160	-0.180	0.105
-411.369	213.128	0.041	0.065
-410.355	-21.074	0.068	-0.041
-409.340	800.000	-0.041	-0.142
-408.325	-200.000	-0.029	-0.141
-407.311	200.706	0.028	-0.043
-406.296	-101.639	-0.069	0.017
-405.282	188.145	-0.122	0.181
-404.267	-200.000	0.001	-0.031
-403.252	455.182	0.198	0.438
-402.238	800.000	-0.152	0.516
-401.223	597.013	-0.061	0.151
-400.209	125.145	-0.267	-0.335
-399.194	334.877	-0.077	-0.148
-398.179	199.767	0.084	-0.129
-397.165	-117.458	-0.250	0.045
-396.150	-200.000	-0.003	-0.231
-395.136	-70.227	0.100	-0.038
-394.121	344.568	-0.050	-0.097
-393.106	-200.000	-0.007	-0.058
-392.092	64.789	-0.074	-0.074
-391.077	-200.000	-0.004	0.175
-390.063	406.722	0.058	-0.122
-389.048	200.106	0.101	0.154
-388.033	-49.678	-0.106	0.050
-387.019	465.758	0.129	0.287
-386.004	-10.303	-0.153	0.101
-384.990	19.739	0.182	0.146
-383.975	59.157	-0.129	-0.126
-382.960	800.000	-0.103	0.382
-381.946	-200.000	0.029	0.146
-380.931	-79.247	0.200	-0.068
-379.917	8.737	-0.256	-0.192
-378.902	147.076	0.036	0.048
-377.888	-124.639	0.153	-0.024
-376.873	-31.304	-0.146	0.082
-375.858	-29.045	0.286	-0.163
-374.844	-26.898	-0.276	0.160
-373.829	-200.000	0.029	0.238
-372.815	7.647	0.131	0.098
-371.800	244.324	0.093	-0.155
-370.785	99.321	-0.143	-0.165
-369.771	44.573	0.129	0.117
-368.756	-200.000	-0.051	-0.326
-367.742	-200.000	0.003	-0.021
-366.727	101.979	-0.155	0.180
-365.712	800.000	-0.024	-0.097
-364.698	-137.745	0.290	-0.032
-363.683	-200.000	-0.034	-0.418
-362.669	-17.900	0.083	0.052
-361.654	33.414	-0.118	-0.102
-360.639	800.000	-0.122	-0.384
-359.625	800.000	0.097	0.346
-358.610	-200.000	-0.009	-0.146
-357.596	-24.242	-0.240	0.143
-356.581	-79.193	-0.173	0.058
-355.566	-58.687	-0.087	0.037
-354.552	685.855	-0.039	-0.102
-353.537	-39.753	-0.210	-0.109
-352.523	-60.084	-0.034	-0.014
-351.508	800.000	-0.022	-0.089
-350.493	-200.000	0.001	0.177
-349.479	-53.639	-0.142	-0.064
-348.464	-104.725	0.333	-0.076
-347.450	-200.000	-0.002	0.201
-346.435	15.186	0.177	0.138
-345.420	-200.000	0.004	-0.023
-344.406	371.083	0.133	-0.268
-343.391	-72.316	0.142	-0.052
-342.377	29.963	-0.314	0.266
-341.362	262.159	-0.157	0.271
-340.348	-186.375	0.192	0.003
-339.333	800.000	0.006	-0.018
-338.318	319.093	0.115	-0.216
-337.304	353.054	0.048	0.094
-336.289	-149.425	0.280	-0.022
-335.275	99.228	-0.139	0.160
-334.260	-40.520	-0.106	0.055
-333.245	-175.167	0.259	0.007
-332.231	-114.871	0.214	0.040
-331.216	-65.102	0.267	0.107
-330.202	-75.985	-0.100	-0.035
-329.187	291.768	0.108	-0.194
-328.172	-169.963	-0.236	0.008
-327.158	-92.305	0.187	-0.052
-326.143	-200.000	-0.002	0.379
-325.129	-155.314	-0.435	-0.028
-324.114	49.223	0.274	-0.255
-323.099	800.000	-0.050	0.142
-322.085	-107.634	0.291	-0.063
-321.070	151.883	0.212	0.287
-320.056	-119.307	-0.229	0.040
-319.041	-42.085	0.160	-0.081
-318.026	-79.229	-0.269	0.090
-317.012	-48.274	-0.450	0.216
-315.997	800.000	-0.106	-0.334
-314.983	-14.901	0.293	0.186
-313.968	-200.000	0.018	0.257
-312.953	49.631	-0.198	0.185
-311.939	-94.176	-0.111	0.030
-310.924	-70.162	0.450	0.170
-309.910	21.189	0.128	-0.103
-308.895	-43.134	-0.161	0.081
-307.880	299.181	-0.082	-0.150
-306.866	-151.362	-0.251	0.019
-305.851	-130.669	-0.280	0.037
-304.837	-200.000	0.020	-0.295
-303.822	-107.123	0.240	-0.053
-302.807	98.694	0.052	0.060
-301.793	-158.581	0.178	0.010
-300.778	-200.000	-0.008	0.230
-299.764	112.094	-0.124	0.149
-298.749	-200.000	0.023	0.118
-297.735	713.548	-0.136	0.358
-296.720	160.966	-0.032	0.044
-295.705	75.987	0.243	-0.255
-294.691	331.322	-0.033	0.064
-293.676	-200.000	-0.076	-0.390
-292.662	-125.378	-0.209	0.032
-291.647	800.000	-0.028	0.107
-290.632	-123.971	-0.192	-0.030
-289.618	-49.885	-0.118	0.056
-288.603	154.320	-0.087	0.119
-287.589	55.067	0.155	0.148
-286.574	414.796	-0.093	0.197
-285.559	-47.958	-0.177	-0.085
-284.545	-200.000	0.021	-0.174
-283.530	-24.881	-0.159	-0.094
-282.516	-45.824	0.231	0.113
-281.501	-200.000	0.009	-0.281
-280.486	800.000	-0.087	-0.335
-279.472	0.509	0.118	0.084
-278.457	79.092	-0.133	-0.142
-277.443	-200.000	0.021	-0.119
-276.428	-70.881	0.114	0.043
-275.413	-34.636	0.122	0.066
-274.399	-200.000	0.016	0.159
-273.384	-200.000	-0.040	-0.219
-272.370	-200.000	-0.017	-0.145
-271.355	49.250	0.056	-0.052
-270.340	-133.923	-0.205	0.025
-269.326	-48.280	0.162	-0.077
-268.311	-83.129	0.278	-0.089
-267.297	316.452	0.069	0.130
-266.282	-75.137	0.190	-0.067
-265.267	616.665	-0.135	0.335
-264.253	-177.519	0.044	-0.001
-263.238	-57.899	-0.170	-0.073
-262.224	299.264	0.085	0.154
-261.209	551.360	-0.170	0.405
-260.195	104.422	0.122	-0.142
-259.180	-200.000	0.051	-0.433
-258.165	-144.943	0.313	0.028
-257.151	-156.617	-0.379	0.023
-256.136	-200.000	-0.021	-0.145
-255.122	607.044	0.050	-0.123
-254.107	41.301	0.075	-0.067
-253.092	-54.097	0.293	-0.132
-252.078	-200.000	-0.038	-0.270
-251.063	-147.100	0.115	-0.010
-250.049	258.012	-0.124	-0.211
-249.034	-171.584	-0.079	0.003
-248.019	-200.000	-0.005	0.030
-247.005	255.124	0.027	0.045
-245.990	-65.964	-0.176	-0.070
-244.976	642.453	0.077	-0.194
-243.961	-111.118	-0.122	0.025
-242.946	800.000	-0.038	0.113
-241.932	-132.674	0.268	-0.034
-240.917	-200.000	-0.015	0.329
-239.903	-85.100	-0.320	0.099
-238.888	-119.136	-0.361	0.062
-237.873	585.713	0.165	0.402
-236.859	-32.398	-0.372	0.205
-235.844	-147.732	0.227	0.019
-234.830	41.809	0.108	0.097
-233.815	-147.749	0.110	-0.009
-232.800	28.681	0.258	-0.216
-231.786	23.939	-0.110	0.089
-230.771	-1.442	-0.097	0.068
-229.757	-128.763	-0.313	0.044
-228.742	440.572	-0.087	-0.188
-227.727	-200.000	-0.034	-0.237
-226.713	-10.194	-0.300	0.197
-225.698	800.000	0.036	-0.156
-224.684	-113.176	-0.100	0.020
-223.669	42.422	-0.032	0.029
-222.655	131.895	0.159	-0.202
-221.640	-200.000	-0.040	-0.385
-220.625	535.745	-0.098	-0.231
-219.611	148.359	0.210	0.280
-218.596	128.341	-0.230	0.290
-217.582	-200.000	0.024	0.115
-216.567	-53.242	-0.135	-0.061
-215.552	-200.000	0.023	0.287
-214.538	60.924	0.286	0.280
-213.523	-150.345	0.318	-0.024
-212.509	-155.009	-0.260	-0.017
-211.494	800.000	0.053	0.149
-210.479	605.880	-0.102	0.252
-209.465	-200.000	-0.038	-0.344
-208.450	617.773	0.039	-0.097
-207.436	156.900	0.185	0.253
-206.421	-200.000	0.031	-0.351
-205.406	-200.000	-0.019	0.191
-204.392	800.000	0.104	0.351
-203.377	-200.000	0.007	0.187
-202.363	-200.000	-0.019	0.133
-201.348	243.269	-0.112	0.185
-200.333	800.000	-0.045	0.185
-199.319	-47.902	-0.355	0.170
-198.304	-36.095	0.248	-0.133
-197.290	-125.667	0.215	0.032
-196.275	238.871	0.036	0.059
-195.260	-48.961	-0.092	0.043
-194.246	144.749	0.158	-0.208
-193.231	660.419	-0.048	-0.121
-192.217	-200.000	0.021	-0.137
-191.202	-116.206	0.319	-0.059
-190.187	294.951	0.141	-0.255
-189.173	-134.387	0.129	0.016
-188.158	800.000	0.056	-0.216
-187.144	-76.741	-0.120	-0.041
-186.129	-15.844	-0.077	0.049
-185.114	-110.159	0.247	0.051
-184.100	-83.818	0.085	0.027
-183.085	-70.177	0.163	0.061
-182.071	24.302	0.258	0.211
-181.056	-87.541	-0.221	0.066
-180.042	720.757	0.083	0.219
-179.027	-200.000	-0.009	-0.141
-178.012	-150.103	-0.125	0.010
-176.998	-200.000	-0.067	-0.355
-175.983	319.592	0.187	-0.350
-174.969	-110.234	-0.359	-0.074
-173.954	154.660	0.233	-0.315
-172.939	-200.000	-0.024	0.205
-171.925	-95.145	0.194	-0.052
-170.910	-163.502	-0.133	0.006
-169.896	8.012	-0.200	0.148
-168.881	593.449	-0.125	-0.306
-167.866	-11.649	0.186	-0.121
-166.852	-200.000	0.018	0.239
-165.837	-137.537	0.045	0.005
-164.823	604.366	-0.123	-0.303
-163.808	-200.000	0.007	0.203
-162.793	352.224	0.051	0.100
-161.779	-92.213	0.153	0.043
-160.764	311.130	0.122	-0.226
-159.750	65.572	-0.137	-0.137
-158.735	-200.000	-0.004	0.096
-157.720	-200.000	0.022	-0.248
-156.706	-53.966	0.178	0.080
-155.691	-171.781	0.333	-0.011
-154.677	-95.471	-0.206	-0.055
-153.662	-107.209	-0.289	0.063
-152.647	-200.000	0.012	-0.098
-151.633	-200.000	0.008	0.354
-150.618	-93.948	-0.076	0.020
-149.604	585.013	0.182	-0.442
-148.589	-24.678	0.074	0.044
-147.574	-74.242	-0.303	0.108
-146.560	-200.000	0.002	0.226
-145.545	422.856	-0.132	-0.279
-144.531	61.154	-0.034	-0.033
-143.516	-78.631	-0.110	-0.037
-142.502	-92.482	0.157	-0.043
-141.487	-94.277	-0.173	0.047
-140.472	-125.048	0.084	0.013
-139.458	-131.241	0.563	0.074
-138.443	800.000	0.073	-0.216
-137.429	-44.614	-0.165	0.081
-136.414	800.000	-0.034	-0.110
-135.399	145.595	-0.103	0.136
-134.385	-148.129	0.148	-0.012
-133.370	-146.275	-0.271	-0.023
-132.356	38.798	0.181	-0.159
-131.341	-73.333	-0.146	0.053
-130.326	115.882	0.294	-0.354
-129.312	116.999	-0.351	-0.424
-128.297	-200.000	0.080	-0.410
-127.283	-163.627	0.254	0.012
-126.268	-117.121	0.225	-0.040
-125.253	-61.899	-0.216	0.089
-124.239	-77.962	0.283	-0.096
-123.224	356.162	-0.061	-0.120
