DTS Sentinel unit serial number:	SN413079Multiplexer serial number:	ORYXHardware model number:	OX4-SRSoftware version number:	ORYX F/W v4.00 Oryx Data Collector v3.7.2.0data status	okinstallation	princeton_trtdifferential loss correction	single-endedforward channel	channel 1reverse channel	N/Adate	2019/09/14time	18:14:35forward acquisition time	60.00reverse acquisition time	0.00gamma	496.2192k internal	0.2301k external	0.2301temperature offset calibration	1.0041default loss term (dB/km)	0.3790temperature slope calibration	1.0000multiplexer offset coefficient	1.0000multiplexer slope coefficient	1.0000fibre end	0.00T internal ref (°C)	37.05T ext. ref 1 (°C)	4.96T ext. ref 2 (°C)	31.18length (m)	temperature (°C)	Stokes	anti-Stokes-747.200	36.751	0.369	0.332
-746.185	-6.398	0.147	-0.102
-745.171	734.198	-0.109	0.297
-744.156	-200.000	-0.016	0.429
-743.142	-95.184	-0.167	0.046
-742.127	-60.798	-0.100	-0.043
-741.112	-200.000	-0.028	-0.407
-740.098	-47.848	-0.091	-0.045
-739.083	800.000	-0.110	-0.378
-738.069	-41.880	-0.182	0.095
-737.054	94.564	0.203	-0.235
-736.039	-11.154	-0.372	-0.250
-735.025	-151.356	-0.313	0.024
-734.010	-200.000	0.049	-0.334
-732.996	261.248	0.173	-0.305
-731.981	800.000	0.036	-0.160
-730.966	73.640	0.116	0.124
-729.952	800.000	0.036	-0.151
-728.937	-92.691	-0.148	0.042
-727.923	-7.027	-0.183	-0.126
-726.908	-30.296	-0.192	-0.111
-725.894	-116.838	0.095	0.018
-724.879	800.000	0.077	-0.242
-723.864	230.615	0.116	0.193
-722.850	-86.729	0.202	0.063
-721.835	382.613	-0.085	-0.179
-720.821	26.357	0.158	0.134
-719.806	274.567	-0.186	-0.335
-718.791	-81.609	-0.300	0.100
-717.777	-43.121	-0.269	-0.139
-716.762	-96.395	0.273	-0.073
-715.748	459.800	0.118	0.267
-714.733	800.000	-0.004	-0.012
-713.718	-20.446	0.188	-0.118
-712.704	34.178	0.051	-0.046
-711.689	28.496	0.042	-0.036
-710.675	-120.691	0.444	0.076
-709.660	800.000	0.055	-0.166
-708.645	-59.459	-0.270	-0.118
-707.631	321.395	-0.190	-0.369
-706.616	-200.000	0.036	0.174
-705.602	-170.938	-0.317	0.011
-704.587	-71.069	-0.351	-0.134
-703.572	-47.077	0.448	-0.223
-702.558	437.439	-0.039	-0.087
-701.543	214.484	-0.023	0.037
-700.529	-134.968	0.250	0.031
-699.514	-116.843	0.181	0.034
-698.499	39.033	-0.174	-0.158
-697.485	-142.942	0.296	-0.029
-696.470	-17.979	0.236	0.151
-695.456	-58.300	-0.189	0.084
-694.441	-200.000	0.016	-0.130
-693.426	250.068	0.125	0.216
-692.412	800.000	0.087	0.342
-691.397	175.278	0.064	-0.095
-690.383	8.354	-0.223	-0.170
-689.368	-143.538	-0.122	-0.012
-688.354	800.000	-0.020	-0.063
-687.339	-85.665	0.117	-0.037
-686.324	-200.000	-0.003	-0.022
-685.310	683.338	-0.063	-0.166
-684.295	-200.000	0.008	0.326
-683.281	-124.181	-0.259	-0.041
-682.266	-68.239	0.326	0.129
-681.251	148.229	-0.102	-0.140
-680.237	-40.138	-0.239	-0.127
-679.222	-75.221	-0.078	-0.028
-678.208	-37.238	0.186	-0.101
-677.193	45.392	0.052	0.048
-676.178	-57.973	0.235	-0.104
-675.164	42.123	0.052	-0.048
-674.149	-200.000	0.075	0.522
-673.135	-200.000	-0.062	-0.497
-672.120	-32.009	0.185	-0.105
-671.105	-1.571	-0.201	0.144
-670.091	311.214	-0.199	0.379
-669.076	-157.450	0.297	0.018
-668.062	-151.291	-0.169	0.013
-667.047	277.360	0.048	-0.086
-666.032	-200.000	-0.011	-0.231
-665.018	-83.824	0.180	-0.058
-664.003	-136.393	-0.280	0.033
-662.989	-13.667	-0.232	-0.153
-661.974	361.037	0.195	0.396
-660.959	389.225	-0.043	0.091
-659.945	39.700	-0.114	0.104
-658.930	-200.000	-0.008	0.088
-657.916	-55.394	0.064	0.029
-656.901	-110.071	-0.139	0.029
-655.886	646.474	0.041	-0.107
-654.872	-200.000	-0.004	-0.122
-653.857	-1.611	-0.249	-0.178
-652.843	-113.359	0.086	0.017
-651.828	-89.772	-0.225	0.067
-650.814	237.918	0.051	0.085
-649.799	800.000	-0.021	-0.090
-648.784	-200.000	-0.026	0.364
-647.770	76.224	-0.286	-0.307
-646.755	41.024	0.175	-0.161
-645.741	800.000	-0.032	-0.136
-644.726	132.197	0.030	-0.039
-643.711	276.070	-0.069	-0.124
-642.697	-185.699	0.290	-0.004
-641.682	34.485	-0.129	0.114
-640.668	123.157	-0.159	0.202
-639.653	-200.000	0.029	-0.211
-638.638	-94.456	-0.142	0.039
-637.624	300.199	-0.235	-0.440
-636.609	472.206	-0.084	-0.191
-635.595	-74.569	0.070	0.026
-634.580	148.836	-0.018	-0.024
-633.565	800.000	0.071	-0.279
-632.551	42.253	-0.083	-0.077
-631.536	-135.465	0.328	-0.040
-630.522	-110.739	-0.133	0.028
-629.507	71.016	-0.189	0.198
-628.492	136.703	-0.156	-0.207
-627.478	39.436	0.219	0.199
-626.463	-200.000	0.023	0.331
-625.449	667.279	-0.102	-0.268
-624.434	121.627	-0.191	-0.242
-623.419	-81.326	-0.136	0.046
-622.405	22.570	-0.265	-0.220
-621.390	-55.659	-0.203	0.092
-620.376	-200.000	-0.001	-0.041
-619.361	-200.000	-0.025	-0.459
-618.346	195.697	-0.057	-0.088
-617.332	303.352	-0.057	-0.108
-616.317	65.700	-0.110	-0.113
-615.303	129.336	0.036	-0.047
-614.288	-79.367	-0.208	-0.071
-613.273	144.126	-0.157	-0.212
-612.259	-137.503	0.155	-0.018
-611.244	142.087	-0.372	-0.500
-610.230	39.120	0.247	-0.224
-609.215	-200.000	0.050	-0.237
-608.201	-172.465	-0.327	-0.011
-607.186	-146.634	-0.359	-0.032
-606.171	-110.360	0.339	-0.072
-605.157	10.349	0.138	0.106
-604.142	800.000	0.049	0.193
-603.128	97.946	-0.181	-0.211
-602.113	-17.563	0.199	0.127
-601.098	800.000	-0.050	-0.188
-600.084	447.918	-0.221	-0.494
-599.069	-200.000	0.024	0.415
-598.055	-87.767	0.301	0.092
-597.040	436.802	-0.067	0.147
-596.025	-200.000	0.046	-0.208
-595.011	-200.000	0.006	0.151
-593.996	587.703	-0.054	0.134
-592.982	231.801	0.046	0.077
-591.967	-9.565	0.131	0.089
-590.952	-200.000	0.019	0.272
-589.938	-60.685	-0.448	0.193
-588.923	-200.000	0.058	0.331
-587.909	800.000	-0.053	-0.208
-586.894	330.305	-0.065	-0.126
-585.879	315.779	0.144	-0.275
-584.865	175.668	0.131	-0.193
-583.850	52.972	0.191	0.185
-582.836	-55.166	-0.317	-0.144
-581.821	385.951	-0.066	0.139
-580.806	55.593	0.030	-0.029
-579.792	-52.461	-0.131	-0.062
-578.777	-159.866	0.300	0.017
-577.763	-74.167	-0.272	-0.100
-576.748	800.000	-0.084	-0.325
-575.733	82.432	0.221	0.243
-574.719	63.709	-0.283	0.288
-573.704	-29.064	0.185	-0.107
-572.690	472.595	0.039	-0.089
-571.675	410.887	-0.054	-0.116
-570.661	214.357	-0.097	-0.156
-569.646	110.864	-0.151	0.184
-568.631	800.000	-0.138	-0.489
-567.617	-41.354	-0.180	-0.094
-566.602	-79.076	0.105	0.036
-565.588	-21.985	-0.243	-0.150
-564.573	9.993	-0.126	-0.097
-563.558	190.471	0.147	-0.224
-562.544	800.000	-0.039	-0.127
-561.529	-50.560	-0.433	-0.207
-560.515	-69.888	-0.500	0.193
-559.500	-39.667	0.130	0.069
-558.485	193.712	0.192	-0.295
-557.471	95.067	0.039	0.044
-556.456	-200.000	0.015	0.155
-555.442	-200.000	0.024	0.196
-554.427	425.803	0.161	-0.350
-553.412	171.915	0.041	-0.059
-552.398	-200.000	-0.068	-0.436
-551.383	-38.103	0.450	0.242
-550.369	-100.601	0.431	0.108
-549.354	-32.000	0.141	-0.080
-548.339	-42.120	0.373	-0.193
-547.325	156.962	0.159	0.222
-546.310	-76.486	-0.110	0.039
-545.296	-41.883	-0.217	-0.112
-544.281	-200.000	-0.074	0.436
-543.266	-17.408	0.259	0.165
-542.252	-200.000	-0.027	0.237
-541.237	-133.230	0.263	0.034
-540.223	-73.176	0.232	-0.086
-539.208	800.000	0.106	-0.446
-538.193	-183.469	-0.107	-0.002
-537.179	-200.000	0.027	0.122
-536.164	12.359	0.401	0.312
-535.150	-113.339	-0.367	0.073
-534.135	-7.129	0.054	0.037
-533.121	179.744	-0.108	-0.160
-532.106	-200.000	-0.008	-0.139
-531.091	-200.000	0.009	0.237
-530.077	-19.832	-0.288	0.180
-529.062	-200.000	-0.048	-0.339
-528.048	-43.382	-0.093	-0.047
-527.033	213.979	-0.212	-0.339
-526.018	137.845	0.130	-0.172
-525.004	-153.195	-0.149	0.011
-523.989	375.419	-0.043	-0.089
-522.975	-15.888	-0.242	0.156
-521.960	-158.734	-0.121	0.007
-520.945	-200.000	-0.047	0.230
-519.931	5.276	-0.038	-0.028
-518.916	-144.888	-0.488	-0.045
-517.902	93.639	-0.241	-0.276
-516.887	-200.000	0.002	-0.024
-515.872	-200.000	0.011	0.068
-514.858	-90.148	-0.434	-0.128
-513.843	230.371	0.147	-0.242
-512.829	-139.423	0.341	-0.037
-511.814	-200.000	-0.007	-0.079
-510.799	-166.245	0.284	-0.012
-509.785	80.507	-0.074	-0.081
-508.770	800.000	0.063	-0.193
-507.756	45.788	0.094	-0.088
-506.741	-63.819	0.403	-0.167
-505.726	-170.171	0.325	0.012
-504.712	770.052	-0.131	0.359
-503.697	509.361	0.057	-0.133
-502.683	-54.269	0.245	0.113
-501.668	-11.784	-0.115	0.076
-500.653	-7.217	-0.147	-0.101
-499.639	77.118	0.269	-0.288
-498.624	90.982	-0.090	-0.102
-497.610	-167.690	-0.216	0.009
-496.595	-31.578	0.136	0.077
-495.581	789.968	-0.041	0.113
-494.566	145.510	-0.224	0.303
-493.551	-200.000	0.017	0.132
-492.537	81.965	-0.054	0.059
-491.522	-83.549	0.178	-0.058
-490.508	-200.000	-0.028	0.178
-489.493	-93.385	-0.146	-0.041
-488.478	682.644	-0.103	0.271
-487.464	-27.630	-0.204	0.119
-486.449	346.233	0.059	0.118
-485.435	-109.665	0.104	-0.022
-484.420	-75.557	-0.039	-0.014
-483.405	-94.524	-0.343	-0.094
-482.391	-200.000	0.008	-0.051
-481.376	-144.912	-0.350	0.032
-480.362	-51.858	0.159	0.075
-479.347	-200.000	0.011	0.316
-478.332	-63.329	-0.022	0.009
-477.318	-69.355	0.262	0.101
-476.303	-128.868	0.212	-0.030
-475.289	8.656	0.079	0.060
-474.274	-171.669	-0.151	-0.005
-473.259	195.442	-0.108	0.166
-472.245	-168.771	0.172	0.007
-471.230	95.182	0.136	-0.156
-470.216	-16.887	0.360	0.229
-469.201	-84.169	0.270	0.086
-468.186	-200.000	-0.001	0.068
-467.172	-120.760	0.333	0.057
-466.157	-129.887	0.214	0.030
-465.143	-2.508	0.202	0.143
-464.128	-132.148	-0.148	-0.019
-463.113	-6.668	-0.261	0.179
-462.099	-200.000	-0.035	-0.194
-461.084	46.546	-0.150	-0.140
-460.070	-104.218	0.154	0.036
-459.055	800.000	-0.024	0.077
-458.040	383.781	0.045	0.094
-457.026	19.136	0.191	-0.154
-456.011	492.034	0.023	0.052
-454.997	-200.000	-0.027	-0.266
-453.982	536.311	0.178	0.426
-452.968	140.665	0.246	0.328
-451.953	-200.000	0.034	-0.243
-450.938	-25.932	0.079	0.047
-449.924	-111.387	0.072	-0.015
-448.909	518.309	-0.145	0.343
-447.895	-99.737	-0.057	-0.014
-446.880	800.000	0.057	-0.179
-445.865	-200.000	-0.039	-0.204
-444.851	-31.702	-0.264	-0.149
-443.836	800.000	-0.058	0.249
-442.822	-200.000	0.001	0.086
-441.807	800.000	0.105	-0.363
-440.792	-122.666	-0.155	-0.025
-439.778	61.097	0.095	-0.095
-438.763	93.032	0.298	-0.340
-437.749	97.232	0.181	-0.209
-436.734	90.963	0.207	0.234
-435.719	174.717	-0.104	0.152
-434.705	-90.602	0.152	0.044
-433.690	-169.916	-0.005	0.000
-432.676	146.929	0.177	-0.240
-431.661	302.204	-0.090	0.168
-430.646	-200.000	-0.002	-0.041
-429.632	-200.000	-0.133	0.000
-428.617	-200.000	0.026	-0.138
-427.603	-74.386	0.151	0.055
-426.588	270.392	-0.139	0.246
-425.573	-83.695	0.271	0.087
-424.559	-176.332	-0.281	-0.007
-423.544	-117.150	-0.111	-0.020
-422.530	800.000	0.080	-0.284
-421.515	16.376	0.043	-0.034
-420.500	-200.000	-0.003	-0.066
-419.486	-0.982	-0.037	0.026
-418.471	-23.473	-0.225	-0.136
-417.457	-200.000	0.572	-0.001
-416.442	-91.778	0.267	-0.076
-415.428	-105.715	0.265	-0.060
-414.413	-96.604	0.259	0.069
-413.398	-99.386	0.166	0.042
-412.384	297.553	-0.076	0.141
-411.369	-62.453	-0.313	0.131
-410.355	-200.000	0.029	-0.213
-409.340	-18.852	-0.127	0.079
-408.325	-51.638	0.090	-0.042
-407.311	-51.084	-0.279	-0.132
-406.296	791.062	0.080	0.221
-405.282	342.531	-0.093	0.184
-404.267	83.481	0.137	-0.151
-403.252	-200.000	-0.009	0.221
-402.238	-181.973	0.205	0.004
-401.223	800.000	0.056	-0.221
-400.209	326.191	0.026	-0.051
-399.194	103.163	0.166	-0.196
-398.179	800.000	0.057	0.228
-397.165	-132.422	-0.228	-0.030
-396.150	644.776	-0.061	-0.156
-395.136	-200.000	0.054	0.309
-394.121	-200.000	-0.040	0.286
-393.106	179.326	-0.195	0.287
-392.092	285.172	0.115	0.208
-391.077	63.462	-0.132	0.134
-390.063	-141.999	0.153	0.015
-389.048	-7.439	0.054	0.037
-388.033	30.053	0.201	-0.172
-387.019	168.842	0.206	-0.295
-386.004	-132.110	-0.236	0.031
-384.990	176.713	0.113	-0.165
-383.975	609.992	0.100	-0.251
-382.960	24.657	-0.147	0.122
-381.946	140.196	0.085	0.112
-380.931	-45.678	0.186	0.093
-379.917	4.006	0.204	-0.150
-378.902	53.458	-0.316	0.305
-377.888	81.754	-0.248	0.270
-376.873	-34.365	-0.213	0.118
-375.858	19.516	-0.135	0.109
-374.844	451.243	-0.157	0.349
-373.829	-87.349	0.187	-0.057
-372.815	-92.471	-0.139	0.039
-371.800	4.566	-0.124	-0.091
-370.785	22.586	0.069	0.057
-369.771	-43.809	0.207	0.105
-368.756	437.213	-0.068	0.149
-367.742	99.268	-0.073	0.085
-366.727	261.269	-0.011	-0.020
-365.712	-6.266	-0.354	0.243
-364.698	244.969	0.072	0.121
-363.683	-4.555	-0.192	0.133
-362.669	20.179	-0.260	-0.211
-361.654	-57.374	-0.400	0.176
-360.639	-200.000	-0.001	-0.007
-359.625	138.803	-0.178	-0.234
-358.610	24.288	-0.315	-0.261
-357.596	83.869	-0.028	-0.031
-356.581	-66.360	-0.155	0.062
-355.566	-200.000	0.028	-0.213
-354.552	-24.135	0.231	-0.139
-353.537	800.000	-0.059	0.197
-352.523	800.000	-0.088	-0.329
-351.508	-54.344	-0.285	0.130
-350.493	-33.704	0.239	-0.132
-349.479	800.000	-0.051	0.201
-348.464	-71.983	0.167	-0.062
-347.450	72.299	0.291	0.305
-346.435	213.204	0.054	-0.085
-345.420	-200.000	0.005	0.066
-344.406	174.138	-0.220	-0.319
-343.391	-12.938	-0.110	-0.072
-342.377	-21.586	0.178	0.109
-341.362	-113.218	-0.059	0.012
-340.348	800.000	0.090	-0.292
-339.333	34.686	0.160	0.140
-338.318	-44.302	-0.372	-0.187
-337.304	-200.000	-0.008	0.040
-336.289	-200.000	-0.082	0.435
-335.275	-135.314	-0.417	0.050
-334.260	-158.146	-0.305	-0.018
-333.245	-45.439	0.059	-0.029
-332.231	-32.877	-0.182	-0.101
-331.216	-71.595	-0.302	-0.113
-330.202	-111.132	0.260	-0.053
-329.187	-200.000	-0.024	0.363
-328.172	-97.413	0.066	-0.017
-327.158	10.471	-0.256	0.196
-326.143	64.530	-0.101	-0.102
-325.129	-200.000	-0.006	-0.344
-324.114	-33.755	0.129	0.071
-323.099	-30.476	0.183	-0.104
-322.085	-25.111	-0.089	-0.053
-321.070	800.000	0.086	-0.271
-320.056	86.032	-0.205	0.226
-319.041	-200.000	-0.024	0.448
-318.026	-200.000	-0.018	-0.119
-317.012	800.000	-0.094	0.294
-315.997	57.666	-0.177	-0.173
-314.983	0.767	0.221	0.159
-313.968	800.000	-0.029	-0.084
-312.953	126.619	0.197	0.250
-311.939	-200.000	0.019	0.173
-310.924	-51.673	-0.239	-0.112
-309.910	-200.000	0.042	-0.274
-308.895	667.538	-0.088	0.227
-307.880	-128.717	0.285	0.040
-306.866	55.250	0.124	-0.120
-305.851	-8.268	-0.080	-0.054
-304.837	48.554	0.214	-0.201
-303.822	232.180	-0.093	0.152
-302.807	409.521	0.040	-0.084
-301.793	800.000	0.042	-0.137
-300.778	362.099	-0.047	0.095
-299.764	-170.895	0.450	-0.015
-298.749	-166.736	0.017	-0.001
-297.735	800.000	0.104	-0.333
-296.720	-101.596	-0.336	0.082
-295.705	-109.811	0.258	-0.054
-294.691	-183.520	0.169	-0.003
-293.676	-101.178	0.163	0.040
-292.662	-144.795	-0.251	-0.023
-291.647	-51.140	-0.051	0.024
-290.632	360.091	-0.142	0.284
-289.618	44.342	0.104	0.096
-288.603	-112.600	-0.546	0.109
-287.589	-114.968	-0.366	0.070
-286.574	304.348	0.162	0.300
-285.559	640.030	0.020	0.052
-284.545	292.167	0.052	-0.096
-283.530	-112.697	-0.345	-0.069
-282.516	-105.446	0.286	-0.065
-281.501	14.189	0.186	0.145
-280.486	502.165	-0.121	0.281
-279.472	752.625	-0.066	0.178
-278.457	462.812	-0.073	0.164
-277.443	-9.106	-0.219	-0.146
-276.428	-5.632	0.293	0.201
-275.413	-68.024	-0.101	-0.039
-274.399	29.823	-0.102	0.087
-273.384	-13.677	-0.205	0.133
-272.370	-11.619	-0.181	0.119
-271.355	-88.833	0.278	0.083
-270.340	12.386	-0.367	-0.283
-269.326	524.292	-0.074	-0.173
-268.311	800.000	-0.106	-0.375
-267.297	61.007	0.139	0.138
-266.282	-137.429	0.529	0.060
-265.267	-54.433	0.198	-0.090
-264.253	-25.569	-0.236	-0.139
-263.238	561.145	0.184	-0.444
-262.224	49.537	0.187	0.176
-261.209	-200.000	-0.019	-0.234
-260.195	-18.826	0.161	-0.100
-259.180	-15.070	-0.280	0.179
-258.165	-104.422	-0.110	-0.025
-257.151	87.612	0.191	0.212
-256.136	800.000	0.024	0.099
-255.122	41.001	0.083	0.075
-254.107	156.202	-0.111	0.153
-253.092	371.826	-0.030	-0.061
-252.078	-38.698	0.363	-0.191
-251.063	-73.635	-0.171	0.062
-250.049	-200.000	0.059	0.452
-249.034	-58.193	0.223	0.097
-248.019	98.432	0.404	-0.466
-247.005	-118.537	-0.169	0.030
-245.990	-79.012	-0.136	-0.046
-244.976	-57.137	-0.056	0.025
-243.961	217.909	0.083	0.132
-242.946	-95.325	-0.121	-0.033
-241.932	-153.276	-0.320	0.022
-240.917	61.780	-0.137	0.136
-239.903	-186.608	0.045	0.001
-238.888	-29.079	-0.278	-0.160
-237.873	10.864	0.197	0.150
-236.859	800.000	-0.008	0.025
-235.844	-200.000	0.011	0.382
-234.830	800.000	0.100	0.281
-233.815	-36.658	-0.142	0.076
-232.800	75.341	-0.196	-0.206
-231.786	224.078	-0.057	-0.092
-230.771	-15.274	0.100	0.064
-229.757	62.873	0.116	0.116
-228.742	-69.255	-0.350	0.134
-227.727	133.309	0.212	0.274
-226.713	-48.694	0.074	-0.035
-225.698	-25.762	0.307	-0.181
-224.684	-47.021	0.284	-0.139
-223.669	800.000	0.101	0.370
-222.655	240.386	-0.044	0.073
-221.640	116.276	0.060	0.073
-220.625	-1.673	0.215	-0.151
-219.611	56.768	-0.152	0.148
-218.596	-200.000	-0.047	0.248
-217.582	-76.769	0.204	0.071
-216.567	-200.000	-0.008	-0.250
-215.552	34.589	-0.224	-0.196
-214.538	-111.563	-0.149	0.030
-213.523	-23.732	0.147	-0.088
-212.509	-200.000	-0.034	0.151
-211.494	-200.000	0.004	-0.052
-210.479	-87.635	0.286	-0.086
-209.465	21.194	0.049	-0.040
-208.450	321.335	-0.056	0.107
-207.436	-146.344	0.213	0.019
-206.421	800.000	-0.027	0.080
-205.406	800.000	0.047	-0.149
-204.392	-143.180	0.216	-0.021
-203.377	-42.497	0.177	-0.090
-202.363	25.028	0.014	0.012
-201.348	-21.094	0.133	-0.081
-200.333	-1.236	-0.019	0.014
-199.319	438.405	0.162	-0.353
-198.304	0.730	0.169	0.120
-197.290	-200.000	0.027	0.145
-196.275	800.000	0.036	0.113
-195.260	-200.000	-0.026	-0.263
-194.246	-117.999	-0.327	-0.058
-193.231	404.589	-0.086	-0.182
-192.217	511.679	0.034	-0.080
-191.202	712.763	-0.110	-0.291
-190.187	-36.689	-0.188	-0.101
-189.173	-182.783	-0.327	-0.006
-188.158	-55.521	0.334	0.149
-187.144	-200.000	-0.067	0.414
-186.129	-200.000	0.002	0.012
-185.114	-200.000	-0.014	-0.158
-184.100	450.831	0.055	-0.120
-183.085	64.893	0.278	0.280
-182.071	-61.238	0.111	0.047
-181.056	-108.226	0.050	0.011
-180.042	-10.897	0.259	0.171
-179.027	-5.908	0.183	0.125
-178.012	24.559	0.166	0.137
-176.998	800.000	-0.029	-0.091
-175.983	257.975	0.229	0.393
-174.969	-36.046	-0.055	-0.030
-173.954	551.382	-0.040	0.095
-172.939	53.726	-0.060	0.057
-171.925	800.000	-0.113	-0.337
-170.910	-200.000	-0.001	0.363
-169.896	-200.000	0.003	-0.017
-168.881	638.032	0.071	-0.180
-167.866	-112.275	0.280	-0.056
-166.852	306.942	0.046	-0.085
-165.837	-46.138	0.290	-0.142
-164.823	-83.359	0.161	-0.051
-163.808	29.857	0.119	-0.101
-162.793	-200.000	-0.083	0.372
-161.779	412.184	-0.179	-0.380
-160.764	-48.641	0.120	-0.057
-159.750	484.994	-0.004	-0.009
-158.735	10.734	-0.316	-0.240
-157.720	24.311	-0.286	0.235
-156.706	-200.000	0.017	0.189
-155.691	210.793	-0.039	0.061
-154.677	-107.267	0.360	0.079
-153.662	15.129	0.241	0.188
-152.647	-167.859	-0.067	-0.003
-151.633	-100.254	-0.125	0.031
-150.618	-166.431	0.447	-0.019
-149.604	75.993	0.042	-0.044
-148.589	6.831	0.106	0.079
-147.574	800.000	-0.062	0.222
-146.560	-106.797	-0.122	0.027
-145.545	472.149	0.143	-0.321
-144.531	-102.623	0.097	0.023
-143.516	-65.835	0.024	-0.010
-142.502	200.055	0.188	0.288
-141.487	-44.180	-0.325	0.162
-140.472	151.651	0.075	0.102
-139.458	111.578	0.158	-0.190
-138.443	-200.000	-0.038	-0.244
-137.429	800.000	0.101	-0.295
-136.414	-140.825	0.252	0.026
-135.399	-12.174	-0.167	0.109
-134.385	-45.982	-0.154	0.076
-133.370	-119.358	0.163	0.028
-132.356	-84.103	-0.127	0.040
-131.341	-200.000	-0.024	0.246
-130.326	-10.635	0.080	0.052
-129.312	240.112	0.047	-0.078
-128.297	800.000	0.094	0.286
-127.283	-78.110	0.092	0.031
-126.268	800.000	-0.080	0.311
-125.253	-14.621	-0.167	-0.107
-124.239	-200.000	0.004	0.125
-123.224	-49.012	0.057	0.027
-122.210	-144.353	0.337	0.031
-121.195	221.786	-0.138	0.221
