DTS Sentinel unit serial number:	SN413079Multiplexer serial number:	ORYXHardware model number:	OX4-SRSoftware version number:	ORYX F/W v4.00 Oryx Data Collector v3.7.2.0data status	okinstallation	princeton_trtdifferential loss correction	single-endedforward channel	channel 1reverse channel	N/Adate	2019/09/14time	23:42:35forward acquisition time	60.00reverse acquisition time	0.00gamma	496.2192k internal	0.2319k external	0.2319temperature offset calibration	0.9993default loss term (dB/km)	0.3790temperature slope calibration	1.0000multiplexer offset coefficient	1.0000multiplexer slope coefficient	1.0000fibre end	0.00T internal ref (°C)	32.31T ext. ref 1 (°C)	4.64T ext. ref 2 (°C)	27.28length (m)	temperature (°C)	Stokes	anti-Stokes-747.200	-49.180	-0.049	-0.023
-746.185	2.289	0.150	0.110
-745.171	800.000	0.050	0.148
-744.156	-200.000	-0.060	0.464
-743.142	377.777	0.099	0.204
-742.127	479.318	-0.167	0.383
-741.112	-96.230	0.221	0.059
-740.098	800.000	-0.111	-0.314
-739.083	-156.477	-0.056	0.004
-738.069	800.000	-0.095	0.289
-737.054	479.123	-0.170	0.390
-736.039	-141.182	-0.228	0.024
-735.025	239.105	-0.152	-0.256
-734.010	-110.668	0.294	-0.061
-732.996	-200.000	0.035	-0.184
-731.981	-112.683	0.046	-0.009
-730.966	800.000	0.072	0.209
-729.952	-200.000	0.007	0.353
-728.937	800.000	0.058	-0.179
-727.923	800.000	0.101	-0.371
-726.908	-115.207	-0.055	0.011
-725.894	141.996	0.071	-0.095
-724.879	315.060	-0.167	-0.319
-723.864	-18.319	0.408	-0.258
-722.850	-200.000	-0.000	-0.364
-721.835	-97.284	-0.360	-0.095
-720.821	-200.000	-0.003	0.046
-719.806	-24.443	0.426	-0.257
-718.791	-88.573	0.530	-0.160
-717.777	-200.000	0.052	-0.317
-716.762	-11.960	0.227	-0.150
-715.748	-200.000	-0.053	-0.297
-714.733	800.000	0.029	0.112
-713.718	-88.385	-0.101	-0.030
-712.704	-200.000	0.027	-0.193
-711.689	91.082	-0.134	-0.152
-710.675	753.513	0.027	-0.074
-709.660	111.753	-0.059	-0.072
-708.645	56.601	-0.132	0.129
-707.631	112.529	0.081	0.099
-706.616	221.008	-0.216	-0.350
-705.602	-200.000	0.004	-0.030
-704.587	-114.580	0.032	-0.006
-703.572	-76.989	-0.351	-0.124
-702.558	123.001	0.319	-0.403
-701.543	29.554	-0.210	-0.180
-700.529	-46.309	-0.405	-0.201
-699.514	790.451	0.057	-0.158
-698.499	-200.000	-0.007	0.030
-697.485	-20.054	0.004	-0.002
-696.470	67.139	-0.158	-0.163
-695.456	499.161	-0.130	0.302
-694.441	374.861	-0.096	0.197
-693.426	-113.530	-0.188	0.037
-692.412	-48.857	0.071	0.034
-691.397	151.378	-0.125	0.172
-690.383	-200.000	0.018	0.368
-689.368	-50.807	-0.066	0.031
-688.354	86.760	-0.113	-0.126
-687.339	47.957	-0.122	0.115
-686.324	-35.589	0.190	-0.104
-685.310	800.000	-0.053	-0.215
-684.295	205.634	-0.154	-0.242
-683.281	790.098	-0.064	-0.176
-682.266	-200.000	-0.065	-0.344
-681.251	45.382	0.254	-0.236
-680.237	561.886	-0.031	-0.076
-679.222	-93.596	0.296	-0.082
-678.208	-88.916	0.182	-0.055
-677.193	-200.000	0.019	-0.412
-676.178	-200.000	0.029	-0.330
-675.164	-200.000	0.051	-0.248
-674.149	16.890	-0.255	0.203
-673.135	-200.000	-0.002	-0.557
-672.120	-125.714	-0.237	-0.036
-671.105	-200.000	0.023	-0.376
-670.091	313.120	-0.040	0.077
-669.076	239.498	-0.198	0.333
-668.062	800.000	-0.028	0.115
-667.047	-33.678	0.137	0.076
-666.032	800.000	-0.073	0.209
-665.018	26.198	-0.063	-0.053
-664.003	381.884	0.080	-0.166
-662.989	6.857	-0.191	0.144
-661.974	216.118	-0.147	-0.235
-660.959	424.952	-0.073	-0.159
-659.945	-109.840	-0.297	0.063
-658.930	315.383	-0.162	-0.307
-657.916	-125.451	0.092	0.014
-656.901	-75.379	-0.161	-0.058
-655.886	-52.761	0.050	-0.023
-654.872	-200.000	0.009	-0.072
-653.857	-42.195	-0.086	0.044
-652.843	233.829	-0.037	0.062
-651.828	21.441	-0.367	-0.301
-650.814	-12.351	0.151	-0.100
-649.799	-200.000	-0.025	-0.222
-648.784	-7.317	-0.331	-0.226
-647.770	-151.828	-0.268	-0.020
-646.755	-200.000	0.026	0.175
-645.741	-200.000	0.041	-0.302
-644.726	-100.060	-0.160	0.040
-643.711	60.804	0.007	0.007
-642.697	800.000	0.094	0.380
-641.682	-154.202	-0.440	0.030
-640.668	140.697	0.030	0.040
-639.653	-200.000	0.041	-0.184
-638.638	800.000	0.041	0.176
-637.624	125.547	0.069	-0.087
-636.609	-79.140	-0.124	-0.042
-635.595	-200.000	-0.003	-0.110
-634.580	45.449	-0.114	-0.106
-633.565	-51.015	0.148	-0.070
-632.551	15.764	-0.179	0.141
-631.536	30.552	-0.284	-0.245
-630.522	144.464	0.131	-0.176
-629.507	-168.694	0.098	-0.004
-628.492	800.000	0.143	0.404
-627.478	-78.208	-0.072	-0.025
-626.463	-3.699	0.216	-0.151
-625.449	-54.254	0.160	0.073
-624.434	-71.543	-0.120	0.045
-623.419	775.902	-0.042	-0.116
-622.405	-200.000	0.031	-0.168
-621.390	-70.574	-0.212	-0.081
-620.376	-55.239	0.453	-0.205
-619.361	197.465	-0.186	0.285
-618.346	-75.953	-0.031	0.011
-617.332	90.214	-0.172	0.194
-616.317	-200.000	-0.005	0.199
-615.303	-168.580	0.314	-0.012
-614.288	62.097	-0.081	0.081
-613.273	-5.273	0.517	-0.358
-612.259	-122.001	0.271	0.045
-611.244	269.317	-0.115	0.204
-610.230	-55.941	-0.121	0.054
-609.215	-6.519	-0.483	0.331
-608.201	114.817	0.070	0.085
-607.186	-80.853	0.345	-0.115
-606.171	-163.313	0.104	0.005
-605.157	-27.705	-0.172	-0.101
-604.142	535.022	-0.153	-0.365
-603.128	-200.000	0.040	0.189
-602.113	-121.731	-0.155	-0.026
-601.098	528.314	-0.175	-0.416
-600.084	-40.705	0.066	0.034
-599.069	-92.890	-0.222	-0.062
-598.055	64.005	-0.091	0.092
-597.040	47.664	0.235	-0.221
-596.025	800.000	-0.058	-0.176
-595.011	-200.000	-0.001	-0.036
-593.996	-28.497	-0.357	0.207
-592.982	-22.718	-0.288	0.175
-591.967	-200.000	-0.024	-0.223
-590.952	-168.361	-0.173	-0.007
-589.938	-200.000	0.015	-0.159
-588.923	124.192	0.110	0.139
-587.909	168.373	0.214	0.306
-586.894	-200.000	0.002	-0.156
-585.879	174.770	0.217	-0.315
-584.865	405.820	0.028	-0.059
-583.850	441.679	0.102	0.225
-582.836	-154.220	-0.077	-0.005
-581.821	154.910	-0.131	0.182
-580.806	252.727	0.110	0.189
-579.792	622.958	0.077	-0.194
-578.777	-200.000	-0.013	0.129
-577.763	-120.101	-0.380	-0.065
-576.748	132.880	0.167	-0.216
-575.733	280.951	-0.101	-0.182
-574.719	-64.445	-0.253	0.103
-573.704	69.363	-0.153	0.158
-572.690	518.085	-0.093	-0.219
-571.675	800.000	-0.066	-0.214
-570.661	-112.226	-0.145	-0.029
-569.646	136.590	0.088	0.116
-568.631	-82.222	-0.232	-0.076
-567.617	-200.000	0.050	-0.355
-566.602	160.938	0.094	0.132
-565.588	-103.855	-0.166	0.039
-564.573	39.137	0.273	0.245
-563.558	-120.133	-0.247	-0.043
-562.544	800.000	0.052	0.172
-561.529	-44.266	-0.207	0.104
-560.515	-40.048	0.361	-0.189
-559.500	51.834	0.141	-0.134
-558.485	800.000	-0.031	0.138
-557.471	28.762	-0.077	0.066
-556.456	-200.000	-0.029	-0.132
-555.442	92.187	-0.074	-0.084
-554.427	210.467	0.304	0.479
-553.412	19.271	-0.266	0.215
-552.398	-98.812	0.144	-0.037
-551.383	-4.773	0.184	-0.128
-550.369	-64.685	-0.137	0.056
-549.354	-200.000	0.087	-0.472
-548.339	800.000	0.141	-0.422
-547.325	-200.000	0.004	0.078
-546.310	-200.000	-0.054	0.257
-545.296	81.598	0.097	0.106
-544.281	392.778	0.080	0.167
-543.266	800.000	0.023	0.082
-542.252	129.332	-0.116	0.149
-541.237	70.497	-0.059	0.061
-540.223	-27.348	0.122	-0.071
-539.208	139.108	-0.172	0.228
-538.193	195.577	-0.113	0.172
-537.179	548.275	0.161	0.388
-536.164	-17.956	-0.153	0.096
-535.150	-200.000	-0.112	0.560
-534.135	-30.242	-0.159	-0.091
-533.121	173.438	-0.202	0.293
-532.106	-41.662	0.062	0.032
-531.091	-80.625	-0.101	0.034
-530.077	-73.220	-0.072	0.026
-529.062	800.000	-0.087	-0.252
-528.048	-92.155	-0.101	0.028
-527.033	-28.014	0.234	-0.136
-526.018	-108.973	-0.168	-0.036
-525.004	-53.402	-0.096	0.044
-523.989	800.000	-0.041	0.168
-522.975	121.566	0.209	-0.262
-521.960	228.768	0.063	-0.103
-520.945	185.332	-0.117	-0.174
-519.931	509.529	-0.157	0.365
-518.916	-73.817	-0.304	0.111
-517.902	135.991	0.115	0.150
-516.887	242.361	0.025	-0.042
-515.872	-115.693	0.283	0.053
-514.858	181.526	0.115	-0.170
-513.843	-50.707	0.220	0.104
-512.829	-200.000	0.005	0.112
-511.814	800.000	-0.013	0.057
-510.799	-99.481	-0.136	-0.034
-509.785	-200.000	0.010	0.305
-508.770	-63.064	-0.299	-0.124
-507.756	-200.000	-0.010	0.076
-506.741	-77.216	-0.212	-0.074
-505.726	137.401	0.060	-0.078
-504.712	107.725	-0.194	-0.232
-503.697	-82.273	0.065	-0.021
-502.683	109.339	-0.312	0.375
-501.668	-118.053	-0.192	-0.034
-500.653	-26.059	-0.165	-0.097
-499.639	-200.000	-0.028	0.537
-498.624	-42.066	-0.109	0.056
-497.610	-140.506	-0.099	-0.010
-496.595	-117.826	0.029	0.005
-495.581	293.319	-0.170	-0.310
-494.566	108.466	-0.124	0.148
-493.551	-151.851	-0.158	-0.012
-492.537	-200.000	0.002	-0.079
-491.522	-107.356	0.159	0.035
-490.508	-69.215	-0.257	-0.099
-489.493	-200.000	-0.022	0.236
-488.478	-46.524	-0.092	-0.045
-487.464	-44.744	-0.182	-0.091
-486.449	161.400	-0.155	0.217
-485.435	800.000	-0.046	0.148
-484.420	150.700	0.108	0.147
-483.405	-54.235	-0.217	0.099
-482.391	115.831	-0.113	-0.139
-481.376	-108.094	0.254	0.055
-480.362	-200.000	0.001	0.244
-479.347	-127.123	0.304	-0.045
-478.332	-191.169	0.138	0.001
-477.318	-145.800	0.370	-0.033
-476.303	-46.460	-0.024	-0.012
-475.289	89.987	0.197	0.220
-474.274	-200.000	0.019	-0.260
-473.259	50.355	-0.326	-0.308
-472.245	73.193	-0.220	-0.230
-471.230	-79.778	-0.130	0.044
-470.216	-200.000	-0.006	-0.081
-469.201	800.000	0.054	0.195
-468.186	-200.000	-0.051	-0.240
-467.172	5.613	0.062	-0.046
-466.157	-57.120	0.214	-0.094
-465.143	-200.000	-0.008	-0.196
-464.128	-103.788	-0.236	-0.055
-463.113	-93.550	-0.217	-0.060
-462.099	-98.247	0.306	-0.079
-461.084	195.939	0.055	0.083
-460.070	24.741	-0.097	-0.081
-459.055	438.411	0.059	0.128
-458.040	2.921	-0.063	0.046
-457.026	58.231	0.265	0.259
-456.011	-137.732	-0.052	0.006
-454.997	800.000	0.050	0.216
-453.982	-43.853	0.056	-0.028
-452.968	153.206	0.152	0.207
-451.953	55.049	0.157	-0.152
-450.938	-141.366	-0.174	0.018
-449.924	800.000	0.061	0.181
-448.909	-89.063	0.210	0.062
-447.895	-70.251	0.245	0.093
-446.880	-111.901	0.196	0.039
-445.865	-20.278	-0.433	-0.267
-444.851	-117.831	-0.243	-0.044
-443.836	-105.191	-0.193	-0.044
-442.822	404.089	0.172	-0.362
-441.807	776.556	0.143	0.389
-440.792	-77.534	-0.170	0.059
-439.778	-53.249	0.218	-0.100
-438.763	-54.718	0.340	0.153
-437.749	-200.000	-0.014	0.122
-436.734	403.417	0.190	-0.399
-435.719	-177.002	0.465	0.012
-434.705	284.613	0.060	0.107
-433.690	68.673	0.359	-0.368
-432.676	-200.000	0.028	-0.262
-431.661	-80.354	0.094	-0.031
-430.646	-121.220	-0.124	0.021
-429.632	61.712	0.026	-0.026
-428.617	-195.959	-0.080	0.001
-427.603	321.021	-0.060	0.114
-426.588	26.920	-0.121	-0.101
-425.573	-70.618	-0.322	-0.122
-424.559	-65.201	-0.148	-0.059
-423.544	-113.394	0.164	-0.032
-422.530	-160.014	-0.133	0.007
-421.515	-30.584	0.433	0.245
-420.500	-13.497	-0.355	0.230
-419.486	-92.963	-0.051	0.014
-418.471	348.355	0.123	-0.243
-417.457	800.000	-0.050	-0.201
-416.442	140.032	0.103	0.136
-415.428	466.997	0.068	-0.153
-414.413	-71.525	0.502	-0.187
-413.398	-200.000	0.015	0.277
-412.384	-170.036	-0.042	-0.002
-411.369	-200.000	-0.019	-0.564
-410.355	-49.777	0.424	0.201
-409.340	97.391	-0.136	0.156
-408.325	-77.126	-0.191	0.066
-407.311	-151.262	-0.130	-0.010
-406.296	46.971	-0.143	-0.132
-405.282	-143.739	-0.186	-0.018
-404.267	50.760	0.345	-0.326
-403.252	297.469	-0.081	-0.148
-402.238	3.264	0.235	0.171
-401.223	427.742	-0.128	0.277
-400.209	-47.864	0.219	-0.106
-399.194	77.000	-0.188	0.200
-398.179	800.000	0.050	0.217
-397.165	115.989	-0.098	-0.120
-396.150	-200.000	0.052	-0.483
-395.136	44.876	-0.109	0.100
-394.121	-21.902	0.150	-0.091
-393.106	-111.968	-0.085	-0.017
-392.092	-26.123	-0.230	0.135
-391.077	-82.147	0.355	0.115
-390.063	-200.000	0.049	-0.280
-389.048	90.263	-0.091	-0.101
-388.033	75.137	-0.153	-0.161
-387.019	-200.000	-0.074	0.337
-386.004	-157.686	-0.325	-0.019
-384.990	-200.000	0.003	-0.249
-383.975	157.358	-0.116	-0.160
-382.960	128.709	0.100	0.127
-381.946	39.630	-0.289	-0.258
-380.931	-200.000	0.004	-0.058
-379.917	236.202	-0.097	0.160
-378.902	-105.154	0.105	0.024
-377.888	-107.072	-0.110	0.024
-376.873	-80.756	-0.384	0.127
-375.858	-13.673	0.402	-0.259
-374.844	194.492	-0.139	-0.210
-373.829	720.229	0.066	-0.175
-372.815	209.302	0.162	0.252
-371.800	-63.935	0.064	0.026
-370.785	-54.997	0.215	0.096
-369.771	-41.650	-0.248	-0.127
-368.756	206.389	0.104	0.161
-367.742	84.589	-0.122	0.133
-366.727	76.619	0.123	-0.130
-365.712	217.218	0.045	-0.071
-364.698	187.660	-0.070	0.104
-363.683	9.975	-0.192	0.146
-362.669	505.981	0.087	-0.201
-361.654	307.892	-0.201	-0.373
-360.639	-200.000	0.009	-0.080
-359.625	-136.806	0.184	-0.021
-358.610	130.403	0.213	0.272
-357.596	-91.148	-0.094	-0.027
-356.581	-40.922	0.261	-0.134
-355.566	800.000	-0.060	-0.244
-354.552	-200.000	-0.009	-0.276
-353.537	21.462	-0.193	0.156
-352.523	-172.201	-0.448	0.014
-351.508	36.903	-0.102	-0.090
-350.493	476.796	0.074	-0.166
-349.479	-35.205	-0.270	0.146
-348.464	-121.509	0.265	-0.044
-347.450	248.481	0.056	-0.094
-346.435	431.107	0.083	-0.179
-345.420	37.441	0.182	-0.161
-344.406	477.030	-0.038	-0.085
-343.391	293.813	0.082	0.148
-342.377	-87.999	-0.311	0.093
-341.362	94.678	0.113	-0.128
-340.348	800.000	0.033	0.111
-339.333	483.866	-0.159	0.360
-338.318	177.347	0.105	-0.153
-337.304	299.922	-0.106	-0.195
-336.289	-22.708	0.151	-0.091
-335.275	-109.356	0.390	-0.082
-334.260	25.770	0.151	0.125
-333.245	-39.300	-0.133	-0.070
-332.231	-176.627	-0.143	0.004
-331.216	10.216	0.057	0.043
-330.202	-200.000	-0.001	-0.058
-329.187	800.000	0.075	-0.231
-328.172	41.388	-0.198	-0.179
-327.158	-30.073	0.181	-0.103
-326.143	800.000	-0.041	-0.117
-325.129	-161.094	-0.115	-0.006
-324.114	408.788	-0.087	0.184
-323.099	-200.000	-0.085	0.371
-322.085	243.074	0.151	0.252
-321.070	-50.032	0.131	0.062
-320.056	66.577	0.116	-0.117
-319.041	350.751	0.126	-0.249
-318.026	800.000	0.108	-0.410
-317.012	32.594	0.294	0.253
-315.997	27.895	-0.050	-0.042
-314.983	28.969	-0.118	0.099
-313.968	142.296	0.059	-0.078
-312.953	-200.000	-0.030	-0.214
-311.939	43.042	0.048	-0.043
-310.924	-86.347	-0.172	-0.053
-309.910	-121.633	0.155	-0.026
-308.895	679.181	0.055	0.143
-307.880	85.738	0.243	0.265
-306.866	45.171	0.122	-0.112
-305.851	-200.000	-0.039	-0.175
-304.837	800.000	0.092	0.282
-303.822	158.175	-0.137	-0.189
-302.807	-111.321	-0.350	-0.071
-301.793	216.062	-0.074	-0.118
-300.778	250.537	0.115	0.195
-299.764	7.952	-0.198	0.147
-298.749	-171.209	-0.400	-0.013
-297.735	115.109	-0.063	-0.077
-296.720	-26.901	0.286	-0.166
-295.705	-128.952	0.207	0.029
-294.691	157.046	-0.094	-0.129
-293.676	-177.031	0.331	0.008
-292.662	-154.424	-0.309	0.021
-291.647	-81.321	-0.205	-0.067
-290.632	-32.403	-0.230	-0.128
-289.618	184.964	-0.158	0.233
-288.603	362.927	-0.099	-0.198
-287.589	57.611	0.138	0.134
-286.574	-122.955	0.088	0.014
-285.559	800.000	-0.083	0.357
-284.545	-200.000	-0.043	-0.363
-283.530	-99.631	0.096	-0.024
-282.516	-57.727	0.102	0.044
-281.501	-200.000	-0.025	-0.172
-280.486	197.897	-0.239	-0.362
-279.472	800.000	0.023	0.076
-278.457	-200.000	0.016	-0.316
-277.443	-21.114	0.122	-0.074
-276.428	-44.512	0.294	0.146
-275.413	-41.366	0.158	-0.081
-274.399	-200.000	0.004	0.058
-273.384	58.266	0.111	0.108
-272.370	-200.000	-0.008	-0.054
-271.355	-21.843	-0.181	-0.109
-270.340	-28.278	0.321	-0.184
-269.326	-85.145	0.253	-0.079
-268.311	530.517	0.041	-0.095
-267.297	-80.941	0.152	-0.050
-266.282	-126.128	0.158	-0.023
-265.267	-88.516	0.372	0.110
-264.253	-57.636	0.488	0.212
-263.238	165.176	-0.155	-0.218
-262.224	800.000	-0.055	0.177
-261.209	800.000	-0.089	0.286
-260.195	214.538	0.220	0.345
-259.180	-23.640	0.098	0.058
-258.165	800.000	0.070	0.254
-257.151	-142.539	0.355	0.035
-256.136	285.070	0.061	0.109
-255.122	339.251	0.202	-0.390
-254.107	110.036	0.101	-0.121
-253.092	329.524	0.065	-0.124
-252.078	-162.416	0.220	0.011
-251.063	-51.033	-0.236	0.110
-250.049	800.000	-0.030	-0.089
-249.034	-153.949	-0.245	0.017
-248.019	-200.000	0.028	0.126
-247.005	132.415	-0.114	-0.146
-245.990	-121.632	-0.076	-0.012
-244.976	800.000	0.089	0.377
-243.961	15.767	-0.152	-0.119
-242.946	800.000	0.060	-0.175
-241.932	800.000	-0.137	0.506
-240.917	165.608	-0.170	0.239
-239.903	800.000	-0.071	0.279
-238.888	-200.000	0.061	0.317
-237.873	26.840	-0.314	0.261
-236.859	719.060	-0.076	-0.201
-235.844	438.848	0.060	0.129
-234.830	550.991	-0.125	0.298
-233.815	17.593	-0.219	-0.173
-232.800	-117.168	0.146	0.026
-231.786	18.064	0.369	0.292
-230.771	-92.770	0.157	0.044
-229.757	-200.000	0.013	0.088
-228.742	800.000	-0.064	0.176
-227.727	-200.000	-0.002	0.076
-226.713	-62.855	0.216	-0.089
-225.698	354.291	-0.102	-0.200
-224.684	139.032	0.167	0.217
-223.669	480.373	-0.077	0.173
-222.655	236.013	-0.221	0.362
-221.640	-49.790	-0.435	-0.205
-220.625	318.989	-0.058	0.109
-219.611	183.181	0.041	0.060
-218.596	576.610	0.017	0.040
-217.582	181.927	0.132	0.193
-216.567	624.264	0.162	-0.405
-215.552	-200.000	-0.047	0.369
-214.538	121.412	0.233	0.288
-213.523	800.000	0.035	0.145
-212.509	-200.000	-0.068	-0.318
-211.494	278.951	-0.059	-0.105
-210.479	29.379	0.434	0.365
-209.465	23.335	0.077	-0.063
-208.450	-200.000	0.043	0.198
-207.436	-155.534	-0.207	0.013
-206.421	22.472	-0.267	-0.217
-205.406	-25.639	-0.297	-0.173
-204.392	120.205	0.147	-0.180
-203.377	-200.000	-0.013	0.129
-202.363	509.525	-0.056	0.128
-201.348	-200.000	-0.114	-0.000
-200.333	125.385	0.135	0.168
-199.319	-49.217	0.136	0.064
-198.304	800.000	0.013	-0.052
-197.290	800.000	0.058	0.192
-196.275	-25.626	0.319	-0.187
-195.260	-179.506	0.433	-0.009
-194.246	-136.007	0.182	0.021
-193.231	-55.163	0.105	-0.047
-192.217	90.907	-0.177	0.197
-191.202	-109.189	-0.135	-0.028
-190.187	-72.543	-0.230	-0.084
-189.173	284.005	0.091	-0.161
-188.158	607.644	0.047	-0.116
-187.144	-83.703	0.339	-0.107
-186.129	87.123	-0.065	0.071
-185.114	140.615	-0.054	-0.071
-184.100	-200.000	0.001	-0.441
-183.085	167.111	-0.190	0.266
-182.071	-60.928	0.081	-0.034
-181.056	253.559	0.056	-0.094
-180.042	-200.000	0.023	-0.229
-179.027	800.000	0.108	-0.376
-178.012	-6.734	0.113	-0.076
-176.998	6.332	-0.131	-0.096
-175.983	-200.000	-0.005	0.278
-174.969	-81.684	0.382	0.124
-173.954	765.974	0.203	0.545
-172.939	-123.095	-0.138	-0.022
-171.925	-64.276	0.014	-0.006
-170.910	-155.858	-0.339	0.021
-169.896	171.893	0.087	0.124
-168.881	139.115	-0.149	0.193
-167.866	372.616	-0.081	-0.162
-166.852	-81.642	0.294	0.095
-165.837	204.573	-0.124	-0.191
-164.823	412.389	-0.043	-0.090
-163.808	-39.023	-0.108	0.056
-162.793	5.777	-0.094	-0.069
-161.779	-2.043	-0.330	0.229
-160.764	241.464	0.186	-0.307
-159.750	800.000	-0.068	-0.232
-158.735	-200.000	-0.009	-0.053
-157.720	800.000	0.024	0.066
-156.706	118.638	0.126	0.154
-155.691	-51.386	0.212	0.098
-154.677	-84.871	-0.122	0.038
-153.662	-15.411	-0.233	-0.147
-152.647	80.339	-0.151	-0.161
-151.633	-200.000	0.447	0.001
-150.618	-88.617	0.167	0.049
-149.604	800.000	0.082	0.238
-148.589	22.223	-0.250	0.202
-147.574	-52.212	0.304	-0.139
-146.560	-132.067	-0.416	0.053
-145.545	26.813	0.241	-0.200
-144.531	216.615	0.337	0.529
-143.516	-75.652	0.202	-0.071
-142.502	-45.228	-0.028	0.014
-141.487	-11.504	0.523	0.340
-140.472	397.910	-0.114	-0.236
-139.458	800.000	-0.126	-0.386
-138.443	326.098	-0.139	-0.263
-137.429	31.948	0.094	-0.080
-136.414	-73.782	-0.292	0.105
-135.399	66.929	-0.146	-0.147
-134.385	-200.000	0.064	-0.342
-133.370	800.000	-0.104	-0.322
-132.356	223.908	0.162	-0.258
-131.341	-90.497	0.129	0.037
-130.326	-78.819	-0.333	0.112
-129.312	196.938	0.029	0.043
-128.297	-116.225	0.418	-0.076
-127.283	-200.000	-0.021	0.099
-126.268	-15.387	0.206	0.130
-125.253	-122.847	0.313	-0.050
-124.239	-200.000	0.039	-0.275
-123.224	-133.768	-0.018	0.002
-122.210	800.000	0.043	0.185
