DTS Sentinel unit serial number:	SN413079Multiplexer serial number:	ORYXHardware model number:	OX4-SRSoftware version number:	ORYX F/W v4.00 Oryx Data Collector v3.7.2.0data status	okinstallation	princeton_trtdifferential loss correction	single-endedforward channel	channel 1reverse channel	N/Adate	2019/09/14time	04:14:35forward acquisition time	60.00reverse acquisition time	0.00gamma	496.2192k internal	0.2335k external	0.2335temperature offset calibration	1.0078default loss term (dB/km)	0.3790temperature slope calibration	1.0000multiplexer offset coefficient	1.0000multiplexer slope coefficient	1.0000fibre end	0.00T internal ref (°C)	26.72T ext. ref 1 (°C)	3.32T ext. ref 2 (°C)	21.83length (m)	temperature (°C)	Stokes	anti-Stokes-747.200	-136.767	-0.291	-0.034
-746.185	77.773	0.119	0.128
-745.171	197.718	-0.142	0.219
-744.156	-200.000	-0.022	0.112
-743.142	-40.049	0.134	0.070
-742.127	-200.000	0.019	0.204
-741.112	-200.000	0.025	-0.415
-740.098	-19.043	0.018	-0.012
-739.083	90.696	-0.274	0.308
-738.069	-200.000	-0.062	0.390
-737.054	800.000	0.064	0.188
-736.039	-70.847	-0.397	-0.151
-735.025	115.881	0.207	0.255
-734.010	-58.340	-0.224	0.098
-732.996	-138.905	-0.283	0.031
-731.981	-200.000	-0.029	0.202
-730.966	165.858	-0.120	-0.170
-729.952	66.649	0.332	-0.340
-728.937	262.750	-0.102	-0.178
-727.923	800.000	0.042	-0.149
-726.908	-88.384	-0.136	-0.041
-725.894	-140.620	0.087	0.009
-724.879	-200.000	-0.068	0.319
-723.864	71.182	0.143	0.149
-722.850	-95.390	-0.303	0.082
-721.835	-18.416	-0.210	-0.131
-720.821	-200.000	0.047	-0.361
-719.806	528.256	0.124	-0.293
-718.791	30.093	-0.135	-0.116
-717.777	-103.706	-0.269	-0.063
-716.762	189.222	0.254	0.383
-715.748	-200.000	0.003	-0.343
-714.733	38.004	0.248	0.222
-713.718	-58.557	-0.179	0.078
-712.704	721.985	0.089	-0.238
-711.689	-57.270	-0.120	0.053
-710.675	-200.000	0.029	-0.243
-709.660	638.868	-0.086	0.220
-708.645	-107.129	-0.217	0.048
-707.631	-200.000	0.003	-0.303
-706.616	-140.571	-0.198	-0.021
-705.602	274.224	0.169	-0.300
-704.587	46.580	0.095	0.088
-703.572	434.044	-0.107	0.233
-702.558	28.433	-0.209	-0.177
-701.543	573.130	-0.062	0.153
-700.529	110.833	-0.053	0.064
-699.514	-48.527	-0.242	0.117
-698.499	0.624	-0.246	-0.176
-697.485	-200.000	0.013	-0.284
-696.470	-200.000	-0.273	0.000
-695.456	-47.020	-0.322	0.158
-694.441	-30.025	-0.194	-0.111
-693.426	63.481	-0.066	0.067
-692.412	67.832	0.041	0.042
-691.397	-67.682	0.079	0.031
-690.383	-114.291	-0.160	0.031
-689.368	459.524	-0.017	-0.038
-688.354	371.453	-0.053	-0.108
-687.339	-200.000	0.016	-0.124
-686.324	235.239	-0.074	-0.123
-685.310	800.000	-0.069	0.264
-684.295	328.851	-0.215	-0.413
-683.281	-42.970	0.197	-0.100
-682.266	-73.490	-0.138	-0.051
-681.251	93.811	0.052	-0.059
-680.237	-200.000	0.041	-0.255
-679.222	62.775	0.104	0.104
-678.208	704.066	-0.050	0.132
-677.193	800.000	-0.065	0.216
-676.178	-200.000	-0.002	0.031
-675.164	-32.935	0.331	-0.184
-674.149	-200.000	0.015	-0.251
-673.135	245.329	0.028	-0.046
-672.120	-69.684	0.328	0.126
-671.105	-200.000	0.010	-0.047
-670.091	190.510	-0.161	0.243
-669.076	-51.763	-0.167	-0.078
-668.062	270.811	0.121	-0.213
-667.047	104.436	-0.148	0.174
-666.032	245.928	-0.259	-0.438
-665.018	13.649	-0.132	-0.103
-664.003	-200.000	-0.080	-0.382
-662.989	-106.698	-0.237	0.053
-661.974	-61.931	-0.232	0.097
-660.959	29.236	0.030	-0.026
-659.945	558.911	-0.106	0.257
-658.930	800.000	-0.059	0.180
-657.916	-138.525	0.108	-0.012
-656.901	800.000	-0.054	0.165
-655.886	262.295	0.145	-0.251
-654.872	-61.416	0.116	0.049
-653.857	-119.126	-0.121	0.021
-652.843	79.767	0.077	-0.083
-651.828	11.576	-0.214	0.165
-650.814	-200.000	-0.014	-0.119
-649.799	-38.337	-0.145	-0.077
-648.784	800.000	0.085	-0.295
-647.770	-130.181	0.202	-0.028
-646.755	-200.000	-0.014	0.160
-645.741	-106.043	-0.139	-0.031
-644.726	-44.996	0.170	-0.085
-643.711	211.585	-0.096	-0.151
-642.697	31.959	-0.141	-0.121
-641.682	485.264	0.068	0.155
-640.668	-58.892	-0.134	-0.058
-639.653	-39.984	0.103	-0.054
-638.638	127.773	-0.129	-0.164
-637.624	8.351	-0.305	-0.229
-636.609	800.000	0.053	0.190
-635.595	-156.404	0.161	-0.010
-634.580	-200.000	-0.012	-0.144
-633.565	-41.401	-0.335	0.173
-632.551	-200.000	-0.029	0.227
-631.536	319.307	-0.093	-0.177
-630.522	110.174	-0.103	-0.124
-629.507	42.920	-0.140	-0.127
-628.492	102.029	0.236	-0.276
-627.478	-200.000	-0.070	0.317
-626.463	-50.581	0.101	0.048
-625.449	123.479	-0.245	0.307
-624.434	340.912	0.104	0.202
-623.419	-200.000	0.010	-0.048
-622.405	-35.458	-0.311	0.169
-621.390	800.000	0.080	0.296
-620.376	68.151	-0.161	0.165
-619.361	800.000	-0.037	0.122
-618.346	-28.164	0.049	-0.029
-617.332	-200.000	-0.032	-0.191
-616.317	-57.003	-0.147	-0.065
-615.303	-200.000	0.035	0.191
-614.288	-200.000	-0.017	-0.159
-613.273	215.597	0.104	-0.166
-612.259	-127.129	-0.391	-0.057
-611.244	68.410	-0.093	0.095
-610.230	-91.106	-0.215	-0.062
-609.215	800.000	0.024	-0.094
-608.201	-187.535	-0.075	-0.001
-607.186	-81.796	0.033	0.011
-606.171	226.332	-0.092	0.149
-605.157	174.453	0.264	-0.382
-604.142	214.718	-0.203	-0.321
-603.128	64.776	-0.181	-0.182
-602.113	84.239	0.247	-0.269
-601.098	49.981	0.060	-0.057
-600.084	-200.000	0.034	-0.180
-599.069	-101.976	0.195	-0.047
-598.055	-55.243	0.278	-0.125
-597.040	-200.000	-0.029	-0.279
-596.025	-126.716	-0.114	0.017
-595.011	371.738	0.170	0.345
-593.996	-43.528	-0.192	0.097
-592.982	10.455	0.021	-0.016
-591.967	481.921	0.066	-0.149
-590.952	800.000	0.103	-0.320
-589.938	800.000	-0.041	0.124
-588.923	-6.641	-0.257	0.174
-587.909	-147.291	-0.156	0.013
-586.894	-200.000	-0.029	0.156
-585.879	-93.292	0.268	0.074
-584.865	36.934	0.132	-0.117
-583.850	-45.345	-0.259	-0.128
-582.836	-200.000	0.040	-0.373
-581.821	278.972	-0.128	-0.228
-580.806	25.414	-0.056	0.047
-579.792	-64.141	-0.122	-0.050
-578.777	275.693	0.067	0.119
-577.763	108.804	-0.281	0.335
-576.748	-200.000	-0.034	0.261
-575.733	174.134	0.021	-0.030
-574.719	-200.000	0.005	-0.296
-573.704	-72.509	-0.052	0.019
-572.690	-152.625	0.154	0.011
-571.675	532.751	0.218	-0.516
-570.661	61.426	0.102	-0.101
-569.646	753.846	-0.026	0.069
-568.631	136.708	0.073	-0.096
-567.617	-127.430	-0.248	-0.036
-566.602	-42.323	0.202	-0.103
-565.588	-42.659	-0.219	-0.111
-564.573	117.301	-0.098	-0.120
-563.558	109.562	-0.195	0.233
-562.544	180.646	0.018	0.026
-561.529	-136.432	0.264	0.031
-560.515	409.845	-0.140	0.296
-559.500	-16.744	0.038	0.024
-558.485	-200.000	0.063	-0.596
-557.471	42.143	-0.092	-0.084
-556.456	39.021	0.088	-0.078
-555.442	-8.275	0.218	-0.147
-554.427	103.075	0.253	-0.296
-553.412	-60.693	0.367	-0.155
-552.398	-100.469	-0.123	0.030
-551.383	3.496	-0.259	0.188
-550.369	87.805	-0.033	-0.036
-549.354	-140.056	-0.160	0.017
-548.339	-140.437	0.313	0.033
-547.325	-109.370	-0.255	0.054
-546.310	800.000	-0.098	0.286
-545.296	-200.000	0.249	0.000
-544.281	-75.586	0.388	-0.138
-543.266	269.110	-0.025	-0.044
-542.252	-200.000	-0.006	-0.092
-541.237	-200.000	-0.005	0.057
-540.223	800.000	0.079	-0.326
-539.208	133.385	0.086	-0.111
-538.193	303.970	0.051	-0.095
-537.179	-56.304	0.103	-0.046
-536.164	-72.919	-0.398	0.146
-535.150	207.132	-0.181	-0.282
-534.135	-200.000	-0.031	0.386
-533.121	88.021	-0.112	-0.124
-532.106	-106.510	0.279	-0.062
-531.091	-102.735	-0.158	0.037
-530.077	-119.439	-0.147	-0.025
-529.062	726.266	0.075	0.198
-528.048	-117.098	0.251	-0.046
-527.033	41.417	-0.177	-0.160
-526.018	472.860	-0.046	0.104
-525.004	86.510	0.186	0.205
-523.989	800.000	-0.038	-0.133
-522.975	46.268	0.144	-0.133
-521.960	-34.987	-0.178	-0.097
-520.945	351.388	-0.125	0.246
-519.931	-200.000	-0.019	0.157
-518.916	-18.620	0.350	0.217
-517.902	-142.815	-0.317	-0.031
-516.887	800.000	0.118	0.472
-515.872	-158.217	0.380	-0.022
-514.858	-200.000	-0.016	0.296
-513.843	23.651	0.043	-0.035
-512.829	800.000	-0.013	-0.047
-511.814	-47.594	0.096	-0.046
-510.799	-200.000	0.007	-0.084
-509.785	-87.185	0.577	-0.175
-508.770	-69.777	-0.335	-0.127
-507.756	77.045	-0.191	0.202
-506.741	-3.385	0.229	-0.158
-505.726	-84.256	-0.187	-0.059
-504.712	14.799	0.182	-0.142
-503.697	800.000	0.068	0.212
-502.683	-44.043	0.243	-0.121
-501.668	215.469	-0.086	0.135
-500.653	40.093	0.184	-0.164
-499.639	-38.042	0.215	0.113
-498.624	-95.597	0.317	-0.085
-497.610	-162.748	0.485	0.024
-496.595	-161.400	0.346	-0.018
-495.581	452.060	-0.139	-0.306
-494.566	-200.000	0.007	-0.048
-493.551	-76.943	-0.182	0.063
-492.537	58.221	0.052	-0.051
-491.522	-150.985	0.048	0.004
-490.508	-16.372	-0.439	0.277
-489.493	-110.650	0.190	0.039
-488.478	-49.678	0.478	0.226
-487.464	-115.715	0.312	-0.058
-486.449	25.420	-0.126	-0.104
-485.435	-200.000	-0.029	0.274
-484.420	-200.000	0.008	-0.129
-483.405	36.417	0.062	0.054
-482.391	93.436	0.104	0.117
-481.376	474.762	-0.125	0.280
-480.362	-48.874	-0.224	0.107
-479.347	-63.387	-0.286	-0.117
-478.332	103.859	-0.368	0.430
-477.318	87.093	-0.024	0.027
-476.303	800.000	0.098	-0.386
-475.289	139.623	0.052	-0.068
-474.274	-113.416	0.096	0.019
-473.259	-13.838	0.116	0.074
-472.245	117.912	-0.084	-0.103
-471.230	-127.824	-0.150	0.022
-470.216	63.862	0.118	-0.118
-469.201	-98.837	-0.236	0.060
-468.186	-83.109	0.121	0.039
-467.172	-179.678	0.125	0.003
-466.157	-27.293	0.179	-0.104
-465.143	-100.441	0.151	0.037
-464.128	-105.361	-0.410	-0.093
-463.113	-10.233	-0.135	0.089
-462.099	6.400	0.247	-0.182
-461.084	81.219	-0.083	-0.089
-460.070	193.359	-0.129	0.193
-459.055	52.541	-0.187	0.178
-458.040	800.000	0.098	-0.271
-457.026	47.464	-0.168	0.156
-456.011	-92.936	-0.340	-0.094
-454.997	192.100	0.101	0.152
-453.982	183.806	0.053	-0.079
-452.968	177.261	-0.146	-0.212
-451.953	-3.990	0.206	-0.142
-450.938	236.824	0.067	0.111
-449.924	-77.915	0.012	0.004
-448.909	-179.371	0.317	-0.007
-447.895	414.410	-0.069	0.146
-446.880	147.157	-0.105	-0.141
-445.865	-50.226	0.381	-0.179
-444.851	111.731	0.124	0.149
-443.836	35.828	-0.140	-0.122
-442.822	-46.190	0.414	0.202
-441.807	-200.000	0.010	-0.182
-440.792	-36.483	-0.165	-0.088
-439.778	91.256	0.207	-0.231
-438.763	800.000	0.060	0.175
-437.749	64.095	-0.156	0.156
-436.734	-200.000	0.027	0.135
-435.719	505.968	-0.083	0.191
-434.705	-72.348	-0.104	-0.038
-433.690	-94.583	-0.170	0.046
-432.676	233.929	0.041	0.067
-431.661	1.656	0.237	-0.169
-430.646	-200.000	0.007	-0.159
-429.632	308.955	0.027	0.050
-428.617	-84.520	-0.198	0.062
-427.603	-200.000	0.034	0.266
-426.588	9.975	0.278	-0.209
-425.573	-50.183	-0.081	0.038
-424.559	-200.000	0.040	0.190
-423.544	-111.535	0.259	-0.052
-422.530	-70.498	0.307	0.115
-421.515	800.000	-0.082	0.270
-420.500	133.190	0.108	-0.138
-419.486	-200.000	-0.026	-0.159
-418.471	143.602	0.073	0.096
-417.457	118.684	0.215	-0.263
-416.442	190.051	-0.149	0.222
-415.428	-200.000	0.004	0.026
-414.413	263.471	0.244	0.421
-413.398	-12.415	0.178	0.115
-412.384	28.522	0.247	-0.207
-411.369	800.000	0.065	0.243
-410.355	66.838	-0.112	0.113
-409.340	-82.571	0.433	-0.139
-408.325	800.000	-0.047	0.140
-407.311	366.574	-0.101	0.203
-406.296	-140.633	-0.147	-0.015
-405.282	-200.000	-0.006	-0.077
-404.267	-156.430	0.429	0.027
-403.252	608.595	0.091	-0.224
-402.238	73.253	-0.269	-0.279
-401.223	372.878	-0.037	-0.075
-400.209	-124.750	-0.210	0.032
-399.194	30.996	-0.265	-0.225
-398.179	469.373	0.049	-0.109
-397.165	800.000	-0.046	0.179
-396.150	103.341	0.205	0.239
-395.136	-200.000	-0.070	0.323
-394.121	-200.000	-0.157	0.000
-393.106	-96.554	-0.234	0.061
-392.092	-82.287	-0.236	0.076
-391.077	800.000	-0.119	0.344
-390.063	-29.495	-0.374	0.212
-389.048	-200.000	-0.016	0.175
-388.033	800.000	0.063	0.205
-387.019	-142.884	0.271	-0.026
-386.004	90.774	-0.045	0.050
-384.990	-84.201	-0.328	0.103
-383.975	272.911	-0.094	-0.164
-382.960	19.449	-0.172	0.137
-381.946	-200.000	0.001	-0.033
-380.931	-93.363	0.203	-0.056
-379.917	-1.154	-0.289	0.202
-378.902	-200.000	0.019	-0.609
-377.888	64.342	-0.176	-0.176
-376.873	-200.000	-0.013	0.267
-375.858	-89.169	-0.097	0.028
-374.844	-200.000	-0.018	0.143
-373.829	349.566	-0.137	-0.268
-372.815	779.852	-0.108	-0.292
-371.800	-44.535	-0.253	0.125
-370.785	-200.000	-0.002	-0.229
-369.771	7.349	-0.191	0.141
-368.756	-117.131	-0.168	-0.030
-367.742	25.805	0.025	0.020
-366.727	-76.340	0.148	-0.052
-365.712	-200.000	-0.018	0.268
-364.698	-118.353	-0.143	-0.025
-363.683	-14.003	0.184	0.117
-362.669	800.000	-0.003	0.010
-361.654	-182.672	-0.296	-0.005
-360.639	199.680	-0.165	-0.250
-359.625	-200.000	0.027	-0.155
-358.610	-9.663	0.033	-0.022
-357.596	-200.000	-0.011	0.181
-356.581	-164.728	-0.079	-0.004
-355.566	-200.000	0.020	-0.119
-354.552	-21.072	-0.252	-0.152
-353.537	324.649	-0.055	-0.104
-352.523	-6.631	0.340	-0.229
-351.508	-200.000	0.005	0.056
-350.493	-200.000	0.019	-0.153
-349.479	551.155	0.147	-0.349
-348.464	-59.228	0.315	0.134
-347.450	800.000	0.038	-0.126
-346.435	-155.558	0.293	-0.019
-345.420	-200.000	-0.005	-0.126
-344.406	-75.381	-0.065	0.023
-343.391	194.884	0.133	-0.200
-342.377	-200.000	-0.055	-0.246
-341.362	800.000	-0.041	-0.127
-340.348	-200.000	-0.006	-0.286
-339.333	165.847	-0.231	0.323
-338.318	49.808	-0.113	-0.106
-337.304	-23.659	0.122	0.072
-336.289	-200.000	-0.058	-0.342
-335.275	-200.000	-0.036	-0.221
-334.260	106.703	-0.131	0.153
-333.245	-141.206	0.355	0.036
-332.231	258.875	0.121	-0.206
-331.216	-40.636	-0.131	0.067
-330.202	-181.299	-0.257	-0.005
-329.187	-64.835	0.037	-0.015
-328.172	6.897	0.097	-0.071
-327.158	453.263	0.006	0.013
-326.143	-22.143	0.139	-0.083
-325.129	-200.000	-0.032	-0.234
-324.114	337.555	0.023	-0.045
-323.099	642.399	0.037	0.093
-322.085	-200.000	-0.014	0.598
-321.070	-200.000	0.003	-0.068
-320.056	40.567	0.240	0.213
-319.041	316.438	-0.113	0.210
-318.026	-72.845	-0.121	-0.044
-317.012	255.046	0.156	0.264
-315.997	-102.838	-0.234	0.055
-314.983	-142.332	-0.064	0.006
-313.968	-70.718	0.199	-0.074
-312.953	-200.000	-0.003	0.099
-311.939	-144.252	-0.053	-0.005
-310.924	-130.199	0.150	-0.020
-309.910	84.076	-0.150	0.161
-308.895	62.076	0.060	0.059
-307.880	-19.147	-0.155	0.095
-306.866	-114.220	-0.367	-0.070
-305.851	522.230	-0.055	0.126
-304.837	-71.059	0.069	-0.026
-303.822	345.052	-0.063	0.122
-302.807	-73.601	0.134	0.048
-301.793	39.290	-0.078	-0.069
-300.778	-200.000	-0.047	0.246
-299.764	270.426	0.129	-0.223
-298.749	800.000	-0.060	-0.230
-297.735	10.178	-0.075	-0.057
-296.720	57.198	-0.113	-0.109
-295.705	74.544	-0.075	-0.078
-294.691	74.063	0.020	0.021
-293.676	-4.244	-0.124	0.085
-292.662	-1.410	0.271	0.189
-291.647	-8.641	-0.095	-0.063
-290.632	25.176	-0.111	0.091
-289.618	-200.000	0.055	-0.367
-288.603	-33.362	-0.113	-0.062
-287.589	200.242	0.060	0.091
-286.574	383.098	0.106	-0.214
-285.559	13.061	0.187	0.143
-284.545	-55.097	0.124	0.055
-283.530	280.581	-0.152	0.268
-282.516	-66.326	-0.367	-0.144
-281.501	-200.000	0.044	0.200
-280.486	717.194	-0.020	-0.052
-279.472	237.512	0.120	-0.196
-278.457	-200.000	-0.058	0.297
-277.443	-115.578	0.404	-0.075
-276.428	-78.685	-0.149	-0.050
-275.413	-137.009	0.039	-0.004
-274.399	-149.750	-0.109	0.008
-273.384	163.254	0.069	-0.096
-272.370	243.903	0.154	-0.255
-271.355	800.000	-0.059	0.197
-270.340	426.061	0.087	-0.185
-269.326	257.892	-0.151	0.256
-268.311	-200.000	0.021	-0.281
-267.297	-200.000	0.006	0.110
-266.282	-200.000	-0.072	-0.565
-265.267	-24.542	0.077	0.045
-264.253	799.592	0.176	0.479
-263.238	159.586	-0.147	-0.201
-262.224	-19.359	0.139	-0.085
-261.209	-200.000	0.320	0.000
-260.195	800.000	0.036	-0.124
-259.180	122.200	0.067	0.082
-258.165	-200.000	0.010	0.122
-257.151	84.170	0.241	-0.259
-256.136	36.081	0.037	-0.032
-255.122	169.206	0.047	0.066
-254.107	-37.041	-0.096	0.051
-253.092	236.118	-0.176	-0.286
-252.078	56.188	-0.158	0.151
-251.063	-16.125	0.177	-0.111
-250.049	369.413	0.102	-0.203
-249.034	-84.444	0.292	0.091
-248.019	103.568	-0.050	-0.058
-247.005	4.098	-0.340	0.245
-245.990	369.975	-0.136	-0.272
-244.976	-200.000	-0.019	0.438
-243.961	728.975	0.143	0.375
-242.946	-85.301	-0.119	-0.037
-241.932	800.000	-0.076	0.267
-240.917	-77.578	-0.038	0.013
-239.903	-105.121	0.142	-0.032
-238.888	-200.000	-0.033	0.192
-237.873	-170.110	-0.289	0.010
-236.859	-91.997	-0.214	-0.060
-235.844	40.038	-0.062	-0.055
-234.830	427.942	-0.068	0.145
-233.815	710.229	0.060	0.156
-232.800	-200.000	0.037	0.262
-231.786	-113.331	-0.337	-0.065
-230.771	-95.772	-0.215	-0.056
-229.757	121.778	-0.102	0.125
-228.742	175.107	0.129	0.184
-227.727	-200.000	0.018	-0.087
-226.713	-141.998	0.189	0.019
-225.698	20.346	-0.280	0.223
-224.684	84.536	-0.147	0.158
-223.669	-200.000	-0.013	-0.175
-222.655	-93.144	-0.201	-0.055
-221.640	-11.774	-0.133	0.086
-220.625	27.977	0.062	0.052
-219.611	33.654	0.235	-0.201
-218.596	142.573	-0.267	0.349
-217.582	-200.000	0.020	-0.154
-216.567	-51.980	0.140	0.064
-215.552	-39.201	-0.323	0.167
-214.538	-200.000	0.021	-0.151
-213.523	62.184	0.239	-0.235
-212.509	108.211	0.244	-0.287
-211.494	800.000	-0.049	0.203
-210.479	244.735	-0.096	0.159
-209.465	13.646	0.193	0.148
-208.450	-75.253	-0.191	0.067
-207.436	325.059	-0.083	0.156
-206.421	800.000	0.072	-0.299
-205.406	95.066	0.037	-0.041
-204.392	171.179	-0.075	0.106
-203.377	800.000	-0.136	0.375
-202.363	781.670	0.041	0.111
-201.348	-108.959	0.320	0.067
-200.333	107.441	0.122	-0.143
-199.319	-39.983	-0.164	-0.084
-198.304	-126.961	-0.057	-0.008
-197.290	800.000	0.027	-0.106
-196.275	185.649	-0.265	0.387
-195.260	800.000	-0.102	0.311
-194.246	-81.362	0.173	-0.056
-193.231	103.432	0.074	-0.085
-192.217	800.000	0.068	-0.189
-191.202	-168.486	-0.138	-0.005
-190.187	-116.007	-0.102	-0.019
-189.173	-96.259	-0.083	0.022
-188.158	28.913	0.122	0.102
-187.144	637.582	0.046	-0.114
-186.129	-95.703	-0.249	-0.066
-185.114	-200.000	-0.057	-0.269
-184.100	689.745	0.021	-0.055
-183.085	-26.113	0.375	-0.217
-182.071	162.468	0.023	0.031
-181.056	-200.000	-0.024	-0.209
-180.042	-17.778	0.417	0.257
-179.027	55.689	0.321	-0.306
-178.012	-19.797	0.151	0.092
-176.998	251.102	-0.138	0.230
-175.983	301.487	0.138	0.251
-174.969	483.586	-0.039	0.087
-173.954	-15.069	0.122	-0.077
-172.939	44.937	-0.221	-0.200
-171.925	-109.778	0.148	-0.031
-170.910	243.552	0.076	-0.126
-169.896	-102.018	0.212	0.050
-168.881	-200.000	0.064	0.308
-167.866	-124.000	-0.069	0.011
-166.852	-200.000	0.048	0.330
-165.837	-200.000	-0.035	0.268
-164.823	533.287	0.148	-0.344
-163.808	-200.000	-0.001	-0.105
-162.793	-33.868	-0.156	0.085
-161.779	324.166	-0.126	0.235
-160.764	745.963	-0.079	-0.210
-159.750	542.553	-0.099	0.232
-158.735	165.761	-0.140	-0.195
-157.720	-29.549	0.201	-0.113
-156.706	-68.618	0.048	-0.018
-155.691	762.821	-0.119	0.318
-154.677	-200.000	-0.018	0.126
-153.662	237.030	-0.140	0.228
-152.647	-85.528	0.265	0.081
-151.633	-84.057	0.035	-0.011
-150.618	85.465	-0.075	0.080
-149.604	-200.000	0.010	-0.060
-148.589	800.000	0.043	-0.124
-147.574	52.518	-0.142	0.133
-146.560	-87.324	0.253	0.075
-145.545	-200.000	0.023	0.479
-144.531	290.302	-0.083	0.148
-143.516	-84.814	0.318	0.098
-142.502	400.533	-0.069	-0.142
-141.487	-120.757	-0.306	-0.051
-140.472	-110.655	0.107	0.022
-139.458	-146.431	-0.226	0.019
-138.443	-200.000	-0.000	0.045
-137.429	-200.000	0.098	0.481
-136.414	-37.992	0.157	-0.082
-135.399	-98.740	0.169	0.042
-134.385	-2.233	-0.420	-0.289
-133.370	-126.450	-0.494	-0.072
-132.356	-85.132	0.199	0.061
-131.341	-5.273	-0.149	0.100
-130.326	-139.972	-0.374	0.039
-129.312	524.479	-0.035	0.082
-128.297	0.332	0.110	-0.077
-127.283	-72.203	0.254	0.092
-126.268	373.623	0.110	-0.219
-125.253	-200.000	-0.030	-0.338
-124.239	266.485	0.172	0.295
-123.224	-57.728	0.253	-0.109
-122.210	277.846	-0.208	-0.364
