DTS Sentinel unit serial number:	SN413079Multiplexer serial number:	ORYXHardware model number:	OX4-SRSoftware version number:	ORYX F/W v4.00 Oryx Data Collector v3.7.2.0data status	okinstallation	princeton_trtdifferential loss correction	single-endedforward channel	channel 1reverse channel	N/Adate	2019/09/13time	08:34:35forward acquisition time	60.00reverse acquisition time	0.00gamma	496.2192k internal	0.2329k external	0.2329temperature offset calibration	1.0156default loss term (dB/km)	0.3790temperature slope calibration	1.0000multiplexer offset coefficient	1.0000multiplexer slope coefficient	1.0000fibre end	0.00T internal ref (°C)	27.62T ext. ref 1 (°C)	4.28T ext. ref 2 (°C)	24.53length (m)	temperature (°C)	Stokes	anti-Stokes-747.200	-200.000	-0.007	0.211
-746.185	-91.228	0.206	-0.059
-745.171	-30.726	-0.070	-0.040
-744.156	-200.000	-0.012	0.118
-743.142	-135.604	-0.332	-0.040
-742.127	318.603	0.155	0.296
-741.112	-40.032	-0.437	0.230
-740.098	119.527	-0.137	0.171
-739.083	60.843	0.161	-0.161
-738.069	200.779	-0.299	0.463
-737.054	-45.541	-0.077	0.038
-736.039	53.174	-0.131	-0.126
-735.025	-100.673	0.223	0.055
-734.010	-71.911	-0.133	0.050
-732.996	58.573	-0.233	-0.231
-731.981	-200.000	0.009	-0.350
-730.966	-22.971	0.132	-0.080
-729.952	241.564	0.043	0.073
-728.937	800.000	0.137	0.388
-727.923	207.091	-0.254	-0.398
-726.908	-165.742	-0.261	-0.011
-725.894	-95.507	0.278	-0.075
-724.879	-123.839	-0.265	-0.042
-723.864	591.139	-0.095	-0.236
-722.850	-200.000	0.010	0.158
-721.835	677.687	0.027	0.072
-720.821	8.401	0.175	0.132
-719.806	167.825	0.163	-0.234
-718.791	-160.033	-0.418	0.023
-717.777	-16.794	0.144	0.092
-716.762	-175.336	0.105	0.003
-715.748	800.000	0.065	-0.201
-714.733	-102.283	-0.328	0.079
-713.718	800.000	0.075	0.213
-712.704	276.744	-0.072	0.129
-711.689	-200.000	-0.019	-0.150
-710.675	-156.659	-0.094	0.006
-709.660	-200.000	-0.062	0.453
-708.645	270.365	0.194	0.344
-707.631	-200.000	0.146	-0.001
-706.616	-107.769	-0.469	0.103
-705.602	175.240	-0.127	0.185
-704.587	-180.369	-0.117	0.002
-703.572	-123.002	-0.265	0.043
-702.558	16.359	-0.124	-0.098
-701.543	-200.000	0.017	-0.244
-700.529	-16.083	-0.255	-0.163
-699.514	800.000	0.017	-0.057
-698.499	45.508	-0.027	-0.025
-697.485	-55.928	-0.123	-0.055
-696.470	-46.024	-0.353	-0.175
-695.456	-116.754	0.071	-0.013
-694.441	-117.401	0.207	-0.038
-693.426	-72.110	0.460	-0.172
-692.412	225.272	0.117	0.191
-691.397	800.000	0.044	-0.182
-690.383	-19.430	0.239	0.149
-689.368	-74.543	-0.196	-0.071
-688.354	3.115	0.334	-0.244
-687.339	59.266	0.213	-0.211
-686.324	-37.689	-0.224	0.120
-685.310	197.971	-0.160	0.246
-684.295	222.413	0.114	0.185
-683.281	-116.498	-0.435	0.081
-682.266	186.033	-0.121	0.181
-681.251	-200.000	-0.003	-0.086
-680.237	-97.748	0.355	0.092
-679.222	-200.000	0.050	-0.303
-678.208	-81.703	0.295	0.097
-677.193	800.000	0.037	-0.144
-676.178	320.779	-0.043	-0.082
-675.164	-42.452	-0.168	0.086
-674.149	-60.900	0.338	0.143
-673.135	-155.947	0.215	0.014
-672.120	46.163	-0.254	-0.236
-671.105	800.000	0.074	-0.296
-670.091	-116.145	-0.283	-0.053
-669.076	230.492	0.138	-0.227
-668.062	-200.000	-0.013	0.061
-667.047	-98.655	0.202	0.052
-666.032	156.658	0.190	0.264
-665.018	-89.274	0.239	0.071
-664.003	92.261	-0.135	-0.153
-662.989	208.759	0.089	0.140
-661.974	-156.057	-0.195	0.012
-660.959	216.008	0.076	0.121
-659.945	-182.300	-0.377	-0.007
-658.930	-11.179	0.180	-0.119
-657.916	-170.279	-0.305	0.011
-656.901	-80.040	0.123	-0.041
-655.886	-105.085	0.250	0.058
-654.872	800.000	-0.074	-0.251
-653.857	-33.435	0.254	-0.141
-652.843	123.187	0.161	0.202
-651.828	-90.782	-0.211	-0.061
-650.814	800.000	0.123	-0.395
-649.799	-13.542	-0.213	-0.139
-648.784	87.239	0.225	-0.250
-647.770	324.042	0.116	0.222
-646.755	-200.000	-0.028	-0.229
-645.741	80.247	-0.093	-0.100
-644.726	-138.525	-0.222	-0.024
-643.711	-17.268	0.277	0.175
-642.697	258.195	-0.113	0.195
-641.682	-200.000	-0.013	0.188
-640.668	800.000	-0.082	0.293
-639.653	-200.000	-0.010	-0.160
-638.638	-6.937	0.144	-0.098
-637.624	-134.868	0.266	0.032
-636.609	-200.000	0.035	0.248
-635.595	135.576	-0.037	0.048
-634.580	-144.736	0.097	0.009
-633.565	-200.000	-0.052	-0.361
-632.551	10.209	-0.193	-0.147
-631.536	94.528	-0.104	-0.119
-630.522	-200.000	-0.045	-0.216
-629.507	-200.000	0.017	0.212
-628.492	-117.561	-0.199	0.036
-627.478	-123.370	0.304	0.049
-626.463	-200.000	-0.046	0.419
-625.449	-200.000	-0.035	0.286
-624.434	800.000	0.148	0.509
-623.419	-13.591	0.251	0.163
-622.405	-200.000	-0.008	-0.075
-621.390	26.904	-0.188	-0.158
-620.376	-73.711	-0.051	-0.019
-619.361	678.617	0.093	0.242
-618.346	291.047	-0.091	-0.165
-617.332	-94.300	-0.038	-0.010
-616.317	-132.734	0.296	0.038
-615.303	-80.914	-0.548	0.182
-614.288	800.000	0.070	-0.203
-613.273	-12.788	0.217	-0.142
-612.259	-69.293	-0.079	0.030
-611.244	15.268	-0.073	-0.057
-610.230	800.000	-0.037	-0.137
-609.215	364.968	-0.022	-0.045
-608.201	181.228	0.208	-0.306
-607.186	-31.732	-0.178	0.100
-606.171	220.918	-0.156	0.251
-605.157	-22.575	-0.152	0.092
-604.142	42.739	0.108	-0.098
-603.128	-61.375	0.316	0.133
-602.113	701.833	-0.006	-0.016
-601.098	-74.034	0.019	-0.007
-600.084	188.779	0.107	-0.160
-599.069	800.000	0.075	0.216
-598.055	-176.075	-0.256	-0.007
-597.040	-186.524	0.088	-0.001
-596.025	-124.405	0.145	0.023
-595.011	401.495	0.095	-0.200
-593.996	622.210	-0.081	0.205
-592.982	-169.285	0.476	-0.018
-591.967	-200.000	-0.003	0.278
-590.952	-47.822	-0.232	-0.113
-589.938	13.736	-0.241	-0.188
-588.923	800.000	-0.100	-0.426
-587.909	1.478	-0.130	-0.094
-586.894	-200.000	-0.065	-0.447
-585.879	800.000	-0.086	-0.291
-584.865	-200.000	-0.067	-0.353
-583.850	-155.227	0.196	0.013
-582.836	-75.165	0.397	0.142
-581.821	-130.534	0.031	0.004
-580.806	-200.000	0.013	-0.373
-579.792	88.741	-0.108	0.120
-578.777	168.239	-0.193	-0.275
-577.763	19.799	-0.124	0.100
-576.748	-94.699	0.135	0.037
-575.733	-200.000	0.099	-0.488
-574.719	59.261	-0.112	-0.111
-573.704	219.202	-0.042	-0.067
-572.690	57.923	-0.129	0.127
-571.675	-97.228	0.258	0.067
-570.661	800.000	0.066	-0.287
-569.646	-200.000	-0.034	0.278
-568.631	-24.735	0.244	0.145
-567.617	800.000	-0.057	0.218
-566.602	-194.348	-0.286	0.002
-565.588	17.242	0.107	-0.085
-564.573	-115.889	-0.059	-0.011
-563.558	516.268	0.114	-0.267
-562.544	-200.000	-0.017	-0.259
-561.529	281.885	0.135	0.242
-560.515	-149.688	-0.189	-0.015
-559.500	-146.890	0.194	-0.017
-558.485	-51.831	-0.020	0.009
-557.471	-80.625	-0.246	-0.082
-556.456	-40.176	0.088	0.046
-555.442	289.745	-0.095	-0.172
-554.427	334.341	-0.130	-0.253
-553.412	-84.367	-0.142	-0.045
-552.398	60.882	-0.178	0.177
-551.383	364.930	-0.066	-0.133
-550.369	-109.037	-0.110	0.024
-549.354	-90.941	-0.291	0.084
-548.339	-166.472	0.325	0.014
-547.325	-200.000	-0.103	0.489
-546.310	351.478	-0.031	-0.061
-545.296	99.340	0.085	-0.098
-544.281	60.599	-0.043	0.043
-543.266	800.000	0.082	-0.294
-542.252	-32.127	-0.335	-0.187
-541.237	279.352	-0.085	0.151
-540.223	-89.070	0.380	0.112
-539.208	-1.699	0.222	0.156
-538.193	14.710	0.167	-0.130
-537.179	363.492	0.111	0.223
-536.164	-150.578	0.248	0.019
-535.150	-200.000	0.005	0.025
-534.135	800.000	-0.037	-0.127
-533.121	52.465	-0.226	0.216
-532.106	361.208	-0.114	0.229
-531.091	-200.000	0.004	0.266
-530.077	-49.558	0.097	-0.046
-529.062	-200.000	-0.030	0.262
-528.048	-200.000	-0.028	-0.164
-527.033	-178.119	0.023	-0.001
-526.018	13.608	0.285	0.221
-525.004	47.286	-0.197	0.183
-523.989	-7.196	-0.208	0.141
-522.975	-172.285	0.276	0.009
-521.960	-200.000	-0.018	-0.089
-520.945	-18.621	0.187	-0.116
-519.931	261.777	-0.084	-0.145
-518.916	800.000	-0.035	-0.129
-517.902	-29.279	0.115	0.066
-516.887	59.360	0.178	-0.175
-515.872	102.403	0.152	0.177
-514.858	-200.000	0.008	0.227
-513.843	-92.132	-0.117	0.033
-512.829	-118.693	0.177	-0.031
-511.814	-140.216	-0.128	0.013
-510.799	81.553	-0.152	0.164
-509.785	-99.014	-0.261	0.066
-508.770	364.531	-0.062	0.124
-507.756	-200.000	0.009	-0.245
-506.741	153.917	-0.142	0.194
-505.726	339.906	-0.101	0.196
-504.712	-100.512	0.231	0.057
-503.697	-32.049	0.087	-0.048
-502.683	-200.000	0.020	-0.154
-501.668	16.993	0.300	0.237
-500.653	-200.000	-0.047	0.247
-499.639	196.650	-0.057	-0.086
-498.624	-94.583	-0.352	-0.096
-497.610	313.061	0.155	-0.292
-496.595	-170.150	0.140	0.005
-495.581	70.396	0.190	-0.195
-494.566	-146.935	0.390	0.033
-493.551	477.482	0.045	-0.102
-492.537	-50.731	-0.193	0.090
-491.522	-122.232	-0.301	-0.049
-490.508	85.032	0.101	-0.110
-489.493	-145.529	0.269	-0.024
-488.478	2.276	0.188	0.135
-487.464	300.024	0.105	0.194
-486.449	6.292	0.081	0.060
-485.435	-137.523	0.184	0.021
-484.420	164.142	0.101	0.142
-483.405	282.191	0.140	0.250
-482.391	-38.742	0.245	-0.129
-481.376	-200.000	-0.032	0.186
-480.362	4.238	-0.115	0.084
-479.347	63.425	-0.168	0.168
-478.332	239.074	0.073	-0.121
-477.318	-98.937	0.217	-0.055
-476.303	800.000	-0.048	0.188
-475.289	-200.000	-0.017	0.148
-474.274	86.407	-0.121	-0.133
-473.259	16.341	-0.259	0.204
-472.245	248.814	0.084	-0.143
-471.230	-18.493	-0.252	0.157
-470.216	771.751	0.096	-0.261
-469.201	800.000	-0.079	-0.262
-468.186	174.175	-0.115	0.166
-467.172	-200.000	-0.066	0.312
-466.157	800.000	-0.072	0.218
-465.143	-76.750	-0.113	-0.040
-464.128	-80.976	-0.203	-0.067
-463.113	-128.484	0.369	-0.052
-462.099	242.271	0.102	0.171
-461.084	-114.033	-0.169	0.033
-460.070	3.150	-0.092	-0.067
-459.055	-200.000	0.014	0.369
-458.040	-62.835	-0.355	0.146
-457.026	101.670	-0.030	0.035
-456.011	-59.452	0.099	0.043
-454.997	-200.000	0.010	0.192
-453.982	-115.411	-0.236	0.044
-452.968	291.631	0.100	-0.181
-451.953	-6.363	-0.192	0.131
-450.938	134.607	-0.130	-0.169
-449.924	378.705	0.098	0.200
-448.909	-106.678	0.067	0.015
-447.895	-28.881	0.171	0.098
-446.880	-61.330	0.146	0.061
-445.865	800.000	-0.035	0.148
-444.851	-155.099	0.115	0.008
-443.836	-200.000	0.019	-0.151
-442.822	172.212	-0.171	-0.245
-441.807	138.205	-0.027	-0.035
-440.792	-141.569	-0.541	-0.054
-439.778	380.906	0.203	-0.415
-438.763	800.000	0.013	0.055
-437.749	-106.490	0.121	-0.027
-436.734	72.175	0.085	0.088
-435.719	800.000	-0.019	0.075
-434.705	-88.569	-0.204	-0.061
-433.690	-200.000	-0.002	-0.084
-432.676	-160.316	0.134	-0.007
-431.661	-200.000	-0.004	0.275
-430.646	19.886	-0.168	-0.135
-429.632	152.481	-0.120	-0.163
-428.617	-47.480	-0.102	-0.049
-427.603	192.720	0.240	-0.361
-426.588	-63.343	-0.178	-0.073
-425.573	608.354	0.068	0.169
-424.559	-200.000	-0.015	-0.188
-423.544	152.860	-0.086	-0.116
-422.530	-81.650	-0.307	0.100
-421.515	33.461	-0.148	-0.128
-420.500	800.000	0.107	0.380
-419.486	35.503	-0.064	0.056
-418.471	800.000	-0.027	-0.092
-417.457	-41.971	0.375	0.191
-416.442	-200.000	-0.059	0.285
-415.428	655.274	0.111	0.284
-414.413	-64.580	-0.277	0.112
-413.398	438.701	0.143	0.311
-412.384	-145.956	0.238	-0.021
-411.369	-63.133	-0.206	-0.084
-410.355	-200.000	0.041	0.346
-409.340	800.000	0.046	0.154
-408.325	235.650	-0.059	0.096
-407.311	-30.708	0.109	-0.061
-406.296	-9.651	0.230	-0.152
-405.282	-111.042	-0.067	-0.014
-404.267	643.570	0.127	0.322
-403.252	-141.455	0.409	0.041
-402.238	-139.986	0.253	0.026
-401.223	-163.157	-0.148	-0.007
-400.209	251.586	0.069	0.116
-399.194	142.575	-0.065	0.086
-398.179	-25.458	0.075	0.044
-397.165	-200.000	-0.023	0.104
-396.150	-20.116	-0.170	0.104
-395.136	-129.220	0.162	-0.022
-394.121	-155.217	0.276	-0.018
-393.106	800.000	-0.116	-0.468
-392.092	800.000	0.088	-0.323
-391.077	-28.540	0.211	0.121
-390.063	160.515	-0.096	0.133
-389.048	-161.870	-0.158	-0.008
-388.033	122.431	-0.236	0.293
-387.019	154.866	0.191	-0.261
-386.004	124.138	0.038	0.048
-384.990	-64.492	0.238	-0.096
-383.975	-200.000	0.025	-0.378
-382.960	298.438	0.251	-0.458
-381.946	40.432	0.216	0.193
-380.931	15.460	-0.114	-0.089
-379.917	800.000	0.096	0.372
-378.902	-87.760	-0.066	-0.020
-377.888	800.000	-0.025	0.072
-376.873	800.000	0.135	-0.539
-375.858	-28.323	-0.304	-0.174
-374.844	198.234	-0.110	-0.168
-373.829	-200.000	0.018	0.183
-372.815	800.000	-0.019	-0.079
-371.800	-116.637	0.204	-0.037
-370.785	196.963	-0.291	-0.440
-369.771	63.248	0.126	-0.126
-368.756	800.000	0.110	-0.343
-367.742	-85.134	0.160	-0.050
-366.727	-128.182	-0.272	-0.039
-365.712	-200.000	0.021	-0.097
-364.698	25.164	-0.078	-0.064
-363.683	347.622	-0.197	-0.386
-362.669	25.051	-0.242	-0.200
-361.654	-41.248	-0.131	0.067
-360.639	250.694	0.198	0.334
-359.625	-95.680	0.384	-0.102
-358.610	-200.000	0.006	0.079
-357.596	-119.376	-0.212	-0.037
-356.581	-200.000	0.022	0.373
-355.566	-200.000	0.044	-0.347
-354.552	-77.102	0.209	0.072
-353.537	-139.737	0.260	-0.027
-352.523	185.744	-0.095	0.140
-351.508	-200.000	-0.006	-0.126
-350.493	21.512	0.189	-0.152
-349.479	-200.000	0.002	0.013
-348.464	-63.799	-0.150	0.061
-347.450	-200.000	-0.035	-0.296
-346.435	96.568	0.100	-0.114
-345.420	25.238	-0.278	0.229
-344.406	-24.294	-0.259	0.153
-343.391	320.897	-0.137	-0.258
-342.377	-200.000	-0.028	0.405
-341.362	201.906	0.178	-0.271
-340.348	146.580	0.066	-0.088
-339.333	-81.270	0.189	-0.062
-338.318	46.889	0.168	-0.155
-337.304	38.318	-0.156	-0.138
-336.289	-24.303	-0.297	-0.176
-335.275	141.505	-0.167	-0.219
-334.260	368.548	0.070	0.141
-333.245	800.000	-0.026	-0.098
-332.231	313.973	-0.038	0.071
-331.216	-125.520	-0.207	0.031
-330.202	180.955	0.133	-0.193
-329.187	-109.403	-0.197	-0.041
-328.172	-200.000	0.033	-0.147
-327.158	800.000	0.083	-0.340
-326.143	0.151	-0.483	-0.342
-325.129	-54.295	0.208	0.093
-324.114	-26.532	-0.169	0.098
-323.099	99.505	0.258	-0.296
-322.085	-200.000	-0.048	0.245
-321.070	144.751	0.200	0.265
-320.056	444.450	0.056	0.121
-319.041	-115.575	-0.180	0.033
-318.026	98.829	0.132	-0.151
-317.012	81.155	0.195	-0.209
-315.997	-133.511	0.413	0.051
-314.983	263.101	0.056	-0.097
-313.968	-38.119	0.099	-0.052
-312.953	-88.789	-0.286	0.084
-311.939	-200.000	-0.040	0.219
-310.924	-200.000	-0.013	0.151
-309.910	75.956	-0.123	0.129
-308.895	800.000	0.015	0.062
-307.880	16.261	-0.042	-0.033
-306.866	-182.907	-0.455	-0.008
-305.851	-200.000	0.029	-0.156
-304.837	27.407	0.241	-0.201
-303.822	-200.000	-0.072	-0.389
-302.807	-103.928	-0.486	0.112
-301.793	-200.000	-0.013	-0.107
-300.778	-200.000	-0.072	-0.515
-299.764	-74.583	0.257	0.092
-298.749	-200.000	-0.062	0.476
-297.735	-102.110	-0.400	0.095
-296.720	-89.297	-0.070	-0.021
-295.705	-51.650	0.271	-0.125
-294.691	-92.974	-0.206	0.057
-293.676	427.420	-0.026	-0.055
-292.662	-200.000	-0.054	0.281
-291.647	384.404	0.116	-0.236
-290.632	-44.036	-0.193	0.096
-289.618	-200.000	-0.046	-0.212
-288.603	11.288	-0.328	-0.249
-287.589	88.501	-0.090	0.099
-286.574	-16.976	0.148	-0.093
-285.559	-92.530	-0.363	-0.101
-284.545	-112.992	0.235	-0.046
-283.530	61.454	-0.226	0.223
-282.516	800.000	-0.147	-0.614
-281.501	-200.000	0.012	0.223
-280.486	-18.803	-0.066	-0.041
-279.472	-4.788	-0.160	0.109
-278.457	167.090	0.298	-0.419
-277.443	-92.939	0.276	0.076
-276.428	-118.183	0.161	0.028
-275.413	-145.065	-0.174	-0.016
-274.399	22.520	-0.193	0.156
-273.384	-200.000	-0.015	0.312
-272.370	222.485	0.069	0.110
-271.355	191.052	-0.126	-0.187
-270.340	-83.765	0.223	0.070
-269.326	18.742	0.050	0.040
-268.311	-198.576	-0.175	0.001
-267.297	-136.320	-0.347	0.040
-266.282	-8.856	0.187	-0.124
-265.267	9.439	-0.070	0.052
-264.253	-87.555	0.056	0.017
-263.238	-137.235	0.151	0.017
-262.224	206.170	-0.257	-0.395
-261.209	-200.000	-0.035	-0.519
-260.195	-98.276	0.142	-0.036
-259.180	-125.920	-0.098	0.015
-258.165	-72.895	-0.061	-0.022
-257.151	-177.567	-0.237	0.006
-256.136	-105.993	-0.262	0.058
-255.122	-50.156	-0.072	0.034
-254.107	-200.000	-0.057	0.262
-253.092	38.742	0.245	0.216
-252.078	169.240	0.090	0.127
-251.063	11.631	0.129	-0.097
-250.049	-48.845	-0.515	0.244
-249.034	-3.635	-0.155	-0.106
-248.019	-22.092	0.301	-0.181
-247.005	17.731	-0.094	-0.074
-245.990	-42.403	-0.106	0.054
-244.976	-66.075	-0.400	0.158
-243.961	-157.311	0.190	0.011
-242.946	-34.698	-0.337	0.182
-241.932	-33.478	-0.079	0.043
-240.917	332.438	0.193	-0.369
-239.903	238.441	-0.161	0.264
-238.888	-200.000	0.021	-0.157
-237.873	-200.000	0.033	-0.269
-236.859	29.973	-0.376	0.317
-235.844	800.000	0.056	0.227
-234.830	-140.251	0.225	-0.023
-233.815	-26.349	-0.166	-0.096
-232.800	-200.000	-0.012	0.107
-231.786	327.787	0.045	-0.085
-230.771	-33.516	-0.196	-0.107
-229.757	99.292	0.235	0.268
-228.742	-112.690	0.155	0.030
-227.727	-79.379	0.256	0.085
-226.713	-10.789	0.179	0.117
-225.698	800.000	-0.057	-0.238
-224.684	-66.995	0.095	0.037
-223.669	98.768	0.129	0.147
-222.655	-77.080	0.291	0.100
-221.640	625.211	0.036	-0.089
-220.625	143.143	-0.195	-0.256
-219.611	274.970	0.084	-0.148
-218.596	-95.686	0.218	-0.058
-217.582	800.000	-0.068	0.257
-216.567	-10.108	0.402	-0.264
-215.552	-116.646	0.188	-0.034
-214.538	-118.744	0.315	-0.055
-213.523	78.842	0.088	0.093
-212.509	-84.305	-0.444	-0.139
-211.494	786.434	-0.018	0.049
-210.479	-80.394	0.447	-0.147
-209.465	649.946	0.035	-0.088
-208.450	-5.286	0.236	0.160
-207.436	370.651	-0.195	0.391
-206.421	203.317	-0.085	0.129
-205.406	21.953	-0.243	0.195
-204.392	-132.520	-0.236	0.030
-203.377	-33.603	-0.120	0.065
-202.363	80.860	0.317	0.337
-201.348	32.242	0.358	0.304
-200.333	65.802	-0.173	0.173
-199.319	-100.245	0.350	-0.086
-198.304	472.068	-0.078	0.173
-197.290	-123.962	-0.242	-0.038
-196.275	27.449	0.070	-0.058
-195.260	111.004	-0.087	0.104
-194.246	181.587	-0.114	0.166
-193.231	25.526	0.177	-0.145
-192.217	-65.041	-0.332	-0.132
-191.202	-200.000	0.004	-0.136
-190.187	54.496	0.120	-0.114
-189.173	-123.787	-0.086	-0.013
-188.158	-200.000	-0.028	-0.281
-187.144	118.980	0.121	-0.148
-186.129	14.255	0.319	0.245
-185.114	46.008	-0.044	0.040
-184.100	-200.000	-0.011	0.114
-183.085	41.214	0.156	0.139
-182.071	136.527	-0.100	0.128
-181.056	800.000	-0.117	-0.364
-180.042	-58.144	0.324	-0.139
-179.027	-67.688	0.092	-0.036
-178.012	-29.281	0.291	0.164
-176.998	800.000	-0.115	0.484
-175.983	-200.000	0.022	-0.212
-174.969	248.826	-0.103	0.171
-173.954	550.593	-0.150	-0.355
-172.939	12.846	-0.049	0.037
-171.925	-33.002	-0.229	-0.125
-170.910	-48.518	-0.206	0.098
-169.896	-186.341	-0.150	0.002
-168.881	495.926	-0.159	0.360
-167.866	24.610	0.289	-0.235
-166.852	-63.287	-0.081	-0.033
-165.837	-117.669	-0.246	-0.044
-164.823	-35.631	-0.062	0.033
-163.808	-200.000	-0.005	-0.070
-162.793	455.222	0.098	-0.214
-161.779	-18.121	0.293	0.181
-160.764	-21.253	0.057	-0.034
-159.750	16.786	-0.145	0.113
-158.735	192.631	0.244	0.363
-157.720	638.918	0.201	0.503
-156.706	-31.334	0.121	0.067
-155.691	-18.850	-0.253	-0.155
-154.677	-59.313	0.203	0.086
-153.662	800.000	-0.057	-0.213
-152.647	117.554	0.149	0.180
-151.633	800.000	0.061	0.204
-150.618	-4.908	-0.218	0.148
-149.604	-27.566	0.231	-0.132
-148.589	-200.000	0.023	-0.167
-147.574	-200.000	-0.148	-0.001
-146.560	800.000	0.031	-0.115
-145.545	-47.959	-0.258	0.123
-144.531	589.869	-0.017	0.041
-143.516	81.147	0.141	0.149
-142.502	-151.255	-0.326	-0.024
-141.487	-200.000	-0.010	0.268
-140.472	100.092	0.121	-0.138
-139.458	-200.000	-0.037	-0.309
-138.443	-90.842	-0.287	0.081
-137.429	483.649	0.138	0.309
-136.414	-53.048	-0.198	-0.090
-135.399	-20.323	0.160	0.097
-134.385	800.000	0.094	0.272
-133.370	800.000	0.057	-0.186
-132.356	-28.953	-0.616	-0.348
-131.341	-25.011	0.065	0.038
-130.326	-165.031	0.077	0.003
-129.312	-126.359	0.082	0.012
-128.297	49.345	0.442	-0.408
-127.283	137.596	-0.124	0.160
-126.268	-175.237	0.177	-0.005
-125.253	20.280	-0.100	-0.079
-124.239	-27.905	0.134	0.076
-123.224	-9.578	0.045	0.029
-122.210	315.370	-0.168	0.311
-121.195	-112.064	0.368	0.073
