DTS Sentinel unit serial number:	SN413079Multiplexer serial number:	ORYXHardware model number:	OX4-SRSoftware version number:	ORYX F/W v4.00 Oryx Data Collector v3.7.2.0data status	okinstallation	princeton_trtdifferential loss correction	single-endedforward channel	channel 1reverse channel	N/Adate	2019/09/14time	02:14:36forward acquisition time	60.00reverse acquisition time	0.00gamma	496.2192k internal	0.2336k external	0.2336temperature offset calibration	1.0076default loss term (dB/km)	0.3790temperature slope calibration	1.0000multiplexer offset coefficient	1.0000multiplexer slope coefficient	1.0000fibre end	0.00T internal ref (°C)	26.50T ext. ref 1 (°C)	3.21T ext. ref 2 (°C)	21.46length (m)	temperature (°C)	Stokes	anti-Stokes-747.200	486.841	0.018	0.042
-746.185	93.130	-0.173	0.197
-745.171	800.000	0.049	0.141
-744.156	-66.558	-0.134	-0.053
-743.142	-46.128	0.266	-0.132
-742.127	-137.916	-0.103	-0.012
-741.112	-172.199	0.161	0.005
-740.098	-100.512	-0.051	-0.013
-739.083	-54.513	-0.143	0.065
-738.069	-108.274	-0.321	0.070
-737.054	422.243	-0.013	-0.027
-736.039	-25.671	-0.451	0.267
-735.025	11.133	0.160	0.122
-734.010	-77.639	-0.364	0.127
-732.996	668.650	-0.070	0.183
-731.981	-47.647	-0.176	0.086
-730.966	-120.738	-0.269	-0.046
-729.952	-60.201	-0.148	0.063
-728.937	-14.601	-0.364	-0.235
-727.923	6.386	-0.056	-0.042
-726.908	142.811	0.281	-0.374
-725.894	139.066	-0.228	-0.301
-724.879	5.060	0.048	0.035
-723.864	114.410	0.090	-0.110
-722.850	-21.210	-0.158	0.097
-721.835	-9.721	-0.195	-0.130
-720.821	800.000	0.028	0.082
-719.806	800.000	-0.080	-0.231
-718.791	-200.000	0.026	-0.159
-717.777	18.049	-0.151	-0.121
-716.762	5.078	0.242	-0.179
-715.748	-15.681	-0.254	-0.162
-714.733	-130.404	-0.315	0.043
-713.718	-200.000	-0.007	0.243
-712.704	-69.966	0.291	-0.111
-711.689	589.359	-0.023	0.057
-710.675	691.779	0.090	-0.235
-709.660	-40.416	0.196	-0.102
-708.645	-89.897	-0.157	-0.046
-707.631	10.940	-0.173	-0.132
-706.616	744.657	-0.028	0.075
-705.602	-200.000	-0.051	-0.255
-704.587	110.485	0.174	-0.210
-703.572	-68.619	-0.215	-0.084
-702.558	-108.583	-0.143	-0.031
-701.543	-167.871	0.171	0.007
-700.529	135.131	-0.078	-0.101
-699.514	-200.000	0.007	-0.030
-698.499	-107.227	-0.248	0.055
-697.485	24.169	-0.187	0.155
-696.470	91.963	-0.157	-0.177
-695.456	800.000	0.116	-0.400
-694.441	-119.670	0.251	-0.043
-693.426	-162.313	-0.293	-0.015
-692.412	-124.737	-0.194	0.030
-691.397	-200.000	-0.001	-0.405
-690.383	-200.000	0.001	-0.015
-689.368	475.088	-0.068	0.153
-688.354	-200.000	-0.046	0.368
-687.339	-133.503	-0.108	-0.014
-686.324	210.788	0.083	-0.130
-685.310	17.282	0.172	-0.137
-684.295	800.000	0.045	-0.134
-683.281	719.989	-0.058	0.154
-682.266	800.000	0.039	-0.122
-681.251	-200.000	0.036	0.213
-680.237	29.916	0.031	0.026
-679.222	-200.000	-0.020	-0.126
-678.208	7.947	0.344	-0.259
-677.193	101.079	-0.076	0.089
-676.178	5.497	0.239	-0.177
-675.164	800.000	0.045	-0.167
-674.149	-117.172	-0.018	-0.003
-673.135	-46.109	-0.106	0.052
-672.120	-169.444	-0.219	0.008
-671.105	381.044	-0.096	-0.197
-670.091	80.969	-0.226	0.244
-669.076	-200.000	0.024	0.162
-668.062	88.641	0.041	-0.046
-667.047	-107.938	0.144	0.031
-666.032	-200.000	0.012	-0.195
-665.018	641.137	-0.055	0.139
-664.003	800.000	0.041	-0.150
-662.989	-103.785	0.243	-0.057
-661.974	556.121	0.155	0.373
-660.959	35.479	-0.258	-0.227
-659.945	-24.402	0.196	0.117
-658.930	124.136	-0.124	-0.156
-657.916	-55.717	-0.257	0.115
-656.901	685.506	0.114	0.297
-655.886	437.882	-0.054	0.118
-654.872	-111.753	-0.162	-0.033
-653.857	13.045	0.228	0.176
-652.843	-200.000	0.032	-0.167
-651.828	-126.855	-0.215	-0.032
-650.814	-124.709	-0.221	0.034
-649.799	-200.000	-0.002	0.015
-648.784	98.016	0.127	-0.146
-647.770	-119.405	-0.073	-0.013
-646.755	175.531	0.139	0.201
-645.741	-140.060	-0.254	-0.027
-644.726	628.145	-0.067	-0.168
-643.711	-168.061	-0.278	-0.011
-642.697	800.000	0.105	0.343
-641.682	-23.827	-0.110	0.066
-640.668	-149.469	-0.508	-0.040
-639.653	346.190	0.005	0.010
-638.638	800.000	0.051	0.145
-637.624	271.740	0.121	0.214
-636.609	291.456	-0.109	0.198
-635.595	99.189	0.111	-0.128
-634.580	-148.272	0.219	-0.018
-633.565	-43.074	0.081	0.041
-632.551	13.110	0.128	-0.099
-631.536	603.443	-0.030	-0.076
-630.522	-80.800	-0.181	-0.060
-629.507	-200.000	0.052	-0.293
-628.492	800.000	-0.074	-0.249
-627.478	-2.764	0.151	-0.106
-626.463	-200.000	0.005	0.163
-625.449	77.498	-0.218	0.232
-624.434	-72.391	0.311	-0.115
-623.419	-55.117	-0.033	-0.015
-622.405	-87.603	-0.115	-0.035
-621.390	-68.784	0.360	0.139
-620.376	800.000	0.070	-0.265
-619.361	793.140	0.066	0.182
-618.346	128.066	-0.103	-0.131
-617.332	387.626	0.116	-0.240
-616.317	-42.572	0.103	0.052
-615.303	-59.983	-0.250	0.107
-614.288	21.256	-0.129	-0.105
-613.273	-25.469	0.223	-0.132
-612.259	32.963	-0.205	0.178
-611.244	800.000	0.031	-0.106
-610.230	98.845	0.184	-0.212
-609.215	-200.000	-0.019	-0.130
-608.201	468.723	-0.059	-0.131
-607.186	15.582	0.058	-0.045
-606.171	326.320	-0.086	-0.164
-605.157	-68.478	-0.112	0.043
-604.142	-200.000	-0.021	0.196
-603.128	-6.954	0.185	0.126
-602.113	180.403	-0.246	-0.361
-601.098	17.159	-0.168	0.133
-600.084	-153.678	0.167	0.011
-599.069	800.000	0.071	0.239
-598.055	-4.943	-0.207	-0.143
-597.040	212.048	0.050	-0.078
-596.025	12.126	0.115	-0.089
-595.011	207.782	0.197	-0.307
-593.996	-200.000	-0.035	0.240
-592.982	-34.205	-0.282	0.155
-591.967	-200.000	-0.001	-0.115
-590.952	-200.000	0.045	0.474
-589.938	-194.097	-0.082	-0.001
-588.923	-28.745	0.062	0.035
-587.909	-23.593	-0.235	-0.141
-586.894	-29.669	0.177	0.101
-585.879	-45.201	0.132	-0.066
-584.865	-147.281	0.058	0.005
-583.850	371.584	0.150	-0.304
-582.836	-68.336	-0.525	-0.204
-581.821	-91.106	-0.064	-0.018
-580.806	-66.878	-0.234	-0.092
-579.792	563.274	-0.047	-0.113
-578.777	-34.315	0.259	0.142
-577.763	375.469	0.102	0.207
-576.748	-200.000	0.014	-0.287
-575.733	-109.719	-0.143	0.030
-574.719	-147.018	0.095	-0.008
-573.704	-140.988	-0.498	0.051
-572.690	44.207	-0.125	-0.114
-571.675	12.920	-0.108	-0.083
-570.661	800.000	0.068	-0.284
-569.646	98.053	-0.193	0.222
-568.631	64.190	-0.102	0.103
-567.617	-45.970	0.124	0.061
-566.602	-77.418	-0.377	0.131
-565.588	306.514	-0.045	-0.083
-564.573	-150.987	-0.166	0.012
-563.558	644.081	0.057	0.145
-562.544	-200.000	-0.008	-0.169
-561.529	-200.000	-0.037	-0.355
-560.515	-200.000	-0.004	0.338
-559.500	-89.119	0.085	-0.025
-558.485	-176.393	0.258	0.007
-557.471	-200.000	-0.073	0.329
-556.456	601.222	-0.073	-0.181
-555.442	-152.209	-0.450	-0.032
-554.427	-124.040	0.100	0.016
-553.412	800.000	-0.087	0.375
-552.398	-200.000	-0.003	0.025
-551.383	-109.302	-0.177	-0.037
-550.369	-121.400	0.081	0.013
-549.354	-112.056	0.110	-0.022
-548.339	-17.819	-0.132	-0.082
-547.325	97.942	-0.183	-0.210
-546.310	-107.957	-0.553	0.120
-545.296	800.000	0.053	-0.153
-544.281	-81.449	-0.226	0.074
-543.266	-125.837	-0.320	-0.048
-542.252	-51.580	-0.039	-0.018
-541.237	-107.243	0.102	0.022
-540.223	-61.811	0.065	-0.027
-539.208	103.926	0.103	-0.120
-538.193	203.510	0.092	-0.142
-537.179	-200.000	0.014	0.108
-536.164	129.328	0.177	-0.225
-535.150	606.258	0.056	-0.139
-534.135	374.138	0.053	-0.107
-533.121	-100.686	-0.079	-0.019
-532.106	-200.000	-0.005	0.316
-531.091	86.779	-0.087	0.095
-530.077	-132.864	0.170	0.022
-529.062	-148.158	-0.197	-0.016
-528.048	135.150	-0.119	0.155
-527.033	408.903	0.083	-0.176
-526.018	800.000	-0.104	0.299
-525.004	-116.595	-0.209	-0.038
-523.989	714.183	0.078	-0.207
-522.975	-8.539	-0.077	0.051
-521.960	142.171	0.098	0.130
-520.945	800.000	-0.039	0.131
-519.931	52.060	0.119	0.113
-518.916	124.283	-0.257	-0.321
-517.902	800.000	0.088	-0.280
-516.887	800.000	-0.035	0.131
-515.872	-1.674	0.299	0.210
-514.858	-200.000	-0.001	-0.048
-513.843	59.891	-0.228	0.224
-512.829	42.057	0.355	-0.320
-511.814	800.000	0.091	0.275
-510.799	-181.420	-0.134	-0.003
-509.785	-195.996	0.549	-0.004
-508.770	-49.006	0.168	-0.080
-507.756	120.670	0.214	-0.264
-506.741	254.364	-0.058	-0.099
-505.726	-200.000	-0.033	0.345
-504.712	428.903	0.094	0.203
-503.697	568.567	0.181	-0.437
-502.683	-200.000	-0.027	-0.224
-501.668	115.090	-0.174	0.211
-500.653	98.009	-0.101	0.116
-499.639	-67.261	0.601	-0.235
-498.624	73.750	0.210	0.218
-497.610	800.000	0.099	-0.391
-496.595	-72.330	0.118	-0.043
-495.581	222.049	-0.087	-0.139
-494.566	495.013	-0.097	-0.222
-493.551	143.271	0.095	0.126
-492.537	-200.000	-0.004	-0.304
-491.522	-107.977	-0.210	-0.045
-490.508	-200.000	0.087	0.000
-489.493	229.829	0.143	0.233
-488.478	39.809	-0.019	-0.017
-487.464	35.858	0.369	0.323
-486.449	422.855	-0.092	-0.196
-485.435	800.000	0.042	0.138
-484.420	173.915	-0.027	0.039
-483.405	-124.465	-0.006	-0.001
-482.391	15.480	0.271	-0.212
-481.376	-200.000	-0.047	0.216
-480.362	122.033	-0.242	0.300
-479.347	-90.566	-0.324	0.093
-478.332	800.000	-0.069	0.214
-477.318	-98.129	0.377	-0.096
-476.303	-92.186	0.317	0.089
-475.289	265.168	-0.153	0.265
-474.274	-97.904	0.152	-0.039
-473.259	-108.814	0.129	0.027
-472.245	-48.692	0.122	-0.058
-471.230	54.940	-0.093	0.089
-470.216	72.021	0.281	-0.290
-469.201	-200.000	-0.023	0.225
-468.186	800.000	0.024	0.080
-467.172	-67.686	-0.151	-0.059
-466.157	-79.454	-0.141	-0.047
-465.143	-24.101	-0.158	-0.094
-464.128	-118.177	0.312	0.055
-463.113	-200.000	-0.013	0.335
-462.099	-70.801	0.113	0.043
-461.084	22.763	0.113	-0.092
-460.070	-200.000	-0.013	0.107
-459.055	42.229	-0.241	-0.217
-458.040	-200.000	-0.016	0.215
-457.026	-77.658	-0.092	-0.032
-456.011	169.358	0.064	0.090
-454.997	-177.394	-0.200	-0.005
-453.982	-153.731	-0.140	0.010
-452.968	-18.990	-0.275	-0.170
-451.953	-169.634	-0.130	0.005
-450.938	-19.743	-0.182	0.112
-449.924	-200.000	-0.086	-0.491
-448.909	58.832	-0.118	0.115
-447.895	45.777	-0.206	0.189
-446.880	-14.859	0.118	0.075
-445.865	216.329	-0.132	0.209
-444.851	-69.407	0.241	-0.092
-443.836	109.922	-0.147	-0.175
-442.822	71.300	0.223	0.229
-441.807	800.000	-0.035	0.128
-440.792	-100.242	-0.414	0.102
-439.778	-159.902	0.282	0.015
-438.763	12.431	-0.108	-0.082
-437.749	274.799	0.044	0.078
-436.734	284.668	0.138	-0.246
-435.719	-77.385	0.130	0.045
-434.705	131.409	-0.221	0.282
-433.690	-48.103	0.099	0.047
-432.676	120.999	0.128	-0.157
-431.661	-78.413	-0.216	-0.073
-430.646	-200.000	-0.006	-0.192
-429.632	-19.700	-0.273	0.168
-428.617	104.708	-0.126	0.148
-427.603	-28.780	-0.107	0.061
-426.588	-114.393	0.389	0.074
-425.573	-192.810	0.122	0.001
-424.559	-58.578	-0.156	0.067
-423.544	95.686	-0.135	-0.153
-422.530	-200.000	-0.016	0.106
-421.515	2.211	-0.082	0.059
-420.500	-170.767	0.287	0.010
-419.486	-80.118	-0.201	0.067
-418.471	449.177	-0.138	0.301
-417.457	369.012	0.111	0.223
-416.442	-61.042	-0.094	-0.039
-415.428	-200.000	-0.009	0.113
-414.413	62.044	-0.248	0.245
-413.398	110.814	0.071	-0.085
-412.384	-76.343	-0.347	0.121
-411.369	59.209	-0.203	-0.198
-410.355	286.345	-0.115	0.206
-409.340	516.746	0.034	0.079
-408.325	-10.974	0.177	-0.116
-407.311	-102.535	-0.326	0.077
-406.296	-56.947	0.414	0.181
-405.282	-155.552	-0.478	0.030
-404.267	282.637	0.146	0.259
-403.252	194.316	0.249	-0.374
-402.238	234.328	-0.110	0.180
-401.223	-142.045	-0.065	0.006
-400.209	164.796	-0.012	0.016
-399.194	54.241	-0.252	-0.241
-398.179	800.000	-0.015	-0.045
-397.165	166.715	-0.138	0.194
-396.150	-55.481	0.236	-0.105
-395.136	-25.081	0.192	-0.113
-394.121	-174.027	-0.383	-0.011
-393.106	63.873	0.198	-0.197
-392.092	-127.844	0.237	-0.034
-391.077	504.298	-0.122	-0.279
-390.063	38.745	0.138	0.122
-389.048	-101.238	-0.255	0.062
-388.033	-200.000	0.018	-0.217
-387.019	-151.801	-0.324	0.024
-386.004	-82.931	0.266	0.085
-384.990	150.657	0.171	-0.230
-383.975	-171.154	-0.040	-0.001
-382.960	-37.204	-0.076	0.040
-381.946	800.000	0.033	0.139
-380.931	-132.260	0.153	0.020
-379.917	-200.000	-0.014	-0.185
-378.902	48.854	0.075	0.070
-377.888	-123.679	-0.224	0.035
-376.873	147.996	0.206	0.275
-375.858	33.196	-0.142	-0.122
-374.844	114.986	-0.278	0.336
-373.829	-33.267	-0.179	0.098
-372.815	-200.000	-0.002	0.191
-371.800	142.314	0.290	-0.381
-370.785	46.093	0.108	-0.099
-369.771	-54.044	-0.265	-0.119
-368.756	-200.000	0.020	0.171
-367.742	-11.066	-0.043	-0.028
-366.727	-172.164	0.254	-0.008
-365.712	150.977	-0.102	0.138
-364.698	128.644	0.034	-0.042
-363.683	-200.000	-0.038	0.175
-362.669	-111.131	-0.135	-0.027
-361.654	318.552	-0.122	0.229
-360.639	31.413	0.301	0.256
-359.625	-49.306	-0.258	0.122
-358.610	-100.693	0.244	0.059
-357.596	570.202	0.130	-0.313
-356.581	-24.143	0.391	-0.231
-355.566	-120.843	-0.222	-0.037
-354.552	590.555	0.072	0.176
-353.537	-200.000	-0.007	-0.160
-352.523	-171.402	0.340	-0.011
-351.508	438.888	-0.081	-0.174
-350.493	84.563	0.233	-0.252
-349.479	43.289	-0.186	-0.168
-348.464	-200.000	-0.014	0.101
-347.450	-131.257	0.236	-0.031
-346.435	-130.202	-0.249	0.033
-345.420	-17.422	-0.161	0.100
-344.406	219.772	-0.102	-0.161
-343.391	-122.242	0.179	0.029
-342.377	800.000	0.160	0.678
-341.362	78.656	-0.017	-0.018
-340.348	10.848	0.128	0.097
-339.333	-73.141	0.019	-0.007
-338.318	32.757	-0.247	-0.211
-337.304	138.144	0.266	0.345
-336.289	-150.596	0.170	0.013
-335.275	800.000	-0.062	-0.265
-334.260	740.849	-0.177	0.470
-333.245	100.880	0.283	0.326
-332.231	-48.481	0.242	0.115
-331.216	93.268	0.330	-0.369
-330.202	-6.761	0.361	-0.242
-329.187	3.761	-0.174	0.125
-328.172	-123.051	-0.233	0.037
-327.158	96.962	-0.277	-0.314
-326.143	-20.688	0.147	0.089
-325.129	-200.000	0.033	0.228
-324.114	-200.000	0.041	0.208
-323.099	-200.000	-0.022	0.255
-322.085	63.205	0.102	-0.101
-321.070	-79.699	-0.488	-0.162
-320.056	441.712	0.174	-0.376
-319.041	-200.000	-0.005	-0.201
-318.026	-14.116	0.324	-0.207
-317.012	-200.000	0.016	0.090
-315.997	-174.304	0.356	-0.010
-314.983	78.503	-0.168	-0.177
-313.968	800.000	-0.082	0.291
-312.953	489.360	0.054	0.122
-311.939	-142.999	0.190	-0.018
-310.924	444.468	-0.078	-0.168
-309.910	-5.965	0.250	-0.169
-308.895	-15.499	0.487	-0.307
-307.880	800.000	-0.047	-0.204
-306.866	106.575	-0.014	0.016
-305.851	15.773	-0.183	-0.142
-304.837	-200.000	0.029	-0.189
-303.822	47.426	0.231	-0.213
-302.807	675.270	0.099	-0.254
-301.793	222.970	0.154	0.245
-300.778	-200.000	0.028	-0.284
-299.764	-90.404	0.178	-0.051
-298.749	800.000	-0.120	0.383
-297.735	65.251	-0.199	-0.199
-296.720	800.000	0.050	0.137
-295.705	-200.000	0.011	0.470
-294.691	188.187	0.119	0.175
-293.676	800.000	0.148	0.406
-292.662	-31.833	-0.076	-0.042
-291.647	-14.989	-0.237	-0.150
-290.632	800.000	0.072	0.226
-289.618	-29.668	-0.198	-0.112
-288.603	-115.085	0.409	0.077
-287.589	-11.007	0.256	0.166
-286.574	31.417	-0.079	0.067
-285.559	75.269	-0.055	0.057
-284.545	-104.198	-0.180	0.041
-283.530	143.631	-0.165	0.217
-282.516	54.331	-0.160	0.152
-281.501	77.314	-0.222	0.233
-280.486	-110.189	0.082	0.017
-279.472	29.954	0.092	-0.077
-278.457	123.110	0.085	-0.105
-277.443	-142.901	-0.564	-0.054
-276.428	-166.553	-0.296	0.012
-275.413	360.250	-0.189	0.373
-274.399	-33.235	0.096	0.052
-273.384	19.674	-0.087	-0.069
-272.370	-200.000	-0.010	0.184
-271.355	-113.827	0.109	0.021
-270.340	101.607	-0.191	-0.219
-269.326	282.921	-0.130	0.230
-268.311	-118.662	-0.419	-0.073
-267.297	24.705	0.316	0.258
-266.282	420.801	-0.135	-0.285
-265.267	-33.084	-0.155	0.085
-264.253	-196.740	0.251	0.002
-263.238	194.269	-0.098	-0.146
-262.224	30.592	0.284	-0.239
-261.209	-200.000	0.012	0.072
-260.195	16.320	0.234	-0.182
-259.180	84.421	0.126	-0.136
-258.165	6.344	0.291	-0.213
-257.151	800.000	0.096	0.281
-256.136	-200.000	0.004	0.151
-255.122	800.000	0.132	-0.387
-254.107	800.000	0.054	-0.180
-253.092	-7.668	0.256	-0.171
-252.078	-200.000	-0.019	0.202
-251.063	-188.841	-0.118	-0.001
-250.049	289.059	0.104	0.185
-249.034	-0.196	0.178	-0.125
-248.019	18.003	-0.093	-0.073
-247.005	48.491	0.027	0.025
-245.990	697.274	0.094	-0.243
-244.976	800.000	-0.052	-0.164
-243.961	102.964	-0.074	0.086
-242.946	-186.720	0.274	-0.004
-241.932	-67.103	-0.278	0.108
-240.917	800.000	-0.033	0.130
-239.903	-38.508	-0.298	-0.155
-238.888	81.039	0.284	0.302
-237.873	-101.321	0.167	-0.040
-236.859	-200.000	0.049	-0.215
-235.844	279.506	-0.133	-0.234
-234.830	-200.000	0.002	0.168
-233.815	-33.111	-0.132	0.072
-232.800	800.000	-0.069	0.265
-231.786	185.834	0.079	0.116
-230.771	-7.549	0.097	0.065
-229.757	-200.000	0.036	-0.267
-228.742	42.053	0.291	0.260
-227.727	55.618	0.021	-0.020
-226.713	266.458	0.138	0.237
-225.698	-106.490	0.321	0.071
-224.684	-72.438	0.231	0.084
-223.669	-200.000	0.032	-0.278
-222.655	76.794	-0.071	-0.074
-221.640	85.455	0.233	-0.252
-220.625	-192.455	-0.088	0.001
-219.611	183.279	0.191	-0.278
-218.596	7.449	-0.241	0.177
-217.582	-200.000	0.027	-0.363
-216.567	287.297	0.052	-0.093
-215.552	-148.282	-0.165	0.013
-214.538	-106.222	0.302	0.067
-213.523	-200.000	0.048	0.255
-212.509	123.049	0.111	0.136
-211.494	534.488	-0.097	-0.226
-210.479	139.120	0.166	0.215
-209.465	-167.406	-0.196	0.008
-208.450	325.697	-0.020	0.037
-207.436	-200.000	0.026	-0.124
-206.421	769.824	-0.105	-0.281
-205.406	-190.342	-0.304	0.003
-204.392	-200.000	0.008	0.081
-203.377	-200.000	0.023	0.301
-202.363	-200.000	-0.001	-0.169
-201.348	10.046	-0.150	-0.112
-200.333	272.321	-0.031	0.053
-199.319	-200.000	-0.021	-0.235
-198.304	113.643	-0.161	-0.193
-197.290	-200.000	0.025	0.293
-196.275	71.449	-0.233	-0.238
-195.260	284.142	-0.102	-0.180
-194.246	-200.000	0.008	-0.121
-193.231	-200.000	-0.003	0.068
-192.217	-176.519	-0.238	-0.006
-191.202	-89.934	0.173	0.050
-190.187	-75.573	0.475	-0.166
-189.173	800.000	-0.040	-0.127
-188.158	740.784	-0.087	-0.230
-187.144	-105.603	0.044	0.010
-186.129	237.911	0.154	0.252
-185.114	800.000	-0.052	-0.209
-184.100	-200.000	-0.014	0.263
-183.085	-113.428	0.311	0.060
-182.071	-200.000	-0.001	-0.140
-181.056	-95.740	-0.272	0.071
-180.042	-66.099	-0.409	-0.160
-179.027	94.383	0.113	-0.127
-178.012	478.159	-0.131	-0.292
-176.998	-98.096	-0.191	-0.048
-175.983	800.000	0.012	0.047
-174.969	9.431	0.147	0.109
-173.954	32.746	0.128	-0.109
-172.939	236.307	0.039	-0.063
-171.925	31.777	-0.116	0.098
-170.910	-130.661	0.123	-0.016
-169.896	-144.700	0.287	0.026
-168.881	-37.807	-0.092	0.048
-167.866	-200.000	0.059	-0.384
-166.852	-140.514	0.237	0.024
-165.837	542.857	-0.110	0.258
-164.823	-194.605	-0.229	-0.002
-163.808	115.764	-0.098	-0.118
-162.793	-200.000	0.021	-0.114
-161.779	19.997	-0.233	-0.185
-160.764	118.374	-0.057	-0.069
-159.750	31.367	-0.081	-0.069
-158.735	-8.840	0.203	0.134
-157.720	-51.734	0.446	-0.204
-156.706	74.854	-0.195	0.201
-155.691	-87.382	0.082	0.024
-154.677	-142.520	0.294	0.028
-153.662	-115.787	-0.400	0.073
-152.647	-200.000	0.019	0.109
-151.633	-200.000	-0.105	0.466
-150.618	353.557	-0.144	0.281
-149.604	8.538	0.142	-0.105
-148.589	755.283	0.106	0.280
-147.574	-189.886	-0.340	0.004
-146.560	59.602	0.258	0.250
-145.545	-131.419	0.283	-0.037
-144.531	-90.132	-0.239	-0.068
-143.516	-141.578	0.164	-0.016
-142.502	140.492	-0.155	0.201
-141.487	151.172	0.189	-0.253
-140.472	-91.013	-0.030	0.008
-139.458	-200.000	-0.012	-0.245
-138.443	-139.266	0.203	0.021
-137.429	247.421	-0.096	-0.159
-136.414	800.000	0.057	0.160
-135.399	800.000	-0.123	-0.353
-134.385	-13.694	0.241	-0.153
-133.370	76.438	0.091	0.095
-132.356	-151.136	0.202	0.015
-131.341	22.667	0.087	-0.070
-130.326	-200.000	-0.013	0.103
-129.312	-40.801	0.297	0.151
-128.297	219.160	-0.036	0.056
-127.283	206.549	0.054	0.083
-126.268	336.312	0.148	0.282
-125.253	208.180	0.206	0.315
-124.239	-9.788	-0.127	-0.083
-123.224	-198.523	0.279	0.002
-122.210	-200.000	0.033	0.195
-121.195	224.453	0.123	0.195
