DTS Sentinel unit serial number:	SN413079Multiplexer serial number:	ORYXHardware model number:	OX4-SRSoftware version number:	ORYX F/W v4.00 Oryx Data Collector v3.7.2.0data status	okinstallation	princeton_trtdifferential loss correction	single-endedforward channel	channel 1reverse channel	N/Adate	2019/09/11time	13:00:11forward acquisition time	60.00reverse acquisition time	0.00gamma	496.2192k internal	0.2295k external	0.2295temperature offset calibration	0.9943default loss term (dB/km)	0.3790temperature slope calibration	1.0000multiplexer offset coefficient	1.0000multiplexer slope coefficient	1.0000fibre end	0.00T internal ref (°C)	41.56T ext. ref 1 (°C)	0.22T ext. ref 2 (°C)	38.67length (m)	temperature (°C)	Stokes	anti-Stokes-747.200	-200.000	-0.002	-0.130
-746.185	-15.122	-0.205	0.134
-745.171	-200.000	0.028	-0.145
-744.156	-167.327	-0.096	0.004
-743.142	-200.000	0.025	-0.148
-742.127	-200.000	0.052	0.237
-741.112	-47.053	0.051	0.025
-740.098	-84.018	-0.219	0.071
-739.083	-67.560	-0.152	0.061
-738.069	-89.004	-0.094	-0.029
-737.054	-197.398	0.084	0.001
-736.039	-124.430	-0.258	-0.041
-735.025	-78.806	-0.231	0.081
-734.010	119.360	-0.157	-0.199
-732.996	-200.000	0.007	-0.064
-731.981	-91.341	-0.310	0.090
-730.966	-152.119	-0.339	0.025
-729.952	539.822	0.065	-0.157
-728.937	17.596	-0.103	0.084
-727.923	800.000	-0.109	0.322
-726.908	-200.000	-0.012	-0.103
-725.894	-184.128	0.039	-0.001
-724.879	-188.859	0.351	-0.004
-723.864	-164.404	-0.266	0.012
-722.850	-9.285	-0.202	-0.138
-721.835	800.000	0.025	0.081
-720.821	94.204	0.098	-0.114
-719.806	112.149	0.100	-0.124
-718.791	800.000	0.023	0.071
-717.777	-200.000	-0.038	-0.313
-716.762	-38.083	0.079	-0.043
-715.748	800.000	-0.104	-0.293
-714.733	227.196	0.230	-0.381
-713.718	96.336	-0.152	-0.178
-712.704	57.930	-0.222	-0.222
-711.689	800.000	-0.054	0.213
-710.675	191.273	-0.143	0.220
-709.660	-200.000	0.006	0.155
-708.645	-30.296	0.103	0.059
-707.631	-200.000	-0.020	0.096
-706.616	90.150	0.154	-0.175
-705.602	800.000	-0.099	0.325
-704.587	-136.885	-0.170	-0.020
-703.572	-1.955	-0.033	-0.024
-702.558	521.517	-0.081	0.195
-701.543	-200.000	-0.019	0.143
-700.529	26.591	-0.204	-0.174
-699.514	-47.794	-0.216	0.107
-698.499	-200.000	0.005	0.375
-697.485	549.685	-0.048	0.118
-696.470	216.612	-0.033	0.054
-695.456	-120.222	-0.217	-0.038
-694.441	795.847	0.058	0.164
-693.426	20.575	0.160	0.132
-692.412	-128.016	-0.543	-0.079
-691.397	-22.107	0.226	-0.140
-690.383	85.708	-0.065	-0.073
-689.368	9.498	-0.223	-0.172
-688.354	-72.826	-0.208	-0.078
-687.339	800.000	0.047	-0.148
-686.324	-200.000	-0.052	0.380
-685.310	-0.274	0.215	-0.156
-684.295	-82.377	-0.400	0.133
-683.281	-98.751	0.252	0.066
-682.266	-200.000	0.020	0.204
-681.251	204.606	-0.080	-0.127
-680.237	-200.000	-0.042	0.275
-679.222	800.000	-0.023	0.077
-678.208	-200.000	0.028	-0.235
-677.193	-65.028	-0.048	0.020
-676.178	-58.225	-0.087	0.039
-675.164	800.000	0.075	-0.229
-674.149	48.147	0.203	-0.194
-673.135	800.000	0.008	0.026
-672.120	-14.329	0.265	0.174
-671.105	-108.237	0.219	0.048
-670.091	-200.000	-0.025	-0.178
-669.076	-52.439	0.130	0.062
-668.062	-171.901	0.316	0.010
-667.047	800.000	-0.090	-0.320
-666.032	-37.921	0.392	0.212
-665.018	-200.000	0.026	0.204
-664.003	-189.959	0.173	-0.002
-662.989	-37.403	0.230	-0.125
-661.974	-141.280	-0.249	0.026
-660.959	422.989	0.134	0.293
-659.945	-38.559	-0.338	0.182
-658.930	-34.039	0.238	-0.133
-657.916	-200.000	-0.015	0.305
-656.901	-8.122	-0.049	0.034
-655.886	629.113	-0.114	0.293
-654.872	-200.000	-0.004	0.096
-653.857	796.988	0.076	-0.214
-652.843	-97.464	-0.152	-0.040
-651.828	388.619	-0.125	0.264
-650.814	-159.167	-0.053	-0.003
-649.799	439.823	0.109	0.243
-648.784	800.000	0.049	0.185
-647.770	-164.767	0.328	-0.015
-646.755	-200.000	0.046	0.253
-645.741	-26.629	-0.331	-0.198
-644.726	-200.000	0.026	0.209
-643.711	-111.659	-0.058	-0.012
-642.697	-200.000	-0.011	-0.118
-641.682	-120.518	0.370	-0.064
-640.668	-200.000	0.010	0.158
-639.653	-73.952	0.087	0.032
-638.638	-109.515	0.142	-0.031
-637.624	-11.925	0.109	0.073
-636.609	-200.000	0.003	0.078
-635.595	800.000	-0.023	-0.069
-634.580	-32.344	0.183	-0.104
-633.565	253.070	-0.193	-0.335
-632.551	800.000	-0.013	-0.044
-631.536	-22.873	0.125	-0.077
-630.522	-147.155	-0.153	0.013
-629.507	-88.054	0.206	-0.063
-628.492	-104.925	-0.252	-0.059
-627.478	-59.961	-0.082	0.036
-626.463	800.000	0.020	0.063
-625.449	-200.000	-0.018	-0.313
-624.434	-139.456	-0.370	-0.040
-623.419	84.472	0.168	-0.187
-622.405	226.383	0.088	0.145
-621.390	311.809	0.112	-0.213
-620.376	-33.418	0.181	-0.102
-619.361	11.658	0.095	0.074
-618.346	58.341	-0.033	-0.033
-617.332	-13.761	0.064	0.042
-616.317	-96.388	0.327	0.088
-615.303	-4.577	-0.179	-0.126
-614.288	800.000	0.128	-0.366
-613.273	-100.272	0.249	0.063
-612.259	66.325	-0.123	-0.127
-611.244	9.227	0.066	-0.051
-610.230	75.778	-0.268	-0.289
-609.215	-200.000	-0.009	-0.093
-608.201	-123.914	-0.111	0.018
-607.186	-50.462	-0.108	-0.052
-606.171	197.768	0.123	-0.191
-605.157	-98.570	0.151	0.039
-604.142	172.027	0.174	0.254
-603.128	800.000	-0.066	-0.258
-602.113	-200.000	0.085	-0.413
-601.098	-86.338	0.188	-0.059
-600.084	-64.010	0.133	0.055
-599.069	201.499	0.191	0.298
-598.055	-93.989	-0.214	-0.060
-597.040	96.960	0.078	-0.091
-596.025	-200.000	-0.001	-0.029
-595.011	-53.119	0.169	-0.079
-593.996	-40.460	0.186	0.098
-592.982	-109.164	-0.182	0.039
-591.967	-147.665	0.159	-0.014
-590.952	800.000	-0.044	0.180
-589.938	-38.546	0.174	-0.093
-588.923	-200.000	-0.034	0.181
-587.909	520.043	-0.093	-0.223
-586.894	-101.094	-0.118	0.029
-585.879	-39.995	0.207	-0.110
-584.865	-45.669	0.222	-0.112
-583.850	-200.000	0.041	-0.244
-582.836	147.626	-0.163	0.223
-581.821	800.000	0.035	0.151
-580.806	110.517	-0.224	-0.273
-579.792	-135.452	-0.138	0.017
-578.777	-200.000	0.010	0.280
-577.763	46.408	0.293	0.276
-576.748	152.308	-0.182	-0.252
-575.733	657.778	-0.059	-0.153
-574.719	-83.250	0.189	0.062
-573.704	-200.000	-0.032	-0.193
-572.690	102.813	0.275	0.327
-571.675	77.394	0.099	0.107
-570.661	800.000	-0.049	0.188
-569.646	800.000	-0.026	-0.091
-568.631	-200.000	0.033	-0.235
-567.617	800.000	0.030	-0.103
-566.602	800.000	0.056	-0.198
-565.588	-68.771	-0.519	0.204
-564.573	-45.064	0.214	-0.108
-563.558	-161.737	0.211	-0.011
-562.544	-66.896	0.173	-0.069
-561.529	-26.594	-0.089	-0.053
-560.515	51.496	-0.141	-0.136
-559.500	110.080	0.067	0.082
-558.485	291.116	0.226	0.416
-557.471	-87.779	-0.057	-0.017
-556.456	86.241	-0.026	0.029
-555.442	23.740	0.135	-0.113
-554.427	511.278	0.057	-0.134
-553.412	59.503	0.132	-0.132
-552.398	499.962	-0.050	0.117
-551.383	62.777	-0.085	0.087
-550.369	-200.000	0.003	-0.070
-549.354	800.000	0.108	-0.367
-548.339	-57.986	-0.250	-0.111
-547.325	-200.000	0.025	0.236
-546.310	593.731	-0.060	0.149
-545.296	86.691	-0.047	-0.052
-544.281	-200.000	0.073	0.323
-543.266	27.740	-0.028	0.024
-542.252	-186.831	-0.140	-0.002
-541.237	435.813	-0.152	-0.334
-540.223	146.856	-0.239	-0.325
-539.208	-200.000	0.029	0.169
-538.193	-102.684	-0.167	-0.040
-537.179	-200.000	-0.021	-0.144
-536.164	-44.266	-0.100	0.051
-535.150	232.135	-0.028	-0.047
-534.135	-136.330	0.033	-0.004
-533.121	-25.059	0.148	-0.089
-532.106	283.806	-0.033	0.060
-531.091	-67.189	0.352	0.141
-530.077	382.803	-0.128	-0.267
-529.062	-90.071	0.139	0.041
-528.048	65.426	-0.232	-0.238
-527.033	-80.190	-0.299	0.101
-526.018	-111.167	-0.266	-0.055
-525.004	-33.020	-0.092	0.052
-523.989	225.354	-0.139	-0.228
-522.975	109.515	-0.258	-0.313
-521.960	32.097	-0.226	0.198
-520.945	-29.247	0.198	-0.115
-519.931	-5.106	-0.093	0.065
-518.916	248.127	-0.113	0.193
-517.902	-200.000	-0.022	-0.162
-516.887	29.783	-0.233	-0.201
-515.872	-129.364	-0.365	-0.051
-514.858	800.000	0.034	-0.125
-513.843	-54.471	0.176	-0.081
-512.829	-94.740	0.213	-0.059
-511.814	217.904	0.178	0.288
-510.799	-151.773	-0.081	0.006
-509.785	436.898	-0.127	0.280
-508.770	715.759	0.091	0.245
-507.756	-200.000	0.021	-0.209
-506.741	470.297	0.073	0.165
-505.726	509.990	0.083	0.196
-504.712	-29.084	0.041	0.024
-503.697	-200.000	-0.022	-0.614
-502.683	-200.000	0.008	0.460
-501.668	125.578	0.169	0.216
-500.653	-108.897	0.344	-0.074
-499.639	84.728	0.315	0.350
-498.624	162.637	0.079	-0.112
-497.610	64.022	-0.142	0.145
-496.595	-37.560	0.217	-0.117
-495.581	192.349	-0.017	0.026
-494.566	-33.850	-0.187	-0.105
-493.551	-96.542	0.211	-0.056
-492.537	-172.107	-0.306	-0.010
-491.522	232.135	0.122	0.203
-490.508	62.753	-0.113	-0.114
-489.493	193.320	0.034	0.052
-488.478	-54.595	0.058	0.027
-487.464	54.564	-0.100	0.097
-486.449	177.497	0.061	0.091
-485.435	146.959	0.139	0.189
-484.420	63.737	0.156	0.159
-483.405	-53.651	-0.087	-0.040
-482.391	800.000	0.013	0.046
-481.376	-32.751	-0.136	0.077
-480.362	-118.675	-0.216	0.039
-479.347	-200.000	-0.019	-0.085
-478.332	-200.000	-0.021	-0.093
-477.318	-110.823	0.224	0.047
-476.303	250.014	-0.150	0.258
-475.289	358.581	0.130	-0.262
-474.274	-200.000	0.007	0.038
-473.259	-44.083	-0.058	0.030
-472.245	-63.200	-0.246	-0.103
-471.230	-33.069	-0.144	0.081
-470.216	-140.462	-0.324	0.034
-469.201	168.240	0.165	-0.237
-468.186	-200.000	-0.007	-0.062
-467.172	-115.206	0.321	-0.061
-466.157	60.647	-0.244	-0.245
-465.143	-47.991	-0.250	0.122
-464.128	-45.270	0.238	-0.120
-463.113	17.537	-0.267	-0.215
-462.099	-200.000	0.016	0.181
-461.084	114.346	0.040	0.050
-460.070	282.694	0.145	0.263
-459.055	195.000	0.141	0.216
-458.040	-148.285	-0.227	0.019
-457.026	-147.130	0.374	-0.032
-456.011	-131.145	0.287	-0.039
-454.997	-125.451	0.289	-0.044
-453.982	-97.806	-0.301	0.079
-452.968	800.000	-0.029	0.082
-451.953	-103.735	-0.360	0.085
-450.938	48.539	0.158	0.150
-449.924	58.350	-0.142	0.140
-448.909	18.568	-0.352	-0.284
-447.895	-52.077	-0.080	-0.037
-446.880	800.000	-0.051	-0.176
-445.865	267.082	-0.181	0.319
-444.851	142.389	0.061	0.081
-443.836	-200.000	-0.012	0.061
-442.822	-34.386	0.174	-0.096
-441.807	-120.761	-0.135	0.023
-440.792	-177.378	-0.086	-0.002
-439.778	-75.325	-0.150	0.054
-438.763	282.777	-0.120	-0.217
-437.749	-200.000	-0.001	0.213
-436.734	-79.946	-0.381	-0.129
-435.719	349.571	0.080	-0.160
-434.705	70.666	-0.074	0.078
-433.690	10.462	-0.083	0.064
-432.676	211.039	-0.228	-0.362
-431.661	55.323	0.100	0.097
-430.646	-97.337	-0.222	0.058
-429.632	152.040	-0.039	-0.053
-428.617	800.000	-0.057	-0.186
-427.603	-97.297	-0.108	-0.029
-426.588	236.832	-0.179	-0.300
-425.573	-200.000	-0.009	-0.501
-424.559	-14.572	0.176	-0.114
-423.544	-78.232	0.148	0.051
-422.530	-200.000	0.023	0.148
-421.515	367.053	-0.148	0.302
-420.500	-200.000	0.012	-0.111
-419.486	-14.880	0.061	0.039
-418.471	-200.000	-0.012	-0.174
-417.457	155.996	0.072	-0.100
-416.442	126.772	-0.262	0.335
-415.428	-72.388	-0.256	0.096
-414.413	-21.423	0.210	-0.129
-413.398	-93.163	0.158	0.044
-412.384	-111.269	0.244	0.050
-411.369	130.074	-0.159	-0.205
-410.355	-46.605	-0.205	0.101
-409.340	333.634	-0.183	-0.357
-408.325	-144.296	0.224	0.021
-407.311	-200.000	-0.074	0.343
-406.296	-81.179	-0.099	-0.033
-405.282	-107.823	0.142	0.031
-404.267	-63.754	-0.061	0.025
-403.252	556.671	-0.108	0.263
-402.238	-200.000	-0.030	-0.259
-401.223	-23.033	-0.200	0.121
-400.209	-200.000	-0.040	-0.178
-399.194	15.594	0.116	-0.092
-398.179	2.711	0.217	-0.159
-397.165	-84.035	0.140	0.045
-396.150	-92.119	0.365	0.104
-395.136	128.970	0.122	-0.158
-394.121	342.025	0.117	-0.230
-393.106	68.237	0.260	0.268
-392.092	-181.630	0.248	0.005
-391.077	-200.000	0.018	0.103
-390.063	-135.521	0.091	-0.011
-389.048	19.101	-0.228	-0.184
-388.033	-200.000	-0.017	-0.209
-387.019	-200.000	-0.019	0.152
-386.004	143.567	-0.176	0.237
-384.990	-129.699	-0.124	-0.017
-383.975	796.731	-0.053	-0.146
-382.960	-170.379	0.220	-0.008
-381.946	-200.000	-0.029	0.143
-380.931	467.886	-0.054	0.122
-379.917	800.000	0.013	0.037
-378.902	480.411	-0.074	-0.170
-377.888	318.551	0.112	0.213
-376.873	-200.000	-0.004	0.088
-375.858	-200.000	-0.010	-0.387
-374.844	234.788	-0.016	-0.027
-373.829	2.809	-0.268	-0.196
-372.815	800.000	-0.031	0.104
-371.800	365.363	0.067	-0.136
-370.785	382.659	-0.032	0.067
-369.771	105.191	-0.081	-0.096
-368.756	197.544	-0.147	-0.227
-367.742	-200.000	-0.043	0.212
-366.727	252.255	-0.114	0.195
-365.712	19.420	-0.218	0.177
-364.698	-85.229	0.217	0.068
-363.683	-120.783	-0.483	0.082
-362.669	37.982	0.268	0.240
-361.654	-102.607	-0.119	0.029
-360.639	37.108	-0.084	0.075
-359.625	-200.000	0.006	-0.072
-358.610	-162.585	-0.100	-0.005
-357.596	-200.000	0.024	-0.214
-356.581	800.000	0.045	0.176
-355.566	-88.722	-0.320	-0.096
-354.552	-121.157	-0.243	-0.041
-353.537	39.032	0.157	0.141
-352.523	-156.710	0.285	-0.018
-351.508	-200.000	-0.005	0.273
-350.493	119.528	0.119	-0.148
-349.479	92.646	-0.070	0.080
-348.464	-73.733	0.108	-0.040
-347.450	-200.000	-0.026	0.230
-346.435	-13.748	0.128	-0.083
-345.420	-200.000	0.027	0.226
-344.406	91.032	0.087	0.098
-343.391	-166.562	-0.261	0.011
-342.377	546.029	-0.055	-0.133
-341.362	6.077	-0.199	-0.149
-340.348	-76.209	0.322	0.114
-339.333	-142.816	0.325	-0.032
-338.318	-132.621	0.262	-0.034
-337.304	-32.058	0.187	0.105
-336.289	-123.011	-0.255	-0.041
-335.275	-13.369	-0.170	-0.111
-334.260	-200.000	0.019	0.206
-333.245	198.512	-0.095	0.146
-332.231	800.000	-0.018	0.079
-331.216	-98.444	-0.047	-0.012
-330.202	207.924	0.102	-0.160
-329.187	-200.000	0.049	0.335
-328.172	-4.871	0.269	0.186
-327.158	59.151	-0.248	-0.245
-326.143	-200.000	0.029	0.292
-325.129	-4.678	-0.160	0.111
-324.114	-111.795	-0.283	-0.058
-323.099	-45.168	-0.133	-0.067
-322.085	-114.234	0.358	0.069
-321.070	-0.397	0.212	0.152
-320.056	-200.000	0.010	0.122
-319.041	-200.000	-0.030	0.269
-318.026	336.188	-0.050	0.097
-317.012	-89.485	0.188	-0.056
-315.997	-200.000	-0.001	-0.254
-314.983	-138.302	-0.182	-0.020
-313.968	-26.959	-0.102	-0.060
-312.953	-25.182	-0.067	-0.040
-311.939	-200.000	0.012	-0.087
-310.924	800.000	-0.137	0.514
-309.910	-62.794	0.185	0.077
-308.895	-102.958	-0.275	-0.066
-307.880	-88.458	-0.240	0.072
-306.866	-73.206	0.114	-0.042
-305.851	-164.735	-0.022	0.001
-304.837	-16.639	-0.192	-0.122
-303.822	271.848	0.119	-0.211
-302.807	-200.000	-0.007	0.309
-301.793	-134.885	-0.102	0.012
-300.778	81.318	0.170	-0.185
-299.764	178.663	0.119	-0.175
-298.749	-87.861	0.363	0.110
-297.735	110.601	-0.050	-0.060
-296.720	-157.460	-0.331	0.020
-295.705	-79.376	-0.057	0.020
-294.691	-29.659	-0.308	-0.176
-293.676	-79.490	0.244	-0.083
-292.662	-79.512	0.214	-0.073
-291.647	-200.000	-0.008	0.121
-290.632	98.949	0.178	0.206
-289.618	16.477	0.072	-0.057
-288.603	613.461	0.039	-0.099
-287.589	-67.416	-0.138	-0.054
-286.574	800.000	-0.060	0.174
-285.559	-105.476	0.367	-0.084
-284.545	329.538	0.070	0.135
-283.530	94.195	0.202	-0.231
-282.516	-50.780	-0.058	0.028
-281.501	-200.000	-0.007	-0.100
-280.486	-200.000	0.011	-0.130
-279.472	1.348	-0.295	-0.213
-278.457	107.326	-0.092	-0.110
-277.443	-177.568	-0.143	0.003
-276.428	15.442	-0.135	-0.106
-275.413	-5.299	-0.156	0.107
-274.399	304.304	0.090	0.168
-273.384	-76.761	-0.050	-0.018
-272.370	415.427	0.087	0.186
-271.355	-200.000	-0.003	0.015
-270.340	-187.370	0.249	0.003
-269.326	160.679	0.218	0.306
-268.311	475.190	0.065	0.148
-267.297	52.249	0.091	0.087
-266.282	-200.000	-0.011	0.355
-265.267	485.370	-0.053	0.121
-264.253	-183.873	0.099	-0.002
-263.238	-200.000	-0.032	0.142
-262.224	-200.000	0.005	0.080
-261.209	-65.620	-0.200	0.080
-260.195	79.401	0.205	0.220
-259.180	-22.382	0.090	-0.054
-258.165	-113.750	0.194	0.038
-257.151	800.000	-0.032	-0.137
-256.136	79.531	-0.232	-0.250
-255.122	-157.994	0.180	0.011
-254.107	310.477	-0.083	0.156
-253.092	800.000	-0.048	-0.185
-252.078	208.065	0.079	0.124
-251.063	-29.628	0.228	0.130
-250.049	-200.000	-0.026	0.221
-249.034	-9.754	-0.103	-0.068
-248.019	22.020	0.230	0.188
-247.005	-200.000	0.004	0.198
-245.990	-180.014	0.199	0.004
-244.976	-100.019	-0.235	0.059
-243.961	483.994	0.130	-0.296
-242.946	-43.754	-0.414	-0.209
-241.932	238.778	-0.152	0.253
-240.917	800.000	0.039	-0.144
-239.903	-35.857	-0.047	0.026
-238.888	-141.613	0.083	0.008
-237.873	408.921	-0.160	0.340
-236.859	156.430	0.159	0.220
-235.844	44.272	-0.380	0.350
-234.830	-182.868	-0.285	0.005
-233.815	287.818	-0.074	-0.135
-232.800	-50.476	0.151	-0.071
-231.786	-113.206	0.053	0.010
-230.771	37.317	0.156	-0.138
-229.757	-109.333	0.205	0.044
-228.742	511.033	0.118	0.276
-227.727	800.000	-0.076	-0.241
-226.713	-102.443	0.326	0.078
-225.698	638.066	0.086	-0.218
-224.684	800.000	0.151	-0.423
-223.669	86.036	-0.200	-0.221
-222.655	-200.000	0.001	-0.122
-221.640	12.701	0.108	-0.083
-220.625	-134.041	-0.372	0.046
-219.611	-51.216	0.097	-0.045
-218.596	-200.000	-0.061	0.361
-217.582	214.633	0.136	0.216
-216.567	334.212	-0.042	-0.082
-215.552	-85.687	-0.369	0.115
-214.538	-200.000	0.024	0.278
-213.523	-200.000	-0.006	-0.132
-212.509	-71.083	-0.059	-0.022
-211.494	800.000	-0.149	-0.414
-210.479	432.703	0.049	-0.107
-209.465	-200.000	-0.039	-0.306
-208.450	2.598	0.153	0.111
-207.436	-103.499	0.060	0.014
-206.421	-31.502	-0.097	0.055
-205.406	683.645	-0.080	-0.210
-204.392	-70.927	-0.231	-0.087
-203.377	449.652	0.032	0.070
-202.363	-59.690	-0.342	0.147
-201.348	-114.083	0.046	0.009
-200.333	53.487	0.165	0.158
-199.319	-4.052	0.210	0.146
-198.304	-200.000	0.007	0.080
-197.290	565.143	0.038	0.092
-196.275	46.388	-0.071	-0.066
-195.260	50.548	-0.184	0.175
-194.246	155.629	-0.070	-0.097
-193.231	68.733	0.107	-0.109
-192.217	-24.440	0.055	-0.033
-191.202	-98.147	0.323	0.083
-190.187	-127.313	-0.077	-0.011
-189.173	-96.876	-0.125	-0.033
-188.158	-3.872	0.041	0.028
-187.144	-137.899	0.091	0.010
-186.129	356.614	0.057	0.113
-185.114	-200.000	-0.024	-0.211
-184.100	-29.502	0.096	0.055
-183.085	-200.000	-0.029	-0.172
-182.071	52.378	0.197	-0.188
-181.056	-157.938	0.240	-0.014
-180.042	-61.743	0.395	-0.166
-179.027	800.000	0.079	0.254
-178.012	-26.221	-0.167	0.098
-176.998	-42.140	-0.308	0.158
-175.983	379.204	-0.068	0.138
-174.969	-95.999	0.194	-0.052
-173.954	435.607	-0.119	-0.259
-172.939	-82.493	0.146	0.047
-171.925	75.240	0.176	0.186
-170.910	-21.575	-0.180	-0.109
-169.896	115.898	-0.273	0.334
-168.881	-200.000	-0.076	0.433
-167.866	-200.000	-0.020	0.153
-166.852	-87.631	-0.131	0.039
-165.837	656.292	0.053	-0.136
-164.823	-23.456	0.204	-0.123
-163.808	-200.000	-0.060	-0.289
-162.793	355.836	-0.094	-0.188
-161.779	25.453	0.087	0.073
-160.764	49.193	0.211	0.198
-159.750	301.041	0.143	-0.265
-158.735	800.000	0.054	0.203
-157.720	67.704	-0.201	-0.205
-156.706	-198.578	-0.227	0.001
-155.691	-16.323	-0.195	-0.124
-154.677	-83.685	0.373	-0.119
-153.662	250.347	0.152	-0.259
-152.647	-59.674	0.034	-0.015
-151.633	-200.000	-0.004	-0.192
-150.618	800.000	0.088	0.294
-149.604	344.749	-0.047	-0.092
-148.589	-200.000	0.040	-0.344
-147.574	-200.000	0.020	-0.170
-146.560	15.325	-0.184	-0.144
-145.545	-83.022	-0.226	-0.073
-144.531	-200.000	-0.018	-0.111
-143.516	-200.000	0.059	-0.356
-142.502	48.580	-0.069	-0.064
-141.487	-27.884	0.091	-0.053
-140.472	-200.000	-0.002	0.237
-139.458	-28.387	-0.114	-0.066
-138.443	-200.000	-0.015	0.136
-137.429	-69.438	-0.108	0.041
-136.414	-118.597	-0.205	0.036
-135.399	800.000	-0.040	0.141
-134.385	800.000	-0.039	-0.126
-133.370	-96.686	0.335	-0.088
-132.356	-127.287	-0.079	-0.011
-131.341	91.588	0.205	0.230
-130.326	-43.213	0.156	0.079
-129.312	800.000	0.012	-0.048
-128.297	-200.000	0.066	0.300
-127.283	9.437	-0.213	-0.161
-126.268	800.000	-0.023	0.074
-125.253	-200.000	-0.021	0.149
-124.239	16.197	-0.204	0.160
-123.224	23.237	0.079	-0.064
-122.210	-200.000	0.037	0.232
