DTS Sentinel unit serial number:	SN413079Multiplexer serial number:	ORYXHardware model number:	OX4-SRSoftware version number:	ORYX F/W v4.00 Oryx Data Collector v3.7.2.0data status	okinstallation	princeton_trtdifferential loss correction	single-endedforward channel	channel 1reverse channel	N/Adate	2019/09/12time	14:04:11forward acquisition time	60.00reverse acquisition time	0.00gamma	496.2192k internal	0.2293k external	0.2293temperature offset calibration	1.0053default loss term (dB/km)	0.3790temperature slope calibration	1.0000multiplexer offset coefficient	1.0000multiplexer slope coefficient	1.0000fibre end	0.00T internal ref (°C)	40.47T ext. ref 1 (°C)	2.20T ext. ref 2 (°C)	34.65length (m)	temperature (°C)	Stokes	anti-Stokes-747.200	-107.176	0.275	-0.062
-746.185	6.656	-0.101	0.077
-745.171	-163.380	0.125	0.006
-744.156	155.562	-0.185	0.260
-743.142	150.648	0.104	-0.145
-742.127	-7.956	-0.058	-0.040
-741.112	154.649	0.103	-0.144
-740.098	112.696	0.168	0.208
-739.083	-28.455	-0.169	0.100
-738.069	35.773	0.109	0.098
-737.054	166.542	0.061	0.089
-736.039	721.660	-0.162	0.440
-735.025	61.550	0.213	0.217
-734.010	226.844	0.160	-0.265
-732.996	-124.559	-0.028	-0.004
-731.981	186.788	0.243	0.370
-730.966	12.624	-0.058	-0.046
-729.952	-200.000	-0.023	-0.145
-728.937	-138.212	-0.063	-0.007
-727.923	-200.000	-0.038	-0.394
-726.908	-118.539	-0.159	-0.029
-725.894	-200.000	0.034	-0.235
-724.879	-34.349	-0.063	-0.036
-723.864	-200.000	0.046	0.346
-722.850	-200.000	-0.077	-0.513
-721.835	-188.246	0.056	-0.001
-720.821	-74.188	-0.175	-0.065
-719.806	-66.288	0.423	0.172
-718.791	12.011	0.189	0.149
-717.777	402.879	0.093	-0.201
-716.762	-200.000	-0.043	-0.385
-715.748	38.296	0.136	-0.124
-714.733	-200.000	-0.004	0.119
-713.718	86.786	0.182	0.206
-712.704	-100.205	0.237	0.060
-711.689	-53.531	-0.083	-0.039
-710.675	-95.964	0.315	-0.086
-709.660	97.592	0.132	-0.155
-708.645	139.931	0.190	-0.256
-707.631	-200.000	-0.042	-0.229
-706.616	694.459	0.052	-0.140
-705.602	160.902	0.179	-0.256
-704.587	800.000	0.064	-0.210
-703.572	-200.000	-0.006	-0.042
-702.558	800.000	0.172	-0.492
-701.543	-62.092	0.016	-0.007
-700.529	192.272	0.049	-0.075
-699.514	215.465	-0.080	0.130
-698.499	-51.029	0.179	0.086
-697.485	510.143	0.056	-0.134
-696.470	-36.399	-0.157	-0.086
-695.456	-200.000	0.030	-0.147
-694.441	181.459	-0.114	-0.171
-693.426	0.276	-0.394	-0.287
-692.412	-175.467	-0.069	0.002
-691.397	141.465	-0.145	-0.196
-690.383	-11.105	-0.192	0.129
-689.368	-200.000	-0.005	-0.202
-688.354	-200.000	0.025	0.138
-687.339	51.315	-0.141	-0.137
-686.324	800.000	0.004	0.014
-685.310	30.784	-0.040	-0.035
-684.295	-174.468	0.157	0.005
-683.281	232.203	-0.028	-0.047
-682.266	470.251	0.132	0.303
-681.251	-143.427	0.203	0.020
-680.237	-170.776	0.233	-0.008
-679.222	631.888	-0.048	-0.125
-678.208	-97.591	-0.208	-0.055
-677.193	2.594	0.169	0.125
-676.178	96.792	-0.071	-0.083
-675.164	124.889	0.147	-0.189
-674.149	-132.032	-0.571	-0.076
-673.135	-60.159	-0.194	0.085
-672.120	-72.340	-0.208	-0.079
-671.105	-72.047	-0.330	-0.125
-670.091	65.407	0.171	0.177
-669.076	-200.000	0.020	0.232
-668.062	100.802	0.143	0.170
-667.047	251.523	-0.125	0.217
-666.032	444.783	0.065	-0.146
-665.018	800.000	0.082	0.268
-664.003	-200.000	-0.004	0.219
-662.989	-200.000	-0.002	0.136
-661.974	-133.021	0.089	0.012
-660.959	-82.426	-0.066	0.022
-659.945	751.748	0.032	0.088
-658.930	-79.082	0.123	0.043
-657.916	-121.068	-0.284	-0.049
-656.901	-72.291	-0.026	0.010
-655.886	800.000	0.080	-0.280
-654.872	53.349	-0.021	-0.021
-653.857	-200.000	-0.051	0.350
-652.843	-142.859	0.250	-0.025
-651.828	-200.000	0.038	0.287
-650.814	-35.316	0.088	-0.049
-649.799	-97.447	-0.341	-0.090
-648.784	548.225	-0.012	0.029
-647.770	-126.365	-0.475	-0.072
-646.755	-156.810	-0.248	-0.016
-645.741	-68.536	0.175	-0.069
-644.726	227.032	0.036	-0.060
-643.711	-120.114	-0.198	-0.034
-642.697	-91.071	0.463	0.135
-641.682	-157.213	-0.195	0.012
-640.668	-200.000	0.004	0.148
-639.653	443.409	-0.146	-0.327
-638.638	-3.216	-0.115	-0.082
-637.624	-81.837	0.365	-0.122
-636.609	19.815	0.228	0.187
-635.595	341.255	0.023	0.046
-634.580	120.325	0.158	0.200
-633.565	130.560	0.099	0.130
-632.551	-57.735	-0.286	0.127
-631.536	-71.364	-0.049	0.019
-630.522	63.843	0.039	0.040
-629.507	150.416	0.140	-0.193
-628.492	192.584	-0.114	0.175
-627.478	-47.570	0.398	0.197
-626.463	800.000	0.026	-0.114
-625.449	81.564	-0.128	0.141
-624.434	229.800	0.066	0.109
-623.419	-200.000	-0.027	-0.444
-622.405	178.224	-0.133	-0.197
-621.390	-38.959	0.292	0.157
-620.376	-135.053	-0.212	0.026
-619.361	194.101	-0.066	0.102
-618.346	-72.618	0.159	0.060
-617.332	-200.000	-0.031	0.222
-616.317	79.944	-0.265	-0.290
-615.303	39.254	-0.067	0.061
-614.288	7.130	-0.201	-0.153
-613.273	-83.447	-0.220	-0.072
-612.259	84.745	0.084	-0.094
-611.244	-21.736	-0.156	-0.097
-610.230	-200.000	-0.011	0.146
-609.215	296.738	-0.109	-0.203
-608.201	-15.698	0.087	0.057
-607.186	-171.307	0.066	-0.002
-606.171	-200.000	-0.013	0.061
-605.157	-109.971	0.124	-0.026
-604.142	-66.259	0.186	0.075
-603.128	-200.000	-0.005	-0.160
-602.113	-200.000	-0.013	-0.112
-601.098	1.437	-0.387	-0.283
-600.084	333.539	0.132	-0.260
-599.069	-200.000	0.002	0.073
-598.055	9.202	-0.300	0.230
-597.040	-84.201	0.377	-0.122
-596.025	-60.620	-0.208	-0.090
-595.011	-17.674	-0.071	0.046
-593.996	800.000	0.114	-0.339
-592.982	-169.596	-0.113	-0.004
-591.967	-200.000	0.012	0.153
-590.952	800.000	0.028	-0.101
-589.938	800.000	0.078	0.254
-588.923	49.005	-0.271	-0.259
-587.909	363.520	0.112	-0.229
-586.894	51.878	-0.233	-0.226
-585.879	133.800	0.049	0.065
-584.865	800.000	0.008	0.027
-583.850	-200.000	0.041	0.247
-582.836	-40.298	-0.081	0.043
-581.821	265.395	0.205	-0.364
-580.806	296.991	-0.071	-0.133
-579.792	182.956	0.106	-0.159
-578.777	52.884	-0.167	-0.163
-577.763	46.417	-0.231	0.218
-576.748	-104.068	0.166	-0.039
-575.733	800.000	-0.111	0.426
-574.719	-169.115	-0.153	0.006
-573.704	-200.000	-0.026	-0.212
-572.690	-9.780	0.243	0.164
-571.675	-200.000	-0.075	0.456
-570.661	233.091	-0.085	0.142
-569.646	34.507	-0.317	-0.282
-568.631	800.000	-0.080	-0.259
-567.617	-200.000	0.004	0.032
-566.602	402.785	0.031	0.066
-565.588	800.000	0.059	-0.190
-564.573	-200.000	-0.011	0.194
-563.558	-200.000	0.015	-0.259
-562.544	151.899	-0.343	-0.475
-561.529	-140.133	0.180	0.019
-560.515	-42.851	0.278	0.144
-559.500	31.637	-0.119	-0.104
-558.485	800.000	0.034	-0.096
-557.471	155.822	0.149	0.209
-556.456	-63.319	-0.242	-0.101
-555.442	-162.651	-0.379	0.019
-554.427	800.000	-0.022	0.072
-553.412	-82.342	0.185	-0.061
-552.398	800.000	-0.030	0.091
-551.383	-171.924	-0.472	0.016
-550.369	466.916	0.161	-0.366
-549.354	-200.000	0.014	0.114
-548.339	-123.811	0.226	-0.036
-547.325	140.057	0.219	0.293
-546.310	149.148	0.121	-0.166
-545.296	407.246	0.079	0.170
-544.281	600.200	-0.082	0.207
-543.266	-109.681	0.297	-0.064
-542.252	142.147	-0.131	-0.176
-541.237	-115.535	0.154	0.029
-540.223	-157.238	0.186	0.011
-539.208	339.049	-0.033	0.066
-538.193	100.923	-0.115	-0.136
-537.179	8.588	-0.240	-0.183
-536.164	800.000	0.016	0.061
-535.150	136.087	0.157	-0.208
-534.135	-107.242	0.075	-0.017
-533.121	597.696	0.084	0.211
-532.106	-18.620	0.520	0.329
-531.091	-85.906	-0.135	-0.042
-530.077	800.000	0.113	-0.319
-529.062	-0.815	-0.382	-0.275
-528.048	-60.163	-0.345	-0.149
-527.033	58.443	0.088	0.087
-526.018	288.661	0.027	-0.049
-525.004	-200.000	-0.021	-0.222
-523.989	106.924	0.183	-0.220
-522.975	-53.367	0.159	-0.074
-521.960	290.043	0.085	-0.156
-520.945	-200.000	0.003	-0.091
-519.931	718.051	-0.088	0.238
-518.916	-200.000	-0.031	0.486
-517.902	-200.000	0.003	0.144
-516.887	504.640	-0.012	0.029
-515.872	-200.000	0.030	0.427
-514.858	-25.956	-0.049	-0.029
-513.843	-200.000	0.005	-0.052
-512.829	-21.953	-0.216	-0.133
-511.814	-200.000	0.006	-0.095
-510.799	-102.625	-0.255	-0.062
-509.785	61.904	-0.125	0.127
-508.770	111.333	-0.262	0.320
-507.756	222.424	-0.121	0.197
-506.741	800.000	0.038	0.110
-505.726	-139.913	0.140	0.015
-504.712	41.028	-0.061	0.056
-503.697	63.344	0.194	-0.197
-502.683	45.840	0.286	0.268
-501.668	-200.000	0.050	-0.345
-500.653	-101.892	0.157	0.038
-499.639	-114.772	-0.219	0.042
-498.624	-151.020	0.118	-0.009
-497.610	800.000	-0.035	-0.134
-496.595	-136.781	-0.220	-0.026
-495.581	-61.532	-0.110	0.047
-494.566	800.000	-0.004	0.015
-493.551	431.049	-0.084	-0.184
-492.537	-133.127	0.131	0.017
-491.522	262.702	-0.111	-0.195
-490.508	-200.000	-0.028	0.258
-489.493	-200.000	-0.012	0.115
-488.478	800.000	-0.078	-0.327
-487.464	157.464	0.083	0.116
-486.449	-200.000	-0.004	-0.174
-485.435	-140.158	-0.314	-0.033
-484.420	-36.938	-0.165	-0.090
-483.405	-200.000	-0.011	0.161
-482.391	-104.349	-0.154	-0.036
-481.376	-62.623	0.141	0.059
-480.362	-200.000	0.000	-0.056
-479.347	-137.798	-0.147	0.017
-478.332	-101.408	0.074	-0.018
-477.318	-151.935	-0.297	-0.022
-476.303	53.931	0.111	-0.108
-475.289	-74.458	0.168	-0.061
-474.274	-200.000	0.021	0.321
-473.259	136.585	-0.364	-0.481
-472.245	0.702	0.103	0.075
-471.230	800.000	0.073	-0.239
-470.216	-0.995	0.154	-0.111
-469.201	-40.780	0.179	0.094
-468.186	212.727	-0.114	-0.182
-467.172	-97.259	0.259	0.068
-466.157	800.000	0.054	-0.185
-465.143	35.657	0.126	-0.112
-464.128	-200.000	0.080	-0.565
-463.113	800.000	-0.024	-0.077
-462.099	-33.176	0.128	-0.072
-461.084	-38.459	0.056	-0.030
-460.070	27.181	-0.089	-0.076
-459.055	-200.000	0.012	0.291
-458.040	800.000	0.129	0.367
-457.026	53.976	-0.029	0.028
-456.011	446.676	0.199	-0.443
-454.997	-200.000	-0.024	0.154
-453.982	-108.914	-0.090	0.019
-452.968	143.878	-0.161	0.217
-451.953	-122.920	0.194	0.032
-450.938	17.537	0.141	0.113
-449.924	-73.559	0.199	-0.073
-448.909	734.499	-0.069	-0.186
-447.895	222.225	-0.076	-0.124
-446.880	-200.000	-0.003	-0.033
-445.865	-200.000	0.030	0.160
-444.851	-58.716	0.041	-0.018
-443.836	59.982	0.265	0.265
-442.822	-122.874	0.153	0.025
-441.807	-200.000	0.015	-0.225
-440.792	-200.000	0.004	0.085
-439.778	-81.882	0.292	-0.097
-438.763	-200.000	0.038	-0.330
-437.749	-200.000	-0.002	-0.286
-436.734	-22.609	-0.073	-0.044
-435.719	-175.162	-0.256	0.007
-434.705	-159.803	-0.061	0.003
-433.690	-33.596	-0.157	-0.087
-432.676	243.306	0.150	0.255
-431.661	-122.563	-0.382	0.063
-430.646	-48.746	0.004	0.002
-429.632	215.067	0.065	0.104
-428.617	103.265	0.081	-0.096
-427.603	800.000	0.063	0.232
-426.588	558.782	-0.095	0.232
-425.573	123.027	-0.065	-0.082
-424.559	-200.000	0.002	0.071
-423.544	-200.000	0.020	-0.284
-422.530	2.214	0.335	-0.245
-421.515	-106.565	0.198	-0.045
-420.500	201.294	0.084	0.131
-419.486	800.000	0.095	0.399
-418.471	73.144	0.125	0.132
-417.457	-123.129	0.073	-0.012
-416.442	-32.980	-0.146	-0.082
-415.428	-132.442	0.337	0.044
-414.413	-74.442	-0.265	0.096
-413.398	800.000	0.042	0.148
-412.384	-200.000	0.042	0.325
-411.369	-27.046	-0.047	-0.028
-410.355	800.000	0.081	0.234
-409.340	-147.632	-0.460	0.039
-408.325	-60.584	0.266	0.114
-407.311	800.000	0.077	-0.245
-406.296	-32.074	0.104	-0.059
-405.282	55.052	0.145	-0.142
-404.267	800.000	0.082	-0.240
-403.252	-50.525	-0.180	0.086
-402.238	145.407	-0.035	-0.047
-401.223	-96.170	0.109	-0.029
-400.209	552.901	0.057	0.138
-399.194	-73.581	-0.370	0.136
-398.179	-146.369	-0.129	0.011
-397.165	-172.653	0.102	-0.003
-396.150	-116.807	0.237	-0.044
-395.136	-102.565	0.338	0.081
-394.121	-198.519	-0.313	-0.002
-393.106	129.442	-0.163	0.210
-392.092	-23.965	0.462	-0.279
-391.077	-1.631	-0.148	-0.105
-390.063	-200.000	-0.006	0.083
-389.048	153.586	0.045	-0.062
-388.033	301.332	-0.075	-0.139
-387.019	-17.691	0.163	0.103
-386.004	41.691	0.165	-0.151
-384.990	91.165	0.062	0.070
-383.975	311.999	-0.041	-0.078
-382.960	-49.999	0.227	-0.108
-381.946	34.634	-0.207	0.183
-380.931	-46.126	-0.226	0.112
-379.917	-200.000	0.003	0.093
-378.902	-200.000	-0.007	-0.268
-377.888	-200.000	-0.054	0.310
-376.873	800.000	-0.042	-0.178
-375.858	40.559	-0.223	-0.203
-374.844	40.602	0.086	0.078
-373.829	454.938	-0.120	0.269
-372.815	-56.448	-0.269	0.120
-371.800	319.099	-0.085	-0.162
-370.785	800.000	0.018	0.068
-369.771	-4.671	-0.218	-0.152
-368.756	779.500	0.015	0.041
-367.742	-47.636	-0.177	0.086
-366.727	-200.000	-0.015	0.318
-365.712	800.000	-0.004	0.018
-364.698	98.883	0.009	-0.011
-363.683	-153.228	-0.103	-0.007
-362.669	800.000	0.102	-0.295
-361.654	42.866	0.184	-0.169
-360.639	-21.569	-0.297	0.183
-359.625	-81.550	-0.152	-0.050
-358.610	-20.268	0.118	-0.073
-357.596	-26.122	-0.120	-0.071
-356.581	108.854	-0.240	-0.289
-355.566	75.527	0.105	-0.112
-354.552	-103.156	-0.171	0.041
-353.537	-180.959	0.103	-0.002
-352.523	-200.000	0.014	-0.076
-351.508	800.000	-0.067	-0.278
-350.493	239.552	-0.199	-0.333
-349.479	-200.000	0.065	-0.307
-348.464	-0.630	0.293	0.209
-347.450	-10.933	-0.205	0.136
-346.435	94.794	0.135	0.154
-345.420	8.850	0.052	0.040
-344.406	13.616	0.405	-0.317
-343.391	-7.040	0.052	-0.035
-342.377	95.564	0.144	-0.165
-341.362	-110.694	-0.085	-0.018
-340.348	231.769	-0.158	-0.262
-339.333	-100.158	0.229	-0.057
-338.318	-164.297	0.356	-0.016
-337.304	-1.921	-0.035	0.025
-336.289	99.211	0.188	0.219
-335.275	-200.000	0.097	0.535
-334.260	0.073	-0.306	0.219
-333.245	118.895	0.079	-0.098
-332.231	-200.000	-0.001	0.347
-331.216	-143.581	0.295	0.028
-330.202	-200.000	0.007	-0.176
-329.187	-23.966	0.356	0.214
-328.172	0.132	0.109	-0.079
-327.158	694.561	-0.048	0.127
-326.143	-156.590	0.547	-0.034
-325.129	800.000	-0.129	0.394
-324.114	-200.000	0.007	0.211
-323.099	1.834	0.056	-0.041
-322.085	46.037	-0.257	-0.239
-321.070	-114.913	-0.081	-0.016
-320.056	93.341	-0.134	-0.152
-319.041	-12.995	-0.263	0.172
-318.026	91.966	-0.104	0.118
-317.012	-200.000	-0.073	-0.321
-315.997	800.000	0.079	-0.226
-314.983	522.646	-0.085	-0.201
-313.968	33.116	-0.027	-0.024
-312.953	-42.466	0.305	0.157
-311.939	800.000	0.046	0.178
-310.924	71.481	0.418	0.437
-309.910	-52.852	-0.099	0.046
-308.895	-94.623	0.098	0.027
-307.880	105.336	0.171	0.203
-306.866	-41.789	0.316	0.163
-305.851	800.000	-0.085	-0.357
-304.837	-99.263	0.234	0.059
-303.822	-2.717	0.210	-0.148
-302.807	208.132	-0.030	0.047
-301.793	-105.435	-0.268	0.061
-300.778	-83.188	0.276	0.089
-299.764	-200.000	-0.020	0.148
-298.749	-36.369	-0.422	-0.229
-297.735	12.566	0.194	-0.151
-296.720	-200.000	-0.246	0.001
-295.705	15.689	0.055	0.044
-294.691	182.252	0.098	0.145
-293.676	-59.998	-0.262	-0.112
-292.662	-28.519	-0.227	-0.132
-291.647	347.017	-0.183	0.362
-290.632	-18.520	0.147	0.092
-289.618	228.299	0.096	0.157
-288.603	36.272	-0.159	0.141
-287.589	800.000	-0.101	-0.358
-286.574	621.186	0.079	0.201
-285.559	293.090	-0.071	0.131
-284.545	-73.874	-0.048	0.017
-283.530	800.000	-0.137	0.399
-282.516	299.826	0.080	-0.147
-281.501	52.266	0.198	0.190
-280.486	-200.000	-0.006	0.059
-279.472	-200.000	0.011	0.052
-278.457	15.300	0.237	-0.187
-277.443	17.029	0.110	-0.088
-276.428	800.000	0.081	0.325
-275.413	72.151	-0.200	-0.209
-274.399	800.000	-0.089	-0.260
-273.384	-200.000	0.030	-0.333
-272.370	68.029	0.152	-0.156
-271.355	10.051	0.175	0.134
-270.340	-72.555	0.195	-0.072
-269.326	-200.000	0.003	-0.135
-268.311	-148.649	0.164	-0.013
-267.297	-53.306	0.286	-0.132
-266.282	1.860	0.028	0.020
-265.267	-20.765	-0.094	0.058
-264.253	-115.672	0.403	0.076
-263.238	-98.280	-0.220	-0.057
-262.224	-43.557	0.090	0.046
-261.209	126.494	-0.072	-0.092
-260.195	319.896	-0.073	0.140
-259.180	-158.565	0.162	0.009
-258.165	-200.000	0.019	0.166
-257.151	-72.103	-0.230	0.086
-256.136	126.248	-0.097	-0.124
-255.122	215.517	0.102	0.162
-254.107	22.415	-0.331	-0.271
-253.092	-44.702	0.168	0.084
-252.078	800.000	-0.145	0.531
-251.063	260.945	-0.048	0.083
-250.049	-195.706	0.121	0.001
-249.034	-135.887	0.171	-0.020
-248.019	-11.914	0.078	0.051
-247.005	-146.127	-0.111	0.010
-245.990	-28.614	-0.205	0.118
-244.976	97.997	0.151	-0.174
-243.961	-134.503	-0.285	-0.035
-242.946	-73.251	-0.130	0.048
-241.932	31.065	-0.179	-0.154
-240.917	-200.000	-0.006	-0.028
-239.903	-61.169	-0.083	0.035
-238.888	186.216	-0.088	0.131
-237.873	245.855	0.042	0.071
-236.859	800.000	-0.122	0.427
-235.844	792.810	-0.123	0.339
-234.830	28.045	-0.106	-0.089
-233.815	-109.847	0.365	0.077
-232.800	800.000	0.045	-0.168
-231.786	-129.668	-0.168	-0.023
-230.771	-64.173	-0.347	-0.142
-229.757	-54.946	0.223	-0.101
-228.742	800.000	-0.064	-0.242
-227.727	-200.000	-0.006	-0.274
-226.713	9.298	-0.212	-0.161
-225.698	-123.057	-0.039	0.006
-224.684	-155.936	0.252	-0.016
-223.669	99.294	0.125	0.145
-222.655	262.833	0.204	-0.356
-221.640	-200.000	-0.010	0.116
-220.625	17.956	-0.121	-0.097
-219.611	73.003	0.309	-0.323
-218.596	112.927	0.058	0.070
-217.582	633.299	0.128	0.324
-216.567	-194.940	0.093	-0.001
-215.552	6.009	0.353	0.262
-214.538	215.778	-0.204	0.325
-213.523	789.938	0.154	-0.423
-212.509	162.840	0.168	-0.237
-211.494	-65.697	0.135	-0.054
-210.479	710.137	0.017	-0.045
-209.465	-200.000	-0.012	-0.107
-208.450	-86.583	-0.033	0.010
-207.436	800.000	0.074	0.240
-206.421	-94.906	-0.202	0.055
-205.406	-4.583	-0.043	-0.029
-204.392	51.885	-0.109	0.104
-203.377	642.309	0.104	-0.265
-202.363	155.326	0.181	0.249
-201.348	-73.792	0.193	0.070
-200.333	198.770	-0.049	-0.076
-199.319	800.000	0.051	-0.168
-198.304	682.272	-0.056	0.147
-197.290	208.224	0.011	0.017
-196.275	-78.178	0.183	-0.063
-195.260	-86.191	-0.351	0.108
-194.246	-62.167	-0.096	-0.040
-193.231	163.278	0.198	0.279
-192.217	-71.870	-0.221	-0.082
-191.202	115.838	0.061	0.075
-190.187	110.514	-0.217	0.261
-189.173	-200.000	-0.037	-0.237
-188.158	83.833	0.313	-0.342
-187.144	-84.936	0.231	-0.073
-186.129	-157.758	-0.148	0.009
-185.114	430.389	-0.104	0.225
-184.100	-177.156	0.219	-0.005
-183.085	110.408	-0.112	-0.135
-182.071	300.582	0.253	0.467
-181.056	-117.631	-0.182	-0.033
-180.042	-58.634	-0.174	0.075
-179.027	-73.096	-0.177	0.065
-178.012	210.238	0.180	0.283
-176.998	-200.000	-0.011	0.236
-175.983	800.000	-0.046	-0.147
-174.969	-70.107	-0.392	0.149
-173.954	137.226	-0.225	0.294
-172.939	-23.391	-0.311	0.187
-171.925	444.162	-0.116	0.254
-170.910	-200.000	0.020	-0.184
-169.896	249.406	0.102	-0.172
-168.881	-200.000	-0.009	0.487
-167.866	135.121	0.201	0.261
-166.852	-123.067	-0.081	0.013
-165.837	35.354	-0.240	0.211
-164.823	6.558	-0.315	0.234
-163.808	90.317	0.194	-0.217
-162.793	800.000	0.028	0.084
-161.779	504.752	-0.043	-0.099
-160.764	76.976	0.037	-0.039
-159.750	-176.339	0.079	-0.002
-158.735	138.527	-0.254	-0.334
-157.720	-17.967	0.046	-0.029
-156.706	98.732	0.250	0.288
-155.691	347.474	-0.055	-0.109
-154.677	-87.062	-0.207	-0.063
-153.662	189.047	-0.179	-0.268
-152.647	-198.538	-0.186	-0.001
-151.633	182.905	0.138	0.204
-150.618	143.392	0.020	0.027
-149.604	205.555	0.115	-0.179
-148.589	-137.943	0.128	0.014
-147.574	208.556	-0.078	-0.122
-146.560	43.309	-0.227	-0.208
-145.545	-200.000	0.016	-0.161
-144.531	-114.467	0.160	0.031
-143.516	-200.000	-0.017	0.107
-142.502	-107.571	-0.135	-0.030
-141.487	177.544	0.091	-0.133
-140.472	364.694	-0.178	-0.358
-139.458	363.589	-0.116	-0.233
-138.443	800.000	0.093	-0.332
-137.429	-108.378	0.157	0.034
-136.414	104.182	-0.275	0.323
-135.399	-200.000	0.016	-0.076
-134.385	-200.000	0.001	0.004
-133.370	9.847	-0.162	-0.123
-132.356	55.606	0.314	-0.304
-131.341	800.000	0.051	0.203
-130.326	-200.000	0.024	-0.354
-129.312	-153.808	-0.115	-0.008
-128.297	73.592	0.062	-0.065
-127.283	800.000	0.061	0.194
-126.268	-200.000	-0.049	0.237
-125.253	158.766	0.078	-0.109
-124.239	-200.000	-0.037	-0.357
-123.224	-200.000	0.048	-0.217
-122.210	-69.645	-0.115	0.044
-121.195	-100.258	0.161	-0.040
