DTS Sentinel unit serial number:	SN413079Multiplexer serial number:	ORYXHardware model number:	OX4-SRSoftware version number:	ORYX F/W v4.00 Oryx Data Collector v3.7.2.0data status	okinstallation	princeton_trtdifferential loss correction	single-endedforward channel	channel 1reverse channel	N/Adate	2019/09/16time	07:06:35forward acquisition time	60.00reverse acquisition time	0.00gamma	496.2192k internal	0.2331k external	0.2331temperature offset calibration	0.9984default loss term (dB/km)	0.3790temperature slope calibration	1.0000multiplexer offset coefficient	1.0000multiplexer slope coefficient	1.0000fibre end	0.00T internal ref (°C)	27.37T ext. ref 1 (°C)	11.51T ext. ref 2 (°C)	21.89length (m)	temperature (°C)	Stokes	anti-Stokes-747.200	201.630	0.047	-0.073
-746.185	312.125	-0.190	0.359
-745.171	-65.822	0.073	-0.029
-744.156	97.282	-0.137	-0.159
-743.142	800.000	0.076	0.283
-742.127	-200.000	0.036	-0.192
-741.112	35.108	0.091	-0.080
-740.098	-104.766	0.099	0.023
-739.083	251.007	-0.056	0.096
-738.069	-130.847	0.308	0.042
-737.054	-107.211	-0.105	0.023
-736.039	228.571	-0.160	0.263
-735.025	546.560	0.076	-0.182
-734.010	41.627	0.141	-0.128
-732.996	-54.195	-0.292	0.134
-731.981	-39.407	-0.258	0.136
-730.966	259.697	-0.121	0.210
-729.952	-200.000	0.052	0.279
-728.937	-161.032	-0.247	0.013
-727.923	34.693	-0.152	0.133
-726.908	597.832	0.088	-0.219
-725.894	800.000	0.051	0.174
-724.879	-200.000	0.015	0.093
-723.864	-103.130	-0.270	-0.064
-722.850	-150.932	0.213	0.016
-721.835	-81.038	-0.260	-0.086
-720.821	-121.132	-0.247	0.042
-719.806	2.078	0.184	0.134
-718.791	-111.623	0.070	-0.014
-717.777	800.000	0.015	0.055
-716.762	-194.704	0.186	0.001
-715.748	49.647	0.174	-0.165
-714.733	-200.000	-0.047	-0.265
-713.718	693.896	-0.033	-0.086
-712.704	125.375	-0.264	-0.335
-711.689	-200.000	0.064	-0.353
-710.675	5.775	-0.309	-0.229
-709.660	-48.577	0.205	-0.099
-708.645	-133.592	0.291	0.037
-707.631	165.100	0.262	-0.371
-706.616	800.000	-0.018	0.062
-705.602	-200.000	0.041	0.371
-704.587	-28.327	-0.114	0.066
-703.572	271.549	-0.094	-0.167
-702.558	422.277	0.063	0.137
-701.543	35.653	-0.121	0.107
-700.529	406.186	0.075	0.159
-699.514	-19.981	0.248	-0.154
-698.499	-63.949	-0.241	-0.099
-697.485	-15.210	0.174	-0.112
-696.470	800.000	0.045	-0.174
-695.456	334.595	-0.028	-0.054
-694.441	-53.348	-0.195	0.090
-693.426	-200.000	0.002	-0.237
-692.412	-86.035	0.156	-0.048
-691.397	223.795	0.139	-0.225
-690.383	786.860	0.153	-0.421
-689.368	-25.249	-0.315	0.187
-688.354	-38.472	0.182	-0.097
-687.339	469.310	0.108	0.243
-686.324	-79.215	0.208	-0.071
-685.310	142.017	-0.111	0.148
-684.295	9.122	-0.232	-0.176
-683.281	-1.525	-0.149	0.105
-682.266	252.415	0.092	0.157
-681.251	-68.577	-0.145	-0.057
-680.237	-138.030	-0.124	-0.014
-679.222	-100.885	-0.304	-0.075
-678.208	4.777	-0.089	-0.065
-677.193	122.750	-0.116	0.146
-676.178	-55.095	-0.079	0.036
-675.164	-63.472	-0.273	-0.113
-674.149	-94.541	-0.396	-0.108
-673.135	-200.000	0.013	-0.121
-672.120	55.259	0.161	0.156
-671.105	-166.516	0.156	0.007
-670.091	26.242	-0.069	0.058
-669.076	166.634	-0.131	0.187
-668.062	-155.180	-0.114	-0.007
-667.047	22.613	0.089	0.073
-666.032	-200.000	-0.021	-0.129
-665.018	-96.312	0.158	-0.042
-664.003	671.204	-0.013	-0.034
-662.989	124.954	0.219	0.276
-661.974	-21.486	0.109	0.066
-660.959	-200.000	0.042	0.205
-659.945	-49.653	0.284	0.135
-658.930	440.680	-0.163	0.357
-657.916	-200.000	-0.015	-0.103
-656.901	800.000	0.019	0.075
-655.886	800.000	-0.051	0.149
-654.872	125.327	-0.052	0.066
-653.857	800.000	0.088	0.336
-652.843	-77.049	0.221	-0.077
-651.828	-200.000	0.011	0.138
-650.814	-92.902	-0.232	-0.065
-649.799	-200.000	0.051	-0.420
-648.784	454.177	-0.052	-0.116
-647.770	167.432	0.075	-0.107
-646.755	800.000	0.069	-0.278
-645.741	156.877	-0.102	0.142
-644.726	-200.000	-0.002	0.130
-643.711	-120.155	-0.043	0.007
-642.697	-19.565	-0.182	0.113
-641.682	446.209	0.125	0.275
-640.668	3.752	0.130	-0.095
-639.653	116.489	-0.208	-0.256
-638.638	-200.000	0.025	-0.174
-637.624	-200.000	0.013	0.460
-636.609	103.131	0.087	0.103
-635.595	274.262	-0.196	-0.347
-634.580	-93.981	0.188	0.052
-633.565	-47.875	-0.351	0.170
-632.551	332.495	-0.162	-0.314
-631.536	-200.000	0.027	-0.355
-630.522	-200.000	-0.042	0.212
-629.507	-141.024	0.062	-0.006
-628.492	-200.000	-0.006	0.051
-627.478	800.000	-0.078	-0.218
-626.463	-161.287	-0.454	-0.024
-625.449	-42.638	0.175	-0.089
-624.434	-153.082	0.034	0.002
-623.419	-78.415	0.205	-0.071
-622.405	-154.560	-0.018	-0.001
-621.390	192.602	0.057	-0.086
-620.376	-118.681	0.413	0.073
-619.361	672.799	-0.042	0.109
-618.346	762.904	0.087	-0.236
-617.332	-166.963	-0.311	0.013
-616.317	-86.959	-0.296	0.090
-615.303	90.640	0.159	-0.178
-614.288	-200.000	0.038	-0.309
-613.273	-89.304	-0.191	0.056
-612.259	41.638	-0.151	-0.137
-611.244	14.625	-0.380	-0.297
-610.230	-75.253	-0.040	-0.014
-609.215	-200.000	0.043	-0.264
-608.201	-133.204	0.130	0.016
-607.186	10.297	0.145	-0.110
-606.171	-67.960	0.316	0.123
-605.157	-64.330	0.175	-0.071
-604.142	-79.507	-0.241	0.081
-603.128	-70.181	0.228	-0.087
-602.113	30.700	-0.115	0.099
-601.098	800.000	0.041	-0.141
-600.084	-136.331	0.101	0.012
-599.069	21.508	-0.173	-0.141
-598.055	800.000	-0.045	-0.183
-597.040	350.027	-0.071	-0.140
-596.025	-200.000	-0.035	0.445
-595.011	59.989	-0.155	0.154
-593.996	800.000	0.045	0.142
-592.982	-163.003	0.312	0.015
-591.967	-14.367	-0.153	-0.098
-590.952	-200.000	-0.099	-0.000
-589.938	800.000	0.024	-0.071
-588.923	-161.734	-0.058	0.003
-587.909	179.337	0.025	-0.036
-586.894	190.646	-0.017	0.026
-585.879	152.674	-0.171	-0.234
-584.865	81.771	0.252	-0.273
-583.850	800.000	0.048	-0.148
-582.836	-79.857	0.262	0.088
-581.821	245.044	0.093	-0.156
-580.806	88.202	-0.224	0.249
-579.792	800.000	-0.005	-0.015
-578.777	491.438	-0.040	-0.092
-577.763	-200.000	0.002	-0.180
-576.748	-31.552	-0.171	-0.096
-575.733	-84.287	0.202	-0.064
-574.719	80.807	-0.184	0.199
-573.704	-77.674	-0.292	0.101
-572.690	-135.662	0.338	0.040
-571.675	34.906	-0.091	0.079
-570.661	573.667	0.035	-0.086
-569.646	-200.000	0.021	-0.134
-568.631	-53.006	-0.127	-0.058
-567.617	-144.488	-0.093	-0.009
-566.602	800.000	-0.118	0.325
-565.588	-200.000	0.006	0.223
-564.573	-67.736	-0.395	0.154
-563.558	91.043	0.197	-0.221
-562.544	-56.803	0.098	-0.043
-561.529	116.845	-0.138	-0.169
-560.515	-119.854	-0.269	-0.046
-559.500	800.000	0.036	0.126
-558.485	-200.000	-0.002	0.321
-557.471	-200.000	-0.032	-0.203
-556.456	418.052	0.057	-0.122
-555.442	-200.000	0.041	-0.326
-554.427	-200.000	-0.084	0.421
-553.412	235.803	0.118	-0.196
-552.398	-134.025	-0.364	0.045
-551.383	499.603	0.082	0.188
-550.369	-23.558	-0.282	0.169
-549.354	-104.647	0.226	0.052
-548.339	110.594	-0.293	-0.352
-547.325	-40.831	0.042	-0.022
-546.310	-20.853	-0.156	-0.095
-545.296	17.617	0.142	0.112
-544.281	-158.086	-0.003	-0.000
-543.266	82.375	0.135	-0.146
-542.252	-154.479	-0.229	-0.015
-541.237	800.000	0.048	-0.157
-540.223	-151.005	0.320	-0.024
-539.208	-105.407	0.327	-0.074
-538.193	-7.635	-0.106	0.072
-537.179	-55.655	0.254	0.113
-536.164	-200.000	0.002	-0.239
-535.150	-8.888	-0.085	-0.057
-534.135	-27.978	-0.211	-0.122
-533.121	-200.000	0.011	0.099
-532.106	175.948	0.156	0.226
-531.091	290.950	-0.071	0.129
-530.077	-200.000	-0.005	-0.038
-529.062	59.106	-0.088	-0.086
-528.048	30.510	0.204	0.174
-527.033	-200.000	-0.081	0.406
-526.018	581.327	-0.168	0.411
-525.004	-10.560	0.219	0.145
-523.989	800.000	0.071	0.222
-522.975	-40.837	0.093	-0.048
-521.960	-200.000	-0.048	0.216
-520.945	72.976	-0.117	-0.122
-519.931	605.921	0.037	0.092
-518.916	-47.216	0.098	-0.048
-517.902	-46.728	0.327	0.160
-516.887	571.017	-0.075	-0.183
-515.872	-101.123	-0.387	0.095
-514.858	30.340	-0.084	-0.071
-513.843	190.860	0.066	0.100
-512.829	-200.000	0.027	0.287
-511.814	-122.774	0.371	-0.060
-510.799	-69.167	0.395	0.152
-509.785	160.721	-0.089	-0.123
-508.770	25.758	0.208	0.173
-507.756	-28.735	0.358	0.205
-506.741	60.233	0.196	-0.194
-505.726	-57.741	-0.174	0.076
-504.712	800.000	0.049	0.175
-503.697	-200.000	-0.047	-0.260
-502.683	332.301	-0.152	-0.292
-501.668	-37.820	-0.162	-0.086
-500.653	-23.399	0.166	0.099
-499.639	-60.109	-0.225	-0.096
-498.624	800.000	-0.062	-0.209
-497.610	-50.850	0.320	-0.150
-496.595	-74.107	-0.481	0.174
-495.581	-105.845	-0.189	0.042
-494.566	-0.006	0.218	0.155
-493.551	800.000	-0.055	-0.196
-492.537	-200.000	-0.006	-0.131
-491.522	-130.792	0.179	0.024
-490.508	-200.000	0.001	0.484
-489.493	-200.000	0.011	0.192
-488.478	-109.695	0.363	-0.076
-487.464	138.825	0.090	0.118
-486.449	-200.000	0.016	-0.118
-485.435	-200.000	-0.017	0.083
-484.420	-107.119	0.106	0.023
-483.405	-200.000	-0.020	-0.215
-482.391	153.704	0.111	-0.151
-481.376	403.297	-0.006	-0.013
-480.362	501.030	-0.044	0.100
-479.347	59.720	-0.165	0.162
-478.332	159.925	-0.105	-0.146
-477.318	800.000	0.065	-0.259
-476.303	179.977	0.019	0.027
-475.289	-139.362	-0.220	-0.023
-474.274	800.000	0.067	0.256
-473.259	-21.252	0.222	0.135
-472.245	-106.851	0.130	0.029
-471.230	412.421	-0.042	0.089
-470.216	38.435	-0.167	-0.148
-469.201	800.000	0.080	0.269
-468.186	50.516	0.108	0.101
-467.172	-127.114	0.210	-0.031
-466.157	-105.620	-0.314	-0.071
-465.143	-64.303	-0.392	-0.159
-464.128	-91.707	-0.226	-0.064
-463.113	195.010	0.116	-0.175
-462.099	-110.471	0.242	0.050
-461.084	106.226	-0.256	-0.302
-460.070	-107.542	-0.077	0.017
-459.055	800.000	0.085	0.329
-458.040	-38.365	0.309	0.163
-457.026	-46.411	0.139	0.068
-456.011	-122.507	-0.139	0.023
-454.997	-59.373	-0.491	0.210
-453.982	24.240	0.249	0.205
-452.968	800.000	-0.025	-0.092
-451.953	-51.961	-0.088	0.041
-450.938	-200.000	0.020	-0.121
-449.924	533.297	-0.092	0.216
-448.909	791.173	-0.133	0.362
-447.895	20.941	0.183	-0.147
-446.880	73.715	-0.067	-0.070
-445.865	-34.683	0.187	0.102
-444.851	35.508	0.570	-0.497
-443.836	800.000	-0.036	0.149
-442.822	-130.213	-0.134	-0.018
-441.807	-138.006	-0.256	0.028
-440.792	-108.601	-0.154	-0.033
-439.778	2.430	0.182	-0.131
-438.763	5.966	0.257	0.189
-437.749	194.526	0.168	-0.254
-436.734	125.854	-0.221	0.277
-435.719	-200.000	0.005	0.104
-434.705	291.795	0.070	0.127
-433.690	800.000	-0.023	-0.085
-432.676	-62.797	0.133	0.055
-431.661	-200.000	0.022	0.334
-430.646	-65.354	0.157	0.063
-429.632	-200.000	0.022	0.334
-428.617	-54.462	-0.228	-0.103
-427.603	308.428	-0.233	-0.433
-426.588	160.178	-0.084	0.116
-425.573	800.000	0.061	0.180
-424.559	-130.375	0.337	0.045
-423.544	-200.000	0.010	-0.195
-422.530	800.000	-0.048	0.177
-421.515	-200.000	0.001	0.070
-420.500	-200.000	-0.016	-0.160
-419.486	-200.000	0.001	-0.088
-418.471	5.434	0.112	0.082
-417.457	123.237	-0.272	-0.338
-416.442	97.019	0.099	0.113
-415.428	-115.181	0.245	-0.046
-414.413	-25.621	0.114	0.067
-413.398	-108.104	0.252	-0.054
-412.384	-42.501	0.151	0.076
-411.369	58.126	0.113	0.110
-410.355	48.515	0.160	-0.149
-409.340	116.370	0.228	0.278
-408.325	-200.000	-0.019	-0.252
-407.311	-75.811	-0.191	-0.067
-406.296	-53.473	-0.221	0.100
-405.282	-47.783	-0.287	0.138
-404.267	-97.152	-0.451	-0.117
-403.252	800.000	0.088	0.264
-402.238	-200.000	0.015	-0.241
-401.223	17.454	-0.213	-0.168
-400.209	179.718	0.134	0.194
-399.194	287.125	-0.136	-0.244
-398.179	800.000	0.013	0.047
-397.165	-200.000	-0.035	0.206
-396.150	-200.000	-0.072	0.419
-395.136	270.583	-0.141	-0.245
-394.121	159.972	0.165	0.228
-393.106	147.751	0.049	0.066
-392.092	-145.234	0.297	-0.027
-391.077	165.481	0.043	0.060
-390.063	-46.827	-0.050	-0.024
-389.048	-200.000	-0.013	0.221
-388.033	25.597	0.068	-0.056
-387.019	144.721	-0.188	0.250
-386.004	2.562	0.170	-0.122
-384.990	800.000	0.098	0.310
-383.975	-200.000	0.037	-0.268
-382.960	-97.095	0.162	0.042
-381.946	489.851	-0.072	-0.164
-380.931	263.736	0.141	0.243
-379.917	43.387	0.265	0.240
-378.902	-200.000	-0.004	-0.363
-377.888	-133.720	-0.371	-0.046
-376.873	-50.741	0.077	0.036
-375.858	69.197	-0.112	-0.114
-374.844	35.719	0.212	0.185
-373.829	-200.000	-0.013	-0.134
-372.815	800.000	0.118	-0.436
-371.800	-200.000	-0.013	-0.219
-370.785	-200.000	-0.005	-0.090
-369.771	-200.000	-0.003	0.099
-368.756	502.017	0.180	-0.412
-367.742	-106.152	0.224	-0.050
-366.727	-200.000	-0.030	-0.225
-365.712	800.000	-0.045	-0.193
-364.698	-200.000	-0.036	-0.235
-363.683	193.698	-0.084	0.126
-362.669	705.582	-0.011	-0.028
-361.654	-132.611	-0.272	0.035
-360.639	-67.848	-0.172	0.067
-359.625	-123.828	0.265	0.042
-358.610	321.007	-0.109	0.206
-357.596	-32.023	-0.156	0.086
-356.581	800.000	-0.033	0.110
-355.566	583.017	-0.071	0.172
-354.552	201.035	0.151	0.230
-353.537	-87.520	0.270	0.081
-352.523	81.711	-0.166	0.179
-351.508	312.276	-0.126	-0.235
-350.493	-98.687	-0.277	0.070
-349.479	-46.824	0.280	-0.136
-348.464	-200.000	-0.009	-0.240
-347.450	415.309	0.108	0.227
-346.435	-45.675	0.144	-0.071
-345.420	-200.000	-0.033	-0.296
-344.406	203.286	-0.075	-0.114
-343.391	25.738	0.220	0.182
-342.377	-1.493	-0.100	0.070
-341.362	150.774	0.101	0.136
-340.348	-40.929	-0.329	0.169
-339.333	-200.000	-0.049	0.304
-338.318	512.864	0.096	-0.222
-337.304	-67.513	-0.336	-0.131
-336.289	800.000	0.079	0.262
-335.275	90.309	-0.256	0.283
-334.260	-32.652	-0.286	-0.158
-333.245	103.814	0.217	-0.253
-332.231	18.705	-0.317	-0.251
-331.216	-200.000	-0.055	-0.409
-330.202	47.020	0.224	0.206
-329.187	456.031	-0.050	0.111
-328.172	-200.000	0.027	-0.289
-327.158	305.110	-0.213	-0.392
-326.143	170.565	0.043	0.060
-325.129	15.009	0.144	-0.111
-324.114	-173.561	0.409	-0.012
-323.099	97.517	0.159	0.181
-322.085	800.000	0.079	-0.331
-321.070	644.521	-0.091	-0.230
-320.056	70.364	-0.126	0.129
-319.041	-144.850	0.350	0.032
-318.026	-175.537	0.254	-0.007
-317.012	284.268	-0.052	-0.092
-315.997	-200.000	-0.000	0.100
-314.983	800.000	0.043	-0.176
-313.968	-79.677	-0.083	0.028
-312.953	-200.000	-0.006	0.151
-311.939	-200.000	0.032	0.317
-310.924	-36.828	0.082	-0.044
-309.910	-160.579	0.365	0.019
-308.895	800.000	-0.102	0.315
-307.880	166.922	0.223	0.314
-306.866	49.263	0.053	-0.049
-305.851	-57.754	-0.161	-0.070
-304.837	-180.813	-0.302	0.006
-303.822	-81.196	-0.312	-0.102
-302.807	-74.991	-0.282	-0.100
-301.793	-7.155	0.154	-0.103
-300.778	-55.629	-0.235	-0.104
-299.764	-200.000	-0.037	-0.238
-298.749	-109.186	-0.060	0.013
-297.735	-200.000	0.029	0.148
-296.720	86.913	0.061	-0.067
-295.705	45.671	-0.254	0.232
-294.691	719.637	0.110	0.289
-293.676	-200.000	-0.024	-0.382
-292.662	-36.556	-0.161	-0.086
-291.647	800.000	-0.081	-0.251
-290.632	-200.000	-0.006	0.034
-289.618	334.852	-0.042	-0.081
-288.603	-133.702	0.343	-0.042
-287.589	46.959	0.138	0.127
-286.574	800.000	-0.053	-0.155
-285.559	29.935	0.065	-0.055
-284.545	-36.636	-0.059	0.031
-283.530	-200.000	0.042	0.241
-282.516	32.612	-0.170	-0.145
-281.501	-138.979	0.167	-0.018
-280.486	-200.000	0.015	-0.319
-279.472	800.000	-0.107	0.309
-278.457	-200.000	0.020	0.198
-277.443	-200.000	-0.001	-0.279
-276.428	143.117	-0.061	0.080
-275.413	-200.000	0.013	0.163
-274.399	-200.000	0.057	-0.287
-273.384	-200.000	-0.006	-0.125
-272.370	-73.930	0.449	-0.161
-271.355	46.878	-0.299	0.274
-270.340	-132.461	-0.410	-0.052
-269.326	64.857	-0.285	-0.284
-268.311	-200.000	0.051	0.226
-267.297	-100.574	-0.198	0.048
-266.282	-200.000	-0.031	-0.134
-265.267	-200.000	0.064	-0.455
-264.253	338.803	0.066	0.127
-263.238	26.168	0.301	0.248
-262.224	43.656	-0.140	-0.126
-261.209	-10.841	0.118	0.077
-260.195	-132.633	-0.056	-0.007
-259.180	423.241	-0.074	0.157
-258.165	240.238	-0.157	-0.258
-257.151	800.000	-0.097	-0.308
-256.136	-166.623	0.283	-0.012
-255.122	-200.000	-0.022	-0.382
-254.107	-29.577	0.088	0.050
-253.092	-193.259	0.325	-0.003
-252.078	346.129	0.076	0.147
-251.063	20.603	0.189	0.151
-250.049	238.058	0.055	-0.091
-249.034	-77.148	0.246	-0.085
-248.019	-200.000	-0.052	-0.440
-247.005	-92.834	0.114	0.031
-245.990	108.360	0.194	0.228
-244.976	125.989	-0.274	-0.342
-243.961	-26.990	-0.253	0.146
-242.946	44.185	-0.215	0.195
-241.932	800.000	-0.017	0.064
-240.917	197.764	-0.093	-0.141
-239.903	-15.873	0.214	0.135
-238.888	-200.000	-0.074	0.349
-237.873	474.581	-0.075	0.168
-236.859	107.630	-0.218	0.256
-235.844	398.389	-0.198	0.408
-234.830	143.380	-0.080	0.105
-233.815	51.317	-0.169	0.158
-232.800	269.959	-0.123	0.213
-231.786	-63.169	0.147	-0.060
-230.771	-142.672	-0.085	-0.008
-229.757	-176.620	-0.216	0.005
-228.742	-16.840	-0.243	-0.152
-227.727	800.000	0.051	0.170
-226.713	-127.041	-0.418	-0.061
-225.698	118.943	0.034	0.041
-224.684	672.919	-0.061	0.156
-223.669	-101.423	0.108	-0.026
-222.655	58.382	-0.057	0.055
-221.640	157.757	0.164	0.224
-220.625	-4.582	0.186	0.126
-219.611	-84.101	-0.139	0.044
-218.596	556.031	0.116	-0.276
-217.582	215.745	0.176	-0.276
-216.567	800.000	0.087	-0.341
-215.552	-130.614	0.224	-0.030
-214.538	-75.809	0.319	-0.111
-213.523	-200.000	-0.019	0.211
-212.509	-20.898	0.126	-0.076
-211.494	-200.000	0.056	0.258
-210.479	-3.051	0.104	-0.071
-209.465	800.000	0.063	-0.237
-208.450	-115.719	0.082	0.015
-207.436	37.723	0.054	0.047
-206.421	-129.010	0.197	0.027
-205.406	82.184	0.148	-0.158
-204.392	-151.091	-0.082	0.006
-203.377	302.324	-0.107	-0.195
-202.363	83.277	0.085	0.091
-201.348	22.046	0.099	0.080
-200.333	188.871	-0.152	0.224
-199.319	-176.181	0.110	-0.003
-198.304	-200.000	0.063	0.357
-197.290	-27.048	-0.258	0.148
-196.275	43.146	-0.008	-0.007
-195.260	315.787	0.058	0.107
-194.246	512.837	-0.029	0.067
-193.231	-32.432	-0.175	0.096
-192.217	18.255	-0.195	0.153
-191.202	-7.353	0.274	-0.183
-190.187	-112.576	-0.380	-0.075
-189.173	40.956	0.236	-0.210
-188.158	-200.000	0.037	0.297
-187.144	613.650	0.093	0.229
-186.129	800.000	0.053	0.212
-185.114	116.617	0.122	-0.147
-184.100	-111.467	-0.232	-0.046
-183.085	-75.640	0.155	-0.054
-182.071	102.974	-0.137	-0.158
-181.056	290.609	-0.122	0.219
-180.042	-117.671	-0.317	0.056
-179.027	-153.247	-0.358	0.025
-178.012	-93.044	0.085	-0.023
-176.998	-182.724	0.282	0.005
-175.983	264.496	-0.064	0.110
-174.969	-200.000	-0.001	-0.118
-173.954	316.321	-0.141	-0.261
-172.939	439.834	-0.033	-0.071
-171.925	800.000	0.016	0.057
-170.910	124.690	0.233	0.289
-169.896	-200.000	-0.045	0.263
-168.881	-80.524	-0.080	-0.026
-167.866	-124.411	-0.215	-0.033
-166.852	149.216	0.176	-0.234
-165.837	251.476	-0.060	-0.100
-164.823	-20.937	0.342	-0.206
-163.808	-200.000	0.079	-0.442
-162.793	-145.830	-0.258	-0.023
-161.779	16.337	-0.082	0.064
-160.764	-200.000	0.026	-0.197
-159.750	67.871	-0.061	0.062
-158.735	-200.000	-0.020	0.116
-157.720	-67.092	0.135	0.052
-156.706	4.229	0.184	0.132
-155.691	800.000	-0.035	0.148
-154.677	-200.000	-0.024	0.218
-153.662	171.107	-0.299	0.422
-152.647	15.431	0.232	0.179
-151.633	341.710	0.198	-0.381
-150.618	-64.272	0.167	-0.067
-149.604	237.117	0.162	0.263
-148.589	-1.114	-0.136	-0.095
-147.574	-200.000	-0.005	0.106
-146.560	-75.051	-0.293	0.103
-145.545	800.000	0.085	0.290
-144.531	22.681	0.200	-0.161
-143.516	-37.737	-0.078	-0.041
-142.502	-147.923	-0.406	0.033
-141.487	94.147	0.166	-0.185
-140.472	800.000	-0.016	-0.069
-139.458	-113.462	0.376	0.072
-138.443	46.164	-0.218	-0.199
-137.429	48.331	-0.118	-0.108
-136.414	-60.556	0.146	-0.061
-135.399	9.781	-0.086	-0.064
-134.385	285.079	0.221	0.391
-133.370	523.297	-0.080	0.184
-132.356	800.000	-0.145	-0.452
-131.341	20.066	0.136	0.108
-130.326	800.000	0.045	-0.147
-129.312	-200.000	0.016	-0.203
-128.297	-117.882	0.206	0.036
-127.283	-4.440	-0.167	0.114
-126.268	-38.109	0.434	0.226
-125.253	-200.000	0.015	0.432
-124.239	-150.327	-0.366	0.028
-123.224	27.648	0.075	-0.062
-122.210	-112.519	0.313	0.061
-121.195	17.461	0.029	0.023
