DTS Sentinel unit serial number:	SN413079Multiplexer serial number:	ORYXHardware model number:	OX4-SRSoftware version number:	ORYX F/W v4.00 Oryx Data Collector v3.7.2.0data status	okinstallation	princeton_trtdifferential loss correction	single-endedforward channel	channel 1reverse channel	N/Adate	2019/09/13time	21:38:35forward acquisition time	60.00reverse acquisition time	0.00gamma	496.2192k internal	0.2332k external	0.2332temperature offset calibration	1.0082default loss term (dB/km)	0.3790temperature slope calibration	1.0000multiplexer offset coefficient	1.0000multiplexer slope coefficient	1.0000fibre end	0.00T internal ref (°C)	28.19T ext. ref 1 (°C)	3.15T ext. ref 2 (°C)	22.90length (m)	temperature (°C)	Stokes	anti-Stokes-747.200	799.233	0.066	0.183
-746.185	17.697	-0.142	-0.114
-745.171	121.063	-0.203	0.254
-744.156	-25.031	-0.091	0.055
-743.142	-116.505	0.106	-0.020
-742.127	-44.775	-0.197	0.099
-741.112	319.156	0.128	0.244
-740.098	-98.254	0.218	0.056
-739.083	12.592	0.045	-0.035
-738.069	-28.652	0.302	0.175
-737.054	282.551	-0.088	0.159
-736.039	-200.000	-0.036	-0.249
-735.025	-14.231	0.161	0.104
-734.010	-77.505	-0.081	0.028
-732.996	-23.833	-0.145	-0.088
-731.981	-200.000	0.030	-0.295
-730.966	800.000	0.078	-0.284
-729.952	-59.756	-0.462	-0.199
-728.937	72.308	0.347	-0.363
-727.923	582.347	-0.051	0.127
-726.908	-200.000	0.071	-0.333
-725.894	-5.320	-0.168	-0.116
-724.879	-84.468	0.307	-0.098
-723.864	-77.546	-0.119	0.041
-722.850	-124.751	-0.445	0.069
-721.835	-200.000	0.039	-0.220
-720.821	800.000	-0.077	0.329
-719.806	-69.009	-0.310	-0.120
-718.791	210.455	0.131	-0.207
-717.777	800.000	0.072	-0.205
-716.762	-200.000	0.024	-0.381
-715.748	-66.605	0.246	0.098
-714.733	81.514	0.126	0.137
-713.718	-73.138	0.217	0.080
-712.704	-200.000	0.006	-0.162
-711.689	743.139	0.032	-0.086
-710.675	246.690	0.181	0.307
-709.660	-98.649	-0.238	-0.061
-708.645	-200.000	0.043	-0.396
-707.631	-61.129	-0.215	-0.091
-706.616	-43.547	-0.255	-0.129
-705.602	-164.712	0.280	0.013
-704.587	22.340	-0.325	-0.267
-703.572	-132.556	0.106	0.014
-702.558	-1.861	-0.422	-0.298
-701.543	42.581	0.230	0.210
-700.529	800.000	0.069	0.216
-699.514	241.211	0.057	0.096
-698.499	493.562	0.078	-0.181
-697.485	5.232	0.143	-0.106
-696.470	-78.005	-0.384	0.133
-695.456	-200.000	-0.051	0.317
-694.441	562.646	-0.103	0.249
-693.426	131.953	0.055	0.072
-692.412	157.414	-0.141	0.195
-691.397	48.458	-0.083	-0.078
-690.383	-66.886	0.291	-0.116
-689.368	-56.402	-0.160	-0.071
-688.354	7.963	-0.437	-0.329
-687.339	103.857	-0.123	0.145
-686.324	7.732	0.037	-0.028
-685.310	-139.324	0.139	0.015
-684.295	800.000	-0.042	0.119
-683.281	-200.000	0.006	0.101
-682.266	633.495	0.118	-0.301
-681.251	800.000	0.111	-0.348
-680.237	800.000	0.127	-0.417
-679.222	35.602	-0.094	-0.083
-678.208	-200.000	0.029	-0.220
-677.193	-110.827	-0.179	-0.037
-676.178	122.745	-0.289	0.363
-675.164	800.000	-0.025	0.084
-674.149	-123.011	-0.156	-0.025
-673.135	572.139	-0.033	0.082
-672.120	158.784	-0.168	0.235
-671.105	-135.859	0.219	0.026
-670.091	-111.475	-0.129	0.026
-669.076	36.414	-0.141	0.125
-668.062	-148.656	0.450	0.037
-667.047	-9.187	-0.069	0.046
-666.032	140.408	0.154	0.204
-665.018	265.932	-0.179	0.313
-664.003	22.412	-0.126	0.103
-662.989	-35.652	0.213	-0.116
-661.974	522.730	-0.136	0.320
-660.959	800.000	-0.046	-0.134
-659.945	-149.251	0.248	0.020
-658.930	-6.350	0.332	-0.227
-657.916	-16.027	0.262	-0.167
-656.901	100.362	-0.086	-0.100
-655.886	-200.000	0.022	0.199
-654.872	233.474	0.098	-0.161
-653.857	-77.180	-0.268	0.093
-652.843	357.967	0.120	0.240
-651.828	-200.000	-0.001	0.012
-650.814	800.000	-0.052	-0.161
-649.799	-24.502	0.189	0.113
-648.784	411.858	0.143	-0.305
-647.770	-120.426	-0.036	-0.006
-646.755	-200.000	-0.019	0.231
-645.741	-23.866	-0.161	0.097
-644.726	246.032	-0.064	0.108
-643.711	-143.979	0.082	-0.008
-642.697	186.336	-0.036	-0.054
-641.682	-68.033	-0.312	0.122
-640.668	-200.000	-0.004	0.049
-639.653	-9.593	-0.150	-0.100
-638.638	-85.333	-0.156	-0.049
-637.624	275.945	-0.111	-0.197
-636.609	13.778	-0.207	0.161
-635.595	83.006	0.221	0.241
-634.580	-155.047	-0.130	-0.009
-633.565	-144.555	0.306	-0.028
-632.551	243.220	-0.135	-0.226
-631.536	247.116	-0.107	-0.180
-630.522	-55.145	0.043	0.019
-629.507	-95.180	0.179	0.048
-628.492	225.188	0.101	-0.164
-627.478	-55.576	0.468	-0.210
-626.463	40.176	0.147	-0.133
-625.449	-13.464	-0.380	-0.247
-624.434	800.000	-0.029	-0.097
-623.419	800.000	0.065	-0.218
-622.405	163.682	-0.206	-0.290
-621.390	7.918	0.088	-0.066
-620.376	-200.000	0.023	0.223
-619.361	10.952	0.215	-0.164
-618.346	570.203	0.124	0.302
-617.332	800.000	-0.047	0.130
-616.317	-46.725	0.129	-0.063
-615.303	65.121	-0.039	-0.040
-614.288	800.000	0.173	0.542
-613.273	-55.585	-0.179	-0.080
-612.259	-28.205	-0.280	-0.162
-611.244	-200.000	-0.019	0.212
-610.230	-65.269	-0.074	0.030
-609.215	-200.000	-0.025	0.235
-608.201	43.483	0.069	-0.063
-607.186	-200.000	-0.016	-0.200
-606.171	-200.000	-0.031	-0.201
-605.157	800.000	-0.009	-0.031
-604.142	800.000	-0.034	0.109
-603.128	800.000	-0.048	-0.156
-602.113	-92.248	-0.314	0.089
-601.098	65.910	0.111	0.113
-600.084	313.847	0.146	-0.275
-599.069	-200.000	-0.062	-0.287
-598.055	-57.795	0.146	0.064
-597.040	-83.678	-0.471	0.150
-596.025	-120.783	0.232	-0.039
-595.011	-18.990	0.297	0.185
-593.996	-78.942	-0.400	-0.136
-592.982	441.880	-0.064	0.141
-591.967	16.990	-0.260	-0.206
-590.952	-200.000	-0.296	-0.001
-589.938	486.140	0.219	-0.500
-588.923	-34.296	0.346	-0.190
-587.909	-99.067	0.156	-0.039
-586.894	-92.081	0.250	-0.071
-585.879	-81.927	0.359	-0.118
-584.865	-200.000	0.046	-0.262
-583.850	800.000	0.030	-0.122
-582.836	488.294	-0.037	-0.085
-581.821	-166.311	0.114	0.005
-580.806	-146.233	-0.136	0.012
-579.792	-200.000	-0.006	0.075
-578.777	-141.742	0.253	-0.025
-577.763	-144.756	0.116	-0.011
-576.748	-111.739	0.214	0.043
-575.733	800.000	-0.066	-0.278
-574.719	13.430	-0.046	0.036
-573.704	-118.248	-0.251	0.045
-572.690	-200.000	0.004	-0.067
-571.675	-73.899	-0.024	0.009
-570.661	-60.103	-0.134	-0.057
-569.646	106.500	-0.054	0.064
-568.631	-145.849	-0.066	0.006
-567.617	70.601	0.191	-0.197
-566.602	-200.000	-0.023	-0.143
-565.588	10.854	-0.158	-0.120
-564.573	41.495	0.200	0.181
-563.558	800.000	-0.033	-0.113
-562.544	-200.000	-0.030	-0.276
-561.529	88.502	-0.279	0.309
-560.515	256.532	-0.158	-0.272
-559.500	-200.000	0.041	-0.258
-558.485	-200.000	-0.040	-0.254
-557.471	418.505	-0.054	-0.114
-556.456	-170.161	0.182	-0.006
-555.442	-200.000	-0.048	-0.295
-554.427	-13.141	0.279	0.181
-553.412	800.000	0.012	0.051
-552.398	-200.000	-0.030	-0.210
-551.383	121.890	-0.209	-0.261
-550.369	73.598	0.203	0.212
-549.354	-200.000	-0.007	-0.243
-548.339	76.684	-0.028	-0.029
-547.325	361.504	0.096	-0.192
-546.310	-136.959	-0.140	-0.016
-545.296	-16.809	-0.199	0.126
-544.281	-200.000	0.009	0.104
-543.266	-125.477	0.063	0.010
-542.252	241.279	0.100	-0.167
-541.237	112.178	0.171	-0.206
-540.223	-80.413	0.263	0.088
-539.208	114.345	-0.247	-0.300
-538.193	-76.778	-0.198	-0.069
-537.179	-200.000	0.000	0.111
-536.164	800.000	-0.157	0.471
-535.150	-70.583	0.492	-0.186
-534.135	-0.082	0.083	0.059
-533.121	800.000	0.018	0.060
-532.106	-88.362	0.157	0.047
-531.091	-60.680	-0.090	0.038
-530.077	-8.761	0.179	-0.120
-529.062	533.312	0.044	-0.103
-528.048	-200.000	-0.057	-0.266
-527.033	118.873	0.177	-0.218
-526.018	-200.000	-0.010	0.330
-525.004	-2.390	-0.146	-0.102
-523.989	800.000	-0.061	0.183
-522.975	-172.437	0.302	0.010
-521.960	1.912	-0.258	-0.185
-520.945	-110.133	-0.081	0.017
-519.931	263.723	0.146	-0.254
-518.916	-32.687	0.116	-0.064
-517.902	79.044	-0.025	0.027
-516.887	800.000	-0.048	-0.161
-515.872	-22.012	-0.025	0.015
-514.858	62.499	0.110	0.109
-513.843	-92.866	-0.193	-0.054
-512.829	800.000	-0.089	0.366
-511.814	-147.498	-0.305	-0.026
-510.799	0.675	0.171	-0.122
-509.785	-162.741	-0.040	-0.002
-508.770	-68.068	-0.456	0.177
-507.756	321.698	-0.109	0.206
-506.741	-200.000	0.014	-0.265
-505.726	-82.244	0.248	0.081
-504.712	-144.001	0.203	0.019
-503.697	84.464	0.049	0.054
-502.683	-129.840	0.246	0.034
-501.668	-200.000	-0.001	-0.215
-500.653	-200.000	-0.066	0.299
-499.639	-120.900	-0.327	-0.055
-498.624	263.090	0.036	0.063
-497.610	-99.760	-0.213	0.053
-496.595	517.530	0.148	-0.346
-495.581	-52.955	-0.323	-0.148
-494.566	131.829	0.214	-0.274
-493.551	-116.452	-0.179	-0.033
-492.537	-4.078	0.227	0.156
-491.522	-112.965	0.228	-0.045
-490.508	44.261	-0.187	-0.171
-489.493	-109.240	0.390	-0.083
-488.478	-40.916	-0.338	-0.174
-487.464	-91.039	0.070	-0.020
-486.449	800.000	0.034	-0.114
-485.435	57.062	-0.113	-0.110
-484.420	-101.208	0.203	0.049
-483.405	-33.810	0.262	-0.144
-482.391	9.561	-0.334	0.252
-481.376	-0.282	0.037	-0.026
-480.362	-200.000	-0.001	-0.241
-479.347	-119.715	0.226	-0.039
-478.332	-123.370	0.169	0.027
-477.318	-29.397	-0.284	0.162
-476.303	800.000	0.051	0.207
-475.289	-200.000	0.027	0.142
-474.274	116.257	0.178	0.217
-473.259	-49.565	0.187	0.089
-472.245	18.950	0.124	-0.099
-471.230	-71.078	-0.127	0.047
-470.216	29.576	0.140	-0.119
-469.201	-34.012	-0.200	-0.110
-468.186	166.939	0.184	0.260
-467.172	-42.887	-0.262	-0.133
-466.157	72.070	-0.445	-0.461
-465.143	-200.000	0.011	-0.143
-464.128	-110.970	-0.439	-0.090
-463.113	61.970	-0.219	-0.217
-462.099	-200.000	-0.042	-0.230
-461.084	-200.000	-0.025	-0.160
-460.070	-114.694	0.212	-0.040
-459.055	-136.122	0.505	-0.059
-458.040	-138.278	-0.261	-0.029
-457.026	-200.000	0.003	-0.188
-456.011	154.274	-0.157	0.214
-454.997	17.632	-0.267	0.211
-453.982	38.265	-0.132	-0.117
-452.968	560.474	0.167	-0.402
-451.953	457.898	0.058	-0.129
-450.938	7.808	-0.160	-0.119
-449.924	649.024	0.069	0.177
-448.909	178.368	0.105	0.153
-447.895	-40.284	-0.142	-0.074
-446.880	800.000	0.037	0.141
-445.865	-200.000	-0.056	0.255
-444.851	236.860	0.147	0.243
-443.836	-46.936	-0.167	-0.081
-442.822	193.613	0.141	-0.212
-441.807	-93.857	0.240	-0.066
-440.792	-200.000	0.050	-0.290
-439.778	-117.512	0.155	0.028
-438.763	61.102	-0.068	-0.068
-437.749	-200.000	-0.000	0.080
-436.734	-63.075	-0.035	0.014
-435.719	2.966	-0.245	0.177
-434.705	-55.826	-0.379	-0.168
-433.690	519.920	0.249	0.581
-432.676	-77.319	0.218	-0.075
-431.661	800.000	0.052	0.173
-430.646	31.482	-0.289	0.247
-429.632	243.370	0.096	0.161
-428.617	-157.280	0.103	0.006
-427.603	800.000	0.020	-0.059
-426.588	76.984	-0.063	0.066
-425.573	800.000	-0.115	-0.410
-424.559	-200.000	-0.005	0.230
-423.544	-72.174	-0.116	0.043
-422.530	222.611	-0.186	-0.297
-421.515	-200.000	-0.055	0.397
-420.500	172.082	-0.224	0.320
-419.486	-200.000	0.003	0.114
-418.471	-83.208	0.010	-0.003
-417.457	-200.000	0.010	-0.210
-416.442	187.642	0.056	0.082
-415.428	-178.875	0.096	-0.002
-414.413	552.408	-0.002	-0.005
-413.398	800.000	0.048	-0.202
-412.384	155.052	0.124	-0.170
-411.369	-200.000	0.005	-0.022
-410.355	719.852	-0.014	0.037
-409.340	92.782	-0.067	0.075
-408.325	160.258	-0.078	-0.108
-407.311	800.000	0.059	0.209
-406.296	-53.236	-0.272	-0.124
-405.282	-48.093	-0.208	0.100
-404.267	-200.000	-0.012	-0.123
-403.252	262.072	0.184	0.316
-402.238	-200.000	0.058	0.274
-401.223	21.398	0.258	0.208
-400.209	-18.557	0.301	0.186
-399.194	-200.000	-0.044	-0.325
-398.179	-200.000	-0.046	0.471
-397.165	-89.707	0.155	-0.045
-396.150	-125.426	-0.413	-0.062
-395.136	800.000	0.049	-0.198
-394.121	176.652	0.143	0.206
-393.106	164.350	-0.144	-0.201
-392.092	-200.000	-0.094	-0.430
-391.077	29.239	0.249	0.210
-390.063	-112.561	-0.201	0.040
-389.048	160.642	0.108	0.150
-388.033	800.000	0.060	-0.245
-387.019	550.206	0.062	0.147
-386.004	158.094	0.196	-0.270
-384.990	800.000	-0.083	-0.288
-383.975	-200.000	-0.029	0.448
-382.960	-11.217	-0.066	0.043
-381.946	-23.705	0.191	0.114
-380.931	-200.000	0.012	0.112
-379.917	46.615	-0.052	0.047
-378.902	507.448	0.079	-0.182
-377.888	164.018	0.149	-0.209
-376.873	-19.488	-0.173	-0.106
-375.858	-113.648	0.168	0.033
-374.844	-200.000	-0.041	-0.301
-373.829	-15.451	0.153	-0.097
-372.815	81.005	-0.082	-0.088
-371.800	-148.343	-0.490	-0.040
-370.785	-13.920	0.398	0.255
-369.771	-200.000	-0.010	-0.197
-368.756	32.344	-0.149	0.127
-367.742	340.650	0.138	0.267
-366.727	44.003	-0.145	-0.132
-365.712	-49.023	-0.122	0.058
-364.698	20.442	0.201	0.161
-363.683	-131.510	0.342	-0.045
-362.669	-16.137	-0.039	0.025
-361.654	-85.367	-0.154	-0.048
-360.639	-118.101	-0.182	-0.032
-359.625	500.364	-0.071	0.163
-358.610	-133.475	-0.197	0.025
-357.596	-200.000	0.011	-0.141
-356.581	800.000	0.127	-0.392
-355.566	30.643	0.166	-0.141
-354.552	29.864	-0.261	0.221
-353.537	761.846	0.114	0.308
-352.523	-142.855	0.127	-0.012
-351.508	-196.440	-0.138	-0.001
-350.493	42.257	0.096	-0.087
-349.479	734.046	0.136	0.361
-348.464	81.533	0.137	0.147
-347.450	363.297	-0.027	0.053
-346.435	-0.743	0.089	-0.063
-345.420	291.627	-0.059	0.107
-344.406	-200.000	-0.038	0.194
-343.391	752.804	0.041	-0.109
-342.377	-63.764	-0.104	-0.042
-341.362	17.433	-0.079	0.062
-340.348	23.761	-0.107	0.087
-339.333	313.310	-0.081	-0.150
-338.318	213.543	-0.075	0.118
-337.304	800.000	0.036	-0.116
-336.289	189.295	-0.231	0.342
-335.275	525.912	0.072	0.167
-334.260	-110.626	0.068	0.014
-333.245	800.000	-0.013	-0.053
-332.231	72.629	0.060	-0.062
-331.216	800.000	0.075	-0.297
-330.202	-126.300	-0.086	-0.013
-329.187	800.000	0.044	0.132
-328.172	-138.304	-0.407	0.045
-327.158	590.876	-0.031	-0.077
-326.143	-87.034	-0.258	-0.078
-325.129	-87.448	-0.092	-0.027
-324.114	-29.547	0.251	0.142
-323.099	2.237	0.089	0.063
-322.085	-134.609	-0.305	0.037
-321.070	595.741	-0.070	-0.171
-320.056	178.400	-0.126	0.182
-319.041	-49.823	-0.069	0.032
-318.026	35.249	0.077	0.067
-317.012	7.151	0.106	0.078
-315.997	42.818	0.147	0.133
-314.983	-200.000	-0.034	0.186
-313.968	168.736	-0.102	-0.144
-312.953	800.000	-0.051	0.151
-311.939	-200.000	0.026	-0.459
-310.924	273.370	0.077	-0.134
-309.910	-93.472	-0.282	-0.077
-308.895	-100.199	0.328	-0.081
-307.880	524.302	-0.138	-0.322
-306.866	193.920	-0.042	0.063
-305.851	-14.578	0.109	-0.069
-304.837	-45.166	0.258	0.127
-303.822	-65.783	0.084	-0.033
-302.807	-7.199	-0.130	-0.087
-301.793	-141.616	-0.377	0.038
-300.778	800.000	0.065	-0.244
-299.764	-33.172	-0.325	0.178
-298.749	-41.052	0.080	0.041
-297.735	23.712	-0.195	0.159
-296.720	-121.341	0.185	0.031
-295.705	44.111	0.284	-0.257
-294.691	117.797	-0.236	0.287
-293.676	-79.116	0.236	-0.079
-292.662	-200.000	-0.029	0.141
-291.647	-85.043	0.211	-0.065
-290.632	-200.000	0.044	0.235
-289.618	800.000	0.060	-0.185
-288.603	-46.054	0.094	0.046
-287.589	-120.365	-0.135	0.023
-286.574	-200.000	0.087	0.457
-285.559	-200.000	0.034	0.172
-284.545	-60.974	0.094	-0.039
-283.530	502.923	-0.170	0.389
-282.516	-40.847	0.264	0.135
-281.501	9.481	-0.255	-0.190
-280.486	-117.901	-0.033	0.006
-279.472	30.907	0.055	-0.046
-278.457	800.000	-0.042	0.123
-277.443	-200.000	-0.068	0.324
-276.428	529.498	-0.027	0.063
-275.413	-47.681	0.158	0.076
-274.399	179.308	0.154	-0.222
-273.384	25.264	0.062	-0.051
-272.370	280.016	-0.034	-0.060
-271.355	25.483	-0.192	-0.158
-270.340	-101.554	-0.106	0.025
-269.326	-200.000	0.016	0.142
-268.311	279.263	-0.112	-0.198
-267.297	106.090	-0.129	0.151
-266.282	-200.000	0.005	0.174
-265.267	-19.138	0.112	0.068
-264.253	-31.952	0.116	-0.064
-263.238	126.606	0.247	0.309
-262.224	-19.739	-0.115	-0.070
-261.209	-81.104	-0.135	0.044
-260.195	-84.199	-0.028	-0.009
-259.180	-200.000	-0.019	-0.327
-258.165	78.963	0.176	-0.186
-257.151	94.137	-0.102	0.114
-256.136	81.134	-0.180	-0.192
-255.122	16.164	-0.121	0.094
-254.107	-200.000	-0.049	0.278
-253.092	5.882	0.226	-0.165
-252.078	-200.000	-0.016	0.126
-251.063	-112.430	0.255	-0.050
-250.049	101.475	-0.236	-0.271
-249.034	52.638	0.212	0.200
-248.019	168.751	0.075	-0.105
-247.005	-200.000	-0.028	-0.252
-245.990	-140.042	0.132	-0.014
-244.976	343.073	-0.057	0.111
-243.961	-22.014	0.138	-0.083
-242.946	64.739	0.090	0.089
-241.932	61.702	-0.141	-0.138
-240.917	69.589	0.139	0.141
-239.903	154.348	-0.144	0.195
-238.888	89.576	0.253	0.278
-237.873	-52.991	-0.144	0.065
-236.859	-57.612	0.208	-0.090
-235.844	-35.219	-0.159	0.085
-234.830	293.313	-0.239	0.431
-233.815	123.195	0.181	-0.224
-232.800	-200.000	0.011	-0.119
-231.786	-124.885	-0.020	0.003
-230.771	-200.000	-0.014	-0.282
-229.757	29.457	-0.093	-0.078
-228.742	-44.262	0.240	0.119
-227.727	-134.395	0.303	0.037
-226.713	377.174	-0.031	-0.062
-225.698	648.129	0.128	0.324
-224.684	-88.029	0.106	0.031
-223.669	-200.000	-0.083	0.417
-222.655	106.625	0.185	0.216
-221.640	256.592	-0.261	0.441
-220.625	-36.683	0.119	0.063
-219.611	345.539	0.101	0.195
-218.596	-200.000	0.029	0.166
-217.582	-200.000	-0.003	-0.204
-216.567	-200.000	-0.030	0.386
-215.552	64.911	0.063	0.062
-214.538	-18.435	0.154	0.095
-213.523	-17.930	0.056	-0.035
-212.509	-58.890	-0.197	-0.084
-211.494	91.412	-0.284	0.314
-210.479	26.515	-0.130	-0.107
-209.465	800.000	-0.077	0.249
-208.450	-200.000	-0.030	0.234
-207.436	-2.701	0.064	-0.044
-206.421	397.548	0.151	0.311
-205.406	-34.983	-0.274	0.147
-204.392	154.424	-0.044	0.060
-203.377	434.677	-0.145	-0.310
-202.363	-200.000	-0.071	0.000
-201.348	284.947	0.200	0.355
-200.333	-132.498	-0.136	0.017
-199.319	800.000	0.100	-0.299
-198.304	-84.902	-0.095	0.029
-197.290	-93.674	-0.380	0.103
-196.275	56.899	0.409	-0.393
-195.260	-6.665	-0.235	-0.158
-194.246	800.000	-0.052	-0.212
-193.231	-8.830	-0.299	-0.198
-192.217	-10.500	0.106	-0.069
-191.202	-94.482	0.261	-0.070
-190.187	-189.354	0.121	0.001
-189.173	710.559	-0.124	0.323
-188.158	-57.954	0.157	-0.067
-187.144	-79.240	-0.176	-0.059
-186.129	-80.254	0.315	-0.104
-185.114	25.085	0.205	0.168
-184.100	57.978	-0.255	0.246
-183.085	800.000	0.074	0.216
-182.071	-200.000	-0.013	-0.098
-181.056	800.000	0.132	-0.403
-180.042	800.000	0.017	0.064
-179.027	13.398	0.128	0.098
-178.012	393.919	0.060	-0.124
-176.998	800.000	0.113	0.333
-175.983	265.440	0.112	-0.192
-174.969	-103.022	0.171	0.040
-173.954	-12.504	-0.240	-0.154
-172.939	-65.265	0.158	0.062
-171.925	-200.000	0.022	0.198
-170.910	-17.197	-0.058	-0.036
-169.896	421.163	-0.127	0.268
-168.881	113.984	0.175	-0.209
-167.866	-200.000	0.011	0.211
-166.852	259.849	0.046	0.079
-165.837	-200.000	-0.021	-0.305
-164.823	-200.000	0.038	-0.268
-163.808	-135.429	0.136	-0.016
-162.793	-89.084	-0.222	0.065
-161.779	800.000	0.162	0.457
-160.764	-97.326	-0.205	0.052
-159.750	228.346	0.037	0.059
-158.735	317.955	0.051	0.095
-157.720	-200.000	-0.051	0.310
-156.706	-148.508	0.276	0.022
-155.691	800.000	0.073	0.241
-154.677	126.711	0.048	-0.060
-153.662	215.179	-0.162	0.252
-152.647	-79.588	-0.239	-0.079
-151.633	-43.856	-0.150	-0.074
-150.618	38.992	-0.227	-0.200
-149.604	-97.766	-0.174	-0.044
-148.589	800.000	-0.034	0.117
-147.574	-6.705	0.116	-0.078
-146.560	-90.609	0.049	0.014
-145.545	-146.590	0.203	-0.017
-144.531	143.175	0.229	0.299
-143.516	-111.551	0.130	0.026
-142.502	5.085	-0.167	-0.121
-141.487	-82.277	-0.079	0.025
-140.472	126.672	0.082	-0.102
-139.458	429.987	-0.025	-0.053
-138.443	-102.237	0.178	-0.042
-137.429	210.888	-0.070	-0.108
-136.414	800.000	-0.061	-0.220
-135.399	379.232	-0.110	0.221
-134.385	800.000	-0.049	0.170
-133.370	284.145	-0.134	0.236
-132.356	-22.099	0.219	-0.131
-131.341	162.262	0.163	-0.224
-130.326	164.500	-0.170	0.236
-129.312	-200.000	0.071	0.397
-128.297	800.000	0.062	0.218
-127.283	800.000	0.063	0.269
-126.268	1.806	-0.357	0.253
-125.253	-12.007	-0.067	0.043
-124.239	800.000	-0.092	0.282
-123.224	-200.000	-0.010	0.102
-122.210	-200.000	-0.011	0.135
-121.195	-124.646	0.101	-0.015
