DTS Sentinel unit serial number:	SN413079Multiplexer serial number:	ORYXHardware model number:	OX4-SRSoftware version number:	ORYX F/W v4.00 Oryx Data Collector v3.7.2.0data status	okinstallation	princeton_trtdifferential loss correction	single-endedforward channel	channel 1reverse channel	N/Adate	2019/09/15time	14:34:35forward acquisition time	60.00reverse acquisition time	0.00gamma	496.2192k internal	0.2290k external	0.2290temperature offset calibration	0.9956default loss term (dB/km)	0.3790temperature slope calibration	1.0000multiplexer offset coefficient	1.0000multiplexer slope coefficient	1.0000fibre end	0.00T internal ref (°C)	39.44T ext. ref 1 (°C)	4.89T ext. ref 2 (°C)	36.50length (m)	temperature (°C)	Stokes	anti-Stokes-747.200	488.851	-0.101	0.235
-746.185	90.966	0.189	0.217
-745.171	243.115	-0.072	-0.123
-744.156	-200.000	-0.008	0.240
-743.142	126.511	0.042	0.055
-742.127	-200.000	0.012	0.077
-741.112	-51.006	-0.082	0.039
-740.098	-200.000	0.041	0.288
-739.083	-200.000	0.039	0.411
-738.069	350.310	-0.119	0.241
-737.054	60.587	0.148	0.150
-736.039	-76.188	-0.258	0.093
-735.025	-113.174	0.143	0.029
-734.010	24.141	-0.432	-0.365
-732.996	800.000	-0.049	-0.198
-731.981	-163.229	-0.419	-0.021
-730.966	-200.000	-0.010	0.077
-729.952	-200.000	-0.032	-0.150
-728.937	-149.724	-0.282	0.023
-727.923	-1.074	-0.148	0.107
-726.908	800.000	-0.051	-0.219
-725.894	726.648	0.041	0.111
-724.879	426.039	0.021	-0.047
-723.864	109.601	-0.081	0.100
-722.850	518.723	0.058	0.138
-721.835	388.727	-0.095	-0.201
-720.821	374.398	0.177	0.369
-719.806	-100.312	-0.171	-0.043
-718.791	110.958	-0.201	-0.247
-717.777	-200.000	0.048	-0.279
-716.762	-163.550	-0.401	0.019
-715.748	575.716	0.078	-0.194
-714.733	97.849	0.126	0.149
-713.718	124.202	-0.137	0.176
-712.704	3.921	-0.166	-0.124
-711.689	-136.341	-0.207	0.025
-710.675	284.660	0.067	-0.124
-709.660	788.333	0.081	-0.228
-708.645	65.059	0.053	-0.054
-707.631	43.843	-0.077	-0.072
-706.616	51.276	-0.496	0.481
-705.602	-178.462	-0.058	0.001
-704.587	-104.665	-0.163	0.038
-703.572	275.358	-0.100	-0.182
-702.558	197.074	-0.135	-0.210
-701.543	156.390	0.225	0.318
-700.529	-200.000	-0.028	0.270
-699.514	-200.000	0.290	0.001
-698.499	-98.056	-0.137	-0.036
-697.485	42.506	-0.214	-0.199
-696.470	800.000	-0.127	0.388
-695.456	-20.531	-0.149	-0.094
-694.441	-200.000	-0.012	-0.351
-693.426	-200.000	-0.055	0.346
-692.412	800.000	-0.012	-0.051
-691.397	-51.048	-0.469	0.225
-690.383	274.341	-0.055	-0.099
-689.368	768.011	-0.066	0.184
-688.354	800.000	-0.051	-0.192
-687.339	110.365	-0.152	-0.187
-686.324	-200.000	0.010	-0.147
-685.310	-131.401	-0.249	-0.034
-684.295	-98.264	-0.173	-0.045
-683.281	148.973	0.041	-0.056
-682.266	107.056	-0.138	0.167
-681.251	86.751	-0.131	0.148
-680.237	280.232	-0.228	0.416
-679.222	-36.864	-0.206	0.113
-678.208	273.617	-0.112	-0.203
-677.193	800.000	0.023	0.099
-676.178	535.768	-0.052	-0.125
-675.164	-105.132	-0.166	-0.039
-674.149	-200.000	-0.030	0.273
-673.135	-59.160	-0.410	-0.180
-672.120	-109.974	0.358	0.077
-671.105	-200.000	0.018	-0.263
-670.091	54.121	0.116	0.114
-669.076	-200.000	-0.021	-0.122
-668.062	-200.000	0.013	0.225
-667.047	-59.714	0.193	0.084
-666.032	-60.901	-0.330	0.142
-665.018	-49.491	-0.232	0.113
-664.003	-200.000	0.024	0.429
-662.989	800.000	0.054	-0.203
-661.974	119.609	0.081	0.102
-660.959	311.482	0.154	-0.296
-659.945	-63.240	0.261	-0.110
-658.930	568.413	-0.116	-0.288
-657.916	800.000	0.061	-0.211
-656.901	17.874	0.023	0.018
-655.886	393.683	-0.139	0.296
-654.872	-166.287	-0.389	-0.017
-653.857	53.551	-0.211	-0.207
-652.843	-93.918	0.242	-0.068
-651.828	400.429	-0.116	-0.248
-650.814	73.047	0.093	0.099
-649.799	323.027	0.225	-0.437
-648.784	-161.366	0.223	0.012
-647.770	213.381	0.256	-0.412
-646.755	-9.536	-0.196	-0.133
-645.741	-98.637	0.336	-0.088
-644.726	130.342	0.064	-0.083
-643.711	186.698	0.036	0.054
-642.697	-200.000	0.007	-0.064
-641.682	-127.234	-0.135	0.020
-640.668	210.845	0.040	-0.064
-639.653	388.941	0.085	-0.180
-638.638	-53.989	-0.234	-0.109
-637.624	-200.000	-0.011	0.271
-636.609	-86.781	-0.310	-0.097
-635.595	137.745	0.119	-0.159
-634.580	115.531	0.090	-0.113
-633.565	-46.013	0.159	-0.080
-632.551	-123.591	0.217	0.035
-631.536	800.000	0.096	-0.336
-630.522	651.699	-0.083	-0.216
-629.507	43.802	-0.163	0.153
-628.492	314.539	-0.139	0.267
-627.478	602.299	0.061	0.155
-626.463	-177.771	0.439	-0.011
-625.449	-107.535	-0.261	0.058
-624.434	485.120	-0.066	-0.153
-623.419	-200.000	-0.050	-0.471
-622.405	-77.240	0.358	-0.127
-621.390	78.939	-0.137	0.149
-620.376	-56.403	-0.260	-0.118
-619.361	800.000	0.127	0.519
-618.346	-113.719	0.280	0.056
-617.332	-200.000	-0.006	-0.096
-616.317	-73.847	0.240	-0.089
-615.303	-200.000	0.028	0.175
-614.288	-53.391	-0.447	-0.209
-613.273	-67.296	0.245	0.098
-612.259	-12.201	-0.133	0.089
-611.244	49.037	-0.161	-0.154
-610.230	-51.336	0.065	-0.031
-609.215	262.384	0.133	-0.236
-608.201	24.003	0.119	0.100
-607.186	-65.552	0.061	-0.025
-606.171	-119.648	0.137	0.024
-605.157	208.591	-0.074	-0.118
-604.142	-121.950	0.306	-0.051
-603.128	-200.000	-0.032	0.155
-602.113	168.050	-0.058	-0.085
-601.098	-96.598	0.199	-0.054
-600.084	-200.000	-0.001	0.292
-599.069	540.856	-0.091	-0.221
-598.055	579.337	0.048	-0.120
-597.040	-200.000	0.019	0.214
-596.025	-69.436	-0.181	-0.071
-595.011	394.138	-0.202	-0.429
-593.996	-132.219	0.146	-0.019
-592.982	-112.939	0.200	0.040
-591.967	178.121	0.065	0.097
-590.952	28.798	0.351	-0.303
-589.938	800.000	0.062	-0.203
-588.923	239.162	0.035	-0.059
-587.909	-43.364	-0.133	0.068
-586.894	-200.000	0.043	-0.223
-585.879	86.161	-0.253	-0.284
-584.865	211.061	0.110	0.176
-583.850	-200.000	-0.009	-0.078
-582.836	-48.684	-0.270	0.132
-581.821	14.018	-0.033	0.026
-580.806	288.624	-0.053	-0.098
-579.792	107.038	-0.153	0.185
-578.777	242.144	-0.077	-0.131
-577.763	-175.402	-0.190	-0.005
-576.748	-44.576	0.242	0.123
-575.733	63.596	-0.078	-0.080
-574.719	22.863	-0.077	-0.065
-573.704	-48.758	-0.287	0.140
-572.690	487.292	0.221	0.514
-571.675	-200.000	0.022	-0.218
-570.661	800.000	0.085	0.296
-569.646	-77.539	0.098	0.035
-568.631	-200.000	0.031	0.148
-567.617	-33.039	0.154	-0.087
-566.602	32.983	-0.261	-0.230
-565.588	56.383	-0.247	-0.244
-564.573	71.364	-0.078	0.082
-563.558	-200.000	-0.008	0.235
-562.544	648.303	-0.089	-0.232
-561.529	-10.336	-0.141	0.095
-560.515	151.832	-0.184	-0.255
-559.500	139.678	-0.207	-0.278
-558.485	-200.000	-0.059	-0.452
-557.471	9.994	-0.134	-0.104
-556.456	602.870	-0.081	-0.205
-555.442	367.281	0.162	0.333
-554.427	800.000	-0.112	-0.331
-553.412	800.000	0.061	-0.233
-552.398	-34.642	-0.230	-0.128
-551.383	-65.879	-0.053	-0.022
-550.369	66.814	-0.196	0.203
-549.354	-133.495	0.037	0.005
-548.339	-95.573	-0.059	0.016
-547.325	-21.197	-0.167	0.104
-546.310	-108.861	0.179	-0.039
-545.296	800.000	-0.116	0.329
-544.281	-200.000	-0.063	0.325
-543.266	150.089	0.164	-0.226
-542.252	15.773	-0.294	0.235
-541.237	-200.000	-0.008	0.074
-540.223	-34.704	0.223	0.124
-539.208	169.701	0.201	-0.292
-538.193	-48.339	0.297	-0.146
-537.179	306.942	0.152	-0.288
-536.164	-200.000	-0.019	-0.343
-535.150	79.233	-0.156	-0.170
-534.135	-87.428	0.149	0.046
-533.121	122.079	0.149	0.189
-532.106	800.000	-0.084	0.305
-531.091	-200.000	-0.037	-0.279
-530.077	-8.077	0.160	-0.109
-529.062	90.733	-0.018	0.021
-528.048	-119.018	-0.097	0.017
-527.033	-100.570	0.219	-0.055
-526.018	73.083	-0.068	0.072
-525.004	76.258	0.279	-0.301
-523.989	61.949	0.182	-0.184
-522.975	800.000	0.128	-0.492
-521.960	9.280	0.072	-0.056
-520.945	67.115	0.182	-0.189
-519.931	-115.396	0.310	0.059
-518.916	222.798	0.178	0.290
-517.902	72.238	-0.086	0.090
-516.887	-95.302	-0.205	-0.056
-515.872	-5.797	0.312	-0.217
-514.858	800.000	-0.033	-0.129
-513.843	54.547	0.298	-0.291
-512.829	-32.713	0.243	0.137
-511.814	-200.000	0.084	-0.000
-510.799	-114.678	-0.435	-0.085
-509.785	166.781	0.075	-0.107
-508.770	-75.012	-0.259	0.094
-507.756	72.721	-0.053	0.056
-506.741	16.374	0.124	0.100
-505.726	416.713	-0.067	-0.145
-504.712	-108.646	0.157	0.034
-503.697	74.133	-0.220	-0.234
-502.683	27.619	0.182	-0.156
-501.668	-200.000	-0.001	0.114
-500.653	360.398	-0.074	0.151
-499.639	-137.248	-0.363	0.042
-498.624	-90.804	0.295	0.086
-497.610	74.657	0.142	0.152
-496.595	58.889	-0.168	0.167
-495.581	-81.650	-0.061	0.020
-494.566	-15.446	0.256	0.166
-493.551	-200.000	0.036	0.272
-492.537	-25.332	-0.141	-0.085
-491.522	-95.230	0.116	-0.032
-490.508	282.434	-0.138	-0.251
-489.493	-200.000	-0.003	0.100
-488.478	-123.018	-0.180	0.029
-487.464	64.987	-0.126	-0.129
-486.449	-113.224	0.338	-0.068
-485.435	134.588	0.098	-0.129
-484.420	-200.000	-0.025	-0.125
-483.405	-128.019	0.203	0.030
-482.391	-25.871	-0.185	0.111
-481.376	-4.045	-0.055	0.039
-480.362	800.000	0.071	-0.206
-479.347	-137.328	0.303	0.035
-478.332	-101.190	0.223	0.055
-477.318	247.808	0.031	0.053
-476.303	-158.564	-0.261	-0.015
-475.289	16.789	-0.051	-0.041
-474.274	-200.000	0.057	-0.496
-473.259	-200.000	0.047	-0.283
-472.245	-52.285	-0.335	-0.157
-471.230	-53.312	-0.070	-0.032
-470.216	800.000	0.065	0.182
-469.201	-129.276	-0.222	0.031
-468.186	58.574	-0.394	-0.392
-467.172	-200.000	-0.028	0.255
-466.157	-111.968	-0.480	-0.098
-465.143	-200.000	-0.015	-0.310
-464.128	122.235	0.112	0.141
-463.113	69.727	-0.120	-0.125
-462.099	1.727	0.166	0.121
-461.084	426.688	-0.062	0.135
-460.070	34.514	0.142	-0.126
-459.055	800.000	0.042	0.174
-458.040	279.012	-0.114	-0.206
-457.026	43.656	-0.177	-0.164
-456.011	335.472	-0.162	0.317
-454.997	170.126	-0.186	0.270
-453.982	112.458	-0.055	0.067
-452.968	-43.940	0.041	0.021
-451.953	800.000	0.109	-0.420
-450.938	124.174	-0.195	0.248
-449.924	30.869	-0.178	0.155
-448.909	-7.009	-0.245	-0.168
-447.895	184.208	0.139	0.208
-446.880	-200.000	-0.013	0.144
-445.865	183.091	-0.024	-0.036
-444.851	-75.686	0.288	0.104
-443.836	-151.116	-0.462	-0.035
-442.822	800.000	0.027	0.117
-441.807	17.493	0.288	0.232
-440.792	-107.782	0.106	0.023
-439.778	68.504	0.073	0.076
-438.763	-172.982	-0.196	-0.006
-437.749	-49.734	0.284	0.137
-436.734	172.896	-0.186	0.271
-435.719	-112.680	0.314	0.063
-434.705	67.657	-0.145	0.150
-433.690	-81.072	-0.284	0.095
-432.676	800.000	-0.047	0.180
-431.661	152.597	-0.090	0.124
-430.646	428.798	-0.098	0.213
-429.632	723.020	-0.098	0.265
-428.617	-113.469	-0.174	-0.035
-427.603	800.000	0.049	0.189
-426.588	-200.000	-0.006	-0.047
-425.573	-43.581	0.391	0.200
-424.559	47.980	0.185	-0.175
-423.544	-46.052	0.256	0.128
-422.530	-85.259	0.174	0.055
-421.515	800.000	-0.066	0.287
-420.500	-200.000	0.004	-0.035
-419.486	84.493	0.219	-0.242
-418.471	-108.925	0.275	0.059
-417.457	83.279	-0.078	0.086
-416.442	-200.000	0.055	0.275
-415.428	294.918	0.084	0.156
-414.413	-151.899	0.192	0.014
-413.398	106.214	0.096	-0.115
-412.384	274.786	-0.027	0.048
-411.369	-200.000	0.434	0.002
-410.355	60.354	-0.161	-0.161
-409.340	24.944	-0.022	-0.018
-408.325	-200.000	0.043	0.209
-407.311	800.000	0.087	-0.302
-406.296	78.264	0.129	-0.139
-405.282	-45.226	-0.174	-0.087
-404.267	-130.480	-0.394	-0.054
-403.252	-93.524	0.285	-0.080
-402.238	255.239	-0.128	0.221
-401.223	-14.973	-0.288	-0.186
-400.209	-200.000	0.002	0.066
-399.194	435.285	-0.046	-0.101
-398.179	131.595	-0.192	0.250
-397.165	-64.136	0.183	0.075
-396.150	-87.010	-0.343	-0.106
-395.136	-200.000	-0.060	-0.309
-394.121	-69.295	-0.349	-0.135
-393.106	800.000	-0.020	0.079
-392.092	800.000	-0.083	-0.299
-391.077	1.585	0.264	-0.192
-390.063	800.000	-0.014	-0.040
-389.048	800.000	0.066	-0.198
-388.033	67.781	-0.121	-0.125
-387.019	149.993	0.084	-0.115
-386.004	47.083	0.214	0.201
-384.990	314.692	0.097	-0.185
-383.975	152.788	0.126	0.174
-382.960	-200.000	0.052	-0.380
-381.946	-86.255	0.238	0.074
-380.931	-96.604	-0.163	-0.043
-379.917	96.060	0.032	-0.037
-378.902	-200.000	-0.008	-0.087
-377.888	381.281	-0.073	-0.152
-376.873	21.510	0.087	-0.072
-375.858	-165.137	-0.061	-0.003
-374.844	-9.805	-0.255	0.172
-373.829	800.000	0.019	-0.079
-372.815	-67.709	0.241	-0.095
-371.800	66.351	0.103	-0.106
-370.785	-200.000	-0.015	0.077
-369.771	-60.462	-0.495	-0.213
-368.756	-200.000	0.064	0.329
-367.742	136.577	-0.046	-0.061
-366.727	36.017	0.059	0.053
-365.712	800.000	0.040	-0.114
-364.698	-0.541	-0.205	0.147
-363.683	-121.630	-0.299	0.050
-362.669	146.196	-0.061	-0.083
-361.654	-111.199	0.180	0.037
-360.639	-130.986	-0.192	0.026
-359.625	110.836	0.120	0.145
-358.610	-125.479	-0.368	0.057
-357.596	280.775	0.027	0.048
-356.581	-113.577	0.248	0.049
-355.566	-111.957	-0.311	-0.063
-354.552	200.588	0.052	0.081
-353.537	-172.885	-0.298	0.009
-352.523	-97.612	-0.237	-0.062
-351.508	254.861	0.027	0.046
-350.493	-4.827	0.395	0.275
-349.479	485.665	-0.082	0.188
-348.464	-61.975	-0.272	0.114
-347.450	-86.980	0.020	-0.006
-346.435	459.971	0.017	0.039
-345.420	-103.308	0.081	0.019
-344.406	800.000	-0.079	-0.246
-343.391	42.169	-0.190	-0.174
-342.377	84.551	-0.068	-0.075
-341.362	76.708	-0.202	-0.216
-340.348	-45.282	0.326	-0.163
-339.333	-130.761	-0.284	0.038
-338.318	-200.000	-0.033	0.198
-337.304	0.727	0.085	0.061
-336.289	-105.189	-0.146	-0.034
-335.275	116.043	-0.154	-0.191
-334.260	-136.722	0.107	0.012
-333.245	-1.666	-0.348	0.247
-332.231	-159.206	-0.075	-0.004
-331.216	-126.504	-0.060	0.009
-330.202	23.783	0.275	0.229
-329.187	800.000	0.093	0.274
-328.172	424.846	0.090	0.196
-327.158	-200.000	0.046	0.228
-326.143	-200.000	0.003	0.287
-325.129	58.892	-0.302	0.299
-324.114	800.000	-0.085	-0.274
-323.099	-135.820	-0.105	-0.013
-322.085	-13.844	0.196	0.128
-321.070	526.422	-0.059	0.140
-320.056	361.330	0.025	-0.050
-319.041	800.000	0.080	-0.235
-318.026	-200.000	-0.022	0.277
-317.012	-95.586	-0.102	0.027
-315.997	-200.000	-0.035	0.336
-314.983	47.588	0.068	0.064
-313.968	66.095	0.073	-0.075
-312.953	364.553	-0.110	-0.224
-311.939	-110.184	-0.130	-0.027
-310.924	-34.605	-0.194	-0.107
-309.910	-96.816	0.261	0.069
-308.895	800.000	-0.055	-0.161
-307.880	0.747	-0.086	0.062
-306.866	-200.000	0.003	-0.082
-305.851	425.913	0.050	-0.109
-304.837	69.518	0.026	0.027
-303.822	-200.000	-0.001	-0.082
-302.807	-27.347	0.266	-0.156
-301.793	-200.000	-0.058	-0.456
-300.778	-34.761	0.139	-0.077
-299.764	359.694	0.154	-0.310
-298.749	-96.647	-0.121	-0.032
-297.735	-88.598	-0.214	-0.064
-296.720	800.000	-0.106	-0.320
-295.705	-200.000	0.001	-0.046
-294.691	159.768	0.210	0.294
-293.676	142.724	-0.269	0.359
-292.662	-97.609	-0.152	0.040
-291.647	-200.000	-0.365	-0.001
-290.632	-160.292	0.341	0.019
-289.618	-114.316	-0.144	0.028
-288.603	579.914	-0.087	0.215
-287.589	-39.374	-0.255	0.134
-286.574	24.996	-0.196	0.163
-285.559	-75.366	-0.365	-0.131
-284.545	206.237	-0.135	0.211
-283.530	189.276	-0.168	0.253
-282.516	48.052	-0.116	-0.109
-281.501	-61.397	0.324	-0.137
-280.486	79.132	0.215	0.232
-279.472	64.772	0.244	0.248
-278.457	396.701	-0.143	0.301
-277.443	-200.000	-0.056	0.339
-276.428	800.000	0.011	-0.048
-275.413	-56.328	-0.019	0.009
-274.399	-127.532	-0.094	0.014
-273.384	744.578	0.021	0.056
-272.370	-155.354	-0.260	-0.017
-271.355	359.693	-0.168	-0.338
-270.340	-16.167	0.116	-0.074
-269.326	-200.000	-0.006	0.219
-268.311	13.812	0.222	0.173
-267.297	257.602	0.063	-0.108
-266.282	-104.084	-0.262	-0.061
-265.267	-10.169	0.255	0.170
-264.253	253.392	-0.066	-0.113
-263.238	-98.068	-0.349	0.090
-262.224	800.000	0.095	0.390
-261.209	-122.588	0.145	0.024
-260.195	-165.871	0.378	0.016
-259.180	70.495	0.176	0.183
-258.165	800.000	-0.091	-0.346
-257.151	-31.638	0.114	0.065
-256.136	470.307	0.117	-0.264
-255.122	800.000	-0.061	-0.170
-254.107	-15.626	0.278	0.178
-253.092	-200.000	0.061	0.354
-252.078	-198.295	0.249	0.001
-251.063	-200.000	-0.007	-0.046
-250.049	113.784	-0.157	-0.192
-249.034	-88.590	0.029	-0.009
-248.019	284.341	0.181	0.328
-247.005	274.249	0.133	-0.237
-245.990	-158.047	0.345	-0.020
-244.976	-81.403	0.178	-0.059
-243.961	82.207	0.127	0.138
-242.946	800.000	-0.082	0.258
-241.932	800.000	0.079	0.314
-240.917	800.000	-0.036	-0.157
-239.903	4.106	-0.009	0.007
-238.888	-121.143	0.152	0.026
-237.873	-55.288	-0.134	0.060
-236.859	-200.000	0.025	0.160
-235.844	-51.935	-0.144	-0.067
-234.830	592.967	-0.035	0.086
-233.815	-200.000	-0.010	-0.101
-232.800	-23.756	-0.278	0.167
-231.786	74.342	0.230	-0.242
-230.771	-38.712	-0.148	0.078
-229.757	-136.358	-0.199	0.023
-228.742	99.323	0.274	-0.319
-227.727	-7.587	-0.097	0.066
-226.713	-200.000	0.024	0.303
-225.698	-14.628	0.271	0.175
-224.684	-200.000	0.008	0.231
-223.669	407.915	0.087	0.186
-222.655	-7.404	-0.184	-0.125
-221.640	-200.000	-0.023	0.254
-220.625	673.316	-0.081	0.212
-219.611	83.179	-0.114	0.125
-218.596	220.672	-0.177	0.285
-217.582	-71.043	0.188	-0.071
-216.567	-200.000	-0.023	0.125
-215.552	-80.575	0.272	0.091
-214.538	800.000	-0.015	-0.062
-213.523	-200.000	0.003	-0.398
-212.509	147.124	-0.188	0.254
-211.494	-88.923	0.212	-0.063
-210.479	-67.776	0.057	0.022
-209.465	-31.948	-0.143	0.080
-208.450	-139.491	0.420	0.045
-207.436	-109.124	-0.319	-0.068
-206.421	800.000	0.019	-0.073
-205.406	557.244	-0.049	-0.120
-204.392	253.454	-0.195	0.334
-203.377	800.000	-0.098	0.302
-202.363	-19.950	-0.144	0.089
-201.348	-139.007	0.306	-0.033
-200.333	-14.179	0.224	-0.145
-199.319	669.425	0.058	0.151
-198.304	28.610	0.071	0.060
-197.290	-94.906	0.115	-0.031
-196.275	272.552	0.017	-0.029
-195.260	505.525	-0.029	0.067
-194.246	621.320	-0.052	-0.132
-193.231	-28.483	-0.045	0.026
-192.217	800.000	0.054	-0.157
-191.202	-200.000	-0.004	-0.433
-190.187	-105.755	0.428	0.097
-189.173	397.890	0.066	0.139
-188.158	-55.709	0.074	-0.033
-187.144	44.921	0.319	0.294
-186.129	27.487	-0.159	0.134
-185.114	313.435	0.096	-0.181
-184.100	11.301	-0.175	0.134
-183.085	-130.767	-0.121	-0.016
-182.071	66.949	0.127	0.129
-181.056	-5.405	-0.094	-0.064
-180.042	-98.544	0.164	0.042
-179.027	340.468	0.142	-0.279
-178.012	15.429	0.239	-0.188
-176.998	67.455	0.156	-0.160
-175.983	158.546	-0.238	0.331
-174.969	58.446	0.245	-0.241
-173.954	800.000	-0.090	-0.332
-172.939	-77.200	-0.186	-0.065
-171.925	-163.618	0.014	0.001
-170.910	-200.000	0.033	0.208
-169.896	126.129	-0.160	-0.203
-168.881	800.000	-0.062	-0.229
-167.866	111.340	-0.163	0.196
-166.852	-104.327	0.149	-0.035
-165.837	-200.000	-0.051	0.240
-164.823	800.000	0.055	0.201
-163.808	57.686	-0.334	0.327
-162.793	800.000	0.063	0.228
-161.779	-133.761	0.083	0.010
-160.764	-174.912	0.311	0.009
-159.750	-200.000	-0.008	-0.410
-158.735	13.533	-0.142	0.110
-157.720	-200.000	-0.009	0.323
-156.706	-69.203	0.161	-0.062
-155.691	105.553	0.160	0.189
-154.677	713.631	-0.038	0.101
-153.662	-37.624	-0.294	-0.157
-152.647	-82.604	-0.190	0.062
-151.633	-200.000	-0.051	-0.299
-150.618	-5.523	0.247	-0.170
-149.604	-0.505	0.162	-0.115
-148.589	800.000	0.087	0.290
-147.574	-17.989	0.085	-0.053
-146.560	-200.000	0.007	0.038
-145.545	-133.585	0.478	-0.060
-144.531	182.389	-0.124	0.182
-143.516	531.264	0.064	0.152
-142.502	29.141	0.181	-0.154
-141.487	-27.138	-0.353	-0.206
-140.472	176.420	0.123	0.179
-139.458	255.366	-0.085	0.146
-138.443	-23.001	-0.149	0.090
-137.429	-200.000	-0.019	0.365
-136.414	-81.957	0.284	0.093
-135.399	-200.000	0.003	0.107
-134.385	-200.000	0.006	0.143
-133.370	-200.000	0.040	0.183
-132.356	24.032	0.074	-0.061
-131.341	-91.553	-0.041	0.012
-130.326	-4.496	0.146	-0.101
-129.312	562.303	0.100	0.243
-128.297	-106.128	0.249	-0.056
-127.283	-200.000	-0.013	0.059
-126.268	144.849	-0.106	-0.141
-125.253	30.349	-0.059	0.050
-124.239	-38.251	-0.072	0.038
-123.224	-17.092	0.201	0.127
-122.210	-120.589	-0.135	0.023
-121.195	166.151	0.225	-0.319
