DTS Sentinel unit serial number:	SN413079Multiplexer serial number:	ORYXHardware model number:	OX4-SRSoftware version number:	ORYX F/W v4.00 Oryx Data Collector v3.7.2.0data status	okinstallation	princeton_trtdifferential loss correction	single-endedforward channel	channel 1reverse channel	N/Adate	2019/09/12time	01:36:11forward acquisition time	60.00reverse acquisition time	0.00gamma	496.2192k internal	0.2320k external	0.2320temperature offset calibration	1.0081default loss term (dB/km)	0.3790temperature slope calibration	1.0000multiplexer offset coefficient	1.0000multiplexer slope coefficient	1.0000fibre end	0.00T internal ref (°C)	32.91T ext. ref 1 (°C)	2.10T ext. ref 2 (°C)	27.38length (m)	temperature (°C)	Stokes	anti-Stokes-747.200	-118.868	-0.290	-0.052
-746.185	-200.000	0.058	-0.273
-745.171	-200.000	-0.045	-0.332
-744.156	171.538	-0.191	0.277
-743.142	-43.536	-0.281	0.144
-742.127	-200.000	-0.058	0.269
-741.112	-28.019	0.343	0.201
-740.098	-151.047	-0.203	-0.015
-739.083	327.341	-0.005	-0.009
-738.069	114.668	-0.093	0.115
-737.054	-29.373	0.157	0.091
-736.039	701.827	-0.078	-0.207
-735.025	197.538	0.122	0.189
-734.010	-53.837	-0.122	-0.056
-732.996	800.000	-0.078	0.260
-731.981	800.000	0.078	-0.257
-730.966	68.725	-0.265	0.275
-729.952	-200.000	-0.009	-0.202
-728.937	-26.931	0.261	0.154
-727.923	39.983	-0.197	-0.178
-726.908	-132.925	0.075	0.010
-725.894	-17.423	-0.133	0.084
-724.879	89.250	-0.273	-0.308
-723.864	-200.000	-0.023	-0.109
-722.850	-105.582	0.223	0.051
-721.835	-0.898	0.047	0.034
-720.821	-113.767	0.101	0.020
-719.806	-83.774	0.131	0.042
-718.791	-181.004	-0.045	-0.001
-717.777	-67.846	-0.171	0.067
-716.762	254.656	-0.097	0.167
-715.748	-200.000	-0.017	0.159
-714.733	-200.000	-0.059	0.297
-713.718	-38.665	-0.181	-0.096
-712.704	-100.022	-0.200	-0.050
-711.689	-3.656	0.163	0.114
-710.675	-152.938	0.163	-0.012
-709.660	263.220	-0.068	0.119
-708.645	-200.000	0.017	-0.344
-707.631	569.570	0.025	0.060
-706.616	-124.986	-0.171	0.027
-705.602	76.223	-0.053	-0.057
-704.587	159.477	-0.073	-0.102
-703.572	-85.665	0.042	-0.013
-702.558	-101.294	-0.084	-0.021
-701.543	-150.717	-0.185	-0.014
-700.529	-200.000	0.027	-0.201
-699.514	800.000	-0.064	-0.257
-698.499	-200.000	-0.009	-0.088
-697.485	800.000	0.056	-0.244
-696.470	-67.196	0.372	-0.148
-695.456	-180.925	-0.277	0.006
-694.441	-150.157	0.313	-0.025
-693.426	-130.648	-0.230	-0.031
-692.412	341.237	-0.072	-0.143
-691.397	-200.000	0.031	0.649
-690.383	23.905	-0.183	-0.152
-689.368	-99.929	-0.202	0.051
-688.354	-80.319	0.458	-0.154
-687.339	800.000	0.171	0.490
-686.324	-3.619	0.180	0.126
-685.310	293.244	-0.081	0.150
-684.295	25.415	0.128	0.108
-683.281	-109.719	-0.184	-0.039
-682.266	31.979	-0.244	-0.212
-681.251	800.000	-0.034	0.142
-680.237	-200.000	0.003	0.078
-679.222	-157.205	-0.112	0.007
-678.208	149.388	-0.243	-0.332
-677.193	-13.931	-0.276	0.180
-676.178	-200.000	-0.003	-0.177
-675.164	560.698	-0.053	0.129
-674.149	-165.377	-0.158	-0.007
-673.135	-128.158	-0.449	0.065
-672.120	96.125	-0.304	-0.351
-671.105	70.615	0.104	-0.109
-670.091	106.006	0.187	0.223
-669.076	-200.000	-0.009	-0.312
-668.062	-106.419	-0.033	-0.007
-667.047	-73.622	0.149	-0.055
-666.032	800.000	0.042	0.168
-665.018	-68.090	0.373	-0.146
-664.003	-95.808	-0.430	-0.116
-662.989	29.942	-0.137	-0.118
-661.974	23.646	-0.287	-0.238
-660.959	-114.266	0.299	0.058
-659.945	-95.790	-0.124	-0.033
-658.930	800.000	0.052	0.151
-657.916	105.255	0.042	0.050
-656.901	65.696	0.037	0.038
-655.886	48.744	0.087	-0.083
-654.872	-18.077	-0.155	0.097
-653.857	403.268	-0.072	-0.152
-652.843	-35.080	0.328	-0.180
-651.828	-175.494	0.223	-0.006
-650.814	38.498	0.198	0.178
-649.799	240.632	-0.144	-0.242
-648.784	-63.418	-0.317	-0.131
-647.770	374.215	-0.062	-0.126
-646.755	-48.456	-0.139	0.067
-645.741	-163.697	-0.166	0.008
-644.726	379.604	-0.069	0.143
-643.711	152.725	-0.227	0.312
-642.697	426.258	-0.081	-0.177
-641.682	23.036	-0.194	-0.160
-640.668	-196.019	0.189	0.001
-639.653	800.000	-0.098	-0.274
-638.638	-120.036	-0.190	0.033
-637.624	218.207	0.091	0.146
-636.609	29.041	-0.136	0.116
-635.595	-200.000	0.006	0.145
-634.580	-182.443	-0.200	-0.004
-633.565	-90.608	-0.298	0.087
-632.551	335.351	-0.038	-0.074
-631.536	166.076	0.037	-0.053
-630.522	-200.000	-0.230	0.001
-629.507	-200.000	0.015	0.198
-628.492	-131.210	-0.263	-0.035
-627.478	-94.190	0.219	0.060
-626.463	145.703	0.119	0.160
-625.449	532.501	0.089	-0.211
-624.434	338.653	0.072	0.140
-623.419	-92.473	0.486	0.138
-622.405	159.510	-0.103	0.144
-621.390	800.000	-0.031	0.116
-620.376	14.579	-0.170	-0.134
-619.361	106.554	0.094	-0.112
-618.346	-133.201	0.222	-0.028
-617.332	257.230	-0.095	0.164
-616.317	-200.000	-0.015	0.429
-615.303	17.607	0.234	0.187
-614.288	516.369	-0.015	-0.035
-613.273	-168.309	-0.095	0.004
-612.259	53.355	0.177	-0.171
-611.244	513.996	-0.109	-0.255
-610.230	-86.305	-0.417	-0.129
-609.215	-118.933	0.227	-0.040
-608.201	-120.169	0.141	-0.024
-607.186	575.232	-0.042	-0.103
-606.171	-101.661	0.265	0.065
-605.157	205.801	-0.040	-0.063
-604.142	225.220	0.108	0.176
-603.128	-195.874	-0.184	0.001
-602.113	-33.226	-0.290	0.162
-601.098	44.959	0.217	-0.201
-600.084	-144.197	0.049	-0.005
-599.069	-40.976	-0.099	0.051
-598.055	27.747	-0.179	0.152
-597.040	87.588	-0.123	-0.137
-596.025	-62.893	0.234	-0.097
-595.011	187.412	-0.068	-0.101
-593.996	36.776	0.167	-0.148
-592.982	60.301	-0.198	-0.196
-591.967	-200.000	0.006	0.345
-590.952	-127.985	0.313	-0.045
-589.938	12.241	-0.176	0.136
-588.923	118.707	-0.329	-0.408
-587.909	-41.311	-0.211	0.109
-586.894	162.959	0.211	0.298
-585.879	-21.286	-0.189	0.116
-584.865	-36.234	-0.081	-0.044
-583.850	-2.298	-0.103	-0.073
-582.836	-200.000	-0.005	0.215
-581.821	-188.720	-0.048	0.001
-580.806	70.846	0.233	0.243
-579.792	325.691	-0.149	0.287
-578.777	-53.267	-0.169	-0.078
-577.763	-66.819	0.085	-0.034
-576.748	98.597	-0.128	0.148
-575.733	-4.499	0.198	0.137
-574.719	-200.000	-0.001	0.036
-573.704	-15.210	0.189	0.122
-572.690	-200.000	-0.037	-0.179
-571.675	-45.329	-0.283	0.141
-570.661	158.208	0.057	0.080
-569.646	272.599	0.090	-0.159
-568.631	117.675	0.242	-0.299
-567.617	227.149	0.126	-0.206
-566.602	-109.070	0.319	-0.068
-565.588	-26.000	0.040	-0.024
-564.573	299.183	0.122	-0.226
-563.558	-98.389	0.321	-0.083
-562.544	314.166	0.035	0.066
-561.529	89.256	-0.284	0.317
-560.515	800.000	-0.111	-0.462
-559.500	-32.446	0.163	0.091
-558.485	247.592	-0.113	0.191
-557.471	185.637	0.045	-0.068
-556.456	156.663	0.151	0.210
-555.442	-42.300	0.369	0.189
-554.427	-200.000	-0.040	-0.253
-553.412	359.277	-0.196	-0.393
-552.398	-180.348	0.141	0.003
-551.383	-125.161	-0.158	-0.024
-550.369	-98.432	-0.232	-0.060
-549.354	159.104	-0.204	-0.284
-548.339	766.673	-0.077	-0.209
-547.325	800.000	0.070	0.215
-546.310	800.000	0.095	-0.275
-545.296	27.133	0.315	-0.265
-544.281	233.586	-0.146	0.240
-543.266	48.875	-0.279	0.263
-542.252	-200.000	0.005	-0.278
-541.237	169.921	-0.303	-0.434
-540.223	-102.093	0.225	0.054
-539.208	68.112	-0.110	-0.113
-538.193	108.592	-0.024	0.029
-537.179	-105.779	0.132	-0.030
-536.164	333.879	-0.090	0.175
-535.150	-200.000	0.015	0.226
-534.135	-80.043	0.207	-0.070
-533.121	34.712	-0.269	-0.235
-532.106	264.207	-0.097	-0.169
-531.091	800.000	-0.038	0.158
-530.077	196.978	-0.230	-0.351
-529.062	-145.926	-0.017	-0.001
-528.048	-200.000	-0.121	0.000
-527.033	46.134	0.064	-0.059
-526.018	155.164	-0.166	-0.229
-525.004	-138.851	0.114	0.012
-523.989	800.000	0.030	0.133
-522.975	528.441	0.040	0.095
-521.960	-72.669	0.244	0.090
-520.945	-170.254	0.500	-0.018
-519.931	-124.645	0.107	-0.017
-518.916	152.068	-0.135	-0.184
-517.902	800.000	-0.022	0.093
-516.887	-39.088	0.242	-0.127
-515.872	-62.547	-0.056	-0.023
-514.858	-55.162	0.215	0.097
-513.843	-200.000	-0.046	0.483
-512.829	-152.489	0.370	-0.027
-511.814	-200.000	0.042	0.392
-510.799	-134.774	-0.024	-0.003
-509.785	12.655	-0.071	0.055
-508.770	800.000	0.056	0.155
-507.756	800.000	0.035	-0.150
-506.741	771.405	0.035	0.096
-505.726	-200.000	0.007	-0.183
-504.712	-52.994	-0.299	0.138
-503.697	-200.000	0.047	0.252
-502.683	-42.977	0.029	0.015
-501.668	-120.412	-0.289	-0.049
-500.653	-19.973	-0.128	-0.079
-499.639	-22.135	0.107	0.065
-498.624	-125.265	0.394	0.060
-497.610	-40.717	-0.233	0.121
-496.595	-200.000	-0.019	0.244
-495.581	-91.402	0.112	-0.032
-494.566	181.077	-0.132	-0.194
-493.551	10.151	0.173	0.132
-492.537	800.000	0.030	-0.130
-491.522	169.405	0.080	0.114
-490.508	241.073	-0.063	-0.106
-489.493	144.047	-0.112	-0.149
-488.478	442.015	0.136	-0.298
-487.464	800.000	-0.076	-0.257
-486.449	-200.000	0.007	-0.161
-485.435	351.868	-0.095	0.189
-484.420	309.949	-0.147	-0.276
-483.405	-127.298	0.290	-0.042
-482.391	-136.416	0.105	0.012
-481.376	-99.852	-0.273	0.068
-480.362	33.951	0.152	-0.133
-479.347	84.965	0.128	-0.141
-478.332	-153.444	0.184	0.013
-477.318	-172.327	-0.264	0.008
-476.303	7.138	-0.050	-0.037
-475.289	-58.938	-0.176	-0.076
-474.274	-23.001	-0.129	-0.078
-473.259	-47.430	0.293	-0.142
-472.245	218.917	0.154	0.246
-471.230	800.000	0.066	0.216
-470.216	55.541	0.367	0.356
-469.201	800.000	-0.085	0.292
-468.186	-200.000	-0.026	-0.318
-467.172	-47.918	0.108	-0.052
-466.157	-89.550	-0.451	-0.133
-465.143	-200.000	0.028	-0.213
-464.128	49.537	-0.079	-0.075
-463.113	800.000	0.069	0.212
-462.099	-53.785	0.057	0.026
-461.084	548.773	-0.074	-0.176
-460.070	-100.265	-0.478	0.119
-459.055	396.839	0.057	0.118
-458.040	-21.524	0.106	0.065
-457.026	349.297	0.084	-0.167
-456.011	177.593	0.059	-0.086
-454.997	-200.000	-0.008	-0.046
-453.982	-84.244	-0.573	0.181
-452.968	-13.251	0.255	-0.165
-451.953	399.768	-0.079	-0.165
-450.938	-200.000	0.003	-0.463
-449.924	-163.931	-0.067	-0.003
-448.909	-167.446	0.052	-0.002
-447.895	-44.865	0.192	0.096
-446.880	-28.238	-0.232	0.134
-445.865	392.643	0.033	-0.069
-444.851	557.671	0.089	-0.214
-443.836	800.000	-0.082	-0.260
-442.822	800.000	-0.043	-0.126
-441.807	-133.694	0.176	0.022
-440.792	103.356	-0.116	0.136
-439.778	800.000	-0.092	-0.263
-438.763	-73.879	-0.134	0.049
-437.749	800.000	-0.067	-0.267
-436.734	81.333	0.072	-0.078
-435.719	-200.000	0.042	0.189
-434.705	-48.479	-0.322	-0.155
-433.690	800.000	-0.046	0.164
-432.676	-161.406	0.107	-0.006
-431.661	224.193	0.204	0.329
-430.646	-30.026	-0.414	0.235
-429.632	56.528	-0.131	0.127
-428.617	-56.529	0.251	-0.111
-427.603	-83.126	0.094	-0.030
-426.588	712.769	0.052	-0.136
-425.573	-129.521	0.062	0.009
-424.559	238.936	-0.161	0.267
-423.544	-200.000	0.022	0.153
-422.530	312.748	-0.034	0.063
-421.515	225.323	-0.198	-0.320
-420.500	-93.813	-0.083	-0.023
-419.486	-53.069	-0.181	0.083
-418.471	53.834	0.117	-0.112
-417.457	-40.750	0.274	-0.142
-416.442	800.000	0.056	0.181
-415.428	-64.470	0.177	0.072
-414.413	30.584	0.025	-0.021
-413.398	210.065	-0.061	0.096
-412.384	-200.000	-0.003	-0.119
-411.369	-85.779	-0.204	-0.063
-410.355	15.218	0.213	-0.167
-409.340	-126.060	0.447	-0.067
-408.325	105.906	0.103	0.122
-407.311	800.000	-0.036	0.117
-406.296	-27.585	-0.151	0.088
-405.282	-189.892	0.132	0.001
-404.267	52.012	0.249	-0.237
-403.252	158.084	-0.254	0.351
-402.238	-137.993	0.099	-0.011
-401.223	800.000	-0.029	-0.088
-400.209	151.631	-0.039	0.054
-399.194	800.000	-0.029	-0.107
-398.179	-200.000	-0.029	0.381
-397.165	-13.647	-0.292	0.189
-396.150	688.313	-0.097	0.254
-395.136	-163.536	-0.267	0.013
-394.121	149.170	-0.135	-0.182
-393.106	-51.352	0.223	0.104
-392.092	195.092	0.069	0.105
-391.077	-50.696	-0.390	-0.183
-390.063	-13.000	-0.152	0.099
-389.048	-47.769	-0.134	-0.065
-388.033	-69.776	0.355	-0.135
-387.019	-69.716	-0.197	0.075
-386.004	-200.000	0.064	0.306
-384.990	11.529	0.298	0.228
-383.975	-122.868	-0.132	0.021
-382.960	60.841	-0.147	-0.146
-381.946	800.000	-0.056	0.186
-380.931	571.395	-0.142	-0.344
-379.917	-200.000	0.005	0.180
-378.902	250.242	-0.191	-0.323
-377.888	-94.167	0.147	-0.040
-376.873	-16.557	-0.107	0.068
-375.858	-200.000	-0.026	-0.284
-374.844	98.807	0.169	-0.195
-373.829	-17.157	0.317	-0.199
-372.815	-176.744	-0.187	-0.005
-371.800	-158.733	-0.377	0.021
-370.785	54.671	-0.088	-0.085
-369.771	64.520	-0.090	-0.090
-368.756	-200.000	0.023	0.249
-367.742	-40.147	0.132	-0.069
-366.727	800.000	0.032	0.103
-365.712	-160.065	-0.159	-0.009
-364.698	-53.857	-0.135	-0.061
-363.683	-200.000	-0.008	-0.144
-362.669	800.000	-0.055	0.190
-361.654	39.135	-0.128	-0.114
-360.639	-200.000	0.022	-0.138
-359.625	107.389	-0.129	0.153
-358.610	723.850	-0.086	-0.228
-357.596	-200.000	-0.006	0.083
-356.581	-104.332	-0.198	-0.046
-355.566	-11.853	0.028	-0.018
-354.552	-114.253	-0.219	0.042
-353.537	-200.000	0.034	-0.332
-352.523	-103.538	-0.318	0.074
-351.508	-59.824	-0.137	-0.058
-350.493	800.000	0.091	0.351
-349.479	800.000	-0.094	0.283
-348.464	148.587	0.246	-0.330
-347.450	-29.818	-0.140	-0.080
-346.435	-200.000	0.023	-0.468
-345.420	75.463	0.154	-0.162
-344.406	77.890	0.030	-0.031
-343.391	-11.338	0.138	-0.091
-342.377	-200.000	-0.002	-0.079
-341.362	-66.123	0.288	0.114
-340.348	238.086	0.085	-0.140
-339.333	-74.216	-0.097	0.035
-338.318	-51.743	-0.013	-0.006
-337.304	425.450	-0.091	-0.196
-336.289	-26.603	0.266	-0.155
-335.275	-143.085	-0.148	-0.014
-334.260	534.903	0.158	-0.372
-333.245	-200.000	-0.022	-0.095
-332.231	-124.939	0.366	0.056
-331.216	113.622	-0.030	-0.036
-330.202	24.855	0.096	-0.079
-329.187	712.055	-0.067	-0.176
-328.172	-200.000	0.001	-0.151
-327.158	-97.498	-0.148	-0.038
-326.143	-200.000	0.000	0.067
-325.129	-200.000	0.004	0.140
-324.114	-24.331	-0.360	-0.213
-323.099	12.570	-0.111	-0.085
-322.085	800.000	-0.059	-0.169
-321.070	92.214	0.133	-0.149
-320.056	204.080	-0.111	-0.170
-319.041	-38.822	-0.141	0.074
-318.026	800.000	-0.009	-0.032
-317.012	29.301	-0.294	0.248
-315.997	-22.055	0.082	-0.050
-314.983	800.000	0.055	-0.153
-313.968	-200.000	-0.019	-0.136
-312.953	-75.694	-0.240	0.085
-311.939	88.960	-0.159	-0.175
-310.924	-117.650	0.519	0.093
-309.910	-77.699	-0.284	-0.098
-308.895	-150.593	0.310	0.024
-307.880	-48.150	0.166	0.080
-306.866	-200.000	-0.016	-0.152
-305.851	96.776	-0.200	-0.227
-304.837	-200.000	-0.001	-0.066
-303.822	800.000	-0.087	-0.245
-302.807	-200.000	0.004	-0.039
-301.793	-94.422	0.292	0.079
-300.778	-62.618	-0.093	-0.038
-299.764	800.000	0.065	-0.182
-298.749	-164.968	0.515	0.023
-297.735	91.928	0.053	-0.059
-296.720	216.771	0.177	-0.280
-295.705	30.802	0.202	-0.172
-294.691	-99.774	-0.242	0.060
-293.676	-105.222	0.146	0.033
-292.662	154.420	0.191	0.261
-291.647	-98.186	0.311	0.079
-290.632	206.234	-0.072	-0.112
-289.618	-120.155	-0.239	0.041
-288.603	-70.056	0.372	0.141
-287.589	22.411	0.320	0.260
-286.574	800.000	-0.084	0.316
-285.559	800.000	0.112	0.337
-284.545	-43.394	-0.201	0.101
-283.530	-9.987	0.051	-0.034
-282.516	60.183	-0.094	-0.092
-281.501	-138.106	-0.022	0.002
-280.486	-156.857	-0.285	-0.017
-279.472	66.421	0.069	-0.070
-278.457	113.873	-0.194	-0.234
-277.443	-170.792	0.087	0.003
-276.428	-200.000	0.032	0.180
-275.413	800.000	-0.114	0.357
-274.399	800.000	0.101	0.300
-273.384	298.944	0.142	0.259
-272.370	146.670	0.303	0.405
-271.355	25.926	0.224	0.185
-270.340	-100.932	0.167	-0.041
-269.326	-200.000	0.008	-0.206
-268.311	105.683	-0.136	0.160
-267.297	-200.000	-0.000	-0.116
-266.282	-200.000	-0.032	-0.409
-265.267	-4.257	0.121	-0.083
-264.253	-200.000	-0.004	0.160
-263.238	38.430	-0.045	0.040
-262.224	-2.475	-0.112	0.078
-261.209	-200.000	0.009	-0.244
-260.195	-200.000	-0.039	0.316
-259.180	-114.546	0.335	0.064
-258.165	-148.845	-0.089	-0.007
-257.151	157.782	-0.300	0.412
-256.136	-99.473	-0.303	0.076
-255.122	596.311	-0.065	-0.159
-254.107	-200.000	0.023	-0.196
-253.092	-9.832	0.196	-0.129
-252.078	800.000	0.068	-0.255
-251.063	71.039	0.081	-0.083
-250.049	313.528	0.120	0.224
-249.034	134.510	-0.191	0.245
-248.019	154.140	0.071	0.097
-247.005	79.216	0.074	0.079
-245.990	800.000	0.105	0.308
-244.976	800.000	-0.103	-0.336
-243.961	-14.124	0.131	-0.084
-242.946	37.126	-0.367	0.322
-241.932	46.419	-0.123	0.113
-240.917	-200.000	0.024	-0.232
-239.903	45.046	-0.114	-0.104
-238.888	72.436	-0.186	0.192
-237.873	-200.000	0.053	0.285
-236.859	-200.000	0.036	0.172
-235.844	-96.086	-0.016	-0.004
-234.830	31.535	0.170	-0.145
-233.815	-109.959	0.305	0.063
-232.800	-75.522	-0.100	0.035
-231.786	-38.527	0.247	0.129
-230.771	-200.000	0.024	0.166
-229.757	18.093	0.265	0.209
-228.742	-42.342	0.207	-0.105
-227.727	-149.056	-0.174	-0.014
-226.713	-200.000	-0.009	0.333
-225.698	-200.000	-0.005	0.192
-224.684	484.793	0.059	0.134
-223.669	-110.462	-0.197	0.040
-222.655	-200.000	-0.004	0.021
-221.640	-74.039	-0.098	-0.035
-220.625	-90.068	-0.117	-0.034
-219.611	-63.008	-0.156	-0.064
-218.596	320.195	-0.033	0.062
-217.582	125.142	0.201	0.252
-216.567	800.000	0.073	0.223
-215.552	478.061	-0.094	0.212
-214.538	59.911	0.330	0.323
-213.523	44.059	-0.371	-0.337
-212.509	-58.992	0.105	-0.045
-211.494	-200.000	-0.008	-0.105
-210.479	37.105	0.164	-0.144
-209.465	800.000	-0.111	0.448
-208.450	396.847	-0.131	0.271
-207.436	-69.867	-0.091	0.035
-206.421	117.779	0.107	0.130
-205.406	-200.000	0.024	-0.116
-204.392	-13.738	0.132	-0.084
-203.377	-45.667	-0.282	-0.138
-202.363	-200.000	0.005	-0.201
-201.348	-187.577	-0.272	-0.004
-200.333	800.000	0.052	0.157
-199.319	190.464	0.073	0.108
-198.304	58.380	0.055	-0.053
-197.290	-184.473	-0.257	0.004
-196.275	-136.962	0.188	0.021
-195.260	-200.000	0.003	0.252
-194.246	-86.849	-0.234	-0.071
-193.231	-22.139	0.068	-0.041
-192.217	75.029	0.213	-0.222
-191.202	-94.243	0.038	0.010
-190.187	17.149	-0.204	0.160
-189.173	-77.144	0.099	-0.034
-188.158	200.624	-0.090	0.137
-187.144	-128.390	0.300	-0.042
-186.129	-47.719	-0.272	-0.130
-185.114	169.944	0.413	0.584
-184.100	-68.534	-0.082	-0.031
-183.085	262.564	0.042	-0.072
-182.071	-114.451	0.418	0.079
-181.056	170.041	-0.129	-0.182
-180.042	116.336	0.271	0.328
-179.027	-50.737	0.136	-0.063
-178.012	-106.032	0.044	0.010
-176.998	-101.243	0.430	0.104
-175.983	-200.000	0.022	0.192
-174.969	-200.000	-0.026	-0.152
-173.954	388.459	-0.069	0.141
-172.939	12.673	0.014	-0.011
-171.925	800.000	0.050	0.167
-170.910	-200.000	-0.003	-0.431
-169.896	213.516	0.071	0.111
-168.881	361.518	-0.032	-0.064
-167.866	413.030	-0.097	-0.204
-166.852	554.279	0.027	-0.064
-165.837	76.913	0.103	-0.108
-164.823	-174.752	0.334	0.009
-163.808	111.052	0.112	0.133
-162.793	329.411	-0.140	-0.267
-161.779	396.416	0.075	-0.156
-160.764	109.564	0.369	0.436
-159.750	101.575	-0.238	-0.274
-158.735	430.487	-0.086	0.185
-157.720	104.690	0.156	0.182
-156.706	248.999	-0.069	0.115
-155.691	-102.819	-0.217	-0.051
-154.677	800.000	-0.090	-0.314
-153.662	287.833	0.102	0.182
-152.647	40.898	-0.195	-0.174
-151.633	-41.284	0.315	0.161
-150.618	19.565	0.117	0.093
-149.604	440.830	0.015	0.033
-148.589	-15.322	-0.068	0.043
-147.574	575.934	-0.102	-0.246
-146.560	-76.961	-0.187	0.065
-145.545	496.235	0.150	-0.342
-144.531	800.000	-0.067	0.200
-143.516	-200.000	-0.078	0.394
-142.502	-200.000	0.045	0.326
-141.487	-76.393	-0.199	-0.069
-140.472	-89.778	0.136	0.039
-139.458	-132.764	-0.154	0.019
-138.443	-200.000	0.000	0.137
-137.429	-200.000	0.010	0.126
-136.414	-200.000	0.010	0.248
-135.399	-200.000	0.014	0.092
-134.385	-200.000	0.016	0.415
-133.370	14.241	-0.077	-0.059
-132.356	178.582	-0.094	0.136
-131.341	-200.000	0.308	0.001
-130.326	-112.003	0.221	0.044
-129.312	-200.000	-0.034	0.297
-128.297	-102.366	-0.025	0.006
-127.283	53.583	-0.180	-0.171
-126.268	-200.000	0.045	-0.263
-125.253	-200.000	-0.029	-0.152
-124.239	402.430	-0.215	-0.447
-123.224	-137.560	0.304	0.034
