DTS Sentinel unit serial number:	SN413079Multiplexer serial number:	ORYXHardware model number:	OX4-SRSoftware version number:	ORYX F/W v4.00 Oryx Data Collector v3.7.2.0data status	okinstallation	princeton_trtdifferential loss correction	single-endedforward channel	channel 1reverse channel	N/Adate	2019/09/19time	13:38:35forward acquisition time	60.00reverse acquisition time	0.00gamma	496.2192k internal	0.2326k external	0.2326temperature offset calibration	1.0012default loss term (dB/km)	0.3790temperature slope calibration	1.0000multiplexer offset coefficient	1.0000multiplexer slope coefficient	1.0000fibre end	0.00T internal ref (°C)	30.31T ext. ref 1 (°C)	0.98T ext. ref 2 (°C)	27.43length (m)	temperature (°C)	Stokes	anti-Stokes-747.200	-200.000	-0.005	0.032
-746.185	800.000	-0.073	0.239
-745.171	800.000	-0.054	-0.192
-744.156	-200.000	-0.006	-0.042
-743.142	-200.000	0.054	0.359
-742.127	-108.507	-0.317	0.069
-741.112	422.235	-0.114	-0.246
-740.098	753.081	0.038	0.104
-739.083	-75.181	-0.192	0.069
-738.069	-18.427	-0.121	0.076
-737.054	-114.982	0.051	-0.010
-736.039	-200.000	0.030	-0.213
-735.025	345.438	0.118	-0.234
-734.010	430.985	-0.088	-0.193
-732.996	447.746	0.106	-0.236
-731.981	800.000	-0.028	0.099
-730.966	-84.003	-0.532	0.170
-729.952	527.240	0.200	-0.476
-728.937	-29.627	0.380	-0.219
-727.923	10.258	-0.204	0.156
-726.908	-39.129	0.073	0.039
-725.894	-71.152	-0.135	0.051
-724.879	29.901	0.151	0.130
-723.864	-43.943	0.213	-0.108
-722.850	-200.000	-0.007	0.136
-721.835	-160.849	-0.175	-0.009
-720.821	261.607	-0.167	0.291
-719.806	4.829	0.012	-0.009
-718.791	-136.629	-0.227	-0.026
-717.777	-200.000	-0.026	0.244
-716.762	-51.105	-0.133	-0.063
-715.748	-88.885	-0.039	-0.012
-714.733	134.554	0.132	-0.172
-713.718	800.000	0.120	-0.335
-712.704	35.128	-0.179	-0.158
-711.689	-26.822	0.228	0.134
-710.675	351.176	0.112	0.223
-709.660	-64.487	0.084	-0.034
-708.645	119.591	-0.054	0.068
-707.631	-200.000	-0.005	-0.152
-706.616	188.141	-0.117	-0.175
-705.602	-200.000	0.027	-0.298
-704.587	-45.420	-0.156	0.078
-703.572	411.334	0.085	0.181
-702.558	-82.526	0.125	-0.041
-701.543	800.000	0.121	-0.507
-700.529	-125.144	-0.241	0.037
-699.514	281.300	0.031	0.055
-698.499	-15.304	-0.105	0.067
-697.485	-200.000	0.002	-0.083
-696.470	233.425	-0.201	-0.332
-695.456	-32.503	0.164	0.092
-694.441	-163.372	-0.366	0.018
-693.426	-184.656	0.252	-0.004
-692.412	113.626	0.048	-0.059
-691.397	-154.560	-0.521	-0.035
-690.383	-23.489	-0.154	-0.093
-689.368	800.000	0.081	-0.227
-688.354	800.000	-0.072	-0.237
-687.339	-200.000	0.025	-0.558
-686.324	-53.842	0.144	-0.066
-685.310	-38.998	0.201	-0.107
-684.295	-175.549	-0.186	0.005
-683.281	-87.500	0.094	0.029
-682.266	61.825	0.077	0.077
-681.251	-200.000	0.021	-0.152
-680.237	151.254	0.073	-0.100
-679.222	-45.222	-0.092	0.046
-678.208	-85.730	0.301	0.094
-677.193	-91.853	0.212	0.061
-676.178	302.429	-0.056	0.105
-675.164	-139.226	0.353	0.038
-674.149	-200.000	0.059	-0.368
-673.135	393.383	-0.027	0.056
-672.120	75.243	-0.084	0.089
-671.105	-83.809	-0.232	-0.075
-670.091	-200.000	-0.016	-0.190
-669.076	800.000	-0.052	0.149
-668.062	182.388	-0.001	0.002
-667.047	-134.331	0.080	0.010
-666.032	-200.000	-0.022	-0.235
-665.018	579.249	0.131	-0.324
-664.003	-100.648	-0.301	0.075
-662.989	-200.000	0.026	-0.127
-661.974	-131.759	-0.343	0.045
-660.959	34.889	-0.054	0.048
-659.945	-136.035	-0.294	0.035
-658.930	-200.000	0.040	0.255
-657.916	-49.790	-0.220	0.105
-656.901	-163.614	0.023	-0.001
-655.886	-62.441	0.099	-0.041
-654.872	107.315	0.196	0.235
-653.857	-113.185	-0.115	0.023
-652.843	-29.387	0.198	0.114
-651.828	45.435	-0.248	0.230
-650.814	767.406	-0.094	-0.258
-649.799	-57.333	0.211	-0.093
-648.784	267.109	-0.090	0.158
-647.770	-35.909	-0.285	-0.155
-646.755	-106.926	-0.221	0.049
-645.741	-42.988	0.285	0.145
-644.726	800.000	-0.015	0.062
-643.711	66.146	-0.100	0.102
-642.697	-105.865	-0.233	-0.053
-641.682	-16.406	0.246	-0.157
-640.668	-173.301	-0.265	-0.008
-639.653	477.968	0.147	-0.335
-638.638	584.026	0.115	-0.284
-637.624	347.052	-0.013	-0.026
-636.609	679.662	0.167	-0.437
-635.595	-200.000	-0.090	0.432
-634.580	-186.419	-0.160	-0.002
-633.565	-200.000	0.032	-0.172
-632.551	351.490	-0.178	-0.354
-631.536	-122.139	-0.133	-0.022
-630.522	-200.000	0.014	0.158
-629.507	-100.891	-0.358	-0.088
-628.492	14.323	0.396	-0.310
-627.478	171.855	0.099	0.143
-626.463	-200.000	0.018	0.119
-625.449	-133.376	-0.214	-0.027
-624.434	39.212	0.076	-0.068
-623.419	-10.950	0.165	-0.109
-622.405	600.625	-0.037	0.092
-621.390	-82.944	-0.245	0.079
-620.376	142.478	0.175	-0.234
-619.361	248.966	0.240	0.409
-618.346	-200.000	-0.004	-0.239
-617.332	376.800	-0.214	-0.438
-616.317	800.000	0.076	0.261
-615.303	800.000	-0.073	0.215
-614.288	-200.000	0.037	-0.219
-613.273	-53.643	0.109	0.050
-612.259	-129.083	0.332	0.047
-611.244	0.631	0.187	-0.134
-610.230	150.436	-0.143	-0.195
-609.215	-192.535	-0.226	0.002
-608.201	-58.850	-0.275	-0.119
-607.186	32.271	-0.025	-0.021
-606.171	12.947	0.307	0.238
-605.157	70.892	-0.116	0.120
-604.142	237.369	-0.094	-0.156
-603.128	199.755	-0.259	-0.398
-602.113	-5.561	0.138	0.095
-601.098	-76.422	-0.192	-0.068
-600.084	26.428	0.098	-0.082
-599.069	-3.875	0.265	0.184
-598.055	285.367	0.139	0.250
-597.040	157.611	-0.066	-0.092
-596.025	800.000	0.048	-0.176
-595.011	-200.000	0.001	-0.117
-593.996	-38.626	0.066	0.035
-592.982	-200.000	0.053	0.241
-591.967	-200.000	0.032	-0.220
-590.952	-27.853	-0.161	-0.094
-589.938	17.475	0.036	-0.029
-588.923	-200.000	-0.019	0.104
-587.909	180.693	-0.119	-0.175
-586.894	-74.886	0.088	-0.031
-585.879	30.864	0.181	-0.155
-584.865	573.097	-0.149	-0.365
-583.850	169.004	-0.077	-0.110
-582.836	-200.000	0.020	-0.219
-581.821	127.908	-0.255	-0.325
-580.806	800.000	0.076	-0.229
-579.792	247.986	0.104	0.176
-578.777	800.000	0.072	-0.204
-577.763	47.264	-0.193	0.180
-576.748	24.518	0.159	0.132
-575.733	800.000	-0.064	-0.260
-574.719	-87.375	0.075	-0.023
-573.704	800.000	-0.034	0.113
-572.690	78.837	0.328	-0.351
-571.675	56.758	0.116	-0.113
-570.661	184.555	0.133	0.197
-569.646	-95.215	0.249	-0.067
-568.631	-200.000	0.011	0.270
-567.617	-200.000	0.030	0.211
-566.602	-10.913	-0.110	-0.073
-565.588	-173.275	-0.056	0.002
-564.573	53.912	0.126	0.121
-563.558	83.687	0.124	0.135
-562.544	-89.115	-0.159	-0.047
-561.529	786.007	-0.052	-0.143
-560.515	-12.371	0.127	0.083
-559.500	330.399	0.076	-0.147
-558.485	98.728	0.131	0.152
-557.471	-177.447	0.269	-0.007
-556.456	658.003	-0.040	0.102
-555.442	-138.172	0.395	-0.044
-554.427	-155.604	-0.146	0.009
-553.412	-76.156	-0.462	0.163
-552.398	-76.123	0.181	0.064
-551.383	47.288	0.068	0.064
-550.369	60.195	0.063	-0.062
-549.354	-51.868	0.260	-0.121
-548.339	800.000	-0.081	0.242
-547.325	-133.800	0.082	-0.010
-546.310	-200.000	-0.015	0.073
-545.296	-68.902	-0.113	0.043
-544.281	-23.613	-0.160	0.096
-543.266	132.315	-0.201	-0.260
-542.252	551.533	0.096	-0.230
-541.237	800.000	0.094	-0.261
-540.223	485.705	-0.022	0.050
-539.208	86.297	-0.057	-0.063
-538.193	7.242	-0.262	0.196
-537.179	800.000	0.015	0.053
-536.164	-67.053	-0.258	0.102
-535.150	-200.000	-0.025	0.121
-534.135	800.000	0.037	-0.149
-533.121	-0.169	-0.216	0.154
-532.106	800.000	0.051	-0.200
-531.091	94.537	0.414	0.471
-530.077	411.904	-0.113	0.240
-529.062	27.637	0.072	0.061
-528.048	-121.420	0.182	-0.030
-527.033	522.927	-0.056	-0.131
-526.018	285.504	-0.137	-0.247
-525.004	6.233	0.135	0.100
-523.989	433.208	0.022	0.047
-522.975	101.966	0.101	0.118
-521.960	800.000	0.015	0.055
-520.945	16.010	-0.029	-0.023
-519.931	70.916	-0.338	-0.350
-518.916	-34.224	-0.191	0.105
-517.902	-200.000	-0.074	-0.352
-516.887	-155.977	-0.144	-0.009
-515.872	-37.243	0.331	-0.177
-514.858	-168.966	0.304	-0.011
-513.843	-200.000	0.029	0.270
-512.829	-178.264	0.219	0.005
-511.814	101.218	-0.070	0.082
-510.799	42.180	0.206	0.187
-509.785	-114.340	-0.177	0.034
-508.770	226.206	-0.110	-0.178
-507.756	726.587	0.054	-0.144
-506.741	800.000	-0.016	-0.049
-505.726	236.955	-0.305	-0.505
-504.712	-14.378	-0.275	0.177
-503.697	800.000	0.044	-0.146
-502.683	11.773	0.128	-0.098
-501.668	800.000	-0.063	-0.185
-500.653	-12.200	-0.344	-0.225
-499.639	-200.000	0.029	0.150
-498.624	354.890	-0.132	-0.263
-497.610	-81.269	-0.097	0.032
-496.595	800.000	0.110	-0.308
-495.581	-62.543	-0.175	0.073
-494.566	-200.000	-0.059	0.417
-493.551	766.530	-0.025	-0.067
-492.537	800.000	0.037	0.127
-491.522	-63.130	0.377	-0.155
-490.508	-15.193	0.129	-0.083
-489.493	47.014	0.147	-0.136
-488.478	135.968	0.136	-0.177
-487.464	-122.707	-0.124	-0.020
-486.449	8.888	-0.438	-0.330
-485.435	46.842	0.136	0.126
-484.420	458.324	-0.147	0.325
-483.405	178.626	-0.206	-0.301
-482.391	-128.963	0.197	0.028
-481.376	-120.752	0.216	-0.036
-480.362	-68.601	-0.190	-0.073
-479.347	53.068	-0.103	0.098
-478.332	800.000	-0.169	-0.500
-477.318	-130.158	-0.129	0.018
-476.303	-200.000	0.063	0.298
-475.289	800.000	-0.116	0.331
-474.274	-146.723	0.219	-0.019
-473.259	24.984	-0.186	-0.154
-472.245	49.700	0.189	-0.178
-471.230	16.701	0.241	-0.190
-470.216	800.000	0.040	0.140
-469.201	-161.762	-0.099	-0.005
-468.186	590.056	0.025	-0.061
-467.172	327.187	-0.033	0.064
-466.157	-200.000	-0.011	-0.192
-465.143	-12.439	0.242	0.158
-464.128	-200.000	-0.010	0.536
-463.113	30.781	0.371	-0.317
-462.099	-200.000	0.026	-0.128
-461.084	-200.000	0.003	0.250
-460.070	-200.000	-0.023	0.148
-459.055	-90.677	-0.187	0.054
-458.040	297.807	0.089	0.164
-457.026	-13.662	0.329	-0.212
-456.011	16.750	0.146	0.115
-454.997	-200.000	0.043	-0.259
-453.982	219.099	0.154	0.246
-452.968	221.839	-0.254	-0.408
-451.953	-150.832	0.337	0.025
-450.938	17.613	-0.336	-0.266
-449.924	-111.680	-0.083	-0.017
-448.909	-182.040	0.409	-0.008
-447.895	-57.097	-0.154	-0.068
-446.880	800.000	-0.058	-0.161
-445.865	-131.639	-0.226	-0.030
-444.851	-101.457	-0.204	0.050
-443.836	800.000	-0.169	0.477
-442.822	-4.311	0.247	0.170
-441.807	-167.467	0.352	-0.014
-440.792	-200.000	-0.024	0.121
-439.778	26.406	0.480	0.400
-438.763	587.068	-0.145	0.355
-437.749	2.760	0.338	-0.245
-436.734	123.685	-0.108	0.135
-435.719	226.274	0.129	-0.209
-434.705	-200.000	0.025	-0.115
-433.690	-76.795	0.141	0.049
-432.676	800.000	-0.059	-0.184
-431.661	-55.474	0.066	0.030
-430.646	68.468	-0.263	-0.269
-429.632	224.696	-0.114	0.184
-428.617	289.352	-0.115	-0.208
-427.603	131.005	-0.118	0.152
-426.588	73.320	-0.050	0.052
-425.573	12.830	-0.130	0.100
-424.559	-200.000	0.049	0.375
-423.544	247.546	-0.048	-0.081
-422.530	-200.000	-0.003	0.091
-421.515	-200.000	-0.004	-0.102
-420.500	34.355	0.079	-0.068
-419.486	25.376	0.212	0.175
-418.471	800.000	0.100	-0.307
-417.457	-16.733	0.200	0.126
-416.442	-162.225	0.251	0.013
-415.428	21.733	-0.217	0.176
-414.413	-128.356	-0.247	-0.035
-413.398	7.223	-0.131	-0.098
-412.384	-108.073	0.303	0.065
-411.369	69.721	-0.309	-0.317
-410.355	24.453	-0.202	0.167
-409.340	216.216	-0.232	-0.367
-408.325	800.000	-0.055	0.208
-407.311	-10.371	0.161	0.106
-406.296	-105.431	0.040	0.009
-405.282	54.494	-0.156	0.149
-404.267	-126.883	0.172	0.025
-403.252	800.000	0.077	-0.217
-402.238	-200.000	-0.081	0.372
-401.223	633.197	0.104	-0.261
-400.209	12.112	-0.444	0.340
-399.194	267.364	-0.157	0.274
-398.179	800.000	0.030	-0.084
-397.165	-49.490	0.203	0.096
-396.150	-143.047	-0.318	-0.031
-395.136	-200.000	-0.014	-0.273
-394.121	-81.087	0.287	0.094
-393.106	-200.000	-0.034	-0.169
-392.092	-180.365	0.088	0.002
-391.077	-200.000	-0.036	-0.189
-390.063	238.111	0.121	0.201
-389.048	-58.292	-0.268	0.116
-388.033	126.517	0.067	0.084
-387.019	72.288	-0.079	0.082
-386.004	6.952	-0.241	-0.178
-384.990	116.513	0.164	-0.200
-383.975	-71.523	-0.187	-0.070
-382.960	-35.391	-0.350	-0.189
-381.946	-200.000	0.002	0.254
-380.931	197.961	-0.019	-0.028
-379.917	193.578	-0.205	0.308
-378.902	190.691	0.221	-0.330
-377.888	59.793	-0.070	0.068
-376.873	-200.000	-0.095	-0.435
-375.858	103.735	-0.118	-0.138
-374.844	800.000	-0.029	0.109
-373.829	-76.526	-0.405	-0.141
-372.815	286.077	-0.191	0.343
-371.800	286.958	0.162	0.290
-370.785	-45.147	-0.306	0.151
-369.771	800.000	0.083	0.325
-368.756	-131.207	0.373	0.049
-367.742	-23.608	0.086	0.051
-366.727	-115.465	-0.023	0.004
-365.712	112.797	-0.132	0.158
-364.698	-200.000	-0.061	0.391
-363.683	156.587	-0.080	0.110
-362.669	691.364	0.077	0.201
-361.654	11.178	-0.114	0.087
-360.639	606.903	-0.110	-0.272
-359.625	-194.945	0.315	0.002
-358.610	-200.000	-0.012	0.393
-357.596	82.412	0.071	0.076
-356.581	-30.195	-0.205	-0.116
-355.566	-21.203	-0.221	-0.134
-354.552	88.365	-0.202	-0.223
-353.537	-200.000	0.020	-0.170
-352.523	325.626	-0.137	-0.261
-351.508	120.397	-0.199	-0.246
-350.493	161.510	-0.150	-0.208
-349.479	-103.258	0.244	-0.057
-348.464	-3.003	0.120	0.083
-347.450	279.898	0.019	0.034
-346.435	-48.082	0.094	0.045
-345.420	-57.617	0.228	-0.099
-344.406	261.569	-0.105	-0.180
-343.391	383.074	-0.105	-0.215
-342.377	29.631	-0.173	0.146
-341.362	51.683	-0.130	0.122
-340.348	800.000	-0.110	-0.390
-339.333	-128.967	-0.303	-0.042
-338.318	-174.126	-0.182	0.005
-337.304	131.185	0.156	0.199
-336.289	-45.891	0.330	-0.162
-335.275	-103.996	0.106	-0.024
-334.260	-129.659	-0.279	-0.038
-333.245	-200.000	-0.038	-0.295
-332.231	-35.262	0.346	0.187
-331.216	-99.168	0.151	-0.038
-330.202	764.171	-0.097	-0.262
-329.187	-18.735	-0.146	-0.090
-328.172	417.036	0.067	-0.141
-327.158	-5.420	0.163	-0.111
-326.143	46.103	0.068	-0.062
-325.129	-133.906	-0.037	-0.005
-324.114	800.000	0.058	0.175
-323.099	-37.920	0.129	-0.068
-322.085	-200.000	0.019	0.152
-321.070	77.496	0.176	0.186
-320.056	800.000	0.069	0.191
-319.041	-177.327	0.092	0.002
-318.026	-200.000	0.018	0.162
-317.012	-200.000	-0.057	0.296
-315.997	800.000	-0.082	0.240
-314.983	-79.157	0.094	-0.032
-313.968	-200.000	-0.017	0.186
-312.953	179.555	-0.072	0.104
-311.939	800.000	-0.080	0.239
-310.924	-124.155	0.218	0.034
-309.910	661.948	-0.043	-0.110
-308.895	800.000	0.085	-0.327
-307.880	242.562	0.085	-0.141
-306.866	111.693	0.168	0.201
-305.851	79.157	-0.261	0.277
-304.837	33.268	-0.113	-0.097
-303.822	-200.000	0.016	-0.112
-302.807	122.522	0.093	0.115
-301.793	-102.565	0.135	0.032
-300.778	-71.775	-0.054	0.020
-299.764	470.002	0.030	-0.066
-298.749	-84.806	-0.253	0.079
-297.735	-131.898	-0.182	-0.024
-296.720	-122.086	0.280	0.046
-295.705	-200.000	-0.015	0.158
-294.691	-48.149	0.310	-0.148
-293.676	376.471	0.066	-0.134
-292.662	-28.193	0.309	-0.177
-291.647	-200.000	0.037	-0.276
-290.632	-200.000	-0.011	0.086
-289.618	65.184	0.081	-0.081
-288.603	800.000	-0.100	-0.277
-287.589	-81.882	-0.365	-0.118
-286.574	127.378	-0.166	-0.208
-285.559	-163.844	0.165	0.008
-284.545	482.009	0.200	-0.450
-283.530	-80.514	-0.317	-0.105
-282.516	459.530	-0.141	-0.312
-281.501	-29.930	0.226	0.128
-280.486	-200.000	-0.034	0.175
-279.472	-72.568	0.099	-0.036
-278.457	-79.998	0.151	-0.050
-277.443	800.000	0.020	-0.081
-276.428	800.000	-0.154	-0.422
-275.413	800.000	0.068	0.230
-274.399	-200.000	0.006	0.207
-273.384	-103.396	0.066	-0.015
-272.370	130.628	0.133	-0.169
-271.355	236.052	0.236	0.387
-270.340	-25.307	-0.243	-0.142
-269.326	-3.147	0.192	-0.133
-268.311	-200.000	-0.025	-0.329
-267.297	152.678	-0.194	0.262
-266.282	-169.746	0.444	-0.016
-265.267	703.648	-0.092	0.241
-264.253	-69.848	-0.150	0.057
-263.238	-1.126	0.044	-0.031
-262.224	-69.612	0.252	-0.096
-261.209	-33.634	-0.311	-0.170
-260.195	39.375	-0.071	-0.063
-259.180	-73.016	0.262	0.095
-258.165	-82.415	-0.249	0.080
-257.151	281.103	-0.179	0.316
-256.136	-90.877	-0.251	0.072
-255.122	-141.544	-0.071	-0.007
-254.107	-200.000	0.042	0.489
-253.092	-19.161	-0.259	0.159
-252.078	-200.000	-0.051	0.388
-251.063	-200.000	0.001	0.020
-250.049	-200.000	-0.028	-0.293
-249.034	-200.000	0.026	-0.211
-248.019	-129.753	-0.268	0.036
-247.005	-200.000	-0.019	0.368
-245.990	225.165	-0.209	-0.334
-244.976	-106.921	-0.155	-0.034
-243.961	-200.000	-0.201	0.000
-242.946	114.763	-0.049	0.058
-241.932	-200.000	-0.011	0.067
-240.917	125.676	-0.134	-0.167
-239.903	46.962	-0.315	0.290
-238.888	-87.571	0.215	-0.064
-237.873	-156.993	-0.143	0.009
-236.859	-70.147	-0.055	-0.021
-235.844	-200.000	0.045	0.250
-234.830	-64.051	0.244	0.098
-233.815	252.729	0.103	0.173
-232.800	188.864	-0.103	0.153
-231.786	-22.978	-0.094	-0.056
-230.771	371.728	0.096	0.193
-229.757	-175.823	0.063	0.002
-228.742	439.297	-0.272	0.587
-227.727	-173.699	0.364	0.011
-226.713	-68.600	0.131	0.050
-225.698	-29.102	0.186	0.105
-224.684	147.349	0.107	0.142
-223.669	-96.337	0.236	0.062
-222.655	-127.950	-0.371	-0.053
-221.640	9.701	-0.082	0.061
-220.625	-54.678	-0.205	0.092
-219.611	-20.307	0.128	-0.078
-218.596	-131.879	-0.311	0.040
-217.582	469.541	-0.037	0.082
-216.567	-6.887	0.136	-0.091
-215.552	800.000	0.118	0.381
-214.538	-200.000	-0.061	0.348
-213.523	163.043	0.138	0.192
-212.509	-68.602	0.142	-0.054
-211.494	-200.000	0.060	0.272
-210.479	-125.641	-0.158	0.024
-209.465	193.583	0.149	0.223
-208.450	218.561	0.190	-0.300
-207.436	-63.087	-0.458	0.187
-206.421	-65.217	0.210	0.084
-205.406	437.212	0.149	0.320
-204.392	277.997	-0.111	0.195
-203.377	-89.167	0.116	-0.034
-202.363	-41.158	0.228	-0.116
-201.348	-155.404	0.144	-0.009
-200.333	-200.000	0.027	0.191
-199.319	-20.999	0.103	-0.062
-198.304	800.000	0.084	0.299
-197.290	346.592	0.050	-0.097
-196.275	70.961	0.280	-0.286
-195.260	-43.002	0.047	-0.023
-194.246	135.777	-0.088	-0.113
-193.231	4.844	0.288	-0.209
-192.217	-67.200	0.139	-0.054
-191.202	247.976	-0.208	0.346
-190.187	-104.590	-0.272	0.062
-189.173	260.821	-0.143	0.243
-188.158	-62.566	-0.267	-0.109
-187.144	-152.971	0.199	0.014
-186.129	-117.376	0.111	0.020
-185.114	27.276	-0.275	-0.228
-184.100	716.842	0.033	0.086
-183.085	-51.062	0.235	0.109
-182.071	476.915	0.075	0.168
-181.056	-45.161	-0.320	0.157
-180.042	-100.002	-0.270	0.067
-179.027	94.114	-0.151	-0.168
-178.012	51.313	0.366	-0.343
-176.998	-105.909	-0.109	0.024
-175.983	800.000	-0.022	-0.083
-174.969	-108.120	-0.160	-0.034
-173.954	-71.571	0.133	0.049
-172.939	441.107	0.135	0.291
-171.925	-80.595	0.204	-0.067
-170.910	-111.679	0.179	-0.036
-169.896	-67.978	-0.196	0.075
-168.881	759.527	0.105	0.281
-167.866	-108.920	-0.232	0.049
-166.852	-150.556	0.240	-0.018
-165.837	-1.818	-0.164	-0.113
-164.823	-57.582	0.535	0.231
-163.808	697.965	-0.081	0.211
-162.793	-54.702	-0.133	0.059
-161.779	800.000	0.060	0.251
-160.764	-200.000	0.004	0.019
-159.750	693.601	0.072	0.187
-158.735	-141.631	0.039	0.004
-157.720	762.489	0.081	-0.216
-156.706	167.251	0.060	-0.085
-155.691	800.000	0.081	-0.348
-154.677	155.283	0.197	-0.267
-153.662	191.854	0.189	-0.281
-152.647	-118.704	-0.111	-0.019
-151.633	-147.224	-0.226	0.019
-150.618	-56.211	-0.073	0.032
-149.604	-98.405	0.306	-0.077
-148.589	-156.372	0.016	-0.001
-147.574	110.109	-0.125	0.148
-146.560	-147.612	-0.009	0.001
-145.545	151.701	0.059	0.079
-144.531	-200.000	-0.045	-0.268
-143.516	-82.466	0.185	-0.059
-142.502	-200.000	-0.008	-0.291
-141.487	49.381	0.315	-0.292
-140.472	800.000	-0.071	0.241
-139.458	82.065	-0.025	0.026
-138.443	-117.764	0.161	-0.029
-137.429	-124.475	0.063	-0.010
-136.414	-55.685	0.138	-0.061
-135.399	-200.000	-0.002	-0.038
-134.385	28.512	0.179	0.149
-133.370	239.426	0.170	0.279
-132.356	-200.000	0.049	-0.242
-131.341	215.912	-0.033	-0.052
-130.326	102.685	-0.108	0.124
-129.312	-200.000	0.029	-0.246
-128.297	62.698	0.041	-0.041
-127.283	-116.049	0.347	0.064
-126.268	-200.000	-0.003	0.128
-125.253	-186.508	0.122	-0.002
-124.239	-126.200	-0.269	0.040
-123.224	-9.555	0.574	-0.377
-122.210	-105.614	-0.313	-0.070
