DTS Sentinel unit serial number:	SN413079Multiplexer serial number:	ORYXHardware model number:	OX4-SRSoftware version number:	ORYX F/W v4.00 Oryx Data Collector v3.7.2.0data status	okinstallation	princeton_trtdifferential loss correction	single-endedforward channel	channel 1reverse channel	N/Adate	2019/09/14time	20:46:35forward acquisition time	60.00reverse acquisition time	0.00gamma	496.2192k internal	0.2317k external	0.2317temperature offset calibration	1.0016default loss term (dB/km)	0.3790temperature slope calibration	1.0000multiplexer offset coefficient	1.0000multiplexer slope coefficient	1.0000fibre end	0.00T internal ref (°C)	33.31T ext. ref 1 (°C)	4.80T ext. ref 2 (°C)	27.95length (m)	temperature (°C)	Stokes	anti-Stokes-747.200	14.241	-0.149	-0.117
-746.185	71.776	0.136	0.143
-745.171	30.962	0.205	0.178
-744.156	-144.374	0.409	0.038
-743.142	7.658	0.133	0.101
-742.127	-112.644	-0.439	0.088
-741.112	534.877	0.158	-0.380
-740.098	-195.481	0.201	-0.001
-739.083	-111.463	0.189	-0.039
-738.069	-200.000	-0.014	-0.255
-737.054	263.965	0.241	0.423
-736.039	-78.124	-0.175	0.061
-735.025	-161.449	-0.388	0.020
-734.010	414.706	-0.217	-0.467
-732.996	552.470	-0.048	0.116
-731.981	800.000	0.002	-0.006
-730.966	-44.786	-0.227	0.114
-729.952	-145.418	0.269	0.024
-728.937	800.000	0.120	-0.363
-727.923	800.000	0.077	-0.324
-726.908	186.573	-0.112	0.168
-725.894	39.555	-0.411	-0.373
-724.879	-64.192	-0.119	-0.049
-723.864	-200.000	-0.010	-0.099
-722.850	-200.000	0.068	0.501
-721.835	-199.020	-0.273	-0.001
-720.821	-106.830	-0.147	-0.033
-719.806	-64.142	-0.338	-0.139
-718.791	-38.465	-0.356	-0.190
-717.777	-200.000	-0.017	-0.115
-716.762	52.056	0.235	0.227
-715.748	617.886	0.059	-0.149
-714.733	32.920	0.179	0.157
-713.718	-105.661	-0.234	0.054
-712.704	352.346	-0.065	-0.131
-711.689	27.106	-0.030	-0.026
-710.675	-200.000	0.014	0.133
-709.660	273.558	0.185	0.331
-708.645	92.358	-0.188	0.215
-707.631	-200.000	0.011	0.159
-706.616	115.947	0.198	-0.245
-705.602	457.534	0.076	0.170
-704.587	-64.427	-0.187	0.077
-703.572	800.000	-0.094	-0.279
-702.558	800.000	-0.064	0.242
-701.543	800.000	0.027	-0.113
-700.529	800.000	0.041	0.166
-699.514	-29.485	0.077	-0.044
-698.499	-200.000	-0.043	0.251
-697.485	-76.566	-0.121	0.043
-696.470	-200.000	0.060	0.296
-695.456	-66.004	-0.206	-0.083
-694.441	407.667	-0.060	-0.128
-693.426	-160.093	-0.283	0.016
-692.412	-200.000	0.042	-0.230
-691.397	3.136	0.219	-0.161
-690.383	-200.000	-0.027	0.359
-689.368	68.736	-0.015	0.016
-688.354	259.181	-0.054	-0.095
-687.339	-107.124	-0.259	0.058
-686.324	-110.530	0.117	-0.024
-685.310	134.759	-0.185	-0.242
-684.295	207.963	-0.142	-0.224
-683.281	-38.793	-0.273	-0.146
-682.266	-169.992	-0.256	0.009
-681.251	-200.000	-0.049	0.366
-680.237	-191.253	-0.075	0.001
-679.222	-3.311	0.149	0.105
-678.208	800.000	0.045	-0.183
-677.193	-109.083	-0.195	0.042
-676.178	800.000	0.028	0.105
-675.164	800.000	-0.038	0.111
-674.149	277.468	-0.092	-0.165
-673.135	-108.910	-0.155	0.033
-672.120	800.000	0.067	0.230
-671.105	225.866	0.080	0.130
-670.091	-78.197	-0.115	0.040
-669.076	-117.746	-0.415	0.075
-668.062	-73.189	0.076	0.028
-667.047	-150.681	0.042	0.003
-666.032	800.000	0.087	-0.256
-665.018	69.884	-0.185	-0.192
-664.003	800.000	-0.058	0.179
-662.989	-194.856	-0.268	-0.002
-661.974	-159.214	-0.261	-0.015
-660.959	744.027	-0.079	0.214
-659.945	-200.000	-0.018	0.103
-658.930	-71.085	0.256	-0.097
-657.916	23.809	0.220	-0.183
-656.901	-27.800	0.361	-0.211
-655.886	-169.816	-0.189	0.007
-654.872	-128.664	0.307	0.044
-653.857	-111.402	0.219	-0.045
-652.843	157.743	-0.244	0.341
-651.828	-82.404	-0.083	0.027
-650.814	-21.396	0.288	-0.177
-649.799	-60.832	0.461	-0.197
-648.784	148.959	-0.115	-0.157
-647.770	-200.000	-0.007	-0.180
-646.755	-200.000	-0.001	-0.132
-645.741	-87.979	0.167	0.051
-644.726	261.443	0.139	-0.242
-643.711	62.865	0.052	0.053
-642.697	800.000	0.063	0.196
-641.682	409.018	-0.005	-0.011
-640.668	-57.152	0.181	0.080
-639.653	800.000	0.025	0.106
-638.638	-52.682	0.319	0.148
-637.624	-117.360	-0.298	0.054
-636.609	56.436	-0.068	-0.067
-635.595	-139.407	-0.195	0.021
-634.580	800.000	0.052	-0.184
-633.565	-26.316	0.205	0.121
-632.551	72.319	-0.268	0.281
-631.536	-123.530	0.237	0.038
-630.522	800.000	0.087	0.243
-629.507	493.807	-0.039	-0.090
-628.492	134.233	0.077	-0.101
-627.478	-89.276	-0.096	0.029
-626.463	-200.000	-0.048	-0.418
-625.449	-200.000	0.007	-0.261
-624.434	-47.675	0.118	-0.058
-623.419	-109.026	-0.184	0.040
-622.405	800.000	0.036	0.132
-621.390	-200.000	-0.043	0.335
-620.376	-200.000	0.049	0.307
-619.361	-12.268	-0.176	-0.116
-618.346	0.109	-0.064	0.046
-617.332	54.704	0.162	0.157
-616.317	-200.000	-0.001	-0.029
-615.303	234.975	-0.028	-0.047
-614.288	-5.946	0.215	-0.148
-613.273	120.231	-0.069	-0.086
-612.259	17.051	-0.071	-0.057
-611.244	-200.000	-0.040	-0.331
-610.230	800.000	-0.091	-0.275
-609.215	-4.923	0.164	-0.114
-608.201	-123.162	-0.242	-0.039
-607.186	-200.000	0.007	-0.340
-606.171	83.091	0.069	-0.075
-605.157	-77.104	-0.093	-0.033
-604.142	-200.000	0.001	0.202
-603.128	-200.000	0.001	-0.141
-602.113	-145.098	0.214	-0.020
-601.098	-200.000	0.016	-0.072
-600.084	-200.000	-0.019	0.161
-599.069	-35.938	0.152	-0.083
-598.055	-160.209	-0.215	-0.012
-597.040	-128.606	0.111	0.016
-596.025	62.488	-0.132	-0.133
-595.011	360.223	-0.069	-0.139
-593.996	-200.000	-0.019	-0.247
-592.982	-48.870	0.339	0.164
-591.967	-172.566	-0.407	-0.013
-590.952	-77.212	0.249	0.087
-589.938	-41.580	0.113	-0.058
-588.923	-115.891	-0.179	0.034
-587.909	238.273	-0.075	-0.126
-586.894	-20.251	-0.252	0.156
-585.879	-200.000	0.040	-0.453
-584.865	-200.000	0.003	-0.074
-583.850	-71.516	0.158	0.059
-582.836	578.772	-0.102	0.252
-581.821	-42.875	-0.309	0.158
-580.806	54.301	0.159	0.154
-579.792	800.000	-0.056	0.197
-578.777	-48.877	0.115	-0.056
-577.763	-200.000	-0.021	0.221
-576.748	-19.500	-0.065	-0.041
-575.733	800.000	-0.052	0.205
-574.719	-5.879	0.233	-0.160
-573.704	570.549	-0.024	0.058
-572.690	-200.000	-0.009	-0.140
-571.675	-97.791	-0.175	0.045
-570.661	800.000	0.113	0.357
-569.646	-200.000	-0.021	0.236
-568.631	800.000	-0.089	0.335
-567.617	-88.526	-0.132	0.039
-566.602	-41.066	0.213	-0.111
-565.588	-200.000	-0.022	-0.395
-564.573	-104.507	0.193	0.045
-563.558	-64.291	-0.257	-0.105
-562.544	-72.019	0.152	0.057
-561.529	-72.783	0.026	-0.010
-560.515	282.839	0.031	-0.055
-559.500	205.734	-0.067	-0.105
-558.485	211.960	-0.079	-0.125
-557.471	-200.000	-0.000	0.054
-556.456	96.796	-0.372	-0.428
-555.442	-200.000	-0.012	0.093
-554.427	-146.625	0.045	0.004
-553.412	670.879	0.140	0.365
-552.398	-139.993	-0.246	-0.026
-551.383	92.279	0.200	0.226
-550.369	127.351	0.073	0.093
-549.354	-103.917	-0.242	0.057
-548.339	-135.927	-0.422	0.050
-547.325	-103.258	0.158	0.037
-546.310	-200.000	-0.008	0.135
-545.296	-15.698	-0.074	-0.047
-544.281	-82.932	0.277	-0.090
-543.266	-200.000	0.001	0.072
-542.252	-200.000	-0.007	0.039
-541.237	607.343	0.202	0.506
-540.223	164.296	0.101	-0.142
-539.208	106.043	-0.071	0.085
-538.193	72.392	0.193	-0.202
-537.179	57.607	-0.073	-0.072
-536.164	-80.998	-0.117	-0.039
-535.150	800.000	-0.104	0.325
-534.135	-78.162	-0.218	0.075
-533.121	-95.857	-0.040	-0.011
-532.106	800.000	0.046	0.181
-531.091	158.565	-0.117	0.163
-530.077	-200.000	0.035	-0.272
-529.062	-76.115	-0.172	0.061
-528.048	247.540	-0.185	0.314
-527.033	-52.773	-0.114	0.053
-526.018	175.621	-0.084	0.123
-525.004	-98.058	0.172	-0.045
-523.989	159.326	-0.062	-0.087
-522.975	79.099	-0.083	0.089
-521.960	800.000	0.076	-0.229
-520.945	-18.345	0.045	-0.028
-519.931	199.563	0.137	0.211
-518.916	268.012	0.035	-0.062
-517.902	-82.828	0.208	0.067
-516.887	-114.942	0.176	-0.034
-515.872	-169.546	0.038	0.001
-514.858	-5.001	-0.111	0.077
-513.843	-110.701	0.195	-0.040
-512.829	-2.230	-0.146	0.103
-511.814	-88.462	0.363	0.109
-510.799	-200.000	0.011	0.069
-509.785	-97.321	-0.182	0.048
-508.770	84.370	-0.058	0.063
-507.756	306.456	0.030	0.056
-506.741	-200.000	-0.068	-0.460
-505.726	175.678	-0.106	-0.154
-504.712	130.579	-0.104	0.133
-503.697	-200.000	0.001	-0.102
-502.683	800.000	-0.158	-0.557
-501.668	175.518	-0.147	-0.214
-500.653	340.519	-0.025	-0.049
-499.639	-75.581	0.245	0.087
-498.624	-20.797	0.073	-0.045
-497.610	-200.000	-0.027	0.171
-496.595	-200.000	0.020	-0.308
-495.581	410.388	0.109	-0.233
-494.566	422.289	0.034	-0.072
-493.551	-99.587	-0.225	0.057
-492.537	-135.484	0.165	-0.020
-491.522	-32.705	-0.226	-0.126
-490.508	-32.757	-0.116	0.065
-489.493	-56.491	-0.212	0.094
-488.478	-47.739	0.291	0.141
-487.464	290.725	0.095	-0.173
-486.449	36.106	-0.238	-0.210
-485.435	-19.139	-0.352	-0.219
-484.420	-200.000	-0.009	0.246
-483.405	39.665	0.182	0.163
-482.391	-81.935	-0.172	0.056
-481.376	-173.030	0.205	-0.006
-480.362	21.061	0.099	-0.080
-479.347	77.379	0.044	-0.047
-478.332	145.497	0.086	-0.115
-477.318	60.880	0.187	0.186
-476.303	-200.000	-0.050	0.372
-475.289	-49.983	-0.180	0.086
-474.274	-19.275	0.053	-0.033
-473.259	800.000	0.075	0.248
-472.245	-129.279	-0.160	-0.022
-471.230	121.233	0.333	-0.416
-470.216	-40.811	0.045	-0.023
-469.201	-134.567	-0.257	0.031
-468.186	504.536	-0.059	-0.137
-467.172	-200.000	-0.041	-0.318
-466.157	677.020	0.142	0.371
-465.143	-28.348	0.187	-0.108
-464.128	-200.000	-0.020	0.150
-463.113	-200.000	0.002	-0.171
-462.099	800.000	-0.046	-0.187
-461.084	-162.194	-0.205	0.010
-460.070	84.756	0.011	-0.012
-459.055	-69.622	0.162	-0.062
-458.040	800.000	0.131	-0.363
-457.026	458.973	-0.058	-0.129
-456.011	-19.023	0.033	-0.021
-454.997	19.847	-0.253	-0.204
-453.982	-140.896	-0.079	-0.008
-452.968	55.521	-0.152	0.148
-451.953	-109.841	0.223	0.047
-450.938	-59.141	-0.241	0.104
-449.924	-200.000	-0.043	0.228
-448.909	83.663	0.122	0.133
-447.895	390.756	0.187	-0.388
-446.880	-66.705	0.258	0.102
-445.865	208.288	-0.142	-0.222
-444.851	250.757	-0.039	-0.066
-443.836	543.329	-0.086	0.206
-442.822	28.136	-0.250	0.211
-441.807	-200.000	-0.037	0.256
-440.792	-3.091	-0.150	0.105
-439.778	523.169	-0.045	0.105
-438.763	-68.764	-0.307	-0.119
-437.749	-200.000	-0.010	-0.107
-436.734	77.442	-0.103	-0.110
-435.719	800.000	0.032	-0.126
-434.705	93.964	-0.069	0.078
-433.690	-35.745	0.055	0.030
-432.676	411.319	-0.108	0.230
-431.661	-75.182	0.046	-0.016
-430.646	-72.319	-0.335	-0.124
-429.632	-60.702	0.054	-0.023
-428.617	-45.438	0.079	-0.039
-427.603	61.577	-0.124	0.124
-426.588	366.809	-0.108	-0.217
-425.573	133.167	-0.132	0.171
-424.559	-184.308	0.291	0.005
-423.544	121.386	-0.036	-0.044
-422.530	-46.681	0.163	0.080
-421.515	-43.703	-0.214	-0.108
-420.500	128.018	0.114	-0.144
-419.486	-134.283	0.192	0.024
-418.471	120.335	-0.024	-0.030
-417.457	-82.002	-0.592	0.193
-416.442	-149.651	-0.226	-0.018
-415.428	-56.641	-0.318	-0.141
-414.413	-66.105	0.124	0.049
-413.398	404.709	-0.133	-0.280
-412.384	169.146	0.230	0.329
-411.369	189.394	-0.074	-0.111
-410.355	-29.372	0.259	0.148
-409.340	-99.198	-0.160	-0.040
-408.325	800.000	-0.057	-0.188
-407.311	-9.223	-0.076	-0.051
-406.296	234.336	0.120	0.198
-405.282	-72.013	-0.226	0.084
-404.267	161.632	0.116	0.163
-403.252	-5.923	-0.169	0.115
-402.238	-69.925	0.136	-0.052
-401.223	800.000	-0.064	-0.221
-400.209	-200.000	0.034	0.261
-399.194	17.378	0.313	0.248
-398.179	64.560	0.047	0.048
-397.165	-145.531	-0.033	0.003
-396.150	484.574	0.039	-0.088
-395.136	519.499	-0.108	-0.252
-394.121	-115.809	-0.197	0.037
-393.106	-80.686	-0.078	-0.026
-392.092	800.000	-0.037	-0.132
-391.077	-140.496	-0.100	0.010
-390.063	188.092	-0.133	-0.198
-389.048	-109.894	0.306	0.064
-388.033	-75.815	0.159	-0.056
-387.019	95.530	-0.155	-0.177
-386.004	-49.027	0.126	-0.060
-384.990	-200.000	-0.008	0.194
-383.975	-200.000	-0.065	0.285
-382.960	-95.135	0.299	0.081
-381.946	-108.327	-0.142	-0.031
-380.931	-127.356	-0.363	0.053
-379.917	-30.032	-0.158	0.090
-378.902	530.067	-0.125	0.295
-377.888	-165.308	0.172	-0.008
-376.873	-107.219	-0.413	0.091
-375.858	-200.000	-0.026	0.212
-374.844	-21.081	-0.087	-0.053
-373.829	121.441	0.189	0.235
-372.815	-86.575	0.073	-0.022
-371.800	800.000	0.097	0.269
-370.785	84.360	-0.160	-0.174
-369.771	162.400	-0.098	-0.137
-368.756	-74.964	-0.196	0.070
-367.742	340.053	0.103	-0.200
-366.727	66.323	-0.144	-0.146
-365.712	-200.000	-0.229	-0.000
-364.698	19.705	-0.181	-0.145
-363.683	118.070	-0.147	0.181
-362.669	245.433	0.174	-0.291
-361.654	758.058	0.109	0.294
-360.639	-159.969	0.348	0.019
-359.625	-200.000	-0.024	-0.138
-358.610	19.198	-0.219	-0.176
-357.596	142.807	0.149	-0.198
-356.581	316.605	0.040	-0.076
-355.566	-200.000	0.041	-0.266
-354.552	-200.000	-0.032	0.163
-353.537	-200.000	-0.022	-0.228
-352.523	-200.000	-0.064	-0.296
-351.508	100.746	-0.310	-0.359
-350.493	-20.743	0.017	-0.011
-349.479	161.156	0.098	-0.137
-348.464	-200.000	-0.013	-0.068
-347.450	79.824	-0.013	0.014
-346.435	423.171	0.135	0.290
-345.420	-19.993	-0.313	0.193
-344.406	-136.629	-0.255	0.029
-343.391	92.627	0.079	0.089
-342.377	308.866	-0.027	-0.050
-341.362	40.071	0.200	0.179
-340.348	-200.000	0.009	-0.168
-339.333	-77.235	0.142	0.049
-338.318	-148.196	0.240	0.020
-337.304	-90.838	-0.321	0.092
-336.289	148.668	-0.148	0.200
-335.275	-200.000	-0.004	-0.325
-334.260	212.755	-0.052	-0.082
-333.245	800.000	0.037	0.151
-332.231	-151.926	0.220	0.016
-331.216	238.331	-0.196	-0.325
-330.202	357.299	0.097	-0.192
-329.187	-200.000	-0.026	-0.237
-328.172	-105.597	0.476	0.107
-327.158	-130.199	-0.262	0.036
-326.143	800.000	-0.022	0.083
-325.129	155.606	-0.182	0.249
-324.114	30.403	-0.235	-0.200
-323.099	77.357	0.150	-0.158
-322.085	138.329	0.287	0.375
-321.070	-56.146	-0.149	-0.066
-320.056	-72.916	0.228	-0.083
-319.041	-200.000	-0.035	-0.243
-318.026	485.779	0.092	-0.208
-317.012	17.832	0.374	-0.297
-315.997	-35.944	0.176	-0.095
-314.983	339.409	0.058	-0.113
-313.968	800.000	-0.065	0.207
-312.953	-200.000	0.001	-0.223
-311.939	2.594	-0.245	-0.176
-310.924	-176.182	-0.141	-0.004
-309.910	800.000	0.120	0.362
-308.895	17.007	-0.144	-0.114
-307.880	132.070	0.221	0.283
-306.866	20.524	0.112	-0.090
-305.851	330.796	0.129	-0.247
-304.837	284.976	-0.086	0.155
-303.822	-69.343	0.149	0.057
-302.807	-200.000	-0.038	-0.407
-301.793	42.430	-0.059	-0.054
-300.778	-15.180	-0.234	-0.149
-299.764	233.929	0.102	-0.167
-298.749	186.362	-0.281	0.416
-297.735	405.735	0.101	0.212
-296.720	-200.000	0.068	-0.421
-295.705	66.289	0.143	0.145
-294.691	-88.939	0.269	0.079
-293.676	-49.582	0.002	-0.001
-292.662	-162.283	0.300	0.015
-291.647	800.000	-0.055	0.234
-290.632	507.206	-0.041	-0.095
-289.618	257.776	-0.069	-0.118
-288.603	38.663	0.186	-0.165
-287.589	-68.047	0.110	-0.042
-286.574	800.000	-0.091	0.253
-285.559	-143.004	-0.339	0.033
-284.545	382.940	0.125	0.257
-283.530	-200.000	0.013	0.386
-282.516	38.792	-0.140	0.124
-281.501	83.263	-0.127	0.138
-280.486	800.000	0.015	-0.063
-279.472	-200.000	-0.016	0.099
-278.457	800.000	0.109	0.310
-277.443	-152.320	0.190	0.014
-276.428	40.218	-0.033	-0.029
-275.413	57.658	-0.132	-0.128
-274.399	458.156	-0.065	-0.144
-273.384	-65.536	-0.147	-0.059
-272.370	-200.000	0.002	-0.136
-271.355	-14.433	0.217	0.139
-270.340	800.000	-0.038	0.125
-269.326	343.617	-0.092	0.179
-268.311	800.000	-0.081	0.347
-267.297	-102.298	0.046	0.011
-266.282	-200.000	-0.028	-0.239
-265.267	-200.000	0.014	0.080
-264.253	194.043	-0.067	-0.101
-263.238	-200.000	-0.006	-0.140
-262.224	-200.000	0.015	-0.073
-261.209	-85.102	-0.214	0.067
-260.195	787.932	-0.125	0.340
-259.180	-80.441	0.123	-0.041
-258.165	153.057	-0.136	-0.184
-257.151	135.535	-0.045	-0.058
-256.136	-147.063	0.124	0.011
-255.122	-73.158	-0.471	-0.171
-254.107	158.475	-0.073	-0.100
-253.092	-18.542	0.153	0.095
-252.078	63.983	0.143	-0.143
-251.063	-124.373	0.214	0.033
-250.049	-154.389	0.131	-0.009
-249.034	552.307	0.047	0.113
-248.019	-89.254	0.187	-0.055
-247.005	5.588	0.121	0.089
-245.990	-200.000	0.029	0.249
-244.976	169.484	0.103	-0.147
-243.961	-32.747	-0.063	-0.035
-242.946	-200.000	-0.033	0.253
-241.932	176.206	0.057	0.082
-240.917	87.289	0.046	-0.050
-239.903	65.218	-0.284	-0.285
-238.888	-200.000	0.017	0.117
-237.873	-200.000	0.016	-0.149
-236.859	-118.476	0.110	-0.019
-235.844	-113.145	0.081	0.016
-234.830	-94.831	0.273	0.073
-233.815	89.167	-0.169	0.187
-232.800	-200.000	-0.047	-0.271
-231.786	17.141	-0.232	0.183
-230.771	49.138	0.404	-0.376
-229.757	5.535	0.278	0.204
-228.742	-200.000	-0.007	-0.047
-227.727	-178.454	0.237	-0.005
-226.713	-200.000	-0.032	0.227
-225.698	-200.000	-0.050	0.268
-224.684	74.446	0.178	-0.185
-223.669	800.000	-0.046	0.180
-222.655	50.716	0.078	0.073
-221.640	443.327	0.057	0.124
-220.625	-200.000	-0.036	0.216
-219.611	117.764	-0.156	0.190
-218.596	256.856	-0.117	-0.200
-217.582	516.705	0.096	0.222
-216.567	-200.000	0.042	0.240
-215.552	-18.423	0.111	-0.069
-214.538	93.642	0.192	0.215
-213.523	-98.640	-0.038	-0.010
-212.509	37.905	0.160	-0.141
-211.494	-168.655	-0.210	0.008
-210.479	-200.000	0.022	0.254
-209.465	-200.000	-0.010	0.197
-208.450	-147.122	0.128	-0.011
-207.436	-6.404	0.101	-0.068
-206.421	556.843	-0.082	0.195
-205.406	70.382	0.159	0.162
-204.392	-43.706	-0.493	-0.246
-203.377	800.000	-0.092	-0.306
-202.363	-75.364	0.434	-0.153
-201.348	-19.809	0.105	0.064
-200.333	-136.045	-0.124	-0.014
-199.319	126.232	-0.148	-0.186
-198.304	-200.000	-0.015	-0.212
-197.290	-147.041	0.303	0.026
-196.275	-200.000	0.017	0.189
-195.260	-81.553	0.110	-0.036
-194.246	-78.646	-0.099	0.034
-193.231	-70.427	0.262	-0.098
-192.217	-118.314	0.272	-0.048
-191.202	24.371	-0.147	-0.120
-190.187	-31.970	0.406	-0.225
-189.173	61.794	0.176	0.173
-188.158	-152.486	0.017	-0.001
-187.144	-11.665	-0.145	-0.094
-186.129	-169.189	0.052	0.002
-185.114	-200.000	-0.067	0.385
-184.100	185.632	0.148	0.217
-183.085	-27.755	0.227	0.130
-182.071	763.719	0.118	-0.317
-181.056	748.979	-0.034	-0.090
-180.042	148.212	0.270	0.362
-179.027	-200.000	-0.052	0.335
-178.012	-200.000	0.021	-0.217
-176.998	-200.000	0.030	-0.330
-175.983	-200.000	0.003	0.046
-174.969	-58.912	-0.216	0.092
-173.954	118.539	0.120	-0.146
-172.939	191.348	0.060	0.089
-171.925	-200.000	0.003	-0.282
-170.910	440.768	-0.175	0.379
-169.896	800.000	-0.080	0.272
-168.881	-30.204	-0.176	-0.099
-167.866	69.543	-0.183	-0.187
-166.852	-200.000	0.020	0.144
-165.837	698.785	0.107	-0.280
-164.823	162.083	0.175	0.243
-163.808	-116.735	0.205	-0.037
-162.793	800.000	-0.058	-0.167
-161.779	42.613	0.233	-0.210
-160.764	430.978	-0.173	0.370
-159.750	-92.323	0.123	-0.034
-158.735	-200.000	-0.021	0.312
-157.720	-30.739	0.124	0.069
-156.706	-200.000	0.020	-0.291
-155.691	800.000	-0.008	-0.032
-154.677	800.000	0.040	0.158
-153.662	-131.944	-0.110	0.014
-152.647	-200.000	0.009	-0.223
-151.633	-64.827	-0.095	-0.038
-150.618	218.929	-0.237	0.374
-149.604	-52.854	0.129	0.059
-148.589	-200.000	0.015	-0.178
-147.574	-200.000	-0.013	0.094
-146.560	-140.046	0.233	0.024
-145.545	-111.894	0.254	-0.051
-144.531	-200.000	0.004	0.028
-143.516	198.213	0.130	0.196
-142.502	-200.000	-0.045	0.234
-141.487	-23.948	0.106	-0.063
-140.472	-48.028	0.080	0.038
-139.458	-35.840	0.287	-0.153
-138.443	-200.000	0.001	-0.274
-137.429	-18.099	-0.241	-0.149
-136.414	193.884	0.093	-0.138
-135.399	-47.522	-0.294	-0.141
-134.385	-62.864	0.028	-0.012
-133.370	9.418	0.077	0.057
-132.356	-100.654	-0.251	-0.061
-131.341	-200.000	0.005	-0.328
-130.326	-86.845	-0.391	-0.118
-129.312	-34.902	0.180	0.097
-128.297	-200.000	-0.033	0.189
-127.283	-96.387	-0.479	0.125
-126.268	-96.816	0.335	-0.087
-125.253	-194.713	0.209	0.002
-124.239	-200.000	-0.020	-0.094
-123.224	-114.546	0.132	-0.025
