DTS Sentinel unit serial number:	SN413079Multiplexer serial number:	ORYXHardware model number:	OX4-SRSoftware version number:	ORYX F/W v4.00 Oryx Data Collector v3.7.2.0data status	okinstallation	princeton_trtdifferential loss correction	single-endedforward channel	channel 1reverse channel	N/Adate	2019/09/15time	23:02:35forward acquisition time	60.00reverse acquisition time	0.00gamma	496.2192k internal	0.2332k external	0.2332temperature offset calibration	0.9970default loss term (dB/km)	0.3790temperature slope calibration	1.0000multiplexer offset coefficient	1.0000multiplexer slope coefficient	1.0000fibre end	0.00T internal ref (°C)	28.56T ext. ref 1 (°C)	8.99T ext. ref 2 (°C)	22.20length (m)	temperature (°C)	Stokes	anti-Stokes-747.200	-200.000	0.004	-0.115
-746.185	207.703	-0.157	0.247
-745.171	-200.000	0.063	0.292
-744.156	19.608	-0.256	0.207
-743.142	11.148	0.117	0.090
-742.127	-69.012	-0.266	0.103
-741.112	-200.000	0.009	0.173
-740.098	379.246	-0.127	0.261
-739.083	-200.000	-0.008	-0.082
-738.069	800.000	-0.057	0.212
-737.054	167.165	-0.194	-0.278
-736.039	-74.509	-0.348	-0.126
-735.025	-129.314	0.163	0.023
-734.010	617.943	-0.098	-0.248
-732.996	86.770	-0.108	0.120
-731.981	800.000	-0.083	-0.263
-730.966	114.891	-0.210	-0.258
-729.952	800.000	-0.120	-0.422
-728.937	338.382	-0.062	-0.122
-727.923	-200.000	-0.002	-0.196
-726.908	-200.000	0.001	-0.166
-725.894	57.370	-0.163	-0.160
-724.879	23.417	0.202	0.167
-723.864	-82.941	-0.391	-0.127
-722.850	-135.584	0.251	-0.030
-721.835	105.605	-0.362	-0.431
-720.821	-137.084	-0.185	-0.021
-719.806	30.563	-0.286	-0.246
-718.791	257.238	-0.017	-0.029
-717.777	-16.747	-0.108	0.069
-716.762	-200.000	0.002	0.026
-715.748	392.606	-0.164	-0.343
-714.733	100.838	0.106	-0.124
-713.718	-13.166	-0.182	0.119
-712.704	158.551	0.130	-0.182
-711.689	119.906	0.169	-0.211
-710.675	-200.000	-0.007	0.049
-709.660	800.000	0.088	0.355
-708.645	-19.963	0.014	0.009
-707.631	-68.894	0.238	-0.092
-706.616	-60.096	-0.209	-0.089
-705.602	800.000	-0.087	-0.267
-704.587	-84.265	0.190	-0.060
-703.572	-66.835	0.102	0.041
-702.558	-22.665	-0.116	0.070
-701.543	-124.891	-0.434	0.067
-700.529	-33.970	-0.378	-0.209
-699.514	800.000	0.050	0.203
-698.499	-200.000	-0.036	-0.241
-697.485	-200.000	0.009	-0.120
-696.470	-65.002	0.203	-0.082
-695.456	800.000	0.010	-0.040
-694.441	-130.227	-0.440	0.060
-693.426	-61.235	-0.342	0.145
-692.412	-200.000	0.005	-0.040
-691.397	-38.091	0.037	-0.020
-690.383	800.000	-0.072	-0.218
-689.368	-200.000	0.000	-0.013
-688.354	298.070	0.277	0.511
-687.339	4.848	-0.124	-0.092
-686.324	-200.000	0.015	-0.294
-685.310	800.000	0.084	-0.261
-684.295	502.967	-0.071	-0.166
-683.281	74.895	0.192	-0.203
-682.266	301.050	0.070	0.130
-681.251	800.000	-0.040	0.112
-680.237	-120.495	-0.016	-0.003
-679.222	-200.000	0.002	-0.190
-678.208	85.608	-0.210	-0.232
-677.193	332.069	-0.067	0.130
-676.178	-152.322	0.320	-0.023
-675.164	-63.577	-0.339	0.140
-674.149	408.186	-0.134	-0.283
-673.135	-200.000	0.019	-0.329
-672.120	800.000	-0.009	-0.037
-671.105	-200.000	-0.244	-0.001
-670.091	497.208	0.063	0.146
-669.076	-200.000	-0.017	-0.236
-668.062	9.159	-0.167	0.126
-667.047	-200.000	-0.022	-0.254
-666.032	-76.737	0.206	0.072
-665.018	-23.064	0.220	-0.133
-664.003	-200.000	0.003	0.078
-662.989	-138.254	0.203	-0.022
-661.974	-31.497	0.100	0.057
-660.959	-162.990	0.185	-0.009
-659.945	90.364	-0.168	0.189
-658.930	-200.000	-0.030	0.476
-657.916	3.809	-0.061	0.045
-656.901	800.000	0.070	-0.250
-655.886	-200.000	0.043	-0.521
-654.872	531.796	0.062	-0.146
-653.857	-200.000	-0.011	-0.225
-652.843	19.340	-0.063	-0.051
-651.828	-200.000	0.031	-0.203
-650.814	81.777	0.170	-0.185
-649.799	-99.824	-0.275	-0.069
-648.784	800.000	0.068	0.280
-647.770	-115.462	-0.192	0.036
-646.755	436.564	0.059	-0.128
-645.741	-16.921	0.223	0.141
-644.726	-164.327	0.286	-0.013
-643.711	-49.744	0.220	0.105
-642.697	-70.548	0.244	0.092
-641.682	-57.626	0.163	-0.071
-640.668	138.297	0.212	0.279
-639.653	-134.475	-0.106	0.013
-638.638	57.091	-0.520	-0.508
-637.624	-200.000	0.002	-0.069
-636.609	-5.519	-0.144	0.099
-635.595	106.303	0.150	-0.178
-634.580	15.565	0.093	-0.074
-633.565	47.105	-0.102	0.095
-632.551	800.000	0.114	0.359
-631.536	-200.000	-0.001	0.113
-630.522	-158.430	0.349	0.020
-629.507	31.384	-0.161	-0.139
-628.492	-200.000	0.012	-0.177
-627.478	-8.913	0.400	0.268
-626.463	-69.021	-0.137	-0.053
-625.449	-56.212	-0.197	-0.088
-624.434	-58.064	0.075	0.033
-623.419	-200.000	0.026	-0.134
-622.405	-200.000	0.152	0.000
-621.390	-94.721	0.271	0.074
-620.376	-78.021	-0.136	0.047
-619.361	-200.000	0.040	0.176
-618.346	-200.000	0.006	0.071
-617.332	55.849	-0.144	-0.140
-616.317	-14.507	-0.259	0.167
-615.303	22.256	-0.117	-0.095
-614.288	12.347	-0.096	-0.074
-613.273	-100.075	0.188	-0.047
-612.259	-82.711	-0.169	-0.055
-611.244	-113.014	-0.230	-0.045
-610.230	-200.000	-0.001	-0.088
-609.215	-104.783	-0.431	0.099
-608.201	-200.000	0.073	0.380
-607.186	-44.289	0.149	0.075
-606.171	-129.704	0.519	0.072
-605.157	-53.292	-0.211	0.097
-604.142	799.075	0.095	-0.263
-603.128	-89.013	0.152	-0.045
-602.113	-49.081	0.058	-0.028
-601.098	-121.688	-0.404	0.067
-600.084	343.990	-0.029	0.057
-599.069	-29.612	-0.236	-0.135
-598.055	208.380	-0.189	-0.295
-597.040	800.000	-0.019	-0.073
-596.025	2.543	-0.198	-0.144
-595.011	154.542	-0.041	0.056
-593.996	800.000	0.041	-0.118
-592.982	-28.148	0.031	-0.018
-591.967	-200.000	-0.005	0.041
-590.952	727.237	-0.086	0.229
-589.938	-50.665	0.091	0.043
-588.923	800.000	-0.040	0.116
-587.909	-113.899	0.104	-0.020
-586.894	376.037	-0.033	0.066
-585.879	800.000	-0.075	-0.233
-584.865	-67.614	0.370	0.145
-583.850	-162.608	-0.472	0.023
-582.836	232.877	0.146	0.239
-581.821	99.626	-0.137	-0.158
-580.806	-22.669	0.217	0.131
-579.792	-200.000	-0.006	-0.135
-578.777	-200.000	-0.014	-0.181
-577.763	-200.000	0.002	-0.090
-576.748	-200.000	-0.014	-0.127
-575.733	-80.500	-0.080	-0.027
-574.719	-120.296	0.213	-0.036
-573.704	6.378	0.069	-0.051
-572.690	33.352	-0.208	-0.180
-571.675	-200.000	-0.047	-0.234
-570.661	-67.151	-0.039	-0.015
-569.646	-120.953	0.424	-0.071
-568.631	88.383	-0.278	-0.309
-567.617	465.016	-0.068	0.151
-566.602	220.764	-0.095	0.152
-565.588	-57.881	0.060	0.026
-564.573	61.423	0.219	0.218
-563.558	195.835	-0.217	-0.330
-562.544	-176.696	-0.216	-0.006
-561.529	-77.635	-0.173	-0.060
-560.515	-200.000	-0.003	-0.165
-559.500	800.000	-0.109	-0.330
-558.485	92.853	0.271	-0.305
-557.471	64.119	0.354	-0.355
-556.456	-200.000	0.028	-0.184
-555.442	800.000	0.090	0.254
-554.427	356.238	-0.150	-0.299
-553.412	-103.699	0.106	0.025
-552.398	46.621	0.096	-0.089
-551.383	-200.000	-0.025	-0.119
-550.369	336.386	0.099	-0.191
-549.354	800.000	0.110	0.361
-548.339	-121.609	0.431	-0.071
-547.325	499.329	-0.095	-0.218
-546.310	-200.000	-0.010	0.194
-545.296	247.734	-0.241	-0.407
-544.281	800.000	0.066	-0.184
-543.266	2.841	0.071	0.051
-542.252	117.926	0.436	0.536
-541.237	30.088	-0.126	0.107
-540.223	-9.386	0.195	-0.130
-539.208	658.253	0.057	0.146
-538.193	305.274	0.104	0.193
-537.179	-77.583	-0.262	0.090
-536.164	358.171	-0.078	-0.155
-535.150	-111.732	-0.373	0.075
-534.135	-112.668	0.304	-0.060
-533.121	19.428	-0.276	-0.221
-532.106	191.746	0.276	-0.416
-531.091	264.224	0.048	-0.084
-530.077	-200.000	-0.013	-0.234
-529.062	70.359	0.162	-0.167
-528.048	-26.751	0.294	0.171
-527.033	-86.220	-0.245	0.075
-526.018	-117.384	0.106	-0.019
-525.004	75.318	0.108	-0.113
-523.989	800.000	0.111	0.333
-522.975	-5.557	0.119	-0.082
-521.960	-85.473	-0.552	-0.171
-520.945	-116.635	0.086	0.016
-519.931	148.723	-0.120	-0.161
-518.916	669.842	0.111	-0.286
-517.902	-111.009	-0.255	-0.052
-516.887	164.055	0.175	-0.245
-515.872	-200.000	0.075	-0.351
-514.858	220.535	-0.128	0.204
-513.843	-145.855	-0.159	0.014
-512.829	-176.472	0.060	-0.002
-511.814	-80.555	-0.091	-0.030
-510.799	800.000	-0.172	0.523
-509.785	261.537	-0.108	0.187
-508.770	243.710	-0.067	-0.112
-507.756	-146.689	0.525	-0.045
-506.741	-63.450	0.530	-0.217
-505.726	756.348	-0.080	0.215
-504.712	195.491	0.097	-0.146
-503.697	-6.582	0.006	0.004
-502.683	473.112	-0.120	0.270
-501.668	288.472	-0.211	0.381
-500.653	800.000	0.041	0.120
-499.639	-200.000	-0.020	0.362
-498.624	800.000	-0.124	0.521
-497.610	800.000	0.115	-0.475
-496.595	-64.644	0.124	-0.050
-495.581	-172.143	0.209	-0.007
-494.566	36.332	-0.348	0.306
-493.551	151.633	-0.104	0.141
-492.537	-45.136	0.119	0.059
-491.522	386.175	0.239	-0.491
-490.508	-133.413	0.342	0.043
-489.493	207.431	-0.108	0.168
-488.478	17.962	-0.117	-0.093
-487.464	50.797	-0.187	-0.177
-486.449	-154.629	-0.279	0.018
-485.435	800.000	0.058	-0.212
-484.420	245.993	0.092	-0.154
-483.405	269.720	0.067	-0.117
-482.391	115.519	0.078	-0.095
-481.376	5.072	-0.196	0.144
-480.362	247.741	-0.180	-0.303
-479.347	800.000	-0.076	-0.262
-478.332	494.253	0.058	-0.132
-477.318	156.823	0.154	0.212
-476.303	-100.265	-0.146	-0.036
-475.289	-160.765	-0.228	-0.012
-474.274	48.883	-0.294	0.275
-473.259	-200.000	0.031	-0.171
-472.245	800.000	-0.043	-0.150
-471.230	-56.279	0.155	-0.069
-470.216	-13.744	-0.152	0.098
-469.201	110.716	-0.032	0.038
-468.186	-200.000	0.001	-0.391
-467.172	-200.000	-0.038	-0.263
-466.157	-150.184	0.280	0.022
-465.143	800.000	0.051	0.180
-464.128	-117.600	0.122	-0.022
-463.113	-68.807	0.066	-0.025
-462.099	362.418	0.139	0.277
-461.084	200.657	0.126	-0.193
-460.070	-200.000	0.003	0.351
-459.055	57.567	0.364	0.354
-458.040	-200.000	-0.001	0.037
-457.026	100.976	0.198	0.229
-456.011	-20.908	0.021	-0.013
-454.997	335.238	0.109	-0.211
-453.982	370.865	0.013	0.027
-452.968	-200.000	0.032	-0.294
-451.953	9.150	-0.179	0.135
-450.938	-138.827	0.168	0.018
-449.924	-200.000	-0.031	-0.457
-448.909	-97.007	0.247	0.064
-447.895	800.000	0.050	0.214
-446.880	-200.000	0.006	0.162
-445.865	362.470	0.018	0.037
-444.851	-131.590	-0.231	0.030
-443.836	-200.000	0.006	0.226
-442.822	-15.292	0.114	0.072
-441.807	-140.196	0.153	-0.016
-440.792	-200.000	-0.033	-0.146
-439.778	405.028	0.083	-0.173
-438.763	634.918	-0.032	-0.082
-437.749	800.000	-0.057	0.174
-436.734	-100.457	-0.174	0.043
-435.719	-87.949	-0.275	0.082
-434.705	-200.000	0.018	0.202
-433.690	-34.350	0.083	0.045
-432.676	-74.192	0.538	0.194
-431.661	162.141	-0.202	-0.282
-430.646	725.847	0.032	-0.084
-429.632	236.592	0.060	0.098
-428.617	-73.035	0.283	0.103
-427.603	586.054	-0.092	-0.226
-426.588	202.630	0.090	-0.138
-425.573	-200.000	-0.015	0.321
-424.559	221.814	-0.017	-0.026
-423.544	800.000	0.073	-0.239
-422.530	-153.702	-0.486	0.033
-421.515	-200.000	-0.011	-0.246
-420.500	800.000	-0.036	0.139
-419.486	-71.683	0.186	0.069
-418.471	-200.000	0.086	0.388
-417.457	-89.285	0.138	0.040
-416.442	800.000	-0.066	-0.188
-415.428	-200.000	0.007	0.047
-414.413	339.689	-0.097	0.187
-413.398	-29.745	0.078	-0.044
-412.384	70.188	0.158	0.162
-411.369	29.671	-0.230	-0.195
-410.355	-110.944	0.136	-0.028
-409.340	-152.180	-0.337	-0.024
-408.325	1.849	0.114	-0.081
-407.311	-79.062	-0.309	-0.104
-406.296	39.664	0.116	0.103
-405.282	-28.522	-0.083	-0.047
-404.267	-164.323	-0.072	-0.003
-403.252	71.238	0.169	0.174
-402.238	-78.293	0.238	0.081
-401.223	-66.382	-0.169	0.067
-400.209	-132.313	-0.272	-0.035
-399.194	-67.308	0.277	0.108
-398.179	317.132	0.065	0.122
-397.165	64.147	0.133	-0.133
-396.150	324.355	0.100	0.189
-395.136	-125.795	-0.215	-0.032
-394.121	800.000	-0.068	0.228
-393.106	9.145	0.113	-0.085
-392.092	-200.000	-0.018	-0.190
-391.077	-200.000	-0.035	-0.507
-390.063	800.000	-0.029	-0.083
-389.048	154.373	0.077	0.104
-388.033	-15.587	-0.147	0.093
-387.019	242.385	0.144	-0.239
-386.004	-25.054	-0.054	0.032
-384.990	-61.509	-0.054	0.022
-383.975	-200.000	0.015	0.359
-382.960	30.442	-0.266	0.226
-381.946	84.210	-0.078	0.085
-380.931	21.979	0.031	-0.025
-379.917	-129.269	0.105	-0.015
-378.902	496.964	-0.073	0.166
-377.888	-52.974	0.088	0.040
-376.873	161.132	0.158	0.218
-375.858	121.869	0.242	0.299
-374.844	135.903	-0.032	0.041
-373.829	-200.000	-0.002	-0.253
-372.815	210.816	-0.130	0.203
-371.800	-200.000	-0.037	0.249
-370.785	-200.000	-0.021	-0.108
-369.771	75.729	0.133	-0.139
-368.756	-200.000	-0.004	-0.053
-367.742	-138.462	0.142	-0.015
-366.727	328.441	0.203	0.387
-365.712	68.890	0.166	0.169
-364.698	-200.000	0.044	0.300
-363.683	800.000	-0.123	-0.397
-362.669	443.863	0.145	-0.314
-361.654	419.048	0.064	0.135
-360.639	147.523	0.096	-0.128
-359.625	-51.647	0.130	-0.060
-358.610	-79.222	-0.034	-0.012
-357.596	800.000	0.104	0.383
-356.581	-47.943	0.252	0.121
-355.566	-44.057	0.206	-0.103
-354.552	-89.013	-0.437	0.128
-353.537	350.241	0.015	0.029
-352.523	276.531	0.106	0.186
-351.508	800.000	-0.028	0.106
-350.493	184.592	-0.229	-0.336
-349.479	114.933	-0.196	0.237
-348.464	-37.676	-0.285	-0.150
-347.450	195.494	-0.050	-0.075
-346.435	-57.964	0.020	-0.009
-345.420	-98.383	0.294	0.075
-344.406	-200.000	-0.038	0.257
-343.391	-38.476	0.107	0.056
-342.377	50.217	-0.164	-0.153
-341.362	26.164	-0.200	-0.166
-340.348	86.318	-0.259	0.282
-339.333	800.000	-0.108	-0.333
-338.318	-79.162	0.178	0.060
-337.304	382.635	-0.098	0.200
-336.289	800.000	0.080	-0.233
-335.275	648.783	-0.057	0.144
-334.260	-46.547	0.096	0.046
-333.245	-200.000	-0.024	0.164
-332.231	-79.519	0.309	0.103
-331.216	-170.630	-0.330	-0.011
-330.202	309.957	-0.010	-0.018
-329.187	-3.894	-0.253	-0.174
-328.172	225.690	-0.076	0.122
-327.158	62.344	-0.122	0.121
-326.143	-200.000	-0.000	0.226
-325.129	108.514	-0.121	-0.143
-324.114	-105.259	-0.507	0.114
-323.099	-134.881	-0.274	-0.033
-322.085	-200.000	0.005	0.137
-321.070	537.778	0.121	-0.285
-320.056	-200.000	-0.058	-0.317
-319.041	-75.542	-0.289	-0.102
-318.026	707.486	-0.127	0.331
-317.012	-200.000	0.011	0.078
-315.997	-200.000	-0.042	0.260
-314.983	-200.000	-0.010	-0.241
-313.968	-117.316	-0.028	-0.005
-312.953	196.234	-0.087	0.130
-311.939	363.114	0.041	-0.082
-310.924	-7.764	0.177	0.119
-309.910	96.719	0.290	-0.328
-308.895	217.252	0.107	-0.168
-307.880	-65.920	-0.124	0.049
-306.866	210.032	0.345	0.535
-305.851	800.000	-0.036	0.111
-304.837	-66.814	-0.374	0.146
-303.822	3.098	0.211	-0.152
-302.807	-16.261	-0.194	-0.122
-301.793	8.049	0.166	-0.123
-300.778	800.000	-0.039	0.156
-299.764	164.337	-0.222	-0.310
-298.749	-89.334	0.174	0.051
-297.735	264.521	-0.104	0.179
-296.720	-110.110	-0.229	-0.047
-295.705	197.870	-0.205	-0.309
-294.691	321.721	0.100	-0.188
-293.676	-200.000	0.033	-0.167
-292.662	-88.409	-0.121	-0.036
-291.647	117.244	0.115	0.140
-290.632	231.810	0.060	-0.097
-289.618	-17.382	0.185	-0.115
-288.603	-68.729	0.026	0.010
-287.589	59.612	-0.071	0.069
-286.574	-67.875	0.103	-0.040
-285.559	-98.155	-0.167	0.043
-284.545	559.984	-0.119	-0.284
-283.530	-200.000	0.031	-0.162
-282.516	32.744	0.148	-0.126
-281.501	-46.325	0.169	-0.082
-280.486	-184.008	0.187	0.003
-279.472	629.892	0.042	-0.106
-278.457	800.000	-0.024	0.097
-277.443	-200.000	0.035	0.246
-276.428	34.614	-0.367	-0.317
-275.413	391.494	-0.099	0.203
-274.399	-14.796	-0.133	-0.084
-273.384	-200.000	0.014	-0.070
-272.370	-57.924	-0.162	-0.070
-271.355	800.000	0.067	-0.230
-270.340	20.641	-0.058	-0.046
-269.326	63.933	0.232	-0.230
-268.311	533.123	0.105	0.245
-267.297	-70.933	0.334	-0.124
-266.282	249.523	0.032	0.054
-265.267	-200.000	-0.019	0.238
-264.253	30.155	-0.219	0.185
-263.238	90.426	0.131	-0.145
-262.224	234.792	-0.116	-0.189
-261.209	49.011	-0.135	0.125
-260.195	23.628	0.079	-0.064
-259.180	117.552	-0.133	-0.162
-258.165	-200.000	0.021	-0.360
-257.151	-200.000	0.029	0.407
-256.136	-200.000	0.057	-0.340
-255.122	-154.294	-0.325	-0.022
-254.107	-79.973	-0.077	0.026
-253.092	324.893	-0.058	0.110
-252.078	724.266	-0.093	0.244
-251.063	-51.368	0.074	-0.034
-250.049	-30.815	0.243	0.136
-249.034	50.137	0.076	0.071
-248.019	-96.129	0.272	0.071
-247.005	-61.744	0.267	0.111
-245.990	-83.980	-0.324	0.102
-244.976	-25.013	0.175	-0.103
-243.961	451.975	-0.079	0.173
-242.946	160.284	0.165	-0.228
-241.932	84.494	-0.236	0.255
-240.917	800.000	-0.094	0.320
-239.903	-56.601	-0.116	-0.051
-238.888	-76.061	-0.130	-0.045
-237.873	151.507	-0.139	0.187
-236.859	-29.670	0.210	0.118
-235.844	-3.561	-0.253	0.173
-234.830	210.129	-0.043	-0.066
-233.815	308.717	-0.027	0.050
-232.800	-90.560	0.134	0.038
-231.786	-85.248	0.053	-0.016
-230.771	49.663	0.199	0.184
-229.757	136.802	0.138	0.178
-228.742	-200.000	-0.043	0.238
-227.727	-118.264	0.241	0.042
-226.713	-71.856	0.178	-0.065
-225.698	19.876	-0.140	-0.112
-224.684	257.528	-0.220	-0.373
-223.669	-46.634	0.186	-0.090
-222.655	-65.454	-0.375	-0.149
-221.640	-96.721	-0.059	0.015
-220.625	229.770	-0.021	-0.034
-219.611	44.058	0.104	0.094
-218.596	108.958	0.091	-0.108
-217.582	-200.000	-0.041	-0.225
-216.567	210.147	-0.069	0.107
-215.552	800.000	-0.044	-0.162
-214.538	-200.000	-0.001	-0.049
-213.523	-126.439	-0.158	-0.023
-212.509	-49.228	0.006	-0.003
-211.494	-200.000	-0.010	0.067
-210.479	-165.545	0.310	-0.013
-209.465	-200.000	-0.006	0.062
-208.450	-60.808	-0.236	0.099
-207.436	-200.000	0.004	0.111
-206.421	10.757	-0.175	0.131
-205.406	800.000	-0.132	-0.416
-204.392	111.926	0.077	0.092
-203.377	798.833	0.105	-0.284
-202.363	-200.000	-0.009	0.149
-201.348	800.000	0.040	0.118
-200.333	-134.616	0.261	0.031
-199.319	26.772	0.324	0.267
-198.304	-26.721	0.228	0.131
-197.290	12.836	0.140	-0.107
-196.275	-9.798	-0.264	-0.173
-195.260	-62.727	-0.277	0.113
-194.246	641.119	0.024	-0.060
-193.231	137.883	-0.139	-0.180
-192.217	-182.121	0.277	0.005
-191.202	-200.000	-0.045	-0.290
-190.187	-200.000	-0.008	0.146
-189.173	-200.000	-0.025	0.166
-188.158	157.754	-0.230	-0.313
-187.144	-97.790	-0.153	-0.039
-186.129	-59.715	0.192	-0.081
-185.114	571.207	0.080	-0.191
-184.100	114.525	0.215	0.257
-183.085	-23.396	-0.140	0.083
-182.071	2.620	-0.185	-0.132
-181.056	-43.449	0.193	-0.096
-180.042	-91.036	-0.010	0.003
-179.027	-85.199	-0.295	-0.091
-178.012	68.561	-0.096	0.097
-176.998	-49.330	0.235	0.110
-175.983	-59.562	-0.112	0.047
-174.969	199.307	0.255	-0.385
-173.954	-47.249	0.146	-0.070
-172.939	126.586	-0.111	0.138
-171.925	-56.447	-0.261	0.114
-170.910	-132.300	-0.337	0.043
-169.896	-4.228	0.108	-0.074
-168.881	-110.553	-0.332	-0.068
-167.866	-38.947	0.068	0.035
-166.852	574.137	0.022	-0.054
-165.837	38.390	0.103	-0.091
-164.823	-18.463	-0.350	0.215
-163.808	-63.890	0.108	0.044
-162.793	-11.155	-0.341	-0.221
-161.779	-200.000	0.013	-0.229
-160.764	498.700	-0.121	-0.274
-159.750	800.000	0.045	0.175
-158.735	216.806	0.015	-0.023
-157.720	800.000	0.043	0.172
-156.706	-57.669	0.082	0.035
-155.691	144.218	-0.358	0.470
-154.677	583.775	0.062	0.150
-153.662	472.691	0.168	0.373
-152.647	595.779	0.245	0.596
-151.633	-25.478	0.249	0.145
-150.618	-39.207	-0.406	0.210
-149.604	80.095	0.143	0.151
-148.589	-31.066	0.155	0.086
-147.574	-120.973	0.108	0.018
-146.560	-119.890	-0.367	-0.062
-145.545	102.155	-0.019	0.022
-144.531	800.000	0.066	0.241
-143.516	800.000	0.007	-0.026
-142.502	-200.000	0.006	0.149
-141.487	38.692	0.209	0.183
-140.472	38.283	0.162	0.142
-139.458	42.473	-0.066	0.059
-138.443	-17.434	-0.396	0.245
-137.429	800.000	0.069	0.279
-136.414	-200.000	0.097	-0.428
-135.399	-108.606	-0.200	0.042
-134.385	165.355	0.043	-0.059
-133.370	242.240	-0.024	0.039
-132.356	-82.138	0.138	0.044
-131.341	51.483	-0.022	-0.021
-130.326	180.442	0.200	-0.289
-129.312	130.766	0.088	-0.111
-128.297	286.183	-0.181	-0.320
-127.283	-159.698	-0.124	-0.007
-126.268	-112.264	-0.114	-0.022
-125.253	71.621	-0.058	-0.059
-124.239	-200.000	0.095	-0.427
-123.224	800.000	-0.087	-0.366
-122.210	127.867	0.113	-0.141
-121.195	-200.000	-0.024	-0.167
