DTS Sentinel unit serial number:	SN413079Multiplexer serial number:	ORYXHardware model number:	OX4-SRSoftware version number:	ORYX F/W v4.00 Oryx Data Collector v3.7.2.0data status	okinstallation	princeton_trtdifferential loss correction	single-endedforward channel	channel 1reverse channel	N/Adate	2019/09/12time	18:47:34forward acquisition time	15.00reverse acquisition time	0.00gamma	496.2192k internal	0.2318k external	0.2318temperature offset calibration	1.0111default loss term (dB/km)	0.3790temperature slope calibration	1.0000multiplexer offset coefficient	1.0000multiplexer slope coefficient	1.0000fibre end	0.00T internal ref (°C)	32.94T ext. ref 1 (°C)	3.01T ext. ref 2 (°C)	27.49length (m)	temperature (°C)	Stokes	anti-Stokes-747.200	-200.000	-0.056	-0.774
-746.185	-200.000	0.063	0.291
-745.171	-200.000	-0.059	-0.377
-744.156	110.176	-0.192	0.234
-743.142	-56.081	-0.687	-0.310
-742.127	800.000	0.043	0.139
-741.112	98.267	0.213	-0.249
-740.098	618.914	-0.233	0.593
-739.083	265.713	-0.037	0.065
-738.069	352.144	-0.084	-0.169
-737.054	-195.484	0.300	-0.002
-736.039	2.855	0.394	0.289
-735.025	53.882	0.343	-0.333
-734.010	-200.000	0.022	-0.469
-732.996	98.287	0.465	0.542
-731.981	-105.019	0.182	-0.042
-730.966	433.840	-0.349	0.766
-729.952	-137.440	-0.974	-0.111
-728.937	-46.259	0.875	-0.435
-727.923	-24.770	0.839	0.504
-726.908	-61.507	-0.962	-0.409
-725.894	156.255	0.457	-0.638
-724.879	38.133	0.881	-0.793
-723.864	-163.979	0.726	-0.034
-722.850	25.682	-0.239	-0.201
-721.835	211.085	0.097	-0.154
-720.821	76.251	-0.376	0.403
-719.806	40.110	0.594	0.540
-718.791	61.238	-0.258	0.259
-717.777	800.000	0.178	-0.589
-716.762	-56.229	0.205	-0.092
-715.748	800.000	-0.206	-0.582
-714.733	-19.823	-0.180	0.112
-713.718	-74.709	0.103	0.037
-712.704	-158.893	0.350	0.020
-711.689	-200.000	-0.010	0.123
-710.675	201.401	0.399	-0.621
-709.660	485.920	-0.202	-0.464
-708.645	-42.758	-0.623	0.320
-707.631	-143.322	2.012	-0.195
-706.616	-200.000	-0.006	-1.317
-705.602	800.000	-0.188	-0.583
-704.587	73.581	-0.212	-0.224
-703.572	168.809	-0.404	0.582
-702.558	800.000	0.213	-0.661
-701.543	-200.000	-0.385	0.000
-700.529	-19.474	-0.586	-0.367
-699.514	17.256	0.428	-0.343
-698.499	-171.497	0.223	-0.008
-697.485	229.106	-0.070	-0.116
-696.470	-169.471	0.300	-0.011
-695.456	-32.417	0.648	0.365
-694.441	200.579	-0.292	0.454
-693.426	-90.994	0.480	-0.139
-692.412	303.424	0.232	-0.434
-691.397	-100.986	0.260	0.064
-690.383	-101.463	0.465	-0.114
-689.368	132.769	0.415	-0.541
-688.354	91.868	-0.524	0.595
-687.339	-152.851	0.098	0.007
-686.324	-83.189	0.289	-0.094
-685.310	-94.734	-0.958	-0.263
-684.295	208.498	-0.739	-1.168
-683.281	-180.247	0.559	-0.012
-682.266	62.273	-0.589	-0.594
-681.251	-200.000	-0.016	-0.383
-680.237	-200.000	0.087	0.732
-679.222	100.164	-0.518	0.606
-678.208	99.788	-0.292	-0.342
-677.193	107.747	-0.254	-0.306
-676.178	-200.000	-0.105	-0.506
-675.164	-200.000	0.015	0.193
-674.149	-127.660	0.298	0.043
-673.135	47.176	0.587	-0.552
-672.120	-130.988	-0.310	-0.042
-671.105	-58.375	-0.180	0.079
-670.091	-27.738	0.132	0.077
-669.076	-185.582	0.998	0.015
-668.062	800.000	-0.165	-0.506
-667.047	-19.191	0.915	-0.573
-666.032	-200.000	0.044	-0.655
-665.018	-35.809	0.644	-0.352
-664.003	392.817	0.360	-0.756
-662.989	-172.150	0.182	-0.006
-661.974	-200.000	-0.144	-0.648
-660.959	-200.000	0.049	-0.320
-659.945	800.000	-0.113	-0.403
-658.930	-59.953	-0.209	-0.090
-657.916	122.248	-0.393	0.495
-656.901	-7.390	0.455	-0.311
-655.886	-200.000	0.083	0.600
-654.872	-200.000	-0.028	-0.694
-653.857	-9.411	-0.246	0.166
-652.843	-200.000	-0.058	0.265
-651.828	-66.591	-0.433	-0.173
-650.814	88.335	0.318	0.357
-649.799	23.194	0.290	-0.240
-648.784	-16.736	-0.470	0.300
-647.770	-200.000	-0.038	0.571
-646.755	-79.375	-0.307	0.105
-645.741	194.489	-0.345	0.527
-644.726	92.756	0.582	-0.662
-643.711	-200.000	0.038	-0.321
-642.697	-103.091	-0.040	-0.010
-641.682	-200.000	0.123	-0.875
-640.668	15.929	-0.660	-0.524
-639.653	-45.948	-0.640	0.318
-638.638	483.941	-0.064	0.147
-637.624	-117.872	0.538	0.097
-636.609	-171.750	-0.895	0.030
-635.595	280.185	0.471	0.849
-634.580	155.888	0.117	-0.162
-633.565	177.474	-0.445	0.653
-632.551	-200.000	-0.037	0.807
-631.536	-200.000	-0.024	-1.086
-630.522	-200.000	0.055	0.278
-629.507	178.363	-0.570	-0.838
-628.492	-57.741	-0.248	-0.110
-627.478	-13.627	0.471	-0.307
-626.463	798.106	-0.130	0.361
-625.449	-73.825	0.811	0.297
-624.434	-151.104	-0.782	-0.059
-623.419	-200.000	0.005	0.140
-622.405	-200.000	0.035	0.430
-621.390	800.000	-0.081	-0.355
-620.376	-184.409	-0.570	-0.009
-619.361	800.000	0.195	-0.543
-618.346	-200.000	-0.002	0.077
-617.332	-156.009	0.599	0.038
-616.317	399.626	0.131	-0.276
-615.303	-52.656	0.959	-0.446
-614.288	654.189	0.067	-0.173
-613.273	800.000	-0.182	0.785
-612.259	-80.516	0.903	0.303
-611.244	26.771	0.466	-0.393
-610.230	-103.322	-0.409	0.097
-609.215	-118.809	0.434	0.077
-608.201	-141.274	-0.810	0.083
-607.186	-35.661	-0.844	-0.461
-606.171	-64.046	0.220	0.090
-605.157	-200.000	-0.017	-0.196
-604.142	800.000	-0.216	0.612
-603.128	99.395	0.082	-0.096
-602.113	800.000	-0.337	-1.054
-601.098	468.391	-0.195	-0.441
-600.084	211.715	-0.164	-0.260
-599.069	444.505	0.146	-0.323
-598.055	217.940	-0.315	0.505
-597.040	119.198	0.339	-0.423
-596.025	305.064	0.398	0.745
-595.011	-36.077	-0.215	0.117
-593.996	-200.000	0.047	0.629
-592.982	-200.000	-0.039	0.244
-591.967	135.269	-0.395	-0.516
-590.952	-48.161	-0.305	-0.148
-589.938	408.886	0.129	-0.274
-588.923	800.000	-0.127	0.369
-587.909	-23.376	-0.600	0.363
-586.894	-200.000	0.087	-0.506
-585.879	-126.382	-0.549	0.082
-584.865	-200.000	-0.027	0.569
-583.850	43.144	-0.748	0.687
-582.836	-200.000	0.041	-0.740
-581.821	-200.000	-0.086	-0.809
-580.806	800.000	0.072	-0.283
-579.792	92.799	0.820	-0.931
-578.777	-112.455	-0.313	0.063
-577.763	38.566	-0.228	0.204
-576.748	118.668	0.106	-0.132
-575.733	-142.584	-0.696	-0.069
-574.719	-69.399	-0.588	0.227
-573.704	-80.438	-0.573	-0.192
-572.690	-135.616	-0.428	-0.051
-571.675	197.460	-0.514	-0.789
-570.661	516.939	0.251	0.591
-569.646	800.000	0.089	-0.379
-568.631	800.000	-0.150	0.577
-567.617	-80.933	-0.551	0.184
-566.602	274.084	-0.197	-0.351
-565.588	800.000	-0.109	0.440
-564.573	-200.000	-0.073	0.612
-563.558	-143.536	-0.555	-0.053
-562.544	-83.843	0.668	-0.214
-561.529	-200.000	0.069	0.319
-560.515	-200.000	-0.034	0.403
-559.500	-109.406	0.532	0.113
-558.485	-98.682	-0.488	-0.125
-557.471	-169.552	-0.418	-0.015
-556.456	-43.599	0.721	0.365
-555.442	-124.328	0.330	-0.052
-554.427	16.060	-0.555	0.440
-553.412	-23.218	-0.432	0.261
-552.398	800.000	-0.081	-0.256
-551.383	39.858	0.530	0.478
-550.369	381.991	0.211	0.434
-549.354	79.381	0.418	0.450
-548.339	-200.000	-0.031	0.414
-547.325	37.917	-0.633	0.566
-546.310	753.926	0.242	-0.656
-545.296	-200.000	0.018	-0.095
-544.281	-42.373	0.549	0.281
-543.266	158.190	0.171	0.238
-542.252	-10.902	0.138	-0.091
-541.237	-128.082	0.658	0.095
-540.223	-46.671	-0.150	-0.074
-539.208	-12.400	0.806	-0.529
-538.193	526.723	-0.274	-0.648
-537.179	634.962	-0.071	0.181
-536.164	-200.000	-0.074	-0.876
-535.150	-20.155	0.288	-0.178
-534.135	151.020	-0.145	-0.198
-533.121	800.000	-0.335	-1.034
-532.106	0.112	0.578	0.413
-531.091	125.816	0.215	0.273
-530.077	93.276	0.430	-0.488
-529.062	-7.138	0.090	-0.061
-528.048	40.012	0.310	0.279
-527.033	12.389	-0.812	-0.628
-526.018	16.134	0.425	-0.336
-525.004	95.968	0.740	-0.848
-523.989	210.612	0.072	0.114
-522.975	-33.556	-0.562	0.312
-521.960	84.594	-0.605	0.665
-520.945	170.302	-0.272	0.390
-519.931	-113.265	0.254	-0.050
-518.916	-121.077	-1.001	0.168
-517.902	1.457	-0.403	-0.291
-516.887	-154.847	0.506	0.034
-515.872	-29.779	-0.682	0.390
-514.858	-57.775	0.768	0.337
-513.843	501.176	-0.133	-0.308
-512.829	-88.012	-0.329	-0.099
-511.814	138.839	0.120	0.158
-510.799	15.185	-0.476	0.374
-509.785	39.167	0.192	0.172
-508.770	123.937	0.632	0.795
-507.756	-83.974	0.451	0.144
-506.741	-76.945	0.475	0.166
-505.726	800.000	-0.111	0.399
-504.712	-84.771	-0.826	-0.260
-503.697	-200.000	-0.041	0.388
-502.683	223.257	0.283	0.458
-501.668	402.814	0.344	0.725
-500.653	-60.694	-0.689	0.293
-499.639	800.000	-0.199	-0.719
-498.624	800.000	0.256	0.798
-497.610	-18.617	0.234	0.147
-496.595	800.000	0.048	0.195
-495.581	55.186	-0.550	-0.533
-494.566	-50.843	-0.172	-0.081
-493.551	800.000	-0.127	0.393
-492.537	83.075	0.698	-0.761
-491.522	-107.172	-0.471	-0.104
-490.508	-121.202	-0.125	-0.021
-489.493	311.830	-0.308	0.579
-488.478	33.630	0.386	-0.336
-487.464	-51.619	0.409	0.191
-486.449	753.797	-0.178	0.481
-485.435	-64.532	0.417	0.170
-484.420	132.703	0.059	0.076
-483.405	-129.932	0.186	-0.026
-482.391	70.491	0.443	-0.459
-481.376	245.753	0.611	-1.031
-480.362	38.236	0.508	-0.453
-479.347	118.057	0.293	0.361
-478.332	77.687	0.296	0.315
-477.318	-167.165	0.416	0.017
-476.303	6.801	-0.539	0.402
-475.289	61.521	0.128	-0.128
-474.274	417.883	0.149	0.319
-473.259	49.791	-0.151	0.143
-472.245	-48.808	0.633	0.304
-471.230	146.205	0.149	-0.201
-470.216	-113.128	0.691	0.136
-469.201	-90.258	0.563	-0.164
-468.186	-200.000	0.005	0.162
-467.172	-200.000	0.034	0.502
-466.157	-96.418	-1.222	-0.323
-465.143	-56.874	0.714	-0.316
-464.128	800.000	-0.293	0.970
-463.113	134.306	0.357	0.464
-462.099	-36.459	0.456	-0.246
-461.084	-115.604	-0.583	0.110
-460.070	-13.958	-0.416	-0.269
-459.055	737.543	-0.096	0.258
-458.040	56.776	0.234	-0.228
-457.026	-200.000	0.100	-0.443
-456.011	800.000	-0.207	0.668
-454.997	-200.000	-0.083	-1.107
-453.982	647.143	0.164	0.420
-452.968	28.686	-0.685	-0.581
-451.953	155.966	0.030	0.041
-450.938	-200.000	0.099	-1.000
-449.924	-62.753	-0.320	-0.132
-448.909	-42.097	-0.433	0.221
-447.895	-24.503	-0.093	0.056
-446.880	-200.000	0.050	-0.715
-445.865	-54.134	0.885	0.403
-444.851	-200.000	0.026	-0.179
-443.836	-140.710	-0.493	0.051
-442.822	258.597	-0.143	0.247
-441.807	72.585	-0.289	-0.302
-440.792	-13.915	0.442	-0.285
-439.778	76.853	-0.244	0.259
-438.763	-111.079	-0.826	-0.169
-437.749	800.000	0.267	-0.739
-436.734	108.481	-0.297	-0.355
-435.719	506.126	0.225	0.522
-434.705	-112.948	-0.490	0.097
-433.690	85.522	-0.228	-0.250
-432.676	-46.768	0.264	0.129
-431.661	108.544	0.531	-0.634
-430.646	37.345	-0.224	0.198
-429.632	127.244	-0.137	0.174
-428.617	-133.344	0.084	-0.011
-427.603	-64.916	-0.175	-0.071
-426.588	18.967	-0.279	0.223
-425.573	262.652	-0.580	1.006
-424.559	800.000	0.027	0.104
-423.544	68.833	0.142	0.146
-422.530	-72.756	-0.721	0.265
-421.515	-200.000	-0.035	0.517
-420.500	178.577	0.278	0.406
-419.486	-50.822	-0.498	0.234
-418.471	-141.891	1.231	0.123
-417.457	184.951	-0.310	0.460
-416.442	8.317	0.793	-0.596
-415.428	-200.000	-0.001	0.433
-414.413	-200.000	-0.083	-0.603
-413.398	-106.714	0.492	-0.109
-412.384	86.198	-0.291	-0.320
-411.369	529.806	0.077	0.182
-410.355	-46.128	-0.400	0.197
-409.340	288.559	-0.108	0.195
-408.325	-200.000	0.000	-0.569
-407.311	-138.183	0.765	0.085
-406.296	-53.960	-0.432	-0.196
-405.282	-182.439	-0.527	-0.010
-404.267	-101.122	0.166	-0.041
-403.252	213.880	-0.386	0.610
-402.238	-44.832	-0.689	0.343
-401.223	-122.489	-0.144	-0.023
-400.209	232.362	-0.219	0.358
-399.194	-126.336	0.694	0.103
-398.179	278.864	0.357	-0.636
-397.165	-104.914	0.326	-0.075
-396.150	800.000	0.163	0.634
-395.136	82.372	0.679	0.736
-394.121	-106.813	-0.166	0.037
-393.106	157.857	0.285	0.394
-392.092	171.069	0.141	0.202
-391.077	-196.984	0.507	0.003
-390.063	-26.746	0.470	0.274
-389.048	-200.000	0.000	0.100
-388.033	149.600	0.115	0.155
-387.019	64.344	0.419	0.421
-386.004	47.876	-0.516	-0.481
-384.990	17.185	0.323	-0.255
-383.975	351.316	0.166	0.327
-382.960	-96.032	-0.168	-0.045
-381.946	20.738	-0.371	0.300
-380.931	204.613	0.211	-0.326
-379.917	186.517	-0.061	0.091
-378.902	-95.572	0.316	-0.085
-377.888	-120.001	0.401	0.069
-376.873	-200.000	0.064	0.849
-375.858	-142.033	-0.275	-0.027
-374.844	800.000	-0.373	-1.031
-373.829	39.225	-0.151	-0.135
-372.815	22.685	-0.113	-0.092
-371.800	84.143	-0.151	0.165
-370.785	14.983	-0.549	0.429
-369.771	23.865	-0.504	0.414
-368.756	800.000	-0.222	-0.897
-367.742	292.617	0.199	-0.362
-366.727	-185.326	0.158	-0.002
-365.712	-35.438	-1.117	0.605
-364.698	-13.005	0.368	-0.239
-363.683	-57.664	0.753	-0.329
-362.669	800.000	-0.143	0.481
-361.654	396.435	-0.270	-0.561
-360.639	-68.145	0.474	-0.184
-359.625	-66.908	-0.233	0.092
-358.610	744.046	0.135	0.361
-357.596	533.583	0.084	-0.198
-356.581	45.562	-0.645	-0.594
-355.566	378.159	0.438	0.892
-354.552	800.000	0.136	-0.542
-353.537	406.246	0.345	0.725
-352.523	372.793	-0.160	-0.325
-351.508	12.041	-0.024	0.018
-350.493	329.072	-0.127	0.243
-349.479	-112.028	0.363	0.073
-348.464	13.791	-0.156	-0.121
-347.450	161.459	-0.073	0.102
-346.435	800.000	0.147	0.449
-345.420	-62.906	1.327	0.547
-344.406	-200.000	-0.140	-1.077
-343.391	103.732	-0.281	-0.329
-342.377	-109.028	0.349	0.074
-341.362	-30.456	-0.464	-0.262
-340.348	35.622	0.253	0.221
-339.333	-197.629	-0.825	0.005
-338.318	310.638	0.097	0.181
-337.304	257.364	0.138	0.236
-336.289	2.424	-0.219	-0.158
-335.275	-200.000	0.028	-0.148
-334.260	-77.162	-0.999	-0.347
-333.245	800.000	0.079	-0.292
-332.231	182.629	0.789	-1.159
-331.216	-200.000	0.005	-0.198
-330.202	-200.000	0.008	0.820
-329.187	-118.364	-1.276	0.226
-328.172	369.436	-0.127	-0.256
-327.158	800.000	-0.117	0.507
-326.143	278.373	0.147	0.261
-325.129	-155.430	-0.544	-0.035
-324.114	469.041	0.076	0.171
-323.099	-49.320	-0.194	-0.092
-322.085	-92.245	-0.678	0.190
-321.070	-171.795	0.220	-0.007
-320.056	800.000	-0.090	0.282
-319.041	761.748	0.151	0.408
-318.026	65.092	0.817	-0.822
-317.012	123.616	0.359	0.448
-315.997	-47.614	-0.890	0.430
-314.983	331.092	0.400	0.766
-313.968	-54.187	0.532	-0.240
-312.953	-152.381	0.777	-0.056
-311.939	800.000	-0.070	0.251
-310.924	-128.282	0.609	-0.086
-309.910	-99.354	-0.700	0.176
-308.895	-200.000	-0.103	0.463
-307.880	800.000	-0.124	0.372
-306.866	-200.000	-0.101	0.827
-305.851	-200.000	-0.044	-0.538
-304.837	671.195	-0.365	0.941
-303.822	243.532	-0.274	0.457
-302.807	-100.279	-0.831	0.205
-301.793	48.105	0.348	-0.324
-300.778	95.137	-0.479	0.542
-299.764	52.398	0.510	0.484
-298.749	-24.934	-0.423	-0.249
-297.735	-200.000	0.001	0.031
-296.720	-115.466	0.235	0.044
-295.705	-145.164	-0.402	-0.036
-294.691	-126.209	-0.198	0.029
-293.676	-200.000	0.127	-0.793
-292.662	-171.860	-0.369	-0.012
-291.647	-122.653	0.470	0.076
-290.632	25.887	-0.397	0.329
-289.618	-10.839	0.440	0.289
-288.603	-74.428	-1.106	-0.397
-287.589	800.000	-0.135	-0.491
-286.574	800.000	0.165	-0.626
-285.559	187.667	-0.051	-0.075
-284.545	-87.107	0.199	-0.060
-283.530	-88.481	-0.520	-0.154
-282.516	-200.000	0.052	0.389
-281.501	55.100	0.132	0.127
-280.486	-200.000	-0.115	0.575
-279.472	-64.103	0.485	0.197
-278.457	-50.795	-0.412	0.193
-277.443	-200.000	-0.032	-0.449
-276.428	-180.803	-0.582	-0.012
-275.413	371.626	-0.310	0.625
-274.399	-200.000	-0.005	0.256
-273.384	800.000	0.066	0.259
-272.370	146.067	0.445	-0.593
-271.355	800.000	0.059	-0.166
-270.340	159.323	-0.106	0.147
-269.326	-22.865	1.006	-0.603
-268.311	-200.000	0.009	-0.143
-267.297	-133.420	-0.469	-0.059
-266.282	-24.649	-0.701	-0.414
-265.267	800.000	0.143	0.580
-264.253	105.824	0.349	0.410
-263.238	256.560	0.439	-0.749
-262.224	-200.000	-0.145	0.769
-261.209	-150.081	0.289	0.022
-260.195	357.670	-0.360	-0.714
-259.180	11.298	-0.362	0.276
-258.165	-65.207	0.685	0.274
-257.151	275.211	0.110	0.193
-256.136	45.110	0.235	0.215
-255.122	-200.000	-0.133	-0.664
-254.107	253.907	0.316	-0.536
-253.092	-200.000	0.051	-0.228
-252.078	800.000	-0.250	0.700
-251.063	608.772	0.300	0.743
-250.049	17.072	0.141	-0.111
-249.034	118.144	0.398	-0.487
-248.019	-128.148	-0.611	-0.087
-247.005	-122.469	-0.734	-0.118
-245.990	-25.027	-0.528	-0.311
-244.976	85.283	0.198	-0.216
-243.961	-200.000	-0.108	-0.869
-242.946	-200.000	-0.088	0.547
-241.932	-61.353	0.361	0.151
-240.917	550.178	-0.216	-0.514
-239.903	-127.303	-0.361	-0.052
-238.888	-200.000	0.035	-0.242
-237.873	-165.580	0.670	-0.029
-236.859	800.000	-0.148	-0.632
-235.844	-63.843	-0.324	0.132
-234.830	-117.843	0.734	-0.131
-233.815	36.929	0.045	-0.040
-232.800	-116.434	0.655	-0.120
-231.786	205.063	0.305	0.469
-230.771	110.654	-0.482	-0.575
-229.757	-5.843	0.185	0.126
-228.742	788.989	-0.113	0.309
-227.727	479.096	0.301	-0.676
-226.713	800.000	-0.094	0.377
-225.698	-24.510	0.666	-0.393
-224.684	-40.955	0.560	-0.287
-223.669	-20.329	0.272	0.166
-222.655	-100.250	0.763	-0.188
-221.640	-200.000	0.021	-0.367
-220.625	103.814	0.615	0.717
-219.611	-200.000	0.077	-0.938
-218.596	-200.000	0.036	-0.676
-217.582	349.743	-0.306	-0.600
-216.567	22.191	0.470	0.380
-215.552	340.886	-0.295	0.570
-214.538	28.960	0.414	-0.348
-213.523	-109.180	0.229	0.048
-212.509	701.632	-0.273	-0.712
-211.494	12.132	-0.748	-0.571
-210.479	-200.000	0.045	0.252
-209.465	-176.686	-0.234	-0.006
-208.450	-26.745	0.361	0.209
-207.436	800.000	-0.083	0.270
-206.421	-43.407	0.381	0.191
-205.406	-54.532	-0.573	0.257
-204.392	-136.422	0.445	0.051
-203.377	800.000	0.089	-0.371
-202.363	369.844	-0.196	-0.393
-201.348	-103.993	0.455	-0.105
-200.333	-106.677	-0.794	-0.175
-199.319	-46.780	1.086	0.527
-198.304	176.823	0.274	0.395
-197.290	-68.501	0.511	0.196
-196.275	-46.317	-0.607	-0.296
-195.260	-42.937	-0.584	0.294
-194.246	84.055	-0.109	-0.118
-193.231	-126.132	-0.340	-0.050
-192.217	321.968	-0.282	-0.532
-191.202	-11.451	0.360	0.235
-190.187	46.008	-0.204	0.187
-189.173	76.511	0.121	-0.127
-188.158	584.507	0.124	-0.302
-187.144	222.388	0.294	-0.469
-186.129	-200.000	-0.020	0.176
-185.114	-60.161	-0.355	0.150
-184.100	-112.789	0.787	-0.155
-183.085	6.114	-0.533	0.391
-182.071	48.416	0.384	0.356
-181.056	-200.000	0.028	-0.292
-180.042	-98.427	-0.222	0.056
-179.027	-129.406	0.262	0.036
-178.012	57.457	-0.549	-0.531
-176.998	-55.135	0.834	0.371
-175.983	148.581	-0.116	0.155
-174.969	-200.000	0.017	0.198
-173.954	-90.880	-0.107	0.030
-172.939	-33.467	0.627	0.343
-171.925	256.167	0.316	-0.537
-170.910	-100.474	-0.836	-0.205
-169.896	-23.154	0.912	0.543
-168.881	-68.276	-0.380	-0.146
-167.866	45.162	-0.180	-0.164
-166.852	-125.190	-0.624	0.095
-165.837	-105.460	0.542	-0.122
-164.823	-81.915	0.341	0.110
-163.808	-200.000	0.009	-0.156
-162.793	104.577	0.373	-0.435
-161.779	-200.000	-0.131	-0.810
-160.764	-200.000	0.081	-0.674
-159.750	333.696	-0.631	-1.208
-158.735	-200.000	-0.039	-0.690
-157.720	-11.929	0.279	-0.181
-156.706	165.336	0.603	0.843
-155.691	116.282	0.364	0.442
-154.677	-200.000	-0.024	-0.356
-153.662	-158.615	-0.692	-0.039
-152.647	-55.822	0.545	-0.241
-151.633	-200.000	0.105	-0.490
-150.618	432.142	0.319	-0.685
-149.604	-66.361	0.127	0.050
-148.589	235.047	-0.588	-0.959
-147.574	-123.238	-0.566	0.090
-146.560	16.342	0.248	-0.194
-145.545	-200.000	0.013	-0.592
-144.531	369.797	0.128	-0.257
-143.516	-200.000	0.115	1.038
-142.502	339.612	0.164	0.316
-141.487	387.443	0.249	-0.509
-140.472	-133.743	0.519	-0.064
-139.458	291.959	-0.150	-0.270
-138.443	50.548	0.390	-0.365
-137.429	-200.000	-0.110	-0.798
-136.414	-186.146	0.419	-0.006
-135.399	-86.622	1.025	0.310
-134.385	-200.000	0.033	-0.533
-133.370	602.640	0.334	-0.821
-132.356	-200.000	-0.073	-0.452
-131.341	57.844	-0.602	-0.582
-130.326	277.975	0.124	0.218
-129.312	-200.000	0.048	0.351
-128.297	-101.098	-0.286	0.069
-127.283	-200.000	-0.038	-0.387
-126.268	480.108	-0.141	-0.316
-125.253	141.128	-0.295	0.385
-124.239	-182.504	0.599	0.011
-123.224	-100.839	0.542	-0.132
-122.210	-98.288	-0.320	-0.081
