DTS Sentinel unit serial number:	SN413079Multiplexer serial number:	ORYXHardware model number:	OX4-SRSoftware version number:	ORYX F/W v4.00 Oryx Data Collector v3.7.2.0data status	okinstallation	princeton_trtdifferential loss correction	single-endedforward channel	channel 1reverse channel	N/Adate	2019/09/13time	15:14:35forward acquisition time	60.00reverse acquisition time	0.00gamma	496.2192k internal	0.2303k external	0.2303temperature offset calibration	1.0158default loss term (dB/km)	0.3790temperature slope calibration	1.0000multiplexer offset coefficient	1.0000multiplexer slope coefficient	1.0000fibre end	0.00T internal ref (°C)	35.53T ext. ref 1 (°C)	4.72T ext. ref 2 (°C)	30.06length (m)	temperature (°C)	Stokes	anti-Stokes-747.200	-98.760	-0.115	0.030
-746.185	491.131	-0.029	0.069
-745.171	800.000	0.100	0.329
-744.156	-7.881	-0.277	0.191
-743.142	54.962	-0.037	-0.036
-742.127	5.238	-0.191	0.143
-741.112	204.820	0.017	0.027
-740.098	-23.763	-0.224	0.136
-739.083	-124.929	0.108	0.017
-738.069	-161.060	0.140	-0.007
-737.054	58.044	0.020	-0.020
-736.039	125.973	-0.159	-0.204
-735.025	59.425	0.161	0.161
-734.010	-200.000	-0.074	-0.331
-732.996	-36.019	-0.165	-0.091
-731.981	508.147	-0.058	-0.136
-730.966	205.061	0.115	-0.183
-729.952	-169.923	-0.123	-0.004
-728.937	-200.000	0.003	0.246
-727.923	-6.054	0.101	0.070
-726.908	800.000	-0.077	-0.314
-725.894	800.000	-0.012	0.040
-724.879	-143.885	-0.282	-0.027
-723.864	-28.012	0.353	0.208
-722.850	181.110	0.071	0.106
-721.835	18.763	-0.312	-0.254
-720.821	-155.255	0.301	-0.020
-719.806	-89.648	-0.024	-0.007
-718.791	130.611	-0.187	0.244
-717.777	-52.830	-0.311	-0.146
-716.762	-131.242	0.194	0.026
-715.748	65.560	-0.031	0.032
-714.733	102.477	0.102	0.122
-713.718	-200.000	-0.017	0.141
-712.704	46.503	0.086	-0.081
-711.689	-141.333	-0.219	-0.023
-710.675	-191.659	-0.372	-0.004
-709.660	342.384	0.130	-0.258
-708.645	12.333	-0.136	0.107
-707.631	-200.000	0.031	-0.170
-706.616	-46.649	0.017	0.008
-705.602	-48.818	0.236	-0.115
-704.587	85.735	-0.077	-0.086
-703.572	101.500	0.031	-0.037
-702.558	-1.234	-0.113	0.081
-701.543	408.621	0.053	-0.113
-700.529	-200.000	0.002	-0.091
-699.514	-200.000	0.023	0.189
-698.499	-44.354	-0.126	0.064
-697.485	-200.000	0.037	0.189
-696.470	166.897	-0.222	-0.321
-695.456	79.893	0.020	-0.022
-694.441	44.001	-0.120	-0.112
-693.426	-32.118	-0.131	-0.075
-692.412	800.000	0.080	-0.332
-691.397	383.836	-0.080	-0.168
-690.383	205.009	-0.301	-0.475
-689.368	-77.970	-0.238	-0.083
-688.354	-163.547	-0.251	-0.012
-687.339	100.984	-0.091	-0.108
-686.324	-79.149	-0.268	0.093
-685.310	-42.395	0.263	0.136
-684.295	581.258	0.045	0.112
-683.281	-200.000	-0.022	-0.202
-682.266	50.805	-0.127	-0.122
-681.251	-161.184	-0.224	0.012
-680.237	85.139	-0.257	-0.287
-679.222	-138.595	0.298	0.033
-678.208	-180.189	-0.130	0.003
-677.193	-1.901	-0.166	0.119
-676.178	50.161	-0.241	0.231
-675.164	151.101	0.057	-0.079
-674.149	-199.973	-0.196	0.001
-673.135	-60.026	0.112	-0.049
-672.120	-80.561	-0.170	-0.058
-671.105	118.031	-0.116	-0.145
-670.091	-118.577	-0.206	-0.037
-669.076	-33.394	0.271	-0.152
-668.062	-67.543	0.222	0.088
-667.047	-43.377	-0.194	-0.099
-666.032	-14.960	-0.108	0.070
-665.018	-14.731	-0.164	0.107
-664.003	800.000	-0.030	-0.128
-662.989	-183.543	0.032	0.001
-661.974	129.531	0.131	-0.171
-660.959	-130.715	0.140	0.019
-659.945	298.997	-0.136	0.255
-658.930	476.103	-0.156	0.357
-657.916	-200.000	-0.005	-0.033
-656.901	-54.481	-0.072	0.033
-655.886	-200.000	0.032	-0.173
-654.872	-159.240	0.304	0.017
-653.857	418.308	-0.077	-0.168
-652.843	265.129	0.026	-0.047
-651.828	-189.102	-0.249	-0.003
-650.814	66.842	0.054	0.055
-649.799	31.863	0.165	0.144
-648.784	135.993	0.200	-0.264
-647.770	-200.000	-0.034	0.173
-646.755	-200.000	-0.006	-0.403
-645.741	-4.965	0.238	-0.166
-644.726	-0.460	-0.109	0.079
-643.711	-158.839	-0.394	0.023
-642.697	-200.000	0.053	0.299
-641.682	103.879	0.116	0.138
-640.668	59.977	0.127	0.127
-639.653	154.208	0.138	0.192
-638.638	-114.532	-0.132	0.026
-637.624	-28.848	-0.283	-0.165
-636.609	285.003	-0.086	0.157
-635.595	-86.784	0.304	0.094
-634.580	20.162	0.248	-0.203
-633.565	185.222	-0.102	-0.153
-632.551	-106.555	-0.136	0.031
-631.536	-27.342	0.318	-0.188
-630.522	-200.000	-0.069	0.394
-629.507	20.121	0.206	0.169
-628.492	-103.887	-0.237	0.056
-627.478	-178.302	0.396	-0.009
-626.463	-72.945	0.152	0.057
-625.449	-38.654	0.360	0.193
-624.434	-40.150	-0.193	-0.102
-623.419	800.000	0.057	0.243
-622.405	-92.866	-0.311	-0.088
-621.390	-200.000	0.027	0.218
-620.376	97.196	-0.209	0.243
-619.361	-69.112	-0.280	0.109
-618.346	28.199	-0.412	0.353
-617.332	-145.661	0.153	0.014
-616.317	-106.871	-0.397	-0.089
-615.303	49.190	0.082	0.078
-614.288	-135.530	0.153	0.019
-613.273	-59.534	0.158	-0.069
-612.259	-55.706	-0.100	0.045
-611.244	76.477	0.216	0.232
-610.230	800.000	-0.015	-0.051
-609.215	-69.008	0.156	0.061
-608.201	-96.892	0.075	0.020
-607.186	76.135	-0.050	0.053
-606.171	-119.365	-0.298	-0.053
-605.157	109.271	-0.203	-0.246
-604.142	-63.399	0.113	-0.047
-603.128	800.000	0.112	-0.405
-602.113	800.000	-0.008	0.032
-601.098	610.391	-0.150	-0.380
-600.084	-34.356	-0.213	0.119
-599.069	-43.066	0.060	-0.031
-598.055	80.148	0.152	-0.165
-597.040	127.081	-0.088	0.113
-596.025	486.415	0.091	0.211
-595.011	-200.000	0.023	0.179
-593.996	-200.000	0.055	-0.400
-592.982	-200.000	0.011	0.425
-591.967	68.206	-0.141	0.146
-590.952	-64.750	0.357	-0.147
-589.938	-67.607	-0.213	-0.085
-588.923	-28.706	-0.094	-0.055
-587.909	185.048	-0.077	-0.116
-586.894	62.031	-0.161	0.163
-585.879	33.837	-0.074	-0.065
-584.865	10.209	-0.145	-0.112
-583.850	-29.219	0.368	-0.213
-582.836	128.180	0.070	0.090
-581.821	531.862	0.104	-0.249
-580.806	-200.000	0.016	-0.219
-579.792	-200.000	-0.015	0.129
-578.777	-43.135	-0.146	-0.075
-577.763	-200.000	-0.012	-0.225
-576.748	-200.000	-0.003	-0.390
-575.733	86.173	-0.181	-0.202
-574.719	-18.866	-0.073	0.046
-573.704	96.204	-0.197	-0.228
-572.690	16.503	-0.277	-0.221
-571.675	264.947	0.047	-0.083
-570.661	296.177	0.061	0.113
-569.646	194.966	-0.221	-0.339
-568.631	-171.124	-0.244	-0.008
-567.617	430.170	0.110	0.241
-566.602	-12.154	-0.075	-0.049
-565.588	-129.287	-0.172	0.024
-564.573	60.480	-0.171	-0.172
-563.558	798.442	-0.020	-0.057
-562.544	-200.000	-0.066	0.326
-561.529	-76.104	0.223	0.080
-560.515	50.894	0.169	-0.162
-559.500	-113.428	0.339	-0.067
-558.485	-147.378	-0.096	0.008
-557.471	21.158	-0.095	-0.078
-556.456	-200.000	-0.014	-0.105
-555.442	83.827	0.097	-0.107
-554.427	614.507	0.018	0.045
-553.412	207.798	0.116	-0.183
-552.398	-200.000	-0.002	-0.053
-551.383	800.000	-0.081	-0.228
-550.369	206.191	0.095	0.150
-549.354	133.017	0.243	-0.317
-548.339	87.244	0.190	-0.212
-547.325	-200.000	0.077	0.443
-546.310	-200.000	0.019	-0.395
-545.296	81.720	-0.233	-0.255
-544.281	478.579	0.097	-0.222
-543.266	-81.691	0.164	0.054
-542.252	112.110	-0.184	-0.224
-541.237	102.147	0.197	0.232
-540.223	-18.551	-0.033	-0.021
-539.208	-200.000	0.006	-0.119
-538.193	266.926	0.144	-0.254
-537.179	-99.290	-0.231	-0.059
-536.164	43.120	-0.308	0.284
-535.150	800.000	0.097	-0.393
-534.135	-122.179	-0.048	0.008
-533.121	773.614	0.075	0.206
-532.106	227.624	0.046	-0.075
-531.091	-200.000	0.005	-0.253
-530.077	-68.749	0.072	-0.028
-529.062	-115.000	-0.048	0.009
-528.048	100.669	-0.104	0.122
-527.033	224.339	-0.149	0.243
-526.018	60.428	0.081	0.081
-525.004	17.235	-0.143	0.115
-523.989	-200.000	-0.019	-0.221
-522.975	800.000	0.035	-0.108
-521.960	6.847	-0.006	-0.005
-520.945	215.148	0.089	-0.143
-519.931	33.615	-0.216	-0.190
-518.916	-78.167	0.203	-0.071
-517.902	-200.000	-0.043	0.208
-516.887	-64.098	-0.090	0.037
-515.872	193.788	0.081	0.124
-514.858	-200.000	0.090	0.468
-513.843	-183.752	0.253	-0.004
-512.829	800.000	-0.028	-0.083
-511.814	158.711	0.150	0.210
-510.799	-200.000	-0.032	-0.184
-509.785	252.658	-0.105	0.181
-508.770	153.440	-0.245	-0.339
-507.756	-2.727	-0.265	-0.187
-506.741	-135.957	0.100	-0.012
-505.726	800.000	-0.028	0.096
-504.712	94.055	-0.239	-0.273
-503.697	800.000	0.020	-0.089
-502.683	800.000	-0.090	-0.365
-501.668	577.970	-0.010	0.025
-500.653	-92.766	0.349	0.099
-499.639	-60.863	-0.198	-0.085
-498.624	-200.000	0.000	-0.067
-497.610	462.189	-0.064	0.144
-496.595	-200.000	0.009	0.129
-495.581	-200.000	0.004	0.144
-494.566	222.238	0.063	-0.103
-493.551	-64.162	0.036	0.015
-492.537	-94.477	-0.261	-0.072
-491.522	248.725	0.061	-0.103
-490.508	-200.000	0.025	0.292
-489.493	53.943	0.307	0.298
-488.478	800.000	-0.073	-0.278
-487.464	645.712	0.093	0.241
-486.449	565.461	0.099	-0.242
-485.435	-31.090	-0.194	-0.111
-484.420	-130.437	-0.297	-0.041
-483.405	290.788	-0.052	0.095
-482.391	329.424	0.138	0.268
-481.376	-200.000	-0.010	-0.599
-480.362	-16.279	0.105	-0.067
-479.347	6.131	-0.241	0.180
-478.332	74.691	-0.186	0.197
-477.318	-11.809	-0.231	-0.153
-476.303	800.000	0.121	-0.394
-475.289	-139.754	0.182	-0.019
-474.274	-60.773	0.309	-0.132
-473.259	800.000	-0.030	-0.108
-472.245	189.967	0.114	0.172
-471.230	-89.733	0.110	0.032
-470.216	-107.809	0.208	-0.046
-469.201	-54.088	0.120	0.055
-468.186	471.252	-0.054	0.122
-467.172	-177.312	0.056	-0.001
-466.157	-5.490	0.188	0.130
-465.143	800.000	-0.024	-0.083
-464.128	-35.505	-0.098	0.053
-463.113	566.674	-0.012	-0.030
-462.099	-200.000	0.013	0.272
-461.084	101.098	0.296	-0.347
-460.070	-200.000	-0.077	-0.355
-459.055	800.000	-0.076	-0.229
-458.040	-200.000	-0.003	0.098
-457.026	197.976	0.145	-0.223
-456.011	408.136	0.147	0.313
-454.997	201.956	0.124	-0.192
-453.982	136.353	-0.104	-0.136
-452.968	94.804	-0.130	0.149
-451.953	154.537	-0.011	-0.015
-450.938	800.000	0.040	-0.136
-449.924	-200.000	0.030	0.207
-448.909	-103.297	-0.319	-0.076
-447.895	479.957	-0.045	-0.104
-446.880	-200.000	0.007	-0.103
-445.865	177.094	0.102	-0.150
-444.851	-200.000	0.001	-0.084
-443.836	79.580	0.182	-0.196
-442.822	-18.884	0.206	0.129
-441.807	-200.000	0.063	0.401
-440.792	561.599	0.157	0.381
-439.778	800.000	0.038	0.136
-438.763	643.806	-0.003	-0.009
-437.749	-200.000	-0.045	0.219
-436.734	-101.444	-0.151	0.037
-435.719	45.128	0.183	-0.170
-434.705	149.597	0.087	0.119
-433.690	-115.494	-0.374	0.071
-432.676	800.000	0.063	-0.187
-431.661	73.839	-0.237	0.250
-430.646	164.700	0.109	0.155
-429.632	-69.776	0.170	0.065
-428.617	-200.000	-0.024	0.317
-427.603	-65.240	0.151	-0.061
-426.588	37.945	-0.108	-0.097
-425.573	115.365	-0.230	-0.283
-424.559	-200.000	-0.051	-0.432
-423.544	-97.148	0.187	0.049
-422.530	107.035	0.294	0.352
-421.515	-103.175	-0.210	0.050
-420.500	206.857	-0.011	0.018
-419.486	385.663	0.095	0.198
-418.471	42.460	-0.126	-0.115
-417.457	2.750	-0.195	0.142
-416.442	480.628	-0.063	0.143
-415.428	630.711	-0.191	0.486
-414.413	500.716	-0.097	-0.225
-413.398	-21.473	0.126	-0.077
-412.384	170.705	0.197	0.284
-411.369	-125.783	0.420	-0.064
-410.355	800.000	-0.071	0.202
-409.340	-200.000	0.024	0.172
-408.325	-128.585	-0.642	0.091
-407.311	800.000	-0.094	-0.283
-406.296	-3.302	-0.321	-0.225
-405.282	-200.000	0.006	-0.093
-404.267	-125.758	-0.179	0.027
-403.252	-11.878	0.233	-0.154
-402.238	611.189	0.074	-0.187
-401.223	-79.715	-0.081	0.027
-400.209	456.861	0.161	0.360
-399.194	-200.000	0.071	0.588
-398.179	-125.984	0.356	-0.054
-397.165	20.777	0.080	-0.065
-396.150	-200.000	0.014	-0.194
-395.136	463.684	-0.046	-0.102
-394.121	-10.730	0.057	0.038
-393.106	-5.078	-0.102	0.070
-392.092	-54.821	-0.497	-0.226
-391.077	800.000	0.082	0.249
-390.063	-113.130	0.102	0.020
-389.048	-4.764	-0.322	0.223
-388.033	-200.000	-0.011	0.225
-387.019	-15.631	-0.319	0.204
-386.004	-180.792	0.090	-0.002
-384.990	-200.000	0.021	0.094
-383.975	65.867	-0.113	-0.115
-382.960	488.833	-0.032	0.073
-381.946	-105.031	-0.257	0.059
-380.931	4.750	0.049	-0.036
-379.917	567.520	0.105	0.255
-378.902	-72.410	-0.103	0.038
-377.888	-200.000	0.011	-0.093
-376.873	-200.000	-0.015	-0.144
-375.858	-101.235	0.344	-0.084
-374.844	-200.000	0.010	0.206
-373.829	-97.474	-0.223	0.058
-372.815	-76.597	-0.311	0.110
-371.800	103.263	0.168	-0.198
-370.785	609.232	-0.048	-0.121
-369.771	336.820	-0.108	-0.211
-368.756	342.256	-0.100	0.196
-367.742	-112.789	0.248	-0.049
-366.727	800.000	-0.059	-0.181
-365.712	194.980	0.108	-0.164
-364.698	487.659	0.025	0.057
-363.683	133.478	0.039	0.050
-362.669	196.834	-0.045	-0.069
-361.654	-75.336	0.164	-0.059
-360.639	28.588	0.243	-0.206
-359.625	-171.476	-0.225	0.008
-358.610	-200.000	0.027	0.304
-357.596	-125.935	-0.051	-0.008
-356.581	29.183	0.118	0.101
-355.566	295.535	-0.077	0.141
-354.552	55.645	-0.078	0.076
-353.537	150.723	-0.101	-0.138
-352.523	800.000	0.059	0.176
-351.508	23.913	0.200	-0.165
-350.493	-200.000	0.016	-0.156
-349.479	-133.898	-0.088	0.011
-348.464	57.814	0.115	-0.113
-347.450	129.427	-0.110	0.141
-346.435	468.786	0.071	0.160
-345.420	-26.320	-0.280	0.165
-344.406	-149.267	-0.157	0.013
-343.391	-200.000	0.015	0.170
-342.377	28.664	-0.135	0.115
-341.362	-50.312	-0.151	0.072
-340.348	1.770	0.303	0.219
-339.333	549.301	0.100	-0.240
-338.318	122.521	0.222	-0.278
-337.304	-45.766	-0.232	0.115
-336.289	-36.659	-0.202	0.109
-335.275	226.593	-0.149	-0.243
-334.260	244.370	0.076	-0.128
-333.245	77.522	-0.104	-0.111
-332.231	-101.515	0.313	0.076
-331.216	175.591	-0.213	0.309
-330.202	-47.958	0.381	-0.185
-329.187	61.586	0.290	0.289
-328.172	-131.169	0.112	0.015
-327.158	30.618	0.107	0.092
-326.143	435.734	-0.105	-0.230
-325.129	800.000	0.063	-0.205
-324.114	-155.336	0.216	0.014
-323.099	-200.000	-0.023	-0.188
-322.085	-90.491	0.107	-0.031
-321.070	-60.534	0.200	0.085
-320.056	800.000	0.041	-0.145
-319.041	787.096	0.138	0.380
-318.026	-14.878	-0.105	0.068
-317.012	-73.067	-0.095	0.035
-315.997	-145.605	0.153	0.014
-314.983	-45.274	-0.019	-0.010
-313.968	-128.108	-0.326	0.047
-312.953	-200.000	-0.013	-0.219
-311.939	163.810	0.084	0.119
-310.924	-90.098	-0.166	-0.048
-309.910	-200.000	-0.002	0.080
-308.895	-151.373	0.284	0.021
-307.880	-177.964	-0.176	-0.004
-306.866	-200.000	-0.061	0.385
-305.851	-200.000	-0.023	0.107
-304.837	-101.400	-0.326	-0.079
-303.822	111.574	0.032	-0.038
-302.807	84.846	-0.267	-0.293
-301.793	-122.466	0.366	-0.060
-300.778	-108.839	-0.081	-0.017
-299.764	800.000	-0.090	0.251
-298.749	-18.387	0.164	0.103
-297.735	-149.192	-0.079	0.006
-296.720	18.623	-0.266	-0.213
-295.705	800.000	-0.097	-0.386
-294.691	800.000	-0.136	0.397
-293.676	557.095	0.128	0.309
-292.662	361.646	0.193	0.388
-291.647	26.148	0.253	-0.212
-290.632	39.001	-0.162	0.145
-289.618	-101.952	-0.403	0.097
-288.603	800.000	0.031	-0.122
-287.589	-87.586	0.061	-0.018
-286.574	58.839	0.200	0.196
-285.559	800.000	-0.077	0.272
-284.545	-45.752	0.123	-0.061
-283.530	-149.184	0.134	-0.011
-282.516	-120.935	0.186	0.031
-281.501	-200.000	0.009	-0.056
-280.486	196.823	-0.029	-0.044
-279.472	555.333	0.081	-0.196
-278.457	-181.734	0.452	0.009
-277.443	30.652	-0.078	-0.067
-276.428	100.883	0.110	-0.128
-275.413	110.040	-0.058	-0.069
-274.399	-200.000	0.012	0.208
-273.384	-158.836	-0.337	0.019
-272.370	646.975	-0.043	-0.109
-271.355	-147.642	0.135	0.011
-270.340	-200.000	-0.004	-0.057
-269.326	465.773	0.018	-0.040
-268.311	-61.555	0.074	0.031
-267.297	-17.007	-0.175	-0.111
-266.282	172.932	-0.064	-0.092
-265.267	-48.065	0.173	-0.084
-264.253	40.079	0.198	0.178
-263.238	-200.000	0.013	0.182
-262.224	-56.981	0.105	-0.046
-261.209	-200.000	-0.047	0.228
-260.195	-200.000	-0.035	0.188
-259.180	-200.000	-0.009	0.156
-258.165	-183.597	0.084	0.001
-257.151	527.748	-0.104	-0.245
-256.136	42.905	-0.042	-0.038
-255.122	5.058	-0.100	-0.074
-254.107	-22.022	-0.045	-0.027
-253.092	-50.588	0.162	0.076
-252.078	21.695	-0.225	0.183
-251.063	-182.923	-0.305	0.005
-250.049	13.588	0.184	-0.143
-249.034	800.000	-0.026	-0.077
-248.019	-200.000	-0.004	-0.245
-247.005	-36.945	-0.108	-0.058
-245.990	68.090	-0.192	0.196
-244.976	339.490	0.057	-0.110
-243.961	-200.000	-0.006	0.167
-242.946	800.000	-0.031	0.107
-241.932	-31.140	0.371	-0.209
-240.917	101.414	0.122	-0.142
-239.903	324.823	0.189	0.360
-238.888	60.625	-0.088	-0.087
-237.873	-64.878	-0.330	0.133
-236.859	-57.164	0.203	0.089
-235.844	89.385	0.144	0.160
-234.830	-125.113	-0.155	0.024
-233.815	-58.258	-0.311	-0.135
-232.800	52.647	-0.130	-0.124
-231.786	-143.719	0.432	-0.041
-230.771	-61.476	-0.318	-0.133
-229.757	73.961	-0.119	-0.124
-228.742	50.710	0.195	0.184
-227.727	34.053	-0.267	-0.232
-226.713	800.000	-0.154	-0.464
-225.698	-91.593	0.141	0.040
-224.684	-129.483	-0.217	0.030
-223.669	-25.012	-0.293	0.173
-222.655	-30.613	0.100	-0.056
-221.640	-136.529	0.140	-0.016
-220.625	-100.520	0.422	-0.104
-219.611	7.525	-0.207	-0.155
-218.596	700.051	-0.109	0.288
-217.582	72.367	-0.044	-0.046
-216.567	-94.949	-0.182	0.049
-215.552	415.312	-0.071	-0.151
-214.538	428.452	0.089	0.192
-213.523	-200.000	-0.056	0.338
-212.509	236.450	0.043	-0.070
-211.494	-200.000	-0.015	0.308
-210.479	513.427	-0.064	-0.149
-209.465	-200.000	0.003	-0.022
-208.450	30.256	0.162	0.138
-207.436	9.846	0.234	-0.177
-206.421	-100.030	0.075	-0.019
-205.406	-30.873	-0.057	0.032
-204.392	-200.000	0.011	0.160
-203.377	800.000	0.029	0.106
-202.363	710.504	0.136	0.358
-201.348	186.455	0.163	0.242
-200.333	-78.922	-0.054	0.018
-199.319	-200.000	-0.003	-0.152
-198.304	24.595	-0.046	0.038
-197.290	800.000	-0.058	0.190
-196.275	142.584	-0.066	-0.087
-195.260	-77.358	0.114	0.039
-194.246	-171.375	-0.333	0.011
-193.231	-200.000	0.023	-0.210
-192.217	-54.371	0.334	0.151
-191.202	-164.772	-0.034	-0.002
-190.187	30.545	0.114	0.097
-189.173	19.519	-0.147	0.118
-188.158	-116.453	-0.181	-0.033
-187.144	64.348	-0.185	-0.186
-186.129	-200.000	0.294	0.000
-185.114	-81.642	-0.191	-0.063
-184.100	-121.741	0.300	-0.049
-183.085	-117.635	-0.319	-0.057
-182.071	126.834	-0.157	-0.199
-181.056	800.000	-0.064	-0.185
-180.042	-72.380	0.306	-0.113
-179.027	27.958	0.045	-0.038
-178.012	800.000	0.044	0.170
-176.998	-182.465	0.143	0.003
-175.983	-200.000	0.031	0.236
-174.969	-43.759	-0.210	-0.105
-173.954	-185.880	-0.057	0.001
-172.939	17.034	0.231	0.183
-171.925	-88.524	0.137	0.041
-170.910	-32.666	0.337	-0.187
-169.896	18.391	0.245	0.195
-168.881	-129.205	-0.264	0.037
-167.866	800.000	-0.092	-0.365
-166.852	-29.371	-0.226	0.129
-165.837	-93.827	0.073	-0.020
-164.823	226.404	0.125	-0.202
-163.808	151.424	0.092	-0.125
-162.793	-148.796	-0.077	0.006
-161.779	10.591	-0.081	-0.061
-160.764	-29.666	0.233	0.132
-159.750	397.257	0.043	0.089
-158.735	-75.045	-0.175	-0.062
-157.720	38.655	0.196	-0.174
-156.706	-145.881	0.389	0.034
-155.691	508.311	-0.014	-0.031
-154.677	800.000	0.066	0.221
-153.662	491.244	-0.095	-0.216
-152.647	800.000	-0.074	-0.265
-151.633	745.538	-0.135	0.361
-150.618	269.645	-0.172	0.300
-149.604	800.000	-0.055	0.157
-148.589	-157.289	-0.184	0.011
-147.574	-7.413	0.366	0.247
-146.560	-38.772	0.091	0.048
-145.545	-200.000	0.035	0.239
-144.531	800.000	0.116	0.449
-143.516	131.327	0.079	0.101
-142.502	88.542	0.102	0.113
-141.487	-6.798	-0.160	0.108
-140.472	-102.800	-0.258	0.061
-139.458	-200.000	-0.040	-0.240
-138.443	-200.000	0.018	0.095
-137.429	14.898	0.115	0.089
-136.414	-58.889	0.252	0.108
-135.399	-200.000	-0.041	0.438
-134.385	69.276	0.176	-0.180
-133.370	6.641	0.065	-0.048
-132.356	-17.802	0.250	-0.156
-131.341	116.147	0.258	-0.314
-130.326	-200.000	-0.000	0.178
-129.312	91.025	-0.242	0.270
-128.297	-139.329	0.166	0.018
-127.283	131.794	0.113	0.144
-126.268	-95.884	-0.201	-0.053
-125.253	800.000	0.088	0.263
-124.239	26.523	-0.098	0.081
-123.224	-200.000	-0.059	0.262
-122.210	358.704	-0.136	-0.271
-121.195	-75.948	-0.416	-0.146
