DTS Sentinel unit serial number:	SN413079Multiplexer serial number:	ORYXHardware model number:	OX4-SRSoftware version number:	ORYX F/W v4.00 Oryx Data Collector v3.7.2.0data status	okinstallation	princeton_trtdifferential loss correction	single-endedforward channel	channel 1reverse channel	N/Adate	2019/09/16time	19:06:35forward acquisition time	60.00reverse acquisition time	0.00gamma	496.2192k internal	0.2312k external	0.2312temperature offset calibration	0.9946default loss term (dB/km)	0.3790temperature slope calibration	1.0000multiplexer offset coefficient	1.0000multiplexer slope coefficient	1.0000fibre end	0.00T internal ref (°C)	35.37T ext. ref 1 (°C)	0.06T ext. ref 2 (°C)	28.54length (m)	temperature (°C)	Stokes	anti-Stokes-747.200	482.078	0.132	0.305
-746.185	651.407	-0.109	0.282
-745.171	-130.222	-0.188	-0.026
-744.156	61.236	-0.110	0.111
-743.142	359.552	0.057	-0.116
-742.127	60.981	-0.129	0.130
-741.112	800.000	-0.141	0.577
-740.098	118.108	-0.333	0.417
-739.083	800.000	-0.129	-0.372
-738.069	40.457	-0.427	0.390
-737.054	-55.346	-0.238	-0.108
-736.039	313.444	-0.148	-0.281
-735.025	-200.000	0.021	0.200
-734.010	-200.000	-0.010	-0.095
-732.996	-2.906	-0.194	-0.137
-731.981	-200.000	0.010	-0.118
-730.966	179.387	0.110	0.163
-729.952	800.000	0.061	0.179
-728.937	-91.706	0.199	-0.057
-727.923	800.000	0.059	-0.258
-726.908	215.746	-0.104	0.168
-725.894	-127.936	-0.138	0.020
-724.879	300.437	0.142	0.266
-723.864	800.000	-0.120	-0.517
-722.850	556.126	-0.139	-0.339
-721.835	-63.622	-0.305	0.127
-720.821	-165.334	0.174	-0.008
-719.806	-92.146	0.254	0.073
-718.791	-200.000	-0.027	-0.162
-717.777	-154.336	0.239	0.016
-716.762	-34.125	0.181	0.101
-715.748	800.000	-0.046	0.168
-714.733	596.374	-0.163	-0.410
-713.718	15.998	0.455	-0.363
-712.704	756.027	-0.071	-0.196
-711.689	84.085	-0.090	0.100
-710.675	-100.592	0.363	0.091
-709.660	212.576	-0.138	-0.220
-708.645	407.767	0.139	-0.298
-707.631	37.427	0.180	-0.161
-706.616	91.549	-0.294	-0.335
-705.602	124.561	-0.115	-0.147
-704.587	-75.399	-0.314	0.113
-703.572	-200.000	-0.038	0.309
-702.558	147.358	0.076	-0.103
-701.543	-131.980	-0.116	0.015
-700.529	-117.951	0.115	0.021
-699.514	314.449	-0.063	0.119
-698.499	800.000	0.031	-0.104
-697.485	-68.502	0.303	0.119
-696.470	-46.213	-0.172	-0.086
-695.456	46.773	0.309	-0.290
-694.441	-44.851	-0.140	-0.071
-693.426	-147.113	-0.216	-0.019
-692.412	-200.000	-0.022	0.366
-691.397	781.492	0.097	-0.268
-690.383	112.536	-0.219	-0.269
-689.368	85.132	-0.188	0.209
-688.354	-99.574	0.223	0.057
-687.339	467.251	0.170	-0.385
-686.324	303.880	-0.065	-0.122
-685.310	112.926	-0.183	0.224
-684.295	-31.929	0.106	0.060
-683.281	81.629	-0.065	-0.072
-682.266	349.113	0.130	-0.260
-681.251	-128.370	-0.313	-0.045
-680.237	141.117	-0.020	-0.026
-679.222	281.621	0.062	0.112
-678.208	-46.274	-0.357	0.178
-677.193	45.300	0.118	-0.110
-676.178	21.589	0.250	-0.206
-675.164	-159.695	-0.428	-0.024
-674.149	-80.221	0.394	-0.133
-673.135	-65.454	-0.234	0.095
-672.120	101.439	0.309	-0.364
-671.105	-120.859	0.059	-0.010
-670.091	-3.131	0.074	0.052
-669.076	800.000	0.115	0.347
-668.062	-121.266	-0.306	-0.052
-667.047	116.012	-0.187	0.232
-666.032	288.923	-0.051	-0.094
-665.018	800.000	0.035	0.105
-664.003	6.489	-0.118	-0.089
-662.989	437.924	0.178	0.392
-661.974	-200.000	-0.030	0.290
-660.959	-33.323	-0.158	0.088
-659.945	-200.000	-0.051	0.261
-658.930	-200.000	0.007	-0.105
-657.916	219.020	-0.090	-0.146
-656.901	-200.000	-0.038	0.512
-655.886	191.257	-0.186	-0.283
-654.872	-130.577	0.356	-0.049
-653.857	-129.374	-0.082	-0.011
-652.843	330.719	0.108	0.210
-651.828	-74.216	0.273	-0.100
-650.814	60.488	-0.279	0.279
-649.799	132.769	0.189	0.247
-648.784	-200.000	-0.026	-0.375
-647.770	-135.017	0.195	-0.024
-646.755	800.000	0.036	-0.157
-645.741	800.000	0.069	0.277
-644.726	-123.567	0.193	-0.031
-643.711	3.161	0.147	-0.108
-642.697	148.648	0.153	0.210
-641.682	800.000	-0.088	0.264
-640.668	-32.865	-0.086	0.048
-639.653	-51.602	0.117	-0.055
-638.638	-200.000	0.001	0.101
-637.624	-122.884	-0.057	-0.009
-636.609	-168.888	-0.348	0.013
-635.595	135.295	0.212	-0.279
-634.580	-200.000	-0.001	0.054
-633.565	-89.946	0.181	-0.053
-632.551	6.136	-0.035	-0.027
-631.536	44.972	0.199	-0.185
-630.522	-200.000	0.008	0.074
-629.507	73.019	-0.134	0.142
-628.492	-200.000	0.032	0.176
-627.478	800.000	0.048	-0.198
-626.463	537.125	-0.082	-0.197
-625.449	-200.000	-0.005	0.309
-624.434	-31.479	-0.082	-0.047
-623.419	-4.142	-0.134	0.094
-622.405	-37.357	0.051	-0.027
-621.390	-13.708	0.161	0.105
-620.376	562.915	-0.163	-0.399
-619.361	100.585	-0.104	-0.122
-618.346	34.791	0.122	0.108
-617.332	368.658	-0.062	-0.126
-616.317	-200.000	-0.021	0.150
-615.303	-96.825	0.077	-0.021
-614.288	800.000	-0.101	-0.333
-613.273	800.000	-0.043	0.140
-612.259	241.098	-0.101	0.170
-611.244	304.339	-0.122	0.228
-610.230	38.162	-0.137	0.123
-609.215	-89.354	-0.226	0.067
-608.201	193.569	0.071	0.108
-607.186	800.000	0.069	-0.237
-606.171	-48.070	-0.073	0.035
-605.157	-200.000	-0.053	-0.346
-604.142	642.071	-0.097	0.249
-603.128	-154.976	-0.189	-0.013
-602.113	800.000	-0.093	0.272
-601.098	-104.016	-0.009	0.002
-600.084	-200.000	0.033	-0.209
-599.069	-200.000	0.050	0.253
-598.055	-19.938	-0.122	-0.076
-597.040	-9.479	-0.145	0.098
-596.025	79.512	-0.278	-0.300
-595.011	279.141	0.076	0.137
-593.996	158.401	0.092	0.129
-592.982	800.000	0.055	-0.155
-591.967	-81.321	-0.418	-0.139
-590.952	116.115	0.119	-0.147
-589.938	800.000	-0.111	-0.373
-588.923	20.866	-0.283	0.231
-587.909	800.000	-0.068	0.225
-586.894	-200.000	-0.111	0.598
-585.879	-30.389	0.170	-0.097
-584.865	316.588	-0.161	0.306
-583.850	-14.549	-0.117	-0.076
-582.836	-200.000	0.080	-0.549
-581.821	34.254	0.197	0.173
-580.806	498.763	0.088	-0.205
-579.792	-139.429	-0.194	0.021
-578.777	336.902	0.108	0.212
-577.763	-200.000	-0.013	0.162
-576.748	-43.633	-0.179	-0.091
-575.733	734.927	-0.033	-0.088
-574.719	-129.642	-0.151	0.021
-573.704	371.602	0.143	-0.293
-572.690	-200.000	0.068	-0.338
-571.675	-146.686	-0.063	-0.005
-570.661	-154.457	-0.073	-0.005
-569.646	800.000	0.029	-0.103
-568.631	-57.059	-0.215	0.095
-567.617	800.000	0.110	-0.327
-566.602	-49.071	0.051	0.024
-565.588	-200.000	-0.059	0.317
-564.573	-9.649	0.212	-0.143
-563.558	436.002	-0.142	-0.310
-562.544	-200.000	0.045	0.380
-561.529	-25.399	0.343	-0.204
-560.515	204.678	-0.113	0.176
-559.500	-200.000	-0.002	0.027
-558.485	-54.874	0.391	-0.178
-557.471	-156.193	-0.133	-0.008
-556.456	-6.271	-0.069	-0.047
-555.442	64.278	-0.252	-0.256
-554.427	-170.450	-0.222	0.008
-553.412	-200.000	-0.022	0.150
-552.398	-200.000	0.017	0.226
-551.383	690.720	0.035	0.092
-550.369	-115.658	0.228	0.043
-549.354	-129.523	-0.237	-0.033
-548.339	14.929	-0.160	-0.126
-547.325	255.937	0.085	-0.147
-546.310	800.000	0.087	0.281
-545.296	-42.314	0.159	-0.082
-544.281	45.308	-0.192	-0.178
-543.266	232.697	-0.175	-0.290
-542.252	-81.918	-0.154	-0.051
-541.237	-75.887	0.241	0.086
-540.223	7.033	0.163	0.122
-539.208	707.211	-0.063	0.168
-538.193	-200.000	-0.021	0.171
-537.179	13.310	-0.383	0.299
-536.164	-200.000	0.018	0.238
-535.150	19.755	0.182	-0.147
-534.135	-200.000	0.016	0.116
-533.121	455.373	0.129	0.288
-532.106	-107.194	0.171	-0.038
-531.091	358.687	0.044	0.088
-530.077	366.236	0.172	0.349
-529.062	-121.647	-0.313	-0.052
-528.048	-131.571	0.067	0.009
-527.033	106.496	-0.052	0.061
-526.018	-118.956	-0.429	0.076
-525.004	348.444	0.111	0.220
-523.989	-33.552	0.272	-0.151
-522.975	-28.443	-0.253	-0.147
-521.960	-200.000	-0.006	-0.166
-520.945	-42.966	-0.220	-0.112
-519.931	-59.661	-0.123	0.053
-518.916	194.398	0.090	0.137
-517.902	413.797	-0.005	-0.010
-516.887	-29.064	-0.053	-0.031
-515.872	30.815	0.062	-0.054
-514.858	39.832	0.332	0.300
-513.843	-2.631	0.440	0.310
-512.829	50.206	-0.071	-0.067
-511.814	-34.857	-0.170	-0.093
-510.799	122.511	-0.069	-0.086
-509.785	24.662	-0.150	-0.125
-508.770	-41.141	0.220	0.114
-507.756	-91.946	-0.306	0.087
-506.741	-200.000	0.044	-0.408
-505.726	-1.670	-0.141	-0.100
-504.712	177.244	0.206	-0.301
-503.697	206.121	-0.080	0.125
-502.683	800.000	-0.099	-0.403
-501.668	-178.708	-0.353	0.008
-500.653	-200.000	-0.001	-0.057
-499.639	-12.350	-0.121	-0.080
-498.624	-64.118	-0.086	-0.035
-497.610	12.740	0.225	0.175
-496.595	190.077	-0.052	-0.079
-495.581	19.355	-0.193	-0.155
-494.566	-142.438	0.456	0.045
-493.551	-122.259	0.106	0.017
-492.537	-200.000	-0.058	-0.289
-491.522	66.950	0.323	-0.330
-490.508	-104.848	-0.205	-0.047
-489.493	37.387	-0.065	0.058
-488.478	92.591	0.139	0.158
-487.464	-134.978	0.227	-0.028
-486.449	196.344	-0.120	0.184
-485.435	27.940	-0.429	0.363
-484.420	-154.077	-0.318	0.022
-483.405	800.000	-0.062	0.251
-482.391	25.006	-0.141	-0.118
-481.376	-200.000	0.009	0.421
-480.362	-200.000	0.040	0.278
-479.347	-200.000	-0.015	-0.238
-478.332	16.028	-0.053	-0.042
-477.318	-200.000	-0.043	0.475
-476.303	-200.000	-0.010	-0.072
-475.289	-84.588	-0.235	0.074
-474.274	-200.000	0.104	-0.469
-473.259	-200.000	-0.005	0.039
-472.245	151.599	-0.099	0.136
-471.230	800.000	0.048	-0.192
-470.216	-200.000	-0.057	0.281
-469.201	123.760	0.173	0.217
-468.186	609.206	0.025	0.062
-467.172	-36.535	0.058	-0.031
-466.157	-75.649	0.164	-0.059
-465.143	13.313	0.048	0.037
-464.128	-200.000	0.021	-0.305
-463.113	800.000	-0.086	-0.281
-462.099	-27.298	0.134	0.078
-461.084	-122.384	-0.075	0.012
-460.070	416.564	0.092	0.198
-459.055	101.612	0.084	0.098
-458.040	-41.277	0.219	0.114
-457.026	-200.000	-0.019	-0.114
-456.011	-86.511	-0.097	0.030
-454.997	-129.916	0.031	0.004
-453.982	192.018	-0.192	0.291
-452.968	393.315	0.079	0.165
-451.953	52.795	0.138	0.132
-450.938	112.205	-0.075	-0.090
-449.924	-200.000	-0.001	-0.145
-448.909	-58.571	0.086	-0.037
-447.895	-118.399	0.186	0.033
-446.880	22.638	-0.257	-0.211
-445.865	54.807	-0.161	-0.156
-444.851	76.523	0.058	-0.062
-443.836	-155.754	0.187	-0.012
-442.822	800.000	-0.087	-0.308
-441.807	237.322	-0.164	0.273
-440.792	-200.000	0.018	-0.289
-439.778	-110.685	-0.426	0.088
-438.763	-100.058	-0.384	-0.096
-437.749	-200.000	0.031	-0.189
-436.734	120.357	-0.117	0.146
-435.719	-200.000	-0.025	0.186
-434.705	132.348	-0.179	0.231
-433.690	32.940	-0.203	-0.176
-432.676	800.000	-0.020	-0.071
-431.661	176.410	0.083	-0.121
-430.646	800.000	-0.067	0.241
-429.632	59.111	-0.044	0.043
-428.617	-19.959	0.065	0.040
-427.603	234.328	-0.165	-0.273
-426.588	89.538	0.107	0.120
-425.573	-200.000	-0.049	0.281
-424.559	-124.956	-0.366	0.056
-423.544	-147.766	0.113	-0.010
-422.530	800.000	0.008	0.029
-421.515	206.845	0.109	-0.170
-420.500	-110.096	-0.236	-0.049
-419.486	88.229	-0.049	0.054
-418.471	800.000	-0.100	0.326
-417.457	-107.251	0.153	0.034
-416.442	98.244	0.035	-0.040
-415.428	657.334	0.128	0.329
-414.413	800.000	0.021	-0.089
-413.398	293.993	-0.028	-0.051
-412.384	-89.105	-0.220	-0.065
-411.369	-200.000	0.059	0.285
-410.355	10.755	-0.297	-0.227
-409.340	70.630	-0.053	0.055
-408.325	78.294	-0.287	-0.307
-407.311	-36.998	0.103	-0.056
-406.296	538.970	-0.019	0.046
-405.282	-149.295	-0.216	-0.017
-404.267	90.408	0.097	-0.109
-403.252	-200.000	0.042	0.209
-402.238	209.865	-0.168	-0.264
-401.223	643.613	0.104	0.264
-400.209	183.272	-0.141	0.209
-399.194	-59.243	0.207	-0.089
-398.179	-200.000	0.008	0.174
-397.165	-16.033	-0.181	-0.115
-396.150	193.284	-0.093	0.140
-395.136	119.323	0.107	-0.133
-394.121	-172.449	0.300	-0.010
-393.106	800.000	-0.049	-0.143
-392.092	-200.000	-0.091	-0.459
-391.077	160.823	0.048	0.067
-390.063	325.185	-0.068	-0.130
-389.048	-79.507	0.062	0.021
-388.033	171.977	-0.148	0.214
-387.019	-132.288	-0.328	-0.042
-386.004	183.853	-0.202	0.299
-384.990	36.543	-0.329	-0.290
-383.975	22.686	0.196	-0.160
-382.960	800.000	0.117	0.337
-381.946	468.504	-0.131	0.295
-380.931	-200.000	0.005	-0.064
-379.917	153.416	-0.410	-0.562
-378.902	-62.795	-0.154	-0.064
-377.888	-5.626	0.119	-0.081
-376.873	-45.968	0.177	-0.087
-375.858	311.058	-0.151	-0.282
-374.844	631.075	0.022	0.054
-373.829	-200.000	0.058	-0.271
-372.815	41.541	0.204	0.185
-371.800	-105.035	-0.505	-0.116
-370.785	-61.363	-0.234	-0.099
-369.771	187.911	-0.042	-0.063
-368.756	131.921	0.192	-0.247
-367.742	-12.566	0.422	-0.275
-366.727	-38.628	0.437	-0.231
-365.712	-10.735	0.243	-0.161
-364.698	-0.090	0.098	0.070
-363.683	-21.026	0.193	0.118
-362.669	146.451	-0.234	0.314
-361.654	0.820	0.040	0.029
-360.639	800.000	-0.076	-0.254
-359.625	44.044	0.068	-0.062
-358.610	348.848	0.101	-0.199
-357.596	618.910	0.027	-0.067
-356.581	59.037	0.123	-0.121
-355.566	-200.000	-0.022	-0.275
-354.552	3.871	0.080	0.059
-353.537	45.507	0.305	0.281
-352.523	-200.000	-0.045	0.251
-351.508	-150.967	-0.071	-0.005
-350.493	-29.213	0.093	0.053
-349.479	121.152	0.205	0.255
-348.464	107.341	-0.160	0.190
-347.450	-72.495	-0.019	-0.007
-346.435	38.759	0.108	-0.097
-345.420	-82.625	0.192	0.062
-344.406	464.065	0.224	0.500
-343.391	-18.751	0.093	0.058
-342.377	-191.612	0.283	0.003
-341.362	298.231	-0.089	-0.164
-340.348	63.030	0.013	0.013
-339.333	-16.311	0.100	0.063
-338.318	-101.046	-0.418	0.102
-337.304	-200.000	0.011	0.271
-336.289	800.000	-0.064	0.260
-335.275	-23.327	0.272	-0.163
-334.260	-123.669	0.247	0.039
-333.245	-24.534	0.028	0.017
-332.231	593.070	0.056	-0.138
-331.216	140.052	-0.131	0.172
-330.202	-113.738	0.414	-0.081
-329.187	-200.000	0.012	0.116
-328.172	800.000	0.095	-0.396
-327.158	-30.431	0.216	-0.122
-326.143	800.000	-0.024	-0.067
-325.129	-8.847	0.164	0.110
-324.114	266.388	0.039	0.068
-323.099	800.000	-0.068	0.220
-322.085	-200.000	0.055	-0.242
-321.070	-79.496	-0.348	-0.117
-320.056	-200.000	0.045	-0.495
-319.041	1.525	0.090	0.065
-318.026	-57.315	-0.135	0.059
-317.012	176.580	-0.179	-0.260
-315.997	-62.498	0.415	-0.172
-314.983	-200.000	0.243	0.001
-313.968	480.876	0.105	-0.238
-312.953	-131.898	-0.301	-0.039
-311.939	93.672	-0.090	-0.102
-310.924	317.641	-0.056	0.105
-309.910	800.000	-0.063	0.250
-308.895	-90.797	0.212	0.061
-307.880	800.000	0.038	-0.146
-306.866	-200.000	-0.024	0.154
-305.851	-200.000	0.003	0.119
-304.837	-134.846	-0.305	-0.037
-303.822	-154.480	-0.202	0.014
-302.807	800.000	0.037	-0.155
-301.793	-200.000	0.015	-0.084
-300.778	-200.000	-0.060	0.450
-299.764	15.088	-0.062	0.048
-298.749	196.611	-0.092	0.140
-297.735	263.131	-0.138	0.239
-296.720	-7.240	0.116	-0.079
-295.705	-161.200	-0.200	0.010
-294.691	-130.516	0.176	-0.024
-293.676	19.264	0.072	0.058
-292.662	41.200	0.219	0.197
-291.647	467.709	0.100	-0.223
-290.632	-200.000	0.025	0.251
-289.618	380.227	0.184	0.375
-288.603	721.499	0.072	-0.190
-287.589	-200.000	0.020	-0.209
-286.574	18.188	0.084	-0.067
-285.559	18.039	-0.324	0.257
-284.545	89.731	0.128	-0.142
-283.530	114.078	-0.070	-0.085
-282.516	113.502	-0.262	0.318
-281.501	-200.000	0.023	0.320
-280.486	-200.000	0.030	-0.269
-279.472	16.114	0.109	0.086
-278.457	33.947	0.113	0.098
-277.443	386.893	0.061	-0.126
-276.428	-200.000	0.060	0.267
-275.413	-116.226	-0.217	0.040
-274.399	-111.490	-0.207	0.042
-273.384	277.167	0.167	0.296
-272.370	25.433	0.136	0.112
-271.355	31.530	-0.177	0.151
-270.340	679.180	-0.082	0.214
-269.326	-200.000	-0.005	0.057
-268.311	90.037	-0.140	-0.156
-267.297	-200.000	0.008	0.117
-266.282	232.240	-0.172	0.281
-265.267	-76.999	0.176	-0.061
-264.253	146.576	0.190	0.255
-263.238	116.814	0.184	-0.225
-262.224	73.564	0.150	0.156
-261.209	-200.000	-0.002	0.113
-260.195	-17.394	0.330	-0.207
-259.180	28.317	0.079	0.067
-258.165	800.000	-0.086	0.286
-257.151	-26.706	-0.085	0.049
-256.136	-162.586	0.284	0.014
-255.122	28.790	-0.203	-0.172
-254.107	-200.000	-0.020	-0.110
-253.092	-200.000	-0.018	0.354
-252.078	157.332	-0.115	0.159
-251.063	-37.850	-0.205	0.108
-250.049	148.854	-0.082	-0.110
-249.034	-126.879	-0.130	-0.019
-248.019	-200.000	-0.044	-0.208
-247.005	-200.000	0.002	0.115
-245.990	-98.769	0.120	-0.030
-244.976	142.864	0.074	0.098
-243.961	325.681	-0.112	-0.213
-242.946	800.000	0.080	0.331
-241.932	-115.982	0.135	-0.025
-240.917	211.890	0.132	-0.206
-239.903	-79.977	-0.034	-0.011
-238.888	-33.291	0.091	-0.050
-237.873	27.182	0.202	0.168
-236.859	116.065	-0.252	0.307
-235.844	-140.553	-0.047	0.005
-234.830	-64.223	0.012	-0.005
-233.815	-200.000	-0.010	-0.565
-232.800	800.000	-0.071	-0.295
-231.786	-200.000	-0.193	-0.001
-230.771	90.149	-0.107	-0.119
-229.757	375.670	-0.103	-0.208
-228.742	-200.000	0.003	0.208
-227.727	-59.361	-0.253	-0.108
-226.713	-129.015	0.324	0.045
-225.698	544.474	0.270	-0.642
-224.684	38.387	-0.062	0.055
-223.669	-5.172	0.098	-0.067
-222.655	-200.000	0.024	0.212
-221.640	-14.366	0.413	0.265
-220.625	-117.874	-0.274	0.049
-219.611	-165.457	0.066	-0.003
-218.596	-154.085	-0.288	-0.019
-217.582	228.161	0.016	0.026
-216.567	-167.020	-0.073	-0.003
-215.552	-127.753	0.294	-0.042
-214.538	63.528	-0.286	-0.285
-213.523	261.505	-0.158	-0.272
-212.509	-128.672	-0.042	-0.006
-211.494	297.660	0.057	-0.104
-210.479	-200.000	0.013	0.077
-209.465	-95.878	0.122	0.032
-208.450	130.564	0.133	0.170
-207.436	-19.918	0.289	0.178
-206.421	54.929	0.277	0.266
-205.406	800.000	-0.075	-0.240
-204.392	-23.681	0.160	-0.095
-203.377	109.099	0.216	-0.256
-202.363	139.147	-0.105	-0.137
-201.348	-200.000	-0.019	-0.155
-200.333	156.578	-0.127	-0.174
-199.319	741.412	0.014	-0.039
-198.304	285.130	0.118	0.212
-197.290	412.321	0.134	0.284
-196.275	-178.552	0.233	0.005
-195.260	410.746	-0.111	0.235
-194.246	-200.000	-0.027	0.211
-193.231	147.320	0.054	-0.072
-192.217	-148.826	0.382	0.031
-191.202	-200.000	0.026	-0.170
-190.187	-200.000	-0.077	-0.413
-189.173	251.900	-0.178	-0.301
-188.158	-167.372	0.197	-0.008
-187.144	15.804	0.188	0.147
-186.129	-142.264	0.266	-0.026
-185.114	-200.000	-0.059	-0.292
-184.100	216.391	0.062	-0.097
-183.085	-113.324	-0.154	-0.030
-182.071	296.973	-0.111	-0.201
-181.056	-200.000	-0.006	-0.030
-180.042	262.880	0.231	0.398
-179.027	-200.000	0.037	0.247
-178.012	-162.608	0.322	0.016
-176.998	224.042	-0.052	-0.084
-175.983	-52.145	0.156	-0.072
-174.969	9.856	0.155	-0.117
-173.954	294.368	0.025	-0.045
-172.939	-75.952	0.210	0.074
-171.925	120.306	0.205	0.252
-170.910	-63.375	0.297	-0.121
-169.896	49.606	0.061	0.057
-168.881	-8.488	-0.082	-0.055
-167.866	-105.620	-0.312	0.070
-166.852	104.418	0.129	-0.151
-165.837	-200.000	-0.041	-0.187
-164.823	34.934	-0.070	-0.061
-163.808	-116.858	-0.074	-0.014
-162.793	34.122	-0.205	-0.177
-161.779	-200.000	-0.005	-0.079
-160.764	-121.432	0.163	-0.027
-159.750	-100.890	-0.077	-0.019
-158.735	197.585	0.114	-0.173
-157.720	-189.636	-0.065	-0.001
-156.706	25.894	-0.206	-0.170
-155.691	652.521	0.117	-0.298
-154.677	800.000	-0.056	0.217
-153.662	-56.709	-0.330	0.145
-152.647	109.183	0.190	0.226
-151.633	-112.271	0.359	-0.071
-150.618	-200.000	0.010	-0.091
-149.604	-151.012	0.306	0.023
-148.589	-68.428	-0.254	-0.098
-147.574	560.447	0.045	-0.108
-146.560	-148.762	0.362	-0.029
-145.545	-200.000	-0.102	-0.445
-144.531	560.018	-0.142	-0.339
-143.516	-200.000	0.042	0.361
-142.502	189.845	-0.055	-0.082
-141.487	-200.000	0.156	0.001
-140.472	-158.730	0.180	0.010
-139.458	-115.700	-0.194	0.036
-138.443	-43.582	0.245	0.122
-137.429	-19.985	0.276	-0.169
-136.414	-50.737	0.190	0.089
-135.399	-79.325	-0.110	0.037
-134.385	-200.000	0.009	0.230
-133.370	472.340	-0.065	-0.145
-132.356	-200.000	-0.006	0.099
-131.341	-200.000	-0.002	0.236
-130.326	245.545	-0.041	-0.069
-129.312	-27.331	-0.240	-0.139
-128.297	-106.188	0.255	-0.057
-127.283	-62.356	-0.318	0.131
-126.268	-59.341	0.340	-0.145
-125.253	-200.000	0.058	-0.394
-124.239	-128.040	-0.166	0.024
-123.224	-35.823	0.293	0.157
-122.210	800.000	0.139	-0.417
