DTS Sentinel unit serial number:	SN413079Multiplexer serial number:	ORYXHardware model number:	OX4-SRSoftware version number:	ORYX F/W v4.00 Oryx Data Collector v3.7.2.0data status	okinstallation	princeton_trtdifferential loss correction	single-endedforward channel	channel 1reverse channel	N/Adate	2019/09/16time	10:10:35forward acquisition time	60.00reverse acquisition time	0.00gamma	496.2192k internal	0.2313k external	0.2313temperature offset calibration	0.9965default loss term (dB/km)	0.3790temperature slope calibration	1.0000multiplexer offset coefficient	1.0000multiplexer slope coefficient	1.0000fibre end	0.00T internal ref (°C)	34.08T ext. ref 1 (°C)	12.43T ext. ref 2 (°C)	33.03length (m)	temperature (°C)	Stokes	anti-Stokes-747.200	-200.000	-0.000	-0.207
-746.185	108.072	0.104	0.126
-745.171	-27.450	0.242	-0.143
-744.156	-97.721	-0.264	0.069
-743.142	201.943	0.082	-0.129
-742.127	800.000	0.042	0.152
-741.112	-175.229	0.287	0.008
-740.098	-200.000	-0.003	0.324
-739.083	-37.571	-0.281	0.152
-738.069	-102.884	0.261	0.063
-737.054	-171.608	0.283	-0.009
-736.039	-100.076	0.220	0.056
-735.025	77.184	-0.076	0.081
-734.010	-98.479	-0.242	0.063
-732.996	800.000	0.047	-0.171
-731.981	330.234	0.111	-0.217
-730.966	-40.605	-0.136	-0.071
-729.952	237.508	0.145	-0.243
-728.937	-200.000	0.057	-0.417
-727.923	-71.512	-0.249	0.095
-726.908	-200.000	0.004	0.151
-725.894	-149.864	-0.256	0.020
-724.879	-155.897	-0.184	0.012
-723.864	215.993	-0.049	0.079
-722.850	243.744	-0.055	0.094
-721.835	44.885	-0.251	0.234
-720.821	-34.590	0.085	0.047
-719.806	-121.747	-0.122	0.020
-718.791	-13.639	-0.226	0.148
-717.777	-22.252	-0.115	-0.071
-716.762	-200.000	-0.009	0.122
-715.748	749.220	0.106	0.289
-714.733	-200.000	-0.010	-0.143
-713.718	-40.322	0.154	-0.081
-712.704	603.353	0.089	-0.225
-711.689	-111.062	-0.439	-0.091
-710.675	-123.775	-0.275	0.044
-709.660	33.546	-0.064	-0.057
-708.645	-131.344	0.183	0.024
-707.631	453.232	-0.032	-0.072
-706.616	-9.875	0.199	-0.134
-705.602	550.319	0.144	0.350
-704.587	63.879	-0.461	-0.470
-703.572	-33.309	-0.165	0.092
-702.558	-117.337	-0.048	-0.009
-701.543	359.322	-0.067	-0.136
-700.529	7.347	0.142	-0.108
-699.514	-94.524	-0.132	-0.036
-698.499	-200.000	0.020	0.125
-697.485	-200.000	0.029	-0.139
-696.470	-200.000	0.073	-0.523
-695.456	74.361	-0.117	0.125
-694.441	-152.869	-0.312	-0.022
-693.426	-95.142	-0.281	-0.077
-692.412	-70.267	-0.148	0.057
-691.397	134.812	-0.016	-0.020
-690.383	55.952	-0.152	-0.150
-689.368	-108.481	0.254	0.055
-688.354	-19.896	-0.468	0.293
-687.339	-107.797	0.047	0.010
-686.324	-137.254	-0.223	0.026
-685.310	-200.000	0.006	0.234
-684.295	95.030	-0.221	0.255
-683.281	-44.404	-0.146	-0.074
-682.266	107.486	-0.222	-0.267
-681.251	-81.572	0.155	0.052
-680.237	-37.089	-0.215	0.116
-679.222	-0.991	-0.129	-0.093
-678.208	-150.445	0.214	0.017
-677.193	45.729	-0.153	-0.143
-676.178	-164.418	-0.314	-0.015
-675.164	49.612	0.144	0.137
-674.149	-110.710	0.147	-0.031
-673.135	161.936	0.123	-0.174
-672.120	-29.322	-0.265	-0.153
-671.105	427.149	0.096	0.208
-670.091	-165.324	0.037	0.002
-669.076	549.604	0.012	0.029
-668.062	-200.000	0.000	0.188
-667.047	800.000	0.075	0.262
-666.032	97.596	0.116	-0.135
-665.018	46.704	0.180	-0.169
-664.003	800.000	0.043	-0.142
-662.989	-37.476	-0.343	0.185
-661.974	-30.891	-0.117	-0.067
-660.959	-143.455	0.217	0.021
-659.945	43.269	-0.275	-0.254
-658.930	100.076	0.045	-0.052
-657.916	159.682	-0.155	-0.219
-656.901	162.195	0.062	-0.088
-655.886	181.100	-0.086	-0.128
-654.872	-200.000	-0.016	-0.193
-653.857	-69.109	-0.278	0.108
-652.843	-200.000	0.092	0.438
-651.828	-200.000	-0.031	0.236
-650.814	-24.032	0.244	0.147
-649.799	267.545	-0.098	-0.173
-648.784	-200.000	0.008	0.208
-647.770	561.885	-0.063	-0.155
-646.755	-177.126	0.264	-0.007
-645.741	-134.634	-0.064	0.008
-644.726	-61.723	0.301	0.127
-643.711	566.373	-0.055	-0.134
-642.697	-135.497	0.075	0.009
-641.682	411.683	-0.117	0.251
-640.668	-200.000	-0.029	0.240
-639.653	-98.170	-0.207	0.054
-638.638	181.036	0.065	0.097
-637.624	394.906	0.113	0.238
-636.609	-164.869	0.455	-0.021
-635.595	-200.000	0.026	-0.227
-634.580	110.989	-0.046	0.055
-633.565	478.423	0.059	-0.135
-632.551	274.681	-0.110	-0.197
-631.536	-35.284	-0.055	0.030
-630.522	36.005	0.104	0.092
-629.507	6.774	0.105	-0.079
-628.492	-61.476	-0.158	-0.067
-627.478	800.000	0.024	0.101
-626.463	-135.287	-0.291	0.035
-625.449	-115.997	0.209	0.039
-624.434	-18.170	-0.119	-0.075
-623.419	800.000	0.061	0.173
-622.405	-95.331	0.180	0.049
-621.390	0.376	-0.374	-0.270
-620.376	-80.995	-0.085	-0.028
-619.361	-102.792	-0.072	0.017
-618.346	175.842	0.174	-0.254
-617.332	-200.000	0.041	0.265
-616.317	63.535	-0.256	-0.259
-615.303	-200.000	0.005	0.196
-614.288	-200.000	0.009	-0.062
-613.273	340.222	0.066	-0.130
-612.259	-185.646	-0.547	0.008
-611.244	361.109	0.118	0.239
-610.230	800.000	0.046	-0.141
-609.215	-72.957	0.086	-0.032
-608.201	-200.000	-0.025	0.133
-607.186	800.000	-0.160	-0.494
-606.171	88.704	-0.049	0.055
-605.157	48.430	0.218	-0.206
-604.142	10.495	-0.154	-0.119
-603.128	96.603	-0.133	-0.154
-602.113	-183.152	-0.093	0.002
-601.098	-135.022	-0.125	-0.015
-600.084	188.655	-0.198	0.299
-599.069	-122.752	0.279	0.046
-598.055	659.372	-0.059	-0.152
-597.040	800.000	-0.108	0.334
-596.025	-80.825	-0.199	-0.067
-595.011	608.884	0.055	-0.139
-593.996	-184.000	-0.300	0.005
-592.982	-136.056	-0.360	-0.043
-591.967	-200.000	0.109	0.000
-590.952	-200.000	-0.056	0.419
-589.938	-17.133	-0.163	-0.103
-588.923	212.764	0.096	-0.153
-587.909	-200.000	0.015	0.308
-586.894	-200.000	0.032	-0.278
-585.879	134.301	0.312	-0.408
-584.865	-200.000	0.009	0.124
-583.850	-84.290	0.107	0.034
-582.836	20.335	-0.147	0.120
-581.821	10.475	0.188	0.144
-580.806	-15.489	-0.222	0.143
-579.792	-200.000	0.021	0.311
-578.777	168.993	0.249	0.358
-577.763	-21.608	0.124	0.076
-576.748	177.998	-0.187	0.275
-575.733	45.093	0.065	-0.060
-574.719	-77.258	0.092	0.032
-573.704	-200.000	0.011	0.167
-572.690	56.320	-0.123	0.120
-571.675	56.680	0.025	-0.024
-570.661	-106.042	-0.171	0.039
-569.646	-200.000	-0.001	-0.090
-568.631	419.729	0.204	0.440
-567.617	155.145	0.148	0.205
-566.602	-35.041	0.192	-0.106
-565.588	-32.350	-0.207	-0.116
-564.573	-199.758	0.120	0.001
-563.558	-109.932	-0.087	-0.018
-562.544	-171.732	-0.220	0.007
-561.529	-200.000	-0.016	-0.154
-560.515	-37.138	0.268	-0.144
-559.500	139.419	0.138	-0.182
-558.485	-98.806	0.103	0.026
-557.471	-200.000	0.019	-0.094
-556.456	-166.114	0.333	-0.014
-555.442	25.242	-0.261	0.218
-554.427	800.000	-0.126	0.391
-553.412	-100.491	0.101	0.025
-552.398	-179.382	0.140	-0.003
-551.383	-200.000	-0.011	0.273
-550.369	-101.434	-0.238	-0.058
-549.354	-200.000	-0.014	-0.114
-548.339	-38.896	-0.085	0.045
-547.325	60.779	-0.118	0.118
-546.310	27.961	-0.231	-0.196
-545.296	-112.391	-0.181	0.036
-544.281	7.920	-0.307	-0.232
-543.266	216.307	0.100	0.160
-542.252	59.533	-0.088	-0.088
-541.237	130.245	0.124	-0.160
-540.223	-55.629	-0.133	0.060
-539.208	-118.015	-0.123	0.022
-538.193	-137.125	0.057	0.007
-537.179	-200.000	-0.004	-0.177
-536.164	800.000	-0.043	-0.134
-535.150	800.000	-0.097	0.329
-534.135	60.034	0.179	0.178
-533.121	17.912	-0.295	0.237
-532.106	367.781	0.079	-0.161
-531.091	12.592	0.040	-0.031
-530.077	-35.971	-0.144	-0.078
-529.062	369.273	0.049	-0.100
-528.048	800.000	-0.109	0.337
-527.033	800.000	-0.070	0.198
-526.018	-41.295	0.229	-0.119
-525.004	-1.344	-0.131	-0.093
-523.989	-90.667	-0.291	0.084
-522.975	-134.606	0.076	0.009
-521.960	-94.037	-0.121	-0.034
-520.945	-69.605	0.271	-0.104
-519.931	-114.851	-0.218	-0.042
-518.916	126.326	-0.118	-0.151
-517.902	800.000	0.069	0.245
-516.887	-155.435	-0.365	-0.024
-515.872	-97.261	0.216	0.057
-514.858	-25.204	0.047	0.028
-513.843	-164.168	-0.016	0.001
-512.829	800.000	-0.042	0.183
-511.814	-9.076	0.190	0.128
-510.799	-42.238	0.299	0.153
-509.785	55.300	0.192	0.186
-508.770	-37.534	0.228	0.122
-507.756	800.000	0.051	-0.181
-506.741	-75.444	-0.082	-0.029
-505.726	800.000	0.010	0.031
-504.712	-113.048	-0.488	-0.097
-503.697	203.373	-0.286	0.444
-502.683	-200.000	0.017	-0.193
-501.668	267.871	-0.087	0.153
-500.653	1.512	0.001	-0.001
-499.639	211.621	-0.076	-0.120
-498.624	-11.579	-0.378	-0.249
-497.610	278.858	-0.156	-0.279
-496.595	37.916	0.079	0.070
-495.581	25.378	0.155	0.129
-494.566	1.436	-0.218	0.157
-493.551	-200.000	-0.016	0.117
-492.537	-78.045	-0.381	-0.132
-491.522	360.985	-0.111	0.224
-490.508	646.454	-0.067	0.172
-489.493	-80.590	0.279	0.093
-488.478	-27.479	0.151	-0.088
-487.464	-49.002	0.358	-0.172
-486.449	-130.736	-0.246	-0.033
-485.435	-200.000	-0.001	-0.147
-484.420	-127.869	-0.203	-0.029
-483.405	-163.197	-0.416	0.020
-482.391	186.787	-0.182	0.273
-481.376	22.061	0.080	0.065
-480.362	-92.607	-0.220	-0.062
-479.347	-37.283	-0.312	0.168
-478.332	674.071	0.070	0.183
-477.318	-158.454	-0.337	0.020
-476.303	-184.330	0.197	-0.003
-475.289	-200.000	0.049	-0.279
-474.274	10.352	0.150	-0.115
-473.259	616.864	-0.026	0.066
-472.245	128.915	0.121	-0.155
-471.230	97.343	-0.294	-0.339
-470.216	-128.487	0.172	0.025
-469.201	-187.801	0.148	0.002
-468.186	800.000	0.088	0.280
-467.172	-153.840	-0.199	0.014
-466.157	443.664	0.106	-0.233
-465.143	-51.043	0.180	0.085
-464.128	-200.000	0.015	-0.312
-463.113	800.000	-0.139	-0.418
-462.099	800.000	0.051	0.210
-461.084	33.567	0.136	-0.118
-460.070	125.628	-0.108	0.136
-459.055	96.820	-0.157	-0.181
-458.040	55.525	-0.057	-0.055
-457.026	-17.455	0.160	-0.101
-456.011	-200.000	0.002	0.029
-454.997	210.087	0.057	-0.090
-453.982	-200.000	-0.030	-0.189
-452.968	-167.678	0.209	0.008
-451.953	-200.000	-0.027	-0.496
-450.938	73.334	-0.061	-0.064
-449.924	800.000	0.084	-0.266
-448.909	800.000	0.025	-0.084
-447.895	212.841	-0.143	0.226
-446.880	800.000	-0.153	-0.537
-445.865	800.000	0.071	0.286
-444.851	248.527	-0.251	0.425
-443.836	202.485	-0.329	0.509
-442.822	28.850	-0.066	-0.056
-441.807	91.237	0.068	0.076
-440.792	351.623	-0.058	0.115
-439.778	-106.249	-0.097	-0.022
-438.763	-200.000	-0.021	0.098
-437.749	-200.000	0.015	-0.077
-436.734	-131.449	0.196	-0.026
-435.719	-34.483	0.058	0.032
-434.705	250.549	-0.200	0.341
-433.690	121.443	0.178	-0.222
-432.676	-65.347	0.198	-0.080
-431.661	-21.823	-0.088	0.053
-430.646	800.000	0.109	0.393
-429.632	261.740	-0.046	0.081
-428.617	-65.455	-0.359	0.145
-427.603	160.908	-0.242	0.339
-426.588	-200.000	0.003	-0.328
-425.573	129.438	-0.140	0.179
-424.559	552.643	0.177	-0.425
-423.544	-200.000	0.033	-0.162
-422.530	-200.000	0.040	0.245
-421.515	800.000	0.041	-0.124
-420.500	-178.823	-0.292	-0.007
-419.486	-200.000	-0.024	-0.318
-418.471	800.000	-0.046	0.139
-417.457	-200.000	-0.017	0.087
-416.442	83.804	0.144	0.157
-415.428	-60.302	0.057	0.024
-414.413	-200.000	-0.016	-0.299
-413.398	72.082	0.099	0.103
-412.384	-189.565	0.178	-0.002
-411.369	-62.155	-0.078	-0.033
-410.355	800.000	0.147	0.523
-409.340	-32.084	0.096	-0.054
-408.325	-12.223	-0.179	0.117
-407.311	389.729	0.060	0.124
-406.296	601.854	-0.132	0.328
-405.282	-173.711	0.379	0.011
-404.267	41.991	0.172	0.156
-403.252	-133.698	-0.215	-0.027
-402.238	27.983	-0.100	0.085
-401.223	-64.657	0.121	0.049
-400.209	-200.000	-0.050	0.305
-399.194	-109.373	0.146	-0.031
-398.179	-59.171	-0.183	0.079
-397.165	-83.273	-0.391	-0.126
-396.150	-25.247	0.137	0.081
-395.136	-182.577	-0.177	-0.003
-394.121	15.905	0.085	0.067
-393.106	-52.623	0.261	0.120
-392.092	371.820	-0.081	-0.164
-391.077	127.138	-0.058	0.073
-390.063	800.000	-0.069	-0.246
-389.048	-133.725	-0.126	0.016
-388.033	-39.625	0.153	-0.080
-387.019	181.089	-0.107	0.157
-386.004	121.150	-0.025	-0.031
-384.990	-174.987	0.134	0.004
-383.975	743.457	0.177	0.477
-382.960	-51.747	-0.316	0.147
-381.946	13.541	-0.128	-0.099
-380.931	162.571	-0.048	0.067
-379.917	465.036	0.070	0.157
-378.902	-16.186	0.268	0.170
-377.888	-200.000	-0.005	0.102
-376.873	147.967	0.110	0.148
-375.858	-200.000	-0.035	-0.285
-374.844	-200.000	-0.041	0.245
-373.829	104.821	-0.088	0.103
-372.815	298.688	0.251	-0.461
-371.800	274.191	-0.154	-0.273
-370.785	31.197	0.104	0.089
-369.771	-158.732	0.164	0.009
-368.756	34.631	0.094	0.082
-367.742	-166.581	0.225	0.009
-366.727	-112.517	-0.156	0.031
-365.712	58.850	-0.123	-0.121
-364.698	789.677	-0.099	-0.273
-363.683	-85.556	0.138	-0.043
-362.669	-81.957	-0.047	-0.015
-361.654	-167.644	-0.101	0.004
-360.639	-101.230	0.277	0.068
-359.625	800.000	0.073	0.239
-358.610	200.847	0.176	-0.270
-357.596	800.000	-0.114	0.379
-356.581	-22.840	0.302	-0.182
-355.566	-72.050	-0.070	0.026
-354.552	275.251	0.075	-0.132
-353.537	-200.000	-0.021	-0.210
-352.523	136.090	0.273	0.355
-351.508	-71.238	0.252	-0.094
-350.493	326.474	-0.071	-0.136
-349.479	800.000	0.111	0.308
-348.464	-200.000	-0.005	-0.068
-347.450	407.337	-0.070	0.148
-346.435	113.248	0.145	0.175
-345.420	-119.761	0.190	0.033
-344.406	535.732	-0.042	0.099
-343.391	11.050	-0.179	0.137
-342.377	10.504	0.042	-0.032
-341.362	-27.697	0.087	-0.051
-340.348	-115.204	-0.017	0.003
-339.333	-190.030	0.264	-0.003
-338.318	-200.000	-0.012	-0.081
-337.304	-92.936	-0.293	-0.082
-336.289	-60.205	0.135	0.057
-335.275	-162.926	-0.355	-0.017
-334.260	617.740	-0.024	0.061
-333.245	191.823	-0.197	-0.296
-332.231	541.554	-0.112	-0.266
-331.216	-55.039	0.094	0.042
-330.202	800.000	-0.159	-0.491
-329.187	-16.915	-0.197	-0.124
-328.172	-82.717	-0.215	0.069
-327.158	-65.268	-0.058	0.023
-326.143	178.242	-0.067	0.097
-325.129	604.842	-0.043	-0.107
-324.114	25.476	-0.051	-0.043
-323.099	150.752	0.072	0.098
-322.085	-200.000	-0.000	-0.060
-321.070	706.864	-0.081	0.214
-320.056	64.107	0.240	-0.240
-319.041	-200.000	-0.038	-0.263
-318.026	-25.112	-0.260	0.154
-317.012	125.191	0.207	-0.260
-315.997	800.000	0.076	-0.226
-314.983	78.808	0.218	-0.233
-313.968	37.192	0.181	-0.159
-312.953	69.027	0.328	0.336
-311.939	-31.394	0.121	-0.068
-310.924	165.657	-0.060	0.084
-309.910	-200.000	-0.013	-0.235
-308.895	-200.000	-0.029	0.263
-307.880	-2.420	0.261	-0.182
-306.866	-75.110	0.166	0.059
-305.851	-200.000	-0.009	0.165
-304.837	717.946	-0.104	0.276
-303.822	-85.985	-0.540	-0.166
-302.807	-185.870	0.049	-0.001
-301.793	184.761	0.123	0.182
-300.778	113.278	-0.194	-0.235
-299.764	-138.394	-0.341	-0.038
-298.749	215.652	0.184	0.291
-297.735	-26.114	0.240	0.141
-296.720	-50.543	-0.211	0.099
-295.705	-200.000	-0.018	0.216
-294.691	111.213	0.141	0.169
-293.676	584.219	-0.108	0.264
-292.662	-74.251	-0.138	-0.050
-291.647	-108.843	0.384	0.082
-290.632	367.594	0.145	-0.291
-289.618	283.473	0.039	0.070
-288.603	-139.291	-0.530	-0.057
-287.589	-142.073	-0.132	0.013
-286.574	-200.000	-0.011	-0.421
-285.559	71.239	0.103	0.106
-284.545	-82.449	-0.137	0.044
-283.530	219.547	0.116	0.185
-282.516	65.741	0.092	0.093
-281.501	-108.335	-0.277	-0.059
-280.486	-83.868	-0.205	-0.065
-279.472	72.803	-0.134	-0.140
-278.457	800.000	-0.048	-0.144
-277.443	-200.000	0.035	-0.246
-276.428	26.883	0.159	0.133
-275.413	171.065	-0.125	0.178
-274.399	-139.769	-0.206	-0.022
-273.384	72.795	0.294	0.305
-272.370	-85.547	-0.128	-0.040
-271.355	48.657	-0.127	-0.119
-270.340	197.329	-0.073	-0.111
-269.326	-200.000	-0.032	-0.255
-268.311	800.000	-0.038	-0.155
-267.297	-145.282	0.265	-0.024
-266.282	130.996	0.322	-0.411
-265.267	-41.836	-0.095	0.049
-264.253	-31.173	-0.286	0.161
-263.238	73.436	0.003	-0.003
-262.224	-76.209	0.199	-0.070
-261.209	500.504	-0.050	0.115
-260.195	-200.000	0.009	-0.144
-259.180	5.451	0.097	0.071
-258.165	108.362	-0.038	0.045
-257.151	-135.893	0.205	0.024
-256.136	628.470	0.073	0.184
-255.122	-22.621	-0.149	-0.090
-254.107	-200.000	-0.034	-0.188
-253.092	-150.533	0.172	0.013
-252.078	-86.506	0.054	-0.017
-251.063	197.165	-0.072	-0.109
-250.049	15.627	-0.021	0.016
-249.034	-68.983	0.152	0.058
-248.019	-74.684	-0.101	0.036
-247.005	-40.653	0.436	0.225
-245.990	-80.535	0.027	0.009
-244.976	-71.841	0.308	-0.114
-243.961	-161.193	0.169	-0.009
-242.946	800.000	0.084	0.255
-241.932	26.634	0.223	0.186
-240.917	106.729	-0.182	0.215
-239.903	-12.514	0.127	-0.083
-238.888	-160.655	0.427	0.023
-237.873	-87.692	0.303	0.091
-236.859	42.269	0.042	-0.038
-235.844	-200.000	0.008	-0.113
-234.830	262.948	0.172	0.297
-233.815	116.903	0.189	-0.230
-232.800	800.000	0.076	-0.267
-231.786	-167.598	0.139	0.006
-230.771	800.000	0.041	-0.127
-229.757	-21.422	-0.066	-0.040
-228.742	314.696	-0.201	-0.376
-227.727	-69.628	-0.212	-0.081
-226.713	-95.296	-0.326	-0.087
-225.698	-49.272	-0.331	0.157
-224.684	126.399	-0.116	-0.146
-223.669	-200.000	0.011	-0.217
-222.655	9.740	0.131	0.098
-221.640	205.787	-0.138	0.213
-220.625	-200.000	-0.032	0.207
-219.611	-126.891	0.223	-0.033
-218.596	78.867	0.227	-0.241
-217.582	100.632	0.116	0.134
-216.567	157.717	0.022	0.030
-215.552	193.176	0.221	-0.331
-214.538	171.197	0.078	-0.112
-213.523	654.402	-0.092	-0.234
-212.509	102.919	-0.097	0.112
-211.494	-95.001	0.272	-0.073
-210.479	-44.384	-0.117	-0.058
-209.465	-158.226	0.284	-0.016
-208.450	-63.757	0.588	-0.239
-207.436	-200.000	0.000	-0.056
-206.421	-97.338	0.222	-0.058
-205.406	595.997	0.138	-0.338
-204.392	11.050	-0.187	-0.142
-203.377	-200.000	-0.005	-0.024
-202.363	595.573	0.106	0.261
-201.348	800.000	-0.100	-0.412
-200.333	86.250	-0.214	-0.234
-199.319	82.408	-0.149	0.160
-198.304	573.992	0.035	-0.084
-197.290	-84.684	0.188	-0.059
-196.275	-54.164	-0.204	-0.092
-195.260	-157.873	0.290	-0.017
-194.246	58.898	0.067	0.066
-193.231	-114.656	0.213	-0.040
-192.217	800.000	0.022	0.069
-191.202	389.286	0.101	-0.207
-190.187	223.621	-0.071	0.113
-189.173	142.155	-0.137	-0.180
-188.158	-86.027	-0.093	0.029
-187.144	3.658	-0.142	0.103
-186.129	-52.990	-0.217	-0.099
-185.114	-200.000	0.002	-0.024
-184.100	75.355	0.016	0.017
-183.085	-200.000	0.006	-0.133
-182.071	69.224	-0.206	0.210
-181.056	356.091	-0.061	0.121
-180.042	305.822	-0.096	-0.176
-179.027	-7.717	0.273	-0.183
-178.012	143.374	0.099	-0.131
-176.998	800.000	0.006	0.021
-175.983	166.041	-0.154	0.217
-174.969	209.050	-0.185	-0.287
-173.954	800.000	0.091	-0.282
-172.939	183.583	-0.022	-0.032
-171.925	-200.000	0.036	0.210
-170.910	183.140	0.257	0.377
-169.896	-83.386	-0.111	0.035
-168.881	-149.306	0.210	-0.017
-167.866	37.856	0.277	-0.244
-166.852	64.107	0.154	-0.154
-165.837	586.685	-0.074	0.180
-164.823	-53.217	0.323	0.147
-163.808	800.000	0.064	-0.261
-162.793	152.704	0.041	0.056
-161.779	-165.426	0.307	-0.013
-160.764	-8.868	0.260	-0.173
-159.750	167.283	0.156	-0.220
-158.735	-98.855	-0.111	-0.028
-157.720	194.871	-0.132	0.199
-156.706	-107.958	-0.361	0.078
-155.691	157.584	-0.108	-0.148
-154.677	800.000	-0.064	-0.192
-153.662	-5.914	0.105	0.071
-152.647	87.999	0.156	0.171
-151.633	12.280	-0.126	0.096
-150.618	-196.269	0.084	-0.001
-149.604	-200.000	0.052	0.301
-148.589	-69.523	0.145	0.055
-147.574	-82.482	0.235	0.076
-146.560	148.231	0.102	0.136
-145.545	-87.636	0.209	-0.063
-144.531	42.692	-0.262	-0.236
-143.516	250.556	0.089	-0.150
-142.502	-200.000	-0.014	-0.312
-141.487	-7.029	0.391	0.263
-140.472	-27.164	0.161	-0.093
-139.458	208.224	-0.125	-0.194
-138.443	5.751	-0.146	0.107
-137.429	-200.000	-0.010	0.460
-136.414	547.281	-0.104	0.247
-135.399	47.523	0.262	-0.242
-134.385	-200.000	0.011	-0.162
-133.370	47.466	-0.137	-0.126
-132.356	42.962	-0.355	0.320
-131.341	-125.897	-0.073	-0.011
-130.326	342.808	0.065	-0.126
-129.312	-79.903	0.393	0.131
-128.297	-118.011	-0.343	-0.061
-127.283	800.000	0.046	-0.170
-126.268	-72.965	-0.407	-0.148
-125.253	9.533	-0.126	0.095
-124.239	-200.000	0.003	-0.135
-123.224	-1.143	0.159	-0.111
-122.210	-200.000	-0.020	-0.363
-121.195	-66.010	-0.221	0.087
