DTS Sentinel unit serial number:	SN413079Multiplexer serial number:	ORYXHardware model number:	OX4-SRSoftware version number:	ORYX F/W v4.00 Oryx Data Collector v3.7.2.0data status	okinstallation	princeton_trtdifferential loss correction	single-endedforward channel	channel 1reverse channel	N/Adate	2019/09/17time	18:06:35forward acquisition time	60.00reverse acquisition time	0.00gamma	496.2192k internal	0.2291k external	0.2291temperature offset calibration	0.9954default loss term (dB/km)	0.3790temperature slope calibration	1.0000multiplexer offset coefficient	1.0000multiplexer slope coefficient	1.0000fibre end	0.00T internal ref (°C)	43.50T ext. ref 1 (°C)	0.32T ext. ref 2 (°C)	38.30length (m)	temperature (°C)	Stokes	anti-Stokes-747.200	56.534	-0.203	0.202
-746.185	78.576	-0.142	0.155
-745.171	-38.010	0.091	0.049
-744.156	136.851	-0.180	0.241
-743.142	-79.816	-0.245	-0.084
-742.127	-58.248	0.228	0.101
-741.112	-10.469	-0.151	0.102
-740.098	132.697	-0.252	0.333
-739.083	800.000	0.057	0.202
-738.069	2.757	-0.199	-0.148
-737.054	56.229	0.099	0.098
-736.039	-200.000	0.040	-0.315
-735.025	-94.022	0.285	0.080
-734.010	800.000	0.050	-0.171
-732.996	-72.499	0.128	-0.048
-731.981	-200.000	0.163	0.000
-730.966	199.439	-0.029	-0.045
-729.952	61.491	-0.076	-0.077
-728.937	-110.739	-0.187	-0.039
-727.923	-200.000	0.013	0.221
-726.908	23.637	-0.074	-0.063
-725.894	-200.000	-0.077	-0.365
-724.879	-133.767	-0.251	-0.032
-723.864	20.856	0.277	0.230
-722.850	-200.000	-0.053	-0.269
-721.835	73.002	0.136	-0.145
-720.821	-167.201	0.137	0.006
-719.806	800.000	0.012	0.040
-718.791	-147.309	-0.151	0.013
-717.777	196.181	-0.081	-0.125
-716.762	-200.000	0.031	-0.249
-715.748	-50.055	-0.137	-0.067
-714.733	-123.038	-0.413	-0.068
-713.718	-76.163	-0.128	0.046
-712.704	-195.676	-0.214	-0.002
-711.689	313.438	0.265	0.509
-710.675	800.000	0.060	-0.217
-709.660	-200.000	-0.031	0.255
-708.645	-10.014	-0.295	-0.200
-707.631	-85.287	-0.337	-0.108
-706.616	-36.516	-0.259	-0.143
-705.602	4.783	0.063	0.048
-704.587	24.098	-0.190	-0.160
-703.572	-15.962	0.106	-0.069
-702.558	-200.000	-0.034	-0.287
-701.543	60.848	-0.076	-0.077
-700.529	-200.000	-0.001	-0.268
-699.514	-124.573	-0.039	-0.006
-698.499	-200.000	0.006	-0.236
-697.485	504.005	-0.149	-0.352
-696.470	800.000	-0.110	-0.383
-695.456	-200.000	-0.024	-0.167
-694.441	63.001	0.208	-0.213
-693.426	800.000	0.023	-0.067
-692.412	800.000	-0.039	0.173
-691.397	-54.530	-0.094	0.044
-690.383	-95.803	-0.247	-0.067
-689.368	-200.000	0.142	-0.000
-688.354	92.678	0.175	-0.202
-687.339	31.085	-0.299	0.262
-686.324	241.630	-0.018	0.031
-685.310	-62.516	0.188	0.080
-684.295	274.748	-0.065	0.117
-683.281	-50.250	-0.138	0.067
-682.266	38.805	-0.194	-0.177
-681.251	51.698	0.094	-0.091
-680.237	138.033	-0.201	-0.269
-679.222	800.000	0.032	0.139
-678.208	83.628	-0.173	0.193
-677.193	-17.564	0.208	0.134
-676.178	212.746	-0.141	0.228
-675.164	-78.192	0.036	-0.013
-674.149	301.518	-0.091	0.171
-673.135	13.010	-0.160	-0.126
-672.120	-73.807	0.176	-0.065
-671.105	-175.948	-0.008	0.000
-670.091	720.980	-0.148	0.401
-669.076	-4.377	-0.027	-0.019
-668.062	-21.243	-0.086	0.054
-667.047	-193.695	-0.402	-0.003
-666.032	-131.699	-0.395	0.053
-665.018	254.880	0.073	0.127
-664.003	-10.484	-0.168	-0.114
-662.989	-95.229	-0.117	0.032
-661.974	-21.718	0.313	-0.195
-660.959	11.363	0.207	0.162
-659.945	77.366	0.048	-0.052
-658.930	-200.000	0.007	0.084
-657.916	580.772	-0.039	-0.098
-656.901	800.000	-0.037	0.106
-655.886	-36.448	-0.027	0.015
-654.872	-104.727	-0.511	0.120
-653.857	135.825	-0.287	-0.381
-652.843	-11.483	0.072	0.048
-651.828	62.305	0.239	-0.243
-650.814	-196.210	0.073	-0.001
-649.799	-124.460	-0.211	-0.033
-648.784	-200.000	-0.006	-0.031
-647.770	-102.182	-0.160	-0.039
-646.755	601.354	0.062	-0.156
-645.741	-93.304	0.265	-0.075
-644.726	-131.721	-0.124	0.017
-643.711	303.597	-0.028	-0.054
-642.697	800.000	0.136	-0.435
-641.682	675.308	0.020	-0.054
-640.668	-57.722	0.209	0.093
-639.653	-200.000	-0.072	0.328
-638.638	-85.393	0.193	0.061
-637.624	800.000	-0.149	-0.456
-636.609	-124.716	0.506	0.080
-635.595	403.312	0.068	0.147
-634.580	-137.644	0.205	-0.024
-633.565	-42.020	0.310	0.162
-632.551	-200.000	0.026	0.261
-631.536	2.990	0.086	-0.064
-630.522	-7.277	-0.271	0.187
-629.507	800.000	0.087	0.291
-628.492	6.691	0.042	0.032
-627.478	-112.809	-0.264	0.053
-626.463	-151.213	0.312	0.024
-625.449	-133.138	0.136	0.018
-624.434	241.805	0.123	0.210
-623.419	556.560	0.135	-0.332
-622.405	-45.382	0.239	0.121
-621.390	11.532	0.330	-0.258
-620.376	-75.385	-0.332	-0.121
-619.361	186.154	-0.071	-0.108
-618.346	21.349	-0.287	-0.238
-617.332	-141.353	0.245	-0.025
-616.317	254.866	-0.106	0.185
-615.303	475.006	-0.092	-0.211
-614.288	800.000	-0.120	-0.421
-613.273	-105.764	-0.169	-0.039
-612.259	800.000	0.029	-0.122
-611.244	-36.274	-0.347	0.191
-610.230	-2.447	-0.201	-0.143
-609.215	-91.878	0.082	-0.024
-608.201	-30.054	-0.191	0.111
-607.186	79.409	-0.097	0.106
-606.171	-46.974	0.103	-0.051
-605.157	-129.818	0.334	0.047
-604.142	-92.339	-0.108	0.031
-603.128	85.139	0.210	0.234
-602.113	-115.333	0.135	0.026
-601.098	-200.000	0.015	-0.097
-600.084	-107.338	0.331	0.074
-599.069	240.452	-0.043	0.074
-598.055	-74.765	0.101	0.037
-597.040	25.043	0.308	0.261
-596.025	16.453	0.137	-0.110
-595.011	60.304	-0.116	0.117
-593.996	424.090	-0.025	-0.054
-592.982	216.863	-0.078	-0.127
-591.967	-150.421	-0.255	0.020
-590.952	-187.431	-0.377	-0.005
-589.938	-119.914	-0.387	0.068
-588.923	-147.463	0.114	0.010
-587.909	-56.198	-0.120	-0.054
-586.894	-65.107	0.135	-0.055
-585.879	-35.814	-0.450	-0.248
-584.865	800.000	0.029	-0.087
-583.850	565.073	0.156	-0.386
-582.836	59.937	0.104	-0.104
-581.821	-200.000	-0.012	0.319
-580.806	800.000	0.005	0.019
-579.792	60.218	-0.221	0.223
-578.777	-154.875	0.077	-0.005
-577.763	-98.273	-0.066	-0.017
-576.748	-38.259	0.116	-0.063
-575.733	-200.000	-0.066	-0.369
-574.719	25.111	-0.381	-0.322
-573.704	436.795	0.128	-0.285
-572.690	800.000	0.076	-0.306
-571.675	279.391	-0.095	-0.173
-570.661	86.013	0.187	-0.210
-569.646	63.400	-0.105	-0.107
-568.631	-45.443	0.313	-0.158
-567.617	-200.000	-0.060	0.447
-566.602	633.637	-0.070	-0.181
-565.588	-59.563	0.100	-0.044
-564.573	511.183	-0.089	-0.211
-563.558	279.478	0.053	0.096
-562.544	35.156	-0.140	-0.125
-561.529	-102.176	-0.498	-0.122
-560.515	-200.000	-0.004	-0.079
-559.500	-94.956	-0.125	0.035
-558.485	800.000	-0.059	-0.229
-557.471	298.076	0.115	0.214
-556.456	-45.273	0.136	0.068
-555.442	800.000	-0.056	0.198
-554.427	52.199	-0.207	0.201
-553.412	-6.396	-0.181	-0.126
-552.398	-132.482	0.110	0.014
-551.383	-95.571	0.251	0.068
-550.369	-147.476	0.333	0.029
-549.354	287.670	-0.190	0.349
-548.339	-141.150	0.133	-0.014
-547.325	168.249	-0.181	-0.261
-546.310	-168.629	-0.159	0.006
-545.296	-200.000	0.009	0.104
-544.281	-63.070	-0.264	-0.111
-543.266	-200.000	-0.018	0.252
-542.252	-200.000	0.025	0.113
-541.237	675.878	0.186	0.491
-540.223	-41.586	-0.287	-0.150
-539.208	-22.563	0.130	-0.080
-538.193	256.155	0.213	-0.372
-537.179	125.426	-0.212	-0.271
-536.164	-200.000	-0.014	-0.160
-535.150	11.316	0.127	0.099
-534.135	17.998	-0.116	0.094
-533.121	-113.532	-0.449	0.089
-532.106	103.377	-0.048	-0.057
-531.091	800.000	-0.086	-0.356
-530.077	468.341	-0.052	-0.118
-529.062	-30.884	0.095	-0.055
-528.048	613.456	0.034	-0.087
-527.033	800.000	0.071	0.255
-526.018	86.740	-0.255	0.285
-525.004	530.832	0.021	-0.049
-523.989	30.589	-0.183	0.159
-522.975	-200.000	0.013	-0.286
-521.960	-143.823	-0.156	-0.015
-520.945	-29.585	0.172	-0.100
-519.931	10.892	-0.250	0.194
-518.916	-162.302	-0.424	0.021
-517.902	22.462	0.194	-0.161
-516.887	-200.000	-0.013	-0.269
-515.872	384.710	0.059	-0.123
-514.858	-115.968	-0.206	0.039
-513.843	-36.419	0.242	0.132
-512.829	-59.571	0.271	-0.118
-511.814	-26.291	0.069	-0.041
-510.799	-75.816	-0.219	-0.079
-509.785	198.383	0.117	-0.181
-508.770	-200.000	0.000	-0.019
-507.756	-66.880	0.197	0.079
-506.741	108.107	-0.351	-0.424
-505.726	-200.000	0.010	0.229
-504.712	800.000	-0.054	0.213
-503.697	-61.704	0.220	-0.094
-502.683	-65.039	0.117	0.048
-501.668	-200.000	-0.015	0.351
-500.653	42.037	-0.086	-0.079
-499.639	-64.445	-0.123	-0.051
-498.624	-24.695	-0.180	0.108
-497.610	800.000	0.063	-0.265
-496.595	162.005	-0.096	-0.137
-495.581	197.373	-0.108	-0.167
-494.566	-185.456	0.378	0.006
-493.551	176.083	-0.036	0.053
-492.537	-158.683	-0.124	0.007
-491.522	42.889	0.250	0.231
-490.508	402.336	-0.157	-0.335
-489.493	800.000	0.047	-0.149
-488.478	336.745	-0.215	-0.424
-487.464	6.701	0.052	0.039
-486.449	-132.943	0.241	0.031
-485.435	-125.138	0.139	0.022
-484.420	685.307	-0.087	-0.230
-483.405	-105.030	-0.071	0.017
-482.391	-86.235	-0.075	-0.023
-481.376	64.756	0.300	-0.307
-480.362	-44.264	-0.154	-0.078
-479.347	-48.842	-0.334	0.162
-478.332	-56.606	-0.203	0.091
-477.318	-114.222	-0.304	0.059
-476.303	340.731	0.066	0.130
-475.289	800.000	-0.074	-0.240
-474.274	187.259	0.077	0.117
-473.259	70.003	-0.121	-0.126
-472.245	15.986	0.120	0.096
-471.230	800.000	-0.032	-0.119
-470.216	800.000	-0.037	0.131
-469.201	-200.000	0.009	0.300
-468.186	-91.059	-0.283	0.082
-467.172	-200.000	0.005	-0.106
-466.157	585.122	-0.070	0.173
-465.143	478.992	-0.073	-0.167
-464.128	-165.310	-0.438	-0.020
-463.113	0.951	-0.070	-0.051
-462.099	34.873	0.271	0.240
-461.084	-200.000	0.023	-0.108
-460.070	-29.580	-0.292	-0.169
-459.055	-200.000	0.042	-0.253
-458.040	683.599	0.116	-0.306
-457.026	-50.683	0.099	-0.047
-456.011	48.402	-0.162	-0.154
-454.997	358.687	0.055	-0.110
-453.982	-176.311	0.172	0.005
-452.968	97.871	0.079	0.092
-451.953	-200.000	-0.046	0.427
-450.938	378.600	0.113	-0.234
-449.924	25.978	0.160	0.135
-448.909	-127.212	0.109	0.016
-447.895	-33.046	-0.302	-0.169
-446.880	-55.768	0.090	-0.041
-445.865	56.717	0.141	-0.139
-444.851	-200.000	0.021	-0.356
-443.836	800.000	-0.149	-0.574
-442.822	8.039	-0.299	0.227
-441.807	-200.000	0.007	-0.072
-440.792	269.700	-0.133	0.237
-439.778	119.138	-0.083	-0.104
-438.763	13.125	-0.170	-0.133
-437.749	238.853	0.140	0.235
-436.734	800.000	0.033	-0.109
-435.719	72.144	0.162	-0.170
-434.705	800.000	-0.033	-0.108
-433.690	404.008	-0.140	0.299
-432.676	-64.968	0.178	0.073
-431.661	-200.000	0.012	-0.127
-430.646	-121.877	-0.172	0.029
-429.632	-200.000	0.005	0.332
-428.617	800.000	-0.031	0.120
-427.603	800.000	-0.011	0.037
-426.588	281.869	0.089	-0.161
-425.573	120.356	0.116	0.146
-424.559	128.433	-0.186	0.239
-423.544	-200.000	0.027	0.147
-422.530	-200.000	0.015	0.170
-421.515	241.494	-0.191	-0.322
-420.500	-32.540	-0.051	0.029
-419.486	627.184	0.033	0.083
-418.471	528.077	0.131	0.311
-417.457	-46.202	0.249	-0.124
-416.442	673.993	0.126	0.331
-415.428	-200.000	-0.011	-0.184
-414.413	-122.389	-0.192	-0.032
-413.398	104.006	0.032	0.038
-412.384	-50.390	0.219	-0.104
-411.369	138.080	0.174	0.231
-410.355	-134.288	0.256	0.032
-409.340	-200.000	0.058	0.257
-408.325	-91.562	-0.195	-0.056
-407.311	800.000	0.039	-0.153
-406.296	-200.000	0.012	0.089
-405.282	-107.538	-0.224	-0.050
-404.267	125.414	0.174	0.221
-403.252	-56.226	-0.156	0.070
-402.238	57.175	0.255	0.251
-401.223	-194.247	-0.117	0.001
-400.209	-13.232	0.173	0.114
-399.194	167.122	0.322	-0.462
-398.179	-103.832	-0.226	0.053
-397.165	-61.783	0.382	0.161
-396.150	-45.810	-0.144	0.072
-395.136	-127.049	0.336	0.050
-394.121	-200.000	-0.023	0.183
-393.106	4.739	-0.062	0.046
-392.092	371.885	-0.073	0.150
-391.077	249.542	0.218	-0.373
-390.063	38.423	0.168	-0.152
-389.048	63.749	0.259	-0.262
-388.033	-126.630	-0.162	-0.024
-387.019	334.002	0.079	0.154
-386.004	-200.000	0.041	-0.217
-384.990	-45.478	-0.154	0.077
-383.975	-69.521	-0.211	-0.082
-382.960	-11.632	0.256	0.170
-381.946	800.000	0.056	-0.180
-380.931	91.055	0.221	-0.250
-379.917	-200.000	-0.020	-0.124
-378.902	-130.250	-0.288	0.040
-377.888	392.986	-0.198	-0.416
-376.873	113.916	-0.217	0.266
-375.858	800.000	-0.085	0.295
-374.844	-200.000	-0.025	-0.152
-373.829	144.849	-0.113	0.152
-372.815	43.486	-0.126	0.116
-371.800	-93.113	-0.330	-0.093
-370.785	-200.000	0.050	0.252
-369.771	800.000	0.117	0.381
-368.756	-200.000	0.021	0.174
-367.742	-53.732	0.466	0.215
-366.727	-153.170	-0.303	-0.021
-365.712	103.792	0.072	0.086
-364.698	-9.531	0.289	-0.195
-363.683	-200.000	0.014	0.344
-362.669	-200.000	-0.018	0.255
-361.654	259.332	-0.089	-0.155
-360.639	55.085	-0.145	-0.142
-359.625	-63.723	0.258	-0.107
-358.610	323.181	-0.149	-0.286
-357.596	336.582	-0.029	0.057
-356.581	800.000	-0.004	-0.016
-355.566	-68.153	-0.143	-0.056
-354.552	-151.025	0.169	-0.013
-353.537	83.422	-0.246	0.270
-352.523	390.265	-0.102	-0.213
-351.508	-184.160	-0.180	0.003
-350.493	-150.076	-0.198	0.016
-349.479	-111.044	-0.198	0.041
-348.464	-143.658	-0.316	0.030
-347.450	800.000	-0.103	0.383
-346.435	-200.000	-0.005	-0.185
-345.420	575.539	-0.067	-0.164
-344.406	392.318	-0.085	-0.178
-343.391	6.843	-0.195	0.147
-342.377	70.527	0.133	-0.139
-341.362	-200.000	0.024	0.177
-340.348	800.000	0.065	0.255
-339.333	36.146	-0.205	-0.182
-338.318	-74.678	0.266	-0.096
-337.304	40.479	-0.305	-0.277
-336.289	81.944	-0.255	0.278
-335.275	-10.850	-0.199	0.133
-334.260	-200.000	-0.011	0.108
-333.245	479.001	0.085	-0.194
-332.231	-200.000	0.023	0.217
-331.216	-162.208	-0.228	0.011
-330.202	-131.295	-0.162	-0.022
-329.187	-146.574	0.160	-0.014
-328.172	-81.936	0.267	0.088
-327.158	-45.018	0.061	-0.031
-326.143	-200.000	-0.017	0.093
-325.129	331.300	0.275	-0.534
-324.114	54.429	-0.269	-0.261
-323.099	-149.570	-0.379	0.030
-322.085	219.228	0.188	-0.303
-321.070	175.836	-0.054	-0.078
-320.056	-156.762	0.379	0.024
-319.041	-47.984	-0.413	0.201
-318.026	-84.033	-0.129	0.041
-317.012	-32.835	0.308	0.173
-315.997	76.384	-0.296	-0.316
-314.983	428.340	0.058	0.126
-313.968	-120.371	-0.233	0.040
-312.953	800.000	-0.066	0.210
-311.939	-104.805	-0.340	0.079
-310.924	-62.674	0.292	-0.122
-309.910	-96.977	-0.268	-0.071
-308.895	-115.334	0.064	0.012
-307.880	122.655	0.134	0.169
-306.866	-184.631	0.217	-0.004
-305.851	-52.598	0.155	-0.072
-304.837	800.000	-0.082	0.273
-303.822	-58.843	0.242	0.105
-302.807	800.000	0.074	-0.296
-301.793	-200.000	-0.023	-0.324
-300.778	73.976	-0.064	-0.067
-299.764	30.564	0.170	0.147
-298.749	-200.000	-0.011	-0.155
-297.735	29.467	0.262	0.224
-296.720	-78.864	-0.147	-0.050
-295.705	-54.865	0.404	-0.183
-294.691	118.690	-0.183	0.228
-293.676	704.588	-0.104	0.277
-292.662	-200.000	-0.014	-0.180
-291.647	9.708	0.175	0.133
-290.632	232.258	-0.159	0.262
-289.618	320.577	0.073	-0.139
-288.603	-60.223	0.146	-0.063
-287.589	800.000	0.057	0.217
-286.574	-73.083	0.096	-0.035
-285.559	649.990	0.079	0.204
-284.545	-45.508	-0.086	0.043
-283.530	70.516	-0.142	0.147
-282.516	-93.923	-0.076	-0.021
-281.501	-200.000	0.027	-0.196
-280.486	118.839	0.358	-0.445
-279.472	170.829	0.062	-0.090
-278.457	-114.602	-0.091	-0.017
-277.443	800.000	0.021	-0.084
-276.428	33.525	-0.358	0.313
-275.413	-25.059	-0.229	0.137
-274.399	88.463	-0.115	0.129
-273.384	-200.000	0.008	-0.144
-272.370	-52.791	0.116	0.054
-271.355	254.243	-0.120	0.206
-270.340	76.456	-0.243	0.259
-269.326	239.039	0.039	-0.065
-268.311	311.966	-0.029	0.055
-267.297	-200.000	-0.004	0.021
-266.282	-35.221	0.276	-0.151
-265.267	7.963	-0.299	0.225
-264.253	0.026	0.289	-0.207
-263.238	-200.000	-0.009	-0.307
-262.224	20.988	0.243	0.198
-261.209	-8.775	0.114	0.077
-260.195	8.853	-0.137	-0.104
-259.180	-49.303	0.257	0.123
-258.165	-51.465	-0.086	-0.040
-257.151	-200.000	0.026	0.353
-256.136	-109.763	0.121	0.026
-255.122	800.000	0.044	0.155
-254.107	230.884	-0.053	0.087
-253.092	-200.000	-0.030	-0.138
-252.078	-134.582	-0.080	-0.010
-251.063	800.000	-0.092	-0.307
-250.049	13.676	-0.153	-0.120
-249.034	800.000	-0.056	0.206
-248.019	113.934	0.109	-0.133
-247.005	-154.970	0.244	-0.016
-245.990	-92.833	-0.115	0.032
-244.976	-75.940	-0.158	0.056
-243.961	-160.146	0.359	-0.020
-242.946	800.000	0.062	0.177
-241.932	-200.000	0.032	0.178
-240.917	-30.109	0.229	-0.131
-239.903	14.912	-0.304	0.238
-238.888	-200.000	0.039	-0.503
-237.873	-18.530	-0.124	0.078
-236.859	181.210	0.078	0.115
-235.844	-168.926	-0.204	-0.008
-234.830	50.549	-0.326	0.309
-233.815	-200.000	-0.065	0.727
-232.800	794.502	0.063	0.175
-231.786	-157.353	0.251	0.015
-230.771	45.870	0.064	0.060
-229.757	-11.096	0.189	0.125
-228.742	-200.000	-0.004	0.119
-227.727	-110.670	-0.410	0.085
-226.713	800.000	0.099	0.284
-225.698	58.260	0.188	0.185
-224.684	16.799	0.284	0.225
-223.669	-200.000	-0.008	0.116
-222.655	61.450	0.311	-0.310
-221.640	504.673	-0.052	0.122
-220.625	-55.734	-0.263	-0.118
-219.611	-64.242	-0.355	-0.145
-218.596	0.630	-0.276	0.198
-217.582	800.000	-0.063	0.197
-216.567	272.054	0.126	0.222
-215.552	379.596	-0.166	-0.341
-214.538	60.320	-0.114	-0.113
-213.523	-34.197	0.325	0.179
-212.509	44.426	0.160	-0.147
-211.494	-200.000	-0.038	0.201
-210.479	800.000	0.128	0.367
-209.465	-200.000	-0.022	-0.096
-208.450	9.441	0.260	-0.198
-207.436	-200.000	-0.023	-0.149
-206.421	-200.000	0.062	0.430
-205.406	227.141	-0.046	0.075
-204.392	654.874	0.083	0.214
-203.377	-200.000	-0.032	-0.190
-202.363	269.903	-0.141	-0.249
-201.348	800.000	-0.031	-0.096
-200.333	309.673	0.154	0.290
-199.319	3.875	0.195	-0.143
-198.304	-200.000	-0.029	-0.332
-197.290	187.592	0.172	0.257
-196.275	22.985	-0.117	0.097
-195.260	303.235	0.052	-0.097
-194.246	-200.000	0.029	0.262
-193.231	386.373	0.076	-0.157
-192.217	800.000	-0.064	0.179
-191.202	-22.914	-0.301	-0.182
-190.187	331.472	-0.040	-0.078
-189.173	-95.060	0.156	-0.042
-188.158	-75.813	0.411	-0.146
-187.144	204.873	-0.048	0.075
-186.129	800.000	0.013	-0.053
-185.114	10.460	0.209	-0.159
-184.100	-200.000	0.686	0.003
-183.085	6.009	0.083	-0.061
-182.071	-123.846	-0.160	-0.025
-181.056	-200.000	-0.033	0.152
-180.042	-200.000	0.025	-0.286
-179.027	451.279	-0.057	0.125
-178.012	-49.404	0.280	0.134
-176.998	-3.338	0.355	-0.247
-175.983	-123.105	-0.183	0.029
-174.969	104.356	0.231	-0.272
-173.954	-3.860	0.351	0.244
-172.939	25.909	0.367	0.307
-171.925	252.444	0.084	-0.143
-170.910	50.552	0.108	-0.102
-169.896	-200.000	-0.054	0.357
-168.881	321.422	-0.043	-0.082
-167.866	151.641	-0.071	-0.097
-166.852	-134.290	-0.177	-0.022
-165.837	558.150	0.069	-0.167
-164.823	800.000	-0.088	0.313
-163.808	-33.220	-0.165	-0.091
-162.793	-76.011	-0.241	-0.085
-161.779	80.543	-0.116	-0.125
-160.764	515.792	0.129	0.302
-159.750	286.017	0.058	0.105
-158.735	-115.622	0.312	0.059
-157.720	-200.000	-0.022	0.221
-156.706	13.280	0.263	0.204
-155.691	-151.066	0.180	0.014
-154.677	-90.731	-0.203	0.059
-153.662	-200.000	0.000	-0.270
-152.647	70.944	0.283	-0.294
-151.633	84.127	-0.048	0.052
-150.618	724.914	0.045	0.120
-149.604	-170.447	0.253	0.009
-148.589	120.529	0.285	0.354
-147.574	-114.809	0.185	-0.035
-146.560	85.166	-0.108	0.118
-145.545	-154.150	0.187	0.013
-144.531	-200.000	0.045	0.413
-143.516	625.814	0.116	0.292
-142.502	800.000	0.170	0.525
-141.487	800.000	-0.135	-0.400
-140.472	107.616	-0.038	-0.045
-139.458	-145.549	0.297	0.027
-138.443	148.056	-0.163	-0.219
-137.429	800.000	0.011	-0.037
-136.414	-200.000	-0.016	0.162
-135.399	-200.000	-0.013	0.204
-134.385	168.384	-0.125	-0.177
-133.370	-57.172	-0.119	-0.052
-132.356	-127.804	-0.162	-0.023
-131.341	78.330	0.112	-0.120
-130.326	301.221	0.132	-0.243
-129.312	-135.324	0.275	-0.033
-128.297	-65.411	0.277	-0.111
-127.283	-13.706	0.084	0.054
-126.268	800.000	0.056	-0.192
-125.253	461.561	-0.069	-0.154
-124.239	-200.000	-0.009	0.102
-123.224	-200.000	0.076	0.430
-122.210	-131.790	0.270	-0.035
-121.195	173.794	0.042	-0.061
