DTS Sentinel unit serial number:	SN413079Multiplexer serial number:	ORYXHardware model number:	OX4-SRSoftware version number:	ORYX F/W v4.00 Oryx Data Collector v3.7.2.0data status	okinstallation	princeton_trtdifferential loss correction	single-endedforward channel	channel 1reverse channel	N/Adate	2019/09/15time	02:18:35forward acquisition time	60.00reverse acquisition time	0.00gamma	496.2192k internal	0.2322k external	0.2322temperature offset calibration	0.9985default loss term (dB/km)	0.3790temperature slope calibration	1.0000multiplexer offset coefficient	1.0000multiplexer slope coefficient	1.0000fibre end	0.00T internal ref (°C)	31.62T ext. ref 1 (°C)	4.55T ext. ref 2 (°C)	26.18length (m)	temperature (°C)	Stokes	anti-Stokes-747.200	-127.846	-0.233	0.034
-746.185	110.089	-0.143	0.173
-745.171	-89.562	0.102	0.030
-744.156	262.019	-0.165	0.289
-743.142	-200.000	-0.003	-0.184
-742.127	-94.042	-0.193	0.053
-741.112	800.000	-0.075	-0.253
-740.098	-134.782	-0.217	0.027
-739.083	82.857	0.060	-0.066
-738.069	183.738	0.092	-0.137
-737.054	367.794	0.160	0.327
-736.039	203.472	0.105	-0.164
-735.025	-76.907	0.417	0.147
-734.010	49.624	-0.268	-0.255
-732.996	-131.963	-0.514	0.068
-731.981	-118.173	-0.402	0.072
-730.966	714.540	0.056	-0.149
-729.952	450.949	-0.045	0.099
-728.937	-31.182	-0.095	0.054
-727.923	-26.541	-0.354	-0.209
-726.908	794.480	-0.097	-0.270
-725.894	-200.000	0.003	-0.155
-724.879	-101.477	-0.267	-0.065
-723.864	384.977	0.132	0.275
-722.850	-94.855	-0.348	0.095
-721.835	36.487	-0.038	0.034
-720.821	-87.301	-0.235	0.072
-719.806	185.527	0.200	-0.300
-718.791	12.035	0.240	0.186
-717.777	-107.210	-0.184	0.041
-716.762	201.601	0.031	0.048
-715.748	464.369	0.078	-0.175
-714.733	13.274	0.119	-0.093
-713.718	603.113	-0.134	0.336
-712.704	151.167	-0.122	0.167
-711.689	-200.000	0.026	-0.149
-710.675	-189.978	-0.294	0.003
-709.660	296.194	0.038	0.071
-708.645	-200.000	0.012	-0.177
-707.631	85.284	-0.134	0.148
-706.616	-200.000	0.017	0.090
-705.602	-180.069	-0.391	-0.008
-704.587	124.498	-0.247	-0.314
-703.572	-200.000	-0.028	0.170
-702.558	-155.154	0.240	-0.016
-701.543	432.194	-0.098	0.214
-700.529	91.840	0.117	-0.133
-699.514	-200.000	0.023	-0.106
-698.499	-146.081	-0.214	0.019
-697.485	310.284	-0.090	-0.170
-696.470	800.000	0.027	-0.097
-695.456	-91.749	0.343	0.098
-694.441	-88.296	-0.197	0.059
-693.426	-108.766	-0.210	-0.045
-692.412	-200.000	0.021	-0.252
-691.397	800.000	0.025	-0.086
-690.383	800.000	-0.015	0.064
-689.368	-82.037	-0.259	-0.085
-688.354	-61.006	-0.291	-0.124
-687.339	-200.000	-0.000	-0.424
-686.324	-21.581	0.185	0.114
-685.310	800.000	0.057	0.171
-684.295	-55.833	-0.036	0.016
-683.281	-200.000	0.018	0.101
-682.266	6.051	0.100	-0.075
-681.251	-92.602	0.301	-0.085
-680.237	-149.366	-0.210	-0.017
-679.222	800.000	0.058	0.220
-678.208	-121.863	-0.095	0.016
-677.193	-200.000	-0.019	-0.091
-676.178	-200.000	0.011	-0.153
-675.164	-200.000	-0.014	0.314
-674.149	-71.251	0.311	0.117
-673.135	-79.118	-0.239	-0.082
-672.120	159.160	0.114	0.160
-671.105	36.768	0.096	-0.085
-670.091	783.872	0.171	-0.472
-669.076	-117.327	-0.090	-0.017
-668.062	-65.003	0.207	-0.084
-667.047	-12.280	-0.159	0.105
-666.032	77.409	0.090	-0.097
-665.018	-99.108	0.218	0.056
-664.003	517.656	0.071	-0.167
-662.989	-82.209	0.303	-0.099
-661.974	10.790	0.338	-0.260
-660.959	-145.662	-0.331	0.030
-659.945	-85.578	-0.018	-0.006
-658.930	3.622	-0.072	0.053
-657.916	30.800	0.236	0.204
-656.901	351.796	-0.173	0.345
-655.886	-200.000	0.070	0.311
-654.872	405.107	0.062	-0.131
-653.857	-200.000	0.010	0.085
-652.843	178.090	0.178	0.262
-651.828	-200.000	0.014	0.322
-650.814	800.000	0.080	-0.248
-649.799	-200.000	-0.013	0.063
-648.784	-0.719	0.082	-0.059
-647.770	-200.000	-0.045	-0.234
-646.755	226.412	0.139	-0.228
-645.741	-53.168	-0.409	-0.189
-644.726	551.784	-0.089	-0.216
-643.711	-100.202	-0.382	0.095
-642.697	800.000	-0.059	0.176
-641.682	-175.780	-0.256	0.007
-640.668	391.684	-0.166	-0.348
-639.653	-65.749	-0.107	0.043
-638.638	-200.000	-0.028	0.337
-637.624	-29.409	-0.065	-0.037
-636.609	-102.136	0.403	-0.098
-635.595	800.000	-0.083	-0.233
-634.580	-104.256	0.160	-0.037
-633.565	-200.000	-0.046	0.220
-632.551	800.000	-0.067	0.289
-631.536	274.214	-0.167	0.297
-630.522	-84.838	-0.384	-0.121
-629.507	800.000	0.138	-0.420
-628.492	-37.452	-0.224	-0.120
-627.478	127.481	0.126	-0.160
-626.463	-86.479	-0.244	-0.075
-625.449	281.988	-0.072	-0.129
-624.434	-65.683	-0.224	0.090
-623.419	800.000	-0.025	-0.094
-622.405	-200.000	-0.013	0.312
-621.390	-200.000	0.012	0.162
-620.376	-19.126	-0.112	-0.070
-619.361	334.206	-0.146	-0.285
-618.346	-107.840	-0.223	-0.049
-617.332	-136.922	-0.466	0.054
-616.317	702.737	-0.104	0.275
-615.303	-43.443	0.333	0.169
-614.288	269.902	0.189	0.335
-613.273	16.693	0.171	0.136
-612.259	185.192	-0.153	-0.228
-611.244	109.622	0.138	-0.167
-610.230	-200.000	-0.065	-0.398
-609.215	-7.572	0.181	-0.123
-608.201	-200.000	-0.009	-0.177
-607.186	-200.000	-0.054	0.244
-606.171	-62.597	-0.264	-0.110
-605.157	-200.000	0.018	-0.121
-604.142	-200.000	0.010	-0.156
-603.128	-14.127	0.175	0.113
-602.113	121.380	0.166	0.208
-601.098	203.387	0.134	0.208
-600.084	276.231	0.023	-0.042
-599.069	-200.000	0.042	0.345
-598.055	-200.000	0.005	-0.055
-597.040	39.046	-0.415	0.373
-596.025	44.457	0.336	0.310
-595.011	-200.000	0.023	0.316
-593.996	-164.250	-0.094	-0.004
-592.982	-30.203	-0.231	0.132
-591.967	720.070	0.025	-0.066
-590.952	-69.368	-0.528	0.203
-589.938	-200.000	-0.001	0.057
-588.923	-200.000	0.026	-0.149
-587.909	362.641	0.057	-0.114
-586.894	-200.000	0.011	0.082
-585.879	-200.000	0.024	0.206
-584.865	-170.568	0.249	0.009
-583.850	800.000	0.034	-0.121
-582.836	526.811	-0.093	0.220
-581.821	-95.543	-0.096	0.026
-580.806	-18.106	0.357	-0.224
-579.792	800.000	-0.012	-0.045
-578.777	-200.000	-0.011	-0.061
-577.763	-123.856	0.166	0.026
-576.748	800.000	0.074	-0.222
-575.733	264.828	0.128	0.224
-574.719	-117.072	-0.154	0.028
-573.704	-200.000	-0.021	0.107
-572.690	-200.000	0.024	0.120
-571.675	-119.014	-0.281	-0.049
-570.661	-66.558	0.175	-0.070
-569.646	-46.491	-0.210	0.103
-568.631	-200.000	-0.002	0.078
-567.617	136.811	-0.013	-0.017
-566.602	-100.436	-0.147	0.036
-565.588	-150.544	-0.463	-0.036
-564.573	-81.330	-0.164	0.054
-563.558	164.245	0.205	-0.289
-562.544	-13.843	-0.390	0.253
-561.529	16.138	0.130	-0.102
-560.515	36.102	-0.109	-0.096
-559.500	46.427	0.063	0.059
-558.485	395.926	-0.065	-0.135
-557.471	224.226	-0.114	-0.184
-556.456	-200.000	0.050	-0.271
-555.442	59.308	0.188	0.186
-554.427	86.641	-0.364	0.402
-553.412	-155.017	-0.218	0.014
-552.398	-200.000	-0.071	0.342
-551.383	31.873	-0.212	0.183
-550.369	-200.000	-0.045	-0.251
-549.354	-64.532	-0.181	-0.074
-548.339	-200.000	-0.009	-0.134
-547.325	433.811	-0.101	0.219
-546.310	51.145	0.050	-0.047
-545.296	800.000	0.043	-0.145
-544.281	571.001	-0.101	-0.246
-543.266	-30.768	-0.362	0.205
-542.252	509.889	0.104	0.242
-541.237	-200.000	-0.039	-0.280
-540.223	-91.737	0.313	-0.089
-539.208	-200.000	-0.019	0.445
-538.193	-200.000	0.011	0.126
-537.179	-191.165	0.365	-0.004
-536.164	-110.343	-0.129	0.027
-535.150	54.299	0.246	0.237
-534.135	-6.074	-0.056	0.038
-533.121	-92.179	0.394	0.111
-532.106	38.991	0.127	0.114
-531.091	-134.601	-0.388	0.047
-530.077	-200.000	0.036	-0.229
-529.062	181.877	-0.122	0.180
-528.048	-200.000	-0.018	0.203
-527.033	-78.910	0.128	-0.044
-526.018	94.517	-0.223	0.254
-525.004	-54.456	-0.105	0.048
-523.989	158.478	-0.126	-0.175
-522.975	16.652	0.062	0.049
-521.960	36.591	0.271	-0.239
-520.945	-109.329	0.364	0.077
-519.931	-200.000	0.043	-0.297
-518.916	234.062	-0.051	-0.084
-517.902	87.213	0.027	0.030
-516.887	-0.918	-0.593	0.421
-515.872	800.000	0.040	0.134
-514.858	-200.000	-0.054	-0.251
-513.843	169.269	0.084	-0.119
-512.829	-117.424	0.369	0.067
-511.814	-35.603	0.284	-0.154
-510.799	537.860	-0.045	-0.108
-509.785	-75.016	0.259	-0.093
-508.770	800.000	-0.071	-0.303
-507.756	173.117	0.157	-0.227
-506.741	468.900	-0.010	0.022
-505.726	-200.000	-0.027	0.459
-504.712	-147.412	0.104	0.009
-503.697	487.767	0.080	0.183
-502.683	-65.205	0.223	0.090
-501.668	-85.654	0.280	0.087
-500.653	62.008	0.274	0.273
-499.639	-200.000	0.009	-0.203
-498.624	800.000	-0.037	-0.111
-497.610	54.246	0.094	0.091
-496.595	-51.228	-0.049	0.023
-495.581	-154.809	0.068	-0.005
-494.566	156.639	0.062	-0.086
-493.551	-61.263	0.274	-0.115
-492.537	800.000	-0.035	-0.106
-491.522	-102.280	-0.208	0.050
-490.508	46.365	-0.156	-0.145
-489.493	800.000	0.007	0.027
-488.478	155.559	0.033	-0.046
-487.464	-89.817	-0.213	-0.062
-486.449	-200.000	0.027	0.367
-485.435	42.007	-0.073	0.066
-484.420	231.079	0.088	0.143
-483.405	-60.298	0.177	0.075
-482.391	91.365	0.042	-0.048
-481.376	5.801	-0.186	-0.138
-480.362	800.000	-0.019	-0.082
-479.347	-200.000	0.290	0.001
-478.332	-200.000	-0.033	-0.336
-477.318	-66.932	0.270	0.107
-476.303	-200.000	0.041	-0.217
-475.289	-21.706	-0.267	0.163
-474.274	-4.047	-0.135	-0.094
-473.259	47.903	0.164	-0.153
-472.245	800.000	0.139	-0.450
-471.230	-41.081	-0.331	-0.171
-470.216	-41.629	-0.060	-0.031
-469.201	-123.886	-0.144	-0.023
-468.186	46.838	-0.286	-0.265
-467.172	-34.161	-0.163	0.090
-466.157	5.295	-0.072	-0.053
-465.143	32.208	-0.152	-0.131
-464.128	-112.267	0.424	-0.085
-463.113	94.882	0.125	-0.142
-462.099	289.489	0.070	0.127
-461.084	-63.517	-0.263	0.108
-460.070	31.092	0.072	0.062
-459.055	800.000	0.041	-0.178
-458.040	92.197	0.165	0.186
-457.026	503.825	0.030	-0.069
-456.011	800.000	-0.040	0.171
-454.997	-200.000	0.017	-0.214
-453.982	84.617	0.050	0.055
-452.968	78.136	-0.033	-0.035
-451.953	-51.258	-0.347	0.162
-450.938	-90.307	0.312	0.091
-449.924	2.134	-0.124	-0.090
-448.909	-200.000	-0.023	-0.259
-447.895	-200.000	0.024	0.227
-446.880	-32.636	0.137	-0.076
-445.865	-19.356	-0.230	-0.142
-444.851	503.499	-0.170	-0.392
-443.836	-200.000	-0.063	-0.497
-442.822	152.221	-0.217	-0.296
-441.807	185.570	-0.150	-0.222
-440.792	57.636	-0.095	-0.093
-439.778	-73.589	-0.229	-0.083
-438.763	-200.000	-0.007	-0.184
-437.749	-200.000	-0.028	0.233
-436.734	142.383	0.156	-0.207
-435.719	559.310	0.086	-0.208
-434.705	-171.634	-0.466	-0.015
-433.690	-42.827	-0.115	-0.058
-432.676	105.184	-0.103	-0.121
-431.661	-13.856	0.248	-0.160
-430.646	-132.702	-0.218	-0.028
-429.632	-115.171	-0.108	0.020
-428.617	-9.149	-0.101	0.067
-427.603	-116.362	0.241	-0.044
-426.588	800.000	-0.086	0.351
-425.573	219.788	-0.112	0.180
-424.559	-7.979	0.100	-0.068
-423.544	65.993	-0.084	0.085
-422.530	-100.988	-0.257	-0.063
-421.515	63.852	0.190	-0.191
-420.500	-200.000	-0.001	0.067
-419.486	84.782	-0.099	-0.108
-418.471	-103.034	0.183	-0.043
-417.457	800.000	-0.141	-0.401
-416.442	691.921	0.049	-0.127
-415.428	-170.798	-0.188	-0.006
-414.413	-79.398	-0.538	0.182
-413.398	800.000	0.038	-0.150
-412.384	605.588	-0.028	0.070
-411.369	98.592	0.264	-0.304
-410.355	-200.000	-0.035	-0.217
-409.340	50.714	0.189	0.179
-408.325	221.241	-0.040	-0.063
-407.311	-33.954	0.100	-0.055
-406.296	800.000	-0.049	0.142
-405.282	-83.637	-0.127	0.040
-404.267	-200.000	-0.004	0.023
-403.252	-68.583	0.173	0.067
-402.238	106.074	0.097	0.114
-401.223	-64.886	0.232	0.094
-400.209	235.703	0.077	0.126
-399.194	-48.272	-0.183	0.088
-398.179	56.753	0.098	0.095
-397.165	295.796	0.053	0.096
-396.150	686.214	0.109	-0.285
-395.136	800.000	0.026	0.072
-394.121	-200.000	0.028	0.153
-393.106	-200.000	0.046	0.239
-392.092	-69.926	0.164	-0.062
-391.077	787.130	0.059	-0.162
-390.063	69.075	-0.157	0.161
-389.048	-54.113	-0.202	0.091
-388.033	800.000	0.065	-0.210
-387.019	-200.000	-0.008	-0.147
-386.004	-115.312	-0.185	0.035
-384.990	17.985	-0.121	0.096
-383.975	-133.427	0.190	0.024
-382.960	-24.749	0.159	0.094
-381.946	-200.000	0.022	-0.155
-380.931	-141.951	0.056	0.006
-379.917	-103.706	-0.082	-0.019
-378.902	28.789	-0.149	-0.126
-377.888	-73.874	-0.513	0.186
-376.873	-200.000	-0.008	-0.040
-375.858	166.667	-0.054	-0.076
-374.844	3.338	-0.140	-0.102
-373.829	-200.000	0.004	0.068
-372.815	800.000	0.041	-0.122
-371.800	-38.441	-0.084	-0.044
-370.785	-148.003	0.024	0.002
-369.771	-26.814	-0.238	-0.139
-368.756	443.583	0.168	-0.367
-367.742	-124.837	-0.244	0.037
-366.727	-9.244	-0.270	-0.180
-365.712	125.120	0.072	0.090
-364.698	-200.000	0.053	0.316
-363.683	800.000	0.013	-0.038
-362.669	15.339	-0.240	-0.187
-361.654	-98.002	-0.136	0.035
-360.639	85.936	-0.118	-0.129
-359.625	14.583	-0.040	-0.031
-358.610	-200.000	-0.023	-0.227
-357.596	-73.302	-0.429	0.156
-356.581	-9.677	-0.295	0.196
-355.566	-91.571	0.295	-0.084
-354.552	12.405	0.081	-0.062
-353.537	-64.745	0.034	0.014
-352.523	20.784	-0.230	0.185
-351.508	105.250	0.041	-0.048
-350.493	-66.509	-0.142	-0.056
-349.479	-67.823	-0.118	-0.046
-348.464	59.371	-0.107	-0.105
-347.450	800.000	-0.025	-0.071
-346.435	-182.763	0.409	0.007
-345.420	68.460	0.155	0.158
-344.406	-3.575	-0.038	0.026
-343.391	-33.186	-0.042	0.023
-342.377	37.682	-0.103	-0.091
-341.362	-193.171	0.177	-0.002
-340.348	-89.100	-0.210	0.062
-339.333	25.631	-0.234	0.194
-338.318	-54.260	0.229	0.103
-337.304	-36.475	0.044	-0.024
-336.289	-23.922	0.055	-0.033
-335.275	35.558	-0.112	0.097
-334.260	-2.379	-0.172	0.120
-333.245	-175.880	-0.243	0.006
-332.231	-200.000	-0.079	0.357
-331.216	-63.402	0.336	0.137
-330.202	6.268	0.090	0.066
-329.187	436.616	0.105	0.227
-328.172	-110.653	-0.147	0.030
-327.158	-200.000	-0.008	0.152
-326.143	-51.439	0.092	0.043
-325.129	368.779	-0.140	-0.282
-324.114	1.345	0.191	0.136
-323.099	477.706	-0.092	-0.207
-322.085	635.163	0.146	-0.368
-321.070	242.319	-0.031	0.051
-320.056	-82.962	-0.197	-0.063
-319.041	61.427	0.178	0.176
-318.026	-200.000	-0.005	0.079
-317.012	-200.000	0.011	-0.051
-315.997	186.469	0.183	0.271
-314.983	-22.953	0.157	-0.094
-313.968	56.682	0.159	0.154
-312.953	81.656	-0.138	0.148
-311.939	-52.577	-0.171	0.078
-310.924	85.183	0.183	0.199
-309.910	-200.000	-0.041	0.366
-308.895	-65.540	0.234	-0.093
-307.880	-116.872	0.165	0.030
-306.866	-97.259	0.246	-0.064
-305.851	158.709	-0.108	-0.149
-304.837	145.273	0.132	-0.175
-303.822	33.502	-0.259	0.224
-302.807	-39.318	0.260	0.136
-301.793	389.077	-0.053	0.108
-300.778	800.000	-0.040	-0.163
-299.764	229.282	0.090	-0.146
-298.749	-200.000	-0.014	0.231
-297.735	-99.607	0.296	0.074
-296.720	-38.105	-0.114	-0.060
-295.705	-49.188	-0.164	0.078
-294.691	800.000	0.071	0.245
-293.676	-52.942	0.180	0.082
-292.662	262.390	-0.212	-0.366
-291.647	138.959	0.098	0.127
-290.632	-200.000	-0.053	0.345
-289.618	-20.024	-0.113	0.069
-288.603	60.714	-0.239	-0.236
-287.589	267.492	0.274	-0.476
-286.574	-32.033	-0.344	-0.191
-285.559	192.840	0.171	0.256
-284.545	-2.379	0.057	0.040
-283.530	76.039	0.061	0.064
-282.516	-200.000	-0.009	0.161
-281.501	-5.898	-0.086	0.058
-280.486	-179.397	0.268	0.006
-279.472	266.128	0.121	-0.209
-278.457	-125.837	-0.216	-0.032
-277.443	800.000	-0.012	0.053
-276.428	-77.824	-0.195	0.067
-275.413	-38.423	-0.115	0.060
-274.399	-200.000	-0.018	0.091
-273.384	-153.423	0.022	-0.002
-272.370	292.287	0.068	0.123
-271.355	-83.156	-0.124	0.040
-270.340	-72.654	0.146	0.053
-269.326	-200.000	-0.006	-0.196
-268.311	-200.000	-0.021	-0.097
-267.297	492.405	0.018	0.040
-266.282	347.490	0.065	0.126
-265.267	182.827	0.183	-0.267
-264.253	-200.000	-0.045	0.213
-263.238	-134.502	0.440	-0.053
-262.224	-81.661	-0.184	-0.060
-261.209	351.759	-0.125	0.246
-260.195	245.766	0.028	0.047
-259.180	-189.761	-0.322	0.004
-258.165	485.672	0.040	0.090
-257.151	-143.730	-0.235	-0.022
-256.136	463.087	0.066	0.145
-255.122	-60.072	-0.302	-0.128
-254.107	270.926	0.059	0.103
-253.092	-24.971	0.097	-0.057
-252.078	800.000	-0.076	-0.229
-251.063	119.541	-0.115	-0.142
-250.049	-65.530	0.089	0.035
-249.034	-200.000	0.252	0.001
-248.019	-124.905	-0.156	-0.024
-247.005	-139.656	0.148	-0.016
-245.990	800.000	0.090	0.283
-244.976	-200.000	0.004	0.035
-243.961	-32.633	-0.046	-0.025
-242.946	17.567	0.322	-0.253
-241.932	374.868	0.151	0.305
-240.917	-200.000	0.344	-0.001
-239.903	-200.000	-0.005	0.154
-238.888	-161.112	0.279	-0.014
-237.873	-200.000	0.015	-0.134
-236.859	-89.541	0.159	0.046
-235.844	-87.430	0.204	-0.061
-234.830	-41.446	0.127	-0.065
-233.815	-32.804	0.206	0.113
-232.800	-147.366	-0.123	-0.010
-231.786	295.817	0.105	0.190
-230.771	713.609	0.084	0.220
-229.757	-199.943	0.195	0.001
-228.742	40.533	-0.158	0.141
-227.727	13.412	0.255	0.195
-226.713	-31.456	-0.187	-0.104
-225.698	-100.272	-0.116	-0.028
-224.684	800.000	0.058	-0.221
-223.669	-200.000	0.054	-0.238
-222.655	84.002	0.211	-0.228
-221.640	-200.000	0.015	0.103
-220.625	-12.314	0.169	-0.110
-219.611	-88.424	0.153	-0.045
-218.596	-138.653	-0.054	-0.006
-217.582	-163.702	0.253	0.012
-216.567	-49.724	0.261	0.123
-215.552	-121.188	0.155	0.026
-214.538	-135.355	0.342	-0.040
-213.523	-200.000	0.042	-0.484
-212.509	-54.132	-0.253	-0.114
-211.494	-0.596	0.121	0.085
-210.479	-104.895	-0.230	0.052
-209.465	175.527	0.168	-0.241
-208.450	115.093	-0.252	0.305
-207.436	31.542	0.146	-0.124
-206.421	-200.000	-0.021	-0.103
-205.406	-59.223	0.288	0.123
-204.392	29.474	0.295	0.248
-203.377	-99.336	-0.207	0.052
-202.363	-200.000	0.010	0.103
-201.348	-109.859	0.089	-0.018
-200.333	492.217	-0.069	-0.157
-199.319	-57.459	0.214	0.093
-198.304	198.862	-0.080	-0.122
-197.290	-200.000	0.024	-0.179
-196.275	-180.697	0.312	0.006
-195.260	-33.254	0.259	0.142
-194.246	-34.160	-0.236	0.128
-193.231	800.000	-0.007	0.029
-192.217	-59.725	0.100	-0.042
-191.202	137.173	-0.157	0.203
-190.187	219.289	-0.089	0.141
-189.173	56.590	0.165	-0.158
-188.158	171.802	0.311	0.441
-187.144	56.336	0.231	-0.222
-186.129	-7.759	-0.086	-0.057
-185.114	129.754	0.205	-0.259
-184.100	28.649	-0.232	-0.194
-183.085	644.770	0.095	-0.239
-182.071	-200.000	0.011	-0.053
-181.056	-200.000	-0.006	-0.053
-180.042	-77.345	0.147	-0.051
-179.027	350.003	-0.027	-0.052
-178.012	496.033	0.031	-0.071
-176.998	800.000	-0.039	-0.111
-175.983	427.600	-0.050	-0.107
-174.969	416.901	-0.095	-0.200
-173.954	-102.460	0.435	-0.103
-172.939	85.911	0.273	-0.296
-171.925	153.703	0.136	-0.184
-170.910	-200.000	0.155	0.001
-169.896	800.000	-0.117	0.359
-168.881	800.000	0.011	-0.033
-167.866	71.605	0.179	0.184
-166.852	0.016	-0.310	0.218
-165.837	-20.995	0.285	-0.172
-164.823	550.076	-0.025	0.059
-163.808	44.270	-0.140	-0.127
-162.793	-89.483	0.327	0.095
-161.779	152.602	-0.314	0.423
-160.764	800.000	-0.020	0.061
-159.750	528.975	0.168	0.390
-158.735	-52.593	0.203	0.092
-157.720	800.000	-0.064	0.205
-156.706	344.015	0.103	0.199
-155.691	295.218	0.094	-0.171
-154.677	800.000	0.042	-0.139
-153.662	533.349	-0.097	-0.228
-152.647	-200.000	0.003	0.289
-151.633	431.736	-0.154	0.328
-150.618	688.092	-0.069	-0.178
-149.604	800.000	0.059	0.212
-148.589	-11.955	-0.104	0.067
-147.574	-97.320	-0.288	-0.074
-146.560	-115.109	0.096	0.018
-145.545	-112.980	0.301	-0.059
-144.531	-26.531	0.204	0.118
-143.516	-200.000	-0.019	0.156
-142.502	-104.348	0.201	0.046
-141.487	-200.000	0.009	0.128
-140.472	-118.430	0.185	-0.032
-139.458	-200.000	-0.036	0.221
-138.443	321.511	0.112	-0.211
-137.429	119.188	0.255	-0.311
-136.414	800.000	-0.056	0.203
-135.399	-73.583	-0.100	0.036
-134.385	-69.682	0.180	0.068
-133.370	-129.341	0.227	-0.031
-132.356	-200.000	0.005	-0.342
-131.341	-5.117	-0.260	-0.176
-130.326	-79.986	-0.187	-0.062
-129.312	-200.000	0.000	-0.239
-128.297	-38.505	0.066	0.034
-127.283	-85.650	0.088	-0.027
-126.268	0.803	0.043	0.030
-125.253	800.000	-0.095	0.308
-124.239	39.655	-0.122	0.108
-123.224	800.000	-0.068	0.280
-122.210	73.115	0.109	-0.112
-121.195	-135.399	0.196	0.023
