DTS Sentinel unit serial number:	SN413079Multiplexer serial number:	ORYXHardware model number:	OX4-SRSoftware version number:	ORYX F/W v4.00 Oryx Data Collector v3.7.2.0data status	okinstallation	princeton_trtdifferential loss correction	single-endedforward channel	channel 1reverse channel	N/Adate	2019/09/19time	03:42:35forward acquisition time	60.00reverse acquisition time	0.00gamma	496.2192k internal	0.2343k external	0.2343temperature offset calibration	1.0014default loss term (dB/km)	0.3790temperature slope calibration	1.0000multiplexer offset coefficient	1.0000multiplexer slope coefficient	1.0000fibre end	0.00T internal ref (°C)	20.55T ext. ref 1 (°C)	0.64T ext. ref 2 (°C)	14.16length (m)	temperature (°C)	Stokes	anti-Stokes-747.200	800.000	0.076	-0.316
-746.185	86.262	-0.203	0.224
-745.171	120.259	-0.228	-0.283
-744.156	54.883	-0.246	0.238
-743.142	-157.326	-0.381	-0.023
-742.127	-200.000	-0.006	0.339
-741.112	88.338	0.173	0.192
-740.098	-110.586	-0.405	0.084
-739.083	-32.330	-0.224	-0.125
-738.069	-35.775	-0.248	0.135
-737.054	263.178	0.202	0.352
-736.039	-27.663	-0.097	-0.056
-735.025	533.943	0.090	0.212
-734.010	800.000	0.055	0.152
-732.996	40.618	-0.336	0.303
-731.981	29.980	-0.496	0.423
-730.966	31.670	-0.238	0.205
-729.952	800.000	-0.021	-0.089
-728.937	192.921	0.249	-0.377
-727.923	418.417	0.165	-0.352
-726.908	-59.770	-0.172	-0.074
-725.894	221.907	0.188	0.303
-724.879	-39.342	-0.193	0.101
-723.864	-200.000	0.008	0.236
-722.850	800.000	-0.130	-0.426
-721.835	-200.000	-0.013	0.125
-720.821	8.504	-0.267	0.201
-719.806	-200.000	-0.015	0.135
-718.791	44.112	-0.133	0.122
-717.777	-0.312	0.159	0.113
-716.762	62.502	0.184	-0.184
-715.748	800.000	-0.074	-0.275
-714.733	453.902	0.152	-0.337
-713.718	-20.981	-0.168	0.103
-712.704	-113.521	-0.165	-0.032
-711.689	-38.794	0.344	-0.182
-710.675	115.638	0.161	-0.197
-709.660	-191.171	-0.198	0.002
-708.645	-170.569	0.137	0.005
-707.631	36.242	-0.045	-0.039
-706.616	30.161	-0.056	0.048
-705.602	-200.000	-0.009	-0.334
-704.587	262.883	0.142	-0.247
-703.572	160.539	0.186	-0.259
-702.558	-178.385	0.223	-0.005
-701.543	64.884	0.176	0.178
-700.529	-42.054	-0.225	-0.115
-699.514	149.747	0.200	-0.271
-698.499	-113.445	0.327	0.064
-697.485	32.844	-0.109	0.095
-696.470	-200.000	-0.004	0.147
-695.456	800.000	0.081	0.276
-694.441	-170.567	0.081	0.003
-693.426	-15.491	-0.162	-0.103
-692.412	-178.310	0.311	-0.007
-691.397	-63.894	-0.325	0.133
-690.383	-200.000	0.002	0.040
-689.368	800.000	0.031	-0.096
-688.354	-68.596	-0.343	0.133
-687.339	-200.000	0.022	-0.110
-686.324	47.461	-0.188	0.175
-685.310	346.622	0.033	-0.064
-684.295	800.000	-0.071	-0.293
-683.281	-200.000	-0.020	-0.285
-682.266	118.819	-0.081	-0.100
-681.251	62.930	0.111	0.111
-680.237	-15.296	-0.431	-0.275
-679.222	-200.000	0.026	-0.168
-678.208	-123.846	-0.242	0.038
-677.193	-19.608	0.198	-0.122
-676.178	49.767	0.182	0.171
-675.164	-200.000	-0.081	0.525
-674.149	-200.000	0.034	-0.193
-673.135	-48.644	-0.094	0.045
-672.120	57.700	-0.276	-0.269
-671.105	-200.000	-0.036	-0.214
-670.091	800.000	0.064	0.178
-669.076	-187.959	-0.383	-0.005
-668.062	306.543	-0.190	-0.353
-667.047	40.733	-0.195	0.176
-666.032	257.568	-0.124	0.214
-665.018	-59.114	0.256	0.110
-664.003	-140.903	0.110	-0.011
-662.989	800.000	-0.081	-0.252
-661.974	-177.879	-0.099	0.002
-660.959	-38.102	0.235	0.124
-659.945	-124.120	0.170	0.027
-658.930	-200.000	0.037	-0.255
-657.916	-43.775	-0.176	-0.089
-656.901	691.934	-0.086	-0.226
-655.886	-59.523	-0.121	-0.052
-654.872	372.136	-0.111	0.224
-653.857	349.776	-0.159	0.314
-652.843	177.410	-0.095	0.138
-651.828	-24.952	0.269	0.159
-650.814	-150.889	0.157	0.012
-649.799	-0.474	-0.227	0.161
-648.784	375.645	-0.020	0.040
-647.770	-145.781	0.114	0.010
-646.755	190.913	-0.081	0.122
-645.741	-200.000	0.016	-0.095
-644.726	319.381	0.051	0.096
-643.711	525.596	-0.156	0.366
-642.697	-54.548	0.235	-0.106
-641.682	800.000	0.085	-0.359
-640.668	203.381	0.296	-0.456
-639.653	-85.494	-0.452	-0.140
-638.638	-200.000	-0.006	-0.086
-637.624	800.000	0.091	0.298
-636.609	-6.657	-0.163	-0.111
-635.595	-74.978	0.168	0.060
-634.580	426.290	-0.059	-0.127
-633.565	-78.803	0.089	0.030
-632.551	-27.164	-0.183	0.106
-631.536	-200.000	0.021	-0.317
-630.522	-200.000	0.017	-0.261
-629.507	609.318	0.067	-0.166
-628.492	609.248	0.060	-0.149
-627.478	-89.393	0.203	-0.060
-626.463	-200.000	-0.030	0.133
-625.449	32.802	0.213	-0.184
-624.434	-135.526	0.319	0.038
-623.419	800.000	0.030	0.117
-622.405	-2.074	0.193	-0.135
-621.390	-36.907	-0.115	-0.061
-620.376	-200.000	0.035	0.161
-619.361	61.530	0.150	-0.149
-618.346	137.583	0.217	0.283
-617.332	-29.670	0.208	0.119
-616.317	-104.955	0.225	0.052
-615.303	23.435	-0.182	0.149
-614.288	762.328	0.082	-0.222
-613.273	800.000	0.060	0.195
-612.259	-124.242	0.261	-0.041
-611.244	-77.865	-0.302	-0.104
-610.230	-200.000	-0.040	0.257
-609.215	-57.740	0.258	0.112
-608.201	269.084	-0.175	-0.306
-607.186	-102.227	0.125	-0.030
-606.171	-3.525	-0.079	-0.055
-605.157	-55.896	0.191	0.085
-604.142	-154.107	-0.357	-0.024
-603.128	-161.597	-0.384	-0.020
-602.113	219.471	-0.067	0.107
-601.098	-33.528	-0.148	0.082
-600.084	219.484	-0.211	0.337
-599.069	-30.533	-0.267	0.151
-598.055	-200.000	-0.066	-0.301
-597.040	800.000	0.035	-0.139
-596.025	-148.795	-0.285	0.023
-595.011	48.455	-0.092	-0.086
-593.996	116.232	0.082	0.101
-592.982	-160.785	0.161	0.008
-591.967	-200.000	0.006	0.060
-590.952	-200.000	-0.074	0.000
-589.938	-200.000	0.031	0.188
-588.923	-200.000	-0.022	-0.280
-587.909	-167.071	-0.140	-0.006
-586.894	800.000	0.077	0.330
-585.879	-200.000	-0.018	-0.124
-584.865	3.945	-0.225	0.164
-583.850	85.701	-0.195	-0.213
-582.836	572.723	-0.128	-0.311
-581.821	535.713	0.152	-0.359
-580.806	123.672	0.091	0.114
-579.792	307.480	0.032	0.059
-578.777	-72.235	0.251	0.093
-577.763	800.000	0.062	0.206
-576.748	-68.024	-0.323	0.125
-575.733	-7.475	-0.106	0.071
-574.719	11.171	0.093	-0.070
-573.704	-200.000	0.015	0.254
-572.690	-157.093	0.100	0.006
-571.675	-200.000	-0.016	-0.331
-570.661	249.201	0.128	-0.216
-569.646	-74.929	-0.116	0.041
-568.631	47.977	-0.254	0.236
-567.617	-200.000	-0.004	0.232
-566.602	-131.801	0.073	-0.010
-565.588	0.886	0.144	-0.103
-564.573	-127.744	0.340	-0.049
-563.558	55.469	-0.163	0.157
-562.544	591.698	0.133	0.327
-561.529	-200.000	-0.023	0.221
-560.515	604.263	-0.070	0.173
-559.500	-36.618	-0.231	0.124
-558.485	-105.067	-0.332	-0.076
-557.471	-173.834	0.173	-0.005
-556.456	-137.453	-0.206	-0.023
-555.442	-150.516	0.240	-0.018
-554.427	157.526	-0.091	-0.125
-553.412	-28.427	-0.266	0.153
-552.398	564.222	-0.063	-0.153
-551.383	130.757	0.246	-0.313
-550.369	-69.145	0.239	-0.092
-549.354	-77.217	-0.259	-0.089
-548.339	-200.000	0.013	-0.206
-547.325	-73.676	0.395	-0.143
-546.310	-63.787	0.191	-0.078
-545.296	-167.882	-0.026	0.001
-544.281	50.232	-0.364	-0.342
-543.266	-127.392	-0.095	0.014
-542.252	497.985	-0.046	-0.105
-541.237	30.974	-0.123	0.105
-540.223	451.005	0.143	-0.313
-539.208	-122.086	-0.197	-0.032
-538.193	144.061	-0.231	-0.307
-537.179	-200.000	0.014	0.191
-536.164	-133.049	0.249	0.031
-535.150	-2.980	-0.371	0.257
-534.135	89.972	0.190	0.211
-533.121	676.321	-0.048	0.125
-532.106	165.954	-0.163	0.230
-531.091	-200.000	-0.047	0.424
-530.077	-200.000	0.064	-0.372
-529.062	-122.908	-0.505	0.081
-528.048	421.362	-0.129	-0.274
-527.033	159.313	-0.150	0.207
-526.018	-52.036	-0.109	0.050
-525.004	800.000	0.056	0.197
-523.989	-122.260	0.181	0.029
-522.975	-28.129	0.111	-0.064
-521.960	-74.730	-0.089	0.032
-520.945	39.281	-0.186	0.165
-519.931	54.476	-0.160	-0.153
-518.916	64.805	-0.155	0.155
-517.902	204.423	-0.110	0.169
-516.887	59.342	0.124	-0.121
-515.872	-43.031	0.089	0.045
-514.858	800.000	0.048	0.143
-513.843	800.000	0.026	-0.110
-512.829	122.523	0.205	-0.255
-511.814	-15.239	-0.199	-0.126
-510.799	241.423	-0.150	0.249
-509.785	84.685	-0.155	0.168
-508.770	205.072	-0.091	-0.141
-507.756	-72.297	0.358	0.132
-506.741	44.920	0.189	0.172
-505.726	308.874	-0.160	0.296
-504.712	-41.329	-0.171	-0.087
-503.697	59.954	0.052	0.051
-502.683	-200.000	-0.044	0.208
-501.668	-200.000	0.015	-0.073
-500.653	36.625	0.372	0.326
-499.639	-70.881	-0.325	-0.121
-498.624	800.000	0.038	-0.132
-497.610	-74.946	-0.143	0.051
-496.595	-116.881	-0.100	0.018
-495.581	-117.551	0.173	-0.031
-494.566	-94.370	0.147	0.040
-493.551	-45.500	-0.202	-0.099
-492.537	-34.647	-0.158	0.086
-491.522	57.133	-0.351	0.339
-490.508	458.673	0.104	-0.229
-489.493	19.988	-0.173	0.138
-488.478	-200.000	-0.027	0.152
-487.464	21.459	0.421	0.339
-486.449	39.720	-0.149	-0.132
-485.435	-56.701	-0.068	-0.030
-484.420	-116.030	0.128	0.024
-483.405	78.847	-0.157	-0.167
-482.391	28.398	0.187	0.157
-481.376	730.291	0.117	-0.311
-480.362	420.172	0.085	0.180
-479.347	73.171	0.041	0.042
-478.332	-200.000	-0.008	0.119
-477.318	-200.000	0.007	-0.145
-476.303	117.281	0.085	-0.104
-475.289	46.818	0.142	-0.131
-474.274	-12.860	0.407	-0.263
-473.259	800.000	-0.102	-0.316
-472.245	-26.346	-0.060	0.035
-471.230	-133.434	-0.191	0.024
-470.216	-92.578	0.463	0.129
-469.201	-102.248	0.275	0.065
-468.186	340.790	-0.223	-0.431
-467.172	22.888	0.104	0.085
-466.157	-53.343	-0.130	0.059
-465.143	296.061	-0.072	-0.131
-464.128	-8.648	0.096	0.064
-463.113	-200.000	0.051	-0.334
-462.099	-89.491	-0.122	-0.036
-461.084	-200.000	-0.023	-0.206
-460.070	172.946	0.255	0.364
-459.055	-86.706	-0.219	-0.066
-458.040	63.264	0.092	-0.091
-457.026	266.830	-0.025	-0.043
-456.011	74.105	-0.139	0.144
-454.997	-200.000	-0.015	-0.081
-453.982	-200.000	-0.000	0.079
-452.968	599.964	0.048	0.119
-451.953	46.350	-0.216	-0.198
-450.938	585.151	-0.101	0.245
-449.924	41.571	-0.123	-0.110
-448.909	69.613	0.136	0.139
-447.895	-27.097	-0.291	0.168
-446.880	-170.674	-0.426	-0.015
-445.865	671.231	-0.119	-0.304
-444.851	274.953	-0.095	-0.167
-443.836	11.578	-0.257	-0.195
-442.822	-200.000	0.023	0.396
-441.807	196.259	0.204	0.308
-440.792	139.702	0.039	-0.051
-439.778	-13.396	-0.074	-0.048
-438.763	-152.365	-0.202	-0.014
-437.749	-70.355	0.159	0.060
-436.734	-92.410	0.160	0.044
-435.719	-200.000	-0.052	-0.354
-434.705	800.000	0.146	0.407
-433.690	-200.000	0.008	0.122
-432.676	119.525	0.124	-0.151
-431.661	99.181	-0.227	-0.259
-430.646	210.934	0.030	-0.047
-429.632	-18.024	-0.120	0.074
-428.617	-80.752	0.199	-0.065
-427.603	320.447	0.100	-0.187
-426.588	-20.673	0.113	0.069
-425.573	-93.326	-0.120	0.033
-424.559	276.075	-0.122	0.214
-423.544	481.113	0.044	-0.099
-422.530	32.470	0.172	-0.147
-421.515	-61.014	0.338	0.141
-420.500	196.622	-0.312	0.470
-419.486	-200.000	-0.030	-0.321
-418.471	800.000	0.071	0.258
-417.457	350.702	0.111	-0.218
-416.442	-84.578	-0.417	-0.130
-415.428	-129.476	0.104	-0.014
-414.413	295.362	-0.018	0.033
-413.398	194.508	0.323	-0.484
-412.384	-27.486	0.085	-0.049
-411.369	31.027	0.249	0.211
-410.355	-24.034	0.320	0.189
-409.340	-52.680	-0.177	-0.081
-408.325	-113.704	0.292	-0.056
-407.311	-200.000	-0.013	-0.116
-406.296	368.562	-0.084	0.167
-405.282	92.992	-0.237	0.264
-404.267	771.424	-0.155	0.417
-403.252	200.392	-0.088	-0.133
-402.238	-176.488	0.262	-0.007
-401.223	-109.133	0.240	0.050
-400.209	211.250	-0.241	-0.374
-399.194	-200.000	-0.001	-0.274
-398.179	640.946	-0.040	-0.099
-397.165	-56.295	0.138	-0.061
-396.150	471.150	0.115	0.256
-395.136	447.804	0.146	0.316
-394.121	11.500	-0.147	-0.112
-393.106	229.495	-0.189	-0.304
-392.092	241.419	-0.009	0.015
-391.077	-200.000	-0.016	0.260
-390.063	800.000	-0.024	0.094
-389.048	-44.922	0.437	0.215
-388.033	-73.985	0.490	0.176
-387.019	-200.000	-0.022	0.203
-386.004	-151.034	0.132	0.010
-384.990	-57.720	0.180	-0.078
-383.975	-152.447	-0.369	-0.026
-382.960	775.983	-0.122	-0.330
-381.946	-58.249	0.348	-0.149
-380.931	37.764	0.183	0.161
-379.917	279.787	0.181	-0.319
-378.902	14.542	-0.245	-0.189
-377.888	39.762	0.235	-0.208
-376.873	800.000	0.065	-0.192
-375.858	-139.961	-0.422	-0.044
-374.844	-200.000	-0.007	-0.316
-373.829	800.000	0.049	-0.139
-372.815	-156.881	-0.202	-0.012
-371.800	274.920	-0.117	-0.204
-370.785	-161.556	0.098	-0.005
-369.771	-200.000	-0.050	0.303
-368.756	-200.000	0.008	0.153
-367.742	-44.071	0.249	0.123
-366.727	-58.818	0.121	0.052
-365.712	509.265	-0.085	0.195
-364.698	48.152	-0.062	0.057
-363.683	-109.260	0.261	0.055
-362.669	613.648	0.072	0.178
-361.654	800.000	0.138	0.507
-360.639	-138.841	-0.370	0.040
-359.625	-200.000	0.018	0.305
-358.610	-200.000	0.020	-0.144
-357.596	800.000	0.050	0.142
-356.581	300.402	-0.152	-0.276
-355.566	127.931	-0.244	0.306
-354.552	-18.799	-0.292	-0.179
-353.537	108.013	0.213	-0.250
-352.523	800.000	0.042	-0.145
-351.508	-17.132	-0.136	0.085
-350.493	-152.580	0.203	-0.014
-349.479	57.054	-0.352	-0.339
-348.464	-19.171	-0.320	0.196
-347.450	800.000	0.064	0.177
-346.435	-100.790	0.274	-0.067
-345.420	613.442	0.164	-0.405
-344.406	-12.843	0.156	-0.100
-343.391	99.442	0.172	-0.196
-342.377	792.117	0.025	-0.069
-341.362	-200.000	-0.016	0.119
-340.348	-155.019	0.270	0.017
-339.333	-200.000	-0.004	0.073
-338.318	-19.776	-0.217	-0.132
-337.304	208.049	-0.041	-0.064
-336.289	-136.606	-0.071	-0.008
-335.275	-200.000	-0.001	0.085
-334.260	-157.709	-0.278	0.016
-333.245	61.106	-0.117	0.114
-332.231	-38.581	-0.142	0.074
-331.216	-7.522	0.071	0.048
-330.202	800.000	-0.025	-0.104
-329.187	-19.598	-0.116	-0.071
-328.172	790.300	0.093	-0.252
-327.158	8.022	-0.308	0.228
-326.143	-44.598	0.186	0.092
-325.129	-200.000	-0.011	-0.199
-324.114	104.556	-0.147	0.171
-323.099	800.000	-0.053	-0.181
-322.085	800.000	0.115	0.364
-321.070	159.608	0.183	0.251
-320.056	-134.109	0.337	0.041
-319.041	566.752	-0.163	0.389
-318.026	-79.481	0.637	0.212
-317.012	-10.512	-0.148	0.096
-315.997	101.065	0.036	-0.041
-314.983	-63.534	-0.293	-0.118
-313.968	42.065	0.113	0.101
-312.953	800.000	0.115	-0.456
-311.939	-103.291	-0.317	-0.074
-310.924	32.511	0.090	0.076
-309.910	-200.000	0.004	0.124
-308.895	-114.163	0.179	-0.034
-307.880	-65.544	-0.198	0.078
-306.866	800.000	-0.169	-0.531
-305.851	-200.000	-0.004	0.175
-304.837	800.000	-0.047	-0.156
-303.822	800.000	0.123	-0.390
-302.807	77.758	0.165	0.173
-301.793	-162.272	-0.406	-0.020
-300.778	78.856	0.137	0.145
-299.764	-11.060	0.299	0.194
-298.749	800.000	0.082	0.257
-297.735	-6.072	-0.192	-0.129
-296.720	-200.000	0.049	0.224
-295.705	-116.235	-0.079	0.014
-294.691	347.709	-0.051	0.098
-293.676	-26.590	-0.081	-0.046
-292.662	-136.734	0.501	0.057
-291.647	248.136	0.142	0.237
-290.632	800.000	-0.066	0.255
-289.618	-137.967	0.064	-0.007
-288.603	-3.027	-0.055	0.037
-287.589	-200.000	0.024	0.286
-286.574	91.001	0.486	-0.536
-285.559	-168.411	-0.261	-0.010
-284.545	-34.914	-0.287	-0.154
-283.530	47.337	0.159	-0.145
-282.516	-200.000	-0.072	-0.415
-281.501	50.734	-0.114	-0.106
-280.486	-142.859	0.176	-0.017
-279.472	-165.365	-0.108	-0.005
-278.457	37.669	0.070	0.061
-277.443	800.000	0.075	0.265
-276.428	260.874	-0.101	0.172
-275.413	522.107	-0.163	0.376
-274.399	271.534	-0.021	-0.036
-273.384	800.000	0.111	-0.303
-272.370	4.132	-0.155	-0.112
-271.355	135.851	-0.150	-0.192
-270.340	417.894	-0.166	-0.348
-269.326	155.930	-0.074	0.100
-268.311	-132.942	-0.273	0.034
-267.297	-200.000	0.048	-0.290
-266.282	299.494	-0.232	0.419
-265.267	-77.324	0.234	0.080
-264.253	56.347	-0.125	-0.120
-263.238	6.673	-0.154	-0.112
-262.224	12.917	-0.111	-0.085
-261.209	-200.000	0.033	0.244
-260.195	-200.000	-0.070	-0.452
-259.180	-200.000	0.022	0.293
-258.165	-200.000	-0.006	0.243
-257.151	-44.711	0.203	-0.100
-256.136	-45.873	-0.168	0.082
-255.122	-113.102	-0.133	-0.026
-254.107	-87.178	0.150	0.045
-253.092	74.644	0.292	-0.302
-252.078	-86.135	0.258	0.078
-251.063	-0.389	-0.259	-0.181
-250.049	19.707	-0.072	-0.057
-249.034	-200.000	-0.002	0.258
-248.019	-109.037	-0.209	0.044
-247.005	-182.990	-0.308	-0.005
-245.990	-42.730	0.133	0.066
-244.976	800.000	-0.068	-0.227
-243.961	288.682	-0.160	-0.285
-242.946	-200.000	0.014	-0.254
-241.932	-200.000	-0.002	0.011
-240.917	-60.745	-0.274	-0.114
-239.903	-13.128	0.163	0.104
-238.888	-69.140	-0.067	-0.025
-237.873	683.566	0.109	-0.280
-236.859	38.508	0.100	-0.087
-235.844	0.502	0.154	-0.108
-234.830	800.000	0.071	-0.229
-233.815	180.308	0.243	0.349
-232.800	-63.608	-0.383	0.154
-231.786	-200.000	0.023	-0.109
-230.771	-61.773	-0.299	0.123
-229.757	188.670	-0.040	-0.058
-228.742	800.000	-0.010	-0.029
-227.727	2.020	-0.306	-0.216
-226.713	320.367	-0.079	0.147
-225.698	212.701	0.190	-0.294
-224.684	3.018	0.234	0.167
-223.669	800.000	0.085	0.243
-222.655	-200.000	-0.021	0.118
-221.640	-200.000	0.004	-0.143
-220.625	-163.954	0.207	0.009
-219.611	-200.000	0.065	0.405
-218.596	-51.002	-0.206	0.095
-217.582	800.000	0.078	-0.254
-216.567	249.318	0.239	0.397
-215.552	6.923	0.412	0.301
-214.538	27.645	-0.092	0.076
-213.523	492.873	-0.110	0.247
-212.509	-34.966	0.374	0.200
-211.494	-13.081	0.055	0.035
-210.479	-93.564	0.451	0.122
-209.465	15.995	0.118	0.091
-208.450	14.149	-0.312	0.238
-207.436	800.000	0.070	-0.219
-206.421	-127.995	0.149	-0.021
-205.406	-109.569	-0.284	-0.059
-204.392	63.441	0.078	-0.076
-203.377	205.267	0.182	0.277
-202.363	-200.000	-0.016	0.430
-201.348	-138.770	0.340	0.036
-200.333	164.856	0.171	0.236
-199.319	39.635	-0.222	0.195
-198.304	-49.900	0.142	0.066
-197.290	73.822	0.243	-0.250
-196.275	698.918	-0.156	-0.401
-195.260	-33.502	-0.224	-0.121
-194.246	-67.124	0.393	-0.152
-193.231	800.000	-0.063	-0.181
-192.217	-200.000	0.033	-0.219
-191.202	329.989	0.121	0.228
-190.187	149.240	-0.160	-0.212
-189.173	-162.671	-0.043	-0.002
-188.158	-184.406	0.304	0.005
-187.144	-176.875	0.527	0.013
-186.129	-74.659	-0.138	0.049
-185.114	81.864	0.098	0.104
-184.100	-200.000	-0.005	-0.023
-183.085	-126.142	-0.158	-0.023
-182.071	800.000	0.040	-0.148
-181.056	800.000	0.116	0.355
-180.042	-125.459	-0.259	0.039
-179.027	138.875	-0.100	0.129
-178.012	-34.512	-0.111	-0.060
-176.998	-200.000	-0.024	0.202
-175.983	384.754	-0.058	-0.117
-174.969	8.202	0.027	-0.020
-173.954	145.349	0.099	-0.129
-172.939	-99.962	-0.154	0.038
-171.925	184.522	-0.146	-0.211
-170.910	227.530	0.137	-0.218
-169.896	-31.812	-0.165	-0.091
-168.881	-53.906	0.142	-0.063
-167.866	-50.179	0.244	0.113
-166.852	800.000	0.018	-0.063
-165.837	42.467	0.151	-0.135
-164.823	-22.826	0.101	0.059
-163.808	-165.549	-0.152	0.006
-162.793	-98.205	-0.311	-0.078
-161.779	-67.049	0.363	-0.140
-160.764	-200.000	-0.047	-0.332
-159.750	196.265	-0.079	-0.117
-158.735	15.946	0.174	-0.134
-157.720	93.714	-0.190	0.210
-156.706	-18.109	0.181	-0.111
-155.691	150.747	0.195	-0.259
-154.677	-129.140	-0.511	-0.070
-153.662	-59.855	-0.077	-0.032
-152.647	800.000	-0.083	0.235
-151.633	304.396	-0.115	0.210
-150.618	-3.575	-0.161	-0.109
-149.604	-200.000	0.014	0.079
-148.589	207.958	-0.151	0.230
-147.574	-58.880	0.286	-0.121
-146.560	800.000	0.065	0.246
-145.545	-200.000	-0.014	0.166
-144.531	164.197	-0.214	-0.295
-143.516	-11.133	-0.199	-0.128
-142.502	-200.000	-0.001	-0.092
-141.487	31.862	-0.284	-0.239
-140.472	22.529	0.185	0.148
-139.458	33.025	0.321	-0.272
-138.443	-35.654	0.285	0.151
-137.429	800.000	-0.092	-0.318
-136.414	38.137	-0.217	-0.189
-135.399	38.178	0.092	0.080
-134.385	-44.565	-0.144	-0.070
-133.370	-52.645	0.098	-0.044
-132.356	-112.784	0.134	-0.026
-131.341	-200.000	0.006	-0.240
-130.326	-140.309	0.023	-0.002
-129.312	-115.212	-0.209	0.039
-128.297	6.171	0.039	-0.029
-127.283	81.719	0.201	-0.213
-126.268	-200.000	-0.012	0.201
-125.253	-200.000	-0.025	0.240
-124.239	98.838	-0.217	-0.245
-123.224	348.479	0.134	-0.258
-122.210	118.439	-0.239	0.288
-121.195	-200.000	-0.022	-0.106
