DTS Sentinel unit serial number:	SN413079Multiplexer serial number:	ORYXHardware model number:	OX4-SRSoftware version number:	ORYX F/W v4.00 Oryx Data Collector v3.7.2.0data status	okinstallation	princeton_trtdifferential loss correction	single-endedforward channel	channel 1reverse channel	N/Adate	2019/09/11time	12:20:11forward acquisition time	60.00reverse acquisition time	0.00gamma	496.2192k internal	0.2293k external	0.2293temperature offset calibration	0.9938default loss term (dB/km)	0.3790temperature slope calibration	1.0000multiplexer offset coefficient	1.0000multiplexer slope coefficient	1.0000fibre end	0.00T internal ref (°C)	40.08T ext. ref 1 (°C)	0.19T ext. ref 2 (°C)	38.40length (m)	temperature (°C)	Stokes	anti-Stokes-747.200	-80.527	0.468	-0.160
-746.185	-114.079	0.565	0.112
-745.171	82.600	0.205	0.228
-744.156	10.114	0.130	0.101
-743.142	-200.000	0.050	-0.418
-742.127	32.719	0.145	-0.128
-741.112	-200.000	-0.009	-0.206
-740.098	-183.329	-0.224	0.004
-739.083	179.736	0.047	0.071
-738.069	-200.000	-0.022	0.251
-737.054	800.000	-0.050	0.146
-736.039	44.838	-0.130	0.123
-735.025	-200.000	-0.008	0.241
-734.010	290.770	0.082	-0.153
-732.996	245.299	-0.239	-0.410
-731.981	-99.036	-0.070	0.018
-730.966	800.000	-0.050	-0.149
-729.952	-84.441	-0.349	-0.113
-728.937	-113.142	-0.089	0.018
-727.923	408.177	0.029	0.062
-726.908	-110.506	-0.350	-0.074
-725.894	595.318	-0.125	-0.316
-724.879	-73.323	0.082	0.031
-723.864	-159.501	-0.230	-0.013
-722.850	256.295	-0.190	0.334
-721.835	-147.224	-0.677	0.059
-720.821	47.596	-0.081	-0.077
-719.806	152.477	-0.185	-0.258
-718.791	-200.000	0.031	-0.186
-717.777	-200.000	0.009	-0.280
-716.762	-74.632	-0.156	-0.058
-715.748	-15.443	-0.144	0.094
-714.733	-109.208	-0.345	0.075
-713.718	-24.857	-0.197	0.120
-712.704	-97.068	0.045	-0.012
-711.689	-53.623	0.248	0.116
-710.675	-68.655	0.160	0.063
-709.660	-40.935	-0.106	-0.056
-708.645	41.677	0.119	0.110
-707.631	-47.810	-0.069	0.034
-706.616	354.207	0.109	0.220
-705.602	-66.366	0.221	-0.090
-704.587	-135.735	-0.137	-0.017
-703.572	88.640	-0.052	-0.059
-702.558	-99.987	0.084	-0.021
-701.543	609.208	-0.160	0.408
-700.529	-173.219	-0.421	-0.013
-699.514	-200.000	0.041	-0.358
-698.499	800.000	0.009	-0.027
-697.485	-0.410	-0.197	-0.143
-696.470	94.734	0.100	0.116
-695.456	9.687	0.211	-0.163
-694.441	-65.657	-0.264	-0.108
-693.426	-128.077	-0.103	-0.015
-692.412	-200.000	0.022	-0.190
-691.397	33.834	-0.130	-0.115
-690.383	38.776	0.286	-0.260
-689.368	47.711	0.183	-0.174
-688.354	175.403	-0.125	0.185
-687.339	40.673	0.066	-0.060
-686.324	96.316	0.119	-0.139
-685.310	800.000	-0.071	0.262
-684.295	800.000	0.034	0.102
-683.281	-115.072	-0.093	0.018
-682.266	79.729	-0.311	-0.341
-681.251	-121.226	-0.172	0.029
-680.237	-197.291	-0.149	-0.001
-679.222	-200.000	0.045	0.207
-678.208	74.531	0.327	-0.351
-677.193	-22.634	0.307	0.189
-676.178	-41.725	0.206	0.108
-675.164	352.201	-0.093	0.189
-674.149	446.252	-0.037	-0.082
-673.135	-200.000	0.000	0.071
-672.120	758.401	-0.037	-0.103
-671.105	-200.000	-0.023	-0.216
-670.091	257.574	-0.127	0.223
-669.076	712.976	0.043	0.116
-668.062	-116.007	-0.153	0.029
-667.047	-134.354	-0.237	0.030
-666.032	-71.962	-0.091	-0.035
-665.018	-200.000	-0.031	-0.140
-664.003	-68.261	0.022	0.009
-662.989	-61.069	0.058	-0.025
-661.974	243.860	-0.050	-0.086
-660.959	-200.000	0.010	-0.443
-659.945	-49.996	-0.161	0.078
-658.930	-200.000	0.016	0.088
-657.916	-200.000	-0.032	-0.200
-656.901	125.370	-0.131	0.169
-655.886	386.992	-0.048	0.102
-654.872	-94.502	-0.228	0.063
-653.857	-93.621	0.294	-0.083
-652.843	697.417	0.095	-0.253
-651.828	-99.025	0.412	0.106
-650.814	58.218	-0.095	-0.095
-649.799	-89.717	-0.206	-0.061
-648.784	-200.000	-0.001	-0.052
-647.770	-200.000	0.046	-0.359
-646.755	-159.787	-0.455	0.026
-645.741	-106.104	0.109	0.025
-644.726	34.242	-0.164	0.145
-643.711	159.651	-0.086	-0.123
-642.697	800.000	-0.124	-0.420
-641.682	-125.333	-0.466	0.073
-640.668	-200.000	-0.025	0.144
-639.653	-85.404	-0.221	-0.070
-638.638	25.720	0.289	-0.245
-637.624	-200.000	0.021	0.115
-636.609	-168.113	-0.097	-0.004
-635.595	508.696	-0.120	-0.284
-634.580	68.832	-0.069	0.072
-633.565	-38.420	-0.391	-0.211
-632.551	-200.000	0.009	-0.054
-631.536	-70.125	-0.078	-0.030
-630.522	125.374	0.161	0.207
-629.507	438.180	0.046	-0.102
-628.492	194.260	0.057	-0.088
-627.478	-133.387	0.125	-0.016
-626.463	800.000	0.060	0.199
-625.449	-26.285	0.321	0.192
-624.434	41.094	0.289	0.266
-623.419	-28.989	0.046	-0.027
-622.405	104.397	-0.042	0.050
-621.390	2.237	0.230	-0.169
-620.376	0.927	0.211	0.154
-619.361	-160.081	0.186	0.010
-618.346	789.255	-0.061	0.171
-617.332	-91.534	-0.153	-0.044
-616.317	33.794	-0.225	0.200
-615.303	-200.000	-0.070	0.379
-614.288	-16.741	0.058	-0.037
-613.273	-110.282	0.256	-0.054
-612.259	54.493	-0.166	0.163
-611.244	-200.000	-0.056	-0.290
-610.230	64.845	-0.215	0.221
-609.215	-127.547	-0.016	-0.002
-608.201	-200.000	-0.012	-0.203
-607.186	-161.200	0.248	-0.013
-606.171	60.574	-0.196	0.197
-605.157	106.157	-0.168	-0.202
-604.142	800.000	0.087	-0.250
-603.128	-200.000	-0.012	-0.129
-602.113	800.000	-0.072	-0.212
-601.098	-200.000	-0.027	0.192
-600.084	235.477	0.101	-0.170
-599.069	-40.397	0.163	-0.086
-598.055	-133.344	-0.217	0.028
-597.040	24.716	0.142	-0.119
-596.025	364.442	-0.118	-0.241
-595.011	-37.910	-0.207	-0.112
-593.996	-200.000	-0.039	0.318
-592.982	-200.000	0.055	0.460
-591.967	-173.771	-0.236	-0.007
-590.952	-127.744	-0.095	0.014
-589.938	24.734	-0.368	0.310
-588.923	-89.179	-0.440	0.132
-587.909	-158.281	-0.080	0.005
-586.894	800.000	-0.075	-0.312
-585.879	-200.000	0.083	0.374
-584.865	265.410	-0.075	0.132
-583.850	-200.000	0.002	-0.174
-582.836	83.464	-0.165	-0.183
-581.821	30.665	-0.316	-0.275
-580.806	-67.449	-0.045	-0.018
-579.792	24.346	0.001	0.001
-578.777	9.761	0.059	0.045
-577.763	800.000	0.039	-0.119
-576.748	22.748	0.038	-0.031
-575.733	-41.290	-0.060	-0.032
-574.719	800.000	-0.085	-0.248
-573.704	46.401	-0.254	-0.239
-572.690	-200.000	-0.008	-0.244
-571.675	-200.000	0.023	-0.543
-570.661	-66.365	-0.206	-0.083
-569.646	602.406	0.065	0.164
-568.631	-99.558	-0.351	0.090
-567.617	-57.380	0.218	0.097
-566.602	449.931	-0.112	-0.251
-565.588	-80.925	-0.293	-0.099
-564.573	-200.000	-0.000	0.029
-563.558	-71.793	0.249	0.094
-562.544	800.000	0.065	0.186
-561.529	-49.281	-0.132	0.064
-560.515	-59.892	0.222	-0.096
-559.500	800.000	-0.118	-0.444
-558.485	-200.000	0.031	-0.199
-557.471	-196.803	-0.354	0.002
-556.456	219.006	0.034	-0.055
-555.442	800.000	-0.060	-0.262
-554.427	-57.784	0.131	0.058
-553.412	-17.230	-0.110	-0.070
-552.398	-87.188	0.507	-0.156
-551.383	-200.000	-0.034	-0.367
-550.369	115.639	-0.131	-0.163
-549.354	198.102	-0.152	-0.235
-548.339	144.887	-0.186	0.253
-547.325	-200.000	0.024	0.360
-546.310	-80.517	0.210	-0.071
-545.296	-168.493	-0.111	0.004
-544.281	-53.249	0.337	-0.157
-543.266	800.000	-0.044	-0.193
-542.252	-118.940	0.143	-0.025
-541.237	41.587	-0.276	0.254
-540.223	6.982	0.222	0.168
-539.208	800.000	0.086	0.250
-538.193	237.222	-0.208	0.350
-537.179	-97.154	0.401	-0.106
-536.164	-69.882	-0.493	0.191
-535.150	800.000	-0.031	0.094
-534.135	-0.589	0.126	-0.091
-533.121	-200.000	-0.003	0.127
-532.106	-94.589	-0.069	0.019
-531.091	800.000	-0.154	0.487
-530.077	45.088	-0.212	0.198
-529.062	-200.000	-0.018	-0.150
-528.048	-66.485	0.328	-0.132
-527.033	19.995	-0.137	-0.112
-526.018	-41.212	0.263	-0.137
-525.004	-115.424	-0.242	0.046
-523.989	-105.500	-0.318	0.073
-522.975	-0.521	0.090	-0.065
-521.960	-119.643	-0.364	0.064
-520.945	430.484	-0.062	0.136
-519.931	800.000	0.033	-0.117
-518.916	13.887	-0.250	0.197
-517.902	41.768	-0.292	0.268
-516.887	-106.903	-0.307	0.069
-515.872	-200.000	0.009	-0.043
-514.858	49.524	-0.178	0.170
-513.843	-121.520	-0.146	0.025
-512.829	-44.434	0.077	0.039
-511.814	-33.531	0.251	0.141
-510.799	-154.181	-0.303	0.021
-509.785	-50.183	0.176	0.084
-508.770	-72.152	0.335	0.126
-507.756	124.038	-0.204	0.260
-506.741	-20.517	-0.038	-0.023
-505.726	-200.000	0.002	0.144
-504.712	196.261	0.200	-0.308
-503.697	-124.659	0.245	-0.039
-502.683	-16.058	0.130	-0.084
-501.668	-91.803	-0.207	0.059
-500.653	-2.478	-0.044	-0.031
-499.639	800.000	0.035	-0.135
-498.624	-148.370	-0.048	-0.004
-497.610	-25.306	-0.189	-0.113
-496.595	2.944	0.224	0.165
-495.581	-118.759	-0.097	-0.017
-494.566	800.000	0.063	0.189
-493.551	-82.146	0.272	0.090
-492.537	800.000	0.109	-0.323
-491.522	14.673	0.059	-0.047
-490.508	800.000	0.055	-0.229
-489.493	-82.541	-0.014	0.005
-488.478	94.708	0.118	-0.136
-487.464	-90.079	0.333	-0.098
-486.449	-78.880	0.152	-0.052
-485.435	34.812	0.142	-0.126
-484.420	52.243	-0.201	-0.194
-483.405	204.346	-0.266	-0.417
-482.391	-14.649	-0.183	-0.119
-481.376	176.089	-0.088	0.130
-480.362	22.981	0.370	0.308
-479.347	8.212	-0.186	-0.142
-478.332	-132.624	0.091	-0.012
-477.318	-77.211	-0.092	-0.032
-476.303	383.687	-0.069	-0.143
-475.289	-61.690	0.167	-0.071
-474.274	211.345	-0.026	0.042
-473.259	-200.000	0.405	0.002
-472.245	-141.662	0.182	0.019
-471.230	284.681	0.081	0.148
-470.216	800.000	-0.046	0.132
-469.201	518.854	0.023	-0.055
-468.186	-112.866	-0.635	0.127
-467.172	800.000	0.019	-0.065
-466.157	-200.000	-0.024	0.143
-465.143	234.849	0.042	0.070
-464.128	214.463	0.269	0.431
-463.113	800.000	-0.071	-0.205
-462.099	-200.000	0.056	-0.257
-461.084	-27.032	0.256	-0.151
-460.070	166.868	-0.129	0.186
-459.055	-200.000	-0.020	0.156
-458.040	-31.907	-0.225	0.128
-457.026	-20.157	-0.102	-0.064
-456.011	-200.000	0.005	0.038
-454.997	145.278	0.078	0.106
-453.982	-23.017	0.268	0.163
-452.968	568.787	-0.089	-0.220
-451.953	-156.137	-0.458	0.029
-450.938	-110.937	-0.420	-0.087
-449.924	312.078	0.053	0.101
-448.909	-134.019	0.214	0.027
-447.895	-93.598	0.287	0.080
-446.880	-40.138	-0.153	0.081
-445.865	800.000	-0.054	-0.158
-444.851	-104.670	0.054	0.013
-443.836	166.361	0.094	0.135
-442.822	33.344	0.176	-0.155
-441.807	-57.997	0.127	0.056
-440.792	764.758	-0.039	-0.106
-439.778	54.588	0.193	-0.188
-438.763	-32.875	-0.165	0.093
-437.749	-165.065	0.413	-0.019
-436.734	-15.532	0.189	0.122
-435.719	-64.802	0.293	0.120
-434.705	800.000	-0.060	-0.188
-433.690	121.497	-0.114	-0.144
-432.676	31.291	0.019	0.016
-431.661	-89.129	0.244	0.073
-430.646	800.000	-0.062	0.180
-429.632	120.113	-0.195	-0.244
-428.617	57.267	0.155	-0.153
-427.603	82.811	-0.202	-0.221
-426.588	800.000	0.033	0.134
-425.573	290.553	-0.104	0.191
-424.559	338.972	-0.140	0.275
-423.544	-42.360	-0.054	0.028
-422.530	800.000	-0.012	0.039
-421.515	244.063	-0.124	-0.210
-420.500	-15.389	-0.113	-0.073
-419.486	1.448	0.333	-0.242
-418.471	-104.388	-0.073	0.017
-417.457	-27.618	0.052	-0.031
-416.442	-168.369	0.281	0.011
-415.428	800.000	0.062	0.202
-414.413	-46.486	-0.167	-0.083
-413.398	-200.000	-0.041	-0.247
-412.384	800.000	0.038	-0.131
-411.369	-16.651	0.154	0.099
-410.355	-200.000	-0.005	0.213
-409.340	302.575	0.032	-0.060
-408.325	-200.000	-0.010	0.079
-407.311	-99.624	0.063	-0.016
-406.296	35.888	-0.285	-0.253
-405.282	-40.325	-0.144	0.075
-404.267	614.629	-0.085	-0.215
-403.252	-200.000	0.019	-0.213
-402.238	-64.150	0.240	0.099
-401.223	-28.115	-0.146	0.085
-400.209	-15.433	-0.435	0.281
-399.194	-4.564	0.294	-0.205
-398.179	121.530	-0.132	0.166
-397.165	800.000	0.038	0.132
-396.150	119.252	-0.136	-0.170
-395.136	-8.673	0.152	0.103
-394.121	-119.372	0.093	-0.016
-393.106	-200.000	-0.009	0.173
-392.092	-200.000	-0.008	-0.235
-391.077	14.172	-0.235	-0.185
-390.063	-109.906	-0.156	-0.033
-389.048	-109.205	0.328	-0.070
-388.033	800.000	-0.075	-0.244
-387.019	-46.807	-0.351	0.173
-386.004	35.843	0.199	-0.177
-384.990	183.514	0.164	0.244
-383.975	285.320	-0.077	0.139
-382.960	-76.135	-0.221	-0.079
-381.946	-96.150	-0.192	-0.051
-380.931	21.458	-0.104	-0.086
-379.917	-29.782	0.298	0.172
-378.902	18.546	0.123	-0.099
-377.888	21.638	-0.091	0.075
-376.873	-133.151	-0.150	0.019
-375.858	3.218	-0.128	-0.094
-374.844	193.090	0.096	-0.147
-373.829	116.784	0.048	-0.060
-372.815	-106.825	0.217	0.049
-371.800	-5.442	0.145	0.100
-370.785	4.154	-0.110	-0.081
-369.771	-150.528	0.145	0.011
-368.756	589.578	0.056	-0.140
-367.742	761.919	0.079	-0.215
-366.727	62.829	0.118	0.119
-365.712	39.597	-0.130	-0.118
-364.698	134.614	0.091	0.120
-363.683	-109.159	-0.191	-0.041
-362.669	77.990	-0.313	-0.336
-361.654	-128.074	-0.260	0.037
-360.639	-200.000	0.048	-0.221
-359.625	-93.665	0.262	-0.073
-358.610	31.392	-0.209	-0.181
-357.596	-200.000	-0.069	0.320
-356.581	252.808	0.067	-0.116
-355.566	-29.219	-0.140	0.081
-354.552	82.035	0.229	0.250
-353.537	-200.000	0.054	-0.239
-352.523	-123.719	0.393	0.063
-351.508	-9.576	-0.173	-0.116
-350.493	800.000	0.094	0.329
-349.479	800.000	0.008	0.027
-348.464	-113.024	0.280	-0.056
-347.450	-8.808	-0.084	0.057
-346.435	800.000	0.041	0.120
-345.420	800.000	0.013	-0.046
-344.406	-164.408	0.377	0.017
-343.391	-200.000	-0.031	0.339
-342.377	-200.000	-0.012	-0.179
-341.362	543.458	0.110	0.265
-340.348	99.828	0.076	-0.088
-339.333	800.000	-0.104	0.331
-338.318	-200.000	0.009	0.495
-337.304	-72.535	-0.233	-0.087
-336.289	-108.106	-0.190	0.041
-335.275	390.554	0.095	0.198
-334.260	-11.347	0.072	0.048
-333.245	-132.726	0.118	0.015
-332.231	49.682	-0.166	0.157
-331.216	800.000	-0.031	0.110
-330.202	-200.000	-0.035	0.290
-329.187	-136.097	-0.178	0.021
-328.172	292.024	0.022	0.040
-327.158	75.940	-0.156	-0.166
-326.143	-132.184	0.259	-0.034
-325.129	11.026	-0.245	-0.188
-324.114	251.119	-0.155	-0.266
-323.099	-85.793	0.256	0.080
-322.085	-178.724	0.335	0.008
-321.070	260.600	0.043	-0.074
-320.056	-200.000	0.003	0.200
-319.041	-10.048	-0.221	-0.148
-318.026	-2.326	-0.245	0.173
-317.012	-200.000	0.024	-0.321
-315.997	341.151	0.194	-0.381
-314.983	-200.000	0.053	0.236
-313.968	-88.692	0.070	0.021
-312.953	24.745	-0.213	0.177
-311.939	-200.000	0.056	-0.426
-310.924	-200.000	-0.014	-0.259
-309.910	-114.085	0.357	-0.069
-308.895	-26.382	0.137	0.081
-307.880	348.335	-0.021	0.041
-306.866	-156.442	-0.288	0.018
-305.851	159.817	0.042	0.058
-304.837	-111.225	0.165	-0.034
-303.822	475.149	-0.059	0.134
-302.807	-200.000	-0.008	0.041
-301.793	37.977	0.093	0.083
-300.778	-1.303	0.110	0.078
-299.764	-20.430	-0.068	0.042
-298.749	451.516	0.121	0.268
-297.735	-144.015	-0.094	-0.009
-296.720	783.498	0.151	0.416
-295.705	83.453	-0.091	0.099
-294.691	-200.000	0.021	0.100
-293.676	-174.962	-0.285	0.008
-292.662	800.000	0.153	0.427
-291.647	-98.838	-0.230	-0.059
-290.632	101.990	0.189	0.222
-289.618	800.000	-0.071	-0.211
-288.603	-200.000	-0.015	-0.144
-287.589	-57.580	-0.484	-0.213
-286.574	-200.000	0.033	-0.239
-285.559	43.253	0.078	-0.071
-284.545	800.000	0.075	-0.249
-283.530	-6.447	-0.088	0.061
-282.516	300.789	0.117	0.216
-281.501	312.346	0.128	0.242
-280.486	231.857	0.085	0.141
-279.472	5.610	0.156	0.116
-278.457	662.213	0.067	0.174
-277.443	800.000	0.156	0.440
-276.428	156.334	0.026	-0.035
-275.413	256.816	0.098	0.169
-274.399	-116.478	-0.041	0.008
-273.384	79.018	-0.160	-0.172
-272.370	0.448	-0.114	0.082
-271.355	95.320	-0.156	0.178
-270.340	-40.631	0.107	0.056
-269.326	115.387	-0.028	-0.034
-268.311	800.000	-0.033	-0.117
-267.297	-152.122	0.132	0.010
-266.282	-60.910	0.116	-0.049
-265.267	97.573	-0.112	-0.130
-264.253	-67.076	0.163	0.064
-263.238	183.817	0.029	-0.043
-262.224	-120.735	0.220	-0.037
-261.209	-181.944	0.389	0.007
-260.195	-33.375	0.152	-0.084
-259.180	-104.342	0.174	0.040
-258.165	-200.000	0.025	0.155
-257.151	-147.992	-0.069	-0.006
-256.136	-104.932	0.390	-0.090
-255.122	-78.040	-0.122	0.042
-254.107	138.471	0.093	0.123
-253.092	-40.062	0.134	0.070
-252.078	-56.373	0.015	-0.007
-251.063	-25.467	0.197	-0.117
-250.049	785.266	-0.121	0.333
-249.034	-200.000	-0.025	-0.178
-248.019	-200.000	0.369	-0.001
-247.005	-91.825	0.201	0.057
-245.990	-42.277	0.204	-0.104
-244.976	-200.000	-0.008	-0.258
-243.961	-100.458	0.160	-0.040
-242.946	-200.000	0.035	0.293
-241.932	-73.523	-0.186	-0.068
-240.917	-106.027	0.282	-0.064
-239.903	-200.000	-0.056	-0.374
-238.888	-200.000	-0.001	0.101
-237.873	-200.000	-0.007	0.081
-236.859	-47.892	-0.310	0.151
-235.844	-184.939	-0.230	-0.004
-234.830	87.558	-0.213	-0.237
-233.815	800.000	-0.040	0.163
-232.800	198.232	-0.176	-0.270
-231.786	289.764	-0.045	0.081
-230.771	800.000	0.083	-0.335
-229.757	435.030	0.028	0.062
-228.742	-39.723	0.073	-0.038
-227.727	279.594	0.085	0.153
-226.713	144.431	0.094	0.125
-225.698	-200.000	0.013	0.197
-224.684	174.338	-0.090	0.131
-223.669	-150.789	-0.134	-0.010
-222.655	44.721	0.137	0.127
-221.640	248.665	0.137	-0.232
-220.625	-137.585	-0.255	-0.029
-219.611	761.470	0.006	-0.015
-218.596	300.860	-0.055	0.101
-217.582	-200.000	-0.035	0.568
-216.567	42.967	0.167	0.153
-215.552	52.016	-0.096	-0.092
-214.538	800.000	-0.073	0.280
-213.523	23.735	-0.081	0.067
-212.509	696.340	0.130	-0.343
-211.494	-200.000	-0.035	0.240
-210.479	9.343	0.268	-0.203
-209.465	14.863	0.176	0.138
-208.450	-118.888	0.208	-0.037
-207.436	195.407	-0.061	-0.093
-206.421	800.000	-0.078	-0.307
-205.406	-65.890	-0.173	-0.069
-204.392	54.571	0.220	-0.213
-203.377	-200.000	0.011	-0.153
-202.363	111.081	0.097	0.117
-201.348	31.084	0.167	0.143
-200.333	-34.289	-0.207	-0.114
-199.319	107.956	0.053	0.063
-198.304	401.781	-0.093	-0.195
-197.290	720.972	0.174	-0.462
-196.275	-200.000	-0.028	-0.270
-195.260	-12.601	-0.115	0.075
-194.246	72.513	0.317	-0.330
-193.231	-136.574	-0.016	0.002
-192.217	800.000	-0.106	0.326
-191.202	91.115	0.193	0.217
-190.187	124.540	-0.132	0.166
-189.173	800.000	0.103	0.323
-188.158	-78.632	0.055	-0.019
-187.144	217.311	-0.204	0.325
-186.129	23.051	-0.030	0.024
-185.114	800.000	0.067	-0.216
-184.100	80.734	0.197	0.212
-183.085	-33.285	-0.202	-0.112
-182.071	215.096	-0.083	0.131
-181.056	-38.708	0.119	-0.063
-180.042	-13.439	-0.120	-0.078
-179.027	-119.324	0.082	-0.014
-178.012	50.147	0.175	0.166
-176.998	-34.066	0.115	-0.063
-175.983	152.811	-0.041	0.056
-174.969	78.353	0.175	0.187
-173.954	68.515	-0.083	-0.085
-172.939	-42.266	0.074	0.038
-171.925	800.000	0.106	-0.388
-170.910	237.713	-0.034	-0.057
-169.896	-200.000	0.021	-0.121
-168.881	-73.001	-0.177	-0.065
-167.866	120.052	-0.135	0.168
-166.852	-115.910	0.314	-0.059
-165.837	-200.000	0.020	-0.301
-164.823	-200.000	-0.271	-0.000
-163.808	21.712	0.116	0.095
-162.793	30.691	-0.151	-0.129
-161.779	-155.638	0.081	-0.005
-160.764	-9.780	0.356	-0.237
-159.750	-30.987	-0.130	0.074
-158.735	-99.288	0.236	0.060
-157.720	800.000	-0.073	0.260
-156.706	147.959	-0.049	-0.066
-155.691	-78.101	0.211	0.073
-154.677	-80.357	-0.293	-0.098
-153.662	800.000	-0.048	0.177
-152.647	11.161	0.055	-0.042
-151.633	800.000	0.034	0.123
-150.618	-16.259	-0.243	0.154
-149.604	-21.193	-0.019	-0.012
-148.589	-200.000	-0.004	0.054
-147.574	466.449	0.087	0.194
-146.560	-82.074	-0.266	0.087
-145.545	29.953	0.329	-0.280
-144.531	237.561	0.086	0.142
-143.516	-200.000	-0.045	0.242
-142.502	-143.677	0.259	0.025
-141.487	639.539	0.104	-0.265
-140.472	-200.000	-0.049	-0.374
-139.458	800.000	-0.124	-0.479
-138.443	-200.000	0.049	-0.247
-137.429	172.368	0.131	0.188
-136.414	-82.902	0.120	-0.039
-135.399	43.687	0.066	-0.060
-134.385	81.695	-0.150	-0.162
-133.370	75.479	-0.143	0.151
-132.356	67.620	-0.291	-0.297
-131.341	-72.924	-0.194	-0.071
-130.326	-100.331	0.135	-0.033
-129.312	-145.342	0.502	-0.045
-128.297	-200.000	-0.008	-0.200
-127.283	-165.325	-0.203	0.009
-126.268	475.957	0.086	-0.193
-125.253	800.000	0.066	-0.237
-124.239	91.025	-0.224	-0.250
-123.224	-12.248	0.343	0.224
-122.210	-200.000	-0.020	0.113
-121.195	-79.927	-0.077	0.026
