DTS Sentinel unit serial number:	SN413079Multiplexer serial number:	ORYXHardware model number:	OX4-SRSoftware version number:	ORYX F/W v4.00 Oryx Data Collector v3.7.2.0data status	okinstallation	princeton_trtdifferential loss correction	single-endedforward channel	channel 1reverse channel	N/Adate	2019/09/14time	00:26:35forward acquisition time	60.00reverse acquisition time	0.00gamma	496.2192k internal	0.2337k external	0.2337temperature offset calibration	1.0079default loss term (dB/km)	0.3790temperature slope calibration	1.0000multiplexer offset coefficient	1.0000multiplexer slope coefficient	1.0000fibre end	0.00T internal ref (°C)	26.47T ext. ref 1 (°C)	3.19T ext. ref 2 (°C)	21.25length (m)	temperature (°C)	Stokes	anti-Stokes-747.200	227.872	-0.253	0.413
-746.185	254.830	0.135	0.232
-745.171	187.063	-0.186	-0.279
-744.156	-86.864	-0.227	0.070
-743.142	800.000	0.047	-0.155
-742.127	-3.609	-0.101	0.070
-741.112	-109.793	0.128	0.027
-740.098	-44.020	-0.161	0.081
-739.083	-123.134	-0.155	0.025
-738.069	-15.169	-0.454	0.292
-737.054	-29.063	-0.272	0.157
-736.039	227.074	-0.088	0.143
-735.025	-97.729	0.542	-0.141
-734.010	-103.556	-0.301	0.071
-732.996	-154.266	-0.267	-0.018
-731.981	-200.000	0.001	-0.020
-730.966	767.363	-0.083	-0.226
-729.952	265.043	0.140	-0.246
-728.937	-78.459	-0.425	-0.146
-727.923	-96.271	-0.340	-0.091
-726.908	-100.134	0.373	0.093
-725.894	-200.000	0.014	0.233
-724.879	340.759	0.063	0.124
-723.864	-112.368	0.383	0.077
-722.850	121.507	-0.182	-0.228
-721.835	-46.459	0.056	0.027
-720.821	-200.000	-0.023	0.205
-719.806	-96.618	-0.306	0.081
-718.791	9.465	-0.054	-0.041
-717.777	-200.000	-0.026	0.315
-716.762	-37.463	0.193	-0.103
-715.748	-37.945	-0.071	0.038
-714.733	-94.059	-0.147	-0.040
-713.718	-77.033	-0.170	0.059
-712.704	800.000	-0.091	-0.292
-711.689	-58.370	0.460	-0.200
-710.675	-31.082	0.295	0.167
-709.660	-92.393	-0.160	0.045
-708.645	91.495	0.052	0.058
-707.631	-200.000	-0.011	0.409
-706.616	-200.000	0.021	-0.141
-705.602	-19.609	-0.186	0.115
-704.587	175.734	0.150	0.218
-703.572	104.080	0.094	0.111
-702.558	800.000	-0.111	-0.336
-701.543	56.121	-0.137	-0.133
-700.529	-200.000	0.028	0.244
-699.514	8.156	-0.304	0.229
-698.499	172.970	0.116	0.167
-697.485	7.049	-0.255	-0.191
-696.470	800.000	-0.022	0.074
-695.456	67.460	0.136	-0.139
-694.441	-124.139	-0.183	-0.029
-693.426	-200.000	0.001	0.085
-692.412	-180.218	-0.130	0.003
-691.397	-88.334	0.251	0.075
-690.383	6.991	0.154	-0.115
-689.368	800.000	-0.042	-0.154
-688.354	276.772	-0.144	-0.257
-687.339	234.010	-0.034	-0.055
-686.324	-78.153	0.115	0.040
-685.310	800.000	0.126	0.358
-684.295	-106.629	0.054	0.012
-683.281	-110.968	0.254	-0.052
-682.266	4.760	0.110	-0.081
-681.251	107.650	0.097	0.116
-680.237	46.142	-0.137	-0.127
-679.222	173.009	-0.121	-0.175
-678.208	14.041	0.149	-0.116
-677.193	-34.381	-0.176	0.097
-676.178	284.066	0.152	0.275
-675.164	296.237	0.051	0.094
-674.149	-36.636	-0.257	0.138
-673.135	188.973	-0.179	0.269
-672.120	800.000	0.034	0.129
-671.105	-200.000	-0.006	-0.104
-670.091	-17.575	0.225	-0.141
-669.076	22.597	-0.133	-0.109
-668.062	-52.137	0.428	0.199
-667.047	294.789	0.027	0.049
-666.032	3.696	0.079	-0.058
-665.018	-8.361	0.039	0.026
-664.003	-15.495	-0.166	-0.106
-662.989	800.000	0.068	-0.199
-661.974	54.287	-0.061	0.059
-660.959	800.000	0.069	-0.251
-659.945	268.910	0.052	-0.092
-658.930	110.752	-0.080	-0.097
-657.916	-1.596	0.277	-0.195
-656.901	-60.651	-0.216	0.092
-655.886	800.000	0.107	-0.334
-654.872	-200.000	-0.011	0.250
-653.857	800.000	-0.012	0.053
-652.843	115.641	-0.247	-0.302
-651.828	-30.231	-0.115	-0.065
-650.814	314.882	-0.035	0.066
-649.799	-104.760	-0.128	0.029
-648.784	-19.445	-0.106	0.066
-647.770	-147.885	-0.209	-0.017
-646.755	-200.000	0.005	0.251
-645.741	45.331	-0.250	0.230
-644.726	422.137	-0.073	0.156
-643.711	155.750	0.076	-0.105
-642.697	-132.219	-0.162	-0.021
-641.682	-122.271	-0.378	0.062
-640.668	-8.604	0.297	-0.199
-639.653	-47.512	0.469	-0.228
-638.638	-44.603	-0.256	-0.128
-637.624	-8.102	-0.312	0.210
-636.609	-50.962	0.108	-0.051
-635.595	444.935	-0.093	-0.203
-634.580	229.647	0.178	-0.291
-633.565	-200.000	-0.015	-0.136
-632.551	-67.790	-0.158	0.062
-631.536	-119.863	0.095	-0.016
-630.522	-21.002	0.291	0.178
-629.507	11.796	0.160	-0.123
-628.492	64.381	-0.091	-0.092
-627.478	800.000	-0.095	-0.298
-626.463	-81.442	0.072	0.024
-625.449	-200.000	0.018	-0.218
-624.434	106.106	-0.188	-0.223
-623.419	-200.000	-0.045	-0.397
-622.405	-200.000	0.051	-0.245
-621.390	-115.059	-0.148	0.028
-620.376	-52.778	-0.191	0.088
-619.361	442.351	-0.109	0.239
-618.346	379.534	0.077	0.158
-617.332	36.725	-0.163	-0.144
-616.317	-200.000	-0.023	0.122
-615.303	-44.790	-0.235	-0.117
-614.288	-200.000	0.001	0.255
-613.273	-16.699	0.041	-0.026
-612.259	800.000	-0.080	0.223
-611.244	-200.000	0.010	-0.045
-610.230	-83.651	-0.141	-0.045
-609.215	-126.956	-0.173	0.025
-608.201	46.815	-0.148	-0.137
-607.186	-104.873	-0.017	0.004
-606.171	800.000	-0.088	-0.254
-605.157	233.283	0.047	-0.077
-604.142	50.315	-0.071	-0.067
-603.128	-17.415	0.153	-0.096
-602.113	378.288	-0.213	-0.435
-601.098	301.451	-0.149	-0.276
-600.084	786.882	0.054	0.149
-599.069	-12.975	-0.308	0.200
-598.055	-145.163	0.191	0.017
-597.040	-87.884	-0.339	0.102
-596.025	412.651	0.036	-0.076
-595.011	-43.119	0.108	0.055
-593.996	-94.495	0.068	0.018
-592.982	151.457	-0.170	-0.231
-591.967	201.528	0.221	-0.340
-590.952	-106.906	-0.350	-0.077
-589.938	550.231	0.081	0.194
-588.923	-167.230	-0.480	-0.019
-587.909	-71.147	0.282	0.106
-586.894	-200.000	0.032	-0.237
-585.879	-72.460	-0.350	-0.129
-584.865	-52.174	0.261	0.121
-583.850	317.535	0.061	-0.116
-582.836	-151.452	-0.239	0.018
-581.821	39.583	0.142	-0.127
-580.806	-81.266	-0.193	0.064
-579.792	-200.000	0.040	0.292
-578.777	400.792	-0.044	-0.092
-577.763	-169.765	0.209	-0.008
-576.748	591.421	0.110	-0.270
-575.733	36.836	0.260	-0.229
-574.719	78.015	-0.303	-0.323
-573.704	-200.000	-0.033	-0.226
-572.690	795.349	0.057	0.156
-571.675	4.857	-0.031	-0.023
-570.661	800.000	0.061	-0.208
-569.646	98.022	0.147	-0.168
-568.631	-27.474	-0.333	-0.193
-567.617	-200.000	-0.069	0.384
-566.602	-54.439	0.137	0.062
-565.588	5.034	0.279	-0.204
-564.573	-127.614	0.316	0.046
-563.558	-68.943	0.247	-0.095
-562.544	291.863	0.197	-0.358
-561.529	154.068	0.038	0.052
-560.515	-124.207	-0.083	0.013
-559.500	-115.426	-0.370	0.070
-558.485	-173.450	0.081	0.002
-557.471	-85.839	0.182	-0.056
-556.456	-200.000	-0.028	-0.142
-555.442	-46.927	-0.253	-0.123
-554.427	8.990	0.027	-0.020
-553.412	-102.753	-0.121	-0.029
-552.398	11.399	0.151	-0.115
-551.383	-18.431	0.318	0.198
-550.369	-200.000	0.020	-0.350
-549.354	-4.663	0.093	-0.064
-548.339	-59.963	0.054	0.023
-547.325	-3.271	0.326	-0.226
-546.310	403.470	0.122	0.256
-545.296	0.456	0.239	-0.170
-544.281	755.764	0.135	0.363
-543.266	165.161	-0.284	0.400
-542.252	-16.893	-0.168	0.106
-541.237	-200.000	0.022	-0.230
-540.223	-119.703	0.147	-0.025
-539.208	800.000	0.077	-0.224
-538.193	280.818	-0.140	-0.249
-537.179	-200.000	-0.030	-0.565
-536.164	72.567	0.173	-0.180
-535.150	-193.674	-0.183	0.002
-534.135	-110.336	0.310	-0.064
-533.121	-102.724	-0.115	0.027
-532.106	-200.000	0.030	0.261
-531.091	-76.591	0.221	0.077
-530.077	800.000	-0.152	0.425
-529.062	-22.496	0.082	-0.050
-528.048	438.053	-0.080	0.174
-527.033	-178.212	0.269	0.006
-526.018	-143.517	0.085	-0.008
-525.004	-21.492	0.248	-0.151
-523.989	-200.000	-0.034	0.239
-522.975	11.829	-0.095	-0.072
-521.960	-200.000	-0.018	-0.172
-520.945	800.000	-0.075	-0.237
-519.931	-46.551	0.072	0.035
-518.916	469.488	0.110	-0.246
-517.902	406.329	-0.101	-0.212
-516.887	-47.432	-0.117	0.057
-515.872	21.663	-0.179	0.145
-514.858	-80.047	-0.247	-0.082
-513.843	-90.385	0.217	-0.063
-512.829	-26.759	0.136	0.079
-511.814	694.086	-0.061	-0.158
-510.799	16.110	0.068	0.053
-509.785	393.770	0.061	0.127
-508.770	164.620	0.077	0.108
-507.756	4.706	-0.209	0.153
-506.741	267.363	0.104	-0.181
-505.726	800.000	0.047	0.165
-504.712	-41.642	-0.240	0.123
-503.697	100.842	-0.106	-0.122
-502.683	-2.895	-0.229	-0.159
-501.668	-198.616	-0.173	-0.001
-500.653	119.857	-0.211	0.260
-499.639	18.142	0.133	-0.105
-498.624	-87.276	-0.163	-0.049
-497.610	-93.045	0.062	-0.017
-496.595	800.000	-0.126	-0.385
-495.581	64.931	-0.150	0.151
-494.566	-7.516	0.197	0.133
-493.551	-27.322	-0.442	-0.256
-492.537	-115.481	-0.081	0.015
-491.522	202.085	-0.106	0.163
-490.508	-83.738	0.218	-0.069
-489.493	-42.376	0.293	0.148
-488.478	-33.024	-0.135	-0.074
-487.464	800.000	0.086	0.277
-486.449	-200.000	0.051	0.404
-485.435	800.000	-0.111	0.371
-484.420	-80.049	-0.287	-0.096
-483.405	138.257	-0.168	-0.219
-482.391	65.637	-0.232	-0.234
-481.376	-76.568	-0.070	0.024
-480.362	125.773	0.336	0.422
-479.347	266.558	0.143	0.248
-478.332	33.304	-0.112	0.097
-477.318	-52.723	0.218	0.100
-476.303	-81.848	-0.259	0.084
-475.289	800.000	0.058	0.190
-474.274	-200.000	-0.046	0.214
-473.259	-102.950	-0.255	0.060
-472.245	40.332	0.029	-0.026
-471.230	275.447	-0.140	-0.246
-470.216	60.180	-0.049	-0.048
-469.201	632.110	0.064	0.162
-468.186	-140.829	0.158	-0.016
-467.172	-200.000	0.005	0.094
-466.157	-200.000	0.017	-0.097
-465.143	-51.237	0.194	-0.090
-464.128	-95.747	0.139	-0.037
-463.113	800.000	-0.073	-0.259
-462.099	-119.452	-0.050	0.009
-461.084	26.504	-0.211	0.175
-460.070	-49.391	0.142	-0.067
-459.055	-133.663	-0.185	0.023
-458.040	50.956	0.262	0.247
-457.026	-88.979	0.170	0.050
-456.011	5.127	0.213	-0.156
-454.997	-15.298	-0.191	0.121
-453.982	-99.832	-0.072	-0.018
-452.968	181.793	0.139	-0.203
-451.953	300.787	0.088	0.161
-450.938	81.877	0.202	0.217
-449.924	430.495	0.111	-0.239
-448.909	194.563	-0.065	-0.098
-447.895	-6.158	-0.211	-0.143
-446.880	12.126	0.361	0.275
-445.865	-200.000	-0.043	0.195
-444.851	171.512	-0.130	0.185
-443.836	-200.000	0.046	0.261
-442.822	198.246	-0.045	-0.068
-441.807	-108.037	0.334	-0.072
-440.792	-200.000	0.005	0.036
-439.778	800.000	0.103	0.356
-438.763	-132.699	0.089	-0.011
-437.749	800.000	0.055	0.213
-436.734	-10.515	-0.147	0.096
-435.719	96.454	0.069	-0.078
-434.705	-200.000	-0.031	0.224
-433.690	-200.000	-0.013	-0.223
-432.676	215.216	0.037	-0.058
-431.661	-141.708	-0.390	-0.039
-430.646	800.000	0.100	-0.346
-429.632	-200.000	0.012	-0.403
-428.617	-200.000	-0.033	-0.161
-427.603	800.000	0.034	-0.096
-426.588	5.367	-0.071	0.052
-425.573	-62.198	-0.145	0.060
-424.559	166.387	-0.091	0.128
-423.544	800.000	-0.147	0.468
-422.530	44.950	0.150	0.137
-421.515	-200.000	-0.012	-0.388
-420.500	142.110	0.074	0.097
-419.486	-12.846	-0.101	-0.065
-418.471	172.288	-0.069	-0.099
-417.457	322.114	0.121	-0.227
-416.442	-38.140	-0.117	-0.061
-415.428	245.274	-0.078	0.131
-414.413	203.908	-0.153	-0.235
-413.398	-77.572	-0.338	0.116
-412.384	800.000	-0.102	0.292
-411.369	96.781	-0.078	-0.089
-410.355	794.185	-0.047	0.129
-409.340	-64.317	-0.250	0.101
-408.325	-20.671	0.197	0.120
-407.311	-200.000	0.014	-0.225
-406.296	-167.038	0.174	0.007
-405.282	-45.688	0.300	-0.147
-404.267	-45.622	0.209	-0.103
-403.252	482.955	-0.123	0.277
-402.238	131.727	0.121	0.155
-401.223	-117.245	0.224	-0.040
-400.209	-148.031	-0.315	0.026
-399.194	122.868	0.069	0.086
-398.179	800.000	0.016	-0.044
-397.165	-166.545	-0.307	0.013
-396.150	-136.178	-0.362	-0.042
-395.136	-23.424	-0.234	0.139
-394.121	-200.000	0.022	0.203
-393.106	-99.504	-0.102	0.025
-392.092	-102.170	0.099	0.024
-391.077	616.713	-0.023	-0.057
-390.063	563.673	0.074	-0.177
-389.048	-152.872	-0.196	0.014
-388.033	401.676	-0.201	0.417
-387.019	625.810	0.074	0.184
-386.004	-200.000	0.050	-0.220
-384.990	-31.547	-0.168	0.094
-383.975	-138.768	-0.392	0.042
-382.960	-200.000	-0.004	-0.065
-381.946	-200.000	0.025	-0.125
-380.931	-92.391	-0.481	0.134
-379.917	-200.000	0.002	-0.170
-378.902	-27.041	0.086	-0.050
-377.888	113.861	0.179	-0.216
-376.873	292.274	-0.169	0.305
-375.858	286.137	0.111	-0.198
-374.844	106.555	-0.027	-0.031
-373.829	25.439	-0.037	0.030
-372.815	-200.000	0.049	0.223
-371.800	32.166	0.373	-0.318
-370.785	-117.397	0.229	0.041
-369.771	380.888	0.087	-0.176
-368.756	-42.149	-0.158	0.080
-367.742	-14.488	0.185	-0.118
-366.727	209.434	-0.084	0.130
-365.712	-200.000	0.012	0.172
-364.698	-55.959	0.070	-0.031
-363.683	-99.231	0.240	0.060
-362.669	156.978	0.066	-0.090
-361.654	-69.632	-0.243	-0.092
-360.639	226.461	0.038	0.060
-359.625	532.985	0.091	-0.213
-358.610	-46.091	-0.187	-0.091
-357.596	-200.000	-0.001	0.186
-356.581	-160.508	0.279	0.015
-355.566	-115.364	-0.071	0.013
-354.552	509.186	0.040	0.092
-353.537	800.000	0.051	0.166
-352.523	119.781	-0.005	0.006
-351.508	-164.456	0.275	-0.012
-350.493	-35.540	0.333	-0.179
-349.479	-94.734	-0.370	-0.099
-348.464	-200.000	-0.000	0.118
-347.450	116.649	0.069	-0.084
-346.435	-200.000	-0.038	-0.401
-345.420	279.144	0.182	-0.322
-344.406	-97.102	0.263	0.068
-343.391	-169.715	0.014	0.001
-342.377	-25.524	0.036	0.021
-341.362	651.436	0.230	0.581
-340.348	-107.887	0.485	-0.104
-339.333	-135.606	-0.207	0.024
-338.318	800.000	0.030	0.111
-337.304	-0.443	0.122	-0.086
-336.289	-200.000	-0.022	0.151
-335.275	800.000	0.097	0.357
-334.260	-200.000	0.049	0.299
-333.245	-89.217	-0.234	0.068
-332.231	-43.736	0.120	0.060
-331.216	188.486	-0.156	-0.231
-330.202	246.891	0.054	0.091
-329.187	-94.678	-0.239	0.064
-328.172	-33.326	-0.109	-0.060
-327.158	-160.950	-0.407	-0.021
-326.143	-65.693	0.491	-0.194
-325.129	79.182	0.079	-0.084
-324.114	-117.424	0.215	0.038
-323.099	-200.000	0.049	0.312
-322.085	18.573	-0.318	0.251
-321.070	258.987	-0.156	-0.265
-320.056	90.110	0.146	-0.161
-319.041	-29.543	-0.150	-0.084
-318.026	-15.470	0.183	0.115
-317.012	-136.099	0.170	-0.020
-315.997	800.000	-0.035	0.122
-314.983	-200.000	0.036	-0.339
-313.968	310.839	-0.027	0.050
-312.953	-200.000	0.002	-0.009
-311.939	175.857	0.179	0.256
-310.924	-200.000	0.018	-0.216
-309.910	106.720	0.149	-0.175
-308.895	135.083	0.112	-0.144
-307.880	-134.890	-0.457	-0.055
-306.866	-22.912	0.190	0.113
-305.851	-87.162	0.195	0.059
-304.837	800.000	-0.023	-0.082
-303.822	-103.108	0.201	-0.047
-302.807	-200.000	0.027	0.115
-301.793	-109.200	-0.146	-0.031
-300.778	175.968	0.091	0.131
-299.764	-1.963	-0.132	-0.091
-298.749	-200.000	-0.041	0.284
-297.735	800.000	-0.062	0.225
-296.720	-200.000	-0.021	-0.169
-295.705	64.679	0.121	-0.121
-294.691	-200.000	0.003	0.073
-293.676	-36.390	-0.240	-0.127
-292.662	-71.814	-0.168	-0.062
-291.647	-40.066	-0.072	-0.037
-290.632	-84.186	0.193	0.060
-289.618	43.665	-0.274	-0.247
-288.603	177.374	0.121	-0.174
-287.589	-78.455	-0.386	-0.130
-286.574	254.544	0.110	-0.186
-285.559	-49.134	-0.158	-0.074
-284.545	-56.864	-0.042	-0.018
-283.530	242.047	0.047	0.077
-282.516	-200.000	-0.011	-0.102
-281.501	47.961	0.196	-0.181
-280.486	-200.000	-0.003	0.112
-279.472	168.043	-0.069	0.097
-278.457	216.211	0.077	0.121
-277.443	4.556	0.085	-0.061
-276.428	-32.578	0.134	-0.074
-275.413	-77.954	-0.339	0.115
-274.399	65.828	0.177	0.177
-273.384	-99.515	-0.166	0.041
-272.370	127.581	0.068	0.085
-271.355	-99.991	-0.132	0.032
-270.340	800.000	-0.132	0.450
-269.326	-200.000	-0.048	0.252
-268.311	-127.451	-0.107	-0.015
-267.297	175.803	0.220	-0.315
-266.282	-174.422	-0.343	0.010
-265.267	-67.538	-0.420	0.162
-264.253	308.750	0.100	-0.184
-263.238	39.134	0.453	0.399
-262.224	192.830	-0.073	-0.109
-261.209	-200.000	-0.018	-0.227
-260.195	42.193	-0.140	0.125
-259.180	146.280	0.111	-0.147
-258.165	-50.594	0.280	0.130
-257.151	-200.000	-0.068	-0.476
-256.136	323.708	-0.104	0.196
-255.122	-49.877	0.205	0.096
-254.107	239.815	0.096	-0.157
-253.092	114.620	-0.303	-0.364
-252.078	800.000	-0.036	0.146
-251.063	800.000	0.144	-0.418
-250.049	108.505	-0.151	0.178
-249.034	88.622	-0.170	0.186
-248.019	79.100	0.277	-0.292
-247.005	372.947	-0.073	-0.145
-245.990	-135.236	0.203	-0.024
-244.976	136.477	0.024	0.031
-243.961	1.937	-0.230	-0.163
-242.946	245.642	0.036	0.059
-241.932	-200.000	0.004	-0.031
-240.917	-200.000	-0.015	-0.109
-239.903	-184.610	0.397	0.006
-238.888	-200.000	0.009	0.163
-237.873	-200.000	0.023	0.107
-236.859	486.461	0.079	0.178
-235.844	90.324	0.078	-0.086
-234.830	-101.872	-0.261	0.062
-233.815	800.000	-0.154	0.421
-232.800	-193.129	0.145	-0.001
-231.786	325.696	0.066	-0.125
-230.771	434.320	0.122	-0.261
-229.757	-29.053	0.273	0.154
-228.742	624.917	0.059	-0.146
-227.727	8.135	-0.064	-0.047
-226.713	-200.000	-0.059	0.415
-225.698	-200.000	0.185	0.001
-224.684	-148.778	-0.079	0.006
-223.669	3.867	0.282	-0.203
-222.655	440.531	-0.037	0.080
-221.640	-107.920	-0.090	-0.019
-220.625	13.071	-0.104	0.080
-219.611	-85.745	-0.181	-0.055
-218.596	-200.000	0.026	0.131
-217.582	192.994	-0.051	-0.076
-216.567	257.743	0.103	0.175
-215.552	-200.000	-0.013	0.099
-214.538	234.534	-0.063	0.102
-213.523	248.876	0.041	0.068
-212.509	2.189	-0.253	0.180
-211.494	44.897	-0.335	0.303
-210.479	26.414	0.205	0.168
-209.465	221.874	0.022	-0.036
-208.450	387.179	0.062	-0.126
-207.436	-200.000	0.035	0.257
-206.421	-9.196	-0.117	-0.077
-205.406	-72.357	-0.157	-0.057
-204.392	-56.570	0.272	-0.118
-203.377	-28.166	0.055	-0.031
-202.363	-94.220	0.032	-0.009
-201.348	800.000	-0.034	0.102
-200.333	39.002	0.231	0.203
-199.319	-106.588	0.266	-0.058
-198.304	-200.000	0.010	-0.400
-197.290	162.713	0.177	0.245
-196.275	85.731	-0.292	-0.316
-195.260	-83.510	-0.282	0.089
-194.246	35.946	-0.119	0.103
-193.231	-69.963	0.176	-0.066
-192.217	-200.000	-0.018	0.107
-191.202	-112.563	0.397	0.078
-190.187	41.091	0.136	0.121
-189.173	-142.620	0.126	0.012
-188.158	800.000	-0.080	-0.257
-187.144	-48.180	0.589	-0.279
-186.129	-200.000	-0.009	0.143
-185.114	155.765	-0.221	-0.299
-184.100	-1.395	-0.046	-0.032
-183.085	-200.000	-0.004	0.065
-182.071	800.000	-0.074	0.212
-181.056	800.000	-0.054	0.152
-180.042	-88.590	0.360	0.105
-179.027	-142.165	0.263	-0.026
-178.012	-200.000	0.035	0.280
-176.998	-200.000	0.037	0.211
-175.983	-200.000	-0.004	-0.109
-174.969	-200.000	0.037	-0.171
-173.954	-119.717	0.169	0.029
-172.939	-34.615	-0.318	-0.171
-171.925	-44.444	-0.080	-0.039
-170.910	-74.688	0.060	0.021
-169.896	382.165	0.011	-0.023
-168.881	103.677	0.153	0.176
-167.866	7.508	-0.038	0.028
-166.852	118.636	-0.100	0.121
-165.837	288.521	-0.159	0.282
-164.823	-200.000	-0.025	0.119
-163.808	-171.730	-0.113	0.004
-162.793	250.997	0.109	-0.182
-161.779	-19.037	-0.236	0.144
-160.764	-7.299	0.341	-0.227
-159.750	46.021	0.102	0.093
-158.735	64.077	0.126	-0.125
-157.720	-25.047	-0.140	0.082
-156.706	103.846	0.277	0.319
-155.691	12.153	0.277	0.209
-154.677	-72.637	-0.080	-0.029
-153.662	-55.160	-0.070	0.031
-152.647	473.027	0.163	0.361
-151.633	-200.000	-0.017	0.294
-150.618	-34.510	0.403	-0.217
-149.604	191.964	-0.071	0.105
-148.589	111.499	-0.125	0.148
-147.574	-70.449	0.337	0.125
-146.560	-60.032	-0.247	-0.104
-145.545	-67.160	0.425	0.164
-144.531	73.549	0.154	0.158
-143.516	800.000	0.029	-0.119
-142.502	-200.000	0.037	0.379
-141.487	-7.260	-0.459	0.305
-140.472	-58.838	0.178	-0.075
-139.458	-200.000	-0.019	0.180
-138.443	279.323	0.089	-0.156
-137.429	-200.000	0.060	-0.290
-136.414	800.000	0.063	0.237
-135.399	-71.866	-0.214	0.078
-134.385	800.000	-0.071	0.218
-133.370	73.346	-0.024	0.024
-132.356	79.556	-0.183	0.193
-131.341	-200.000	-0.022	0.131
-130.326	345.960	0.056	-0.107
-129.312	-200.000	0.033	0.193
-128.297	-200.000	-0.031	-0.224
-127.283	52.255	0.100	-0.093
-126.268	-146.027	-0.208	0.018
-125.253	800.000	0.043	0.138
-124.239	-18.224	0.167	0.102
-123.224	-42.237	0.036	0.018
-122.210	800.000	-0.107	0.319
-121.195	-59.860	0.576	-0.241
-120.180	800.000	0.114	-0.340
