DTS Sentinel unit serial number:	SN413079Multiplexer serial number:	ORYXHardware model number:	OX4-SRSoftware version number:	ORYX F/W v4.00 Oryx Data Collector v3.7.2.0data status	okinstallation	princeton_trtdifferential loss correction	single-endedforward channel	channel 1reverse channel	N/Adate	2019/09/16time	16:34:35forward acquisition time	60.00reverse acquisition time	0.00gamma	496.2192k internal	0.2295k external	0.2295temperature offset calibration	0.9966default loss term (dB/km)	0.3790temperature slope calibration	1.0000multiplexer offset coefficient	1.0000multiplexer slope coefficient	1.0000fibre end	0.00T internal ref (°C)	40.03T ext. ref 1 (°C)	15.11T ext. ref 2 (°C)	33.74length (m)	temperature (°C)	Stokes	anti-Stokes-747.200	800.000	0.079	-0.264
-746.185	-161.635	-0.074	0.004
-745.171	-169.895	-0.245	-0.009
-744.156	616.482	0.149	0.383
-743.142	-2.102	-0.284	0.204
-742.127	-119.506	0.095	0.017
-741.112	641.499	0.019	0.049
-740.098	-200.000	0.200	0.001
-739.083	55.378	-0.145	-0.143
-738.069	-200.000	0.013	0.140
-737.054	364.485	-0.068	0.140
-736.039	-200.000	-0.004	-0.189
-735.025	243.609	-0.049	-0.085
-734.010	-58.285	0.185	-0.082
-732.996	289.424	-0.121	-0.224
-731.981	-200.000	-0.024	0.179
-730.966	-200.000	0.008	-0.187
-729.952	-26.020	-0.514	-0.309
-728.937	800.000	-0.030	-0.105
-727.923	-200.000	-0.021	0.144
-726.908	579.566	0.016	-0.039
-725.894	-148.998	0.495	-0.041
-724.879	-200.000	0.016	-0.128
-723.864	800.000	-0.053	-0.203
-722.850	54.057	0.128	-0.126
-721.835	146.783	0.065	0.089
-720.821	-134.151	0.374	0.047
-719.806	-29.652	0.287	0.167
-718.791	800.000	-0.032	-0.100
-717.777	-128.094	0.297	-0.043
-716.762	788.061	0.085	0.239
-715.748	-31.726	0.292	-0.167
-714.733	59.317	0.221	-0.222
-713.718	-35.502	0.068	0.037
-712.704	-70.213	-0.113	-0.044
-711.689	32.293	-0.087	-0.077
-710.675	-200.000	-0.031	-0.142
-709.660	-200.000	-0.016	-0.151
-708.645	-52.759	0.111	-0.052
-707.631	-46.831	0.167	-0.084
-706.616	25.441	0.160	0.136
-705.602	800.000	-0.091	-0.259
-704.587	243.333	-0.313	-0.536
-703.572	-131.859	0.114	-0.015
-702.558	346.121	-0.169	-0.340
-701.543	800.000	-0.026	-0.110
-700.529	288.893	-0.137	-0.254
-699.514	-132.437	-0.360	-0.047
-698.499	-3.734	0.122	0.086
-697.485	-200.000	0.032	0.239
-696.470	-68.829	0.239	-0.094
-695.456	201.411	0.090	-0.142
-694.441	-114.819	-0.170	-0.033
-693.426	473.406	0.106	-0.243
-692.412	800.000	-0.021	0.090
-691.397	-120.479	0.233	0.040
-690.383	273.626	-0.060	0.108
-689.368	-56.812	0.249	0.112
-688.354	361.881	0.106	-0.217
-687.339	179.752	-0.170	-0.253
-686.324	118.277	-0.142	-0.178
-685.310	-200.000	0.021	-0.232
-684.295	-200.000	-0.053	-0.466
-683.281	524.436	0.029	-0.069
-682.266	-65.150	0.089	0.036
-681.251	-8.179	-0.382	-0.262
-680.237	-127.011	-0.232	0.035
-679.222	-11.897	0.215	0.144
-678.208	-27.181	-0.166	-0.099
-677.193	16.240	0.242	-0.194
-676.178	413.336	-0.139	-0.302
-675.164	-132.249	0.102	-0.014
-674.149	-157.293	-0.134	-0.008
-673.135	-27.577	0.047	0.028
-672.120	-200.000	-0.012	-0.355
-671.105	61.240	-0.155	-0.157
-670.091	345.940	0.039	-0.078
-669.076	-200.000	-0.000	-0.044
-668.062	-176.108	0.096	0.003
-667.047	87.207	-0.183	-0.206
-666.032	6.378	0.257	-0.194
-665.018	27.788	0.517	-0.443
-664.003	44.630	0.140	-0.131
-662.989	51.885	-0.307	-0.298
-661.974	-73.228	0.131	0.049
-660.959	432.571	-0.075	-0.167
-659.945	-200.000	-0.035	-0.166
-658.930	800.000	-0.054	-0.183
-657.916	432.941	0.080	-0.176
-656.901	-114.800	0.104	-0.020
-655.886	-185.064	-0.340	-0.005
-654.872	47.191	0.128	-0.121
-653.857	-110.807	-0.346	-0.073
-652.843	-77.353	-0.353	-0.125
-651.828	-50.752	-0.235	-0.113
-650.814	-200.000	0.003	-0.093
-649.799	38.876	-0.126	-0.115
-648.784	-200.000	-0.031	-0.174
-647.770	-118.546	-0.246	0.044
-646.755	-200.000	-0.023	0.209
-645.741	6.170	-0.261	-0.197
-644.726	-142.896	0.096	-0.010
-643.711	8.365	-0.103	-0.079
-642.697	-60.655	0.068	0.029
-641.682	800.000	-0.061	-0.224
-640.668	27.007	0.131	-0.112
-639.653	313.465	0.154	0.294
-638.638	-149.357	-0.160	0.013
-637.624	340.030	-0.129	0.257
-636.609	173.867	-0.069	0.101
-635.595	57.279	0.264	0.263
-634.580	-45.951	-0.082	-0.041
-633.565	484.324	0.053	-0.122
-632.551	-4.716	0.261	-0.183
-631.536	-200.000	-0.007	-0.060
-630.522	575.663	-0.187	0.464
-629.507	-127.742	-0.571	-0.084
-628.492	-72.202	-0.168	0.063
-627.478	85.397	0.129	-0.144
-626.463	230.823	-0.128	-0.214
-625.449	-200.000	-0.008	0.154
-624.434	57.171	-0.338	-0.335
-623.419	191.547	-0.037	0.056
-622.405	82.300	0.064	-0.070
-621.390	-63.802	-0.055	0.023
-620.376	47.609	0.135	-0.129
-619.361	110.582	0.293	-0.359
-618.346	-50.142	-0.128	0.062
-617.332	-41.340	0.163	0.086
-616.317	4.322	0.150	0.112
-615.303	-200.000	0.035	-0.180
-614.288	67.967	0.181	-0.189
-613.273	268.733	-0.074	0.131
-612.259	800.000	-0.159	-0.468
-611.244	52.434	-0.217	-0.210
-610.230	-46.493	0.203	0.101
-609.215	140.044	0.034	0.046
-608.201	-103.869	-0.056	-0.013
-607.186	-156.437	0.060	0.004
-606.171	193.437	0.100	-0.154
-605.157	-97.342	-0.167	-0.044
-604.142	-161.761	-0.307	-0.016
-603.128	738.182	0.066	-0.181
-602.113	379.058	0.091	0.190
-601.098	800.000	-0.054	-0.155
-600.084	-70.125	-0.134	-0.052
-599.069	48.207	0.529	0.503
-598.055	-177.564	0.138	0.003
-597.040	19.868	0.214	-0.175
-596.025	800.000	0.084	-0.304
-595.011	112.833	-0.133	0.164
-593.996	-2.328	0.333	0.237
-592.982	-200.000	-0.011	0.221
-591.967	201.019	-0.181	0.282
-590.952	14.489	-0.164	0.130
-589.938	-149.238	0.285	0.023
-588.923	265.188	0.086	0.152
-587.909	800.000	0.094	0.385
-586.894	-91.949	-0.034	0.010
-585.879	65.831	0.261	-0.268
-584.865	-200.000	-0.044	-0.336
-583.850	-15.898	-0.163	-0.105
-582.836	111.777	0.245	0.301
-581.821	321.448	0.164	0.317
-580.806	18.403	0.211	0.171
-579.792	-52.798	0.207	0.097
-578.777	-166.403	0.291	-0.012
-577.763	-200.000	-0.025	0.215
-576.748	800.000	0.080	0.347
-575.733	-25.277	-0.392	-0.236
-574.719	136.957	-0.241	-0.320
-573.704	59.927	-0.256	0.257
-572.690	-75.897	-0.180	-0.065
-571.675	-76.234	0.280	0.100
-570.661	162.013	-0.173	-0.247
-569.646	39.828	0.125	-0.114
-568.631	68.276	0.066	-0.069
-567.617	-88.027	0.069	0.021
-566.602	169.323	0.199	-0.288
-565.588	-64.846	-0.331	0.136
-564.573	-200.000	0.017	-0.220
-563.558	40.038	0.207	-0.189
-562.544	-200.000	0.010	-0.348
-561.529	568.525	0.063	0.155
-560.515	10.582	-0.164	0.127
-559.500	-42.333	-0.108	-0.056
-558.485	424.880	0.144	-0.315
-557.471	66.402	-0.135	-0.139
-556.456	450.907	-0.122	0.273
-555.442	-118.898	0.068	0.012
-554.427	-132.988	0.195	-0.025
-553.412	-75.508	0.149	0.054
-552.398	45.797	-0.182	-0.171
-551.383	-82.997	0.368	-0.120
-550.369	159.156	0.078	-0.111
-549.354	319.384	-0.091	0.174
-548.339	152.348	-0.083	0.114
-547.325	-200.000	-0.020	0.281
-546.310	426.669	-0.050	-0.109
-545.296	-41.311	-0.285	-0.149
-544.281	61.653	-0.189	-0.190
-543.266	473.524	0.121	-0.277
-542.252	-44.560	-0.080	0.040
-541.237	-200.000	-0.008	-0.211
-540.223	-200.000	-0.022	0.184
-539.208	768.462	-0.059	-0.162
-538.193	-143.252	-0.098	0.010
-537.179	24.283	0.183	0.153
-536.164	62.832	0.139	0.141
-535.150	212.457	-0.200	-0.320
-534.135	-169.854	0.271	0.010
-533.121	800.000	0.041	-0.162
-532.106	-200.000	-0.006	-0.272
-531.091	-123.559	-0.268	0.043
-530.077	-41.618	0.330	-0.172
-529.062	151.315	0.185	-0.255
-528.048	615.856	0.059	-0.150
-527.033	-108.099	-0.353	0.078
-526.018	242.030	-0.035	0.059
-525.004	800.000	-0.055	0.243
-523.989	138.234	-0.093	-0.124
-522.975	413.476	-0.115	-0.248
-521.960	-135.289	0.343	-0.042
-520.945	-139.325	-0.404	-0.044
-519.931	267.034	-0.053	-0.094
-518.916	-200.000	0.009	-0.132
-517.902	18.211	0.116	-0.094
-516.887	-91.366	0.118	0.034
-515.872	606.114	-0.143	0.362
-514.858	800.000	-0.093	0.271
-513.843	22.732	0.158	0.131
-512.829	37.179	-0.210	0.189
-511.814	282.930	-0.155	0.282
-510.799	-200.000	-0.023	0.320
-509.785	571.854	0.057	0.140
-508.770	-58.652	-0.121	-0.053
-507.756	-110.490	-0.211	-0.044
-506.741	-18.994	-0.462	-0.291
-505.726	800.000	0.070	-0.196
-504.712	122.943	0.105	-0.133
-503.697	-70.295	-0.104	0.040
-502.683	128.655	0.052	0.067
-501.668	800.000	0.039	-0.127
-500.653	800.000	0.105	0.311
-499.639	68.257	-0.109	-0.113
-498.624	-80.594	0.427	0.144
-497.610	186.933	0.099	-0.149
-496.595	-0.785	0.131	0.094
-495.581	20.698	-0.107	-0.088
-494.566	89.984	0.134	-0.152
-493.551	156.340	0.022	0.031
-492.537	-27.559	0.241	-0.142
-491.522	-73.263	-0.193	0.072
-490.508	-75.262	-0.186	0.067
-489.493	18.634	0.289	0.234
-488.478	-56.545	0.293	-0.132
-487.464	-200.000	0.038	-0.290
-486.449	-1.588	0.254	-0.181
-485.435	-0.309	-0.065	0.046
-484.420	-200.000	0.012	0.298
-483.405	-143.356	-0.048	0.005
-482.391	-200.000	-0.011	0.469
-481.376	-22.932	-0.120	0.073
-480.362	-200.000	0.005	0.081
-479.347	-28.425	0.205	-0.119
-478.332	800.000	-0.193	-0.542
-477.318	-153.283	-0.069	-0.005
-476.303	-151.020	0.343	0.026
-475.289	146.537	0.340	0.463
-474.274	-64.532	0.157	-0.064
-473.259	-200.000	-0.040	0.270
-472.245	800.000	0.069	-0.224
-471.230	800.000	-0.083	-0.312
-470.216	-119.482	-0.153	-0.027
-469.201	45.929	-0.233	0.218
-468.186	-61.846	0.439	-0.186
-467.172	94.641	-0.116	-0.134
-466.157	-200.000	0.136	0.000
-465.143	-79.592	-0.062	0.021
-464.128	-200.000	0.038	-0.265
-463.113	179.489	0.070	0.103
-462.099	-13.325	0.056	-0.037
-461.084	467.452	0.087	0.197
-460.070	-98.218	-0.150	0.039
-459.055	-127.199	-0.300	0.044
-458.040	127.235	-0.127	0.163
-457.026	-200.000	-0.001	0.134
-456.011	-20.786	-0.089	-0.055
-454.997	159.011	-0.215	0.302
-453.982	577.144	-0.061	-0.152
-452.968	78.400	0.246	-0.265
-451.953	-156.861	0.132	0.008
-450.938	646.366	0.073	0.188
-449.924	-200.000	0.003	-0.277
-448.909	-76.609	-0.161	0.057
-447.895	-80.529	-0.104	0.035
-446.880	168.329	-0.129	-0.185
-445.865	-67.422	0.334	0.133
-444.851	-200.000	-0.037	0.238
-443.836	261.621	-0.185	0.323
-442.822	-86.657	-0.186	0.058
-441.807	291.129	0.051	-0.094
-440.792	-200.000	-0.041	-0.338
-439.778	-68.118	0.263	0.103
-438.763	-88.469	-0.152	0.046
-437.749	-106.365	0.064	-0.014
-436.734	-19.330	-0.256	0.161
-435.719	472.497	-0.152	0.345
-434.705	-51.151	-0.253	0.120
-433.690	800.000	0.033	0.107
-432.676	386.319	-0.042	0.087
-431.661	751.997	-0.104	-0.283
-430.646	51.996	-0.194	-0.187
-429.632	-200.000	0.025	0.186
-428.617	87.397	-0.131	0.146
-427.603	-200.000	-0.013	0.348
-426.588	-163.151	0.124	0.006
-425.573	-132.787	-0.333	0.043
-424.559	128.123	0.115	-0.148
-423.544	-134.255	-0.328	-0.041
-422.530	-66.869	-0.353	-0.141
-421.515	-110.003	-0.154	-0.033
-420.500	247.887	-0.106	0.182
-419.486	55.809	0.247	-0.241
-418.471	-0.542	-0.297	-0.213
-417.457	-116.145	-0.085	-0.016
-416.442	-13.687	0.403	-0.264
-415.428	797.272	0.066	-0.182
-414.413	-200.000	-0.014	0.163
-413.398	170.967	-0.032	-0.046
-412.384	599.914	0.036	-0.090
-411.369	800.000	-0.068	-0.209
-410.355	-55.301	0.270	-0.122
-409.340	266.895	0.205	0.362
-408.325	800.000	-0.015	-0.059
-407.311	-200.000	0.006	-0.285
-406.296	89.971	-0.051	-0.057
-405.282	36.126	0.081	0.072
-404.267	71.182	0.054	-0.057
-403.252	-141.689	-0.211	0.021
-402.238	-148.717	0.256	0.021
-401.223	-11.445	0.180	-0.120
-400.209	-200.000	0.004	0.081
-399.194	278.557	0.101	0.182
-398.179	39.511	0.279	0.252
-397.165	-200.000	-0.046	-0.264
-396.150	35.097	-0.145	0.128
-395.136	241.793	0.131	0.221
-394.121	-110.171	0.189	-0.040
-393.106	800.000	0.058	0.185
-392.092	530.699	0.027	-0.065
-391.077	216.628	-0.031	-0.049
-390.063	545.900	0.080	-0.194
-389.048	-200.000	-0.028	-0.328
-388.033	302.127	0.158	0.295
-387.019	-200.000	-0.022	-0.144
-386.004	328.315	0.072	0.139
-384.990	-156.911	-0.130	-0.008
-383.975	-65.815	0.099	-0.040
-382.960	452.998	0.041	-0.091
-381.946	127.227	0.062	-0.080
-380.931	-200.000	0.052	0.253
-379.917	103.731	-0.111	-0.131
-378.902	100.823	-0.153	0.179
-377.888	107.764	-0.139	-0.167
-376.873	-200.000	0.030	0.276
-375.858	635.516	-0.042	-0.108
-374.844	126.247	-0.045	0.057
-373.829	-38.300	0.128	-0.069
-372.815	776.633	0.112	-0.307
-371.800	270.632	0.156	-0.276
-370.785	-173.052	0.091	-0.003
-369.771	256.938	-0.071	0.124
-368.756	-73.491	0.136	0.050
-367.742	14.775	-0.167	0.132
-366.727	254.458	-0.146	0.251
-365.712	-107.429	0.447	0.099
-364.698	-42.247	-0.236	-0.121
-363.683	140.527	-0.272	-0.362
-362.669	800.000	0.103	-0.342
-361.654	-50.982	0.290	0.137
-360.639	800.000	-0.163	-0.481
-359.625	-200.000	0.016	-0.087
-358.610	-24.325	0.127	-0.077
-357.596	-109.505	-0.228	-0.049
-356.581	-9.717	-0.081	0.054
-355.566	-66.421	0.283	-0.113
-354.552	800.000	0.049	-0.168
-353.537	800.000	0.041	-0.141
-352.523	-70.474	0.008	0.003
-351.508	-43.670	-0.077	-0.039
-350.493	-200.000	-0.290	0.000
-349.479	-77.831	0.210	-0.073
-348.464	-200.000	0.087	-0.000
-347.450	-45.419	-0.033	0.016
-346.435	261.104	-0.044	-0.077
-345.420	68.354	-0.143	-0.148
-344.406	-107.295	0.439	-0.097
-343.391	-200.000	-0.033	-0.353
-342.377	134.125	-0.148	-0.193
-341.362	40.996	0.305	0.277
-340.348	-77.938	-0.012	-0.004
-339.333	-126.433	-0.405	-0.061
-338.318	243.748	-0.023	0.039
-337.304	251.140	-0.084	-0.143
-336.289	237.628	0.112	-0.186
-335.275	800.000	-0.104	-0.390
-334.260	77.077	0.109	-0.116
-333.245	-108.832	0.310	0.067
-332.231	41.345	-0.143	-0.130
-331.216	-15.072	-0.122	-0.079
-330.202	-151.872	0.264	-0.019
-329.187	-152.960	0.307	-0.022
-328.172	24.040	0.007	-0.006
-327.158	-30.931	0.117	0.066
-326.143	379.183	-0.087	-0.179
-325.129	87.511	-0.108	0.120
-324.114	-98.793	0.223	-0.057
-323.099	-200.000	0.062	0.479
-322.085	-162.602	-0.141	-0.007
-321.070	-200.000	0.008	-0.089
-320.056	106.538	-0.145	-0.173
-319.041	-114.442	0.246	0.047
-318.026	107.785	0.239	0.286
-317.012	109.722	-0.162	0.195
-315.997	219.374	-0.205	0.330
-314.983	205.723	0.101	0.158
-313.968	261.299	0.051	-0.090
-312.953	55.485	-0.154	0.150
-311.939	39.779	-0.139	0.125
-310.924	800.000	-0.061	-0.250
-309.910	800.000	-0.050	-0.188
-308.895	-200.000	-0.043	-0.234
-307.880	8.403	-0.204	0.154
-306.866	800.000	-0.064	0.208
-305.851	-10.229	-0.362	-0.242
-304.837	37.422	0.288	0.257
-303.822	-149.556	-0.228	-0.018
-302.807	-55.859	0.153	0.069
-301.793	277.703	0.120	0.215
-300.778	16.208	0.075	-0.060
-299.764	-43.245	-0.463	0.235
-298.749	-116.955	-0.327	0.060
-297.735	157.789	-0.143	-0.199
-296.720	-96.177	0.294	0.079
-295.705	67.830	0.129	-0.133
-294.691	800.000	-0.059	-0.205
-293.676	-200.000	-0.011	-0.177
-292.662	418.592	0.035	-0.076
-291.647	-113.769	-0.453	-0.089
-290.632	217.461	0.213	-0.341
-289.618	-54.475	0.329	0.150
-288.603	-67.026	0.374	-0.148
-287.589	-113.174	-0.246	-0.049
-286.574	-200.000	0.031	-0.167
-285.559	75.246	-0.212	0.225
-284.545	-200.000	0.021	-0.247
-283.530	196.758	0.041	0.062
-282.516	61.382	0.098	-0.098
-281.501	-108.636	0.252	-0.054
-280.486	498.249	-0.092	0.213
-279.472	-200.000	-0.036	0.180
-278.457	-8.439	0.113	0.076
-277.443	38.889	-0.067	0.060
-276.428	163.421	0.087	-0.122
-275.413	317.242	0.142	-0.270
-274.399	-28.250	-0.187	0.108
-273.384	-102.451	0.243	-0.058
-272.370	800.000	-0.081	0.292
-271.355	-200.000	-0.042	0.259
-270.340	9.878	-0.216	0.164
-269.326	-200.000	-0.017	0.277
-268.311	-200.000	-0.039	0.178
-267.297	-37.285	0.220	-0.118
-266.282	-96.093	-0.288	0.077
-265.267	-94.826	-0.090	-0.025
-264.253	-83.617	-0.296	-0.095
-263.238	-91.283	0.366	0.105
-262.224	-200.000	0.012	-0.278
-261.209	-173.536	0.177	-0.005
-260.195	319.172	0.062	-0.118
-259.180	-42.065	-0.119	-0.061
-258.165	-130.379	-0.404	-0.055
-257.151	15.059	-0.125	-0.098
-256.136	-200.000	0.068	-0.311
-255.122	470.794	0.047	0.106
-254.107	800.000	0.160	0.512
-253.092	-67.231	-0.190	0.075
-252.078	46.429	0.035	0.032
-251.063	-17.003	0.099	0.063
-250.049	514.733	-0.078	0.182
-249.034	-8.180	-0.192	0.130
-248.019	719.388	-0.147	0.393
-247.005	-18.525	-0.245	0.153
-245.990	800.000	0.101	-0.291
-244.976	-200.000	0.033	-0.237
-243.961	800.000	0.094	0.271
-242.946	-30.705	0.292	0.166
-241.932	-49.611	-0.265	0.126
-240.917	-64.122	0.116	-0.048
-239.903	-128.075	0.118	0.017
-238.888	800.000	0.082	0.235
-237.873	265.838	-0.090	0.158
-236.859	-62.513	-0.242	-0.101
-235.844	128.363	0.124	0.158
-234.830	-148.967	-0.311	-0.025
-233.815	-200.000	-0.031	0.210
-232.800	-126.646	0.355	-0.053
-231.786	-171.543	-0.311	-0.010
-230.771	-43.509	-0.268	-0.136
-229.757	-115.552	0.089	0.017
-228.742	800.000	0.107	0.435
-227.727	800.000	0.145	-0.604
-226.713	455.215	-0.079	-0.176
-225.698	-200.000	-0.027	0.131
-224.684	616.154	-0.101	0.254
-223.669	320.002	0.053	-0.100
-222.655	-200.000	0.104	0.513
-221.640	114.110	0.142	-0.173
-220.625	-116.135	0.042	-0.008
-219.611	-35.748	-0.232	0.126
-218.596	-62.704	0.147	-0.061
-217.582	-82.611	-0.105	-0.034
-216.567	212.628	-0.058	0.091
-215.552	800.000	0.049	-0.143
-214.538	22.465	-0.219	0.179
-213.523	-116.706	-0.143	-0.026
-212.509	443.201	-0.048	-0.105
-211.494	169.376	0.128	-0.183
-210.479	457.242	0.213	0.474
-209.465	-200.000	-0.032	0.433
-208.450	-122.649	0.543	-0.088
-207.436	-6.417	0.250	0.171
-206.421	193.680	-0.103	-0.157
-205.406	-28.718	-0.341	0.196
-204.392	89.701	0.210	0.234
-203.377	273.214	-0.082	0.144
-202.363	-200.000	0.024	-0.151
-201.348	-144.403	-0.097	0.009
-200.333	-70.810	-0.368	-0.139
-199.319	800.000	0.092	0.402
-198.304	166.427	0.057	-0.081
-197.290	-76.977	0.124	0.043
-196.275	-119.679	-0.125	-0.022
-195.260	-9.595	0.168	0.112
-194.246	-41.357	0.214	0.110
-193.231	267.503	0.208	-0.365
-192.217	800.000	0.086	0.334
-191.202	478.521	0.036	0.081
-190.187	-200.000	-0.029	0.207
-189.173	12.179	-0.156	-0.120
-188.158	-200.000	0.091	0.445
-187.144	147.396	0.324	0.436
-186.129	-13.201	-0.027	0.018
-185.114	254.405	0.126	-0.216
-184.100	-136.305	0.210	-0.025
-183.085	150.137	-0.153	0.207
-182.071	-161.497	0.133	0.007
-181.056	-200.000	0.045	0.234
-180.042	-200.000	-0.004	-0.102
-179.027	800.000	-0.066	0.202
-178.012	364.321	-0.048	-0.097
-176.998	195.816	0.024	-0.037
-175.983	-200.000	-0.003	-0.221
-174.969	-200.000	-0.016	0.088
-173.954	800.000	0.074	0.240
-172.939	227.882	0.083	-0.135
-171.925	-5.534	-0.185	0.127
-170.910	-82.429	-0.208	0.068
-169.896	-111.671	0.094	-0.019
-168.881	800.000	-0.024	0.087
-167.866	-21.450	-0.169	-0.103
-166.852	-200.000	0.002	-0.244
-165.837	-200.000	-0.018	-0.225
-164.823	800.000	0.019	0.055
-163.808	29.587	-0.214	-0.182
-162.793	-44.564	-0.252	0.126
-161.779	277.968	0.118	-0.210
-160.764	-54.311	0.124	-0.056
-159.750	-74.013	-0.161	-0.058
-158.735	139.401	-0.177	-0.233
-157.720	-152.440	0.195	0.014
-156.706	65.606	0.248	-0.251
-155.691	-68.107	0.085	0.033
-154.677	468.788	-0.023	0.052
-153.662	8.582	0.012	0.009
-152.647	-71.123	-0.083	-0.031
-151.633	-62.585	-0.291	0.120
-150.618	-93.036	0.286	0.080
-149.604	-142.387	0.607	-0.060
-148.589	-200.000	-0.021	-0.185
-147.574	-38.866	-0.063	-0.033
-146.560	527.375	-0.078	0.184
-145.545	11.833	-0.275	-0.211
-144.531	52.171	0.094	0.089
-143.516	278.337	0.159	0.283
-142.502	-146.357	-0.195	-0.017
-141.487	-200.000	-0.015	0.085
-140.472	404.318	0.134	-0.281
-139.458	-174.449	0.321	0.009
-138.443	-73.648	-0.221	-0.080
-137.429	800.000	0.081	0.285
-136.414	800.000	0.082	0.277
-135.399	491.250	-0.069	0.157
-134.385	-200.000	-0.055	-0.251
-133.370	-47.408	0.198	0.096
-132.356	-200.000	-0.024	-0.313
-131.341	-122.162	0.161	0.026
-130.326	-21.501	-0.174	0.106
-129.312	-100.094	-0.178	0.044
-128.297	30.381	0.190	-0.162
-127.283	-151.278	0.325	-0.024
-126.268	-136.137	-0.082	-0.010
-125.253	-9.960	0.341	0.226
-124.239	-9.260	0.037	-0.025
-123.224	-200.000	0.000	-0.181
-122.210	-200.000	-0.030	0.225
