DTS Sentinel unit serial number:	SN413079Multiplexer serial number:	ORYXHardware model number:	OX4-SRSoftware version number:	ORYX F/W v4.00 Oryx Data Collector v3.7.2.0data status	okinstallation	princeton_trtdifferential loss correction	single-endedforward channel	channel 1reverse channel	N/Adate	2019/09/11time	11:32:11forward acquisition time	60.00reverse acquisition time	0.00gamma	496.2192k internal	0.2295k external	0.2295temperature offset calibration	0.9949default loss term (dB/km)	0.3790temperature slope calibration	1.0000multiplexer offset coefficient	1.0000multiplexer slope coefficient	1.0000fibre end	0.00T internal ref (°C)	38.12T ext. ref 1 (°C)	0.18T ext. ref 2 (°C)	35.76length (m)	temperature (°C)	Stokes	anti-Stokes-747.200	800.000	0.068	0.233
-746.185	-28.828	-0.291	0.171
-745.171	-152.711	0.106	-0.008
-744.156	-24.373	0.274	0.167
-743.142	159.043	-0.081	-0.115
-742.127	-32.136	-0.111	0.063
-741.112	338.632	0.154	-0.307
-740.098	-176.577	-0.241	0.006
-739.083	113.553	-0.009	-0.011
-738.069	-115.062	0.167	-0.032
-737.054	65.817	-0.071	-0.074
-736.039	105.035	0.090	-0.109
-735.025	-122.820	-0.094	-0.015
-734.010	-106.934	-0.172	-0.039
-732.996	114.664	-0.206	-0.257
-731.981	23.936	0.064	-0.054
-730.966	-200.000	-0.034	-0.160
-729.952	164.502	0.065	-0.094
-728.937	800.000	-0.054	-0.157
-727.923	-200.000	-0.018	-0.233
-726.908	-7.081	-0.155	0.108
-725.894	-71.490	-0.165	0.063
-724.879	800.000	-0.011	-0.042
-723.864	-200.000	0.059	-0.405
-722.850	-118.297	0.074	-0.013
-721.835	-108.397	-0.598	0.132
-720.821	-200.000	-0.001	0.161
-719.806	800.000	-0.103	0.302
-718.791	-170.930	-0.195	0.007
-717.777	-106.862	-0.178	-0.040
-716.762	-200.000	-0.040	0.209
-715.748	-163.587	-0.190	0.009
-714.733	62.571	0.289	0.294
-713.718	207.641	0.067	0.107
-712.704	2.480	0.173	-0.128
-711.689	-109.242	0.277	0.060
-710.675	176.557	0.177	-0.263
-709.660	-29.140	0.093	-0.055
-708.645	57.273	-0.081	0.081
-707.631	-0.303	-0.207	0.151
-706.616	86.187	-0.263	0.296
-705.602	800.000	0.024	0.084
-704.587	-200.000	0.072	-0.489
-703.572	800.000	-0.067	0.207
-702.558	101.327	-0.031	-0.037
-701.543	800.000	0.012	-0.036
-700.529	800.000	0.080	-0.277
-699.514	-138.746	0.178	0.020
-698.499	77.925	0.191	-0.208
-697.485	602.393	0.112	-0.284
-696.470	-37.620	-0.367	-0.199
-695.456	-33.305	0.193	0.109
-694.441	507.937	0.142	0.337
-693.426	292.546	-0.014	0.025
-692.412	-4.938	-0.171	0.120
-691.397	427.848	0.021	0.046
-690.383	-118.967	0.125	-0.022
-689.368	-68.464	0.061	-0.024
-688.354	-4.190	-0.168	-0.119
-687.339	38.761	-0.198	0.180
-686.324	-73.336	-0.107	0.040
-685.310	-165.561	0.028	-0.001
-684.295	-200.000	0.003	-0.220
-683.281	-144.842	0.115	-0.011
-682.266	-94.850	-0.226	0.063
-681.251	-200.000	0.064	0.000
-680.237	-114.576	0.313	-0.061
-679.222	-77.155	-0.113	-0.040
-678.208	-38.158	-0.241	-0.130
-677.193	72.602	-0.315	0.335
-676.178	-200.000	-0.061	0.490
-675.164	-39.869	-0.402	0.214
-674.149	-168.194	-0.162	-0.006
-673.135	76.222	-0.244	-0.264
-672.120	-91.799	0.199	-0.057
-671.105	-121.725	-0.043	-0.007
-670.091	29.490	0.049	-0.042
-669.076	-200.000	0.012	0.122
-668.062	26.525	0.121	0.103
-667.047	-200.000	-0.020	0.126
-666.032	12.235	-0.131	0.103
-665.018	800.000	0.156	-0.445
-664.003	-126.866	-0.420	0.063
-662.989	469.757	-0.182	0.416
-661.974	-92.069	-0.237	-0.068
-660.959	-50.582	-0.141	0.068
-659.945	163.286	-0.139	-0.198
-658.930	203.913	0.241	0.381
-657.916	70.024	-0.110	-0.116
-656.901	-107.869	0.093	0.021
-655.886	-139.261	-0.335	-0.037
-654.872	39.780	0.079	0.072
-653.857	-126.425	0.389	-0.059
-652.843	-27.481	-0.143	-0.084
-651.828	-30.522	-0.171	0.099
-650.814	-167.044	-0.231	0.010
-649.799	-200.000	0.019	0.099
-648.784	22.360	0.188	-0.156
-647.770	-95.316	-0.217	-0.060
-646.755	-30.055	-0.240	-0.139
-645.741	-48.674	-0.111	0.054
-644.726	85.547	-0.234	0.261
-643.711	793.208	-0.069	-0.194
-642.697	-200.000	0.029	0.239
-641.682	-103.058	-0.316	-0.076
-640.668	19.982	-0.280	-0.230
-639.653	-119.475	-0.274	0.048
-638.638	-57.160	-0.242	-0.108
-637.624	-7.526	0.054	-0.037
-636.609	-89.525	-0.205	-0.061
-635.595	251.821	-0.166	0.287
-634.580	448.083	-0.041	0.092
-633.565	-136.245	0.076	0.009
-632.551	227.612	-0.152	-0.251
-631.536	31.884	0.173	-0.152
-630.522	368.147	0.094	0.194
-629.507	-93.246	-0.211	0.060
-628.492	-102.168	0.185	-0.045
-627.478	554.532	0.097	0.238
-626.463	-51.610	0.406	0.193
-625.449	-35.931	0.203	-0.112
-624.434	800.000	-0.061	-0.173
-623.419	-86.466	-0.427	0.133
-622.405	77.033	-0.196	0.212
-621.390	39.665	0.173	-0.158
-620.376	-60.970	-0.305	0.131
-619.361	800.000	-0.065	0.217
-618.346	-132.998	-0.241	-0.031
-617.332	-120.232	-0.151	-0.026
-616.317	176.620	0.028	-0.041
-615.303	-133.537	0.150	0.019
-614.288	-33.794	0.038	0.021
-613.273	-200.000	-0.015	-0.151
-612.259	-172.417	0.320	0.010
-611.244	-158.001	-0.148	0.009
-610.230	-111.007	0.278	0.058
-609.215	-134.992	-0.275	-0.034
-608.201	-200.000	0.027	-0.148
-607.186	577.524	-0.099	-0.247
-606.171	-103.142	-0.087	0.021
-605.157	394.440	-0.059	-0.125
-604.142	-24.023	-0.051	-0.031
-603.128	800.000	0.185	-0.555
-602.113	-156.906	0.190	0.012
-601.098	-39.747	0.102	-0.054
-600.084	2.909	-0.065	0.048
-599.069	331.398	0.082	-0.161
-598.055	280.827	0.055	0.099
-597.040	64.778	-0.204	-0.209
-596.025	569.632	0.088	-0.217
-595.011	182.098	-0.123	-0.184
-593.996	-71.275	0.045	-0.017
-592.982	12.090	0.203	-0.159
-591.967	-170.278	0.259	-0.009
-590.952	-134.178	-0.211	0.026
-589.938	-0.665	0.132	0.095
-588.923	-200.000	-0.010	-0.161
-587.909	375.368	-0.069	0.143
-586.894	-200.000	0.008	0.139
-585.879	800.000	-0.147	0.461
-584.865	-71.743	0.356	-0.135
-583.850	800.000	-0.108	-0.391
-582.836	-110.284	0.283	0.060
-581.821	70.723	-0.192	-0.202
-580.806	800.000	0.035	-0.132
-579.792	280.809	-0.113	0.205
-578.777	-200.000	0.007	0.189
-577.763	679.704	-0.098	-0.258
-576.748	800.000	-0.036	-0.128
-575.733	-160.729	-0.173	0.009
-574.719	216.509	0.378	-0.611
-573.704	211.877	0.079	-0.126
-572.690	-200.000	0.036	0.461
-571.675	482.332	-0.100	0.231
-570.661	800.000	0.079	-0.234
-569.646	-63.556	-0.216	-0.090
-568.631	13.383	-0.371	0.292
-567.617	-106.997	0.209	-0.047
-566.602	104.452	0.255	0.304
-565.588	12.312	0.148	-0.116
-564.573	-87.427	-0.170	-0.052
-563.558	-200.000	-0.072	0.388
-562.544	102.441	-0.141	-0.167
-561.529	-200.000	0.004	0.108
-560.515	108.725	-0.136	-0.164
-559.500	51.693	-0.237	-0.229
-558.485	245.259	-0.106	-0.182
-557.471	144.284	0.180	-0.244
-556.456	-200.000	0.053	0.375
-555.442	-122.936	-0.243	-0.040
-554.427	-26.936	0.171	0.101
-553.412	-43.279	0.155	0.080
-552.398	120.578	0.107	-0.135
-551.383	1.891	0.262	0.192
-550.369	800.000	0.074	-0.240
-549.354	-60.735	-0.227	-0.097
-548.339	577.659	0.092	0.228
-547.325	3.818	-0.164	-0.121
-546.310	-39.527	-0.374	-0.199
-545.296	-109.975	0.167	-0.035
-544.281	-200.000	-0.032	-0.218
-543.266	-82.270	-0.172	0.057
-542.252	88.605	0.127	0.143
-541.237	-200.000	0.041	-0.205
-540.223	-200.000	-0.022	-0.366
-539.208	48.123	-0.148	-0.140
-538.193	-126.647	-0.108	0.016
-537.179	-13.844	0.056	0.037
-536.164	-200.000	-0.048	0.398
-535.150	0.112	0.105	0.076
-534.135	25.273	-0.221	0.186
-533.121	-21.896	0.332	-0.205
-532.106	-18.214	-0.177	-0.112
-531.091	-200.000	0.015	0.167
-530.077	756.351	-0.094	0.258
-529.062	-22.093	0.225	-0.139
-528.048	8.706	0.157	0.120
-527.033	464.035	0.041	0.094
-526.018	701.452	-0.078	-0.209
-525.004	230.207	-0.057	0.094
-523.989	800.000	0.004	0.019
-522.975	800.000	0.024	0.102
-521.960	113.261	-0.219	-0.270
-520.945	32.387	-0.153	-0.134
-519.931	-200.000	-0.062	0.367
-518.916	45.597	-0.075	-0.070
-517.902	642.665	0.085	-0.220
-516.887	-200.000	0.019	0.177
-515.872	5.840	0.094	0.070
-514.858	-187.710	-0.475	0.006
-513.843	-30.950	-0.176	-0.101
-512.829	727.024	-0.056	0.151
-511.814	-200.000	-0.041	0.325
-510.799	-67.159	0.170	0.068
-509.785	-119.938	-0.345	-0.060
-508.770	51.569	-0.068	0.066
-507.756	23.863	0.161	-0.134
-506.741	-37.144	-0.070	0.038
-505.726	-200.000	0.017	0.402
-504.712	-100.813	0.236	0.059
-503.697	82.754	0.099	0.109
-502.683	-162.310	0.261	0.013
-501.668	-42.260	0.284	-0.147
-500.653	47.573	-0.323	0.305
-499.639	-71.069	0.242	0.092
-498.624	-200.000	-0.011	-0.084
-497.610	308.075	-0.054	-0.103
-496.595	-200.000	-0.005	0.153
-495.581	-20.948	-0.300	0.186
-494.566	-0.079	-0.189	-0.136
-493.551	87.960	-0.044	0.049
-492.537	800.000	0.052	0.220
-491.522	40.344	0.283	-0.258
-490.508	-128.079	0.299	0.043
-489.493	83.817	0.088	0.097
-488.478	-112.757	0.086	0.017
-487.464	273.120	0.095	0.169
-486.449	30.158	0.115	0.099
-485.435	-41.448	0.123	0.064
-484.420	-200.000	0.009	0.133
-483.405	800.000	-0.086	0.246
-482.391	-200.000	0.018	-0.140
-481.376	-142.034	-0.144	0.015
-480.362	-19.008	0.230	-0.145
-479.347	800.000	0.033	-0.134
-478.332	579.700	-0.040	-0.099
-477.318	89.180	0.342	0.386
-476.303	800.000	-0.026	-0.109
-475.289	-200.000	-0.032	0.285
-474.274	2.890	0.267	-0.196
-473.259	242.678	0.119	0.202
-472.245	-200.000	-0.000	-0.270
-471.230	-28.614	0.261	-0.152
-470.216	800.000	0.134	-0.403
-469.201	-121.599	-0.136	-0.023
-468.186	-112.561	0.182	0.037
-467.172	-200.000	0.020	0.231
-466.157	-200.000	0.026	-0.140
-465.143	-93.283	0.216	-0.061
-464.128	115.632	0.089	-0.110
-463.113	22.254	-0.110	0.091
-462.099	-200.000	-0.033	-0.208
-461.084	-200.000	0.037	0.431
-460.070	127.604	-0.049	0.062
-459.055	517.769	0.027	-0.064
-458.040	-200.000	-0.036	-0.479
-457.026	-200.000	-0.024	0.144
-456.011	-33.131	-0.058	0.033
-454.997	-127.754	0.368	0.054
-453.982	371.979	-0.296	0.607
-452.968	-5.335	-0.433	-0.301
-451.953	49.293	0.182	-0.173
-450.938	-120.109	-0.208	0.036
-449.924	-125.557	-0.069	0.011
-448.909	-200.000	0.021	0.168
-447.895	-16.030	-0.266	0.171
-446.880	47.656	0.231	-0.218
-445.865	-16.842	-0.249	-0.159
-444.851	218.440	-0.085	-0.137
-443.836	403.331	-0.055	-0.117
-442.822	205.685	0.111	0.174
-441.807	-77.254	0.290	-0.102
-440.792	642.631	-0.111	-0.286
-439.778	228.169	0.097	0.159
-438.763	162.275	-0.057	0.081
-437.749	-142.237	-0.099	-0.010
-436.734	130.767	-0.099	0.129
-435.719	85.432	0.247	0.274
-434.705	-147.880	0.275	0.023
-433.690	207.070	-0.047	0.074
-432.676	-159.418	-0.174	0.010
-431.661	37.481	0.053	0.048
-430.646	800.000	-0.066	0.245
-429.632	315.197	-0.053	-0.100
-428.617	18.293	0.179	-0.145
-427.603	221.392	-0.077	-0.126
-426.588	-200.000	0.012	0.209
-425.573	17.960	-0.100	0.081
-424.559	-150.577	0.177	-0.014
-423.544	163.647	0.201	0.285
-422.530	-159.616	0.197	-0.011
-421.515	-32.604	0.245	0.138
-420.500	38.008	-0.142	-0.127
-419.486	-90.622	-0.133	-0.039
-418.471	-99.408	-0.404	-0.103
-417.457	-54.420	-0.068	-0.031
-416.442	26.136	-0.175	-0.148
-415.428	17.133	0.144	0.115
-414.413	48.917	0.091	0.086
-413.398	338.467	0.150	0.294
-412.384	-136.958	-0.171	0.020
-411.369	151.660	0.063	0.087
-410.355	199.825	-0.093	-0.143
-409.340	-47.181	0.209	0.103
-408.325	-64.197	-0.252	-0.104
-407.311	-145.149	-0.159	-0.015
-406.296	-200.000	-0.030	-0.176
-405.282	76.792	0.187	-0.201
-404.267	-107.606	0.260	-0.057
-403.252	-9.533	0.243	0.164
-402.238	212.868	0.260	0.415
-401.223	664.861	-0.068	0.177
-400.209	-200.000	-0.066	-0.443
-399.194	800.000	0.184	0.512
-398.179	-160.169	-0.209	-0.011
-397.165	-128.892	-0.285	-0.040
-396.150	456.579	0.123	-0.274
-395.136	792.873	0.130	-0.362
-394.121	105.598	0.131	0.156
-393.106	-72.815	0.081	-0.030
-392.092	196.596	0.186	-0.286
-391.077	-134.919	0.342	0.042
-390.063	-200.000	0.028	-0.223
-389.048	75.783	-0.147	0.157
-388.033	-200.000	-0.010	-0.132
-387.019	-10.553	-0.199	-0.133
-386.004	-134.678	-0.170	-0.021
-384.990	260.328	0.181	0.316
-383.975	568.721	0.049	-0.120
-382.960	-200.000	-0.292	-0.000
-381.946	-1.016	0.176	-0.125
-380.931	101.262	-0.050	-0.059
-379.917	95.397	-0.231	0.266
-378.902	800.000	-0.070	0.204
-377.888	800.000	-0.049	0.136
-376.873	-200.000	-0.057	-0.352
-375.858	-106.853	0.195	-0.044
-374.844	676.821	0.095	-0.248
-373.829	7.465	-0.123	0.093
-372.815	-76.698	-0.163	0.058
-371.800	106.636	-0.211	0.253
-370.785	304.108	0.085	-0.159
-369.771	116.978	-0.175	0.216
-368.756	-200.000	0.002	0.258
-367.742	165.111	0.257	0.365
-366.727	-200.000	0.030	0.227
-365.712	3.536	0.206	0.151
-364.698	-129.101	0.112	0.016
-363.683	-165.846	0.333	-0.014
-362.669	-23.303	0.059	-0.036
-361.654	-139.083	0.162	-0.018
-360.639	-200.000	0.028	0.282
-359.625	60.818	0.237	0.236
-358.610	30.403	-0.128	0.110
-357.596	-159.612	-0.245	-0.014
-356.581	168.207	-0.114	-0.164
-355.566	139.617	0.098	0.130
-354.552	200.595	0.047	-0.072
-353.537	92.210	-0.173	-0.196
-352.523	-161.479	0.265	-0.014
-351.508	190.755	0.178	0.269
-350.493	-98.875	-0.163	-0.042
-349.479	800.000	0.055	0.174
-348.464	-136.421	-0.196	-0.023
-347.450	800.000	-0.015	-0.060
-346.435	-129.587	-0.239	0.033
-345.420	-106.748	-0.266	0.059
-344.406	-200.000	-0.030	-0.138
-343.391	-149.469	0.054	0.004
-342.377	65.886	0.171	0.174
-341.362	12.468	-0.077	-0.060
-340.348	601.310	-0.067	-0.168
-339.333	-54.378	-0.362	-0.165
-338.318	-105.569	0.279	0.064
-337.304	10.629	-0.041	0.031
-336.289	603.133	-0.106	0.266
-335.275	-61.667	0.107	-0.045
-334.260	-132.803	0.139	0.018
-333.245	-200.000	0.030	-0.361
-332.231	800.000	-0.043	-0.125
-331.216	120.628	-0.067	0.084
-330.202	414.942	0.022	-0.047
-329.187	400.941	-0.086	0.181
-328.172	800.000	0.049	-0.191
-327.158	-200.000	-0.024	-0.309
-326.143	-200.000	0.015	-0.111
-325.129	400.250	0.092	0.195
-324.114	-177.109	-0.146	0.004
-323.099	800.000	-0.074	-0.224
-322.085	118.131	0.088	0.109
-321.070	-124.784	0.134	0.021
-320.056	-80.063	-0.104	0.035
-319.041	370.570	-0.102	0.208
-318.026	41.970	0.292	-0.267
-317.012	-121.129	-0.039	-0.007
-315.997	-89.255	-0.336	-0.100
-314.983	1.215	-0.392	-0.283
-313.968	553.843	-0.160	0.387
-312.953	32.777	0.112	-0.097
-311.939	126.825	0.116	-0.148
-310.924	-62.665	0.221	-0.092
-309.910	343.352	-0.096	0.189
-308.895	704.252	0.051	-0.134
-307.880	-132.839	-0.064	-0.008
-306.866	-128.386	-0.242	-0.035
-305.851	108.317	-0.180	-0.216
-304.837	122.146	-0.169	-0.212
-303.822	800.000	0.046	0.178
-302.807	-74.973	-0.142	-0.051
-301.793	19.355	-0.280	0.226
-300.778	-200.000	0.016	0.143
-299.764	-200.000	0.025	-0.123
-298.749	246.108	-0.117	0.199
-297.735	-21.500	-0.097	-0.059
-296.720	-200.000	-0.027	0.136
-295.705	137.100	0.090	-0.118
-294.691	800.000	0.048	-0.193
-293.676	-128.393	-0.256	-0.037
-292.662	-70.012	0.154	-0.059
-291.647	39.939	0.203	-0.183
-290.632	65.160	-0.258	-0.262
-289.618	800.000	-0.065	-0.238
-288.603	10.494	-0.026	-0.020
-287.589	-164.100	-0.250	-0.012
-286.574	140.058	-0.087	-0.115
-285.559	-11.231	-0.113	-0.075
-284.545	-22.126	-0.135	-0.082
-283.530	-200.000	0.029	0.316
-282.516	-200.000	0.043	0.302
-281.501	74.481	0.191	0.202
-280.486	371.991	-0.175	-0.357
-279.472	-200.000	-0.018	-0.099
-278.457	-21.243	0.201	0.123
-277.443	-131.048	0.122	-0.016
-276.428	73.501	-0.099	0.104
-275.413	85.658	-0.024	-0.026
-274.399	213.315	0.142	0.226
-273.384	-23.945	0.222	-0.133
-272.370	257.368	0.215	-0.371
-271.355	-113.394	-0.282	0.055
-270.340	-200.000	0.049	-0.273
-269.326	-0.011	-0.214	0.153
-268.311	386.099	-0.038	0.078
-267.297	187.902	-0.218	0.327
-266.282	127.015	0.222	0.283
-265.267	-137.074	0.275	-0.032
-264.253	-123.579	-0.189	-0.030
-263.238	-74.668	-0.211	-0.076
-262.224	256.157	-0.129	0.223
-261.209	-66.350	0.133	-0.053
-260.195	-59.572	0.319	0.137
-259.180	67.587	0.093	0.096
-258.165	-78.084	0.044	0.015
-257.151	800.000	0.037	-0.132
-256.136	83.164	0.066	-0.072
-255.122	335.704	0.143	0.278
-254.107	-68.724	-0.175	-0.068
-253.092	-139.691	-0.455	0.049
-252.078	215.876	0.117	-0.187
-251.063	182.621	-0.173	-0.256
-250.049	466.158	0.063	-0.141
-249.034	-87.791	0.069	0.021
-248.019	-99.700	-0.207	0.052
-247.005	800.000	-0.128	-0.371
-245.990	-1.058	0.318	0.225
-244.976	-124.464	0.262	-0.041
-243.961	-114.559	-0.277	0.053
-242.946	-200.000	-0.040	0.485
-241.932	-200.000	-0.023	0.206
-240.917	-200.000	-0.015	0.101
-239.903	800.000	0.127	0.419
-238.888	303.762	0.073	0.136
-237.873	-200.000	-0.032	0.149
-236.859	161.258	-0.165	0.232
-235.844	71.603	-0.177	0.184
-234.830	443.842	-0.140	0.309
-233.815	21.657	0.066	0.054
-232.800	-19.670	0.316	-0.196
-231.786	-29.561	0.178	-0.102
-230.771	-162.792	0.177	-0.009
-229.757	-102.254	0.365	-0.088
-228.742	-100.281	0.330	-0.082
-227.727	-200.000	-0.007	0.222
-226.713	336.981	0.036	-0.071
-225.698	686.620	0.062	-0.162
-224.684	0.863	0.273	0.196
-223.669	-200.000	-0.016	-0.312
-222.655	-84.086	0.046	-0.015
-221.640	-108.513	-0.251	-0.054
-220.625	290.001	0.109	-0.198
-219.611	800.000	0.041	-0.165
-218.596	800.000	0.022	-0.083
-217.582	-200.000	-0.012	0.279
-216.567	491.487	0.115	-0.264
-215.552	30.515	0.062	-0.053
-214.538	203.081	-0.088	-0.136
-213.523	-84.059	0.449	0.143
-212.509	-200.000	-0.006	-0.157
-211.494	-81.711	0.210	-0.069
-210.479	-200.000	-0.019	-0.199
-209.465	56.883	0.114	-0.112
-208.450	-200.000	-0.061	-0.271
-207.436	361.705	0.058	-0.116
-206.421	-200.000	0.024	-0.284
-205.406	-134.290	-0.144	-0.018
-204.392	121.384	-0.183	-0.228
-203.377	-75.303	0.393	0.140
-202.363	-7.983	-0.193	-0.131
-201.348	-200.000	0.033	0.241
-200.333	95.727	-0.125	0.143
-199.319	-200.000	-0.020	0.294
-198.304	-200.000	-0.001	-0.055
-197.290	476.646	0.039	0.088
-196.275	241.919	-0.117	0.196
-195.260	-200.000	-0.022	-0.191
-194.246	-29.307	0.251	-0.144
-193.231	-63.895	0.373	0.153
-192.217	203.256	0.177	-0.274
-191.202	127.945	-0.084	0.107
-190.187	184.721	-0.083	0.123
-189.173	-111.620	0.081	0.016
-188.158	66.523	0.196	0.199
-187.144	346.211	-0.027	0.052
-186.129	-126.995	-0.292	-0.043
-185.114	800.000	-0.031	-0.095
-184.100	800.000	-0.024	-0.070
-183.085	800.000	-0.029	-0.095
-182.071	-168.059	0.349	0.014
-181.056	-174.208	0.332	-0.010
-180.042	77.000	0.170	-0.181
-179.027	18.650	-0.180	0.144
-178.012	-200.000	-0.034	-0.178
-176.998	800.000	0.086	-0.358
-175.983	800.000	-0.035	0.135
-174.969	-113.410	-0.139	-0.027
-173.954	124.091	0.117	-0.147
-172.939	-39.442	-0.241	-0.127
-171.925	-200.000	-0.013	-0.078
-170.910	-200.000	-0.013	0.167
-169.896	-138.734	0.348	0.038
-168.881	85.329	-0.121	0.132
-167.866	-119.735	-0.278	0.048
-166.852	-200.000	0.002	-0.156
-165.837	800.000	0.018	0.070
-164.823	115.396	-0.110	-0.135
-163.808	-54.790	-0.106	0.048
-162.793	-62.415	0.134	-0.056
-161.779	-200.000	-0.004	-0.138
-160.764	-127.908	0.345	0.050
-159.750	262.073	0.065	0.113
-158.735	-129.086	-0.189	0.026
-157.720	-200.000	0.049	0.254
-156.706	-53.733	-0.170	-0.078
-155.691	98.362	-0.052	0.060
-154.677	22.136	0.150	-0.123
-153.662	36.580	-0.275	0.243
-152.647	-73.529	-0.201	-0.073
-151.633	-40.767	-0.011	0.006
-150.618	-61.560	-0.114	0.048
-149.604	-71.860	0.284	0.106
-148.589	200.567	-0.062	-0.095
-147.574	97.501	0.139	0.159
-146.560	-19.011	-0.137	-0.085
-145.545	-140.831	-0.261	0.027
-144.531	-14.348	0.255	-0.164
-143.516	-186.078	0.098	0.001
-142.502	-145.789	-0.169	0.015
-141.487	-78.729	-0.199	0.068
-140.472	558.807	-0.118	0.284
-139.458	65.685	0.097	0.098
-138.443	800.000	0.065	-0.267
-137.429	738.870	-0.076	-0.204
-136.414	118.592	0.093	-0.115
-135.399	191.766	0.096	0.145
-134.385	341.324	0.076	0.148
-133.370	800.000	0.062	-0.257
-132.356	-86.571	-0.305	0.093
-131.341	54.906	0.236	-0.227
-130.326	371.306	0.010	0.020
-129.312	-200.000	0.051	0.343
-128.297	-0.420	-0.160	-0.113
-127.283	-91.137	-0.120	-0.034
-126.268	69.451	0.189	0.195
-125.253	451.985	-0.112	0.247
-124.239	672.177	0.022	0.056
-123.224	800.000	-0.036	0.157
-122.210	-85.143	-0.191	-0.060
