DTS Sentinel unit serial number:	SN413079Multiplexer serial number:	ORYXHardware model number:	OX4-SRSoftware version number:	ORYX F/W v4.00 Oryx Data Collector v3.7.2.0data status	okinstallation	princeton_trtdifferential loss correction	single-endedforward channel	channel 1reverse channel	N/Adate	2019/09/12time	19:45:34forward acquisition time	15.00reverse acquisition time	0.00gamma	496.2192k internal	0.2323k external	0.2323temperature offset calibration	1.0137default loss term (dB/km)	0.3790temperature slope calibration	1.0000multiplexer offset coefficient	1.0000multiplexer slope coefficient	1.0000fibre end	0.00T internal ref (°C)	32.00T ext. ref 1 (°C)	3.45T ext. ref 2 (°C)	26.56length (m)	temperature (°C)	Stokes	anti-Stokes-747.200	23.514	-0.728	-0.605
-746.185	-1.378	-0.668	0.476
-745.171	-109.724	-0.567	-0.120
-744.156	368.812	0.182	-0.372
-743.142	63.608	0.306	-0.311
-742.127	548.775	0.225	0.543
-741.112	135.409	-0.607	-0.798
-740.098	-159.461	0.207	-0.012
-739.083	-200.000	0.052	-0.417
-738.069	715.497	-0.209	-0.561
-737.054	80.151	-0.464	0.504
-736.039	-200.000	-0.022	0.425
-735.025	74.514	-0.130	-0.138
-734.010	800.000	-0.075	0.308
-732.996	52.588	-0.373	-0.360
-731.981	-68.247	1.004	0.394
-730.966	-10.982	-0.117	0.078
-729.952	-27.425	0.137	-0.080
-728.937	800.000	-0.167	-0.578
-727.923	800.000	0.164	-0.477
-726.908	-36.947	0.750	-0.406
-725.894	-58.598	-0.777	-0.340
-724.879	-68.855	-0.806	-0.314
-723.864	800.000	0.016	0.071
-722.850	271.746	0.456	-0.811
-721.835	-76.308	-0.667	0.237
-720.821	3.788	0.234	-0.172
-719.806	63.666	-0.164	-0.166
-718.791	-120.890	0.531	-0.090
-717.777	-139.368	0.578	0.063
-716.762	53.670	-0.435	-0.421
-715.748	33.989	0.230	-0.202
-714.733	-128.635	0.635	-0.091
-713.718	-27.457	0.476	-0.279
-712.704	-160.371	-0.534	0.029
-711.689	-168.687	0.598	-0.023
-710.675	247.601	0.283	0.482
-709.660	89.945	0.025	-0.028
-708.645	220.422	0.169	0.274
-707.631	800.000	-0.105	-0.299
-706.616	32.082	0.409	0.356
-705.602	-15.656	0.060	-0.039
-704.587	10.633	-0.406	0.312
-703.572	-200.000	-0.177	-0.811
-702.558	783.841	-0.167	-0.462
-701.543	-110.996	-0.315	0.065
-700.529	73.693	-0.641	0.677
-699.514	185.003	0.332	-0.497
-698.499	45.806	0.546	-0.509
-697.485	170.437	-0.297	-0.428
-696.470	65.490	-0.067	0.068
-695.456	-200.000	0.084	0.413
-694.441	-200.000	0.013	-0.203
-693.426	64.079	0.197	-0.199
-692.412	-62.617	-0.743	-0.311
-691.397	-1.184	-0.604	-0.430
-690.383	-92.014	0.969	-0.276
-689.368	-109.519	-0.986	0.210
-688.354	-200.000	0.023	-0.400
-687.339	666.692	-0.250	-0.650
-686.324	-120.787	0.423	-0.072
-685.310	3.443	0.365	-0.268
-684.295	30.375	0.581	-0.500
-683.281	-200.000	-0.041	0.202
-682.266	655.835	0.255	-0.660
-681.251	-152.195	-0.622	-0.045
-680.237	-62.202	0.357	0.150
-679.222	-200.000	0.027	-0.820
-678.208	-200.000	0.021	-0.292
-677.193	-166.314	0.377	-0.016
-676.178	-26.600	0.581	-0.343
-675.164	76.882	-0.478	0.511
-674.149	-200.000	0.081	-0.724
-673.135	-161.188	0.117	0.006
-672.120	142.377	-0.227	-0.304
-671.105	-55.658	-0.210	-0.095
-670.091	21.146	-0.654	-0.535
-669.076	9.303	0.335	-0.255
-668.062	-200.000	-0.050	-0.738
-667.047	734.680	-0.140	-0.377
-666.032	-15.496	0.501	-0.322
-665.018	-133.412	0.695	0.088
-664.003	-200.000	0.000	-0.340
-662.989	-56.972	0.342	0.152
-661.974	-19.601	0.417	0.260
-660.959	665.527	0.216	-0.562
-659.945	800.000	0.081	-0.276
-658.930	-200.000	-0.192	-0.855
-657.916	-169.474	-0.306	-0.011
-656.901	800.000	-0.175	-0.586
-655.886	-103.640	0.562	-0.133
-654.872	209.946	0.409	0.646
-653.857	-38.772	-0.283	-0.150
-652.843	-161.312	-0.841	-0.044
-651.828	-104.569	0.447	0.104
-650.814	600.668	-0.030	-0.074
-649.799	731.422	0.108	0.291
-648.784	384.958	0.193	-0.400
-647.770	289.696	0.227	-0.415
-646.755	-200.000	-0.046	0.664
-645.741	220.922	0.201	0.324
-644.726	-175.498	0.737	-0.020
-643.711	288.670	-0.332	-0.606
-642.697	-140.762	-0.186	0.019
-641.682	-104.168	-0.287	0.067
-640.668	189.312	0.326	0.491
-639.653	168.398	-0.302	0.432
-638.638	56.443	0.609	-0.596
-637.624	756.518	-0.071	0.194
-636.609	-145.209	0.452	0.041
-635.595	50.810	-0.291	0.277
-634.580	105.127	-0.438	-0.520
-633.565	176.065	-0.185	-0.270
-632.551	-42.367	-0.265	0.136
-631.536	-49.769	0.211	-0.101
-630.522	-136.224	-0.808	0.095
-629.507	-200.000	-0.085	0.612
-628.492	89.340	-0.111	0.125
-627.478	62.556	-0.269	-0.270
-626.463	-200.000	0.035	0.358
-625.449	45.633	-0.393	-0.365
-624.434	-78.131	-0.228	-0.079
-623.419	-32.079	0.608	-0.342
-622.405	-200.000	-0.080	-0.429
-621.390	72.156	0.444	-0.465
-620.376	57.723	-0.473	-0.464
-619.361	185.535	0.198	-0.296
-618.346	800.000	0.116	-0.481
-617.332	-29.154	0.171	-0.099
-616.317	800.000	0.133	0.431
-615.303	-174.335	0.697	-0.020
-614.288	351.944	0.592	1.179
-613.273	-200.000	-0.042	-0.283
-612.259	-147.704	0.305	-0.026
-611.244	-200.000	-0.119	0.565
-610.230	161.420	-0.234	-0.329
-609.215	315.628	-0.269	0.510
-608.201	-24.443	0.711	0.426
-607.186	-49.520	0.269	0.129
-606.171	-90.115	0.850	0.249
-605.157	547.816	-0.149	0.359
-604.142	-22.291	0.578	-0.352
-603.128	-76.825	-0.755	0.265
-602.113	800.000	-0.066	-0.256
-601.098	87.128	-0.249	0.277
-600.084	-160.580	0.406	0.022
-599.069	-61.391	0.448	0.189
-598.055	-9.392	0.615	-0.412
-597.040	106.160	0.271	-0.323
-596.025	-200.000	0.088	-0.480
-595.011	-144.173	-0.920	-0.086
-593.996	-186.627	0.724	0.010
-592.982	-77.546	0.558	-0.194
-591.967	-164.000	0.476	-0.022
-590.952	800.000	-0.178	0.531
-589.938	-91.057	0.622	0.179
-588.923	543.320	-0.214	-0.512
-587.909	302.394	-0.515	-0.956
-586.894	-200.000	-0.034	0.963
-585.879	-69.446	-0.508	0.195
-584.865	800.000	0.307	-0.943
-583.850	-146.751	-0.551	-0.048
-582.836	147.582	-0.443	-0.599
-581.821	800.000	-0.139	-0.492
-580.806	13.146	0.128	0.100
-579.792	-28.970	0.412	0.238
-578.777	212.842	-0.236	0.373
-577.763	-131.570	0.611	0.081
-576.748	231.009	0.715	1.175
-575.733	-82.433	-0.933	0.304
-574.719	525.132	-0.047	-0.112
-573.704	-37.839	-0.284	-0.151
-572.690	-166.181	0.643	0.027
-571.675	-22.307	0.413	0.251
-570.661	7.148	-0.645	-0.483
-569.646	37.099	0.182	0.162
-568.631	693.564	0.200	-0.527
-567.617	163.371	-0.351	-0.495
-566.602	439.303	0.591	1.294
-565.588	27.627	0.360	0.304
-564.573	97.379	-0.254	0.292
-563.558	426.519	0.335	0.725
-562.544	-46.746	-0.401	-0.197
-561.529	800.000	0.056	0.187
-560.515	46.665	-0.409	-0.381
-559.500	-107.365	-0.388	-0.085
-558.485	252.520	-0.291	0.497
-557.471	-28.678	0.128	0.074
-556.456	392.975	-0.161	-0.335
-555.442	107.133	-0.443	-0.527
-554.427	-132.463	-0.637	0.082
-553.412	24.481	-0.928	-0.770
-552.398	-119.407	0.527	-0.092
-551.383	78.087	-0.067	-0.072
-550.369	-137.147	-0.412	0.047
-549.354	-111.101	-0.167	0.034
-548.339	63.380	-0.803	-0.807
-547.325	259.581	-0.346	0.599
-546.310	800.000	-0.036	-0.142
-545.296	800.000	-0.299	-1.256
-544.281	110.469	-0.494	-0.596
-543.266	364.950	0.178	0.360
-542.252	655.134	0.025	-0.065
-541.237	-95.433	0.319	-0.086
-540.223	-58.836	0.521	0.226
-539.208	-26.075	0.746	0.439
-538.193	648.954	0.368	-0.943
-537.179	-14.916	-0.728	0.468
-536.164	-99.009	-0.640	0.163
-535.150	209.968	0.331	-0.520
-534.135	-114.262	0.401	-0.077
-533.121	-76.821	0.309	0.108
-532.106	-34.853	0.123	-0.067
-531.091	-72.822	-0.585	0.216
-530.077	247.014	0.260	0.439
-529.062	54.613	-0.440	0.425
-528.048	-200.000	0.020	-0.128
-527.033	-200.000	0.137	0.606
-526.018	34.754	0.536	0.469
-525.004	93.913	0.242	-0.275
-523.989	-98.727	-0.596	0.152
-522.975	12.552	0.450	0.348
-521.960	278.479	-0.249	0.445
-520.945	-200.000	0.040	0.759
-519.931	33.307	0.286	0.248
-518.916	-128.892	0.073	-0.010
-517.902	129.482	-0.108	0.138
-516.887	603.720	0.209	0.521
-515.872	53.114	-0.335	0.321
-514.858	-200.000	-0.059	-0.795
-513.843	-200.000	0.033	0.652
-512.829	-99.534	1.185	0.298
-511.814	-200.000	-0.113	1.034
-510.799	4.947	-0.597	-0.439
-509.785	172.101	-0.653	0.939
-508.770	-200.000	0.036	0.390
-507.756	-200.000	-0.000	0.149
-506.741	-94.787	-0.380	-0.103
-505.726	-51.545	-0.429	0.200
-504.712	800.000	0.105	0.363
-503.697	194.910	0.026	0.039
-502.683	-52.656	0.215	-0.099
-501.668	249.032	0.237	0.401
-500.653	-76.356	0.968	-0.341
-499.639	34.980	-0.483	0.423
-498.624	-98.309	-0.477	-0.122
-497.610	-165.274	-0.582	-0.026
-496.595	-62.769	-0.215	0.089
-495.581	41.407	-0.959	0.868
-494.566	360.561	0.345	0.692
-493.551	184.137	0.794	1.176
-492.537	-200.000	0.105	0.525
-491.522	509.634	0.389	0.905
-490.508	-82.088	-1.281	-0.418
-489.493	104.276	0.162	-0.191
-488.478	-200.000	0.027	-0.279
-487.464	-96.140	0.314	0.083
-486.449	-73.483	0.496	0.181
-485.435	7.524	0.499	-0.373
-484.420	415.254	-0.106	0.226
-483.405	144.574	0.343	0.458
-482.391	-200.000	0.066	0.472
-481.376	118.805	-0.355	-0.438
-480.362	-200.000	0.090	-0.707
-479.347	800.000	-0.138	0.567
-478.332	-200.000	0.103	0.726
-477.318	-42.050	0.256	0.131
-476.303	-158.187	-0.207	0.012
-475.289	457.640	-0.290	0.644
-474.274	36.546	0.284	-0.250
-473.259	-53.918	-0.872	-0.397
-472.245	-104.235	-0.898	-0.208
-471.230	-150.908	0.339	0.026
-470.216	-35.663	-0.208	-0.113
-469.201	-200.000	-0.021	0.606
-468.186	-37.530	-0.446	-0.238
-467.172	-200.000	0.074	0.515
-466.157	94.617	-0.115	-0.131
-465.143	-33.715	-0.192	0.106
-464.128	208.881	-0.666	1.041
-463.113	-200.000	0.022	-0.670
-462.099	439.475	-0.187	0.409
-461.084	-88.672	-0.063	-0.019
-460.070	-97.325	0.498	0.130
-459.055	652.649	-0.269	0.688
-458.040	-61.711	-0.370	-0.155
-457.026	-200.000	-0.094	-0.536
-456.011	45.353	0.687	-0.633
-454.997	-200.000	0.134	0.677
-453.982	-161.146	0.191	-0.010
-452.968	-63.699	-0.393	-0.161
-451.953	-134.091	1.211	0.149
-450.938	75.671	0.355	0.374
-449.924	-144.678	0.380	0.035
-448.909	-63.205	-0.721	-0.297
-447.895	61.712	0.210	0.209
-446.880	800.000	0.043	0.119
-445.865	175.109	-0.184	0.266
-444.851	-74.238	-0.182	-0.066
-443.836	583.567	0.197	0.483
-442.822	-200.000	0.016	-0.314
-441.807	26.773	-0.219	0.183
-440.792	-56.831	0.143	0.063
-439.778	800.000	0.190	-0.811
-438.763	800.000	-0.005	-0.015
-437.749	-98.543	-1.529	0.390
-436.734	502.155	0.423	-0.975
-435.719	158.242	-0.397	-0.550
-434.705	-20.668	0.182	-0.112
-433.690	-200.000	-0.077	-0.391
-432.676	11.462	0.530	-0.406
-431.661	-200.000	-0.069	-0.458
-430.646	-117.982	-1.023	0.183
-429.632	-59.228	-0.311	0.134
-428.617	-94.865	-1.024	0.277
-427.603	109.705	0.342	0.409
-426.588	12.181	-0.040	0.030
-425.573	-200.000	-0.135	1.014
-424.559	31.565	0.155	-0.133
-423.544	-90.451	0.451	0.130
-422.530	-166.573	-0.260	0.011
-421.515	0.440	-0.371	-0.265
-420.500	-157.980	-1.192	-0.070
-419.486	-39.650	0.325	0.170
-418.471	-27.368	1.154	0.669
-417.457	-200.000	-0.043	0.420
-416.442	8.307	0.216	0.162
-415.428	-48.757	-0.184	0.088
-414.413	-47.967	0.846	0.408
-413.398	-54.480	-0.346	-0.156
-412.384	800.000	0.323	-1.386
-411.369	26.646	0.664	0.554
-410.355	61.557	0.496	0.492
-409.340	212.944	-0.470	-0.740
-408.325	-57.432	-0.159	-0.069
-407.311	612.276	0.226	0.564
-406.296	11.293	0.315	-0.240
-405.282	-138.087	0.923	0.102
-404.267	800.000	0.036	0.131
-403.252	39.031	-0.798	0.711
-402.238	-108.744	0.483	0.103
-401.223	593.176	-0.391	0.964
-400.209	81.113	0.682	0.734
-399.194	800.000	0.182	0.732
-398.179	-87.259	0.502	-0.152
-397.165	7.404	0.593	-0.441
-396.150	-101.974	0.316	-0.076
-395.136	215.617	-0.086	-0.137
-394.121	84.645	0.307	-0.335
-393.106	-200.000	0.135	-1.068
-392.092	367.385	0.056	-0.113
-391.077	-149.851	-0.427	-0.033
-390.063	-149.247	0.298	-0.024
-389.048	-109.022	0.246	-0.052
-388.033	800.000	-0.198	-0.675
-387.019	30.155	0.637	-0.541
-386.004	-26.006	0.419	-0.246
-384.990	-53.426	-0.154	-0.070
-383.975	451.092	0.344	-0.757
-382.960	31.837	0.230	-0.197
-381.946	77.281	-0.230	-0.243
-380.931	-136.044	0.521	-0.061
-379.917	-200.000	-0.071	-0.331
-378.902	-200.000	-0.011	-0.357
-377.888	96.306	-0.049	-0.056
-376.873	-200.000	-0.059	-0.702
-375.858	-200.000	0.039	0.404
-374.844	-119.480	-0.651	-0.112
-373.829	170.563	0.090	-0.128
-372.815	-200.000	-0.046	-0.590
-371.800	88.342	-0.828	-0.915
-370.785	443.578	-0.303	0.661
-369.771	677.893	0.045	-0.116
-368.756	511.266	-0.307	-0.711
-367.742	269.600	0.411	-0.719
-366.727	800.000	0.153	0.464
-365.712	-200.000	-0.045	0.259
-364.698	-70.795	0.586	-0.220
-363.683	269.599	-0.066	-0.116
-362.669	-94.399	-0.663	0.180
-361.654	8.217	0.402	0.301
-360.639	13.321	-0.457	-0.352
-359.625	87.748	0.952	1.049
-358.610	-200.000	0.013	0.609
-357.596	60.345	0.326	-0.321
-356.581	159.655	-0.347	0.481
-355.566	32.993	-0.200	-0.172
-354.552	196.232	0.268	-0.406
-353.537	5.829	0.776	-0.571
-352.523	518.481	0.147	-0.343
-351.508	168.411	-0.310	-0.439
-350.493	-200.000	-0.010	-0.160
-349.479	800.000	-0.105	0.311
-348.464	194.279	0.444	0.670
-347.450	-161.353	-0.627	0.032
-346.435	-5.574	-0.249	-0.170
-345.420	800.000	0.042	-0.118
-344.406	64.079	-0.201	0.201
-343.391	66.811	-0.418	0.423
-342.377	28.900	-0.410	-0.345
-341.362	198.805	0.330	-0.502
-340.348	-60.762	-0.791	-0.333
-339.333	753.110	-0.217	-0.583
-338.318	-55.869	-0.213	0.095
-337.304	535.859	0.360	-0.849
-336.289	259.380	0.204	-0.350
-335.275	-125.993	0.366	0.055
-334.260	800.000	-0.216	0.599
-333.245	-68.101	-0.666	0.258
-332.231	-69.808	0.725	-0.275
-331.216	81.463	0.602	-0.647
-330.202	-200.000	-0.016	1.005
-329.187	-123.005	-0.317	0.051
-328.172	-200.000	0.011	-0.664
-327.158	-200.000	0.081	-0.411
-326.143	599.792	-0.345	0.852
-325.129	-148.608	0.394	-0.032
-324.114	75.090	-0.197	0.206
-323.099	-13.887	0.619	0.398
-322.085	16.524	-0.507	-0.398
-321.070	-200.000	0.051	-0.569
-320.056	-144.695	-0.496	0.045
-319.041	-166.321	-0.758	0.032
-318.026	145.161	0.156	0.208
-317.012	95.432	-0.635	-0.719
-315.997	151.069	-0.112	-0.151
-314.983	112.393	0.164	-0.197
-313.968	-151.887	1.083	-0.079
-312.953	-92.451	-0.655	-0.183
-311.939	20.158	0.612	0.490
-310.924	38.260	0.468	-0.414
-309.910	800.000	-0.096	0.276
-308.895	292.409	-0.143	0.258
-307.880	464.778	0.172	0.382
-306.866	-129.435	-0.185	0.026
-305.851	-200.000	-0.039	0.458
-304.837	-192.097	-0.918	0.009
-303.822	-52.999	0.603	0.275
-302.807	187.197	-0.552	-0.817
-301.793	-11.705	-0.800	-0.521
-300.778	-37.722	-0.383	-0.202
-299.764	-102.777	-0.614	0.145
-298.749	-200.000	0.054	0.455
-297.735	159.675	0.441	0.609
-296.720	-85.388	-0.423	-0.131
-295.705	-148.465	0.341	0.028
-294.691	-46.350	0.899	0.438
-293.676	-118.921	-0.328	0.057
-292.662	-30.148	-0.251	-0.142
-291.647	800.000	0.142	-0.437
-290.632	0.618	-0.569	-0.404
-289.618	49.957	0.736	-0.689
-288.603	-60.340	1.074	-0.454
-287.589	800.000	-0.168	-0.637
-286.574	-53.331	0.200	0.091
-285.559	-200.000	-0.019	-0.201
-284.545	-112.073	-0.221	-0.044
-283.530	800.000	0.057	0.197
-282.516	5.331	0.587	-0.430
-281.501	241.786	0.053	-0.088
-280.486	-146.574	-0.142	0.012
-279.472	-132.669	-0.672	0.085
-278.457	-153.326	0.626	0.043
-277.443	116.636	0.381	0.464
-276.428	-88.481	-0.212	-0.063
-275.413	-48.525	0.464	-0.221
-274.399	-7.088	0.479	0.323
-273.384	800.000	-0.144	-0.433
-272.370	-24.047	-0.713	-0.423
-271.355	359.804	0.310	0.614
-270.340	106.097	-0.409	0.480
-269.326	-158.430	0.308	-0.018
-268.311	-200.000	0.119	-0.784
-267.297	-107.981	0.589	-0.127
-266.282	-23.766	0.404	-0.240
-265.267	-7.314	0.552	-0.371
-264.253	195.094	-0.360	-0.542
-263.238	695.991	-0.158	0.411
-262.224	-11.807	-0.575	0.374
-261.209	-31.916	0.224	0.124
-260.195	-128.497	-0.800	-0.112
-259.180	800.000	-0.220	-0.627
-258.165	800.000	-0.073	-0.212
-257.151	-200.000	-0.068	-0.314
-256.136	-135.390	-0.875	-0.104
-255.122	800.000	-0.352	-0.980
-254.107	-63.120	-0.469	-0.192
-253.092	-40.247	0.538	0.277
-252.078	800.000	-0.038	0.122
-251.063	-85.237	-1.224	-0.379
-250.049	-130.369	0.531	-0.071
-249.034	425.634	-0.575	-1.227
-248.019	800.000	-0.234	-0.786
-247.005	-50.685	0.157	0.073
-245.990	160.945	0.468	0.648
-244.976	-42.627	-0.370	-0.186
-243.961	-4.693	0.939	0.642
-242.946	41.337	0.370	0.332
-241.932	116.100	-0.564	0.684
-240.917	121.177	-0.085	0.105
-239.903	-23.102	0.403	0.241
-238.888	145.248	-0.186	-0.246
-237.873	-133.804	0.618	-0.076
-236.859	800.000	-0.077	0.249
-235.844	-200.000	0.160	-0.776
-234.830	140.885	-0.253	-0.331
-233.815	65.838	-0.289	-0.290
-232.800	263.993	-0.466	0.802
-231.786	-70.488	-0.534	-0.200
-230.771	-53.711	-0.414	0.187
-229.757	-193.070	0.610	0.005
-228.742	18.647	-1.160	0.919
-227.727	126.258	0.489	-0.613
-226.713	103.782	-0.387	-0.450
-225.698	-157.928	-0.587	-0.034
-224.684	678.600	-0.147	0.378
-223.669	-200.000	-0.168	0.832
-222.655	-105.041	0.197	0.045
-221.640	45.814	0.317	0.290
-220.625	-106.141	-0.289	-0.064
-219.611	-127.283	-0.069	0.010
-218.596	-200.000	-0.040	0.750
-217.582	800.000	-0.137	-0.526
-216.567	180.378	0.316	0.459
-215.552	-13.528	0.280	-0.179
-214.538	-21.185	0.071	-0.043
-213.523	59.940	0.187	-0.183
-212.509	800.000	-0.195	0.539
-211.494	138.857	0.536	0.696
-210.479	-86.656	0.996	-0.302
-209.465	303.253	0.659	-1.208
-208.450	-123.167	0.848	-0.134
-207.436	800.000	0.202	-0.737
-206.421	-29.227	-0.291	-0.165
-205.406	66.408	0.522	-0.525
-204.392	-200.000	0.031	0.139
-203.377	800.000	0.162	0.672
-202.363	-190.062	-0.697	-0.008
-201.348	-122.815	0.358	-0.057
-200.333	-200.000	0.090	-0.907
-199.319	-38.037	0.205	-0.108
-198.304	-129.259	-0.500	-0.069
-197.290	-32.873	0.791	-0.435
-196.275	-200.000	-0.038	-0.790
-195.260	800.000	0.177	0.500
-194.246	-88.586	1.032	0.304
-193.231	428.552	0.214	0.457
-192.217	245.172	-0.250	0.415
-191.202	5.919	0.816	0.597
-190.187	353.757	0.297	-0.583
-189.173	-200.000	0.026	0.430
-188.158	81.260	-0.540	-0.577
-187.144	-98.140	0.423	0.108
-186.129	302.414	-0.069	-0.125
-185.114	-112.485	-0.800	0.158
-184.100	-200.000	-0.002	-0.325
-183.085	-74.920	0.078	0.028
-182.071	800.000	-0.125	-0.507
-181.056	109.496	0.392	-0.464
-180.042	69.889	-0.447	-0.456
-179.027	-200.000	0.057	-0.318
-178.012	-200.000	0.158	0.958
-176.998	129.604	0.274	0.346
-175.983	-3.041	-0.239	-0.165
-174.969	24.004	0.205	0.167
-173.954	-130.569	0.438	-0.058
-172.939	449.011	0.196	0.427
-171.925	99.580	-0.133	-0.152
-170.910	-60.579	-0.687	0.288
-169.896	-167.072	-0.812	-0.033
-168.881	-107.383	-0.501	-0.109
-167.866	527.203	0.189	-0.439
-166.852	221.071	-0.201	0.319
-165.837	415.795	-0.257	-0.542
-164.823	175.364	-0.418	-0.598
-163.808	-30.322	0.217	0.121
-162.793	4.203	-0.281	0.203
-161.779	21.572	-0.561	-0.451
-160.764	800.000	0.093	0.319
-159.750	52.908	-0.352	0.332
-158.735	107.489	-0.251	0.295
-157.720	-75.276	0.348	0.123
-156.706	-200.000	-0.018	-0.299
-155.691	-120.907	0.900	-0.149
-154.677	-114.260	-0.867	0.165
-153.662	-48.673	0.225	0.107
-152.647	19.662	-0.509	0.404
-151.633	481.867	0.123	0.275
-150.618	-122.970	0.428	0.068
-149.604	-50.696	-0.223	-0.103
-148.589	85.237	0.201	-0.218
-147.574	-157.268	-0.329	0.020
-146.560	1.435	0.321	-0.228
-145.545	-115.297	0.778	0.145
-144.531	-74.331	-0.180	-0.064
-143.516	180.373	0.567	0.821
-142.502	87.954	-0.163	0.178
-141.487	158.072	-0.366	0.500
-140.472	-200.000	0.186	-0.951
-139.458	20.996	-0.323	0.259
-138.443	-117.370	0.704	0.126
-137.429	409.503	-0.432	0.903
-136.414	38.261	0.431	0.379
-135.399	382.497	0.340	-0.689
-134.385	-65.355	-0.277	-0.110
-133.370	-94.189	-0.819	0.221
-132.356	-63.838	-0.842	-0.340
-131.341	48.042	0.565	-0.521
-130.326	-15.907	0.287	0.180
-129.312	494.487	-0.343	-0.776
-128.297	800.000	0.285	-0.996
-127.283	800.000	-0.147	-0.458
-126.268	3.859	0.643	0.463
-125.253	30.644	-0.576	-0.486
-124.239	-200.000	-0.094	-1.179
-123.224	35.012	-0.299	0.258
-122.210	266.116	-0.357	0.614
-121.195	-200.000	0.095	0.599
