DTS Sentinel unit serial number:	SN413079Multiplexer serial number:	ORYXHardware model number:	OX4-SRSoftware version number:	ORYX F/W v4.00 Oryx Data Collector v3.7.2.0data status	okinstallation	princeton_trtdifferential loss correction	single-endedforward channel	channel 1reverse channel	N/Adate	2019/09/11time	11:48:11forward acquisition time	60.00reverse acquisition time	0.00gamma	496.2192k internal	0.2292k external	0.2292temperature offset calibration	0.9943default loss term (dB/km)	0.3790temperature slope calibration	1.0000multiplexer offset coefficient	1.0000multiplexer slope coefficient	1.0000fibre end	0.00T internal ref (°C)	38.75T ext. ref 1 (°C)	0.17T ext. ref 2 (°C)	36.73length (m)	temperature (°C)	Stokes	anti-Stokes-747.200	-141.882	0.284	0.029
-746.185	-200.000	0.065	0.314
-745.171	663.637	-0.194	0.513
-744.156	-200.000	0.046	0.405
-743.142	462.832	0.162	0.369
-742.127	620.710	-0.047	0.120
-741.112	243.406	0.030	0.052
-740.098	-200.000	-0.019	0.353
-739.083	257.788	0.049	-0.086
-738.069	-55.884	0.239	-0.109
-737.054	-66.719	0.233	-0.095
-736.039	113.158	-0.146	0.181
-735.025	8.612	0.336	0.259
-734.010	278.824	-0.160	-0.293
-732.996	-200.000	-0.009	-0.181
-731.981	37.044	0.062	0.056
-730.966	-30.656	-0.117	0.068
-729.952	800.000	-0.085	0.245
-728.937	-20.391	0.066	-0.042
-727.923	-200.000	-0.026	0.168
-726.908	800.000	-0.104	-0.349
-725.894	-11.898	-0.341	-0.229
-724.879	-200.000	-0.006	0.284
-723.864	-176.615	0.137	-0.004
-722.850	-32.549	0.107	-0.061
-721.835	302.567	0.112	0.213
-720.821	-117.208	0.171	0.032
-719.806	-78.848	0.344	-0.120
-718.791	-73.381	-0.376	-0.140
-717.777	-90.950	-0.104	-0.031
-716.762	-113.664	0.114	0.023
-715.748	-78.362	-0.242	-0.085
-714.733	367.315	-0.149	-0.307
-713.718	409.166	0.060	0.130
-712.704	309.041	-0.212	0.405
-711.689	60.309	-0.079	0.080
-710.675	-23.466	-0.182	-0.112
-709.660	250.741	-0.036	-0.062
-708.645	176.723	0.079	-0.117
-707.631	-200.000	0.003	-0.248
-706.616	-168.282	-0.189	-0.007
-705.602	62.262	0.110	0.112
-704.587	297.387	-0.031	-0.058
-703.572	363.728	-0.196	-0.402
-702.558	800.000	0.075	-0.259
-701.543	15.710	-0.252	0.202
-700.529	-58.319	-0.159	-0.071
-699.514	800.000	-0.017	-0.065
-698.499	189.914	-0.114	-0.175
-697.485	-62.590	-0.244	-0.104
-696.470	33.133	0.315	-0.279
-695.456	211.404	-0.150	-0.241
-694.441	800.000	0.054	0.173
-693.426	-75.734	-0.076	0.028
-692.412	4.501	0.275	-0.206
-691.397	127.446	0.246	0.319
-690.383	28.124	0.165	0.143
-689.368	-96.918	0.100	-0.027
-688.354	-200.000	-0.048	-0.382
-687.339	21.990	0.204	-0.170
-686.324	-200.000	0.014	0.204
-685.310	303.657	-0.141	-0.267
-684.295	82.085	-0.292	-0.323
-683.281	-196.829	0.445	-0.003
-682.266	164.740	-0.107	0.154
-681.251	-111.742	0.257	-0.053
-680.237	191.745	-0.060	-0.092
-679.222	-40.825	0.166	0.088
-678.208	13.305	-0.290	-0.229
-677.193	21.127	0.288	-0.238
-676.178	-200.000	-0.031	0.418
-675.164	20.848	0.182	0.151
-674.149	102.332	0.140	0.168
-673.135	-200.000	-0.019	-0.109
-672.120	-53.201	0.193	-0.090
-671.105	26.483	-0.167	0.143
-670.091	-125.435	-0.299	-0.047
-669.076	-105.862	-0.114	-0.026
-668.062	105.428	-0.177	-0.213
-667.047	-200.000	0.029	-0.342
-666.032	-170.096	0.247	-0.009
-665.018	-200.000	0.014	0.322
-664.003	-165.782	-0.143	-0.006
-662.989	-200.000	0.023	0.235
-661.974	-66.370	0.468	-0.190
-660.959	8.104	0.081	0.062
-659.945	126.674	0.145	-0.187
-658.930	-65.621	0.311	-0.127
-657.916	-200.000	-0.025	0.137
-656.901	-144.639	0.251	-0.024
-655.886	-118.937	0.284	0.051
-654.872	-200.000	-0.000	-0.346
-653.857	-200.000	0.016	0.111
-652.843	-6.115	0.132	0.092
-651.828	288.098	-0.102	-0.188
-650.814	740.068	0.093	-0.254
-649.799	152.214	0.176	-0.244
-648.784	105.093	-0.133	-0.159
-647.770	800.000	-0.107	-0.397
-646.755	-74.470	0.340	-0.125
-645.741	457.020	0.035	0.079
-644.726	-49.510	-0.183	0.089
-643.711	14.163	0.021	0.016
-642.697	-200.000	0.004	-0.245
-641.682	-69.697	0.041	0.016
-640.668	-200.000	0.005	0.064
-639.653	1.247	0.117	0.086
-638.638	9.928	-0.242	0.187
-637.624	-200.000	-0.246	0.001
-636.609	269.853	-0.132	0.236
-635.595	155.805	0.127	-0.178
-634.580	191.708	-0.133	-0.204
-633.565	-200.000	0.007	0.157
-632.551	83.134	0.185	-0.206
-631.536	-103.740	0.308	-0.073
-630.522	308.607	-0.054	-0.103
-629.507	149.964	0.115	-0.159
-628.492	-131.586	0.355	-0.048
-627.478	72.838	-0.251	-0.267
-626.463	61.918	-0.169	-0.171
-625.449	-200.000	0.004	-0.247
-624.434	170.875	-0.123	-0.180
-623.419	-35.701	-0.228	0.126
-622.405	-200.000	-0.013	0.251
-621.390	313.061	-0.054	-0.103
-620.376	121.712	-0.190	-0.242
-619.361	-73.213	0.365	-0.136
-618.346	-154.409	-0.091	0.006
-617.332	53.144	-0.041	0.040
-616.317	228.633	0.111	-0.184
-615.303	134.579	0.100	0.132
-614.288	-19.229	-0.119	0.075
-613.273	4.845	-0.053	0.040
-612.259	-7.793	-0.123	0.084
-611.244	-200.000	-0.014	-0.285
-610.230	-19.562	0.170	0.107
-609.215	48.744	-0.095	0.091
-608.201	800.000	-0.041	0.137
-607.186	-83.670	0.309	0.100
-606.171	202.690	0.080	-0.126
-605.157	-128.737	0.285	-0.041
-604.142	-78.750	0.319	-0.111
-603.128	800.000	-0.051	0.223
-602.113	-161.532	-0.282	-0.015
-601.098	-16.277	-0.121	-0.078
-600.084	800.000	0.084	0.257
-599.069	-154.154	-0.271	0.019
-598.055	-53.265	0.253	-0.118
-597.040	-72.053	-0.100	-0.038
-596.025	17.836	0.140	0.113
-595.011	-200.000	0.017	0.253
-593.996	255.119	-0.130	-0.227
-592.982	557.587	0.067	-0.165
-591.967	-200.000	0.052	-0.333
-590.952	62.425	-0.210	-0.213
-589.938	126.171	0.019	-0.025
-588.923	-101.740	0.130	-0.032
-587.909	800.000	0.062	-0.201
-586.894	-30.156	0.362	-0.209
-585.879	54.634	0.046	-0.045
-584.865	-200.000	-0.002	-0.058
-583.850	97.773	-0.177	0.207
-582.836	-104.145	-0.382	0.090
-581.821	45.405	0.073	-0.068
-580.806	236.305	-0.072	-0.121
-579.792	-24.111	-0.098	-0.060
-578.777	445.735	0.223	0.499
-577.763	-40.913	0.134	0.070
-576.748	-200.000	0.005	0.064
-575.733	-51.876	0.113	-0.053
-574.719	800.000	0.073	0.225
-573.704	46.836	-0.147	-0.139
-572.690	139.714	-0.194	0.260
-571.675	-23.931	-0.245	0.149
-570.661	20.847	-0.120	0.098
-569.646	-200.000	0.013	0.179
-568.631	-53.503	0.209	0.097
-567.617	-153.282	-0.226	0.016
-566.602	66.669	-0.156	-0.161
-565.588	32.700	0.019	0.016
-564.573	-27.051	-0.160	0.095
-563.558	52.578	-0.096	0.093
-562.544	358.654	0.165	-0.335
-561.529	258.859	0.179	-0.313
-560.515	-146.358	-0.097	-0.009
-559.500	-34.307	-0.113	-0.063
-558.485	800.000	-0.032	-0.143
-557.471	78.687	-0.052	0.056
-556.456	19.927	-0.296	-0.243
-555.442	-56.578	0.341	0.153
-554.427	40.281	-0.142	-0.130
-553.412	170.988	0.056	-0.082
-552.398	-123.329	-0.340	0.055
-551.383	33.855	0.191	-0.169
-550.369	46.955	-0.284	-0.269
-549.354	-126.916	0.187	-0.028
-548.339	-200.000	-0.012	-0.307
-547.325	-200.000	0.033	-0.218
-546.310	-200.000	-0.021	0.113
-545.296	-9.192	-0.230	-0.156
-544.281	-108.240	0.143	-0.031
-543.266	-151.655	0.043	0.003
-542.252	-58.319	0.182	-0.080
-541.237	800.000	-0.023	0.069
-540.223	2.780	-0.329	-0.242
-539.208	428.174	-0.117	0.256
-538.193	-151.287	0.613	0.046
-537.179	-168.333	-0.349	0.014
-536.164	-200.000	0.030	-0.142
-535.150	342.592	0.276	0.548
-534.135	119.077	0.071	0.089
-533.121	800.000	0.012	0.042
-532.106	-87.887	0.059	-0.018
-531.091	-79.879	-0.323	-0.110
-530.077	511.665	0.213	-0.503
-529.062	15.564	0.156	0.124
-528.048	-200.000	0.012	-0.103
-527.033	16.571	-0.192	-0.154
-526.018	-200.000	-0.015	-0.320
-525.004	18.594	0.152	-0.123
-523.989	-200.000	-0.034	0.198
-522.975	-200.000	-0.040	-0.196
-521.960	162.436	-0.072	0.102
-520.945	-153.948	-0.111	0.008
-519.931	-93.930	0.398	0.111
-518.916	496.707	0.105	0.244
-517.902	-123.859	-0.270	-0.043
-516.887	214.691	-0.120	-0.193
-515.872	-200.000	0.004	-0.144
-514.858	-151.218	0.168	0.013
-513.843	800.000	-0.027	0.114
-512.829	297.162	0.170	0.317
-511.814	172.886	0.142	0.207
-510.799	185.846	-0.141	0.213
-509.785	-200.000	0.018	-0.194
-508.770	-83.679	-0.079	0.026
-507.756	-138.820	0.164	0.018
-506.741	101.438	-0.140	-0.165
-505.726	385.882	0.051	-0.106
-504.712	-170.960	0.181	-0.006
-503.697	800.000	0.041	0.153
-502.683	-200.000	0.030	-0.325
-501.668	-87.088	0.171	-0.053
-500.653	-200.000	-0.074	-0.462
-499.639	659.365	-0.112	-0.293
-498.624	230.280	-0.033	-0.054
-497.610	4.788	0.196	0.146
-496.595	-176.134	-0.179	-0.005
-495.581	-132.959	0.054	0.007
-494.566	-200.000	0.012	0.127
-493.551	234.105	-0.070	0.117
-492.537	800.000	0.055	0.181
-491.522	-200.000	-0.020	0.327
-490.508	800.000	-0.128	0.439
-489.493	167.974	0.174	0.251
-488.478	-200.000	-0.040	0.182
-487.464	-26.232	-0.153	-0.091
-486.449	178.312	0.118	-0.174
-485.435	18.104	-0.302	-0.244
-484.420	140.889	-0.042	-0.056
-483.405	334.936	-0.044	-0.086
-482.391	-164.892	-0.282	-0.013
-481.376	-97.982	-0.233	0.061
-480.362	532.504	0.115	0.276
-479.347	-8.317	-0.093	0.064
-478.332	-200.000	0.031	-0.172
-477.318	-84.301	0.399	0.128
-476.303	107.941	-0.273	-0.330
-475.289	800.000	-0.065	-0.187
-474.274	-54.118	0.157	0.072
-473.259	-75.062	-0.234	0.085
-472.245	-148.536	-0.361	0.030
-471.230	4.504	-0.198	0.147
-470.216	203.905	0.079	0.124
-469.201	-14.091	0.174	0.114
-468.186	438.210	0.135	-0.299
-467.172	-93.726	-0.150	0.042
-466.157	325.153	0.051	-0.099
-465.143	-113.834	0.106	-0.021
-464.128	-59.884	-0.271	-0.117
-463.113	800.000	0.057	-0.187
-462.099	463.612	-0.018	-0.040
-461.084	255.278	0.140	0.243
-460.070	-139.487	0.136	0.015
-459.055	-110.018	-0.212	0.045
-458.040	81.918	0.060	-0.066
-457.026	-17.713	-0.153	-0.098
-456.011	-125.545	0.088	0.014
-454.997	238.216	-0.051	-0.085
-453.982	-157.593	-0.373	0.023
-452.968	421.034	-0.061	0.132
-451.953	-200.000	0.002	-0.124
-450.938	-200.000	-0.089	-0.398
-449.924	800.000	-0.087	0.322
-448.909	-200.000	-0.064	0.425
-447.895	-89.006	0.092	-0.028
-446.880	-9.544	-0.225	-0.152
-445.865	-113.741	0.161	-0.032
-444.851	195.396	0.219	-0.337
-443.836	91.576	0.213	-0.242
-442.822	196.448	-0.080	-0.124
-441.807	36.042	-0.055	-0.049
-440.792	26.564	0.150	0.127
-439.778	-200.000	0.004	0.306
-438.763	-57.991	-0.166	-0.073
-437.749	-152.556	0.437	0.032
-436.734	800.000	-0.084	-0.248
-435.719	-87.951	-0.331	-0.101
-434.705	-200.000	0.003	-0.437
-433.690	135.640	-0.134	0.176
-432.676	361.433	0.058	-0.118
-431.661	353.266	-0.224	-0.450
-430.646	201.327	0.072	0.113
-429.632	-103.699	-0.095	0.022
-428.617	93.625	0.110	-0.125
-427.603	7.093	-0.121	0.092
-426.588	96.027	0.124	0.143
-425.573	66.300	0.084	-0.086
-424.559	-200.000	-0.037	0.205
-423.544	-67.921	0.165	0.065
-422.530	-200.000	-0.030	-0.169
-421.515	-178.138	-0.306	-0.007
-420.500	800.000	-0.056	0.194
-419.486	-186.963	-0.243	0.003
-418.471	-200.000	-0.007	-0.114
-417.457	800.000	-0.064	-0.200
-416.442	-200.000	-0.002	0.130
-415.428	55.785	-0.229	-0.225
-414.413	-81.700	-0.226	0.075
-413.398	56.674	0.116	-0.114
-412.384	-200.000	-0.026	0.397
-411.369	-12.520	0.254	-0.167
-410.355	-200.000	0.046	-0.306
-409.340	-100.265	0.141	0.035
-408.325	800.000	0.048	0.156
-407.311	146.112	-0.147	-0.200
-406.296	-200.000	-0.031	0.175
-405.282	119.114	-0.072	-0.090
-404.267	132.567	-0.043	-0.055
-403.252	-121.121	0.113	-0.019
-402.238	-200.000	0.078	0.430
-401.223	235.798	-0.176	0.294
-400.209	800.000	-0.052	-0.163
-399.194	-81.160	0.069	0.023
-398.179	-16.228	0.265	0.170
-397.165	140.472	0.097	0.129
-396.150	-200.000	-0.000	0.056
-395.136	-145.642	-0.113	0.010
-394.121	-20.164	-0.077	-0.048
-393.106	-1.996	0.082	0.059
-392.092	154.499	0.140	-0.194
-391.077	63.651	0.153	-0.155
-390.063	800.000	0.049	-0.183
-389.048	220.802	0.162	-0.263
-388.033	-68.455	-0.173	-0.068
-387.019	-9.416	0.240	0.161
-386.004	357.181	0.136	-0.275
-384.990	800.000	0.077	-0.273
-383.975	-200.000	-0.030	-0.299
-382.960	-95.458	0.260	0.071
-381.946	288.354	0.062	-0.114
-380.931	480.858	0.121	0.277
-379.917	59.518	-0.150	-0.150
-378.902	94.290	0.033	0.038
-377.888	800.000	-0.087	0.272
-376.873	-50.041	0.212	0.101
-375.858	-10.144	-0.119	0.080
-374.844	-28.628	-0.212	0.123
-373.829	-34.882	-0.149	-0.082
-372.815	30.471	0.315	0.272
-371.800	-146.436	-0.200	-0.018
-370.785	-200.000	-0.050	0.242
-369.771	-80.810	0.150	0.050
-368.756	-63.125	0.028	-0.012
-367.742	800.000	-0.036	-0.130
-366.727	-103.155	-0.202	0.048
-365.712	106.571	-0.264	-0.316
-364.698	-146.171	-0.082	0.007
-363.683	-161.029	-0.334	0.018
-362.669	652.250	0.044	-0.113
-361.654	-105.761	0.251	0.057
-360.639	148.771	-0.266	-0.362
-359.625	-200.000	-0.031	0.441
-358.610	-123.105	0.419	0.068
-357.596	800.000	0.045	0.134
-356.581	203.197	-0.142	0.222
-355.566	80.247	0.140	-0.152
-354.552	479.542	-0.148	0.339
-353.537	-46.343	-0.144	-0.071
-352.523	-29.005	-0.031	-0.018
-351.508	22.324	0.130	-0.107
-350.493	328.488	0.059	0.113
-349.479	-111.241	0.089	0.018
-348.464	-200.000	-0.014	-0.236
-347.450	-200.000	0.035	0.435
-346.435	-77.066	0.353	0.124
-345.420	800.000	-0.107	0.358
-344.406	439.278	0.102	0.225
-343.391	210.913	-0.080	-0.126
-342.377	-200.000	0.000	-0.024
-341.362	-120.518	0.381	-0.065
-340.348	-83.676	0.250	-0.081
-339.333	-52.368	-0.049	0.023
-338.318	78.881	-0.195	-0.210
-337.304	21.849	0.436	-0.358
-336.289	164.801	-0.126	0.178
-335.275	-200.000	-0.042	0.228
-334.260	147.991	0.053	-0.072
-333.245	-92.185	-0.160	-0.045
-332.231	766.871	0.147	-0.403
-331.216	62.731	0.236	0.238
-330.202	-130.466	0.218	0.030
-329.187	110.226	-0.425	0.513
-328.172	800.000	-0.051	0.149
-327.158	-34.387	-0.118	0.065
-326.143	19.675	0.323	-0.262
-325.129	-200.000	-0.019	-0.087
-324.114	-173.484	-0.157	-0.005
-323.099	-18.526	0.180	-0.113
-322.085	55.093	-0.071	0.069
-321.070	-126.516	-0.352	0.053
-320.056	15.466	-0.098	-0.078
-319.041	-104.912	-0.031	0.007
-318.026	161.839	0.169	0.238
-317.012	-200.000	0.051	0.527
-315.997	6.462	0.173	0.129
-314.983	-59.843	0.193	-0.083
-313.968	77.886	0.219	-0.234
-312.953	-200.000	-0.005	0.109
-311.939	-33.776	0.415	0.230
-310.924	-70.047	0.285	-0.109
-309.910	-161.923	-0.373	0.019
-308.895	-200.000	-0.003	-0.125
-307.880	-46.284	-0.157	0.078
-306.866	-74.659	0.298	0.108
-305.851	-88.775	-0.196	-0.059
-304.837	-200.000	-0.033	-0.153
-303.822	121.683	-0.274	-0.344
-302.807	205.208	0.169	0.264
-301.793	67.840	0.025	0.026
-300.778	-103.718	-0.196	0.046
-299.764	502.844	-0.106	0.246
-298.749	-200.000	0.032	-0.161
-297.735	56.784	0.348	0.340
-296.720	-99.391	-0.103	-0.026
-295.705	128.019	-0.390	0.498
-294.691	-33.222	0.097	-0.054
-293.676	-177.508	-0.375	-0.009
-292.662	-146.811	0.294	0.026
-291.647	4.300	-0.268	-0.198
-290.632	57.582	-0.234	-0.230
-289.618	18.285	0.046	-0.037
-288.603	118.969	0.225	-0.279
-287.589	76.088	0.060	-0.064
-286.574	36.564	0.097	0.086
-285.559	128.936	0.068	-0.087
-284.545	234.249	0.179	0.296
-283.530	-40.741	0.278	0.145
-282.516	-91.502	0.295	-0.085
-281.501	-200.000	0.021	-0.138
-280.486	800.000	-0.072	-0.218
-279.472	-19.738	-0.195	0.121
-278.457	-61.951	0.119	0.050
-277.443	47.069	0.083	0.077
-276.428	0.290	0.036	-0.026
-275.413	-99.442	0.276	-0.070
-274.399	-101.259	0.070	0.017
-273.384	-200.000	0.026	-0.221
-272.370	-110.302	0.131	0.027
-271.355	96.061	-0.077	0.089
-270.340	-200.000	-0.002	-0.074
-269.326	552.753	-0.075	-0.181
-268.311	-200.000	0.007	0.313
-267.297	800.000	0.047	-0.132
-266.282	39.894	-0.104	-0.093
-265.267	742.038	0.051	0.137
-264.253	-97.296	0.137	-0.036
-263.238	-200.000	-0.014	-0.102
-262.224	87.895	-0.056	-0.062
-261.209	-99.264	-0.161	-0.041
-260.195	800.000	-0.035	-0.116
-259.180	-11.332	-0.131	-0.087
-258.165	-180.825	0.294	-0.006
-257.151	-200.000	0.011	-0.078
-256.136	509.876	-0.164	0.383
-255.122	800.000	0.060	0.190
-254.107	-134.175	-0.307	0.038
-253.092	-86.760	0.152	-0.047
-252.078	327.835	0.222	0.429
-251.063	283.303	0.106	-0.191
-250.049	8.213	-0.225	-0.170
-249.034	235.111	0.118	-0.195
-248.019	-18.721	-0.459	0.287
-247.005	-82.052	-0.100	0.033
-245.990	800.000	0.017	0.053
-244.976	-112.564	0.405	0.081
-243.961	304.282	0.136	-0.254
-242.946	177.542	0.218	0.319
-241.932	-93.624	-0.359	-0.099
-240.917	-52.906	-0.096	0.044
-239.903	-137.702	0.274	0.031
-238.888	-47.434	0.292	0.142
-237.873	57.657	-0.194	0.191
-236.859	28.872	0.131	0.112
-235.844	39.628	-0.064	-0.058
-234.830	315.139	0.179	0.339
-233.815	347.729	-0.172	-0.339
-232.800	88.893	-0.268	0.300
-231.786	800.000	-0.079	0.249
-230.771	-200.000	0.024	-0.154
-229.757	537.061	0.010	0.025
-228.742	-200.000	-0.027	0.502
-227.727	514.249	-0.063	-0.147
-226.713	-10.565	-0.218	-0.144
-225.698	54.828	0.156	0.151
-224.684	-52.207	-0.238	0.111
-223.669	-200.000	0.013	-0.227
-222.655	88.726	0.241	-0.269
-221.640	800.000	0.096	0.322
-220.625	387.362	0.073	-0.152
-219.611	248.737	-0.054	-0.092
-218.596	-113.318	-0.458	-0.090
-217.582	38.374	-0.228	0.204
-216.567	164.269	0.139	-0.196
-215.552	180.159	-0.152	0.224
-214.538	2.848	0.238	0.174
-213.523	43.695	0.126	-0.116
-212.509	387.805	-0.182	-0.376
-211.494	3.387	-0.136	0.099
-210.479	800.000	-0.014	-0.057
-209.465	-200.000	-0.029	0.249
-208.450	590.219	-0.078	0.192
-207.436	-43.391	0.272	0.138
-206.421	2.752	0.198	0.144
-205.406	23.885	0.287	0.237
-204.392	-200.000	-0.008	-0.054
-203.377	-117.175	-0.209	-0.038
-202.363	-49.079	0.175	0.084
-201.348	-91.935	-0.270	-0.077
-200.333	-62.683	0.144	0.060
-199.319	-10.917	-0.063	-0.042
-198.304	-20.660	-0.090	0.056
-197.290	127.765	-0.107	0.137
-196.275	800.000	-0.119	0.415
-195.260	-200.000	0.015	0.191
-194.246	-68.496	0.282	-0.110
-193.231	101.656	-0.024	0.028
-192.217	-126.196	0.092	-0.014
-191.202	-148.740	-0.085	0.007
-190.187	-92.797	0.244	0.068
-189.173	459.384	-0.019	0.041
-188.158	-41.813	-0.227	0.117
-187.144	691.116	-0.023	0.061
-186.129	-27.407	-0.195	0.114
-185.114	171.717	-0.107	-0.154
-184.100	-97.044	0.047	-0.012
-183.085	-101.172	0.171	-0.042
-182.071	-200.000	-0.072	0.316
-181.056	-148.548	0.054	0.004
-180.042	-200.000	0.010	-0.216
-179.027	800.000	0.038	-0.108
-178.012	16.608	0.044	-0.035
-176.998	703.233	0.090	0.237
-175.983	94.708	-0.179	-0.203
-174.969	360.776	-0.064	-0.128
-173.954	-200.000	0.029	0.282
-172.939	-21.518	0.395	0.241
-171.925	66.434	-0.035	0.035
-170.910	11.284	0.223	-0.171
-169.896	101.046	-0.187	-0.218
-168.881	142.002	0.114	-0.151
-167.866	683.794	-0.015	-0.038
-166.852	252.561	0.114	-0.195
-165.837	34.967	-0.182	0.159
-164.823	95.845	-0.040	0.045
-163.808	-53.464	0.257	0.118
-162.793	-200.000	0.004	0.338
-161.779	-200.000	-0.004	0.218
-160.764	-178.722	-0.167	0.004
-159.750	-118.469	-0.175	-0.031
-158.735	-140.437	0.316	-0.033
-157.720	741.945	-0.063	-0.170
-156.706	49.959	-0.165	0.156
-155.691	135.151	-0.150	-0.195
-154.677	-33.524	-0.379	-0.209
-153.662	800.000	-0.074	-0.227
-152.647	800.000	0.043	0.139
-151.633	-200.000	0.035	0.324
-150.618	202.106	0.172	0.266
-149.604	-200.000	-0.016	-0.106
-148.589	-82.161	-0.165	0.054
-147.574	766.995	-0.035	0.094
-146.560	794.186	-0.080	0.219
-145.545	800.000	-0.037	-0.105
-144.531	-69.335	-0.115	0.044
-143.516	41.780	0.101	-0.092
-142.502	-99.671	-0.362	0.091
-141.487	-39.004	-0.416	-0.219
-140.472	218.851	-0.038	0.060
-139.458	16.926	0.220	0.174
-138.443	314.256	0.124	0.234
-137.429	-39.112	-0.231	-0.121
-136.414	54.605	0.070	-0.067
-135.399	20.796	0.272	0.220
-134.385	800.000	-0.041	0.130
-133.370	-106.571	-0.089	-0.020
-132.356	-200.000	-0.035	0.157
-131.341	700.765	-0.061	0.159
-130.326	800.000	-0.104	0.343
-129.312	800.000	-0.059	0.220
-128.297	1.853	0.183	0.132
-127.283	46.690	0.012	-0.011
-126.268	-45.415	0.221	-0.110
-125.253	-81.893	0.098	-0.032
-124.239	-200.000	-0.060	-0.296
-123.224	800.000	0.081	-0.254
-122.210	-56.576	-0.306	0.135
-121.195	800.000	-0.014	-0.050
