DTS Sentinel unit serial number:	SN413079Multiplexer serial number:	ORYXHardware model number:	OX4-SRSoftware version number:	ORYX F/W v4.00 Oryx Data Collector v3.7.2.0data status	okinstallation	princeton_trtdifferential loss correction	single-endedforward channel	channel 1reverse channel	N/Adate	2019/09/18time	12:38:35forward acquisition time	60.00reverse acquisition time	0.00gamma	496.2192k internal	0.2318k external	0.2318temperature offset calibration	0.9975default loss term (dB/km)	0.3790temperature slope calibration	1.0000multiplexer offset coefficient	1.0000multiplexer slope coefficient	1.0000fibre end	0.00T internal ref (°C)	32.56T ext. ref 1 (°C)	0.53T ext. ref 2 (°C)	30.87length (m)	temperature (°C)	Stokes	anti-Stokes-747.200	189.262	0.165	0.250
-746.185	-200.000	-0.022	0.272
-745.171	794.524	-0.122	0.340
-744.156	-79.798	-0.210	-0.071
-743.142	755.185	-0.105	0.286
-742.127	800.000	0.095	0.284
-741.112	86.748	0.112	0.125
-740.098	-24.488	-0.139	0.084
-739.083	-11.482	-0.041	0.027
-738.069	-200.000	0.050	0.230
-737.054	-73.830	0.204	-0.075
-736.039	258.479	-0.192	0.335
-735.025	-136.697	0.165	-0.019
-734.010	299.991	-0.069	0.129
-732.996	97.217	0.106	-0.123
-731.981	800.000	0.114	-0.412
-730.966	74.424	-0.122	0.130
-729.952	17.705	0.202	-0.162
-728.937	-200.000	-0.006	-0.081
-727.923	-200.000	-0.000	-0.043
-726.908	193.322	-0.085	-0.131
-725.894	78.138	0.132	0.142
-724.879	-93.631	-0.329	-0.092
-723.864	62.617	-0.074	0.074
-722.850	260.294	-0.031	0.054
-721.835	800.000	0.143	0.413
-720.821	114.148	-0.096	-0.118
-719.806	221.070	0.186	0.302
-718.791	27.773	-0.255	-0.217
-717.777	-168.674	0.108	0.004
-716.762	448.003	0.151	0.335
-715.748	117.244	-0.147	0.183
-714.733	-90.642	0.058	0.017
-713.718	514.262	0.019	-0.045
-712.704	-108.842	-0.195	-0.042
-711.689	-18.402	-0.356	0.225
-710.675	-188.268	-0.454	0.006
-709.660	-51.095	0.075	-0.035
-708.645	779.432	0.042	0.117
-707.631	-22.467	-0.080	0.049
-706.616	390.623	-0.106	-0.223
-705.602	-148.237	0.320	0.027
-704.587	-91.538	-0.253	0.073
-703.572	-148.682	-0.238	0.020
-702.558	-37.242	0.176	0.095
-701.543	34.141	0.066	0.058
-700.529	800.000	0.071	-0.205
-699.514	145.855	-0.225	-0.305
-698.499	225.286	-0.079	-0.130
-697.485	-113.699	0.142	0.028
-696.470	800.000	-0.075	-0.232
-695.456	-200.000	-0.026	0.369
-694.441	-121.410	-0.338	0.057
-693.426	-143.371	0.284	-0.027
-692.412	800.000	-0.068	-0.220
-691.397	-80.957	-0.218	0.073
-690.383	-59.386	-0.142	0.062
-689.368	-200.000	-0.010	0.188
-688.354	-41.836	-0.139	-0.072
-687.339	800.000	-0.050	-0.198
-686.324	-21.954	0.270	-0.166
-685.310	-169.646	0.218	0.008
-684.295	535.567	0.146	0.349
-683.281	-200.000	-0.088	-0.434
-682.266	-181.928	-0.187	0.004
-681.251	-97.916	-0.382	-0.099
-680.237	-37.271	-0.181	0.098
-679.222	9.249	-0.155	0.118
-678.208	-76.715	-0.073	0.026
-677.193	-38.335	0.265	0.142
-676.178	800.000	-0.126	-0.356
-675.164	353.249	0.108	-0.216
-674.149	800.000	-0.044	0.126
-673.135	800.000	-0.093	0.266
-672.120	216.662	0.179	0.287
-671.105	-200.000	-0.003	-0.235
-670.091	800.000	0.006	-0.027
-669.076	800.000	-0.019	0.054
-668.062	-73.482	-0.341	0.126
-667.047	56.464	0.084	0.082
-666.032	-95.349	-0.027	0.007
-665.018	-101.102	0.182	0.045
-664.003	150.638	-0.051	-0.070
-662.989	-144.108	0.048	0.005
-661.974	154.869	0.097	-0.134
-660.959	-200.000	0.012	-0.227
-659.945	-200.000	-0.021	-0.308
-658.930	-200.000	0.037	0.214
-657.916	0.326	-0.114	0.082
-656.901	-5.192	0.215	-0.149
-655.886	89.584	-0.065	-0.073
-654.872	66.723	0.166	0.170
-653.857	47.354	0.184	-0.173
-652.843	-149.299	-0.214	-0.017
-651.828	435.740	-0.049	0.107
-650.814	-105.355	0.103	-0.024
-649.799	3.842	-0.100	-0.074
-648.784	134.687	0.332	-0.435
-647.770	376.871	0.081	-0.166
-646.755	32.786	-0.095	0.083
-645.741	52.055	-0.208	-0.200
-644.726	800.000	0.065	0.252
-643.711	89.730	-0.136	0.153
-642.697	800.000	0.077	-0.214
-641.682	528.897	-0.066	-0.157
-640.668	434.314	-0.114	-0.250
-639.653	-143.656	0.046	-0.004
-638.638	566.077	0.107	-0.262
-637.624	-200.000	0.070	-0.355
-636.609	44.174	0.101	-0.093
-635.595	-84.065	-0.186	-0.059
-634.580	234.792	-0.044	0.073
-633.565	-59.831	0.327	-0.141
-632.551	-99.438	-0.269	-0.068
-631.536	800.000	0.062	0.220
-630.522	49.566	0.172	-0.163
-629.507	-200.000	-0.046	-0.243
-628.492	-67.191	0.154	0.061
-627.478	-88.673	-0.307	-0.092
-626.463	-74.149	-0.122	0.044
-625.449	52.546	0.065	0.062
-624.434	-14.821	-0.252	0.163
-623.419	63.696	-0.025	0.025
-622.405	800.000	-0.062	-0.238
-621.390	322.800	0.044	-0.084
-620.376	-200.000	-0.070	0.385
-619.361	-119.151	-0.111	0.020
-618.346	91.251	0.047	-0.053
-617.332	-133.876	0.127	-0.016
-616.317	183.076	0.059	-0.088
-615.303	452.227	0.116	-0.257
-614.288	455.405	-0.110	-0.245
-613.273	-200.000	0.002	-0.162
-612.259	-37.378	0.218	0.117
-611.244	63.192	0.188	0.190
-610.230	549.267	0.109	-0.262
-609.215	71.600	0.104	-0.108
-608.201	529.165	0.034	0.081
-607.186	-14.407	0.016	0.011
-606.171	99.722	-0.266	0.311
-605.157	373.016	-0.075	-0.153
-604.142	32.507	0.132	0.115
-603.128	-143.484	0.343	-0.033
-602.113	14.713	-0.062	0.048
-601.098	-43.830	-0.218	-0.111
-600.084	-85.700	-0.331	0.103
-599.069	215.080	0.062	0.099
-598.055	-126.287	0.252	0.038
-597.040	249.484	-0.123	0.210
-596.025	-96.406	-0.087	0.023
-595.011	-200.000	-0.005	-0.036
-593.996	-51.147	0.310	0.146
-592.982	85.550	-0.248	0.274
-591.967	111.158	-0.270	0.327
-590.952	356.515	0.084	0.169
-589.938	800.000	-0.076	-0.292
-588.923	33.791	0.138	0.120
-587.909	90.200	0.232	-0.261
-586.894	-107.061	0.017	-0.004
-585.879	282.350	-0.108	-0.195
-584.865	-41.501	-0.309	-0.160
-583.850	5.778	0.110	-0.082
-582.836	305.125	0.124	0.233
-581.821	-200.000	0.005	0.404
-580.806	-27.475	-0.213	-0.125
-579.792	179.211	-0.065	-0.095
-578.777	444.673	0.066	0.146
-577.763	41.928	0.041	-0.038
-576.748	-45.922	-0.068	-0.034
-575.733	-161.126	-0.469	0.025
-574.719	-200.000	-0.028	0.245
-573.704	26.501	0.315	-0.265
-572.690	-62.483	-0.173	-0.072
-571.675	25.991	-0.026	-0.022
-570.661	800.000	-0.084	0.366
-569.646	-200.000	-0.030	0.154
-568.631	-152.947	-0.125	-0.009
-567.617	-86.799	-0.392	-0.120
-566.602	-28.130	0.158	-0.092
-565.588	496.334	0.161	-0.372
-564.573	329.981	0.038	-0.073
-563.558	-200.000	0.011	-0.118
-562.544	313.381	-0.080	-0.151
-561.529	-100.644	0.039	0.010
-560.515	800.000	0.067	0.190
-559.500	721.065	-0.029	-0.078
-558.485	-75.439	0.219	-0.078
-557.471	530.909	0.077	-0.182
-556.456	27.077	0.282	-0.238
-555.442	-91.534	0.056	0.016
-554.427	98.058	0.236	-0.273
-553.412	-200.000	0.038	0.304
-552.398	31.574	-0.154	0.133
-551.383	69.948	-0.097	-0.100
-550.369	38.760	-0.149	0.134
-549.354	-36.461	-0.292	-0.158
-548.339	66.870	0.190	-0.194
-547.325	-14.526	-0.157	0.101
-546.310	422.887	0.108	-0.233
-545.296	-135.227	0.381	-0.046
-544.281	800.000	0.061	0.220
-543.266	353.069	0.192	0.382
-542.252	-141.878	0.130	-0.013
-541.237	800.000	0.062	0.241
-540.223	-61.002	-0.348	-0.148
-539.208	-16.370	-0.116	-0.074
-538.193	-200.000	0.025	-0.324
-537.179	-2.089	0.134	0.095
-536.164	176.499	-0.121	-0.177
-535.150	407.241	-0.184	-0.390
-534.135	-73.363	0.272	-0.100
-533.121	618.637	-0.085	0.214
-532.106	800.000	0.017	-0.056
-531.091	-56.363	-0.113	-0.050
-530.077	60.271	-0.132	-0.131
-529.062	-84.809	0.114	-0.036
-528.048	-13.657	-0.128	0.083
-527.033	-200.000	0.007	-0.074
-526.018	489.883	-0.165	0.379
-525.004	-47.134	-0.148	-0.072
-523.989	39.002	-0.115	0.103
-522.975	-74.751	-0.151	-0.054
-521.960	358.212	0.114	0.228
-520.945	-104.074	-0.197	0.046
-519.931	-101.197	-0.235	0.058
-518.916	-39.526	0.137	0.072
-517.902	251.920	0.125	-0.214
-516.887	761.929	-0.074	0.201
-515.872	25.262	0.068	0.057
-514.858	-95.248	0.016	0.004
-513.843	-200.000	0.020	-0.102
-512.829	-200.000	-0.007	-0.265
-511.814	-101.356	-0.206	-0.050
-510.799	-160.712	0.228	0.012
-509.785	675.950	-0.113	0.293
-508.770	-136.997	0.194	-0.022
-507.756	489.961	0.096	-0.221
-506.741	-82.862	-0.276	-0.089
-505.726	-200.000	0.453	0.002
-504.712	70.600	0.225	0.233
-503.697	-139.907	-0.151	0.016
-502.683	-116.244	0.179	0.033
-501.668	140.652	-0.115	-0.153
-500.653	235.751	0.026	-0.043
-499.639	-200.000	-0.069	0.397
-498.624	-70.846	0.085	-0.032
-497.610	259.551	0.207	0.358
-496.595	-50.009	0.080	0.038
-495.581	-91.530	-0.173	0.050
-494.566	82.549	-0.058	-0.063
-493.551	69.243	-0.162	-0.167
-492.537	-180.259	-0.206	-0.004
-491.522	-200.000	-0.030	-0.133
-490.508	-17.273	-0.194	0.123
-489.493	189.789	0.275	0.413
-488.478	-72.709	-0.180	0.067
-487.464	97.262	0.138	-0.158
-486.449	53.356	-0.238	0.229
-485.435	45.999	-0.194	0.180
-484.420	-72.014	0.084	0.031
-483.405	-200.000	0.008	0.203
-482.391	539.360	0.116	0.276
-481.376	-131.243	-0.078	-0.010
-480.362	-118.408	-0.211	-0.038
-479.347	-72.548	-0.259	0.096
-478.332	-14.800	-0.168	0.108
-477.318	-27.701	0.177	-0.103
-476.303	-82.112	0.264	-0.086
-475.289	-134.525	0.286	0.035
-474.274	-200.000	-0.012	0.235
-473.259	107.419	0.118	0.141
-472.245	-140.795	-0.398	-0.041
-471.230	-3.136	-0.062	0.044
-470.216	-19.121	-0.187	-0.116
-469.201	-46.028	-0.206	0.102
-468.186	-4.214	-0.363	0.252
-467.172	-114.104	0.231	0.045
-466.157	-101.325	-0.176	0.043
-465.143	-200.000	0.037	0.320
-464.128	-140.015	-0.163	-0.017
-463.113	-23.945	-0.346	-0.207
-462.099	48.105	0.233	0.218
-461.084	-200.000	0.007	0.150
-460.070	-138.241	0.159	0.018
-459.055	-60.097	0.192	-0.082
-458.040	-40.868	0.208	0.108
-457.026	212.692	0.086	-0.135
-456.011	8.040	0.207	0.155
-454.997	-107.257	-0.224	0.049
-453.982	-200.000	-0.017	0.117
-452.968	-114.187	0.016	-0.003
-451.953	-3.884	0.167	0.116
-450.938	-200.000	0.027	-0.132
-449.924	-57.906	-0.171	-0.075
-448.909	311.219	-0.157	0.295
-447.895	-7.544	-0.012	-0.008
-446.880	-200.000	-0.024	-0.211
-445.865	-108.116	-0.170	0.037
-444.851	-170.130	0.183	-0.007
-443.836	168.621	0.243	-0.346
-442.822	175.767	0.115	-0.167
-441.807	-90.912	0.158	-0.045
-440.792	-137.859	-0.113	-0.013
-439.778	200.688	-0.388	0.596
-438.763	-200.000	-0.012	-0.243
-437.749	65.456	-0.226	0.229
-436.734	210.351	0.093	-0.147
-435.719	-166.024	0.181	-0.008
-434.705	-200.000	0.014	0.207
-433.690	-200.000	-0.054	0.317
-432.676	-162.608	0.399	0.020
-431.661	-117.098	0.186	0.034
-430.646	-43.726	-0.248	-0.125
-429.632	-45.568	0.240	-0.119
-428.617	-68.121	0.179	0.070
-427.603	163.829	0.045	0.063
-426.588	-42.826	0.229	0.117
-425.573	-62.158	0.194	-0.081
-424.559	455.326	0.061	-0.136
-423.544	45.459	0.210	-0.194
-422.530	-54.042	0.010	-0.005
-421.515	-88.921	-0.137	-0.041
-420.500	25.889	-0.111	-0.092
-419.486	-200.000	0.044	-0.357
-418.471	-148.886	0.028	0.002
-417.457	142.989	-0.068	0.091
-416.442	-200.000	-0.031	0.402
-415.428	-20.342	-0.255	-0.157
-414.413	-86.094	0.243	0.075
-413.398	17.177	0.248	-0.197
-412.384	-200.000	-0.022	0.177
-411.369	-200.000	0.073	0.338
-410.355	800.000	0.043	0.172
-409.340	210.238	-0.107	0.168
-408.325	800.000	-0.061	0.255
-407.311	88.498	-0.168	-0.187
-406.296	34.582	-0.153	-0.134
-405.282	102.044	-0.131	0.153
-404.267	-12.397	-0.073	-0.048
-403.252	7.925	-0.152	0.113
-402.238	-23.185	-0.176	0.106
-401.223	-195.628	0.330	-0.002
-400.209	800.000	-0.130	0.368
-399.194	800.000	-0.062	0.193
-398.179	-14.007	0.133	-0.086
-397.165	-200.000	0.021	0.134
-396.150	-138.075	-0.168	-0.019
-395.136	145.343	-0.119	0.159
-394.121	317.618	0.007	0.014
-393.106	-70.753	0.125	0.047
-392.092	39.063	-0.058	0.052
-391.077	560.211	-0.094	-0.226
-390.063	-200.000	-0.034	-0.286
-389.048	-151.233	-0.227	-0.017
-388.033	-81.980	-0.227	-0.074
-387.019	800.000	0.090	-0.263
-386.004	800.000	-0.091	-0.327
-384.990	250.081	-0.082	-0.139
-383.975	-52.455	0.437	-0.202
-382.960	290.922	-0.084	0.152
-381.946	87.100	-0.223	-0.246
-380.931	-86.699	0.299	-0.091
-379.917	-33.179	0.329	0.182
-378.902	-200.000	0.009	0.256
-377.888	-45.157	0.282	0.140
-376.873	-120.943	0.250	-0.042
-375.858	-95.108	-0.364	-0.098
-374.844	-200.000	0.004	0.133
-373.829	58.586	-0.333	-0.326
-372.815	94.367	0.036	-0.041
-371.800	140.271	-0.098	-0.129
-370.785	800.000	-0.118	-0.370
-369.771	33.201	-0.160	-0.138
-368.756	-44.155	-0.124	-0.062
-367.742	-132.659	0.284	-0.036
-366.727	41.651	-0.093	-0.084
-365.712	42.711	0.268	-0.243
-364.698	-200.000	0.011	-0.055
-363.683	800.000	-0.028	-0.085
-362.669	-64.875	-0.243	0.098
-361.654	188.580	0.041	-0.062
-360.639	-200.000	0.018	-0.137
-359.625	-43.184	-0.274	0.138
-358.610	-77.680	-0.064	0.022
-357.596	-156.952	-0.163	0.010
-356.581	-200.000	-0.015	0.115
-355.566	-24.419	0.113	0.067
-354.552	-200.000	-0.020	-0.120
-353.537	-94.103	-0.103	0.028
-352.523	-50.477	0.187	0.088
-351.508	-42.030	-0.284	0.145
-350.493	-133.612	0.133	-0.017
-349.479	800.000	-0.150	-0.415
-348.464	419.138	0.056	0.119
-347.450	-95.220	-0.274	0.073
-346.435	-48.844	0.172	-0.082
-345.420	-39.183	-0.026	0.013
-344.406	-97.701	0.046	-0.012
-343.391	-18.082	0.203	-0.127
-342.377	-200.000	-0.051	0.338
-341.362	800.000	-0.075	-0.220
-340.348	800.000	-0.015	0.046
-339.333	-69.273	-0.131	-0.050
-338.318	57.862	0.202	-0.197
-337.304	18.708	-0.175	-0.140
-336.289	284.183	-0.057	0.102
-335.275	-109.547	0.109	-0.023
-334.260	-24.869	0.055	-0.033
-333.245	-108.020	-0.502	0.108
-332.231	47.806	0.240	0.224
-331.216	27.818	0.193	0.162
-330.202	-200.000	0.049	-0.313
-329.187	-200.000	0.042	0.213
-328.172	800.000	-0.157	-0.513
-327.158	-22.223	0.241	0.146
-326.143	-124.453	0.321	-0.050
-325.129	54.984	-0.272	-0.261
-324.114	-143.641	0.532	-0.050
-323.099	122.075	0.092	-0.115
-322.085	-77.217	0.511	-0.177
-321.070	256.760	0.166	-0.284
-320.056	798.892	-0.131	-0.361
-319.041	32.632	0.130	-0.112
-318.026	106.723	-0.180	-0.213
-317.012	-163.728	0.131	0.006
-315.997	-114.002	0.193	-0.037
-314.983	-200.000	-0.011	0.142
-313.968	51.796	0.163	-0.155
-312.953	409.135	-0.152	0.321
-311.939	-36.492	-0.141	-0.076
-310.924	504.387	0.056	0.129
-309.910	-97.499	0.237	0.061
-308.895	136.746	0.065	-0.084
-307.880	-192.749	0.112	0.001
-306.866	-200.000	0.015	-0.117
-305.851	-30.419	0.118	0.066
-304.837	294.089	0.106	0.193
-303.822	239.289	-0.119	0.197
-302.807	-200.000	0.027	-0.166
-301.793	405.638	0.116	-0.244
-300.778	-131.187	0.179	0.024
-299.764	62.589	0.117	0.117
-298.749	101.166	0.103	-0.119
-297.735	366.373	-0.030	-0.061
-296.720	-200.000	0.014	0.226
-295.705	-75.561	0.402	0.142
-294.691	308.759	-0.200	0.371
-293.676	229.728	-0.140	0.227
-292.662	17.660	0.070	0.055
-291.647	198.434	0.182	0.277
-290.632	-200.000	-0.056	-0.328
-289.618	-200.000	0.023	-0.203
-288.603	381.800	0.104	0.213
-287.589	-200.000	0.008	0.084
-286.574	-200.000	0.015	0.098
-285.559	-200.000	-0.074	0.390
-284.545	579.381	0.134	0.326
-283.530	-200.000	0.009	-0.091
-282.516	-143.365	-0.233	0.022
-281.501	-53.384	-0.208	0.094
-280.486	509.272	0.121	0.281
-279.472	75.359	-0.252	-0.265
-278.457	13.532	0.395	-0.305
-277.443	556.928	-0.056	0.135
-276.428	-200.000	0.018	0.348
-275.413	-200.000	0.059	0.336
-274.399	-79.292	0.173	-0.058
-273.384	536.322	0.076	-0.180
-272.370	-200.000	0.032	0.390
-271.355	800.000	0.135	-0.393
-270.340	-87.027	-0.246	0.075
-269.326	-200.000	-0.010	-0.119
-268.311	215.831	0.090	-0.142
-267.297	26.836	-0.161	-0.134
-266.282	-200.000	-0.073	-0.353
-265.267	380.831	0.047	-0.096
-264.253	-200.000	0.051	-0.277
-263.238	93.536	-0.172	-0.194
-262.224	94.352	-0.151	0.170
-261.209	14.052	-0.082	0.063
-260.195	-56.424	-0.221	0.097
-259.180	-0.634	-0.155	-0.109
-258.165	65.963	0.049	0.049
-257.151	-200.000	-0.030	0.315
-256.136	-105.301	0.308	0.070
-255.122	-57.963	-0.180	-0.078
-254.107	22.750	-0.010	-0.008
-253.092	-161.185	0.207	-0.011
-252.078	800.000	0.033	-0.099
-251.063	718.976	-0.040	-0.106
-250.049	-200.000	0.027	0.316
-249.034	-200.000	-0.018	0.150
-248.019	-161.705	-0.123	0.006
-247.005	-7.509	0.233	0.157
-245.990	107.901	-0.139	0.164
-244.976	47.138	-0.172	0.159
-243.961	800.000	-0.008	-0.024
-242.946	-182.737	-0.075	-0.001
-241.932	-74.669	0.239	-0.085
-240.917	-200.000	-0.009	-0.192
-239.903	-55.459	0.135	-0.060
-238.888	-24.693	0.040	0.023
-237.873	-200.000	-0.022	-0.192
-236.859	-95.726	-0.115	-0.030
-235.844	-111.565	0.209	-0.042
-234.830	800.000	0.023	-0.077
-233.815	800.000	-0.072	0.247
-232.800	336.030	-0.220	0.423
-231.786	-90.178	-0.221	-0.064
-230.771	-200.000	-0.047	-0.277
-229.757	-35.221	0.140	0.076
-228.742	308.764	-0.162	-0.300
-227.727	-85.964	-0.195	-0.060
-226.713	-85.617	-0.207	0.064
-225.698	-200.000	0.059	-0.338
-224.684	-45.881	0.044	-0.022
-223.669	245.187	-0.143	-0.238
-222.655	800.000	0.083	-0.278
-221.640	26.975	0.175	0.146
-220.625	-81.390	0.126	0.041
-219.611	-62.493	-0.270	0.111
-218.596	320.139	-0.172	0.323
-217.582	34.861	-0.100	-0.087
-216.567	-34.515	0.026	0.014
-215.552	-56.456	0.050	0.022
-214.538	-178.448	-0.115	0.003
-213.523	112.160	-0.051	-0.061
-212.509	-9.318	0.341	-0.226
-211.494	-70.412	-0.152	0.057
-210.479	7.305	-0.053	-0.039
-209.465	800.000	-0.040	-0.146
-208.450	289.772	0.030	0.053
-207.436	75.702	-0.065	-0.068
-206.421	-42.296	-0.181	-0.092
-205.406	123.301	0.161	-0.200
-204.392	173.000	0.086	-0.122
-203.377	4.119	0.103	-0.075
-202.363	-0.382	-0.133	-0.094
-201.348	-200.000	0.051	0.387
-200.333	-136.980	-0.130	-0.015
-199.319	-148.472	0.177	-0.014
-198.304	209.519	0.056	0.088
-197.290	78.978	0.154	-0.164
-196.275	-36.315	-0.366	0.196
-195.260	-65.232	0.343	0.137
-194.246	-33.615	0.162	0.089
-193.231	-196.109	-0.661	-0.005
-192.217	800.000	0.064	-0.273
-191.202	-171.874	-0.267	0.009
-190.187	-200.000	-0.050	0.247
-189.173	23.504	0.082	0.067
-188.158	800.000	0.010	0.031
-187.144	-200.000	-0.004	-0.256
-186.129	116.834	0.182	-0.221
-185.114	-200.000	0.029	0.191
-184.100	48.985	-0.063	0.058
-183.085	-3.737	-0.204	-0.141
-182.071	800.000	-0.011	-0.037
-181.056	1.123	-0.156	0.111
-180.042	800.000	0.073	-0.276
-179.027	-71.738	-0.046	0.017
-178.012	540.468	0.037	-0.087
-176.998	199.478	-0.033	-0.051
-175.983	-200.000	0.024	0.320
-174.969	-200.000	0.004	-0.069
-173.954	291.141	0.016	-0.028
-172.939	-200.000	-0.033	-0.170
-171.925	800.000	-0.075	-0.267
-170.910	94.900	-0.058	0.065
-169.896	141.385	0.012	0.015
-168.881	288.234	0.130	0.233
-167.866	146.829	0.140	-0.186
-166.852	-137.474	0.169	0.019
-165.837	-111.489	-0.105	0.021
-164.823	72.494	0.222	0.229
-163.808	-37.391	-0.095	0.050
-162.793	194.500	0.088	-0.133
-161.779	65.116	0.354	0.354
-160.764	534.757	0.115	0.270
-159.750	-108.387	-0.248	0.053
-158.735	-5.948	0.182	0.123
-157.720	-17.352	-0.108	-0.067
-156.706	12.165	0.145	0.111
-155.691	-200.000	0.017	-0.114
-154.677	340.921	-0.127	-0.245
-153.662	71.544	-0.336	0.345
-152.647	-152.574	0.224	-0.016
-151.633	417.154	0.244	0.516
-150.618	-12.124	-0.054	-0.035
-149.604	30.060	0.080	0.068
-148.589	-43.096	-0.389	0.195
-147.574	479.511	0.114	0.255
-146.560	800.000	-0.053	-0.229
-145.545	291.306	-0.210	0.377
-144.531	25.056	-0.143	0.117
-143.516	139.168	0.084	0.109
-142.502	-30.680	0.138	-0.077
-141.487	800.000	0.040	0.149
-140.472	-103.562	0.140	-0.033
-139.458	800.000	0.033	0.127
-138.443	129.223	-0.124	-0.156
-137.429	-186.684	0.307	0.004
-136.414	-200.000	0.006	-0.191
-135.399	9.563	0.184	-0.138
-134.385	-200.000	-0.014	-0.197
-133.370	-8.128	0.192	0.128
-132.356	728.622	0.096	0.254
-131.341	-200.000	0.006	-0.026
-130.326	273.999	0.082	-0.144
-129.312	-200.000	-0.012	0.373
-128.297	102.808	0.183	0.212
-127.283	46.111	0.121	0.111
-126.268	-200.000	0.032	-0.298
-125.253	63.751	0.066	-0.065
-124.239	-200.000	0.020	-0.210
-123.224	258.167	-0.094	-0.159
-122.210	388.583	0.014	-0.029
-121.195	-43.787	0.222	0.110
-120.180	800.000	-0.030	0.117
