DTS Sentinel unit serial number:	SN413079Multiplexer serial number:	ORYXHardware model number:	OX4-SRSoftware version number:	ORYX F/W v4.00 Oryx Data Collector v3.7.2.0data status	okinstallation	princeton_trtdifferential loss correction	single-endedforward channel	channel 1reverse channel	N/Adate	2019/09/12time	07:12:11forward acquisition time	60.00reverse acquisition time	0.00gamma	496.2192k internal	0.2319k external	0.2319temperature offset calibration	1.0047default loss term (dB/km)	0.3790temperature slope calibration	1.0000multiplexer offset coefficient	1.0000multiplexer slope coefficient	1.0000fibre end	0.00T internal ref (°C)	32.19T ext. ref 1 (°C)	1.62T ext. ref 2 (°C)	28.03length (m)	temperature (°C)	Stokes	anti-Stokes-747.200	106.207	-0.032	-0.038
-746.185	-3.129	-0.305	0.216
-745.171	126.397	0.072	0.093
-744.156	608.355	-0.030	0.075
-743.142	-200.000	0.013	0.203
-742.127	0.843	-0.378	0.274
-741.112	-200.000	-0.049	-0.282
-740.098	636.644	-0.091	0.233
-739.083	-10.779	0.241	0.161
-738.069	370.857	-0.098	0.202
-737.054	215.499	-0.080	0.128
-736.039	37.083	0.109	-0.097
-735.025	74.954	0.029	0.031
-734.010	64.422	-0.040	0.040
-732.996	800.000	0.014	-0.056
-731.981	-200.000	-0.018	0.084
-730.966	-200.000	0.007	-0.188
-729.952	800.000	-0.043	-0.126
-728.937	-94.857	-0.226	0.062
-727.923	322.723	-0.031	0.060
-726.908	39.723	-0.119	0.108
-725.894	119.388	-0.140	-0.175
-724.879	-200.000	-0.031	-0.544
-723.864	64.640	0.138	-0.141
-722.850	-200.000	-0.015	0.219
-721.835	19.192	-0.145	-0.118
-720.821	-200.000	0.020	-0.479
-719.806	-121.857	0.189	0.032
-718.791	-149.138	0.128	0.010
-717.777	800.000	-0.043	0.120
-716.762	240.837	-0.237	-0.399
-715.748	16.164	-0.023	-0.018
-714.733	-200.000	-0.101	-0.464
-713.718	-200.000	0.131	0.000
-712.704	12.554	0.246	0.192
-711.689	22.788	-0.182	-0.150
-710.675	3.584	0.238	-0.175
-709.660	60.395	0.202	0.202
-708.645	0.574	-0.212	0.153
-707.631	70.868	-0.113	0.118
-706.616	-27.471	0.093	-0.054
-705.602	22.875	0.111	-0.092
-704.587	-150.729	0.193	0.015
-703.572	277.118	0.136	0.244
-702.558	-200.000	-0.013	-0.196
-701.543	433.591	0.124	0.272
-700.529	-51.384	-0.445	-0.210
-699.514	68.932	0.223	-0.231
-698.499	-139.505	0.638	-0.069
-697.485	800.000	0.045	0.175
-696.470	537.613	0.030	-0.073
-695.456	800.000	0.054	0.200
-694.441	302.035	0.135	-0.252
-693.426	-200.000	-0.013	-0.079
-692.412	-200.000	0.035	0.292
-691.397	-152.350	0.293	0.021
-690.383	-200.000	-0.002	-0.331
-689.368	-200.000	0.037	0.231
-688.354	15.579	-0.340	-0.270
-687.339	-200.000	0.006	0.159
-686.324	186.290	-0.096	0.144
-685.310	329.193	0.027	0.052
-684.295	-19.500	0.061	0.038
-683.281	-39.713	-0.159	0.084
-682.266	-200.000	0.007	-0.149
-681.251	81.501	-0.080	-0.087
-680.237	103.904	-0.185	-0.219
-679.222	55.287	-0.177	-0.173
-678.208	-200.000	0.012	-0.215
-677.193	-117.591	-0.242	-0.044
-676.178	800.000	-0.061	0.256
-675.164	5.276	-0.053	-0.039
-674.149	426.891	-0.048	-0.104
-673.135	277.341	0.154	-0.275
-672.120	91.885	-0.239	-0.271
-671.105	49.536	-0.100	0.095
-670.091	-140.363	-0.026	-0.003
-669.076	124.482	0.054	-0.069
-668.062	8.954	-0.181	-0.137
-667.047	-159.179	0.064	0.004
-666.032	23.611	-0.149	-0.124
-665.018	-126.587	0.374	-0.056
-664.003	-101.136	0.162	-0.040
-662.989	-94.491	0.161	-0.044
-661.974	-200.000	0.060	0.331
-660.959	800.000	0.077	-0.331
-659.945	-74.534	-0.241	0.088
-658.930	158.622	-0.106	0.149
-657.916	-83.952	-0.412	0.132
-656.901	47.937	-0.194	0.183
-655.886	282.994	0.022	0.040
-654.872	16.781	0.309	-0.246
-653.857	-200.000	-0.059	-0.302
-652.843	800.000	-0.014	-0.058
-651.828	-200.000	0.043	0.192
-650.814	-46.383	-0.328	0.162
-649.799	-200.000	0.026	-0.571
-648.784	-113.436	-0.405	0.080
-647.770	-200.000	0.021	-0.123
-646.755	35.921	0.081	-0.072
-645.741	-168.395	-0.444	0.017
-644.726	-42.400	0.198	-0.102
-643.711	287.084	-0.208	-0.379
-642.697	-200.000	-0.001	-0.313
-641.682	800.000	0.015	-0.068
-640.668	-124.736	-0.296	-0.046
-639.653	36.652	0.101	-0.090
-638.638	-200.000	0.008	0.122
-637.624	-81.864	0.103	0.034
-636.609	422.803	0.103	0.222
-635.595	800.000	0.041	-0.175
-634.580	223.926	-0.136	0.221
-633.565	299.514	-0.162	-0.300
-632.551	-122.509	0.059	-0.010
-631.536	800.000	-0.094	0.359
-630.522	87.951	-0.230	0.257
-629.507	135.108	-0.160	0.209
-628.492	-36.678	-0.097	-0.052
-627.478	-200.000	0.026	-0.302
-626.463	44.976	0.200	-0.185
-625.449	40.727	-0.248	-0.225
-624.434	-63.075	-0.209	-0.087
-623.419	-200.000	-0.007	0.210
-622.405	-200.000	0.008	-0.108
-621.390	-94.173	-0.155	0.043
-620.376	63.800	-0.352	-0.356
-619.361	90.235	0.071	0.079
-618.346	-200.000	-0.009	-0.169
-617.332	800.000	0.039	0.129
-616.317	800.000	0.077	-0.248
-615.303	26.315	0.273	0.229
-614.288	-79.921	0.217	-0.073
-613.273	69.391	-0.178	0.185
-612.259	269.495	0.081	0.144
-611.244	319.903	0.043	-0.082
-610.230	800.000	-0.054	0.229
-609.215	-126.361	0.099	-0.015
-608.201	178.283	-0.098	0.144
-607.186	14.268	-0.161	0.126
-606.171	-200.000	-0.014	0.179
-605.157	-41.764	-0.291	0.150
-604.142	625.475	0.065	0.164
-603.128	436.732	0.046	0.101
-602.113	-142.288	0.265	-0.026
-601.098	66.892	-0.239	-0.245
-600.084	-98.870	0.242	-0.062
-599.069	15.650	-0.110	-0.087
-598.055	214.182	0.025	0.040
-597.040	-200.000	-0.009	0.121
-596.025	-15.481	-0.083	-0.054
-595.011	-41.395	0.518	0.268
-593.996	130.860	0.148	0.191
-592.982	-22.229	0.206	0.126
-591.967	-145.074	0.113	-0.010
-590.952	-96.800	-0.257	-0.068
-589.938	-52.622	0.317	-0.147
-588.923	-24.883	0.136	-0.081
-587.909	-60.903	-0.040	0.017
-586.894	-54.232	-0.194	-0.089
-585.879	-158.101	0.280	0.017
-584.865	721.170	-0.055	-0.148
-583.850	800.000	0.082	-0.253
-582.836	200.213	-0.059	0.092
-581.821	143.394	-0.068	0.091
-580.806	-200.000	-0.009	-0.146
-579.792	639.295	-0.020	-0.051
-578.777	7.246	0.233	-0.175
-577.763	-200.000	0.005	0.048
-576.748	-200.000	-0.028	-0.309
-575.733	-1.661	0.202	-0.143
-574.719	-111.575	0.095	-0.019
-573.704	410.544	-0.089	0.190
-572.690	800.000	-0.063	0.199
-571.675	44.421	-0.299	-0.276
-570.661	126.346	0.037	0.046
-569.646	-80.322	0.165	-0.055
-568.631	528.655	-0.041	-0.098
-567.617	-49.281	0.277	0.133
-566.602	-87.043	0.169	0.052
-565.588	-167.706	-0.207	0.008
-564.573	-124.512	0.210	0.033
-563.558	5.816	0.056	-0.042
-562.544	-200.000	0.013	-0.227
-561.529	-133.356	-0.189	0.024
-560.515	-189.640	-0.386	-0.004
-559.500	-200.000	-0.021	0.144
-558.485	-111.376	-0.282	-0.058
-557.471	20.279	-0.220	0.178
-556.456	-197.563	-0.170	-0.001
-555.442	-13.806	-0.153	0.099
-554.427	192.555	-0.062	0.094
-553.412	147.406	0.095	0.129
-552.398	-29.360	-0.343	0.197
-551.383	498.716	0.056	0.129
-550.369	444.900	-0.089	-0.196
-549.354	-25.499	0.326	-0.193
-548.339	-62.433	-0.063	-0.026
-547.325	-85.795	-0.146	0.045
-546.310	-174.292	0.210	-0.006
-545.296	-65.625	-0.072	-0.029
-544.281	129.788	0.110	-0.142
-543.266	-133.705	0.277	0.035
-542.252	146.220	0.154	0.208
-541.237	-59.781	-0.275	0.118
-540.223	597.400	0.110	0.274
-539.208	-89.408	0.199	-0.059
-538.193	307.328	0.062	-0.116
-537.179	-200.000	0.002	-0.226
-536.164	-11.988	0.222	-0.146
-535.150	72.357	-0.229	-0.239
-534.135	-200.000	0.014	0.240
-533.121	-200.000	0.038	-0.214
-532.106	11.832	0.126	-0.097
-531.091	-200.000	0.054	-0.341
-530.077	-95.846	-0.483	0.129
-529.062	105.704	0.061	0.073
-528.048	800.000	0.086	-0.300
-527.033	77.915	-0.071	-0.076
-526.018	52.976	0.206	-0.198
-525.004	129.938	0.127	0.163
-523.989	309.195	0.043	0.080
-522.975	-25.599	0.181	-0.107
-521.960	66.105	-0.201	0.205
-520.945	-24.094	-0.185	-0.111
-519.931	526.270	-0.012	0.027
-518.916	200.184	-0.273	-0.420
-517.902	177.705	0.142	0.207
-516.887	800.000	-0.060	-0.226
-515.872	-200.000	0.004	-0.414
-514.858	-87.815	0.404	0.122
-513.843	105.960	-0.302	0.359
-512.829	-45.773	-0.099	-0.049
-511.814	457.766	0.047	0.105
-510.799	-55.647	-0.182	-0.082
-509.785	-54.053	0.329	-0.150
-508.770	-82.816	-0.168	0.055
-507.756	-113.243	-0.078	-0.015
-506.741	131.505	-0.175	-0.225
-505.726	-47.987	0.273	0.132
-504.712	-135.094	-0.285	-0.034
-503.697	59.085	0.085	-0.084
-502.683	15.143	0.043	0.034
-501.668	14.646	-0.385	0.301
-500.653	-199.583	0.390	-0.002
-499.639	-49.316	0.259	-0.124
-498.624	-6.958	-0.043	-0.029
-497.610	145.779	0.108	-0.145
-496.595	169.072	-0.127	0.182
-495.581	-200.000	0.009	0.352
-494.566	-200.000	0.010	0.364
-493.551	-122.498	-0.239	0.039
-492.537	-141.215	-0.405	0.041
-491.522	-200.000	-0.018	0.196
-490.508	-102.788	-0.012	0.003
-489.493	78.734	0.165	-0.176
-488.478	-66.550	-0.166	-0.066
-487.464	404.798	-0.070	-0.148
-486.449	-99.212	-0.171	0.043
-485.435	-92.261	-0.073	0.021
-484.420	31.591	-0.283	0.244
-483.405	-200.000	-0.002	-0.060
-482.391	69.528	-0.197	-0.203
-481.376	172.590	-0.124	-0.179
-480.362	-200.000	-0.026	0.184
-479.347	-200.000	0.063	0.294
-478.332	-29.374	-0.090	0.052
-477.318	-200.000	0.006	0.063
-476.303	-200.000	0.038	0.232
-475.289	8.050	-0.408	-0.306
-474.274	253.675	-0.275	-0.471
-473.259	-200.000	-0.028	-0.278
-472.245	-114.603	0.204	-0.039
-471.230	65.768	0.092	0.093
-470.216	-200.000	-0.040	-0.309
-469.201	92.504	-0.266	0.301
-468.186	-200.000	-0.021	-0.168
-467.172	403.436	-0.059	0.125
-466.157	800.000	-0.082	0.326
-465.143	800.000	-0.030	0.089
-464.128	-71.620	0.079	0.030
-463.113	360.890	0.167	-0.335
-462.099	108.540	0.190	0.228
-461.084	32.938	-0.190	-0.164
-460.070	-200.000	0.008	0.171
-459.055	-91.008	-0.199	0.057
-458.040	-163.008	0.225	0.011
-457.026	13.099	0.051	0.039
-456.011	124.656	0.039	-0.049
-454.997	-200.000	-0.014	-0.250
-453.982	-200.000	0.041	-0.290
-452.968	-78.667	0.173	-0.059
-451.953	-52.396	0.215	0.100
-450.938	106.791	0.069	-0.082
-449.924	-146.862	-0.466	0.040
-448.909	-84.101	0.454	-0.144
-447.895	-200.000	-0.038	-0.224
-446.880	-121.702	-0.069	0.011
-445.865	36.696	-0.252	-0.223
-444.851	-200.000	-0.023	-0.215
-443.836	-200.000	0.011	-0.162
-442.822	298.461	-0.130	0.240
-441.807	347.533	-0.021	0.042
-440.792	-83.859	-0.322	0.103
-439.778	252.840	0.134	0.229
-438.763	800.000	0.044	0.157
-437.749	11.677	0.333	0.256
-436.734	800.000	-0.076	-0.292
-435.719	256.362	0.153	-0.262
-434.705	40.393	-0.103	-0.093
-433.690	-200.000	-0.013	-0.240
-432.676	262.386	0.118	-0.205
-431.661	-19.824	0.131	-0.081
-430.646	-113.350	0.154	-0.030
-429.632	317.042	0.032	0.060
-428.617	800.000	-0.095	-0.280
-427.603	725.323	0.038	0.100
-426.588	-140.022	0.299	-0.031
-425.573	584.479	0.045	-0.111
-424.559	118.263	-0.321	0.396
-423.544	-14.161	-0.127	0.082
-422.530	57.009	-0.192	0.187
-421.515	33.743	-0.192	-0.167
-420.500	158.453	0.157	0.218
-419.486	-179.117	-0.175	0.004
-418.471	-27.100	0.285	0.166
-417.457	609.598	-0.054	0.135
-416.442	176.788	-0.101	0.147
-415.428	-97.404	-0.165	-0.043
-414.413	-200.000	-0.015	-0.270
-413.398	-93.983	-0.029	-0.008
-412.384	-200.000	0.029	-0.262
-411.369	-200.000	-0.049	0.410
-410.355	13.692	-0.114	0.089
-409.340	800.000	0.017	0.053
-408.325	55.389	-0.065	0.063
-407.311	-200.000	0.028	-0.227
-406.296	544.589	0.203	-0.485
-405.282	466.792	0.100	0.225
-404.267	-200.000	-0.019	0.099
-403.252	330.853	0.164	-0.315
-402.238	-200.000	0.003	-0.060
-401.223	-117.889	-0.338	0.060
-400.209	-38.662	-0.295	0.155
-399.194	800.000	-0.090	0.277
-398.179	164.235	-0.094	-0.132
-397.165	651.630	-0.073	0.186
-396.150	-78.258	0.164	-0.056
-395.136	72.858	0.081	-0.085
-394.121	148.162	0.071	-0.096
-393.106	517.870	-0.075	-0.175
-392.092	354.081	0.107	-0.213
-391.077	245.053	-0.160	0.268
-390.063	24.875	-0.354	0.293
-389.048	295.566	0.093	-0.170
-388.033	127.177	-0.074	-0.094
-387.019	-80.700	0.177	-0.059
-386.004	-93.608	0.121	0.033
-384.990	359.966	0.101	0.201
-383.975	800.000	-0.097	-0.289
-382.960	-101.738	-0.107	-0.026
-381.946	-200.000	-0.007	0.047
-380.931	-97.057	-0.294	0.077
-379.917	-144.441	0.229	0.021
-378.902	-200.000	0.009	-0.163
-377.888	800.000	-0.068	0.295
-376.873	-200.000	0.002	0.040
-375.858	42.045	-0.078	-0.070
-374.844	-139.744	-0.433	0.046
-373.829	-28.003	0.212	0.123
-372.815	-3.377	0.123	-0.086
-371.800	-55.412	0.119	-0.053
-370.785	-200.000	-0.012	0.171
-369.771	-107.563	0.290	0.063
-368.756	800.000	-0.059	-0.205
-367.742	-200.000	-0.020	0.191
-366.727	-57.632	-0.252	0.110
-365.712	700.466	-0.077	0.201
-364.698	-150.182	-0.197	0.015
-363.683	74.415	0.066	-0.069
-362.669	586.791	0.104	-0.254
-361.654	-61.572	-0.187	-0.078
-360.639	773.446	0.028	0.075
-359.625	349.904	0.216	0.425
-358.610	-200.000	0.010	-0.051
-357.596	39.470	-0.065	-0.058
-356.581	800.000	-0.076	-0.216
-355.566	589.280	-0.135	-0.332
-354.552	-111.049	0.324	0.066
-353.537	-79.251	-0.196	-0.066
-352.523	-200.000	0.008	0.072
-351.508	-200.000	-0.024	0.107
-350.493	94.574	-0.063	-0.071
-349.479	-125.316	0.079	-0.012
-348.464	527.122	-0.042	-0.098
-347.450	-106.548	-0.118	0.026
-346.435	-44.093	0.223	0.112
-345.420	1.783	-0.211	0.151
-344.406	407.269	0.125	0.264
-343.391	252.348	0.043	-0.073
-342.377	203.217	0.128	-0.197
-341.362	-196.541	0.422	-0.003
-340.348	-60.505	0.181	-0.076
-339.333	-0.169	0.092	0.065
-338.318	800.000	-0.032	-0.087
-337.304	-9.292	0.204	-0.136
-336.289	-27.973	0.178	-0.103
-335.275	-200.000	-0.003	-0.043
-334.260	246.245	-0.059	0.098
-333.245	58.971	-0.162	0.159
-332.231	-92.895	-0.128	-0.036
-331.216	800.000	-0.032	0.109
-330.202	-168.022	-0.196	0.008
-329.187	200.432	0.125	0.191
-328.172	144.262	-0.158	0.210
-327.158	678.528	-0.020	0.053
-326.143	-17.086	0.144	-0.090
-325.129	-200.000	0.009	-0.286
-324.114	-60.866	0.213	-0.090
-323.099	800.000	0.094	0.273
-322.085	-200.000	-0.071	-0.324
-321.070	0.926	0.059	0.042
-320.056	71.097	0.222	0.229
-319.041	-200.000	0.018	0.227
-318.026	800.000	-0.047	-0.133
-317.012	-144.265	0.154	-0.014
-315.997	-113.216	0.318	-0.062
-314.983	719.698	0.040	0.106
-313.968	-42.716	0.220	-0.111
-312.953	800.000	-0.076	0.298
-311.939	-57.320	-0.108	0.047
-310.924	800.000	0.080	0.314
-309.910	-34.230	-0.089	0.049
-308.895	354.578	-0.094	0.186
-307.880	-200.000	0.002	0.247
-306.866	92.739	-0.129	-0.144
-305.851	42.211	-0.133	-0.120
-304.837	232.009	0.150	0.245
-303.822	-200.000	-0.091	0.443
-302.807	-48.945	0.070	0.033
-301.793	-153.258	-0.420	0.029
-300.778	7.279	0.149	0.111
-299.764	-85.102	0.473	0.147
-298.749	-72.802	0.267	-0.098
-297.735	579.257	-0.080	-0.195
-296.720	160.328	0.062	0.086
-295.705	-13.806	-0.187	0.120
-294.691	-117.259	0.425	-0.077
-293.676	5.771	-0.163	0.120
-292.662	800.000	-0.012	-0.042
-291.647	-200.000	0.017	-0.180
-290.632	-191.545	0.046	-0.000
-289.618	-13.647	0.371	0.239
-288.603	57.329	0.209	0.203
-287.589	-116.258	-0.288	-0.053
-286.574	122.175	-0.089	-0.110
-285.559	-113.442	0.224	-0.044
-284.545	-22.537	-0.140	-0.084
-283.530	800.000	0.023	0.091
-282.516	800.000	-0.031	-0.107
-281.501	-123.127	-0.121	-0.019
-280.486	-170.440	-0.065	-0.002
-279.472	800.000	-0.070	0.200
-278.457	-82.970	0.329	-0.106
-277.443	-46.981	0.271	-0.132
-276.428	-52.583	-0.037	-0.017
-275.413	39.041	0.268	0.238
-274.399	-167.452	0.354	0.014
-273.384	-89.841	-0.119	-0.035
-272.370	46.819	0.068	0.062
-271.355	800.000	0.020	0.080
-270.340	-128.649	-0.153	-0.022
-269.326	16.036	0.098	0.076
-268.311	56.087	-0.134	-0.129
-267.297	39.834	-0.180	-0.160
-266.282	30.532	-0.257	0.218
-265.267	-200.000	-0.018	0.187
-264.253	48.123	-0.062	0.058
-263.238	-0.112	-0.140	-0.099
-262.224	-200.000	-0.026	0.238
-261.209	791.995	0.020	-0.056
-260.195	337.174	-0.081	0.156
-259.180	-77.613	0.385	-0.132
-258.165	73.964	-0.040	-0.042
-257.151	14.520	-0.014	-0.011
-256.136	30.638	-0.085	-0.072
-255.122	106.616	-0.168	0.198
-254.107	-200.000	0.016	-0.261
-253.092	457.518	0.162	-0.357
-252.078	-117.011	0.187	-0.034
-251.063	-17.108	0.323	0.202
-250.049	25.305	-0.111	-0.091
-249.034	262.761	0.122	0.210
-248.019	132.005	0.213	0.273
-247.005	-140.433	-0.249	-0.026
-245.990	180.853	-0.102	0.148
-244.976	-61.937	0.052	-0.021
-243.961	60.354	-0.121	0.119
-242.946	-52.067	0.152	0.070
-241.932	29.492	-0.168	-0.142
-240.917	407.433	-0.083	-0.174
-239.903	-20.584	0.081	0.049
-238.888	-87.599	-0.215	0.064
-237.873	-90.890	0.264	-0.075
-236.859	-200.000	-0.025	0.253
-235.844	26.973	0.091	0.076
-234.830	12.128	-0.237	0.181
-233.815	62.156	0.194	0.192
-232.800	-200.000	0.032	-0.152
-231.786	316.130	-0.153	-0.287
-230.771	431.275	0.106	-0.227
-229.757	-168.997	0.116	0.004
-228.742	-30.990	-0.211	0.118
-227.727	-200.000	0.080	0.534
-226.713	-11.276	-0.206	-0.135
-225.698	-200.000	-0.062	0.359
-224.684	-114.546	-0.181	0.034
-223.669	-200.000	0.030	0.273
-222.655	243.541	0.196	0.325
-221.640	-97.110	-0.092	0.024
-220.625	262.326	-0.078	-0.135
-219.611	-98.068	0.326	0.083
-218.596	-118.424	-0.292	0.051
-217.582	798.932	-0.101	0.276
-216.567	800.000	-0.036	0.118
-215.552	3.244	-0.234	-0.169
-214.538	294.668	0.204	0.370
-213.523	800.000	0.077	-0.283
-212.509	-200.000	0.045	0.264
-211.494	-200.000	-0.030	0.203
-210.479	-144.107	0.228	0.021
-209.465	242.149	0.072	0.119
-208.450	589.671	-0.049	0.119
-207.436	800.000	0.031	-0.134
-206.421	182.531	-0.165	0.241
-205.406	-200.000	-0.018	-0.086
-204.392	700.086	0.114	0.298
-203.377	117.217	0.087	0.106
-202.363	-12.636	0.120	-0.078
-201.348	-138.130	-0.305	-0.034
-200.333	-180.477	0.135	-0.003
-199.319	62.551	-0.096	-0.095
-198.304	265.857	-0.139	-0.240
-197.290	-76.338	0.306	0.107
-196.275	-163.516	0.223	0.010
-195.260	76.631	-0.131	-0.138
-194.246	800.000	0.055	0.212
-193.231	237.440	0.094	-0.155
-192.217	254.402	0.012	0.019
-191.202	124.268	-0.132	-0.165
-190.187	-76.174	0.359	0.125
-189.173	132.465	-0.259	-0.330
-188.158	8.076	-0.184	-0.137
-187.144	164.871	-0.034	-0.048
-186.129	-110.329	0.276	0.057
-185.114	19.381	0.183	0.145
-184.100	80.399	0.142	0.152
-183.085	-87.844	0.125	0.037
-182.071	-153.944	0.102	0.007
-181.056	-200.000	-0.022	0.104
-180.042	61.866	0.229	-0.226
-179.027	74.184	-0.069	0.072
-178.012	-200.000	-0.002	-0.247
-176.998	-80.635	0.059	-0.019
-175.983	508.605	0.052	-0.120
-174.969	-200.000	-0.166	0.000
-173.954	62.243	-0.183	-0.180
-172.939	706.014	-0.038	-0.099
-171.925	270.712	0.022	0.038
-170.910	-96.605	0.267	-0.070
-169.896	-108.770	0.258	-0.055
-168.881	-53.119	0.293	-0.133
-167.866	-7.177	0.048	0.032
-166.852	-6.447	-0.300	-0.202
-165.837	180.193	0.125	-0.181
-164.823	-39.269	0.124	-0.064
-163.808	-7.332	-0.060	-0.040
-162.793	166.643	-0.068	0.095
-161.779	-127.695	-0.123	0.018
-160.764	170.743	-0.213	-0.301
-159.750	550.775	-0.159	-0.378
-158.735	77.287	0.112	0.118
-157.720	-200.000	-0.002	0.254
-156.706	349.878	0.039	0.077
-155.691	-78.975	0.241	0.081
-154.677	800.000	0.111	-0.355
-153.662	-59.681	0.074	0.031
-152.647	800.000	-0.125	-0.437
-151.633	277.221	0.109	-0.191
-150.618	800.000	-0.095	-0.392
-149.604	46.563	-0.244	0.224
-148.589	-200.000	0.003	-0.104
-147.574	-200.000	-0.000	0.012
-146.560	-116.150	-0.492	-0.090
-145.545	-45.220	0.323	0.159
-144.531	-44.524	0.100	-0.049
-143.516	234.788	0.147	0.240
-142.502	362.798	0.050	0.098
-141.487	20.424	-0.074	0.059
-140.472	-73.841	0.100	-0.036
-139.458	-132.530	0.228	0.029
-138.443	-61.803	0.272	0.112
-137.429	214.806	0.157	-0.245
-136.414	-200.000	-0.008	-0.398
-135.399	304.676	0.287	-0.526
-134.385	13.369	0.063	-0.049
-133.370	152.547	0.112	-0.151
-132.356	281.111	-0.005	-0.009
-131.341	800.000	0.109	-0.340
-130.326	-200.000	-0.003	-0.628
-129.312	-89.917	0.249	-0.072
-128.297	-41.399	-0.248	-0.126
-127.283	-5.055	0.316	0.214
-126.268	100.083	-0.246	0.282
-125.253	-38.771	0.227	-0.118
-124.239	79.132	-0.093	0.098
-123.224	381.549	-0.130	-0.263
-122.210	233.089	-0.165	-0.268
-121.195	-74.585	0.118	0.042
-120.180	800.000	0.049	-0.167
