DTS Sentinel unit serial number:	SN413079Multiplexer serial number:	ORYXHardware model number:	OX4-SRSoftware version number:	ORYX F/W v4.00 Oryx Data Collector v3.7.2.0data status	okinstallation	princeton_trtdifferential loss correction	single-endedforward channel	channel 1reverse channel	N/Adate	2019/09/11time	02:36:11forward acquisition time	60.00reverse acquisition time	0.00gamma	496.2192k internal	0.2331k external	0.2331temperature offset calibration	0.9933default loss term (dB/km)	0.3790temperature slope calibration	1.0000multiplexer offset coefficient	1.0000multiplexer slope coefficient	1.0000fibre end	0.00T internal ref (°C)	29.25T ext. ref 1 (°C)	-0.22T ext. ref 2 (°C)	23.32length (m)	temperature (°C)	Stokes	anti-Stokes-747.200	305.916	-0.096	-0.179
-746.185	800.000	0.035	0.122
-745.171	29.381	-0.101	-0.087
-744.156	55.929	0.227	0.221
-743.142	-130.631	-0.229	-0.031
-742.127	800.000	-0.090	-0.326
-741.112	-132.562	0.182	0.023
-740.098	116.381	-0.258	0.318
-739.083	800.000	-0.060	-0.241
-738.069	-58.672	-0.127	0.055
-737.054	-102.967	0.357	0.085
-736.039	226.230	-0.001	0.002
-735.025	800.000	0.126	0.445
-734.010	-90.418	-0.397	0.116
-732.996	517.481	-0.032	-0.076
-731.981	-125.282	-0.221	-0.034
-730.966	-160.888	0.181	-0.010
-729.952	613.249	0.080	0.202
-728.937	-102.100	0.145	0.035
-727.923	800.000	-0.047	0.163
-726.908	-4.544	0.132	-0.092
-725.894	159.462	-0.057	0.079
-724.879	-200.000	0.040	0.180
-723.864	-200.000	0.012	0.121
-722.850	258.793	-0.094	-0.164
-721.835	-200.000	-0.047	-0.373
-720.821	800.000	0.064	-0.233
-719.806	-200.000	-0.271	0.001
-718.791	552.557	-0.077	-0.185
-717.777	-182.545	-0.250	0.005
-716.762	274.609	-0.085	-0.152
-715.748	-200.000	0.067	-0.415
-714.733	-26.174	0.117	-0.069
-713.718	96.890	-0.149	0.172
-712.704	184.198	-0.090	0.134
-711.689	-29.992	-0.110	0.063
-710.675	195.626	0.140	-0.214
-709.660	-200.000	-0.032	-0.223
-708.645	-200.000	-0.070	-0.428
-707.631	-200.000	0.000	-0.075
-706.616	386.025	-0.096	0.200
-705.602	800.000	0.023	-0.074
-704.587	-72.962	-0.154	-0.057
-703.572	136.391	0.080	-0.104
-702.558	-200.000	-0.030	0.152
-701.543	172.752	0.138	0.200
-700.529	-200.000	0.020	0.108
-699.514	-73.393	-0.196	-0.072
-698.499	-64.918	-0.347	-0.141
-697.485	800.000	-0.159	0.459
-696.470	471.301	0.019	-0.043
-695.456	20.238	0.279	0.226
-694.441	-87.122	-0.289	-0.088
-693.426	26.421	-0.236	0.198
-692.412	113.751	0.135	0.164
-691.397	-133.315	-0.202	0.026
-690.383	-200.000	0.021	-0.163
-689.368	140.895	-0.116	0.154
-688.354	-146.059	-0.012	0.001
-687.339	-47.467	0.283	0.138
-686.324	-200.000	0.062	-0.338
-685.310	-130.339	0.158	0.022
-684.295	0.780	0.257	0.185
-683.281	27.155	-0.059	0.050
-682.266	-199.606	0.093	0.000
-681.251	800.000	-0.126	0.398
-680.237	58.852	0.162	-0.160
-679.222	10.891	0.147	0.112
-678.208	203.844	0.193	-0.300
-677.193	800.000	-0.088	0.280
-676.178	310.970	0.013	0.024
-675.164	47.748	-0.179	0.168
-674.149	-168.384	0.253	-0.010
-673.135	649.302	-0.086	0.220
-672.120	-200.000	0.050	-0.240
-671.105	263.990	-0.150	0.262
-670.091	-42.512	0.073	0.037
-669.076	-61.409	-0.066	-0.028
-668.062	-154.931	-0.293	0.019
-667.047	154.820	-0.066	-0.091
-666.032	531.844	-0.043	-0.102
-665.018	-200.000	0.030	0.205
-664.003	-111.680	-0.377	-0.077
-662.989	31.595	0.233	-0.201
-661.974	-41.796	-0.299	0.154
-660.959	110.823	0.109	0.132
-659.945	208.618	0.009	0.014
-658.930	-200.000	0.010	-0.323
-657.916	-39.416	-0.160	-0.084
-656.901	-128.154	-0.304	0.044
-655.886	19.340	-0.382	0.308
-654.872	-184.426	-0.345	0.006
-653.857	138.242	0.123	-0.161
-652.843	613.728	0.069	0.174
-651.828	800.000	0.053	0.183
-650.814	-55.418	-0.640	0.288
-649.799	33.543	0.269	-0.234
-648.784	521.116	0.013	0.031
-647.770	-139.230	0.147	-0.016
-646.755	352.295	0.115	-0.228
-645.741	23.844	-0.195	-0.162
-644.726	41.586	-0.091	0.082
-643.711	-85.824	0.288	-0.089
-642.697	197.556	0.091	0.139
-641.682	800.000	-0.114	0.319
-640.668	800.000	-0.061	0.261
-639.653	-139.523	-0.047	0.005
-638.638	800.000	-0.035	-0.138
-637.624	-91.226	-0.245	0.070
-636.609	249.966	-0.203	0.344
-635.595	56.265	0.068	0.066
-634.580	198.229	-0.126	-0.193
-633.565	800.000	-0.032	-0.132
-632.551	-84.062	0.071	-0.023
-631.536	359.140	-0.081	-0.162
-630.522	-148.027	-0.239	0.020
-629.507	-52.385	-0.413	-0.192
-628.492	-189.207	0.112	-0.001
-627.478	3.424	-0.018	0.013
-626.463	-200.000	0.007	-0.099
-625.449	652.615	-0.112	-0.288
-624.434	800.000	0.077	-0.218
-623.419	112.679	0.136	0.165
-622.405	10.856	0.258	-0.197
-621.390	270.488	-0.073	-0.129
-620.376	-126.873	0.140	-0.021
-619.361	-79.383	-0.268	0.091
-618.346	164.035	-0.123	-0.173
-617.332	-63.534	0.058	-0.024
-616.317	178.025	0.124	-0.181
-615.303	373.491	0.082	-0.166
-614.288	364.365	0.133	-0.268
-613.273	800.000	0.024	-0.089
-612.259	-200.000	0.022	0.226
-611.244	128.379	0.089	-0.114
-610.230	337.210	0.150	0.292
-609.215	136.327	-0.201	0.262
-608.201	-19.805	-0.277	0.171
-607.186	-17.962	0.181	0.114
-606.171	800.000	0.048	0.146
-605.157	-200.000	-0.031	0.160
-604.142	-68.004	0.154	0.060
-603.128	87.486	-0.129	0.143
-602.113	379.984	-0.111	0.228
-601.098	-32.777	0.088	0.049
-600.084	-200.000	0.029	-0.176
-599.069	56.628	-0.126	0.123
-598.055	-114.969	-0.286	0.054
-597.040	30.702	0.114	-0.098
-596.025	-153.973	-0.468	-0.032
-595.011	-51.440	0.210	0.098
-593.996	67.390	0.045	-0.046
-592.982	420.602	-0.051	0.108
-591.967	-166.172	-0.259	-0.011
-590.952	648.025	-0.044	0.113
-589.938	-71.206	0.297	0.111
-588.923	800.000	-0.102	-0.439
-587.909	47.681	0.128	-0.120
-586.894	-200.000	0.032	-0.155
-585.879	-160.017	0.095	0.005
-584.865	-50.460	-0.234	0.110
-583.850	-72.646	-0.440	-0.162
-582.836	177.400	0.176	-0.257
-581.821	32.555	-0.084	0.072
-580.806	11.496	0.285	-0.218
-579.792	-48.556	0.255	-0.123
-578.777	-56.427	-0.184	0.082
-577.763	-200.000	0.031	-0.139
-576.748	-32.509	-0.183	-0.102
-575.733	138.511	0.076	-0.100
-574.719	19.000	0.173	0.138
-573.704	-200.000	-0.026	0.308
-572.690	50.216	0.317	-0.300
-571.675	-200.000	0.039	0.229
-570.661	175.445	-0.085	-0.123
-569.646	-185.426	-0.389	0.006
-568.631	-17.546	-0.107	-0.068
-567.617	-200.000	0.076	-0.356
-566.602	-146.049	-0.312	0.028
-565.588	163.801	0.127	-0.178
-564.573	-200.000	0.058	0.276
-563.558	23.534	-0.039	0.032
-562.544	-102.703	-0.297	0.071
-561.529	-8.601	0.211	0.142
-560.515	144.028	-0.246	-0.328
-559.500	-12.287	-0.255	-0.166
-558.485	-55.741	-0.626	-0.280
-557.471	-23.251	-0.214	-0.129
-556.456	-141.078	-0.135	-0.014
-555.442	-120.662	-0.364	-0.061
-554.427	-157.690	-0.245	0.015
-553.412	-95.693	-0.093	0.025
-552.398	68.664	0.039	-0.039
-551.383	-31.549	0.434	0.244
-550.369	-57.364	-0.216	-0.095
-549.354	430.351	-0.063	0.136
-548.339	-200.000	0.013	-0.219
-547.325	7.793	0.240	0.180
-546.310	193.398	0.140	0.211
-545.296	-23.656	-0.191	-0.115
-544.281	-36.605	0.260	0.139
-543.266	800.000	0.081	-0.325
-542.252	-200.000	-0.002	0.173
-541.237	-123.555	-0.208	-0.033
-540.223	156.480	0.079	0.109
-539.208	-200.000	0.025	0.288
-538.193	-200.000	0.048	-0.274
-537.179	337.555	-0.047	-0.091
-536.164	-127.157	-0.122	-0.018
-535.150	-200.000	-0.021	-0.127
-534.135	35.733	0.115	0.101
-533.121	-166.872	-0.333	-0.014
-532.106	-95.009	-0.190	-0.051
-531.091	-104.380	0.197	0.046
-530.077	89.466	0.126	0.140
-529.062	-8.788	0.059	0.040
-528.048	-169.802	-0.239	-0.009
-527.033	116.718	-0.182	-0.223
-526.018	212.238	-0.216	0.339
-525.004	-200.000	-0.008	0.283
-523.989	-71.520	0.250	-0.093
-522.975	-39.556	-0.094	-0.049
-521.960	-200.000	0.028	-0.234
-520.945	11.118	0.300	-0.229
-519.931	36.076	0.254	-0.223
-518.916	191.184	0.154	0.231
-517.902	625.272	-0.058	-0.147
-516.887	103.879	-0.070	-0.083
-515.872	-172.253	-0.161	-0.005
-514.858	-27.580	0.244	-0.141
-513.843	800.000	0.026	-0.075
-512.829	40.324	0.050	-0.045
-511.814	-91.034	0.114	0.033
-510.799	-62.380	0.095	-0.039
-509.785	342.766	0.018	-0.036
-508.770	-94.642	-0.283	0.077
-507.756	53.262	0.226	0.216
-506.741	103.383	0.200	-0.234
-505.726	25.699	-0.165	0.137
-504.712	-107.725	-0.054	0.012
-503.697	-86.979	-0.167	-0.051
-502.683	-117.355	0.118	0.021
-501.668	-200.000	0.033	0.277
-500.653	-200.000	-0.018	0.081
-499.639	-104.060	-0.084	-0.020
-498.624	800.000	-0.049	0.205
-497.610	-200.000	-0.012	-0.071
-496.595	-85.850	-0.455	-0.141
-495.581	2.125	-0.228	-0.164
-494.566	-200.000	-0.023	0.238
-493.551	-12.221	0.084	0.055
-492.537	-100.126	-0.088	-0.022
-491.522	231.666	-0.076	0.124
-490.508	623.786	-0.105	-0.264
-489.493	-200.000	-0.022	0.348
-488.478	352.745	-0.120	-0.238
-487.464	-75.826	0.206	-0.073
-486.449	-100.940	0.089	-0.022
-485.435	-147.095	-0.068	0.006
-484.420	-200.000	-0.051	0.360
-483.405	71.959	-0.041	-0.043
-482.391	111.018	0.262	-0.314
-481.376	299.450	0.079	-0.145
-480.362	-200.000	0.027	0.361
-479.347	-174.911	0.267	0.007
-478.332	-200.000	-0.018	-0.162
-477.318	8.490	0.105	0.079
-476.303	5.322	0.191	0.141
-475.289	-185.606	0.318	0.005
-474.274	-164.997	0.080	-0.004
-473.259	-73.740	-0.181	-0.065
-472.245	-94.589	-0.175	0.048
-471.230	800.000	0.028	-0.095
-470.216	-93.787	0.189	0.052
-469.201	-200.000	0.002	0.118
-468.186	-19.500	-0.310	0.191
-467.172	279.207	-0.274	0.487
-466.157	-167.904	0.209	0.008
-465.143	800.000	0.066	0.253
-464.128	800.000	0.091	0.294
-463.113	78.470	0.261	-0.278
-462.099	-107.378	-0.172	-0.038
-461.084	-12.379	-0.099	0.064
-460.070	-141.849	0.403	0.040
-459.055	74.423	-0.180	0.188
-458.040	-200.000	0.027	0.242
-457.026	-200.000	-0.047	-0.258
-456.011	498.018	-0.051	-0.117
-454.997	23.870	0.190	-0.155
-453.982	277.085	-0.066	-0.117
-452.968	-5.212	0.355	-0.243
-451.953	-79.094	0.067	-0.023
-450.938	-91.668	-0.233	-0.066
-449.924	15.815	0.109	-0.085
-448.909	129.316	0.129	0.164
-447.895	-52.221	0.170	-0.078
-446.880	-200.000	0.023	0.199
-445.865	284.641	0.076	-0.136
-444.851	732.855	-0.101	0.269
-443.836	405.673	-0.046	0.096
-442.822	800.000	-0.077	0.242
-441.807	-161.242	0.273	0.014
-440.792	-152.958	-0.113	0.008
-439.778	-44.549	-0.374	-0.186
-438.763	-56.589	-0.229	0.101
-437.749	-40.358	0.187	0.097
-436.734	163.880	-0.195	0.273
-435.719	-200.000	-0.003	0.343
-434.705	800.000	-0.161	0.477
-433.690	800.000	0.031	-0.125
-432.676	-126.264	0.135	0.020
-431.661	800.000	0.048	0.193
-430.646	-99.298	0.203	-0.051
-429.632	-86.573	0.342	0.104
-428.617	75.676	-0.174	0.183
-427.603	-200.000	0.009	-0.054
-426.588	203.596	-0.021	0.032
-425.573	-144.401	0.098	0.009
-424.559	-200.000	-0.036	-0.202
-423.544	465.898	-0.130	-0.288
-422.530	56.058	0.194	-0.187
-421.515	-146.831	0.067	-0.006
-420.500	234.105	-0.051	0.083
-419.486	-7.859	-0.191	0.128
-418.471	-20.566	-0.278	0.169
-417.457	-200.000	0.014	0.313
-416.442	247.052	0.145	0.243
-415.428	-111.762	-0.157	0.031
-414.413	-33.730	-0.233	0.127
-413.398	70.596	0.207	0.213
-412.384	-104.840	0.230	0.053
-411.369	509.118	-0.147	0.339
-410.355	-10.803	0.087	0.057
-409.340	186.793	-0.094	0.140
-408.325	71.845	0.068	0.070
-407.311	265.799	-0.090	0.156
-406.296	39.452	-0.237	0.211
-405.282	14.907	0.321	-0.249
-404.267	-105.967	0.099	0.022
-403.252	68.990	0.172	0.176
-402.238	589.102	-0.176	0.430
-401.223	20.311	0.213	-0.171
-400.209	22.206	0.086	0.069
-399.194	-78.539	-0.052	0.018
-398.179	389.550	-0.012	-0.024
-397.165	196.803	0.075	0.113
-396.150	32.814	-0.163	0.140
-395.136	-117.346	0.219	-0.039
-394.121	-36.657	-0.062	-0.033
-393.106	800.000	0.033	0.092
-392.092	-27.116	0.198	-0.115
-391.077	618.650	-0.061	0.151
-390.063	800.000	0.092	0.371
-389.048	-72.879	-0.194	0.071
-388.033	-70.530	-0.227	-0.085
-387.019	-83.726	-0.122	0.039
-386.004	800.000	-0.043	-0.142
-384.990	-80.724	0.134	0.044
-383.975	97.935	0.150	-0.172
-382.960	-200.000	0.075	-0.398
-381.946	204.292	-0.064	-0.099
-380.931	-67.016	-0.274	0.107
-379.917	316.774	0.116	-0.217
-378.902	-200.000	0.049	-0.324
-377.888	633.594	0.060	-0.152
-376.873	110.055	-0.091	0.108
-375.858	-97.868	0.242	0.062
-374.844	-30.036	0.234	-0.132
-373.829	-98.373	0.330	0.084
-372.815	-60.145	-0.081	-0.034
-371.800	-43.447	0.085	0.043
-370.785	-33.627	-0.108	0.059
-369.771	-125.283	-0.331	-0.050
-368.756	-200.000	0.024	0.214
-367.742	800.000	0.052	0.158
-366.727	414.414	0.072	-0.152
-365.712	368.360	0.052	0.105
-364.698	-200.000	-0.006	0.105
-363.683	-119.284	0.370	-0.064
-362.669	-40.728	0.144	0.074
-361.654	538.830	-0.088	0.208
-360.639	-153.016	-0.149	0.010
-359.625	-46.784	-0.075	-0.036
-358.610	-148.451	-0.214	0.017
-357.596	-61.560	0.116	-0.048
-356.581	-156.495	0.270	0.017
-355.566	-133.143	-0.172	0.022
-354.552	-200.000	-0.012	-0.063
-353.537	424.117	0.104	-0.222
-352.523	-80.969	0.633	-0.208
-351.508	-94.975	-0.205	0.055
-350.493	-69.295	-0.067	0.025
-349.479	800.000	-0.012	0.040
-348.464	-200.000	0.012	-0.055
-347.450	-200.000	0.012	0.194
-346.435	-200.000	0.020	-0.469
-345.420	58.579	0.206	0.201
-344.406	56.826	-0.213	-0.206
-343.391	249.097	-0.046	-0.078
-342.377	-89.583	-0.297	0.086
-341.362	480.317	0.042	-0.094
-340.348	378.263	0.005	0.010
-339.333	-200.000	0.033	0.234
-338.318	378.976	0.020	-0.041
-337.304	-72.730	-0.169	-0.062
-336.289	-200.000	0.005	-0.169
-335.275	367.654	0.037	-0.073
-334.260	-117.779	0.322	-0.057
-333.245	74.397	-0.209	-0.217
-332.231	-33.247	0.173	0.095
-331.216	-200.000	0.029	0.257
-330.202	-32.930	-0.079	0.043
-329.187	-200.000	0.025	0.186
-328.172	-101.987	-0.265	0.063
-327.158	-85.414	0.190	-0.059
-326.143	140.927	0.145	0.189
-325.129	17.343	-0.172	0.135
-324.114	-200.000	0.041	-0.246
-323.099	-78.211	-0.174	0.059
-322.085	-99.137	0.176	-0.044
-321.070	-200.000	-0.023	0.121
-320.056	-40.595	-0.197	-0.101
-319.041	-145.167	-0.073	0.007
-318.026	1.274	-0.090	-0.064
-317.012	-27.239	-0.064	0.037
-315.997	-200.000	0.004	0.073
-314.983	100.363	-0.299	-0.344
-313.968	-79.920	0.045	-0.015
-312.953	116.162	0.162	0.197
-311.939	-200.000	0.045	-0.279
-310.924	-200.000	-0.054	0.233
-309.910	-200.000	-0.032	0.252
-308.895	-131.431	0.366	0.048
-307.880	-163.249	0.138	-0.007
-306.866	-155.983	0.326	-0.020
-305.851	111.125	0.080	-0.095
-304.837	-76.244	-0.244	-0.085
-303.822	-200.000	-0.036	-0.294
-302.807	-200.000	0.000	0.206
-301.793	-200.000	-0.065	-0.306
-300.778	159.798	0.166	-0.229
-299.764	-200.000	0.013	-0.328
-298.749	126.014	-0.169	-0.211
-297.735	112.561	-0.237	0.283
-296.720	369.893	-0.080	-0.160
-295.705	800.000	0.042	0.127
-294.691	-200.000	0.091	-0.433
-293.676	-45.109	-0.031	-0.015
-292.662	-26.271	0.348	-0.202
-291.647	800.000	-0.071	0.279
-290.632	-20.437	-0.130	-0.079
-289.618	-71.700	-0.150	-0.055
-288.603	27.191	-0.103	0.085
-287.589	-65.564	-0.081	-0.032
-286.574	-200.000	-0.034	-0.210
-285.559	189.013	0.070	-0.104
-284.545	-184.781	0.351	0.006
-283.530	-140.671	-0.170	0.017
-282.516	-200.000	-0.002	0.134
-281.501	-169.403	0.188	-0.007
-280.486	27.563	-0.310	0.257
-279.472	142.372	-0.231	0.303
-278.457	313.427	0.148	-0.276
-277.443	81.558	0.135	0.144
-276.428	-200.000	-0.017	-0.243
-275.413	-132.243	-0.305	-0.039
-274.399	397.170	0.032	-0.067
-273.384	-172.528	0.257	0.008
-272.370	17.145	-0.116	-0.091
-271.355	800.000	-0.037	-0.116
-270.340	-42.372	0.259	-0.131
-269.326	-200.000	-0.154	-0.000
-268.311	800.000	-0.077	-0.281
-267.297	49.899	-0.222	0.206
-266.282	-200.000	-0.025	0.331
-265.267	-151.620	0.124	-0.009
-264.253	81.180	0.091	0.097
-263.238	-124.882	0.211	0.032
-262.224	-74.316	-0.072	0.026
-261.209	-200.000	0.003	-0.084
-260.195	114.954	0.108	-0.130
-259.180	-24.591	-0.084	0.049
-258.165	277.177	0.048	0.084
-257.151	800.000	-0.087	0.343
-256.136	-200.000	-0.018	0.115
-255.122	-200.000	0.020	0.206
-254.107	-164.082	0.024	0.001
-253.092	547.493	0.021	-0.050
-252.078	-200.000	0.008	-0.088
-251.063	80.408	-0.217	0.230
-250.049	-200.000	-0.038	-0.328
-249.034	800.000	-0.032	-0.101
-248.019	800.000	-0.022	0.084
-247.005	-7.760	0.059	0.039
-245.990	-127.691	-0.335	0.048
-244.976	264.953	0.100	0.171
-243.961	-38.724	0.636	0.331
-242.946	-100.750	-0.136	0.033
-241.932	286.509	-0.167	-0.298
-240.917	62.800	0.122	-0.120
-239.903	-13.753	-0.208	0.133
-238.888	5.622	0.163	-0.118
-237.873	81.716	-0.085	0.090
-236.859	761.230	-0.103	0.274
-235.844	2.459	-0.246	0.176
-234.830	-172.607	0.134	-0.004
-233.815	59.153	0.248	-0.240
-232.800	-170.671	-0.252	-0.009
-231.786	69.235	0.015	-0.015
-230.771	232.232	-0.113	-0.183
-229.757	-200.000	0.038	-0.181
-228.742	800.000	0.035	0.113
-227.727	800.000	0.030	0.082
-226.713	74.776	-0.144	0.149
-225.698	-105.504	0.279	0.063
-224.684	332.951	0.087	0.165
-223.669	-78.474	-0.114	0.039
-222.655	-22.118	-0.168	0.101
-221.640	-28.767	0.300	0.170
-220.625	-38.262	-0.095	-0.049
-219.611	-200.000	-0.005	-0.043
-218.596	-200.000	0.080	-0.398
-217.582	-200.000	0.021	0.237
-216.567	-175.576	0.278	0.007
-215.552	-2.823	0.193	-0.133
-214.538	45.890	0.124	-0.113
-213.523	-200.000	0.019	-0.237
-212.509	-1.829	0.309	-0.215
-211.494	83.837	0.366	-0.394
-210.479	9.879	-0.239	-0.179
-209.465	800.000	0.036	-0.150
-208.450	250.430	-0.130	0.218
-207.436	-200.000	0.042	-0.201
-206.421	462.654	0.125	-0.275
-205.406	-106.732	0.064	-0.014
-204.392	-96.389	0.233	0.061
-203.377	-184.791	0.036	-0.001
-202.363	800.000	-0.113	-0.343
-201.348	-3.966	0.129	0.088
-200.333	-152.013	0.178	0.013
-199.319	-128.036	0.053	-0.008
-198.304	184.776	0.150	-0.219
-197.290	-200.000	0.014	0.290
-196.275	-200.000	-0.085	0.467
-195.260	-65.840	-0.126	-0.050
-194.246	-200.000	-0.061	-0.281
-193.231	-52.026	0.258	-0.118
-192.217	800.000	-0.106	-0.382
-191.202	110.172	-0.120	-0.142
-190.187	-87.796	0.157	0.047
-189.173	800.000	0.074	0.211
-188.158	-30.683	0.276	-0.154
-187.144	59.650	0.197	0.191
-186.129	15.264	-0.142	-0.110
-185.114	4.158	-0.188	0.136
-184.100	800.000	-0.053	0.222
-183.085	166.689	0.142	-0.198
-182.071	-200.000	-0.004	0.244
-181.056	128.297	0.200	-0.251
-180.042	-19.635	-0.273	-0.166
-179.027	-200.000	0.020	-0.363
-178.012	96.784	-0.216	0.244
-176.998	-102.524	-0.303	0.071
-175.983	133.654	-0.089	-0.113
-174.969	-87.681	0.046	-0.014
-173.954	88.152	-0.266	0.290
-172.939	-45.921	0.189	-0.092
-171.925	-162.436	0.015	0.001
-170.910	180.462	0.063	0.091
-169.896	507.927	-0.078	-0.178
-168.881	800.000	0.028	0.089
-167.866	340.846	-0.205	0.393
-166.852	95.803	-0.039	-0.043
-165.837	189.150	0.179	-0.264
-164.823	-165.048	-0.116	0.005
-163.808	800.000	-0.032	0.112
-162.793	5.819	-0.273	-0.199
-161.779	32.406	-0.277	-0.235
-160.764	66.214	-0.046	0.046
-159.750	800.000	0.096	0.410
-158.735	42.623	0.092	0.083
-157.720	-53.528	0.558	-0.251
-156.706	47.161	-0.110	-0.101
-155.691	800.000	-0.062	-0.201
-154.677	157.984	-0.106	-0.145
-153.662	800.000	0.050	0.171
-152.647	367.865	0.060	0.120
-151.633	-58.493	0.044	0.019
-150.618	-200.000	0.053	0.323
-149.604	-109.684	-0.234	0.048
-148.589	-68.787	0.068	-0.026
-147.574	-85.549	0.190	-0.058
-146.560	-200.000	-0.054	-0.395
-145.545	-125.767	-0.394	-0.058
-144.531	-77.505	0.143	-0.049
-143.516	361.038	0.074	0.145
-142.502	-63.538	0.248	0.100
-141.487	233.562	0.045	0.073
-140.472	-200.000	-0.022	0.218
-139.458	-56.969	0.204	0.089
-138.443	13.564	0.159	-0.122
-137.429	31.707	0.082	-0.070
-136.414	60.741	-0.223	-0.217
-135.399	-66.726	0.286	-0.111
-134.385	-200.000	-0.016	0.368
-133.370	-200.000	0.031	0.244
-132.356	19.295	-0.211	0.166
-131.341	-73.690	-0.125	-0.045
-130.326	-55.028	0.112	0.050
-129.312	-142.424	-0.044	-0.004
-128.297	800.000	-0.037	-0.112
-127.283	57.856	0.266	-0.256
-126.268	-160.108	0.208	-0.011
-125.253	280.228	0.142	0.249
-124.239	-28.090	0.292	-0.166
-123.224	-200.000	0.004	0.114
-122.210	-200.000	0.023	0.139
-121.195	-38.017	-0.296	-0.154
