DTS Sentinel unit serial number:	SN413079Multiplexer serial number:	ORYXHardware model number:	OX4-SRSoftware version number:	ORYX F/W v4.00 Oryx Data Collector v3.7.2.0data status	okinstallation	princeton_trtdifferential loss correction	single-endedforward channel	channel 1reverse channel	N/Adate	2019/09/18time	16:26:35forward acquisition time	60.00reverse acquisition time	0.00gamma	496.2192k internal	0.2293k external	0.2293temperature offset calibration	0.9995default loss term (dB/km)	0.3790temperature slope calibration	1.0000multiplexer offset coefficient	1.0000multiplexer slope coefficient	1.0000fibre end	0.00T internal ref (°C)	39.02T ext. ref 1 (°C)	0.82T ext. ref 2 (°C)	36.09length (m)	temperature (°C)	Stokes	anti-Stokes-747.200	-200.000	-0.009	-0.096
-746.185	30.234	-0.176	-0.154
-745.171	-64.317	-0.200	-0.083
-744.156	-200.000	-0.010	-0.078
-743.142	-200.000	0.015	0.132
-742.127	-153.356	-0.224	-0.016
-741.112	571.374	0.029	-0.073
-740.098	-200.000	-0.052	0.358
-739.083	-20.894	-0.040	-0.025
-738.069	-200.000	0.001	0.018
-737.054	-113.777	0.070	0.014
-736.039	188.245	-0.051	0.078
-735.025	-129.130	-0.215	0.031
-734.010	-87.777	-0.188	-0.058
-732.996	181.371	0.162	-0.243
-731.981	477.572	-0.073	0.169
-730.966	130.683	0.054	0.071
-729.952	70.876	0.162	0.171
-728.937	-71.554	0.109	-0.042
-727.923	28.583	-0.136	0.117
-726.908	348.779	0.163	-0.329
-725.894	-200.000	-0.023	0.327
-724.879	-200.000	-0.105	-0.530
-723.864	213.756	-0.065	0.105
-722.850	74.174	0.064	-0.069
-721.835	138.764	-0.032	-0.043
-720.821	800.000	0.086	-0.381
-719.806	6.818	0.286	-0.217
-718.791	9.347	-0.156	0.120
-717.777	-141.146	0.201	0.021
-716.762	239.368	-0.150	0.255
-715.748	-200.000	0.056	-0.314
-714.733	31.653	0.052	0.045
-713.718	126.233	-0.203	-0.262
-712.704	-200.000	-0.005	-0.066
-711.689	-136.893	-0.109	-0.013
-710.675	-200.000	-0.121	0.000
-709.660	-128.467	0.465	-0.067
-708.645	-125.387	-0.198	0.031
-707.631	186.827	0.179	-0.272
-706.616	-94.328	0.046	-0.013
-705.602	755.978	-0.105	0.292
-704.587	50.058	-0.252	-0.243
-703.572	-200.000	-0.008	-0.404
-702.558	456.096	0.075	-0.170
-701.543	-154.197	0.098	-0.007
-700.529	198.750	0.079	-0.123
-699.514	-80.362	-0.111	-0.038
-698.499	-97.062	-0.366	-0.098
-697.485	-81.108	-0.110	0.037
-696.470	-123.296	0.277	-0.045
-695.456	-190.302	-0.337	-0.004
-694.441	292.805	-0.040	0.074
-693.426	199.644	-0.092	0.145
-692.412	66.746	0.106	0.110
-691.397	800.000	0.026	0.078
-690.383	-131.436	-0.259	0.035
-689.368	28.241	-0.181	-0.156
-688.354	327.765	-0.040	-0.079
-687.339	-200.000	0.049	0.289
-686.324	81.273	-0.162	0.178
-685.310	800.000	0.031	-0.106
-684.295	57.153	0.077	-0.077
-683.281	800.000	-0.078	0.246
-682.266	646.482	-0.044	0.115
-681.251	5.944	-0.272	0.205
-680.237	19.659	0.159	0.130
-679.222	-2.686	-0.346	0.247
-678.208	191.566	-0.038	-0.058
-677.193	-148.157	-0.287	-0.024
-676.178	23.054	-0.064	-0.053
-675.164	71.235	0.064	-0.068
-674.149	-38.936	-0.160	-0.086
-673.135	68.394	-0.227	0.237
-672.120	-71.973	0.215	0.081
-671.105	-42.327	0.373	0.195
-670.091	125.588	0.176	0.227
-669.076	-99.549	-0.286	0.073
-668.062	-200.000	-0.007	0.084
-667.047	-21.971	0.204	-0.127
-666.032	2.847	-0.152	0.113
-665.018	111.222	0.122	0.150
-664.003	-0.848	0.301	-0.217
-662.989	-200.000	0.060	-0.328
-661.974	-200.000	-0.006	-0.034
-660.959	-134.199	0.144	0.018
-659.945	-28.713	0.245	-0.144
-658.930	-200.000	-0.045	-0.256
-657.916	800.000	0.109	-0.323
-656.901	-200.000	0.020	0.349
-655.886	800.000	-0.017	0.058
-654.872	-200.000	-0.037	-0.235
-653.857	-200.000	-0.080	0.000
-652.843	-200.000	-0.008	-0.099
-651.828	-180.419	0.508	0.011
-650.814	261.844	-0.088	0.155
-649.799	800.000	-0.075	0.250
-648.784	539.983	-0.093	-0.225
-647.770	118.631	0.137	0.173
-646.755	-19.420	-0.217	-0.137
-645.741	-46.577	0.182	0.091
-644.726	-151.122	-0.313	0.024
-643.711	-107.776	0.265	0.059
-642.697	-200.000	0.051	-0.347
-641.682	-122.140	-0.099	-0.017
-640.668	148.041	-0.133	-0.183
-639.653	17.685	-0.207	-0.168
-638.638	503.089	-0.081	0.192
-637.624	-200.000	0.022	0.106
-636.609	-127.091	-0.052	0.008
-635.595	-15.452	-0.401	-0.261
-634.580	-200.000	0.031	-0.173
-633.565	4.788	-0.168	0.126
-632.551	800.000	0.007	-0.030
-631.536	-55.793	0.177	-0.081
-630.522	800.000	-0.055	-0.229
-629.507	-145.548	-0.139	-0.013
-628.492	521.097	-0.023	-0.055
-627.478	-169.320	0.180	0.007
-626.463	-194.470	-0.099	-0.001
-625.449	-188.368	-0.053	0.001
-624.434	6.423	0.013	-0.010
-623.419	1.719	-0.128	-0.094
-622.405	-113.916	0.244	0.048
-621.390	306.187	-0.116	0.219
-620.376	17.169	-0.097	0.078
-619.361	-152.401	-0.240	-0.018
-618.346	778.296	0.054	0.150
-617.332	18.374	0.157	0.128
-616.317	295.396	-0.234	-0.436
-615.303	35.326	0.110	0.098
-614.288	-200.000	0.029	-0.142
-613.273	12.781	0.383	0.301
-612.259	38.842	0.200	0.182
-611.244	41.506	0.215	0.199
-610.230	-200.000	-0.230	-0.001
-609.215	430.509	-0.043	0.095
-608.201	108.068	-0.140	-0.169
-607.186	-103.599	0.130	-0.031
-606.171	-3.024	0.071	0.050
-605.157	435.440	0.093	-0.206
-604.142	800.000	0.031	0.097
-603.128	84.974	0.085	0.094
-602.113	44.074	0.103	0.096
-601.098	-200.000	0.014	0.113
-600.084	232.655	-0.050	0.083
-599.069	34.694	0.121	0.108
-598.055	113.872	-0.164	0.203
-597.040	-200.000	0.032	0.271
-596.025	-200.000	-0.034	-0.255
-595.011	24.297	-0.336	-0.282
-593.996	99.250	0.026	0.031
-592.982	800.000	0.108	-0.351
-591.967	13.700	0.127	0.100
-590.952	-133.572	0.267	-0.034
-589.938	1.788	0.159	-0.117
-588.923	-144.257	-0.264	0.025
-587.909	-88.382	-0.392	0.119
-586.894	-21.167	-0.275	-0.171
-585.879	118.861	-0.194	-0.244
-584.865	800.000	0.032	-0.096
-583.850	800.000	0.203	-0.628
-582.836	-200.000	0.005	-0.147
-581.821	800.000	-0.071	-0.204
-580.806	365.049	0.082	0.169
-579.792	162.013	-0.066	-0.094
-578.777	-145.088	-0.380	-0.035
-577.763	65.085	-0.168	-0.173
-576.748	219.069	0.038	-0.062
-575.733	27.561	-0.185	0.158
-574.719	-6.733	0.363	0.251
-573.704	-70.658	-0.208	0.080
-572.690	222.530	-0.098	0.160
-571.675	-126.407	0.163	0.025
-570.661	-126.912	-0.287	0.043
-569.646	-24.178	-0.236	-0.143
-568.631	403.368	0.029	-0.062
-567.617	-200.000	-0.016	-0.154
-566.602	800.000	-0.037	-0.158
-565.588	134.265	0.077	-0.102
-564.573	800.000	0.041	-0.137
-563.558	-4.313	-0.118	0.083
-562.544	-126.523	0.338	-0.051
-561.529	-122.970	0.187	0.031
-560.515	-153.138	0.084	-0.006
-559.500	-170.765	0.210	0.007
-558.485	-107.628	0.230	-0.051
-557.471	426.247	0.101	0.220
-556.456	-10.281	-0.280	-0.189
-555.442	-200.000	0.023	-0.242
-554.427	-51.060	-0.011	-0.005
-553.412	800.000	0.049	0.212
-552.398	-200.000	0.015	0.184
-551.383	34.683	-0.150	0.133
-550.369	52.504	-0.217	0.211
-549.354	102.599	0.278	0.331
-548.339	-145.027	0.062	0.006
-547.325	180.954	-0.145	0.216
-546.310	108.981	0.317	-0.385
-545.296	-110.620	-0.181	0.038
-544.281	800.000	0.052	-0.212
-543.266	-152.976	0.386	-0.028
-542.252	-33.854	0.165	0.092
-541.237	-200.000	-0.016	-0.301
-540.223	-83.484	-0.095	-0.031
-539.208	52.685	0.142	-0.137
-538.193	144.964	-0.185	0.251
-537.179	-153.992	-0.130	-0.009
-536.164	-200.000	0.010	-0.249
-535.150	578.783	0.127	-0.316
-534.135	800.000	-0.071	0.314
-533.121	-147.637	-0.180	0.015
-532.106	138.914	0.169	-0.225
-531.091	-131.629	0.303	-0.040
-530.077	-36.151	-0.103	-0.057
-529.062	-93.593	0.354	-0.099
-528.048	-65.723	0.147	-0.060
-527.033	-127.353	0.187	-0.028
-526.018	27.763	-0.231	0.198
-525.004	-12.531	-0.211	-0.140
-523.989	-36.223	0.491	-0.269
-522.975	-200.000	0.033	-0.245
-521.960	463.360	0.084	-0.190
-520.945	-28.705	0.172	-0.100
-519.931	-74.890	-0.094	-0.034
-518.916	-147.182	0.025	0.002
-517.902	56.906	0.228	-0.225
-516.887	-60.943	0.210	-0.090
-515.872	285.624	-0.097	0.177
-514.858	312.947	-0.076	-0.144
-513.843	-26.402	-0.127	-0.075
-512.829	-200.000	-0.029	0.156
-511.814	-125.593	-0.307	0.047
-510.799	-119.202	-0.197	0.035
-509.785	-200.000	0.002	-0.172
-508.770	-152.891	-0.171	-0.012
-507.756	-166.197	-0.448	-0.019
-506.741	-200.000	-0.024	0.373
-505.726	-200.000	0.298	-0.001
-504.712	109.211	0.093	-0.113
-503.697	-122.277	0.142	-0.024
-502.683	412.227	-0.084	-0.181
-501.668	716.490	-0.073	-0.196
-500.653	83.602	0.258	-0.285
-499.639	206.423	-0.115	-0.182
-498.624	-200.000	-0.025	0.180
-497.610	800.000	0.029	0.086
-496.595	-50.705	0.117	0.056
-495.581	-142.134	0.073	0.007
-494.566	98.962	-0.317	-0.370
-493.551	-140.819	-0.122	0.013
-492.537	383.564	0.059	-0.124
-491.522	-200.000	-0.033	-0.231
-490.508	-52.222	0.148	-0.069
-489.493	-52.662	0.258	-0.121
-488.478	-171.156	0.085	0.003
-487.464	-14.694	0.261	-0.170
-486.449	-200.000	-0.099	-0.450
-485.435	-110.248	-0.155	0.033
-484.420	-38.744	-0.065	-0.035
-483.405	137.331	-0.119	0.158
-482.391	-105.204	-0.207	-0.048
-481.376	-144.569	0.215	-0.020
-480.362	136.667	-0.107	0.142
-479.347	800.000	0.042	-0.158
-478.332	-49.324	0.170	0.082
-477.318	-47.286	-0.058	-0.029
-476.303	195.377	-0.102	0.157
-475.289	-200.000	0.009	0.305
-474.274	-86.415	-0.270	0.084
-473.259	-77.504	0.236	0.083
-472.245	-65.230	0.031	0.013
-471.230	-168.018	0.242	-0.010
-470.216	2.201	0.166	0.122
-469.201	-122.082	-0.349	0.058
-468.186	199.558	-0.229	0.356
-467.172	689.815	-0.045	-0.119
-466.157	-17.047	0.178	-0.114
-465.143	136.721	0.106	-0.140
-464.128	-153.828	-0.355	0.025
-463.113	-127.033	-0.284	0.042
-462.099	6.558	-0.228	-0.172
-461.084	610.730	-0.032	-0.080
-460.070	-55.065	-0.052	-0.024
-459.055	-102.334	0.520	-0.126
-458.040	16.006	0.210	-0.168
-457.026	18.879	0.093	0.076
-456.011	168.586	0.084	0.122
-454.997	800.000	-0.082	0.266
-453.982	800.000	0.054	0.207
-452.968	469.769	0.123	-0.280
-451.953	-75.962	0.227	0.081
-450.938	-119.259	0.372	0.066
-449.924	-73.841	-0.189	-0.069
-448.909	192.701	-0.019	0.030
-447.895	-83.044	-0.172	0.056
-446.880	-67.123	0.172	-0.068
-445.865	-40.799	0.216	0.113
-444.851	-86.401	-0.346	0.108
-443.836	800.000	0.034	-0.146
-442.822	563.112	0.099	0.241
-441.807	26.769	0.139	0.118
-440.792	-103.256	-0.041	-0.010
-439.778	800.000	-0.082	0.295
-438.763	29.600	-0.073	-0.063
-437.749	800.000	-0.068	-0.297
-436.734	-200.000	0.000	-0.261
-435.719	-33.215	-0.217	0.121
-434.705	134.268	-0.167	0.218
-433.690	-106.512	0.319	0.072
-432.676	8.393	0.155	0.118
-431.661	-68.174	-0.172	0.068
-430.646	432.740	-0.028	-0.062
-429.632	111.054	0.075	0.092
-428.617	-200.000	0.038	-0.277
-427.603	224.146	-0.241	0.393
-426.588	-193.512	0.146	0.001
-425.573	-70.451	0.253	0.097
-424.559	130.438	-0.142	-0.184
-423.544	-116.371	0.260	-0.049
-422.530	-19.194	0.251	-0.157
-421.515	-83.683	0.152	-0.049
-420.500	207.291	0.096	0.151
-419.486	99.036	-0.217	-0.253
-418.471	4.548	0.095	-0.071
-417.457	-129.147	0.329	0.046
-416.442	-106.268	0.303	0.069
-415.428	-39.241	-0.237	0.126
-414.413	-59.356	0.147	-0.064
-413.398	60.337	-0.060	0.060
-412.384	677.630	0.074	0.194
-411.369	-91.331	-0.165	0.048
-410.355	-85.608	-0.109	-0.034
-409.340	135.155	-0.210	0.275
-408.325	121.549	0.103	0.129
-407.311	-58.925	-0.297	-0.130
-406.296	-94.684	-0.160	0.044
-405.282	-200.000	-0.002	0.050
-404.267	34.103	-0.249	0.219
-403.252	-24.798	0.082	-0.049
-402.238	96.320	0.092	-0.106
-401.223	-68.150	0.253	0.099
-400.209	352.535	-0.110	0.221
-399.194	800.000	0.058	0.247
-398.179	-200.000	-0.017	0.194
-397.165	-68.537	-0.082	-0.032
-396.150	-18.268	-0.123	0.077
-395.136	-200.000	-0.022	-0.119
-394.121	6.863	-0.201	-0.151
-393.106	-169.357	-0.038	-0.001
-392.092	-112.013	0.072	0.015
-391.077	800.000	0.021	0.077
-390.063	57.006	-0.224	0.221
-389.048	-200.000	0.006	0.266
-388.033	401.931	-0.154	0.325
-387.019	242.648	0.108	0.183
-386.004	-200.000	-0.016	0.182
-384.990	-79.580	0.333	0.113
-383.975	-200.000	-0.029	-0.444
-382.960	104.052	0.187	0.222
-381.946	-200.000	0.014	0.079
-380.931	65.909	-0.187	0.191
-379.917	-12.745	0.064	-0.042
-378.902	-200.000	0.013	0.326
-377.888	314.436	0.060	-0.115
-376.873	-139.098	-0.225	0.025
-375.858	7.950	-0.156	0.118
-374.844	-74.016	-0.271	0.099
-373.829	800.000	-0.121	0.339
-372.815	-200.000	-0.027	0.368
-371.800	714.198	0.071	0.191
-370.785	65.307	0.092	0.094
-369.771	213.686	-0.130	-0.207
-368.756	-163.760	-0.350	0.017
-367.742	-200.000	0.005	-0.413
-366.727	800.000	-0.039	-0.136
-365.712	-200.000	-0.005	0.333
-364.698	800.000	-0.058	-0.215
-363.683	-136.558	0.111	0.013
-362.669	-58.033	0.100	0.044
-361.654	-200.000	-0.021	-0.230
-360.639	338.570	-0.099	-0.194
-359.625	-115.086	0.104	-0.020
-358.610	297.480	-0.044	-0.081
-357.596	-134.620	0.450	0.055
-356.581	36.022	0.071	0.063
-355.566	-65.139	-0.230	-0.094
-354.552	87.445	-0.144	0.161
-353.537	-200.000	0.007	0.354
-352.523	-200.000	-0.009	-0.084
-351.508	-71.131	0.054	0.020
-350.493	-10.138	0.118	-0.079
-349.479	-48.036	-0.270	0.132
-348.464	-200.000	0.018	0.119
-347.450	-6.758	-0.181	0.124
-346.435	-200.000	0.048	0.325
-345.420	-200.000	-0.003	0.041
-344.406	88.299	0.112	-0.125
-343.391	-200.000	-0.007	0.075
-342.377	-99.488	0.050	-0.013
-341.362	736.267	0.088	-0.237
-340.348	133.302	0.102	-0.133
-339.333	-66.587	0.207	-0.083
-338.318	-200.000	-0.008	-0.309
-337.304	-64.312	0.244	-0.100
-336.289	253.424	-0.178	0.306
-335.275	528.522	-0.176	-0.418
-334.260	-127.576	0.141	0.021
-333.245	-34.124	-0.280	-0.155
-332.231	-200.000	-0.015	-0.139
-331.216	-56.362	0.369	-0.165
-330.202	800.000	0.069	-0.210
-329.187	-119.550	0.048	-0.008
-328.172	69.631	-0.087	0.090
-327.158	163.009	0.045	0.063
-326.143	-40.483	0.320	-0.167
-325.129	143.721	-0.153	0.205
-324.114	-89.489	-0.146	-0.043
-323.099	-54.667	-0.361	-0.164
-322.085	-122.448	-0.324	-0.053
-321.070	164.014	-0.151	0.214
-320.056	-12.557	0.104	0.068
-319.041	234.604	-0.181	0.300
-318.026	-94.511	0.109	0.030
-317.012	800.000	0.083	0.276
-315.997	-75.679	0.148	0.053
-314.983	98.558	-0.268	-0.311
-313.968	35.801	0.091	0.080
-312.953	64.386	-0.224	0.227
-311.939	-200.000	-0.016	0.141
-310.924	-113.409	0.098	0.019
-309.910	-0.067	0.063	0.045
-308.895	-88.907	0.137	-0.041
-307.880	153.768	0.207	0.286
-306.866	-79.299	0.160	0.054
-305.851	-200.000	0.033	-0.173
-304.837	-200.000	-0.040	0.303
-303.822	800.000	-0.058	0.251
-302.807	-132.142	-0.342	0.045
-301.793	-153.298	0.342	0.024
-300.778	486.050	0.069	-0.157
-299.764	48.856	0.052	-0.049
-298.749	-70.338	0.131	0.050
-297.735	800.000	0.103	0.294
-296.720	-0.914	-0.166	-0.118
-295.705	472.004	0.162	0.366
-294.691	302.525	0.118	0.219
-293.676	114.746	-0.070	-0.086
-292.662	244.840	-0.134	-0.226
-291.647	365.607	-0.069	-0.141
-290.632	800.000	-0.072	0.293
-289.618	-200.000	-0.042	0.200
-288.603	253.773	-0.169	0.290
-287.589	253.696	0.095	0.163
-286.574	-46.725	0.223	-0.110
-285.559	366.801	0.054	0.109
-284.545	484.645	0.076	-0.175
-283.530	-61.505	-0.077	-0.033
-282.516	337.142	-0.122	0.239
-281.501	55.333	-0.177	-0.172
-280.486	-20.550	-0.176	0.108
-279.472	489.811	-0.076	-0.174
-278.457	-200.000	0.027	-0.186
-277.443	28.391	-0.377	-0.320
-276.428	-16.746	-0.298	-0.189
-275.413	800.000	0.081	0.250
-274.399	-69.357	0.265	0.102
-273.384	-200.000	-0.005	0.198
-272.370	-86.720	-0.445	0.137
-271.355	-8.704	-0.067	-0.045
-270.340	739.304	-0.051	-0.137
-269.326	-21.053	0.026	0.016
-268.311	-112.455	0.258	-0.052
-267.297	-99.746	-0.150	0.038
-266.282	187.500	0.104	-0.155
-265.267	800.000	0.048	-0.177
-264.253	-88.023	0.188	0.057
-263.238	-87.359	0.342	-0.104
-262.224	238.019	-0.043	-0.072
-261.209	-200.000	0.012	0.087
-260.195	-200.000	0.008	0.098
-259.180	313.647	0.081	-0.153
-258.165	-200.000	-0.008	-0.056
-257.151	280.316	0.041	-0.074
-256.136	-150.640	-0.330	-0.025
-255.122	667.895	-0.010	0.026
-254.107	-153.954	-0.313	0.021
-253.092	-15.985	-0.328	0.209
-252.078	-200.000	-0.008	-0.189
-251.063	-200.000	0.048	-0.267
-250.049	-40.930	0.220	0.114
-249.034	299.122	-0.117	-0.216
-248.019	800.000	-0.028	0.099
-247.005	-200.000	0.037	-0.272
-245.990	-152.196	-0.424	-0.031
-244.976	49.398	0.068	0.064
-243.961	154.129	0.138	0.190
-242.946	-71.773	-0.091	-0.034
-241.932	-200.000	-0.002	-0.042
-240.917	800.000	-0.028	-0.103
-239.903	97.927	0.289	-0.333
-238.888	-200.000	0.012	0.277
-237.873	184.656	0.084	0.125
-236.859	-42.708	0.208	-0.106
-235.844	-133.558	0.229	-0.029
-234.830	85.767	0.202	-0.223
-233.815	778.510	-0.168	-0.462
-232.800	378.320	0.084	0.172
-231.786	-67.009	0.205	-0.081
-230.771	-116.973	0.342	0.063
-229.757	-158.405	-0.103	-0.006
-228.742	-103.041	0.173	-0.041
-227.727	-200.000	0.006	-0.289
-226.713	-83.696	0.336	-0.108
-225.698	-145.976	-0.153	-0.014
-224.684	286.676	-0.054	-0.098
-223.669	-72.070	0.117	-0.044
-222.655	800.000	-0.060	0.228
-221.640	435.446	0.139	0.303
-220.625	-25.701	0.446	-0.264
-219.611	145.606	-0.044	0.059
-218.596	-195.640	-0.131	-0.001
-217.582	721.942	-0.077	-0.206
-216.567	-83.967	0.050	-0.016
-215.552	-79.985	0.184	-0.062
-214.538	800.000	0.058	0.198
-213.523	-61.069	0.305	-0.129
-212.509	29.531	-0.188	-0.160
-211.494	41.771	0.051	-0.046
-210.479	90.537	0.111	0.125
-209.465	-200.000	0.006	-0.120
-208.450	125.056	0.105	-0.132
-207.436	-15.980	-0.286	0.183
-206.421	-56.355	-0.138	-0.061
-205.406	-2.521	-0.239	-0.167
-204.392	59.560	-0.321	-0.317
-203.377	320.346	0.033	-0.063
-202.363	-113.067	-0.067	0.013
-201.348	271.217	-0.202	-0.356
-200.333	212.705	-0.062	0.097
-199.319	-56.081	-0.120	0.054
-198.304	-90.410	0.350	0.102
-197.290	-127.187	-0.231	-0.034
-196.275	-125.766	-0.358	0.054
-195.260	-71.518	0.248	0.093
-194.246	-111.902	-0.122	0.025
-193.231	6.571	0.108	-0.080
-192.217	620.558	0.107	0.269
-191.202	-200.000	-0.012	0.118
-190.187	720.321	0.057	0.151
-189.173	-200.000	-0.070	0.440
-188.158	544.190	-0.172	0.411
-187.144	-24.432	-0.294	0.176
-186.129	-200.000	0.011	0.146
-185.114	-200.000	0.007	-0.274
-184.100	39.871	0.205	0.184
-183.085	208.322	0.027	-0.043
-182.071	800.000	-0.120	-0.332
-181.056	499.107	-0.191	0.440
-180.042	97.032	-0.160	0.183
-179.027	14.479	0.206	0.161
-178.012	-200.000	-0.027	-0.180
-176.998	175.629	0.160	0.232
-175.983	95.018	0.038	-0.043
-174.969	330.312	-0.075	-0.145
-173.954	-95.123	-0.264	0.071
-172.939	723.232	0.041	0.109
-171.925	-16.300	0.089	0.056
-170.910	6.670	-0.087	0.065
-169.896	-90.022	0.297	-0.087
-168.881	529.506	0.085	0.201
-167.866	-56.381	0.309	-0.137
-166.852	-200.000	-0.003	-0.241
-165.837	800.000	0.031	-0.094
-164.823	14.724	0.223	0.174
-163.808	344.140	-0.039	0.076
-162.793	0.909	-0.075	-0.054
-161.779	800.000	-0.025	0.079
-160.764	-200.000	-0.003	-0.196
-159.750	-23.441	-0.199	0.119
-158.735	-39.755	0.200	-0.104
-157.720	-159.294	0.073	0.004
-156.706	286.657	0.097	0.175
-155.691	122.943	-0.084	-0.105
-154.677	-199.099	0.236	0.001
-153.662	-13.402	-0.063	-0.041
-152.647	-15.629	-0.242	-0.154
-151.633	-200.000	0.031	-0.139
-150.618	-200.000	0.021	0.240
-149.604	800.000	0.027	0.085
-148.589	-200.000	0.030	-0.273
-147.574	35.507	0.254	-0.223
-146.560	-92.492	-0.507	-0.143
-145.545	-137.753	-0.099	0.011
-144.531	195.484	0.141	0.215
-143.516	-71.988	-0.076	0.028
-142.502	800.000	0.125	0.474
-141.487	102.544	-0.057	0.067
-140.472	55.828	-0.251	0.243
-139.458	138.746	0.188	0.247
-138.443	118.050	0.151	-0.186
-137.429	204.950	0.104	-0.162
-136.414	552.920	0.078	0.188
-135.399	139.103	-0.259	-0.340
-134.385	-113.813	-0.125	0.024
-133.370	-124.683	-0.219	0.034
-132.356	800.000	-0.060	-0.261
-131.341	14.859	-0.213	-0.166
-130.326	-83.384	-0.129	-0.041
-129.312	756.149	0.106	-0.286
-128.297	17.899	-0.056	0.045
-127.283	13.994	0.118	-0.092
-126.268	800.000	-0.088	-0.383
-125.253	691.967	0.117	-0.307
-124.239	-200.000	0.018	0.140
-123.224	-108.731	0.106	-0.023
-122.210	800.000	-0.035	-0.153
-121.195	-57.094	-0.255	0.112
