DTS Sentinel unit serial number:	SN413079Multiplexer serial number:	ORYXHardware model number:	OX4-SRSoftware version number:	ORYX F/W v4.00 Oryx Data Collector v3.7.2.0data status	okinstallation	princeton_trtdifferential loss correction	single-endedforward channel	channel 1reverse channel	N/Adate	2019/09/14time	09:26:35forward acquisition time	60.00reverse acquisition time	0.00gamma	496.2192k internal	0.2322k external	0.2322temperature offset calibration	1.0077default loss term (dB/km)	0.3790temperature slope calibration	1.0000multiplexer offset coefficient	1.0000multiplexer slope coefficient	1.0000fibre end	0.00T internal ref (°C)	31.28T ext. ref 1 (°C)	3.83T ext. ref 2 (°C)	29.04length (m)	temperature (°C)	Stokes	anti-Stokes-747.200	608.786	0.105	-0.266
-746.185	49.712	0.122	0.116
-745.171	7.870	0.135	-0.102
-744.156	800.000	-0.076	0.259
-743.142	-26.375	0.052	-0.031
-742.127	-200.000	0.022	0.339
-741.112	800.000	-0.056	0.194
-740.098	-27.027	-0.432	0.255
-739.083	-61.655	0.252	0.107
-738.069	-50.582	-0.348	0.165
-737.054	-43.425	-0.149	-0.076
-736.039	-200.000	0.026	0.158
-735.025	-55.310	0.151	-0.068
-734.010	-49.318	-0.368	0.177
-732.996	-107.679	0.156	-0.035
-731.981	763.388	0.006	0.015
-730.966	-113.503	0.148	-0.029
-729.952	-200.000	0.068	-0.465
-728.937	-200.000	-0.017	-0.337
-727.923	470.460	-0.141	-0.320
-726.908	291.676	0.070	-0.129
-725.894	-200.000	-0.016	-0.082
-724.879	-64.741	-0.169	-0.069
-723.864	800.000	0.062	0.196
-722.850	-200.000	-0.013	-0.119
-721.835	-200.000	0.049	-0.260
-720.821	17.644	-0.178	0.143
-719.806	-38.103	-0.210	-0.113
-718.791	800.000	-0.041	0.119
-717.777	568.957	0.063	0.156
-716.762	-10.774	0.140	0.093
-715.748	439.264	-0.023	-0.050
-714.733	-200.000	0.018	-0.128
-713.718	-200.000	-0.027	-0.179
-712.704	519.536	-0.128	0.302
-711.689	-200.000	-0.063	0.298
-710.675	-78.777	0.024	-0.008
-709.660	800.000	0.034	-0.145
-708.645	-47.305	-0.077	-0.038
-707.631	-83.100	-0.280	-0.091
-706.616	81.092	-0.163	-0.178
-705.602	800.000	-0.098	-0.335
-704.587	-140.604	0.318	0.033
-703.572	-200.000	-0.002	0.363
-702.558	-105.237	-0.523	0.120
-701.543	270.100	-0.158	-0.280
-700.529	-86.571	-0.087	0.027
-699.514	-200.000	-0.018	-0.316
-698.499	58.348	0.123	-0.122
-697.485	21.508	-0.115	-0.095
-696.470	-94.907	0.156	0.042
-695.456	-105.952	0.405	-0.092
-694.441	-153.480	-0.377	-0.026
-693.426	-200.000	-0.013	-0.089
-692.412	-13.406	-0.226	-0.148
-691.397	-162.850	-0.249	0.012
-690.383	47.624	-0.346	-0.326
-689.368	106.770	-0.106	0.127
-688.354	254.634	-0.077	0.133
-687.339	76.353	0.030	-0.032
-686.324	1.387	0.428	-0.310
-685.310	16.201	-0.114	0.091
-684.295	462.762	0.055	-0.124
-683.281	-200.000	0.009	-0.074
-682.266	728.057	-0.056	-0.150
-681.251	275.992	0.066	-0.118
-680.237	-161.317	-0.144	-0.008
-679.222	69.278	-0.154	-0.160
-678.208	-176.541	0.124	-0.003
-677.193	-200.000	-0.035	-0.215
-676.178	-200.000	0.028	-0.191
-675.164	200.475	0.075	-0.116
-674.149	92.778	-0.195	0.222
-673.135	-98.562	0.120	0.031
-672.120	800.000	-0.080	-0.328
-671.105	800.000	-0.033	-0.095
-670.091	-38.034	-0.098	-0.052
-669.076	135.542	-0.214	-0.281
-668.062	800.000	-0.074	-0.246
-667.047	120.865	0.144	0.181
-666.032	82.061	-0.172	-0.188
-665.018	-200.000	0.030	0.353
-664.003	299.426	0.054	0.101
-662.989	-113.451	0.089	0.018
-661.974	254.608	0.122	-0.210
-660.959	-0.205	0.156	-0.112
-659.945	-129.028	-0.046	0.006
-658.930	-78.455	0.176	0.061
-657.916	-127.505	-0.297	0.043
-656.901	363.116	0.026	0.052
-655.886	-90.304	0.250	0.073
-654.872	86.294	0.149	0.165
-653.857	186.581	-0.160	-0.239
-652.843	-200.000	-0.032	-0.384
-651.828	29.938	-0.269	0.231
-650.814	800.000	0.115	0.323
-649.799	-50.790	0.118	0.056
-648.784	-58.127	-0.239	-0.105
-647.770	-53.316	0.281	0.130
-646.755	-141.944	-0.240	0.024
-645.741	413.466	0.046	-0.098
-644.726	-123.153	-0.211	-0.034
-643.711	-180.347	0.224	-0.005
-642.697	91.550	-0.222	0.251
-641.682	-130.506	-0.183	0.025
-640.668	169.084	-0.031	-0.044
-639.653	277.853	0.123	-0.220
-638.638	-7.638	-0.197	-0.134
-637.624	50.828	-0.021	-0.020
-636.609	-200.000	-0.014	0.118
-635.595	-71.024	-0.156	0.059
-634.580	-136.755	-0.427	-0.049
-633.565	-200.000	0.088	-0.452
-632.551	81.210	0.183	-0.199
-631.536	-167.051	-0.270	-0.011
-630.522	800.000	-0.004	-0.012
-629.507	-94.796	-0.231	0.063
-628.492	188.092	-0.071	0.107
-627.478	800.000	0.022	0.095
-626.463	-200.000	0.004	0.122
-625.449	-89.893	-0.210	-0.062
-624.434	-63.808	-0.127	0.052
-623.419	-74.460	-0.329	0.119
-622.405	-191.018	0.193	-0.002
-621.390	-44.114	-0.153	-0.077
-620.376	-50.127	-0.193	-0.092
-619.361	4.532	-0.099	-0.073
-618.346	566.449	0.134	-0.328
-617.332	-200.000	-0.017	0.123
-616.317	-200.000	0.002	0.421
-615.303	-200.000	0.007	-0.187
-614.288	-200.000	0.060	-0.277
-613.273	-30.759	-0.137	0.078
-612.259	88.608	-0.067	0.075
-611.244	231.436	0.055	-0.090
-610.230	-100.335	0.247	0.061
-609.215	-88.396	-0.101	-0.030
-608.201	-14.626	-0.172	-0.111
-607.186	-177.906	-0.343	-0.008
-606.171	-200.000	0.007	0.062
-605.157	-200.000	-0.003	0.045
-604.142	-12.329	0.301	0.198
-603.128	26.202	-0.208	-0.175
-602.113	323.864	-0.178	-0.342
-601.098	-19.172	0.039	-0.024
-600.084	-200.000	0.010	-0.321
-599.069	-150.539	-0.156	-0.012
-598.055	800.000	0.109	-0.349
-597.040	498.013	0.128	0.296
-596.025	63.985	0.217	-0.219
-595.011	246.736	-0.036	-0.060
-593.996	27.880	0.078	-0.066
-592.982	350.844	-0.039	0.077
-591.967	800.000	0.034	-0.143
-590.952	-200.000	0.001	0.193
-589.938	-0.581	0.376	0.268
-588.923	10.534	-0.219	0.167
-587.909	119.581	-0.078	0.097
-586.894	107.431	-0.090	0.107
-585.879	-200.000	-0.019	-0.103
-584.865	231.776	0.060	-0.099
-583.850	-12.037	0.202	0.133
-582.836	-19.085	0.258	-0.161
-581.821	18.262	-0.309	-0.248
-580.806	31.012	-0.193	0.166
-579.792	-88.918	-0.384	-0.114
-578.777	-42.916	-0.110	0.056
-577.763	-200.000	0.024	-0.126
-576.748	-159.012	0.450	-0.026
-575.733	-131.716	0.175	-0.023
-574.719	4.625	-0.255	0.188
-573.704	-200.000	-0.009	-0.310
-572.690	-129.350	0.134	-0.019
-571.675	-79.635	0.118	0.040
-570.661	76.414	0.151	0.161
-569.646	91.202	0.228	0.257
-568.631	492.061	0.045	0.104
-567.617	-200.000	-0.018	0.163
-566.602	800.000	-0.044	-0.174
-565.588	-200.000	0.012	0.067
-564.573	-12.537	0.086	-0.056
-563.558	-200.000	0.007	0.045
-562.544	500.160	-0.086	-0.200
-561.529	-150.187	0.123	-0.010
-560.515	-147.882	0.126	0.011
-559.500	182.700	0.081	-0.120
-558.485	199.468	0.102	-0.156
-557.471	-32.165	0.123	-0.069
-556.456	147.359	-0.019	-0.025
-555.442	-200.000	0.029	0.138
-554.427	-200.000	-0.028	0.267
-553.412	800.000	-0.099	0.419
-552.398	-200.000	0.014	0.106
-551.383	321.297	-0.065	-0.125
-550.369	-200.000	-0.028	-0.121
-549.354	-68.116	0.151	0.059
-548.339	-200.000	-0.041	0.240
-547.325	-200.000	-0.006	0.111
-546.310	-120.993	0.132	0.022
-545.296	4.695	-0.039	0.029
-544.281	8.998	-0.118	-0.089
-543.266	-155.810	-0.128	0.008
-542.252	22.544	-0.351	0.288
-541.237	-200.000	0.012	0.219
-540.223	318.708	0.102	-0.195
-539.208	-129.722	0.046	-0.006
-538.193	-200.000	0.006	-0.147
-537.179	-30.596	-0.188	-0.107
-536.164	-13.083	-0.252	-0.164
-535.150	-82.796	-0.385	0.125
-534.135	-200.000	-0.005	0.120
-533.121	-200.000	0.011	0.049
-532.106	345.171	-0.246	-0.483
-531.091	800.000	0.050	-0.149
-530.077	-146.377	-0.030	-0.003
-529.062	-109.206	0.271	0.058
-528.048	-54.875	0.161	-0.073
-527.033	-53.409	-0.178	0.082
-526.018	383.231	-0.145	-0.299
-525.004	800.000	-0.060	0.202
-523.989	-155.163	0.332	-0.022
-522.975	-14.655	-0.211	-0.136
-521.960	53.552	0.167	-0.161
-520.945	285.690	-0.045	0.082
-519.931	242.370	0.062	0.104
-518.916	391.537	0.110	-0.228
-517.902	-200.000	-0.062	0.287
-516.887	-20.776	-0.193	0.119
-515.872	-158.913	-0.472	0.027
-514.858	-181.018	0.364	0.007
-513.843	193.924	0.159	-0.241
-512.829	-27.209	-0.442	0.258
-511.814	-20.519	0.245	-0.151
-510.799	-92.578	-0.168	-0.047
-509.785	-89.586	0.110	0.032
-508.770	-119.037	-0.024	-0.004
-507.756	-57.586	0.157	0.069
-506.741	33.292	0.223	0.194
-505.726	-93.896	0.191	0.053
-504.712	-1.705	0.179	0.126
-503.697	66.132	-0.158	0.160
-502.683	-152.742	0.138	0.010
-501.668	163.482	0.174	0.245
-500.653	41.758	-0.199	-0.181
-499.639	-89.879	-0.369	-0.108
-498.624	-40.557	0.165	0.086
-497.610	380.192	-0.140	0.287
-496.595	-200.000	-0.014	0.257
-495.581	800.000	-0.043	-0.148
-494.566	172.141	-0.221	-0.317
-493.551	-46.149	-0.172	-0.085
-492.537	75.643	0.182	0.192
-491.522	-47.369	-0.124	-0.060
-490.508	800.000	-0.024	0.091
-489.493	-141.488	-0.156	0.016
-488.478	-77.906	-0.254	0.088
-487.464	800.000	0.045	0.147
-486.449	-127.981	-0.221	-0.032
-485.435	-200.000	0.016	0.190
-484.420	70.718	-0.135	0.140
-483.405	36.254	-0.294	0.259
-482.391	-115.668	0.164	-0.031
-481.376	-1.909	-0.204	-0.143
-480.362	162.925	-0.122	0.171
-479.347	60.233	-0.054	0.054
-478.332	-163.057	-0.317	0.015
-477.318	39.541	0.205	0.184
-476.303	-134.897	0.231	0.028
-475.289	800.000	0.063	-0.238
-474.274	-51.361	-0.055	-0.026
-473.259	-200.000	0.031	-0.145
-472.245	107.619	0.250	-0.297
-471.230	421.810	0.040	-0.086
-470.216	135.826	0.078	0.102
-469.201	-68.928	-0.285	-0.110
-468.186	-88.830	0.260	0.077
-467.172	-34.227	-0.301	0.165
-466.157	-200.000	0.015	-0.215
-465.143	-76.160	0.182	-0.064
-464.128	250.986	-0.132	-0.224
-463.113	215.440	-0.173	-0.274
-462.099	-98.926	-0.190	-0.048
-461.084	135.194	-0.100	-0.130
-460.070	-113.518	-0.195	-0.038
-459.055	-58.646	0.582	-0.252
-458.040	800.000	-0.034	-0.116
-457.026	-85.215	-0.229	0.071
-456.011	-22.369	0.368	0.223
-454.997	-9.091	0.183	0.122
-453.982	-140.994	0.043	0.004
-452.968	-56.275	-0.195	-0.087
-451.953	-33.034	0.220	-0.122
-450.938	-28.303	0.254	-0.146
-449.924	800.000	0.052	-0.186
-448.909	7.309	-0.255	0.190
-447.895	32.877	0.034	0.030
-446.880	-56.034	-0.179	0.080
-445.865	-175.370	0.110	0.003
-444.851	800.000	0.079	0.238
-443.836	317.792	-0.057	0.107
-442.822	-200.000	-0.006	-0.236
-441.807	175.244	0.267	0.386
-440.792	-42.097	-0.098	0.050
-439.778	462.785	0.137	-0.305
-438.763	-64.512	0.203	-0.082
-437.749	158.691	-0.060	0.083
-436.734	-89.415	0.082	-0.024
-435.719	413.985	0.044	0.094
-434.705	89.329	0.230	-0.256
-433.690	-128.632	-0.296	-0.042
-432.676	-6.199	-0.196	0.133
-431.661	-15.044	-0.138	-0.088
-430.646	-191.201	-0.468	0.005
-429.632	77.486	-0.163	-0.173
-428.617	97.719	-0.224	-0.257
-427.603	3.881	-0.218	-0.159
-426.588	-200.000	-0.023	0.320
-425.573	800.000	0.133	0.389
-424.559	561.786	0.039	-0.095
-423.544	800.000	-0.118	-0.451
-422.530	-200.000	-0.037	0.281
-421.515	-0.976	-0.300	0.212
-420.500	-200.000	0.010	-0.350
-419.486	-200.000	0.013	0.179
-418.471	-88.987	0.215	-0.063
-417.457	768.092	0.082	0.222
-416.442	-3.038	0.254	0.177
-415.428	372.055	0.122	0.246
-414.413	252.444	-0.174	-0.295
-413.398	-132.632	0.239	-0.031
-412.384	-200.000	0.016	-0.074
-411.369	-119.637	-0.051	0.009
-410.355	146.446	-0.071	-0.094
-409.340	-124.358	0.331	-0.052
-408.325	13.404	0.163	-0.126
-407.311	-43.684	-0.209	0.105
-406.296	101.817	-0.372	0.432
-405.282	-78.886	0.160	0.054
-404.267	138.792	0.031	0.040
-403.252	-200.000	-0.044	-0.209
-402.238	-177.210	0.285	-0.007
-401.223	800.000	-0.068	0.218
-400.209	92.038	0.124	0.140
-399.194	-46.384	0.306	-0.150
-398.179	800.000	-0.048	0.137
-397.165	-14.511	0.125	0.080
-396.150	231.232	0.060	-0.099
-395.136	432.373	-0.138	0.297
-394.121	318.938	0.089	0.169
-393.106	-33.303	0.160	-0.088
-392.092	800.000	-0.041	0.178
-391.077	788.515	0.101	0.275
-390.063	125.823	-0.078	0.098
-389.048	213.933	-0.252	0.398
-388.033	-152.254	0.199	-0.014
-387.019	360.907	0.155	0.310
-386.004	108.877	0.119	-0.141
-384.990	53.950	-0.125	-0.120
-383.975	111.252	0.292	0.350
-382.960	35.096	0.048	0.042
-381.946	68.265	-0.138	0.141
-380.931	-19.890	-0.204	0.126
-379.917	-78.733	0.202	-0.069
-378.902	191.267	0.099	-0.148
-377.888	-200.000	0.037	-0.247
-376.873	179.704	0.216	-0.316
-375.858	-200.000	-0.013	-0.158
-374.844	-179.977	0.214	-0.005
-373.829	-115.091	-0.268	0.051
-372.815	185.541	0.092	-0.136
-371.800	-35.339	-0.309	-0.167
-370.785	117.779	-0.182	0.223
-369.771	134.677	-0.081	-0.105
-368.756	136.825	0.092	-0.119
-367.742	-91.822	-0.175	0.049
-366.727	-31.195	0.216	0.121
-365.712	-200.000	0.006	-0.148
-364.698	79.711	-0.224	0.239
-363.683	182.620	-0.163	0.239
-362.669	207.972	-0.089	0.138
-361.654	-150.235	-0.211	-0.016
-360.639	188.827	0.215	0.320
-359.625	31.347	0.085	-0.072
-358.610	-27.251	0.096	-0.056
-357.596	4.422	0.237	0.173
-356.581	-200.000	-0.022	0.176
-355.566	-6.727	-0.209	-0.142
-354.552	800.000	0.034	0.110
-353.537	-113.982	-0.090	-0.017
-352.523	387.551	-0.101	-0.208
-351.508	-2.379	-0.176	-0.123
-350.493	69.012	-0.113	0.116
-349.479	-106.131	0.144	-0.032
-348.464	141.844	0.185	-0.244
-347.450	800.000	-0.056	0.209
-346.435	65.403	0.021	-0.021
-345.420	-200.000	0.002	0.179
-344.406	-161.649	0.191	-0.010
-343.391	-23.727	-0.139	0.083
-342.377	-200.000	0.012	0.283
-341.362	-55.149	0.267	0.119
-340.348	452.984	-0.123	0.272
-339.333	800.000	-0.155	0.445
-338.318	30.900	-0.200	0.171
-337.304	-200.000	-0.020	0.129
-336.289	800.000	0.034	0.095
-335.275	-200.000	-0.019	-0.100
-334.260	253.998	-0.128	-0.217
-333.245	164.440	0.062	-0.087
-332.231	-200.000	-0.043	-0.345
-331.216	-39.174	0.210	-0.110
-330.202	-200.000	0.021	-0.178
-329.187	506.453	-0.027	-0.063
-328.172	36.140	0.284	-0.249
-327.158	-200.000	-0.040	0.342
-326.143	-70.353	-0.129	0.049
-325.129	73.070	0.202	-0.210
-324.114	-200.000	0.052	-0.310
-323.099	-91.728	0.214	-0.060
-322.085	-5.042	0.078	-0.053
-321.070	-4.780	0.182	0.125
-320.056	396.478	-0.207	-0.429
-319.041	64.770	0.273	-0.274
-318.026	108.244	-0.152	-0.180
-317.012	-83.782	0.110	0.035
-315.997	-74.798	0.249	-0.089
-314.983	-51.779	-0.096	-0.044
-313.968	-114.980	0.300	0.057
-312.953	800.000	0.038	-0.127
-311.939	-98.605	0.143	-0.036
-310.924	-138.176	-0.261	-0.029
-309.910	76.559	0.130	0.137
-308.895	16.535	-0.184	0.145
-307.880	556.126	-0.074	0.178
-306.866	2.828	0.088	0.064
-305.851	800.000	0.059	-0.193
-304.837	41.993	0.044	-0.039
-303.822	175.015	0.099	0.142
-302.807	-4.551	-0.357	0.245
-301.793	-51.878	0.243	-0.112
-300.778	-200.000	-0.049	-0.488
-299.764	319.717	0.148	-0.279
-298.749	800.000	-0.047	-0.179
-297.735	-124.498	-0.134	0.021
-296.720	28.179	0.182	0.152
-295.705	78.982	-0.194	-0.206
-294.691	-200.000	-0.007	-0.165
-293.676	-142.391	0.071	-0.007
-292.662	-200.000	0.006	0.188
-291.647	-117.272	-0.153	0.028
-290.632	266.392	0.131	-0.227
-289.618	42.115	0.316	-0.284
-288.603	-200.000	0.008	0.127
-287.589	-200.000	-0.029	-0.259
-286.574	-72.381	0.102	-0.038
-285.559	-152.526	-0.139	-0.010
-284.545	-86.434	0.241	-0.074
-283.530	-95.817	-0.182	-0.048
-282.516	430.223	0.046	0.100
-281.501	188.845	-0.087	0.129
-280.486	-200.000	0.048	0.212
-279.472	150.840	0.147	0.199
-278.457	800.000	-0.065	0.252
-277.443	800.000	0.014	0.055
-276.428	54.942	-0.271	-0.259
-275.413	800.000	0.024	0.094
-274.399	16.571	-0.256	0.200
-273.384	-91.230	-0.312	-0.089
-272.370	-6.058	0.199	0.135
-271.355	-119.477	0.146	-0.025
-270.340	219.327	0.134	-0.212
-269.326	-113.963	0.227	0.044
-268.311	-136.672	-0.126	-0.014
-267.297	101.857	0.092	0.107
-266.282	136.237	0.187	0.242
-265.267	-33.239	-0.185	0.101
-264.253	-77.449	0.175	0.060
-263.238	321.093	-0.121	-0.229
-262.224	69.485	0.182	0.186
-261.209	-116.784	-0.179	0.033
-260.195	-107.225	-0.099	0.022
-259.180	-56.939	-0.092	0.040
-258.165	96.384	0.063	-0.071
-257.151	800.000	0.090	0.317
-256.136	718.751	0.104	0.274
-255.122	207.475	-0.134	-0.207
-254.107	85.755	0.236	-0.257
-253.092	-86.244	0.043	0.013
-252.078	-23.657	-0.038	0.023
-251.063	-10.491	0.366	-0.240
-250.049	800.000	0.055	-0.196
-249.034	360.786	0.040	0.080
-248.019	112.644	0.317	0.380
-247.005	-200.000	0.040	-0.333
-245.990	315.131	0.129	-0.240
-244.976	-200.000	-0.025	0.139
-243.961	800.000	0.070	-0.292
-242.946	10.335	0.248	-0.187
-241.932	-200.000	0.009	0.069
-240.917	-91.630	-0.025	-0.007
-239.903	-33.591	0.186	-0.102
-238.888	-82.279	-0.201	0.065
-237.873	-200.000	-0.025	-0.152
-236.859	68.569	0.257	0.261
-235.844	-15.641	0.169	0.107
-234.830	-47.439	-0.204	0.098
-233.815	-66.805	0.234	0.092
-232.800	-200.000	-0.056	-0.336
-231.786	373.288	-0.073	-0.147
-230.771	52.341	0.170	0.161
-229.757	85.294	0.406	-0.442
-228.742	-200.000	0.015	-0.295
-227.727	161.480	-0.108	0.150
-226.713	-200.000	-0.016	-0.139
-225.698	-51.244	0.347	0.161
-224.684	380.225	0.183	0.372
-223.669	-8.940	-0.054	-0.036
-222.655	53.120	0.145	-0.138
-221.640	-200.000	-0.001	-0.182
-220.625	81.644	0.218	0.234
-219.611	-200.000	0.059	0.262
-218.596	78.380	-0.179	0.189
-217.582	53.567	-0.026	-0.024
-216.567	800.000	-0.014	-0.057
-215.552	-137.908	-0.222	0.025
-214.538	-200.000	0.040	-0.312
-213.523	150.697	0.075	0.101
-212.509	-105.456	0.135	0.030
-211.494	61.925	-0.161	0.158
-210.479	-64.865	0.318	0.127
-209.465	-83.712	0.253	-0.080
-208.450	-200.000	0.020	-0.265
-207.436	88.743	-0.147	-0.162
-206.421	703.741	-0.022	-0.057
-205.406	50.935	-0.024	0.022
-204.392	-200.000	0.033	0.163
-203.377	28.326	0.046	-0.039
-202.363	-200.000	-0.019	-0.222
-201.348	105.888	-0.108	0.126
-200.333	-200.000	-0.030	0.214
-199.319	-200.000	0.004	0.131
-198.304	800.000	0.032	-0.106
-197.290	1.380	-0.136	-0.097
-196.275	444.600	0.101	0.219
-195.260	-17.959	0.205	0.127
-194.246	27.791	-0.179	-0.149
-193.231	209.883	-0.297	0.461
-192.217	107.721	0.065	0.076
-191.202	800.000	-0.036	-0.136
-190.187	568.664	0.077	0.185
-189.173	-49.599	0.226	-0.106
-188.158	-37.528	-0.388	-0.205
-187.144	-200.000	-0.006	-0.163
-186.129	-88.536	-0.395	0.117
-185.114	800.000	-0.048	0.158
-184.100	-154.720	-0.307	-0.020
-183.085	-0.656	-0.185	0.129
-182.071	386.587	0.100	0.204
-181.056	-200.000	-0.004	0.137
-180.042	347.363	0.047	-0.091
-179.027	-62.079	-0.047	0.019
-178.012	688.456	-0.074	0.191
-176.998	321.780	0.185	-0.347
-175.983	-179.587	0.071	0.002
-174.969	102.454	-0.077	0.089
-173.954	33.864	-0.263	0.226
-172.939	-114.319	0.074	0.014
-171.925	-30.999	0.140	0.078
-170.910	138.171	-0.149	0.192
-169.896	-146.825	0.197	0.017
-168.881	-61.238	0.099	0.041
-167.866	-85.007	-0.515	-0.160
-166.852	-53.033	0.313	-0.142
-165.837	117.561	-0.087	-0.106
-164.823	-200.000	0.022	-0.108
-163.808	800.000	0.074	-0.206
-162.793	-140.069	-0.386	0.040
-161.779	-6.920	-0.026	-0.017
-160.764	71.017	0.063	-0.065
-159.750	800.000	0.073	0.215
-158.735	-200.000	-0.014	0.071
-157.720	281.473	0.101	-0.179
-156.706	-39.505	0.235	0.122
-155.691	64.426	-0.249	-0.248
-154.677	-200.000	0.049	-0.340
-153.662	-200.000	-0.005	-0.166
-152.647	-6.832	0.298	-0.200
-151.633	-31.301	-0.229	0.127
-150.618	7.178	0.219	-0.161
-149.604	633.598	0.022	-0.055
-148.589	800.000	-0.016	-0.052
-147.574	800.000	0.040	-0.116
-146.560	-200.000	-0.064	-0.347
-145.545	-81.635	0.241	-0.078
-144.531	557.750	0.084	-0.200
-143.516	-200.000	0.034	0.155
-142.502	-58.615	0.049	-0.021
-141.487	139.532	-0.212	-0.276
-140.472	345.751	-0.050	0.097
-139.458	-54.938	0.170	-0.076
-138.443	-200.000	0.129	-0.575
-137.429	29.181	0.025	-0.021
-136.414	-200.000	0.016	-0.368
-135.399	75.594	0.112	0.117
-134.385	800.000	-0.115	0.442
-133.370	122.403	-0.074	0.091
-132.356	-116.794	0.388	0.070
-131.341	128.213	0.075	-0.094
-130.326	-197.588	-0.089	-0.001
-129.312	-61.092	0.186	0.077
-128.297	-98.157	0.256	-0.065
-127.283	-159.544	0.069	-0.004
-126.268	-77.238	-0.043	-0.015
-125.253	800.000	0.102	0.325
-124.239	361.373	0.064	0.126
-123.224	190.594	0.068	0.101
-122.210	626.765	0.020	-0.051
-121.195	-44.728	0.572	-0.282
