DTS Sentinel unit serial number:	SN413079Multiplexer serial number:	ORYXHardware model number:	OX4-SRSoftware version number:	ORYX F/W v4.00 Oryx Data Collector v3.7.2.0data status	okinstallation	princeton_trtdifferential loss correction	single-endedforward channel	channel 1reverse channel	N/Adate	2019/09/16time	13:42:35forward acquisition time	60.00reverse acquisition time	0.00gamma	496.2192k internal	0.2294k external	0.2294temperature offset calibration	0.9952default loss term (dB/km)	0.3790temperature slope calibration	1.0000multiplexer offset coefficient	1.0000multiplexer slope coefficient	1.0000fibre end	0.00T internal ref (°C)	42.19T ext. ref 1 (°C)	13.89T ext. ref 2 (°C)	38.36length (m)	temperature (°C)	Stokes	anti-Stokes-747.200	-43.943	0.037	-0.019
-746.185	565.813	-0.191	0.474
-745.171	136.712	0.144	-0.192
-744.156	449.843	-0.092	0.207
-743.142	-200.000	0.001	0.126
-742.127	-108.651	0.110	0.024
-741.112	-200.000	-0.030	-0.226
-740.098	-200.000	-0.011	0.112
-739.083	472.527	-0.092	-0.212
-738.069	196.957	-0.154	0.240
-737.054	-6.840	0.217	-0.151
-736.039	800.000	-0.060	0.178
-735.025	-7.114	-0.074	-0.052
-734.010	-200.000	0.043	-0.323
-732.996	-136.944	-0.365	0.043
-731.981	-91.960	-0.155	-0.045
-730.966	-120.253	-0.227	0.040
-729.952	-8.395	-0.113	-0.078
-728.937	-2.166	0.122	-0.088
-727.923	-97.253	-0.234	-0.062
-726.908	-34.114	-0.574	-0.322
-725.894	56.870	0.107	-0.106
-724.879	800.000	-0.060	-0.189
-723.864	-32.893	-0.064	-0.036
-722.850	75.150	-0.166	-0.179
-721.835	-30.201	0.057	-0.033
-720.821	373.742	0.002	0.004
-719.806	333.916	0.117	0.231
-718.791	-114.345	0.070	0.014
-717.777	-200.000	-0.003	0.044
-716.762	405.941	-0.089	-0.191
-715.748	-200.000	-0.030	-0.295
-714.733	-8.408	-0.208	0.143
-713.718	-176.845	0.420	-0.011
-712.704	-200.000	-0.034	-0.236
-711.689	166.170	-0.037	-0.053
-710.675	287.110	0.127	-0.234
-709.660	800.000	0.084	-0.273
-708.645	-138.268	-0.087	0.010
-707.631	-200.000	0.045	0.388
-706.616	21.229	-0.369	-0.306
-705.602	-85.251	-0.197	0.063
-704.587	-129.066	-0.511	0.073
-703.572	-94.498	0.147	-0.041
-702.558	-73.815	0.323	-0.120
-701.543	-157.879	0.311	0.019
-700.529	-127.346	0.113	0.017
-699.514	-200.000	-0.002	0.354
-698.499	176.490	0.107	-0.159
-697.485	-200.000	-0.016	-0.095
-696.470	800.000	-0.016	-0.068
-695.456	162.025	0.203	-0.290
-694.441	17.376	0.157	-0.127
-693.426	-62.571	0.208	-0.088
-692.412	-190.435	-0.457	0.005
-691.397	800.000	-0.026	-0.079
-690.383	-100.500	0.254	-0.064
-689.368	-200.000	-0.017	-0.167
-688.354	217.661	0.132	-0.215
-687.339	94.436	0.224	-0.260
-686.324	-13.777	0.143	0.094
-685.310	-200.000	-0.041	0.265
-684.295	-116.530	-0.238	0.045
-683.281	97.628	-0.107	-0.125
-682.266	-200.000	-0.002	-0.119
-681.251	179.381	-0.176	-0.263
-680.237	-200.000	0.029	-0.149
-679.222	800.000	0.067	0.286
-678.208	-80.081	-0.057	0.019
-677.193	-200.000	-0.028	-0.130
-676.178	-51.230	0.112	-0.054
-675.164	99.512	0.219	0.259
-674.149	-124.963	0.167	-0.026
-673.135	800.000	0.087	-0.338
-672.120	-155.349	-0.076	-0.005
-671.105	800.000	-0.115	0.375
-670.091	800.000	-0.051	-0.157
-669.076	800.000	-0.036	-0.155
-668.062	-200.000	-0.004	0.325
-667.047	-200.000	-0.026	-0.167
-666.032	800.000	-0.135	0.462
-665.018	5.190	0.142	-0.107
-664.003	-200.000	0.035	0.256
-662.989	-200.000	-0.001	0.150
-661.974	-87.974	-0.346	-0.106
-660.959	92.638	0.077	-0.088
-659.945	16.813	-0.119	0.096
-658.930	-157.689	-0.286	-0.017
-657.916	-200.000	0.007	0.265
-656.901	-186.657	0.333	-0.005
-655.886	-92.292	-0.207	0.059
-654.872	-4.454	-0.198	-0.140
-653.857	-4.057	0.138	0.097
-652.843	38.077	0.241	0.218
-651.828	-128.909	0.195	-0.028
-650.814	201.600	-0.159	0.249
-649.799	18.604	0.129	0.105
-648.784	-87.486	-0.131	-0.041
-647.770	-75.480	-0.194	0.070
-646.755	130.266	0.098	0.128
-645.741	-14.546	-0.336	-0.220
-644.726	-13.313	0.277	-0.183
-643.711	205.788	0.186	0.294
-642.697	-113.843	-0.061	-0.012
-641.682	-44.209	0.094	0.048
-640.668	303.209	0.031	0.058
-639.653	32.292	0.058	0.051
-638.638	300.585	0.042	0.079
-637.624	-138.771	-0.155	-0.017
-636.609	800.000	-0.053	-0.156
-635.595	-200.000	-0.016	0.305
-634.580	-52.381	-0.313	0.148
-633.565	-65.851	-0.095	-0.039
-632.551	-200.000	0.013	-0.222
-631.536	281.689	-0.083	-0.151
-630.522	86.978	0.113	0.127
-629.507	374.372	0.038	-0.079
-628.492	-43.346	-0.216	0.111
-627.478	221.638	-0.220	-0.359
-626.463	-36.829	-0.221	-0.121
-625.449	-148.396	0.346	-0.029
-624.434	-32.173	-0.271	0.154
-623.419	800.000	0.040	0.172
-622.405	90.698	-0.147	0.168
-621.390	-171.654	-0.145	-0.005
-620.376	23.426	0.246	-0.206
-619.361	60.974	0.369	-0.372
-618.346	-194.131	0.421	0.004
-617.332	-113.452	-0.333	0.066
-616.317	-16.373	-0.390	-0.252
-615.303	115.356	0.225	0.280
-614.288	442.665	-0.108	-0.240
-613.273	-200.000	-0.042	-0.345
-612.259	-134.624	-0.147	-0.018
-611.244	-200.000	-0.042	0.273
-610.230	36.900	-0.289	0.260
-609.215	-134.158	0.299	0.038
-608.201	54.632	0.056	-0.055
-607.186	630.841	0.031	-0.080
-606.171	411.594	-0.065	-0.140
-605.157	323.294	0.049	0.094
-604.142	800.000	0.098	-0.284
-603.128	-109.616	-0.240	0.051
-602.113	325.168	-0.060	-0.117
-601.098	-127.978	0.411	-0.060
-600.084	-200.000	0.021	0.149
-599.069	-110.014	-0.004	-0.001
-598.055	800.000	-0.069	0.263
-597.040	299.360	-0.211	-0.394
-596.025	18.138	0.125	0.102
-595.011	200.321	-0.041	-0.064
-593.996	145.311	-0.028	0.038
-592.982	800.000	0.093	-0.323
-591.967	-200.000	0.022	-0.169
-590.952	-113.070	-0.491	0.099
-589.938	-100.069	0.165	-0.042
-588.923	113.553	-0.274	-0.338
-587.909	-100.116	-0.125	0.032
-586.894	-13.800	-0.129	0.085
-585.879	-35.237	0.113	0.062
-584.865	-200.000	-0.018	0.125
-583.850	-4.840	-0.256	0.179
-582.836	-121.909	0.056	-0.009
-581.821	800.000	0.079	-0.258
-580.806	-28.614	0.281	-0.164
-579.792	-90.759	0.276	-0.081
-578.777	-122.250	-0.159	0.026
-577.763	-113.270	-0.138	-0.028
-576.748	-172.255	-0.183	0.006
-575.733	264.109	-0.144	0.254
-574.719	-174.449	-0.285	0.008
-573.704	-114.176	0.120	-0.023
-572.690	87.278	0.331	-0.372
-571.675	-155.990	-0.202	0.013
-570.661	800.000	-0.030	-0.093
-569.646	-135.318	-0.302	0.037
-568.631	-0.952	0.063	0.045
-567.617	-5.456	-0.205	0.143
-566.602	598.797	-0.142	0.359
-565.588	31.405	0.144	-0.126
-564.573	-3.408	-0.151	-0.106
-563.558	-134.846	0.144	-0.018
-562.544	-124.319	-0.173	0.027
-561.529	-200.000	-0.011	-0.052
-560.515	1.574	-0.226	-0.165
-559.500	330.393	-0.080	0.156
-558.485	800.000	-0.089	-0.363
-557.471	545.929	0.020	-0.047
-556.456	14.939	-0.109	0.087
-555.442	175.626	-0.233	-0.343
-554.427	244.765	0.208	0.355
-553.412	-6.953	0.243	0.167
-552.398	471.110	0.154	-0.353
-551.383	-200.000	0.017	-0.175
-550.369	-122.606	0.103	-0.017
-549.354	50.918	0.251	0.241
-548.339	-199.912	0.142	-0.001
-547.325	800.000	-0.111	-0.408
-546.310	97.647	0.192	-0.224
-545.296	35.090	0.184	-0.164
-544.281	19.413	-0.270	-0.220
-543.266	-149.535	-0.254	-0.020
-542.252	-130.349	0.116	-0.016
-541.237	657.381	-0.059	0.154
-540.223	85.310	0.079	0.088
-539.208	111.150	0.214	-0.262
-538.193	584.233	-0.126	0.314
-537.179	-166.718	-0.255	-0.011
-536.164	189.137	-0.197	-0.300
-535.150	-73.147	0.151	-0.056
-534.135	-86.740	0.426	0.132
-533.121	-45.117	0.066	0.033
-532.106	-22.201	0.143	0.088
-531.091	631.733	-0.068	-0.175
-530.077	-106.414	-0.249	-0.056
-529.062	-200.000	-0.006	-0.117
-528.048	800.000	-0.036	-0.149
-527.033	-45.836	-0.201	0.101
-526.018	35.704	0.201	-0.179
-525.004	34.889	0.075	-0.067
-523.989	-158.649	-0.237	0.014
-522.975	-185.737	-0.237	-0.004
-521.960	13.366	0.183	-0.144
-520.945	197.857	-0.041	0.064
-519.931	-200.000	0.018	-0.238
-518.916	-116.859	0.374	0.069
-517.902	36.072	0.100	0.089
-516.887	-4.753	-0.150	0.105
-515.872	-200.000	0.039	0.260
-514.858	58.029	-0.074	0.073
-513.843	93.325	0.092	-0.106
-512.829	-182.929	0.150	-0.003
-511.814	-3.231	0.137	-0.097
-510.799	-200.000	-0.014	-0.231
-509.785	-91.992	0.177	0.051
-508.770	66.470	0.177	-0.183
-507.756	800.000	-0.066	0.191
-506.741	800.000	-0.114	0.352
-505.726	-97.678	0.104	0.027
-504.712	-118.542	-0.452	0.081
-503.697	-27.867	-0.333	0.195
-502.683	201.502	-0.091	0.142
-501.668	-200.000	-0.022	0.107
-500.653	-3.347	0.093	0.066
-499.639	-84.394	-0.287	-0.092
-498.624	-70.847	-0.079	0.030
-497.610	-102.774	-0.251	-0.061
-496.595	-26.419	0.064	0.038
-495.581	116.391	-0.205	-0.255
-494.566	-6.978	0.252	-0.174
-493.551	358.103	-0.111	0.225
-492.537	-149.789	0.300	0.024
-491.522	-200.000	0.002	-0.271
-490.508	-67.056	-0.202	-0.081
-489.493	9.640	-0.093	0.071
-488.478	158.791	-0.201	-0.282
-487.464	-71.161	-0.208	0.079
-486.449	51.722	-0.077	-0.074
-485.435	-164.323	-0.127	-0.006
-484.420	-200.000	-0.019	0.226
-483.405	12.062	-0.145	-0.113
-482.391	800.000	-0.036	-0.127
-481.376	-200.000	-0.003	0.035
-480.362	-57.873	0.108	-0.048
-479.347	-160.874	-0.225	-0.012
-478.332	-125.435	-0.402	-0.062
-477.318	-193.560	0.071	0.001
-476.303	-200.000	-0.033	-0.245
-475.289	-51.551	0.278	-0.132
-474.274	-61.882	-0.171	-0.072
-473.259	-105.366	0.263	0.061
-472.245	-113.080	0.109	-0.022
-471.230	-41.220	0.123	-0.064
-470.216	323.810	0.102	-0.197
-469.201	-200.000	-0.039	-0.399
-468.186	425.691	0.031	-0.067
-467.172	-131.131	-0.156	-0.021
-466.157	800.000	0.090	0.337
-465.143	-68.195	-0.200	-0.079
-464.128	-43.511	0.272	-0.139
-463.113	-200.000	-0.076	-0.552
-462.099	205.799	0.117	-0.183
-461.084	115.655	0.197	0.244
-460.070	-107.982	-0.421	0.093
-459.055	-120.654	-0.320	-0.055
-458.040	-32.992	0.096	-0.054
-457.026	163.106	0.128	-0.182
-456.011	-87.324	-0.218	-0.067
-454.997	195.024	0.083	-0.127
-453.982	-200.000	0.022	-0.130
-452.968	-139.162	0.292	-0.032
-451.953	-200.000	-0.006	-0.386
-450.938	209.541	-0.165	0.261
-449.924	74.166	0.236	-0.251
-448.909	466.825	-0.054	0.123
-447.895	-200.000	-0.003	0.267
-446.880	-104.833	0.190	0.044
-445.865	-108.550	-0.222	0.048
-444.851	800.000	-0.035	0.147
-443.836	-34.616	0.219	-0.121
-442.822	96.990	-0.129	-0.150
-441.807	-200.000	0.021	-0.175
-440.792	-200.000	-0.013	0.266
-439.778	-1.825	-0.301	-0.214
-438.763	-151.945	-0.211	-0.016
-437.749	-56.694	0.270	-0.121
-436.734	239.876	-0.104	0.175
-435.719	172.180	-0.194	-0.282
-434.705	-135.177	-0.244	-0.030
-433.690	800.000	0.016	0.069
-432.676	-148.018	0.100	-0.008
-431.661	-129.778	0.160	-0.022
-430.646	-200.000	0.011	-0.066
-429.632	80.209	0.059	-0.065
-428.617	-200.000	-0.024	-0.213
-427.603	800.000	0.102	-0.348
-426.588	-32.469	-0.119	0.067
-425.573	728.423	-0.168	0.454
-424.559	800.000	0.090	0.281
-423.544	-74.952	-0.185	0.067
-422.530	556.758	0.091	-0.221
-421.515	-200.000	0.012	0.135
-420.500	67.809	0.132	0.136
-419.486	51.819	-0.171	-0.164
-418.471	17.460	0.227	-0.182
-417.457	-25.906	-0.209	0.125
-416.442	233.034	0.205	-0.340
-415.428	-100.734	-0.419	0.104
-414.413	-200.000	-0.014	-0.068
-413.398	-150.689	0.334	-0.026
-412.384	13.646	0.276	-0.217
-411.369	410.943	0.085	0.181
-410.355	166.584	0.065	-0.093
-409.340	359.328	0.175	-0.352
-408.325	243.249	-0.152	0.258
-407.311	-30.589	0.219	0.125
-406.296	-200.000	0.005	0.167
-405.282	254.955	0.177	-0.306
-404.267	-109.460	-0.323	-0.069
-403.252	42.577	-0.098	-0.090
-402.238	-72.924	-0.232	-0.086
-401.223	700.828	-0.124	0.328
-400.209	-59.416	0.245	-0.106
-399.194	-26.458	-0.155	0.092
-398.179	-188.558	0.164	-0.002
-397.165	-54.404	0.069	-0.032
-396.150	37.360	-0.191	0.171
-395.136	-200.000	-0.011	-0.148
-394.121	-95.506	0.372	0.101
-393.106	749.875	0.064	0.175
-392.092	78.256	-0.186	-0.201
-391.077	-200.000	-0.022	0.107
-390.063	96.299	0.078	0.090
-389.048	800.000	-0.075	0.324
-388.033	21.450	0.071	0.058
-387.019	469.930	-0.060	0.136
-386.004	-200.000	0.029	-0.291
-384.990	143.910	-0.091	0.123
-383.975	-53.056	0.219	-0.102
-382.960	171.605	0.218	0.316
-381.946	164.478	-0.080	0.114
-380.931	-12.605	0.320	0.211
-379.917	-181.632	0.214	0.004
-378.902	-77.124	0.234	-0.082
-377.888	-112.630	0.177	0.036
-376.873	74.231	-0.205	-0.217
-375.858	-75.929	-0.228	0.081
-374.844	-97.527	0.233	0.061
-373.829	-99.599	-0.192	0.049
-372.815	-98.174	0.418	0.108
-371.800	113.735	-0.063	0.077
-370.785	12.172	0.218	0.169
-369.771	-128.330	0.242	-0.035
-368.756	86.044	0.095	0.106
-367.742	187.938	0.143	0.216
-366.727	-132.353	-0.087	-0.011
-365.712	-13.262	-0.172	0.113
-364.698	251.019	-0.164	-0.281
-363.683	-200.000	-0.018	-0.122
-362.669	523.073	-0.126	0.299
-361.654	-22.944	-0.045	0.027
-360.639	-51.118	0.278	-0.131
-359.625	87.382	0.273	0.304
-358.610	-200.000	0.063	0.303
-357.596	174.175	-0.224	-0.327
-356.581	800.000	-0.027	-0.112
-355.566	-200.000	-0.022	0.275
-354.552	800.000	-0.092	-0.271
-353.537	678.606	-0.054	0.142
-352.523	164.535	0.236	0.335
-351.508	-66.928	0.117	-0.047
-350.493	-37.558	0.237	-0.127
-349.479	23.284	0.205	-0.170
-348.464	800.000	0.073	0.231
-347.450	-200.000	-0.021	0.322
-346.435	50.100	0.203	0.193
-345.420	800.000	-0.046	0.148
-344.406	73.480	-0.243	0.256
-343.391	-149.179	0.252	-0.020
-342.377	-79.992	-0.093	0.032
-341.362	-129.113	-0.231	0.033
-340.348	-17.815	0.139	-0.088
-339.333	-67.535	0.152	-0.060
-338.318	33.980	0.166	0.145
-337.304	-35.822	0.272	-0.148
-336.289	216.014	0.178	-0.285
-335.275	-17.319	-0.213	-0.135
-334.260	-118.523	0.226	0.040
-333.245	-145.201	0.127	-0.012
-332.231	-141.031	-0.099	0.010
-331.216	661.756	0.046	0.119
-330.202	-42.441	0.238	-0.122
-329.187	-36.340	-0.431	0.234
-328.172	54.920	-0.141	-0.136
-327.158	-53.902	-0.175	0.080
-326.143	194.297	0.125	-0.191
-325.129	-4.273	0.143	-0.100
-324.114	-140.670	-0.096	-0.010
-323.099	105.773	-0.269	0.321
-322.085	-200.000	-0.002	0.175
-321.070	-200.000	0.005	0.203
-320.056	174.310	-0.049	-0.072
-319.041	800.000	0.079	-0.316
-318.026	-128.758	0.029	-0.004
-317.012	-200.000	0.052	0.446
-315.997	39.188	0.187	-0.168
-314.983	365.345	0.123	0.249
-313.968	124.565	-0.101	0.128
-312.953	-1.591	-0.141	-0.100
-311.939	89.134	0.099	-0.111
-310.924	209.854	-0.053	0.083
-309.910	-200.000	0.009	0.286
-308.895	800.000	-0.017	-0.054
-307.880	-200.000	-0.081	0.398
-306.866	156.433	-0.098	-0.136
-305.851	154.870	-0.284	-0.392
-304.837	-200.000	-0.067	-0.366
-303.822	108.842	0.128	0.154
-302.807	-161.989	0.129	0.007
-301.793	800.000	0.031	-0.124
-300.778	49.848	0.047	-0.045
-299.764	-200.000	0.282	-0.001
-298.749	150.217	-0.123	0.167
-297.735	800.000	0.033	-0.125
-296.720	332.124	0.130	-0.253
-295.705	-140.717	-0.225	0.023
-294.691	-94.920	0.420	0.114
-293.676	82.358	-0.143	-0.156
-292.662	-200.000	-0.008	0.156
-291.647	509.900	-0.077	-0.181
-290.632	-83.612	-0.230	-0.074
-289.618	143.783	-0.129	0.172
-288.603	-126.549	0.056	0.008
-287.589	800.000	0.052	0.223
-286.574	502.897	-0.009	0.020
-285.559	118.538	-0.167	-0.207
-284.545	-2.797	0.084	-0.059
-283.530	204.677	0.176	0.273
-282.516	-53.054	-0.234	-0.108
-281.501	-10.210	0.227	-0.151
-280.486	178.655	0.215	0.315
-279.472	-23.818	0.108	-0.065
-278.457	-27.390	-0.095	0.055
-277.443	-200.000	-0.008	0.277
-276.428	65.124	0.155	-0.158
-275.413	-133.893	0.369	-0.046
-274.399	-32.245	-0.258	0.145
-273.384	-200.000	-0.013	0.215
-272.370	-94.155	-0.253	-0.070
-271.355	-43.334	-0.067	0.034
-270.340	500.446	-0.195	-0.451
-269.326	-69.084	-0.122	-0.047
-268.311	94.078	-0.143	-0.162
-267.297	-200.000	-0.007	0.072
-266.282	-200.000	-0.009	0.051
-265.267	-39.679	0.231	0.121
-264.253	-177.452	0.393	0.010
-263.238	5.092	-0.068	-0.050
-262.224	-200.000	-0.007	-0.049
-261.209	78.332	-0.215	-0.231
-260.195	-60.972	0.308	0.131
-259.180	800.000	0.033	0.135
-258.165	77.887	0.089	0.095
-257.151	435.564	-0.103	0.225
-256.136	-13.193	0.200	-0.130
-255.122	599.133	-0.064	0.159
-254.107	-50.729	-0.157	-0.074
-253.092	25.901	-0.150	0.126
-252.078	800.000	0.077	0.275
-251.063	83.340	-0.103	0.113
-250.049	38.484	0.101	0.091
-249.034	43.378	0.300	-0.275
-248.019	-17.358	0.044	0.028
-247.005	15.781	-0.131	-0.104
-245.990	-39.333	-0.410	-0.216
-244.976	-200.000	0.051	0.244
-243.961	-96.945	0.112	0.030
-242.946	-24.777	0.210	-0.125
-241.932	-109.799	0.207	0.044
-240.917	-99.345	-0.166	-0.042
-239.903	204.589	-0.224	-0.348
-238.888	-5.063	-0.254	-0.175
-237.873	345.149	-0.146	0.288
-236.859	-139.634	-0.014	-0.002
-235.844	-200.000	0.037	-0.270
-234.830	-42.001	0.117	-0.060
-233.815	622.246	0.091	0.230
-232.800	51.058	-0.060	-0.057
-231.786	-200.000	0.029	-0.218
-230.771	-171.818	-0.087	-0.003
-229.757	31.128	0.233	0.200
-228.742	-138.777	0.204	-0.022
-227.727	-200.000	0.033	0.147
-226.713	27.452	-0.096	0.081
-225.698	-31.496	0.221	0.125
-224.684	309.854	0.058	0.109
-223.669	800.000	-0.061	0.169
-222.655	372.012	-0.034	0.069
-221.640	-200.000	-0.014	0.205
-220.625	-174.878	0.202	-0.006
-219.611	493.142	-0.046	0.107
-218.596	-156.584	-0.132	-0.008
-217.582	218.737	0.147	0.236
-216.567	-21.322	0.269	0.164
-215.552	393.098	-0.066	0.137
-214.538	113.829	0.016	-0.019
-213.523	-94.342	-0.367	0.100
-212.509	-123.277	0.385	0.062
-211.494	393.779	0.145	0.302
-210.479	800.000	-0.100	-0.277
-209.465	-127.807	-0.049	0.007
-208.450	-200.000	0.062	0.352
-207.436	253.195	0.120	-0.205
-206.421	241.774	-0.084	0.140
-205.406	800.000	-0.140	0.456
-204.392	-105.318	-0.176	-0.040
-203.377	800.000	-0.054	-0.169
-202.363	79.216	0.223	-0.240
-201.348	-145.740	-0.247	-0.022
-200.333	-17.186	0.149	0.094
-199.319	407.124	-0.036	-0.076
-198.304	-200.000	-0.026	0.202
-197.290	-77.783	0.267	-0.093
-196.275	-14.931	-0.135	-0.087
-195.260	-84.944	-0.043	-0.014
-194.246	-40.520	-0.225	-0.117
-193.231	52.475	-0.045	-0.043
-192.217	-133.299	-0.112	0.014
-191.202	485.981	0.075	0.171
-190.187	-180.750	-0.056	0.001
-189.173	361.010	0.087	-0.175
-188.158	-200.000	0.005	0.102
-187.144	-60.338	0.295	0.126
-186.129	82.762	0.144	-0.157
-185.114	0.741	-0.233	0.167
-184.100	324.282	0.072	-0.138
-183.085	86.914	0.074	-0.082
-182.071	-84.149	0.265	-0.084
-181.056	-178.746	0.103	-0.002
-180.042	33.930	-0.358	0.312
-179.027	-121.243	0.137	-0.023
-178.012	25.987	0.054	-0.045
-176.998	455.194	0.098	-0.216
-175.983	90.967	0.040	0.045
-174.969	-200.000	0.067	0.324
-173.954	-138.361	-0.191	-0.021
-172.939	-21.734	-0.192	-0.117
-171.925	96.565	0.204	0.234
-170.910	47.543	0.170	-0.159
-169.896	-56.868	0.164	0.073
-168.881	-200.000	-0.054	0.313
-167.866	-200.000	-0.038	0.212
-166.852	800.000	-0.043	-0.148
-165.837	-130.721	-0.492	-0.066
-164.823	-200.000	-0.007	0.434
-163.808	46.707	0.059	-0.054
-162.793	800.000	-0.054	0.156
-161.779	144.121	-0.070	-0.094
-160.764	66.194	0.248	0.252
-159.750	313.206	-0.148	0.278
-158.735	-82.273	-0.068	0.022
-157.720	-71.653	0.161	-0.060
-156.706	-200.000	-0.011	0.343
-155.691	38.954	-0.237	0.211
-154.677	375.059	0.171	-0.347
-153.662	476.454	-0.036	-0.082
-152.647	-200.000	0.022	-0.239
-151.633	469.461	0.070	-0.157
-150.618	-200.000	0.009	-0.411
-149.604	210.172	0.083	0.129
-148.589	-71.184	0.191	-0.071
-147.574	46.747	0.157	-0.146
-146.560	-67.776	0.140	-0.055
-145.545	148.643	-0.068	0.091
-144.531	547.767	0.049	0.116
-143.516	-84.657	-0.091	0.029
-142.502	183.968	0.061	0.091
-141.487	226.700	-0.160	0.260
-140.472	-200.000	-0.008	0.129
-139.458	29.446	-0.120	0.102
-138.443	268.575	0.042	-0.073
-137.429	-69.659	-0.107	-0.041
-136.414	-200.000	0.028	-0.133
-135.399	800.000	0.054	0.169
-134.385	-191.387	-0.251	0.003
-133.370	-149.880	-0.073	0.006
-132.356	-107.283	0.283	0.062
-131.341	-58.517	0.089	0.039
-130.326	-200.000	-0.007	-0.094
-129.312	-68.597	-0.210	0.081
-128.297	-7.449	0.150	-0.101
-127.283	800.000	0.042	0.146
-126.268	-17.480	-0.146	-0.092
-125.253	-29.728	0.225	0.128
-124.239	-142.796	-0.436	-0.042
-123.224	229.704	-0.100	-0.164
