DTS Sentinel unit serial number:	SN413079Multiplexer serial number:	ORYXHardware model number:	OX4-SRSoftware version number:	ORYX F/W v4.00 Oryx Data Collector v3.7.2.0data status	okinstallation	princeton_trtdifferential loss correction	single-endedforward channel	channel 1reverse channel	N/Adate	2019/09/11time	08:36:11forward acquisition time	60.00reverse acquisition time	0.00gamma	496.2192k internal	0.2315k external	0.2315temperature offset calibration	0.9950default loss term (dB/km)	0.3790temperature slope calibration	1.0000multiplexer offset coefficient	1.0000multiplexer slope coefficient	1.0000fibre end	0.00T internal ref (°C)	33.31T ext. ref 1 (°C)	0.10T ext. ref 2 (°C)	30.58length (m)	temperature (°C)	Stokes	anti-Stokes-747.200	-120.260	0.194	0.033
-746.185	800.000	-0.039	0.114
-745.171	72.314	-0.122	0.129
-744.156	800.000	-0.044	0.159
-743.142	-200.000	-0.022	-0.115
-742.127	82.383	0.180	0.197
-741.112	170.168	0.147	0.213
-740.098	-90.208	0.384	-0.113
-739.083	-8.801	0.242	-0.165
-738.069	-66.231	-0.200	0.081
-737.054	225.549	0.088	0.145
-736.039	96.221	0.056	0.065
-735.025	-200.000	-0.032	0.207
-734.010	722.419	0.112	0.302
-732.996	-25.118	0.089	-0.054
-731.981	800.000	-0.109	-0.321
-730.966	223.014	0.044	0.072
-729.952	-49.158	0.010	-0.005
-728.937	-86.511	-0.180	-0.056
-727.923	-60.883	0.257	0.110
-726.908	308.329	0.097	-0.183
-725.894	185.244	-0.314	-0.472
-724.879	174.451	-0.013	-0.020
-723.864	68.245	-0.265	-0.275
-722.850	-200.000	0.050	-0.279
-721.835	-200.000	0.009	0.282
-720.821	-200.000	-0.006	-0.167
-719.806	-200.000	0.005	-0.115
-718.791	679.442	0.056	-0.147
-717.777	-120.859	-0.301	-0.051
-716.762	75.946	-0.032	-0.034
-715.748	284.002	-0.033	0.059
-714.733	-120.761	-0.339	0.058
-713.718	-200.000	-0.037	0.397
-712.704	407.139	-0.055	-0.118
-711.689	70.816	0.178	0.186
-710.675	800.000	-0.025	0.082
-709.660	37.638	-0.118	0.106
-708.645	193.580	-0.069	0.106
-707.631	800.000	-0.046	0.171
-706.616	-200.000	-0.069	0.647
-705.602	-59.712	0.180	-0.078
-704.587	800.000	0.062	0.233
-703.572	-102.560	0.033	-0.008
-702.558	-200.000	-0.005	0.454
-701.543	-13.207	-0.103	-0.068
-700.529	800.000	-0.073	0.234
-699.514	800.000	-0.020	0.078
-698.499	-2.955	-0.258	-0.182
-697.485	800.000	-0.070	-0.261
-696.470	179.509	0.053	-0.078
-695.456	394.988	-0.154	-0.325
-694.441	124.703	-0.161	-0.205
-693.426	-28.148	-0.228	-0.134
-692.412	54.991	-0.064	-0.063
-691.397	32.679	-0.173	0.151
-690.383	-98.333	0.137	0.036
-689.368	8.795	-0.075	0.057
-688.354	-19.777	0.287	0.179
-687.339	800.000	-0.013	-0.046
-686.324	331.607	-0.125	0.243
-685.310	247.790	-0.147	-0.251
-684.295	-163.027	0.502	-0.025
-683.281	130.913	-0.110	0.142
-682.266	58.092	0.032	0.031
-681.251	117.595	-0.124	-0.154
-680.237	29.665	-0.160	-0.137
-679.222	105.851	-0.242	-0.289
-678.208	-200.000	-0.026	0.126
-677.193	59.553	0.295	0.294
-676.178	-93.669	0.115	-0.032
-675.164	-200.000	-0.046	0.458
-674.149	-200.000	0.040	0.177
-673.135	54.459	0.025	0.024
-672.120	-182.176	-0.020	-0.000
-671.105	800.000	0.058	-0.187
-670.091	-200.000	-0.019	-0.135
-669.076	439.269	0.097	0.214
-668.062	-125.578	0.212	-0.032
-667.047	67.527	-0.203	-0.209
-666.032	-88.406	-0.194	-0.059
-665.018	582.152	-0.203	-0.504
-664.003	20.427	0.113	-0.093
-662.989	52.935	0.166	-0.161
-661.974	641.336	0.120	0.308
-660.959	-200.000	0.015	-0.078
-659.945	-127.859	-0.477	0.069
-658.930	-127.872	-0.364	-0.053
-657.916	219.246	0.071	0.115
-656.901	70.505	-0.015	0.016
-655.886	-160.436	-0.152	-0.008
-654.872	-113.297	-0.125	0.025
-653.857	22.239	0.244	0.201
-652.843	522.264	-0.041	-0.096
-651.828	-137.120	0.318	0.037
-650.814	-54.038	0.472	0.217
-649.799	-200.000	-0.002	0.077
-648.784	-46.309	-0.271	-0.134
-647.770	800.000	-0.054	0.231
-646.755	106.789	-0.251	0.301
-645.741	800.000	0.039	0.150
-644.726	116.144	-0.099	0.122
-643.711	439.406	-0.122	0.270
-642.697	277.063	0.021	-0.038
-641.682	-60.419	-0.328	-0.141
-640.668	-200.000	0.014	-0.075
-639.653	-200.000	-0.022	-0.219
-638.638	-200.000	-0.007	-0.457
-637.624	800.000	-0.059	-0.188
-636.609	-200.000	0.020	0.142
-635.595	-61.279	0.227	0.096
-634.580	447.696	-0.059	0.130
-633.565	-111.026	0.079	-0.016
-632.551	49.118	-0.122	-0.116
-631.536	-127.786	-0.179	0.026
-630.522	-200.000	-0.063	0.355
-629.507	-102.414	-0.360	-0.087
-628.492	-57.255	0.153	0.068
-627.478	-149.034	-0.091	-0.007
-626.463	110.408	0.126	-0.153
-625.449	-87.502	0.185	0.056
-624.434	-69.826	-0.141	-0.054
-623.419	-200.000	-0.036	0.403
-622.405	28.766	0.290	-0.248
-621.390	152.977	-0.066	0.091
-620.376	-160.342	-0.368	0.020
-619.361	-200.000	0.005	0.386
-618.346	131.460	-0.067	0.087
-617.332	-116.029	-0.266	0.050
-616.317	125.505	-0.197	-0.251
-615.303	288.939	-0.081	0.147
-614.288	-58.740	-0.217	-0.095
-613.273	8.716	-0.252	0.192
-612.259	-18.478	-0.210	0.132
-611.244	57.873	-0.179	0.177
-610.230	196.689	-0.108	-0.165
-609.215	144.474	-0.075	-0.100
-608.201	214.452	0.174	0.278
-607.186	30.250	0.241	0.207
-606.171	800.000	-0.069	-0.293
-605.157	-200.000	-0.016	0.114
-604.142	-78.257	0.063	-0.022
-603.128	238.467	-0.122	0.203
-602.113	24.032	-0.246	-0.204
-601.098	-164.173	-0.468	0.022
-600.084	-6.283	0.251	-0.173
-599.069	192.186	-0.120	-0.182
-598.055	454.293	-0.131	-0.292
-597.040	-128.225	-0.425	-0.061
-596.025	83.937	-0.217	-0.239
-595.011	105.810	-0.212	-0.253
-593.996	-31.567	-0.119	-0.067
-592.982	43.958	0.157	0.145
-591.967	800.000	-0.090	-0.289
-590.952	-195.306	0.168	-0.001
-589.938	-41.040	-0.083	-0.043
-588.923	55.831	-0.121	-0.118
-587.909	-124.048	0.300	-0.047
-586.894	-87.827	0.247	-0.075
-585.879	582.563	0.085	0.210
-584.865	72.204	-0.346	0.363
-583.850	800.000	0.041	-0.138
-582.836	113.092	0.194	0.237
-581.821	16.309	0.094	-0.074
-580.806	149.434	-0.108	0.148
-579.792	780.325	-0.116	-0.318
-578.777	400.348	-0.104	-0.220
-577.763	131.419	-0.106	-0.137
-576.748	-41.280	0.189	-0.098
-575.733	-164.233	-0.200	0.009
-574.719	56.573	0.239	0.234
-573.704	-191.209	-0.150	-0.002
-572.690	-61.200	0.093	0.039
-571.675	87.789	-0.127	0.141
-570.661	266.619	-0.031	0.054
-569.646	-112.578	-0.037	0.008
-568.631	-115.531	0.349	0.066
-567.617	-200.000	-0.012	0.088
-566.602	800.000	-0.036	0.127
-565.588	41.206	-0.111	0.101
-564.573	-200.000	0.016	-0.380
-563.558	14.788	-0.217	-0.170
-562.544	532.442	0.030	-0.071
-561.529	800.000	0.004	0.018
-560.515	-81.813	-0.216	0.071
-559.500	-112.430	-0.180	0.036
-558.485	261.907	0.010	0.018
-557.471	-200.000	0.045	0.283
-556.456	-106.453	0.131	0.029
-555.442	-200.000	0.005	-0.185
-554.427	-200.000	0.024	-0.243
-553.412	55.898	-0.161	0.157
-552.398	444.619	0.071	0.157
-551.383	112.100	-0.044	-0.053
-550.369	-11.126	-0.301	-0.199
-549.354	-200.000	0.018	0.223
-548.339	-151.041	-0.301	0.023
-547.325	208.298	-0.072	0.113
-546.310	773.927	-0.043	0.118
-545.296	-58.810	-0.029	-0.013
-544.281	-3.621	-0.138	0.097
-543.266	-120.472	-0.187	0.032
-542.252	-84.855	0.307	0.097
-541.237	-200.000	0.011	0.084
-540.223	418.061	-0.084	-0.181
-539.208	7.384	0.098	0.074
-538.193	-0.474	-0.099	-0.071
-537.179	23.554	0.286	0.236
-536.164	230.743	0.067	-0.111
-535.150	-103.160	0.200	0.047
-534.135	-126.763	0.035	-0.005
-533.121	-200.000	-0.017	-0.427
-532.106	461.580	-0.126	0.283
-531.091	-200.000	-0.049	0.274
-530.077	-126.647	0.325	-0.048
-529.062	-8.285	-0.303	-0.205
-528.048	32.631	-0.141	-0.122
-527.033	39.426	-0.030	0.027
-526.018	-78.722	0.163	0.056
-525.004	2.696	0.095	0.069
-523.989	-123.066	0.176	0.028
-522.975	201.589	-0.134	-0.208
-521.960	-107.773	0.255	0.056
-520.945	-101.913	-0.199	0.048
-519.931	-144.470	-0.159	0.015
-518.916	-200.000	-0.004	0.143
-517.902	734.314	0.035	-0.095
-516.887	-127.514	0.243	-0.035
-515.872	800.000	0.020	-0.054
-514.858	-23.469	-0.081	0.049
-513.843	105.321	0.197	0.234
-512.829	170.597	-0.131	-0.188
-511.814	-96.453	0.085	0.023
-510.799	800.000	-0.016	0.058
-509.785	63.287	-0.240	0.242
-508.770	-200.000	-0.010	0.255
-507.756	192.152	-0.028	0.042
-506.741	-200.000	0.013	0.332
-505.726	-200.000	-0.137	-0.001
-504.712	-80.736	0.167	-0.056
-503.697	311.744	0.050	-0.095
-502.683	-137.032	-0.255	-0.029
-501.668	182.737	0.133	-0.197
-500.653	-56.000	-0.155	-0.069
-499.639	-163.391	-0.324	-0.016
-498.624	-48.231	0.331	0.160
-497.610	137.922	0.210	-0.276
-496.595	58.328	-0.214	-0.210
-495.581	-67.020	0.237	-0.094
-494.566	336.342	0.050	0.097
-493.551	-52.059	-0.273	-0.127
-492.537	-68.547	0.253	0.099
-491.522	-51.297	-0.190	0.089
-490.508	96.374	-0.105	0.120
-489.493	30.776	-0.071	-0.061
-488.478	-78.643	0.147	-0.050
-487.464	117.396	0.050	0.062
-486.449	-66.145	0.125	0.050
-485.435	608.686	-0.061	-0.153
-484.420	-7.028	-0.190	0.129
-483.405	93.985	0.178	0.202
-482.391	-67.745	-0.084	0.033
-481.376	678.937	0.091	-0.239
-480.362	90.478	0.064	0.071
-479.347	-14.549	-0.246	-0.159
-478.332	-2.743	-0.149	0.104
-477.318	-49.100	0.189	-0.091
-476.303	35.126	0.143	-0.125
-475.289	-110.139	-0.193	0.040
-474.274	-197.907	0.159	-0.001
-473.259	195.776	-0.061	0.092
-472.245	741.858	0.066	-0.178
-471.230	154.785	-0.067	-0.093
-470.216	-124.530	0.121	0.019
-469.201	84.374	0.163	0.179
-468.186	-200.000	0.027	0.348
-467.172	-8.755	0.148	0.100
-466.157	-200.000	-0.034	-0.174
-465.143	-29.507	0.131	0.075
-464.128	221.502	-0.055	-0.088
-463.113	173.700	-0.105	-0.152
-462.099	-156.838	0.324	-0.020
-461.084	800.000	-0.066	0.238
-460.070	-39.764	-0.038	0.020
-459.055	395.428	0.192	-0.402
-458.040	-200.000	0.050	0.343
-457.026	-200.000	0.198	-0.000
-456.011	-113.459	0.301	-0.059
-454.997	-7.697	-0.218	0.148
-453.982	-43.237	-0.204	-0.103
-452.968	-112.071	-0.234	-0.047
-451.953	247.048	0.127	-0.215
-450.938	-82.791	-0.215	0.070
-449.924	179.858	-0.298	-0.438
-448.909	341.656	-0.106	-0.207
-447.895	100.859	-0.179	0.208
-446.880	-86.414	0.140	0.043
-445.865	171.120	0.213	0.306
-444.851	800.000	0.136	0.425
-443.836	-84.209	-0.303	-0.096
-442.822	20.689	0.141	0.114
-441.807	-118.718	-0.149	-0.026
-440.792	-170.917	-0.076	0.003
-439.778	-129.576	-0.380	-0.053
-438.763	800.000	0.050	-0.149
-437.749	83.175	0.141	0.154
-436.734	89.837	0.186	-0.208
-435.719	-51.927	0.162	0.075
-434.705	124.213	0.007	-0.009
-433.690	-114.374	0.447	-0.086
-432.676	-2.593	0.135	0.095
-431.661	237.396	-0.075	0.125
-430.646	396.308	-0.129	-0.270
-429.632	-200.000	-0.004	0.500
-428.617	-200.000	0.021	0.173
-427.603	-15.522	-0.224	0.143
-426.588	71.894	-0.047	0.049
-425.573	-200.000	-0.014	0.182
-424.559	-120.309	0.235	-0.040
-423.544	78.901	0.195	0.209
-422.530	-23.353	0.173	-0.104
-421.515	618.502	-0.093	0.233
-420.500	263.391	0.300	-0.522
-419.486	142.367	0.085	-0.113
-418.471	150.408	-0.046	-0.062
-417.457	-57.458	0.113	-0.050
-416.442	-200.000	-0.023	-0.117
-415.428	190.119	-0.133	-0.200
-414.413	-19.653	0.176	-0.109
-413.398	-68.539	-0.124	-0.048
-412.384	-63.867	0.104	-0.042
-411.369	-115.573	0.037	-0.007
-410.355	76.557	-0.093	-0.099
-409.340	-29.538	0.176	-0.101
-408.325	-171.840	-0.152	0.005
-407.311	13.283	-0.332	-0.257
-406.296	-132.426	0.160	-0.021
-405.282	-0.926	-0.065	0.046
-404.267	372.520	-0.072	0.146
-403.252	-57.568	0.331	-0.145
-402.238	800.000	0.033	0.118
-401.223	-178.058	0.172	-0.004
-400.209	-200.000	-0.032	-0.315
-399.194	-200.000	-0.003	-0.058
-398.179	-102.990	-0.450	-0.107
-397.165	800.000	0.038	-0.117
-396.150	-110.338	-0.292	0.061
-395.136	234.050	0.100	0.165
-394.121	19.410	-0.083	0.067
-393.106	-11.925	-0.100	-0.066
-392.092	-34.120	0.258	-0.142
-391.077	-68.509	-0.230	0.089
-390.063	-148.523	0.283	-0.023
-389.048	-18.592	-0.147	-0.091
-388.033	-186.884	0.059	-0.001
-387.019	96.612	-0.105	0.121
-386.004	-167.047	0.301	-0.012
-384.990	472.060	0.063	-0.142
-383.975	-75.438	0.123	-0.044
-382.960	613.538	0.158	0.394
-381.946	166.420	0.087	0.123
-380.931	221.207	0.202	-0.325
-379.917	-200.000	-0.071	0.334
-378.902	-162.308	0.273	-0.014
-377.888	-149.491	0.084	-0.007
-376.873	543.313	-0.140	-0.334
-375.858	-65.051	0.219	0.088
-374.844	-134.393	-0.122	0.015
-373.829	-113.815	-0.094	-0.018
-372.815	497.211	-0.075	-0.172
-371.800	-107.282	-0.031	0.007
-370.785	-200.000	-0.018	-0.252
-369.771	-200.000	0.016	-0.243
-368.756	-200.000	-0.033	-0.204
-367.742	-200.000	-0.034	-0.323
-366.727	-200.000	-0.087	-0.490
-365.712	147.274	0.038	0.052
-364.698	124.041	0.266	-0.334
-363.683	3.704	0.239	-0.174
-362.669	-57.133	-0.378	0.166
-361.654	779.487	0.034	0.092
-360.639	-200.000	-0.042	-0.208
-359.625	800.000	0.035	0.130
-358.610	-79.290	0.494	-0.167
-357.596	79.615	-0.112	-0.120
-356.581	386.613	-0.119	-0.245
-355.566	-99.171	0.130	-0.033
-354.552	-10.083	0.275	0.183
-353.537	-126.373	-0.147	-0.022
-352.523	-145.739	-0.334	-0.030
-351.508	193.130	-0.132	-0.199
-350.493	-95.686	0.521	-0.139
-349.479	19.926	-0.182	-0.146
-348.464	192.913	-0.048	0.072
-347.450	249.110	0.189	0.319
-346.435	370.004	0.170	-0.345
-345.420	119.803	-0.169	-0.209
-344.406	800.000	0.027	-0.090
-343.391	800.000	0.065	-0.259
-342.377	-109.824	0.073	-0.015
-341.362	66.823	0.076	0.077
-340.348	-114.937	-0.206	0.039
-339.333	64.163	0.039	-0.039
-338.318	98.059	-0.063	-0.072
-337.304	-15.895	-0.100	0.063
-336.289	354.232	-0.110	0.217
-335.275	-165.698	-0.336	-0.014
-334.260	27.662	0.042	-0.035
-333.245	181.328	0.123	0.181
-332.231	-194.301	0.082	-0.001
-331.216	695.114	0.144	-0.378
-330.202	-102.672	-0.059	-0.014
-329.187	-102.117	-0.160	0.038
-328.172	-90.493	0.215	-0.062
-327.158	-75.735	-0.225	-0.080
-326.143	-149.710	0.289	0.023
-325.129	-149.119	0.157	0.013
-324.114	800.000	0.089	0.289
-323.099	-38.169	0.151	0.080
-322.085	-88.460	0.121	-0.036
-321.070	-127.274	0.105	-0.015
-320.056	14.434	0.024	-0.018
-319.041	-82.994	-0.185	-0.059
-318.026	101.246	0.200	0.233
-317.012	237.293	-0.098	0.163
-315.997	301.699	0.170	-0.313
-314.983	800.000	0.024	0.083
-313.968	85.093	0.156	0.170
-312.953	729.343	0.106	-0.283
-311.939	-200.000	-0.044	-0.251
-310.924	4.710	-0.056	-0.041
-309.910	737.396	0.092	0.246
-308.895	-72.453	-0.254	0.094
-307.880	-200.000	-0.011	0.213
-306.866	99.666	0.047	-0.055
-305.851	-45.612	-0.245	0.121
-304.837	-137.665	0.164	-0.018
-303.822	36.288	0.130	0.114
-302.807	-200.000	0.000	0.116
-301.793	-6.022	0.084	-0.057
-300.778	344.604	0.152	-0.298
-299.764	695.255	0.009	0.023
-298.749	396.341	0.046	-0.095
-297.735	273.482	-0.233	0.410
-296.720	-37.830	-0.271	0.143
-295.705	-200.000	0.003	0.246
-294.691	-77.617	-0.167	-0.058
-293.676	-99.530	-0.127	0.032
-292.662	50.847	-0.152	0.143
-291.647	1.244	-0.143	0.102
-290.632	152.889	-0.304	0.414
-289.618	716.470	0.134	0.355
-288.603	222.418	0.147	-0.236
-287.589	-82.561	-0.322	0.104
-286.574	-200.000	0.025	0.230
-285.559	-52.191	0.339	-0.157
-284.545	124.050	0.161	0.201
-283.530	-200.000	-0.024	-0.116
-282.516	-92.550	-0.203	0.057
-281.501	-69.709	0.138	-0.052
-280.486	-200.000	-0.027	0.123
-279.472	-200.000	0.053	-0.461
-278.457	800.000	-0.071	-0.269
-277.443	66.019	-0.223	-0.225
-276.428	63.400	0.157	-0.157
-275.413	-113.980	-0.200	0.039
-274.399	800.000	0.133	-0.368
-273.384	153.033	0.345	0.470
-272.370	40.686	-0.160	0.144
-271.355	-66.160	0.162	-0.064
-270.340	398.125	0.150	0.313
-269.326	-200.000	0.010	0.365
-268.311	423.904	-0.179	0.383
-267.297	-112.492	0.314	-0.062
-266.282	47.461	0.126	-0.117
-265.267	174.847	0.072	0.104
-264.253	6.224	0.165	-0.122
-263.238	42.423	0.058	-0.053
-262.224	22.262	0.101	0.082
-261.209	-0.586	-0.326	0.230
-260.195	0.532	0.408	-0.290
-259.180	-112.979	-0.163	0.032
-258.165	440.350	-0.107	-0.232
-257.151	578.479	-0.112	0.272
-256.136	22.852	-0.209	0.171
-255.122	800.000	0.083	0.270
-254.107	-165.118	0.113	-0.005
-253.092	269.307	0.086	-0.150
-252.078	-52.163	0.436	0.201
-251.063	-99.470	0.056	0.014
-250.049	-100.252	0.287	-0.071
-249.034	-9.281	-0.140	-0.093
-248.019	800.000	0.037	0.120
-247.005	112.264	0.114	-0.137
-245.990	575.922	0.118	-0.285
-244.976	-132.063	0.340	-0.044
-243.961	140.362	-0.245	0.322
-242.946	-18.269	0.108	-0.067
-241.932	-13.477	-0.204	-0.131
-240.917	48.115	-0.110	-0.103
-239.903	-28.450	-0.267	-0.153
-238.888	-33.720	0.274	0.150
-237.873	-100.625	0.233	-0.057
-236.859	-200.000	0.005	0.091
-235.844	561.841	0.189	-0.453
-234.830	-200.000	0.028	-0.253
-233.815	174.009	0.154	-0.220
-232.800	481.313	0.060	-0.135
-231.786	466.883	-0.058	-0.129
-230.771	222.230	-0.121	-0.194
-229.757	-140.114	-0.423	0.044
-228.742	100.711	-0.158	0.183
-227.727	265.856	0.077	-0.133
-226.713	-97.109	0.179	-0.046
-225.698	-52.421	0.326	0.150
-224.684	45.521	-0.119	0.109
-223.669	-98.845	-0.113	-0.029
-222.655	457.138	0.071	0.156
-221.640	-200.000	0.056	0.264
-220.625	-98.204	-0.107	-0.027
-219.611	3.044	-0.351	0.253
-218.596	11.915	-0.084	-0.064
-217.582	-92.544	-0.097	0.027
-216.567	-115.518	0.078	-0.015
-215.552	444.654	-0.119	0.259
-214.538	47.838	0.080	0.074
-213.523	143.918	0.296	-0.391
-212.509	-200.000	-0.035	-0.189
-211.494	-118.061	0.142	0.025
-210.479	-176.272	-0.335	0.009
-209.465	239.134	0.069	-0.113
-208.450	735.319	-0.041	0.108
-207.436	549.321	-0.073	0.174
-206.421	139.904	-0.089	-0.117
-205.406	-42.981	-0.306	-0.154
-204.392	40.120	-0.089	0.079
-203.377	51.005	0.213	-0.200
-202.363	-123.804	-0.177	0.028
-201.348	-87.104	-0.337	-0.102
-200.333	-200.000	0.000	-0.097
-199.319	-160.462	0.091	0.005
-198.304	800.000	0.059	-0.240
-197.290	-200.000	0.037	0.188
-196.275	-7.445	0.240	0.161
-195.260	800.000	0.155	-0.443
-194.246	23.003	-0.173	0.141
-193.231	-37.078	0.082	0.044
-192.217	183.874	0.148	-0.217
-191.202	-200.000	0.038	0.255
-190.187	93.641	-0.076	-0.086
-189.173	-133.730	0.292	0.036
-188.158	358.141	-0.026	0.051
-187.144	-143.376	0.088	-0.008
-186.129	42.263	-0.044	-0.040
-185.114	-146.810	0.308	0.026
-184.100	156.296	0.114	-0.156
-183.085	800.000	0.037	-0.129
-182.071	505.854	-0.031	0.072
-181.056	74.513	-0.168	0.175
-180.042	-101.235	0.037	0.009
-179.027	11.948	-0.233	0.177
-178.012	-110.290	0.160	-0.033
-176.998	-200.000	-0.000	0.292
-175.983	209.846	-0.097	0.150
-174.969	-100.872	0.187	0.046
-173.954	349.803	-0.023	0.045
-172.939	453.572	0.131	-0.288
-171.925	-200.000	0.008	0.255
-170.910	32.269	0.251	0.215
-169.896	-72.759	0.162	0.059
-168.881	-100.056	-0.402	0.099
-167.866	249.949	-0.102	0.171
-166.852	-123.728	0.214	-0.034
-165.837	16.915	-0.114	-0.090
-164.823	-114.445	0.016	0.003
-163.808	-200.000	-0.037	0.298
-162.793	26.506	-0.158	-0.131
-161.779	-64.148	0.308	-0.124
-160.764	65.992	-0.153	-0.154
-159.750	-136.012	0.118	0.014
-158.735	-33.109	0.170	0.093
-157.720	-96.772	0.480	-0.125
-156.706	772.730	-0.141	0.382
-155.691	-57.929	0.264	0.114
-154.677	286.063	-0.050	0.089
-153.662	-200.000	-0.049	0.371
-152.647	-95.885	0.117	0.031
-151.633	-122.772	-0.148	-0.024
-150.618	-39.595	-0.273	-0.141
-149.604	510.677	-0.076	0.175
-148.589	-109.978	-0.029	-0.006
-147.574	-29.570	-0.245	-0.139
-146.560	-65.778	0.501	-0.199
-145.545	4.656	0.115	-0.084
-144.531	800.000	0.024	0.104
-143.516	505.884	0.049	-0.112
-142.502	-101.036	0.192	0.047
-141.487	-103.957	0.093	0.021
-140.472	110.796	-0.047	-0.057
-139.458	800.000	0.082	-0.263
-138.443	48.809	-0.121	0.112
-137.429	-32.950	-0.069	-0.038
-136.414	-200.000	0.010	0.059
-135.399	91.879	0.177	-0.197
-134.385	78.895	0.213	-0.226
-133.370	800.000	0.074	0.291
-132.356	178.939	-0.100	0.144
-131.341	-61.366	0.257	0.107
-130.326	22.537	0.099	-0.080
-129.312	-120.227	0.177	0.030
-128.297	353.042	-0.074	0.145
-127.283	-48.549	0.258	0.123
-126.268	-92.190	0.206	-0.058
-125.253	-34.206	0.120	-0.065
-124.239	-138.847	0.079	0.009
-123.224	-25.709	-0.219	0.128
-122.210	-56.028	-0.087	0.039
-121.195	-200.000	-0.018	0.137
