DTS Sentinel unit serial number:	SN413079Multiplexer serial number:	ORYXHardware model number:	OX4-SRSoftware version number:	ORYX F/W v4.00 Oryx Data Collector v3.7.2.0data status	okinstallation	princeton_trtdifferential loss correction	single-endedforward channel	channel 1reverse channel	N/Adate	2019/09/16time	19:14:35forward acquisition time	60.00reverse acquisition time	0.00gamma	496.2192k internal	0.2313k external	0.2313temperature offset calibration	0.9946default loss term (dB/km)	0.3790temperature slope calibration	1.0000multiplexer offset coefficient	1.0000multiplexer slope coefficient	1.0000fibre end	0.00T internal ref (°C)	35.06T ext. ref 1 (°C)	0.06T ext. ref 2 (°C)	28.18length (m)	temperature (°C)	Stokes	anti-Stokes-747.200	-104.209	0.366	0.086
-746.185	12.648	-0.172	0.134
-745.171	800.000	0.122	-0.455
-744.156	-186.693	-0.262	0.004
-743.142	-61.662	0.307	0.131
-742.127	-44.389	0.228	-0.116
-741.112	-200.000	0.111	-0.507
-740.098	-200.000	-0.038	0.322
-739.083	305.747	0.132	0.249
-738.069	479.280	-0.024	0.056
-737.054	460.181	-0.009	0.020
-736.039	504.171	0.108	0.254
-735.025	-73.438	-0.370	-0.137
-734.010	95.052	0.162	-0.187
-732.996	-39.708	-0.138	-0.073
-731.981	-60.851	-0.261	0.112
-730.966	-23.603	-0.224	0.136
-729.952	-139.613	-0.254	-0.027
-728.937	-46.299	-0.259	-0.129
-727.923	-200.000	-0.020	-0.100
-726.908	10.450	0.228	-0.176
-725.894	157.727	-0.192	-0.269
-724.879	-76.155	-0.334	-0.120
-723.864	23.260	-0.206	0.171
-722.850	72.443	0.098	-0.103
-721.835	-33.235	0.045	-0.025
-720.821	84.871	-0.185	-0.205
-719.806	-108.679	0.140	0.030
-718.791	-91.706	-0.443	-0.128
-717.777	46.710	-0.078	0.073
-716.762	-200.000	0.013	0.175
-715.748	-69.670	-0.335	-0.130
-714.733	800.000	-0.031	0.113
-713.718	-164.018	0.351	0.017
-712.704	20.998	-0.217	0.178
-711.689	235.326	-0.083	0.138
-710.675	-200.000	-0.016	0.118
-709.660	59.860	0.069	-0.069
-708.645	-60.113	0.132	-0.057
-707.631	51.486	0.177	-0.170
-706.616	39.749	0.188	-0.171
-705.602	-200.000	-0.002	-0.024
-704.587	-59.862	0.166	0.072
-703.572	-43.674	-0.073	0.037
-702.558	76.118	-0.103	0.111
-701.543	-66.967	0.309	0.124
-700.529	99.571	-0.283	-0.331
-699.514	209.740	-0.176	0.279
-698.499	-200.000	0.015	0.345
-697.485	-106.684	0.349	-0.079
-696.470	800.000	-0.065	0.194
-695.456	-148.262	0.106	-0.009
-694.441	68.195	-0.253	-0.262
-693.426	641.277	0.045	0.117
-692.412	-96.340	0.256	-0.068
-691.397	133.958	0.082	0.107
-690.383	-58.671	0.129	0.057
-689.368	123.762	0.109	0.138
-688.354	-92.659	0.179	-0.051
-687.339	-123.935	0.320	-0.051
-686.324	800.000	0.027	0.081
-685.310	126.119	0.188	0.241
-684.295	-200.000	-0.015	0.071
-683.281	800.000	-0.079	-0.237
-682.266	-200.000	0.038	-0.216
-681.251	-200.000	-0.011	-0.316
-680.237	-90.157	0.240	-0.071
-679.222	-144.307	-0.085	-0.008
-678.208	102.640	0.169	-0.199
-677.193	43.690	0.172	-0.159
-676.178	800.000	-0.029	0.123
-675.164	147.999	-0.008	0.011
-674.149	-38.917	0.177	0.094
-673.135	586.046	-0.142	0.352
-672.120	-173.726	0.251	0.008
-671.105	589.156	-0.041	-0.103
-670.091	-115.027	0.091	0.018
-669.076	20.302	-0.125	0.102
-668.062	-43.922	-0.288	-0.147
-667.047	132.276	0.116	0.151
-666.032	-200.000	-0.007	0.093
-665.018	-200.000	0.006	-0.113
-664.003	74.648	-0.163	0.174
-662.989	800.000	-0.084	-0.252
-661.974	-29.803	-0.294	0.170
-660.959	-58.514	-0.321	0.141
-659.945	-59.127	-0.285	-0.124
-658.930	0.119	-0.192	-0.138
-657.916	359.046	0.156	0.315
-656.901	-200.000	0.029	-0.147
-655.886	-56.122	-0.310	-0.140
-654.872	-131.823	-0.147	0.019
-653.857	17.307	-0.279	-0.224
-652.843	189.801	-0.028	-0.043
-651.828	-48.532	-0.256	-0.125
-650.814	195.500	-0.108	-0.166
-649.799	-10.794	-0.122	-0.082
-648.784	588.491	0.169	-0.420
-647.770	2.708	-0.301	-0.220
-646.755	-136.232	0.313	0.037
-645.741	728.018	-0.067	-0.181
-644.726	-200.000	-0.012	0.067
-643.711	-93.753	0.190	0.053
-642.697	-38.983	-0.127	-0.068
-641.682	34.337	-0.144	0.127
-640.668	800.000	0.048	-0.166
-639.653	173.209	-0.125	0.182
-638.638	26.466	0.122	-0.103
-637.624	-129.569	-0.214	0.030
-636.609	-200.000	0.012	-0.058
-635.595	14.237	-0.137	0.108
-634.580	-151.027	-0.276	0.021
-633.565	4.675	-0.187	0.139
-632.551	470.300	-0.204	0.463
-631.536	-94.906	-0.333	0.091
-630.522	-200.000	0.053	-0.279
-629.507	-200.000	0.023	0.228
-628.492	-149.547	0.135	-0.011
-627.478	-85.594	0.098	-0.031
-626.463	-39.821	-0.237	0.125
-625.449	393.920	0.189	0.398
-624.434	-200.000	-0.004	0.048
-623.419	75.546	0.143	-0.152
-622.405	77.582	-0.087	-0.093
-621.390	800.000	-0.064	0.224
-620.376	-20.793	0.155	0.096
-619.361	64.138	0.202	0.205
-618.346	662.538	-0.024	0.063
-617.332	-113.423	-0.144	0.028
-616.317	602.395	-0.032	-0.079
-615.303	-65.161	0.322	0.131
-614.288	-124.997	-0.287	0.045
-613.273	-63.570	-0.294	0.122
-612.259	15.207	0.406	0.321
-611.244	50.689	0.125	-0.119
-610.230	108.338	-0.172	0.207
-609.215	-166.961	-0.370	-0.015
-608.201	-135.049	-0.243	0.030
-607.186	-87.529	0.187	-0.057
-606.171	782.625	0.097	0.268
-605.157	250.422	-0.094	-0.161
-604.142	-200.000	-0.019	-0.200
-603.128	-147.454	0.308	0.026
-602.113	-46.072	-0.427	0.212
-601.098	-200.000	-0.008	-0.691
-600.084	185.218	-0.199	-0.298
-599.069	800.000	-0.080	-0.272
-598.055	-200.000	-0.014	-0.565
-597.040	122.036	-0.040	0.050
-596.025	-143.263	-0.259	-0.025
-595.011	800.000	-0.037	-0.115
-593.996	202.299	0.112	0.174
-592.982	-200.000	-0.014	-0.218
-591.967	800.000	0.181	0.521
-590.952	-200.000	-0.030	-0.215
-589.938	33.250	0.231	-0.202
-588.923	-200.000	0.027	-0.125
-587.909	365.425	0.016	-0.032
-586.894	-165.609	-0.420	0.018
-585.879	-166.010	0.294	0.013
-584.865	146.768	0.090	-0.121
-583.850	144.068	-0.198	-0.266
-582.836	31.229	-0.219	0.189
-581.821	18.495	0.233	0.188
-580.806	-91.782	0.113	0.032
-579.792	-136.683	-0.422	-0.049
-578.777	-34.434	0.276	-0.152
-577.763	11.257	0.066	-0.051
-576.748	-200.000	-0.014	-0.075
-575.733	-200.000	0.002	0.382
-574.719	-200.000	0.041	-0.261
-573.704	-66.748	0.329	-0.131
-572.690	800.000	-0.091	-0.295
-571.675	-199.960	-0.379	-0.002
-570.661	-78.695	0.224	-0.077
-569.646	-149.489	-0.199	-0.016
-568.631	4.794	-0.280	0.207
-567.617	292.101	0.189	0.346
-566.602	-82.602	0.449	0.147
-565.588	800.000	0.077	0.237
-564.573	800.000	0.059	-0.206
-563.558	-101.387	0.344	0.084
-562.544	800.000	0.029	0.081
-561.529	108.047	0.336	-0.403
-560.515	-63.143	0.116	0.048
-559.500	800.000	0.032	0.092
-558.485	13.856	0.149	0.117
-557.471	-61.387	-0.316	0.134
-556.456	-107.214	-0.188	0.042
-555.442	-38.957	0.224	-0.119
-554.427	-140.277	-0.070	0.007
-553.412	125.022	-0.257	-0.326
-552.398	-121.507	0.206	0.034
-551.383	-125.286	0.007	0.001
-550.369	201.063	-0.089	0.138
-549.354	-200.000	-0.003	0.242
-548.339	-200.000	-0.026	0.140
-547.325	-103.631	-0.265	0.063
-546.310	-133.437	-0.045	0.006
-545.296	-120.478	0.107	0.018
-544.281	-145.048	0.295	-0.027
-543.266	-2.591	-0.193	-0.136
-542.252	367.251	0.044	-0.089
-541.237	800.000	0.116	0.324
-540.223	656.375	0.075	-0.194
-539.208	-34.437	-0.191	0.105
-538.193	-86.688	0.189	-0.058
-537.179	-125.774	-0.250	0.038
-536.164	-200.000	-0.005	-0.100
-535.150	-200.000	0.061	-0.475
-534.135	730.696	-0.012	-0.034
-533.121	10.243	-0.103	-0.079
-532.106	800.000	-0.102	0.348
-531.091	170.816	0.070	-0.101
-530.077	69.886	-0.179	0.186
-529.062	-155.826	0.303	-0.019
-528.048	-46.734	-0.234	0.115
-527.033	-55.299	0.066	-0.030
-526.018	50.260	0.127	-0.121
-525.004	102.073	0.080	0.094
-523.989	22.547	-0.315	0.259
-522.975	29.786	-0.193	-0.166
-521.960	113.919	-0.085	-0.104
-520.945	222.808	-0.066	-0.107
-519.931	146.132	0.116	0.157
-518.916	-200.000	0.069	0.306
-517.902	-118.970	0.185	0.033
-516.887	97.450	0.109	-0.125
-515.872	115.564	0.185	-0.227
-514.858	-60.672	-0.123	-0.053
-513.843	-200.000	-0.030	-0.259
-512.829	-170.680	0.270	0.009
-511.814	-161.953	0.173	-0.009
-510.799	-141.831	0.125	-0.013
-509.785	-159.776	-0.038	-0.002
-508.770	228.572	-0.174	-0.285
-507.756	-6.571	0.244	-0.167
-506.741	-81.530	-0.216	-0.071
-505.726	106.061	-0.405	0.482
-504.712	1.939	-0.043	-0.031
-503.697	-195.958	0.312	0.002
-502.683	-81.065	-0.142	0.047
-501.668	92.917	-0.142	-0.161
-500.653	122.023	0.094	0.118
-499.639	-110.831	0.159	-0.033
-498.624	4.613	-0.117	0.086
-497.610	80.165	0.072	-0.078
-496.595	-34.042	-0.141	0.078
-495.581	-85.839	0.136	-0.042
-494.566	-100.737	-0.221	-0.055
-493.551	177.143	0.099	0.144
-492.537	-74.968	0.033	-0.012
-491.522	50.471	-0.041	-0.039
-490.508	409.953	0.123	-0.262
-489.493	576.597	0.116	-0.284
-488.478	-61.220	0.283	0.120
-487.464	227.383	0.039	-0.064
-486.449	-49.926	-0.100	0.048
-485.435	209.646	-0.076	0.120
-484.420	-25.335	-0.143	0.085
-483.405	257.177	0.078	0.135
-482.391	247.015	0.159	0.269
-481.376	144.188	-0.161	0.216
-480.362	-40.349	-0.215	0.112
-479.347	82.922	-0.216	0.235
-478.332	-65.250	-0.503	0.203
-477.318	800.000	-0.040	-0.139
-476.303	-200.000	0.031	0.155
-475.289	800.000	0.105	0.350
-474.274	530.320	-0.028	0.066
-473.259	363.930	0.102	0.205
-472.245	322.952	0.061	-0.116
-471.230	-91.904	-0.321	0.091
-470.216	54.551	0.050	-0.048
-469.201	-140.236	0.411	-0.043
-468.186	-200.000	0.004	-0.019
-467.172	-200.000	-0.008	-0.059
-466.157	277.504	0.117	-0.209
-465.143	-200.000	-0.002	-0.140
-464.128	-200.000	0.049	0.418
-463.113	75.702	-0.179	0.189
-462.099	-53.117	0.050	0.023
-461.084	800.000	0.039	0.167
-460.070	18.055	0.082	0.066
-459.055	-42.613	0.359	-0.183
-458.040	-12.738	0.125	0.082
-457.026	800.000	0.035	0.119
-456.011	13.216	0.039	-0.030
-454.997	-2.860	-0.250	-0.176
-453.982	-200.000	0.012	-0.075
-452.968	148.634	0.126	0.170
-451.953	-127.134	-0.157	-0.023
-450.938	-200.000	-0.013	0.205
-449.924	-32.536	0.154	-0.086
-448.909	2.518	-0.238	-0.173
-447.895	70.237	0.227	-0.235
-446.880	381.349	0.111	-0.229
-445.865	129.413	0.239	-0.306
-444.851	-200.000	-0.008	0.130
-443.836	15.748	-0.101	-0.079
-442.822	-25.114	0.064	0.038
-441.807	538.085	-0.063	-0.150
-440.792	800.000	-0.088	0.331
-439.778	-30.820	0.174	0.098
-438.763	800.000	-0.031	0.098
-437.749	-5.645	-0.484	-0.332
-436.734	129.485	-0.256	0.328
-435.719	61.944	-0.243	-0.243
-434.705	-200.000	-0.021	-0.477
-433.690	320.054	-0.120	0.228
-432.676	0.182	0.215	0.154
-431.661	-72.895	-0.167	0.062
-430.646	331.609	-0.092	-0.178
-429.632	162.255	-0.026	0.036
-428.617	-42.821	0.043	-0.022
-427.603	219.215	-0.219	-0.351
-426.588	-68.303	0.071	-0.028
-425.573	-2.497	0.269	-0.189
-424.559	109.526	0.195	0.234
-423.544	118.142	0.178	-0.220
-422.530	-4.722	0.191	-0.132
-421.515	-200.000	-0.029	0.130
-420.500	-200.000	0.001	0.026
-419.486	-165.399	0.158	-0.007
-418.471	435.039	-0.089	0.193
-417.457	800.000	-0.006	0.017
-416.442	-99.858	-0.325	-0.081
-415.428	-96.907	-0.117	-0.031
-414.413	-200.000	0.004	0.252
-413.398	800.000	0.038	0.115
-412.384	-69.563	-0.307	0.118
-411.369	153.391	0.089	0.122
-410.355	490.133	-0.082	-0.187
-409.340	-52.502	-0.127	0.059
-408.325	-30.083	-0.280	-0.160
-407.311	800.000	-0.093	-0.344
-406.296	-200.000	-0.024	-0.386
-405.282	-49.262	0.078	-0.037
-404.267	-57.488	0.366	0.161
-403.252	-196.487	-0.193	-0.001
-402.238	-19.097	0.238	-0.148
-401.223	113.527	-0.128	0.156
-400.209	-200.000	-0.001	0.010
-399.194	508.169	0.115	-0.268
-398.179	42.525	-0.147	-0.134
-397.165	-63.325	-0.367	-0.151
-396.150	-124.549	-0.275	-0.043
-395.136	-128.865	0.333	0.047
-394.121	566.244	0.073	-0.178
-393.106	-200.000	0.006	-0.151
-392.092	-111.607	0.037	0.007
-391.077	800.000	-0.087	0.342
-390.063	800.000	-0.072	0.285
-389.048	-44.437	0.109	-0.055
-388.033	202.107	0.118	-0.182
-387.019	127.777	0.158	-0.201
-386.004	-28.746	-0.121	-0.070
-384.990	47.454	0.117	0.109
-383.975	-58.399	0.136	-0.059
-382.960	800.000	-0.057	-0.248
-381.946	-129.068	-0.027	-0.004
-380.931	30.304	-0.158	-0.135
-379.917	35.968	-0.116	0.102
-378.902	-200.000	-0.006	-0.302
-377.888	160.169	-0.161	-0.225
-376.873	-113.772	-0.297	0.058
-375.858	-92.596	-0.290	0.081
-374.844	-155.084	0.149	-0.010
-373.829	-200.000	0.004	-0.095
-372.815	182.735	0.084	-0.125
-371.800	-171.443	0.285	0.009
-370.785	-200.000	-0.018	0.204
-369.771	800.000	0.040	-0.163
-368.756	-147.661	-0.069	-0.006
-367.742	-200.000	-0.096	-0.434
-366.727	-200.000	-0.069	0.366
-365.712	-200.000	-0.017	0.090
-364.698	-42.327	-0.040	-0.020
-363.683	-143.201	0.213	0.020
-362.669	-200.000	0.060	0.314
-361.654	213.322	0.050	-0.078
-360.639	52.568	0.142	-0.136
-359.625	-133.383	-0.333	-0.042
-358.610	108.907	-0.115	-0.137
-357.596	-168.255	-0.134	0.005
-356.581	354.581	-0.133	0.265
-355.566	311.611	0.063	0.118
-354.552	203.362	0.118	0.182
-353.537	82.455	-0.102	0.111
-352.523	-111.264	0.211	0.043
-351.508	471.977	-0.185	0.415
-350.493	-52.121	-0.091	0.042
-349.479	-65.810	0.084	0.034
-348.464	56.780	-0.161	0.157
-347.450	-26.139	-0.025	-0.015
-346.435	-200.000	0.050	-0.244
-345.420	800.000	0.043	-0.181
-344.406	122.098	-0.055	0.068
-343.391	-200.000	-0.049	-0.499
-342.377	-50.473	0.160	-0.075
-341.362	152.866	0.148	-0.202
-340.348	-200.000	-0.043	-0.194
-339.333	-200.000	0.027	-0.340
-338.318	-200.000	-0.006	0.193
-337.304	-10.209	-0.328	0.218
-336.289	39.269	0.114	0.101
-335.275	42.468	0.150	0.136
-334.260	800.000	0.055	0.174
-333.245	-141.782	0.396	-0.040
-332.231	114.788	0.053	-0.065
-331.216	-65.951	-0.235	0.094
-330.202	-121.735	0.307	-0.051
-329.187	43.496	0.059	-0.054
-328.172	-100.799	-0.207	0.051
-327.158	-200.000	-0.016	0.081
-326.143	42.419	0.102	-0.093
-325.129	-200.000	-0.003	0.334
-324.114	-200.000	-0.038	0.510
-323.099	-200.000	-0.009	0.280
-322.085	-200.000	-0.035	-0.251
-321.070	-183.487	0.198	-0.003
-320.056	-134.864	0.165	0.020
-319.041	-74.775	0.342	0.122
-318.026	-166.994	-0.197	0.008
-317.012	55.062	-0.200	-0.192
-315.997	-27.761	0.266	-0.154
-314.983	441.276	0.166	-0.362
-313.968	98.211	-0.172	-0.197
-312.953	-13.081	-0.334	0.217
-311.939	-118.134	0.271	-0.048
-310.924	-13.681	-0.409	0.264
-309.910	-79.920	-0.300	-0.100
-308.895	-38.046	0.147	0.078
-307.880	48.723	0.061	0.057
-306.866	-192.556	0.272	0.003
-305.851	-200.000	-0.002	-0.065
-304.837	-111.845	-0.124	-0.025
-303.822	-200.000	0.045	0.308
-302.807	93.217	0.239	0.270
-301.793	-165.332	0.363	0.016
-300.778	-57.580	-0.179	0.078
-299.764	-200.000	0.005	-0.135
-298.749	51.786	0.092	0.087
-297.735	-143.209	0.014	-0.001
-296.720	356.938	-0.069	0.137
-295.705	1.534	-0.142	0.102
-294.691	738.465	-0.070	-0.187
-293.676	145.479	0.065	0.087
-292.662	-200.000	-0.009	-0.221
-291.647	563.772	0.104	0.252
-290.632	65.231	0.082	0.083
-289.618	-31.284	0.228	0.128
-288.603	140.986	-0.169	0.223
-287.589	-200.000	-0.040	-0.347
-286.574	-200.000	0.017	-0.264
-285.559	43.799	-0.041	-0.038
-284.545	4.186	-0.207	-0.151
-283.530	-200.000	-0.010	-0.056
-282.516	-54.775	-0.210	-0.094
-281.501	800.000	0.030	0.095
-280.486	800.000	0.082	0.243
-279.472	-52.455	-0.022	-0.010
-278.457	34.541	0.014	0.012
-277.443	-200.000	-0.007	-0.100
-276.428	-54.998	-0.071	0.032
-275.413	-59.163	-0.370	-0.159
-274.399	-35.848	0.124	0.067
-273.384	-200.000	-0.008	-0.131
-272.370	800.000	-0.030	0.084
-271.355	113.589	0.197	0.238
-270.340	-118.493	0.184	-0.032
-269.326	281.290	0.164	-0.293
-268.311	-41.077	0.353	0.182
-267.297	51.268	-0.168	-0.159
-266.282	102.806	-0.234	-0.272
-265.267	-17.367	0.160	0.100
-264.253	-106.374	-0.071	0.016
-263.238	-17.459	-0.257	0.161
-262.224	118.640	0.242	-0.298
-261.209	-154.314	0.096	0.006
-260.195	343.369	-0.045	-0.087
-259.180	653.518	0.007	-0.017
-258.165	10.622	0.099	0.075
-257.151	-114.998	0.117	0.022
-256.136	-200.000	0.004	0.093
-255.122	-125.759	-0.080	-0.012
-254.107	109.225	0.080	-0.096
-253.092	-123.310	-0.113	-0.018
-252.078	800.000	0.031	-0.108
-251.063	-53.081	0.155	0.071
-250.049	-200.000	-0.016	0.151
-249.034	800.000	0.048	0.158
-248.019	148.569	-0.166	0.223
-247.005	-165.491	0.208	-0.009
-245.990	800.000	0.041	-0.123
-244.976	-200.000	-0.007	-0.398
-243.961	800.000	0.058	-0.244
-242.946	212.262	0.192	0.301
-241.932	-76.987	0.235	0.082
-240.917	211.688	0.227	0.356
-239.903	23.077	-0.140	0.115
-238.888	65.201	-0.117	0.117
-237.873	20.248	0.096	0.077
-236.859	800.000	-0.029	0.126
-235.844	-109.305	0.143	0.030
-234.830	202.562	0.064	0.098
-233.815	75.166	-0.080	0.084
-232.800	-200.000	0.004	-0.071
-231.786	-159.037	-0.177	0.010
-230.771	-200.000	0.057	0.269
-229.757	342.674	-0.137	0.266
-228.742	-106.603	0.080	-0.018
-227.727	505.137	0.205	-0.473
-226.713	-76.577	-0.429	0.150
-225.698	-7.290	0.163	-0.110
-224.684	-102.965	-0.128	-0.030
-223.669	-128.676	-0.072	0.010
-222.655	9.491	-0.181	0.136
-221.640	-97.050	-0.143	0.037
-220.625	756.814	0.047	0.126
-219.611	-119.583	-0.304	-0.052
-218.596	-85.387	0.667	-0.206
-217.582	-31.709	-0.219	0.122
-216.567	134.694	-0.235	-0.303
-215.552	-130.026	-0.301	0.041
-214.538	-113.569	-0.063	-0.012
-213.523	-80.086	0.273	-0.091
-212.509	-163.904	-0.230	-0.011
-211.494	236.922	0.075	0.123
-210.479	589.468	-0.111	0.272
-209.465	-68.415	0.303	0.117
-208.450	-200.000	0.004	-0.021
-207.436	270.502	0.133	-0.233
-206.421	188.394	-0.196	0.291
-205.406	16.811	-0.132	-0.104
-204.392	-200.000	-0.009	-0.102
-203.377	-136.149	-0.142	0.016
-202.363	-38.313	0.209	0.110
-201.348	197.314	-0.112	0.169
-200.333	377.567	0.098	-0.199
-199.319	-200.000	0.069	-0.406
-198.304	47.776	-0.275	0.255
-197.290	-70.962	0.195	-0.073
-196.275	-123.027	-0.036	-0.006
-195.260	800.000	-0.105	0.377
-194.246	-35.010	-0.110	0.060
-193.231	-200.000	0.029	-0.278
-192.217	-24.495	0.041	-0.024
-191.202	800.000	0.098	0.330
-190.187	-30.313	0.106	0.060
-189.173	-91.528	0.333	0.094
-188.158	-200.000	0.019	-0.184
-187.144	-85.793	-0.260	-0.080
-186.129	-63.068	-0.153	-0.062
-185.114	-200.000	0.023	-0.199
-184.100	800.000	0.070	-0.290
-183.085	-200.000	0.052	-0.256
-182.071	16.427	0.172	0.135
-181.056	-200.000	-0.017	0.431
-180.042	198.994	0.065	0.098
-179.027	114.603	-0.172	-0.208
-178.012	800.000	-0.086	-0.326
-176.998	-53.580	0.183	-0.083
-175.983	19.668	0.117	0.094
-174.969	-56.763	-0.148	0.065
-173.954	214.731	-0.124	-0.194
-172.939	-102.968	0.265	-0.062
-171.925	-150.975	0.143	0.011
-170.910	-92.281	0.136	-0.038
-169.896	-152.663	0.109	-0.008
-168.881	286.095	0.103	0.185
-167.866	123.180	0.195	0.242
-166.852	800.000	-0.013	-0.046
-165.837	-200.000	-0.020	-0.172
-164.823	135.353	-0.120	0.154
-163.808	-99.101	0.052	-0.013
-162.793	-72.207	-0.235	0.086
-161.779	14.241	-0.039	-0.030
-160.764	-172.424	0.080	0.003
-159.750	-67.009	0.133	-0.052
-158.735	-16.926	0.317	0.198
-157.720	12.378	0.100	0.077
-156.706	9.764	0.307	-0.231
-155.691	321.384	-0.097	0.183
-154.677	19.374	0.138	0.110
-153.662	-72.323	0.182	-0.067
-152.647	-48.590	-0.312	-0.148
-151.633	126.068	-0.087	-0.109
-150.618	-78.217	0.202	-0.069
-149.604	83.312	0.223	-0.241
-148.589	-7.975	-0.256	-0.171
-147.574	102.172	-0.098	-0.113
-146.560	338.012	-0.115	-0.221
-145.545	96.492	-0.119	-0.135
-144.531	-200.000	0.012	0.198
-143.516	51.469	0.040	-0.038
-142.502	-133.732	0.205	0.025
-141.487	-154.235	-0.188	-0.013
-140.472	127.032	-0.150	-0.189
-139.458	-37.777	-0.283	0.149
-138.443	-79.380	-0.236	0.079
-137.429	-200.000	-0.052	0.322
-136.414	511.582	0.133	0.306
-135.399	-200.000	-0.002	-0.219
-134.385	800.000	-0.037	-0.117
-133.370	29.723	0.470	-0.396
-132.356	-125.936	-0.171	-0.026
-131.341	-46.776	0.117	0.057
-130.326	-200.000	-0.026	-0.466
-129.312	61.894	-0.153	0.151
-128.297	-200.000	0.005	0.099
-127.283	79.538	0.236	-0.251
-126.268	-128.618	-0.354	0.050
-125.253	557.254	0.083	0.197
-124.239	800.000	0.099	-0.294
-123.224	-132.646	0.375	0.048
-122.210	-51.313	0.471	-0.218
-121.195	76.318	0.200	-0.210
