DTS Sentinel unit serial number:	SN413079Multiplexer serial number:	ORYXHardware model number:	OX4-SRSoftware version number:	ORYX F/W v4.00 Oryx Data Collector v3.7.2.0data status	okinstallation	princeton_trtdifferential loss correction	single-endedforward channel	channel 1reverse channel	N/Adate	2019/09/18time	14:26:35forward acquisition time	60.00reverse acquisition time	0.00gamma	496.2192k internal	0.2312k external	0.2312temperature offset calibration	0.9988default loss term (dB/km)	0.3790temperature slope calibration	1.0000multiplexer offset coefficient	1.0000multiplexer slope coefficient	1.0000fibre end	0.00T internal ref (°C)	34.31T ext. ref 1 (°C)	0.69T ext. ref 2 (°C)	30.83length (m)	temperature (°C)	Stokes	anti-Stokes-747.200	45.468	-0.114	-0.107
-746.185	-130.445	-0.176	0.024
-745.171	-28.587	-0.078	-0.046
-744.156	-52.497	-0.085	0.040
-743.142	166.394	-0.071	0.103
-742.127	455.258	-0.044	-0.099
-741.112	800.000	-0.049	-0.145
-740.098	118.005	0.336	0.420
-739.083	-43.334	0.080	0.041
-738.069	-200.000	0.039	-0.174
-737.054	-200.000	-0.010	-0.367
-736.039	-27.034	-0.236	-0.140
-735.025	608.968	0.122	0.309
-734.010	4.407	-0.154	0.114
-732.996	800.000	0.103	-0.416
-731.981	-128.121	0.436	0.063
-730.966	-76.992	0.083	0.029
-729.952	253.976	0.077	0.134
-728.937	132.530	0.035	-0.045
-727.923	800.000	-0.052	-0.194
-726.908	-200.000	-0.011	0.106
-725.894	141.687	0.153	0.205
-724.879	118.287	-0.078	-0.098
-723.864	-114.602	-0.276	0.054
-722.850	-200.000	-0.008	-0.230
-721.835	-87.456	-0.091	0.028
-720.821	800.000	-0.101	-0.384
-719.806	-134.544	0.309	-0.038
-718.791	-200.000	-0.051	-0.482
-717.777	10.415	0.320	-0.247
-716.762	227.847	0.089	0.147
-715.748	-34.107	0.433	-0.241
-714.733	85.543	0.104	-0.116
-713.718	800.000	-0.058	-0.194
-712.704	-57.148	-0.394	-0.176
-711.689	120.755	0.069	-0.087
-710.675	-1.462	0.125	0.090
-709.660	114.611	0.108	-0.133
-708.645	-200.000	-0.012	0.246
-707.631	-200.000	-0.006	-0.111
-706.616	-87.822	0.389	-0.119
-705.602	55.282	-0.180	0.176
-704.587	613.735	0.059	-0.149
-703.572	-7.413	0.231	-0.158
-702.558	-52.331	-0.198	-0.093
-701.543	-200.000	-0.018	0.084
-700.529	-200.000	0.024	0.167
-699.514	-100.782	-0.340	0.085
-698.499	11.744	-0.149	-0.116
-697.485	800.000	0.028	-0.099
-696.470	54.666	0.195	-0.191
-695.456	-131.013	-0.268	0.036
-694.441	-81.588	-0.190	0.063
-693.426	-33.491	-0.231	0.129
-692.412	-35.046	0.226	-0.125
-691.397	631.356	-0.044	-0.112
-690.383	-109.623	-0.349	0.074
-689.368	241.717	0.175	0.295
-688.354	-22.897	0.053	0.032
-687.339	599.942	-0.143	0.358
-686.324	56.560	0.192	-0.189
-685.310	-200.000	0.020	0.263
-684.295	12.645	-0.314	0.245
-683.281	417.824	0.099	0.214
-682.266	-139.446	0.284	-0.031
-681.251	260.958	0.056	-0.098
-680.237	800.000	0.072	-0.296
-679.222	34.531	0.011	-0.010
-678.208	86.766	0.141	0.157
-677.193	-55.833	-0.060	-0.027
-676.178	-130.870	0.059	-0.008
-675.164	23.391	0.196	0.163
-674.149	699.392	0.081	-0.216
-673.135	11.182	-0.110	-0.085
-672.120	229.684	0.037	0.062
-671.105	-22.253	-0.458	0.281
-670.091	-200.000	-0.016	-0.453
-669.076	75.680	0.106	-0.113
-668.062	134.276	-0.044	-0.057
-667.047	-60.995	-0.312	-0.133
-666.032	95.258	-0.100	-0.115
-665.018	66.998	0.059	-0.061
-664.003	-101.856	0.229	-0.056
-662.989	44.829	0.247	-0.230
-661.974	-29.781	-0.177	0.102
-660.959	5.238	0.298	-0.222
-659.945	-54.465	0.141	0.064
-658.930	-26.015	-0.182	-0.108
-657.916	707.979	-0.093	-0.249
-656.901	81.645	-0.192	0.210
-655.886	-147.276	0.249	-0.021
-654.872	352.688	-0.118	-0.236
-653.857	-144.081	0.137	-0.013
-652.843	220.857	0.204	-0.330
-651.828	-200.000	0.024	-0.320
-650.814	800.000	0.049	0.185
-649.799	-27.298	0.083	0.049
-648.784	-123.217	0.220	-0.036
-647.770	-67.533	0.158	-0.063
-646.755	-179.059	-0.208	0.005
-645.741	-200.000	0.027	0.353
-644.726	-18.074	0.241	-0.153
-643.711	-3.787	-0.161	-0.113
-642.697	41.344	0.102	-0.093
-641.682	195.305	0.064	-0.098
-640.668	-120.019	-0.325	0.056
-639.653	-61.592	-0.201	-0.085
-638.638	211.579	0.119	-0.189
-637.624	42.961	-0.224	-0.206
-636.609	-77.739	-0.081	0.028
-635.595	75.484	0.066	-0.070
-634.580	-26.691	-0.262	0.155
-633.565	97.195	-0.159	0.184
-632.551	-86.087	0.205	-0.064
-631.536	800.000	-0.029	0.087
-630.522	-135.553	-0.416	0.050
-629.507	156.043	-0.163	0.227
-628.492	-35.056	-0.080	-0.044
-627.478	127.231	0.164	0.210
-626.463	166.751	-0.153	0.219
-625.449	-84.806	0.119	-0.038
-624.434	-200.000	0.006	-0.217
-623.419	-14.968	-0.206	0.133
-622.405	-36.552	-0.200	0.108
-621.390	-200.000	0.010	0.140
-620.376	-90.753	-0.235	0.069
-619.361	235.865	0.085	0.141
-618.346	-137.544	-0.214	-0.024
-617.332	-31.121	-0.278	-0.158
-616.317	-200.000	0.067	-0.320
-615.303	753.876	0.108	-0.294
-614.288	-200.000	-0.022	-0.137
-613.273	114.096	-0.143	-0.176
-612.259	800.000	0.041	0.169
-611.244	-143.641	0.131	0.013
-610.230	800.000	0.038	-0.112
-609.215	800.000	0.057	0.228
-608.201	-116.467	-0.135	-0.025
-607.186	630.499	0.051	-0.131
-606.171	-200.000	0.041	0.237
-605.157	-127.408	-0.430	-0.063
-604.142	-5.199	-0.225	0.156
-603.128	800.000	0.054	-0.164
-602.113	-200.000	0.016	-0.208
-601.098	-95.455	-0.226	-0.061
-600.084	64.712	0.274	-0.279
-599.069	-200.000	0.026	0.349
-598.055	82.205	0.108	0.119
-597.040	-54.826	0.177	-0.081
-596.025	82.230	-0.269	0.295
-595.011	-143.952	-0.075	-0.007
-593.996	113.469	0.108	0.132
-592.982	92.693	-0.185	-0.211
-591.967	-72.847	-0.143	0.053
-590.952	-74.103	-0.241	0.088
-589.938	-200.000	-0.059	-0.282
-588.923	-7.870	0.162	-0.110
-587.909	-200.000	0.071	-0.394
-586.894	92.973	-0.113	-0.128
-585.879	-63.496	-0.031	-0.013
-584.865	165.828	0.146	0.208
-583.850	244.146	0.174	-0.295
-582.836	-191.655	0.373	-0.004
-581.821	-200.000	-0.017	0.241
-580.806	400.967	0.118	0.250
-579.792	54.156	-0.193	-0.187
-578.777	260.449	-0.048	0.084
-577.763	-200.000	-0.017	0.101
-576.748	-41.454	-0.157	-0.081
-575.733	516.818	-0.043	-0.101
-574.719	-200.000	0.030	-0.187
-573.704	-200.000	-0.010	-0.185
-572.690	800.000	0.011	-0.036
-571.675	132.591	0.144	-0.187
-570.661	-200.000	-0.014	0.131
-569.646	-35.442	0.107	-0.058
-568.631	-103.519	0.068	-0.016
-567.617	123.789	-0.101	0.128
-566.602	-200.000	0.028	-0.235
-565.588	-50.289	0.141	-0.067
-564.573	800.000	-0.022	-0.081
-563.558	-132.477	-0.167	-0.022
-562.544	800.000	0.020	0.082
-561.529	800.000	-0.032	0.102
-560.515	800.000	-0.083	-0.232
-559.500	-200.000	0.071	0.324
-558.485	-70.657	-0.040	0.015
-557.471	-156.657	-0.216	0.013
-556.456	-1.937	0.103	-0.073
-555.442	-45.271	0.229	0.115
-554.427	635.069	-0.030	0.076
-553.412	-146.291	-0.069	0.006
-552.398	-0.282	-0.194	-0.139
-551.383	-9.863	0.145	-0.097
-550.369	117.895	0.195	-0.242
-549.354	44.141	0.098	0.090
-548.339	0.264	-0.142	-0.102
-547.325	0.404	0.176	0.127
-546.310	800.000	-0.041	0.174
-545.296	-200.000	0.018	0.180
-544.281	129.548	-0.049	-0.063
-543.266	-108.754	0.228	0.049
-542.252	-141.229	-0.172	0.018
-541.237	-98.092	0.275	-0.071
-540.223	-112.805	0.349	0.070
-539.208	800.000	0.062	-0.184
-538.193	800.000	-0.036	0.157
-537.179	-200.000	-0.042	-0.272
-536.164	-169.656	0.119	-0.004
-535.150	-200.000	0.044	0.240
-534.135	255.810	-0.184	0.318
-533.121	8.514	-0.074	-0.056
-532.106	800.000	0.009	-0.026
-531.091	-154.474	0.097	-0.007
-530.077	251.686	0.161	-0.275
-529.062	-54.689	-0.218	0.099
-528.048	800.000	0.047	-0.149
-527.033	84.500	0.130	-0.143
-526.018	27.190	-0.027	0.023
-525.004	256.310	-0.208	0.359
-523.989	303.862	0.091	0.170
-522.975	-200.000	0.051	0.290
-521.960	188.940	-0.072	-0.109
-520.945	136.598	0.202	0.266
-519.931	382.322	0.162	0.335
-518.916	-47.851	-0.322	-0.157
-517.902	-200.000	0.036	0.231
-516.887	-44.940	-0.190	0.095
-515.872	239.553	0.062	0.104
-514.858	147.905	0.044	0.060
-513.843	800.000	0.067	-0.210
-512.829	50.874	-0.209	0.199
-511.814	-52.100	0.121	0.056
-510.799	414.702	0.054	-0.115
-509.785	-155.609	-0.023	-0.002
-508.770	377.613	-0.097	-0.200
-507.756	-36.102	0.043	0.023
-506.741	39.380	0.064	0.058
-505.726	-98.575	-0.125	0.032
-504.712	-89.272	-0.248	0.074
-503.697	-200.000	0.045	0.275
-502.683	-169.994	-0.084	-0.003
-501.668	-37.698	0.380	0.204
-500.653	-43.323	0.259	-0.132
-499.639	88.669	0.226	0.253
-498.624	799.757	0.031	-0.087
-497.610	56.250	-0.109	-0.106
-496.595	-179.261	0.039	0.001
-495.581	800.000	0.085	0.260
-494.566	129.617	-0.131	0.169
-493.551	97.663	-0.173	-0.200
-492.537	-127.790	-0.148	0.022
-491.522	-70.373	0.156	-0.059
-490.508	93.034	-0.115	0.130
-489.493	61.451	-0.046	-0.046
-488.478	-200.000	0.019	0.244
-487.464	82.389	0.154	-0.168
-486.449	112.550	-0.130	-0.158
-485.435	70.672	0.175	-0.182
-484.420	-200.000	0.038	-0.443
-483.405	-128.410	0.270	0.039
-482.391	-41.581	0.156	-0.081
-481.376	-46.872	0.119	-0.058
-480.362	-91.698	-0.344	0.098
-479.347	800.000	-0.054	-0.151
-478.332	64.007	0.121	-0.122
-477.318	-82.624	0.349	-0.114
-476.303	-25.754	-0.403	-0.238
-475.289	800.000	0.089	-0.276
-474.274	164.284	-0.094	-0.133
-473.259	-200.000	-0.044	-0.412
-472.245	614.439	-0.160	-0.402
-471.230	-17.387	-0.105	0.067
-470.216	800.000	0.067	0.185
-469.201	586.630	-0.057	-0.140
-468.186	-73.312	0.265	0.097
-467.172	-11.096	0.228	0.151
-466.157	-65.636	-0.117	0.047
-465.143	12.812	-0.234	0.182
-464.128	121.527	-0.267	0.335
-463.113	-30.835	-0.124	-0.071
-462.099	-115.334	0.324	-0.061
-461.084	747.250	-0.055	0.150
-460.070	-163.353	-0.029	-0.001
-459.055	-4.053	-0.186	-0.129
-458.040	-73.742	-0.250	0.091
-457.026	287.839	-0.122	-0.222
-456.011	-87.501	0.103	0.031
-454.997	44.675	-0.281	-0.259
-453.982	-11.561	-0.052	-0.034
-452.968	-1.988	0.337	0.237
-451.953	-200.000	-0.018	-0.169
-450.938	-1.475	0.184	-0.130
-449.924	-200.000	-0.055	0.502
-448.909	67.513	0.338	0.346
-447.895	5.056	-0.072	-0.053
-446.880	800.000	0.098	-0.304
-445.865	32.181	0.087	0.076
-444.851	800.000	-0.103	-0.410
-443.836	-38.148	0.222	0.118
-442.822	-52.849	-0.260	-0.120
-441.807	800.000	-0.072	0.242
-440.792	-200.000	0.473	0.001
-439.778	-132.774	0.044	0.006
-438.763	633.594	-0.103	0.263
-437.749	-126.233	0.222	-0.033
-436.734	-113.135	-0.176	-0.035
-435.719	349.594	-0.210	-0.417
-434.705	418.080	0.120	-0.256
-433.690	40.352	-0.116	0.105
-432.676	-176.614	0.197	-0.005
-431.661	34.964	0.132	-0.116
-430.646	-200.000	0.021	-0.272
-429.632	88.837	0.139	-0.156
-428.617	-98.199	-0.340	-0.088
-427.603	-200.000	-0.023	-0.145
-426.588	-2.586	-0.121	-0.085
-425.573	34.096	0.160	0.140
-424.559	407.654	0.178	-0.377
-423.544	228.992	0.097	0.158
-422.530	45.005	-0.140	0.129
-421.515	54.274	-0.037	-0.036
-420.500	-111.757	-0.159	-0.032
-419.486	374.972	0.057	-0.117
-418.471	156.236	-0.128	-0.177
-417.457	462.446	0.119	0.265
-416.442	800.000	-0.072	-0.291
-415.428	681.850	0.095	0.247
-414.413	115.529	-0.124	0.152
-413.398	292.157	-0.265	-0.484
-412.384	-200.000	-0.033	-0.181
-411.369	5.989	0.298	0.221
-410.355	84.686	0.177	0.194
-409.340	145.269	0.079	-0.105
-408.325	109.029	-0.187	-0.224
-407.311	-13.746	-0.091	-0.059
-406.296	174.757	0.264	-0.383
-405.282	-200.000	-0.013	-0.077
-404.267	229.527	-0.073	0.120
-403.252	161.421	0.124	0.173
-402.238	610.231	0.057	-0.141
-401.223	-186.251	-0.131	0.002
-400.209	380.298	-0.106	0.218
-399.194	98.867	0.164	-0.190
-398.179	-68.254	0.241	0.094
-397.165	-85.095	0.046	0.015
-396.150	107.326	-0.114	-0.136
-395.136	96.177	0.136	-0.156
-394.121	135.179	0.187	-0.244
-393.106	279.604	-0.157	-0.281
-392.092	-200.000	0.032	0.168
-391.077	21.461	0.150	-0.122
-390.063	121.030	-0.100	-0.125
-389.048	-168.731	0.239	0.009
-388.033	-181.072	0.318	0.006
-387.019	-87.582	-0.128	0.039
-386.004	47.731	-0.150	0.140
-384.990	-35.105	0.153	-0.084
-383.975	177.017	-0.154	-0.224
-382.960	-49.478	0.092	-0.044
-381.946	-115.672	-0.201	0.038
-380.931	-39.926	-0.366	-0.191
-379.917	130.377	-0.054	0.069
-378.902	-200.000	0.011	0.319
-377.888	-76.743	0.188	-0.066
-376.873	-112.657	-0.162	-0.032
-375.858	14.193	0.084	-0.066
-374.844	15.032	0.193	0.151
-373.829	277.837	0.120	0.213
-372.815	-85.906	-0.170	0.053
-371.800	800.000	0.074	-0.234
-370.785	-200.000	0.006	0.169
-369.771	-175.864	-0.344	0.009
-368.756	-94.966	-0.287	-0.078
-367.742	605.063	-0.096	0.239
-366.727	-109.513	0.534	-0.113
-365.712	571.711	0.102	0.249
-364.698	-13.523	-0.369	-0.239
-363.683	77.677	0.008	-0.009
-362.669	255.676	-0.051	0.087
-361.654	-98.718	-0.207	-0.053
-360.639	32.803	0.306	-0.265
-359.625	125.060	0.141	0.177
-358.610	-83.672	-0.262	-0.084
-357.596	-31.185	-0.236	0.133
-356.581	111.655	0.177	0.214
-355.566	139.452	-0.250	0.328
-354.552	-195.060	0.133	0.001
-353.537	27.973	-0.271	0.228
-352.523	-55.858	0.190	0.085
-351.508	-200.000	0.052	-0.239
-350.493	733.688	0.086	0.230
-349.479	95.184	-0.162	0.184
-348.464	514.877	0.101	-0.237
-347.450	-128.656	-0.170	-0.024
-346.435	31.027	0.103	0.088
-345.420	14.467	0.133	0.104
-344.406	365.124	0.164	-0.330
-343.391	-200.000	0.024	0.236
-342.377	195.250	0.274	0.416
-341.362	-200.000	0.044	0.203
-340.348	277.406	0.105	-0.186
-339.333	-118.471	0.363	0.064
-338.318	437.588	-0.055	0.120
-337.304	-62.414	-0.100	-0.042
-336.289	-170.110	-0.355	0.013
-335.275	778.727	0.113	-0.308
-334.260	3.921	0.111	0.081
-333.245	-136.957	-0.294	0.034
-332.231	203.763	-0.176	-0.271
-331.216	-200.000	0.034	0.293
-330.202	-200.000	-0.013	0.203
-329.187	-25.894	0.347	0.204
-328.172	-85.879	-0.126	0.039
-327.158	800.000	0.139	0.384
-326.143	-83.570	0.135	-0.043
-325.129	-164.750	0.298	-0.013
-324.114	-57.790	-0.064	0.028
-323.099	-200.000	0.085	0.528
-322.085	-76.984	-0.171	-0.060
-321.070	-18.720	-0.246	-0.153
-320.056	220.819	-0.182	-0.291
-319.041	713.414	-0.072	0.191
-318.026	-106.161	-0.330	-0.074
-317.012	100.108	-0.131	-0.152
-315.997	-138.011	0.242	0.027
-314.983	13.129	0.188	0.145
-313.968	-79.553	0.252	0.085
-312.953	-96.667	0.069	0.018
-311.939	-63.226	-0.079	-0.033
-310.924	-102.108	-0.312	-0.075
-309.910	257.989	0.117	-0.201
-308.895	295.305	-0.168	-0.307
-307.880	-5.505	-0.076	-0.052
-306.866	-32.986	-0.105	0.058
-305.851	-167.942	0.179	-0.007
-304.837	26.031	0.134	-0.112
-303.822	800.000	0.016	-0.066
-302.807	44.668	-0.141	0.129
-301.793	14.729	0.032	-0.025
-300.778	-200.000	0.040	-0.280
-299.764	-109.058	0.086	-0.018
-298.749	-18.424	-0.079	-0.049
-297.735	209.818	0.157	-0.246
-296.720	45.347	-0.207	-0.190
-295.705	-0.508	-0.165	0.117
-294.691	-124.449	-0.291	0.045
-293.676	800.000	0.130	-0.413
-292.662	301.926	-0.189	-0.349
-291.647	523.311	0.094	0.220
-290.632	-200.000	0.001	-0.194
-289.618	-153.913	-0.141	0.010
-288.603	-200.000	0.050	0.247
-287.589	-200.000	-0.008	-0.163
-286.574	51.890	0.097	-0.092
-285.559	-200.000	0.011	0.195
-284.545	193.421	-0.184	0.278
-283.530	-0.388	-0.148	-0.104
-282.516	-200.000	-0.015	-0.106
-281.501	40.216	-0.122	-0.109
-280.486	104.269	-0.145	-0.170
-279.472	41.039	0.057	0.051
-278.457	-93.737	0.366	-0.101
-277.443	800.000	0.102	-0.303
-276.428	-200.000	0.032	0.223
-275.413	-72.210	0.244	0.090
-274.399	-152.016	0.313	-0.023
-273.384	106.143	-0.151	-0.178
-272.370	-87.210	0.247	-0.075
-271.355	222.640	0.086	-0.137
-270.340	378.611	0.122	0.248
-269.326	-158.291	-0.104	0.006
-268.311	470.000	0.110	0.246
-267.297	-39.443	-0.242	-0.127
-266.282	-124.641	-0.254	-0.039
-265.267	612.971	0.036	0.089
-264.253	191.858	0.178	0.267
-263.238	-113.833	-0.114	-0.022
-262.224	-97.561	0.131	-0.034
-261.209	435.899	-0.056	-0.122
-260.195	-134.809	-0.317	0.038
-259.180	800.000	-0.068	-0.206
-258.165	-88.023	-0.400	-0.119
-257.151	-9.687	-0.285	0.189
-256.136	-200.000	-0.007	0.064
-255.122	544.853	0.019	-0.046
-254.107	-200.000	-0.042	-0.333
-253.092	800.000	-0.038	0.138
-252.078	30.022	0.101	-0.085
-251.063	-83.951	-0.308	0.098
-250.049	-163.386	-0.225	0.011
-249.034	800.000	-0.168	-0.522
-248.019	191.635	0.054	-0.081
-247.005	-200.000	-0.006	0.164
-245.990	-200.000	0.029	0.000
-244.976	-124.220	-0.268	-0.042
-243.961	-200.000	0.005	0.177
-242.946	-45.153	0.187	0.092
-241.932	34.949	-0.289	-0.252
-240.917	61.270	-0.142	-0.141
-239.903	-100.119	0.113	-0.028
-238.888	-77.626	0.408	-0.141
-237.873	83.847	0.211	0.230
-236.859	137.462	0.100	0.131
-235.844	350.968	0.204	0.401
-234.830	-120.930	-0.079	-0.013
-233.815	-30.249	0.133	0.075
-232.800	-200.000	0.057	0.320
-231.786	-113.159	0.050	-0.010
-230.771	267.739	-0.120	0.208
-229.757	17.983	-0.285	0.226
-228.742	800.000	0.101	0.415
-227.727	44.848	0.124	0.114
-226.713	-195.808	-0.246	0.002
-225.698	-200.000	-0.042	-0.574
-224.684	546.777	-0.116	0.275
-223.669	110.998	-0.217	-0.259
-222.655	-157.430	-0.320	0.019
-221.640	-200.000	0.001	0.080
-220.625	-69.373	0.202	-0.077
-219.611	68.161	-0.048	-0.048
-218.596	800.000	0.008	0.023
-217.582	75.789	0.136	-0.143
-216.567	94.552	-0.161	0.182
-215.552	82.737	0.078	0.085
-214.538	800.000	0.085	0.250
-213.523	93.702	-0.193	-0.217
-212.509	-77.212	-0.465	0.161
-211.494	441.810	-0.074	-0.161
-210.479	191.585	0.166	0.248
-209.465	372.510	0.098	0.198
-208.450	36.701	0.106	0.093
-207.436	-59.451	-0.285	0.122
-206.421	-108.640	0.211	-0.045
-205.406	-49.586	0.085	0.040
-204.392	-36.228	0.120	0.065
-203.377	464.413	-0.053	-0.117
-202.363	62.405	-0.290	0.287
-201.348	22.684	0.118	0.096
-200.333	395.184	-0.091	0.188
-199.319	59.588	0.025	-0.024
-198.304	-71.311	0.280	0.104
-197.290	-52.863	0.470	-0.215
-196.275	-79.432	0.258	-0.087
-195.260	-40.313	-0.189	0.098
-194.246	221.671	0.060	-0.096
-193.231	36.254	0.150	0.131
-192.217	15.110	0.237	0.184
-191.202	-85.457	-0.157	0.049
-190.187	112.923	0.103	0.124
-189.173	-200.000	-0.070	0.347
-188.158	-200.000	-0.045	-0.389
-187.144	-137.936	-0.118	-0.013
-186.129	491.719	0.156	0.355
-185.114	800.000	0.073	-0.262
-184.100	259.161	-0.034	-0.058
-183.085	-171.309	0.166	-0.006
-182.071	-79.187	-0.104	0.035
-181.056	61.423	-0.118	-0.116
-180.042	-66.834	0.384	0.151
-179.027	-113.479	-0.125	-0.024
-178.012	24.364	0.251	0.206
-176.998	164.049	-0.170	0.238
-175.983	800.000	-0.032	0.134
-174.969	800.000	-0.035	-0.106
-173.954	-91.797	0.124	-0.035
-172.939	162.345	0.112	0.155
-171.925	128.758	-0.155	-0.196
-170.910	800.000	0.082	-0.232
-169.896	-200.000	0.063	-0.366
-168.881	51.872	-0.224	0.212
-167.866	-62.928	-0.262	0.108
-166.852	-62.538	0.130	0.054
-165.837	604.713	-0.068	0.168
-164.823	-200.000	0.235	-0.001
-163.808	-21.000	0.247	0.150
-162.793	-200.000	-0.024	0.374
-161.779	-169.100	0.366	0.013
-160.764	450.650	0.062	-0.136
-159.750	-200.000	-0.026	-0.116
-158.735	800.000	0.060	-0.172
-157.720	-200.000	0.021	0.186
-156.706	-59.100	0.141	0.060
-155.691	-88.085	0.164	-0.049
-154.677	800.000	0.116	0.318
-153.662	-27.011	0.112	-0.065
-152.647	-200.000	-0.032	0.235
-151.633	286.846	0.135	-0.242
-150.618	800.000	0.088	0.243
-149.604	-200.000	0.008	0.169
-148.589	800.000	-0.028	-0.105
-147.574	-122.903	0.260	0.042
-146.560	-64.959	0.219	-0.088
-145.545	-59.742	-0.176	0.075
-144.531	102.583	-0.108	-0.125
-143.516	300.063	-0.008	-0.014
-142.502	-200.000	-0.036	-0.303
-141.487	-150.039	-0.177	0.014
-140.472	742.767	-0.025	0.065
-139.458	-34.779	0.106	0.058
-138.443	-23.801	0.072	0.043
-137.429	92.572	-0.049	-0.055
-136.414	143.736	0.171	0.225
-135.399	124.416	0.215	-0.268
-134.385	-101.268	0.193	0.047
-133.370	478.729	0.119	0.266
-132.356	-200.000	-0.013	0.254
-131.341	274.742	-0.243	0.427
-130.326	384.382	-0.166	0.339
-129.312	-119.683	0.178	-0.030
-128.297	563.094	0.143	-0.342
-127.283	521.581	0.103	0.239
-126.268	-200.000	0.036	0.239
-125.253	63.973	-0.180	-0.179
-124.239	-95.838	-0.260	-0.069
-123.224	-200.000	0.009	0.046
-122.210	-200.000	0.016	-0.098
-121.195	-53.230	0.234	-0.107
-120.180	428.555	-0.065	-0.140
