DTS Sentinel unit serial number:	SN413079Multiplexer serial number:	ORYXHardware model number:	OX4-SRSoftware version number:	ORYX F/W v4.00 Oryx Data Collector v3.7.2.0data status	okinstallation	princeton_trtdifferential loss correction	single-endedforward channel	channel 1reverse channel	N/Adate	2019/09/15time	22:10:35forward acquisition time	60.00reverse acquisition time	0.00gamma	496.2192k internal	0.2329k external	0.2329temperature offset calibration	0.9971default loss term (dB/km)	0.3790temperature slope calibration	1.0000multiplexer offset coefficient	1.0000multiplexer slope coefficient	1.0000fibre end	0.00T internal ref (°C)	29.56T ext. ref 1 (°C)	8.60T ext. ref 2 (°C)	22.93length (m)	temperature (°C)	Stokes	anti-Stokes-747.200	535.221	0.086	0.206
-746.185	138.594	-0.196	0.259
-745.171	-165.607	-0.267	0.012
-744.156	-200.000	0.017	0.345
-743.142	-200.000	0.046	0.259
-742.127	-94.103	-0.323	0.089
-741.112	485.848	-0.140	0.321
-740.098	658.242	0.080	0.208
-739.083	-174.262	0.110	0.003
-738.069	526.148	-0.055	-0.131
-737.054	62.447	0.050	0.050
-736.039	-159.008	-0.158	0.009
-735.025	160.366	-0.166	0.233
-734.010	69.587	0.081	-0.084
-732.996	-137.401	-0.206	-0.024
-731.981	-44.563	0.147	-0.074
-730.966	37.963	-0.195	0.174
-729.952	800.000	-0.147	0.435
-728.937	63.544	0.257	-0.260
-727.923	-23.213	-0.262	0.159
-726.908	-200.000	0.008	-0.229
-725.894	-100.186	-0.396	0.099
-724.879	-43.896	-0.018	-0.009
-723.864	-87.148	-0.293	0.090
-722.850	-30.098	-0.268	-0.153
-721.835	-36.172	-0.141	-0.077
-720.821	-200.000	-0.063	0.298
-719.806	-30.023	-0.056	-0.032
-718.791	-0.503	-0.155	-0.111
-717.777	156.675	-0.025	0.034
-716.762	488.187	-0.041	-0.095
-715.748	-200.000	0.012	-0.419
-714.733	92.975	-0.150	-0.171
-713.718	-200.000	0.003	-0.074
-712.704	313.937	-0.119	0.226
-711.689	459.323	0.050	-0.112
-710.675	9.854	-0.228	-0.174
-709.660	800.000	0.083	-0.248
-708.645	88.129	0.214	0.239
-707.631	-200.000	0.087	0.460
-706.616	800.000	-0.044	0.170
-705.602	800.000	0.044	0.135
-704.587	3.040	-0.262	0.192
-703.572	-119.343	-0.332	0.058
-702.558	-136.366	0.094	-0.011
-701.543	-91.641	0.210	-0.060
-700.529	800.000	-0.028	-0.104
-699.514	51.372	0.065	-0.062
-698.499	747.810	-0.060	-0.161
-697.485	-128.786	-0.298	-0.042
-696.470	602.490	0.051	-0.129
-695.456	110.413	0.163	0.197
-694.441	-30.397	-0.086	-0.049
-693.426	-200.000	0.039	0.205
-692.412	-41.750	0.100	0.052
-691.397	159.208	-0.059	0.082
-690.383	-0.656	-0.311	0.222
-689.368	-126.686	0.029	-0.004
-688.354	-19.137	-0.190	0.119
-687.339	172.853	0.086	0.124
-686.324	644.074	0.105	0.270
-685.310	18.063	-0.123	0.098
-684.295	-105.802	-0.158	0.036
-683.281	-44.239	0.454	-0.229
-682.266	-92.707	-0.127	0.036
-681.251	-131.772	0.190	0.025
-680.237	54.380	0.143	-0.138
-679.222	-6.685	0.295	0.202
-678.208	76.099	-0.222	0.236
-677.193	-164.954	-0.216	-0.010
-676.178	-83.409	-0.296	-0.095
-675.164	-89.353	-0.089	-0.026
-674.149	-139.549	-0.272	0.029
-673.135	295.001	-0.070	0.128
-672.120	-40.689	0.233	0.121
-671.105	185.679	0.027	0.041
-670.091	-200.000	-0.025	-0.328
-669.076	800.000	-0.056	-0.185
-668.062	302.346	-0.162	-0.301
-667.047	-149.721	0.248	0.020
-666.032	577.654	0.091	-0.223
-665.018	800.000	0.024	0.092
-664.003	53.451	-0.311	-0.300
-662.989	-48.471	0.309	-0.149
-661.974	0.220	-0.272	0.195
-660.959	800.000	-0.063	-0.196
-659.945	-200.000	0.065	-0.485
-658.930	-200.000	0.006	0.264
-657.916	725.071	-0.006	0.015
-656.901	-200.000	-0.007	0.223
-655.886	-98.936	-0.154	0.039
-654.872	-43.103	-0.164	-0.083
-653.857	800.000	0.076	0.277
-652.843	14.697	0.012	0.009
-651.828	-106.851	-0.013	-0.003
-650.814	82.028	0.160	-0.174
-649.799	48.785	-0.197	0.185
-648.784	34.497	-0.251	0.220
-647.770	441.172	-0.120	-0.264
-646.755	-200.000	-0.031	0.217
-645.741	72.152	-0.270	-0.282
-644.726	-28.116	-0.209	-0.121
-643.711	243.113	0.123	-0.207
-642.697	-200.000	0.026	-0.119
-641.682	-200.000	0.032	-0.281
-640.668	19.663	-0.066	-0.053
-639.653	-125.957	0.126	0.019
-638.638	-154.468	-0.336	0.023
-637.624	-200.000	0.035	-0.413
-636.609	-47.993	0.214	0.104
-635.595	758.741	-0.157	-0.425
-634.580	307.574	0.078	-0.146
-633.565	30.710	-0.127	0.109
-632.551	-64.721	-0.166	-0.067
-631.536	561.147	0.103	0.249
-630.522	-200.000	-0.024	0.146
-629.507	100.628	-0.088	-0.103
-628.492	-200.000	-0.007	0.167
-627.478	-62.744	0.155	-0.065
-626.463	-181.926	0.554	-0.011
-625.449	-6.820	-0.108	-0.073
-624.434	-97.790	0.398	0.103
-623.419	289.841	0.171	-0.311
-622.405	26.050	-0.260	-0.218
-621.390	56.779	0.082	-0.080
-620.376	185.161	0.170	0.253
-619.361	-73.357	-0.220	-0.081
-618.346	-129.449	-0.224	0.031
-617.332	-129.209	-0.229	-0.032
-616.317	27.926	-0.108	0.092
-615.303	-112.780	0.194	0.039
-614.288	-108.143	-0.114	-0.025
-613.273	-171.492	-0.104	-0.003
-612.259	400.053	0.073	-0.153
-611.244	323.841	0.047	0.090
-610.230	244.946	0.077	-0.130
-609.215	-18.282	-0.251	0.157
-608.201	502.084	-0.106	-0.246
-607.186	-153.248	-0.158	0.011
-606.171	-125.824	-0.081	-0.012
-605.157	77.265	-0.044	-0.046
-604.142	397.078	-0.032	-0.066
-603.128	237.796	-0.126	-0.209
-602.113	21.500	0.163	-0.133
-601.098	45.744	0.157	-0.145
-600.084	-86.012	0.221	0.068
-599.069	-66.464	0.253	-0.101
-598.055	-103.922	-0.068	0.016
-597.040	-200.000	0.001	-0.033
-596.025	800.000	-0.093	-0.364
-595.011	182.723	0.040	-0.059
-593.996	21.433	0.228	0.186
-592.982	-7.772	0.079	0.054
-591.967	-104.016	-0.073	-0.017
-590.952	-125.828	0.389	-0.059
-589.938	-23.443	-0.113	0.068
-588.923	162.619	-0.067	0.094
-587.909	-200.000	-0.042	-0.391
-586.894	-46.138	0.144	-0.071
-585.879	-191.822	0.062	-0.001
-584.865	-31.394	-0.026	-0.015
-583.850	800.000	0.024	0.092
-582.836	199.227	-0.103	-0.157
-581.821	596.502	-0.117	0.290
-580.806	3.446	0.081	-0.059
-579.792	-186.318	-0.053	-0.001
-578.777	800.000	0.027	-0.083
-577.763	-24.020	0.244	0.146
-576.748	-200.000	-0.027	-0.416
-575.733	80.610	-0.165	0.178
-574.719	-139.332	0.205	-0.022
-573.704	23.497	-0.162	-0.133
-572.690	212.129	-0.041	-0.065
-571.675	800.000	0.052	0.192
-570.661	-138.140	-0.458	0.051
-569.646	800.000	0.021	0.064
-568.631	99.390	0.111	-0.129
-567.617	-200.000	0.048	0.230
-566.602	-70.301	0.107	-0.040
-565.588	33.671	0.066	-0.057
-564.573	-88.578	0.062	-0.018
-563.558	32.627	-0.170	0.147
-562.544	-33.188	-0.178	-0.099
-561.529	253.992	-0.062	-0.107
-560.515	-60.628	0.190	-0.081
-559.500	-200.000	-0.047	-0.267
-558.485	7.475	0.148	0.110
-557.471	-200.000	-0.028	-0.229
-556.456	-200.000	-0.065	-0.327
-555.442	-46.269	0.126	0.062
-554.427	88.121	0.092	-0.102
-553.412	-55.302	-0.071	-0.032
-552.398	8.630	0.260	-0.196
-551.383	88.979	-0.127	-0.141
-550.369	-10.756	-0.046	-0.031
-549.354	250.606	-0.055	-0.093
-548.339	800.000	-0.051	0.160
-547.325	578.662	-0.070	-0.172
-546.310	-164.127	0.224	0.010
-545.296	-67.641	0.103	0.040
-544.281	-147.613	-0.091	0.008
-543.266	-55.982	0.106	-0.047
-542.252	-117.456	-0.051	-0.009
-541.237	256.244	0.140	0.240
-540.223	110.489	0.145	0.174
-539.208	-59.528	0.122	0.053
-538.193	79.873	0.042	-0.045
-537.179	-22.224	0.357	0.216
-536.164	117.262	0.203	0.249
-535.150	-23.063	-0.297	-0.179
-534.135	40.394	0.024	0.021
-533.121	493.255	0.110	-0.252
-532.106	-48.333	-0.222	-0.107
-531.091	-23.492	0.123	0.074
-530.077	-200.000	0.019	0.388
-529.062	-81.901	0.427	-0.139
-528.048	-1.577	0.257	0.181
-527.033	274.340	0.199	0.351
-526.018	800.000	0.043	-0.171
-525.004	-88.705	-0.202	-0.060
-523.989	-200.000	0.029	0.266
-522.975	-118.219	0.241	-0.043
-521.960	-200.000	-0.017	-0.088
-520.945	800.000	-0.059	-0.230
-519.931	9.689	-0.330	-0.250
-518.916	346.559	-0.133	-0.261
-517.902	445.650	0.090	0.198
-516.887	-200.000	0.299	-0.001
-515.872	800.000	-0.051	-0.172
-514.858	-173.526	-0.436	-0.013
-513.843	197.712	0.154	-0.234
-512.829	800.000	0.026	-0.087
-511.814	-61.125	0.244	0.103
-510.799	-19.491	-0.174	0.107
-509.785	473.805	0.077	-0.174
-508.770	-78.773	-0.183	-0.062
-507.756	800.000	0.104	0.349
-506.741	-95.862	-0.345	0.092
-505.726	800.000	-0.102	0.292
-504.712	19.283	-0.194	0.156
-503.697	-93.593	-0.110	0.030
-502.683	800.000	-0.041	0.119
-501.668	13.528	0.027	-0.021
-500.653	-183.701	0.175	-0.003
-499.639	-200.000	-0.099	0.438
-498.624	-200.000	-0.077	0.352
-497.610	-81.979	0.183	0.060
-496.595	679.881	0.130	-0.339
-495.581	-172.654	0.210	-0.007
-494.566	-11.510	-0.104	0.068
-493.551	-200.000	-0.048	0.401
-492.537	239.650	-0.113	-0.187
-491.522	-200.000	-0.024	0.218
-490.508	520.722	0.124	0.290
-489.493	32.348	-0.099	-0.085
-488.478	-193.627	-0.085	0.001
-487.464	-161.870	0.213	-0.011
-486.449	-118.299	-0.074	-0.013
-485.435	57.753	-0.112	0.110
-484.420	195.703	-0.144	-0.218
-483.405	800.000	0.077	0.215
-482.391	-200.000	0.033	-0.344
-481.376	-136.157	0.357	0.042
-480.362	-200.000	-0.031	-0.211
-479.347	-200.000	0.016	-0.261
-478.332	176.295	0.131	0.190
-477.318	767.036	-0.035	0.095
-476.303	-0.233	0.123	-0.087
-475.289	-28.938	-0.077	0.044
-474.274	-78.878	0.124	-0.042
-473.259	298.007	-0.190	0.347
-472.245	-41.210	0.185	0.095
-471.230	-68.363	-0.279	0.108
-470.216	282.606	-0.060	0.108
-469.201	-41.844	0.234	0.119
-468.186	800.000	0.048	-0.147
-467.172	144.263	-0.150	-0.200
-466.157	-9.735	0.115	0.076
-465.143	406.034	0.028	-0.058
-464.128	181.002	-0.172	-0.252
-463.113	456.110	-0.041	-0.092
-462.099	23.477	0.179	-0.147
-461.084	-200.000	0.053	0.244
-460.070	180.116	-0.061	0.089
-459.055	-42.900	-0.152	0.077
-458.040	97.048	-0.136	-0.155
-457.026	800.000	0.074	0.254
-456.011	800.000	0.125	-0.504
-454.997	-200.000	0.015	-0.145
-453.982	465.391	0.044	-0.098
-452.968	-200.000	0.198	-0.000
-451.953	43.101	-0.044	-0.040
-450.938	294.536	-0.076	-0.139
-449.924	-32.919	0.356	0.197
-448.909	-77.016	0.025	0.009
-447.895	800.000	-0.022	0.074
-446.880	-137.244	0.157	-0.018
-445.865	-133.116	0.202	0.026
-444.851	638.972	-0.047	-0.120
-443.836	-200.000	-0.051	0.241
-442.822	-200.000	-0.017	0.243
-441.807	307.542	-0.064	0.119
-440.792	-200.000	0.286	0.001
-439.778	-60.903	-0.040	0.017
-438.763	109.240	-0.104	-0.124
-437.749	-200.000	-0.001	-0.118
-436.734	-36.725	-0.237	-0.127
-435.719	159.075	0.120	-0.166
-434.705	64.315	0.128	-0.128
-433.690	-13.372	-0.180	-0.116
-432.676	-128.736	0.182	-0.026
-431.661	-126.543	-0.121	0.018
-430.646	4.147	0.208	-0.152
-429.632	-158.234	-0.301	0.018
-428.617	150.617	0.070	-0.094
-427.603	526.324	-0.174	0.408
-426.588	-200.000	-0.006	0.587
-425.573	800.000	-0.079	0.264
-424.559	-111.386	-0.125	-0.025
-423.544	112.916	-0.365	-0.439
-422.530	800.000	0.084	0.243
-421.515	125.996	-0.010	0.012
-420.500	281.128	0.109	-0.193
-419.486	61.998	0.240	0.238
-418.471	106.094	-0.140	-0.165
-417.457	96.714	-0.210	0.239
-416.442	-200.000	-0.034	0.251
-415.428	-70.401	-0.356	-0.134
-414.413	-27.995	0.141	-0.081
-413.398	-88.618	-0.210	0.062
-412.384	-66.690	0.108	0.043
-411.369	-21.826	0.246	0.149
-410.355	-105.102	0.128	0.029
-409.340	-2.908	-0.102	-0.071
-408.325	20.678	0.048	-0.039
-407.311	-4.779	0.086	-0.059
-406.296	800.000	0.102	-0.325
-405.282	-28.855	0.203	-0.116
-404.267	134.896	0.123	0.159
-403.252	-158.184	-0.429	-0.025
-402.238	-111.606	-0.362	-0.073
-401.223	203.374	-0.100	-0.154
-400.209	346.511	0.078	0.153
-399.194	115.609	0.102	-0.124
-398.179	-200.000	-0.004	-0.094
-397.165	43.574	0.449	-0.408
-396.150	-200.000	0.058	0.324
-395.136	-121.317	-0.377	0.062
-394.121	-86.662	0.248	0.076
-393.106	15.196	-0.226	-0.176
-392.092	-200.000	-0.022	-0.254
-391.077	31.479	0.063	0.054
-390.063	800.000	-0.070	-0.196
-389.048	800.000	-0.026	-0.087
-388.033	-9.506	-0.345	0.228
-387.019	305.111	0.228	0.420
-386.004	531.583	0.037	-0.087
-384.990	200.614	0.152	-0.232
-383.975	-103.291	-0.132	-0.031
-382.960	-200.000	0.027	-0.126
-381.946	81.912	-0.153	-0.165
-380.931	800.000	0.114	0.323
-379.917	-135.182	-0.064	0.008
-378.902	-200.000	-0.096	0.000
-377.888	-20.729	0.233	-0.142
-376.873	-73.372	-0.054	0.020
-375.858	114.341	0.068	0.082
-374.844	6.043	-0.071	-0.052
-373.829	33.829	0.127	-0.109
-372.815	-113.257	0.290	-0.057
-371.800	365.086	-0.029	-0.059
-370.785	227.859	-0.072	0.117
-369.771	388.990	-0.176	0.362
-368.756	800.000	-0.102	0.317
-367.742	-8.122	-0.150	0.100
-366.727	-98.849	-0.360	-0.091
-365.712	20.161	-0.124	-0.100
-364.698	-200.000	-0.026	-0.162
-363.683	14.733	-0.083	-0.065
-362.669	-117.396	0.268	0.048
-361.654	-180.714	-0.223	-0.005
-360.639	-5.228	0.105	0.072
-359.625	-83.402	-0.397	0.126
-358.610	264.183	0.017	-0.029
-357.596	44.828	-0.071	-0.065
-356.581	-200.000	0.002	-0.220
-355.566	543.239	0.137	-0.324
-354.552	-200.000	0.022	-0.102
-353.537	117.920	0.063	0.078
-352.523	71.216	-0.140	-0.144
-351.508	-54.655	0.091	-0.041
-350.493	-133.277	0.181	-0.023
-349.479	33.488	-0.289	-0.249
-348.464	-87.477	-0.395	0.118
-347.450	-200.000	0.003	-0.291
-346.435	-198.161	-0.233	-0.001
-345.420	295.414	0.138	0.251
-344.406	119.587	-0.131	0.160
-343.391	-200.000	0.032	-0.153
-342.377	-104.763	0.046	-0.011
-341.362	-164.034	0.443	-0.020
-340.348	334.541	0.105	-0.201
-339.333	-146.031	-0.270	0.024
-338.318	800.000	0.030	-0.091
-337.304	-200.000	0.046	0.277
-336.289	400.840	0.219	0.456
-335.275	-72.861	-0.172	-0.063
-334.260	800.000	0.097	0.297
-333.245	-54.419	-0.139	0.063
-332.231	-200.000	0.012	-0.091
-331.216	180.033	-0.069	0.100
-330.202	-139.908	0.234	-0.025
-329.187	-142.760	-0.216	0.021
-328.172	-5.152	0.181	0.124
-327.158	703.667	0.115	0.302
-326.143	800.000	-0.030	-0.095
-325.129	800.000	-0.056	-0.164
-324.114	-144.496	-0.267	-0.025
-323.099	-200.000	-0.009	-0.256
-322.085	74.060	0.207	-0.215
-321.070	20.578	0.135	-0.108
-320.056	71.713	0.037	-0.038
-319.041	-75.177	0.125	0.044
-318.026	-102.243	0.147	0.035
-317.012	-59.556	0.149	-0.063
-315.997	-84.905	-0.245	-0.076
-314.983	-0.103	0.266	-0.187
-313.968	705.615	-0.034	0.089
-312.953	163.000	0.257	-0.358
-311.939	-50.502	0.249	0.116
-310.924	125.559	-0.158	0.198
-309.910	487.144	0.085	0.192
-308.895	-34.836	0.135	-0.073
-307.880	49.641	0.306	0.286
-306.866	-200.000	0.024	0.218
-305.851	800.000	0.029	0.125
-304.837	800.000	-0.118	0.333
-303.822	129.782	-0.104	0.132
-302.807	800.000	-0.067	0.222
-301.793	-200.000	0.010	0.262
-300.778	-115.280	0.200	-0.037
-299.764	-200.000	-0.003	-0.024
-298.749	30.266	-0.067	-0.057
-297.735	477.567	0.049	-0.110
-296.720	162.809	0.175	-0.243
-295.705	800.000	-0.021	-0.060
-294.691	119.031	-0.248	-0.303
-293.676	-65.818	-0.108	-0.043
-292.662	-200.000	0.055	0.265
-291.647	800.000	-0.078	0.245
-290.632	591.460	-0.092	0.225
-289.618	34.225	-0.099	0.085
-288.603	30.358	-0.108	-0.092
-287.589	-88.247	-0.356	0.105
-286.574	7.570	0.242	0.179
-285.559	800.000	0.145	0.575
-284.545	-200.000	0.004	0.168
-283.530	84.483	0.161	0.174
-282.516	800.000	0.025	0.101
-281.501	-200.000	-0.024	-0.184
-280.486	-200.000	-0.017	-0.238
-279.472	462.878	0.067	0.148
-278.457	75.616	-0.194	-0.202
-277.443	481.990	-0.034	-0.077
-276.428	-114.397	-0.405	-0.077
-275.413	267.008	0.104	-0.180
-274.399	518.191	0.111	-0.256
-273.384	-135.021	-0.380	-0.045
-272.370	-200.000	-0.116	0.503
-271.355	39.490	0.200	-0.177
-270.340	-200.000	-0.025	0.334
-269.326	-2.130	-0.230	0.160
-268.311	-177.910	-0.010	0.000
-267.297	-200.000	-0.014	-0.276
-266.282	-200.000	0.029	-0.147
-265.267	-152.140	0.313	-0.022
-264.253	241.444	0.095	0.157
-263.238	-134.958	0.346	-0.041
-262.224	340.746	-0.146	0.282
-261.209	51.742	-0.233	-0.219
-260.195	131.542	0.098	-0.125
-259.180	209.720	-0.123	0.191
-258.165	800.000	-0.062	-0.232
-257.151	25.221	0.237	-0.194
-256.136	-51.537	-0.135	-0.062
-255.122	-200.000	0.024	-0.117
-254.107	542.764	-0.086	0.202
-253.092	46.784	-0.277	-0.254
-252.078	-200.000	-0.002	-0.085
-251.063	120.122	-0.045	0.055
-250.049	-67.251	-0.219	0.085
-249.034	-135.060	-0.025	-0.003
-248.019	-100.616	-0.153	0.037
-247.005	-102.922	0.478	-0.112
-245.990	-124.178	0.188	0.029
-244.976	-200.000	0.029	-0.183
-243.961	116.026	-0.068	-0.082
-242.946	649.007	0.046	0.115
-241.932	-81.317	0.278	0.091
-240.917	-91.180	0.497	-0.141
-239.903	-124.865	-0.263	0.040
-238.888	-200.000	-0.036	0.198
-237.873	-109.102	-0.183	0.039
-236.859	216.048	-0.146	0.229
-235.844	276.586	-0.025	0.045
-234.830	800.000	0.085	0.333
-233.815	209.336	-0.221	-0.341
-232.800	800.000	0.039	-0.148
-231.786	-16.635	0.098	0.061
-230.771	-160.940	-0.186	-0.010
-229.757	-30.736	-0.064	0.036
-228.742	9.396	0.181	0.135
-227.727	25.459	0.200	-0.164
-226.713	-200.000	-0.020	0.192
-225.698	-115.461	-0.076	-0.014
-224.684	29.182	-0.366	-0.307
-223.669	-168.464	0.426	-0.016
-222.655	431.482	-0.112	0.240
-221.640	-200.000	0.032	0.380
-220.625	800.000	-0.035	0.102
-219.611	42.892	-0.128	0.115
-218.596	-98.034	0.200	0.051
-217.582	-200.000	0.011	0.127
-216.567	-200.000	-0.034	0.186
-215.552	90.607	0.121	-0.134
-214.538	800.000	-0.022	-0.086
-213.523	797.489	0.032	-0.087
-212.509	-149.854	-0.094	-0.007
-211.494	-83.838	-0.147	0.046
-210.479	800.000	0.027	0.098
-209.465	-200.000	-0.013	0.107
-208.450	-64.123	-0.373	0.150
-207.436	800.000	0.122	0.339
-206.421	-3.468	0.375	-0.257
-205.406	-200.000	-0.069	0.341
-204.392	-200.000	0.004	-0.100
-203.377	64.112	0.212	-0.210
-202.363	-36.680	-0.242	0.128
-201.348	800.000	-0.130	-0.357
-200.333	300.811	0.073	-0.133
-199.319	74.452	-0.225	-0.233
-198.304	-149.450	0.127	0.010
-197.290	48.015	-0.173	0.160
-196.275	-200.000	0.008	0.241
-195.260	-31.601	-0.300	0.166
-194.246	30.031	0.292	0.246
-193.231	800.000	-0.008	0.028
-192.217	194.202	0.226	-0.338
-191.202	263.458	0.125	-0.214
-190.187	-13.407	-0.050	-0.032
-189.173	-200.000	-0.037	0.224
-188.158	49.175	-0.212	0.196
-187.144	-116.732	0.353	0.064
-186.129	164.470	0.063	-0.087
-185.114	800.000	-0.132	-0.395
-184.100	800.000	-0.050	-0.205
-183.085	-200.000	-0.015	0.175
-182.071	497.147	0.116	0.262
-181.056	800.000	-0.090	0.269
-180.042	-31.307	-0.385	0.213
-179.027	-74.123	-0.386	0.138
-178.012	9.366	0.048	0.036
-176.998	40.408	-0.263	0.233
-175.983	177.606	-0.122	-0.175
-174.969	-123.055	0.358	-0.057
-173.954	-53.344	-0.092	0.042
-172.939	800.000	0.077	-0.319
-171.925	76.345	-0.037	0.038
-170.910	144.428	-0.093	0.123
-169.896	335.750	-0.116	0.222
-168.881	118.737	0.143	0.174
-167.866	-200.000	-0.004	0.154
-166.852	-200.000	0.008	-0.159
-165.837	-120.975	0.523	-0.087
-164.823	5.825	0.337	0.246
-163.808	73.203	-0.206	-0.212
-162.793	-0.350	0.086	0.060
-161.779	800.000	-0.050	0.173
-160.764	477.336	-0.041	0.092
-159.750	-200.000	-0.002	-0.123
-158.735	-200.000	-0.014	0.146
-157.720	151.438	0.268	-0.359
-156.706	287.083	-0.235	-0.418
-155.691	272.685	0.195	-0.339
-154.677	-43.824	-0.036	0.018
-153.662	-122.580	0.189	0.030
-152.647	-17.490	-0.082	0.051
-151.633	-120.123	-0.292	-0.049
-150.618	-200.000	0.051	-0.540
-149.604	27.950	0.144	0.119
-148.589	-152.067	0.227	0.016
-147.574	15.037	0.287	0.221
-146.560	182.259	-0.144	0.209
-145.545	429.723	-0.037	-0.079
-144.531	-43.198	0.021	0.011
-143.516	-61.276	0.119	0.049
-142.502	-70.193	-0.170	-0.063
-141.487	-47.392	0.403	-0.193
-140.472	379.169	-0.155	0.312
-139.458	162.321	0.161	-0.222
-138.443	-125.320	0.241	0.036
-137.429	-200.000	0.005	0.183
-136.414	800.000	-0.156	-0.439
-135.399	800.000	0.086	-0.268
-134.385	119.939	-0.139	-0.170
-133.370	-53.011	0.203	0.092
-132.356	458.967	-0.137	-0.299
-131.341	-200.000	0.030	-0.276
-130.326	800.000	-0.038	-0.126
-129.312	-117.231	0.235	0.042
-128.297	-44.702	0.079	-0.039
-127.283	30.854	0.340	0.287
-126.268	800.000	0.029	-0.089
-125.253	21.609	0.183	-0.147
-124.239	-156.637	-0.313	0.019
-123.224	213.481	0.034	-0.053
-122.210	-18.731	-0.180	-0.111
-121.195	-94.579	0.243	0.065
