DTS Sentinel unit serial number:	SN413079Multiplexer serial number:	ORYXHardware model number:	OX4-SRSoftware version number:	ORYX F/W v4.00 Oryx Data Collector v3.7.2.0data status	okinstallation	princeton_trtdifferential loss correction	single-endedforward channel	channel 1reverse channel	N/Adate	2019/09/15time	08:06:35forward acquisition time	60.00reverse acquisition time	0.00gamma	496.2192k internal	0.2324k external	0.2324temperature offset calibration	0.9997default loss term (dB/km)	0.3790temperature slope calibration	1.0000multiplexer offset coefficient	1.0000multiplexer slope coefficient	1.0000fibre end	0.00T internal ref (°C)	30.87T ext. ref 1 (°C)	4.99T ext. ref 2 (°C)	27.01length (m)	temperature (°C)	Stokes	anti-Stokes-747.200	-153.385	-0.078	-0.005
-746.185	-112.813	-0.091	-0.018
-745.171	-156.939	0.288	-0.018
-744.156	-68.451	0.306	0.120
-743.142	134.224	-0.109	0.142
-742.127	800.000	-0.067	0.279
-741.112	618.420	-0.110	0.278
-740.098	-78.895	0.013	0.005
-739.083	136.565	-0.312	0.411
-738.069	456.295	0.123	-0.275
-737.054	-121.711	-0.378	0.063
-736.039	-200.000	0.043	-0.351
-735.025	-22.480	0.230	-0.141
-734.010	-144.691	0.118	0.011
-732.996	-200.000	-0.002	-0.111
-731.981	-117.398	0.163	-0.030
-730.966	223.460	-0.073	0.119
-729.952	205.807	0.221	0.346
-728.937	800.000	0.063	-0.270
-727.923	-78.387	0.315	-0.109
-726.908	800.000	0.080	0.255
-725.894	-148.904	-0.491	-0.040
-724.879	196.572	-0.185	0.284
-723.864	461.747	-0.055	-0.123
-722.850	-45.006	-0.321	0.161
-721.835	90.028	-0.078	0.088
-720.821	-200.000	0.001	-0.063
-719.806	364.610	0.126	-0.255
-718.791	337.152	-0.179	-0.351
-717.777	-99.487	-0.261	0.066
-716.762	337.193	-0.054	-0.106
-715.748	800.000	-0.095	0.333
-714.733	-20.928	-0.107	-0.066
-713.718	360.074	-0.057	-0.115
-712.704	140.084	-0.132	-0.176
-711.689	287.127	-0.057	-0.104
-710.675	570.902	0.108	-0.264
-709.660	23.159	0.310	0.256
-708.645	251.267	0.061	0.105
-707.631	800.000	0.073	0.240
-706.616	-200.000	0.069	0.334
-705.602	274.988	-0.044	0.078
-704.587	-170.584	-0.064	-0.002
-703.572	800.000	0.045	-0.166
-702.558	113.163	-0.166	0.203
-701.543	-98.166	-0.392	-0.102
-700.529	155.619	0.132	0.184
-699.514	40.890	-0.210	-0.191
-698.499	800.000	-0.056	-0.216
-697.485	-200.000	0.042	-0.205
-696.470	239.738	0.071	-0.119
-695.456	-70.548	-0.100	-0.038
-694.441	-15.848	-0.074	0.048
-693.426	800.000	-0.027	0.100
-692.412	-200.000	0.008	-0.184
-691.397	-200.000	-0.074	0.436
-690.383	800.000	0.038	-0.132
-689.368	-91.612	-0.171	0.049
-688.354	61.055	-0.300	-0.300
-687.339	-51.336	0.287	-0.135
-686.324	316.343	-0.024	-0.045
-685.310	57.362	-0.081	0.079
-684.295	132.988	0.148	-0.193
-683.281	-124.834	0.217	-0.034
-682.266	205.684	-0.194	0.303
-681.251	297.178	-0.152	-0.281
-680.237	-118.416	-0.487	-0.087
-679.222	583.192	-0.122	-0.302
-678.208	-16.439	-0.374	0.239
-677.193	30.219	0.133	-0.114
-676.178	-119.516	-0.342	-0.060
-675.164	-200.000	0.007	-0.320
-674.149	800.000	-0.120	0.333
-673.135	13.718	0.129	0.101
-672.120	76.173	-0.228	-0.243
-671.105	-200.000	0.003	-0.400
-670.091	-175.540	0.109	0.003
-669.076	-129.991	0.442	0.061
-668.062	-200.000	0.057	-0.253
-667.047	250.146	0.139	-0.238
-666.032	-200.000	-0.190	-0.001
-665.018	660.510	-0.170	-0.440
-664.003	248.448	0.041	-0.069
-662.989	-55.585	0.119	0.053
-661.974	10.503	-0.081	0.062
-660.959	-200.000	-0.007	0.164
-659.945	-132.721	-0.075	0.010
-658.930	11.479	-0.149	0.115
-657.916	252.089	-0.057	-0.098
-656.901	-24.100	-0.145	0.087
-655.886	-200.000	-0.006	-0.135
-654.872	-162.336	0.051	-0.003
-653.857	800.000	0.084	-0.251
-652.843	45.242	0.059	-0.055
-651.828	-14.490	0.054	-0.035
-650.814	-12.917	-0.327	-0.214
-649.799	-106.827	-0.035	0.008
-648.784	579.557	-0.024	-0.059
-647.770	16.745	0.258	-0.206
-646.755	426.800	0.112	-0.243
-645.741	-200.000	0.110	-0.582
-644.726	135.694	0.083	-0.108
-643.711	201.618	0.194	-0.300
-642.697	-98.899	-0.426	0.109
-641.682	-65.667	0.234	-0.094
-640.668	360.947	0.009	-0.019
-639.653	800.000	0.044	0.189
-638.638	-25.505	-0.274	-0.163
-637.624	-200.000	-0.001	-0.237
-636.609	48.132	0.261	0.245
-635.595	-102.192	-0.193	0.047
-634.580	-118.091	0.110	0.020
-633.565	288.969	-0.013	-0.024
-632.551	-200.000	0.045	-0.394
-631.536	-200.000	0.019	-0.252
-630.522	800.000	0.133	-0.374
-629.507	-86.853	-0.126	-0.039
-628.492	-75.981	0.150	-0.053
-627.478	800.000	0.076	0.254
-626.463	-200.000	0.008	-0.168
-625.449	-200.000	0.008	0.285
-624.434	-200.000	0.000	0.061
-623.419	800.000	-0.031	0.104
-622.405	41.674	0.190	-0.173
-621.390	-200.000	0.007	-0.067
-620.376	-195.357	0.126	-0.001
-619.361	-122.584	0.279	-0.045
-618.346	-200.000	0.039	0.286
-617.332	119.588	-0.265	-0.329
-616.317	800.000	-0.027	0.116
-615.303	-57.280	0.179	0.079
-614.288	369.736	-0.105	-0.214
-613.273	-66.324	-0.144	0.057
-612.259	800.000	-0.036	0.147
-611.244	-55.984	-0.257	-0.115
-610.230	220.045	-0.111	0.178
-609.215	468.990	0.038	0.087
-608.201	231.664	0.099	0.164
-607.186	89.313	0.120	0.135
-606.171	-75.260	-0.345	-0.124
-605.157	-200.000	0.008	0.255
-604.142	48.632	-0.091	0.086
-603.128	326.339	-0.051	-0.098
-602.113	212.167	-0.163	-0.258
-601.098	-156.017	-0.241	0.015
-600.084	-14.965	-0.288	0.185
-599.069	9.547	-0.238	0.181
-598.055	-200.000	0.078	0.361
-597.040	-67.252	-0.343	0.136
-596.025	-200.000	0.031	0.287
-595.011	143.981	0.220	0.295
-593.996	-200.000	-0.050	0.360
-592.982	562.782	0.171	0.416
-591.967	11.831	0.069	-0.053
-590.952	336.809	-0.121	-0.236
-589.938	-78.164	-0.107	-0.037
-588.923	519.058	0.144	0.338
-587.909	-200.000	0.016	0.265
-586.894	-24.813	0.034	0.021
-585.879	-80.651	-0.023	-0.008
-584.865	42.143	-0.222	0.203
-583.850	-88.932	0.375	-0.111
-582.836	111.844	-0.076	-0.093
-581.821	-200.000	0.001	-0.270
-580.806	314.793	0.108	-0.204
-579.792	198.934	-0.233	0.358
-578.777	690.752	-0.120	0.316
-577.763	7.304	-0.197	0.147
-576.748	-200.000	0.044	0.294
-575.733	218.996	-0.041	0.066
-574.719	-63.093	0.234	-0.097
-573.704	-112.120	-0.289	0.058
-572.690	800.000	-0.026	-0.082
-571.675	113.353	0.064	0.078
-570.661	-168.409	-0.294	0.011
-569.646	-200.000	0.027	-0.177
-568.631	-132.597	-0.128	-0.016
-567.617	438.014	0.074	-0.162
-566.602	-200.000	0.019	0.090
-565.588	-83.162	0.263	-0.085
-564.573	800.000	0.140	-0.426
-563.558	-48.454	-0.342	0.165
-562.544	575.016	0.125	0.305
-561.529	-61.817	-0.329	-0.138
-560.515	-200.000	-0.040	0.423
-559.500	76.843	-0.123	0.131
-558.485	-142.741	0.145	0.014
-557.471	159.167	-0.009	0.013
-556.456	-71.534	-0.330	-0.124
-555.442	-83.806	0.310	0.099
-554.427	-200.000	0.011	0.292
-553.412	-147.048	-0.263	0.023
-552.398	50.346	-0.169	-0.160
-551.383	128.310	0.143	0.183
-550.369	-100.257	-0.166	0.041
-549.354	-104.593	-0.077	0.018
-548.339	-23.706	0.149	-0.089
-547.325	-97.924	0.210	-0.054
-546.310	122.809	0.212	0.266
-545.296	800.000	-0.028	-0.082
-544.281	-3.309	-0.058	-0.040
-543.266	246.565	0.162	-0.274
-542.252	-200.000	-0.010	0.355
-541.237	-200.000	0.014	-0.068
-540.223	457.939	-0.162	-0.361
-539.208	-5.453	-0.013	-0.009
-538.193	-200.000	0.009	0.254
-537.179	-200.000	0.025	0.144
-536.164	-148.213	0.110	0.009
-535.150	302.341	0.060	0.111
-534.135	-200.000	0.013	-0.148
-533.121	-56.194	0.250	-0.111
-532.106	219.076	0.200	-0.320
-531.091	-200.000	-0.009	0.154
-530.077	86.478	-0.226	-0.249
-529.062	180.076	-0.111	-0.163
-528.048	-71.740	-0.158	0.059
-527.033	800.000	0.030	-0.103
-526.018	-200.000	0.031	0.240
-525.004	-53.006	0.226	0.104
-523.989	-162.384	-0.305	-0.015
-522.975	-147.668	0.204	-0.017
-521.960	99.526	-0.281	0.326
-520.945	31.886	0.096	-0.082
-519.931	-200.000	0.344	0.001
-518.916	-92.745	-0.054	-0.015
-517.902	-136.984	-0.398	0.046
-516.887	-144.897	-0.152	-0.014
-515.872	800.000	-0.137	0.434
-514.858	-200.000	-0.008	-0.081
-513.843	-81.980	0.213	0.070
-512.829	-71.107	-0.300	-0.113
-511.814	218.526	-0.107	-0.171
-510.799	-200.000	-0.019	-0.123
-509.785	-9.375	0.105	-0.070
-508.770	-49.211	-0.149	0.071
-507.756	-130.762	-0.070	0.009
-506.741	12.863	-0.133	-0.102
-505.726	-79.016	0.239	0.081
-504.712	-200.000	-0.015	0.085
-503.697	-200.000	-0.026	0.358
-502.683	138.584	-0.060	0.079
-501.668	312.815	0.070	0.131
-500.653	800.000	-0.072	0.230
-499.639	171.341	0.026	-0.037
-498.624	-64.801	0.213	0.086
-497.610	47.847	0.037	0.035
-496.595	15.565	-0.191	-0.150
-495.581	0.089	-0.234	-0.167
-494.566	-200.000	0.034	-0.154
-493.551	-200.000	0.018	-0.256
-492.537	188.030	0.234	0.349
-491.522	-161.161	-0.205	-0.011
-490.508	179.862	0.084	-0.122
-489.493	117.850	-0.168	0.207
-488.478	-200.000	0.026	-0.342
-487.464	-159.762	-0.235	0.013
-486.449	85.152	-0.094	0.103
-485.435	-103.765	0.232	-0.054
-484.420	800.000	-0.056	-0.158
-483.405	-46.547	0.250	0.123
-482.391	-200.000	-0.010	0.204
-481.376	-121.099	-0.357	-0.060
-480.362	-9.863	0.356	0.237
-479.347	708.930	-0.096	0.252
-478.332	-117.625	0.226	-0.041
-477.318	-85.756	-0.070	0.022
-476.303	-97.742	0.128	0.033
-475.289	-79.424	0.355	-0.120
-474.274	285.353	0.087	-0.157
-473.259	-159.563	-0.174	0.010
-472.245	-86.087	0.203	-0.062
-471.230	-42.532	0.145	-0.074
-470.216	800.000	0.038	-0.131
-469.201	-125.558	0.130	-0.020
-468.186	-53.166	-0.081	-0.037
-467.172	59.796	-0.189	0.187
-466.157	-155.101	0.071	-0.005
-465.143	131.422	-0.147	0.189
-464.128	-25.206	0.088	-0.052
-463.113	173.721	0.065	-0.094
-462.099	-111.578	0.192	0.039
-461.084	93.089	0.114	0.129
-460.070	-200.000	0.059	0.529
-459.055	-200.000	-0.022	0.255
-458.040	-36.182	0.194	0.104
-457.026	416.175	0.110	-0.235
-456.011	-62.039	-0.151	0.063
-454.997	79.602	0.084	-0.090
-453.982	-200.000	0.011	0.258
-452.968	800.000	-0.060	-0.174
-451.953	2.836	0.182	-0.132
-450.938	-3.180	0.258	-0.180
-449.924	22.446	-0.167	-0.137
-448.909	-149.449	0.167	-0.013
-447.895	-30.499	0.056	0.031
-446.880	4.864	0.258	0.189
-445.865	800.000	0.028	-0.118
-444.851	-158.789	0.365	-0.021
-443.836	-70.278	-0.300	0.114
-442.822	112.111	0.250	-0.302
-441.807	108.888	-0.108	0.129
-440.792	-147.309	-0.196	-0.017
-439.778	-56.255	-0.453	0.201
-438.763	-99.950	0.360	0.090
-437.749	52.697	0.166	0.158
-436.734	334.073	-0.205	0.396
-435.719	621.564	-0.061	-0.154
-434.705	-78.283	0.204	-0.070
-433.690	800.000	0.050	-0.206
-432.676	-74.395	0.154	-0.055
-431.661	151.341	0.190	0.258
-430.646	99.722	-0.187	-0.216
-429.632	83.522	-0.152	-0.165
-428.617	-200.000	-0.021	-0.396
-427.603	625.936	-0.031	0.078
-426.588	-158.530	-0.230	-0.013
-425.573	47.380	0.227	0.210
-424.559	-200.000	0.002	0.270
-423.544	-82.174	0.402	0.131
-422.530	-122.051	0.272	-0.045
-421.515	41.555	0.044	-0.040
-420.500	-200.000	0.034	-0.239
-419.486	-28.455	-0.265	-0.152
-418.471	291.029	0.164	0.297
-417.457	-192.201	-0.302	-0.003
-416.442	-200.000	-0.024	0.303
-415.428	15.543	0.178	-0.139
-414.413	-131.987	0.374	0.049
-413.398	-90.310	0.089	0.026
-412.384	-34.716	0.185	-0.101
-411.369	-200.000	-0.004	-0.169
-410.355	86.962	-0.240	-0.265
-409.340	6.126	0.184	0.136
-408.325	237.104	-0.028	-0.045
-407.311	206.697	0.130	-0.202
-406.296	-200.000	0.036	-0.186
-405.282	105.215	-0.115	-0.135
-404.267	-56.380	0.359	-0.159
-403.252	-71.424	0.241	0.090
-402.238	63.529	-0.124	-0.124
-401.223	-200.000	-0.072	-0.363
-400.209	15.368	-0.256	-0.200
-399.194	-200.000	0.012	0.217
-398.179	800.000	0.035	0.137
-397.165	-92.233	-0.303	-0.085
-396.150	-27.290	0.432	-0.250
-395.136	-200.000	-0.000	0.135
-394.121	-200.000	0.405	0.001
-393.106	-48.450	0.072	0.034
-392.092	613.056	-0.063	-0.157
-391.077	-145.702	0.196	-0.017
-390.063	-200.000	-0.041	0.262
-389.048	-200.000	0.021	-0.142
-388.033	800.000	-0.092	-0.346
-387.019	357.296	0.111	-0.221
-386.004	10.189	-0.158	0.119
-384.990	208.635	0.245	0.381
-383.975	-200.000	0.010	0.354
-382.960	716.526	-0.096	0.252
-381.946	156.078	-0.087	0.120
-380.931	-175.928	0.127	0.003
-379.917	800.000	-0.094	-0.302
-378.902	-164.495	-0.326	-0.015
-377.888	27.412	-0.086	-0.072
-376.873	12.299	0.154	0.118
-375.858	-96.692	-0.099	0.026
-374.844	13.512	0.128	0.099
-373.829	-93.581	-0.196	0.054
-372.815	-200.000	0.010	0.293
-371.800	-200.000	-0.016	-0.210
-370.785	800.000	0.078	0.261
-369.771	-83.091	0.271	-0.087
-368.756	-25.031	0.189	0.111
-367.742	-116.968	-0.213	0.039
-366.727	-163.126	-0.420	-0.020
-365.712	-154.334	-0.138	0.009
-364.698	-200.000	0.093	-0.441
-363.683	-200.000	-0.000	-0.237
-362.669	-83.688	0.148	0.047
-361.654	-200.000	0.013	0.251
-360.639	542.050	0.096	0.227
-359.625	25.204	0.127	0.105
-358.610	-112.944	-0.031	0.006
-357.596	-122.043	-0.279	0.045
-356.581	-35.608	-0.268	-0.144
-355.566	303.729	0.053	-0.098
-354.552	316.915	-0.092	-0.173
-353.537	693.118	0.118	0.308
-352.523	295.674	-0.158	-0.288
-351.508	153.742	0.060	0.081
-350.493	-200.000	0.006	0.285
-349.479	-172.432	0.113	-0.004
-348.464	129.365	-0.084	-0.106
-347.450	-114.000	0.130	-0.025
-346.435	156.385	-0.119	0.163
-345.420	800.000	0.054	0.175
-344.406	-19.511	-0.130	0.080
-343.391	17.533	0.036	0.028
-342.377	-200.000	0.021	-0.288
-341.362	-200.000	-0.001	-0.245
-340.348	-114.245	0.196	-0.037
-339.333	-109.149	0.172	-0.036
-338.318	710.655	0.216	-0.568
-337.304	9.945	0.412	0.310
-336.289	-17.558	0.023	-0.014
-335.275	800.000	-0.042	-0.180
-334.260	-85.057	-0.268	-0.083
-333.245	-200.000	0.018	-0.108
-332.231	800.000	0.063	-0.188
-331.216	800.000	0.096	0.304
-330.202	-47.537	-0.357	0.172
-329.187	800.000	0.017	0.049
-328.172	485.629	-0.066	-0.150
-327.158	-200.000	0.100	-0.611
-326.143	-200.000	0.000	-0.118
-325.129	176.923	0.031	-0.045
-324.114	57.483	0.255	0.247
-323.099	-10.293	0.274	0.180
-322.085	-110.380	0.255	0.053
-321.070	127.183	-0.181	-0.228
-320.056	-58.109	-0.398	-0.172
-319.041	-200.000	0.030	-0.298
-318.026	726.378	-0.031	0.083
-317.012	-18.412	0.247	-0.153
-315.997	800.000	-0.034	-0.093
-314.983	-16.979	-0.303	0.190
-313.968	5.589	0.038	0.028
-312.953	800.000	0.014	0.056
-311.939	-200.000	-0.016	-0.423
-310.924	1.061	-0.081	-0.058
-309.910	-113.667	-0.096	0.019
-308.895	109.275	-0.073	0.087
-307.880	386.323	-0.048	-0.099
-306.866	-61.856	0.173	0.072
-305.851	-200.000	0.001	0.054
-304.837	-22.018	0.115	0.069
-303.822	-19.105	-0.244	-0.151
-302.807	7.726	-0.151	0.112
-301.793	4.409	0.108	0.079
-300.778	-200.000	-0.001	-0.015
-299.764	-22.494	-0.230	-0.138
-298.749	588.739	-0.128	-0.314
-297.735	-51.526	0.103	0.047
-296.720	20.044	0.150	0.120
-295.705	303.142	-0.077	0.142
-294.691	-2.468	-0.199	0.138
-293.676	-200.000	-0.038	-0.190
-292.662	-30.349	-0.184	-0.103
-291.647	-71.792	0.183	-0.068
-290.632	-200.000	-0.012	-0.208
-289.618	170.336	-0.074	0.106
-288.603	-200.000	-0.040	0.240
-287.589	-131.690	0.483	-0.063
-286.574	-17.712	0.249	-0.155
-285.559	719.063	-0.063	-0.167
-284.545	800.000	-0.039	-0.161
-283.530	548.673	-0.136	0.322
-282.516	-116.100	0.098	0.018
-281.501	-34.886	-0.168	-0.091
-280.486	-200.000	-0.075	-0.452
-279.472	17.392	-0.075	-0.059
-278.457	-90.935	-0.078	-0.022
-277.443	-200.000	-0.037	-0.282
-276.428	-139.999	0.078	0.008
-275.413	111.813	0.227	-0.272
-274.399	-47.390	-0.218	-0.105
-273.384	-0.759	-0.090	-0.063
-272.370	-64.336	0.198	0.080
-271.355	88.210	0.166	-0.182
-270.340	-64.287	0.127	0.051
-269.326	-200.000	0.011	-0.245
-268.311	-200.000	-0.022	0.112
-267.297	-200.000	-0.012	-0.142
-266.282	-200.000	0.014	0.094
-265.267	-21.699	0.091	-0.055
-264.253	220.196	-0.172	0.274
-263.238	329.141	0.050	-0.095
-262.224	-116.896	-0.246	0.045
-261.209	70.830	0.072	0.074
-260.195	439.407	-0.181	-0.391
-259.180	-200.000	0.004	-0.083
-258.165	-200.000	-0.014	0.146
-257.151	304.461	-0.047	0.086
-256.136	51.654	-0.177	0.166
-255.122	800.000	-0.104	0.320
-254.107	-103.688	-0.124	-0.029
-253.092	-200.000	-0.036	0.227
-252.078	800.000	0.068	0.212
-251.063	800.000	-0.045	0.191
-250.049	800.000	-0.050	0.195
-249.034	-134.517	0.120	0.015
-248.019	800.000	-0.104	-0.337
-247.005	-49.720	0.195	0.092
-245.990	178.744	0.104	0.150
-244.976	251.003	-0.068	-0.114
-243.961	87.402	-0.207	-0.227
-242.946	800.000	0.038	-0.107
-241.932	418.239	0.048	-0.102
-240.917	-30.245	0.012	0.007
-239.903	-45.088	0.151	-0.074
-238.888	249.445	0.178	0.299
-237.873	31.553	0.172	0.146
-236.859	-190.290	0.141	-0.002
-235.844	-21.459	0.184	-0.111
-234.830	-115.885	-0.200	-0.037
-233.815	-131.619	0.370	-0.048
-232.800	-120.922	-0.214	0.036
-231.786	118.856	0.105	0.129
-230.771	-77.135	0.159	0.055
-229.757	73.929	-0.235	-0.244
-228.742	31.945	0.199	0.169
-227.727	-45.696	0.210	-0.103
-226.713	58.733	-0.297	-0.288
-225.698	-200.000	0.001	-0.170
-224.684	431.574	-0.074	0.158
-223.669	-154.437	-0.083	-0.005
-222.655	-144.614	-0.115	-0.010
-221.640	170.107	-0.386	-0.546
-220.625	-114.409	-0.131	-0.025
-219.611	800.000	-0.096	-0.302
-218.596	-172.168	0.174	-0.006
-217.582	-151.667	0.165	0.012
-216.567	47.975	-0.131	0.121
-215.552	-73.028	-0.154	0.056
-214.538	-33.283	-0.178	0.098
-213.523	-200.000	-0.009	0.192
-212.509	19.128	-0.084	-0.066
-211.494	-78.100	0.131	-0.045
-210.479	-82.640	-0.078	0.025
-209.465	-28.987	-0.244	0.138
-208.450	687.656	-0.022	0.056
-207.436	-200.000	0.003	0.064
-206.421	13.080	0.084	0.065
-205.406	800.000	0.028	-0.086
-204.392	58.428	0.071	0.069
-203.377	-21.490	-0.311	0.188
-202.363	-4.375	-0.138	0.094
-201.348	50.364	-0.390	-0.364
-200.333	-74.517	-0.120	0.043
-199.319	-82.564	0.363	-0.116
-198.304	-200.000	-0.005	0.151
-197.290	-200.000	0.019	-0.150
-196.275	238.088	-0.182	-0.298
-195.260	96.463	-0.253	0.286
-194.246	800.000	0.048	0.160
-193.231	-137.897	0.234	-0.026
-192.217	-200.000	0.037	0.201
-191.202	91.221	-0.185	0.206
-190.187	-158.440	0.315	-0.018
-189.173	298.746	0.098	-0.178
-188.158	800.000	0.030	0.091
-187.144	238.086	0.058	0.095
-186.129	-81.697	0.171	0.056
-185.114	800.000	-0.040	-0.130
-184.100	622.243	-0.049	-0.121
-183.085	89.956	0.231	0.255
-182.071	58.798	0.040	-0.038
-181.056	48.735	-0.276	0.255
-180.042	-200.000	-0.043	0.245
-179.027	-81.202	-0.371	0.121
-178.012	-97.707	-0.215	0.055
-176.998	368.833	-0.081	0.162
-175.983	-61.554	0.116	0.048
-174.969	-171.521	-0.123	0.004
-173.954	102.132	0.249	-0.287
-172.939	-25.219	0.152	-0.089
-171.925	-122.580	-0.199	-0.032
-170.910	800.000	0.065	0.275
-169.896	-200.000	-0.029	0.176
-168.881	800.000	0.077	0.316
-167.866	-200.000	-0.000	-0.241
-166.852	-165.856	-0.270	0.011
-165.837	54.994	0.202	-0.193
-164.823	92.403	0.026	-0.028
-163.808	53.574	0.072	-0.068
-162.793	251.119	0.132	-0.221
-161.779	-200.000	-0.009	-0.087
-160.764	-200.000	-0.030	-0.140
-159.750	-8.423	-0.023	-0.015
-158.735	77.217	-0.176	0.185
-157.720	-180.616	-0.186	-0.004
-156.706	84.272	0.092	-0.099
-155.691	-200.000	0.031	0.162
-154.677	-2.696	0.119	0.082
-153.662	-89.524	-0.284	0.082
-152.647	693.068	-0.132	-0.341
-151.633	-43.661	0.157	0.078
-150.618	-123.892	-0.240	0.037
-149.604	112.493	0.147	0.176
-148.589	-200.000	0.023	0.190
-147.574	-41.293	-0.161	-0.082
-146.560	-200.000	0.013	-0.288
-145.545	359.999	0.048	0.096
-144.531	-200.000	-0.011	-0.100
-143.516	-57.897	-0.304	0.131
-142.502	480.046	0.163	0.365
-141.487	364.791	0.150	0.298
-140.472	-200.000	0.032	-0.151
-139.458	-101.549	0.242	0.058
-138.443	64.528	-0.053	0.053
-137.429	-7.864	0.235	0.156
-136.414	-200.000	0.037	-0.368
-135.399	-200.000	0.017	-0.375
-134.385	-200.000	0.054	0.353
-133.370	800.000	-0.205	0.595
-132.356	328.593	0.027	-0.051
-131.341	710.777	0.153	0.400
-130.326	133.903	-0.170	-0.218
-129.312	753.262	0.021	0.056
-128.297	77.773	-0.100	-0.105
-127.283	-200.000	-0.042	-0.202
-126.268	-50.558	-0.062	-0.029
-125.253	-64.542	-0.074	-0.030
-124.239	13.788	-0.143	-0.110
-123.224	-45.604	-0.326	0.159
-122.210	800.000	-0.093	0.309
