DTS Sentinel unit serial number:	SN413079Multiplexer serial number:	ORYXHardware model number:	OX4-SRSoftware version number:	ORYX F/W v4.00 Oryx Data Collector v3.7.2.0data status	okinstallation	princeton_trtdifferential loss correction	single-endedforward channel	channel 1reverse channel	N/Adate	2019/09/14time	22:38:35forward acquisition time	60.00reverse acquisition time	0.00gamma	496.2192k internal	0.2318k external	0.2318temperature offset calibration	1.0004default loss term (dB/km)	0.3790temperature slope calibration	1.0000multiplexer offset coefficient	1.0000multiplexer slope coefficient	1.0000fibre end	0.00T internal ref (°C)	32.50T ext. ref 1 (°C)	4.68T ext. ref 2 (°C)	27.53length (m)	temperature (°C)	Stokes	anti-Stokes-747.200	1.114	-0.165	0.120
-746.185	-69.842	0.137	-0.053
-745.171	138.859	-0.165	-0.220
-744.156	-111.766	-0.229	0.047
-743.142	373.957	-0.105	0.215
-742.127	-24.283	0.066	0.040
-741.112	-19.674	0.047	0.029
-740.098	-72.616	-0.339	0.126
-739.083	800.000	-0.010	0.034
-738.069	-19.118	-0.222	0.140
-737.054	-93.899	-0.118	0.033
-736.039	20.519	-0.189	-0.154
-735.025	-47.586	0.040	-0.020
-734.010	433.106	-0.098	0.215
-732.996	-131.197	-0.337	0.045
-731.981	679.905	0.116	-0.305
-730.966	307.013	0.089	0.168
-729.952	-153.014	-0.224	0.016
-728.937	-14.883	0.061	-0.040
-727.923	800.000	0.079	-0.243
-726.908	-9.016	0.201	-0.136
-725.894	238.896	0.093	-0.157
-724.879	800.000	0.052	-0.211
-723.864	14.264	-0.181	-0.143
-722.850	244.458	0.287	-0.488
-721.835	255.802	0.184	0.319
-720.821	-200.000	-0.006	0.162
-719.806	-13.964	-0.164	0.107
-718.791	-200.000	0.025	-0.199
-717.777	800.000	0.073	-0.264
-716.762	-55.506	0.198	0.090
-715.748	437.057	0.048	-0.107
-714.733	-125.981	0.188	0.029
-713.718	80.645	-0.151	-0.165
-712.704	131.932	-0.121	-0.157
-711.689	3.250	0.149	0.109
-710.675	-166.463	-0.163	0.007
-709.660	260.883	0.085	0.149
-708.645	18.153	0.124	-0.100
-707.631	-83.243	0.406	-0.132
-706.616	33.251	-0.113	-0.099
-705.602	-117.758	-0.362	-0.066
-704.587	-144.685	-0.251	-0.023
-703.572	-200.000	0.013	-0.163
-702.558	542.345	0.014	0.033
-701.543	21.695	0.117	0.096
-700.529	-200.000	-0.020	-0.202
-699.514	77.525	0.235	-0.253
-698.499	-200.000	0.011	0.077
-697.485	452.477	-0.072	0.160
-696.470	-4.482	0.132	0.092
-695.456	-200.000	-0.010	-0.220
-694.441	-200.000	-0.024	-0.249
-693.426	93.525	0.106	-0.121
-692.412	800.000	0.104	0.382
-691.397	271.963	0.140	-0.249
-690.383	-200.000	0.029	0.205
-689.368	-120.106	-0.477	0.082
-688.354	800.000	0.099	-0.391
-687.339	301.359	0.212	-0.396
-686.324	0.468	-0.191	0.138
-685.310	800.000	0.060	0.195
-684.295	296.339	-0.153	-0.282
-683.281	-200.000	0.015	-0.270
-682.266	306.047	0.116	0.218
-681.251	-69.513	0.270	0.105
-680.237	-200.000	0.037	-0.321
-679.222	-200.000	0.029	-0.320
-678.208	434.889	0.074	0.163
-677.193	-86.049	0.141	-0.044
-676.178	-33.297	0.175	0.098
-675.164	-13.360	-0.339	-0.222
-674.149	-125.341	0.200	0.031
-673.135	182.190	0.114	0.170
-672.120	-0.366	-0.125	0.089
-671.105	800.000	0.116	0.377
-670.091	194.061	-0.041	-0.063
-669.076	86.349	-0.093	-0.103
-668.062	800.000	0.072	-0.288
-667.047	-200.000	0.019	-0.286
-666.032	800.000	-0.054	0.198
-665.018	-84.587	0.002	-0.001
-664.003	-102.728	-0.180	-0.043
-662.989	-21.693	-0.381	-0.234
-661.974	-87.916	-0.045	-0.014
-660.959	54.811	-0.257	-0.250
-659.945	-200.000	-0.062	-0.497
-658.930	800.000	0.041	-0.137
-657.916	-200.000	0.015	0.149
-656.901	-100.108	0.076	0.019
-655.886	164.579	0.125	-0.178
-654.872	403.028	0.114	0.241
-653.857	29.094	-0.161	-0.138
-652.843	8.899	-0.358	0.272
-651.828	800.000	0.023	0.071
-650.814	-91.818	-0.187	-0.054
-649.799	-200.000	0.079	-0.511
-648.784	-138.287	0.104	0.012
-647.770	352.158	0.170	0.340
-646.755	-103.493	0.063	-0.015
-645.741	-200.000	-0.002	-0.204
-644.726	-111.515	-0.179	-0.037
-643.711	-165.569	0.402	0.018
-642.697	79.887	-0.277	-0.300
-641.682	-200.000	-0.017	-0.405
-640.668	-116.223	-0.045	0.008
-639.653	-2.568	0.159	0.112
-638.638	387.467	0.080	-0.167
-637.624	-158.570	0.142	0.008
-636.609	-72.571	-0.340	0.126
-635.595	800.000	-0.053	-0.173
-634.580	-154.945	-0.236	-0.016
-633.565	45.627	-0.156	0.145
-632.551	-44.268	0.351	-0.177
-631.536	47.887	-0.143	-0.135
-630.522	-200.000	0.040	-0.239
-629.507	172.542	-0.080	-0.116
-628.492	-65.420	0.267	0.108
-627.478	-48.668	0.081	0.039
-626.463	-19.314	-0.283	-0.177
-625.449	-27.523	0.225	0.132
-624.434	-13.321	-0.130	0.085
-623.419	-12.460	-0.233	0.153
-622.405	800.000	0.102	0.293
-621.390	-141.804	0.171	-0.017
-620.376	306.329	-0.141	-0.265
-619.361	800.000	0.047	0.164
-618.346	-74.069	-0.115	0.042
-617.332	448.530	-0.145	-0.321
-616.317	-27.210	-0.165	0.097
-615.303	-200.000	0.030	-0.206
-614.288	-78.702	-0.256	-0.088
-613.273	-33.549	-0.287	-0.159
-612.259	101.523	-0.200	-0.234
-611.244	126.181	0.230	-0.293
-610.230	-100.053	-0.109	-0.027
-609.215	64.178	0.215	0.218
-608.201	-200.000	0.024	-0.126
-607.186	-200.000	-0.016	0.075
-606.171	61.004	-0.149	-0.149
-605.157	316.516	-0.147	0.279
-604.142	0.276	-0.153	0.110
-603.128	-136.161	-0.318	-0.037
-602.113	-159.135	-0.504	-0.029
-601.098	800.000	0.075	0.329
-600.084	34.610	0.088	0.078
-599.069	254.113	-0.186	-0.320
-598.055	88.057	0.041	-0.046
-597.040	119.917	-0.153	0.191
-596.025	45.757	0.112	0.104
-595.011	-62.041	-0.159	-0.067
-593.996	800.000	-0.063	0.210
-592.982	-133.527	0.079	-0.010
-591.967	114.769	-0.139	0.170
-590.952	38.739	-0.203	-0.183
-589.938	128.418	0.002	-0.003
-588.923	41.526	-0.200	0.183
-587.909	-200.000	-0.010	-0.080
-586.894	631.943	0.095	0.241
-585.879	-34.573	0.208	0.114
-584.865	-107.195	0.280	0.062
-583.850	499.920	0.056	-0.131
-582.836	-200.000	-0.035	-0.216
-581.821	-158.110	-0.407	-0.024
-580.806	-18.284	-0.118	-0.074
-579.792	-169.703	-0.377	0.014
-578.777	-137.750	-0.198	-0.022
-577.763	-200.000	-0.044	-0.374
-576.748	-99.205	-0.319	-0.081
-575.733	139.973	-0.259	0.343
-574.719	50.956	-0.264	-0.251
-573.704	-182.820	-0.046	-0.001
-572.690	148.001	0.092	-0.125
-571.675	687.536	-0.101	0.267
-570.661	56.953	-0.150	0.147
-569.646	31.717	0.168	0.145
-568.631	84.482	-0.142	0.156
-567.617	-10.072	-0.152	-0.101
-566.602	357.857	-0.098	-0.196
-565.588	-19.186	-0.258	-0.161
-564.573	109.180	0.171	-0.205
-563.558	41.609	0.209	-0.190
-562.544	-75.978	-0.126	0.045
-561.529	168.091	0.224	-0.320
-560.515	139.659	-0.233	0.308
-559.500	390.376	0.083	0.173
-558.485	319.005	0.077	0.147
-557.471	125.216	0.119	0.150
-556.456	800.000	0.026	0.085
-555.442	-200.000	-0.011	-0.128
-554.427	183.080	0.034	0.051
-553.412	-200.000	0.004	0.155
-552.398	226.073	0.080	-0.130
-551.383	-27.503	-0.210	0.123
-550.369	324.561	-0.109	0.210
-549.354	-169.131	0.392	0.015
-548.339	-94.960	-0.330	0.090
-547.325	414.928	0.077	-0.164
-546.310	420.844	0.106	-0.229
-545.296	-200.000	-0.014	0.074
-544.281	162.519	-0.252	-0.354
-543.266	459.325	0.101	-0.225
-542.252	-66.126	-0.136	-0.054
-541.237	800.000	-0.070	0.226
-540.223	800.000	-0.057	-0.193
-539.208	800.000	0.072	0.221
-538.193	-77.036	-0.401	0.141
-537.179	66.993	0.081	-0.083
-536.164	800.000	0.091	-0.252
-535.150	-200.000	0.026	-0.170
-534.135	800.000	0.045	0.149
-533.121	-73.824	-0.197	-0.072
-532.106	-29.369	-0.294	-0.169
-531.091	-123.467	-0.294	0.047
-530.077	-33.935	-0.063	-0.035
-529.062	-200.000	-0.003	-0.103
-528.048	235.679	0.120	-0.199
-527.033	-200.000	0.004	0.277
-526.018	27.059	0.131	0.111
-525.004	-125.001	0.246	-0.038
-523.989	292.960	0.085	0.156
-522.975	-200.000	-0.025	-0.208
-521.960	-200.000	-0.002	0.074
-520.945	142.600	0.243	-0.323
-519.931	42.536	0.162	-0.148
-518.916	238.709	-0.037	-0.062
-517.902	-170.759	0.217	0.008
-516.887	-27.326	0.266	-0.155
-515.872	-2.006	-0.187	0.131
-514.858	-28.283	-0.198	-0.115
-513.843	257.705	0.004	-0.007
-512.829	-38.941	-0.283	0.149
-511.814	30.645	0.239	0.205
-510.799	-40.866	-0.173	0.090
-509.785	-200.000	0.006	0.059
-508.770	800.000	0.035	0.109
-507.756	-200.000	-0.004	0.188
-506.741	-122.613	-0.173	0.028
-505.726	-148.363	0.470	0.039
-504.712	-158.342	0.105	0.006
-503.697	-167.007	0.259	-0.011
-502.683	27.305	0.103	-0.087
-501.668	383.774	0.026	0.054
-500.653	-50.994	0.202	-0.095
-499.639	111.826	0.085	0.103
-498.624	160.087	-0.117	-0.164
-497.610	714.368	-0.074	-0.196
-496.595	-2.702	-0.215	-0.151
-495.581	-33.837	0.292	-0.161
-494.566	800.000	0.076	-0.255
-493.551	-165.729	-0.273	0.012
-492.537	91.141	0.167	-0.188
-491.522	-200.000	0.011	-0.499
-490.508	-200.000	-0.004	-0.048
-489.493	154.422	0.055	-0.075
-488.478	-99.969	0.184	0.046
-487.464	6.933	0.121	0.090
-486.449	-12.865	-0.247	-0.161
-485.435	-93.507	0.274	0.076
-484.420	-60.339	-0.115	0.049
-483.405	-200.000	-0.058	0.313
-482.391	-200.000	-0.053	0.269
-481.376	800.000	-0.055	-0.156
-480.362	244.404	-0.215	-0.362
-479.347	-122.420	0.127	-0.021
-478.332	12.556	-0.355	0.274
-477.318	38.958	-0.281	0.251
-476.303	-200.000	-0.092	0.493
-475.289	181.812	0.114	0.168
-474.274	-100.398	-0.148	-0.037
-473.259	-153.576	-0.190	-0.013
-472.245	-200.000	-0.020	-0.100
-471.230	-200.000	-0.041	-0.346
-470.216	-53.716	-0.188	-0.086
-469.201	415.627	0.102	0.218
-468.186	-200.000	0.053	0.369
-467.172	191.273	0.130	-0.196
-466.157	-72.019	-0.059	-0.022
-465.143	-200.000	0.044	-0.506
-464.128	-38.240	0.275	-0.146
-463.113	-40.011	-0.201	-0.105
-462.099	59.978	0.078	0.077
-461.084	479.133	-0.144	0.326
-460.070	-200.000	0.018	0.111
-459.055	129.635	-0.126	-0.161
-458.040	-152.074	0.126	-0.009
-457.026	407.041	0.131	0.276
-456.011	-32.016	0.148	-0.083
-454.997	39.284	-0.081	-0.073
-453.982	39.325	-0.144	0.129
-452.968	532.921	0.048	0.114
-451.953	93.831	-0.032	-0.036
-450.938	-143.309	0.046	-0.004
-449.924	566.163	-0.130	0.317
-448.909	-116.963	-0.246	-0.045
-447.895	-200.000	0.009	0.193
-446.880	-200.000	0.000	0.179
-445.865	67.977	-0.089	-0.091
-444.851	-193.772	-0.166	-0.001
-443.836	800.000	0.195	0.594
-442.822	486.826	-0.258	-0.588
-441.807	-84.646	0.252	0.079
-440.792	800.000	0.024	-0.100
-439.778	255.000	-0.142	-0.244
-438.763	76.588	0.044	0.047
-437.749	-91.906	0.157	-0.045
-436.734	800.000	-0.006	-0.022
-435.719	-200.000	0.056	-0.346
-434.705	214.765	0.021	0.034
-433.690	119.750	0.036	0.045
-432.676	-133.005	-0.208	0.026
-431.661	71.955	0.086	0.089
-430.646	800.000	0.023	-0.067
-429.632	-199.669	0.099	0.001
-428.617	119.697	-0.238	0.295
-427.603	-200.000	0.025	0.235
-426.588	-109.970	0.186	0.039
-425.573	-200.000	0.011	-0.209
-424.559	-54.877	-0.253	-0.114
-423.544	-162.802	-0.209	-0.010
-422.530	-112.383	0.262	0.052
-421.515	-102.374	0.433	-0.104
-420.500	175.341	0.155	0.225
-419.486	-24.334	-0.130	-0.078
-418.471	-173.648	-0.315	-0.009
-417.457	-144.459	-0.094	-0.009
-416.442	-37.806	-0.112	-0.059
-415.428	25.610	0.151	0.125
-414.413	-200.000	-0.030	0.294
-413.398	32.886	-0.127	0.110
-412.384	-105.233	-0.321	0.073
-411.369	-10.329	0.205	0.136
-410.355	3.419	0.249	-0.181
-409.340	-47.874	-0.266	0.129
-408.325	-95.228	0.083	0.022
-407.311	249.434	-0.084	0.142
-406.296	4.807	0.171	0.126
-405.282	22.893	0.212	0.173
-404.267	-74.040	0.026	0.009
-403.252	-55.941	0.370	0.165
-402.238	324.507	-0.164	-0.312
-401.223	-200.000	-0.004	0.052
-400.209	-102.940	-0.186	0.044
-399.194	-200.000	0.018	0.243
-398.179	-39.640	-0.085	0.045
-397.165	-12.920	-0.033	0.021
-396.150	-200.000	0.017	-0.251
-395.136	-115.869	0.225	0.042
-394.121	95.101	-0.201	0.229
-393.106	-163.006	0.121	0.006
-392.092	95.810	-0.056	-0.064
-391.077	64.002	-0.237	-0.238
-390.063	-200.000	-0.009	0.126
-389.048	-200.000	0.081	0.369
-388.033	-200.000	-0.039	0.295
-387.019	39.845	0.058	0.052
-386.004	-137.918	0.074	0.008
-384.990	-99.668	0.041	0.010
-383.975	-200.000	-0.079	-0.459
-382.960	113.977	-0.193	-0.235
-381.946	800.000	0.021	-0.064
-380.931	-155.240	0.465	-0.030
-379.917	-96.590	0.084	0.022
-378.902	-200.000	0.074	0.520
-377.888	-9.055	-0.101	0.067
-376.873	-17.893	0.153	0.096
-375.858	46.378	0.081	0.075
-374.844	-200.000	-0.034	0.238
-373.829	-1.587	-0.198	0.139
-372.815	800.000	0.022	-0.065
-371.800	-88.090	-0.207	0.062
-370.785	-169.364	-0.359	-0.013
-369.771	753.671	0.151	-0.406
-368.756	-34.937	0.055	-0.030
-367.742	-129.275	0.189	-0.026
-366.727	-66.346	-0.443	-0.176
-365.712	-38.266	0.182	-0.096
-364.698	30.485	0.175	0.149
-363.683	-200.000	-0.002	0.173
-362.669	133.332	0.162	-0.209
-361.654	-124.991	0.210	-0.032
-360.639	70.625	-0.236	-0.244
-359.625	-200.000	-0.023	-0.313
-358.610	-200.000	0.100	-0.451
-357.596	-149.806	0.210	-0.016
-356.581	-200.000	-0.001	-0.200
-355.566	794.455	-0.013	-0.036
-354.552	217.209	0.147	0.233
-353.537	-37.461	-0.150	-0.080
-352.523	-200.000	0.064	0.000
-351.508	21.077	0.312	0.253
-350.493	215.140	0.035	-0.056
-349.479	-107.952	-0.131	-0.028
-348.464	28.288	0.063	-0.053
-347.450	78.851	0.186	0.198
-346.435	-104.224	-0.453	-0.105
-345.420	197.359	0.211	0.320
-344.406	110.336	-0.171	-0.205
-343.391	83.214	-0.199	-0.215
-342.377	-7.847	0.057	0.038
-341.362	-65.952	0.281	-0.112
-340.348	177.175	0.102	-0.148
-339.333	-126.557	-0.513	-0.076
-338.318	-200.000	0.001	0.292
-337.304	-200.000	-0.016	0.137
-336.289	-200.000	-0.003	-0.043
-335.275	44.194	0.133	-0.121
-334.260	707.200	0.102	0.269
-333.245	10.310	-0.273	0.207
-332.231	-149.533	-0.184	-0.014
-331.216	800.000	0.150	0.416
-330.202	-200.000	0.023	-0.145
-329.187	778.713	0.120	-0.328
-328.172	-200.000	-0.006	-0.124
-327.158	-85.601	0.158	-0.049
-326.143	560.193	0.114	0.273
-325.129	800.000	-0.086	0.243
-324.114	-17.199	0.285	0.179
-323.099	107.415	0.141	0.167
-322.085	-200.000	-0.015	-0.093
-321.070	-200.000	0.034	-0.242
-320.056	-10.581	-0.103	0.068
-319.041	504.870	0.103	0.236
-318.026	-187.743	-0.130	0.002
-317.012	630.808	-0.121	-0.305
-315.997	-52.896	-0.327	0.150
-314.983	38.659	0.119	-0.106
-313.968	713.720	-0.090	-0.237
-312.953	800.000	-0.076	0.279
-311.939	172.746	-0.150	0.215
-310.924	161.488	-0.082	-0.114
-309.910	-42.513	0.132	0.067
-308.895	-64.698	-0.203	0.082
-307.880	27.151	0.083	0.069
-306.866	345.159	-0.100	-0.195
-305.851	-58.942	0.276	-0.119
-304.837	-9.282	0.349	-0.232
-303.822	-130.296	0.169	0.023
-302.807	-116.463	-0.298	0.055
-301.793	-51.833	0.080	-0.037
-300.778	800.000	0.069	0.234
-299.764	-128.466	-0.300	0.042
-298.749	800.000	-0.081	0.277
-297.735	-100.833	0.201	-0.049
-296.720	-133.342	0.133	-0.017
-295.705	-200.000	-0.024	-0.226
-294.691	-105.716	-0.222	0.050
-293.676	-200.000	0.104	-0.634
-292.662	76.420	0.155	0.164
-291.647	399.443	0.136	0.282
-290.632	-89.950	-0.114	-0.033
-289.618	60.826	-0.148	-0.146
-288.603	-111.676	0.174	0.035
-287.589	-79.515	-0.010	0.003
-286.574	642.787	-0.091	0.232
-285.559	-23.590	-0.065	-0.039
-284.545	800.000	-0.072	0.275
-283.530	-200.000	-0.032	-0.175
-282.516	-200.000	-0.026	0.287
-281.501	-200.000	-0.030	-0.303
-280.486	376.869	-0.165	-0.335
-279.472	164.639	0.090	0.126
-278.457	-200.000	0.010	0.258
-277.443	41.441	0.116	-0.104
-276.428	800.000	-0.098	0.362
-275.413	-174.140	0.300	-0.009
-274.399	17.862	-0.187	0.148
-273.384	-70.322	-0.177	-0.067
-272.370	-200.000	0.002	-0.272
-271.355	-200.000	0.054	0.260
-270.340	-200.000	-0.047	0.385
-269.326	-95.740	0.123	0.033
-268.311	-15.310	-0.123	-0.078
-267.297	-200.000	-0.015	-0.214
-266.282	-91.153	0.219	-0.062
-265.267	-84.863	0.170	-0.053
-264.253	243.177	-0.196	0.327
-263.238	68.801	-0.265	-0.271
-262.224	-13.489	0.228	-0.147
-261.209	111.903	0.071	-0.085
-260.195	43.403	0.146	-0.133
-259.180	-38.009	0.353	-0.186
-258.165	0.506	-0.236	-0.167
-257.151	-166.674	-0.301	-0.012
-256.136	108.828	0.122	-0.144
-255.122	-25.713	-0.176	0.103
-254.107	-197.504	0.231	0.001
-253.092	568.233	-0.126	-0.305
-252.078	-92.295	-0.142	-0.040
-251.063	-89.703	0.055	0.016
-250.049	-40.599	-0.127	-0.066
-249.034	-65.124	-0.232	0.093
-248.019	93.559	-0.209	0.235
-247.005	726.553	-0.042	0.110
-245.990	168.945	0.130	0.185
-244.976	-44.838	0.092	0.045
-243.961	-200.000	0.009	0.335
-242.946	-69.343	0.140	-0.053
-241.932	84.857	0.412	-0.448
-240.917	-30.163	-0.089	0.050
-239.903	800.000	-0.105	-0.302
-238.888	-5.405	-0.286	-0.195
-237.873	100.236	0.092	-0.106
-236.859	-88.828	0.205	0.060
-235.844	-200.000	-0.029	-0.203
-234.830	-200.000	0.036	-0.268
-233.815	-117.441	-0.147	-0.026
-232.800	800.000	0.052	0.186
-231.786	47.077	0.091	-0.084
-230.771	-25.199	0.040	-0.023
-229.757	-200.000	0.046	0.211
-228.742	183.351	-0.172	0.252
-227.727	7.559	-0.217	0.161
-226.713	-23.114	0.303	0.181
-225.698	-82.679	0.158	-0.051
-224.684	-200.000	0.003	0.140
-223.669	-35.213	-0.354	-0.191
-222.655	110.954	0.088	-0.105
-221.640	-29.674	0.115	-0.065
-220.625	553.211	-0.063	0.151
-219.611	-33.756	0.258	-0.141
-218.596	-35.900	0.229	0.123
-217.582	-38.682	0.144	-0.075
-216.567	-9.234	0.114	0.076
-215.552	142.296	-0.138	0.181
-214.538	-98.628	-0.152	0.039
-213.523	658.687	0.042	0.106
-212.509	-79.997	-0.189	0.063
-211.494	-200.000	-0.013	-0.331
-210.479	-200.000	-0.013	-0.442
-209.465	13.912	0.211	0.162
-208.450	-37.765	-0.110	-0.058
-207.436	-200.000	0.021	-0.250
-206.421	-116.019	0.387	0.071
-205.406	114.806	0.026	-0.032
-204.392	-11.619	0.310	-0.202
-203.377	130.873	0.126	0.161
-202.363	-200.000	-0.018	0.158
-201.348	44.511	0.050	-0.045
-200.333	-200.000	-0.075	-0.424
-199.319	-200.000	-0.030	0.154
-198.304	-117.883	0.113	-0.020
-197.290	-69.385	-0.217	0.083
-196.275	490.253	-0.112	-0.253
-195.260	-20.852	0.307	0.187
-194.246	800.000	0.103	0.338
-193.231	-200.000	0.223	-0.001
-192.217	-200.000	-0.003	0.098
-191.202	585.551	0.215	-0.523
-190.187	139.521	0.201	-0.262
-189.173	314.011	0.179	0.334
-188.158	-125.404	0.171	-0.026
-187.144	-44.111	0.468	0.232
-186.129	13.276	0.269	0.206
-185.114	-108.245	-0.118	0.025
-184.100	-140.731	-0.288	0.029
-183.085	-200.000	-0.015	-0.087
-182.071	-74.776	0.328	0.116
-181.056	-200.000	-0.000	-0.118
-180.042	69.798	0.493	0.503
-179.027	-200.000	0.035	0.172
-178.012	326.372	-0.095	0.180
-176.998	220.415	0.050	-0.079
-175.983	-200.000	-0.027	-0.180
-174.969	656.544	-0.065	0.165
-173.954	-88.056	-0.100	0.030
-172.939	-200.000	-0.025	0.121
-171.925	800.000	-0.104	0.410
-170.910	617.260	0.064	-0.158
-169.896	-200.000	0.015	-0.115
-168.881	332.191	-0.104	-0.199
-167.866	122.208	0.217	0.269
-166.852	-200.000	0.004	0.071
-165.837	164.552	0.073	-0.102
-164.823	-122.041	-0.058	-0.009
-163.808	-50.889	-0.279	0.130
-162.793	63.937	-0.075	0.074
-161.779	12.944	0.503	-0.385
-160.764	800.000	-0.056	-0.206
-159.750	-200.000	0.024	0.187
-158.735	-120.997	0.288	0.048
-157.720	266.716	0.143	0.248
-156.706	-30.598	0.308	0.172
-155.691	-55.758	0.203	0.090
-154.677	-118.197	0.371	-0.065
-153.662	-136.237	-0.313	0.036
-152.647	-200.000	0.008	0.277
-151.633	-136.651	-0.125	0.014
-150.618	56.120	0.085	0.082
-149.604	177.541	0.245	0.352
-148.589	-200.000	-0.000	-0.084
-147.574	6.542	-0.141	-0.103
-146.560	-104.097	-0.237	0.054
-145.545	-87.131	0.372	-0.112
-144.531	-200.000	0.012	-0.122
-143.516	173.311	-0.171	-0.243
-142.502	183.974	0.121	0.176
-141.487	40.493	-0.361	-0.321
-140.472	800.000	-0.116	-0.338
-139.458	-200.000	0.015	-0.090
-138.443	800.000	-0.068	-0.184
-137.429	-98.502	-0.344	-0.087
-136.414	446.834	0.114	0.248
-135.399	-34.568	0.133	0.072
-134.385	185.895	-0.059	0.087
-133.370	149.783	0.331	-0.444
-132.356	-124.846	0.218	-0.033
-131.341	6.780	0.032	-0.023
-130.326	-38.005	-0.116	-0.061
-129.312	71.266	-0.101	-0.104
-128.297	800.000	0.006	-0.019
-127.283	-200.000	-0.018	-0.304
-126.268	90.519	-0.174	0.193
-125.253	-3.161	0.148	-0.102
-124.239	87.592	0.190	-0.208
-123.224	0.532	-0.178	0.126
-122.210	45.608	0.134	0.122
-121.195	-162.046	-0.148	0.007
