DTS Sentinel unit serial number:	SN413079Multiplexer serial number:	ORYXHardware model number:	OX4-SRSoftware version number:	ORYX F/W v4.00 Oryx Data Collector v3.7.2.0data status	okinstallation	princeton_trtdifferential loss correction	single-endedforward channel	channel 1reverse channel	N/Adate	2019/09/17time	22:50:35forward acquisition time	60.00reverse acquisition time	0.00gamma	496.2192k internal	0.2340k external	0.2340temperature offset calibration	0.9980default loss term (dB/km)	0.3790temperature slope calibration	1.0000multiplexer offset coefficient	1.0000multiplexer slope coefficient	1.0000fibre end	0.00T internal ref (°C)	24.94T ext. ref 1 (°C)	0.18T ext. ref 2 (°C)	18.01length (m)	temperature (°C)	Stokes	anti-Stokes-747.200	347.367	-0.046	-0.090
-746.185	800.000	-0.169	0.500
-745.171	-112.304	0.326	-0.065
-744.156	-108.825	-0.238	-0.051
-743.142	471.476	0.122	0.274
-742.127	-39.357	-0.210	0.110
-741.112	-95.859	0.226	0.060
-740.098	800.000	-0.118	0.477
-739.083	16.448	-0.149	-0.118
-738.069	-200.000	0.088	0.542
-737.054	-147.245	-0.097	-0.008
-736.039	-76.451	-0.332	-0.117
-735.025	-73.088	0.160	-0.059
-734.010	18.790	0.254	0.204
-732.996	8.608	0.165	-0.124
-731.981	-21.961	-0.276	-0.168
-730.966	-59.451	-0.199	-0.086
-729.952	-121.446	-0.066	0.011
-728.937	-200.000	0.001	-0.251
-727.923	-170.830	-0.129	0.004
-726.908	-145.701	-0.373	0.033
-725.894	26.598	-0.229	-0.192
-724.879	278.680	-0.035	0.062
-723.864	-200.000	0.003	-0.144
-722.850	-24.210	0.402	0.240
-721.835	60.547	-0.121	-0.120
-720.821	800.000	-0.051	-0.216
-719.806	58.245	0.121	0.118
-718.791	203.361	0.153	-0.237
-717.777	-1.325	-0.115	-0.082
-716.762	-162.154	0.217	0.011
-715.748	214.277	-0.073	0.116
-714.733	-200.000	0.021	-0.155
-713.718	-95.857	-0.175	-0.047
-712.704	-77.891	-0.223	0.077
-711.689	-71.937	0.185	-0.069
-710.675	-200.000	-0.029	-0.137
-709.660	-68.220	-0.306	0.119
-708.645	752.168	0.042	-0.114
-707.631	-200.000	0.016	0.086
-706.616	-74.318	-0.175	0.063
-705.602	243.785	-0.237	0.398
-704.587	-200.000	0.000	-0.179
-703.572	85.236	-0.147	0.162
-702.558	11.704	-0.028	-0.021
-701.543	-200.000	0.027	-0.143
-700.529	800.000	0.012	0.039
-699.514	-200.000	-0.006	-0.214
-698.499	13.606	0.277	0.215
-697.485	-62.125	0.121	0.050
-696.470	-45.903	-0.232	-0.115
-695.456	163.151	0.119	0.167
-694.441	3.083	-0.079	-0.058
-693.426	-19.609	-0.223	-0.138
-692.412	341.770	-0.081	-0.158
-691.397	-6.632	0.335	0.228
-690.383	111.015	0.153	-0.184
-689.368	-191.947	-0.093	-0.001
-688.354	14.369	0.139	-0.108
-687.339	-200.000	-0.033	-0.286
-686.324	167.862	-0.127	0.180
-685.310	5.013	-0.105	-0.078
-684.295	568.124	-0.123	-0.298
-683.281	800.000	-0.054	-0.233
-682.266	-107.732	0.086	-0.019
-681.251	-72.420	0.136	-0.050
-680.237	132.953	-0.311	-0.402
-679.222	-200.000	0.006	-0.403
-678.208	99.577	0.120	-0.138
-677.193	46.520	-0.151	-0.140
-676.178	98.460	0.080	0.093
-675.164	-110.671	0.080	0.017
-674.149	800.000	-0.044	-0.181
-673.135	317.952	-0.140	-0.266
-672.120	192.678	0.070	0.106
-671.105	93.513	0.138	0.156
-670.091	-135.097	-0.207	0.025
-669.076	39.846	0.305	0.274
-668.062	-0.593	0.086	0.061
-667.047	800.000	-0.088	-0.315
-666.032	800.000	-0.026	-0.096
-665.018	404.197	0.185	-0.389
-664.003	337.612	0.177	-0.343
-662.989	-182.282	-0.255	0.005
-661.974	-71.931	-0.255	0.095
-660.959	349.093	0.093	-0.183
-659.945	-12.847	-0.246	-0.160
-658.930	-97.868	-0.337	-0.087
-657.916	-149.251	-0.243	-0.019
-656.901	-98.456	-0.322	0.082
-655.886	-45.075	0.170	-0.085
-654.872	-85.023	-0.443	0.139
-653.857	-106.177	0.347	-0.078
-652.843	680.964	-0.077	0.201
-651.828	63.841	0.175	-0.176
-650.814	17.066	0.164	-0.130
-649.799	-51.347	0.435	-0.203
-648.784	139.321	0.086	-0.113
-647.770	-200.000	0.003	0.064
-646.755	-46.880	-0.150	0.073
-645.741	-92.881	-0.363	-0.101
-644.726	-166.649	0.129	0.005
-643.711	627.299	-0.048	-0.122
-642.697	-101.466	0.167	0.041
-641.682	82.878	-0.063	0.068
-640.668	800.000	0.072	0.291
-639.653	-164.139	-0.333	-0.015
-638.638	58.542	0.131	-0.128
-637.624	-200.000	-0.007	-0.082
-636.609	-137.442	0.264	0.030
-635.595	-105.548	0.342	0.077
-634.580	564.421	-0.116	-0.281
-633.565	738.120	0.120	0.321
-632.551	-169.642	-0.250	-0.009
-631.536	-144.429	-0.054	0.005
-630.522	475.192	-0.040	0.091
-629.507	153.316	-0.125	0.170
-628.492	800.000	-0.076	0.244
-627.478	-38.130	0.230	-0.122
-626.463	-200.000	-0.072	-0.383
-625.449	35.498	0.244	-0.213
-624.434	40.828	-0.196	-0.176
-623.419	-200.000	-0.005	-0.435
-622.405	51.280	0.151	-0.143
-621.390	122.439	0.073	0.091
-620.376	57.649	-0.281	-0.274
-619.361	87.281	0.107	-0.118
-618.346	-80.726	0.279	-0.092
-617.332	-200.000	0.048	-0.273
-616.317	800.000	-0.101	-0.384
-615.303	-124.954	-0.118	0.018
-614.288	-156.123	0.205	0.013
-613.273	23.589	-0.250	0.205
-612.259	-87.703	0.200	0.060
-611.244	-53.146	-0.114	0.052
-610.230	289.114	0.066	-0.119
-609.215	-161.518	-0.143	0.007
-608.201	-68.771	-0.177	0.068
-607.186	-200.000	-0.031	0.221
-606.171	647.604	-0.137	0.350
-605.157	-174.317	0.410	-0.012
-604.142	-4.029	-0.150	-0.104
-603.128	470.528	0.103	-0.231
-602.113	-66.915	-0.282	-0.111
-601.098	-98.046	0.285	-0.073
-600.084	-28.693	-0.229	-0.131
-599.069	126.355	0.096	-0.122
-598.055	-200.000	-0.074	-0.384
-597.040	800.000	-0.050	-0.144
-596.025	22.490	0.087	-0.071
-595.011	-99.949	-0.132	-0.033
-593.996	-44.634	0.016	-0.008
-592.982	-135.406	-0.233	-0.028
-591.967	-33.027	0.235	-0.130
-590.952	-1.001	-0.121	0.085
-589.938	-2.008	0.158	-0.111
-588.923	527.515	0.086	0.202
-587.909	-131.203	0.100	0.013
-586.894	800.000	-0.038	-0.137
-585.879	144.319	-0.167	0.222
-584.865	-155.351	0.111	-0.007
-583.850	81.238	-0.060	-0.064
-582.836	246.018	-0.073	0.122
-581.821	800.000	0.060	-0.188
-580.806	74.522	0.114	0.120
-579.792	652.736	-0.115	-0.294
-578.777	645.653	0.022	0.055
-577.763	-27.378	0.198	0.115
-576.748	-200.000	-0.001	0.245
-575.733	29.550	-0.124	-0.105
-574.719	-200.000	-0.013	0.218
-573.704	-200.000	-0.021	-0.194
-572.690	146.814	-0.082	-0.109
-571.675	-129.899	0.129	0.018
-570.661	36.133	-0.154	0.135
-569.646	-200.000	0.013	-0.146
-568.631	-200.000	0.036	0.286
-567.617	-33.301	-0.202	0.112
-566.602	-49.513	-0.510	-0.242
-565.588	800.000	-0.021	0.074
-564.573	-40.654	0.316	0.163
-563.558	45.856	0.283	0.260
-562.544	18.976	0.180	0.143
-561.529	-102.775	-0.137	0.032
-560.515	800.000	0.077	0.223
-559.500	-200.000	0.040	0.240
-558.485	16.812	-0.120	0.095
-557.471	-200.000	0.009	-0.338
-556.456	-116.658	-0.355	0.065
-555.442	6.821	0.348	0.258
-554.427	-200.000	0.019	0.449
-553.412	25.949	0.178	-0.147
-552.398	-28.763	0.159	-0.091
-551.383	0.808	-0.346	0.247
-550.369	-70.381	0.184	-0.070
-549.354	-200.000	0.027	-0.330
-548.339	-155.448	-0.266	0.017
-547.325	272.066	-0.108	-0.189
-546.310	185.775	0.133	-0.197
-545.296	121.050	0.143	0.177
-544.281	158.764	-0.155	-0.215
-543.266	800.000	0.019	0.066
-542.252	114.709	-0.247	0.300
-541.237	-171.262	-0.355	0.012
-540.223	149.074	-0.157	-0.212
-539.208	-88.876	0.432	0.128
-538.193	125.805	0.157	-0.197
-537.179	115.405	-0.082	-0.100
-536.164	197.970	-0.024	0.037
-535.150	-116.010	0.309	0.057
-534.135	-15.598	0.340	0.216
-533.121	-200.000	0.031	-0.585
-532.106	-62.126	0.380	0.157
-531.091	-200.000	-0.023	-0.143
-530.077	800.000	0.021	-0.088
-529.062	-200.000	0.017	-0.379
-528.048	-200.000	0.031	0.211
-527.033	-1.481	-0.315	0.221
-526.018	-200.000	-0.011	-0.062
-525.004	-157.958	-0.304	-0.018
-523.989	429.763	0.131	-0.283
-522.975	-153.207	0.207	0.014
-521.960	596.998	-0.017	0.043
-520.945	-64.448	0.129	0.052
-519.931	339.016	-0.011	-0.021
-518.916	181.541	-0.157	-0.230
-517.902	48.491	-0.131	0.122
-516.887	-14.264	-0.217	-0.139
-515.872	44.342	0.085	0.078
-514.858	-43.512	0.187	0.094
-513.843	800.000	0.056	-0.175
-512.829	-64.133	-0.244	0.099
-511.814	-62.505	-0.126	-0.052
-510.799	56.942	-0.077	0.075
-509.785	-43.050	0.119	0.060
-508.770	-54.267	-0.231	0.104
-507.756	52.558	0.166	-0.157
-506.741	-200.000	0.012	0.202
-505.726	12.918	0.216	0.166
-504.712	759.613	0.068	-0.183
-503.697	-12.215	-0.235	0.153
-502.683	342.674	-0.114	-0.221
-501.668	-200.000	0.021	-0.147
-500.653	94.234	0.121	-0.136
-499.639	98.626	-0.178	-0.204
-498.624	266.604	0.125	-0.217
-497.610	499.565	-0.128	0.293
-496.595	-139.687	-0.153	-0.016
-495.581	-39.102	-0.103	0.054
-494.566	-77.467	-0.352	-0.121
-493.551	-113.023	-0.249	0.049
-492.537	599.893	-0.090	0.221
-491.522	-100.954	0.141	-0.034
-490.508	-21.114	-0.139	0.085
-489.493	-200.000	0.045	0.432
-488.478	-168.251	0.294	0.011
-487.464	313.305	-0.080	-0.149
-486.449	-200.000	-0.032	-0.220
-485.435	800.000	-0.020	-0.076
-484.420	-52.230	0.152	-0.070
-483.405	135.912	-0.145	-0.188
-482.391	-118.665	-0.059	-0.010
-481.376	15.410	0.229	-0.179
-480.362	-137.097	-0.275	0.031
-479.347	533.362	0.126	-0.296
-478.332	209.477	0.097	0.151
-477.318	-200.000	0.026	-0.147
-476.303	13.842	0.182	-0.141
-475.289	-8.017	0.300	-0.201
-474.274	-7.035	-0.082	-0.055
-473.259	-200.000	-0.027	0.177
-472.245	-200.000	-0.001	-0.066
-471.230	125.460	-0.258	0.323
-470.216	-105.820	0.042	-0.009
-469.201	632.376	-0.077	0.194
-468.186	112.142	0.129	0.154
-467.172	800.000	-0.013	-0.052
-466.157	-93.462	-0.075	-0.021
-465.143	673.806	-0.078	0.201
-464.128	87.518	-0.230	0.253
-463.113	56.407	0.245	0.236
-462.099	800.000	-0.136	0.469
-461.084	-200.000	0.015	-0.078
-460.070	-49.510	0.093	-0.044
-459.055	-200.000	0.021	0.156
-458.040	-174.478	0.314	-0.009
-457.026	-116.999	-0.429	0.078
-456.011	326.187	-0.056	-0.107
-454.997	761.450	0.086	0.230
-453.982	-200.000	0.085	0.431
-452.968	41.269	-0.031	0.028
-451.953	61.810	0.265	0.262
-450.938	-200.000	-0.010	-0.077
-449.924	-26.656	0.142	0.082
-448.909	-28.400	0.289	-0.165
-447.895	-111.734	-0.313	-0.063
-446.880	800.000	0.044	0.121
-445.865	-23.969	0.271	0.161
-444.851	800.000	-0.033	-0.127
-443.836	-200.000	0.003	0.014
-442.822	-200.000	0.002	0.199
-441.807	-200.000	0.030	-0.383
-440.792	92.363	0.063	-0.070
-439.778	265.011	-0.074	-0.127
-438.763	138.181	0.070	0.091
-437.749	-139.892	0.167	-0.018
-436.734	107.931	0.192	-0.227
-435.719	-200.000	0.016	0.187
-434.705	45.915	-0.053	-0.048
-433.690	189.875	-0.153	0.228
-432.676	-200.000	0.004	0.110
-431.661	-200.000	0.017	0.112
-430.646	453.323	-0.034	0.075
-429.632	-127.580	-0.154	0.022
-428.617	185.552	-0.101	-0.148
-427.603	99.615	-0.125	0.144
-426.588	290.941	0.044	0.079
-425.573	155.556	-0.231	-0.316
-424.559	-15.344	-0.322	-0.204
-423.544	-200.000	0.029	0.304
-422.530	-158.342	0.352	0.020
-421.515	112.329	-0.079	0.095
-420.500	75.780	-0.087	0.092
-419.486	107.772	0.155	-0.182
-418.471	669.989	-0.065	-0.167
-417.457	-0.249	0.219	-0.154
-416.442	800.000	0.051	-0.182
-415.428	-105.526	0.176	0.039
-414.413	-200.000	-0.032	0.276
-413.398	-87.285	-0.205	-0.061
-412.384	31.031	0.218	-0.185
-411.369	-200.000	-0.017	0.088
-410.355	15.418	0.186	-0.145
-409.340	-200.000	0.077	-0.407
-408.325	143.784	0.119	-0.157
-407.311	-132.692	-0.262	0.033
-406.296	-80.739	-0.164	0.054
-405.282	117.900	0.290	-0.354
-404.267	-90.065	0.209	-0.060
-403.252	-200.000	0.013	0.138
-402.238	297.636	-0.102	-0.186
-401.223	-200.000	-0.044	-0.248
-400.209	153.900	-0.156	0.211
-399.194	374.275	0.072	0.144
-398.179	-14.626	0.164	-0.104
-397.165	800.000	0.089	-0.382
-396.150	-200.000	-0.008	-0.247
-395.136	-200.000	-0.039	0.191
-394.121	-200.000	-0.018	-0.207
-393.106	-200.000	0.049	0.217
-392.092	347.865	0.111	0.217
-391.077	800.000	-0.065	-0.243
-390.063	-70.009	-0.184	0.069
-389.048	116.592	-0.143	-0.173
-388.033	-200.000	-0.020	-0.265
-387.019	36.515	-0.140	0.122
-386.004	-32.435	-0.117	0.064
-384.990	-58.805	-0.367	-0.157
-383.975	-200.000	-0.009	0.176
-382.960	800.000	-0.069	-0.269
-381.946	-80.066	-0.041	-0.013
-380.931	-67.971	0.174	0.067
-379.917	-5.829	0.082	0.055
-378.902	1.749	-0.247	0.176
-377.888	-27.009	-0.139	-0.080
-376.873	-22.882	-0.175	-0.104
-375.858	-145.418	-0.171	0.015
-374.844	-160.667	-0.108	-0.006
-373.829	-200.000	-0.003	0.123
-372.815	24.705	0.036	-0.029
-371.800	114.582	-0.254	-0.306
-370.785	486.070	0.104	-0.235
-369.771	-43.840	-0.250	-0.124
-368.756	467.337	0.152	0.338
-367.742	-77.329	0.170	-0.058
-366.727	-13.650	-0.234	0.150
-365.712	-30.721	-0.187	-0.105
-364.698	-28.411	-0.168	-0.095
-363.683	-115.019	0.140	-0.026
-362.669	86.561	-0.255	0.278
-361.654	115.998	-0.154	-0.187
-360.639	-22.142	0.303	0.182
-359.625	-67.903	0.112	-0.043
-358.610	800.000	0.024	-0.090
-357.596	144.278	-0.030	0.040
-356.581	-200.000	0.002	0.386
-355.566	-175.042	-0.127	0.003
-354.552	-152.534	0.126	-0.009
-353.537	-40.151	0.026	0.013
-352.523	784.173	0.065	-0.176
-351.508	99.309	-0.073	-0.083
-350.493	-89.727	-0.315	0.091
-349.479	10.989	-0.120	0.090
-348.464	378.427	0.081	-0.165
-347.450	-200.000	-0.070	0.363
-346.435	777.062	0.025	0.067
-345.420	153.693	-0.230	-0.311
-344.406	-76.805	0.129	-0.045
-343.391	800.000	0.050	-0.167
-342.377	-83.509	0.226	-0.071
-341.362	-146.272	-0.447	0.039
-340.348	-200.000	-0.019	-0.219
-339.333	-68.037	-0.435	-0.167
-338.318	-200.000	0.018	0.188
-337.304	98.711	0.201	-0.229
-336.289	-200.000	-0.052	0.274
-335.275	-39.317	0.204	0.105
-334.260	-200.000	0.031	0.160
-333.245	-64.650	-0.202	0.081
-332.231	22.446	-0.070	0.057
-331.216	-200.000	-0.007	0.150
-330.202	-200.000	0.066	-0.330
-329.187	-139.099	-0.370	-0.039
-328.172	34.914	0.346	0.299
-327.158	-9.837	-0.228	-0.150
-326.143	-200.000	-0.013	-0.179
-325.129	-130.963	-0.066	-0.009
-324.114	-200.000	-0.140	-0.000
-323.099	-200.000	0.010	-0.061
-322.085	341.915	0.090	-0.173
-321.070	56.687	0.272	-0.261
-320.056	-200.000	0.018	0.244
-319.041	-178.728	-0.279	0.006
-318.026	-131.377	-0.113	-0.015
-317.012	-6.558	-0.208	0.140
-315.997	-25.607	0.056	0.033
-314.983	-50.279	0.206	0.096
-313.968	-76.676	-0.108	-0.037
-312.953	-176.246	-0.227	0.006
-311.939	189.434	-0.133	-0.197
-310.924	-30.007	-0.115	-0.065
-309.910	246.464	0.133	0.222
-308.895	-200.000	-0.002	0.093
-307.880	433.702	-0.050	0.107
-306.866	-15.614	-0.272	0.171
-305.851	-34.498	0.163	-0.088
-304.837	454.347	0.139	-0.304
-303.822	-200.000	0.003	-0.075
-302.807	586.698	0.030	0.073
-301.793	693.335	0.157	-0.405
-300.778	-200.000	0.005	0.059
-299.764	-200.000	0.015	0.106
-298.749	7.670	0.259	0.191
-297.735	89.988	-0.231	-0.254
-296.720	-129.816	0.302	-0.041
-295.705	-139.987	-0.304	0.032
-294.691	17.786	0.249	-0.195
-293.676	-6.893	-0.261	0.175
-292.662	-172.972	-0.164	-0.005
-291.647	-200.000	-0.051	0.224
-290.632	368.424	0.055	-0.110
-289.618	-179.339	0.436	0.009
-288.603	600.015	-0.043	0.105
-287.589	-117.695	0.363	0.064
-286.574	-154.295	-0.326	0.022
-285.559	-49.481	0.074	-0.035
-284.545	549.341	-0.116	0.274
-283.530	246.809	0.155	0.257
-282.516	445.173	0.084	0.181
-281.501	-173.587	0.302	-0.009
-280.486	106.596	0.112	0.131
-279.472	73.250	-0.093	-0.096
-278.457	-200.000	-0.032	0.166
-277.443	-200.000	-0.009	0.212
-276.428	-49.804	-0.173	0.081
-275.413	149.167	-0.194	0.259
-274.399	-102.484	0.068	-0.016
-273.384	-3.500	0.274	0.188
-272.370	-156.960	0.309	0.019
-271.355	-162.928	0.286	-0.014
-270.340	800.000	0.111	0.329
-269.326	67.358	0.158	-0.159
-268.311	143.318	-0.065	-0.086
-267.297	800.000	0.102	0.367
-266.282	-81.767	0.254	-0.082
-265.267	800.000	-0.093	0.282
-264.253	800.000	-0.061	-0.244
-263.238	-149.767	-0.085	-0.007
-262.224	-200.000	0.050	0.246
-261.209	-19.369	-0.304	0.185
-260.195	-97.577	0.430	0.110
-259.180	630.992	0.050	-0.125
-258.165	-35.352	-0.070	-0.038
-257.151	156.830	0.078	-0.106
-256.136	-200.000	-0.024	-0.210
-255.122	388.935	0.116	-0.236
-254.107	800.000	-0.006	0.018
-253.092	156.522	-0.118	-0.160
-252.078	-106.518	0.130	-0.029
-251.063	110.910	-0.066	0.078
-250.049	-139.341	-0.230	0.024
-249.034	-118.838	-0.163	0.028
-248.019	66.040	0.157	0.157
-247.005	166.029	-0.146	0.203
-245.990	718.800	0.176	-0.460
-244.976	255.579	0.098	-0.166
-243.961	-113.843	0.308	-0.059
-242.946	-67.777	-0.300	0.115
-241.932	-84.489	0.014	0.004
-240.917	-1.615	-0.132	-0.091
-239.903	64.806	-0.142	-0.141
-238.888	15.044	0.089	-0.068
-237.873	-200.000	0.012	-0.137
-236.859	-200.000	-0.060	0.271
-235.844	-200.000	-0.006	0.237
-234.830	-200.000	0.336	-0.001
-233.815	299.264	0.145	-0.263
-232.800	135.689	-0.194	-0.248
-231.786	-13.589	-0.243	0.155
-230.771	-22.983	0.341	0.202
-229.757	-200.000	0.042	-0.223
-228.742	-10.470	-0.287	-0.187
-227.727	-200.000	-0.021	-0.163
-226.713	16.192	-0.289	-0.224
-225.698	-200.000	-0.019	0.278
-224.684	-104.406	0.020	0.004
-223.669	800.000	-0.068	0.226
-222.655	-62.166	0.212	0.087
-221.640	86.164	-0.084	0.091
-220.625	54.587	0.063	-0.060
-219.611	71.197	0.116	0.118
-218.596	5.483	0.263	0.191
-217.582	-82.720	0.524	-0.166
-216.567	-75.779	-0.115	-0.040
-215.552	-5.461	-0.128	-0.087
-214.538	-20.424	0.161	0.097
-213.523	-124.167	0.261	-0.040
-212.509	-89.098	-0.215	-0.063
-211.494	-96.615	0.172	0.045
-210.479	-200.000	-0.001	0.390
-209.465	-123.182	-0.089	-0.014
-208.450	52.530	0.196	-0.184
-207.436	-200.000	0.022	0.218
-206.421	-146.929	-0.076	-0.006
-205.406	-14.202	-0.224	-0.142
-204.392	361.898	0.145	0.286
-203.377	-42.733	0.194	0.097
-202.363	800.000	-0.151	0.486
-201.348	308.317	0.113	0.208
-200.333	-38.262	-0.131	0.068
-199.319	800.000	-0.131	0.542
-198.304	-41.599	-0.112	-0.057
-197.290	-200.000	0.026	-0.159
-196.275	-200.000	-0.038	-0.391
-195.260	238.401	-0.118	0.192
-194.246	66.154	-0.095	0.095
-193.231	313.119	-0.054	0.100
-192.217	800.000	0.093	-0.370
-191.202	2.725	-0.093	-0.066
-190.187	-60.536	0.065	-0.027
-189.173	37.132	0.135	-0.117
-188.158	14.743	0.187	-0.143
-187.144	-4.649	0.102	0.069
-186.129	-72.303	-0.229	-0.083
-185.114	15.407	0.231	0.178
-184.100	-200.000	-0.007	0.219
-183.085	58.310	0.106	-0.102
-182.071	-59.790	-0.216	0.091
-181.056	-128.440	0.346	0.048
-180.042	-24.484	0.186	0.109
-179.027	800.000	-0.012	0.053
-178.012	-146.637	0.224	-0.019
-176.998	-154.097	0.111	-0.007
-175.983	174.354	0.206	0.293
-174.969	19.234	-0.116	0.092
-173.954	-200.000	0.063	0.325
-172.939	239.605	0.143	-0.234
-171.925	189.340	0.062	-0.091
-170.910	800.000	-0.047	-0.141
-169.896	780.825	-0.034	-0.091
-168.881	-131.044	-0.346	0.045
-167.866	25.039	0.238	0.194
-166.852	134.687	-0.142	0.181
-165.837	-71.221	0.191	-0.070
-164.823	-46.567	0.456	-0.219
-163.808	342.497	-0.105	0.201
-162.793	-65.112	-0.537	-0.212
-161.779	-49.275	0.020	0.009
-160.764	101.601	0.090	-0.103
-159.750	545.430	0.101	0.236
-158.735	6.150	-0.257	0.187
-157.720	-90.830	0.029	-0.008
-156.706	519.200	0.110	-0.251
-155.691	1.964	-0.072	0.051
-154.677	800.000	-0.068	-0.190
-153.662	800.000	-0.033	-0.120
-152.647	-129.617	0.028	-0.004
-151.633	-62.280	-0.301	0.123
-150.618	-88.482	0.119	0.035
-149.604	-29.198	0.140	-0.078
-148.589	380.687	0.076	-0.153
-147.574	-111.648	-0.582	0.116
-146.560	284.953	0.124	0.219
-145.545	620.524	0.190	-0.469
-144.531	66.987	0.152	-0.151
-143.516	8.761	-0.083	0.061
-142.502	1.639	-0.167	0.118
-141.487	-142.145	-0.284	0.028
-140.472	-200.000	0.004	0.184
-139.458	-24.829	0.442	0.257
-138.443	-67.747	0.114	-0.044
-137.429	33.774	0.048	-0.041
-136.414	295.808	-0.123	0.220
-135.399	-121.638	-0.299	0.049
-134.385	-200.000	0.021	-0.250
-133.370	163.160	0.069	-0.095
-132.356	-200.000	-0.003	0.064
-131.341	5.715	0.080	-0.058
-130.326	-22.679	-0.169	0.100
-129.312	-128.540	0.103	0.014
-128.297	216.508	0.198	0.308
-127.283	587.207	0.018	-0.043
-126.268	-200.000	0.038	-0.213
-125.253	246.071	-0.082	0.135
-124.239	178.703	-0.115	-0.164
-123.224	147.245	-0.207	0.272
-122.210	-200.000	-0.003	-0.208
-121.195	-115.326	0.219	-0.041
