DTS Sentinel unit serial number:	SN413079Multiplexer serial number:	ORYXHardware model number:	OX4-SRSoftware version number:	ORYX F/W v4.00 Oryx Data Collector v3.7.2.0data status	okinstallation	princeton_trtdifferential loss correction	single-endedforward channel	channel 1reverse channel	N/Adate	2019/09/14time	01:18:35forward acquisition time	60.00reverse acquisition time	0.00gamma	496.2192k internal	0.2337k external	0.2337temperature offset calibration	1.0077default loss term (dB/km)	0.3790temperature slope calibration	1.0000multiplexer offset coefficient	1.0000multiplexer slope coefficient	1.0000fibre end	0.00T internal ref (°C)	26.41T ext. ref 1 (°C)	3.17T ext. ref 2 (°C)	21.42length (m)	temperature (°C)	Stokes	anti-Stokes-747.200	-200.000	0.014	-0.296
-746.185	-126.434	-0.243	-0.036
-745.171	130.867	0.016	0.021
-744.156	-55.937	-0.248	0.111
-743.142	-121.426	-0.244	0.041
-742.127	-24.657	-0.295	0.176
-741.112	178.677	-0.091	-0.134
-740.098	800.000	0.033	0.114
-739.083	330.003	0.044	0.086
-738.069	800.000	0.029	-0.107
-737.054	-200.000	0.028	0.288
-736.039	-108.452	-0.362	-0.078
-735.025	800.000	0.172	0.514
-734.010	650.883	-0.116	-0.299
-732.996	74.589	0.219	0.231
-731.981	-85.727	0.382	0.119
-730.966	-200.000	0.020	-0.373
-729.952	543.716	0.096	-0.230
-728.937	-93.609	-0.306	0.085
-727.923	-36.354	0.151	0.082
-726.908	-74.133	-0.314	0.114
-725.894	14.283	-0.205	0.161
-724.879	800.000	-0.015	0.042
-723.864	800.000	-0.021	0.075
-722.850	-31.552	-0.169	-0.095
-721.835	113.101	-0.084	0.102
-720.821	-34.809	0.165	-0.090
-719.806	-101.231	-0.123	-0.030
-718.791	183.184	0.067	-0.099
-717.777	145.962	0.184	-0.248
-716.762	-163.965	-0.121	0.006
-715.748	-126.389	-0.206	-0.031
-714.733	-18.205	-0.280	-0.176
-713.718	-98.372	-0.277	-0.071
-712.704	-138.644	-0.092	-0.010
-711.689	800.000	-0.013	-0.053
-710.675	-60.891	-0.139	-0.059
-709.660	-200.000	-0.016	-0.095
-708.645	-65.778	0.125	0.050
-707.631	550.395	0.106	-0.254
-706.616	-123.217	0.204	0.033
-705.602	117.283	0.210	0.259
-704.587	92.925	-0.178	-0.202
-703.572	-5.938	-0.119	0.082
-702.558	-200.000	-0.062	0.294
-701.543	44.633	0.070	0.065
-700.529	800.000	0.070	-0.271
-699.514	512.985	0.081	-0.190
-698.499	800.000	0.046	0.130
-697.485	-85.392	0.200	-0.062
-696.470	170.542	-0.100	0.144
-695.456	411.892	0.074	-0.158
-694.441	-200.000	0.037	0.234
-693.426	-200.000	-0.028	-0.326
-692.412	-200.000	0.008	-0.079
-691.397	-18.689	-0.179	-0.112
-690.383	127.885	-0.093	-0.118
-689.368	158.078	0.202	0.280
-688.354	-55.965	0.215	0.096
-687.339	-26.661	0.226	-0.133
-686.324	-148.920	-0.211	0.017
-685.310	800.000	-0.039	0.172
-684.295	-89.767	-0.138	-0.041
-683.281	236.166	0.209	-0.347
-682.266	-155.869	0.396	0.025
-681.251	122.528	0.048	0.060
-680.237	800.000	0.076	-0.247
-679.222	342.238	0.183	-0.358
-678.208	483.754	-0.123	0.279
-677.193	54.159	0.098	0.094
-676.178	-72.829	0.152	0.056
-675.164	423.772	-0.042	0.090
-674.149	-83.216	-0.209	0.067
-673.135	-149.207	-0.069	-0.005
-672.120	52.398	-0.283	-0.270
-671.105	-200.000	-0.031	-0.148
-670.091	800.000	0.021	0.091
-669.076	-114.254	0.195	0.038
-668.062	-145.056	-0.564	0.051
-667.047	65.522	0.188	-0.191
-666.032	-120.561	-0.460	-0.078
-665.018	82.661	-0.094	0.102
-664.003	-67.964	-0.183	-0.072
-662.989	400.095	-0.136	0.285
-661.974	377.024	-0.172	-0.351
-660.959	-105.926	-0.237	-0.053
-659.945	-81.339	0.165	-0.054
-658.930	-200.000	0.045	0.265
-657.916	79.837	0.172	-0.185
-656.901	-17.384	-0.169	0.106
-655.886	108.630	-0.098	0.117
-654.872	-19.671	0.198	0.123
-653.857	-186.092	-0.314	0.005
-652.843	-200.000	-0.019	-0.157
-651.828	800.000	0.030	0.129
-650.814	-200.000	0.001	-0.108
-649.799	-40.554	-0.288	-0.149
-648.784	800.000	0.028	0.114
-647.770	-15.499	0.160	-0.102
-646.755	500.401	-0.067	0.154
-645.741	-127.811	0.104	-0.015
-644.726	-200.000	-0.003	-0.158
-643.711	56.992	0.266	0.260
-642.697	-133.548	0.126	0.016
-641.682	-200.000	-0.003	-0.038
-640.668	-200.000	-0.009	0.154
-639.653	-191.158	-0.145	0.001
-638.638	-157.873	0.103	0.006
-637.624	-119.960	-0.304	-0.052
-636.609	-23.888	0.318	0.191
-635.595	293.583	0.139	-0.253
-634.580	-71.643	-0.077	-0.029
-633.565	139.748	0.026	0.034
-632.551	751.981	-0.026	0.071
-631.536	-106.204	-0.309	-0.069
-630.522	-78.737	-0.051	-0.017
-629.507	-200.000	-0.015	-0.089
-628.492	-118.379	-0.191	-0.034
-627.478	434.496	-0.087	0.190
-626.463	259.090	0.097	0.167
-625.449	-163.990	-0.201	-0.009
-624.434	800.000	0.090	0.287
-623.419	188.663	-0.177	0.265
-622.405	-200.000	-0.006	-0.224
-621.390	-200.000	0.021	-0.130
-620.376	-175.436	-0.152	-0.004
-619.361	361.579	0.077	0.154
-618.346	500.892	-0.070	0.161
-617.332	570.884	-0.052	0.127
-616.317	642.206	0.065	-0.165
-615.303	161.589	0.297	-0.416
-614.288	-39.930	0.549	-0.286
-613.273	-200.000	0.019	-0.268
-612.259	800.000	-0.120	-0.382
-611.244	-200.000	0.043	-0.287
-610.230	800.000	0.080	-0.294
-609.215	-200.000	-0.005	0.057
-608.201	267.540	0.127	0.223
-607.186	-200.000	0.013	0.127
-606.171	-60.161	-0.147	-0.063
-605.157	198.109	0.065	-0.100
-604.142	533.478	0.154	-0.364
-603.128	-200.000	-0.039	0.289
-602.113	-66.332	-0.095	-0.038
-601.098	-114.386	0.148	-0.029
-600.084	-124.650	-0.496	-0.077
-599.069	-200.000	-0.016	-0.153
-598.055	-200.000	-0.027	0.159
-597.040	276.260	0.194	-0.343
-596.025	800.000	0.066	-0.252
-595.011	136.543	-0.117	0.152
-593.996	-109.840	-0.290	-0.061
-592.982	256.586	0.087	-0.149
-591.967	342.059	-0.146	0.284
-590.952	13.844	-0.082	0.064
-589.938	800.000	-0.044	-0.143
-588.923	-200.000	0.088	-0.402
-587.909	-3.825	0.099	0.068
-586.894	524.272	-0.037	0.088
-585.879	151.058	0.057	-0.078
-584.865	400.994	0.012	0.026
-583.850	-118.279	-0.421	-0.075
-582.836	468.944	0.185	-0.414
-581.821	559.608	-0.060	0.145
-580.806	94.959	-0.142	-0.161
-579.792	-46.525	-0.273	0.134
-578.777	-200.000	-0.001	-0.102
-577.763	217.758	-0.126	0.201
-576.748	-200.000	0.009	-0.055
-575.733	212.898	0.146	-0.230
-574.719	-102.987	-0.180	0.042
-573.704	-103.253	-0.156	0.037
-572.690	-3.044	0.028	-0.019
-571.675	789.339	-0.023	0.062
-570.661	-135.317	0.042	0.005
-569.646	150.926	-0.162	-0.220
-568.631	-134.052	-0.203	-0.025
-567.617	17.281	0.170	-0.134
-566.602	115.971	-0.119	0.145
-565.588	-3.347	0.041	-0.028
-564.573	-66.827	-0.318	-0.126
-563.558	800.000	0.045	0.173
-562.544	-200.000	-0.015	-0.314
-561.529	-56.125	-0.179	0.079
-560.515	33.465	-0.098	0.085
-559.500	342.986	-0.083	-0.163
-558.485	-137.353	-0.106	0.012
-557.471	-200.000	0.063	-0.350
-556.456	-86.839	-0.261	-0.079
-555.442	189.825	0.221	-0.331
-554.427	-154.548	-0.286	-0.019
-553.412	-14.658	0.349	-0.224
-552.398	-79.058	0.166	0.056
-551.383	-152.161	0.251	-0.018
-550.369	-156.481	0.239	-0.015
-549.354	462.704	0.082	-0.182
-548.339	770.701	-0.042	-0.114
-547.325	-114.927	-0.210	0.040
-546.310	800.000	0.017	0.053
-545.296	441.252	0.117	0.254
-544.281	-200.000	-0.046	0.243
-543.266	-27.545	-0.199	0.115
-542.252	464.825	0.118	0.262
-541.237	-166.123	-0.119	0.005
-540.223	56.821	0.160	0.155
-539.208	-178.871	-0.039	-0.001
-538.193	98.677	-0.245	-0.282
-537.179	207.237	0.086	0.134
-536.164	-149.193	0.280	-0.022
-535.150	-189.026	0.161	-0.002
-534.135	-125.388	-0.371	-0.056
-533.121	102.910	-0.134	-0.156
-532.106	800.000	-0.050	0.161
-531.091	-103.841	0.313	-0.073
-530.077	-68.889	-0.155	0.059
-529.062	604.501	0.094	0.233
-528.048	-33.713	-0.182	-0.100
-527.033	-200.000	-0.001	0.163
-526.018	-146.655	-0.265	0.023
-525.004	-143.377	-0.182	0.017
-523.989	-98.790	-0.045	-0.011
-522.975	-72.996	0.203	-0.074
-521.960	-90.065	-0.276	-0.080
-520.945	161.942	-0.185	0.258
-519.931	-114.259	-0.060	-0.011
-518.916	285.289	-0.093	-0.166
-517.902	-200.000	-0.005	0.039
-516.887	-200.000	0.022	0.107
-515.872	-142.072	-0.117	-0.012
-514.858	-200.000	-0.014	-0.279
-513.843	800.000	-0.053	-0.176
-512.829	45.086	-0.127	0.116
-511.814	-129.572	-0.319	0.044
-510.799	-200.000	-0.017	0.356
-509.785	-200.000	-0.047	0.343
-508.770	30.090	-0.162	-0.137
-507.756	142.950	-0.015	0.020
-506.741	-200.000	-0.010	0.060
-505.726	-200.000	0.002	-0.149
-504.712	-200.000	0.016	0.108
-503.697	666.444	0.088	0.227
-502.683	64.766	-0.127	0.127
-501.668	657.350	-0.089	-0.227
-500.653	224.246	-0.049	0.078
-499.639	-30.021	0.345	0.195
-498.624	-200.000	0.005	-0.105
-497.610	182.131	0.031	-0.045
-496.595	-200.000	0.051	-0.343
-495.581	613.483	0.026	0.065
-494.566	-46.964	-0.260	0.126
-493.551	-94.583	0.332	-0.090
-492.537	-139.414	-0.167	0.018
-491.522	-156.053	-0.125	-0.008
-490.508	348.230	0.119	0.234
-489.493	670.813	0.024	-0.062
-488.478	-176.675	0.257	0.007
-487.464	-142.027	-0.122	0.012
-486.449	-109.209	-0.032	0.007
-485.435	-88.213	0.279	0.083
-484.420	-52.196	-0.279	0.129
-483.405	-70.550	-0.192	-0.072
-482.391	-200.000	-0.061	0.433
-481.376	-59.765	0.044	0.019
-480.362	81.191	0.211	0.226
-479.347	66.967	-0.208	-0.210
-478.332	-4.479	-0.109	0.075
-477.318	-43.528	-0.152	0.076
-476.303	-49.101	0.163	0.077
-475.289	-200.000	0.020	0.152
-474.274	-200.000	-0.022	0.279
-473.259	-64.432	0.088	-0.035
-472.245	487.086	-0.037	0.085
-471.230	-51.689	-0.263	0.122
-470.216	187.116	-0.248	0.368
-469.201	-200.000	0.129	-0.000
-468.186	800.000	0.032	-0.091
-467.172	28.574	-0.131	0.110
-466.157	180.903	0.147	-0.214
-465.143	-90.210	-0.605	-0.175
-464.128	59.386	0.367	-0.359
-463.113	-200.000	0.045	0.301
-462.099	-84.581	0.093	-0.029
-461.084	-165.599	0.079	0.003
-460.070	480.646	-0.091	-0.204
-459.055	780.188	0.043	-0.116
-458.040	-200.000	-0.035	-0.189
-457.026	-113.951	-0.211	-0.041
-456.011	-200.000	-0.002	0.042
-454.997	-19.365	0.199	0.123
-453.982	-49.483	-0.331	0.157
-452.968	-77.130	0.106	0.037
-451.953	-31.078	0.141	0.079
-450.938	175.004	-0.095	-0.137
-449.924	10.534	0.355	0.269
-448.909	34.852	0.133	0.116
-447.895	800.000	0.093	-0.343
-446.880	-200.000	0.025	0.211
-445.865	-27.411	0.328	0.189
-444.851	800.000	0.023	0.086
-443.836	189.179	-0.087	0.130
-442.822	-79.487	0.239	-0.080
-441.807	12.203	0.138	-0.106
-440.792	-200.000	0.001	-0.180
-439.778	-70.430	-0.134	-0.050
-438.763	-67.825	0.238	-0.092
-437.749	-108.357	-0.123	-0.026
-436.734	-196.635	-0.201	-0.001
-435.719	149.485	-0.170	-0.229
-434.705	-5.576	-0.276	0.188
-433.690	-64.283	0.292	0.118
-432.676	98.235	-0.177	0.203
-431.661	-116.029	0.018	-0.003
-430.646	-48.043	-0.159	-0.076
-429.632	-173.447	-0.322	-0.010
-428.617	-200.000	-0.002	-0.332
-427.603	99.796	-0.123	0.141
-426.588	-72.508	0.320	-0.117
-425.573	-200.000	-0.005	-0.278
-424.559	-37.600	0.422	0.223
-423.544	-167.203	-0.263	0.011
-422.530	800.000	0.040	-0.117
-421.515	-56.512	0.059	0.026
-420.500	155.422	-0.106	-0.145
-419.486	800.000	0.113	-0.414
-418.471	100.062	-0.071	0.081
-417.457	-200.000	0.033	-0.150
-416.442	800.000	-0.016	-0.065
-415.428	326.148	0.048	0.091
-414.413	-143.924	0.189	0.018
-413.398	659.658	-0.073	0.186
-412.384	-105.217	0.399	0.090
-411.369	661.918	-0.014	0.036
-410.355	16.964	0.194	0.152
-409.340	-42.736	0.297	-0.150
-408.325	-102.212	0.299	0.071
-407.311	-70.439	-0.284	-0.107
-406.296	800.000	-0.070	-0.210
-405.282	-84.858	0.233	-0.073
-404.267	82.551	-0.037	-0.040
-403.252	-28.641	-0.262	-0.150
-402.238	-200.000	-0.024	0.170
-401.223	-64.755	-0.116	-0.046
-400.209	71.333	-0.054	0.056
-399.194	-200.000	0.023	-0.289
-398.179	-91.852	0.104	-0.029
-397.165	-11.007	0.077	0.050
-396.150	10.200	0.338	-0.255
-395.136	800.000	-0.030	0.121
-394.121	-14.717	0.227	0.145
-393.106	145.219	0.149	0.198
-392.092	-56.632	0.077	-0.034
-391.077	-65.695	-0.402	-0.159
-390.063	438.004	-0.121	-0.262
-389.048	235.213	0.219	0.358
-388.033	800.000	0.031	0.131
-387.019	37.103	0.164	-0.143
-386.004	502.054	0.095	0.216
-384.990	494.265	0.147	-0.335
-383.975	115.973	0.118	0.144
-382.960	539.436	0.155	-0.364
-381.946	-36.859	0.126	-0.067
-380.931	-32.031	0.023	-0.013
-379.917	520.041	0.091	-0.211
-378.902	-200.000	0.000	-0.082
-377.888	-148.791	0.328	0.026
-376.873	117.917	-0.048	-0.059
-375.858	-60.268	0.295	0.124
-374.844	29.249	-0.152	-0.127
-373.829	-135.404	-0.160	0.019
-372.815	145.484	-0.325	0.430
-371.800	-200.000	0.127	-0.000
-370.785	-72.152	-0.553	-0.203
-369.771	-124.199	-0.121	-0.019
-368.756	99.281	-0.152	-0.174
-367.742	-30.089	0.172	-0.097
-366.727	-200.000	-0.005	-0.186
-365.712	9.656	-0.129	-0.097
-364.698	23.305	-0.283	0.230
-363.683	54.526	0.144	0.137
-362.669	45.436	0.089	0.081
-361.654	-32.097	0.402	0.222
-360.639	193.465	-0.079	0.118
-359.625	-200.000	0.011	0.051
-358.610	800.000	-0.074	0.313
-357.596	-131.775	0.159	0.021
-356.581	-125.731	-0.277	0.041
-355.566	-200.000	-0.061	-0.346
-354.552	-200.000	-0.008	-0.122
-353.537	-11.362	-0.276	0.180
-352.523	800.000	-0.047	-0.164
-351.508	-200.000	0.024	0.223
-350.493	-200.000	0.005	0.228
-349.479	800.000	0.039	0.131
-348.464	-200.000	0.005	0.070
-347.450	15.657	-0.079	-0.061
-346.435	41.429	0.096	-0.086
-345.420	-200.000	0.023	-0.116
-344.406	456.607	-0.071	-0.156
-343.391	97.099	-0.261	0.296
-342.377	-14.064	0.085	0.054
-341.362	800.000	-0.079	-0.216
-340.348	-64.172	0.347	0.140
-339.333	220.378	0.067	-0.107
-338.318	-200.000	0.006	0.095
-337.304	-200.000	-0.097	0.429
-336.289	161.005	0.045	0.062
-335.275	800.000	0.025	-0.070
-334.260	-1.525	-0.223	0.155
-333.245	-37.759	0.280	-0.148
-332.231	110.099	-0.144	0.171
-331.216	210.851	0.148	-0.230
-330.202	800.000	0.018	-0.070
-329.187	250.352	-0.140	0.235
-328.172	-30.788	0.186	0.104
-327.158	-87.879	0.096	-0.029
-326.143	403.574	0.192	-0.399
-325.129	-67.436	0.143	-0.056
-324.114	-200.000	-0.037	-0.188
-323.099	-73.505	-0.163	-0.059
-322.085	492.408	-0.111	0.250
-321.070	-200.000	-0.049	-0.311
-320.056	800.000	0.062	-0.175
-319.041	-200.000	0.017	0.330
-318.026	-161.522	0.301	0.015
-317.012	-200.000	0.033	0.166
-315.997	-1.962	-0.342	-0.238
-314.983	-62.580	0.218	-0.089
-313.968	-12.429	0.132	0.085
-312.953	-200.000	-0.030	-0.170
-311.939	-200.000	-0.001	0.167
-310.924	-41.843	-0.227	-0.115
-309.910	-70.931	-0.215	-0.080
-308.895	-51.996	-0.059	0.027
-307.880	-18.142	0.354	0.219
-306.866	-13.682	0.366	-0.234
-305.851	-200.000	-0.003	0.115
-304.837	-200.000	0.016	0.244
-303.822	-77.974	0.186	-0.063
-302.807	-200.000	-0.042	0.204
-301.793	68.519	0.062	0.063
-300.778	436.227	-0.140	-0.300
-299.764	457.528	0.095	-0.208
-298.749	30.369	-0.057	0.048
-297.735	800.000	-0.020	-0.064
-296.720	-82.994	0.253	0.080
-295.705	466.609	-0.159	-0.351
-294.691	588.746	-0.120	0.292
-293.676	149.575	0.029	-0.039
-292.662	147.402	-0.201	-0.268
-291.647	-48.720	-0.223	0.105
-290.632	42.948	0.062	-0.056
-289.618	-200.000	0.042	-0.190
-288.603	800.000	-0.108	0.303
-287.589	-85.958	0.275	-0.084
-286.574	-200.000	-0.031	-0.169
-285.559	34.610	-0.154	-0.132
-284.545	28.448	0.257	0.214
-283.530	800.000	0.066	0.228
-282.516	-112.120	0.205	0.041
-281.501	-118.715	0.059	0.010
-280.486	187.243	-0.082	-0.120
-279.472	800.000	0.025	0.106
-278.457	-50.377	-0.075	0.035
-277.443	-181.210	0.114	-0.002
-276.428	-64.207	-0.252	0.101
-275.413	-136.904	0.168	-0.019
-274.399	800.000	-0.105	0.351
-273.384	77.255	0.065	-0.068
-272.370	-117.878	0.050	-0.009
-271.355	-6.268	0.104	-0.070
-270.340	-200.000	0.010	-0.216
-269.326	694.431	0.049	0.127
-268.311	-200.000	-0.034	-0.303
-267.297	251.333	0.045	0.075
-266.282	-112.185	-0.518	0.103
-265.267	-200.000	-0.017	-0.094
-264.253	21.369	0.081	-0.065
-263.238	-23.090	0.037	-0.022
-262.224	800.000	0.038	0.110
-261.209	541.643	0.093	-0.219
-260.195	-200.000	0.041	0.217
-259.180	638.831	-0.074	0.184
-258.165	-160.477	-0.124	-0.007
-257.151	217.809	0.016	0.025
-256.136	-200.000	-0.004	-0.026
-255.122	60.181	-0.126	0.122
-254.107	-200.000	0.027	-0.141
-253.092	-38.862	0.421	0.218
-252.078	315.039	0.157	-0.292
-251.063	30.665	-0.085	0.072
-250.049	64.546	-0.221	0.220
-249.034	-43.905	-0.256	-0.127
-248.019	800.000	-0.044	-0.153
-247.005	-22.129	-0.199	0.119
-245.990	145.930	-0.078	0.102
-244.976	252.723	-0.025	0.041
-243.961	136.000	-0.130	0.167
-242.946	139.070	-0.127	0.165
-241.932	639.558	-0.075	-0.187
-240.917	-200.000	0.066	-0.382
-239.903	-36.709	-0.280	-0.148
-238.888	800.000	0.071	0.200
-237.873	-137.052	0.212	-0.024
-236.859	114.018	-0.292	0.349
-235.844	800.000	0.125	0.447
-234.830	-45.696	-0.196	-0.095
-233.815	111.292	0.211	-0.251
-232.800	70.305	0.326	-0.332
-231.786	179.344	-0.115	-0.166
-230.771	476.206	-0.031	0.068
-229.757	800.000	0.106	-0.378
-228.742	-70.673	0.249	0.092
-227.727	-72.821	-0.062	0.023
-226.713	-200.000	-0.019	0.217
-225.698	117.930	0.059	-0.071
-224.684	800.000	0.045	-0.126
-223.669	-20.828	-0.099	0.060
-222.655	8.848	-0.187	-0.139
-221.640	-115.312	-0.080	-0.015
-220.625	-83.614	0.146	0.046
-219.611	105.409	0.148	0.171
-218.596	-200.000	0.000	0.163
-217.582	200.208	0.233	0.352
-216.567	800.000	-0.028	-0.083
-215.552	130.748	0.288	0.363
-214.538	4.214	-0.160	0.115
-213.523	-137.445	0.244	0.027
-212.509	209.266	-0.125	-0.193
-211.494	113.204	0.118	0.141
-210.479	247.548	0.103	0.171
-209.465	-128.693	-0.401	-0.056
-208.450	-200.000	-0.022	-0.196
-207.436	-131.676	0.169	-0.022
-206.421	741.977	0.057	-0.152
-205.406	-200.000	-0.022	0.127
-204.392	249.466	-0.154	0.257
-203.377	800.000	0.097	0.288
-202.363	99.705	0.091	0.104
-201.348	800.000	0.153	-0.418
-200.333	-200.000	0.022	-0.123
-199.319	-23.684	0.207	0.122
-198.304	-59.859	-0.196	0.082
-197.290	-103.064	-0.165	-0.038
-196.275	-200.000	-0.019	-0.271
-195.260	-108.307	-0.386	0.082
-194.246	131.107	-0.241	-0.304
-193.231	186.009	-0.102	-0.150
-192.217	245.641	0.129	0.213
-191.202	301.160	-0.028	0.050
-190.187	-18.878	-0.119	0.072
-189.173	-179.373	-0.192	0.004
-188.158	-124.982	0.352	-0.053
-187.144	541.913	-0.161	0.377
-186.129	224.909	0.171	0.272
-185.114	153.688	0.093	0.125
-184.100	-200.000	-0.060	-0.266
-183.085	190.829	-0.121	0.179
-182.071	718.996	-0.058	0.152
-181.056	-118.724	-0.338	-0.059
-180.042	-128.968	-0.108	0.015
-179.027	-23.139	0.054	-0.032
-178.012	382.352	-0.113	-0.229
-176.998	1.174	0.264	-0.186
-175.983	-61.411	0.176	0.073
-174.969	-39.395	-0.140	0.072
-173.954	43.332	0.108	0.097
-172.939	-200.000	0.019	0.110
-171.925	166.440	0.111	-0.154
-170.910	-100.242	-0.068	-0.016
-169.896	-200.000	0.025	0.143
-168.881	175.304	0.162	-0.230
-167.866	65.215	0.138	0.137
-166.852	-79.057	-0.171	-0.057
-165.837	-102.798	0.345	0.081
-164.823	-49.808	0.238	0.111
-163.808	-16.255	0.106	0.066
-162.793	-200.000	0.015	0.109
-161.779	-136.964	0.107	-0.012
-160.764	182.522	0.063	-0.091
-159.750	-200.000	0.058	0.288
-158.735	-200.000	0.044	-0.369
-157.720	-86.073	-0.104	0.032
-156.706	16.780	0.130	-0.101
-155.691	165.586	0.232	0.321
-154.677	-128.980	0.489	-0.067
-153.662	-42.533	0.049	-0.025
-152.647	800.000	-0.162	0.555
-151.633	229.901	0.046	-0.074
-150.618	-47.257	-0.311	0.149
-149.604	5.796	0.250	0.182
-148.589	126.458	-0.080	0.099
-147.574	-129.599	0.437	-0.059
-146.560	800.000	0.040	-0.116
-145.545	-44.835	0.183	-0.090
-144.531	-109.653	-0.270	-0.056
-143.516	-75.776	0.476	0.165
-142.502	-49.595	0.070	-0.033
-141.487	-54.021	0.290	-0.129
-140.472	-200.000	-0.013	0.215
-139.458	-200.000	0.035	0.356
-138.443	155.414	0.180	0.242
-137.429	-130.216	0.163	0.022
-136.414	191.184	-0.233	-0.343
-135.399	158.285	0.137	-0.186
-134.385	800.000	-0.024	-0.079
-133.370	61.620	0.268	-0.262
-132.356	-200.000	-0.007	-0.303
-131.341	22.738	-0.033	0.027
-130.326	-200.000	0.046	0.448
-129.312	313.597	0.048	0.088
-128.297	56.318	-0.140	0.133
-127.283	-24.504	-0.275	0.161
-126.268	-44.739	-0.299	-0.146
-125.253	85.733	0.104	0.112
-124.239	147.791	-0.053	0.070
-123.224	-83.364	0.226	-0.071
