DTS Sentinel unit serial number:	SN413079Multiplexer serial number:	ORYXHardware model number:	OX4-SRSoftware version number:	ORYX F/W v4.00 Oryx Data Collector v3.7.2.0data status	okinstallation	princeton_trtdifferential loss correction	single-endedforward channel	channel 1reverse channel	N/Adate	2019/09/18time	10:14:35forward acquisition time	60.00reverse acquisition time	0.00gamma	496.2192k internal	0.2330k external	0.2330temperature offset calibration	0.9976default loss term (dB/km)	0.3790temperature slope calibration	1.0000multiplexer offset coefficient	1.0000multiplexer slope coefficient	1.0000fibre end	0.00T internal ref (°C)	27.89T ext. ref 1 (°C)	0.34T ext. ref 2 (°C)	24.22length (m)	temperature (°C)	Stokes	anti-Stokes-747.200	-200.000	0.025	-0.143
-746.185	-200.000	-0.043	0.290
-745.171	237.680	0.040	-0.067
-744.156	-35.620	-0.336	-0.184
-743.142	-34.276	-0.136	-0.075
-742.127	-200.000	0.025	0.120
-741.112	1.127	-0.023	-0.016
-740.098	140.431	-0.074	0.098
-739.083	-125.213	-0.368	0.057
-738.069	-119.227	-0.242	0.043
-737.054	800.000	-0.077	0.334
-736.039	317.515	-0.212	-0.403
-735.025	-29.101	0.140	-0.081
-734.010	-200.000	0.028	-0.393
-732.996	-200.000	0.002	-0.297
-731.981	-200.000	-0.074	0.494
-730.966	-200.000	0.013	-0.220
-729.952	800.000	-0.059	-0.254
-728.937	-94.719	-0.222	-0.061
-727.923	-71.595	-0.143	0.054
-726.908	-200.000	0.004	-0.035
-725.894	441.452	0.097	-0.213
-724.879	-129.648	-0.247	0.034
-723.864	-23.601	-0.136	-0.082
-722.850	-135.868	-0.158	0.019
-721.835	-49.595	-0.379	-0.182
-720.821	-200.000	-0.007	0.153
-719.806	-200.000	-0.009	-0.186
-718.791	593.819	0.103	-0.256
-717.777	-30.271	-0.182	0.104
-716.762	62.097	-0.174	-0.174
-715.748	-200.000	0.064	-0.378
-714.733	-200.000	-0.043	0.267
-713.718	-200.000	0.010	-0.162
-712.704	-52.396	-0.278	-0.130
-711.689	-95.481	0.090	-0.024
-710.675	46.759	0.280	0.261
-709.660	324.744	-0.060	-0.115
-708.645	-38.425	-0.208	0.111
-707.631	205.308	0.155	-0.242
-706.616	-62.875	-0.056	-0.023
-705.602	-135.418	0.379	-0.046
-704.587	61.793	-0.188	-0.188
-703.572	-149.544	-0.139	0.011
-702.558	192.820	-0.105	-0.159
-701.543	387.326	0.022	0.045
-700.529	86.584	-0.082	0.091
-699.514	387.219	-0.128	0.266
-698.499	-168.846	-0.122	0.005
-697.485	-200.000	-0.026	0.143
-696.470	100.382	0.169	0.198
-695.456	51.724	-0.140	0.134
-694.441	211.501	-0.040	0.063
-693.426	37.129	0.081	0.072
-692.412	-68.753	-0.168	-0.065
-691.397	80.065	0.031	0.034
-690.383	141.074	-0.069	0.092
-689.368	-8.289	0.367	0.248
-688.354	-9.297	-0.131	-0.088
-687.339	649.647	-0.130	0.335
-686.324	-112.496	0.385	0.077
-685.310	-63.720	0.280	-0.115
-684.295	13.716	-0.060	0.046
-683.281	-200.000	-0.050	-0.393
-682.266	-69.098	-0.035	0.014
-681.251	307.371	0.044	-0.083
-680.237	-38.719	0.018	0.010
-679.222	293.985	0.131	-0.240
-678.208	-200.000	-0.111	0.508
-677.193	155.880	-0.100	0.138
-676.178	40.885	0.205	-0.185
-675.164	-24.695	-0.119	0.071
-674.149	405.407	0.086	-0.181
-673.135	-10.368	-0.266	0.177
-672.120	-143.664	-0.080	0.008
-671.105	-200.000	0.047	-0.282
-670.091	-200.000	-0.003	0.050
-669.076	-99.362	-0.155	-0.039
-668.062	228.296	0.083	0.136
-667.047	800.000	-0.090	-0.302
-666.032	-200.000	-0.026	0.172
-665.018	-148.902	0.189	0.015
-664.003	88.087	-0.040	-0.045
-662.989	-116.406	-0.284	-0.053
-661.974	-5.485	0.139	0.096
-660.959	342.053	-0.165	0.324
-659.945	-200.000	-0.041	0.194
-658.930	-157.719	-0.028	0.002
-657.916	-84.305	0.235	-0.075
-656.901	-64.588	0.274	-0.112
-655.886	-200.000	-0.085	-0.424
-654.872	-35.993	-0.208	0.113
-653.857	-76.908	0.153	-0.054
-652.843	-149.154	0.328	-0.026
-651.828	-163.246	-0.099	0.005
-650.814	42.976	-0.149	0.136
-649.799	-7.840	0.124	-0.084
-648.784	-200.000	0.058	0.357
-647.770	-200.000	0.004	-0.220
-646.755	-106.237	-0.280	-0.063
-645.741	335.099	-0.126	-0.244
-644.726	65.193	-0.208	0.211
-643.711	92.879	0.246	-0.278
-642.697	-200.000	-0.039	-0.349
-641.682	-200.000	-0.015	-0.163
-640.668	-43.792	0.175	-0.088
-639.653	439.379	0.005	0.011
-638.638	-33.961	-0.184	0.102
-637.624	-51.879	-0.180	0.084
-636.609	-47.418	-0.177	-0.086
-635.595	800.000	0.099	0.278
-634.580	-184.611	0.392	-0.006
-633.565	160.414	-0.054	0.075
-632.551	175.074	-0.087	0.126
-631.536	207.760	-0.071	-0.111
-630.522	185.405	-0.092	0.137
-629.507	92.087	-0.030	-0.034
-628.492	221.769	0.181	-0.292
-627.478	145.560	0.097	0.130
-626.463	-33.651	-0.112	0.062
-625.449	-107.226	0.088	0.019
-624.434	74.524	-0.163	-0.171
-623.419	-172.772	0.294	-0.009
-622.405	-200.000	-0.009	0.166
-621.390	800.000	-0.042	0.119
-620.376	-179.370	-0.116	0.003
-619.361	45.360	0.063	-0.058
-618.346	-200.000	-0.047	-0.229
-617.332	-200.000	-0.026	-0.158
-616.317	459.067	-0.033	-0.074
-615.303	95.648	-0.075	-0.086
-614.288	-97.966	0.343	0.089
-613.273	16.611	-0.466	-0.369
-612.259	-200.000	0.040	-0.434
-611.244	-55.966	0.296	-0.132
-610.230	-50.082	-0.091	-0.043
-609.215	-200.000	-0.042	0.317
-608.201	-200.000	0.053	-0.541
-607.186	285.004	0.095	-0.171
-606.171	800.000	-0.056	0.242
-605.157	682.634	0.067	-0.174
-604.142	54.922	0.184	-0.178
-603.128	800.000	-0.040	-0.131
-602.113	331.721	0.080	0.154
-601.098	101.109	0.091	0.106
-600.084	116.026	-0.107	-0.131
-599.069	58.280	-0.164	-0.161
-598.055	800.000	-0.071	-0.199
-597.040	2.105	0.068	-0.049
-596.025	13.883	0.175	-0.136
-595.011	-54.636	0.138	0.063
-593.996	-93.477	0.111	0.031
-592.982	110.563	0.097	0.117
-591.967	-94.950	-0.286	0.077
-590.952	20.582	0.207	0.167
-589.938	-200.000	0.010	0.101
-588.923	-29.577	0.174	-0.100
-587.909	800.000	0.008	-0.033
-586.894	190.955	-0.129	-0.194
-585.879	-178.872	-0.148	-0.003
-584.865	63.809	-0.132	0.133
-583.850	-17.600	-0.027	0.017
-582.836	-123.008	0.295	-0.047
-581.821	-139.878	0.036	-0.004
-580.806	328.703	-0.062	-0.119
-579.792	134.894	0.197	-0.256
-578.777	-7.064	-0.420	0.285
-577.763	35.082	0.138	0.121
-576.748	-83.021	-0.255	-0.082
-575.733	-52.774	0.178	0.082
-574.719	306.210	-0.095	-0.176
-573.704	-14.669	-0.106	-0.068
-572.690	-140.101	-0.333	0.035
-571.675	-92.158	-0.119	0.034
-570.661	800.000	-0.030	-0.121
-569.646	-200.000	0.011	0.092
-568.631	33.551	0.186	-0.162
-567.617	-173.273	-0.120	-0.004
-566.602	313.104	0.053	-0.100
-565.588	449.220	-0.129	-0.284
-564.573	183.719	0.166	-0.245
-563.558	800.000	0.051	0.141
-562.544	-101.716	0.266	0.065
-561.529	-72.109	-0.089	0.033
-560.515	647.111	-0.070	0.178
-559.500	36.529	0.169	0.149
-558.485	-64.640	-0.120	-0.049
-557.471	800.000	-0.057	0.245
-556.456	214.556	-0.065	-0.103
-555.442	-126.755	0.333	-0.049
-554.427	-131.806	-0.031	0.004
-553.412	-200.000	0.009	0.238
-552.398	494.923	0.023	-0.053
-551.383	-83.932	-0.378	-0.120
-550.369	1.605	0.362	-0.261
-549.354	279.345	0.251	-0.448
-548.339	-80.775	-0.252	0.084
-547.325	-165.178	0.206	0.009
-546.310	93.813	-0.066	0.075
-545.296	-53.559	-0.113	-0.051
-544.281	-71.574	-0.330	-0.123
-543.266	-6.657	-0.183	-0.124
-542.252	-145.590	0.171	0.015
-541.237	-200.000	-0.045	0.301
-540.223	124.262	-0.327	-0.410
-539.208	5.296	-0.214	-0.158
-538.193	-33.540	-0.338	-0.186
-537.179	270.830	-0.122	0.214
-536.164	-200.000	0.005	-0.235
-535.150	-73.930	0.248	-0.090
-534.135	548.645	-0.088	0.211
-533.121	4.303	0.051	0.037
-532.106	-200.000	0.023	-0.411
-531.091	28.246	0.083	0.070
-530.077	-77.100	0.171	0.060
-529.062	-112.453	0.188	-0.038
-528.048	-115.219	0.128	0.024
-527.033	-61.457	-0.265	-0.111
-526.018	-104.642	0.209	0.048
-525.004	399.331	0.237	-0.497
-523.989	198.729	-0.113	-0.173
-522.975	-96.077	-0.275	-0.073
-521.960	-87.999	-0.201	0.060
-520.945	800.000	-0.072	0.235
-519.931	-111.532	-0.342	-0.069
-518.916	12.238	0.158	-0.121
-517.902	-200.000	0.004	-0.133
-516.887	75.510	0.241	-0.254
-515.872	-165.227	0.256	-0.011
-514.858	-113.388	0.143	-0.028
-513.843	178.540	0.090	-0.130
-512.829	-58.212	-0.145	0.063
-511.814	21.238	-0.154	-0.125
-510.799	-136.702	-0.355	0.041
-509.785	800.000	0.029	0.120
-508.770	31.709	-0.199	0.171
-507.756	73.441	0.188	0.196
-506.741	-141.036	0.201	0.021
-505.726	-11.373	0.223	0.146
-504.712	34.842	0.184	-0.161
-503.697	112.403	0.151	0.182
-502.683	-165.722	0.139	0.006
-501.668	-51.077	0.488	-0.228
-500.653	-200.000	0.006	0.063
-499.639	-127.242	0.175	0.026
-498.624	502.275	0.121	0.279
-497.610	800.000	0.054	-0.173
-496.595	-200.000	0.015	0.139
-495.581	-200.000	-0.049	0.237
-494.566	-74.816	0.103	0.037
-493.551	-200.000	0.000	-0.177
-492.537	-200.000	0.008	-0.153
-491.522	94.215	0.121	0.137
-490.508	-200.000	0.020	0.154
-489.493	-200.000	-0.047	-0.241
-488.478	-6.000	0.177	-0.121
-487.464	-162.345	0.107	-0.005
-486.449	-129.721	0.280	-0.038
-485.435	0.404	0.173	-0.123
-484.420	-200.000	-0.022	0.183
-483.405	-46.012	-0.216	0.106
-482.391	-200.000	0.040	-0.435
-481.376	-134.202	0.244	-0.030
-480.362	479.251	-0.096	-0.216
-479.347	-169.944	0.141	-0.005
-478.332	-94.917	0.170	0.046
-477.318	800.000	0.042	0.116
-476.303	296.040	0.254	0.464
-475.289	800.000	-0.084	0.314
-474.274	-68.342	-0.242	-0.094
-473.259	-200.000	-0.042	-0.257
-472.245	-200.000	0.016	0.126
-471.230	-43.719	-0.206	-0.103
-470.216	143.363	-0.080	0.105
-469.201	-146.123	-0.357	-0.031
-468.186	1.369	-0.121	0.087
-467.172	-90.174	-0.094	0.027
-466.157	-200.000	-0.017	-0.239
-465.143	83.554	-0.084	-0.092
-464.128	16.889	0.090	-0.071
-463.113	800.000	-0.046	0.183
-462.099	-200.000	-0.022	-0.431
-461.084	706.359	0.053	-0.139
-460.070	-122.285	-0.335	-0.054
-459.055	20.710	0.287	0.231
-458.040	60.311	0.250	-0.247
-457.026	-200.000	0.024	0.406
-456.011	8.743	0.256	0.192
-454.997	7.598	0.092	0.069
-453.982	-59.920	0.115	-0.049
-452.968	278.671	0.152	0.270
-451.953	240.316	-0.112	-0.186
-450.938	660.619	0.081	-0.209
-449.924	-45.485	-0.099	0.049
-448.909	-6.448	0.053	-0.036
-447.895	-24.706	-0.078	-0.046
-446.880	-200.000	-0.017	0.111
-445.865	800.000	0.003	0.008
-444.851	-200.000	0.000	0.138
-443.836	94.855	-0.362	-0.410
-442.822	-200.000	-0.062	-0.313
-441.807	-131.240	-0.187	-0.025
-440.792	-103.055	-0.250	-0.059
-439.778	-90.408	-0.183	-0.053
-438.763	-200.000	0.012	-0.290
-437.749	526.037	0.049	-0.115
-436.734	-82.240	0.252	-0.082
-435.719	42.198	0.099	0.089
-434.705	-137.756	0.585	-0.065
-433.690	-93.538	-0.131	-0.036
-432.676	-200.000	0.067	0.302
-431.661	78.573	-0.185	-0.197
-430.646	44.464	0.145	-0.132
-429.632	-200.000	0.032	-0.187
-428.617	-40.298	-0.107	0.055
-427.603	-86.191	0.251	-0.077
-426.588	-63.365	0.117	-0.048
-425.573	-109.948	0.168	0.035
-424.559	-200.000	-0.007	0.084
-423.544	22.692	-0.249	-0.202
-422.530	68.470	-0.227	-0.231
-421.515	397.948	0.046	-0.096
-420.500	800.000	-0.065	-0.200
-419.486	800.000	-0.025	0.102
-418.471	-200.000	0.081	0.355
-417.457	249.102	0.165	-0.278
-416.442	-200.000	-0.000	-0.102
-415.428	-129.278	0.120	0.017
-414.413	-173.235	0.166	-0.005
-413.398	-142.776	-0.148	0.014
-412.384	615.569	-0.059	0.147
-411.369	82.617	0.287	-0.310
-410.355	-32.855	-0.524	0.289
-409.340	787.768	0.089	-0.242
-408.325	48.827	-0.278	-0.259
-407.311	-53.124	-0.255	-0.117
-406.296	-22.407	0.251	-0.151
-405.282	-98.525	0.280	-0.071
-404.267	-200.000	-0.038	-0.178
-403.252	77.334	0.201	0.212
-402.238	789.536	-0.188	-0.513
-401.223	-200.000	-0.019	-0.326
-400.209	-36.973	-0.106	-0.057
-399.194	-200.000	-0.008	-0.044
-398.179	-200.000	-0.011	0.234
-397.165	-11.641	0.156	-0.102
-396.150	-91.242	-0.349	-0.099
-395.136	-200.000	-0.021	0.293
-394.121	-115.622	-0.345	0.064
-393.106	49.396	0.252	0.236
-392.092	596.600	-0.140	0.344
-391.077	-157.906	-0.161	-0.009
-390.063	-12.265	0.106	0.069
-389.048	-200.000	0.010	-0.113
-388.033	800.000	-0.084	0.233
-387.019	800.000	-0.089	0.303
-386.004	74.318	-0.071	-0.075
-384.990	800.000	-0.017	-0.073
-383.975	800.000	0.021	0.071
-382.960	800.000	0.086	0.356
-381.946	5.635	-0.244	0.179
-380.931	-9.211	-0.295	-0.196
-379.917	-57.438	-0.330	0.144
-378.902	16.333	-0.066	-0.052
-377.888	-35.823	0.040	0.022
-376.873	-148.818	-0.027	-0.002
-375.858	800.000	0.098	0.284
-374.844	-17.538	-0.454	0.283
-373.829	35.770	0.257	0.225
-372.815	800.000	0.104	0.343
-371.800	800.000	0.037	0.153
-370.785	-78.494	-0.255	0.087
-369.771	180.573	0.090	0.131
-368.756	-56.499	0.196	0.086
-367.742	-200.000	-0.026	-0.289
-366.727	71.989	0.143	-0.147
-365.712	74.757	-0.221	0.231
-364.698	-66.202	-0.179	0.071
-363.683	-71.134	0.260	0.097
-362.669	-113.156	-0.200	0.039
-361.654	-53.783	0.274	0.124
-360.639	-52.656	0.104	-0.048
-359.625	-114.282	0.073	-0.014
-358.610	475.313	-0.075	-0.167
-357.596	25.288	0.314	-0.259
-356.581	-200.000	0.023	0.172
-355.566	800.000	-0.075	0.287
-354.552	-79.440	-0.154	-0.052
-353.537	-51.635	-0.024	-0.011
-352.523	-41.527	-0.094	-0.048
-351.508	-63.856	-0.103	-0.042
-350.493	21.767	-0.150	-0.121
-349.479	-200.000	0.037	0.189
-348.464	-200.000	0.047	0.434
-347.450	-0.285	-0.398	0.281
-346.435	593.566	-0.078	-0.190
-345.420	139.037	-0.073	0.095
-344.406	235.694	-0.066	0.108
-343.391	-200.000	0.018	0.166
-342.377	-200.000	-0.010	0.144
-341.362	-34.607	-0.202	-0.110
-340.348	181.222	-0.105	-0.153
-339.333	-200.000	0.023	-0.185
-338.318	-54.532	-0.329	-0.148
-337.304	-168.559	0.240	0.009
-336.289	-76.609	-0.413	0.144
-335.275	-200.000	0.014	0.076
-334.260	800.000	0.034	0.122
-333.245	-200.000	0.008	-0.394
-332.231	126.451	-0.220	0.276
-331.216	289.709	0.090	0.161
-330.202	-135.768	-0.074	0.009
-329.187	-200.000	0.008	0.052
-328.172	-29.784	0.206	0.116
-327.158	-11.461	0.188	0.123
-326.143	800.000	-0.196	0.634
-325.129	-126.666	-0.173	-0.025
-324.114	506.156	-0.093	-0.215
-323.099	201.943	0.069	0.105
-322.085	54.611	0.232	0.221
-321.070	-100.093	-0.201	0.050
-320.056	800.000	0.006	0.021
-319.041	-200.000	0.055	-0.331
-318.026	-200.000	0.010	-0.449
-317.012	-30.321	-0.146	0.082
-315.997	385.372	0.131	0.267
-314.983	-65.787	0.069	-0.027
-313.968	-200.000	0.069	-0.432
-312.953	-200.000	-0.017	-0.125
-311.939	8.952	-0.211	-0.158
-310.924	151.306	0.314	0.423
-309.910	-200.000	0.102	0.574
-308.895	217.152	-0.071	0.111
-307.880	262.380	-0.067	-0.116
-306.866	77.075	-0.100	-0.105
-305.851	-186.927	-0.202	-0.003
-304.837	800.000	-0.124	0.347
-303.822	457.225	-0.130	-0.285
-302.807	30.726	0.172	-0.146
-301.793	-2.709	-0.239	-0.165
-300.778	31.727	0.223	0.190
-299.764	-23.841	-0.072	0.043
-298.749	-94.986	-0.176	-0.047
-297.735	68.642	-0.269	0.273
-296.720	-52.184	-0.035	-0.016
-295.705	800.000	0.137	0.410
-294.691	-200.000	-0.001	-0.030
-293.676	-200.000	-0.020	0.144
-292.662	800.000	0.051	-0.160
-291.647	-133.805	0.049	0.006
-290.632	-77.627	0.130	0.045
-289.618	591.578	0.066	-0.162
-288.603	3.494	0.113	0.082
-287.589	-200.000	-0.016	0.120
-286.574	83.471	-0.126	0.135
-285.559	329.213	-0.048	0.091
-284.545	628.437	0.067	0.167
-283.530	800.000	-0.101	0.279
-282.516	800.000	-0.080	0.236
-281.501	-95.849	0.164	-0.043
-280.486	480.915	-0.189	0.425
-279.472	88.613	-0.129	-0.142
-278.457	648.573	-0.152	0.385
-277.443	-161.548	0.217	0.011
-276.428	-74.308	0.234	-0.083
-275.413	-21.132	-0.117	0.071
-274.399	185.726	0.048	-0.071
-273.384	800.000	-0.022	-0.090
-272.370	-60.768	-0.108	-0.045
-271.355	-200.000	0.020	0.134
-270.340	-20.078	0.039	-0.024
-269.326	18.124	0.077	0.061
-268.311	-12.873	0.154	0.099
-267.297	710.648	-0.119	-0.312
-266.282	432.628	-0.019	-0.041
-265.267	-200.000	-0.059	0.271
-264.253	227.712	0.105	0.169
-263.238	71.518	-0.130	-0.134
-262.224	-89.967	0.115	0.033
-261.209	199.350	-0.149	0.225
-260.195	-135.563	-0.269	0.032
-259.180	475.983	-0.056	-0.125
-258.165	96.279	-0.214	0.241
-257.151	-166.235	-0.042	-0.002
-256.136	68.229	-0.238	0.240
-255.122	101.512	0.105	0.121
-254.107	-200.000	0.049	0.331
-253.092	434.070	0.088	-0.189
-252.078	-55.589	-0.137	-0.061
-251.063	-20.434	0.380	0.231
-250.049	-69.385	-0.206	-0.078
-249.034	-49.733	-0.351	0.165
-248.019	800.000	-0.072	0.211
-247.005	-110.551	0.226	-0.046
-245.990	-200.000	-0.009	-0.207
-244.976	-78.945	-0.235	0.079
-243.961	8.356	0.114	-0.084
-242.946	247.324	0.175	0.292
-241.932	10.458	-0.141	0.106
-240.917	286.291	-0.190	-0.339
-239.903	800.000	-0.035	-0.144
-238.888	-200.000	0.023	0.255
-237.873	-39.053	-0.056	-0.029
-236.859	150.886	0.056	0.076
-235.844	-123.769	-0.324	0.051
-234.830	-33.609	0.261	0.142
-233.815	-200.000	0.075	0.330
-232.800	-185.789	-0.174	0.003
-231.786	-1.465	0.022	-0.015
-230.771	-183.088	0.376	0.007
-229.757	528.173	0.046	-0.106
-228.742	-200.000	0.004	0.189
-227.727	62.799	0.138	0.136
-226.713	-56.615	-0.346	0.151
-225.698	30.812	0.402	-0.339
-224.684	320.652	0.078	0.146
-223.669	-200.000	-0.011	-0.245
-222.655	-76.570	0.377	-0.131
-221.640	118.937	-0.254	-0.310
-220.625	261.667	-0.160	0.273
-219.611	800.000	0.053	-0.207
-218.596	-34.104	0.030	0.016
-217.582	-70.287	0.199	-0.075
-216.567	-73.914	-0.433	-0.155
-215.552	59.583	0.097	0.095
-214.538	438.279	-0.131	0.283
-213.523	-90.827	-0.151	0.043
-212.509	4.709	-0.139	0.101
-211.494	3.324	-0.262	-0.188
-210.479	45.040	0.198	-0.180
-209.465	800.000	0.092	-0.259
-208.450	-151.003	0.436	0.032
-207.436	72.140	0.033	-0.034
-206.421	9.287	-0.257	-0.191
-205.406	367.261	-0.114	0.228
-204.392	-115.672	0.184	-0.034
-203.377	-200.000	0.040	0.368
-202.363	-36.907	0.242	-0.128
-201.348	240.004	-0.117	0.192
-200.333	2.745	0.247	0.176
-199.319	-135.300	0.185	0.022
-198.304	255.689	-0.292	-0.493
-197.290	575.376	-0.099	0.238
-196.275	800.000	0.103	0.319
-195.260	-44.990	-0.335	0.165
-194.246	172.170	0.134	0.190
-193.231	-78.151	-0.159	0.054
-192.217	-200.000	0.032	0.264
-191.202	63.211	-0.084	0.083
-190.187	-32.896	0.305	-0.167
-189.173	392.749	0.147	-0.302
-188.158	-129.134	0.246	0.034
-187.144	-200.000	0.017	-0.079
-186.129	118.094	-0.244	0.297
-185.114	-89.357	0.232	0.067
-184.100	-123.349	0.174	-0.027
-183.085	-106.156	0.133	-0.029
-182.071	-104.353	-0.246	-0.056
-181.056	5.069	0.297	-0.215
-180.042	129.514	0.293	-0.369
-179.027	-72.478	-0.177	-0.064
-178.012	211.469	-0.104	-0.162
-176.998	800.000	0.085	-0.284
-175.983	-142.702	0.339	-0.033
-174.969	547.990	0.221	-0.522
-173.954	-106.190	0.267	0.059
-172.939	4.186	0.318	-0.229
-171.925	-52.398	0.126	0.057
-170.910	-67.741	-0.080	0.031
-169.896	-31.538	0.113	-0.062
-168.881	67.477	-0.166	-0.167
-167.866	800.000	-0.034	-0.095
-166.852	104.133	0.099	0.114
-165.837	-200.000	0.010	0.047
-164.823	484.116	-0.091	-0.203
-163.808	-200.000	0.026	0.146
-162.793	-43.548	0.158	0.079
-161.779	-200.000	-0.034	0.157
-160.764	60.918	0.290	0.283
-159.750	-43.131	0.298	-0.149
-158.735	75.112	-0.210	0.218
-157.720	242.765	-0.094	0.154
-156.706	-76.431	-0.041	-0.014
-155.691	-119.648	-0.104	-0.018
-154.677	-200.000	0.026	0.219
-153.662	-68.388	0.238	0.091
-152.647	573.576	-0.032	-0.077
-151.633	-51.058	0.081	0.037
-150.618	-105.282	0.129	-0.029
-149.604	-193.097	0.062	-0.001
-148.589	326.504	-0.077	0.146
-147.574	-55.116	0.096	0.042
-146.560	345.644	0.009	-0.017
-145.545	622.218	0.056	-0.140
-144.531	-0.845	-0.114	0.079
-143.516	194.039	-0.100	-0.149
-142.502	-93.371	0.293	0.080
-141.487	260.369	-0.102	-0.173
-140.472	7.251	0.195	0.143
-139.458	169.126	-0.102	-0.143
-138.443	-200.000	-0.030	-0.242
-137.429	-87.156	-0.092	-0.027
-136.414	200.153	0.256	0.387
-135.399	492.716	0.080	-0.180
-134.385	-200.000	-0.070	0.394
-133.370	-177.068	0.183	0.005
-132.356	-200.000	0.020	-0.293
-131.341	-89.174	0.238	-0.069
-130.326	-200.000	0.022	0.308
-129.312	127.708	0.236	0.295
-128.297	-200.000	0.001	0.143
-127.283	39.919	0.101	0.090
-126.268	-72.312	0.332	0.121
-125.253	246.934	0.052	-0.086
-124.239	-3.139	-0.106	-0.073
-123.224	-20.009	-0.063	-0.038
-122.210	-200.000	-0.030	-0.331
-121.195	-200.000	-0.009	-0.133
