DTS Sentinel unit serial number:	SN413079Multiplexer serial number:	ORYXHardware model number:	OX4-SRSoftware version number:	ORYX F/W v4.00 Oryx Data Collector v3.7.2.0data status	okinstallation	princeton_trtdifferential loss correction	single-endedforward channel	channel 1reverse channel	N/Adate	2019/09/14time	18:02:35forward acquisition time	60.00reverse acquisition time	0.00gamma	496.2192k internal	0.2299k external	0.2299temperature offset calibration	1.0039default loss term (dB/km)	0.3790temperature slope calibration	1.0000multiplexer offset coefficient	1.0000multiplexer slope coefficient	1.0000fibre end	0.00T internal ref (°C)	37.31T ext. ref 1 (°C)	4.97T ext. ref 2 (°C)	31.83length (m)	temperature (°C)	Stokes	anti-Stokes-747.200	32.733	-0.204	-0.180
-746.185	102.543	0.162	-0.193
-745.171	90.956	0.216	0.247
-744.156	-200.000	-0.016	0.297
-743.142	30.520	-0.268	-0.234
-742.127	325.027	0.113	0.221
-741.112	-24.913	0.129	0.078
-740.098	27.177	-0.031	0.026
-739.083	48.077	-0.314	-0.299
-738.069	265.483	0.094	0.167
-737.054	800.000	-0.072	-0.274
-736.039	329.568	0.030	0.060
-735.025	759.185	-0.013	0.035
-734.010	183.001	0.185	-0.279
-732.996	5.888	0.055	-0.042
-731.981	-9.419	-0.104	-0.071
-730.966	-168.513	0.136	0.005
-729.952	-200.000	0.093	-0.448
-728.937	48.447	-0.079	0.075
-727.923	457.150	0.038	-0.086
-726.908	379.022	0.053	-0.110
-725.894	-79.154	-0.103	-0.035
-724.879	109.937	0.055	-0.067
-723.864	21.212	0.281	-0.233
-722.850	-200.000	-0.017	-0.654
-721.835	224.268	0.062	0.102
-720.821	-200.000	-0.026	-0.186
-719.806	280.693	0.097	-0.177
-718.791	-22.092	-0.188	-0.117
-717.777	800.000	-0.142	0.585
-716.762	181.713	-0.147	0.221
-715.748	92.287	-0.160	-0.184
-714.733	-83.181	-0.072	0.024
-713.718	-166.029	0.153	0.007
-712.704	278.314	0.052	0.095
-711.689	117.418	-0.282	-0.354
-710.675	316.071	0.069	-0.133
-709.660	-11.972	-0.417	-0.279
-708.645	47.850	-0.101	0.096
-707.631	800.000	0.090	0.308
-706.616	47.451	-0.260	0.247
-705.602	-200.000	-0.071	-0.319
-704.587	32.636	-0.310	-0.273
-703.572	800.000	-0.070	-0.299
-702.558	14.055	-0.164	0.130
-701.543	660.537	-0.182	0.477
-700.529	713.273	0.047	-0.128
-699.514	-72.063	-0.082	0.031
-698.499	5.094	-0.104	0.078
-697.485	-91.390	-0.218	-0.064
-696.470	-200.000	0.005	0.111
-695.456	-200.000	0.008	-0.045
-694.441	-200.000	0.007	0.108
-693.426	-200.000	0.001	-0.187
-692.412	411.213	-0.156	-0.336
-691.397	146.823	-0.141	0.193
-690.383	19.137	0.210	-0.171
-689.368	800.000	0.077	-0.319
-688.354	-200.000	0.097	0.437
-687.339	-51.454	-0.282	0.134
-686.324	-200.000	-0.034	-0.155
-685.310	-49.749	0.209	-0.101
-684.295	800.000	-0.065	0.213
-683.281	-161.034	0.067	-0.004
-682.266	-21.731	-0.149	-0.092
-681.251	-53.739	-0.301	0.140
-680.237	-58.269	-0.286	-0.127
-679.222	-200.000	-0.007	-0.105
-678.208	-136.734	-0.358	0.042
-677.193	-200.000	-0.031	-0.166
-676.178	-14.666	0.267	0.175
-675.164	-94.910	-0.271	0.075
-674.149	-120.854	-0.326	-0.056
-673.135	56.679	0.116	0.115
-672.120	-91.486	0.075	-0.022
-671.105	-200.000	-0.009	-0.286
-670.091	-200.000	-0.022	-0.188
-669.076	9.392	0.243	-0.187
-668.062	286.439	0.191	-0.350
-667.047	47.827	0.278	0.264
-666.032	-106.662	0.204	0.046
-665.018	759.278	-0.027	-0.076
-664.003	-108.068	-0.058	-0.013
-662.989	289.472	0.021	-0.038
-661.974	110.847	-0.126	-0.154
-660.959	40.504	-0.107	-0.098
-659.945	-159.152	-0.451	-0.026
-658.930	800.000	0.051	-0.147
-657.916	-91.901	-0.376	0.108
-656.901	-200.000	0.003	0.277
-655.886	-74.882	0.228	-0.083
-654.872	-87.006	-0.142	-0.044
-653.857	-53.986	-0.024	0.011
-652.843	-200.000	0.009	0.098
-651.828	-43.096	0.271	0.140
-650.814	-77.767	0.192	0.068
-649.799	-136.654	0.106	-0.012
-648.784	800.000	-0.064	0.227
-647.770	-63.616	-0.122	-0.051
-646.755	-30.583	-0.127	-0.073
-645.741	-87.015	-0.080	0.025
-644.726	116.766	-0.166	0.207
-643.711	148.132	-0.130	-0.178
-642.697	27.879	-0.126	-0.108
-641.682	-200.000	0.026	0.321
-640.668	53.234	0.222	0.217
-639.653	-30.980	-0.340	-0.195
-638.638	208.559	-0.146	-0.232
-637.624	-200.000	0.027	0.203
-636.609	72.241	0.062	0.066
-635.595	1.939	0.216	0.159
-634.580	-31.109	0.181	-0.103
-633.565	27.640	0.111	0.095
-632.551	-200.000	0.025	-0.420
-631.536	800.000	0.089	0.287
-630.522	-200.000	-0.021	-0.162
-629.507	800.000	-0.058	0.206
-628.492	16.260	0.089	0.072
-627.478	56.973	-0.042	0.041
-626.463	366.574	0.097	0.199
-625.449	59.008	0.222	-0.222
-624.434	-200.000	-0.020	-0.114
-623.419	137.370	-0.238	-0.316
-622.405	-124.888	0.064	-0.010
-621.390	-142.463	0.066	-0.007
-620.376	800.000	-0.067	0.229
-619.361	-54.065	-0.049	0.023
-618.346	800.000	0.033	-0.106
-617.332	145.625	-0.155	-0.211
-616.317	-151.226	0.250	0.019
-615.303	-158.691	0.324	-0.019
-614.288	31.475	-0.204	0.178
-613.273	-148.705	0.293	0.024
-612.259	-130.347	-0.329	-0.045
-611.244	109.878	-0.122	-0.149
-610.230	800.000	-0.057	-0.173
-609.215	-86.029	0.156	-0.049
-608.201	-105.476	0.308	0.071
-607.186	-50.829	0.300	0.143
-606.171	800.000	-0.123	-0.418
-605.157	340.829	-0.058	-0.115
-604.142	338.144	-0.108	-0.213
-603.128	-134.441	-0.264	-0.033
-602.113	-200.000	0.007	0.163
-601.098	95.219	-0.099	0.115
-600.084	27.372	0.113	0.097
-599.069	-45.940	0.384	0.192
-598.055	517.768	-0.089	-0.212
-597.040	486.938	-0.161	-0.373
-596.025	-200.000	-0.057	0.355
-595.011	-166.308	-0.199	-0.008
-593.996	-64.812	-0.172	-0.071
-592.982	135.751	-0.190	-0.251
-591.967	16.645	0.101	-0.081
-590.952	-200.000	0.027	0.550
-589.938	273.854	0.233	-0.417
-588.923	-15.857	-0.121	-0.078
-587.909	-200.000	-0.028	-0.171
-586.894	800.000	-0.036	-0.148
-585.879	-70.937	0.107	0.041
-584.865	-129.238	0.241	-0.034
-583.850	-97.419	0.247	0.065
-582.836	-135.066	0.502	-0.061
-581.821	-200.000	-0.052	-0.358
-580.806	57.114	0.258	-0.255
-579.792	45.441	-0.261	0.244
-578.777	89.111	-0.054	-0.060
-577.763	-147.889	0.147	0.012
-576.748	800.000	0.077	-0.255
-575.733	119.773	-0.092	-0.116
-574.719	-18.593	-0.024	0.015
-573.704	-83.279	-0.505	0.164
-572.690	240.860	0.110	0.186
-571.675	106.911	-0.369	0.444
-570.661	-200.000	-0.005	0.063
-569.646	3.807	0.032	0.023
-568.631	-200.000	-0.053	0.239
-567.617	-113.069	0.078	0.016
-566.602	-200.000	0.026	0.172
-565.588	-32.124	-0.213	-0.121
-564.573	-34.803	-0.213	-0.118
-563.558	-141.808	0.461	-0.047
-562.544	-6.902	-0.125	0.086
-561.529	-200.000	0.007	0.370
-560.515	800.000	-0.078	-0.330
-559.500	195.722	0.234	-0.361
-558.485	13.404	0.374	0.294
-557.471	-200.000	0.004	-0.039
-556.456	-105.131	0.386	0.089
-555.442	-200.000	0.034	-0.164
-554.427	154.253	0.210	0.292
-553.412	557.379	0.043	-0.105
-552.398	140.370	-0.017	-0.022
-551.383	-129.847	-0.108	-0.015
-550.369	800.000	-0.036	-0.105
-549.354	-142.182	-0.275	-0.028
-548.339	-200.000	0.018	-0.325
-547.325	368.731	0.084	0.172
-546.310	-17.949	-0.177	-0.112
-545.296	-55.299	0.298	-0.135
-544.281	800.000	0.043	-0.151
-543.266	-118.399	0.111	-0.020
-542.252	17.622	-0.250	-0.201
-541.237	800.000	-0.007	-0.030
-540.223	-86.024	0.215	0.067
-539.208	-91.847	0.106	-0.031
-538.193	230.837	0.123	0.203
-537.179	-84.723	-0.035	-0.011
-536.164	-200.000	0.009	0.211
-535.150	-74.744	-0.342	-0.124
-534.135	77.771	0.239	0.258
-533.121	450.698	0.037	-0.083
-532.106	153.745	-0.114	-0.158
-531.091	313.735	0.103	0.196
-530.077	-101.866	-0.458	0.112
-529.062	-10.422	0.159	0.107
-528.048	-200.000	0.055	-0.358
-527.033	71.928	-0.255	0.268
-526.018	-88.876	-0.210	0.063
-525.004	23.150	0.038	-0.031
-523.989	214.274	-0.006	0.010
-522.975	-125.731	0.387	0.059
-521.960	-9.491	0.116	0.078
-520.945	-127.249	0.311	-0.046
-519.931	493.135	-0.049	-0.114
-518.916	306.760	-0.012	-0.022
-517.902	181.026	0.113	-0.169
-516.887	800.000	0.041	-0.137
-515.872	158.221	0.169	-0.237
-514.858	664.776	0.090	-0.235
-513.843	49.940	0.127	-0.121
-512.829	-200.000	0.016	-0.273
-511.814	18.316	-0.134	0.108
-510.799	-122.621	-0.540	-0.088
-509.785	800.000	-0.066	-0.215
-508.770	10.052	-0.231	0.178
-507.756	800.000	-0.015	-0.053
-506.741	146.857	0.128	0.174
-505.726	30.059	0.315	-0.272
-504.712	19.270	0.023	-0.019
-503.697	-200.000	-0.044	-0.333
-502.683	800.000	0.112	-0.369
-501.668	405.706	0.138	0.294
-500.653	-124.330	0.246	0.039
-499.639	158.779	-0.251	0.353
-498.624	-101.182	-0.148	0.037
-497.610	51.279	-0.217	-0.209
-496.595	273.237	0.068	0.121
-495.581	-158.442	-0.144	0.008
-494.566	-200.000	-0.052	0.240
-493.551	-70.567	-0.078	-0.030
-492.537	-108.364	-0.241	0.053
-491.522	-72.780	-0.223	0.083
-490.508	259.945	0.151	0.263
-489.493	131.664	0.062	0.080
-488.478	5.423	-0.310	-0.231
-487.464	-23.567	-0.268	0.163
-486.449	-96.445	0.372	0.099
-485.435	91.815	-0.050	0.057
-484.420	216.368	-0.129	-0.207
-483.405	333.195	0.187	-0.365
-482.391	236.262	-0.050	0.084
-481.376	-112.904	-0.263	0.053
-480.362	407.788	-0.097	0.207
-479.347	800.000	0.123	-0.356
-478.332	-96.162	-0.305	-0.082
-477.318	-68.313	-0.293	0.115
-476.303	-47.280	0.014	0.007
-475.289	672.838	0.020	0.053
-474.274	-193.482	0.104	-0.001
-473.259	-12.761	-0.158	0.104
-472.245	-86.929	0.365	0.112
-471.230	-88.997	0.243	-0.073
-470.216	800.000	-0.236	-0.690
-469.201	-137.580	-0.066	0.008
-468.186	422.700	0.058	0.125
-467.172	73.663	-0.179	-0.189
-466.157	-26.008	0.223	-0.133
-465.143	-112.148	-0.255	0.052
-464.128	365.730	0.092	0.188
-463.113	269.303	-0.066	-0.116
-462.099	482.221	-0.026	0.059
-461.084	-79.345	-0.229	-0.078
-460.070	-200.000	0.015	-0.190
-459.055	-200.000	-0.002	-0.316
-458.040	118.941	0.100	-0.125
-457.026	800.000	-0.026	0.086
-456.011	72.681	0.161	0.170
-454.997	-51.048	0.393	0.186
-453.982	-30.344	-0.126	-0.072
-452.968	76.907	-0.080	-0.086
-451.953	41.727	-0.153	-0.140
-450.938	7.865	-0.266	-0.201
-449.924	-200.000	0.012	0.484
-448.909	-155.540	0.119	-0.008
-447.895	218.259	-0.111	0.179
-446.880	-93.760	-0.227	0.063
-445.865	-108.740	0.220	-0.048
-444.851	-19.836	0.286	-0.178
-443.836	168.123	-0.095	0.136
-442.822	337.270	0.086	0.168
-441.807	6.262	0.288	-0.216
-440.792	53.518	0.185	0.179
-439.778	-11.182	-0.118	0.079
-438.763	-144.735	-0.169	0.016
-437.749	561.227	-0.119	-0.291
-436.734	64.541	0.040	0.041
-435.719	69.879	-0.251	-0.261
-434.705	-200.000	0.028	0.251
-433.690	-200.000	0.011	0.145
-432.676	5.682	0.209	0.156
-431.661	-18.243	0.042	0.027
-430.646	300.692	0.046	-0.086
-429.632	-22.521	0.253	-0.154
-428.617	800.000	0.095	0.286
-427.603	-200.000	-0.022	0.247
-426.588	-92.286	0.297	0.084
-425.573	493.269	0.019	0.044
-424.559	-96.982	0.256	-0.068
-423.544	225.365	-0.032	-0.052
-422.530	364.034	-0.134	-0.271
-421.515	-51.999	0.190	-0.089
-420.500	800.000	0.059	-0.173
-419.486	-75.157	-0.263	-0.095
-418.471	-123.365	-0.157	-0.025
-417.457	800.000	0.030	-0.102
-416.442	-6.067	0.141	0.097
-415.428	294.671	0.189	-0.348
-414.413	800.000	-0.148	0.426
-413.398	123.740	0.373	0.472
-412.384	249.416	0.113	-0.192
-411.369	-200.000	0.045	0.359
-410.355	-110.845	0.363	0.075
-409.340	-123.498	0.153	-0.025
-408.325	92.660	-0.256	-0.291
-407.311	-200.000	-0.019	0.236
-406.296	-200.000	-0.005	0.083
-405.282	-200.000	-0.011	0.120
-404.267	175.539	-0.077	0.112
-403.252	93.638	-0.249	-0.284
-402.238	22.961	0.187	-0.154
-401.223	-116.093	-0.269	0.050
-400.209	-194.046	-0.068	0.001
-399.194	-43.639	0.063	0.032
-398.179	-24.684	-0.039	0.023
-397.165	-105.567	-0.317	0.072
-396.150	-52.319	0.223	-0.104
-395.136	0.455	-0.261	-0.188
-394.121	-200.000	0.000	0.233
-393.106	-200.000	0.025	-0.202
-392.092	236.120	-0.036	0.060
-391.077	61.601	0.354	-0.354
-390.063	-149.945	0.227	-0.018
-389.048	115.806	0.204	0.252
-388.033	-200.000	-0.020	-0.204
-387.019	429.777	0.135	0.295
-386.004	-200.000	0.007	-0.112
-384.990	-44.863	0.226	-0.113
-383.975	-200.000	-0.050	0.237
-382.960	539.524	0.083	-0.199
-381.946	-41.256	-0.094	-0.049
-380.931	-119.717	-0.074	-0.013
-379.917	-57.866	-0.230	-0.101
-378.902	-104.473	0.068	0.016
-377.888	416.431	0.193	0.413
-376.873	120.324	0.142	-0.178
-375.858	41.398	-0.071	0.064
-374.844	7.590	-0.124	0.093
-373.829	273.269	0.158	0.281
-372.815	-81.403	-0.293	0.097
-371.800	-200.000	0.026	0.177
-370.785	800.000	-0.081	0.266
-369.771	-95.301	-0.358	-0.097
-368.756	-161.106	-0.601	0.032
-367.742	264.559	0.206	0.361
-366.727	-60.642	-0.336	-0.143
-365.712	-91.189	0.034	0.010
-364.698	-200.000	-0.012	-0.054
-363.683	1.012	-0.284	-0.205
-362.669	193.950	-0.207	-0.315
-361.654	-200.000	0.013	0.253
-360.639	132.645	0.186	0.242
-359.625	-161.913	0.076	-0.004
-358.610	-200.000	0.006	0.164
-357.596	14.187	0.145	-0.113
-356.581	800.000	-0.105	0.307
-355.566	98.140	0.134	-0.155
-354.552	-30.750	-0.522	-0.297
-353.537	359.640	0.029	0.058
-352.523	-44.410	0.044	-0.022
-351.508	337.795	-0.160	-0.313
-350.493	-72.992	-0.404	-0.149
-349.479	14.984	-0.178	-0.140
-348.464	-125.424	0.038	-0.006
-347.450	-143.223	0.086	-0.008
-346.435	57.939	0.147	-0.144
-345.420	157.963	0.163	-0.227
-344.406	-55.189	0.219	-0.099
-343.391	400.181	-0.110	-0.232
-342.377	-84.794	0.047	0.015
-341.362	65.730	-0.235	0.239
-340.348	51.937	0.052	-0.050
-339.333	-200.000	-0.004	-0.327
-338.318	-70.505	-0.090	-0.034
-337.304	14.581	-0.092	0.072
-336.289	-200.000	0.002	0.669
-335.275	207.550	0.121	0.190
-334.260	800.000	-0.023	0.076
-333.245	88.037	-0.106	0.118
-332.231	800.000	0.049	0.173
-331.216	7.158	0.126	-0.094
-330.202	78.408	-0.201	0.216
-329.187	-100.184	-0.179	0.045
-328.172	786.675	-0.073	-0.200
-327.158	499.601	-0.089	0.207
-326.143	520.376	-0.100	-0.236
-325.129	-200.000	0.017	0.104
-324.114	-9.477	-0.198	-0.133
-323.099	28.028	-0.300	0.254
-322.085	-79.002	0.404	-0.138
-321.070	158.964	-0.041	0.057
-320.056	33.480	0.115	-0.100
-319.041	616.948	-0.092	0.230
-318.026	-57.279	-0.014	0.006
-317.012	-200.000	0.013	0.194
-315.997	-62.454	-0.104	0.043
-314.983	480.727	-0.218	0.497
-313.968	205.702	-0.103	-0.161
-312.953	81.290	0.109	-0.118
-311.939	-200.000	-0.042	0.214
-310.924	253.474	-0.088	0.151
-309.910	-200.000	-0.019	0.289
-308.895	800.000	-0.072	-0.243
-307.880	800.000	0.131	-0.430
-306.866	-200.000	0.006	-0.038
-305.851	66.004	-0.104	-0.106
-304.837	-62.900	-0.115	-0.048
-303.822	-200.000	-0.029	0.339
-302.807	184.799	0.237	-0.353
-301.793	800.000	-0.031	-0.102
-300.778	-103.113	0.239	0.057
-299.764	-10.708	0.209	0.138
-298.749	226.235	-0.076	-0.124
-297.735	-13.479	0.266	-0.173
-296.720	228.263	-0.091	-0.149
-295.705	-200.000	0.081	0.425
-294.691	-59.903	-0.347	-0.149
-293.676	-200.000	0.023	0.117
-292.662	800.000	-0.023	-0.075
-291.647	-165.422	-0.466	0.020
-290.632	668.705	-0.051	0.133
-289.618	41.518	0.160	0.145
-288.603	-0.522	0.105	0.075
-287.589	-62.630	0.095	0.039
-286.574	56.122	0.186	0.181
-285.559	294.836	-0.073	-0.134
-284.545	-200.000	-0.008	-0.038
-283.530	800.000	0.125	0.374
-282.516	50.676	-0.268	0.255
-281.501	-84.721	-0.161	-0.051
-280.486	-24.432	-0.102	0.061
-279.472	21.887	0.429	-0.350
-278.457	219.073	0.048	-0.077
-277.443	-200.000	-0.034	-0.248
-276.428	369.559	-0.102	0.206
-275.413	345.109	-0.048	0.094
-274.399	-200.000	0.042	0.189
-273.384	-90.806	0.314	0.091
-272.370	167.629	0.161	0.229
-271.355	-55.474	0.297	0.133
-270.340	46.630	0.126	-0.117
-269.326	-147.882	0.457	-0.038
-268.311	-137.255	-0.017	0.002
-267.297	-200.000	-0.009	-0.276
-266.282	4.997	-0.088	0.065
-265.267	-200.000	-0.050	0.235
-264.253	179.557	0.015	-0.022
-263.238	328.230	-0.043	0.083
-262.224	57.292	0.094	-0.092
-261.209	605.537	-0.085	-0.212
-260.195	-200.000	-0.028	0.204
-259.180	-69.389	-0.066	-0.025
-258.165	106.631	-0.207	-0.246
-257.151	-200.000	-0.004	-0.237
-256.136	-200.000	-0.027	-0.301
-255.122	522.353	-0.215	-0.505
-254.107	-28.084	-0.258	0.149
-253.092	68.787	0.170	-0.175
-252.078	-121.644	0.189	-0.031
-251.063	-17.134	-0.084	0.053
-250.049	85.849	-0.205	-0.226
-249.034	-64.867	0.131	-0.053
-248.019	-80.144	-0.372	-0.125
-247.005	591.248	0.155	0.384
-245.990	108.693	-0.168	0.201
-244.976	-200.000	0.037	-0.276
-243.961	-200.000	0.023	-0.138
-242.946	-200.000	-0.009	-0.324
-241.932	-200.000	0.007	0.202
-240.917	13.547	-0.219	-0.170
-239.903	262.492	-0.058	0.101
-238.888	-37.264	0.158	0.085
-237.873	-55.800	0.304	0.136
-236.859	-117.050	0.358	-0.065
-235.844	-200.000	-0.019	-0.331
-234.830	-200.000	0.021	0.118
-233.815	-42.612	0.312	0.159
-232.800	800.000	-0.046	0.170
-231.786	-174.325	-0.302	0.009
-230.771	95.646	0.150	0.171
-229.757	-15.757	0.150	0.095
-228.742	13.956	-0.177	0.138
-227.727	-200.000	-0.019	0.115
-226.713	375.608	0.092	-0.188
-225.698	800.000	0.059	0.198
-224.684	-83.071	-0.271	0.087
-223.669	-31.330	-0.089	0.050
-222.655	-101.433	0.196	-0.048
-221.640	83.374	0.264	0.287
-220.625	-11.792	0.200	-0.131
-219.611	-123.836	-0.198	0.031
-218.596	-28.145	-0.150	0.087
-217.582	10.252	0.288	-0.219
-216.567	-36.597	-0.227	0.122
-215.552	-200.000	-0.027	-0.189
-214.538	-74.526	-0.164	0.059
-213.523	189.109	0.124	-0.185
-212.509	147.442	-0.186	-0.250
-211.494	-33.943	0.405	-0.223
-210.479	-119.293	0.074	0.013
-209.465	141.382	-0.267	-0.354
-208.450	800.000	-0.023	-0.080
-207.436	277.320	-0.123	-0.218
-206.421	-5.236	0.159	0.109
-205.406	-200.000	-0.020	0.183
-204.392	294.034	-0.067	0.123
-203.377	512.944	0.079	-0.184
-202.363	-186.740	-0.253	0.004
-201.348	-195.781	-0.162	0.001
-200.333	138.951	-0.163	0.214
-199.319	-62.701	0.099	-0.041
-198.304	-80.403	-0.432	-0.144
-197.290	-122.210	0.081	0.013
-196.275	174.007	0.170	0.246
-195.260	800.000	-0.065	0.192
-194.246	43.997	0.257	-0.235
-193.231	255.636	0.052	0.088
-192.217	-200.000	-0.036	0.194
-191.202	-200.000	0.012	0.167
-190.187	55.965	0.106	-0.103
-189.173	49.900	0.253	-0.238
-188.158	-200.000	0.003	0.030
-187.144	-200.000	0.001	0.302
-186.129	-200.000	0.062	0.288
-185.114	-200.000	-0.012	0.102
-184.100	-200.000	0.073	0.319
-183.085	-185.573	0.413	-0.006
-182.071	269.801	-0.105	0.184
-181.056	-2.698	-0.137	-0.095
-180.042	-73.081	-0.139	0.051
-179.027	189.143	0.167	-0.250
-178.012	72.863	-0.225	0.235
-176.998	-200.000	0.007	0.188
-175.983	-33.235	-0.110	-0.061
-174.969	800.000	-0.073	-0.264
-173.954	-24.402	0.118	0.070
-172.939	-54.055	-0.144	0.065
-171.925	800.000	0.099	0.284
-170.910	-200.000	0.017	-0.107
-169.896	-200.000	-0.005	0.048
-168.881	-133.006	0.212	-0.027
-167.866	-113.844	0.114	-0.022
-166.852	8.190	-0.131	0.098
-165.837	199.679	0.046	0.070
-164.823	19.632	0.181	0.145
-163.808	-200.000	0.004	0.157
-162.793	20.455	0.139	-0.112
-161.779	58.171	-0.010	-0.010
-160.764	-200.000	-0.328	-0.001
-159.750	-123.395	-0.133	0.021
-158.735	-35.324	0.137	0.074
-157.720	-200.000	-0.016	0.238
-156.706	-57.126	-0.114	-0.050
-155.691	-200.000	0.005	-0.153
-154.677	637.865	-0.052	-0.133
-153.662	129.675	0.205	-0.261
-152.647	274.006	-0.097	0.171
-151.633	-104.085	0.230	-0.053
-150.618	-145.861	-0.282	-0.025
-149.604	398.889	0.066	0.139
-148.589	-165.774	-0.414	0.018
-147.574	-103.672	0.112	-0.026
-146.560	800.000	0.050	-0.192
-145.545	-126.381	0.294	-0.044
-144.531	584.900	0.061	0.150
-143.516	-3.636	-0.187	-0.129
-142.502	231.457	0.196	0.320
-141.487	-167.772	-0.287	-0.011
-140.472	-23.135	-0.090	0.054
-139.458	446.974	-0.090	-0.197
-138.443	40.554	-0.117	0.105
-137.429	302.981	0.123	0.226
-136.414	170.883	-0.228	-0.326
-135.399	-125.343	0.166	-0.025
-134.385	-99.684	0.239	-0.060
-133.370	-200.000	0.002	0.092
-132.356	-88.158	0.264	-0.079
-131.341	800.000	0.120	0.341
-130.326	-200.000	0.237	0.000
-129.312	-200.000	-0.033	-0.163
-128.297	168.235	0.142	0.202
-127.283	22.453	0.120	-0.098
-126.268	-108.396	-0.295	-0.063
-125.253	209.410	0.260	-0.406
-124.239	44.751	-0.045	-0.041
-123.224	21.567	0.321	-0.260
-122.210	-161.006	-0.062	0.003
-121.195	-70.920	-0.245	0.092
