DTS Sentinel unit serial number:	SN413079Multiplexer serial number:	ORYXHardware model number:	OX4-SRSoftware version number:	ORYX F/W v4.00 Oryx Data Collector v3.7.2.0data status	okinstallation	princeton_trtdifferential loss correction	single-endedforward channel	channel 1reverse channel	N/Adate	2019/09/15time	20:34:35forward acquisition time	60.00reverse acquisition time	0.00gamma	496.2192k internal	0.2324k external	0.2324temperature offset calibration	0.9962default loss term (dB/km)	0.3790temperature slope calibration	1.0000multiplexer offset coefficient	1.0000multiplexer slope coefficient	1.0000fibre end	0.00T internal ref (°C)	33.17T ext. ref 1 (°C)	7.84T ext. ref 2 (°C)	24.91length (m)	temperature (°C)	Stokes	anti-Stokes-747.200	489.925	-0.154	0.355
-746.185	800.000	-0.092	0.391
-745.171	-50.102	-0.178	-0.085
-744.156	36.171	0.181	0.161
-743.142	-134.121	0.254	-0.032
-742.127	261.871	-0.193	0.338
-741.112	166.632	-0.105	0.151
-740.098	800.000	0.039	0.156
-739.083	287.016	-0.091	0.166
-738.069	-90.560	0.127	-0.037
-737.054	-44.382	0.235	0.119
-736.039	800.000	-0.057	0.175
-735.025	82.039	0.369	0.403
-734.010	800.000	0.036	-0.106
-732.996	204.367	-0.126	-0.197
-731.981	194.030	0.108	0.164
-730.966	181.725	-0.099	0.147
-729.952	-62.892	0.259	-0.108
-728.937	-152.647	-0.189	-0.014
-727.923	187.474	0.027	0.041
-726.908	-43.745	-0.159	-0.081
-725.894	326.240	-0.218	-0.421
-724.879	-116.418	0.227	-0.042
-723.864	-56.215	-0.267	0.120
-722.850	102.323	-0.198	-0.233
-721.835	-31.584	-0.280	-0.159
-720.821	-85.986	-0.077	0.024
-719.806	800.000	0.017	-0.056
-718.791	33.504	-0.124	0.109
-717.777	-200.000	-0.043	0.197
-716.762	-200.000	-0.040	0.273
-715.748	-63.011	-0.073	0.031
-714.733	-59.874	-0.489	-0.211
-713.718	-143.818	-0.267	0.025
-712.704	-159.644	0.220	0.012
-711.689	-20.030	0.188	-0.117
-710.675	-200.000	-0.016	0.372
-709.660	-12.815	0.029	-0.019
-708.645	80.698	0.107	0.116
-707.631	161.649	-0.153	-0.215
-706.616	-81.626	-0.163	0.054
-705.602	175.255	0.226	-0.330
-704.587	463.161	0.038	0.086
-703.572	-200.000	-0.033	0.156
-702.558	-53.458	-0.072	0.033
-701.543	95.188	-0.188	0.216
-700.529	74.762	-0.165	0.175
-699.514	12.883	-0.179	0.139
-698.499	44.608	0.139	0.128
-697.485	-13.446	0.217	-0.142
-696.470	128.767	-0.157	-0.202
-695.456	-92.363	-0.175	-0.050
-694.441	65.426	0.131	0.134
-693.426	-82.833	-0.243	-0.079
-692.412	-98.870	-0.092	0.024
-691.397	-44.274	0.066	-0.033
-690.383	-4.236	-0.210	0.147
-689.368	455.452	0.021	0.047
-688.354	-200.000	0.010	0.155
-687.339	-118.205	0.125	0.022
-686.324	-99.753	0.315	-0.079
-685.310	800.000	0.082	0.302
-684.295	336.506	0.035	-0.069
-683.281	119.777	-0.165	-0.206
-682.266	345.965	-0.032	0.062
-681.251	-200.000	0.015	0.220
-680.237	800.000	-0.026	-0.087
-679.222	800.000	-0.052	0.205
-678.208	562.477	0.122	-0.298
-677.193	370.094	-0.082	0.168
-676.178	77.537	0.147	-0.158
-675.164	-200.000	-0.029	-0.182
-674.149	-104.255	-0.057	0.013
-673.135	62.306	0.214	0.215
-672.120	442.374	0.128	0.281
-671.105	-83.604	-0.037	-0.012
-670.091	800.000	-0.096	-0.269
-669.076	-200.000	-0.004	-0.110
-668.062	680.068	-0.070	-0.182
-667.047	-156.723	-0.326	0.020
-666.032	-200.000	-0.013	-0.183
-665.018	-163.031	0.203	-0.010
-664.003	122.467	-0.308	0.388
-662.989	-89.824	-0.131	-0.039
-661.974	25.716	-0.281	-0.236
-660.959	104.272	0.102	-0.120
-659.945	-32.255	0.268	0.151
-658.930	-200.000	0.028	0.173
-657.916	34.420	-0.048	-0.042
-656.901	36.243	0.127	-0.113
-655.886	654.399	0.101	0.261
-654.872	-141.751	-0.330	-0.033
-653.857	800.000	0.023	0.091
-652.843	-52.390	0.245	0.114
-651.828	-165.840	-0.376	-0.016
-650.814	-15.721	0.323	-0.207
-649.799	-200.000	-0.019	0.288
-648.784	-200.000	-0.011	-0.054
-647.770	-10.754	-0.171	0.113
-646.755	-200.000	-0.022	-0.105
-645.741	118.961	0.104	0.129
-644.726	637.477	-0.062	0.158
-643.711	-127.316	-0.430	-0.063
-642.697	800.000	0.124	-0.513
-641.682	-191.203	0.267	0.003
-640.668	-200.000	0.001	-0.052
-639.653	-64.322	-0.120	-0.049
-638.638	776.964	0.058	-0.158
-637.624	-88.796	-0.054	0.016
-636.609	800.000	-0.033	-0.119
-635.595	-83.949	-0.141	0.045
-634.580	800.000	-0.157	0.524
-633.565	235.852	-0.225	-0.374
-632.551	-107.049	-0.207	-0.046
-631.536	800.000	0.050	0.196
-630.522	-29.174	0.146	0.084
-629.507	95.408	-0.106	0.122
-628.492	-154.143	0.239	0.016
-627.478	307.926	-0.092	-0.172
-626.463	-43.427	-0.415	-0.211
-625.449	-101.124	-0.239	-0.059
-624.434	-144.070	-0.135	0.013
-623.419	-156.516	-0.201	-0.013
-622.405	129.914	0.158	-0.203
-621.390	-148.092	0.354	-0.029
-620.376	-200.000	-0.031	0.161
-619.361	290.191	-0.023	-0.042
-618.346	6.835	-0.224	-0.167
-617.332	-79.400	-0.117	0.040
-616.317	374.401	-0.029	0.060
-615.303	533.305	-0.106	0.253
-614.288	-0.313	-0.038	-0.027
-613.273	-156.987	-0.137	0.008
-612.259	236.482	-0.021	0.034
-611.244	-90.822	-0.175	0.051
-610.230	94.773	-0.025	0.029
-609.215	-181.828	0.165	-0.003
-608.201	-97.673	-0.090	0.023
-607.186	-154.405	0.177	-0.012
-606.171	701.752	-0.155	0.411
-605.157	-200.000	-0.078	0.632
-604.142	800.000	0.044	-0.189
-603.128	-2.401	-0.102	0.072
-602.113	-49.802	0.393	0.188
-601.098	-181.117	0.101	0.002
-600.084	-113.489	0.087	-0.017
-599.069	-125.615	-0.372	-0.057
-598.055	140.434	-0.159	0.211
-597.040	176.061	-0.056	-0.082
-596.025	-113.160	-0.105	0.021
-595.011	-81.735	0.113	0.037
-593.996	800.000	-0.102	0.408
-592.982	-200.000	0.023	-0.316
-591.967	39.441	0.063	-0.057
-590.952	171.756	0.085	0.122
-589.938	260.686	-0.023	0.040
-588.923	-45.159	-0.312	-0.155
-587.909	-5.017	-0.245	0.169
-586.894	-199.956	0.101	-0.001
-585.879	293.668	0.087	0.160
-584.865	110.214	0.111	-0.134
-583.850	800.000	-0.030	0.120
-582.836	-200.000	0.047	0.376
-581.821	-200.000	0.008	-0.038
-580.806	800.000	-0.097	0.372
-579.792	-200.000	0.046	0.366
-578.777	114.516	0.161	0.197
-577.763	-200.000	-0.017	-0.220
-576.748	-20.509	-0.130	0.080
-575.733	5.821	-0.217	-0.161
-574.719	-200.000	0.014	0.124
-573.704	-133.105	0.314	-0.040
-572.690	641.081	0.035	0.088
-571.675	800.000	0.011	-0.034
-570.661	-200.000	0.040	-0.218
-569.646	-156.393	0.162	-0.010
-568.631	153.576	-0.061	0.084
-567.617	37.874	-0.115	-0.103
-566.602	-200.000	0.033	-0.470
-565.588	-200.000	0.009	-0.057
-564.573	214.324	-0.119	-0.189
-563.558	140.077	-0.104	0.137
-562.544	78.764	0.179	-0.192
-561.529	31.029	-0.249	-0.214
-560.515	286.809	-0.111	-0.202
-559.500	-46.324	-0.113	0.056
-558.485	-88.873	-0.129	-0.038
-557.471	334.522	0.189	0.366
-556.456	548.854	-0.117	0.282
-555.442	146.612	-0.044	-0.060
-554.427	-40.141	0.301	0.157
-553.412	-145.185	-0.352	-0.032
-552.398	-112.180	0.236	-0.048
-551.383	-200.000	-0.060	-0.408
-550.369	44.951	-0.056	-0.051
-549.354	488.897	-0.059	-0.135
-548.339	-53.136	0.200	0.092
-547.325	279.808	-0.087	0.155
-546.310	-200.000	-0.019	0.363
-545.296	-60.892	0.149	0.063
-544.281	64.671	-0.058	-0.059
-543.266	800.000	0.006	0.016
-542.252	-65.356	-0.084	0.034
-541.237	800.000	0.141	-0.408
-540.223	-120.305	-0.405	0.069
-539.208	-200.000	0.004	-0.070
-538.193	34.637	-0.062	-0.054
-537.179	-200.000	0.009	-0.177
-536.164	-161.401	-0.140	0.007
-535.150	-116.630	-0.217	-0.040
-534.135	-85.850	-0.244	0.076
-533.121	-38.528	0.200	-0.106
-532.106	220.214	-0.136	-0.218
-531.091	-111.317	-0.282	-0.058
-530.077	800.000	-0.013	0.039
-529.062	235.706	0.062	-0.102
-528.048	114.354	-0.176	-0.214
-527.033	-200.000	-0.055	-0.307
-526.018	-81.741	0.170	0.056
-525.004	-200.000	0.061	0.398
-523.989	-133.080	-0.107	-0.014
-522.975	-89.756	0.193	0.056
-521.960	-168.251	0.256	0.010
-520.945	120.471	0.104	-0.130
-519.931	124.749	-0.205	-0.258
-518.916	154.655	-0.058	-0.080
-517.902	-7.010	0.187	0.127
-516.887	151.801	0.274	0.374
-515.872	-70.607	0.183	0.069
-514.858	-197.133	-0.104	0.001
-513.843	-200.000	-0.066	-0.370
-512.829	-200.000	-0.014	-0.099
-511.814	375.995	0.093	-0.190
-510.799	-77.811	-0.342	0.118
-509.785	355.015	-0.112	0.223
-508.770	754.870	0.054	-0.146
-507.756	116.523	0.123	0.151
-506.741	55.993	-0.154	0.149
-505.726	752.458	0.055	0.147
-504.712	23.880	-0.140	-0.115
-503.697	-3.841	-0.127	-0.088
-502.683	84.491	-0.097	0.106
-501.668	-4.321	-0.267	0.185
-500.653	-13.881	0.084	-0.054
-499.639	-200.000	0.013	0.239
-498.624	320.306	-0.241	0.458
-497.610	800.000	0.066	-0.185
-496.595	-4.566	-0.094	-0.065
-495.581	-200.000	0.106	0.548
-494.566	659.546	0.212	0.546
-493.551	-183.165	-0.030	0.001
-492.537	-200.000	-0.004	-0.389
-491.522	120.916	-0.134	0.167
-490.508	800.000	-0.041	-0.140
-489.493	-61.893	0.406	0.170
-488.478	-200.000	-0.049	0.378
-487.464	369.460	-0.063	0.127
-486.449	57.707	0.118	0.115
-485.435	-173.341	0.204	0.006
-484.420	293.390	0.168	0.306
-483.405	800.000	0.025	0.076
-482.391	-96.273	-0.160	0.042
-481.376	44.821	0.298	-0.274
-480.362	98.512	0.331	-0.381
-479.347	-102.905	0.065	0.015
-478.332	-27.922	0.181	-0.105
-477.318	53.159	0.089	0.085
-476.303	800.000	-0.026	-0.089
-475.289	-45.859	-0.424	0.209
-474.274	-0.072	0.151	-0.107
-473.259	47.442	-0.086	0.080
-472.245	-37.358	0.116	-0.062
-471.230	118.535	0.068	-0.084
-470.216	-144.249	0.190	0.018
-469.201	-200.000	-0.099	0.436
-468.186	-200.000	0.029	-0.166
-467.172	392.885	-0.076	-0.158
-466.157	-96.980	-0.114	0.030
-465.143	-200.000	-0.027	-0.357
-464.128	155.370	0.208	-0.285
-463.113	-16.947	-0.172	-0.109
-462.099	80.530	-0.117	0.125
-461.084	-200.000	0.028	-0.213
-460.070	22.215	0.154	0.126
-459.055	69.552	0.170	0.175
-458.040	-135.746	0.154	0.018
-457.026	21.759	-0.145	-0.118
-456.011	136.396	0.045	0.058
-454.997	91.533	0.115	-0.129
-453.982	-16.268	-0.347	-0.220
-452.968	143.207	-0.206	0.274
-451.953	-90.293	0.238	-0.069
-450.938	-58.436	0.466	0.202
-449.924	-168.375	-0.265	0.010
-448.909	54.245	0.123	0.118
-447.895	729.007	0.044	-0.117
-446.880	-75.909	0.268	-0.095
-445.865	-200.000	0.019	0.168
-444.851	-11.191	-0.093	0.061
-443.836	195.285	0.265	0.402
-442.822	-121.203	0.149	-0.025
-441.807	800.000	0.077	0.260
-440.792	244.339	0.120	-0.200
-439.778	-186.369	-0.057	0.001
-438.763	60.294	0.122	0.120
-437.749	179.519	0.220	-0.321
-436.734	-200.000	0.031	-0.226
-435.719	-20.167	0.123	-0.076
-434.705	800.000	-0.101	-0.333
-433.690	513.044	-0.101	-0.234
-432.676	-200.000	-0.030	-0.255
-431.661	-51.389	0.043	-0.020
-430.646	-200.000	-0.019	-0.239
-429.632	800.000	0.045	-0.145
-428.617	-24.499	0.178	-0.106
-427.603	-82.963	0.377	-0.121
-426.588	-48.006	-0.292	-0.141
-425.573	-49.614	-0.190	-0.090
-424.559	132.748	-0.035	0.045
-423.544	78.082	0.312	-0.331
-422.530	-200.000	-0.010	-0.517
-421.515	221.823	-0.122	-0.195
-420.500	317.573	0.122	0.230
-419.486	46.783	-0.076	0.070
-418.471	-169.701	-0.126	0.005
-417.457	-200.000	0.003	-0.087
-416.442	117.946	0.131	-0.161
-415.428	-200.000	0.043	-0.241
-414.413	800.000	0.056	0.176
-413.398	-102.486	0.198	0.047
-412.384	-118.926	0.257	0.045
-411.369	-200.000	-0.023	-0.129
-410.355	800.000	0.099	0.428
-409.340	800.000	-0.066	0.187
-408.325	-200.000	-0.012	0.119
-407.311	-8.047	0.115	-0.077
-406.296	316.315	-0.161	-0.303
-405.282	-200.000	-0.011	0.065
-404.267	439.737	-0.130	0.283
-403.252	593.240	0.152	0.374
-402.238	696.859	0.026	0.068
-401.223	285.813	0.110	0.197
-400.209	18.632	0.115	0.091
-399.194	10.672	-0.400	0.304
-398.179	370.024	-0.023	0.046
-397.165	-128.660	-0.225	0.032
-396.150	-71.942	0.182	0.067
-395.136	-65.690	-0.241	0.096
-394.121	-200.000	-0.062	-0.352
-393.106	-200.000	0.012	0.140
-392.092	-124.466	0.195	-0.030
-391.077	279.341	0.202	-0.359
-390.063	166.443	0.149	-0.211
-389.048	-200.000	0.018	0.331
-388.033	-200.000	-0.010	-0.064
-387.019	-200.000	0.000	-0.403
-386.004	152.566	0.101	-0.137
-384.990	155.755	-0.120	0.165
-383.975	-73.945	-0.090	-0.033
-382.960	97.723	-0.145	-0.165
-381.946	-49.071	-0.189	-0.090
-380.931	-169.617	0.249	-0.009
-379.917	635.207	0.037	-0.092
-378.902	-8.164	-0.267	-0.179
-377.888	-178.924	0.301	0.007
-376.873	-49.844	0.091	0.043
-375.858	800.000	-0.081	-0.242
-374.844	-85.871	-0.290	0.089
-373.829	367.705	-0.069	-0.139
-372.815	-200.000	-0.011	0.382
-371.800	371.680	-0.043	-0.086
-370.785	-200.000	0.041	-0.206
-369.771	-74.972	-0.249	-0.089
-368.756	107.618	-0.204	0.241
-367.742	-200.000	-0.020	0.307
-366.727	2.027	-0.266	-0.191
-365.712	-3.102	-0.117	-0.081
-364.698	-20.907	0.072	-0.044
-363.683	13.606	0.193	0.149
-362.669	-114.370	0.055	-0.011
-361.654	-38.220	-0.175	0.092
-360.639	-63.710	-0.177	-0.072
-359.625	321.506	-0.148	-0.280
-358.610	-200.000	0.015	-0.432
-357.596	-92.385	-0.344	-0.096
-356.581	142.905	-0.168	0.222
-355.566	-100.004	0.315	0.078
-354.552	2.682	0.290	0.209
-353.537	800.000	-0.089	-0.253
-352.523	72.157	0.046	-0.048
-351.508	350.686	-0.093	0.183
-350.493	-54.829	0.235	0.105
-349.479	73.798	-0.170	-0.177
-348.464	-200.000	-0.001	-0.110
-347.450	-163.282	0.211	0.010
-346.435	-200.000	0.009	0.054
-345.420	229.319	0.081	0.132
-344.406	187.796	-0.181	-0.269
-343.391	-102.999	0.137	-0.032
-342.377	800.000	-0.098	0.332
-341.362	-164.292	-0.103	0.005
-340.348	-103.466	0.091	-0.021
-339.333	69.423	0.091	-0.093
-338.318	755.341	-0.162	0.436
-337.304	-24.291	-0.352	0.209
-336.289	-95.214	-0.353	-0.094
-335.275	-60.930	-0.162	-0.068
-334.260	-144.518	0.069	-0.006
-333.245	-54.139	0.180	0.081
-332.231	379.556	-0.137	0.278
-331.216	130.507	0.172	0.219
-330.202	14.331	-0.216	-0.167
-329.187	-200.000	-0.002	-0.241
-328.172	-37.918	0.335	0.177
-327.158	-200.000	0.001	0.153
-326.143	-33.544	-0.101	0.055
-325.129	-200.000	-0.023	0.221
-324.114	-138.384	-0.154	0.017
-323.099	457.163	0.042	0.093
-322.085	12.941	0.238	0.183
-321.070	-91.329	-0.141	0.040
-320.056	-60.332	0.131	-0.055
-319.041	-48.090	-0.195	-0.094
-318.026	79.726	0.272	0.290
-317.012	-156.935	0.072	0.004
-315.997	-12.955	-0.281	0.182
-314.983	-36.376	0.107	-0.057
-313.968	-112.871	-0.051	-0.010
-312.953	356.798	-0.097	0.193
-311.939	213.289	-0.051	-0.079
-310.924	554.237	0.164	-0.391
-309.910	454.186	0.111	-0.244
-308.895	-200.000	-0.058	-0.512
-307.880	10.585	-0.217	-0.164
-306.866	-200.000	-0.021	0.234
-305.851	11.589	0.040	0.030
-304.837	312.314	-0.168	0.313
-303.822	-115.047	-0.220	0.041
-302.807	-67.470	0.258	0.100
-301.793	139.580	-0.131	-0.171
-300.778	421.227	-0.095	0.203
-299.764	283.464	0.083	0.148
-298.749	-22.470	0.196	0.118
-297.735	16.979	0.207	0.163
-296.720	800.000	-0.093	0.370
-295.705	128.780	0.247	-0.312
-294.691	-55.089	-0.090	-0.040
-293.676	-29.872	0.126	-0.071
-292.662	358.834	0.158	-0.312
-291.647	-200.000	0.016	-0.076
-290.632	-72.980	0.246	-0.090
-289.618	373.593	-0.060	-0.121
-288.603	-106.289	0.196	-0.044
-287.589	-152.394	0.149	-0.011
-286.574	49.319	-0.197	0.184
-285.559	204.107	-0.098	-0.150
-284.545	242.091	-0.101	0.168
-283.530	607.113	0.136	0.336
-282.516	-200.000	-0.016	0.126
-281.501	-200.000	-0.028	0.167
-280.486	19.166	-0.153	0.122
-279.472	311.154	0.155	0.288
-278.457	88.978	0.179	0.197
-277.443	312.291	-0.073	0.135
-276.428	-200.000	-0.021	-0.281
-275.413	-123.078	0.405	0.065
-274.399	567.141	0.143	-0.344
-273.384	-200.000	-0.026	-0.274
-272.370	-200.000	0.012	0.542
-271.355	-200.000	-0.008	0.336
-270.340	604.980	-0.024	-0.059
-269.326	113.529	-0.195	-0.234
-268.311	103.028	-0.304	-0.353
-267.297	-27.639	0.094	0.054
-266.282	800.000	-0.146	-0.456
-265.267	46.131	-0.068	-0.062
-264.253	26.339	0.207	-0.171
-263.238	800.000	0.045	-0.188
-262.224	-200.000	-0.013	0.098
-261.209	-64.830	-0.250	-0.100
-260.195	209.154	-0.161	-0.249
-259.180	-158.149	0.309	-0.018
-258.165	547.987	-0.029	-0.068
-257.151	-0.314	-0.135	0.095
-256.136	-200.000	0.006	0.164
-255.122	141.704	0.102	0.134
-254.107	-200.000	-0.016	-0.324
-253.092	-9.870	-0.373	-0.246
-252.078	-43.952	-0.111	0.055
-251.063	-70.215	0.230	-0.086
-250.049	-87.380	-0.110	0.033
-249.034	800.000	-0.051	0.196
-248.019	626.761	-0.116	-0.290
-247.005	-22.814	-0.078	0.047
-245.990	112.082	0.139	-0.167
-244.976	116.998	0.202	-0.245
-243.961	80.796	-0.095	-0.101
-242.946	-42.871	-0.076	-0.038
-241.932	83.528	-0.079	0.086
-240.917	45.073	-0.230	0.210
-239.903	-200.000	0.080	0.552
-238.888	153.659	0.114	0.155
-237.873	-200.000	0.017	-0.336
-236.859	-41.823	0.350	-0.177
-235.844	-114.284	0.298	0.057
-234.830	-200.000	-0.005	0.113
-233.815	516.889	-0.161	0.374
-232.800	241.568	0.110	0.181
-231.786	8.436	0.119	-0.089
-230.771	81.250	-0.167	0.178
-229.757	-27.795	0.147	-0.084
-228.742	-137.758	0.163	0.018
-227.727	-151.794	0.069	0.005
-226.713	-200.000	-0.033	0.252
-225.698	-200.000	0.010	0.104
-224.684	-58.217	0.092	0.040
-223.669	497.786	-0.092	0.210
-222.655	-81.838	0.298	-0.097
-221.640	-200.000	-0.013	0.215
-220.625	-177.864	0.341	0.008
-219.611	-200.000	-0.042	-0.187
-218.596	71.683	-0.071	0.073
-217.582	2.382	-0.063	-0.045
-216.567	9.000	-0.130	0.097
-215.552	-200.000	0.013	0.075
-214.538	433.168	-0.086	-0.184
-213.523	580.884	-0.089	-0.216
-212.509	439.775	0.070	0.151
-211.494	-124.606	0.274	-0.042
-210.479	-0.615	0.065	-0.045
-209.465	-74.248	-0.261	-0.093
-208.450	107.858	-0.115	-0.135
-207.436	5.399	-0.168	0.123
-206.421	190.644	-0.153	0.228
-205.406	-19.351	-0.162	0.099
-204.392	176.008	-0.081	-0.117
-203.377	-74.001	-0.024	0.009
-202.363	800.000	0.047	0.176
-201.348	365.707	0.227	0.451
-200.333	-165.701	-0.245	-0.010
-199.319	-114.401	0.214	0.041
-198.304	-56.092	0.277	-0.122
-197.290	-123.416	0.282	0.044
-196.275	352.361	-0.110	0.216
-195.260	-103.850	-0.197	0.045
-194.246	800.000	0.085	0.287
-193.231	-3.696	0.071	-0.049
-192.217	-101.270	-0.404	-0.097
-191.202	69.404	0.196	-0.199
-190.187	114.565	0.073	-0.088
-189.173	-200.000	0.023	-0.188
-188.158	-113.443	-0.308	-0.060
-187.144	414.050	0.066	-0.139
-186.129	142.761	0.248	-0.325
-185.114	87.567	0.042	0.045
-184.100	-75.902	0.337	-0.118
-183.085	-200.000	-0.002	-0.185
-182.071	-102.327	-0.267	-0.063
-181.056	74.960	0.048	-0.050
-180.042	-46.578	0.432	-0.209
-179.027	100.983	0.113	0.130
-178.012	-25.026	0.089	-0.052
-176.998	357.509	-0.094	0.185
-175.983	-50.957	0.217	-0.101
-174.969	800.000	-0.073	0.309
-173.954	-116.837	-0.136	-0.025
-172.939	-129.283	0.313	0.043
-171.925	-200.000	0.049	-0.247
-170.910	1.474	0.147	0.105
-169.896	-96.418	-0.135	0.035
-168.881	14.358	0.241	-0.186
-167.866	-80.204	-0.097	0.032
-166.852	-200.000	0.035	-0.207
-165.837	-200.000	-0.056	-0.273
-164.823	13.427	0.124	-0.095
-163.808	-200.000	0.027	0.144
-162.793	800.000	-0.064	-0.242
-161.779	48.174	-0.319	-0.294
-160.764	490.860	0.024	-0.054
-159.750	-134.469	0.132	-0.016
-158.735	544.101	-0.077	-0.181
-157.720	-91.929	-0.360	-0.101
-156.706	47.606	0.082	0.075
-155.691	-111.250	0.180	-0.036
-154.677	-76.445	0.210	0.073
-153.662	-70.787	0.251	-0.093
-152.647	-56.020	-0.200	-0.088
-151.633	-89.920	0.100	0.029
-150.618	-200.000	-0.014	0.276
-149.604	-200.000	0.025	0.128
-148.589	26.283	-0.065	-0.054
-147.574	-75.046	0.262	-0.093
-146.560	-37.693	-0.181	-0.095
-145.545	62.188	0.038	-0.037
-144.531	-8.991	0.227	-0.150
-143.516	87.124	-0.052	-0.056
-142.502	733.054	0.030	0.079
-141.487	-80.664	0.140	-0.046
-140.472	-200.000	-0.012	-0.124
-139.458	-78.643	-0.157	0.053
-138.443	-200.000	-0.021	0.319
-137.429	800.000	0.082	0.292
-136.414	-141.551	-0.189	0.019
-135.399	-73.600	0.164	0.059
-134.385	800.000	-0.095	-0.304
-133.370	-122.852	0.257	-0.041
-132.356	80.483	0.167	0.177
-131.341	-200.000	0.026	-0.211
-130.326	168.270	-0.077	0.109
-129.312	-200.000	-0.016	0.083
-128.297	-28.068	0.209	0.119
-127.283	-159.809	-0.100	0.005
-126.268	-200.000	0.012	-0.142
-125.253	37.493	-0.035	0.031
-124.239	31.097	-0.036	-0.031
-123.224	-58.361	-0.108	-0.046
-122.210	46.240	-0.039	-0.036
