DTS Sentinel unit serial number:	SN413079Multiplexer serial number:	ORYXHardware model number:	OX4-SRSoftware version number:	ORYX F/W v4.00 Oryx Data Collector v3.7.2.0data status	okinstallation	princeton_trtdifferential loss correction	single-endedforward channel	channel 1reverse channel	N/Adate	2019/09/12time	08:44:11forward acquisition time	60.00reverse acquisition time	0.00gamma	496.2192k internal	0.2311k external	0.2311temperature offset calibration	1.0047default loss term (dB/km)	0.3790temperature slope calibration	1.0000multiplexer offset coefficient	1.0000multiplexer slope coefficient	1.0000fibre end	0.00T internal ref (°C)	33.87T ext. ref 1 (°C)	1.72T ext. ref 2 (°C)	30.41length (m)	temperature (°C)	Stokes	anti-Stokes-747.200	200.317	0.150	0.234
-746.185	79.535	0.094	0.102
-745.171	-170.629	-0.392	0.014
-744.156	158.002	0.274	0.385
-743.142	-40.112	0.208	-0.110
-742.127	118.280	0.039	0.048
-741.112	-200.000	0.019	0.103
-740.098	-200.000	-0.066	0.000
-739.083	-134.187	0.083	-0.010
-738.069	-194.525	-0.203	-0.002
-737.054	5.490	0.071	0.053
-736.039	-18.829	-0.217	-0.137
-735.025	-200.000	0.020	-0.106
-734.010	800.000	0.047	-0.188
-732.996	-87.717	-0.134	0.041
-731.981	-200.000	-0.009	-0.440
-730.966	81.055	0.259	0.283
-729.952	-183.324	0.209	0.004
-728.937	-127.716	0.134	0.020
-727.923	-90.090	0.021	0.006
-726.908	-53.433	-0.131	-0.061
-725.894	-200.000	0.017	-0.284
-724.879	298.534	0.201	-0.376
-723.864	-46.689	-0.192	-0.095
-722.850	-66.107	-0.388	-0.157
-721.835	577.162	-0.078	-0.195
-720.821	234.711	-0.135	0.226
-719.806	44.337	-0.323	-0.301
-718.791	-200.000	-0.047	-0.283
-717.777	688.833	-0.099	-0.262
-716.762	-200.000	-0.026	0.228
-715.748	-200.000	0.037	0.555
-714.733	800.000	0.064	-0.219
-713.718	-43.638	0.069	-0.035
-712.704	-148.541	-0.197	-0.016
-711.689	2.505	0.194	-0.142
-710.675	-200.000	0.005	0.043
-709.660	718.792	0.108	-0.292
-708.645	-200.000	-0.034	-0.519
-707.631	-36.965	-0.102	-0.056
-706.616	-30.159	0.040	-0.023
-705.602	268.999	-0.032	-0.057
-704.587	52.304	-0.218	-0.211
-703.572	-200.000	-0.011	-0.093
-702.558	-107.038	0.062	-0.014
-701.543	35.186	0.294	-0.261
-700.529	-171.325	-0.166	-0.006
-699.514	800.000	0.036	0.158
-698.499	247.457	0.165	-0.282
-697.485	120.153	-0.026	-0.033
-696.470	2.316	-0.209	0.154
-695.456	-200.000	-0.027	0.272
-694.441	-200.000	-0.005	0.079
-693.426	-18.116	0.286	0.181
-692.412	-87.773	-0.109	-0.033
-691.397	4.086	0.221	-0.163
-690.383	163.266	-0.198	-0.282
-689.368	-200.000	-0.002	-0.016
-688.354	800.000	0.129	-0.394
-687.339	62.466	0.030	0.030
-686.324	-110.656	0.173	0.036
-685.310	-127.250	0.138	0.020
-684.295	-29.201	-0.206	0.120
-683.281	-200.000	0.090	-0.403
-682.266	-200.000	-0.047	-0.280
-681.251	207.597	0.021	-0.033
-680.237	-123.029	-0.344	-0.056
-679.222	-41.462	0.104	-0.054
-678.208	800.000	-0.093	0.403
-677.193	207.007	-0.195	-0.308
-676.178	279.442	-0.142	-0.257
-675.164	269.524	0.099	0.176
-674.149	-3.019	0.171	0.121
-673.135	214.592	0.104	-0.167
-672.120	-95.113	0.220	-0.060
-671.105	-75.472	0.134	0.048
-670.091	685.242	-0.132	0.349
-669.076	1.515	0.173	0.126
-668.062	214.716	-0.133	0.214
-667.047	280.334	-0.080	-0.145
-666.032	-124.191	-0.392	0.062
-665.018	-200.000	0.053	0.308
-664.003	3.408	-0.089	0.066
-662.989	551.949	-0.118	0.286
-661.974	94.307	-0.136	0.156
-660.959	-200.000	0.027	-0.144
-659.945	-138.363	-0.077	0.009
-658.930	6.082	0.085	-0.064
-657.916	0.917	0.176	0.128
-656.901	-88.183	-0.258	0.078
-655.886	-67.150	-0.134	-0.053
-654.872	800.000	0.139	-0.405
-653.857	-108.937	-0.337	-0.073
-652.843	-149.009	0.199	-0.016
-651.828	800.000	0.069	0.226
-650.814	-31.467	0.062	-0.035
-649.799	-200.000	-0.030	0.290
-648.784	275.257	0.127	0.228
-647.770	-62.921	0.034	-0.014
-646.755	15.098	-0.036	-0.029
-645.741	175.615	0.137	-0.201
-644.726	800.000	0.025	0.083
-643.711	-200.000	0.018	0.208
-642.697	-104.641	0.186	0.043
-641.682	161.014	-0.053	0.074
-640.668	-143.845	0.173	0.016
-639.653	165.254	0.197	0.281
-638.638	-200.000	0.018	-0.122
-637.624	539.771	0.102	-0.245
-636.609	669.543	-0.052	-0.137
-635.595	75.050	-0.140	-0.149
-634.580	-200.000	0.004	0.206
-633.565	-77.313	0.129	-0.045
-632.551	-60.618	-0.333	0.143
-631.536	800.000	-0.071	0.300
-630.522	56.902	0.054	0.053
-629.507	177.763	-0.072	0.105
-628.492	-200.000	0.017	0.353
-627.478	-116.638	0.161	-0.030
-626.463	-43.723	0.411	-0.209
-625.449	649.715	-0.025	0.066
-624.434	-41.086	-0.081	-0.042
-623.419	0.269	-0.160	0.115
-622.405	116.884	-0.078	0.096
-621.390	34.833	0.416	0.368
-620.376	-200.000	-0.009	-0.187
-619.361	-26.750	0.066	0.039
-618.346	25.439	0.256	-0.215
-617.332	800.000	0.041	0.164
-616.317	-73.288	-0.200	0.074
-615.303	800.000	-0.116	0.378
-614.288	-101.587	0.270	0.066
-613.273	19.780	0.171	0.139
-612.259	9.933	-0.128	0.098
-611.244	29.476	0.167	0.143
-610.230	219.496	0.070	-0.113
-609.215	-154.359	0.015	-0.001
-608.201	-94.859	0.246	-0.067
-607.186	406.892	-0.120	-0.256
-606.171	478.885	0.045	0.103
-605.157	-200.000	-0.018	-0.194
-604.142	800.000	-0.049	-0.181
-603.128	610.721	0.067	-0.168
-602.113	-28.160	-0.219	0.128
-601.098	70.605	0.231	0.241
-600.084	-0.824	0.121	-0.086
-599.069	89.036	0.034	-0.038
-598.055	-80.094	0.200	0.068
-597.040	-200.000	-0.015	-0.390
-596.025	53.873	0.101	-0.098
-595.011	-140.208	0.036	0.004
-593.996	-200.000	0.057	-0.303
-592.982	-23.963	-0.049	0.030
-591.967	590.535	0.067	-0.166
-590.952	145.890	-0.173	0.234
-589.938	-129.866	0.316	0.044
-588.923	338.496	-0.148	0.291
-587.909	-55.560	0.243	0.110
-586.894	44.895	-0.029	0.027
-585.879	800.000	0.078	-0.267
-584.865	-72.524	-0.103	0.038
-583.850	-200.000	0.030	0.260
-582.836	62.051	-0.160	-0.161
-581.821	60.341	0.203	0.203
-580.806	-104.995	0.105	0.024
-579.792	-116.256	-0.277	0.052
-578.777	119.684	-0.092	-0.115
-577.763	-109.734	-0.183	-0.039
-576.748	-200.000	-0.001	-0.010
-575.733	-102.159	-0.313	-0.076
-574.719	296.713	0.124	-0.229
-573.704	384.904	0.164	-0.341
-572.690	280.441	-0.049	0.088
-571.675	800.000	-0.057	0.171
-570.661	-91.212	-0.403	0.116
-569.646	174.376	0.208	0.303
-568.631	-125.012	0.220	-0.034
-567.617	489.672	0.043	-0.100
-566.602	157.974	-0.105	-0.147
-565.588	800.000	0.077	0.241
-564.573	-200.000	0.036	-0.187
-563.558	800.000	0.068	-0.289
-562.544	141.496	-0.110	-0.147
-561.529	800.000	0.120	-0.334
-560.515	800.000	-0.081	0.233
-559.500	-32.572	-0.230	-0.129
-558.485	-63.204	-0.373	0.155
-557.471	106.314	-0.013	0.016
-556.456	-200.000	-0.034	0.208
-555.442	-13.266	-0.284	-0.186
-554.427	800.000	-0.075	0.254
-553.412	-147.177	-0.081	-0.007
-552.398	-50.228	-0.253	-0.121
-551.383	26.935	-0.111	-0.094
-550.369	800.000	0.105	0.381
-549.354	-72.906	0.205	-0.076
-548.339	-116.865	0.129	0.024
-547.325	800.000	0.099	0.347
-546.310	193.446	0.050	-0.076
-545.296	-111.679	-0.185	0.038
-544.281	800.000	0.055	-0.165
-543.266	800.000	-0.073	0.318
-542.252	211.337	-0.101	-0.161
-541.237	717.146	0.016	0.042
-540.223	-200.000	0.007	0.127
-539.208	85.131	0.193	-0.213
-538.193	800.000	0.011	0.034
-537.179	186.618	-0.033	0.050
-536.164	-158.423	0.234	0.014
-535.150	68.237	0.050	-0.051
-534.135	361.978	-0.108	-0.219
-533.121	800.000	-0.083	-0.328
-532.106	2.363	0.139	-0.101
-531.091	800.000	-0.110	-0.335
-530.077	75.794	0.267	-0.284
-529.062	-40.095	0.274	-0.144
-528.048	-200.000	0.006	-0.046
-527.033	800.000	-0.040	0.173
-526.018	-172.175	-0.046	-0.001
-525.004	49.174	-0.097	0.092
-523.989	-200.000	-0.075	0.332
-522.975	800.000	-0.053	0.179
-521.960	275.374	0.025	0.045
-520.945	459.438	0.030	0.068
-519.931	298.083	0.074	0.137
-518.916	751.789	-0.078	0.211
-517.902	10.217	-0.198	0.151
-516.887	57.309	-0.078	0.077
-515.872	-200.000	0.070	0.326
-514.858	32.383	0.331	0.288
-513.843	21.966	0.164	-0.134
-512.829	-200.000	-0.019	0.103
-511.814	-3.089	-0.053	-0.037
-510.799	-126.497	-0.296	-0.044
-509.785	10.419	0.092	0.071
-508.770	-200.000	0.031	0.265
-507.756	-200.000	0.033	-0.332
-506.741	421.715	-0.068	-0.147
-505.726	-91.422	0.187	-0.054
-504.712	171.596	-0.069	0.100
-503.697	-200.000	-0.011	-0.070
-502.683	-52.867	0.198	-0.092
-501.668	800.000	-0.021	-0.090
-500.653	53.467	-0.114	-0.110
-499.639	-113.048	0.079	-0.016
-498.624	19.036	0.172	0.139
-497.610	-79.797	0.129	-0.044
-496.595	-47.955	-0.122	-0.059
-495.581	-73.485	0.383	-0.141
-494.566	-157.099	-0.255	0.016
-493.551	-60.671	-0.299	0.127
-492.537	92.702	-0.081	-0.092
-491.522	287.160	-0.112	-0.204
-490.508	204.707	0.093	0.145
-489.493	-103.335	-0.083	0.020
-488.478	126.407	0.087	-0.111
-487.464	-69.464	0.312	-0.120
-486.449	800.000	0.043	-0.187
-485.435	147.474	0.049	-0.067
-484.420	224.441	-0.186	0.303
-483.405	31.860	-0.204	-0.176
-482.391	800.000	-0.113	-0.377
-481.376	353.840	0.068	0.135
-480.362	-200.000	0.036	0.210
-479.347	-82.735	-0.413	-0.134
-478.332	-37.296	0.136	-0.073
-477.318	-58.923	-0.167	-0.072
-476.303	-190.224	-0.281	0.003
-475.289	-55.576	0.211	0.095
-474.274	-200.000	-0.042	-0.360
-473.259	-28.214	-0.278	0.161
-472.245	-58.103	0.103	-0.045
-471.230	-131.322	-0.029	-0.004
-470.216	424.822	-0.116	-0.251
-469.201	-130.876	-0.364	-0.049
-468.186	-59.927	0.178	0.076
-467.172	123.339	0.029	-0.037
-466.157	-83.510	-0.093	0.030
-465.143	222.022	0.089	0.143
-464.128	-200.000	0.023	0.224
-463.113	47.828	-0.152	-0.142
-462.099	-42.567	-0.135	-0.069
-461.084	-86.381	0.093	0.029
-460.070	154.294	-0.121	0.167
-459.055	-37.081	0.433	0.233
-458.040	-61.442	0.138	-0.058
-457.026	-157.151	0.132	-0.008
-456.011	581.771	-0.027	-0.066
-454.997	102.833	0.082	-0.097
-453.982	800.000	0.090	-0.292
-452.968	-37.529	0.249	-0.133
-451.953	541.024	-0.145	-0.347
-450.938	-165.315	0.094	0.004
-449.924	159.276	0.129	-0.179
-448.909	364.761	0.164	0.331
-447.895	-71.820	-0.250	0.093
-446.880	800.000	-0.050	-0.211
-445.865	-136.990	-0.323	0.037
-444.851	-200.000	-0.006	-0.064
-443.836	-57.563	0.209	0.092
-442.822	6.032	0.161	0.120
-441.807	203.439	-0.229	-0.356
-440.792	-72.944	-0.166	-0.061
-439.778	111.312	-0.113	0.137
-438.763	800.000	-0.076	-0.267
-437.749	-105.824	0.239	0.054
-436.734	453.437	-0.039	0.086
-435.719	-200.000	-0.058	-0.326
-434.705	12.703	-0.180	-0.140
-433.690	-60.474	-0.223	0.095
-432.676	-116.941	0.152	0.028
-431.661	12.048	-0.259	-0.199
-430.646	34.913	0.169	-0.148
-429.632	190.589	-0.074	-0.112
-428.617	800.000	0.067	-0.191
-427.603	-52.278	-0.309	0.144
-426.588	-189.449	-0.164	0.002
-425.573	-130.537	0.180	-0.024
-424.559	18.869	0.148	-0.119
-423.544	467.371	-0.040	0.089
-422.530	-200.000	-0.020	0.297
-421.515	-1.671	-0.075	0.053
-420.500	69.122	-0.221	-0.227
-419.486	280.014	0.160	-0.287
-418.471	-200.000	-0.003	-0.032
-417.457	-200.000	-0.008	0.292
-416.442	28.977	0.049	0.041
-415.428	-46.851	0.034	-0.016
-414.413	-200.000	-0.022	0.268
-413.398	-98.400	-0.352	-0.090
-412.384	62.069	-0.141	-0.141
-411.369	400.695	0.064	0.134
-410.355	-26.875	-0.148	0.087
-409.340	-113.737	-0.251	-0.049
-408.325	800.000	-0.064	0.219
-407.311	-31.582	-0.162	-0.091
-406.296	-200.000	0.032	-0.164
-405.282	1.204	-0.324	0.233
-404.267	800.000	-0.015	-0.060
-403.252	-80.232	0.204	-0.068
-402.238	-56.421	-0.211	-0.094
-401.223	112.763	0.201	0.244
-400.209	-81.449	-0.124	0.041
-399.194	800.000	0.078	-0.223
-398.179	800.000	-0.038	-0.128
-397.165	-133.339	0.198	0.025
-396.150	-200.000	0.028	-0.217
-395.136	-200.000	-0.034	0.279
-394.121	800.000	0.130	0.429
-393.106	115.293	0.082	0.101
-392.092	179.148	-0.167	0.244
-391.077	341.639	0.056	-0.109
-390.063	69.684	0.052	-0.053
-389.048	-200.000	0.008	-0.041
-388.033	800.000	0.036	-0.143
-387.019	11.558	-0.157	0.121
-386.004	-146.342	0.120	-0.011
-384.990	243.475	-0.140	-0.235
-383.975	203.219	-0.163	-0.253
-382.960	253.341	-0.098	-0.167
-381.946	143.085	-0.055	-0.074
-380.931	-200.000	-0.008	-0.135
-379.917	-63.251	0.177	0.073
-378.902	115.923	0.233	0.286
-377.888	-63.251	-0.465	-0.192
-376.873	366.854	-0.102	0.206
-375.858	1.951	0.163	0.118
-374.844	-200.000	-0.068	0.430
-373.829	800.000	-0.036	-0.107
-372.815	146.665	0.215	0.289
-371.800	18.795	0.246	0.197
-370.785	-134.894	-0.237	-0.029
-369.771	-200.000	-0.000	-0.103
-368.756	-158.149	0.183	-0.011
-367.742	800.000	0.049	-0.170
-366.727	-29.572	-0.116	0.066
-365.712	24.463	0.173	-0.143
-364.698	-200.000	-0.039	-0.276
-363.683	-200.000	-0.001	0.120
-362.669	800.000	-0.061	-0.178
-361.654	-127.355	-0.294	0.043
-360.639	4.789	-0.334	0.245
-359.625	-200.000	-0.014	-0.076
-358.610	-91.965	0.205	-0.058
-357.596	120.340	-0.055	0.068
-356.581	-101.610	0.270	-0.066
-355.566	20.788	-0.119	0.096
-354.552	-200.000	0.014	-0.143
-353.537	-200.000	0.004	-0.041
-352.523	160.164	0.296	-0.413
-351.508	59.190	0.019	-0.019
-350.493	640.366	-0.061	-0.154
-349.479	-200.000	0.001	-0.223
-348.464	-200.000	-0.003	0.041
-347.450	68.453	0.035	0.036
-346.435	-200.000	0.013	0.402
-345.420	15.673	0.314	-0.246
-344.406	1.085	0.093	0.067
-343.391	-200.000	0.032	0.388
-342.377	-131.818	-0.170	-0.022
-341.362	388.763	-0.175	0.362
-340.348	-49.778	-0.255	0.121
-339.333	127.353	-0.274	-0.347
-338.318	-35.422	-0.311	0.169
-337.304	-148.466	0.381	0.031
-336.289	417.234	-0.108	-0.231
-335.275	42.378	0.034	-0.031
-334.260	-100.462	-0.210	-0.052
-333.245	172.595	-0.166	0.238
-332.231	-200.000	-0.002	0.122
-331.216	-114.032	0.132	-0.026
-330.202	-40.124	-0.327	-0.170
-329.187	-200.000	0.014	-0.152
-328.172	-2.501	-0.207	-0.145
-327.158	17.125	0.269	-0.213
-326.143	-200.000	0.038	-0.213
-325.129	-11.810	-0.325	0.213
-324.114	82.166	0.125	0.135
-323.099	43.658	-0.168	-0.154
-322.085	124.528	0.089	0.112
-321.070	-75.064	-0.442	0.158
-320.056	98.191	0.155	0.178
-319.041	-150.750	-0.012	-0.001
-318.026	-84.591	0.212	-0.067
-317.012	227.756	-0.006	-0.010
-315.997	316.263	-0.161	0.303
-314.983	-200.000	-0.042	0.193
-313.968	-200.000	0.050	-0.347
-312.953	-76.012	-0.088	0.031
-311.939	253.142	0.116	-0.198
-310.924	-200.000	0.049	0.498
-309.910	-27.360	-0.248	-0.144
-308.895	60.841	-0.070	-0.069
-307.880	-90.537	0.279	0.080
-306.866	-200.000	-0.009	-0.101
-305.851	-200.000	0.009	-0.119
-304.837	800.000	0.020	0.079
-303.822	-119.833	-0.317	-0.054
-302.807	322.243	-0.205	-0.390
-301.793	-2.332	0.250	0.175
-300.778	-173.045	0.203	-0.006
-299.764	-200.000	0.046	-0.337
-298.749	193.027	-0.200	-0.301
-297.735	18.738	-0.223	0.178
-296.720	58.182	-0.244	0.238
-295.705	-97.962	0.155	0.040
-294.691	160.621	0.099	-0.138
-293.676	91.162	0.094	-0.105
-292.662	-75.907	0.354	-0.125
-291.647	729.887	-0.136	0.363
-290.632	-7.123	0.337	0.228
-289.618	-27.239	0.330	0.192
-288.603	110.527	0.020	0.024
-287.589	86.268	0.142	0.156
-286.574	72.967	0.245	0.256
-285.559	800.000	0.038	0.137
-284.545	800.000	0.042	-0.116
-283.530	-50.736	-0.092	-0.043
-282.516	-124.629	-0.030	-0.005
-281.501	-100.813	0.349	0.086
-280.486	-46.852	-0.070	-0.034
-279.472	-67.788	0.096	-0.037
-278.457	141.947	-0.077	-0.101
-277.443	11.287	0.086	0.065
-276.428	233.124	0.164	-0.268
-275.413	-152.883	0.210	0.015
-274.399	-200.000	-0.049	-0.274
-273.384	-200.000	-0.041	-0.335
-272.370	800.000	0.030	0.094
-271.355	54.083	0.088	-0.084
-270.340	-137.958	-0.168	-0.019
-269.326	196.192	0.064	-0.097
-268.311	346.994	-0.118	-0.231
-267.297	-112.053	0.133	-0.027
-266.282	185.398	0.147	-0.218
-265.267	159.912	0.093	-0.129
-264.253	155.390	0.192	-0.263
-263.238	-151.228	-0.072	0.005
-262.224	800.000	0.064	0.194
-261.209	-200.000	0.005	0.069
-260.195	800.000	-0.039	0.154
-259.180	401.886	-0.047	0.098
-258.165	-65.281	-0.145	0.058
-257.151	-200.000	-0.050	0.302
-256.136	-106.030	0.359	-0.080
-255.122	-78.435	0.135	-0.046
-254.107	-153.874	0.238	0.016
-253.092	-108.731	-0.077	0.016
-252.078	-138.055	-0.449	-0.050
-251.063	237.073	0.049	-0.080
-250.049	-130.428	0.091	-0.012
-249.034	37.749	0.226	-0.200
-248.019	800.000	0.047	0.169
-247.005	40.414	-0.086	0.077
-245.990	52.322	-0.232	-0.220
-244.976	153.660	0.102	0.139
-243.961	800.000	-0.060	-0.221
-242.946	145.489	0.200	-0.267
-241.932	-200.000	0.017	0.242
-240.917	-11.380	-0.239	-0.156
-239.903	800.000	-0.042	-0.178
-238.888	381.292	-0.094	0.192
-237.873	-141.220	-0.272	-0.028
-236.859	55.543	0.161	-0.155
-235.844	-8.830	0.197	0.132
-234.830	581.939	0.158	0.386
-233.815	-30.779	0.278	0.156
-232.800	-200.000	0.000	0.142
-231.786	-6.053	-0.064	-0.044
-230.771	-147.528	0.103	0.009
-229.757	237.163	-0.076	0.125
-228.742	51.509	0.118	-0.112
-227.727	800.000	-0.119	0.403
-226.713	-167.737	0.234	0.009
-225.698	-200.000	-0.040	0.192
-224.684	-144.507	-0.224	0.021
-223.669	112.768	0.145	-0.175
-222.655	43.286	0.126	0.114
-221.640	-41.918	-0.069	0.035
-220.625	-10.646	-0.374	0.246
-219.611	-200.000	-0.005	-0.039
-218.596	62.166	0.160	0.159
-217.582	-200.000	-0.008	0.232
-216.567	600.275	-0.083	0.204
-215.552	630.514	0.069	-0.174
-214.538	94.519	0.210	-0.237
-213.523	117.593	0.074	-0.091
-212.509	82.133	-0.024	-0.026
-211.494	92.796	0.261	-0.292
-210.479	639.543	0.118	0.298
-209.465	-96.448	-0.156	-0.041
-208.450	-200.000	0.015	-0.167
-207.436	-64.362	-0.221	0.089
-206.421	-16.167	-0.127	0.080
-205.406	98.723	0.447	0.513
-204.392	190.213	-0.108	-0.161
-203.377	800.000	0.059	-0.211
-202.363	-200.000	-0.072	0.489
-201.348	800.000	-0.018	-0.073
-200.333	-200.000	-0.038	0.248
-199.319	-200.000	0.058	0.436
-198.304	800.000	0.042	0.149
-197.290	-167.626	-0.173	0.007
-196.275	269.271	-0.146	0.255
-195.260	-154.436	-0.288	-0.019
-194.246	-6.934	0.285	0.192
-193.231	-108.970	-0.156	-0.033
-192.217	154.139	0.048	-0.066
-191.202	466.521	-0.040	-0.090
-190.187	-121.316	-0.200	0.033
-189.173	281.362	-0.196	0.348
-188.158	100.847	0.077	0.089
-187.144	167.583	-0.229	-0.323
-186.129	180.183	0.068	0.099
-185.114	-63.321	0.219	0.090
-184.100	800.000	0.073	0.222
-183.085	-32.318	-0.175	0.097
-182.071	385.745	0.228	-0.466
-181.056	-138.327	0.319	0.035
-180.042	-54.246	0.113	-0.051
-179.027	315.153	-0.126	-0.235
-178.012	-61.400	-0.488	-0.204
-176.998	-82.635	0.221	0.071
-175.983	298.977	-0.026	-0.047
-174.969	-200.000	-0.057	0.256
-173.954	-186.515	-0.368	-0.005
-172.939	300.101	0.177	-0.323
-171.925	800.000	0.008	-0.031
-170.910	83.802	0.136	0.147
-169.896	-115.109	-0.123	0.023
-168.881	7.774	0.192	-0.142
-167.866	-200.000	0.018	-0.141
-166.852	-179.798	-0.174	-0.004
-165.837	800.000	0.035	0.135
-164.823	631.876	-0.096	-0.241
-163.808	241.306	0.130	-0.215
-162.793	-22.787	-0.238	-0.142
-161.779	-30.886	-0.380	-0.213
-160.764	101.212	-0.097	-0.112
-159.750	129.474	0.123	-0.156
-158.735	7.442	0.154	-0.114
-157.720	800.000	-0.044	-0.135
-156.706	-12.113	0.168	0.109
-155.691	-200.000	0.035	0.237
-154.677	-19.988	-0.033	-0.020
-153.662	730.572	0.080	-0.213
-152.647	102.372	0.037	0.043
-151.633	-200.000	0.035	-0.154
-150.618	-95.886	-0.348	-0.092
-149.604	-0.519	0.057	-0.040
-148.589	-87.772	0.141	-0.042
-147.574	-28.338	-0.110	0.063
-146.560	-83.416	-0.153	0.049
-145.545	-0.130	0.085	0.060
-144.531	-200.000	0.051	-0.227
-143.516	37.026	0.289	0.253
-142.502	-66.477	-0.186	-0.073
-141.487	-115.273	-0.141	0.026
-140.472	800.000	-0.017	0.056
-139.458	-200.000	-0.001	0.227
-138.443	-7.722	-0.128	0.086
-137.429	-177.354	0.115	0.003
-136.414	-10.773	-0.218	0.143
-135.399	192.814	-0.035	0.053
-134.385	13.096	-0.219	-0.168
-133.370	96.242	-0.133	-0.151
-132.356	-200.000	0.027	0.156
-131.341	-93.745	0.354	-0.097
-130.326	-34.522	-0.193	-0.105
-129.312	-60.470	0.322	0.135
-128.297	-92.384	-0.088	0.025
-127.283	-42.873	-0.171	0.086
-126.268	785.242	0.006	-0.017
-125.253	-200.000	-0.018	0.086
-124.239	-200.000	0.076	0.492
-123.224	13.235	0.194	-0.149
-122.210	-37.314	0.210	-0.111
-121.195	-75.938	-0.243	-0.085
