DTS Sentinel unit serial number:	SN413079Multiplexer serial number:	ORYXHardware model number:	OX4-SRSoftware version number:	ORYX F/W v4.00 Oryx Data Collector v3.7.2.0data status	okinstallation	princeton_trtdifferential loss correction	single-endedforward channel	channel 1reverse channel	N/Adate	2019/09/11time	14:16:11forward acquisition time	60.00reverse acquisition time	0.00gamma	496.2192k internal	0.2293k external	0.2293temperature offset calibration	0.9986default loss term (dB/km)	0.3790temperature slope calibration	1.0000multiplexer offset coefficient	1.0000multiplexer slope coefficient	1.0000fibre end	0.00T internal ref (°C)	41.94T ext. ref 1 (°C)	0.87T ext. ref 2 (°C)	38.09length (m)	temperature (°C)	Stokes	anti-Stokes-747.200	-102.184	0.154	0.038
-746.185	119.294	0.122	0.155
-745.171	8.850	0.216	0.166
-744.156	-200.000	0.013	0.243
-743.142	-135.243	0.283	0.035
-742.127	73.718	0.314	0.337
-741.112	297.911	-0.070	0.132
-740.098	111.685	0.266	0.328
-739.083	-38.091	0.207	0.112
-738.069	-200.000	0.016	0.270
-737.054	-200.000	0.101	0.000
-736.039	167.413	-0.101	-0.147
-735.025	-57.791	0.430	0.192
-734.010	-65.596	-0.305	-0.125
-732.996	800.000	-0.092	0.337
-731.981	545.098	-0.107	0.261
-730.966	59.304	-0.038	-0.038
-729.952	-113.694	-0.089	0.018
-728.937	-109.411	-0.320	-0.069
-727.923	-16.593	-0.325	-0.211
-726.908	2.476	0.118	-0.088
-725.894	-200.000	0.007	-0.037
-724.879	800.000	0.051	0.174
-723.864	88.523	-0.105	0.119
-722.850	-200.000	0.018	-0.318
-721.835	370.223	-0.051	0.105
-720.821	800.000	-0.013	-0.056
-719.806	716.030	0.050	0.135
-718.791	-200.000	0.006	0.129
-717.777	381.300	-0.138	0.289
-716.762	-153.369	-0.199	-0.014
-715.748	-122.954	0.193	-0.032
-714.733	170.367	0.092	0.135
-713.718	-30.644	-0.099	0.057
-712.704	800.000	-0.067	0.197
-711.689	-11.152	-0.198	0.133
-710.675	-42.878	0.376	-0.195
-709.660	-54.375	-0.231	-0.107
-708.645	33.082	0.134	-0.119
-707.631	122.947	-0.134	0.171
-706.616	-200.000	-0.001	0.140
-705.602	800.000	0.019	-0.061
-704.587	-200.000	-0.017	0.178
-703.572	800.000	-0.086	-0.272
-702.558	-12.279	0.190	-0.127
-701.543	704.833	-0.039	-0.104
-700.529	-24.901	-0.191	-0.116
-699.514	59.381	0.205	0.207
-698.499	-106.023	-0.469	-0.108
-697.485	-127.822	-0.217	0.032
-696.470	-124.865	-0.406	0.064
-695.456	76.805	-0.126	0.137
-694.441	-121.650	-0.336	-0.057
-693.426	-159.674	0.147	-0.008
-692.412	-200.000	-0.371	0.001
-691.397	800.000	-0.091	-0.273
-690.383	240.642	0.137	-0.233
-689.368	16.463	0.210	0.170
-688.354	-82.116	0.356	0.119
-687.339	-157.269	-0.154	-0.009
-686.324	-74.597	0.390	0.143
-685.310	-64.088	-0.128	-0.053
-684.295	-154.386	-0.075	0.005
-683.281	-200.000	-0.023	0.118
-682.266	173.916	0.032	0.047
-681.251	-199.711	0.401	0.002
-680.237	-156.026	0.194	0.013
-679.222	-19.106	0.234	-0.148
-678.208	-149.659	-0.339	-0.027
-677.193	-200.000	-0.008	0.206
-676.178	-36.854	0.214	-0.117
-675.164	-200.000	-0.002	0.257
-674.149	800.000	-0.052	-0.171
-673.135	91.938	0.107	-0.123
-672.120	64.871	0.139	0.143
-671.105	-40.316	-0.059	0.031
-670.091	42.380	-0.199	0.184
-669.076	-50.047	-0.265	-0.128
-668.062	-200.000	0.006	0.075
-667.047	-101.993	0.038	0.009
-666.032	-200.000	0.052	0.370
-665.018	183.566	0.172	0.259
-664.003	800.000	-0.082	0.250
-662.989	800.000	0.139	0.438
-661.974	-151.345	0.116	-0.009
-660.959	800.000	-0.006	-0.024
-659.945	-65.450	-0.226	0.093
-658.930	800.000	0.069	0.306
-657.916	-121.064	-0.337	-0.058
-656.901	-34.103	-0.126	-0.071
-655.886	-200.000	0.051	0.247
-654.872	-186.111	0.089	-0.001
-653.857	432.059	-0.042	0.093
-652.843	78.401	-0.129	0.140
-651.828	663.627	-0.057	0.149
-650.814	299.363	-0.083	-0.157
-649.799	-200.000	-0.024	0.158
-648.784	800.000	0.016	-0.061
-647.770	32.774	-0.183	-0.161
-646.755	-200.000	0.065	-0.407
-645.741	133.442	0.076	-0.100
-644.726	800.000	-0.060	-0.217
-643.711	-133.627	-0.305	0.039
-642.697	-200.000	-0.014	0.367
-641.682	-200.000	0.017	0.157
-640.668	179.099	0.177	-0.264
-639.653	626.673	0.142	-0.365
-638.638	-123.465	0.071	0.012
-637.624	-200.000	-0.061	0.335
-636.609	46.071	0.116	0.109
-635.595	83.924	0.290	0.322
-634.580	-82.194	0.269	0.089
-633.565	9.663	-0.253	0.196
-632.551	204.194	0.185	-0.292
-631.536	-200.000	-0.010	-0.455
-630.522	800.000	0.013	-0.042
-629.507	-84.679	0.165	0.053
-628.492	4.132	-0.184	0.137
-627.478	-23.052	-0.228	0.140
-626.463	-36.207	0.213	-0.117
-625.449	146.704	-0.295	-0.404
-624.434	161.553	-0.061	0.087
-623.419	-200.000	0.012	-0.124
-622.405	304.596	0.044	0.083
-621.390	800.000	-0.044	-0.148
-620.376	160.947	0.190	-0.271
-619.361	370.017	-0.072	-0.148
-618.346	-200.000	0.061	0.360
-617.332	41.696	0.215	-0.198
-616.317	126.830	-0.046	0.060
-615.303	-36.196	0.087	0.048
-614.288	-61.371	-0.017	0.007
-613.273	103.030	0.072	0.086
-612.259	42.914	-0.076	0.070
-611.244	7.780	0.087	-0.066
-610.230	24.889	-0.248	-0.209
-609.215	-22.110	0.329	-0.203
-608.201	-200.000	0.019	0.104
-607.186	-200.000	-0.001	-0.111
-606.171	-85.357	-0.093	0.029
-605.157	-200.000	-0.001	0.125
-604.142	-126.601	-0.217	0.033
-603.128	-200.000	0.155	0.001
-602.113	555.082	-0.102	0.250
-601.098	-162.124	-0.127	0.006
-600.084	800.000	-0.064	0.214
-599.069	-40.830	0.143	-0.075
-598.055	-200.000	0.013	-0.077
-597.040	-109.910	0.285	0.061
-596.025	302.006	-0.118	-0.222
-595.011	-94.424	0.214	0.059
-593.996	800.000	0.075	0.316
-592.982	-200.000	-0.092	0.458
-591.967	-200.000	0.014	-0.324
-590.952	-162.199	0.048	-0.002
-589.938	-200.000	-0.004	0.233
-588.923	412.484	0.107	-0.232
-587.909	-200.000	-0.101	0.481
-586.894	-47.799	0.116	0.057
-585.879	658.904	0.054	-0.140
-584.865	31.376	-0.235	-0.205
-583.850	390.224	-0.054	-0.113
-582.836	416.396	0.167	-0.362
-581.821	-1.896	0.072	-0.051
-580.806	45.029	-0.293	-0.274
-579.792	800.000	0.008	-0.028
-578.777	-10.891	-0.138	0.093
-577.763	3.976	0.103	-0.077
-576.748	223.412	0.125	-0.205
-575.733	-51.787	0.196	-0.093
-574.719	800.000	-0.066	-0.211
-573.704	-200.000	0.003	-0.302
-572.690	195.777	-0.053	0.082
-571.675	-108.982	-0.239	-0.052
-570.661	95.044	0.185	-0.214
-569.646	-16.016	0.187	-0.121
-568.631	-200.000	-0.037	-0.180
-567.617	230.542	0.127	0.211
-566.602	492.554	-0.080	0.185
-565.588	-57.534	-0.379	-0.169
-564.573	-8.932	-0.236	0.160
-563.558	-162.923	-0.457	-0.023
-562.544	-200.000	0.002	-0.036
-561.529	800.000	0.085	-0.280
-560.515	-200.000	-0.015	-0.074
-559.500	-200.000	0.056	0.369
-558.485	-169.609	0.191	0.007
-557.471	-133.874	-0.209	-0.026
-556.456	47.303	-0.223	0.211
-555.442	82.175	0.145	0.160
-554.427	578.030	0.090	0.224
-553.412	-58.229	-0.119	0.053
-552.398	-64.696	-0.153	-0.063
-551.383	-200.000	0.007	-0.143
-550.369	-200.000	0.016	-0.089
-549.354	800.000	0.027	0.089
-548.339	-84.041	0.165	0.053
-547.325	-111.806	0.298	0.061
-546.310	-128.168	-0.504	0.073
-545.296	800.000	0.042	-0.134
-544.281	162.487	-0.068	0.097
-543.266	-200.000	0.019	0.191
-542.252	-39.955	-0.086	0.046
-541.237	-56.401	0.139	-0.063
-540.223	-134.301	-0.326	-0.041
-539.208	2.494	0.209	0.154
-538.193	-167.957	0.166	0.007
-537.179	800.000	-0.079	0.288
-536.164	243.262	-0.102	-0.174
-535.150	-32.686	-0.207	0.117
-534.135	-53.774	0.279	-0.129
-533.121	-114.410	-0.259	-0.051
-532.106	39.234	-0.278	-0.253
-531.091	231.596	0.143	-0.237
-530.077	-200.000	0.019	-0.276
-529.062	-135.256	0.220	-0.027
-528.048	-40.530	-0.133	0.070
-527.033	699.217	0.161	-0.429
-526.018	-200.000	-0.036	0.159
-525.004	42.259	-0.184	0.169
-523.989	-116.431	-0.103	-0.019
-522.975	376.770	-0.161	0.333
-521.960	-164.683	0.365	0.017
-520.945	-128.489	0.210	-0.030
-519.931	-7.976	0.336	-0.230
-518.916	-151.539	0.255	0.019
-517.902	-87.282	0.123	-0.038
-516.887	214.086	-0.099	0.160
-515.872	800.000	-0.096	0.351
-514.858	-72.828	0.234	-0.087
-513.843	-32.265	0.220	-0.124
-512.829	36.045	-0.368	0.328
-511.814	-200.000	-0.034	0.298
-510.799	-64.632	-0.142	-0.058
-509.785	-47.624	-0.088	0.043
-508.770	-7.427	-0.133	-0.091
-507.756	-111.797	-0.304	0.062
-506.741	800.000	0.044	-0.171
-505.726	80.202	-0.205	0.223
-504.712	199.363	0.107	0.166
-503.697	-200.000	0.015	-0.118
-502.683	26.361	0.270	0.229
-501.668	-49.478	-0.221	0.107
-500.653	-63.323	0.257	-0.107
-499.639	86.515	0.068	0.076
-498.624	3.814	-0.035	0.026
-497.610	800.000	0.086	-0.269
-496.595	244.084	0.203	-0.346
-495.581	110.905	0.097	0.118
-494.566	-185.012	-0.019	0.000
-493.551	712.166	0.034	0.090
-492.537	-200.000	-0.018	0.287
-491.522	800.000	0.129	-0.457
-490.508	355.334	-0.089	0.179
-489.493	342.992	0.106	-0.210
-488.478	-137.813	0.330	0.037
-487.464	-200.000	-0.014	-0.120
-486.449	-107.177	0.099	-0.022
-485.435	19.538	0.147	-0.120
-484.420	-185.092	-0.375	0.006
-483.405	-78.881	-0.225	0.078
-482.391	-151.457	-0.217	-0.016
-481.376	63.825	-0.083	-0.084
-480.362	236.443	-0.181	-0.303
-479.347	-200.000	0.064	0.453
-478.332	-200.000	-0.398	-0.000
-477.318	-54.357	0.094	-0.043
-476.303	-45.670	0.240	-0.120
-475.289	800.000	0.080	-0.349
-474.274	7.694	-0.267	0.202
-473.259	40.660	0.170	0.155
-472.245	-134.456	-0.265	-0.033
-471.230	26.155	0.124	0.104
-470.216	-58.399	0.123	-0.054
-469.201	-200.000	0.008	-0.062
-468.186	-13.504	0.021	-0.014
-467.172	12.326	-0.210	0.164
-466.157	19.723	0.136	-0.111
-465.143	48.344	0.079	-0.075
-464.128	-76.171	0.381	0.136
-463.113	-88.153	0.434	-0.132
-462.099	-108.851	0.384	-0.083
-461.084	-140.327	-0.333	0.035
-460.070	-200.000	0.012	0.196
-459.055	297.342	-0.076	-0.141
-458.040	-47.557	-0.379	0.186
-457.026	-53.400	-0.147	0.068
-456.011	800.000	-0.118	-0.363
-454.997	-61.605	-0.443	-0.188
-453.982	800.000	0.052	0.152
-452.968	89.271	0.190	0.214
-451.953	-50.187	-0.495	0.237
-450.938	330.502	-0.088	-0.171
-449.924	-104.484	-0.075	0.018
-448.909	-87.179	-0.176	0.054
-447.895	-60.192	-0.229	0.099
-446.880	800.000	0.043	0.120
-445.865	-200.000	-0.023	-0.114
-444.851	-52.391	-0.085	-0.040
-443.836	102.736	0.065	-0.077
-442.822	800.000	-0.057	-0.164
-441.807	64.053	-0.106	0.107
-440.792	-39.907	-0.268	0.142
-439.778	205.553	-0.158	0.248
-438.763	356.193	0.103	-0.207
-437.749	800.000	0.028	-0.116
-436.734	40.836	0.238	-0.217
-435.719	-148.039	-0.117	-0.010
-434.705	-200.000	-0.063	0.319
-433.690	-61.935	0.217	0.092
-432.676	76.172	0.176	-0.188
-431.661	-93.137	-0.235	-0.066
-430.646	28.203	0.146	0.124
-429.632	534.286	0.123	-0.294
-428.617	-200.000	-0.020	0.176
-427.603	-55.345	-0.110	0.050
-426.588	-200.000	-0.023	-0.306
-425.573	-14.994	0.067	-0.043
-424.559	-111.471	-0.262	-0.054
-423.544	70.439	0.069	-0.072
-422.530	-98.720	0.124	0.032
-421.515	-119.711	-0.084	0.015
-420.500	383.994	-0.110	0.228
-419.486	-70.594	-0.157	0.060
-418.471	-200.000	-0.037	-0.204
-417.457	-200.000	-0.009	-0.154
-416.442	-64.063	0.024	-0.010
-415.428	-137.487	-0.150	0.017
-414.413	800.000	0.044	0.135
-413.398	-102.906	-0.243	0.058
-412.384	-97.111	0.147	0.039
-411.369	-89.787	-0.178	0.053
-410.355	160.680	0.098	-0.139
-409.340	-120.012	-0.112	-0.019
-408.325	-85.809	-0.352	-0.110
-407.311	430.128	0.078	0.171
-406.296	250.851	-0.115	-0.197
-405.282	272.192	0.060	0.107
-404.267	-167.325	-0.363	-0.015
-403.252	-38.219	0.242	0.130
-402.238	-50.775	0.030	0.014
-401.223	-121.990	0.315	-0.052
-400.209	-23.399	-0.142	-0.086
-399.194	800.000	0.031	-0.123
-398.179	-200.000	0.026	0.303
-397.165	10.603	-0.241	-0.186
-396.150	214.363	-0.095	0.151
-395.136	267.399	-0.037	-0.065
-394.121	-200.000	-0.015	-0.338
-393.106	-200.000	-0.031	0.202
-392.092	-200.000	-0.020	0.112
-391.077	-200.000	0.017	0.159
-390.063	-200.000	-0.003	0.091
-389.048	60.535	0.311	-0.311
-388.033	338.234	0.104	0.203
-387.019	3.586	-0.064	0.047
-386.004	-38.104	0.229	-0.123
-384.990	-3.783	0.183	0.129
-383.975	-52.008	-0.153	0.072
-382.960	-50.020	-0.242	-0.116
-381.946	-75.680	0.185	-0.066
-380.931	-46.729	-0.009	0.004
-379.917	800.000	0.075	-0.294
-378.902	-127.334	-0.196	-0.029
-377.888	-200.000	0.029	0.254
-376.873	-53.827	0.186	-0.086
-375.858	733.170	-0.077	0.208
-374.844	85.283	0.105	-0.117
-373.829	-119.391	0.290	0.051
-372.815	800.000	-0.065	-0.183
-371.800	163.832	0.073	0.104
-370.785	-41.414	0.096	-0.050
-369.771	66.018	0.221	0.226
-368.756	674.426	-0.073	-0.190
-367.742	23.902	0.128	0.107
-366.727	800.000	0.043	-0.137
-365.712	572.398	-0.080	-0.197
-364.698	269.830	-0.167	0.295
-363.683	-39.572	-0.209	0.111
-362.669	62.158	-0.241	-0.242
-361.654	800.000	-0.095	0.312
-360.639	-37.807	0.067	-0.036
-359.625	103.668	-0.082	0.097
-358.610	57.893	0.200	-0.197
-357.596	216.514	-0.201	0.323
-356.581	-200.000	0.039	0.191
-355.566	800.000	0.045	0.155
-354.552	800.000	0.068	0.252
-353.537	79.862	0.149	0.162
-352.523	-52.406	-0.170	-0.079
-351.508	484.434	-0.081	0.185
-350.493	-200.000	-0.071	0.438
-349.479	718.407	-0.147	0.394
-348.464	800.000	0.079	-0.317
-347.450	-105.292	0.200	-0.046
-346.435	-52.094	0.255	0.119
-345.420	375.088	0.094	0.194
-344.406	-73.356	-0.293	0.108
-343.391	-89.041	0.358	-0.107
-342.377	164.585	-0.066	-0.094
-341.362	-58.295	-0.116	-0.051
-340.348	-62.147	0.116	0.049
-339.333	-44.222	0.171	0.086
-338.318	-200.000	0.024	0.250
-337.304	800.000	0.072	0.267
-336.289	-200.000	0.026	0.200
-335.275	-129.323	-0.141	-0.020
-334.260	-44.220	-0.197	0.099
-333.245	-58.890	-0.152	0.066
-332.231	62.734	0.252	-0.253
-331.216	-200.000	0.032	-0.165
-330.202	-114.528	-0.085	0.016
-329.187	-200.000	-0.017	-0.514
-328.172	-85.010	0.213	-0.067
-327.158	336.719	0.143	0.280
-326.143	-103.950	-0.363	-0.085
-325.129	-86.022	0.056	-0.017
-324.114	173.599	0.063	0.091
-323.099	-139.056	-0.141	0.015
-322.085	-101.181	0.214	0.053
-321.070	301.075	0.105	-0.196
-320.056	159.175	0.063	-0.088
-319.041	-49.721	0.142	0.068
-318.026	228.627	0.207	-0.340
-317.012	-200.000	-0.015	-0.192
-315.997	186.550	0.062	-0.093
-314.983	-16.819	-0.113	-0.072
-313.968	141.486	0.191	0.254
-312.953	39.979	0.129	0.117
-311.939	1.691	0.136	-0.099
-310.924	-156.698	0.176	0.011
-309.910	589.184	-0.066	-0.163
-308.895	-200.000	-0.016	0.085
-307.880	-59.165	-0.417	-0.181
-306.866	-200.000	0.005	0.082
-305.851	-93.928	0.174	-0.048
-304.837	40.713	-0.198	-0.179
-303.822	-147.576	0.261	-0.022
-302.807	207.130	0.072	0.112
-301.793	-53.312	-0.145	0.067
-300.778	-1.992	0.206	0.145
-299.764	-200.000	0.051	-0.352
-298.749	113.515	0.206	0.251
-297.735	114.664	0.250	0.306
-296.720	528.305	0.080	0.190
-295.705	800.000	-0.106	0.321
-294.691	-81.460	0.169	-0.056
-293.676	-55.945	0.092	0.041
-292.662	225.607	0.024	0.039
-291.647	-200.000	0.014	-0.216
-290.632	-88.651	0.296	0.089
-289.618	52.225	-0.075	-0.072
-288.603	38.785	0.100	0.089
-287.589	-60.434	0.132	-0.056
-286.574	-177.489	0.046	0.001
-285.559	-200.000	0.032	-0.298
-284.545	-134.429	0.194	0.024
-283.530	800.000	0.036	0.144
-282.516	-39.594	0.215	0.113
-281.501	-115.012	-0.162	-0.031
-280.486	45.157	0.159	0.147
-279.472	-200.000	-0.052	0.000
-278.457	-200.000	-0.020	0.000
-277.443	-161.375	0.280	0.015
-276.428	157.412	-0.052	0.073
-275.413	-84.974	-0.122	-0.038
-274.399	-200.000	-0.001	-0.206
-273.384	-200.000	0.016	0.113
-272.370	90.294	0.067	-0.075
-271.355	-200.000	-0.034	0.293
-270.340	459.330	0.098	0.219
-269.326	-200.000	0.006	0.139
-268.311	-83.425	0.057	-0.018
-267.297	-107.636	-0.093	-0.020
-266.282	-0.201	0.103	-0.074
-265.267	-129.757	-0.317	-0.044
-264.253	-19.845	-0.191	0.118
-263.238	145.260	-0.021	-0.028
-262.224	92.316	0.198	-0.224
-261.209	199.945	0.085	-0.131
-260.195	-116.843	0.208	0.038
-259.180	-54.528	0.146	-0.066
-258.165	397.294	-0.171	-0.358
-257.151	-200.000	0.008	-0.067
-256.136	385.570	-0.114	-0.235
-255.122	371.918	0.135	-0.275
-254.107	-100.639	0.152	0.038
-253.092	136.923	0.202	0.265
-252.078	141.791	-0.154	-0.204
-251.063	-200.000	-0.034	-0.154
-250.049	-52.966	-0.384	0.177
-249.034	800.000	-0.106	-0.325
-248.019	-147.729	-0.209	-0.018
-247.005	-11.795	0.117	0.077
-245.990	-100.641	0.082	0.020
-244.976	-110.632	-0.260	-0.054
-243.961	297.418	0.029	0.053
-242.946	-124.003	-0.286	-0.045
-241.932	-200.000	-0.012	0.088
-240.917	-178.714	-0.226	-0.005
-239.903	-46.290	-0.240	-0.119
-238.888	-5.992	0.180	-0.123
-237.873	301.111	0.161	-0.299
-236.859	153.863	-0.120	-0.165
-235.844	-53.793	-0.155	0.071
-234.830	59.709	0.264	-0.261
-233.815	-200.000	0.007	0.274
-232.800	79.840	0.111	0.119
-231.786	12.341	-0.081	0.063
-230.771	81.885	0.234	0.254
-229.757	-200.000	-0.041	0.196
-228.742	293.460	-0.057	0.103
-227.727	45.560	0.144	0.134
-226.713	-200.000	0.063	-0.350
-225.698	-124.282	-0.155	-0.024
-224.684	-200.000	-0.005	0.075
-223.669	-200.000	0.039	-0.272
-222.655	-74.204	-0.350	0.127
-221.640	-200.000	0.020	-0.128
-220.625	111.831	-0.036	-0.044
-219.611	303.228	0.091	0.168
-218.596	236.593	-0.183	-0.303
-217.582	-124.340	-0.438	-0.068
-216.567	421.250	0.197	-0.424
-215.552	-100.558	0.227	-0.056
-214.538	-200.000	0.012	-0.084
-213.523	142.856	-0.172	-0.229
-212.509	-200.000	-0.003	0.167
-211.494	628.778	0.125	-0.317
-210.479	-200.000	0.041	-0.213
-209.465	394.701	-0.064	-0.134
-208.450	-23.516	0.185	-0.111
-207.436	-78.617	-0.303	0.104
-206.421	800.000	-0.091	0.252
-205.406	160.442	-0.093	0.129
-204.392	-200.000	0.026	-0.215
-203.377	-170.541	-0.159	-0.006
-202.363	-200.000	0.024	0.104
-201.348	30.191	-0.090	0.077
-200.333	-170.490	0.281	0.010
-199.319	-41.010	0.162	-0.084
-198.304	55.392	0.491	0.476
-197.290	229.464	0.094	-0.154
-196.275	800.000	-0.041	0.119
-195.260	-85.629	0.272	0.085
-194.246	-45.442	0.126	0.062
-193.231	800.000	-0.062	0.225
-192.217	800.000	0.092	-0.268
-191.202	-140.183	-0.077	0.008
-190.187	56.362	-0.232	-0.226
-189.173	-200.000	0.007	-0.117
-188.158	-200.000	-0.051	0.319
-187.144	32.989	0.210	0.182
-186.129	-200.000	0.005	0.047
-185.114	-200.000	0.043	0.243
-184.100	800.000	-0.082	0.228
-183.085	-162.043	0.143	-0.007
-182.071	105.084	-0.204	0.241
-181.056	-100.212	-0.378	-0.094
-180.042	190.014	-0.111	-0.167
-179.027	800.000	0.109	0.309
-178.012	0.610	-0.086	0.062
-176.998	-200.000	0.008	-0.096
-175.983	475.957	-0.091	0.205
-174.969	-83.132	0.123	-0.040
-173.954	704.825	0.079	0.209
-172.939	-200.000	-0.000	0.059
-171.925	-200.000	-0.002	0.159
-170.910	-114.338	0.221	-0.043
-169.896	-109.993	-0.348	0.073
-168.881	-76.544	0.269	-0.094
-167.866	-200.000	-0.041	0.228
-166.852	-29.636	-0.010	0.006
-165.837	239.087	0.094	0.156
-164.823	33.890	-0.057	0.050
-163.808	64.548	-0.234	-0.236
-162.793	-16.412	-0.145	0.092
-161.779	146.260	0.050	-0.067
-160.764	-126.333	-0.341	-0.051
-159.750	-88.889	0.212	-0.063
-158.735	8.539	-0.161	0.121
-157.720	318.217	0.099	-0.188
-156.706	800.000	-0.076	-0.241
-155.691	396.684	0.175	0.366
-154.677	-80.615	-0.367	-0.122
-153.662	-89.188	-0.176	-0.052
-152.647	-127.179	0.058	-0.009
-151.633	-151.443	0.218	0.016
-150.618	-48.721	-0.228	0.110
-149.604	-192.198	-0.312	0.003
-148.589	-111.474	0.132	0.027
-147.574	39.039	-0.134	-0.120
-146.560	127.917	0.197	0.250
-145.545	373.019	0.133	0.271
-144.531	305.879	-0.149	0.277
-143.516	314.224	-0.099	0.185
-142.502	122.714	0.161	0.201
-141.487	63.046	0.159	0.159
-140.472	-183.179	-0.290	-0.005
-139.458	-200.000	-0.061	-0.276
-138.443	-136.261	-0.237	-0.028
-137.429	-83.877	-0.232	-0.074
-136.414	-200.000	0.032	-0.274
-135.399	116.276	0.095	0.116
-134.385	195.516	0.154	-0.234
-133.370	-151.896	0.282	0.021
-132.356	-141.360	0.207	0.021
-131.341	20.124	-0.224	0.181
-130.326	-200.000	0.055	0.295
-129.312	517.723	-0.056	0.130
-128.297	709.622	-0.112	0.295
-127.283	247.565	-0.122	-0.206
-126.268	-4.389	-0.309	0.213
-125.253	71.387	0.060	0.063
-124.239	22.560	-0.339	0.277
-123.224	87.674	-0.056	0.062
-122.210	-15.629	-0.104	0.066
-121.195	-25.180	-0.106	0.062
