DTS Sentinel unit serial number:	SN413079Multiplexer serial number:	ORYXHardware model number:	OX4-SRSoftware version number:	ORYX F/W v4.00 Oryx Data Collector v3.7.2.0data status	okinstallation	princeton_trtdifferential loss correction	single-endedforward channel	channel 1reverse channel	N/Adate	2019/09/18time	15:02:35forward acquisition time	60.00reverse acquisition time	0.00gamma	496.2192k internal	0.2307k external	0.2307temperature offset calibration	0.9990default loss term (dB/km)	0.3790temperature slope calibration	1.0000multiplexer offset coefficient	1.0000multiplexer slope coefficient	1.0000fibre end	0.00T internal ref (°C)	35.25T ext. ref 1 (°C)	0.73T ext. ref 2 (°C)	30.90length (m)	temperature (°C)	Stokes	anti-Stokes-747.200	79.582	0.123	-0.134
-746.185	-110.591	-0.155	0.033
-745.171	60.941	-0.276	0.278
-744.156	800.000	-0.139	0.535
-743.142	-200.000	-0.052	-0.327
-742.127	249.270	0.104	-0.180
-741.112	-200.000	0.035	-0.303
-740.098	-110.675	-0.313	0.066
-739.083	255.381	0.048	0.083
-738.069	-71.462	-0.290	0.110
-737.054	-200.000	0.005	0.137
-736.039	800.000	-0.072	-0.313
-735.025	41.881	0.198	0.182
-734.010	-78.908	-0.288	0.100
-732.996	148.589	-0.165	0.226
-731.981	-200.000	-0.112	0.521
-730.966	-93.298	-0.344	-0.097
-729.952	483.572	-0.046	-0.106
-728.937	534.686	-0.090	0.218
-727.923	55.038	0.034	0.034
-726.908	611.086	-0.055	0.139
-725.894	46.310	0.111	-0.104
-724.879	-74.444	0.208	-0.076
-723.864	-200.000	-0.133	0.001
-722.850	-106.827	0.263	0.059
-721.835	-96.253	-0.062	-0.017
-720.821	-200.000	-0.004	0.101
-719.806	-200.000	-0.002	0.019
-718.791	250.143	0.058	-0.100
-717.777	162.754	-0.199	0.283
-716.762	-78.604	-0.174	0.061
-715.748	800.000	0.027	-0.081
-714.733	239.924	-0.091	0.153
-713.718	53.684	0.205	-0.200
-712.704	-200.000	-0.021	0.348
-711.689	-18.549	-0.249	-0.158
-710.675	780.195	0.044	0.122
-709.660	800.000	-0.052	0.214
-708.645	-200.000	0.014	-0.088
-707.631	-161.782	0.201	0.010
-706.616	99.549	0.225	-0.265
-705.602	239.526	-0.302	0.510
-704.587	119.345	-0.038	-0.048
-703.572	395.859	0.107	0.226
-702.558	-160.504	-0.446	-0.024
-701.543	-200.000	0.017	0.078
-700.529	-200.000	-0.026	-0.147
-699.514	128.155	-0.110	0.143
-698.499	277.125	0.088	-0.159
-697.485	238.002	0.170	0.287
-696.470	98.167	-0.337	0.394
-695.456	-101.118	0.081	-0.020
-694.441	397.602	-0.044	-0.093
-693.426	-94.518	0.165	0.046
-692.412	137.482	0.073	0.096
-691.397	-200.000	0.001	0.175
-690.383	56.099	-0.131	0.129
-689.368	-125.786	0.105	0.016
-688.354	138.336	0.247	0.329
-687.339	640.197	-0.119	0.308
-686.324	-16.076	0.105	0.068
-685.310	640.616	-0.035	0.092
-684.295	200.831	0.144	-0.224
-683.281	-61.800	-0.258	-0.110
-682.266	204.241	-0.070	0.111
-681.251	-200.000	-0.015	-0.115
-680.237	-127.241	0.109	0.016
-679.222	-80.341	0.322	0.109
-678.208	-200.000	0.008	0.206
-677.193	309.043	-0.153	0.290
-676.178	-200.000	-0.007	0.035
-675.164	-134.071	0.137	-0.017
-674.149	-50.242	0.066	0.032
-673.135	60.738	0.133	-0.134
-672.120	-10.134	0.172	-0.116
-671.105	-73.539	-0.346	-0.128
-670.091	441.466	0.044	-0.099
-669.076	111.472	-0.084	-0.103
-668.062	26.306	-0.242	0.205
-667.047	169.441	0.042	-0.061
-666.032	502.993	-0.025	0.059
-665.018	231.983	0.061	0.101
-664.003	-200.000	-0.055	0.328
-662.989	-200.000	-0.012	0.109
-661.974	-200.000	0.022	0.316
-660.959	-200.000	-0.010	0.176
-659.945	693.621	-0.013	0.034
-658.930	366.452	0.089	0.181
-657.916	-143.341	-0.159	0.015
-656.901	-121.569	0.223	0.037
-655.886	-200.000	-0.027	0.156
-654.872	-109.726	-0.214	0.046
-653.857	-197.435	-0.251	0.002
-652.843	303.481	0.122	0.230
-651.828	44.542	-0.270	0.252
-650.814	774.462	-0.026	0.073
-649.799	-200.000	0.007	0.161
-648.784	561.479	0.089	0.218
-647.770	20.232	-0.100	-0.082
-646.755	34.032	0.170	-0.150
-645.741	-24.830	0.185	-0.111
-644.726	172.422	0.210	0.306
-643.711	85.690	-0.113	-0.126
-642.697	-104.697	-0.160	-0.037
-641.682	360.032	0.025	-0.051
-640.668	638.490	-0.146	0.377
-639.653	-200.000	-0.009	-0.079
-638.638	-95.558	-0.175	-0.048
-637.624	-63.627	0.059	-0.024
-636.609	-147.561	-0.355	0.030
-635.595	-88.936	-0.128	-0.038
-634.580	154.094	0.300	0.417
-633.565	-77.056	-0.200	0.071
-632.551	-54.514	-0.149	0.068
-631.536	-6.842	-0.097	-0.067
-630.522	109.336	-0.132	0.160
-629.507	418.573	0.153	-0.332
-628.492	-109.373	-0.021	0.004
-627.478	149.878	0.191	0.262
-626.463	46.763	0.158	0.148
-625.449	-30.034	-0.145	-0.084
-624.434	15.759	-0.185	0.147
-623.419	-111.089	0.236	0.049
-622.405	287.634	0.116	0.213
-621.390	-12.191	-0.301	0.200
-620.376	-7.255	0.177	0.121
-619.361	72.037	0.095	-0.100
-618.346	-40.857	-0.279	-0.146
-617.332	99.077	0.135	0.157
-616.317	-157.700	0.133	-0.008
-615.303	-107.657	0.035	0.008
-614.288	800.000	-0.073	0.232
-613.273	72.393	0.055	0.058
-612.259	199.675	-0.084	-0.131
-611.244	800.000	-0.091	-0.387
-610.230	-179.373	0.339	0.008
-609.215	-200.000	0.013	0.161
-608.201	-200.000	0.071	0.327
-607.186	800.000	0.058	0.176
-606.171	-31.040	0.224	0.128
-605.157	-36.439	0.098	-0.054
-604.142	73.315	0.145	-0.153
-603.128	-200.000	0.036	0.174
-602.113	-200.000	-0.004	0.066
-601.098	-200.000	-0.017	-0.442
-600.084	100.431	-0.077	0.090
-599.069	35.372	-0.284	0.252
-598.055	800.000	0.076	0.249
-597.040	-200.000	-0.077	0.375
-596.025	-200.000	-0.047	-0.316
-595.011	-200.000	0.001	-0.082
-593.996	-59.743	-0.231	-0.100
-592.982	312.938	0.116	0.220
-591.967	-32.084	-0.159	-0.090
-590.952	133.763	-0.149	0.195
-589.938	338.672	0.063	0.124
-588.923	-63.194	-0.117	-0.049
-587.909	800.000	0.023	0.095
-586.894	352.556	0.110	0.219
-585.879	-93.861	0.122	0.034
-584.865	-127.216	-0.023	0.003
-583.850	-90.462	-0.045	0.013
-582.836	-25.306	0.146	-0.088
-581.821	-145.523	-0.113	-0.010
-580.806	7.532	-0.116	-0.088
-579.792	-111.476	0.208	-0.043
-578.777	-89.638	-0.180	0.053
-577.763	-13.938	-0.231	0.151
-576.748	94.025	0.144	0.165
-575.733	-200.000	-0.036	-0.180
-574.719	-8.795	-0.013	0.009
-573.704	-44.690	-0.186	0.094
-572.690	800.000	0.026	0.092
-571.675	-25.149	-0.301	0.180
-570.661	-4.263	-0.082	-0.057
-569.646	-31.055	0.337	0.192
-568.631	-147.696	0.097	-0.008
-567.617	249.229	-0.043	-0.073
-566.602	-88.479	0.192	0.058
-565.588	-41.266	-0.327	-0.170
-564.573	-134.083	-0.136	-0.017
-563.558	242.816	-0.138	-0.233
-562.544	2.608	-0.157	-0.115
-561.529	800.000	-0.040	0.154
-560.515	107.551	-0.080	0.096
-559.500	-118.880	-0.125	0.022
-558.485	219.736	0.169	0.273
-557.471	554.525	0.042	0.101
-556.456	-67.667	-0.212	0.084
-555.442	-116.574	-0.298	-0.055
-554.427	800.000	0.062	0.247
-553.412	-135.932	0.147	0.018
-552.398	520.370	0.104	0.247
-551.383	-81.642	0.216	0.072
-550.369	1.274	-0.256	-0.186
-549.354	13.712	0.210	-0.165
-548.339	-200.000	0.049	0.250
-547.325	-100.288	-0.193	0.048
-546.310	68.942	-0.142	0.147
-545.296	-200.000	-0.052	0.338
-544.281	-164.557	0.203	0.009
-543.266	800.000	-0.025	0.095
-542.252	-200.000	-0.027	0.367
-541.237	-115.029	0.337	-0.065
-540.223	366.942	0.113	-0.229
-539.208	79.196	-0.178	0.192
-538.193	800.000	-0.063	-0.209
-537.179	-71.629	-0.378	0.143
-536.164	329.619	-0.133	-0.257
-535.150	448.410	-0.021	0.046
-534.135	181.004	-0.098	-0.145
-533.121	76.935	0.192	0.205
-532.106	185.410	-0.044	-0.066
-531.091	-200.000	0.041	0.306
-530.077	-9.436	-0.170	-0.115
-529.062	63.652	0.057	-0.057
-528.048	4.661	0.108	0.080
-527.033	211.539	0.010	-0.016
-526.018	-104.337	-0.198	0.046
-525.004	305.746	-0.116	0.218
-523.989	57.498	-0.083	-0.082
-522.975	-200.000	-0.056	-0.250
-521.960	38.865	0.212	-0.191
-520.945	74.039	-0.205	-0.217
-519.931	-200.000	0.006	0.101
-518.916	-116.634	0.393	0.073
-517.902	787.143	-0.024	0.067
-516.887	-200.000	0.048	-0.251
-515.872	481.997	0.064	-0.146
-514.858	523.822	-0.205	0.487
-513.843	171.188	0.190	0.274
-512.829	-200.000	0.038	0.228
-511.814	233.610	0.149	0.247
-510.799	800.000	0.120	0.495
-509.785	-197.180	-0.363	0.002
-508.770	-114.480	0.351	0.068
-507.756	159.373	-0.167	0.234
-506.741	78.991	-0.158	-0.171
-505.726	360.881	-0.072	-0.145
-504.712	-200.000	0.022	-0.260
-503.697	-200.000	-0.013	-0.269
-502.683	470.513	0.021	-0.048
-501.668	-98.867	0.268	-0.069
-500.653	-125.819	0.227	0.034
-499.639	231.805	-0.042	-0.070
-498.624	100.461	-0.440	0.514
-497.610	204.381	0.057	0.089
-496.595	163.093	-0.112	-0.159
-495.581	211.755	0.108	-0.172
-494.566	-101.219	-0.117	0.029
-493.551	-84.103	0.166	-0.053
-492.537	-200.000	-0.020	-0.177
-491.522	800.000	-0.029	0.118
-490.508	-29.335	-0.098	0.057
-489.493	-200.000	-0.019	0.139
-488.478	-95.185	0.142	-0.038
-487.464	344.968	0.048	-0.094
-486.449	-59.589	-0.249	-0.108
-485.435	424.055	0.136	-0.295
-484.420	172.925	0.059	-0.086
-483.405	-143.565	-0.195	0.019
-482.391	-86.209	0.316	-0.098
-481.376	800.000	-0.132	-0.384
-480.362	-111.456	-0.227	0.046
-479.347	-150.271	-0.311	0.024
-478.332	280.831	0.052	0.094
-477.318	4.408	0.198	0.146
-476.303	-200.000	-0.011	-0.216
-475.289	55.307	0.067	-0.066
-474.274	-19.688	-0.169	0.105
-473.259	379.321	0.010	0.020
-472.245	60.642	-0.302	-0.301
-471.230	800.000	0.040	-0.145
-470.216	800.000	-0.062	-0.204
-469.201	-149.271	-0.429	0.034
-468.186	-102.991	0.178	0.042
-467.172	-91.241	-0.180	0.052
-466.157	-98.331	-0.398	-0.103
-465.143	800.000	0.013	0.035
-464.128	179.901	-0.071	0.104
-463.113	-94.492	-0.127	-0.035
-462.099	-200.000	-0.049	-0.427
-461.084	-200.000	-0.016	-0.240
-460.070	77.488	0.120	-0.128
-459.055	800.000	0.041	0.130
-458.040	800.000	0.090	-0.269
-457.026	-200.000	0.041	-0.212
-456.011	-200.000	0.052	-0.246
-454.997	-48.283	-0.169	0.082
-453.982	19.390	0.180	0.145
-452.968	-22.798	-0.057	-0.035
-451.953	-200.000	0.009	-0.155
-450.938	63.514	0.055	0.056
-449.924	-200.000	0.001	-0.081
-448.909	202.898	-0.067	0.105
-447.895	-113.191	0.290	0.057
-446.880	556.995	-0.091	0.222
-445.865	-52.874	0.053	0.024
-444.851	-125.399	-0.120	-0.018
-443.836	510.673	0.112	-0.262
-442.822	33.257	-0.147	-0.128
-441.807	-190.431	-0.191	-0.002
-440.792	800.000	-0.057	0.248
-439.778	-200.000	-0.035	0.202
-438.763	6.429	0.502	0.375
-437.749	-123.656	-0.016	-0.003
-436.734	-184.699	-0.246	0.004
-435.719	-21.942	0.159	-0.097
-434.705	-61.916	-0.107	0.045
-433.690	-154.423	-0.403	-0.027
-432.676	-65.277	0.194	0.078
-431.661	3.385	0.048	-0.035
-430.646	-88.166	0.192	0.058
-429.632	-155.000	0.236	0.016
-428.617	93.839	0.091	-0.104
-427.603	-18.971	-0.126	-0.079
-426.588	-60.461	-0.299	0.128
-425.573	238.631	-0.232	0.388
-424.559	800.000	-0.063	-0.185
-423.544	193.880	-0.115	-0.175
-422.530	-78.981	-0.197	-0.067
-421.515	67.658	0.016	0.016
-420.500	-88.463	0.356	0.107
-419.486	-99.145	0.279	0.071
-418.471	-200.000	-0.007	0.139
-417.457	455.866	0.074	-0.164
-416.442	800.000	-0.054	-0.233
-415.428	-61.055	-0.168	-0.071
-414.413	-143.801	-0.186	0.018
-413.398	-109.876	0.092	0.019
-412.384	-200.000	0.005	0.153
-411.369	243.374	0.160	0.269
-410.355	-200.000	-0.007	-0.189
-409.340	6.543	0.195	-0.145
-408.325	710.990	0.165	0.438
-407.311	-25.339	0.141	-0.084
-406.296	149.610	0.128	0.174
-405.282	145.012	-0.112	0.151
-404.267	-129.674	0.317	-0.044
-403.252	22.207	0.288	-0.236
-402.238	149.476	-0.281	0.382
-401.223	800.000	-0.072	0.282
-400.209	374.748	-0.037	-0.075
-399.194	-92.683	-0.274	-0.077
-398.179	178.746	-0.111	-0.163
-397.165	-52.785	-0.374	-0.173
-396.150	-95.985	0.206	-0.055
-395.136	-200.000	0.051	0.282
-394.121	-136.127	0.292	-0.034
-393.106	74.388	-0.009	0.009
-392.092	-200.000	-0.002	0.229
-391.077	-200.000	-0.003	0.164
-390.063	-178.697	0.127	0.003
-389.048	-106.916	0.167	-0.037
-388.033	275.220	-0.067	-0.119
-387.019	1.040	0.100	0.072
-386.004	800.000	-0.033	0.098
-384.990	-200.000	0.013	0.385
-383.975	-123.781	0.213	0.034
-382.960	44.151	0.135	0.125
-381.946	-30.452	-0.051	-0.029
-380.931	85.813	0.157	0.173
-379.917	97.191	0.370	0.426
-378.902	112.458	0.138	-0.167
-377.888	-200.000	0.200	0.000
-376.873	44.933	0.178	-0.164
-375.858	-200.000	0.022	0.140
-374.844	-200.000	-0.006	0.028
-373.829	800.000	0.070	-0.258
-372.815	338.975	-0.165	-0.323
-371.800	9.046	-0.045	-0.034
-370.785	627.229	0.072	0.182
-369.771	206.673	-0.044	-0.069
-368.756	58.170	0.126	-0.124
-367.742	353.633	-0.066	0.131
-366.727	147.110	0.097	0.130
-365.712	-84.644	-0.103	0.032
-364.698	-45.299	0.179	0.089
-363.683	-200.000	0.001	-0.224
-362.669	-200.000	-0.034	-0.190
-361.654	-72.475	0.090	-0.033
-360.639	-108.160	-0.401	-0.087
-359.625	-128.722	0.191	0.027
-358.610	-106.284	0.299	-0.067
-357.596	37.658	0.145	-0.129
-356.581	-200.000	0.031	0.203
-355.566	164.850	0.020	0.028
-354.552	-156.122	0.070	0.004
-353.537	-143.633	-0.186	-0.018
-352.523	-51.676	-0.330	-0.154
-351.508	800.000	-0.105	-0.318
-350.493	-130.347	-0.143	0.019
-349.479	152.690	0.111	0.152
-348.464	-200.000	0.007	0.105
-347.450	800.000	-0.030	0.099
-346.435	361.536	0.013	0.026
-345.420	-58.461	0.113	0.049
-344.406	800.000	0.033	-0.141
-343.391	167.252	0.276	-0.392
-342.377	-200.000	0.017	-0.106
-341.362	51.496	-0.080	-0.077
-340.348	-113.907	-0.370	0.072
-339.333	800.000	-0.138	-0.433
-338.318	3.127	0.140	0.102
-337.304	515.945	0.068	-0.159
-336.289	88.046	-0.031	0.035
-335.275	65.969	-0.162	-0.165
-334.260	-200.000	-0.044	0.488
-333.245	87.210	0.169	0.187
-332.231	-200.000	-0.071	-0.323
-331.216	800.000	0.019	-0.060
-330.202	258.500	-0.129	0.222
-329.187	-133.013	0.286	0.036
-328.172	800.000	0.015	0.047
-327.158	-200.000	-0.008	-0.050
-326.143	137.724	-0.096	0.126
-325.129	22.525	0.315	0.258
-324.114	238.063	0.066	0.109
-323.099	199.402	0.075	0.115
-322.085	366.802	-0.019	-0.037
-321.070	-85.492	-0.370	0.115
-320.056	-112.940	-0.293	-0.058
-319.041	-71.604	0.248	0.092
-318.026	60.862	0.229	0.227
-317.012	-59.505	0.167	0.072
-315.997	-103.833	-0.103	-0.024
-314.983	-161.189	-0.375	0.020
-313.968	341.872	0.078	-0.153
-312.953	-106.933	0.106	0.023
-311.939	-127.326	0.019	0.003
-310.924	52.381	0.162	-0.155
-309.910	-119.103	0.365	0.064
-308.895	3.315	0.188	-0.137
-307.880	68.798	0.139	-0.143
-306.866	208.526	-0.249	0.389
-305.851	16.251	-0.147	-0.116
-304.837	-107.429	0.421	0.092
-303.822	-129.845	0.107	-0.015
-302.807	178.682	-0.154	0.225
-301.793	-51.269	0.397	-0.186
-300.778	8.993	0.023	0.017
-299.764	800.000	0.111	-0.408
-298.749	-46.897	-0.286	-0.140
-297.735	-49.792	0.172	-0.082
-296.720	0.903	-0.030	0.021
-295.705	800.000	0.074	0.275
-294.691	-23.466	0.092	-0.055
-293.676	-200.000	0.046	-0.295
-292.662	24.942	0.151	0.125
-291.647	-39.254	-0.139	-0.073
-290.632	299.756	0.170	-0.313
-289.618	9.706	0.245	0.185
-288.603	-200.000	-0.015	-0.300
-287.589	-48.309	-0.121	0.058
-286.574	800.000	-0.034	0.102
-285.559	-37.202	0.175	0.093
-284.545	-141.694	-0.190	0.019
-283.530	-93.293	0.167	-0.046
-282.516	295.320	0.120	-0.219
-281.501	-56.822	-0.087	0.039
-280.486	204.830	-0.189	0.293
-279.472	57.499	0.289	-0.282
-278.457	9.550	0.231	-0.175
-277.443	88.147	-0.168	-0.186
-276.428	-82.334	0.124	0.040
-275.413	800.000	-0.083	-0.318
-274.399	-95.750	-0.256	0.068
-273.384	52.742	0.160	-0.153
-272.370	-200.000	-0.009	-0.106
-271.355	800.000	0.040	0.156
-270.340	223.044	-0.119	-0.192
-269.326	127.773	-0.094	0.119
-268.311	129.019	0.140	0.178
-267.297	-102.573	0.217	0.052
-266.282	-200.000	0.035	0.210
-265.267	273.775	-0.042	-0.073
-264.253	-139.087	-0.211	-0.023
-263.238	85.088	-0.201	-0.220
-262.224	-200.000	0.195	0.001
-261.209	-199.719	0.116	0.001
-260.195	145.079	-0.124	-0.166
-259.180	-14.455	0.092	-0.059
-258.165	-200.000	0.018	0.207
-257.151	-200.000	0.002	-0.325
-256.136	-103.242	0.102	-0.024
-255.122	-45.139	-0.242	-0.120
-254.107	-200.000	0.023	0.109
-253.092	332.572	-0.099	0.191
-252.078	-133.949	0.157	0.019
-251.063	800.000	0.018	-0.065
-250.049	-200.000	-0.069	-0.327
-249.034	-71.435	-0.091	0.034
-248.019	-71.551	-0.215	0.080
-247.005	800.000	-0.044	-0.152
-245.990	-100.021	0.403	0.100
-244.976	-94.841	-0.636	-0.172
-243.961	211.667	0.136	0.213
-242.946	238.710	-0.066	-0.109
-241.932	62.239	0.175	0.174
-240.917	171.473	0.085	0.122
-239.903	67.766	0.084	-0.086
-238.888	-200.000	0.009	-0.124
-237.873	800.000	-0.019	0.077
-236.859	-120.771	-0.061	0.010
-235.844	25.614	-0.265	-0.220
-234.830	-135.031	-0.147	-0.018
-233.815	-200.000	0.014	-0.304
-232.800	-114.267	0.273	-0.053
-231.786	64.356	-0.038	0.039
-230.771	800.000	-0.068	-0.200
-229.757	-200.000	-0.079	-0.000
-228.742	375.545	0.090	0.183
-227.727	-131.258	-0.275	-0.036
-226.713	-135.181	0.248	0.030
-225.698	-200.000	0.044	-0.371
-224.684	800.000	-0.051	0.168
-223.669	49.539	0.225	0.211
-222.655	-0.147	0.198	-0.140
-221.640	53.759	0.206	0.197
-220.625	49.411	0.212	0.199
-219.611	-200.000	0.052	0.336
-218.596	678.539	-0.063	0.163
-217.582	-89.909	-0.218	-0.063
-216.567	89.006	-0.150	-0.166
-215.552	-168.962	0.166	0.006
-214.538	800.000	-0.057	-0.226
-213.523	-127.038	-0.278	0.041
-212.509	11.117	-0.096	-0.073
-211.494	15.541	0.064	-0.050
-210.479	800.000	0.042	0.174
-209.465	186.106	-0.097	-0.144
-208.450	-200.000	0.001	0.096
-207.436	213.142	-0.275	-0.433
-206.421	-200.000	-0.025	-0.251
-205.406	278.744	0.070	-0.125
-204.392	-140.062	-0.076	0.008
-203.377	-104.423	-0.311	0.072
-202.363	40.711	-0.216	-0.194
-201.348	800.000	0.113	-0.418
-200.333	56.129	-0.075	-0.072
-199.319	11.197	-0.161	-0.123
-198.304	21.127	-0.230	-0.186
-197.290	18.280	-0.238	-0.189
-196.275	-37.951	-0.390	-0.206
-195.260	-200.000	-0.040	-0.342
-194.246	-116.371	-0.419	0.077
-193.231	-168.816	0.207	-0.008
-192.217	-29.138	-0.351	-0.200
-191.202	558.953	0.083	-0.199
-190.187	-105.599	0.148	0.033
-189.173	-3.996	-0.167	0.115
-188.158	-43.252	0.058	-0.029
-187.144	-200.000	-0.017	-0.084
-186.129	800.000	0.007	-0.024
-185.114	136.930	-0.076	-0.098
-184.100	-200.000	0.006	0.038
-183.085	-120.338	0.121	0.020
-182.071	738.042	0.040	-0.107
-181.056	-54.059	0.160	0.072
-180.042	-130.861	0.241	0.032
-179.027	-200.000	-0.037	-0.443
-178.012	13.992	-0.291	-0.225
-176.998	-80.440	-0.242	-0.080
-175.983	-15.928	-0.213	0.135
-174.969	-171.515	-0.174	0.006
-173.954	-133.924	0.466	0.057
-172.939	67.321	0.287	0.291
-171.925	-200.000	0.036	0.382
-170.910	754.447	0.059	-0.157
-169.896	-27.618	0.176	0.102
-168.881	66.936	-0.123	-0.125
-167.866	-142.069	-0.102	-0.010
-166.852	253.943	-0.098	0.166
-165.837	-165.330	0.490	-0.021
-164.823	232.488	-0.040	-0.065
-163.808	-59.481	-0.210	-0.090
-162.793	19.207	0.116	0.092
-161.779	-200.000	-0.039	-0.318
-160.764	17.001	-0.092	-0.072
-159.750	-176.963	0.498	0.012
-158.735	800.000	0.051	0.207
-157.720	29.478	0.351	-0.297
-156.706	124.913	-0.070	-0.088
-155.691	-200.000	0.001	0.287
-154.677	-200.000	0.009	0.181
-153.662	200.646	0.102	-0.156
-152.647	-200.000	-0.029	0.225
-151.633	189.293	0.112	-0.166
-150.618	440.302	0.138	0.300
-149.604	260.744	-0.100	0.172
-148.589	423.847	-0.118	-0.251
-147.574	-9.535	0.297	0.197
-146.560	512.863	-0.192	-0.445
-145.545	-200.000	0.054	-0.389
-144.531	-126.945	-0.170	-0.025
-143.516	128.175	0.029	0.037
-142.502	-131.490	-0.305	-0.040
-141.487	-131.111	-0.184	-0.024
-140.472	-124.041	-0.239	-0.037
-139.458	22.191	0.017	-0.014
-138.443	-147.596	-0.439	-0.037
-137.429	800.000	0.020	0.085
-136.414	-17.758	-0.121	0.075
-135.399	-41.482	-0.129	0.066
-134.385	173.878	-0.060	0.086
-133.370	-200.000	0.030	-0.292
-132.356	48.390	0.085	-0.079
-131.341	293.237	0.247	-0.448
-130.326	484.579	-0.101	0.229
-129.312	17.000	-0.037	0.029
-128.297	610.086	0.077	-0.191
-127.283	-123.886	0.249	0.039
-126.268	-189.227	-0.375	0.004
-125.253	-200.000	-0.009	0.067
-124.239	-200.000	0.030	-0.258
-123.224	209.214	0.135	-0.210
-122.210	-200.000	-0.002	-0.101
-121.195	-185.681	0.139	0.002
