DTS Sentinel unit serial number:	SN413079Multiplexer serial number:	ORYXHardware model number:	OX4-SRSoftware version number:	ORYX F/W v4.00 Oryx Data Collector v3.7.2.0data status	okinstallation	princeton_trtdifferential loss correction	single-endedforward channel	channel 1reverse channel	N/Adate	2019/09/10time	19:20:11forward acquisition time	60.00reverse acquisition time	0.00gamma	496.2192k internal	0.2319k external	0.2319temperature offset calibration	0.9932default loss term (dB/km)	0.3790temperature slope calibration	1.0000multiplexer offset coefficient	1.0000multiplexer slope coefficient	1.0000fibre end	0.00T internal ref (°C)	33.81T ext. ref 1 (°C)	-0.30T ext. ref 2 (°C)	26.39length (m)	temperature (°C)	Stokes	anti-Stokes-747.200	456.275	-0.048	0.108
-746.185	93.155	-0.096	0.110
-745.171	800.000	0.119	0.332
-744.156	-42.967	-0.336	-0.172
-743.142	203.195	-0.056	0.088
-742.127	707.096	0.105	0.281
-741.112	800.000	0.070	-0.208
-740.098	-37.215	-0.208	0.112
-739.083	-76.027	-0.170	0.061
-738.069	800.000	-0.188	0.587
-737.054	194.602	-0.079	0.121
-736.039	243.292	0.018	-0.031
-735.025	-114.895	0.238	0.046
-734.010	800.000	-0.103	-0.423
-732.996	-125.319	-0.391	-0.060
-731.981	-200.000	0.015	0.143
-730.966	-78.732	-0.364	-0.126
-729.952	123.299	-0.094	0.119
-728.937	800.000	-0.064	0.181
-727.923	800.000	-0.069	0.256
-726.908	-71.927	-0.245	0.092
-725.894	-98.377	0.201	-0.052
-724.879	-7.830	-0.258	0.176
-723.864	800.000	-0.018	-0.061
-722.850	84.437	0.079	0.087
-721.835	-200.000	-0.023	0.294
-720.821	137.357	-0.119	-0.158
-719.806	-72.311	0.261	-0.098
-718.791	151.197	0.118	-0.162
-717.777	284.053	0.126	0.229
-716.762	580.464	-0.106	-0.262
-715.748	-200.000	-0.026	0.179
-714.733	-100.297	-0.106	-0.027
-713.718	281.710	-0.067	0.121
-712.704	465.696	0.057	0.130
-711.689	-200.000	-0.046	0.309
-710.675	522.760	-0.072	-0.170
-709.660	-200.000	-0.020	0.142
-708.645	-200.000	-0.037	-0.248
-707.631	-45.763	0.165	-0.082
-706.616	-95.186	-0.177	-0.048
-705.602	-74.615	0.208	0.075
-704.587	-76.258	0.281	-0.100
-703.572	-104.463	0.163	0.038
-702.558	-200.000	0.000	-0.239
-701.543	44.157	-0.452	-0.419
-700.529	101.517	0.307	0.362
-699.514	800.000	0.077	0.315
-698.499	800.000	-0.060	-0.191
-697.485	94.334	0.082	0.094
-696.470	-53.249	0.276	0.128
-695.456	-62.356	0.166	-0.070
-694.441	-200.000	0.002	0.017
-693.426	-53.467	-0.311	0.144
-692.412	181.175	-0.179	-0.266
-691.397	-200.000	0.015	0.195
-690.383	98.310	-0.059	-0.069
-689.368	82.946	0.103	0.113
-688.354	-67.024	-0.139	-0.055
-687.339	-147.450	0.373	0.032
-686.324	113.794	-0.169	0.207
-685.310	800.000	0.070	-0.249
-684.295	-100.392	-0.326	-0.082
-683.281	-123.138	-0.283	0.046
-682.266	-71.502	-0.134	-0.051
-681.251	-200.000	-0.005	-0.430
-680.237	-200.000	0.027	-0.284
-679.222	-200.000	0.133	0.000
-678.208	17.991	-0.252	-0.203
-677.193	337.970	0.142	-0.279
-676.178	1.724	0.168	-0.122
-675.164	-200.000	-0.104	-0.517
-674.149	45.772	0.074	-0.069
-673.135	39.642	-0.175	-0.158
-672.120	114.450	0.095	-0.117
-671.105	341.950	0.090	-0.178
-670.091	292.326	-0.104	0.191
-669.076	-168.784	0.173	0.007
-668.062	-23.725	-0.108	-0.065
-667.047	-147.708	0.302	0.026
-666.032	-105.324	-0.292	-0.067
-665.018	-82.899	-0.157	-0.051
-664.003	-38.945	0.029	-0.015
-662.989	-86.014	0.407	-0.127
-661.974	-147.847	0.320	0.027
-660.959	-9.250	0.200	0.135
-659.945	25.057	0.093	0.078
-658.930	-139.544	0.075	-0.008
-657.916	-8.893	-0.130	0.088
-656.901	634.408	0.084	-0.216
-655.886	519.506	-0.080	-0.190
-654.872	-4.223	0.188	0.131
-653.857	-135.452	-0.185	-0.022
-652.843	-200.000	-0.024	-0.201
-651.828	167.515	-0.190	0.272
-650.814	-200.000	0.020	-0.143
-649.799	147.772	0.067	-0.091
-648.784	-200.000	0.001	-0.052
-647.770	-133.392	-0.216	-0.027
-646.755	21.818	-0.037	-0.030
-645.741	61.134	0.083	-0.083
-644.726	-150.672	0.071	-0.005
-643.711	44.620	0.175	-0.162
-642.697	-25.219	0.152	0.091
-641.682	572.728	-0.134	-0.330
-640.668	-125.428	0.184	-0.028
-639.653	23.145	-0.279	-0.230
-638.638	47.700	0.236	0.221
-637.624	-160.366	-0.352	0.019
-636.609	-117.213	0.177	-0.032
-635.595	-56.312	-0.114	0.051
-634.580	-110.168	0.115	0.024
-633.565	-38.600	-0.237	-0.126
-632.551	-41.602	-0.158	-0.082
-631.536	-4.573	-0.220	0.153
-630.522	-76.229	0.343	-0.122
-629.507	-128.393	0.283	0.041
-628.492	-136.021	0.101	-0.012
-627.478	800.000	-0.060	-0.207
-626.463	-101.981	-0.096	-0.023
-625.449	-23.969	-0.253	0.152
-624.434	-35.750	0.206	-0.112
-623.419	42.380	0.087	0.080
-622.405	461.992	-0.071	-0.158
-621.390	0.692	0.264	-0.190
-620.376	-63.893	0.106	0.044
-619.361	15.453	-0.044	0.035
-618.346	-160.499	-0.163	0.009
-617.332	53.936	-0.244	-0.236
-616.317	179.253	0.010	0.015
-615.303	160.398	0.141	-0.198
-614.288	44.004	-0.065	-0.060
-613.273	-144.326	0.055	-0.005
-612.259	-78.896	0.298	-0.102
-611.244	800.000	-0.021	0.077
-610.230	-29.393	-0.204	-0.118
-609.215	474.830	0.031	-0.071
-608.201	399.260	0.165	0.348
-607.186	-85.989	0.046	0.014
-606.171	800.000	-0.059	0.226
-605.157	604.809	0.076	-0.190
-604.142	800.000	0.031	-0.109
-603.128	-96.423	-0.162	0.043
-602.113	7.449	-0.080	0.060
-601.098	-122.744	-0.177	0.029
-600.084	-105.583	0.172	-0.039
-599.069	-43.691	-0.331	-0.168
-598.055	305.782	-0.107	0.200
-597.040	-52.124	0.137	0.064
-596.025	77.807	0.197	0.211
-595.011	79.564	0.130	0.140
-593.996	24.900	0.038	-0.032
-592.982	37.282	0.160	-0.143
-591.967	-13.926	-0.028	-0.018
-590.952	-7.176	-0.223	0.152
-589.938	223.165	-0.078	-0.126
-588.923	22.321	0.255	0.209
-587.909	-200.000	-0.010	0.170
-586.894	-13.697	-0.147	0.096
-585.879	-151.352	0.375	0.028
-584.865	149.993	-0.107	-0.146
-583.850	-200.000	0.031	0.205
-582.836	800.000	0.043	0.180
-581.821	74.416	-0.373	-0.394
-580.806	-79.669	0.250	0.085
-579.792	233.474	-0.084	0.139
-578.777	800.000	-0.052	0.211
-577.763	-137.439	-0.092	0.010
-576.748	-200.000	-0.051	-0.569
-575.733	-60.757	-0.472	-0.201
-574.719	-90.498	-0.173	0.050
-573.704	103.494	-0.125	0.147
-572.690	197.194	0.091	-0.140
-571.675	22.425	0.103	0.085
-570.661	547.035	0.058	0.140
-569.646	800.000	-0.010	0.031
-568.631	691.042	0.074	-0.194
-567.617	-109.568	0.197	-0.042
-566.602	-200.000	-0.019	0.224
-565.588	19.743	-0.229	-0.185
-564.573	-72.594	-0.268	0.099
-563.558	-173.860	0.188	-0.006
-562.544	-200.000	0.016	0.097
-561.529	-142.354	-0.361	-0.036
-560.515	-200.000	0.003	-0.023
-559.500	-48.411	-0.029	-0.014
-558.485	99.763	0.144	-0.168
-557.471	-200.000	-0.012	-0.226
-556.456	92.672	0.115	-0.130
-555.442	-36.317	-0.171	-0.093
-554.427	-57.407	0.305	-0.135
-553.412	-63.704	-0.037	0.015
-552.398	-181.434	0.320	0.006
-551.383	-116.892	-0.315	-0.058
-550.369	-41.239	-0.127	-0.066
-549.354	-200.000	0.014	-0.220
-548.339	14.307	0.266	-0.208
-547.325	74.465	-0.031	0.032
-546.310	800.000	-0.061	0.220
-545.296	-120.336	-0.502	-0.086
-544.281	-200.000	0.050	0.373
-543.266	-200.000	-0.004	0.028
-542.252	-200.000	-0.004	-0.096
-541.237	-200.000	-0.009	-0.259
-540.223	-80.124	0.142	-0.048
-539.208	-93.704	0.149	0.041
-538.193	192.694	0.075	-0.114
-537.179	800.000	0.111	-0.369
-536.164	342.649	-0.084	0.165
-535.150	-24.231	0.239	-0.143
-534.135	800.000	-0.021	-0.090
-533.121	-74.219	0.136	-0.049
-532.106	-1.239	-0.303	0.214
-531.091	800.000	0.058	-0.171
-530.077	800.000	-0.024	0.067
-529.062	800.000	0.075	0.293
-528.048	-90.670	0.046	-0.013
-527.033	-67.785	0.196	0.077
-526.018	-99.708	0.439	-0.110
-525.004	-200.000	-0.005	0.231
-523.989	-125.324	0.128	-0.020
-522.975	101.936	-0.119	0.139
-521.960	65.238	0.130	0.132
-520.945	-40.430	-0.189	-0.099
-519.931	375.880	-0.113	-0.232
-518.916	-100.406	-0.098	-0.024
-517.902	-14.955	0.184	0.118
-516.887	54.342	0.299	-0.289
-515.872	483.748	-0.273	-0.623
-514.858	-200.000	0.003	-0.071
-513.843	-15.295	0.170	-0.109
-512.829	83.119	-0.110	0.120
-511.814	-65.686	-0.158	0.063
-510.799	32.595	0.194	0.168
-509.785	256.235	0.141	-0.243
-508.770	-200.000	0.016	0.208
-507.756	-200.000	0.064	-0.518
-506.741	-159.194	0.273	-0.015
-505.726	-79.157	-0.068	0.023
-504.712	-200.000	0.050	0.316
-503.697	170.298	-0.140	-0.201
-502.683	-200.000	0.033	-0.287
-501.668	443.890	0.165	0.363
-500.653	16.817	0.129	-0.102
-499.639	-170.839	-0.071	0.002
-498.624	-26.542	-0.235	-0.138
-497.610	800.000	0.149	-0.422
-496.595	67.329	-0.073	-0.074
-495.581	81.622	0.142	0.154
-494.566	-161.492	-0.074	-0.004
-493.551	-78.273	0.425	-0.146
-492.537	113.392	0.153	0.186
-491.522	33.352	0.089	-0.078
-490.508	-93.089	0.355	-0.099
-489.493	40.652	-0.201	-0.181
-488.478	-168.288	-0.237	-0.009
-487.464	-200.000	0.018	-0.115
-486.449	-60.279	0.219	-0.093
-485.435	318.610	0.235	0.446
-484.420	800.000	-0.087	0.241
-483.405	-200.000	-0.017	-0.239
-482.391	-149.225	-0.010	0.001
-481.376	107.068	-0.159	-0.189
-480.362	76.247	-0.201	0.213
-479.347	93.201	0.136	0.154
-478.332	-200.000	0.009	-0.242
-477.318	-200.000	0.034	-0.153
-476.303	-147.534	-0.390	-0.033
-475.289	413.585	-0.208	0.443
-474.274	800.000	-0.118	-0.379
-473.259	-200.000	0.041	-0.321
-472.245	-200.000	-0.024	0.121
-471.230	-200.000	0.023	-0.218
-470.216	293.722	-0.133	-0.244
-469.201	800.000	0.033	-0.100
-468.186	-3.716	-0.280	0.195
-467.172	-200.000	-0.004	0.104
-466.157	800.000	0.079	0.233
-465.143	-88.504	-0.152	0.045
-464.128	-87.916	-0.110	0.033
-463.113	690.764	-0.075	-0.196
-462.099	54.202	-0.082	0.079
-461.084	258.133	-0.218	-0.376
-460.070	218.260	0.185	0.296
-459.055	-103.263	0.172	-0.041
-458.040	-200.000	0.016	-0.362
-457.026	4.797	0.161	0.118
-456.011	-200.000	-0.101	-0.479
-454.997	800.000	-0.065	-0.258
-453.982	-200.000	0.006	-0.085
-452.968	-27.203	0.318	-0.186
-451.953	-8.627	0.089	0.059
-450.938	277.308	0.086	-0.153
-449.924	-62.914	-0.342	-0.141
-448.909	475.727	0.022	0.051
-447.895	-154.065	0.157	-0.011
-446.880	-104.812	0.285	0.065
-445.865	214.122	0.254	0.402
-444.851	122.675	-0.076	0.095
-443.836	-141.274	-0.227	-0.023
-442.822	-200.000	-0.028	0.131
-441.807	620.839	0.116	0.292
-440.792	-200.000	0.032	-0.178
-439.778	-136.954	-0.013	-0.001
-438.763	122.805	-0.083	-0.104
-437.749	-77.914	-0.254	-0.088
-436.734	-200.000	0.023	-0.133
-435.719	134.890	0.270	-0.350
-434.705	-200.000	0.026	-0.240
-433.690	-179.565	0.202	-0.004
-432.676	102.653	0.032	-0.037
-431.661	25.484	0.074	-0.062
-430.646	-52.826	-0.073	-0.033
-429.632	-101.336	-0.222	-0.054
-428.617	-200.000	-0.015	-0.296
-427.603	-200.000	0.020	-0.117
-426.588	255.262	-0.147	0.252
-425.573	-55.114	0.184	0.083
-424.559	800.000	0.037	-0.106
-423.544	-78.351	-0.158	0.054
-422.530	-142.387	-0.281	0.028
-421.515	-50.917	-0.178	-0.083
-420.500	152.365	0.071	0.097
-419.486	-88.054	0.360	-0.108
-418.471	-200.000	-0.004	0.283
-417.457	356.571	-0.138	-0.274
-416.442	-200.000	-0.012	-0.142
-415.428	226.304	-0.071	-0.115
-414.413	41.175	0.155	-0.140
-413.398	-147.951	0.236	0.020
-412.384	800.000	0.025	-0.082
-411.369	-148.947	-0.069	0.006
-410.355	-98.870	-0.254	0.064
-409.340	97.507	0.199	-0.228
-408.325	4.148	-0.170	0.124
-407.311	800.000	-0.109	0.378
-406.296	14.421	0.104	0.081
-405.282	157.115	0.013	0.018
-404.267	-77.712	0.064	-0.022
-403.252	-163.408	-0.368	-0.017
-402.238	800.000	0.079	-0.259
-401.223	-137.677	0.154	-0.017
-400.209	800.000	-0.060	0.173
-399.194	-57.251	0.197	-0.087
-398.179	268.602	0.112	0.196
-397.165	107.543	-0.045	-0.053
-396.150	152.776	0.049	-0.066
-395.136	-18.911	-0.082	-0.051
-394.121	-108.625	-0.111	0.024
-393.106	-200.000	0.013	-0.120
-392.092	-99.620	0.336	0.084
-391.077	-200.000	0.006	0.174
-390.063	18.463	0.233	-0.186
-389.048	-177.050	-0.414	-0.010
-388.033	-71.143	-0.214	0.080
-387.019	-108.094	0.209	-0.045
-386.004	138.027	-0.285	0.373
-384.990	-196.149	0.208	-0.001
-383.975	-200.000	0.004	0.322
-382.960	-8.450	-0.208	0.139
-381.946	-80.252	-0.125	-0.042
-380.931	468.059	-0.044	0.099
-379.917	-72.781	0.199	0.073
-378.902	104.775	-0.143	0.168
-377.888	-194.163	0.189	0.002
-376.873	-98.855	-0.161	0.041
-375.858	-131.071	-0.198	-0.026
-374.844	175.934	0.090	-0.130
-373.829	800.000	-0.170	0.572
-372.815	-145.643	0.265	0.024
-371.800	108.123	0.037	-0.044
-370.785	2.966	0.170	-0.123
-369.771	-131.526	0.282	-0.037
-368.756	255.202	0.180	0.307
-367.742	-200.000	0.005	-0.085
-366.727	90.472	-0.090	-0.100
-365.712	202.914	0.044	-0.067
-364.698	244.193	-0.076	-0.127
-363.683	-140.700	0.208	0.021
-362.669	-109.507	-0.216	0.045
-361.654	-134.067	-0.222	-0.027
-360.639	116.067	-0.132	-0.161
-359.625	-94.643	-0.100	-0.027
-358.610	800.000	0.030	-0.098
-357.596	800.000	0.037	-0.146
-356.581	476.821	0.049	-0.110
-355.566	-200.000	-0.021	-0.144
-354.552	31.860	0.122	0.105
-353.537	152.599	0.328	0.447
-352.523	-47.395	0.225	0.109
-351.508	230.877	-0.120	-0.196
-350.493	-200.000	0.019	-0.319
-349.479	-32.864	-0.375	-0.208
-348.464	-200.000	-0.017	-0.172
-347.450	13.944	0.248	-0.192
-346.435	104.012	0.153	-0.180
-345.420	706.190	-0.074	0.194
-344.406	36.165	-0.139	-0.122
-343.391	-112.740	0.057	0.011
-342.377	-35.267	-0.336	-0.182
-341.362	57.360	-0.018	0.018
-340.348	280.495	0.085	-0.151
-339.333	319.897	0.186	0.351
-338.318	0.586	0.280	-0.200
-337.304	235.790	-0.132	0.217
-336.289	694.180	-0.149	0.388
-335.275	263.782	0.070	0.121
-334.260	-200.000	-0.003	0.214
-333.245	-37.668	-0.224	-0.119
-332.231	-11.488	-0.181	-0.119
-331.216	-102.930	0.157	0.037
-330.202	129.050	0.116	0.147
-329.187	296.380	-0.161	-0.294
-328.172	-200.000	-0.036	-0.302
-327.158	-77.256	-0.342	-0.119
-326.143	800.000	0.056	0.211
-325.129	-200.000	-0.031	0.146
-324.114	-66.048	-0.077	0.031
-323.099	-200.000	0.034	0.163
-322.085	273.316	0.101	-0.177
-321.070	42.892	0.200	-0.182
-320.056	34.120	-0.101	-0.087
-319.041	265.315	-0.255	-0.442
-318.026	-200.000	0.027	0.339
-317.012	-61.295	-0.229	0.096
-315.997	-54.408	-0.270	0.122
-314.983	-46.865	0.248	0.121
-313.968	-200.000	0.019	0.154
-312.953	800.000	0.061	-0.242
-311.939	20.232	0.163	-0.131
-310.924	-152.204	-0.110	-0.008
-309.910	171.874	0.085	-0.121
-308.895	88.806	-0.186	0.206
-307.880	-200.000	0.015	0.066
-306.866	35.211	0.133	-0.116
-305.851	-200.000	0.013	-0.059
-304.837	800.000	-0.023	0.093
-303.822	-139.579	0.326	-0.035
-302.807	-24.992	-0.163	0.096
-301.793	285.707	-0.101	-0.181
-300.778	-121.006	0.177	-0.029
-299.764	206.419	0.254	-0.393
-298.749	34.682	-0.194	-0.169
-297.735	70.337	0.240	0.247
-296.720	-200.000	-0.006	0.101
-295.705	-145.032	0.243	0.022
-294.691	-200.000	-0.010	0.173
-293.676	800.000	0.069	0.253
-292.662	207.887	-0.132	0.205
-291.647	299.410	-0.012	-0.023
-290.632	744.836	-0.042	-0.114
-289.618	-88.734	0.289	-0.085
-288.603	-200.000	0.008	0.213
-287.589	-46.268	-0.115	-0.056
-286.574	-135.477	-0.162	-0.019
-285.559	-200.000	-0.000	0.008
-284.545	-147.675	0.448	-0.037
-283.530	-200.000	-0.033	0.230
-282.516	-200.000	-0.021	0.138
-281.501	-23.221	-0.337	-0.202
-280.486	41.471	0.178	0.160
-279.472	-81.969	-0.350	-0.114
-278.457	-116.670	0.190	0.035
-277.443	20.842	0.191	-0.153
-276.428	111.214	0.189	0.226
-275.413	171.665	0.184	-0.263
-274.399	276.433	-0.193	-0.340
-273.384	-19.531	-0.377	-0.232
-272.370	48.160	0.175	0.162
-271.355	-200.000	-0.327	-0.002
-270.340	-200.000	0.026	-0.168
-269.326	696.382	0.047	0.122
-268.311	-200.000	0.009	0.043
-267.297	617.444	-0.037	0.093
-266.282	175.269	0.091	-0.131
-265.267	-86.238	0.399	0.122
-264.253	252.073	0.041	0.070
-263.238	-200.000	0.028	-0.245
-262.224	-200.000	0.052	0.254
-261.209	-44.516	-0.091	0.045
-260.195	-18.074	0.233	0.145
-259.180	687.808	-0.063	0.164
-258.165	-27.668	0.208	0.120
-257.151	-45.468	0.070	0.034
-256.136	64.594	-0.320	0.320
-255.122	-108.516	-0.131	0.028
-254.107	-152.255	-0.312	-0.022
-253.092	176.659	0.064	-0.092
-252.078	-20.541	0.110	-0.067
-251.063	-25.979	0.220	-0.129
-250.049	271.219	0.150	0.263
-249.034	350.852	-0.122	0.240
-248.019	67.240	-0.071	-0.072
-247.005	-99.429	-0.224	0.056
-245.990	-2.846	0.279	-0.194
-244.976	-13.920	0.186	0.119
-243.961	113.495	-0.145	0.175
-242.946	-200.000	0.016	0.339
-241.932	-200.000	0.000	0.453
-240.917	-87.670	0.189	0.056
-239.903	69.610	-0.087	-0.088
-238.888	-49.696	0.374	0.176
-237.873	-200.000	0.034	0.410
-236.859	176.558	0.128	-0.185
-235.844	185.281	-0.055	0.081
-234.830	783.918	-0.170	0.463
-233.815	-200.000	0.025	0.123
-232.800	-32.876	0.263	0.145
-231.786	200.180	0.166	0.254
-230.771	184.959	0.086	-0.126
-229.757	15.802	0.252	0.197
-228.742	-111.788	-0.322	-0.065
-227.727	95.206	0.093	-0.106
-226.713	137.174	-0.121	0.157
-225.698	65.637	-0.130	0.131
-224.684	-200.000	-0.013	0.080
-223.669	76.302	-0.216	-0.227
-222.655	27.997	0.084	0.070
-221.640	-200.000	0.011	-0.300
-220.625	-22.765	0.223	0.133
-219.611	-83.706	-0.159	0.050
-218.596	590.576	0.085	0.207
-217.582	800.000	-0.042	0.169
-216.567	-200.000	0.016	0.169
-215.552	-95.698	-0.303	-0.080
-214.538	259.002	0.053	0.091
-213.523	173.433	0.084	-0.120
-212.509	-200.000	-0.007	0.310
-211.494	184.553	-0.074	0.109
-210.479	164.655	0.152	0.213
-209.465	800.000	-0.037	0.149
-208.450	94.600	-0.280	0.315
-207.436	4.215	-0.241	0.175
-206.421	-200.000	0.023	0.243
-205.406	-200.000	-0.008	-0.072
-204.392	188.573	-0.114	0.169
-203.377	800.000	-0.050	0.144
-202.363	-5.898	-0.051	-0.034
-201.348	627.459	0.024	-0.059
-200.333	-200.000	0.013	-0.128
-199.319	-48.062	-0.068	-0.033
-198.304	-87.398	-0.128	-0.038
-197.290	-139.281	-0.201	-0.021
-196.275	800.000	0.032	-0.110
-195.260	12.562	-0.159	-0.121
-194.246	-186.387	0.237	-0.003
-193.231	-5.239	0.046	0.031
-192.217	-141.008	0.185	0.019
-191.202	136.401	-0.204	0.263
-190.187	-161.298	-0.316	0.016
-189.173	39.453	0.098	-0.087
-188.158	784.950	-0.060	-0.163
-187.144	-200.000	0.026	0.150
-186.129	34.507	-0.422	-0.365
-185.114	-43.802	0.180	-0.090
-184.100	-200.000	-0.014	-0.174
-183.085	-85.167	-0.184	0.057
-182.071	81.438	-0.219	0.235
-181.056	-33.766	-0.326	-0.178
-180.042	-200.000	0.010	0.093
-179.027	86.379	-0.204	0.223
-178.012	-52.197	0.352	-0.161
-176.998	429.041	-0.216	0.462
-175.983	33.729	-0.041	0.035
-174.969	609.504	0.030	0.075
-173.954	-139.313	0.270	0.029
-172.939	62.730	-0.214	-0.211
-171.925	-94.446	-0.256	0.069
-170.910	736.179	-0.008	0.022
-169.896	79.900	-0.280	-0.298
-168.881	113.356	-0.195	-0.235
-167.866	472.220	0.099	0.221
-166.852	20.286	0.189	0.151
-165.837	313.894	-0.243	0.452
-164.823	-43.010	0.252	0.126
-163.808	28.740	0.083	-0.069
-162.793	-105.225	0.071	-0.016
-161.779	329.332	0.132	-0.251
-160.764	-35.160	0.048	-0.026
-159.750	-124.506	-0.295	-0.045
-158.735	-128.759	0.178	0.025
-157.720	800.000	-0.013	-0.050
-156.706	-144.261	0.160	-0.015
-155.691	176.117	-0.175	0.251
-154.677	57.107	0.305	0.294
-153.662	279.108	0.085	0.150
-152.647	-130.003	-0.206	-0.028
-151.633	459.481	-0.104	0.229
-150.618	78.782	0.052	0.055
-149.604	-200.000	0.041	0.276
-148.589	-179.909	-0.341	-0.007
-147.574	-98.499	0.244	-0.062
-146.560	-162.734	-0.149	-0.007
-145.545	-2.747	0.070	0.048
-144.531	149.561	0.150	-0.200
-143.516	-200.000	0.009	0.117
-142.502	527.895	0.139	-0.324
-141.487	800.000	-0.062	-0.186
-140.472	-200.000	-0.058	0.288
-139.458	-200.000	0.008	-0.117
-138.443	11.018	0.173	-0.131
-137.429	-74.713	0.238	0.085
-136.414	-11.909	0.198	-0.128
-135.399	185.896	-0.160	0.236
-134.385	-162.705	0.149	-0.007
-133.370	49.735	0.219	0.203
-132.356	471.173	-0.081	-0.181
-131.341	312.203	-0.190	-0.353
-130.326	420.491	0.081	0.171
-129.312	344.150	0.111	0.214
-128.297	-103.038	-0.134	-0.031
-127.283	63.655	0.078	-0.077
-126.268	800.000	0.050	0.191
-125.253	-48.167	-0.132	-0.063
-124.239	-49.510	0.090	-0.043
-123.224	146.237	0.101	0.134
-122.210	-42.476	0.370	0.186
-121.195	-200.000	-0.027	0.184
