DTS Sentinel unit serial number:	SN413079Multiplexer serial number:	ORYXHardware model number:	OX4-SRSoftware version number:	ORYX F/W v4.00 Oryx Data Collector v3.7.2.0data status	okinstallation	princeton_trtdifferential loss correction	single-endedforward channel	channel 1reverse channel	N/Adate	2019/09/17time	10:54:35forward acquisition time	60.00reverse acquisition time	0.00gamma	496.2192k internal	0.2323k external	0.2323temperature offset calibration	0.9959default loss term (dB/km)	0.3790temperature slope calibration	1.0000multiplexer offset coefficient	1.0000multiplexer slope coefficient	1.0000fibre end	0.00T internal ref (°C)	30.25T ext. ref 1 (°C)	0.18T ext. ref 2 (°C)	25.81length (m)	temperature (°C)	Stokes	anti-Stokes-747.200	800.000	0.105	0.436
-746.185	-121.664	-0.239	-0.040
-745.171	-200.000	-0.009	0.245
-744.156	137.529	0.253	0.335
-743.142	-200.000	0.017	0.092
-742.127	187.327	-0.227	-0.342
-741.112	-80.453	0.334	-0.113
-740.098	572.690	-0.121	0.299
-739.083	-136.796	0.181	-0.021
-738.069	559.140	0.070	0.172
-737.054	-123.908	0.242	0.039
-736.039	-70.337	-0.358	-0.137
-735.025	-106.045	0.318	-0.072
-734.010	-143.508	-0.151	0.015
-732.996	530.905	0.105	-0.250
-731.981	221.723	0.163	0.265
-730.966	10.124	-0.013	0.010
-729.952	-66.926	-0.266	-0.106
-728.937	178.029	-0.209	0.308
-727.923	-160.784	0.342	0.018
-726.908	-112.386	-0.200	0.040
-725.894	-200.000	0.054	-0.348
-724.879	172.884	-0.084	0.122
-723.864	-61.741	-0.191	-0.081
-722.850	83.669	0.189	-0.208
-721.835	-65.834	-0.152	-0.061
-720.821	800.000	0.057	0.198
-719.806	-181.665	-0.046	0.001
-718.791	459.249	-0.081	0.183
-717.777	800.000	-0.071	0.221
-716.762	25.389	0.262	0.219
-715.748	-2.437	0.166	0.118
-714.733	212.293	0.124	-0.197
-713.718	800.000	-0.060	-0.263
-712.704	-90.381	0.318	0.093
-711.689	-45.249	-0.108	0.054
-710.675	-200.000	-0.039	0.248
-709.660	783.234	0.107	-0.294
-708.645	24.955	0.053	0.044
-707.631	499.167	0.074	-0.172
-706.616	-185.386	-0.224	-0.003
-705.602	-166.020	-0.270	0.012
-704.587	136.573	-0.169	-0.222
-703.572	-200.000	-0.024	0.211
-702.558	133.198	-0.031	0.040
-701.543	-103.068	-0.301	-0.072
-700.529	342.832	0.272	0.537
-699.514	-97.594	-0.102	-0.027
-698.499	40.110	0.186	-0.168
-697.485	-200.000	-0.005	0.235
-696.470	-172.883	-0.087	-0.003
-695.456	-178.159	0.118	-0.003
-694.441	-70.744	-0.120	-0.046
-693.426	284.713	0.058	0.105
-692.412	-83.898	-0.186	-0.060
-691.397	-103.105	-0.229	-0.055
-690.383	800.000	0.026	-0.087
-689.368	-52.727	-0.063	-0.029
-688.354	-200.000	-0.045	-0.214
-687.339	368.340	0.101	0.207
-686.324	53.528	0.357	0.345
-685.310	579.470	-0.163	0.401
-684.295	54.432	-0.098	-0.095
-683.281	-200.000	0.049	-0.267
-682.266	44.096	0.178	-0.165
-681.251	800.000	0.106	-0.411
-680.237	664.906	-0.073	-0.189
-679.222	-200.000	-0.035	-0.193
-678.208	250.258	-0.051	-0.088
-677.193	11.360	0.132	0.101
-676.178	-122.069	-0.516	0.085
-675.164	800.000	0.048	-0.175
-674.149	-77.699	-0.397	-0.138
-673.135	519.892	0.050	-0.119
-672.120	159.188	0.116	-0.162
-671.105	-15.785	0.224	0.144
-670.091	113.014	0.122	0.149
-669.076	-100.322	0.385	0.096
-668.062	-95.395	0.132	0.036
-667.047	-200.000	0.016	-0.511
-666.032	319.807	0.064	-0.123
-665.018	800.000	-0.064	0.267
-664.003	-181.454	0.284	0.006
-662.989	116.605	-0.196	-0.242
-661.974	-200.000	-0.006	-0.199
-660.959	-41.606	0.190	-0.098
-659.945	-117.471	-0.121	-0.022
-658.930	-135.691	-0.331	0.040
-657.916	95.113	-0.101	0.115
-656.901	-1.434	-0.219	-0.155
-655.886	111.321	-0.175	-0.213
-654.872	22.097	-0.162	-0.133
-653.857	106.233	0.255	-0.304
-652.843	-39.169	-0.294	0.155
-651.828	27.633	-0.387	-0.328
-650.814	-200.000	0.010	0.305
-649.799	213.440	-0.110	0.175
-648.784	-200.000	0.023	-0.169
-647.770	464.724	-0.040	-0.090
-646.755	-90.823	-0.279	0.081
-645.741	123.594	-0.112	-0.141
-644.726	61.368	-0.176	-0.176
-643.711	-172.114	0.310	0.010
-642.697	-200.000	-0.031	-0.166
-641.682	-142.272	-0.368	-0.037
-640.668	131.130	0.131	0.169
-639.653	50.311	0.085	-0.080
-638.638	-200.000	-0.012	-0.097
-637.624	-28.984	-0.178	-0.103
-636.609	98.554	-0.154	0.178
-635.595	-200.000	-0.002	0.188
-634.580	98.506	0.206	-0.238
-633.565	-131.024	0.183	0.025
-632.551	150.634	-0.081	-0.110
-631.536	-79.302	-0.212	-0.072
-630.522	-187.050	0.117	-0.002
-629.507	-36.512	0.162	0.088
-628.492	82.682	0.098	-0.107
-627.478	19.509	-0.270	-0.218
-626.463	800.000	-0.075	-0.209
-625.449	-91.807	0.105	0.030
-624.434	139.948	-0.144	0.190
-623.419	88.938	-0.229	0.256
-622.405	-111.015	-0.338	-0.070
-621.390	800.000	-0.017	0.061
-620.376	-200.000	0.003	0.117
-619.361	562.374	0.120	0.292
-618.346	-200.000	0.006	0.060
-617.332	-174.024	0.306	0.009
-616.317	-162.610	-0.141	-0.007
-615.303	-89.112	-0.269	0.080
-614.288	800.000	-0.084	0.271
-613.273	199.109	-0.062	-0.095
-612.259	-40.716	-0.030	0.016
-611.244	177.816	0.106	0.156
-610.230	-46.366	0.084	0.041
-609.215	162.900	-0.151	-0.213
-608.201	-91.252	0.236	-0.068
-607.186	119.122	-0.238	-0.296
-606.171	-200.000	0.035	-0.196
-605.157	-27.481	-0.069	0.040
-604.142	-18.988	0.056	0.035
-603.128	267.518	0.027	-0.048
-602.113	-144.439	-0.306	0.029
-601.098	-200.000	0.025	0.158
-600.084	-90.364	-0.130	-0.038
-599.069	-11.801	-0.117	0.077
-598.055	738.713	-0.145	0.391
-597.040	-200.000	-0.055	0.325
-596.025	39.641	0.359	-0.323
-595.011	29.702	-0.390	-0.333
-593.996	800.000	-0.036	-0.136
-592.982	-184.311	0.123	0.002
-591.967	-70.371	0.279	-0.106
-590.952	116.671	-0.072	-0.089
-589.938	-195.279	0.259	0.002
-588.923	-69.212	0.286	-0.110
-587.909	-200.000	0.138	-0.000
-586.894	41.991	0.100	-0.091
-585.879	567.786	-0.039	0.095
-584.865	800.000	0.073	0.238
-583.850	169.466	-0.141	-0.202
-582.836	247.800	-0.085	-0.144
-581.821	-103.421	-0.250	-0.059
-580.806	-34.647	0.277	-0.152
-579.792	-42.196	-0.306	0.157
-578.777	-68.485	0.076	-0.029
-577.763	778.655	0.068	-0.187
-576.748	-133.124	-0.169	0.021
-575.733	800.000	-0.084	-0.280
-574.719	333.574	0.151	-0.294
-573.704	620.624	-0.058	-0.146
-572.690	-200.000	-0.038	0.220
-571.675	-53.620	0.163	0.075
-570.661	-200.000	-0.036	0.185
-569.646	136.455	0.101	0.132
-568.631	-36.018	-0.302	0.164
-567.617	625.412	-0.102	0.259
-566.602	-200.000	-0.005	0.220
-565.588	-18.231	-0.181	-0.114
-564.573	-200.000	-0.051	-0.372
-563.558	-107.406	0.062	0.014
-562.544	24.266	-0.188	0.156
-561.529	800.000	0.063	-0.215
-560.515	-60.015	-0.134	0.057
-559.500	800.000	-0.012	0.033
-558.485	-150.019	-0.063	-0.005
-557.471	-41.084	-0.096	-0.050
-556.456	-98.513	-0.339	-0.087
-555.442	-47.994	-0.211	-0.102
-554.427	48.538	0.083	0.078
-553.412	-67.444	0.202	0.079
-552.398	800.000	-0.031	0.101
-551.383	69.233	0.190	0.196
-550.369	-42.577	-0.154	0.079
-549.354	82.794	0.101	0.110
-548.339	-29.265	-0.172	-0.099
-547.325	800.000	0.003	-0.010
-546.310	100.672	0.207	0.241
-545.296	18.923	0.092	-0.074
-544.281	-152.426	0.092	0.007
-543.266	-200.000	0.000	0.140
-542.252	-172.681	0.395	0.012
-541.237	8.136	-0.218	-0.164
-540.223	-145.833	0.321	-0.029
-539.208	-29.631	-0.071	-0.041
-538.193	-92.980	-0.120	0.034
-537.179	0.452	0.057	0.041
-536.164	166.916	-0.162	-0.230
-535.150	7.527	-0.224	-0.168
-534.135	-123.805	0.137	0.022
-533.121	-92.853	-0.299	0.084
-532.106	132.616	-0.289	0.373
-531.091	7.413	0.189	-0.142
-530.077	-39.658	-0.444	0.233
-529.062	-120.829	-0.382	-0.064
-528.048	-162.331	0.162	-0.008
-527.033	-200.000	-0.034	0.319
-526.018	-25.812	0.148	0.087
-525.004	-63.764	-0.400	0.164
-523.989	36.866	0.304	0.269
-522.975	85.213	0.149	0.163
-521.960	509.365	0.083	-0.193
-520.945	-8.769	-0.411	-0.276
-519.931	-80.568	0.107	-0.036
-518.916	560.955	0.135	0.326
-517.902	-79.568	-0.324	-0.110
-516.887	100.811	-0.131	0.152
-515.872	-200.000	-0.010	0.295
-514.858	-49.163	-0.377	0.180
-513.843	-20.630	-0.314	-0.193
-512.829	-103.168	0.114	-0.027
-511.814	800.000	0.071	0.251
-510.799	-27.321	-0.172	0.100
-509.785	53.790	0.218	0.209
-508.770	227.768	-0.027	-0.044
-507.756	-142.618	0.054	-0.005
-506.741	-107.218	0.183	-0.040
-505.726	-77.225	0.117	-0.041
-504.712	21.357	-0.155	0.126
-503.697	-200.000	0.020	0.264
-502.683	-1.712	0.048	0.034
-501.668	262.723	0.120	-0.208
-500.653	1.490	-0.280	-0.202
-499.639	-32.778	-0.074	-0.041
-498.624	-77.074	0.181	0.063
-497.610	83.537	-0.269	-0.293
-496.595	800.000	-0.042	-0.143
-495.581	-23.848	-0.131	-0.078
-494.566	132.902	-0.161	0.208
-493.551	23.789	0.062	0.051
-492.537	499.633	-0.043	0.099
-491.522	492.315	-0.148	-0.340
-490.508	-200.000	0.045	-0.259
-489.493	-162.127	-0.052	0.003
-488.478	-114.303	-0.447	0.086
-487.464	-200.000	-0.003	0.031
-486.449	-106.397	-0.317	0.071
-485.435	294.980	0.051	-0.093
-484.420	-114.626	0.341	-0.065
-483.405	14.148	-0.119	0.093
-482.391	133.083	-0.147	0.190
-481.376	-200.000	-0.029	-0.266
-480.362	-200.000	-0.017	-0.198
-479.347	-1.444	-0.274	0.193
-478.332	77.303	0.155	0.165
-477.318	409.860	0.148	0.314
-476.303	-71.146	-0.387	-0.145
-475.289	-160.944	0.233	-0.012
-474.274	-104.447	0.220	-0.051
-473.259	581.080	-0.031	0.077
-472.245	-200.000	-0.022	-0.144
-471.230	8.231	0.095	-0.071
-470.216	800.000	-0.057	0.175
-469.201	-200.000	0.035	0.249
-468.186	-170.934	-0.371	0.013
-467.172	-20.981	-0.210	-0.128
-466.157	652.400	-0.065	-0.166
-465.143	533.033	-0.120	-0.285
-464.128	32.489	0.187	-0.162
-463.113	30.815	0.053	0.046
-462.099	-37.933	0.154	0.082
-461.084	188.862	0.061	-0.091
-460.070	-167.157	0.323	0.013
-459.055	-200.000	0.014	-0.260
-458.040	-194.587	0.243	-0.002
-457.026	97.283	-0.052	0.060
-456.011	-200.000	0.233	0.000
-454.997	71.845	0.105	0.109
-453.982	-46.830	0.155	0.076
-452.968	-29.183	-0.242	-0.139
-451.953	-80.637	0.126	-0.042
-450.938	-200.000	-0.039	0.288
-449.924	31.374	0.328	-0.281
-448.909	-78.502	-0.189	-0.065
-447.895	800.000	-0.040	-0.113
-446.880	-200.000	-0.011	0.134
-445.865	3.335	-0.318	0.231
-444.851	-200.000	0.021	0.260
-443.836	32.398	0.178	0.153
-442.822	520.901	-0.095	-0.221
-441.807	121.599	0.124	0.154
-440.792	259.368	-0.179	0.308
-439.778	-31.931	-0.401	-0.224
-438.763	-74.574	-0.218	-0.078
-437.749	131.097	0.186	0.238
-436.734	-182.817	-0.278	0.005
-435.719	800.000	0.081	-0.285
-434.705	-146.950	0.245	-0.021
-433.690	131.405	-0.057	0.073
-432.676	-3.066	-0.301	0.210
-431.661	18.372	0.083	-0.066
-430.646	-200.000	-0.048	-0.298
-429.632	-114.845	0.145	-0.028
-428.617	-58.150	0.080	0.035
-427.603	-9.751	0.095	0.063
-426.588	-112.730	-0.135	-0.027
-425.573	159.243	-0.306	0.424
-424.559	800.000	0.056	-0.159
-423.544	39.720	0.075	-0.067
-422.530	-132.332	-0.307	0.040
-421.515	-200.000	-0.009	-0.181
-420.500	61.748	0.176	-0.175
-419.486	-200.000	0.044	0.412
-418.471	34.397	-0.057	0.050
-417.457	800.000	-0.069	-0.224
-416.442	800.000	0.079	0.262
-415.428	-158.399	0.344	0.020
-414.413	400.622	-0.064	-0.133
-413.398	-34.630	0.130	0.071
-412.384	261.334	-0.162	0.280
-411.369	-109.816	-0.355	-0.074
-410.355	-114.589	-0.209	-0.040
-409.340	26.139	-0.093	0.077
-408.325	-200.000	-0.014	0.087
-407.311	-200.000	-0.066	0.351
-406.296	138.302	-0.239	-0.312
-405.282	-6.391	-0.345	-0.235
-404.267	-200.000	-0.007	-0.330
-403.252	-200.000	-0.256	0.001
-402.238	-200.000	0.010	0.142
-401.223	175.349	0.141	-0.204
-400.209	-200.000	-0.050	0.262
-399.194	800.000	0.044	-0.182
-398.179	-95.404	-0.326	-0.087
-397.165	-174.982	0.086	0.002
-396.150	800.000	-0.027	0.080
-395.136	-196.408	-0.111	0.001
-394.121	-117.410	0.206	0.037
-393.106	-81.209	0.162	0.053
-392.092	-45.588	-0.238	-0.117
-391.077	-151.035	0.152	-0.011
-390.063	-156.734	0.088	-0.005
-389.048	-200.000	0.045	0.265
-388.033	53.365	0.142	-0.136
-387.019	148.591	-0.158	0.213
-386.004	196.625	0.051	-0.078
-384.990	-171.997	-0.243	-0.008
-383.975	-25.998	0.255	-0.149
-382.960	385.978	0.141	0.290
-381.946	115.933	0.192	0.234
-380.931	-200.000	-0.009	-0.110
-379.917	4.988	-0.167	-0.122
-378.902	85.612	-0.089	-0.097
-377.888	-65.389	-0.266	-0.107
-376.873	800.000	0.094	0.331
-375.858	60.925	-0.240	0.238
-374.844	-69.392	-0.147	-0.056
-373.829	-200.000	0.019	-0.202
-372.815	542.350	0.159	0.377
-371.800	800.000	0.045	0.189
-370.785	-168.812	-0.282	0.011
-369.771	-187.752	0.333	-0.004
-368.756	114.606	-0.313	0.379
-367.742	-200.000	0.031	-0.323
-366.727	556.329	0.177	-0.425
-365.712	-120.291	-0.240	0.041
-364.698	-103.414	-0.359	-0.084
-363.683	-200.000	-0.025	-0.262
-362.669	182.310	-0.056	0.082
-361.654	-200.000	-0.080	-0.362
-360.639	3.478	0.333	0.241
-359.625	-200.000	0.016	-0.085
-358.610	42.207	-0.140	-0.127
-357.596	72.146	-0.322	-0.334
-356.581	170.128	0.149	-0.212
-355.566	14.729	0.154	0.119
-354.552	458.573	0.095	-0.211
-353.537	133.636	0.264	-0.340
-352.523	-8.836	-0.121	-0.081
-351.508	206.594	0.228	-0.354
-350.493	-151.989	-0.572	0.041
-349.479	-200.000	0.028	-0.124
-348.464	157.999	0.164	-0.226
-347.450	-20.120	0.095	-0.058
-346.435	-15.654	-0.363	0.230
-345.420	-11.658	0.125	0.082
-344.406	-35.012	-0.212	0.115
-343.391	9.557	0.198	-0.149
-342.377	-44.578	0.304	-0.151
-341.362	117.628	-0.189	0.231
-340.348	384.168	0.207	0.424
-339.333	51.077	0.122	0.115
-338.318	-200.000	-0.015	-0.124
-337.304	-143.596	-0.301	0.028
-336.289	110.102	0.054	0.065
-335.275	800.000	0.062	-0.206
-334.260	774.392	-0.097	0.262
-333.245	800.000	0.069	0.191
-332.231	267.428	0.193	0.336
-331.216	-65.533	0.224	0.089
-330.202	8.454	-0.200	0.149
-329.187	136.448	0.049	-0.063
-328.172	-128.592	0.065	-0.009
-327.158	-34.926	-0.110	0.060
-326.143	-76.072	0.299	0.105
-325.129	-19.533	-0.133	-0.082
-324.114	64.149	0.343	-0.342
-323.099	-182.769	-0.168	-0.003
-322.085	-106.427	-0.382	0.085
-321.070	-200.000	-0.033	-0.258
-320.056	800.000	-0.098	0.294
-319.041	328.141	0.162	-0.310
-318.026	-130.488	0.397	0.053
-317.012	800.000	0.174	-0.494
-315.997	90.613	-0.050	-0.056
-314.983	200.150	-0.120	0.183
-313.968	190.088	-0.109	-0.163
-312.953	-200.000	0.010	0.270
-311.939	-125.533	0.287	-0.043
-310.924	-66.895	0.179	0.070
-309.910	800.000	-0.096	0.280
-308.895	35.573	-0.039	-0.034
-307.880	800.000	0.066	-0.268
-306.866	-95.858	-0.222	-0.059
-305.851	-200.000	-0.056	-0.279
-304.837	-200.000	0.081	-0.439
-303.822	-200.000	0.065	0.493
-302.807	461.895	-0.073	-0.161
-301.793	47.849	0.222	0.206
-300.778	302.689	-0.033	0.061
-299.764	5.876	0.148	-0.109
-298.749	-120.403	0.262	-0.044
-297.735	65.228	0.154	-0.155
-296.720	65.497	0.167	0.167
-295.705	42.377	0.177	-0.160
-294.691	-21.287	-0.136	-0.083
-293.676	61.000	0.120	0.118
-292.662	57.743	-0.206	0.200
-291.647	39.057	-0.332	-0.294
-290.632	19.751	-0.187	0.149
-289.618	-64.465	-0.011	-0.004
-288.603	-48.003	0.220	-0.106
-287.589	-101.130	0.171	-0.041
-286.574	-125.182	-0.416	-0.063
-285.559	-10.657	0.207	-0.136
-284.545	-200.000	-0.008	-0.046
-283.530	-181.927	-0.275	-0.005
-282.516	-95.408	-0.249	-0.066
-281.501	-63.964	0.170	-0.069
-280.486	190.456	0.023	0.035
-279.472	-157.515	-0.197	-0.012
-278.457	-26.729	0.247	-0.143
-277.443	-200.000	0.020	-0.218
-276.428	-48.539	0.240	0.115
-275.413	800.000	0.005	-0.022
-274.399	-200.000	0.003	-0.061
-273.384	-200.000	0.034	-0.235
-272.370	115.119	-0.061	-0.074
-271.355	-200.000	0.024	0.451
-270.340	-40.836	0.164	-0.084
-269.326	49.663	-0.058	-0.054
-268.311	-200.000	0.072	0.393
-267.297	-161.393	0.200	-0.010
-266.282	296.243	-0.073	0.132
-265.267	-48.036	0.298	-0.143
-264.253	50.050	-0.119	0.112
-263.238	-38.754	0.089	-0.047
-262.224	-200.000	0.019	0.086
-261.209	270.242	0.143	0.249
-260.195	800.000	-0.094	0.274
-259.180	-119.337	-0.179	-0.031
-258.165	74.308	0.216	-0.225
-257.151	-200.000	0.010	-0.332
-256.136	-200.000	0.009	0.045
-255.122	-35.686	0.128	0.069
-254.107	-41.452	-0.118	0.060
-253.092	189.734	0.183	-0.271
-252.078	6.397	-0.148	0.109
-251.063	-161.202	0.501	0.026
-250.049	-200.000	-0.010	0.067
-249.034	-111.754	-0.145	-0.029
-248.019	313.568	0.098	-0.183
-247.005	560.058	-0.066	-0.157
-245.990	-69.836	0.177	0.067
-244.976	39.805	0.217	-0.193
-243.961	-200.000	-0.043	0.278
-242.946	-70.935	-0.260	0.097
-241.932	800.000	0.089	0.352
-240.917	-119.583	-0.222	0.038
-239.903	-109.688	0.277	-0.058
-238.888	-58.989	0.150	0.064
-237.873	156.677	0.110	0.150
-236.859	-151.729	0.212	-0.015
-235.844	800.000	0.065	0.198
-234.830	-43.192	-0.060	-0.030
-233.815	-175.227	0.067	-0.002
-232.800	-110.838	-0.154	0.032
-231.786	245.488	0.049	0.081
-230.771	-200.000	0.078	-0.473
-229.757	-200.000	0.038	-0.209
-228.742	116.229	0.018	0.022
-227.727	-9.043	-0.157	0.104
-226.713	-200.000	0.036	-0.209
-225.698	-84.930	-0.125	0.039
-224.684	54.550	-0.247	0.236
-223.669	800.000	-0.043	-0.177
-222.655	-108.373	-0.090	-0.019
-221.640	-200.000	-0.016	-0.177
-220.625	800.000	-0.051	-0.191
-219.611	-200.000	-0.030	-0.173
-218.596	-200.000	-0.067	0.368
-217.582	202.338	0.124	0.190
-216.567	-200.000	0.005	-0.089
-215.552	45.486	0.171	0.156
-214.538	-200.000	-0.009	-0.093
-213.523	-200.000	0.024	-0.216
-212.509	-11.827	0.025	-0.016
-211.494	272.330	0.130	0.227
-210.479	150.239	0.136	0.182
-209.465	-51.913	0.307	0.141
-208.450	-200.000	0.002	0.195
-207.436	-200.000	0.014	0.220
-206.421	185.594	0.188	-0.276
-205.406	-6.719	-0.078	-0.053
-204.392	23.130	0.180	-0.146
-203.377	-138.183	0.179	-0.020
-202.363	-29.044	-0.302	0.171
-201.348	282.721	0.063	0.111
-200.333	330.692	0.183	0.349
-199.319	-200.000	-0.011	-0.355
-198.304	-22.379	0.038	0.023
-197.290	132.203	0.057	0.073
-196.275	292.996	-0.113	0.205
-195.260	19.427	0.115	-0.091
-194.246	391.368	-0.078	0.160
-193.231	-42.129	0.212	0.107
-192.217	-2.937	0.190	0.131
-191.202	84.826	0.216	0.233
-190.187	421.158	-0.210	-0.445
-189.173	459.681	0.013	0.029
-188.158	16.159	0.208	0.162
-187.144	-114.005	0.194	-0.037
-186.129	255.969	-0.192	0.326
-185.114	39.335	-0.178	-0.158
-184.100	152.522	0.158	-0.213
-183.085	-29.748	0.065	-0.037
-182.071	32.933	0.143	-0.122
-181.056	-85.939	0.142	0.043
-180.042	1.665	0.359	-0.255
-179.027	800.000	0.073	-0.250
-178.012	-144.832	0.346	-0.031
-176.998	275.223	0.011	0.019
-175.983	88.734	-0.100	-0.110
-174.969	-200.000	-0.017	0.139
-173.954	611.905	0.067	-0.166
-172.939	-184.996	-0.022	-0.000
-171.925	99.089	-0.051	0.058
-170.910	-96.050	0.192	0.050
-169.896	-93.425	0.395	0.108
-168.881	691.036	0.111	-0.287
-167.866	273.136	0.015	-0.027
-166.852	-110.274	-0.180	0.037
-165.837	-200.000	-0.010	0.129
-164.823	59.239	0.240	0.233
-163.808	-36.245	0.183	-0.098
-162.793	31.111	0.059	-0.050
-161.779	97.683	0.135	-0.153
-160.764	-66.905	-0.122	0.047
-159.750	800.000	0.067	-0.206
-158.735	-166.878	0.354	0.014
-157.720	-29.056	-0.328	0.186
-156.706	-123.366	0.390	-0.061
-155.691	65.152	-0.175	-0.175
-154.677	119.837	0.145	0.178
-153.662	-3.045	0.077	-0.053
-152.647	-78.627	0.452	0.153
-151.633	-24.059	0.309	0.182
-150.618	-96.878	0.220	0.057
-149.604	-82.876	-0.362	0.115
-148.589	800.000	0.015	0.042
-147.574	-30.678	-0.411	-0.230
-146.560	800.000	-0.021	-0.077
-145.545	195.872	0.089	-0.134
-144.531	64.216	0.493	0.490
-143.516	-200.000	0.037	0.446
-142.502	-200.000	-0.004	-0.347
-141.487	-200.000	-0.029	-0.159
-140.472	-200.000	0.001	0.310
-139.458	331.276	-0.058	0.110
-138.443	800.000	0.044	-0.165
-137.429	-200.000	-0.009	-0.047
-136.414	-144.744	0.259	-0.024
-135.399	-200.000	0.020	0.353
-134.385	165.913	0.061	-0.085
-133.370	160.392	0.114	-0.157
-132.356	-99.429	0.399	0.099
-131.341	98.137	-0.072	0.081
-130.326	800.000	0.030	0.120
-129.312	800.000	0.044	-0.166
-128.297	-62.810	0.203	0.083
-127.283	-95.169	0.534	0.142
-126.268	-200.000	0.020	0.313
-125.253	-156.406	0.311	-0.019
-124.239	-86.724	-0.234	-0.070
-123.224	45.745	-0.122	0.111
-122.210	800.000	0.089	0.245
-121.195	113.013	-0.070	0.083
