DTS Sentinel unit serial number:	SN413079Multiplexer serial number:	ORYXHardware model number:	OX4-SRSoftware version number:	ORYX F/W v4.00 Oryx Data Collector v3.7.2.0data status	okinstallation	princeton_trtdifferential loss correction	single-endedforward channel	channel 1reverse channel	N/Adate	2019/09/14time	03:10:35forward acquisition time	60.00reverse acquisition time	0.00gamma	496.2192k internal	0.2336k external	0.2336temperature offset calibration	1.0078default loss term (dB/km)	0.3790temperature slope calibration	1.0000multiplexer offset coefficient	1.0000multiplexer slope coefficient	1.0000fibre end	0.00T internal ref (°C)	26.61T ext. ref 1 (°C)	3.26T ext. ref 2 (°C)	21.65length (m)	temperature (°C)	Stokes	anti-Stokes-747.200	-200.000	0.061	0.304
-746.185	800.000	0.107	0.324
-745.171	25.570	0.039	0.033
-744.156	-31.836	-0.204	-0.115
-743.142	800.000	0.056	0.177
-742.127	461.492	-0.090	0.201
-741.112	136.034	-0.111	0.145
-740.098	-147.152	0.422	-0.036
-739.083	-23.263	-0.331	0.200
-738.069	-65.828	-0.363	0.146
-737.054	-75.858	-0.066	0.024
-736.039	-129.409	-0.056	-0.008
-735.025	-200.000	-0.003	-0.032
-734.010	-186.530	-0.337	0.005
-732.996	-200.000	0.010	-0.055
-731.981	-18.307	-0.176	0.110
-730.966	143.629	0.090	-0.120
-729.952	602.395	-0.096	0.240
-728.937	93.783	0.162	0.184
-727.923	-81.906	-0.382	0.125
-726.908	313.004	0.141	-0.267
-725.894	-91.450	-0.167	-0.048
-724.879	175.910	-0.056	0.082
-723.864	184.143	0.115	0.171
-722.850	9.929	0.234	0.178
-721.835	-111.168	0.171	0.035
-720.821	-53.630	0.173	0.079
-719.806	-28.055	-0.127	0.074
-718.791	-100.925	0.013	-0.003
-717.777	274.174	-0.054	-0.095
-716.762	136.712	-0.060	-0.078
-715.748	47.415	0.213	-0.199
-714.733	-200.000	-0.073	0.325
-713.718	-128.793	-0.344	-0.049
-712.704	-200.000	-0.030	0.473
-711.689	-200.000	0.009	0.206
-710.675	132.020	0.299	-0.386
-709.660	32.970	-0.255	0.221
-708.645	50.754	-0.151	0.144
-707.631	-200.000	-0.015	0.200
-706.616	-200.000	-0.007	0.251
-705.602	-200.000	0.008	0.103
-704.587	-130.261	0.041	-0.006
-703.572	-163.660	0.221	0.010
-702.558	7.025	0.185	0.138
-701.543	58.584	0.193	0.190
-700.529	-96.280	0.236	-0.063
-699.514	-200.000	-0.016	-0.263
-698.499	3.200	-0.048	0.035
-697.485	111.953	-0.141	0.171
-696.470	-200.000	-0.043	-0.419
-695.456	800.000	0.096	0.271
-694.441	-177.713	0.258	0.006
-693.426	-79.480	-0.340	-0.115
-692.412	-200.000	-0.335	-0.000
-691.397	-136.279	-0.115	-0.013
-690.383	-3.778	0.386	0.268
-689.368	37.753	-0.156	-0.139
-688.354	655.568	-0.025	0.066
-687.339	20.352	-0.207	-0.168
-686.324	449.203	-0.061	-0.135
-685.310	64.598	-0.176	-0.178
-684.295	-59.967	0.097	-0.042
-683.281	-123.668	0.343	-0.054
-682.266	301.045	0.150	-0.277
-681.251	15.608	0.339	-0.267
-680.237	-82.136	-0.143	0.047
-679.222	-162.228	-0.147	-0.007
-678.208	800.000	0.066	-0.189
-677.193	-67.970	-0.107	-0.042
-676.178	662.243	-0.076	0.197
-675.164	-200.000	-0.010	0.067
-674.149	-178.033	-0.063	0.002
-673.135	-200.000	0.011	0.133
-672.120	-137.014	0.332	0.038
-671.105	-38.409	-0.438	0.232
-670.091	72.213	0.046	-0.048
-669.076	86.272	-0.236	0.261
-668.062	800.000	-0.011	-0.036
-667.047	-66.076	0.082	-0.033
-666.032	47.695	-0.386	-0.361
-665.018	-141.846	-0.455	-0.046
-664.003	-145.913	0.141	0.013
-662.989	-32.737	0.180	0.100
-661.974	325.098	-0.153	0.293
-660.959	109.796	0.242	0.291
-659.945	124.949	-0.128	-0.161
-658.930	433.963	-0.062	-0.135
-657.916	85.781	0.155	-0.171
-656.901	-200.000	-0.018	-0.189
-655.886	15.190	-0.099	-0.078
-654.872	141.208	-0.159	-0.210
-653.857	-66.256	-0.097	0.039
-652.843	27.854	0.028	-0.023
-651.828	800.000	0.017	0.069
-650.814	-110.311	0.613	0.128
-649.799	-55.115	-0.095	-0.043
-648.784	187.019	-0.209	0.312
-647.770	-3.291	0.163	-0.114
-646.755	-200.000	0.005	0.180
-645.741	69.728	0.101	-0.104
-644.726	-114.910	0.228	-0.043
-643.711	-200.000	-0.016	-0.320
-642.697	229.744	0.104	-0.170
-641.682	117.036	0.158	0.194
-640.668	-48.643	0.194	-0.093
-639.653	189.098	-0.116	0.174
-638.638	32.663	-0.204	0.176
-637.624	58.642	-0.113	-0.111
-636.609	56.014	0.152	0.148
-635.595	-0.491	0.276	0.196
-634.580	-29.661	0.291	-0.166
-633.565	-4.290	0.190	-0.132
-632.551	-29.035	0.245	-0.140
-631.536	-135.117	0.246	-0.030
-630.522	-79.175	-0.293	-0.099
-629.507	-200.000	0.020	-0.126
-628.492	64.462	0.315	-0.318
-627.478	-58.762	-0.256	-0.111
-626.463	-200.000	-0.010	0.116
-625.449	-66.706	0.175	-0.069
-624.434	-176.489	-0.353	0.009
-623.419	-171.581	0.248	0.008
-622.405	754.763	0.075	-0.202
-621.390	-200.000	-0.009	-0.255
-620.376	30.711	-0.090	0.077
-619.361	-200.000	-0.003	-0.158
-618.346	-45.911	-0.155	-0.076
-617.332	699.125	0.090	-0.237
-616.317	-29.588	0.108	0.062
-615.303	-107.100	0.430	-0.095
-614.288	17.523	-0.166	-0.132
-613.273	800.000	0.103	-0.290
-612.259	-66.828	0.161	0.064
-611.244	142.465	-0.186	-0.246
-610.230	-172.117	-0.187	-0.006
-609.215	-127.990	0.125	-0.018
-608.201	198.882	0.213	0.326
-607.186	-35.726	-0.066	0.036
-606.171	14.203	-0.060	0.046
-605.157	94.571	-0.094	-0.107
-604.142	137.955	0.116	-0.152
-603.128	-97.054	0.293	0.077
-602.113	-107.724	-0.289	-0.063
-601.098	-16.153	0.235	0.149
-600.084	-165.866	0.067	0.003
-599.069	231.627	0.114	0.186
-598.055	3.501	0.283	-0.206
-597.040	9.825	-0.122	-0.093
-596.025	-76.571	-0.197	-0.069
-595.011	37.850	0.156	0.138
-593.996	112.028	-0.228	-0.275
-592.982	92.708	0.157	0.177
-591.967	-200.000	0.004	0.180
-590.952	27.873	-0.168	-0.142
-589.938	-12.964	-0.309	0.200
-588.923	-200.000	0.019	0.094
-587.909	-98.858	0.264	-0.067
-586.894	800.000	0.091	0.284
-585.879	586.625	0.061	-0.149
-584.865	73.366	0.232	0.243
-583.850	-30.749	0.211	-0.119
-582.836	-200.000	-0.007	0.128
-581.821	701.355	-0.020	0.052
-580.806	-84.259	0.219	0.069
-579.792	-200.000	-0.000	0.008
-578.777	237.715	-0.068	-0.112
-577.763	34.213	-0.233	-0.203
-576.748	-200.000	0.006	0.186
-575.733	12.705	0.153	-0.118
-574.719	800.000	-0.087	-0.345
-573.704	-86.889	0.173	-0.053
-572.690	-7.084	0.054	0.036
-571.675	-114.652	0.305	-0.058
-570.661	30.440	0.197	0.168
-569.646	365.172	0.102	0.205
-568.631	382.547	-0.024	0.050
-567.617	227.893	-0.065	-0.106
-566.602	-200.000	0.032	-0.148
-565.588	19.703	0.151	-0.121
-564.573	278.816	-0.159	0.282
-563.558	-200.000	-0.020	0.097
-562.544	-72.740	0.214	0.078
-561.529	61.803	0.045	-0.045
-560.515	250.938	-0.048	-0.081
-559.500	-200.000	-0.038	-0.246
-558.485	199.852	-0.049	0.075
-557.471	6.150	-0.133	-0.098
-556.456	229.287	0.176	-0.286
-555.442	-144.118	0.313	-0.029
-554.427	-3.596	-0.155	0.107
-553.412	-14.160	-0.109	-0.070
-552.398	-30.960	-0.079	0.044
-551.383	98.179	0.135	-0.154
-550.369	115.707	-0.022	0.027
-549.354	-200.000	0.037	0.333
-548.339	-200.000	-0.012	0.117
-547.325	-90.656	0.111	0.032
-546.310	-200.000	0.033	0.309
-545.296	312.902	-0.096	0.180
-544.281	293.236	-0.189	0.344
-543.266	-200.000	0.030	-0.169
-542.252	-200.000	-0.105	-0.466
-541.237	-200.000	-0.039	0.176
-540.223	23.295	-0.140	0.115
-539.208	-17.877	0.281	0.176
-538.193	800.000	0.046	-0.134
-537.179	35.166	-0.092	-0.080
-536.164	800.000	0.019	-0.077
-535.150	800.000	-0.019	0.066
-534.135	266.792	-0.102	0.178
-533.121	280.135	0.097	-0.173
-532.106	444.595	-0.109	0.238
-531.091	238.378	-0.142	0.235
-530.077	-200.000	-0.019	-0.151
-529.062	-200.000	0.057	0.427
-528.048	800.000	0.040	0.161
-527.033	-200.000	0.041	0.203
-526.018	-200.000	-0.003	-0.101
-525.004	-200.000	-0.010	-0.253
-523.989	800.000	0.066	0.200
-522.975	796.007	0.134	0.367
-521.960	-58.916	0.337	0.145
-520.945	9.943	0.371	-0.281
-519.931	-44.607	0.261	-0.130
-518.916	-103.328	0.064	0.015
-517.902	70.246	0.112	-0.115
-516.887	342.328	0.013	-0.026
-515.872	-168.031	-0.448	0.017
-514.858	-200.000	0.028	0.379
-513.843	-92.580	-0.106	-0.030
-512.829	410.654	0.145	0.306
-511.814	525.668	0.038	-0.088
-510.799	-151.523	-0.190	0.014
-509.785	-61.181	-0.155	-0.065
-508.770	23.149	-0.085	-0.069
-507.756	-137.914	-0.394	-0.044
-506.741	-200.000	-0.042	0.261
-505.726	-200.000	0.008	0.065
-504.712	-78.302	0.034	0.012
-503.697	-34.533	-0.121	-0.066
-502.683	-200.000	-0.031	-0.159
-501.668	-62.681	-0.183	-0.076
-500.653	-76.467	-0.299	0.105
-499.639	67.909	-0.057	0.058
-498.624	-200.000	-0.054	-0.423
-497.610	231.500	-0.162	-0.264
-496.595	141.784	0.109	0.143
-495.581	-76.369	-0.113	-0.039
-494.566	-4.664	0.267	0.184
-493.551	183.218	0.137	-0.202
-492.537	63.094	-0.230	0.229
-491.522	244.361	-0.140	-0.234
-490.508	10.060	-0.228	-0.173
-489.493	-200.000	0.040	0.262
-488.478	-180.677	0.296	-0.006
-487.464	800.000	0.037	-0.158
-486.449	-67.481	0.220	-0.086
-485.435	-200.000	-0.012	0.397
-484.420	-167.137	-0.050	-0.002
-483.405	-117.635	-0.416	-0.075
-482.391	800.000	0.046	-0.150
-481.376	143.051	0.167	-0.221
-480.362	-200.000	-0.022	-0.156
-479.347	2.152	0.153	0.110
-478.332	100.596	0.078	-0.090
-477.318	546.587	0.094	0.223
-476.303	-86.060	-0.522	0.160
-475.289	-2.184	-0.174	0.121
-474.274	-93.651	-0.234	0.064
-473.259	-162.253	-0.261	0.013
-472.245	-118.168	0.200	0.035
-471.230	458.341	-0.076	0.168
-470.216	84.311	0.098	-0.106
-469.201	675.521	0.128	-0.331
-468.186	-87.638	-0.064	0.019
-467.172	800.000	0.009	-0.034
-466.157	-24.022	0.157	0.094
-465.143	800.000	-0.080	-0.259
-464.128	258.507	0.081	-0.138
-463.113	-61.860	-0.156	-0.065
-462.099	250.103	-0.142	0.239
-461.084	-200.000	0.060	-0.271
-460.070	800.000	0.077	-0.218
-459.055	216.786	0.154	-0.243
-458.040	-131.882	0.197	0.026
-457.026	216.138	0.283	-0.447
-456.011	131.470	-0.203	-0.259
-454.997	-37.347	0.295	-0.156
-453.982	-166.541	-0.206	0.009
-452.968	-78.966	0.043	-0.015
-451.953	117.585	0.266	0.325
-450.938	168.984	0.086	0.121
-449.924	-5.105	-0.117	-0.080
-448.909	-200.000	0.028	-0.182
-447.895	-6.447	-0.110	0.075
-446.880	227.177	0.049	0.079
-445.865	30.402	-0.360	0.306
-444.851	-200.000	0.082	0.450
-443.836	-80.500	0.198	0.065
-442.822	141.499	-0.057	-0.075
-441.807	-65.905	0.234	-0.093
-440.792	-200.000	-0.015	0.194
-439.778	-53.209	0.098	0.045
-438.763	-89.784	0.430	0.125
-437.749	-73.916	0.190	0.069
-436.734	114.318	-0.110	0.133
-435.719	-17.066	-0.356	-0.223
-434.705	174.021	-0.089	0.128
-433.690	-79.251	-0.121	-0.041
-432.676	-200.000	-0.032	-0.177
-431.661	-175.931	-0.267	0.007
-430.646	-110.922	0.242	0.049
-429.632	-19.371	0.207	-0.128
-428.617	-200.000	-0.044	-0.201
-427.603	64.217	0.127	0.127
-426.588	-20.552	0.258	-0.157
-425.573	341.252	-0.073	0.141
-424.559	32.697	0.214	0.184
-423.544	-81.565	-0.244	0.080
-422.530	136.927	0.107	0.138
-421.515	279.879	-0.206	-0.365
-420.500	71.397	-0.261	-0.268
-419.486	-174.360	-0.220	0.006
-418.471	247.641	0.096	0.161
-417.457	-129.557	0.192	0.026
-416.442	800.000	-0.160	-0.577
-415.428	-200.000	0.028	-0.231
-414.413	-200.000	0.049	-0.408
-413.398	-141.054	-0.351	-0.036
-412.384	-142.289	-0.029	-0.003
-411.369	-128.804	-0.492	0.069
-410.355	-89.815	-0.204	0.059
-409.340	800.000	0.085	0.327
-408.325	800.000	0.059	0.217
-407.311	-114.236	0.214	-0.041
-406.296	-77.979	-0.184	0.063
-405.282	-94.444	0.459	0.124
-404.267	-188.971	-0.396	-0.005
-403.252	-41.201	-0.303	-0.155
-402.238	229.305	-0.098	0.159
-401.223	-186.290	-0.398	0.006
-400.209	800.000	-0.115	-0.316
-399.194	568.665	-0.158	-0.380
-398.179	-69.565	0.053	0.020
-397.165	800.000	0.107	-0.338
-396.150	134.951	-0.110	-0.142
-395.136	99.529	-0.318	0.364
-394.121	22.799	0.108	0.087
-393.106	49.227	-0.127	0.119
-392.092	-44.946	0.217	0.107
-391.077	425.728	0.028	-0.060
-390.063	-71.072	-0.076	-0.028
-389.048	-200.000	-0.009	0.122
-388.033	316.127	-0.035	0.065
-387.019	-4.486	-0.417	0.285
-386.004	-200.000	0.021	-0.177
-384.990	-35.036	0.156	0.084
-383.975	-48.984	0.268	-0.127
-382.960	-200.000	-0.059	-0.317
-381.946	117.974	-0.009	0.011
-380.931	-200.000	0.109	-0.557
-379.917	-200.000	-0.039	-0.265
-378.902	9.446	0.021	0.016
-377.888	180.432	0.065	0.095
-376.873	800.000	-0.073	-0.206
-375.858	-172.780	-0.203	0.006
-374.844	215.238	0.023	-0.037
-373.829	97.272	-0.125	0.142
-372.815	-118.271	0.264	0.047
-371.800	-9.864	-0.046	0.030
-370.785	-67.575	0.264	-0.103
-369.771	-111.202	-0.458	-0.093
-368.756	-63.229	0.254	-0.104
-367.742	800.000	0.038	0.150
-366.727	325.782	0.121	-0.229
-365.712	111.836	0.115	0.137
-364.698	-200.000	-0.013	0.212
-363.683	-146.021	0.178	-0.016
-362.669	-46.355	-0.202	0.098
-361.654	-57.517	0.074	0.032
-360.639	800.000	0.032	0.136
-359.625	-200.000	-0.079	0.461
-358.610	-35.339	0.367	-0.197
-357.596	233.817	-0.145	0.236
-356.581	645.757	0.034	-0.086
-355.566	-200.000	-0.003	0.228
-354.552	-76.610	0.280	0.097
-353.537	-200.000	0.013	0.172
-352.523	93.987	0.121	-0.135
-351.508	19.175	-0.195	-0.155
-350.493	126.709	-0.088	-0.110
-349.479	473.096	-0.101	-0.226
-348.464	-70.695	0.068	-0.025
-347.450	163.546	0.102	0.143
-346.435	202.691	-0.165	-0.251
-345.420	-47.277	-0.035	-0.017
-344.406	-6.073	0.219	-0.148
-343.391	-29.044	-0.330	-0.187
-342.377	142.481	-0.098	-0.129
-341.362	-92.963	0.160	0.044
-340.348	-79.840	-0.132	0.044
-339.333	9.669	-0.035	0.026
-338.318	-148.720	0.247	-0.020
-337.304	376.542	0.138	-0.278
-336.289	217.738	0.149	-0.234
-335.275	33.438	-0.165	-0.142
-334.260	-161.061	0.174	-0.009
-333.245	8.682	0.261	-0.194
-332.231	726.566	-0.012	0.032
-331.216	129.049	0.131	0.166
-330.202	800.000	0.046	-0.137
-329.187	-74.479	-0.085	-0.030
-328.172	176.325	-0.149	0.214
-327.158	-123.418	-0.399	-0.063
-326.143	-124.136	0.085	-0.013
-325.129	-103.176	-0.043	0.010
-324.114	-119.509	-0.263	0.045
-323.099	287.630	0.138	-0.246
-322.085	-74.876	0.264	-0.094
-321.070	-200.000	-0.071	-0.332
-320.056	39.986	-0.174	0.154
-319.041	486.457	0.177	0.399
-318.026	-14.418	0.162	0.103
-317.012	-155.573	0.222	-0.014
-315.997	-187.913	-0.005	0.000
-314.983	-173.494	-0.205	0.006
-313.968	21.180	0.159	-0.127
-312.953	33.489	-0.171	0.146
-311.939	169.315	0.072	0.101
-310.924	89.519	-0.158	0.174
-309.910	30.301	0.055	0.047
-308.895	-70.872	0.548	0.204
-307.880	162.092	0.156	-0.216
-306.866	35.388	-0.036	-0.031
-305.851	27.082	0.341	-0.283
-304.837	-200.000	0.008	-0.036
-303.822	-72.548	0.308	-0.112
-302.807	-200.000	-0.086	0.403
-301.793	388.031	-0.187	-0.381
-300.778	-86.204	-0.351	0.107
-299.764	-162.615	0.274	-0.013
-298.749	-200.000	-0.094	-0.427
-297.735	-200.000	-0.036	-0.389
-296.720	-147.136	0.306	-0.026
-295.705	-200.000	0.028	-0.179
-294.691	51.141	0.209	-0.195
-293.676	2.452	0.170	-0.121
-292.662	349.733	-0.097	-0.188
-291.647	-200.000	-0.024	-0.253
-290.632	-200.000	0.035	-0.165
-289.618	-14.254	0.160	-0.102
-288.603	299.174	-0.120	0.219
-287.589	45.587	0.191	0.174
-286.574	-200.000	-0.014	-0.226
-285.559	28.924	-0.153	-0.128
-284.545	251.434	0.057	0.095
-283.530	-105.733	-0.203	-0.045
-282.516	800.000	0.087	0.245
-281.501	-58.730	0.199	0.085
-280.486	26.633	-0.200	0.165
-279.472	1.181	0.294	-0.208
-278.457	800.000	-0.049	-0.161
-277.443	-66.106	0.228	0.090
-276.428	98.098	-0.205	-0.232
-275.413	12.460	-0.343	0.261
-274.399	-200.000	-0.045	-0.354
-273.384	646.352	-0.088	0.223
-272.370	52.769	0.301	0.284
-271.355	-85.382	-0.234	0.072
-270.340	-65.872	0.228	-0.090
-269.326	-36.388	-0.133	-0.071
-268.311	-41.686	-0.216	-0.109
-267.297	-20.890	-0.215	-0.130
-266.282	105.348	-0.110	-0.128
-265.267	690.086	0.062	0.161
-264.253	-27.444	-0.174	0.100
-263.238	62.703	-0.133	0.131
-262.224	800.000	-0.111	-0.303
-261.209	384.100	-0.159	0.322
-260.195	146.556	-0.210	0.278
-259.180	-48.341	-0.164	-0.078
-258.165	83.711	-0.044	-0.048
-257.151	253.557	0.122	-0.206
-256.136	800.000	-0.043	-0.182
-255.122	-49.642	-0.163	0.077
-254.107	-35.468	-0.262	0.140
-253.092	327.460	-0.181	0.341
-252.078	800.000	-0.056	-0.216
-251.063	51.375	-0.226	0.211
-250.049	-175.288	-0.109	-0.003
-249.034	796.650	0.065	0.177
-248.019	12.493	0.294	-0.223
-247.005	125.145	-0.246	0.305
-245.990	-4.825	-0.206	0.140
-244.976	-100.907	0.151	-0.036
-243.961	-67.127	0.291	-0.113
-242.946	-80.729	-0.125	0.041
-241.932	-200.000	-0.007	-0.209
-240.917	101.620	-0.166	0.190
-239.903	-49.012	0.472	0.223
-238.888	2.689	-0.116	0.083
-237.873	240.409	0.114	0.187
-236.859	125.458	-0.338	0.420
-235.844	-200.000	-0.017	-0.100
-234.830	314.295	-0.081	0.151
-233.815	27.407	0.064	-0.053
-232.800	800.000	0.101	0.319
-231.786	107.937	-0.089	0.104
-230.771	62.657	-0.289	0.285
-229.757	240.266	-0.158	0.259
-228.742	139.852	0.060	-0.078
-227.727	204.168	-0.168	-0.256
-226.713	138.149	0.241	0.311
-225.698	-200.000	0.005	0.447
-224.684	108.711	0.224	0.263
-223.669	-10.870	0.197	-0.128
-222.655	543.376	0.143	-0.337
-221.640	-30.333	0.185	0.103
-220.625	416.085	0.131	-0.276
-219.611	-78.882	-0.400	0.134
-218.596	-170.784	0.266	-0.009
-217.582	192.338	0.113	0.168
-216.567	800.000	0.052	0.162
-215.552	-91.623	0.248	0.069
-214.538	-121.235	-0.108	-0.018
-213.523	37.424	-0.091	0.079
-212.509	14.382	-0.164	0.126
-211.494	735.368	-0.133	-0.350
-210.479	-188.281	-0.246	-0.003
-209.465	-54.447	0.211	-0.094
-208.450	-133.443	-0.163	-0.020
-207.436	676.142	-0.126	0.322
-206.421	-100.909	0.134	0.032
-205.406	79.248	-0.159	0.167
-204.392	-179.235	-0.152	0.003
-203.377	-200.000	-0.030	0.167
-202.363	-14.223	-0.202	0.128
-201.348	-130.227	-0.168	-0.022
-200.333	-161.664	0.270	0.014
-199.319	-200.000	0.023	0.179
-198.304	800.000	-0.019	0.067
-197.290	280.574	-0.205	0.360
-196.275	182.052	0.098	-0.143
-195.260	43.455	0.308	0.277
-194.246	800.000	-0.104	0.304
-193.231	204.558	0.055	-0.084
-192.217	99.308	-0.142	0.161
-191.202	291.996	0.146	-0.261
-190.187	255.460	0.105	-0.177
-189.173	-200.000	-0.069	0.351
-188.158	-47.035	0.058	0.028
-187.144	-176.198	-0.151	0.004
-186.129	-96.473	-0.605	-0.157
-185.114	62.398	0.035	0.034
-184.100	-200.000	-0.028	0.378
-183.085	-200.000	-0.015	0.149
-182.071	-1.706	0.135	0.094
-181.056	390.461	0.043	0.087
-180.042	-83.572	0.315	-0.099
-179.027	377.569	-0.062	0.125
-178.012	-29.412	-0.177	0.099
-176.998	303.018	-0.034	0.062
-175.983	-77.801	-0.331	-0.112
-174.969	356.620	-0.121	0.236
-173.954	4.644	-0.065	0.047
-172.939	158.586	0.174	-0.238
-171.925	-146.188	-0.080	0.007
-170.910	800.000	0.066	0.196
-169.896	800.000	-0.046	-0.165
-168.881	-200.000	0.028	0.210
-167.866	41.799	0.114	-0.101
-166.852	-37.473	-0.401	-0.210
-165.837	36.554	0.105	-0.091
-164.823	-66.073	-0.180	0.070
-163.808	275.486	-0.139	0.242
-162.793	800.000	-0.020	-0.077
-161.779	345.438	0.049	-0.095
-160.764	-200.000	-0.001	-0.092
-159.750	800.000	0.009	0.040
-158.735	29.205	-0.055	-0.046
-157.720	58.464	-0.233	-0.224
-156.706	71.625	0.125	0.127
-155.691	800.000	0.055	0.171
-154.677	161.700	0.066	0.091
-153.662	800.000	0.095	-0.364
-152.647	-73.664	0.193	-0.069
-151.633	800.000	0.015	0.062
-150.618	-136.361	0.410	0.047
-149.604	402.217	0.079	-0.164
-148.589	458.506	-0.101	0.220
-147.574	-165.055	-0.227	-0.010
-146.560	28.381	0.378	-0.314
-145.545	-137.237	-0.224	-0.025
-144.531	800.000	-0.065	0.180
-143.516	54.118	0.138	0.130
-142.502	800.000	-0.117	0.392
-141.487	800.000	-0.030	-0.083
-140.472	54.325	0.096	-0.090
-139.458	-131.696	0.424	0.055
-138.443	-200.000	-0.046	0.233
-137.429	295.225	-0.119	-0.213
-136.414	-85.937	-0.217	-0.066
-135.399	-95.228	0.310	-0.082
-134.385	800.000	0.086	-0.332
-133.370	266.506	0.160	0.273
-132.356	800.000	-0.076	-0.207
-131.341	1.478	-0.163	-0.115
-130.326	-41.701	0.216	-0.109
-129.312	381.066	-0.121	-0.243
-128.297	800.000	-0.176	0.501
-127.283	6.719	0.287	0.209
-126.268	-200.000	-0.109	0.491
-125.253	-58.693	0.283	0.120
-124.239	-200.000	0.042	-0.186
-123.224	-142.487	0.340	0.033
-122.210	431.766	0.187	0.398
-121.195	-200.000	-0.191	-0.001
-120.180	800.000	-0.146	-0.418
