DTS Sentinel unit serial number:	SN413079Multiplexer serial number:	ORYXHardware model number:	OX4-SRSoftware version number:	ORYX F/W v4.00 Oryx Data Collector v3.7.2.0data status	okinstallation	princeton_trtdifferential loss correction	single-endedforward channel	channel 1reverse channel	N/Adate	2019/09/10time	23:16:11forward acquisition time	60.00reverse acquisition time	0.00gamma	496.2192k internal	0.2331k external	0.2331temperature offset calibration	0.9936default loss term (dB/km)	0.3790temperature slope calibration	1.0000multiplexer offset coefficient	1.0000multiplexer slope coefficient	1.0000fibre end	0.00T internal ref (°C)	29.86T ext. ref 1 (°C)	-0.31T ext. ref 2 (°C)	23.45length (m)	temperature (°C)	Stokes	anti-Stokes-747.200	47.569	0.174	-0.163
-746.185	800.000	-0.055	0.212
-745.171	-148.967	-0.232	-0.019
-744.156	182.327	-0.039	-0.057
-743.142	-200.000	-0.005	0.175
-742.127	-91.416	0.154	-0.044
-741.112	243.497	-0.145	-0.245
-740.098	-92.154	-0.256	0.073
-739.083	3.895	0.328	0.241
-738.069	-200.000	-0.012	0.284
-737.054	-200.000	0.033	0.150
-736.039	11.964	0.081	-0.063
-735.025	800.000	0.180	0.568
-734.010	-157.735	-0.297	-0.018
-732.996	717.593	0.021	0.056
-731.981	22.326	0.134	-0.110
-730.966	42.392	0.089	0.081
-729.952	86.616	-0.228	0.253
-728.937	-200.000	0.011	-0.185
-727.923	-87.431	-0.271	0.082
-726.908	-200.000	-0.029	-0.138
-725.894	-63.706	-0.122	0.050
-724.879	-112.122	-0.168	-0.034
-723.864	-200.000	-0.044	-0.202
-722.850	-4.261	-0.142	0.098
-721.835	-179.035	0.097	-0.002
-720.821	255.708	-0.221	0.380
-719.806	-200.000	-0.014	-0.213
-718.791	40.514	0.088	0.080
-717.777	197.464	0.036	-0.055
-716.762	56.589	-0.101	0.099
-715.748	-31.227	-0.181	0.102
-714.733	465.240	0.014	0.031
-713.718	51.975	-0.140	-0.134
-712.704	-157.084	-0.176	-0.011
-711.689	-77.858	-0.307	0.107
-710.675	-87.371	-0.395	0.120
-709.660	15.774	-0.143	0.113
-708.645	-104.913	-0.016	0.004
-707.631	158.456	0.124	-0.173
-706.616	-200.000	0.032	-0.165
-705.602	-89.284	0.128	-0.038
-704.587	-56.681	0.130	-0.058
-703.572	45.424	0.304	-0.282
-702.558	699.938	-0.060	0.158
-701.543	-63.662	0.422	-0.174
-700.529	-28.394	-0.250	-0.145
-699.514	-200.000	-0.045	0.237
-698.499	-113.398	-0.088	-0.017
-697.485	-93.989	-0.128	0.035
-696.470	-200.000	0.017	-0.153
-695.456	-200.000	-0.056	-0.273
-694.441	21.649	-0.076	-0.062
-693.426	137.999	0.259	-0.342
-692.412	154.125	0.190	-0.261
-691.397	800.000	-0.092	0.346
-690.383	-200.000	0.005	-0.038
-689.368	338.846	-0.020	0.038
-688.354	-107.170	0.410	-0.091
-687.339	52.726	-0.071	-0.068
-686.324	676.116	0.089	0.233
-685.310	-124.890	0.293	-0.045
-684.295	-148.785	0.399	-0.032
-683.281	641.430	-0.100	-0.255
-682.266	82.727	-0.250	-0.273
-681.251	25.721	0.135	-0.113
-680.237	-200.000	-0.001	0.236
-679.222	-200.000	0.024	0.257
-678.208	42.562	0.160	0.146
-677.193	90.043	-0.313	-0.351
-676.178	-92.316	-0.309	0.088
-675.164	39.414	0.229	-0.206
-674.149	-10.907	0.151	0.100
-673.135	-164.967	-0.173	0.008
-672.120	-103.708	0.198	-0.047
-671.105	6.191	0.169	0.125
-670.091	-77.533	-0.258	0.090
-669.076	-200.000	-0.006	-0.211
-668.062	188.674	0.142	0.213
-667.047	800.000	-0.058	0.216
-666.032	146.633	-0.142	0.191
-665.018	-3.334	0.187	-0.131
-664.003	-200.000	0.019	0.418
-662.989	327.382	0.104	0.200
-661.974	-136.916	0.175	-0.020
-660.959	108.499	0.319	-0.382
-659.945	-67.923	-0.036	-0.014
-658.930	-39.833	0.163	-0.085
-657.916	-98.701	-0.122	0.031
-656.901	86.893	-0.154	0.170
-655.886	140.294	-0.078	-0.103
-654.872	-200.000	0.019	0.131
-653.857	800.000	0.035	-0.141
-652.843	-29.570	-0.126	0.072
-651.828	-12.995	-0.019	0.012
-650.814	-200.000	-0.049	-0.218
-649.799	-183.172	0.138	0.002
-648.784	-199.201	0.131	-0.001
-647.770	-142.906	-0.143	-0.014
-646.755	-176.534	0.007	0.000
-645.741	158.225	0.096	-0.133
-644.726	304.207	0.148	0.274
-643.711	407.654	-0.057	-0.121
-642.697	135.916	-0.161	0.211
-641.682	800.000	0.056	-0.232
-640.668	416.340	0.055	0.118
-639.653	94.154	0.102	-0.116
-638.638	7.733	-0.063	-0.047
-637.624	-107.558	-0.084	0.018
-636.609	628.432	0.076	-0.191
-635.595	258.423	0.065	-0.113
-634.580	-49.249	-0.238	-0.114
-633.565	185.252	-0.047	-0.070
-632.551	800.000	0.023	-0.084
-631.536	-19.993	-0.217	-0.134
-630.522	-200.000	-0.032	0.318
-629.507	120.038	0.254	0.316
-628.492	-174.920	-0.125	-0.004
-627.478	-74.149	0.228	-0.083
-626.463	-105.171	-0.194	0.044
-625.449	-116.997	-0.285	0.052
-624.434	-87.534	-0.180	-0.055
-623.419	-9.588	-0.067	0.045
-622.405	69.196	0.029	-0.030
-621.390	440.407	0.075	-0.164
-620.376	-197.033	0.246	-0.002
-619.361	-47.095	-0.314	0.154
-618.346	-31.945	0.028	0.015
-617.332	-57.411	0.309	-0.136
-616.317	36.249	0.149	-0.132
-615.303	236.661	0.057	0.094
-614.288	800.000	0.012	0.048
-613.273	19.364	0.188	0.151
-612.259	-11.114	-0.091	-0.060
-611.244	800.000	0.056	0.201
-610.230	-59.206	0.179	0.077
-609.215	800.000	0.079	-0.321
-608.201	-5.233	-0.208	-0.143
-607.186	-11.215	-0.219	-0.144
-606.171	5.413	-0.101	-0.075
-605.157	-200.000	-0.016	0.137
-604.142	800.000	-0.065	0.229
-603.128	-24.262	-0.333	0.199
-602.113	-97.619	-0.299	-0.078
-601.098	-60.791	-0.071	0.030
-600.084	400.664	-0.064	-0.134
-599.069	-66.956	-0.082	0.033
-598.055	61.688	0.248	0.247
-597.040	-200.000	0.006	0.355
-596.025	-96.363	-0.264	-0.070
-595.011	-200.000	0.053	0.326
-593.996	-58.878	0.207	0.090
-592.982	12.740	-0.260	0.201
-591.967	125.473	-0.099	-0.125
-590.952	-168.848	-0.673	-0.025
-589.938	-51.546	0.351	-0.164
-588.923	11.904	0.376	-0.289
-587.909	-113.296	-0.198	0.039
-586.894	254.851	-0.057	0.097
-585.879	-200.000	0.008	0.120
-584.865	305.347	-0.077	-0.143
-583.850	-200.000	-0.015	-0.138
-582.836	-177.779	-0.237	-0.006
-581.821	-124.682	-0.079	0.012
-580.806	800.000	-0.085	0.308
-579.792	-200.000	0.016	0.132
-578.777	147.866	-0.270	0.363
-577.763	157.103	-0.103	-0.142
-576.748	521.635	-0.056	-0.133
-575.733	-200.000	-0.006	0.240
-574.719	-0.171	0.119	-0.085
-573.704	-77.730	0.161	-0.056
-572.690	-64.708	0.190	-0.077
-571.675	-173.469	-0.203	0.006
-570.661	21.482	-0.040	-0.032
-569.646	800.000	0.033	0.132
-568.631	792.225	0.077	-0.213
-567.617	498.333	0.192	-0.442
-566.602	800.000	-0.092	-0.336
-565.588	-57.945	0.103	-0.045
-564.573	-66.180	0.062	0.025
-563.558	-200.000	0.051	-0.237
-562.544	73.197	-0.169	0.177
-561.529	-200.000	0.004	-0.103
-560.515	-200.000	0.037	-0.290
-559.500	335.656	0.159	-0.309
-558.485	-121.553	-0.443	-0.073
-557.471	8.459	0.078	-0.059
-556.456	129.237	-0.245	-0.313
-555.442	-21.113	-0.217	0.133
-554.427	-70.800	-0.217	-0.082
-553.412	209.587	0.173	-0.270
-552.398	-60.243	0.165	-0.070
-551.383	-130.610	0.069	-0.009
-550.369	525.148	0.060	-0.142
-549.354	800.000	0.073	-0.251
-548.339	54.456	0.271	0.260
-547.325	-81.737	-0.187	0.061
-546.310	-33.541	0.180	0.100
-545.296	-5.476	-0.329	0.225
-544.281	23.937	-0.108	-0.089
-543.266	-150.248	0.114	0.009
-542.252	131.370	-0.164	-0.210
-541.237	-81.088	0.259	0.086
-540.223	72.780	-0.089	-0.092
-539.208	-200.000	0.033	-0.339
-538.193	254.079	0.107	-0.182
-537.179	496.017	-0.083	0.191
-536.164	-31.866	0.171	-0.096
-535.150	-87.175	-0.311	-0.094
-534.135	-34.858	0.296	-0.161
-533.121	-200.000	-0.024	0.296
-532.106	-52.623	0.101	-0.047
-531.091	-200.000	-0.016	0.317
-530.077	-200.000	-0.010	0.244
-529.062	-90.210	-0.051	0.015
-528.048	-113.442	-0.450	0.088
-527.033	14.729	0.053	-0.042
-526.018	386.596	-0.087	0.180
-525.004	-94.193	0.104	-0.028
-523.989	-4.152	-0.120	-0.083
-522.975	-36.483	0.292	0.157
-521.960	-41.761	-0.271	-0.139
-520.945	800.000	0.078	-0.230
-519.931	-200.000	-0.002	0.035
-518.916	-21.352	-0.092	0.056
-517.902	-159.271	-0.054	0.003
-516.887	-200.000	-0.039	0.313
-515.872	-182.324	0.108	0.002
-514.858	-116.955	-0.262	-0.048
-513.843	-99.346	-0.344	-0.086
-512.829	104.627	0.227	-0.267
-511.814	143.069	-0.199	0.264
-510.799	65.872	-0.044	0.044
-509.785	224.281	-0.102	-0.164
-508.770	-62.579	0.081	-0.033
-507.756	-122.732	0.276	0.044
-506.741	444.133	0.090	0.197
-505.726	-133.153	0.155	-0.020
-504.712	-133.853	-0.369	-0.046
-503.697	-93.469	0.349	0.096
-502.683	-84.006	0.300	-0.095
-501.668	-200.000	-0.027	0.263
-500.653	164.755	0.121	0.170
-499.639	-200.000	0.004	-0.050
-498.624	-107.092	0.283	-0.062
-497.610	151.820	-0.185	-0.251
-496.595	36.554	-0.079	0.069
-495.581	-71.750	0.104	0.039
-494.566	115.727	-0.078	-0.095
-493.551	-55.099	-0.237	0.106
-492.537	-74.743	0.182	0.065
-491.522	-153.967	0.445	-0.030
-490.508	-155.401	0.177	-0.011
-489.493	724.190	0.160	-0.424
-488.478	-70.374	0.196	0.074
-487.464	-118.688	-0.207	-0.036
-486.449	-118.233	-0.246	0.044
-485.435	-28.961	-0.053	0.030
-484.420	-159.402	-0.322	-0.018
-483.405	-107.174	-0.196	-0.043
-482.391	256.221	0.174	-0.297
-481.376	-154.762	-0.246	0.016
-480.362	-102.764	-0.359	-0.085
-479.347	-69.520	-0.401	0.153
-478.332	-119.487	0.328	-0.057
-477.318	-39.691	0.282	0.147
-476.303	141.513	-0.155	0.205
-475.289	-27.092	0.153	0.089
-474.274	390.882	-0.091	-0.187
-473.259	250.379	0.118	0.199
-472.245	22.902	0.119	-0.097
-471.230	-183.422	0.176	-0.003
-470.216	-23.061	-0.243	0.146
-469.201	-200.000	-0.044	0.451
-468.186	92.313	-0.133	-0.150
-467.172	-200.000	-0.029	0.208
-466.157	317.583	0.058	-0.110
-465.143	85.918	0.072	-0.079
-464.128	114.786	-0.146	0.177
-463.113	-136.907	-0.519	-0.059
-462.099	800.000	0.025	-0.092
-461.084	-200.000	0.022	0.139
-460.070	800.000	0.012	0.043
-459.055	216.999	-0.032	-0.050
-458.040	105.342	-0.067	0.079
-457.026	-145.840	0.311	-0.028
-456.011	-200.000	-0.054	-0.282
-454.997	-174.922	-0.072	-0.002
-453.982	-102.572	-0.305	-0.073
-452.968	29.857	-0.306	-0.259
-451.953	-200.000	0.039	0.205
-450.938	-4.651	0.199	0.136
-449.924	-33.238	0.072	0.040
-448.909	-145.151	-0.432	-0.039
-447.895	-200.000	0.012	0.114
-446.880	-103.769	0.176	-0.041
-445.865	-114.117	-0.175	0.034
-444.851	-87.725	0.317	0.095
-443.836	800.000	0.116	0.379
-442.822	-84.693	0.321	0.101
-441.807	167.681	0.059	-0.083
-440.792	-179.690	-0.059	-0.001
-439.778	-200.000	0.019	-0.138
-438.763	50.118	0.259	-0.243
-437.749	-151.385	-0.375	-0.028
-436.734	-14.416	-0.103	0.066
-435.719	-94.286	-0.283	0.077
-434.705	-77.340	0.287	0.099
-433.690	-200.000	0.033	-0.205
-432.676	-200.000	0.049	-0.257
-431.661	611.150	-0.069	0.170
-430.646	-105.758	-0.189	0.042
-429.632	189.080	0.106	0.158
-428.617	-200.000	-0.017	0.183
-427.603	-200.000	-0.048	0.300
-426.588	-200.000	0.019	0.143
-425.573	-64.619	0.434	0.175
-424.559	-113.683	0.219	0.043
-423.544	62.128	0.121	-0.120
-422.530	-188.177	0.134	0.002
-421.515	-165.046	0.486	-0.021
-420.500	499.456	-0.175	-0.400
-419.486	4.290	0.030	0.022
-418.471	-200.000	0.034	0.152
-417.457	52.381	-0.131	0.124
-416.442	30.608	0.296	0.251
-415.428	-200.000	-0.002	0.272
-414.413	85.660	-0.214	0.233
-413.398	-147.437	-0.454	-0.038
-412.384	217.733	-0.091	-0.144
-411.369	800.000	0.041	0.174
-410.355	-120.645	0.106	0.018
-409.340	-125.740	-0.106	0.016
-408.325	-10.310	0.369	0.243
-407.311	-156.231	-0.330	-0.021
-406.296	-108.938	-0.022	0.005
-405.282	289.023	-0.082	0.147
-404.267	-30.144	0.265	0.149
-403.252	68.239	0.042	-0.043
-402.238	-0.608	0.217	-0.153
-401.223	-149.600	0.348	-0.027
-400.209	48.165	-0.081	0.075
-399.194	245.981	-0.118	-0.197
-398.179	610.116	0.135	0.335
-397.165	71.747	-0.073	-0.075
-396.150	116.396	-0.255	-0.310
-395.136	-55.884	0.293	0.130
-394.121	-150.669	0.550	-0.042
-393.106	164.301	-0.189	-0.264
-392.092	352.625	0.123	-0.242
-391.077	159.041	0.086	0.118
-390.063	-40.219	0.181	-0.094
-389.048	-200.000	0.040	-0.291
-388.033	24.920	-0.240	-0.197
-387.019	66.812	-0.120	0.121
-386.004	15.640	-0.038	-0.030
-384.990	51.384	0.079	0.074
-383.975	-116.511	0.194	-0.035
-382.960	608.651	0.205	-0.508
-381.946	-156.299	-0.059	-0.004
-380.931	123.884	0.194	-0.241
-379.917	800.000	-0.064	0.215
-378.902	32.762	-0.185	-0.159
-377.888	-155.910	-0.046	0.003
-376.873	-107.698	-0.314	0.068
-375.858	323.394	-0.042	0.079
-374.844	167.562	0.282	0.397
-373.829	-200.000	-0.006	-0.171
-372.815	-151.996	-0.038	-0.003
-371.800	90.725	0.131	0.145
-370.785	-200.000	-0.011	-0.111
-369.771	292.303	0.023	0.041
-368.756	-200.000	-0.053	-0.326
-367.742	-200.000	-0.044	0.229
-366.727	285.854	0.088	-0.157
-365.712	-117.431	0.179	-0.032
-364.698	-200.000	0.027	-0.378
-363.683	-144.989	0.506	0.046
-362.669	800.000	-0.145	-0.438
-361.654	-164.272	-0.181	0.008
-360.639	39.308	0.189	-0.168
-359.625	350.444	0.106	0.208
-358.610	-190.837	-0.273	0.003
-357.596	244.801	-0.141	-0.234
-356.581	143.320	0.136	0.180
-355.566	-40.891	0.224	0.115
-354.552	496.781	0.021	0.048
-353.537	255.613	-0.150	-0.255
-352.523	2.229	-0.081	-0.058
-351.508	-30.376	0.330	-0.186
-350.493	-95.283	0.246	-0.066
-349.479	264.961	-0.121	-0.209
-348.464	143.375	-0.126	0.166
-347.450	-200.000	0.010	-0.146
-346.435	170.775	0.073	-0.104
-345.420	800.000	0.041	0.120
-344.406	10.079	0.188	-0.142
-343.391	-200.000	0.093	-0.425
-342.377	800.000	-0.032	-0.112
-341.362	70.808	0.151	-0.155
-340.348	-47.412	0.136	-0.066
-339.333	74.630	-0.103	-0.108
-338.318	19.004	0.045	-0.036
-337.304	104.750	0.091	-0.107
-336.289	41.852	0.141	0.126
-335.275	-35.020	0.043	0.023
-334.260	79.822	-0.201	0.214
-333.245	396.585	0.303	-0.627
-332.231	-67.169	-0.177	-0.069
-331.216	297.626	-0.183	0.333
-330.202	87.261	0.087	-0.096
-329.187	-200.000	0.029	0.137
-328.172	-200.000	-0.033	0.181
-327.158	57.911	-0.253	0.246
-326.143	62.605	-0.258	-0.255
-325.129	-40.792	-0.103	0.053
-324.114	-200.000	0.008	-0.118
-323.099	-39.310	-0.413	-0.215
-322.085	126.008	0.152	0.190
-321.070	10.329	-0.211	0.159
-320.056	48.173	-0.109	-0.100
-319.041	-177.559	0.077	-0.002
-318.026	499.865	0.063	-0.144
-317.012	723.903	0.118	-0.311
-315.997	-200.000	0.005	-0.260
-314.983	800.000	-0.086	0.266
-313.968	-200.000	-0.012	-0.056
-312.953	-177.090	-0.165	0.004
-311.939	-104.118	0.122	-0.028
-310.924	-107.720	-0.424	-0.092
-309.910	-153.450	-0.135	0.009
-308.895	800.000	0.066	0.242
-307.880	92.400	0.133	0.148
-306.866	-29.617	-0.241	0.136
-305.851	-200.000	0.000	0.328
-304.837	-200.000	0.010	0.187
-303.822	-176.227	0.408	0.011
-302.807	-200.000	-0.011	0.196
-301.793	20.497	-0.173	-0.138
-300.778	28.968	0.200	0.168
-299.764	-84.936	0.178	-0.055
-298.749	-49.525	-0.222	0.105
-297.735	26.853	-0.177	0.146
-296.720	-200.000	-0.027	0.184
-295.705	800.000	-0.064	-0.229
-294.691	7.564	0.192	-0.142
-293.676	164.770	-0.216	0.302
-292.662	-200.000	-0.045	0.213
-291.647	-88.523	0.169	0.050
-290.632	-36.447	-0.187	0.100
-289.618	67.418	0.481	-0.485
-288.603	800.000	0.044	0.143
-287.589	800.000	0.025	-0.088
-286.574	118.241	-0.162	-0.198
-285.559	-200.000	0.005	-0.158
-284.545	246.664	0.084	-0.140
-283.530	-200.000	-0.050	0.219
-282.516	-132.392	0.165	0.021
-281.501	-72.394	0.274	0.100
-280.486	431.453	-0.122	-0.261
-279.472	100.259	-0.239	-0.274
-278.457	359.371	-0.185	-0.366
-277.443	151.852	-0.147	0.198
-276.428	286.425	-0.112	-0.200
-275.413	-200.000	-0.032	-0.205
-274.399	380.710	0.069	-0.140
-273.384	-38.045	0.078	0.041
-272.370	-53.497	0.159	-0.072
-271.355	167.737	-0.140	-0.197
-270.340	-200.000	-0.005	-0.062
-269.326	-86.516	-0.131	0.040
-268.311	77.586	0.302	0.318
-267.297	50.630	-0.297	0.278
-266.282	776.924	-0.105	0.283
-265.267	-116.513	0.393	-0.072
-264.253	800.000	-0.056	0.173
-263.238	800.000	-0.021	-0.086
-262.224	800.000	0.108	-0.315
-261.209	-64.649	0.118	-0.047
-260.195	15.644	-0.328	0.255
-259.180	84.429	-0.245	0.265
-258.165	800.000	-0.089	0.371
-257.151	-70.018	0.077	-0.029
-256.136	36.045	0.267	-0.232
-255.122	-25.839	-0.315	0.183
-254.107	195.805	0.019	-0.029
-253.092	578.305	0.129	0.312
-252.078	-66.976	-0.226	0.088
-251.063	338.940	-0.126	0.243
-250.049	83.730	0.108	-0.117
-249.034	-84.405	0.296	-0.092
-248.019	-93.174	-0.236	-0.065
-247.005	-200.000	-0.071	0.309
-245.990	-200.000	-0.009	0.158
-244.976	174.239	-0.075	-0.107
-243.961	-200.000	-0.001	0.078
-242.946	-37.287	0.226	-0.119
-241.932	-156.546	-0.246	0.015
-240.917	289.546	0.109	0.194
-239.903	79.737	-0.088	-0.093
-238.888	55.821	-0.221	0.211
-237.873	800.000	0.100	-0.362
-236.859	-153.029	0.132	-0.009
-235.844	131.675	-0.047	0.060
-234.830	187.385	-0.108	0.159
-233.815	-147.053	0.363	0.031
-232.800	-102.963	0.298	0.070
-231.786	-200.000	0.024	-0.235
-230.771	-143.988	0.345	-0.032
-229.757	59.064	-0.340	-0.329
-228.742	-178.215	0.152	-0.004
-227.727	800.000	-0.069	-0.237
-226.713	-200.000	-0.052	-0.249
-225.698	-154.260	-0.224	0.015
-224.684	26.121	0.084	0.070
-223.669	112.704	-0.109	0.131
-222.655	-86.679	0.286	-0.086
-221.640	27.158	0.103	-0.086
-220.625	48.361	-0.023	0.021
-219.611	-200.000	-0.075	0.326
-218.596	5.291	-0.315	0.229
-217.582	-127.235	0.460	0.066
-216.567	133.510	-0.234	-0.299
-215.552	24.564	0.176	0.144
-214.538	68.564	0.291	0.295
-213.523	262.781	0.161	0.275
-212.509	262.872	-0.090	-0.154
-211.494	-68.564	-0.456	-0.174
-210.479	-200.000	0.010	-0.173
-209.465	76.569	0.185	-0.194
-208.450	202.858	0.129	0.196
-207.436	-200.000	-0.023	0.138
-206.421	-200.000	0.006	0.037
-205.406	-10.423	0.104	0.068
-204.392	47.761	0.319	0.294
-203.377	-1.173	0.162	0.113
-202.363	800.000	-0.167	0.503
-201.348	5.596	0.218	-0.159
-200.333	-114.791	-0.243	0.046
-199.319	-19.314	-0.269	-0.164
-198.304	-142.239	-0.261	0.025
-197.290	-200.000	-0.024	-0.124
-196.275	800.000	-0.027	0.083
-195.260	-200.000	-0.010	0.122
-194.246	-76.722	-0.159	0.055
-193.231	341.941	0.043	-0.083
-192.217	167.862	-0.113	-0.158
-191.202	5.747	-0.271	0.198
-190.187	-103.000	-0.084	-0.020
-189.173	382.575	0.130	0.264
-188.158	-177.845	0.102	0.002
-187.144	-41.629	-0.096	-0.049
-186.129	800.000	-0.042	-0.121
-185.114	155.373	-0.134	0.181
-184.100	800.000	0.077	0.208
-183.085	-61.569	0.436	0.180
-182.071	95.486	-0.095	-0.107
-181.056	-200.000	-0.027	-0.182
-180.042	-200.000	-0.011	-0.181
-179.027	95.169	0.061	-0.069
-178.012	29.891	-0.154	0.129
-176.998	800.000	0.119	0.334
-175.983	166.074	0.139	0.193
-174.969	72.569	0.404	-0.415
-173.954	365.656	0.132	-0.261
-172.939	33.647	-0.195	0.167
-171.925	-21.383	-0.148	-0.089
-170.910	298.665	-0.064	-0.115
-169.896	125.445	0.099	-0.123
-168.881	-115.183	-0.525	0.098
-167.866	-134.558	0.144	0.017
-166.852	-147.193	0.229	-0.019
-165.837	-55.991	0.124	0.054
-164.823	-133.598	0.178	-0.022
-163.808	-86.336	-0.250	-0.076
-162.793	16.597	0.311	-0.242
-161.779	314.894	0.139	0.258
-160.764	800.000	0.072	-0.218
-159.750	100.493	-0.127	-0.145
-158.735	800.000	-0.025	0.089
-157.720	-20.981	-0.186	0.112
-156.706	-8.666	0.318	0.210
-155.691	-96.505	0.092	-0.024
-154.677	-200.000	0.000	0.041
-153.662	135.828	0.100	0.128
-152.647	-200.000	0.041	0.262
-151.633	-200.000	-0.023	0.129
-150.618	-6.744	0.277	0.185
-149.604	785.087	0.091	-0.246
-148.589	-77.545	-0.134	-0.046
-147.574	17.670	-0.181	0.142
-146.560	-80.670	0.213	0.070
-145.545	-200.000	-0.020	-0.259
-144.531	-200.000	-0.044	-0.198
-143.516	9.373	0.103	0.077
-142.502	-2.487	0.166	-0.115
-141.487	-30.179	-0.032	0.018
-140.472	800.000	-0.048	-0.181
-139.458	311.587	-0.068	-0.126
-138.443	595.385	0.087	0.212
-137.429	133.990	0.031	-0.040
-136.414	800.000	0.050	0.191
-135.399	484.869	0.045	0.100
-134.385	-3.168	-0.224	0.153
-133.370	599.527	-0.140	0.341
-132.356	-130.109	0.395	0.053
-131.341	323.733	0.150	0.281
-130.326	163.798	0.149	0.205
-129.312	109.624	0.120	-0.142
-128.297	87.425	0.082	0.089
-127.283	-200.000	0.005	0.173
-126.268	-131.675	0.400	0.052
-125.253	-59.724	0.051	-0.021
-124.239	351.026	-0.195	0.379
-123.224	176.335	-0.076	-0.108
-122.210	145.622	-0.142	0.186
-121.195	-75.017	0.267	0.094
