DTS Sentinel unit serial number:	SN413079Multiplexer serial number:	ORYXHardware model number:	OX4-SRSoftware version number:	ORYX F/W v4.00 Oryx Data Collector v3.7.2.0data status	okinstallation	princeton_trtdifferential loss correction	single-endedforward channel	channel 1reverse channel	N/Adate	2019/09/19time	01:54:35forward acquisition time	60.00reverse acquisition time	0.00gamma	496.2192k internal	0.2344k external	0.2344temperature offset calibration	1.0022default loss term (dB/km)	0.3790temperature slope calibration	1.0000multiplexer offset coefficient	1.0000multiplexer slope coefficient	1.0000fibre end	0.00T internal ref (°C)	21.31T ext. ref 1 (°C)	0.69T ext. ref 2 (°C)	14.77length (m)	temperature (°C)	Stokes	anti-Stokes-747.200	14.224	-0.058	-0.045
-746.185	169.188	-0.269	0.384
-745.171	-200.000	-0.032	0.295
-744.156	-88.301	-0.317	-0.095
-743.142	-111.528	-0.253	0.051
-742.127	-75.877	-0.028	-0.010
-741.112	235.692	-0.037	-0.061
-740.098	200.579	0.164	0.252
-739.083	-7.515	-0.103	-0.070
-738.069	152.332	-0.135	0.185
-737.054	52.707	-0.233	-0.222
-736.039	249.188	0.143	-0.242
-735.025	80.632	-0.044	-0.048
-734.010	124.029	-0.138	-0.173
-732.996	44.153	-0.264	-0.242
-731.981	800.000	-0.099	-0.358
-730.966	-200.000	0.003	-0.044
-729.952	-169.912	0.342	0.012
-728.937	51.113	0.033	0.031
-727.923	129.928	-0.105	-0.135
-726.908	235.822	-0.179	0.295
-725.894	-39.201	-0.107	-0.056
-724.879	-200.000	-0.009	0.155
-723.864	191.649	0.084	0.126
-722.850	741.363	0.059	0.159
-721.835	576.478	-0.119	-0.290
-720.821	-182.371	-0.105	-0.002
-719.806	-69.735	-0.137	-0.052
-718.791	-200.000	-0.015	0.271
-717.777	-127.820	-0.117	0.017
-716.762	57.222	-0.119	-0.116
-715.748	402.397	0.131	-0.275
-714.733	-100.827	0.268	-0.066
-713.718	-93.281	-0.094	0.026
-712.704	-82.688	-0.309	0.100
-711.689	-63.927	-0.304	0.124
-710.675	-200.000	-0.008	-0.164
-709.660	800.000	0.084	-0.299
-708.645	6.821	0.244	-0.182
-707.631	-121.372	0.528	0.088
-706.616	85.284	-0.296	-0.325
-705.602	-200.000	0.004	-0.247
-704.587	-200.000	0.060	-0.322
-703.572	-8.725	-0.184	-0.123
-702.558	-69.626	0.177	-0.068
-701.543	204.795	-0.046	0.072
-700.529	-200.000	-0.057	0.302
-699.514	103.104	-0.233	0.273
-698.499	800.000	-0.022	-0.071
-697.485	-21.290	0.114	0.070
-696.470	136.801	0.087	0.113
-695.456	51.986	-0.076	-0.072
-694.441	623.838	-0.062	-0.156
-693.426	115.417	-0.111	-0.135
-692.412	335.070	-0.165	0.319
-691.397	-114.898	-0.187	-0.036
-690.383	176.784	-0.171	-0.248
-689.368	800.000	0.039	0.170
-688.354	800.000	-0.029	-0.123
-687.339	673.787	-0.095	-0.246
-686.324	235.146	-0.139	-0.230
-685.310	-53.915	0.057	0.026
-684.295	-93.909	0.173	0.047
-683.281	-72.038	-0.175	0.065
-682.266	-200.000	0.004	0.196
-681.251	-198.493	-0.254	0.001
-680.237	-137.842	-0.020	0.002
-679.222	-97.507	-0.165	0.043
-678.208	190.630	0.070	-0.105
-677.193	215.761	-0.086	-0.136
-676.178	-28.952	0.054	0.031
-675.164	-62.338	-0.345	-0.143
-674.149	-26.345	-0.224	0.131
-673.135	249.629	0.181	-0.306
-672.120	42.875	-0.024	-0.022
-671.105	-75.468	0.392	0.139
-670.091	426.505	-0.103	-0.222
-669.076	-200.000	-0.002	-0.128
-668.062	15.530	-0.132	0.104
-667.047	93.352	-0.233	-0.263
-666.032	251.938	-0.151	-0.256
-665.018	-16.731	0.078	-0.049
-664.003	102.433	0.197	0.229
-662.989	151.882	0.131	0.179
-661.974	-200.000	0.020	-0.170
-660.959	-65.845	0.328	0.131
-659.945	800.000	-0.066	-0.183
-658.930	127.605	0.185	-0.235
-657.916	-168.963	0.397	0.015
-656.901	97.969	-0.178	-0.204
-655.886	-26.623	-0.281	0.164
-654.872	-200.000	0.003	-0.339
-653.857	-173.247	0.175	0.005
-652.843	800.000	-0.046	-0.172
-651.828	35.154	-0.093	0.081
-650.814	-200.000	-0.026	0.253
-649.799	111.013	0.100	0.120
-648.784	-130.521	0.039	-0.005
-647.770	420.045	-0.125	-0.268
-646.755	-149.359	-0.048	0.004
-645.741	-29.751	-0.107	0.061
-644.726	-32.903	0.056	-0.031
-643.711	-200.000	-0.005	0.216
-642.697	-73.998	-0.058	-0.021
-641.682	327.095	-0.199	-0.380
-640.668	34.272	-0.222	0.193
-639.653	-18.313	-0.239	0.149
-638.638	800.000	-0.111	0.358
-637.624	-200.000	0.061	-0.419
-636.609	44.699	0.282	-0.259
-635.595	800.000	-0.067	-0.215
-634.580	-73.319	0.331	-0.121
-633.565	-170.028	0.276	-0.010
-632.551	800.000	0.019	0.071
-631.536	17.018	0.166	0.131
-630.522	-200.000	-0.016	-0.177
-629.507	25.134	-0.233	-0.193
-628.492	120.278	0.059	0.073
-627.478	608.898	-0.091	-0.225
-626.463	-200.000	0.010	-0.066
-625.449	800.000	0.028	-0.120
-624.434	538.091	0.084	-0.198
-623.419	-200.000	0.017	0.154
-622.405	-74.172	-0.324	-0.117
-621.390	-162.143	0.333	-0.017
-620.376	41.081	-0.145	0.131
-619.361	-59.765	-0.121	0.052
-618.346	-20.071	-0.343	-0.210
-617.332	297.623	0.165	0.301
-616.317	800.000	-0.079	0.314
-615.303	191.331	0.071	0.107
-614.288	183.050	0.096	0.141
-613.273	-157.252	-0.138	0.008
-612.259	-200.000	0.015	0.137
-611.244	800.000	0.040	0.160
-610.230	-10.438	-0.245	0.161
-609.215	238.998	-0.225	0.373
-608.201	800.000	-0.037	-0.151
-607.186	-157.251	0.354	-0.021
-606.171	126.754	0.038	-0.048
-605.157	382.786	0.040	-0.081
-604.142	-165.113	-0.142	-0.006
-603.128	-101.864	-0.205	-0.049
-602.113	-180.863	-0.403	0.008
-601.098	-200.000	-0.044	-0.221
-600.084	69.884	-0.108	-0.111
-599.069	-200.000	0.018	0.180
-598.055	-151.591	0.193	0.014
-597.040	-68.465	-0.219	0.084
-596.025	111.621	0.231	0.277
-595.011	-200.000	-0.009	-0.132
-593.996	550.388	0.146	-0.348
-592.982	800.000	0.068	-0.211
-591.967	21.987	0.220	0.179
-590.952	-48.666	0.173	0.083
-589.938	25.018	-0.203	0.168
-588.923	499.323	-0.048	0.111
-587.909	-2.674	-0.170	-0.118
-586.894	96.118	-0.237	0.270
-585.879	-200.000	0.037	0.230
-584.865	-9.735	-0.126	0.084
-583.850	-200.000	-0.027	0.155
-582.836	347.105	0.087	0.170
-581.821	-164.670	-0.230	0.010
-580.806	-200.000	-0.016	-0.406
-579.792	39.661	0.134	-0.119
-578.777	411.213	0.079	-0.167
-577.763	96.826	0.117	0.133
-576.748	800.000	-0.054	0.214
-575.733	593.099	-0.130	-0.319
-574.719	-14.370	0.162	0.104
-573.704	-166.702	0.199	-0.008
-572.690	-200.000	-0.007	0.065
-571.675	22.780	0.125	0.102
-570.661	-67.912	0.285	0.111
-569.646	-14.684	0.127	-0.081
-568.631	-70.998	0.329	-0.123
-567.617	800.000	-0.028	-0.078
-566.602	-55.729	-0.464	0.206
-565.588	-132.772	-0.226	-0.029
-564.573	-118.544	-0.281	0.049
-563.558	-200.000	0.071	-0.327
-562.544	-44.195	0.115	0.058
-561.529	-197.679	-0.227	-0.001
-560.515	-22.496	-0.155	-0.093
-559.500	-200.000	0.052	-0.228
-558.485	800.000	0.084	-0.357
-557.471	-117.934	0.098	-0.017
-556.456	-152.428	-0.347	-0.025
-555.442	800.000	0.070	-0.221
-554.427	-47.335	0.307	-0.148
-553.412	-143.455	-0.387	0.037
-552.398	-87.334	0.136	0.041
-551.383	-85.414	0.335	0.104
-550.369	800.000	-0.082	0.244
-549.354	-63.843	-0.120	-0.049
-548.339	-196.739	0.292	0.002
-547.325	-3.920	0.204	0.141
-546.310	290.971	0.061	0.111
-545.296	368.068	0.114	-0.229
-544.281	-200.000	-0.020	-0.086
-543.266	-136.169	-0.211	-0.025
-542.252	33.098	-0.239	-0.206
-541.237	147.344	0.130	-0.174
-540.223	71.797	0.105	-0.108
-539.208	13.072	-0.188	-0.144
-538.193	800.000	-0.068	0.273
-537.179	-164.226	0.225	-0.010
-536.164	800.000	0.049	-0.154
-535.150	-32.894	0.080	-0.044
-534.135	775.933	-0.105	0.285
-533.121	-80.805	0.078	0.026
-532.106	20.157	0.066	-0.053
-531.091	800.000	0.032	-0.140
-530.077	-26.512	-0.181	0.105
-529.062	161.055	0.280	0.389
-528.048	-82.764	0.267	-0.086
-527.033	69.231	0.117	-0.120
-526.018	-7.318	0.176	0.119
-525.004	145.171	0.042	0.056
-523.989	800.000	-0.075	0.290
-522.975	-129.309	-0.278	-0.038
-521.960	-138.056	-0.054	-0.006
-520.945	800.000	-0.066	0.250
-519.931	-90.969	-0.253	-0.072
-518.916	340.377	-0.197	-0.381
-517.902	-200.000	0.082	-0.384
-516.887	800.000	0.042	0.125
-515.872	45.489	-0.362	-0.332
-514.858	-200.000	-0.010	-0.236
-513.843	93.437	0.243	0.273
-512.829	-143.940	-0.094	-0.009
-511.814	54.810	0.260	0.249
-510.799	-200.000	0.026	0.257
-509.785	-200.000	0.011	-0.106
-508.770	-27.068	-0.121	-0.070
-507.756	-200.000	-0.004	0.017
-506.741	800.000	-0.089	0.290
-505.726	-57.129	0.242	-0.106
-504.712	90.472	0.094	-0.104
-503.697	-131.680	-0.414	0.054
-502.683	-200.000	0.059	0.386
-501.668	-146.708	-0.265	-0.023
-500.653	-13.453	0.072	0.046
-499.639	-170.037	-0.029	0.001
-498.624	-86.621	0.036	0.011
-497.610	-200.000	-0.014	-0.075
-496.595	-48.004	0.417	-0.200
-495.581	56.929	0.105	-0.101
-494.566	-200.000	-0.034	-0.267
-493.551	153.445	0.259	0.352
-492.537	3.028	-0.115	-0.083
-491.522	-82.696	-0.326	0.105
-490.508	56.714	0.125	-0.120
-489.493	54.207	-0.086	0.082
-488.478	200.603	-0.250	-0.381
-487.464	299.108	0.111	-0.202
-486.449	-147.646	-0.113	0.009
-485.435	12.505	-0.077	0.059
-484.420	-4.817	-0.103	0.070
-483.405	26.499	0.259	-0.215
-482.391	-1.296	-0.219	-0.153
-481.376	195.095	0.202	-0.304
-480.362	-79.730	0.128	-0.043
-479.347	94.515	0.050	0.057
-478.332	-200.000	-0.017	-0.098
-477.318	17.240	0.155	-0.121
-476.303	390.764	0.036	-0.074
-475.289	-173.131	-0.024	0.001
-474.274	-200.000	-0.090	0.564
-473.259	-62.654	-0.233	-0.096
-472.245	-200.000	-0.031	-0.182
-471.230	-200.000	0.044	-0.420
-470.216	315.026	-0.133	-0.248
-469.201	-200.000	-0.010	0.281
-468.186	326.952	-0.078	-0.148
-467.172	259.003	0.041	-0.070
-466.157	427.125	-0.158	0.338
-465.143	46.887	-0.115	0.106
-464.128	30.483	0.219	0.186
-463.113	-97.294	-0.495	0.128
-462.099	-159.534	0.176	-0.010
-461.084	-71.442	-0.366	-0.136
-460.070	-200.000	-0.032	-0.171
-459.055	285.992	0.181	-0.323
-458.040	-42.102	-0.122	0.062
-457.026	-188.241	0.106	0.001
-456.011	19.324	-0.216	-0.172
-454.997	287.824	0.159	-0.284
-453.982	-2.816	-0.107	0.074
-452.968	25.768	0.224	0.185
-451.953	468.607	0.125	0.279
-450.938	800.000	0.018	-0.075
-449.924	800.000	0.009	0.026
-448.909	-200.000	0.448	0.000
-447.895	138.146	-0.129	0.167
-446.880	133.041	0.124	0.159
-445.865	-200.000	0.050	-0.226
-444.851	-62.723	0.205	0.084
-443.836	164.971	-0.147	-0.205
-442.822	772.245	-0.126	-0.340
-441.807	39.106	-0.199	-0.176
-440.792	-37.813	0.170	-0.089
-439.778	187.267	0.060	-0.089
-438.763	-141.440	-0.075	0.008
-437.749	800.000	-0.059	0.232
-436.734	-127.500	0.210	0.030
-435.719	-4.937	0.416	0.283
-434.705	27.739	0.123	-0.102
-433.690	-200.000	-0.020	-0.115
-432.676	38.936	0.140	0.124
-431.661	-4.659	-0.103	-0.070
-430.646	71.057	-0.163	0.167
-429.632	800.000	-0.035	0.120
-428.617	-113.528	0.294	-0.057
-427.603	-200.000	0.007	-0.092
-426.588	685.279	-0.015	-0.039
-425.573	-110.997	0.162	0.033
-424.559	-161.393	0.157	-0.008
-423.544	-5.540	-0.139	0.094
-422.530	800.000	0.052	-0.162
-421.515	42.558	-0.266	0.239
-420.500	236.160	0.111	-0.181
-419.486	-200.000	-0.042	-0.192
-418.471	-89.154	-0.521	-0.152
-417.457	800.000	-0.053	-0.180
-416.442	-200.000	-0.057	0.326
-415.428	109.326	0.168	0.198
-414.413	304.434	-0.167	0.306
-413.398	-142.527	-0.161	-0.016
-412.384	-200.000	-0.009	0.120
-411.369	134.570	0.109	-0.140
-410.355	-2.037	0.079	-0.055
-409.340	482.270	0.174	0.391
-408.325	287.115	-0.164	-0.293
-407.311	-8.188	0.358	0.238
-406.296	42.543	-0.200	-0.180
-405.282	134.098	0.155	-0.198
-404.267	-14.662	-0.038	0.024
-403.252	424.912	-0.051	-0.108
-402.238	-101.933	0.049	-0.012
-401.223	-200.000	0.005	0.214
-400.209	73.949	0.086	0.089
-399.194	-30.048	-0.165	-0.093
-398.179	-200.000	0.040	-0.296
-397.165	-173.286	0.179	-0.005
-396.150	-7.045	-0.147	-0.098
-395.136	88.820	0.184	0.202
-394.121	255.313	-0.060	0.101
-393.106	-133.710	-0.268	0.033
-392.092	-200.000	0.008	-0.094
-391.077	8.448	-0.393	0.292
-390.063	-200.000	-0.014	-0.249
-389.048	800.000	0.132	0.369
-388.033	-163.522	0.146	-0.007
-387.019	-200.000	0.050	-0.327
-386.004	247.480	0.185	-0.309
-384.990	-200.000	0.037	0.162
-383.975	93.897	-0.171	0.192
-382.960	66.545	0.235	-0.236
-381.946	-72.668	0.097	0.035
-380.931	-82.758	0.261	-0.083
-379.917	-200.000	-0.029	-0.177
-378.902	65.859	-0.158	-0.158
-377.888	533.721	-0.071	0.165
-376.873	-111.001	-0.050	-0.010
-375.858	506.548	-0.128	0.292
-374.844	-11.949	-0.180	0.117
-373.829	254.182	-0.174	-0.293
-372.815	-5.767	0.210	0.142
-371.800	-41.226	-0.180	0.092
-370.785	414.979	0.044	0.092
-369.771	314.073	-0.110	0.204
-368.756	494.769	0.054	0.122
-367.742	34.278	-0.205	-0.176
-366.727	7.925	0.156	-0.116
-365.712	106.954	-0.022	-0.026
-364.698	-54.236	-0.094	-0.042
-363.683	68.346	-0.190	-0.192
-362.669	800.000	-0.016	-0.067
-361.654	91.602	0.023	0.025
-360.639	-76.980	-0.434	0.149
-359.625	135.847	0.348	0.446
-358.610	308.155	0.063	-0.117
-357.596	70.871	0.260	0.265
-356.581	228.677	-0.196	0.315
-355.566	46.540	0.206	0.188
-354.552	135.316	0.141	-0.180
-353.537	-95.719	-0.510	-0.134
-352.523	112.885	-0.169	-0.202
-351.508	364.926	0.126	-0.250
-350.493	-79.161	-0.215	0.072
-349.479	800.000	0.020	-0.061
-348.464	-135.862	0.199	-0.023
-347.450	-122.029	0.298	0.048
-346.435	156.528	0.151	-0.206
-345.420	-41.863	-0.244	0.123
-344.406	27.471	0.254	0.210
-343.391	800.000	-0.038	0.118
-342.377	-63.097	-0.185	-0.075
-341.362	123.594	-0.028	-0.034
-340.348	-200.000	-0.190	0.000
-339.333	50.107	0.056	0.052
-338.318	-162.079	0.218	0.011
-337.304	-116.342	-0.202	-0.037
-336.289	28.483	-0.210	-0.175
-335.275	-54.874	0.099	0.044
-334.260	-99.003	0.460	-0.115
-333.245	79.184	-0.199	0.210
-332.231	-89.729	0.317	-0.092
-331.216	-15.672	-0.082	-0.052
-330.202	47.994	-0.080	-0.073
-329.187	-32.828	0.221	0.121
-328.172	6.596	-0.280	0.205
-327.158	-97.544	0.502	-0.128
-326.143	304.971	-0.209	-0.383
-325.129	-200.000	-0.006	0.282
-324.114	-18.841	-0.076	0.047
-323.099	731.809	0.076	0.200
-322.085	800.000	0.085	0.283
-321.070	-19.512	-0.131	-0.080
-320.056	-42.245	-0.264	0.133
-319.041	-200.000	-0.007	-0.053
-318.026	-3.359	-0.308	0.211
-317.012	-102.835	0.241	0.057
-315.997	545.950	-0.165	0.389
-314.983	800.000	-0.021	-0.070
-313.968	-200.000	0.018	-0.281
-312.953	-132.742	0.227	0.029
-311.939	149.642	0.097	-0.129
-310.924	76.786	0.217	-0.227
-309.910	800.000	-0.039	0.127
-308.895	800.000	0.054	-0.230
-307.880	86.820	0.051	0.056
-306.866	18.631	-0.266	0.209
-305.851	28.513	-0.166	-0.138
-304.837	792.529	0.013	-0.035
-303.822	-61.219	-0.252	-0.105
-302.807	-158.747	-0.129	-0.007
-301.793	-133.297	-0.219	0.027
-300.778	-34.857	-0.206	-0.111
-299.764	-101.981	0.320	-0.076
-298.749	43.993	-0.156	-0.141
-297.735	396.697	-0.152	0.311
-296.720	-124.524	0.300	-0.046
-295.705	-63.192	-0.154	0.063
-294.691	73.698	-0.318	-0.327
-293.676	187.746	0.076	0.111
-292.662	-101.054	0.153	-0.037
-291.647	117.552	-0.197	-0.238
-290.632	367.326	0.115	-0.228
-289.618	-75.129	0.005	-0.002
-288.603	-10.014	0.289	0.189
-287.589	-133.537	0.190	0.023
-286.574	-30.448	-0.286	0.160
-285.559	800.000	0.011	-0.032
-284.545	800.000	-0.085	-0.351
-283.530	419.898	0.158	-0.332
-282.516	-200.000	-0.031	0.160
-281.501	-130.431	0.184	-0.025
-280.486	800.000	0.095	-0.390
-279.472	57.032	0.272	-0.260
-278.457	-50.999	0.092	-0.043
-277.443	-200.000	-0.021	-0.186
-276.428	-3.779	-0.162	0.110
-275.413	16.874	-0.161	0.125
-274.399	26.488	-0.167	-0.137
-273.384	-13.752	-0.300	-0.191
-272.370	-17.227	0.361	0.224
-271.355	33.485	0.164	0.140
-270.340	-138.125	-0.300	0.033
-269.326	-80.730	-0.184	-0.060
-268.311	-138.545	0.232	0.025
-267.297	-37.711	-0.371	0.194
-266.282	-200.000	-0.013	0.095
-265.267	133.532	0.220	-0.280
-264.253	-161.596	-0.365	-0.018
-263.238	-200.000	0.025	0.222
-262.224	800.000	0.223	0.656
-261.209	-25.391	-0.280	0.162
-260.195	-149.201	-0.032	0.003
-259.180	-200.000	0.075	-0.416
-258.165	-200.000	0.014	-0.081
-257.151	344.143	-0.077	0.148
-256.136	346.431	-0.116	0.224
-255.122	328.275	-0.090	-0.170
-254.107	258.542	0.045	0.075
-253.092	-78.865	0.203	-0.068
-252.078	-105.587	-0.173	-0.038
-251.063	379.224	0.139	0.280
-250.049	29.704	0.208	0.174
-249.034	187.189	0.068	0.100
-248.019	18.197	0.006	0.004
-247.005	-49.367	-0.020	0.009
-245.990	211.974	0.274	0.424
-244.976	-18.745	-0.209	-0.128
-243.961	9.004	-0.148	0.109
-242.946	122.701	-0.188	0.231
-241.932	-49.975	0.177	0.082
-240.917	-200.000	0.053	-0.311
-239.903	560.584	0.077	-0.182
-238.888	-110.352	0.322	-0.066
-237.873	221.464	0.045	-0.071
-236.859	-76.121	0.377	-0.131
-235.844	70.433	-0.075	0.076
-234.830	30.266	0.161	0.135
-233.815	218.990	-0.130	-0.204
-232.800	800.000	-0.118	-0.394
-231.786	-49.501	0.146	-0.068
-230.771	-114.718	0.220	0.041
-229.757	-29.887	0.264	-0.148
-228.742	17.847	-0.218	0.171
-227.727	-32.337	-0.288	-0.158
-226.713	-110.831	0.234	-0.047
-225.698	800.000	-0.060	0.194
-224.684	54.721	-0.166	0.157
-223.669	-90.654	-0.170	-0.048
-222.655	174.489	-0.118	-0.168
-221.640	-107.122	-0.207	0.045
-220.625	800.000	-0.064	-0.249
-219.611	-138.917	0.242	-0.026
-218.596	68.637	0.120	0.120
-217.582	327.861	-0.153	-0.288
-216.567	75.176	0.100	0.104
-215.552	800.000	-0.043	0.178
-214.538	-144.983	0.112	0.010
-213.523	-94.285	0.080	-0.022
-212.509	800.000	0.031	0.110
-211.494	74.300	0.204	-0.210
-210.479	-1.328	-0.019	-0.013
-209.465	231.446	-0.134	0.216
-208.450	-200.000	-0.021	-0.181
-207.436	337.594	0.032	-0.061
-206.421	797.312	0.065	0.176
-205.406	800.000	0.086	-0.249
-204.392	-144.728	0.437	0.039
-203.377	800.000	0.057	0.175
-202.363	-6.561	-0.115	-0.077
-201.348	-34.791	-0.093	0.050
-200.333	-200.000	-0.009	0.482
-199.319	53.407	0.154	-0.145
-198.304	800.000	0.132	-0.431
-197.290	-121.231	-0.288	0.047
-196.275	-17.787	0.173	-0.106
-195.260	-111.354	0.200	-0.040
-194.246	76.674	0.045	0.046
-193.231	800.000	-0.074	0.309
-192.217	592.441	0.088	0.214
-191.202	-200.000	-0.030	-0.263
-190.187	106.050	-0.164	-0.190
-189.173	37.760	0.179	0.156
-188.158	170.256	0.129	-0.181
-187.144	80.196	-0.228	-0.240
-186.129	-37.252	0.307	0.161
-185.114	-48.267	0.140	0.066
-184.100	35.651	-0.081	0.070
-183.085	151.793	0.078	0.105
-182.071	-23.849	-0.198	0.116
-181.056	187.149	-0.080	0.116
-180.042	241.029	0.254	0.414
-179.027	204.067	0.060	0.090
-178.012	36.189	-0.083	0.072
-176.998	-157.740	-0.301	-0.018
-175.983	-63.008	0.205	-0.083
-174.969	678.860	-0.094	0.239
-173.954	-200.000	0.048	0.238
-172.939	-117.461	0.218	0.039
-171.925	29.020	-0.178	0.148
-170.910	76.021	-0.232	0.240
-169.896	800.000	-0.079	0.315
-168.881	-65.444	-0.199	-0.078
-167.866	-200.000	0.016	0.093
-166.852	-200.000	-0.008	0.129
-165.837	-57.330	0.162	-0.070
-164.823	47.844	-0.135	-0.124
-163.808	33.382	0.250	0.213
-162.793	362.237	0.095	0.186
-161.779	410.648	0.131	0.271
-160.764	800.000	0.027	0.088
-159.750	55.935	-0.243	-0.231
-158.735	769.449	-0.122	0.324
-157.720	-58.749	0.349	0.148
-156.706	28.825	0.140	0.116
-155.691	97.072	0.192	-0.215
-154.677	-200.000	0.045	-0.314
-153.662	-200.000	-0.020	-0.142
-152.647	-161.832	0.137	0.007
-151.633	-14.095	-0.348	-0.220
-150.618	-200.000	-0.016	-0.099
-149.604	-52.990	0.162	-0.073
-148.589	-200.000	-0.036	0.267
-147.574	800.000	-0.018	0.054
-146.560	277.957	-0.031	0.054
-145.545	-2.954	-0.308	-0.210
-144.531	441.751	0.123	0.262
-143.516	544.414	-0.037	0.086
-142.502	-71.534	-0.466	-0.170
-141.487	-122.234	-0.227	-0.036
-140.472	-53.505	-0.101	-0.045
-139.458	390.142	-0.103	0.209
-138.443	-200.000	-0.087	0.454
-137.429	-83.386	-0.092	-0.029
-136.414	-102.438	0.054	0.013
-135.399	99.565	0.269	-0.304
-134.385	-103.038	-0.067	0.015
-133.370	-146.298	0.296	0.025
-132.356	-163.066	-0.336	0.016
-131.341	-145.527	0.444	-0.039
-130.326	-95.069	-0.195	0.051
-129.312	101.656	0.244	0.278
-128.297	4.822	0.130	-0.093
-127.283	47.771	-0.180	-0.164
-126.268	269.851	0.147	0.252
-125.253	-141.852	-0.330	0.032
-124.239	-200.000	-0.050	0.217
-123.224	7.015	-0.347	0.253
-122.210	419.253	0.155	0.325
-121.195	335.356	-0.204	0.386
