DTS Sentinel unit serial number:	SN413079Multiplexer serial number:	ORYXHardware model number:	OX4-SRSoftware version number:	ORYX F/W v4.00 Oryx Data Collector v3.7.2.0data status	okinstallation	princeton_trtdifferential loss correction	single-endedforward channel	channel 1reverse channel	N/Adate	2019/09/11time	13:12:11forward acquisition time	60.00reverse acquisition time	0.00gamma	496.2192k internal	0.2295k external	0.2295temperature offset calibration	0.9976default loss term (dB/km)	0.3790temperature slope calibration	1.0000multiplexer offset coefficient	1.0000multiplexer slope coefficient	1.0000fibre end	0.00T internal ref (°C)	41.92T ext. ref 1 (°C)	0.77T ext. ref 2 (°C)	36.67length (m)	temperature (°C)	Stokes	anti-Stokes-747.200	-102.872	-0.205	-0.050
-746.185	-200.000	-0.003	0.423
-745.171	-58.282	0.252	-0.112
-744.156	-200.000	0.021	-0.106
-743.142	1.797	-0.007	-0.005
-742.127	271.461	0.186	0.335
-741.112	-200.000	-0.042	0.276
-740.098	-130.011	-0.102	-0.014
-739.083	-200.000	0.025	0.111
-738.069	-112.952	0.243	0.049
-737.054	800.000	0.057	-0.197
-736.039	-24.362	-0.362	0.220
-735.025	-64.904	0.479	0.198
-734.010	-200.000	0.045	-0.228
-732.996	800.000	-0.077	-0.227
-731.981	800.000	-0.025	-0.074
-730.966	177.422	0.064	-0.095
-729.952	-6.399	0.393	-0.274
-728.937	-67.796	0.089	-0.035
-727.923	-51.205	-0.213	-0.102
-726.908	-107.092	-0.030	0.007
-725.894	-200.000	-0.034	-0.161
-724.879	-200.000	0.017	0.149
-723.864	800.000	-0.047	-0.151
-722.850	-200.000	-0.070	0.379
-721.835	-200.000	0.023	-0.188
-720.821	-200.000	0.011	-0.161
-719.806	389.666	-0.062	-0.131
-718.791	-200.000	-0.030	-0.453
-717.777	76.983	-0.074	-0.080
-716.762	-62.203	-0.142	-0.061
-715.748	-136.129	-0.234	-0.028
-714.733	800.000	0.039	-0.109
-713.718	-200.000	0.027	0.296
-712.704	544.023	-0.134	-0.326
-711.689	-200.000	-0.053	-0.366
-710.675	330.510	0.119	-0.234
-709.660	-122.451	-0.156	-0.026
-708.645	-35.358	-0.345	0.192
-707.631	-8.480	-0.158	0.109
-706.616	-59.119	-0.060	-0.026
-705.602	46.528	-0.323	-0.306
-704.587	-116.011	-0.192	-0.036
-703.572	-70.543	0.208	0.080
-702.558	-45.042	0.097	0.049
-701.543	246.492	-0.122	0.210
-700.529	-54.753	-0.395	-0.182
-699.514	45.611	-0.109	-0.103
-698.499	-200.000	0.110	0.527
-697.485	303.027	-0.229	-0.433
-696.470	-130.406	0.342	0.047
-695.456	508.890	-0.055	0.130
-694.441	-162.116	-0.244	0.012
-693.426	800.000	-0.053	-0.157
-692.412	800.000	0.051	0.188
-691.397	800.000	-0.043	0.180
-690.383	450.377	0.051	0.116
-689.368	-200.000	-0.028	0.206
-688.354	134.693	-0.130	-0.172
-687.339	-200.000	0.017	-0.081
-686.324	-0.850	-0.451	-0.326
-685.310	-131.904	0.358	0.048
-684.295	49.183	-0.305	-0.293
-683.281	721.084	0.098	0.267
-682.266	78.939	-0.097	0.106
-681.251	-144.673	-0.389	-0.037
-680.237	-35.192	0.152	-0.084
-679.222	-67.581	0.139	0.056
-678.208	88.588	-0.235	0.266
-677.193	-113.473	-0.046	-0.009
-676.178	-103.163	0.157	-0.038
-675.164	3.479	0.146	0.109
-674.149	184.322	-0.180	0.272
-673.135	-73.287	-0.161	-0.060
-672.120	-200.000	0.000	-0.225
-671.105	43.970	0.178	0.166
-670.091	-103.088	-0.443	-0.107
-669.076	-25.640	-0.134	0.080
-668.062	-50.034	-0.190	-0.092
-667.047	74.593	-0.147	0.157
-666.032	-200.000	-0.003	-0.251
-665.018	202.640	-0.142	-0.223
-664.003	-200.000	-0.012	-0.307
-662.989	151.109	-0.218	0.302
-661.974	-87.203	-0.247	-0.077
-660.959	-109.681	-0.189	0.041
-659.945	-78.774	-0.323	0.112
-658.930	-168.097	-0.308	-0.012
-657.916	-27.689	-0.104	0.062
-656.901	45.020	-0.067	0.063
-655.886	338.421	0.114	-0.226
-654.872	-108.029	0.244	0.054
-653.857	-76.287	0.179	0.064
-652.843	66.934	0.380	0.394
-651.828	22.329	-0.168	0.140
-650.814	-116.639	-0.281	-0.053
-649.799	-200.000	0.078	-0.448
-648.784	-107.187	0.293	-0.066
-647.770	119.078	0.186	0.234
-646.755	206.334	0.200	-0.317
-645.741	800.000	-0.060	0.222
-644.726	-178.493	-0.463	0.011
-643.711	800.000	-0.070	0.201
-642.697	77.897	-0.054	0.059
-641.682	-11.018	0.370	-0.249
-640.668	-123.717	0.230	0.037
-639.653	66.197	0.202	-0.209
-638.638	505.609	-0.060	0.142
-637.624	-75.195	-0.099	-0.036
-636.609	800.000	-0.004	0.013
-635.595	80.100	-0.039	-0.043
-634.580	106.161	-0.262	-0.316
-633.565	-200.000	-0.000	0.336
-632.551	-173.718	-0.081	0.002
-631.536	10.390	0.084	-0.065
-630.522	98.470	-0.071	0.084
-629.507	-200.000	0.025	0.217
-628.492	800.000	0.083	0.290
-627.478	-64.926	0.163	0.067
-626.463	18.707	-0.292	-0.238
-625.449	146.899	0.108	-0.147
-624.434	141.678	-0.215	-0.290
-623.419	113.898	-0.120	0.148
-622.405	-200.000	-0.023	-0.226
-621.390	-72.228	-0.355	0.134
-620.376	83.122	0.079	-0.087
-619.361	-200.000	0.003	0.270
-618.346	-49.725	0.183	0.089
-617.332	-126.562	-0.258	0.039
-616.317	380.254	0.098	0.204
-615.303	-129.395	0.184	0.026
-614.288	-35.899	0.040	-0.022
-613.273	-6.504	0.160	0.111
-612.259	-101.829	0.239	0.059
-611.244	-200.000	-0.046	-0.458
-610.230	-57.473	0.109	0.048
-609.215	-123.000	-0.106	0.017
-608.201	327.101	-0.092	-0.179
-607.186	155.404	0.189	0.265
-606.171	2.138	-0.283	0.208
-605.157	-147.297	0.156	-0.013
-604.142	-43.291	-0.379	-0.195
-603.128	138.617	-0.127	0.170
-602.113	40.085	0.021	-0.019
-601.098	-200.000	-0.024	-0.313
-600.084	-67.605	-0.274	-0.109
-599.069	-177.119	0.081	-0.002
-598.055	-12.844	0.195	0.129
-597.040	-200.000	-0.011	-0.094
-596.025	-49.976	-0.034	0.016
-595.011	-80.409	0.164	-0.055
-593.996	100.009	-0.250	0.295
-592.982	-122.907	0.105	0.017
-591.967	-63.025	-0.375	-0.158
-590.952	-147.628	-0.497	0.042
-589.938	205.823	-0.049	0.078
-588.923	390.267	-0.076	-0.160
-587.909	-90.554	-0.116	0.034
-586.894	800.000	-0.057	-0.232
-585.879	-36.342	0.103	-0.056
-584.865	409.330	0.073	-0.158
-583.850	-200.000	0.087	-0.392
-582.836	276.004	-0.054	-0.098
-581.821	-200.000	0.026	-0.279
-580.806	430.086	-0.072	-0.158
-579.792	119.059	0.027	0.034
-578.777	-180.561	0.233	-0.005
-577.763	800.000	0.047	-0.154
-576.748	-200.000	0.051	0.241
-575.733	-15.126	0.209	-0.136
-574.719	262.533	-0.214	-0.377
-573.704	2.280	-0.115	-0.085
-572.690	169.451	0.191	0.277
-571.675	-81.787	0.124	-0.041
-570.661	-19.704	0.113	-0.071
-569.646	-73.958	0.138	-0.051
-568.631	-20.332	-0.089	0.055
-567.617	-141.125	0.193	0.020
-566.602	-101.996	-0.107	-0.026
-565.588	-200.000	0.027	0.172
-564.573	112.704	0.020	0.025
-563.558	337.311	0.131	-0.259
-562.544	-175.554	-0.087	0.002
-561.529	212.428	-0.256	0.409
-560.515	-16.834	0.062	0.040
-559.500	-150.807	0.148	0.011
-558.485	-16.917	-0.293	0.188
-557.471	-30.637	0.110	0.063
-556.456	800.000	0.112	-0.434
-555.442	-18.667	-0.199	-0.126
-554.427	800.000	0.014	-0.040
-553.412	538.575	-0.100	-0.240
-552.398	-93.166	-0.227	0.064
-551.383	-67.789	0.223	0.089
-550.369	800.000	-0.093	-0.333
-549.354	-111.170	0.055	0.012
-548.339	42.064	-0.370	0.340
-547.325	-133.306	0.382	-0.049
-546.310	800.000	-0.031	0.120
-545.296	391.445	-0.036	0.076
-544.281	-200.000	0.078	0.379
-543.266	178.521	-0.108	0.160
-542.252	384.624	-0.140	-0.292
-541.237	-200.000	-0.028	-0.431
-540.223	295.875	0.052	-0.097
-539.208	800.000	-0.057	0.183
-538.193	-79.241	0.289	0.099
-537.179	284.996	-0.017	-0.032
-536.164	-1.827	-0.115	-0.082
-535.150	-94.442	-0.153	-0.042
-534.135	800.000	0.032	-0.108
-533.121	137.919	0.075	-0.100
-532.106	70.693	0.123	-0.130
-531.091	110.376	-0.217	0.265
-530.077	-200.000	-0.037	-0.181
-529.062	-200.000	0.000	0.093
-528.048	136.997	-0.091	0.121
-527.033	-200.000	0.035	-0.180
-526.018	-194.585	0.243	0.002
-525.004	-162.424	0.043	0.002
-523.989	-200.000	-0.028	-0.252
-522.975	-200.000	-0.003	0.065
-521.960	-200.000	-0.040	-0.297
-520.945	508.831	-0.051	-0.120
-519.931	152.524	0.028	-0.039
-518.916	-88.477	0.272	-0.082
-517.902	-105.708	0.359	-0.082
-516.887	74.137	0.310	0.330
-515.872	-200.000	-0.001	0.351
-514.858	800.000	0.066	-0.220
-513.843	800.000	0.035	-0.135
-512.829	-200.000	-0.009	0.190
-511.814	-80.629	0.355	-0.120
-510.799	-115.652	0.185	-0.035
-509.785	-200.000	-0.022	-0.378
-508.770	-200.000	-0.021	-0.123
-507.756	-16.320	-0.096	-0.062
-506.741	-32.572	-0.300	-0.169
-505.726	-158.725	-0.191	-0.011
-504.712	270.518	0.012	0.021
-503.697	97.662	0.074	0.087
-502.683	30.578	0.277	0.240
-501.668	6.226	-0.140	0.105
-500.653	800.000	-0.036	0.110
-499.639	-200.000	0.026	-0.167
-498.624	-30.746	-0.492	-0.282
-497.610	315.947	0.120	-0.229
-496.595	122.950	0.122	-0.155
-495.581	277.503	0.081	0.145
-494.566	-200.000	0.027	0.250
-493.551	-60.519	-0.266	0.114
-492.537	61.431	0.221	-0.223
-491.522	-200.000	0.034	-0.256
-490.508	-200.000	-0.044	0.214
-489.493	162.151	0.120	-0.171
-488.478	185.105	-0.044	0.066
-487.464	98.859	-0.109	0.128
-486.449	-161.934	-0.312	0.016
-485.435	-200.000	0.022	-0.102
-484.420	-61.025	0.151	-0.065
-483.405	-200.000	-0.007	0.153
-482.391	-58.723	0.144	-0.063
-481.376	-170.470	0.134	-0.005
-480.362	-158.910	0.197	-0.011
-479.347	-164.943	0.381	-0.017
-478.332	-70.245	-0.278	0.107
-477.318	-88.142	-0.302	-0.092
-476.303	-31.433	0.229	0.130
-475.289	180.912	-0.037	0.055
-474.274	33.774	-0.131	-0.115
-473.259	800.000	0.068	0.257
-472.245	247.782	-0.176	0.301
-471.230	-200.000	0.014	-0.071
-470.216	12.735	-0.193	-0.151
-469.201	18.680	-0.068	0.055
-468.186	800.000	0.118	0.428
-467.172	337.106	0.050	0.098
-466.157	-200.000	-0.010	-0.264
-465.143	-200.000	0.020	-0.339
-464.128	800.000	-0.065	0.280
-463.113	86.820	0.094	-0.105
-462.099	-121.936	0.330	0.055
-461.084	-120.050	-0.260	0.045
-460.070	384.730	0.082	0.172
-459.055	98.518	-0.177	0.206
-458.040	35.598	0.172	-0.153
-457.026	-18.232	0.203	0.128
-456.011	-25.575	-0.180	0.107
-454.997	259.483	-0.221	0.385
-453.982	660.060	-0.089	0.233
-452.968	212.808	-0.092	-0.148
-451.953	144.836	-0.066	-0.089
-450.938	194.189	-0.040	0.062
-449.924	800.000	-0.033	0.109
-448.909	-39.142	0.055	0.029
-447.895	-26.014	0.205	0.122
-446.880	-106.528	0.128	-0.029
-445.865	-200.000	-0.028	0.333
-444.851	800.000	0.031	0.115
-443.836	4.863	-0.234	-0.174
-442.822	-34.938	-0.260	-0.143
-441.807	-94.216	0.148	-0.041
-440.792	-200.000	0.010	-0.200
-439.778	83.241	0.150	-0.165
-438.763	48.517	-0.238	0.225
-437.749	-78.023	0.079	-0.028
-436.734	-80.057	-0.148	0.050
-435.719	22.116	0.263	0.217
-434.705	-5.866	0.128	-0.088
-433.690	-200.000	-0.015	0.384
-432.676	-161.024	0.213	-0.011
-431.661	320.464	0.177	-0.340
-430.646	23.681	0.301	0.250
-429.632	-200.000	-0.010	-0.202
-428.617	800.000	0.035	0.150
-427.603	-200.000	-0.003	-0.229
-426.588	-191.767	-0.136	0.001
-425.573	-30.896	0.212	-0.121
-424.559	71.147	-0.162	0.170
-423.544	-11.677	0.103	0.068
-422.530	-200.000	-0.002	-0.227
-421.515	577.117	0.135	0.333
-420.500	146.111	-0.154	0.208
-419.486	105.637	-0.086	0.103
-418.471	-5.711	-0.238	0.165
-417.457	329.372	0.133	-0.257
-416.442	146.028	0.058	-0.078
-415.428	177.742	-0.157	0.231
-414.413	-200.000	0.026	-0.207
-413.398	188.315	-0.112	0.168
-412.384	800.000	0.061	0.206
-411.369	-139.914	-0.163	-0.017
-410.355	-109.691	0.085	0.018
-409.340	195.388	-0.087	0.134
-408.325	-145.947	-0.172	-0.015
-407.311	-111.979	0.273	0.056
-406.296	-108.463	-0.446	0.097
-405.282	3.425	-0.350	0.257
-404.267	-24.721	-0.073	0.044
-403.252	-142.121	0.119	-0.012
-402.238	800.000	-0.102	0.395
-401.223	116.199	-0.066	-0.081
-400.209	221.020	0.136	-0.221
-399.194	-38.661	-0.118	0.063
-398.179	177.154	0.088	0.129
-397.165	-80.502	0.105	0.035
-396.150	189.072	-0.105	-0.159
-395.136	480.399	-0.087	0.198
-394.121	211.313	-0.123	-0.195
-393.106	292.666	0.126	-0.232
-392.092	-200.000	0.016	0.071
-391.077	-200.000	-0.006	0.266
-390.063	-200.000	0.004	0.311
-389.048	133.672	-0.049	-0.064
-388.033	-81.103	0.181	0.060
-387.019	-43.472	0.406	-0.207
-386.004	-132.684	-0.316	0.041
-384.990	-103.789	0.213	0.050
-383.975	30.488	-0.128	0.110
-382.960	-20.025	-0.149	0.093
-381.946	-155.339	-0.148	0.010
-380.931	34.128	0.062	0.055
-379.917	-130.465	0.254	-0.035
-378.902	-84.706	0.297	-0.094
-377.888	-167.044	0.325	0.013
-376.873	-200.000	-0.009	-0.048
-375.858	281.108	0.073	-0.132
-374.844	-200.000	0.014	0.093
-373.829	-200.000	0.045	-0.246
-372.815	517.448	-0.073	-0.171
-371.800	52.321	-0.118	0.113
-370.785	50.984	0.139	-0.133
-369.771	81.653	0.292	-0.318
-368.756	636.175	0.073	-0.187
-367.742	-200.000	-0.046	0.206
-366.727	-47.754	-0.308	-0.151
-365.712	-11.303	0.326	0.216
-364.698	-200.000	-0.015	-0.250
-363.683	-94.522	0.165	-0.045
-362.669	33.453	-0.339	-0.296
-361.654	-89.835	-0.340	-0.100
-360.639	-154.947	0.366	0.024
-359.625	138.364	0.042	-0.055
-358.610	-200.000	0.010	0.263
-357.596	-24.414	-0.085	0.051
-356.581	-114.689	-0.206	-0.040
-355.566	-200.000	0.027	0.231
-354.552	-150.727	0.090	-0.007
-353.537	800.000	-0.044	0.151
-352.523	-60.742	0.334	0.142
-351.508	-200.000	-0.015	0.311
-350.493	-103.634	-0.120	-0.028
-349.479	-89.006	-0.128	-0.038
-348.464	395.654	0.061	-0.128
-347.450	-97.055	0.087	-0.023
-346.435	-16.540	-0.234	0.149
-345.420	214.326	0.037	-0.059
-344.406	-72.568	-0.428	0.159
-343.391	-62.290	-0.080	0.033
-342.377	800.000	-0.121	0.444
-341.362	-15.920	-0.089	0.057
-340.348	30.666	-0.349	-0.301
-339.333	67.544	-0.069	-0.071
-338.318	233.276	-0.089	0.147
-337.304	-89.934	0.163	-0.048
-336.289	102.044	-0.014	-0.017
-335.275	-36.323	0.151	0.082
-334.260	-49.901	0.136	0.065
-333.245	-4.213	0.281	0.196
-332.231	51.268	-0.091	0.087
-331.216	154.290	-0.236	-0.325
-330.202	-49.589	0.214	-0.102
-329.187	140.266	0.082	0.109
-328.172	-140.778	0.072	0.008
-327.158	50.041	-0.193	-0.183
-326.143	215.363	-0.050	0.079
-325.129	800.000	0.022	-0.070
-324.114	800.000	0.058	-0.205
-323.099	-42.985	0.176	0.090
-322.085	187.471	0.080	0.120
-321.070	696.848	-0.055	-0.145
-320.056	632.934	-0.133	-0.339
-319.041	794.705	0.004	-0.012
-318.026	800.000	-0.072	-0.217
-317.012	-200.000	0.025	0.145
-315.997	-200.000	0.011	-0.276
-314.983	-15.689	-0.252	-0.161
-313.968	-200.000	-0.032	-0.307
-312.953	-130.113	0.232	0.032
-311.939	420.371	0.089	-0.192
-310.924	123.381	-0.064	-0.080
-309.910	-200.000	0.006	0.111
-308.895	-200.000	0.049	-0.351
-307.880	121.163	-0.200	-0.250
-306.866	-77.146	-0.295	-0.103
-305.851	16.392	-0.379	-0.300
-304.837	-19.502	0.167	-0.104
-303.822	-200.000	-0.017	-0.077
-302.807	-99.072	-0.110	0.028
-301.793	-200.000	-0.041	0.367
-300.778	-79.881	-0.237	0.080
-299.764	-200.000	0.571	-0.001
-298.749	469.885	-0.090	-0.203
-297.735	-130.832	0.165	0.022
-296.720	-39.110	-0.085	0.045
-295.705	-200.000	0.024	-0.108
-294.691	-27.841	-0.121	0.071
-293.676	414.509	0.168	0.360
-292.662	-200.000	0.014	-0.080
-291.647	-145.462	-0.321	-0.029
-290.632	89.155	-0.121	-0.135
-289.618	-105.504	0.046	0.010
-288.603	-176.384	-0.080	0.002
-287.589	-57.165	-0.242	-0.107
-286.574	12.204	0.104	-0.080
-285.559	-47.357	0.116	-0.057
-284.545	-200.000	0.034	0.203
-283.530	-96.562	-0.173	-0.046
-282.516	78.909	-0.046	0.049
-281.501	-71.493	0.327	0.123
-280.486	-200.000	0.043	0.212
-279.472	416.703	-0.038	0.082
-278.457	-103.657	0.299	0.070
-277.443	85.262	0.164	0.180
-276.428	800.000	0.056	-0.192
-275.413	-200.000	0.002	0.387
-274.399	-26.679	0.118	-0.069
-273.384	-108.453	-0.277	-0.060
-272.370	-60.225	-0.344	-0.147
-271.355	-200.000	-0.017	-0.137
-270.340	58.898	-0.077	0.076
-269.326	-101.277	-0.233	0.057
-268.311	-200.000	0.060	0.289
-267.297	163.002	0.037	0.053
-266.282	-111.508	-0.169	-0.034
-265.267	-200.000	-0.022	-0.145
-264.253	-148.066	0.232	-0.019
-263.238	25.440	0.194	-0.162
-262.224	97.540	-0.066	0.076
-261.209	11.113	-0.087	-0.067
-260.195	-62.790	-0.193	-0.080
-259.180	800.000	-0.056	0.245
-258.165	-200.000	-0.023	0.393
-257.151	-7.992	-0.076	0.052
-256.136	81.416	-0.202	-0.219
-255.122	-139.792	0.119	-0.013
-254.107	172.778	-0.044	0.063
-253.092	-200.000	-0.010	0.379
-252.078	53.516	0.319	0.307
-251.063	-13.211	0.303	-0.197
-250.049	36.180	-0.216	0.191
-249.034	274.736	-0.155	0.275
-248.019	21.598	0.259	-0.211
-247.005	-197.978	0.184	-0.001
-245.990	29.053	0.158	0.134
-244.976	164.583	-0.140	0.197
-243.961	75.159	0.117	-0.124
-242.946	-200.000	0.002	-0.027
-241.932	-200.000	0.024	-0.343
-240.917	-20.868	-0.241	-0.148
-239.903	-60.278	-0.153	0.065
-238.888	45.274	0.095	-0.087
-237.873	151.375	-0.305	-0.417
-236.859	-126.537	-0.351	0.052
-235.844	-80.828	0.022	-0.007
-234.830	-64.720	-0.133	0.054
-233.815	402.186	0.098	-0.207
-232.800	525.873	0.123	-0.289
-231.786	110.013	-0.207	0.249
-230.771	299.904	0.133	0.246
-229.757	236.851	0.108	-0.179
-228.742	94.896	-0.082	0.093
-227.727	-88.414	0.151	0.045
-226.713	70.110	0.165	0.170
-225.698	-200.000	0.070	0.363
-224.684	800.000	-0.028	-0.106
-223.669	18.639	0.194	-0.155
-222.655	-38.816	0.134	0.071
-221.640	-17.005	-0.067	-0.042
-220.625	29.918	-0.158	-0.135
-219.611	10.474	-0.033	-0.025
-218.596	158.739	0.201	-0.279
-217.582	-200.000	-0.012	0.177
-216.567	-79.145	-0.190	0.065
-215.552	-151.595	-0.301	0.022
-214.538	-200.000	-0.003	-0.104
-213.523	-47.025	-0.285	0.139
-212.509	800.000	-0.109	0.326
-211.494	800.000	-0.188	0.532
-210.479	-104.791	0.116	-0.027
-209.465	381.128	0.039	0.079
-208.450	45.455	0.186	0.172
-207.436	108.840	-0.232	-0.278
-206.421	115.235	0.287	-0.351
-205.406	-85.353	0.389	0.121
-204.392	25.255	-0.182	-0.152
-203.377	-83.440	0.233	0.075
-202.363	203.234	-0.164	0.254
-201.348	-40.312	-0.058	0.030
-200.333	-200.000	0.067	-0.296
-199.319	800.000	-0.061	0.174
-198.304	800.000	0.061	0.213
-197.290	43.240	0.222	-0.203
-196.275	12.435	0.119	-0.092
-195.260	800.000	0.028	0.110
-194.246	800.000	-0.139	-0.390
-193.231	-60.543	-0.241	0.102
-192.217	-153.312	0.152	0.011
-191.202	-37.610	0.225	-0.120
-190.187	-72.456	-0.015	0.006
-189.173	735.694	0.167	0.448
-188.158	-181.429	0.202	0.004
-187.144	-200.000	-0.011	-0.460
-186.129	-200.000	-0.010	-0.064
-185.114	216.725	-0.136	-0.216
-184.100	63.560	-0.047	0.047
-183.085	-136.360	0.492	0.057
-182.071	-133.752	-0.172	-0.021
-181.056	104.715	-0.276	-0.325
-180.042	-200.000	-0.010	-0.095
-179.027	-126.714	0.425	0.063
-178.012	140.886	-0.142	0.188
-176.998	-5.230	0.128	-0.088
-175.983	602.249	-0.095	0.235
-174.969	58.711	0.133	-0.131
-173.954	17.995	-0.106	0.084
-172.939	26.155	0.107	-0.089
-171.925	800.000	0.046	0.187
-170.910	143.251	-0.159	0.212
-169.896	-38.728	-0.110	0.058
-168.881	-53.540	0.186	-0.085
-167.866	135.782	-0.111	-0.144
-166.852	42.617	-0.074	0.067
-165.837	-155.564	0.204	0.013
-164.823	-200.000	-0.017	0.236
-163.808	135.418	0.091	0.118
-162.793	2.307	0.075	0.054
-161.779	-100.375	0.085	0.021
-160.764	-47.389	0.097	-0.047
-159.750	567.308	0.021	-0.052
-158.735	-82.825	0.177	0.057
-157.720	-200.000	-0.053	0.294
-156.706	-41.988	0.082	-0.042
-155.691	73.873	-0.116	0.122
-154.677	-200.000	0.017	0.096
-153.662	-200.000	0.043	-0.243
-152.647	-100.503	-0.291	-0.072
-151.633	4.833	0.069	-0.051
-150.618	-91.566	0.114	-0.032
-149.604	-7.979	-0.359	-0.242
-148.589	-200.000	0.016	-0.127
-147.574	158.047	-0.095	-0.132
-146.560	-23.563	-0.030	-0.018
-145.545	-200.000	0.005	0.173
-144.531	4.943	0.311	-0.228
-143.516	-23.971	0.096	-0.057
-142.502	266.520	0.196	0.342
-141.487	-4.995	0.248	0.170
-140.472	-151.455	-0.146	0.011
-139.458	123.628	-0.196	-0.246
-138.443	-150.879	-0.098	-0.007
-137.429	724.673	-0.077	-0.205
-136.414	-200.000	0.036	-0.159
-135.399	800.000	0.110	0.373
-134.385	34.620	0.011	0.010
-133.370	646.956	-0.034	-0.086
-132.356	259.581	-0.105	0.180
-131.341	24.242	0.088	-0.073
-130.326	-200.000	-0.034	-0.217
-129.312	800.000	0.025	-0.087
-128.297	-200.000	0.000	0.020
-127.283	36.544	-0.125	0.111
-126.268	-200.000	-0.030	-0.484
-125.253	-69.208	-0.300	-0.115
-124.239	168.825	-0.076	-0.108
-123.224	-200.000	-0.024	0.176
-122.210	-200.000	0.019	0.237
