DTS Sentinel unit serial number:	SN413079Multiplexer serial number:	ORYXHardware model number:	OX4-SRSoftware version number:	ORYX F/W v4.00 Oryx Data Collector v3.7.2.0data status	okinstallation	princeton_trtdifferential loss correction	single-endedforward channel	channel 1reverse channel	N/Adate	2019/09/14time	12:58:35forward acquisition time	60.00reverse acquisition time	0.00gamma	496.2192k internal	0.2294k external	0.2294temperature offset calibration	1.0090default loss term (dB/km)	0.3790temperature slope calibration	1.0000multiplexer offset coefficient	1.0000multiplexer slope coefficient	1.0000fibre end	0.00T internal ref (°C)	38.00T ext. ref 1 (°C)	4.85T ext. ref 2 (°C)	33.34length (m)	temperature (°C)	Stokes	anti-Stokes-747.200	3.713	-0.267	0.200
-746.185	-163.808	-0.636	0.030
-745.171	171.075	0.088	0.129
-744.156	114.884	0.192	0.240
-743.142	29.001	-0.046	-0.040
-742.127	800.000	-0.058	0.203
-741.112	-131.369	0.129	0.017
-740.098	-42.237	-0.309	0.161
-739.083	475.718	0.059	0.137
-738.069	120.061	0.248	0.315
-737.054	56.703	0.201	0.200
-736.039	-200.000	-0.018	-0.090
-735.025	131.721	0.207	0.272
-734.010	-70.724	-0.102	0.039
-732.996	-127.196	0.162	-0.024
-731.981	-200.000	0.017	0.116
-730.966	407.849	-0.037	-0.080
-729.952	800.000	-0.048	-0.172
-728.937	200.351	0.109	-0.170
-727.923	-131.198	-0.378	0.051
-726.908	-29.628	0.163	-0.095
-725.894	439.188	0.113	0.253
-724.879	800.000	0.066	-0.260
-723.864	-131.772	-0.159	-0.021
-722.850	800.000	0.061	-0.173
-721.835	-48.353	-0.308	0.152
-720.821	139.202	-0.175	0.235
-719.806	-156.244	-0.140	-0.009
-718.791	800.000	-0.187	0.532
-717.777	-200.000	-0.009	-0.072
-716.762	-137.916	-0.472	-0.054
-715.748	-126.258	0.067	-0.010
-714.733	-200.000	0.018	-0.255
-713.718	800.000	0.026	0.082
-712.704	800.000	0.091	-0.272
-711.689	-100.944	0.213	-0.053
-710.675	1.258	-0.314	-0.230
-709.660	70.007	0.098	-0.103
-708.645	800.000	0.086	0.310
-707.631	-146.180	0.161	0.014
-706.616	800.000	-0.023	-0.072
-705.602	-200.000	-0.007	0.105
-704.587	145.418	-0.057	0.078
-703.572	137.158	-0.098	0.131
-702.558	800.000	-0.021	-0.066
-701.543	212.099	0.093	0.150
-700.529	242.211	-0.087	-0.149
-699.514	-121.884	-0.232	0.039
-698.499	240.365	-0.150	0.256
-697.485	539.695	0.116	-0.281
-696.470	26.989	-0.295	0.252
-695.456	-200.000	-0.096	0.428
-694.441	-189.508	0.355	-0.004
-693.426	35.461	0.154	-0.138
-692.412	-103.391	0.223	-0.054
-691.397	171.551	0.144	0.211
-690.383	800.000	-0.070	-0.213
-689.368	800.000	-0.027	-0.081
-688.354	-92.832	0.316	0.090
-687.339	302.208	-0.168	0.316
-686.324	28.899	-0.160	-0.138
-685.310	-0.627	-0.196	-0.142
-684.295	-2.425	0.046	0.033
-683.281	-139.836	0.252	-0.027
-682.266	-133.051	-0.233	-0.030
-681.251	-27.357	0.166	-0.099
-680.237	-56.630	0.228	-0.103
-679.222	-84.861	-0.122	0.039
-678.208	-200.000	0.019	-0.357
-677.193	-134.739	-0.337	-0.042
-676.178	-200.000	0.009	0.199
-675.164	-57.077	-0.239	0.107
-674.149	800.000	-0.096	0.340
-673.135	-158.664	-0.222	0.013
-672.120	800.000	-0.031	0.127
-671.105	-200.000	-0.017	-0.122
-670.091	96.650	-0.103	-0.120
-669.076	99.375	-0.098	0.115
-668.062	-178.334	-0.401	-0.010
-667.047	800.000	0.043	-0.168
-666.032	-200.000	0.008	-0.096
-665.018	-149.518	0.152	0.012
-664.003	-200.000	-0.001	0.123
-662.989	800.000	-0.025	-0.093
-661.974	-36.263	0.185	0.102
-660.959	-90.170	-0.304	0.090
-659.945	-107.053	0.078	-0.018
-658.930	-51.123	-0.122	0.058
-657.916	635.767	0.086	0.221
-656.901	-110.556	0.252	-0.053
-655.886	-79.294	-0.120	-0.041
-654.872	-12.421	-0.134	-0.090
-653.857	-94.961	-0.300	-0.083
-652.843	-200.000	0.023	0.152
-651.828	-200.000	0.027	-0.128
-650.814	20.680	-0.171	0.141
-649.799	-112.936	-0.065	0.013
-648.784	-200.000	0.030	0.255
-647.770	-145.451	-0.274	-0.025
-646.755	-70.969	-0.137	0.053
-645.741	-66.184	-0.364	0.148
-644.726	34.414	-0.279	-0.248
-643.711	87.885	-0.052	0.059
-642.697	-185.819	0.102	-0.002
-641.682	34.309	-0.129	0.114
-640.668	-164.626	0.101	-0.005
-639.653	-152.255	0.299	0.022
-638.638	-119.587	-0.406	-0.072
-637.624	8.935	0.262	0.201
-636.609	-100.640	0.316	-0.079
-635.595	-107.439	0.174	0.039
-634.580	-200.000	-0.083	-0.420
-633.565	377.816	0.096	0.199
-632.551	800.000	-0.057	0.225
-631.536	93.027	0.283	0.326
-630.522	-7.292	-0.182	0.125
-629.507	301.439	-0.078	0.147
-628.492	328.626	-0.105	-0.205
-627.478	86.216	-0.194	-0.218
-626.463	800.000	0.096	-0.394
-625.449	-113.529	-0.230	-0.046
-624.434	-67.268	0.279	0.112
-623.419	101.269	0.169	-0.201
-622.405	259.503	-0.204	-0.358
-621.390	566.289	0.116	-0.286
-620.376	-77.104	0.261	-0.092
-619.361	486.837	-0.010	0.023
-618.346	800.000	-0.030	-0.088
-617.332	-65.892	0.268	-0.109
-616.317	-51.844	0.238	0.113
-615.303	800.000	-0.010	-0.037
-614.288	-200.000	0.021	0.116
-613.273	393.424	-0.191	-0.405
-612.259	-93.204	-0.184	0.052
-611.244	-44.315	-0.181	0.092
-610.230	78.394	-0.108	0.118
-609.215	272.918	-0.134	-0.241
-608.201	49.184	-0.151	0.145
-607.186	-13.019	0.049	0.033
-606.171	-83.705	0.064	0.021
-605.157	129.472	-0.086	-0.111
-604.142	-19.863	0.092	-0.058
-603.128	-200.000	0.031	-0.213
-602.113	-200.000	0.068	-0.319
-601.098	265.956	-0.152	-0.269
-600.084	-200.000	0.040	-0.202
-599.069	-169.820	-0.152	0.006
-598.055	-119.616	0.092	0.016
-597.040	-168.007	0.028	0.001
-596.025	-200.000	0.004	-0.143
-595.011	116.826	-0.130	-0.163
-593.996	-200.000	0.008	0.289
-592.982	-85.355	-0.150	-0.048
-591.967	103.082	-0.106	0.127
-590.952	-23.400	0.173	0.106
-589.938	-200.000	0.001	-0.289
-588.923	-200.000	0.084	-0.419
-587.909	-116.904	0.075	-0.014
-586.894	192.171	-0.053	0.081
-585.879	-101.157	0.045	0.011
-584.865	34.257	0.120	-0.106
-583.850	536.618	0.068	-0.165
-582.836	-114.440	-0.232	0.045
-581.821	-200.000	0.017	-0.116
-580.806	30.876	-0.250	-0.217
-579.792	-184.099	-0.303	0.005
-578.777	-49.818	-0.117	-0.057
-577.763	101.253	-0.144	0.170
-576.748	249.244	0.059	0.102
-575.733	85.053	0.100	-0.111
-574.719	-154.075	-0.201	-0.014
-573.704	347.776	0.069	-0.137
-572.690	-92.466	0.214	-0.061
-571.675	475.709	0.155	0.355
-570.661	-95.085	-0.188	-0.052
-569.646	-121.373	0.337	0.057
-568.631	-87.869	-0.198	0.060
-567.617	-20.294	0.039	-0.024
-566.602	213.623	0.122	0.196
-565.588	-200.000	0.025	-0.190
-564.573	188.769	0.068	-0.103
-563.558	-156.076	0.082	0.005
-562.544	-43.944	-0.311	-0.159
-561.529	788.776	-0.023	0.065
-560.515	434.187	0.055	0.122
-559.500	232.783	-0.077	-0.129
-558.485	572.303	-0.073	0.181
-557.471	-142.399	-0.326	0.033
-556.456	224.891	0.248	0.408
-555.442	717.271	-0.119	0.321
-554.427	-106.838	0.029	-0.006
-553.412	134.441	-0.336	0.443
-552.398	-10.971	-0.152	-0.102
-551.383	-200.000	-0.082	-0.452
-550.369	-148.335	-0.335	-0.028
-549.354	-24.035	0.612	0.371
-548.339	-106.230	0.296	0.067
-547.325	81.884	-0.210	0.230
-546.310	-140.720	0.248	0.026
-545.296	-87.648	0.390	-0.120
-544.281	45.395	-0.313	-0.293
-543.266	-35.874	-0.140	0.077
-542.252	7.963	0.009	0.007
-541.237	-68.608	-0.158	-0.062
-540.223	12.130	0.131	0.102
-539.208	-200.000	0.005	-0.124
-538.193	-200.000	0.012	-0.098
-537.179	-200.000	-0.018	-0.425
-536.164	171.743	-0.128	-0.186
-535.150	109.270	0.099	0.121
-534.135	-20.959	-0.319	-0.198
-533.121	26.967	-0.078	0.067
-532.106	70.343	-0.108	-0.114
-531.091	-93.090	0.187	0.053
-530.077	-12.253	-0.261	-0.173
-529.062	-200.000	0.014	0.190
-528.048	800.000	-0.097	-0.339
-527.033	121.473	-0.059	0.075
-526.018	-167.256	-0.374	-0.015
-525.004	-200.000	0.027	-0.183
-523.989	8.233	0.229	0.175
-522.975	800.000	-0.013	0.037
-521.960	525.481	-0.034	0.081
-520.945	-200.000	0.031	-0.177
-519.931	800.000	0.088	0.303
-518.916	26.473	-0.063	-0.054
-517.902	423.542	-0.160	-0.349
-516.887	-117.526	-0.087	0.016
-515.872	396.072	-0.120	-0.254
-514.858	-42.839	-0.231	0.119
-513.843	-114.179	-0.109	0.021
-512.829	-200.000	0.053	0.239
-511.814	-200.000	-0.062	0.346
-510.799	348.928	-0.047	0.094
-509.785	-119.165	0.193	0.034
-508.770	-5.890	-0.093	-0.065
-507.756	-200.000	0.005	0.088
-506.741	800.000	0.031	-0.136
-505.726	-200.000	-0.018	-0.128
-504.712	-89.463	0.208	0.062
-503.697	-108.063	0.150	0.033
-502.683	-9.563	-0.125	-0.084
-501.668	203.546	-0.117	-0.183
-500.653	800.000	-0.050	-0.149
-499.639	-143.711	0.252	-0.024
-498.624	-200.000	-0.011	0.092
-497.610	-7.239	-0.337	-0.231
-496.595	800.000	-0.099	0.370
-495.581	-74.867	-0.166	-0.060
-494.566	800.000	0.119	0.372
-493.551	-59.534	0.275	0.120
-492.537	634.902	0.179	0.459
-491.522	374.932	-0.127	0.261
-490.508	-60.119	0.219	-0.095
-489.493	228.207	0.151	0.250
-488.478	-44.440	-0.367	-0.186
-487.464	800.000	-0.101	-0.382
-486.449	81.830	-0.130	0.142
-485.435	-72.272	-0.231	0.087
-484.420	213.062	0.245	-0.392
-483.405	-37.473	-0.230	-0.124
-482.391	-200.000	-0.074	0.368
-481.376	35.310	-0.329	0.292
-480.362	-28.412	-0.288	-0.168
-479.347	-45.132	0.255	0.128
-478.332	-33.197	-0.112	0.063
-477.318	-200.000	-0.008	0.186
-476.303	91.147	0.073	0.083
-475.289	22.397	-0.192	0.159
-474.274	-200.000	-0.011	-0.430
-473.259	155.219	-0.098	-0.136
-472.245	-53.242	0.464	-0.215
-471.230	-200.000	-0.032	0.189
-470.216	-200.000	0.013	0.089
-469.201	-26.006	-0.086	-0.051
-468.186	578.750	0.064	0.159
-467.172	-136.604	0.348	-0.041
-466.157	14.855	-0.090	-0.071
-465.143	-69.045	-0.146	-0.057
-464.128	-184.870	-0.116	0.002
-463.113	-113.740	0.122	-0.024
-462.099	-26.510	0.248	0.147
-461.084	-98.003	-0.180	0.047
-460.070	800.000	0.076	-0.245
-459.055	-200.000	0.015	-0.084
-458.040	800.000	0.077	-0.230
-457.026	-35.162	0.398	-0.219
-456.011	95.225	0.174	0.201
-454.997	-144.861	-0.310	0.029
-453.982	125.340	0.106	-0.135
-452.968	-163.030	-0.354	0.017
-451.953	-200.000	0.001	0.088
-450.938	800.000	0.062	0.208
-449.924	3.385	0.138	-0.102
-448.909	-144.446	-0.139	0.013
-447.895	98.139	0.159	-0.185
-446.880	45.933	-0.112	0.104
-445.865	-69.467	-0.358	-0.139
-444.851	800.000	0.036	-0.137
-443.836	-200.000	-0.036	-0.182
-442.822	424.312	-0.110	0.239
-441.807	303.823	-0.159	0.298
-440.792	-200.000	0.040	-0.216
-439.778	-69.936	0.253	-0.097
-438.763	112.758	0.087	0.107
-437.749	-200.000	-0.033	0.228
-436.734	800.000	-0.017	0.070
-435.719	351.119	-0.069	-0.139
-434.705	305.736	-0.141	-0.265
-433.690	627.189	0.104	0.266
-432.676	-200.000	0.027	-0.165
-431.661	800.000	-0.048	-0.201
-430.646	-200.000	-0.047	-0.245
-429.632	-144.561	-0.192	0.018
-428.617	800.000	-0.069	-0.220
-427.603	-200.000	-0.003	0.291
-426.588	-200.000	0.033	-0.196
-425.573	148.318	-0.269	-0.367
-424.559	-122.564	-0.287	-0.047
-423.544	-200.000	-0.071	0.344
-422.530	-30.926	0.130	-0.074
-421.515	36.887	0.263	-0.234
-420.500	-179.728	-0.166	-0.004
-419.486	-95.993	0.135	0.036
-418.471	-81.854	-0.219	-0.072
-417.457	800.000	-0.085	0.270
-416.442	164.691	-0.156	0.222
-415.428	-200.000	-0.005	-0.213
-414.413	-200.000	0.035	0.221
-413.398	-200.000	0.007	0.286
-412.384	52.885	0.093	-0.089
-411.369	-59.178	-0.365	0.159
-410.355	630.492	0.038	-0.096
-409.340	-126.990	-0.211	0.031
-408.325	-93.324	-0.228	-0.064
-407.311	-200.000	0.012	-0.156
-406.296	62.086	0.215	-0.216
-405.282	74.976	0.126	-0.134
-404.267	51.127	-0.065	-0.063
-403.252	-118.266	0.231	0.041
-402.238	150.158	0.279	-0.382
-401.223	-200.000	0.002	0.089
-400.209	800.000	0.070	0.266
-399.194	-56.841	-0.162	0.072
-398.179	340.984	-0.065	0.128
-397.165	-85.355	-0.345	0.109
-396.150	28.078	0.268	-0.228
-395.136	65.596	0.333	0.341
-394.121	167.010	0.167	0.239
-393.106	81.220	0.024	-0.026
-392.092	-64.848	0.095	-0.039
-391.077	95.693	-0.129	-0.148
-390.063	347.343	-0.041	0.082
-389.048	-158.472	0.390	-0.023
-388.033	-58.544	0.059	0.026
-387.019	261.856	0.137	0.239
-386.004	-52.300	0.088	-0.041
-384.990	183.704	-0.015	0.022
-383.975	-42.705	0.167	0.086
-382.960	-3.965	-0.108	-0.076
-381.946	758.695	-0.035	0.097
-380.931	800.000	0.117	-0.369
-379.917	173.940	-0.046	0.067
-378.902	130.982	0.043	0.056
-377.888	800.000	0.064	0.194
-376.873	-22.460	0.355	0.217
-375.858	345.381	-0.051	0.101
-374.844	26.757	-0.073	0.062
-373.829	-62.513	0.256	0.107
-372.815	522.035	0.132	0.311
-371.800	-83.949	0.304	-0.097
-370.785	41.483	-0.142	-0.129
-369.771	800.000	0.046	0.146
-368.756	178.874	0.128	0.189
-367.742	-68.302	-0.254	0.099
-366.727	-134.518	0.216	0.027
-365.712	-136.344	0.180	-0.021
-364.698	-76.904	0.407	0.144
-363.683	800.000	0.025	-0.098
-362.669	800.000	0.038	-0.145
-361.654	109.821	0.299	-0.361
-360.639	-200.000	0.021	-0.166
-359.625	-200.000	-0.050	0.287
-358.610	17.164	-0.057	-0.046
-357.596	-31.123	-0.069	-0.039
-356.581	-71.312	-0.272	0.103
-355.566	201.536	0.049	-0.076
-354.552	207.392	-0.188	-0.296
-353.537	-200.000	0.004	0.311
-352.523	800.000	0.038	0.134
-351.508	446.525	-0.029	0.063
-350.493	282.559	-0.144	-0.260
-349.479	38.554	-0.352	-0.316
-348.464	406.384	-0.067	0.143
-347.450	-200.000	-0.004	-0.135
-346.435	-200.000	0.025	-0.208
-345.420	-185.339	-0.167	-0.003
-344.406	-12.323	0.017	0.011
-343.391	-49.565	0.017	0.008
-342.377	450.973	-0.112	-0.249
-341.362	-30.761	0.083	-0.047
-340.348	407.440	0.182	-0.388
-339.333	-29.746	-0.112	0.064
-338.318	112.474	0.094	0.114
-337.304	51.862	-0.091	-0.088
-336.289	41.142	0.243	-0.221
-335.275	86.257	0.020	-0.022
-334.260	800.000	-0.036	-0.110
-333.245	-200.000	-0.032	0.169
-332.231	625.393	-0.136	0.345
-331.216	800.000	-0.062	-0.226
-330.202	217.796	-0.206	-0.330
-329.187	76.352	-0.113	0.121
-328.172	180.947	-0.119	0.176
-327.158	29.819	-0.139	-0.119
-326.143	251.525	0.154	-0.264
-325.129	212.490	0.095	-0.151
-324.114	-154.412	-0.381	-0.026
-323.099	-53.980	0.180	0.083
-322.085	-200.000	-0.007	-0.258
-321.070	-96.701	0.075	-0.020
-320.056	-90.621	-0.374	-0.109
-319.041	-115.719	0.175	-0.033
-318.026	168.392	-0.034	-0.049
-317.012	-7.069	-0.114	-0.077
-315.997	-200.000	0.039	-0.288
-314.983	-35.882	0.298	-0.162
-313.968	-88.689	0.111	0.033
-312.953	800.000	-0.116	0.366
-311.939	-200.000	-0.019	-0.146
-310.924	-70.543	0.314	0.119
-309.910	-110.804	-0.385	-0.080
-308.895	72.269	-0.110	-0.115
-307.880	-84.348	-0.181	0.057
-306.866	-78.758	0.428	-0.147
-305.851	279.966	0.252	-0.453
-304.837	-200.000	-0.023	0.166
-303.822	196.330	0.146	0.224
-302.807	-71.340	0.158	0.060
-301.793	-200.000	0.012	0.119
-300.778	-144.359	-0.091	0.009
-299.764	160.221	-0.056	0.078
-298.749	-131.948	0.189	-0.025
-297.735	-93.049	0.069	-0.019
-296.720	95.038	-0.132	0.151
-295.705	42.457	-0.093	0.085
-294.691	136.501	-0.153	0.201
-293.676	-200.000	-0.006	-0.134
-292.662	-200.000	-0.007	0.068
-291.647	-63.752	-0.386	0.159
-290.632	-146.168	0.187	0.017
-289.618	-30.503	0.351	0.200
-288.603	-173.331	-0.416	0.013
-287.589	-200.000	0.019	0.198
-286.574	192.095	0.109	-0.165
-285.559	-200.000	-0.028	-0.142
-284.545	-151.724	0.310	0.023
-283.530	665.141	-0.075	0.194
-282.516	210.279	-0.062	-0.098
-281.501	800.000	-0.055	0.157
-280.486	800.000	-0.080	0.340
-279.472	-21.891	-0.363	-0.222
-278.457	-167.575	-0.421	0.017
-277.443	-103.864	-0.080	0.019
-276.428	-200.000	0.013	0.000
-275.413	-200.000	-0.016	-0.078
-274.399	326.677	0.104	0.199
-273.384	-200.000	-0.011	0.427
-272.370	-200.000	0.005	0.106
-271.355	55.274	0.313	0.304
-270.340	-200.000	-0.043	0.206
-269.326	-110.622	-0.442	0.092
-268.311	19.134	-0.214	-0.172
-267.297	-28.550	-0.024	-0.014
-266.282	-142.578	0.070	-0.007
-265.267	-200.000	-0.003	0.075
-264.253	-200.000	0.035	-0.156
-263.238	21.453	0.078	-0.063
-262.224	-160.223	0.274	-0.015
-261.209	-161.794	0.542	0.028
-260.195	-20.716	0.262	0.161
-259.180	-79.634	-0.204	0.069
-258.165	375.043	0.079	0.161
-257.151	4.112	0.188	-0.138
-256.136	-200.000	-0.032	-0.160
-255.122	-62.053	-0.297	-0.125
-254.107	-200.000	0.054	0.278
-253.092	-64.887	0.231	0.094
-252.078	215.557	0.096	0.153
-251.063	269.952	-0.122	-0.215
-250.049	-200.000	-0.057	0.259
-249.034	-78.563	-0.273	0.094
-248.019	800.000	0.032	0.097
-247.005	800.000	0.090	-0.270
-245.990	17.119	-0.118	-0.094
-244.976	-45.138	0.091	0.045
-243.961	430.054	-0.132	-0.286
-242.946	-29.859	0.286	-0.163
-241.932	-89.299	0.138	0.041
-240.917	-63.614	0.065	0.027
-239.903	-99.337	0.234	0.059
-238.888	-69.530	-0.158	-0.061
-237.873	411.690	0.176	0.374
-236.859	241.585	-0.078	-0.131
-235.844	103.290	0.262	-0.308
-234.830	-66.320	0.232	0.092
-233.815	-114.343	-0.125	-0.024
-232.800	344.744	0.152	0.299
-231.786	-200.000	-0.012	0.299
-230.771	-200.000	0.065	0.296
-229.757	-43.477	0.035	-0.018
-228.742	744.211	0.102	-0.276
-227.727	800.000	0.061	0.195
-226.713	369.167	-0.036	-0.073
-225.698	307.198	-0.093	0.173
-224.684	-200.000	-0.024	0.195
-223.669	-125.204	-0.424	-0.065
-222.655	21.356	0.017	-0.014
-221.640	-200.000	0.048	-0.370
-220.625	-200.000	0.055	-0.302
-219.611	98.431	-0.206	-0.238
-218.596	-200.000	0.242	0.000
-217.582	-104.338	0.180	-0.042
-216.567	-200.000	0.031	-0.265
-215.552	-41.413	0.264	0.136
-214.538	5.660	-0.332	0.246
-213.523	177.454	0.097	0.142
-212.509	270.868	-0.078	0.137
-211.494	-200.000	-0.003	0.180
-210.479	-200.000	-0.057	0.274
-209.465	83.488	0.292	-0.319
-208.450	47.375	0.174	-0.162
-207.436	800.000	0.083	0.236
-206.421	-27.938	0.059	-0.034
-205.406	-76.438	0.160	0.056
-204.392	-115.947	-0.185	-0.034
-203.377	175.473	0.134	0.195
-202.363	-150.215	-0.524	0.041
-201.348	-32.470	0.314	0.175
-200.333	53.475	0.042	0.040
-199.319	-161.833	0.030	-0.002
-198.304	359.356	-0.231	0.462
-197.290	198.208	0.042	-0.064
-196.275	-47.662	-0.157	0.076
-195.260	461.114	0.083	0.186
-194.246	0.310	-0.064	-0.046
-193.231	-24.087	0.104	-0.062
-192.217	-99.524	-0.131	0.033
-191.202	-200.000	0.034	-0.305
-190.187	-95.387	0.418	-0.113
-189.173	-200.000	0.003	0.098
-188.158	33.273	0.091	0.079
-187.144	-133.181	0.235	0.030
-186.129	-118.342	0.161	0.029
-185.114	-200.000	-0.006	0.243
-184.100	-176.195	0.286	0.007
-183.085	-58.869	-0.387	0.167
-182.071	-124.114	0.224	0.035
-181.056	345.183	-0.045	0.089
-180.042	-43.115	0.184	0.093
-179.027	27.251	0.213	0.179
-178.012	-200.000	0.011	-0.138
-176.998	-23.705	0.198	0.118
-175.983	-151.154	-0.315	0.024
-174.969	86.433	0.181	-0.200
-173.954	-200.000	0.008	0.310
-172.939	786.500	0.028	-0.076
-171.925	-200.000	-0.023	-0.170
-170.910	-112.551	-0.066	0.013
-169.896	273.542	-0.125	-0.222
-168.881	587.113	-0.062	0.154
-167.866	-140.660	-0.185	-0.019
-166.852	-200.000	-0.018	-0.293
-165.837	630.900	0.099	-0.252
-164.823	4.467	0.273	0.200
-163.808	-200.000	0.007	0.140
-162.793	-200.000	-0.033	-0.192
-161.779	25.845	0.135	0.112
-160.764	33.683	-0.306	-0.266
-159.750	800.000	-0.062	0.264
-158.735	800.000	0.066	0.277
-157.720	-55.469	-0.162	0.073
-156.706	-125.670	0.100	0.015
-155.691	-21.545	0.338	0.206
-154.677	-50.989	0.256	-0.120
-153.662	-200.000	-0.015	-0.399
-152.647	44.560	0.092	-0.084
-151.633	448.980	0.108	0.237
-150.618	-82.790	-0.105	-0.034
-149.604	36.779	-0.219	0.194
-148.589	-15.393	0.051	0.033
-147.574	-200.000	-0.022	0.157
-146.560	168.639	0.047	0.067
-145.545	54.420	0.025	-0.024
-144.531	364.900	-0.016	0.033
-143.516	123.472	-0.118	0.147
-142.502	-180.771	0.143	0.003
-141.487	-147.013	0.345	-0.030
-140.472	131.419	0.233	-0.299
-139.458	49.483	0.152	-0.143
-138.443	-200.000	-0.057	-0.299
-137.429	-179.603	-0.044	-0.001
-136.414	54.812	0.051	-0.049
-135.399	351.277	0.089	0.176
-134.385	309.912	-0.053	0.098
-133.370	128.737	0.118	-0.150
-132.356	-75.328	-0.284	-0.101
-131.341	514.513	0.093	0.217
-130.326	111.370	-0.054	0.065
-129.312	211.152	0.043	-0.067
-128.297	41.999	-0.175	0.158
-127.283	764.244	0.072	0.196
-126.268	-47.790	-0.198	-0.096
-125.253	390.699	0.058	-0.120
-124.239	150.536	-0.049	-0.067
-123.224	-113.820	0.293	0.057
-122.210	194.975	-0.090	0.137
