DTS Sentinel unit serial number:	SN413079Multiplexer serial number:	ORYXHardware model number:	OX4-SRSoftware version number:	ORYX F/W v4.00 Oryx Data Collector v3.7.2.0data status	okinstallation	princeton_trtdifferential loss correction	single-endedforward channel	channel 1reverse channel	N/Adate	2019/09/18time	20:06:35forward acquisition time	60.00reverse acquisition time	0.00gamma	496.2192k internal	0.2330k external	0.2330temperature offset calibration	1.0022default loss term (dB/km)	0.3790temperature slope calibration	1.0000multiplexer offset coefficient	1.0000multiplexer slope coefficient	1.0000fibre end	0.00T internal ref (°C)	29.91T ext. ref 1 (°C)	0.87T ext. ref 2 (°C)	20.45length (m)	temperature (°C)	Stokes	anti-Stokes-747.200	251.659	-0.068	-0.116
-746.185	-200.000	-0.060	0.281
-745.171	168.855	-0.117	0.169
-744.156	218.493	-0.068	0.109
-743.142	-200.000	-0.003	0.196
-742.127	180.886	-0.182	0.270
-741.112	-111.339	-0.265	-0.055
-740.098	9.032	-0.074	-0.056
-739.083	-21.121	-0.427	0.263
-738.069	-200.000	0.002	-0.053
-737.054	-104.420	0.232	0.054
-736.039	-46.171	-0.137	-0.068
-735.025	-91.904	0.131	0.037
-734.010	-112.972	-0.246	-0.049
-732.996	101.152	-0.170	0.199
-731.981	-185.915	0.171	0.003
-730.966	57.083	-0.139	0.136
-729.952	-102.289	-0.135	-0.033
-728.937	-35.489	-0.283	-0.155
-727.923	-15.269	-0.197	-0.127
-726.908	-158.261	-0.011	0.001
-725.894	-29.780	-0.328	0.188
-724.879	-177.319	-0.270	0.007
-723.864	89.604	0.156	-0.175
-722.850	-79.079	0.225	0.077
-721.835	111.921	0.181	-0.219
-720.821	86.714	-0.156	-0.173
-719.806	-128.232	0.186	0.027
-718.791	-49.019	0.147	-0.071
-717.777	47.501	0.142	-0.134
-716.762	35.125	0.078	-0.069
-715.748	800.000	-0.092	-0.264
-714.733	9.576	0.146	0.111
-713.718	-165.964	0.359	-0.015
-712.704	2.426	-0.252	-0.183
-711.689	-37.585	0.139	0.075
-710.675	16.147	-0.182	0.144
-709.660	800.000	0.083	0.238
-708.645	56.450	-0.197	-0.193
-707.631	184.475	-0.143	0.213
-706.616	268.102	0.082	-0.144
-705.602	-200.000	-0.014	-0.282
-704.587	-29.126	0.308	0.178
-703.572	-200.000	0.029	-0.130
-702.558	800.000	-0.124	-0.361
-701.543	-102.581	-0.190	0.046
-700.529	-107.680	-0.211	-0.046
-699.514	37.701	0.219	-0.196
-698.499	42.845	-0.132	0.121
-697.485	190.615	-0.152	-0.229
-696.470	357.168	0.181	-0.362
-695.456	-107.290	0.103	-0.023
-694.441	-66.250	-0.156	0.062
-693.426	-63.405	-0.238	0.098
-692.412	-200.000	-0.030	-0.215
-691.397	-133.548	-0.314	-0.040
-690.383	-72.695	-0.215	-0.080
-689.368	-15.736	0.201	0.129
-688.354	800.000	0.047	0.155
-687.339	-200.000	0.043	-0.327
-686.324	-94.412	-0.054	0.015
-685.310	35.719	0.045	-0.040
-684.295	-130.618	-0.314	0.043
-683.281	101.596	0.134	0.157
-682.266	173.008	0.171	-0.247
-681.251	2.823	0.162	0.118
-680.237	-85.293	-0.213	0.067
-679.222	61.602	0.113	0.112
-678.208	-200.000	-0.014	0.141
-677.193	-139.254	-0.331	0.036
-676.178	-84.567	-0.143	-0.045
-675.164	-51.990	0.259	0.121
-674.149	-22.324	-0.323	-0.196
-673.135	-200.000	-0.006	0.079
-672.120	43.116	-0.318	-0.292
-671.105	157.905	0.065	0.090
-670.091	33.785	-0.069	0.060
-669.076	800.000	-0.108	-0.309
-668.062	-40.828	0.177	-0.092
-667.047	-122.031	-0.360	-0.059
-666.032	-108.251	0.187	0.041
-665.018	-135.391	0.294	0.035
-664.003	-137.413	-0.141	0.016
-662.989	3.158	0.068	-0.049
-661.974	145.844	0.099	-0.133
-660.959	309.169	-0.116	-0.218
-659.945	65.034	0.226	-0.229
-658.930	31.260	0.126	0.108
-657.916	154.360	0.092	-0.127
-656.901	-107.805	0.081	-0.018
-655.886	-45.471	-0.186	-0.093
-654.872	-200.000	-0.033	0.193
-653.857	-142.966	0.188	0.018
-652.843	113.683	-0.147	0.179
-651.828	-159.138	-0.056	0.003
-650.814	-79.509	0.213	-0.072
-649.799	-156.081	0.157	0.010
-648.784	-164.543	-0.216	0.010
-647.770	15.393	-0.101	-0.080
-646.755	13.108	-0.227	-0.176
-645.741	125.284	-0.107	-0.136
-644.726	-18.462	0.307	-0.192
-643.711	631.314	-0.063	0.159
-642.697	-89.049	0.026	0.008
-641.682	537.773	-0.059	0.141
-640.668	-45.404	-0.252	-0.125
-639.653	14.081	-0.194	-0.151
-638.638	46.484	0.207	0.193
-637.624	-58.000	0.109	0.048
-636.609	-137.734	0.284	0.032
-635.595	100.326	-0.083	-0.096
-634.580	187.190	-0.062	0.093
-633.565	-200.000	-0.037	0.290
-632.551	26.445	-0.049	0.041
-631.536	-11.956	0.076	0.050
-630.522	-59.953	0.111	0.048
-629.507	-84.718	-0.283	0.089
-628.492	129.021	0.084	-0.108
-627.478	-8.798	0.123	0.082
-626.463	-163.271	0.372	0.018
-625.449	-8.647	0.243	-0.163
-624.434	-143.583	-0.248	0.024
-623.419	-129.891	-0.203	0.028
-622.405	132.468	0.221	0.285
-621.390	328.130	0.067	-0.129
-620.376	-60.354	-0.053	-0.023
-619.361	-189.967	-0.446	-0.005
-618.346	-30.966	-0.243	-0.137
-617.332	-10.832	-0.191	0.126
-616.317	-90.396	-0.362	-0.105
-615.303	-200.000	-0.065	-0.445
-614.288	146.382	0.071	0.096
-613.273	210.322	0.147	-0.231
-612.259	148.426	0.288	-0.389
-611.244	192.113	0.158	-0.239
-610.230	800.000	-0.104	0.300
-609.215	-174.124	-0.245	0.007
-608.201	-106.132	0.330	0.074
-607.186	209.140	0.096	0.150
-606.171	800.000	0.105	0.404
-605.157	-25.854	0.019	-0.011
-604.142	-95.481	-0.074	0.020
-603.128	-200.000	-0.029	0.359
-602.113	-160.407	0.188	0.010
-601.098	-176.640	0.266	-0.007
-600.084	-200.000	-0.006	0.071
-599.069	-7.384	0.075	-0.051
-598.055	156.995	-0.068	-0.095
-597.040	800.000	0.076	-0.331
-596.025	-130.021	-0.236	0.032
-595.011	-99.840	0.129	-0.032
-593.996	375.045	0.115	-0.234
-592.982	226.549	-0.067	0.110
-591.967	-101.260	-0.401	0.098
-590.952	-106.516	-0.139	-0.031
-589.938	-134.906	-0.119	0.014
-588.923	800.000	0.064	-0.189
-587.909	-8.720	0.206	-0.138
-586.894	-29.486	-0.235	-0.134
-585.879	-14.935	0.130	0.084
-584.865	296.377	-0.070	-0.128
-583.850	-46.205	0.318	-0.156
-582.836	35.363	0.131	0.115
-581.821	-200.000	-0.066	-0.312
-580.806	59.077	-0.103	-0.101
-579.792	-174.376	-0.195	-0.006
-578.777	-6.864	-0.206	0.140
-577.763	800.000	0.039	-0.110
-576.748	-96.031	0.162	-0.043
-575.733	-142.880	0.249	-0.024
-574.719	-200.000	-0.022	0.274
-573.704	17.192	-0.032	0.026
-572.690	-200.000	0.014	-0.288
-571.675	-178.011	-0.155	-0.004
-570.661	-165.513	-0.146	-0.006
-569.646	-10.489	0.309	-0.205
-568.631	-7.580	-0.041	-0.028
-567.617	-74.590	-0.172	-0.062
-566.602	233.234	-0.078	-0.128
-565.588	-82.487	0.142	0.046
-564.573	-200.000	-0.033	-0.238
-563.558	-200.000	0.028	0.223
-562.544	-200.000	-0.009	-0.246
-561.529	101.489	-0.241	-0.280
-560.515	-80.000	-0.176	0.059
-559.500	-112.401	-0.221	-0.044
-558.485	-139.835	-0.166	0.018
-557.471	-35.863	-0.297	-0.160
-556.456	-26.611	-0.046	-0.027
-555.442	-73.247	-0.378	0.138
-554.427	306.365	0.120	-0.224
-553.412	234.413	0.270	-0.445
-552.398	355.156	-0.127	-0.252
-551.383	-200.000	-0.021	0.100
-550.369	-132.441	0.307	-0.039
-549.354	-114.172	0.403	-0.078
-548.339	-94.037	-0.130	-0.036
-547.325	-53.566	-0.177	0.081
-546.310	71.828	0.100	0.104
-545.296	-200.000	-0.017	-0.116
-544.281	172.622	0.131	-0.189
-543.266	33.091	-0.104	-0.090
-542.252	266.485	0.086	-0.150
-541.237	-114.882	-0.213	0.041
-540.223	-88.649	-0.121	-0.036
-539.208	13.509	0.118	-0.092
-538.193	-137.742	-0.134	-0.015
-537.179	-145.461	0.199	0.018
-536.164	123.845	0.159	-0.200
-535.150	9.726	-0.282	-0.213
-534.135	45.352	-0.100	-0.092
-533.121	114.197	0.192	0.234
-532.106	-95.311	-0.368	-0.099
-531.091	56.452	0.156	-0.152
-530.077	358.369	-0.041	-0.082
-529.062	215.656	0.180	-0.285
-528.048	-200.000	-0.007	0.114
-527.033	-200.000	-0.031	-0.208
-526.018	-166.037	-0.203	0.009
-525.004	63.810	0.213	-0.214
-523.989	113.151	-0.290	-0.351
-522.975	-57.352	-0.160	-0.070
-521.960	271.840	0.052	-0.092
-520.945	-18.216	0.100	-0.063
-519.931	-74.579	0.357	0.128
-518.916	-171.112	-0.238	0.008
-517.902	-92.912	0.291	0.081
-516.887	-89.758	0.313	0.091
-515.872	39.297	-0.257	-0.230
-514.858	285.548	-0.132	0.238
-513.843	18.960	0.215	0.172
-512.829	-87.371	-0.435	0.132
-511.814	-4.760	0.104	-0.072
-510.799	176.112	-0.146	0.212
-509.785	61.305	0.177	-0.175
-508.770	29.966	0.054	0.046
-507.756	73.156	-0.078	0.081
-506.741	-160.413	-0.185	-0.010
-505.726	20.447	-0.160	0.129
-504.712	-61.418	0.121	0.051
-503.697	180.570	-0.179	0.261
-502.683	-200.000	-0.021	0.154
-501.668	-108.739	-0.200	-0.043
-500.653	-78.055	-0.439	0.151
-499.639	380.612	0.016	0.032
-498.624	289.412	0.121	0.219
-497.610	22.875	0.092	-0.075
-496.595	-59.831	0.247	0.105
-495.581	617.184	-0.028	-0.070
-494.566	520.476	0.063	0.147
-493.551	116.790	-0.198	0.243
-492.537	-200.000	-0.021	0.118
-491.522	132.428	0.075	0.096
-490.508	-200.000	0.006	-0.167
-489.493	-34.343	0.153	0.084
-488.478	800.000	0.008	0.023
-487.464	-97.702	-0.117	-0.030
-486.449	372.541	0.010	0.020
-485.435	-200.000	0.033	-0.000
-484.420	56.291	0.126	-0.122
-483.405	199.350	0.138	-0.210
-482.391	-20.680	-0.148	0.090
-481.376	-180.174	-0.275	-0.006
-480.362	-20.856	-0.384	0.234
-479.347	780.970	0.036	0.097
-478.332	-200.000	-0.001	-0.119
-477.318	-200.000	0.014	-0.087
-476.303	-50.513	0.241	0.113
-475.289	-200.000	-0.012	0.055
-474.274	-156.226	-0.259	0.016
-473.259	-117.920	0.240	-0.043
-472.245	800.000	0.032	0.131
-471.230	0.823	0.318	-0.227
-470.216	261.901	-0.098	-0.168
-469.201	-45.262	-0.115	0.057
-468.186	116.097	-0.146	0.178
-467.172	337.599	-0.048	-0.094
-466.157	762.316	0.103	-0.279
-465.143	-149.271	0.179	-0.014
-464.128	758.590	-0.061	0.164
-463.113	-147.659	-0.289	-0.024
-462.099	-103.148	0.427	0.101
-461.084	457.785	-0.108	-0.239
-460.070	91.225	0.017	-0.019
-459.055	748.187	0.029	-0.079
-458.040	137.971	-0.225	0.294
-457.026	-200.000	-0.045	0.493
-456.011	800.000	-0.049	-0.135
-454.997	800.000	-0.085	-0.307
-453.982	800.000	0.076	-0.219
-452.968	-200.000	-0.031	-0.360
-451.953	94.334	-0.237	-0.268
-450.938	-171.747	0.187	0.006
-449.924	219.758	-0.280	0.447
-448.909	-13.107	0.177	-0.114
-447.895	-200.000	-0.001	-0.171
-446.880	-155.812	-0.061	0.004
-445.865	-53.351	0.162	-0.074
-444.851	14.434	-0.193	0.150
-443.836	-200.000	0.063	-0.322
-442.822	15.349	-0.176	-0.137
-441.807	-137.778	-0.301	0.034
-440.792	116.080	0.116	-0.142
-439.778	101.205	0.200	0.231
-438.763	-131.062	0.029	0.004
-437.749	362.304	-0.054	0.107
-436.734	336.508	-0.059	0.114
-435.719	241.874	0.120	0.200
-434.705	84.927	0.071	0.077
-433.690	215.406	0.114	-0.179
-432.676	-200.000	0.007	-0.083
-431.661	138.886	0.088	-0.115
-430.646	68.542	0.155	-0.158
-429.632	-200.000	0.001	0.273
-428.617	-168.076	-0.187	-0.007
-427.603	800.000	0.120	-0.366
-426.588	-39.368	0.153	-0.080
-425.573	19.750	-0.219	0.175
-424.559	-200.000	0.078	-0.345
-423.544	-200.000	0.027	-0.287
-422.530	-102.870	-0.489	0.115
-421.515	646.923	0.042	0.107
-420.500	-200.000	-0.017	-0.132
-419.486	-129.307	0.492	-0.068
-418.471	-200.000	0.012	0.195
-417.457	120.743	0.191	0.236
-416.442	-200.000	0.007	0.097
-415.428	-105.184	-0.106	-0.024
-414.413	-200.000	-0.003	-0.261
-413.398	-22.304	-0.190	-0.114
-412.384	-110.633	-0.272	-0.056
-411.369	33.954	-0.143	-0.123
-410.355	321.413	-0.114	0.215
-409.340	-145.317	0.015	0.001
-408.325	-11.673	0.274	0.179
-407.311	-51.315	0.090	0.042
-406.296	800.000	-0.075	0.242
-405.282	111.337	-0.141	0.169
-404.267	87.523	-0.171	0.188
-403.252	-200.000	-0.011	-0.344
-402.238	229.355	-0.016	0.026
-401.223	-200.000	-0.021	0.222
-400.209	-82.263	-0.091	-0.029
-399.194	94.985	0.265	0.299
-398.179	326.441	0.013	0.024
-397.165	-5.405	0.162	0.110
-396.150	164.563	0.150	0.210
-395.136	-3.966	0.133	-0.092
-394.121	800.000	0.156	0.467
-393.106	800.000	0.041	0.114
-392.092	-121.445	0.223	0.037
-391.077	685.222	-0.080	-0.208
-390.063	-9.937	0.077	-0.051
-389.048	-200.000	-0.037	0.226
-388.033	-58.427	-0.135	0.058
-387.019	-21.459	-0.234	-0.142
-386.004	241.887	0.145	0.241
-384.990	800.000	0.050	0.197
-383.975	800.000	-0.070	-0.207
-382.960	127.459	0.054	0.068
-381.946	-75.153	0.350	-0.124
-380.931	-136.710	-0.101	0.012
-379.917	10.498	0.323	0.244
-378.902	800.000	0.103	-0.390
-377.888	-123.388	-0.352	-0.056
-376.873	18.248	-0.192	-0.152
-375.858	-154.630	-0.304	0.020
-374.844	-142.737	-0.323	0.031
-373.829	-200.000	0.059	0.335
-372.815	283.128	0.040	0.072
-371.800	293.090	0.041	-0.074
-370.785	140.939	-0.155	0.204
-369.771	800.000	0.048	0.173
-368.756	-200.000	-0.028	0.375
-367.742	-91.763	-0.037	-0.010
-366.727	81.444	-0.223	0.240
-365.712	46.694	0.271	0.250
-364.698	-58.904	-0.152	-0.065
-363.683	-112.027	-0.211	-0.042
-362.669	-71.720	0.263	0.097
-361.654	800.000	0.107	-0.319
-360.639	290.486	-0.072	-0.130
-359.625	-165.130	0.196	-0.009
-358.610	25.882	-0.417	-0.345
-357.596	-110.099	-0.333	0.069
-356.581	-27.501	0.227	-0.131
-355.566	-127.905	0.192	0.027
-354.552	-198.853	-0.323	-0.002
-353.537	800.000	0.074	0.286
-352.523	99.584	-0.159	0.183
-351.508	-200.000	0.031	-0.226
-350.493	-175.069	-0.265	0.007
-349.479	-96.110	-0.150	0.039
-348.464	209.727	-0.110	-0.170
-347.450	-200.000	0.041	0.213
-346.435	36.425	-0.298	-0.261
-345.420	-200.000	0.025	0.113
-344.406	800.000	-0.029	0.119
-343.391	-15.694	-0.101	-0.064
-342.377	-200.000	0.006	0.136
-341.362	75.875	-0.238	0.249
-340.348	-34.718	0.180	-0.097
-339.333	49.882	-0.183	0.171
-338.318	407.188	0.045	-0.094
-337.304	-47.645	-0.106	0.051
-336.289	76.410	0.159	0.167
-335.275	-144.287	0.146	-0.013
-334.260	-200.000	-0.015	-0.108
-333.245	-6.401	-0.234	-0.158
-332.231	-200.000	-0.020	-0.335
-331.216	10.965	0.091	-0.069
-330.202	800.000	-0.038	0.111
-329.187	335.253	-0.120	-0.230
-328.172	800.000	-0.109	-0.346
-327.158	22.319	-0.071	-0.057
-326.143	-104.734	-0.180	-0.041
-325.129	0.537	0.230	0.163
-324.114	7.472	-0.124	-0.092
-323.099	8.002	0.171	-0.127
-322.085	-153.954	-0.103	-0.007
-321.070	-31.938	0.153	0.085
-320.056	-200.000	0.008	-0.092
-319.041	-200.000	-0.012	-0.056
-318.026	12.174	0.115	-0.087
-317.012	-200.000	0.009	-0.165
-315.997	302.990	0.139	-0.256
-314.983	161.971	-0.105	-0.146
-313.968	354.871	-0.123	0.243
-312.953	800.000	0.015	0.065
-311.939	-200.000	0.059	0.411
-310.924	2.763	0.075	0.054
-309.910	63.483	-0.244	-0.242
-308.895	78.111	-0.142	0.150
-307.880	-99.825	0.220	0.055
-306.866	-70.678	-0.309	-0.115
-305.851	327.459	0.079	-0.151
-304.837	-94.738	-0.149	-0.040
-303.822	41.493	-0.123	0.110
-302.807	-110.910	0.080	0.016
-301.793	-69.367	0.226	-0.086
-300.778	-184.950	0.106	0.002
-299.764	-200.000	0.019	-0.133
-298.749	-109.990	-0.325	-0.067
-297.735	-16.223	0.346	0.217
-296.720	-200.000	-0.029	0.134
-295.705	310.780	-0.102	0.190
-294.691	52.557	0.111	-0.105
-293.676	-66.912	0.257	0.101
-292.662	-200.000	-0.009	0.472
-291.647	280.674	0.095	0.168
-290.632	-102.748	0.203	-0.048
-289.618	-116.263	0.199	0.037
-288.603	-191.036	-0.056	-0.001
-287.589	-59.392	0.248	0.105
-286.574	-115.801	0.308	0.057
-285.559	-200.000	-0.026	-0.127
-284.545	-50.503	-0.318	0.148
-283.530	-26.713	-0.354	-0.205
-282.516	-13.514	0.166	0.106
-281.501	-28.063	-0.034	0.019
-280.486	-27.186	0.197	0.114
-279.472	-88.379	0.160	-0.047
-278.457	304.202	-0.014	-0.026
-277.443	-200.000	-0.006	-0.085
-276.428	119.060	0.107	-0.131
-275.413	800.000	-0.035	-0.119
-274.399	727.772	0.065	0.173
-273.384	78.569	-0.099	-0.105
-272.370	-136.855	0.467	0.053
-271.355	207.907	0.132	-0.204
-270.340	294.148	-0.122	0.220
-269.326	4.614	-0.226	-0.164
-268.311	-36.524	0.317	-0.169
-267.297	-200.000	-0.001	-0.260
-266.282	-118.927	0.143	-0.025
-265.267	800.000	0.046	-0.126
-264.253	800.000	-0.173	-0.532
-263.238	800.000	-0.056	0.215
-262.224	125.696	0.197	-0.246
-261.209	-99.233	-0.239	0.060
-260.195	-55.870	0.239	0.106
-259.180	32.964	0.288	0.246
-258.165	-200.000	0.003	0.198
-257.151	-44.819	-0.268	0.132
-256.136	-93.935	0.118	0.032
-255.122	-59.863	0.329	-0.139
-254.107	456.234	0.136	-0.298
-253.092	-200.000	-0.016	0.197
-252.078	292.888	-0.235	0.423
-251.063	-200.000	-0.048	-0.289
-250.049	25.264	-0.193	-0.159
-249.034	117.920	0.113	-0.137
-248.019	-200.000	0.053	-0.283
-247.005	-200.000	0.003	0.089
-245.990	-133.068	0.179	0.022
-244.976	-132.810	0.223	0.028
-243.961	-76.323	0.108	0.038
-242.946	800.000	0.025	0.101
-241.932	-200.000	0.044	-0.275
-240.917	30.329	0.136	-0.115
-239.903	21.620	0.194	-0.156
-238.888	-95.648	-0.381	-0.101
-237.873	-19.214	-0.255	0.156
-236.859	76.451	0.036	-0.038
-235.844	87.783	-0.087	-0.096
-234.830	-139.265	0.032	0.003
-233.815	-200.000	0.004	-0.043
-232.800	-77.363	0.249	-0.085
-231.786	-200.000	0.015	0.253
-230.771	77.864	0.055	-0.058
-229.757	668.559	0.022	0.055
-228.742	238.187	-0.105	-0.172
-227.727	-96.175	-0.184	0.048
-226.713	-2.274	0.284	0.197
-225.698	-200.000	-0.041	0.329
-224.684	800.000	0.107	0.457
-223.669	-101.677	0.082	-0.020
-222.655	132.352	-0.072	-0.092
-221.640	34.258	0.082	0.070
-220.625	800.000	-0.080	0.235
-219.611	117.001	0.054	0.066
-218.596	-155.817	0.302	-0.019
-217.582	-200.000	-0.048	0.256
-216.567	-200.000	-0.017	0.282
-215.552	407.121	-0.087	0.180
-214.538	-18.765	-0.184	-0.113
-213.523	358.766	-0.101	0.200
-212.509	800.000	0.014	0.047
-211.494	-89.595	0.010	0.003
-210.479	-74.193	0.174	-0.062
-209.465	746.881	0.131	0.348
-208.450	800.000	-0.053	-0.170
-207.436	800.000	-0.041	0.131
-206.421	472.510	-0.293	0.651
-205.406	-29.922	0.179	-0.101
-204.392	-200.000	-0.026	0.284
-203.377	800.000	0.124	0.366
-202.363	-120.364	-0.042	-0.007
-201.348	800.000	-0.149	0.410
-200.333	170.370	0.083	0.117
-199.319	-168.987	0.407	-0.015
-198.304	-200.000	-0.089	0.500
-197.290	404.962	-0.226	-0.470
-196.275	800.000	0.179	-0.574
-195.260	-20.723	-0.031	-0.019
-194.246	-22.429	-0.133	-0.079
-193.231	-126.303	0.334	0.049
-192.217	-189.924	-0.266	-0.003
-191.202	800.000	-0.026	-0.096
-190.187	-39.139	0.096	-0.050
-189.173	-200.000	-0.010	0.073
-188.158	-200.000	0.015	-0.197
-187.144	800.000	-0.051	0.216
-186.129	562.211	-0.039	0.092
-185.114	85.056	0.069	0.074
-184.100	20.884	0.101	0.081
-183.085	12.124	-0.413	-0.313
-182.071	366.445	0.071	-0.142
-181.056	-60.843	-0.258	-0.108
-180.042	156.479	0.147	0.200
-179.027	-94.198	0.234	0.063
-178.012	-200.000	-0.004	0.141
-176.998	1.831	-0.308	-0.219
-175.983	-26.575	0.259	-0.149
-174.969	3.003	-0.087	0.063
-173.954	269.887	-0.094	0.163
-172.939	-4.888	0.410	0.278
-171.925	156.391	0.095	-0.130
-170.910	-101.609	0.443	0.106
-169.896	163.945	0.146	0.203
-168.881	-200.000	-0.086	-0.403
-167.866	139.794	-0.026	-0.034
-166.852	-64.689	0.075	0.030
-165.837	-33.974	-0.025	0.014
-164.823	-200.000	0.018	-0.086
-163.808	112.001	0.102	-0.121
-162.793	-157.930	0.145	-0.008
-161.779	25.076	-0.042	0.034
-160.764	-118.308	0.152	0.027
-159.750	-40.368	0.402	-0.205
-158.735	-125.219	0.233	-0.035
-157.720	-34.160	0.113	0.061
-156.706	122.965	-0.177	0.218
-155.691	710.461	-0.164	0.427
-154.677	-79.427	0.059	0.020
-153.662	-94.779	0.143	0.038
-152.647	-63.649	-0.224	0.090
-151.633	244.572	0.046	-0.077
-150.618	293.551	0.136	0.244
-149.604	-200.000	-0.004	0.147
-148.589	-200.000	0.015	0.385
-147.574	-200.000	0.018	0.093
-146.560	-200.000	0.002	0.122
-145.545	-87.409	0.269	-0.080
-144.531	218.680	0.052	0.082
-143.516	19.924	0.219	0.173
-142.502	800.000	-0.112	-0.323
-141.487	-200.000	-0.005	0.371
-140.472	193.309	-0.040	0.060
-139.458	-34.169	0.169	0.092
-138.443	109.398	-0.068	0.080
-137.429	-53.253	-0.126	0.057
-136.414	62.524	-0.164	0.161
-135.399	255.573	0.084	-0.141
-134.385	49.251	-0.168	-0.156
-133.370	800.000	-0.117	-0.386
-132.356	-10.928	-0.355	-0.230
-131.341	43.040	0.076	-0.068
-130.326	-200.000	-0.060	-0.333
-129.312	-44.458	-0.045	0.022
-128.297	-3.651	0.189	-0.129
-127.283	-200.000	-0.068	0.427
-126.268	-122.756	0.303	-0.048
-125.253	-152.846	0.062	-0.004
-124.239	125.570	-0.086	-0.107
-123.224	254.604	0.061	-0.102
-122.210	-148.557	0.315	-0.025
-121.195	-200.000	-0.012	-0.113
