DTS Sentinel unit serial number:	SN413079Multiplexer serial number:	ORYXHardware model number:	OX4-SRSoftware version number:	ORYX F/W v4.00 Oryx Data Collector v3.7.2.0data status	okinstallation	princeton_trtdifferential loss correction	single-endedforward channel	channel 1reverse channel	N/Adate	2019/09/10time	20:56:11forward acquisition time	60.00reverse acquisition time	0.00gamma	496.2192k internal	0.2328k external	0.2328temperature offset calibration	0.9934default loss term (dB/km)	0.3790temperature slope calibration	1.0000multiplexer offset coefficient	1.0000multiplexer slope coefficient	1.0000fibre end	0.00T internal ref (°C)	31.69T ext. ref 1 (°C)	-0.30T ext. ref 2 (°C)	25.03length (m)	temperature (°C)	Stokes	anti-Stokes-747.200	-35.520	-0.183	-0.100
-746.185	-129.262	0.079	-0.011
-745.171	235.029	0.088	0.146
-744.156	73.132	-0.081	0.086
-743.142	61.284	0.076	-0.076
-742.127	-180.485	0.148	-0.003
-741.112	-200.000	-0.010	0.083
-740.098	268.304	-0.093	0.165
-739.083	800.000	-0.009	-0.028
-738.069	727.130	0.050	-0.133
-737.054	-14.281	-0.168	0.109
-736.039	800.000	-0.057	-0.210
-735.025	800.000	0.018	-0.055
-734.010	-200.000	-0.036	0.169
-732.996	-142.195	-0.049	0.005
-731.981	8.281	0.134	0.102
-730.966	-200.000	0.001	0.098
-729.952	100.604	0.237	0.277
-728.937	-118.315	-0.124	-0.022
-727.923	-155.291	0.124	-0.008
-726.908	-197.949	-0.354	-0.002
-725.894	17.165	-0.269	0.215
-724.879	72.563	-0.359	0.377
-723.864	800.000	0.096	0.317
-722.850	800.000	0.044	0.139
-721.835	158.162	-0.240	-0.335
-720.821	-200.000	-0.030	0.220
-719.806	405.663	0.152	0.322
-718.791	471.468	0.115	-0.261
-717.777	-200.000	0.007	0.072
-716.762	-88.938	-0.167	-0.050
-715.748	-3.385	0.202	-0.142
-714.733	252.281	0.075	-0.129
-713.718	-153.720	0.111	-0.008
-712.704	-129.750	-0.122	-0.017
-711.689	-63.453	0.067	0.028
-710.675	89.286	-0.363	-0.407
-709.660	18.930	-0.117	0.094
-708.645	-200.000	-0.015	-0.076
-707.631	782.195	-0.072	-0.199
-706.616	116.276	0.061	-0.075
-705.602	101.321	0.142	-0.167
-704.587	74.811	0.053	0.056
-703.572	155.680	0.122	-0.169
-702.558	75.408	-0.140	-0.148
-701.543	-200.000	-0.042	-0.276
-700.529	118.540	0.120	0.149
-699.514	-200.000	0.034	-0.286
-698.499	-190.365	-0.103	0.001
-697.485	800.000	-0.031	0.102
-696.470	-200.000	0.001	-0.109
-695.456	-33.305	-0.290	-0.162
-694.441	201.648	-0.067	0.103
-693.426	170.439	-0.073	-0.105
-692.412	-200.000	0.020	0.104
-691.397	709.983	0.034	0.090
-690.383	-183.653	-0.109	0.002
-689.368	-200.000	0.001	0.030
-688.354	-58.515	-0.103	-0.045
-687.339	20.689	0.171	0.139
-686.324	62.634	-0.180	-0.181
-685.310	-35.150	0.345	-0.189
-684.295	800.000	-0.130	0.367
-683.281	-37.525	-0.100	-0.054
-682.266	54.465	0.152	-0.148
-681.251	-4.209	-0.113	0.078
-680.237	80.189	-0.254	0.275
-679.222	199.529	0.069	0.106
-678.208	-3.257	0.143	0.100
-677.193	-200.000	-0.004	0.164
-676.178	-200.000	-0.009	0.222
-675.164	-200.000	0.008	-0.177
-674.149	-200.000	-0.013	0.074
-673.135	299.959	0.040	0.074
-672.120	520.421	0.033	0.078
-671.105	8.610	0.080	-0.061
-670.091	22.379	-0.115	-0.095
-669.076	202.896	-0.074	0.116
-668.062	78.665	0.090	0.097
-667.047	9.266	-0.246	-0.187
-666.032	-102.569	-0.207	0.050
-665.018	-153.098	0.128	-0.009
-664.003	74.564	-0.120	0.126
-662.989	-116.367	0.207	0.038
-661.974	218.367	-0.082	0.131
-660.959	800.000	0.143	-0.429
-659.945	207.957	-0.170	-0.267
-658.930	800.000	0.052	-0.177
-657.916	-200.000	0.034	0.192
-656.901	-83.312	-0.199	0.064
-655.886	158.108	0.064	0.089
-654.872	-200.000	0.010	-0.157
-653.857	-74.337	-0.324	-0.117
-652.843	68.928	-0.162	0.167
-651.828	800.000	0.134	0.394
-650.814	-200.000	-0.026	-0.197
-649.799	23.661	-0.148	0.122
-648.784	-84.468	0.062	0.020
-647.770	-128.340	-0.107	0.015
-646.755	-81.530	-0.176	-0.058
-645.741	19.382	-0.162	0.130
-644.726	498.268	0.076	0.176
-643.711	-102.486	0.126	-0.030
-642.697	75.047	0.149	-0.158
-641.682	-131.230	0.338	0.045
-640.668	-200.000	0.024	0.223
-639.653	-200.000	-0.080	-0.376
-638.638	264.969	0.138	0.241
-637.624	-52.443	-0.196	-0.091
-636.609	522.763	0.034	0.080
-635.595	-116.479	0.209	0.039
-634.580	-79.812	-0.122	0.041
-633.565	48.885	0.052	-0.049
-632.551	-39.569	0.142	0.074
-631.536	-0.173	0.216	-0.154
-630.522	-162.782	-0.172	-0.008
-629.507	800.000	0.062	0.220
-628.492	-200.000	0.100	0.447
-627.478	22.690	0.073	0.060
-626.463	328.903	-0.074	-0.142
-625.449	-200.000	0.036	-0.166
-624.434	-200.000	-0.011	-0.306
-623.419	-121.669	-0.251	-0.042
-622.405	800.000	0.103	-0.341
-621.390	-36.905	0.208	-0.112
-620.376	-193.324	0.098	-0.001
-619.361	-37.249	-0.309	-0.166
-618.346	438.660	-0.137	-0.300
-617.332	-43.492	-0.099	-0.050
-616.317	-98.809	0.210	0.054
-615.303	-200.000	-0.019	0.119
-614.288	-27.684	-0.065	-0.038
-613.273	800.000	0.102	-0.400
-612.259	689.908	-0.012	0.031
-611.244	340.760	0.188	-0.367
-610.230	-200.000	-0.035	-0.271
-609.215	436.210	-0.016	0.036
-608.201	-200.000	-0.001	0.224
-607.186	87.422	-0.024	0.026
-606.171	418.139	-0.036	0.077
-605.157	800.000	0.071	-0.245
-604.142	-200.000	0.030	-0.163
-603.128	-129.556	0.061	-0.009
-602.113	84.650	-0.047	-0.052
-601.098	800.000	0.092	-0.310
-600.084	-168.387	-0.452	0.017
-599.069	-79.433	0.308	0.104
-598.055	66.346	0.242	0.247
-597.040	-97.556	0.227	0.059
-596.025	290.483	-0.057	-0.104
-595.011	800.000	0.123	0.374
-593.996	276.152	0.060	-0.106
-592.982	60.778	-0.042	-0.042
-591.967	-31.049	0.190	0.108
-590.952	460.898	-0.013	-0.030
-589.938	413.480	0.109	0.233
-588.923	-8.795	-0.095	0.064
-587.909	313.486	-0.098	-0.185
-586.894	-3.131	0.142	-0.099
-585.879	208.909	0.122	-0.191
-584.865	240.762	-0.093	-0.155
-583.850	36.855	0.175	-0.155
-582.836	-40.013	-0.289	-0.151
-581.821	-200.000	0.042	-0.272
-580.806	-130.462	0.179	-0.024
-579.792	-200.000	0.185	0.000
-578.777	-189.054	0.218	0.003
-577.763	620.742	-0.069	0.173
-576.748	-37.713	0.382	-0.204
-575.733	-200.000	-0.041	0.247
-574.719	800.000	0.107	-0.317
-573.704	80.142	0.100	-0.108
-572.690	-43.519	-0.244	-0.123
-571.675	-43.285	-0.101	-0.051
-570.661	-160.864	-0.272	0.014
-569.646	-116.302	0.126	-0.023
-568.631	-71.122	-0.130	0.049
-567.617	-80.715	-0.354	-0.118
-566.602	303.391	0.166	-0.308
-565.588	-40.778	0.108	-0.056
-564.573	-200.000	0.044	0.216
-563.558	-200.000	-0.008	0.146
-562.544	800.000	-0.057	-0.162
-561.529	285.125	-0.137	-0.246
-560.515	-200.000	0.054	-0.251
-559.500	-200.000	-0.048	0.237
-558.485	-80.160	-0.364	0.122
-557.471	6.685	-0.251	-0.187
-556.456	-44.604	0.153	0.076
-555.442	178.928	0.044	-0.065
-554.427	-9.974	0.318	0.212
-553.412	75.102	0.079	-0.083
-552.398	-200.000	0.032	-0.150
-551.383	-91.544	-0.215	-0.061
-550.369	-109.158	0.314	-0.067
-549.354	-57.123	-0.168	0.074
-548.339	-200.000	0.012	-0.227
-547.325	34.934	0.127	0.111
-546.310	-23.588	-0.241	-0.145
-545.296	-200.000	0.019	-0.361
-544.281	800.000	0.092	-0.291
-543.266	-200.000	0.022	0.162
-542.252	800.000	0.071	-0.259
-541.237	390.150	0.140	-0.290
-540.223	78.060	-0.092	-0.098
-539.208	-130.544	0.215	0.029
-538.193	107.694	-0.024	-0.029
-537.179	-135.522	0.237	-0.028
-536.164	321.644	0.084	0.160
-535.150	191.847	0.122	-0.184
-534.135	-173.315	-0.130	0.004
-533.121	234.406	0.083	-0.137
-532.106	11.802	0.126	-0.097
-531.091	123.476	-0.132	0.165
-530.077	800.000	-0.050	-0.162
-529.062	-86.171	-0.307	0.095
-528.048	-200.000	0.015	-0.194
-527.033	72.562	-0.042	-0.044
-526.018	-144.214	-0.147	0.014
-525.004	-113.639	0.114	-0.022
-523.989	643.105	-0.103	-0.263
-522.975	800.000	0.015	-0.066
-521.960	267.200	0.215	0.375
-520.945	-89.100	0.268	0.079
-519.931	157.630	-0.059	0.082
-518.916	-43.583	-0.239	-0.121
-517.902	-49.944	-0.115	-0.055
-516.887	-64.258	-0.430	0.175
-515.872	800.000	-0.032	-0.122
-514.858	800.000	-0.086	0.268
-513.843	123.438	0.200	0.250
-512.829	73.502	-0.176	-0.184
-511.814	-200.000	0.096	-0.588
-510.799	-200.000	0.064	-0.539
-509.785	-35.936	0.186	0.101
-508.770	-174.149	0.137	-0.004
-507.756	259.349	0.085	-0.147
-506.741	-117.630	-0.167	-0.030
-505.726	-45.906	0.115	0.057
-504.712	-4.370	0.157	-0.109
-503.697	-53.302	0.251	-0.115
-502.683	-186.638	-0.124	-0.002
-501.668	-91.657	0.245	-0.070
-500.653	800.000	-0.074	-0.222
-499.639	-155.053	0.178	0.012
-498.624	800.000	0.035	0.124
-497.610	62.125	-0.372	0.370
-496.595	0.569	-0.198	-0.141
-495.581	-48.665	0.195	-0.093
-494.566	91.856	-0.191	0.215
-493.551	303.876	0.114	0.210
-492.537	-110.507	0.243	-0.050
-491.522	-140.066	0.205	-0.022
-490.508	-200.000	0.026	-0.267
-489.493	-9.114	-0.152	0.101
-488.478	-151.812	0.158	0.012
-487.464	-133.609	-0.144	-0.018
-486.449	-100.886	-0.378	-0.093
-485.435	-126.195	-0.204	-0.030
-484.420	45.473	0.184	-0.169
-483.405	-200.000	0.032	0.341
-482.391	-177.000	0.088	-0.002
-481.376	-200.000	0.057	-0.299
-480.362	226.755	-0.150	-0.243
-479.347	-200.000	0.002	-0.286
-478.332	-200.000	-0.035	0.270
-477.318	-94.076	-0.215	0.059
-476.303	-9.143	-0.088	-0.059
-475.289	56.563	-0.107	0.104
-474.274	163.713	0.126	0.177
-473.259	-55.111	0.163	-0.073
-472.245	53.764	0.257	0.247
-471.230	-56.777	-0.430	0.190
-470.216	-57.608	0.200	0.087
-469.201	-40.504	-0.429	-0.222
-468.186	-200.000	0.024	0.119
-467.172	-200.000	0.004	0.268
-466.157	-200.000	0.021	0.359
-465.143	-200.000	-0.053	0.252
-464.128	1.966	-0.150	-0.108
-463.113	800.000	-0.095	0.312
-462.099	436.521	0.061	-0.132
-461.084	-185.063	0.092	0.001
-460.070	-200.000	0.047	0.214
-459.055	-200.000	0.000	-0.065
-458.040	800.000	-0.009	0.037
-457.026	191.138	0.087	0.131
-456.011	761.630	0.113	0.306
-454.997	-28.540	0.093	0.053
-453.982	-48.328	0.103	-0.049
-452.968	800.000	0.044	-0.143
-451.953	-44.498	-0.445	-0.222
-450.938	78.146	-0.097	-0.103
-449.924	244.545	-0.054	-0.091
-448.909	538.362	-0.116	0.274
-447.895	-200.000	0.016	0.395
-446.880	-52.709	0.070	0.032
-445.865	56.762	0.114	-0.110
-444.851	-200.000	-0.002	0.073
-443.836	800.000	-0.069	0.216
-442.822	-27.020	-0.376	0.219
-441.807	87.034	0.180	-0.198
-440.792	-106.741	-0.200	0.044
-439.778	590.980	0.094	-0.230
-438.763	615.217	-0.069	0.173
-437.749	800.000	-0.079	-0.248
-436.734	329.598	-0.052	0.100
-435.719	800.000	0.049	0.205
-434.705	418.969	-0.082	-0.175
-433.690	-56.348	-0.128	0.057
-432.676	-200.000	0.001	0.074
-431.661	-56.308	-0.209	0.093
-430.646	800.000	-0.091	0.258
-429.632	-22.122	-0.161	-0.097
-428.617	-51.389	-0.250	-0.116
-427.603	-89.112	0.155	-0.046
-426.588	-133.942	0.083	-0.010
-425.573	-163.227	-0.114	-0.005
-424.559	571.320	0.096	0.233
-423.544	-200.000	0.003	-0.240
-422.530	618.681	-0.096	-0.239
-421.515	129.109	0.148	0.187
-420.500	-200.000	-0.013	0.144
-419.486	-52.441	0.255	-0.117
-418.471	-200.000	0.001	0.185
-417.457	367.067	0.087	-0.176
-416.442	168.979	-0.055	0.079
-415.428	-200.000	0.017	0.184
-414.413	800.000	0.068	-0.187
-413.398	481.194	-0.082	-0.185
-412.384	-136.289	-0.312	-0.036
-411.369	546.531	-0.044	-0.105
-410.355	71.939	-0.096	0.099
-409.340	-24.614	0.130	-0.077
-408.325	120.341	0.080	0.098
-407.311	271.256	-0.057	0.099
-406.296	-36.143	0.204	0.110
-405.282	-200.000	0.022	0.129
-404.267	800.000	-0.080	-0.222
-403.252	-200.000	0.011	0.202
-402.238	-200.000	0.002	0.319
-401.223	183.704	0.266	0.392
-400.209	-200.000	0.024	0.243
-399.194	-115.788	-0.215	0.040
-398.179	-200.000	0.142	-0.000
-397.165	291.967	0.261	0.472
-396.150	-100.145	0.345	-0.085
-395.136	-41.831	0.048	0.025
-394.121	800.000	-0.034	0.107
-393.106	-37.545	-0.091	-0.048
-392.092	150.467	-0.075	-0.101
-391.077	-104.803	0.106	-0.024
-390.063	381.337	0.245	0.500
-389.048	-138.409	0.180	0.020
-388.033	800.000	0.049	-0.208
-387.019	132.357	-0.073	0.093
-386.004	59.175	0.203	0.199
-384.990	-33.945	0.295	-0.161
-383.975	-200.000	-0.032	-0.191
-382.960	-200.000	0.031	-0.539
-381.946	-82.364	0.171	0.055
-380.931	-154.681	-0.011	-0.001
-379.917	800.000	-0.033	-0.111
-378.902	-72.341	0.216	-0.080
-377.888	-200.000	0.005	-0.071
-376.873	187.489	-0.005	-0.008
-375.858	20.028	-0.157	0.126
-374.844	-35.366	-0.257	0.139
-373.829	800.000	-0.096	-0.344
-372.815	-75.136	0.400	-0.142
-371.800	-200.000	0.042	0.295
-370.785	752.516	0.058	-0.156
-369.771	-10.363	0.206	0.136
-368.756	47.797	-0.034	0.032
-367.742	-200.000	-0.023	-0.131
-366.727	-200.000	0.026	0.183
-365.712	-157.390	-0.096	0.006
-364.698	70.827	-0.277	0.285
-363.683	496.057	-0.068	0.156
-362.669	73.231	0.156	0.162
-361.654	-200.000	0.024	-0.120
-360.639	-200.000	0.022	-0.166
-359.625	407.395	0.142	0.297
-358.610	-18.119	0.236	0.146
-357.596	-81.884	-0.234	-0.076
-356.581	33.554	-0.089	-0.076
-355.566	500.455	-0.106	-0.244
-354.552	-200.000	0.035	0.446
-353.537	-82.074	-0.438	0.142
-352.523	800.000	-0.051	0.205
-351.508	86.932	-0.065	-0.071
-350.493	431.840	-0.118	-0.254
-349.479	44.927	-0.079	-0.072
-348.464	-200.000	0.005	0.208
-347.450	-200.000	-0.004	-0.218
-346.435	355.414	0.161	-0.317
-345.420	-200.000	0.006	0.039
-344.406	-140.992	0.343	-0.035
-343.391	800.000	-0.034	-0.095
-342.377	226.907	-0.067	-0.108
-341.362	142.554	0.083	0.109
-340.348	-54.874	-0.166	-0.074
-339.333	-200.000	0.120	0.555
-338.318	-94.032	-0.280	0.076
-337.304	342.543	0.211	-0.410
-336.289	426.481	-0.173	-0.370
-335.275	125.924	-0.110	0.138
-334.260	-101.723	-0.364	-0.088
-333.245	25.351	-0.181	-0.149
-332.231	10.043	0.307	-0.232
-331.216	87.963	-0.178	0.196
-330.202	-151.613	0.231	0.017
-329.187	-200.000	-0.052	0.419
-328.172	139.598	-0.020	0.026
-327.158	220.688	0.123	0.195
-326.143	345.930	-0.061	-0.119
-325.129	-55.439	0.264	0.117
-324.114	-94.141	-0.213	0.058
-323.099	278.266	0.275	0.486
-322.085	-38.952	0.032	0.016
-321.070	-140.222	-0.158	0.016
-320.056	-90.058	-0.049	0.014
-319.041	54.709	-0.234	0.224
-318.026	699.857	0.098	0.254
-317.012	-135.419	0.230	-0.027
-315.997	-200.000	-0.007	0.129
-314.983	-80.505	0.327	0.108
-313.968	800.000	-0.104	0.342
-312.953	-52.512	-0.256	0.117
-311.939	-104.864	-0.258	0.059
-310.924	800.000	0.033	0.110
-309.910	59.018	-0.226	0.220
-308.895	-200.000	-0.031	0.362
-307.880	594.984	-0.049	0.120
-306.866	-35.668	-0.231	-0.124
-305.851	195.802	0.153	0.231
-304.837	-186.859	0.208	-0.003
-303.822	-148.115	-0.167	0.014
-302.807	-106.940	0.325	-0.071
-301.793	105.485	-0.099	-0.116
-300.778	118.943	0.143	-0.175
-299.764	-200.000	-0.035	0.215
-298.749	-91.448	0.111	0.031
-297.735	108.515	0.079	-0.093
-296.720	800.000	0.044	0.121
-295.705	159.863	-0.167	0.230
-294.691	-27.020	0.304	-0.176
-293.676	124.714	-0.298	-0.371
-292.662	7.143	-0.028	-0.021
-291.647	176.906	-0.149	0.215
-290.632	-138.629	-0.194	0.021
-289.618	76.633	-0.068	-0.072
-288.603	-96.216	-0.075	0.020
-287.589	-184.591	0.156	-0.002
-286.574	800.000	-0.022	0.062
-285.559	-31.989	0.286	0.159
-284.545	417.644	0.092	-0.195
-283.530	127.084	0.081	-0.102
-282.516	32.213	0.112	0.095
-281.501	288.970	0.038	-0.067
-280.486	241.972	0.043	0.072
-279.472	424.375	0.098	0.209
-278.457	-101.461	0.196	0.047
-277.443	-137.556	0.189	0.021
-276.428	800.000	-0.068	-0.232
-275.413	-200.000	-0.027	-0.137
-274.399	170.358	0.034	0.048
-273.384	45.479	-0.082	-0.075
-272.370	-96.388	-0.453	0.119
-271.355	-50.440	0.055	0.026
-270.340	-200.000	-0.029	0.240
-269.326	107.581	0.179	0.210
-268.311	27.659	-0.082	-0.069
-267.297	800.000	0.127	-0.413
-266.282	-81.235	-0.046	0.015
-265.267	-11.361	-0.353	-0.230
-264.253	800.000	-0.036	-0.142
-263.238	-130.199	0.162	0.022
-262.224	223.337	0.056	-0.089
-261.209	407.421	-0.198	-0.415
-260.195	800.000	-0.138	0.476
-259.180	-18.714	0.350	-0.216
-258.165	-122.692	-0.167	0.027
-257.151	-200.000	-0.035	-0.263
-256.136	-11.091	0.018	0.012
-255.122	800.000	-0.020	0.069
-254.107	204.650	-0.125	-0.192
-253.092	127.644	0.049	0.061
-252.078	151.634	-0.245	-0.330
-251.063	303.454	-0.145	-0.266
-250.049	800.000	-0.087	-0.283
-249.034	-73.511	0.354	-0.128
-248.019	156.496	-0.094	0.128
-247.005	284.325	0.108	0.192
-245.990	451.956	-0.043	0.093
-244.976	-77.271	-0.211	-0.073
-243.961	39.750	0.117	-0.104
-242.946	-18.264	0.083	-0.051
-241.932	81.123	-0.121	0.129
-240.917	207.708	-0.074	0.114
-239.903	240.313	-0.144	0.237
-238.888	-200.000	0.003	0.222
-237.873	23.197	-0.189	-0.154
-236.859	-110.564	-0.202	-0.041
-235.844	-200.000	0.009	-0.173
-234.830	13.019	-0.078	0.060
-233.815	-200.000	-0.009	0.064
-232.800	-42.479	-0.263	0.133
-231.786	41.680	-0.251	0.224
-230.771	-36.700	-0.146	0.078
-229.757	-19.810	-0.063	-0.038
-228.742	31.147	-0.123	-0.105
-227.727	-200.000	-0.011	-0.395
-226.713	-200.000	-0.057	-0.474
-225.698	-35.953	-0.286	-0.153
-224.684	800.000	0.061	0.182
-223.669	-97.644	0.062	0.016
-222.655	487.560	-0.031	-0.070
-221.640	139.987	0.209	0.272
-220.625	627.000	-0.064	0.159
-219.611	-200.000	-0.023	0.155
-218.596	661.082	0.027	-0.068
-217.582	800.000	0.104	0.360
-216.567	-200.000	-0.016	-0.145
-215.552	-127.276	0.236	-0.034
-214.538	488.631	-0.167	0.376
-213.523	800.000	-0.056	0.182
-212.509	62.453	-0.123	0.121
-211.494	74.172	-0.115	-0.119
-210.479	800.000	-0.021	0.072
-209.465	31.378	0.039	0.033
-208.450	-134.745	-0.237	-0.028
-207.436	-2.966	0.201	-0.139
-206.421	224.786	-0.071	0.113
-205.406	457.565	-0.019	0.041
-204.392	293.939	0.115	0.206
-203.377	-62.829	-0.141	-0.058
-202.363	-83.190	-0.050	-0.016
-201.348	42.908	0.280	-0.252
-200.333	-157.846	-0.160	-0.009
-199.319	-200.000	0.003	-0.153
-198.304	800.000	-0.024	-0.070
-197.290	599.456	0.138	0.338
-196.275	800.000	0.116	0.366
-195.260	-148.533	-0.312	0.025
-194.246	-200.000	-0.008	-0.165
-193.231	-200.000	0.004	-0.419
-192.217	800.000	-0.120	0.353
-191.202	392.926	-0.133	-0.272
-190.187	800.000	-0.059	-0.164
-189.173	-200.000	0.006	-0.373
-188.158	-81.528	0.139	-0.045
-187.144	-30.928	-0.093	-0.052
-186.129	-200.000	0.036	-0.162
-185.114	-200.000	-0.015	0.158
-184.100	-29.415	-0.188	-0.106
-183.085	-143.832	0.226	0.021
-182.071	-104.528	0.221	-0.050
-181.056	-200.000	0.009	-0.090
-180.042	113.140	-0.055	-0.065
-179.027	-200.000	0.003	0.109
-178.012	-38.935	0.143	-0.074
-176.998	25.793	-0.287	0.235
-175.983	800.000	0.046	-0.176
-174.969	-88.525	0.295	-0.087
-173.954	95.007	0.164	0.183
-172.939	118.610	-0.150	0.182
-171.925	-89.288	-0.433	0.126
-170.910	-28.205	0.196	0.112
-169.896	-121.254	-0.153	0.025
-168.881	-109.577	0.159	-0.033
-167.866	87.478	0.247	0.269
-166.852	110.559	0.127	0.151
-165.837	183.930	0.096	0.140
-164.823	404.190	0.104	0.216
-163.808	-154.630	0.358	0.023
-162.793	800.000	0.081	-0.232
-161.779	556.413	0.027	-0.063
-160.764	-69.053	-0.372	-0.141
-159.750	295.781	0.103	0.186
-158.735	207.932	-0.205	-0.316
-157.720	71.381	0.126	-0.129
-156.706	-200.000	0.050	-0.307
-155.691	-118.144	-0.199	0.035
-154.677	800.000	0.047	0.182
-153.662	-200.000	0.075	0.327
-152.647	48.236	0.196	0.180
-151.633	64.529	0.140	-0.139
-150.618	9.638	-0.116	0.086
-149.604	41.100	0.117	-0.104
-148.589	264.056	-0.227	0.388
-147.574	80.176	0.264	-0.279
-146.560	-200.000	0.018	0.220
-145.545	800.000	-0.048	0.194
-144.531	-144.017	0.062	-0.006
-143.516	-100.402	0.175	-0.043
-142.502	-7.242	-0.220	-0.147
-141.487	-150.773	0.468	-0.035
-140.472	-103.165	-0.281	0.065
-139.458	800.000	0.095	-0.297
-138.443	-200.000	-0.045	-0.204
-137.429	-102.221	-0.123	-0.029
-136.414	-145.454	-0.430	-0.038
-135.399	241.675	0.033	-0.054
-134.385	59.102	-0.138	0.134
-133.370	-61.291	0.085	0.035
-132.356	26.377	0.382	0.314
-131.341	-163.151	0.461	0.022
-130.326	78.024	-0.312	0.327
-129.312	330.184	0.035	0.066
-128.297	-200.000	-0.003	0.082
-127.283	91.718	0.146	-0.162
-126.268	-31.688	-0.113	-0.063
-125.253	357.378	-0.119	0.234
-124.239	800.000	-0.120	0.426
-123.224	37.623	-0.200	0.175
-122.210	10.103	-0.221	-0.165
-121.195	-178.065	0.241	-0.006
