DTS Sentinel unit serial number:	SN413079Multiplexer serial number:	ORYXHardware model number:	OX4-SRSoftware version number:	ORYX F/W v4.00 Oryx Data Collector v3.7.2.0data status	okinstallation	princeton_trtdifferential loss correction	single-endedforward channel	channel 1reverse channel	N/Adate	2019/09/13time	18:18:35forward acquisition time	60.00reverse acquisition time	0.00gamma	496.2192k internal	0.2313k external	0.2313temperature offset calibration	1.0138default loss term (dB/km)	0.3790temperature slope calibration	1.0000multiplexer offset coefficient	1.0000multiplexer slope coefficient	1.0000fibre end	0.00T internal ref (°C)	34.02T ext. ref 1 (°C)	4.40T ext. ref 2 (°C)	26.86length (m)	temperature (°C)	Stokes	anti-Stokes-747.200	219.971	-0.106	-0.172
-746.185	-30.910	0.279	0.160
-745.171	-67.486	-0.100	0.040
-744.156	-200.000	-0.039	0.400
-743.142	-80.817	0.211	-0.071
-742.127	22.994	-0.274	-0.228
-741.112	-166.147	0.328	-0.014
-740.098	-200.000	0.049	0.407
-739.083	2.925	-0.317	-0.233
-738.069	293.296	0.019	-0.034
-737.054	440.766	0.212	0.470
-736.039	257.327	-0.100	-0.175
-735.025	-81.701	0.205	0.068
-734.010	800.000	0.022	0.061
-732.996	-55.712	-0.444	-0.201
-731.981	793.747	0.044	-0.123
-730.966	-200.000	0.003	0.216
-729.952	-115.063	-0.465	-0.090
-728.937	-158.263	-0.279	-0.017
-727.923	-200.000	-0.010	-0.058
-726.908	800.000	0.081	-0.344
-725.894	-200.000	-0.226	0.000
-724.879	312.137	-0.072	0.137
-723.864	150.266	-0.087	-0.120
-722.850	59.280	-0.109	0.109
-721.835	-68.742	0.239	-0.094
-720.821	-82.013	-0.187	-0.062
-719.806	-200.000	0.021	-0.117
-718.791	127.179	0.176	-0.227
-717.777	-143.963	-0.188	0.018
-716.762	-36.987	-0.102	0.056
-715.748	-90.924	-0.088	0.026
-714.733	161.914	-0.246	0.348
-713.718	-65.428	0.278	-0.113
-712.704	-52.794	0.080	-0.037
-711.689	304.550	0.134	-0.251
-710.675	128.515	-0.075	-0.096
-709.660	26.094	-0.188	-0.159
-708.645	800.000	-0.056	-0.206
-707.631	135.742	0.124	-0.164
-706.616	800.000	-0.066	-0.282
-705.602	5.944	-0.131	-0.098
-704.587	-179.211	0.186	-0.004
-703.572	390.973	0.125	-0.263
-702.558	-119.347	0.176	0.031
-701.543	-65.949	0.089	-0.036
-700.529	-200.000	0.016	-0.577
-699.514	-9.482	0.088	-0.060
-698.499	-148.524	0.256	0.021
-697.485	-79.774	-0.157	0.054
-696.470	-40.717	0.206	0.108
-695.456	614.535	0.027	0.068
-694.441	101.843	0.169	0.199
-693.426	53.091	0.245	-0.238
-692.412	800.000	0.019	-0.060
-691.397	-191.379	-0.290	0.003
-690.383	-200.000	-0.037	0.255
-689.368	334.290	-0.141	-0.277
-688.354	-48.973	0.144	-0.070
-687.339	-26.343	0.199	-0.118
-686.324	-114.020	0.261	-0.051
-685.310	102.275	-0.054	0.064
-684.295	29.895	-0.217	0.187
-683.281	28.548	0.080	0.069
-682.266	-81.429	0.130	-0.043
-681.251	-126.807	-0.201	0.030
-680.237	-200.000	0.015	-0.220
-679.222	800.000	-0.015	0.063
-678.208	39.515	-0.157	-0.143
-677.193	800.000	-0.023	-0.097
-676.178	-200.000	0.022	-0.131
-675.164	800.000	0.118	-0.354
-674.149	356.704	-0.175	-0.353
-673.135	569.361	0.032	0.080
-672.120	-33.180	-0.271	-0.152
-671.105	146.861	0.131	-0.178
-670.091	-200.000	0.003	0.323
-669.076	-176.827	-0.313	0.008
-668.062	-61.004	0.020	-0.008
-667.047	-12.670	0.098	0.065
-666.032	-23.518	-0.292	0.177
-665.018	-200.000	0.040	-0.285
-664.003	-110.204	-0.161	0.034
-662.989	800.000	-0.081	0.298
-661.974	800.000	-0.016	0.066
-660.959	-85.278	0.266	0.084
-659.945	102.728	0.159	-0.188
-658.930	-164.282	-0.230	-0.011
-657.916	47.462	-0.293	-0.276
-656.901	-200.000	-0.007	-0.084
-655.886	138.561	0.056	-0.075
-654.872	-200.000	0.004	0.074
-653.857	-200.000	0.006	-0.204
-652.843	-31.881	0.100	-0.056
-651.828	651.847	0.123	0.320
-650.814	-87.106	0.151	0.046
-649.799	61.079	0.187	-0.188
-648.784	122.739	0.123	-0.155
-647.770	293.854	-0.200	-0.369
-646.755	76.445	-0.067	0.071
-645.741	90.402	0.207	-0.234
-644.726	242.013	0.108	-0.183
-643.711	-168.689	-0.274	0.010
-642.697	-189.566	-0.115	0.001
-641.682	-200.000	0.008	0.055
-640.668	64.659	0.283	-0.288
-639.653	9.224	0.074	0.057
-638.638	-127.466	0.197	0.029
-637.624	-82.543	0.290	-0.095
-636.609	-152.641	0.313	-0.023
-635.595	95.936	0.211	0.244
-634.580	103.299	-0.342	-0.405
-633.565	26.783	-0.271	-0.229
-632.551	-54.389	-0.110	0.050
-631.536	-161.170	0.236	0.012
-630.522	800.000	-0.056	0.204
-629.507	-200.000	0.024	-0.122
-628.492	-119.707	0.221	0.039
-627.478	-161.381	0.308	-0.016
-626.463	-21.201	-0.188	-0.116
-625.449	-68.617	-0.238	-0.093
-624.434	-200.000	0.076	-0.342
-623.419	308.022	-0.111	-0.209
-622.405	206.355	-0.189	0.297
-621.390	-8.256	0.059	0.040
-620.376	-71.136	0.095	-0.036
-619.361	-23.677	0.179	-0.108
-618.346	22.049	0.191	-0.157
-617.332	572.425	-0.075	-0.184
-616.317	-117.751	-0.067	-0.012
-615.303	115.598	-0.133	-0.164
-614.288	81.755	-0.150	-0.164
-613.273	-27.060	0.137	0.081
-612.259	-15.886	-0.152	0.098
-611.244	-16.748	0.164	0.105
-610.230	-200.000	0.012	0.149
-609.215	-40.953	0.234	-0.122
-608.201	-200.000	0.015	-0.068
-607.186	-94.384	0.312	0.086
-606.171	-200.000	-0.049	0.231
-605.157	-200.000	-0.044	-0.251
-604.142	68.272	-0.141	-0.145
-603.128	-126.525	0.125	0.019
-602.113	498.491	-0.147	-0.342
-601.098	-81.108	0.067	0.022
-600.084	405.770	-0.062	-0.132
-599.069	800.000	0.036	-0.103
-598.055	-200.000	-0.039	-0.246
-597.040	11.805	-0.071	0.055
-596.025	-200.000	0.021	0.134
-595.011	473.153	-0.092	0.208
-593.996	-119.040	-0.140	-0.025
-592.982	-197.209	-0.249	0.002
-591.967	752.641	0.068	0.186
-590.952	-200.000	0.006	-0.174
-589.938	251.784	-0.077	0.132
-588.923	149.231	-0.115	0.158
-587.909	-21.537	-0.132	-0.081
-586.894	-152.642	-0.066	-0.005
-585.879	25.868	-0.227	0.191
-584.865	800.000	0.082	-0.296
-583.850	-124.640	-0.231	-0.036
-582.836	800.000	-0.060	-0.258
-581.821	-132.554	-0.290	0.038
-580.806	17.064	-0.032	-0.026
-579.792	129.563	0.157	-0.202
-578.777	-48.718	-0.174	-0.084
-577.763	-119.966	0.471	-0.081
-576.748	800.000	-0.077	-0.238
-575.733	74.894	-0.084	-0.089
-574.719	50.196	0.262	0.249
-573.704	800.000	0.086	0.342
-572.690	-67.821	-0.410	0.162
-571.675	-82.487	0.269	-0.088
-570.661	524.396	0.040	0.096
-569.646	-127.185	-0.068	0.010
-568.631	-31.277	-0.257	-0.146
-567.617	12.938	-0.029	0.023
-566.602	-1.590	0.080	0.057
-565.588	-34.446	0.204	-0.112
-564.573	112.576	-0.174	0.213
-563.558	-142.632	0.110	-0.011
-562.544	342.020	0.168	0.332
-561.529	-200.000	-0.017	0.370
-560.515	800.000	0.059	-0.227
-559.500	-200.000	0.070	-0.459
-558.485	514.565	0.070	-0.166
-557.471	27.548	-0.096	-0.082
-556.456	131.690	0.174	-0.225
-555.442	-200.000	-0.015	0.141
-554.427	800.000	0.104	-0.460
-553.412	52.124	0.073	-0.070
-552.398	-15.898	-0.378	0.242
-551.383	71.527	-0.162	-0.169
-550.369	-200.000	0.005	-0.027
-549.354	303.588	0.120	0.224
-548.339	-126.364	0.200	0.030
-547.325	-166.153	-0.375	-0.016
-546.310	169.651	0.261	-0.375
-545.296	147.834	-0.117	-0.158
-544.281	-200.000	-0.013	-0.102
-543.266	-139.812	0.131	0.014
-542.252	241.744	-0.114	0.192
-541.237	212.474	0.164	-0.261
-540.223	-200.000	0.050	0.381
-539.208	320.821	-0.118	-0.225
-538.193	800.000	0.049	0.215
-537.179	-69.642	-0.179	0.069
-536.164	-117.211	0.352	0.064
-535.150	21.240	-0.062	0.050
-534.135	-76.422	0.155	0.055
-533.121	152.828	-0.147	-0.203
-532.106	-200.000	-0.000	-0.164
-531.091	649.212	0.083	0.213
-530.077	378.742	-0.047	0.097
-529.062	-31.215	0.177	0.100
-528.048	114.289	-0.088	0.107
-527.033	800.000	0.019	0.069
-526.018	-200.000	0.004	0.139
-525.004	574.834	-0.141	-0.347
-523.989	-150.388	-0.247	0.019
-522.975	315.645	-0.331	-0.628
-521.960	343.302	0.063	-0.124
-520.945	-200.000	0.020	0.185
-519.931	-200.000	0.197	0.001
-518.916	526.677	0.087	-0.207
-517.902	800.000	0.025	-0.073
-516.887	351.084	0.078	0.155
-515.872	202.999	-0.083	0.129
-514.858	-124.688	0.258	0.040
-513.843	-135.061	-0.204	-0.025
-512.829	-36.420	0.261	-0.141
-511.814	238.409	-0.064	0.107
-510.799	-24.588	0.440	-0.263
-509.785	800.000	-0.026	0.107
-508.770	121.015	0.212	0.265
-507.756	-200.000	-0.084	-0.522
-506.741	-84.725	-0.118	-0.037
-505.726	-173.663	-0.162	0.005
-504.712	534.313	0.071	0.170
-503.697	-12.843	-0.245	-0.160
-502.683	-200.000	0.002	0.019
-501.668	-200.000	-0.007	-0.332
-500.653	172.713	-0.161	-0.233
-499.639	-200.000	0.000	-0.286
-498.624	-8.725	-0.397	-0.267
-497.610	-95.173	-0.279	0.075
-496.595	-200.000	-0.007	-0.193
-495.581	-150.187	-0.347	0.027
-494.566	10.326	0.190	-0.145
-493.551	-200.000	-0.002	-0.118
-492.537	-19.066	0.256	0.160
-491.522	-35.925	-0.112	-0.061
-490.508	-103.398	-0.105	0.025
-489.493	-19.462	-0.199	0.124
-488.478	-1.917	0.089	-0.063
-487.464	209.131	0.133	0.210
-486.449	800.000	-0.076	-0.314
-485.435	794.319	-0.089	0.246
-484.420	210.676	0.028	0.043
-483.405	-76.905	0.225	0.079
-482.391	-19.831	-0.083	0.051
-481.376	-200.000	-0.028	0.254
-480.362	105.112	-0.076	-0.090
-479.347	-107.033	0.171	0.038
-478.332	-119.450	-0.095	0.017
-477.318	-87.515	0.167	-0.051
-476.303	671.357	0.129	-0.336
-475.289	643.242	-0.071	-0.183
-474.274	70.051	0.058	-0.060
-473.259	-37.947	0.162	0.086
-472.245	-77.434	0.126	0.044
-471.230	-79.733	0.202	0.068
-470.216	-49.091	-0.138	0.066
-469.201	148.150	0.208	0.282
-468.186	-144.050	0.043	0.004
-467.172	-135.448	-0.287	0.034
-466.157	-87.043	-0.067	-0.020
-465.143	-200.000	0.000	0.192
-464.128	-200.000	0.028	0.245
-463.113	452.551	0.047	0.104
-462.099	-200.000	0.040	0.399
-461.084	64.885	0.386	-0.390
-460.070	-4.633	-0.099	0.069
-459.055	-60.848	-0.094	0.040
-458.040	-200.000	0.020	0.124
-457.026	-2.416	0.004	-0.003
-456.011	-121.462	-0.191	-0.032
-454.997	-200.000	0.004	-0.141
-453.982	9.585	0.107	-0.081
-452.968	-33.701	0.083	0.046
-451.953	614.132	0.124	-0.310
-450.938	254.060	0.217	0.372
-449.924	145.127	-0.159	-0.214
-448.909	499.198	0.097	-0.225
-447.895	-200.000	0.028	0.335
-446.880	-121.214	-0.414	0.069
-445.865	532.810	-0.041	-0.097
-444.851	-200.000	0.007	-0.045
-443.836	513.908	-0.063	0.148
-442.822	-200.000	-0.004	0.216
-441.807	199.093	0.179	0.275
-440.792	-2.541	-0.128	0.090
-439.778	-89.726	-0.167	0.049
-438.763	-147.227	-0.074	0.006
-437.749	-166.726	-0.018	-0.001
-436.734	-200.000	-0.035	-0.174
-435.719	40.244	-0.303	-0.273
-434.705	209.285	-0.078	-0.122
-433.690	-200.000	-0.057	-0.427
-432.676	60.338	-0.201	0.199
-431.661	-122.306	-0.185	0.030
-430.646	-200.000	0.030	0.167
-429.632	-83.816	-0.219	0.070
-428.617	-133.164	0.292	-0.037
-427.603	-200.000	0.030	0.283
-426.588	-4.985	0.222	-0.153
-425.573	-6.389	0.184	0.126
-424.559	-53.727	0.312	0.143
-423.544	-72.028	-0.327	-0.122
-422.530	526.832	0.085	0.201
-421.515	-200.000	0.054	-0.387
-420.500	-145.937	-0.289	0.026
-419.486	395.910	-0.067	0.139
-418.471	10.211	-0.091	-0.069
-417.457	-154.380	0.208	0.014
-416.442	-91.692	-0.167	-0.048
-415.428	-79.656	0.158	-0.053
-414.413	205.744	-0.063	-0.098
-413.398	3.145	0.470	0.342
-412.384	424.312	-0.083	-0.179
-411.369	-48.783	-0.426	0.205
-410.355	-118.112	0.106	0.019
-409.340	452.588	-0.133	-0.295
-408.325	-129.297	0.352	0.049
-407.311	97.197	-0.184	-0.212
-406.296	-6.412	0.222	-0.152
-405.282	-108.379	-0.225	0.049
-404.267	171.757	0.117	0.168
-403.252	-200.000	-0.009	0.346
-402.238	663.603	0.057	-0.146
-401.223	20.387	-0.240	-0.194
-400.209	181.369	-0.221	0.325
-399.194	-48.673	-0.205	0.099
-398.179	-200.000	-0.038	-0.207
-397.165	111.582	-0.232	-0.280
-396.150	315.169	-0.089	0.168
-395.136	489.669	0.205	0.470
-394.121	-200.000	0.020	-0.377
-393.106	-89.849	-0.077	-0.023
-392.092	-33.941	-0.266	-0.147
-391.077	-38.683	-0.158	0.084
-390.063	-46.609	-0.159	-0.078
-389.048	106.430	0.271	0.322
-388.033	-74.008	0.270	-0.098
-387.019	-164.862	0.142	-0.006
-386.004	-44.284	-0.080	0.040
-384.990	-115.176	0.164	0.031
-383.975	114.663	0.118	0.144
-382.960	-69.566	0.143	0.055
-381.946	-177.981	-0.173	0.004
-380.931	81.553	0.087	-0.094
-379.917	-200.000	0.022	-0.196
-378.902	-37.513	0.203	0.108
-377.888	-62.947	0.241	-0.100
-376.873	0.385	0.195	-0.139
-375.858	-8.115	0.318	0.214
-374.844	800.000	0.088	-0.282
-373.829	-92.806	-0.135	0.038
-372.815	-200.000	-0.004	-0.183
-371.800	255.547	-0.140	-0.241
-370.785	105.730	0.199	-0.236
-369.771	179.805	0.154	0.225
-368.756	369.263	0.100	0.202
-367.742	46.455	0.212	0.197
-366.727	-200.000	0.006	0.083
-365.712	-200.000	-0.024	0.385
-364.698	-200.000	0.040	-0.226
-363.683	-104.391	0.127	0.029
-362.669	-1.360	-0.205	0.145
-361.654	113.027	-0.219	-0.265
-360.639	328.502	0.080	0.153
-359.625	-34.998	0.129	0.071
-358.610	432.976	-0.162	0.351
-357.596	495.110	0.057	-0.130
-356.581	-200.000	-0.034	0.287
-355.566	-200.000	-0.025	0.253
-354.552	523.989	0.034	0.080
-353.537	-43.625	0.147	0.074
-352.523	800.000	-0.040	-0.125
-351.508	491.802	0.052	-0.119
-350.493	800.000	-0.034	0.130
-349.479	749.587	0.050	0.135
-348.464	591.289	-0.096	0.236
-347.450	49.302	-0.096	0.090
-346.435	-98.163	-0.144	-0.037
-345.420	-15.662	-0.256	0.163
-344.406	-119.378	-0.338	-0.059
-343.391	-200.000	0.013	0.363
-342.377	-181.888	-0.196	0.004
-341.362	-4.267	0.153	0.106
-340.348	-60.784	-0.462	0.195
-339.333	-23.246	-0.073	0.044
-338.318	498.699	-0.070	-0.161
-337.304	-18.779	0.238	0.148
-336.289	-53.791	0.184	0.084
-335.275	-153.449	0.344	0.024
-334.260	800.000	-0.037	-0.137
-333.245	-79.593	-0.198	0.067
-332.231	-104.612	0.066	0.015
-331.216	797.134	0.070	0.192
-330.202	16.139	0.094	0.074
-329.187	8.091	-0.089	0.067
-328.172	-91.997	0.135	0.038
-327.158	84.310	-0.031	-0.034
-326.143	-10.447	-0.137	-0.090
-325.129	-200.000	0.021	-0.162
-324.114	-166.471	0.285	0.012
-323.099	306.873	-0.195	0.363
-322.085	-0.419	0.236	0.167
-321.070	-17.508	0.338	-0.212
-320.056	258.327	-0.069	0.118
-319.041	24.699	0.191	0.158
-318.026	620.943	0.166	0.418
-317.012	-140.262	0.245	-0.026
-315.997	-200.000	0.022	0.194
-314.983	-200.000	-0.031	-0.380
-313.968	123.823	0.143	0.178
-312.953	-200.000	0.000	-0.219
-311.939	-78.367	-0.046	0.016
-310.924	-88.621	-0.224	0.066
-309.910	-200.000	0.005	0.359
-308.895	-200.000	0.064	0.366
-307.880	126.311	0.068	0.086
-306.866	-153.428	0.175	0.012
-305.851	-69.772	-0.164	0.063
-304.837	800.000	-0.103	-0.378
-303.822	411.935	-0.080	-0.170
-302.807	40.578	-0.093	-0.084
-301.793	27.410	0.259	0.217
-300.778	800.000	0.128	-0.391
-299.764	473.566	0.125	-0.282
-298.749	800.000	0.059	0.171
-297.735	-6.408	-0.110	-0.075
-296.720	-128.937	-0.077	0.011
-295.705	25.586	-0.076	0.063
-294.691	-30.844	-0.108	0.061
-293.676	-200.000	-0.018	0.171
-292.662	49.085	0.187	0.175
-291.647	-11.215	0.101	0.067
-290.632	145.017	0.117	-0.156
-289.618	-22.849	0.240	-0.144
-288.603	-200.000	-0.012	0.348
-287.589	800.000	0.047	0.152
-286.574	750.018	-0.127	-0.340
-285.559	42.317	-0.148	-0.134
-284.545	-166.547	-0.129	-0.005
-283.530	800.000	-0.053	0.230
-282.516	440.715	-0.075	0.164
-281.501	-179.507	0.441	-0.010
-280.486	800.000	-0.079	-0.312
-279.472	83.833	-0.095	0.103
-278.457	-200.000	0.025	-0.175
-277.443	254.612	-0.156	0.266
-276.428	-200.000	-0.341	-0.001
-275.413	-200.000	0.013	0.126
-274.399	-50.627	-0.209	-0.098
-273.384	-200.000	0.003	0.031
-272.370	-35.515	-0.230	0.125
-271.355	-41.663	-0.177	-0.091
-270.340	800.000	0.104	-0.305
-269.326	40.797	0.153	-0.137
-268.311	800.000	0.051	0.178
-267.297	800.000	-0.104	0.310
-266.282	-132.955	-0.115	0.015
-265.267	153.179	0.080	-0.109
-264.253	56.896	-0.125	0.121
-263.238	22.362	-0.208	-0.169
-262.224	195.344	0.124	0.187
-261.209	-200.000	-0.058	-0.445
-260.195	800.000	-0.066	-0.252
-259.180	-200.000	0.025	-0.174
-258.165	-32.052	-0.045	0.025
-257.151	800.000	-0.013	-0.046
-256.136	172.048	-0.339	0.485
-255.122	800.000	0.123	0.406
-254.107	-34.912	-0.083	-0.045
-253.092	677.357	0.249	0.645
-252.078	-40.433	0.134	-0.069
-251.063	800.000	0.023	0.095
-250.049	-0.420	0.145	0.102
-249.034	32.590	0.103	-0.088
-248.019	329.087	0.125	-0.239
-247.005	81.585	0.123	0.133
-245.990	-119.482	0.060	-0.010
-244.976	190.348	0.066	0.099
-243.961	-60.565	-0.154	-0.065
-242.946	-51.046	-0.163	0.076
-241.932	-113.391	0.183	-0.036
-240.917	-27.805	-0.300	-0.173
-239.903	-127.485	-0.162	-0.023
-238.888	391.946	0.061	0.127
-237.873	250.992	0.197	-0.332
-236.859	164.125	-0.263	0.369
-235.844	-117.205	0.170	0.031
-234.830	-200.000	-0.018	-0.272
-233.815	-41.890	-0.095	-0.048
-232.800	800.000	-0.070	0.257
-231.786	-63.253	0.136	-0.056
-230.771	-70.993	0.199	0.074
-229.757	98.598	-0.129	0.148
-228.742	153.751	-0.151	0.205
-227.727	-200.000	-0.055	-0.241
-226.713	-94.211	0.243	-0.066
-225.698	-44.125	-0.045	-0.022
-224.684	-200.000	-0.042	0.255
-223.669	23.498	-0.195	0.159
-222.655	-60.181	-0.245	0.104
-221.640	93.913	0.068	0.076
-220.625	29.654	-0.153	-0.130
-219.611	-50.267	-0.265	0.125
-218.596	-139.612	0.187	-0.020
-217.582	50.855	0.046	0.043
-216.567	-200.000	0.031	-0.376
-215.552	-87.398	0.162	0.049
-214.538	-141.037	0.286	0.029
-213.523	73.180	0.346	0.360
-212.509	48.077	-0.026	-0.024
-211.494	37.778	-0.135	0.120
-210.479	185.051	0.125	0.185
-209.465	-200.000	-0.010	-0.179
-208.450	-200.000	0.020	-0.122
-207.436	137.652	0.041	0.054
-206.421	241.561	0.196	0.325
-205.406	-180.619	-0.136	0.003
-204.392	71.113	0.146	-0.150
-203.377	-200.000	-0.050	-0.296
-202.363	-200.000	-0.014	-0.206
-201.348	206.266	-0.189	-0.292
-200.333	36.891	0.490	0.430
-199.319	85.917	-0.141	0.154
-198.304	-172.147	-0.371	-0.012
-197.290	10.133	0.188	0.142
-196.275	12.556	0.088	0.067
-195.260	38.970	-0.174	0.155
-194.246	-46.340	0.160	-0.078
-193.231	-79.762	-0.115	0.039
-192.217	-200.000	-0.029	-0.248
-191.202	13.602	0.072	-0.055
-190.187	-28.493	0.115	0.066
-189.173	5.861	-0.212	0.156
-188.158	-40.481	0.087	-0.045
-187.144	-200.000	0.019	-0.135
-186.129	-200.000	-0.015	-0.427
-185.114	-173.910	-0.163	-0.005
-184.100	-130.756	0.067	0.009
-183.085	62.258	-0.267	0.265
-182.071	127.520	-0.273	0.344
-181.056	-200.000	-0.005	-0.026
-180.042	497.673	0.075	-0.171
-179.027	-78.711	-0.120	0.041
-178.012	64.879	-0.153	-0.153
-176.998	337.460	-0.144	-0.277
-175.983	68.103	0.087	-0.089
-174.969	-73.865	0.331	0.119
-173.954	-200.000	-0.030	-0.201
-172.939	-200.000	0.070	0.439
-171.925	731.748	-0.064	-0.170
-170.910	-200.000	0.001	0.016
-169.896	800.000	-0.121	0.344
-168.881	-69.104	-0.131	-0.050
-167.866	121.561	-0.222	0.275
-166.852	32.542	-0.074	-0.063
-165.837	-51.240	0.100	-0.046
-164.823	160.271	-0.171	-0.236
-163.808	800.000	0.079	0.225
-162.793	-74.570	0.386	0.138
-161.779	800.000	0.077	-0.295
-160.764	626.375	-0.065	0.163
-159.750	446.431	-0.075	-0.164
-158.735	-200.000	0.020	0.363
-157.720	-129.750	0.261	-0.036
-156.706	1.368	-0.223	-0.159
-155.691	-200.000	-0.048	-0.405
-154.677	-147.993	0.123	-0.010
-153.662	-200.000	-0.050	-0.296
-152.647	216.830	0.001	0.001
-151.633	-40.004	-0.100	0.052
-150.618	800.000	0.049	0.149
-149.604	111.779	-0.158	-0.189
-148.589	-200.000	0.026	-0.194
-147.574	0.049	-0.061	0.043
-146.560	60.454	-0.069	-0.068
-145.545	-62.295	0.161	0.066
-144.531	-41.636	-0.231	-0.118
-143.516	-91.666	0.357	-0.101
-142.502	291.085	-0.245	-0.442
-141.487	331.221	0.126	0.241
-140.472	-43.422	0.192	0.096
-139.458	696.962	-0.133	0.346
-138.443	140.474	0.024	0.031
-137.429	104.823	0.125	-0.146
-136.414	-137.489	0.242	-0.027
-135.399	12.085	0.235	-0.179
-134.385	-200.000	-0.000	0.398
-133.370	239.770	-0.120	0.198
-132.356	-78.780	-0.280	-0.095
-131.341	-120.317	0.287	0.049
-130.326	369.306	-0.103	-0.207
-129.312	142.381	-0.173	0.227
-128.297	28.945	0.160	0.134
-127.283	800.000	0.063	0.186
-126.268	342.543	0.055	0.107
-125.253	-118.186	-0.104	0.018
-124.239	231.471	-0.051	-0.084
-123.224	-139.468	0.231	0.024
-122.210	266.215	0.125	0.216
-121.195	32.685	-0.346	0.296
