DTS Sentinel unit serial number:	SN413079Multiplexer serial number:	ORYXHardware model number:	OX4-SRSoftware version number:	ORYX F/W v4.00 Oryx Data Collector v3.7.2.0data status	okinstallation	princeton_trtdifferential loss correction	single-endedforward channel	channel 1reverse channel	N/Adate	2019/09/16time	06:50:35forward acquisition time	60.00reverse acquisition time	0.00gamma	496.2192k internal	0.2331k external	0.2331temperature offset calibration	0.9985default loss term (dB/km)	0.3790temperature slope calibration	1.0000multiplexer offset coefficient	1.0000multiplexer slope coefficient	1.0000fibre end	0.00T internal ref (°C)	27.37T ext. ref 1 (°C)	11.45T ext. ref 2 (°C)	21.78length (m)	temperature (°C)	Stokes	anti-Stokes-747.200	-32.706	0.186	-0.104
-746.185	36.460	-0.286	0.254
-745.171	-95.969	0.325	-0.087
-744.156	-200.000	0.002	0.196
-743.142	-139.109	0.468	0.051
-742.127	-25.794	-0.147	0.087
-741.112	-200.000	-0.005	0.369
-740.098	-168.229	0.256	-0.010
-739.083	-123.319	0.282	-0.045
-738.069	-200.000	-0.009	-0.187
-737.054	-70.816	-0.323	-0.122
-736.039	800.000	-0.079	-0.280
-735.025	53.729	-0.159	-0.153
-734.010	-132.912	-0.335	-0.043
-732.996	-200.000	-0.028	0.214
-731.981	800.000	-0.088	0.295
-730.966	-104.162	0.029	-0.007
-729.952	191.236	0.088	0.133
-728.937	133.973	-0.099	-0.129
-727.923	251.740	0.080	-0.137
-726.908	-200.000	0.009	-0.167
-725.894	-200.000	-0.042	-0.296
-724.879	123.242	-0.106	-0.133
-723.864	26.108	0.078	0.065
-722.850	800.000	-0.013	0.039
-721.835	-200.000	0.018	-0.152
-720.821	636.051	-0.026	0.067
-719.806	215.930	-0.071	-0.114
-718.791	-40.810	0.174	-0.090
-717.777	-70.009	0.076	-0.029
-716.762	122.860	-0.149	-0.187
-715.748	-107.315	0.128	-0.028
-714.733	-200.000	-0.030	-0.298
-713.718	139.616	-0.156	-0.206
-712.704	800.000	-0.097	-0.407
-711.689	800.000	0.030	-0.121
-710.675	-200.000	-0.029	0.225
-709.660	35.067	-0.114	-0.100
-708.645	-26.102	-0.611	0.361
-707.631	-200.000	0.001	0.252
-706.616	-153.036	0.176	0.012
-705.602	800.000	-0.064	-0.224
-704.587	133.147	0.211	-0.274
-703.572	-32.890	-0.290	0.162
-702.558	397.638	0.108	-0.227
-701.543	-35.439	-0.111	0.061
-700.529	-50.696	0.187	0.088
-699.514	-119.637	-0.184	0.032
-698.499	198.488	0.139	0.213
-697.485	-200.000	0.040	0.199
-696.470	-200.000	-0.012	0.147
-695.456	456.587	0.156	-0.347
-694.441	-64.735	-0.213	-0.087
-693.426	214.317	0.320	0.509
-692.412	5.250	-0.131	-0.097
-691.397	-25.939	-0.163	0.097
-690.383	158.496	-0.137	-0.190
-689.368	57.252	-0.385	-0.377
-688.354	-12.923	-0.200	0.131
-687.339	800.000	-0.024	-0.095
-686.324	-79.035	-0.158	0.054
-685.310	-7.288	0.249	0.169
-684.295	-12.881	-0.307	-0.201
-683.281	-200.000	0.045	-0.476
-682.266	-200.000	-0.023	-0.211
-681.251	552.378	0.036	-0.088
-680.237	44.903	-0.093	-0.086
-679.222	-46.754	-0.058	-0.028
-678.208	738.228	-0.109	-0.295
-677.193	8.250	0.263	0.199
-676.178	12.693	0.078	0.061
-675.164	766.092	-0.077	0.210
-674.149	284.339	-0.126	0.228
-673.135	796.892	-0.117	-0.323
-672.120	-142.537	0.290	-0.029
-671.105	-182.123	0.339	-0.006
-670.091	-120.878	0.116	-0.020
-669.076	84.795	0.079	-0.087
-668.062	-141.832	-0.322	0.032
-667.047	-40.043	0.317	0.166
-666.032	189.349	-0.140	0.211
-665.018	-200.000	0.042	-0.257
-664.003	-29.228	0.279	-0.160
-662.989	-107.337	-0.037	-0.008
-661.974	278.587	-0.097	0.173
-660.959	316.522	0.101	0.190
-659.945	-150.915	-0.324	0.025
-658.930	-200.000	0.048	-0.461
-657.916	-200.000	0.072	-0.353
-656.901	-14.982	0.136	-0.087
-655.886	-41.426	-0.314	0.162
-654.872	-200.000	-0.027	-0.127
-653.857	403.504	0.197	-0.415
-652.843	458.407	-0.173	-0.385
-651.828	-14.201	0.101	-0.065
-650.814	-162.547	-0.408	-0.020
-649.799	-16.631	0.278	0.176
-648.784	-200.000	-0.051	0.272
-647.770	-51.943	-0.237	-0.111
-646.755	-200.000	-0.275	0.001
-645.741	-1.467	0.267	0.189
-644.726	179.210	0.005	-0.007
-643.711	199.690	-0.040	-0.062
-642.697	-98.498	0.314	0.081
-641.682	26.698	-0.390	-0.328
-640.668	-44.870	-0.129	-0.064
-639.653	800.000	-0.026	-0.091
-638.638	39.338	0.165	-0.148
-637.624	5.274	-0.307	-0.227
-636.609	-200.000	0.034	0.198
-635.595	327.127	-0.188	-0.361
-634.580	304.121	0.062	0.116
-633.565	304.365	0.140	0.261
-632.551	-5.865	0.192	0.132
-631.536	-200.000	0.011	0.275
-630.522	21.404	-0.370	0.302
-629.507	294.182	-0.075	-0.138
-628.492	-83.699	-0.065	-0.021
-627.478	243.276	0.108	-0.182
-626.463	64.664	-0.247	-0.249
-625.449	37.630	0.257	-0.229
-624.434	-164.396	-0.201	0.009
-623.419	-37.201	0.013	-0.007
-622.405	342.850	0.081	-0.158
-621.390	-140.795	-0.356	0.037
-620.376	19.313	-0.122	-0.098
-619.361	63.669	-0.161	0.162
-618.346	19.560	0.251	-0.202
-617.332	715.588	0.092	0.244
-616.317	97.175	0.048	-0.055
-615.303	-134.045	-0.046	-0.006
-614.288	-101.658	-0.244	0.059
-613.273	-83.083	-0.340	0.110
-612.259	-200.000	-0.013	0.249
-611.244	68.428	0.404	0.414
-610.230	800.000	0.007	-0.020
-609.215	-200.000	0.052	-0.295
-608.201	391.510	-0.154	-0.321
-607.186	800.000	-0.026	0.077
-606.171	90.256	0.151	-0.170
-605.157	-32.568	-0.215	-0.120
-604.142	52.690	0.038	0.036
-603.128	-111.486	0.213	0.043
-602.113	53.826	-0.138	0.133
-601.098	-10.083	-0.329	-0.219
-600.084	468.614	-0.121	-0.273
-599.069	-169.434	0.305	-0.011
-598.055	-49.810	0.102	-0.049
-597.040	800.000	-0.089	-0.302
-596.025	800.000	0.091	0.371
-595.011	-92.242	-0.146	0.041
-593.996	235.878	-0.093	-0.154
-592.982	-167.465	0.127	-0.005
-591.967	240.874	-0.121	-0.201
-590.952	-79.237	-0.158	0.054
-589.938	45.095	-0.110	-0.101
-588.923	800.000	0.038	-0.121
-587.909	-157.895	-0.416	0.025
-586.894	-144.020	-0.294	0.028
-585.879	-129.150	0.279	0.039
-584.865	-110.657	-0.147	-0.030
-583.850	44.518	0.090	0.083
-582.836	-149.936	-0.315	0.025
-581.821	-79.291	-0.147	-0.050
-580.806	39.735	-0.356	-0.319
-579.792	152.740	0.039	0.054
-578.777	800.000	-0.141	-0.458
-577.763	-200.000	0.015	-0.373
-576.748	-81.981	-0.090	-0.029
-575.733	800.000	-0.065	0.279
-574.719	-10.416	0.039	-0.026
-573.704	800.000	0.107	-0.332
-572.690	800.000	0.092	-0.379
-571.675	15.528	0.266	-0.209
-570.661	-200.000	0.018	0.136
-569.646	2.047	0.106	-0.077
-568.631	-126.179	0.283	0.042
-567.617	50.217	0.197	0.186
-566.602	-115.710	0.134	-0.025
-565.588	-117.951	0.362	-0.065
-564.573	-74.551	-0.065	-0.023
-563.558	-200.000	0.046	0.236
-562.544	708.135	-0.102	0.268
-561.529	270.451	-0.041	-0.072
-560.515	-191.384	0.106	-0.001
-559.500	-66.776	-0.285	0.113
-558.485	-200.000	0.032	0.183
-557.471	-110.615	-0.158	0.033
-556.456	-30.792	0.093	0.052
-555.442	-156.236	-0.144	-0.009
-554.427	-200.000	0.009	-0.041
-553.412	323.707	0.155	-0.295
-552.398	657.941	-0.108	0.277
-551.383	-1.319	0.097	0.068
-550.369	-91.023	-0.238	0.068
-549.354	-78.414	-0.354	-0.121
-548.339	-200.000	0.021	0.293
-547.325	234.505	-0.039	0.064
-546.310	-12.859	-0.319	-0.207
-545.296	-70.851	-0.113	-0.042
-544.281	-160.686	0.240	0.013
-543.266	-200.000	-0.029	-0.189
-542.252	311.167	0.090	-0.168
-541.237	257.602	0.083	0.142
-540.223	12.216	-0.129	-0.099
-539.208	149.695	0.198	0.267
-538.193	498.532	-0.099	0.229
-537.179	-108.437	-0.427	-0.092
-536.164	800.000	-0.072	-0.225
-535.150	-86.357	0.095	0.029
-534.135	-200.000	-0.022	-0.281
-533.121	71.796	-0.142	-0.148
-532.106	16.586	-0.126	-0.099
-531.091	188.565	-0.142	-0.212
-530.077	-200.000	0.003	0.081
-529.062	476.322	0.067	0.150
-528.048	14.725	-0.222	-0.173
-527.033	503.605	0.060	-0.139
-526.018	-160.363	-0.122	-0.007
-525.004	-170.453	0.349	0.012
-523.989	-26.364	0.307	0.180
-522.975	-200.000	0.014	0.183
-521.960	800.000	-0.095	0.314
-520.945	-200.000	0.014	0.069
-519.931	-200.000	-0.043	0.253
-518.916	-94.631	0.234	-0.064
-517.902	-200.000	-0.035	0.368
-516.887	61.942	-0.121	-0.120
-515.872	-200.000	-0.047	-0.341
-514.858	153.033	0.093	-0.127
-513.843	800.000	0.043	-0.123
-512.829	800.000	0.037	0.154
-511.814	352.545	0.049	-0.098
-510.799	188.487	0.013	0.020
-509.785	-200.000	-0.028	-0.158
-508.770	26.363	0.150	0.125
-507.756	21.351	0.171	0.139
-506.741	63.167	0.164	-0.164
-505.726	-106.669	0.099	-0.022
-504.712	-40.957	0.206	-0.106
-503.697	-79.104	-0.053	0.018
-502.683	-93.246	0.353	-0.098
-501.668	134.586	-0.094	-0.121
-500.653	-200.000	-0.028	-0.210
-499.639	-200.000	0.020	-0.191
-498.624	-13.393	0.355	0.230
-497.610	17.820	0.179	0.142
-496.595	-89.224	0.207	0.061
-495.581	16.703	0.210	0.166
-494.566	178.728	-0.141	0.205
-493.551	367.684	-0.097	0.196
-492.537	-200.000	0.006	-0.264
-491.522	-200.000	0.020	-0.107
-490.508	-200.000	0.000	0.168
-489.493	-160.131	0.123	0.007
-488.478	287.403	0.115	0.206
-487.464	32.035	0.102	-0.088
-486.449	800.000	0.036	-0.140
-485.435	50.929	-0.031	0.030
-484.420	800.000	0.022	0.083
-483.405	-200.000	0.000	-0.190
-482.391	-200.000	0.048	-0.305
-481.376	-200.000	-0.004	-0.187
-480.362	140.224	-0.072	-0.095
-479.347	144.618	-0.123	-0.164
-478.332	-46.240	0.110	-0.054
-477.318	800.000	-0.094	-0.374
-476.303	-83.795	0.229	0.073
-475.289	-17.921	0.268	-0.168
-474.274	103.017	0.180	0.210
-473.259	69.538	0.229	0.235
-472.245	-32.263	0.078	0.043
-471.230	-162.318	-0.056	0.003
-470.216	48.544	0.053	-0.050
-469.201	52.387	0.115	0.109
-468.186	57.852	-0.379	-0.369
-467.172	98.373	0.152	-0.174
-466.157	742.824	-0.076	-0.203
-465.143	800.000	0.107	0.335
-464.128	-94.181	-0.352	-0.096
-463.113	-200.000	-0.008	-0.114
-462.099	425.279	-0.120	0.258
-461.084	0.584	0.222	0.158
-460.070	-90.436	-0.190	-0.055
-459.055	-171.905	-0.118	0.004
-458.040	126.519	-0.052	-0.066
-457.026	-157.233	-0.408	0.025
-456.011	106.164	-0.028	-0.033
-454.997	-200.000	0.015	-0.138
-453.982	1.222	-0.175	-0.125
-452.968	-200.000	0.013	0.215
-451.953	-108.199	-0.326	0.070
-450.938	612.678	0.077	-0.190
-449.924	-99.354	0.098	-0.025
-448.909	-64.345	0.293	0.119
-447.895	259.189	-0.156	0.268
-446.880	68.068	0.130	-0.132
-445.865	-135.170	-0.347	-0.041
-444.851	-57.188	0.246	0.108
-443.836	149.282	-0.305	0.410
-442.822	-200.000	-0.012	-0.180
-441.807	-19.204	0.071	-0.044
-440.792	43.169	0.107	0.097
-439.778	-147.886	0.195	-0.016
-438.763	282.992	-0.134	-0.239
-437.749	-114.032	-0.249	0.048
-436.734	-95.619	0.124	-0.033
-435.719	800.000	-0.034	0.142
-434.705	369.676	0.133	0.268
-433.690	145.656	0.094	-0.125
-432.676	-200.000	0.013	-0.080
-431.661	-60.015	-0.144	-0.061
-430.646	227.904	0.115	0.186
-429.632	295.800	-0.084	0.154
-428.617	82.730	0.218	-0.236
-427.603	318.653	0.078	-0.146
-426.588	-136.017	-0.235	-0.027
-425.573	190.135	-0.113	0.169
-424.559	-3.941	-0.087	0.060
-423.544	140.091	-0.292	-0.383
-422.530	174.831	0.201	-0.289
-421.515	-140.807	-0.043	0.004
-420.500	-19.614	0.152	-0.093
-419.486	33.034	-0.130	-0.112
-418.471	183.871	-0.127	0.187
-417.457	-89.090	0.127	-0.037
-416.442	-200.000	-0.028	0.179
-415.428	-27.279	0.084	-0.049
-414.413	-48.192	0.021	0.010
-413.398	-117.050	0.167	0.030
-412.384	552.761	0.084	-0.200
-411.369	-85.562	0.251	0.077
-410.355	-59.789	0.328	-0.139
-409.340	0.308	0.233	-0.165
-408.325	37.263	-0.267	0.235
-407.311	800.000	0.064	-0.224
-406.296	-163.975	0.121	0.006
-405.282	-200.000	0.014	-0.078
-404.267	52.773	-0.178	0.169
-403.252	-135.519	-0.113	-0.013
-402.238	800.000	-0.079	-0.304
-401.223	-28.739	0.263	-0.151
-400.209	-121.311	-0.074	0.012
-399.194	84.191	0.191	0.208
-398.179	-200.000	0.062	0.349
-397.165	-128.318	0.190	0.027
-396.150	34.147	-0.332	-0.288
-395.136	-148.956	-0.169	0.013
-394.121	414.112	-0.060	-0.128
-393.106	-124.388	-0.143	0.022
-392.092	-173.706	0.076	-0.002
-391.077	-119.237	0.303	-0.052
-390.063	-142.537	0.077	0.008
-389.048	-200.000	-0.036	0.198
-388.033	-200.000	-0.012	0.065
-387.019	-114.637	0.365	-0.069
-386.004	800.000	0.083	0.321
-384.990	-108.171	0.081	-0.017
-383.975	11.401	0.094	0.071
-382.960	82.551	-0.134	-0.145
-381.946	-53.274	-0.197	0.090
-380.931	-155.873	-0.329	-0.021
-379.917	-118.148	-0.233	-0.041
-378.902	-35.906	-0.196	-0.105
-377.888	-68.479	0.113	0.044
-376.873	-26.869	0.102	-0.059
-375.858	-132.871	-0.175	0.022
-374.844	172.826	-0.195	0.279
-373.829	800.000	0.020	0.056
-372.815	223.516	0.160	-0.257
-371.800	-71.962	-0.057	0.021
-370.785	94.757	0.138	0.155
-369.771	617.484	-0.031	-0.078
-368.756	235.215	-0.167	-0.273
-367.742	800.000	-0.036	0.145
-366.727	319.244	-0.161	-0.302
-365.712	-37.108	-0.382	0.203
-364.698	-147.217	0.327	-0.028
-363.683	-200.000	-0.063	0.345
-362.669	11.633	-0.030	-0.023
-361.654	800.000	0.128	-0.350
-360.639	800.000	-0.141	0.426
-359.625	800.000	0.007	0.030
-358.610	480.139	0.117	-0.262
-357.596	800.000	0.052	0.164
-356.581	-200.000	-0.049	-0.219
-355.566	800.000	-0.065	-0.190
-354.552	352.073	0.141	0.277
-353.537	-200.000	0.226	0.001
-352.523	-127.177	0.153	-0.022
-351.508	10.328	-0.177	0.133
-350.493	117.037	0.027	0.033
-349.479	126.702	-0.126	-0.158
-348.464	50.636	-0.066	-0.062
-347.450	-144.360	0.157	-0.014
-346.435	27.157	0.116	-0.096
-345.420	7.244	0.217	-0.161
-344.406	-53.391	0.076	-0.034
-343.391	-200.000	0.016	0.187
-342.377	-68.871	0.101	0.039
-341.362	-103.357	0.082	0.019
-340.348	191.826	0.038	0.056
-339.333	322.771	0.025	0.047
-338.318	-101.683	-0.227	-0.054
-337.304	575.153	0.124	0.299
-336.289	48.352	0.055	-0.051
-335.275	-77.997	-0.298	-0.102
-334.260	32.227	-0.039	-0.033
-333.245	247.663	0.181	0.303
-332.231	123.012	-0.168	-0.208
-331.216	144.899	-0.122	0.162
-330.202	-149.749	0.242	0.019
-329.187	60.062	0.074	0.072
-328.172	-2.339	0.190	0.132
-327.158	69.877	0.185	0.189
-326.143	-200.000	0.052	0.267
-325.129	-28.984	0.228	0.130
-324.114	-200.000	0.009	0.221
-323.099	-200.000	0.083	0.363
-322.085	-155.513	0.348	0.022
-321.070	-50.744	-0.128	0.060
-320.056	-164.693	0.352	-0.016
-319.041	47.179	-0.086	0.080
-318.026	800.000	-0.151	-0.561
-317.012	-200.000	0.004	-0.057
-315.997	-200.000	-0.002	0.119
-314.983	800.000	-0.079	0.224
-313.968	-43.816	-0.127	0.063
-312.953	76.775	0.082	-0.087
-311.939	267.278	-0.152	0.263
-310.924	-108.379	0.583	-0.124
-309.910	-136.616	-0.406	0.046
-308.895	-200.000	-0.063	-0.395
-307.880	800.000	-0.161	0.462
-306.866	113.884	-0.148	-0.178
-305.851	-92.748	-0.158	0.044
-304.837	-111.209	-0.202	0.041
-303.822	13.746	0.087	-0.067
-302.807	80.644	-0.048	0.051
-301.793	680.413	0.121	0.311
-300.778	27.256	-0.150	0.124
-299.764	-155.106	-0.023	-0.001
-298.749	-105.820	0.123	-0.027
-297.735	800.000	-0.072	0.232
-296.720	107.284	0.177	-0.208
-295.705	-176.300	-0.201	0.005
-294.691	-66.727	-0.177	0.069
-293.676	-200.000	0.017	0.297
-292.662	-38.097	-0.246	0.129
-291.647	102.197	0.223	0.258
-290.632	72.282	0.254	0.262
-289.618	187.556	-0.228	-0.336
-288.603	-50.869	0.071	0.033
-287.589	-13.989	-0.182	0.116
-286.574	-69.361	0.230	0.087
-285.559	-200.000	-0.034	0.203
-284.545	154.964	-0.123	0.168
-283.530	-190.282	-0.083	-0.001
-282.516	800.000	-0.050	0.169
-281.501	83.786	0.227	-0.245
-280.486	-32.241	-0.127	-0.070
-279.472	-79.205	-0.255	0.086
-278.457	-113.850	-0.081	-0.016
-277.443	-55.949	0.127	-0.056
-276.428	15.112	-0.176	-0.137
-275.413	-119.753	-0.103	-0.018
-274.399	-200.000	0.044	-0.284
-273.384	77.983	0.119	-0.125
-272.370	86.020	-0.133	0.144
-271.355	800.000	-0.072	0.281
-270.340	599.049	-0.053	0.130
-269.326	-18.701	-0.068	-0.042
-268.311	31.081	-0.153	-0.129
-267.297	-62.453	-0.124	-0.051
-266.282	800.000	0.040	-0.166
-265.267	278.154	-0.206	0.362
-264.253	800.000	0.070	0.223
-263.238	43.906	0.424	-0.384
-262.224	-1.957	-0.094	-0.065
-261.209	-78.737	-0.178	-0.060
-260.195	-200.000	-0.033	-0.308
-259.180	466.820	0.103	0.228
-258.165	187.825	-0.047	0.070
-257.151	-144.670	-0.049	-0.004
-256.136	187.045	0.173	-0.254
-255.122	-200.000	0.005	0.151
-254.107	187.764	-0.347	0.512
-253.092	-200.000	-0.003	0.017
-252.078	167.784	-0.162	0.228
-251.063	235.144	0.106	0.173
-250.049	-130.274	0.618	-0.083
-249.034	-170.542	-0.351	-0.012
-248.019	31.874	0.208	0.176
-247.005	310.580	-0.039	0.072
-245.990	-169.762	-0.301	-0.011
-244.976	-17.024	0.117	0.073
-243.961	-113.106	-0.312	0.061
-242.946	-8.983	0.102	-0.067
-241.932	-196.830	0.074	-0.000
-240.917	-200.000	-0.001	0.196
-239.903	-80.293	0.421	0.139
-238.888	114.679	-0.046	0.055
-237.873	416.372	-0.131	-0.277
-236.859	262.305	0.084	0.145
-235.844	53.928	-0.121	-0.115
-234.830	-13.237	-0.204	-0.131
-233.815	-200.000	0.243	0.000
-232.800	156.851	-0.182	-0.248
-231.786	46.344	0.076	0.069
-230.771	46.180	-0.169	0.154
-229.757	-26.890	-0.300	-0.173
-228.742	-119.624	0.116	0.020
-227.727	15.035	0.238	0.184
-226.713	-55.325	0.079	-0.035
-225.698	-58.082	-0.067	-0.029
-224.684	800.000	0.056	-0.210
-223.669	-83.737	0.436	-0.137
-222.655	18.203	0.230	-0.181
-221.640	8.909	0.449	-0.334
-220.625	-99.217	-0.281	0.070
-219.611	-200.000	0.003	-0.113
-218.596	329.798	0.104	-0.197
-217.582	453.890	-0.027	0.059
-216.567	-200.000	-0.050	-0.267
-215.552	212.707	-0.108	0.168
-214.538	-33.667	0.261	0.142
-213.523	94.059	-0.198	-0.221
-212.509	-200.000	-0.027	0.126
-211.494	-200.000	-0.085	-0.506
-210.479	-200.000	0.034	-0.455
-209.465	223.928	-0.072	0.115
-208.450	-29.841	-0.139	0.078
-207.436	-178.473	0.320	-0.007
-206.421	-90.561	-0.119	0.034
-205.406	-200.000	0.010	-0.235
-204.392	522.061	-0.108	0.249
-203.377	-19.666	-0.393	0.239
-202.363	157.872	-0.104	0.142
-201.348	-84.277	-0.321	0.100
-200.333	-16.604	0.242	-0.151
-199.319	800.000	0.078	0.240
-198.304	54.012	-0.301	0.285
-197.290	-34.833	0.144	-0.078
-196.275	192.613	0.097	0.144
-195.260	35.445	0.026	-0.023
-194.246	485.260	0.111	-0.249
-193.231	-200.000	-0.027	-0.340
-192.217	-36.945	0.066	-0.035
-191.202	20.202	-0.085	-0.068
-190.187	-124.340	-0.231	0.035
-189.173	-200.000	0.002	-0.266
-188.158	3.668	0.173	0.124
-187.144	74.282	-0.238	0.247
-186.129	-120.686	-0.072	0.012
-185.114	-62.446	0.077	-0.032
-184.100	-151.902	0.109	-0.008
-183.085	-43.927	-0.078	-0.039
-182.071	-63.247	-0.093	-0.038
-181.056	-152.284	0.114	0.008
-180.042	-107.076	0.493	-0.107
-179.027	112.206	0.071	0.084
-178.012	-200.000	-0.005	0.096
-176.998	-42.292	-0.277	0.139
-175.983	-54.019	-0.150	0.067
-174.969	5.629	0.162	0.118
-173.954	-140.136	0.257	0.027
-172.939	-114.646	-0.161	0.030
-171.925	-101.783	0.157	0.037
-170.910	-200.000	-0.043	0.312
-169.896	-43.762	0.306	-0.152
-168.881	800.000	0.033	0.116
-167.866	-200.000	-0.009	0.087
-166.852	1.087	0.298	-0.211
-165.837	-200.000	-0.018	-0.143
-164.823	-70.906	0.318	0.118
-163.808	-32.548	-0.182	0.100
-162.793	4.991	0.106	0.077
-161.779	-167.422	-0.203	0.008
-160.764	-200.000	0.028	-0.179
-159.750	-200.000	-0.015	0.409
-158.735	691.693	0.111	0.287
-157.720	356.476	0.063	-0.123
-156.706	188.281	0.142	-0.208
-155.691	-105.069	0.156	-0.035
-154.677	-200.000	0.007	0.033
-153.662	297.211	-0.071	0.128
-152.647	414.830	0.029	-0.060
-151.633	800.000	0.029	-0.093
-150.618	42.332	0.030	-0.026
-149.604	-181.666	-0.352	-0.007
-148.589	-200.000	-0.009	-0.316
-147.574	430.366	0.173	-0.368
-146.560	441.181	0.045	-0.096
-145.545	-150.067	0.175	0.013
-144.531	-200.000	0.055	0.610
-143.516	-50.949	-0.285	0.131
-142.502	800.000	-0.110	-0.392
-141.487	-95.248	-0.153	0.041
-140.472	-200.000	-0.008	-0.042
-139.458	8.813	-0.128	0.095
-138.443	-24.275	-0.210	0.123
-137.429	-162.217	-0.242	-0.012
-136.414	137.632	0.129	0.165
-135.399	150.691	0.151	0.201
-134.385	800.000	-0.100	0.287
-133.370	-90.061	-0.180	-0.052
-132.356	-80.728	-0.231	0.075
-131.341	-146.388	-0.064	-0.006
-130.326	-22.198	0.283	0.169
-129.312	17.305	-0.228	-0.178
-128.297	-200.000	0.059	0.358
-127.283	-56.527	0.182	-0.079
-126.268	283.794	-0.119	0.210
-125.253	-163.980	0.309	-0.014
-124.239	800.000	0.089	0.260
-123.224	-200.000	-0.026	-0.310
-122.210	-147.147	-0.278	0.023
