DTS Sentinel unit serial number:	SN413079Multiplexer serial number:	ORYXHardware model number:	OX4-SRSoftware version number:	ORYX F/W v4.00 Oryx Data Collector v3.7.2.0data status	okinstallation	princeton_trtdifferential loss correction	single-endedforward channel	channel 1reverse channel	N/Adate	2019/09/18time	23:58:35forward acquisition time	60.00reverse acquisition time	0.00gamma	496.2192k internal	0.2343k external	0.2343temperature offset calibration	1.0016default loss term (dB/km)	0.3790temperature slope calibration	1.0000multiplexer offset coefficient	1.0000multiplexer slope coefficient	1.0000fibre end	0.00T internal ref (°C)	23.12T ext. ref 1 (°C)	0.75T ext. ref 2 (°C)	16.06length (m)	temperature (°C)	Stokes	anti-Stokes-747.200	122.692	0.323	0.405
-746.185	20.266	-0.231	0.187
-745.171	77.103	0.038	0.041
-744.156	800.000	0.081	0.342
-743.142	-200.000	-0.024	0.309
-742.127	-116.430	0.192	-0.035
-741.112	193.462	-0.085	0.128
-740.098	21.496	-0.314	0.256
-739.083	423.776	0.138	0.297
-738.069	218.467	0.026	-0.042
-737.054	752.327	-0.029	-0.079
-736.039	-102.394	-0.267	0.064
-735.025	29.831	-0.125	0.107
-734.010	800.000	-0.070	-0.241
-732.996	72.529	-0.018	-0.019
-731.981	34.956	-0.072	0.063
-730.966	-200.000	0.033	-0.306
-729.952	237.473	0.089	-0.148
-728.937	24.180	-0.203	-0.168
-727.923	-60.801	0.078	0.033
-726.908	-78.878	-0.118	-0.040
-725.894	-2.810	-0.176	-0.123
-724.879	-200.000	-0.020	-0.175
-723.864	624.197	-0.114	0.287
-722.850	53.224	-0.223	-0.214
-721.835	320.149	0.077	-0.147
-720.821	21.173	-0.216	-0.175
-719.806	18.621	0.116	0.093
-718.791	-95.620	-0.337	0.090
-717.777	75.295	0.165	-0.175
-716.762	133.859	0.066	0.086
-715.748	-48.546	0.200	0.096
-714.733	-79.555	-0.148	-0.050
-713.718	-154.007	-0.015	-0.001
-712.704	105.754	-0.203	-0.240
-711.689	44.411	-0.170	0.156
-710.675	184.687	-0.202	0.300
-709.660	-3.964	0.221	-0.153
-708.645	-200.000	0.036	0.456
-707.631	-45.548	0.305	0.151
-706.616	800.000	-0.017	-0.051
-705.602	-73.002	-0.189	-0.069
-704.587	-200.000	0.002	0.205
-703.572	32.895	0.187	-0.162
-702.558	-7.602	-0.260	-0.176
-701.543	66.618	-0.087	-0.088
-700.529	-24.640	-0.146	0.087
-699.514	218.774	-0.082	0.132
-698.499	-69.137	-0.268	0.103
-697.485	-142.660	-0.099	0.010
-696.470	72.098	-0.187	0.194
-695.456	24.638	0.133	0.110
-694.441	57.421	0.122	-0.119
-693.426	-88.057	-0.227	-0.068
-692.412	-200.000	-0.276	0.001
-691.397	-165.757	-0.248	-0.011
-690.383	-19.808	-0.129	-0.079
-689.368	315.994	-0.171	0.323
-688.354	-200.000	0.020	0.163
-687.339	-200.000	-0.018	-0.238
-686.324	-24.054	-0.023	0.014
-685.310	800.000	0.104	-0.385
-684.295	138.081	0.199	-0.261
-683.281	-200.000	0.026	0.260
-682.266	-200.000	0.021	-0.265
-681.251	96.069	-0.045	0.051
-680.237	84.520	0.248	-0.271
-679.222	800.000	-0.069	0.236
-678.208	800.000	-0.125	-0.489
-677.193	138.907	-0.139	-0.183
-676.178	-71.237	-0.228	-0.086
-675.164	185.367	0.091	0.135
-674.149	800.000	-0.027	0.085
-673.135	137.577	-0.049	-0.064
-672.120	800.000	-0.041	0.153
-671.105	-200.000	0.015	-0.079
-670.091	285.021	-0.180	-0.323
-669.076	116.765	0.234	0.287
-668.062	745.052	-0.058	0.157
-667.047	800.000	-0.069	-0.294
-666.032	-200.000	0.012	-0.231
-665.018	-141.517	-0.082	0.008
-664.003	-111.928	0.481	0.097
-662.989	-186.524	0.124	0.002
-661.974	-50.179	-0.132	-0.063
-660.959	-33.194	-0.294	0.162
-659.945	185.390	-0.046	0.068
-658.930	-91.517	0.170	-0.048
-657.916	126.839	0.168	0.212
-656.901	73.692	-0.055	-0.057
-655.886	-46.206	-0.135	-0.066
-654.872	400.361	-0.078	-0.163
-653.857	-200.000	-0.009	-0.093
-652.843	110.004	-0.156	-0.187
-651.828	800.000	-0.078	0.257
-650.814	-200.000	0.074	-0.372
-649.799	-139.894	-0.240	-0.025
-648.784	47.108	-0.185	-0.171
-647.770	-31.244	0.154	0.086
-646.755	739.503	0.059	0.158
-645.741	-83.689	0.074	-0.023
-644.726	186.560	-0.063	-0.093
-643.711	76.357	0.134	-0.142
-642.697	548.141	-0.053	0.126
-641.682	12.303	0.093	-0.072
-640.668	5.446	-0.169	-0.124
-639.653	49.120	0.095	0.089
-638.638	765.495	-0.013	-0.034
-637.624	35.502	-0.066	0.058
-636.609	-200.000	0.004	-0.082
-635.595	85.681	0.113	-0.124
-634.580	-68.754	-0.172	-0.066
-633.565	-39.739	0.131	-0.068
-632.551	-191.813	-0.138	-0.001
-631.536	-30.612	-0.158	0.089
-630.522	-200.000	-0.017	0.129
-629.507	146.373	0.066	0.088
-628.492	-34.261	0.210	-0.115
-627.478	34.822	0.169	-0.147
-626.463	-200.000	-0.016	-0.386
-625.449	-54.380	-0.131	0.059
-624.434	-36.319	-0.410	-0.220
-623.419	-13.039	0.043	-0.028
-622.405	-200.000	0.036	0.210
-621.390	-77.193	0.158	-0.055
-620.376	-145.302	-0.147	0.013
-619.361	-128.181	0.295	0.042
-618.346	528.868	-0.156	0.368
-617.332	19.543	-0.164	0.131
-616.317	45.513	0.081	-0.074
-615.303	-131.033	-0.233	0.031
-614.288	-52.307	-0.273	0.126
-613.273	376.988	0.015	0.030
-612.259	-186.256	-0.102	0.001
-611.244	-200.000	-0.010	-0.141
-610.230	-200.000	0.011	-0.136
-609.215	147.073	0.117	-0.156
-608.201	-200.000	0.036	0.224
-607.186	-30.967	0.236	0.133
-606.171	125.878	0.063	0.079
-605.157	-7.984	0.208	0.140
-604.142	594.614	-0.019	0.048
-603.128	-200.000	0.009	-0.123
-602.113	-9.359	0.082	0.054
-601.098	379.959	-0.083	0.170
-600.084	412.939	-0.193	0.408
-599.069	-129.402	-0.099	-0.014
-598.055	-146.366	0.041	-0.004
-597.040	-136.130	-0.276	-0.032
-596.025	-6.448	-0.081	-0.055
-595.011	-151.264	-0.249	0.019
-593.996	165.010	-0.101	-0.142
-592.982	-22.605	0.068	-0.041
-591.967	227.520	-0.092	-0.149
-590.952	25.143	0.174	0.144
-589.938	-200.000	-0.013	-0.056
-588.923	301.711	0.028	0.052
-587.909	-80.967	0.213	-0.070
-586.894	-200.000	-0.039	-0.190
-585.879	-137.778	0.220	-0.025
-584.865	-69.570	-0.244	-0.093
-583.850	-165.639	-0.089	0.004
-582.836	25.538	0.101	0.084
-581.821	-17.731	0.372	-0.232
-580.806	-77.889	0.133	0.046
-579.792	-200.000	0.033	-0.185
-578.777	-116.564	-0.052	-0.010
-577.763	-160.310	-0.484	0.026
-576.748	-106.480	-0.268	0.059
-575.733	-108.767	0.061	0.013
-574.719	800.000	-0.157	-0.529
-573.704	367.717	0.091	-0.182
-572.690	800.000	0.080	-0.268
-571.675	678.938	-0.180	-0.466
-570.661	-200.000	-0.046	0.391
-569.646	-122.041	0.343	-0.056
-568.631	-143.748	0.135	0.013
-567.617	-4.701	0.286	-0.197
-566.602	638.070	-0.054	-0.138
-565.588	-39.357	0.115	-0.060
-564.573	158.844	0.086	0.119
-563.558	158.524	-0.019	0.026
-562.544	-107.906	-0.177	-0.038
-561.529	-52.255	0.390	0.180
-560.515	397.732	0.154	-0.321
-559.500	140.063	-0.175	-0.230
-558.485	-4.369	0.075	-0.052
-557.471	-64.078	0.135	0.055
-556.456	335.181	-0.053	0.101
-555.442	800.000	-0.025	-0.087
-554.427	228.109	0.110	-0.178
-553.412	-67.833	-0.147	0.057
-552.398	-121.923	0.076	-0.012
-551.383	800.000	-0.087	-0.244
-550.369	515.493	0.034	0.080
-549.354	243.271	-0.155	-0.258
-548.339	14.519	-0.124	0.096
-547.325	25.490	-0.101	0.084
-546.310	-200.000	0.002	-0.074
-545.296	800.000	-0.054	0.150
-544.281	-44.288	-0.341	0.170
-543.266	-200.000	-0.055	0.239
-542.252	800.000	-0.263	-0.729
-541.237	137.096	-0.118	-0.153
-540.223	-200.000	0.350	0.001
-539.208	187.226	0.256	-0.380
-538.193	82.719	-0.051	-0.055
-537.179	-147.329	0.145	-0.012
-536.164	142.590	-0.191	0.251
-535.150	-200.000	0.025	0.138
-534.135	-29.027	0.062	-0.035
-533.121	-110.868	0.158	-0.032
-532.106	-12.199	-0.184	0.119
-531.091	800.000	0.051	0.183
-530.077	85.548	0.181	0.197
-529.062	800.000	0.057	0.162
-528.048	233.669	-0.126	-0.206
-527.033	800.000	-0.060	0.250
-526.018	-57.351	0.376	0.164
-525.004	-136.954	-0.428	0.049
-523.989	-87.042	-0.136	-0.041
-522.975	800.000	-0.095	-0.381
-521.960	249.224	-0.088	0.148
-520.945	-136.247	-0.128	-0.015
-519.931	482.528	-0.067	0.152
-518.916	-200.000	-0.006	-0.034
-517.902	-200.000	0.104	0.512
-516.887	211.937	0.125	-0.196
-515.872	-71.391	-0.540	-0.201
-514.858	-200.000	-0.051	-0.259
-513.843	28.039	0.101	-0.085
-512.829	-153.561	0.102	-0.007
-511.814	-200.000	-0.058	-0.310
-510.799	-200.000	-0.034	0.200
-509.785	210.444	-0.133	-0.207
-508.770	83.011	0.062	0.067
-507.756	143.595	0.236	-0.312
-506.741	66.020	-0.134	-0.135
-505.726	336.238	0.067	0.128
-504.712	-139.989	0.298	0.031
-503.697	167.115	-0.151	0.213
-502.683	-19.539	-0.122	-0.075
-501.668	-150.511	0.351	0.027
-500.653	-98.620	-0.229	-0.058
-499.639	-124.264	0.336	0.052
-498.624	-29.478	0.151	-0.086
-497.610	223.546	-0.132	0.211
-496.595	800.000	0.081	0.222
-495.581	-200.000	-0.061	0.283
-494.566	446.753	0.016	0.035
-493.551	0.144	-0.134	-0.095
-492.537	-0.651	-0.241	0.170
-491.522	200.655	0.074	-0.113
-490.508	-200.000	0.019	0.116
-489.493	-200.000	0.012	0.199
-488.478	-56.148	0.106	-0.047
-487.464	289.536	0.110	0.198
-486.449	30.968	-0.154	-0.131
-485.435	-81.952	0.086	0.028
-484.420	153.008	0.117	-0.159
-483.405	-82.279	-0.032	0.010
-482.391	-76.003	0.291	-0.102
-481.376	311.610	-0.008	-0.015
-480.362	-32.998	-0.102	-0.056
-479.347	-200.000	0.004	-0.031
-478.332	800.000	0.054	0.210
-477.318	8.706	0.218	-0.163
-476.303	-132.412	0.222	-0.028
-475.289	-110.055	-0.214	-0.044
-474.274	-200.000	-0.044	-0.203
-473.259	-200.000	0.003	0.329
-472.245	-190.748	0.168	0.002
-471.230	800.000	0.106	0.370
-470.216	-200.000	0.050	0.261
-469.201	-143.809	-0.233	0.022
-468.186	98.051	-0.070	0.079
-467.172	800.000	-0.129	-0.409
-466.157	5.379	-0.124	0.090
-465.143	-200.000	-0.030	0.162
-464.128	-136.279	-0.345	0.040
-463.113	265.219	0.052	0.089
-462.099	258.220	0.138	0.235
-461.084	14.340	0.030	-0.023
-460.070	667.426	-0.078	-0.198
-459.055	-39.197	-0.251	0.131
-458.040	-200.000	-0.006	0.197
-457.026	42.900	0.206	0.186
-456.011	91.833	-0.159	-0.177
-454.997	20.627	0.280	0.225
-453.982	-27.629	-0.292	-0.168
-452.968	800.000	0.155	0.476
-451.953	-105.349	0.023	-0.005
-450.938	-1.360	-0.084	-0.058
-449.924	19.511	-0.155	0.123
-448.909	-20.325	0.119	0.073
-447.895	-50.308	0.165	-0.077
-446.880	27.831	0.103	0.086
-445.865	-106.386	-0.230	-0.051
-444.851	-88.799	-0.123	0.036
-443.836	-200.000	0.007	0.152
-442.822	92.760	-0.234	0.261
-441.807	-132.145	0.194	-0.025
-440.792	185.785	0.131	0.192
-439.778	-200.000	-0.002	-0.126
-438.763	236.377	-0.303	0.496
-437.749	-30.596	0.120	-0.067
-436.734	-35.061	0.070	0.038
-435.719	-16.154	0.212	0.133
-434.705	-56.664	0.190	0.083
-433.690	-51.959	-0.191	0.088
-432.676	-200.000	-0.001	-0.142
-431.661	136.036	-0.100	-0.129
-430.646	-46.390	0.333	-0.162
-429.632	289.896	0.086	0.154
-428.617	-4.248	0.212	-0.145
-427.603	-15.320	0.061	-0.038
-426.588	358.414	0.217	0.429
-425.573	-144.745	0.304	-0.028
-424.559	288.607	-0.255	-0.456
-423.544	-200.000	-0.036	-0.332
-422.530	71.205	0.108	0.111
-421.515	-94.810	0.141	0.038
-420.500	-162.855	-0.340	-0.016
-419.486	172.875	0.091	-0.129
-418.471	-48.219	0.190	0.091
-417.457	-200.000	0.045	-0.223
-416.442	-146.473	-0.175	0.015
-415.428	-177.664	-0.253	0.006
-414.413	-200.000	-0.010	0.464
-413.398	-147.880	0.282	0.023
-412.384	-200.000	-0.004	-0.142
-411.369	220.962	0.064	-0.101
-410.355	-38.861	0.180	-0.094
-409.340	-150.747	0.128	0.010
-408.325	-133.834	0.166	-0.020
-407.311	153.914	-0.052	0.071
-406.296	-104.259	-0.195	-0.045
-405.282	179.948	-0.196	-0.283
-404.267	-196.892	0.199	0.001
-403.252	8.780	0.097	-0.073
-402.238	-80.692	-0.113	0.037
-401.223	800.000	0.050	0.172
-400.209	58.231	-0.184	0.178
-399.194	-200.000	0.007	0.054
-398.179	-200.000	0.117	-0.000
-397.165	175.741	0.045	0.064
-396.150	-200.000	0.005	-0.318
-395.136	466.437	-0.051	-0.112
-394.121	-4.143	0.144	-0.098
-393.106	100.338	-0.072	0.082
-392.092	115.228	0.103	0.125
-391.077	58.332	0.206	0.200
-390.063	-200.000	-0.017	0.120
-389.048	-104.080	0.083	0.019
-388.033	70.533	0.184	-0.188
-387.019	533.606	-0.038	-0.090
-386.004	-200.000	0.031	-0.180
-384.990	-111.173	-0.212	0.043
-383.975	733.549	0.043	-0.113
-382.960	70.829	0.075	0.076
-381.946	-8.314	0.348	0.231
-380.931	-1.730	0.088	0.061
-379.917	-53.510	-0.335	-0.151
-378.902	334.457	-0.069	-0.133
-377.888	-48.107	0.159	0.076
-376.873	-200.000	0.058	-0.335
-375.858	-200.000	-0.042	0.279
-374.844	-122.499	-0.152	0.024
-373.829	47.379	0.378	-0.347
-372.815	-200.000	0.020	-0.099
-371.800	12.505	-0.159	-0.121
-370.785	-163.942	-0.332	0.015
-369.771	800.000	-0.041	-0.140
-368.756	-200.000	-0.067	0.377
-367.742	-99.356	-0.065	0.016
-366.727	-83.418	-0.261	0.083
-365.712	-183.867	0.362	0.006
-364.698	-8.444	0.336	0.223
-363.683	-182.822	-0.256	0.005
-362.669	-16.360	0.152	-0.095
-361.654	690.470	-0.026	0.067
-360.639	-81.816	-0.198	-0.064
-359.625	-200.000	0.011	-0.123
-358.610	-131.521	0.236	-0.031
-357.596	9.559	0.013	-0.010
-356.581	75.948	-0.030	0.031
-355.566	800.000	0.106	0.316
-354.552	-77.143	0.636	-0.219
-353.537	-44.349	0.263	-0.130
-352.523	58.567	0.133	-0.129
-351.508	4.375	-0.059	-0.043
-350.493	186.117	0.175	-0.256
-349.479	226.296	0.235	-0.376
-348.464	800.000	0.074	0.242
-347.450	800.000	0.098	-0.400
-346.435	-28.841	0.427	0.242
-345.420	-3.672	-0.240	-0.165
-344.406	763.276	0.083	-0.222
-343.391	111.859	-0.216	-0.258
-342.377	-26.840	-0.284	-0.164
-341.362	-35.550	-0.152	-0.081
-340.348	-76.615	-0.240	0.083
-339.333	-97.443	-0.154	-0.040
-338.318	99.428	0.208	0.237
-337.304	-200.000	-0.030	-0.395
-336.289	-47.797	-0.126	-0.060
-335.275	-200.000	0.076	0.497
-334.260	-184.436	-0.213	-0.003
-333.245	-33.501	0.233	-0.127
-332.231	-32.604	-0.161	0.088
-331.216	97.630	0.039	-0.045
-330.202	-60.215	-0.223	0.093
-329.187	117.832	-0.114	-0.139
-328.172	-123.592	-0.194	0.030
-327.158	-22.864	0.057	-0.034
-326.143	-77.863	-0.223	0.076
-325.129	-92.937	0.111	0.031
-324.114	-200.000	-0.019	0.233
-323.099	-67.048	-0.174	-0.068
-322.085	-151.406	0.114	-0.008
-321.070	-30.859	0.265	-0.148
-320.056	75.736	0.323	-0.336
-319.041	-73.494	0.210	0.076
-318.026	-84.254	-0.170	0.053
-317.012	-137.491	0.286	-0.032
-315.997	-200.000	-0.063	-0.357
-314.983	352.176	-0.284	-0.554
-313.968	100.982	-0.067	-0.077
-312.953	800.000	0.160	0.465
-311.939	-200.000	-0.022	-0.194
-310.924	-79.960	0.222	-0.073
-309.910	96.159	-0.118	-0.133
-308.895	7.683	0.125	-0.092
-307.880	-200.000	0.037	-0.182
-306.866	-96.337	0.241	0.063
-305.851	-129.226	-0.413	0.057
-304.837	-200.000	-0.007	-0.148
-303.822	-4.456	-0.221	-0.150
-302.807	28.501	-0.328	-0.273
-301.793	345.645	0.154	0.297
-300.778	-18.786	-0.336	0.206
-299.764	800.000	-0.084	0.282
-298.749	-127.010	0.367	-0.053
-297.735	639.384	-0.110	0.274
-296.720	-200.000	0.002	0.093
-295.705	401.721	-0.036	0.075
-294.691	25.541	0.185	0.152
-293.676	278.256	-0.127	-0.223
-292.662	11.390	0.241	0.181
-291.647	800.000	-0.092	0.339
-290.632	277.606	-0.054	-0.095
-289.618	168.496	0.153	-0.214
-288.603	206.509	-0.054	-0.082
-287.589	136.914	0.242	0.311
-286.574	-200.000	-0.043	-0.229
-285.559	91.130	0.091	-0.100
-284.545	-127.120	-0.102	0.015
-283.530	129.199	0.077	0.096
-282.516	31.089	-0.146	-0.124
-281.501	20.032	0.142	0.112
-280.486	800.000	-0.034	0.105
-279.472	-200.000	0.015	0.130
-278.457	-124.887	0.345	0.052
-277.443	80.175	-0.190	0.201
-276.428	-118.264	-0.159	0.028
-275.413	-148.942	0.449	0.036
-274.399	94.393	-0.146	0.163
-273.384	-27.377	0.100	0.057
-272.370	-32.922	0.093	0.051
-271.355	164.131	-0.061	-0.084
-270.340	-200.000	0.001	-0.149
-269.326	-200.000	-0.004	-0.180
-268.311	-200.000	0.051	-0.252
-267.297	430.992	-0.127	-0.270
-266.282	48.714	0.070	-0.064
-265.267	-89.771	-0.110	-0.032
-264.253	-13.919	0.039	0.025
-263.238	-170.783	-0.289	0.010
-262.224	-200.000	-0.073	0.367
-261.209	70.188	0.125	-0.127
-260.195	-200.000	-0.047	-0.444
-259.180	328.590	0.043	-0.080
-258.165	214.455	-0.134	0.208
-257.151	800.000	-0.073	0.281
-256.136	800.000	0.050	0.145
-255.122	-200.000	-0.022	0.114
-254.107	147.426	-0.119	0.157
-253.092	800.000	-0.108	0.304
-252.078	-200.000	-0.006	-0.189
-251.063	-200.000	0.011	-0.050
-250.049	-131.923	-0.370	-0.047
-249.034	84.078	0.131	0.140
-248.019	-200.000	-0.063	0.303
-247.005	124.926	0.180	0.223
-245.990	-62.340	-0.084	-0.034
-244.976	800.000	-0.023	-0.073
-243.961	-20.977	0.227	0.136
-242.946	68.133	0.155	-0.156
-241.932	-24.946	-0.237	0.138
-240.917	-109.707	-0.235	-0.049
-239.903	94.130	0.162	0.181
-238.888	-71.677	0.380	0.139
-237.873	-200.000	0.013	0.128
-236.859	-36.176	0.264	-0.140
-235.844	73.826	-0.075	0.078
-234.830	800.000	-0.025	-0.069
-233.815	162.673	0.143	0.198
-232.800	-21.852	-0.150	0.089
-231.786	274.842	0.242	-0.421
-230.771	103.002	0.208	0.240
-229.757	185.279	0.207	0.302
-228.742	70.999	-0.261	0.266
-227.727	486.727	-0.086	0.193
-226.713	349.990	-0.042	-0.082
-225.698	54.635	-0.117	-0.111
-224.684	-200.000	-0.024	-0.338
-223.669	482.832	-0.148	-0.329
-222.655	-200.000	0.046	-0.276
-221.640	800.000	0.030	-0.124
-220.625	-193.623	0.087	0.001
-219.611	-48.997	-0.197	-0.093
-218.596	-111.004	0.117	-0.024
-217.582	-39.503	-0.132	-0.068
-216.567	-153.977	0.184	0.012
-215.552	86.209	-0.094	0.101
-214.538	210.264	-0.158	-0.243
-213.523	-200.000	0.020	-0.136
-212.509	-112.333	-0.212	-0.042
-211.494	800.000	0.061	-0.192
-210.479	-10.551	-0.221	-0.143
-209.465	-130.732	-0.392	0.052
-208.450	-12.453	0.107	0.068
-207.436	70.968	-0.454	-0.461
-206.421	278.102	-0.117	-0.205
-205.406	-200.000	0.031	0.224
-204.392	438.494	-0.036	-0.077
-203.377	800.000	0.035	0.103
-202.363	23.291	-0.315	0.253
-201.348	453.096	0.119	0.258
-200.333	-80.086	-0.228	0.075
-199.319	-158.970	-0.220	-0.012
-198.304	-200.000	0.032	0.190
-197.290	298.729	-0.175	-0.315
-196.275	359.947	0.147	0.288
-195.260	-69.305	0.172	0.065
-194.246	109.298	0.157	0.184
-193.231	365.227	0.084	-0.165
-192.217	106.555	0.168	0.195
-191.202	-12.142	-0.209	0.134
-190.187	-26.282	-0.193	-0.111
-189.173	231.445	-0.177	-0.284
-188.158	560.308	-0.072	0.170
-187.144	-200.000	-0.017	0.145
-186.129	-23.875	0.045	-0.026
-185.114	206.485	0.079	0.120
-184.100	-131.641	-0.177	0.023
-183.085	-142.657	-0.533	0.051
-182.071	114.807	0.111	-0.133
-181.056	-153.698	-0.150	-0.010
-180.042	-200.000	0.015	0.089
-179.027	5.768	-0.317	-0.230
-178.012	-4.128	-0.047	0.032
-176.998	30.483	-0.125	-0.105
-175.983	-51.317	-0.366	-0.168
-174.969	-200.000	0.024	0.256
-173.954	-59.724	0.097	-0.041
-172.939	50.444	-0.130	0.121
-171.925	93.237	0.238	-0.264
-170.910	-103.859	-0.050	-0.011
-169.896	-200.000	0.052	0.256
-168.881	800.000	0.047	-0.143
-167.866	-65.709	0.164	0.064
-166.852	155.556	0.207	-0.279
-165.837	369.089	0.135	0.267
-164.823	3.876	-0.062	-0.045
-163.808	-200.000	-0.034	-0.150
-162.793	276.622	-0.094	0.163
-161.779	-200.000	-0.000	0.265
-160.764	-104.955	0.210	-0.047
-159.750	127.494	0.143	0.177
-158.735	566.792	-0.092	0.219
-157.720	264.738	0.223	0.380
-156.706	800.000	0.085	0.320
-155.691	82.696	-0.067	0.072
-154.677	215.892	-0.059	-0.091
-153.662	29.079	0.251	0.209
-152.647	-179.996	0.152	-0.003
-151.633	-131.183	0.299	0.039
-150.618	-200.000	0.004	-0.140
-149.604	327.000	0.018	-0.034
-148.589	800.000	0.100	0.304
-147.574	-149.747	-0.189	-0.015
-146.560	188.373	0.045	0.066
-145.545	7.225	0.205	-0.150
-144.531	800.000	0.025	0.085
-143.516	-200.000	0.008	0.112
-142.502	796.350	0.091	-0.245
-141.487	125.943	0.116	-0.143
-140.472	41.598	-0.138	-0.122
-139.458	69.252	0.137	-0.137
-138.443	65.017	-0.104	-0.102
-137.429	330.164	0.203	-0.383
-136.414	-196.743	0.053	-0.000
-135.399	36.718	-0.180	-0.155
-134.385	-200.000	0.003	0.228
-133.370	-148.198	-0.182	-0.015
-132.356	-200.000	0.004	0.150
-131.341	-55.999	0.227	0.099
-130.326	136.757	0.071	-0.091
-129.312	-200.000	0.020	0.247
-128.297	-150.656	0.236	-0.018
-127.283	75.035	-0.122	0.126
-126.268	-68.306	0.194	-0.074
-125.253	-200.000	-0.003	-0.173
-124.239	-108.125	-0.120	0.025
-123.224	70.315	-0.165	-0.167
-122.210	573.583	0.057	-0.136
-121.195	-200.000	0.032	0.162
