DTS Sentinel unit serial number:	SN413079Multiplexer serial number:	ORYXHardware model number:	OX4-SRSoftware version number:	ORYX F/W v4.00 Oryx Data Collector v3.7.2.0data status	okinstallation	princeton_trtdifferential loss correction	single-endedforward channel	channel 1reverse channel	N/Adate	2019/09/18time	15:26:35forward acquisition time	60.00reverse acquisition time	0.00gamma	496.2192k internal	0.2299k external	0.2299temperature offset calibration	0.9990default loss term (dB/km)	0.3790temperature slope calibration	1.0000multiplexer offset coefficient	1.0000multiplexer slope coefficient	1.0000fibre end	0.00T internal ref (°C)	36.03T ext. ref 1 (°C)	0.76T ext. ref 2 (°C)	34.51length (m)	temperature (°C)	Stokes	anti-Stokes-747.200	62.392	-0.070	-0.071
-746.185	212.402	-0.139	0.224
-745.171	140.298	-0.143	0.192
-744.156	114.827	-0.173	0.216
-743.142	765.107	0.078	0.217
-742.127	430.339	0.150	0.331
-741.112	105.293	-0.073	0.088
-740.098	412.778	-0.183	0.397
-739.083	59.290	0.185	0.186
-738.069	-74.809	-0.291	-0.107
-737.054	74.858	-0.222	-0.239
-736.039	392.962	0.098	-0.207
-735.025	-168.133	0.225	-0.009
-734.010	-200.000	-0.020	0.187
-732.996	-67.150	-0.255	-0.102
-731.981	-124.334	0.141	0.022
-730.966	-68.879	-0.289	-0.114
-729.952	-132.105	-0.043	-0.006
-728.937	-200.000	-0.066	-0.313
-727.923	-66.765	-0.160	-0.064
-726.908	-125.313	-0.104	-0.016
-725.894	-200.000	0.062	-0.455
-724.879	-59.766	0.029	-0.013
-723.864	418.448	-0.129	0.282
-722.850	21.426	-0.243	-0.201
-721.835	-79.411	-0.439	-0.151
-720.821	67.256	-0.239	-0.248
-719.806	-86.077	0.113	0.036
-718.791	-99.536	-0.106	0.027
-717.777	-100.900	-0.006	-0.002
-716.762	-79.733	-0.153	0.052
-715.748	-200.000	0.033	0.377
-714.733	145.554	0.203	0.277
-713.718	800.000	-0.022	-0.096
-712.704	-116.323	-0.081	-0.015
-711.689	-38.835	-0.248	0.133
-710.675	-116.729	0.081	0.015
-709.660	-141.121	-0.326	0.034
-708.645	124.674	-0.034	-0.044
-707.631	-200.000	-0.040	-0.259
-706.616	-142.246	0.381	0.038
-705.602	274.376	0.032	0.057
-704.587	-113.813	-0.237	-0.047
-703.572	-73.168	-0.259	-0.097
-702.558	-14.557	-0.503	0.329
-701.543	-60.474	0.099	-0.043
-700.529	-75.303	0.184	-0.067
-699.514	800.000	-0.048	0.137
-698.499	307.890	0.046	0.087
-697.485	-106.419	0.047	-0.011
-696.470	5.756	0.172	0.129
-695.456	576.813	-0.088	0.219
-694.441	-4.209	0.130	0.092
-693.426	-22.445	0.183	-0.113
-692.412	-71.979	-0.356	0.135
-691.397	-158.373	0.245	0.014
-690.383	9.957	0.224	0.173
-689.368	-25.113	0.111	0.067
-688.354	-81.193	0.310	0.104
-687.339	76.680	0.083	-0.090
-686.324	-103.677	0.187	-0.045
-685.310	382.991	0.049	-0.103
-684.295	-54.875	0.151	-0.069
-683.281	800.000	-0.157	-0.548
-682.266	304.489	0.088	0.167
-681.251	120.671	0.140	0.178
-680.237	100.580	-0.037	-0.043
-679.222	-70.634	-0.190	-0.073
-678.208	6.169	0.127	0.095
-677.193	-200.000	-0.004	0.109
-676.178	147.283	-0.229	-0.313
-675.164	145.905	0.130	-0.178
-674.149	-62.104	-0.176	-0.075
-673.135	126.429	-0.138	-0.178
-672.120	120.585	-0.254	-0.321
-671.105	-197.674	-0.372	-0.002
-670.091	-200.000	0.020	0.259
-669.076	27.834	-0.209	0.179
-668.062	512.572	-0.026	0.063
-667.047	-126.906	0.153	0.023
-666.032	33.190	0.204	-0.180
-665.018	320.924	-0.047	0.092
-664.003	328.134	-0.129	-0.252
-662.989	-22.575	0.446	0.274
-661.974	-200.000	-0.006	0.100
-660.959	98.121	-0.288	-0.337
-659.945	-21.484	0.097	0.060
-658.930	-31.280	0.088	-0.051
-657.916	31.673	-0.227	-0.198
-656.901	-125.518	-0.340	-0.053
-655.886	800.000	-0.117	0.353
-654.872	-167.163	-0.214	0.009
-653.857	304.279	-0.071	-0.133
-652.843	-200.000	0.028	-0.222
-651.828	-105.188	-0.125	-0.029
-650.814	-200.000	-0.060	-0.273
-649.799	24.075	0.215	-0.180
-648.784	-143.147	-0.420	0.041
-647.770	-61.085	0.473	0.203
-646.755	-78.509	0.144	0.050
-645.741	-200.000	0.009	-0.247
-644.726	7.484	-0.270	0.205
-643.711	-83.490	-0.175	-0.057
-642.697	-81.166	-0.094	0.032
-641.682	201.542	-0.019	0.030
-640.668	-200.000	0.014	-0.168
-639.653	93.300	-0.213	-0.245
-638.638	-90.580	0.252	0.074
-637.624	-83.954	-0.088	-0.029
-636.609	21.533	-0.316	0.261
-635.595	24.095	0.023	0.019
-634.580	199.953	0.044	0.069
-633.565	216.342	-0.095	-0.153
-632.551	-200.000	0.031	-0.311
-631.536	410.751	-0.077	-0.165
-630.522	-200.000	-0.042	-0.295
-629.507	18.661	-0.114	-0.093
-628.492	158.686	-0.128	-0.180
-627.478	-174.171	0.236	-0.007
-626.463	-200.000	0.090	-0.435
-625.449	241.577	-0.073	-0.124
-624.434	86.706	-0.118	0.132
-623.419	103.951	0.297	0.354
-622.405	-164.415	0.264	-0.012
-621.390	-47.388	-0.187	-0.092
-620.376	212.553	-0.038	-0.061
-619.361	113.960	-0.098	0.121
-618.346	-143.664	0.118	0.011
-617.332	-64.288	0.156	0.065
-616.317	118.235	0.148	0.186
-615.303	-9.927	-0.263	0.177
-614.288	118.926	-0.069	0.087
-613.273	-24.720	-0.225	-0.136
-612.259	-200.000	0.000	0.157
-611.244	-89.842	-0.311	0.092
-610.230	79.122	-0.347	-0.377
-609.215	-110.336	0.249	-0.053
-608.201	-118.806	0.246	0.044
-607.186	633.154	0.080	0.206
-606.171	-66.392	-0.410	-0.165
-605.157	-200.000	-0.005	0.210
-604.142	-200.000	-0.063	-0.399
-603.128	-116.046	-0.217	-0.041
-602.113	82.966	0.063	0.069
-601.098	80.999	-0.147	-0.161
-600.084	800.000	0.085	-0.289
-599.069	-200.000	-0.006	0.272
-598.055	128.637	0.054	-0.069
-597.040	-119.841	-0.259	0.045
-596.025	-104.713	-0.149	-0.035
-595.011	451.961	0.119	-0.267
-593.996	-104.767	0.270	0.063
-592.982	-132.040	0.394	0.052
-591.967	7.950	0.148	0.113
-590.952	-20.359	-0.324	0.202
-589.938	-67.302	-0.129	0.051
-588.923	-40.060	0.129	0.068
-587.909	-77.627	0.175	-0.061
-586.894	-81.237	0.264	0.088
-585.879	300.423	0.121	0.225
-584.865	62.987	0.282	0.286
-583.850	-12.961	0.207	-0.136
-582.836	49.719	0.117	0.112
-581.821	-101.408	-0.190	-0.047
-580.806	14.015	-0.223	-0.176
-579.792	-200.000	-0.050	0.273
-578.777	-76.824	-0.356	0.126
-577.763	159.544	-0.088	0.124
-576.748	623.173	0.169	-0.432
-575.733	-90.966	0.210	0.061
-574.719	120.737	0.011	0.014
-573.704	26.689	0.230	-0.195
-572.690	-200.000	0.003	-0.037
-571.675	-41.672	-0.028	-0.015
-570.661	-190.340	0.441	0.005
-569.646	-109.886	0.138	0.029
-568.631	-134.875	-0.267	-0.033
-567.617	-126.015	-0.041	0.006
-566.602	-48.736	-0.138	0.067
-565.588	37.490	0.286	0.257
-564.573	-25.563	-0.302	-0.181
-563.558	332.516	-0.169	0.331
-562.544	327.630	-0.148	0.287
-561.529	-200.000	0.011	-0.188
-560.515	-49.441	-0.215	0.104
-559.500	-200.000	-0.002	0.167
-558.485	-135.112	-0.302	0.037
-557.471	-200.000	-0.116	-0.532
-556.456	768.413	-0.165	-0.455
-555.442	423.352	0.071	0.154
-554.427	-100.102	0.262	0.066
-553.412	-200.000	-0.026	0.133
-552.398	-55.465	0.248	-0.112
-551.383	640.088	-0.142	-0.365
-550.369	175.545	0.084	-0.124
-549.354	728.516	-0.004	-0.011
-548.339	326.116	-0.106	-0.206
-547.325	-115.017	0.234	0.045
-546.310	249.386	0.106	0.182
-545.296	95.056	-0.054	0.062
-544.281	-200.000	-0.016	-0.125
-543.266	-200.000	0.036	0.535
-542.252	-51.821	0.225	-0.106
-541.237	268.113	-0.137	0.242
-540.223	800.000	-0.092	-0.315
-539.208	166.643	-0.213	-0.306
-538.193	800.000	0.105	0.330
-537.179	747.145	-0.032	0.088
-536.164	-200.000	0.041	-0.195
-535.150	31.966	0.101	-0.088
-534.135	-200.000	0.060	0.297
-533.121	800.000	0.019	-0.060
-532.106	-146.903	0.225	0.020
-531.091	-200.000	-0.009	-0.187
-530.077	-66.554	0.200	0.080
-529.062	-200.000	0.020	0.144
-528.048	-84.892	0.187	0.059
-527.033	350.638	0.039	-0.079
-526.018	-200.000	0.005	-0.238
-525.004	-126.857	0.465	-0.069
-523.989	77.631	-0.175	-0.188
-522.975	-200.000	-0.020	0.144
-521.960	48.893	-0.088	-0.084
-520.945	-26.851	-0.313	0.185
-519.931	-70.703	0.050	0.019
-518.916	-73.410	-0.224	0.083
-517.902	62.743	0.206	-0.208
-516.887	-113.496	-0.186	-0.037
-515.872	263.183	-0.043	0.075
-514.858	-200.000	0.021	-0.145
-513.843	-200.000	-0.058	-0.320
-512.829	-200.000	0.059	-0.264
-511.814	776.779	-0.168	-0.463
-510.799	27.499	-0.052	0.044
-509.785	-146.284	-0.179	-0.016
-508.770	224.437	0.175	-0.286
-507.756	53.403	0.164	-0.159
-506.741	72.278	-0.096	-0.101
-505.726	-23.817	0.171	-0.104
-504.712	232.155	-0.142	-0.236
-503.697	351.408	-0.129	-0.258
-502.683	-14.024	-0.176	-0.115
-501.668	-32.507	-0.265	0.149
-500.653	159.809	-0.205	-0.289
-499.639	-156.002	0.222	0.014
-498.624	93.438	-0.261	-0.299
-497.610	171.413	-0.151	-0.219
-496.595	-200.000	-0.027	-0.174
-495.581	204.053	0.073	0.114
-494.566	75.491	0.084	-0.090
-493.551	-113.755	-0.207	-0.041
-492.537	163.379	0.156	0.222
-491.522	-85.908	0.053	-0.016
-490.508	-20.962	-0.191	0.118
-489.493	-200.000	0.081	0.417
-488.478	-131.379	-0.163	0.022
-487.464	8.833	-0.421	-0.320
-486.449	-152.607	0.408	0.029
-485.435	36.712	0.109	0.097
-484.420	-9.836	0.130	0.088
-483.405	-81.308	-0.259	-0.086
-482.391	13.757	0.398	-0.312
-481.376	-200.000	0.020	0.157
-480.362	12.390	0.385	-0.299
-479.347	152.075	-0.044	-0.060
-478.332	-179.285	-0.129	0.003
-477.318	-200.000	0.016	-0.213
-476.303	-15.504	-0.128	0.082
-475.289	-200.000	0.006	0.112
-474.274	346.356	0.134	-0.267
-473.259	39.364	-0.096	0.087
-472.245	800.000	-0.044	-0.123
-471.230	800.000	-0.016	0.054
-470.216	800.000	-0.031	-0.138
-469.201	24.873	-0.347	0.290
-468.186	-2.415	-0.144	0.102
-467.172	-123.828	-0.154	0.024
-466.157	-200.000	-0.017	-0.223
-465.143	-79.512	0.394	0.134
-464.128	-76.638	0.121	0.043
-463.113	-200.000	0.012	-0.117
-462.099	-138.375	0.281	-0.031
-461.084	118.197	0.151	0.188
-460.070	-159.419	-0.070	-0.004
-459.055	-166.875	0.208	0.009
-458.040	-107.885	0.160	0.035
-457.026	-40.666	0.229	-0.120
-456.011	-200.000	0.022	0.098
-454.997	-200.000	-0.116	-0.000
-453.982	-28.919	0.190	0.110
-452.968	-200.000	0.009	-0.055
-451.953	-165.353	0.139	0.006
-450.938	800.000	-0.043	0.162
-449.924	125.561	0.205	0.261
-448.909	148.624	0.037	0.050
-447.895	-74.288	0.142	-0.052
-446.880	-200.000	0.009	0.479
-445.865	-102.759	0.236	-0.057
-444.851	-29.821	-0.224	0.129
-443.836	-24.103	0.210	-0.126
-442.822	-52.453	-0.168	0.079
-441.807	-174.903	0.138	0.004
-440.792	-39.082	0.142	-0.075
-439.778	-200.000	-0.016	0.247
-438.763	-189.573	0.280	0.003
-437.749	-5.819	-0.101	-0.069
-436.734	-73.439	-0.263	-0.097
-435.719	-135.030	-0.317	0.039
-434.705	-92.257	-0.156	0.044
-433.690	-200.000	0.006	-0.169
-432.676	50.869	-0.192	-0.183
-431.661	-62.980	-0.183	0.076
-430.646	-83.452	-0.195	0.063
-429.632	244.660	0.225	0.381
-428.617	203.033	-0.127	0.198
-427.603	61.238	0.107	-0.108
-426.588	800.000	0.040	-0.167
-425.573	-67.649	-0.236	0.093
-424.559	-3.529	-0.140	-0.098
-423.544	-135.426	-0.211	-0.025
-422.530	308.478	-0.120	-0.226
-421.515	800.000	-0.013	-0.048
-420.500	-200.000	-0.010	-0.235
-419.486	-200.000	-0.005	-0.145
-418.471	-200.000	-0.018	0.114
-417.457	-17.605	0.275	-0.174
-416.442	42.754	0.153	0.141
-415.428	-200.000	0.001	0.127
-414.413	-200.000	-0.010	-0.093
-413.398	294.208	0.124	-0.228
-412.384	-106.441	-0.158	-0.036
-411.369	18.627	0.116	0.094
-410.355	-18.675	-0.322	-0.202
-409.340	-173.748	-0.181	-0.005
-408.325	187.462	0.256	0.384
-407.311	107.183	0.224	0.268
-406.296	-70.255	0.148	-0.057
-405.282	608.806	0.032	-0.080
-404.267	-112.633	-0.313	-0.063
-403.252	-35.966	-0.093	-0.051
-402.238	84.525	-0.073	0.080
-401.223	145.179	-0.276	-0.372
-400.209	103.106	0.226	-0.267
-399.194	-37.143	-0.129	0.070
-398.179	-149.947	0.506	0.040
-397.165	-74.229	0.422	0.153
-396.150	14.741	-0.153	0.120
-395.136	-200.000	0.015	-0.181
-394.121	132.607	0.093	0.121
-393.106	800.000	-0.036	0.105
-392.092	-200.000	-0.009	-0.387
-391.077	-52.304	-0.165	-0.077
-390.063	-104.857	-0.148	0.034
-389.048	-100.783	0.190	-0.047
-388.033	23.180	0.241	-0.199
-387.019	-98.424	-0.166	-0.043
-386.004	-83.135	0.082	-0.027
-384.990	430.440	-0.080	0.174
-383.975	-164.189	-0.154	-0.007
-382.960	61.998	0.190	0.190
-381.946	170.371	-0.064	0.093
-380.931	-86.779	0.045	0.014
-379.917	546.505	-0.058	0.139
-378.902	800.000	-0.027	0.086
-377.888	30.563	0.334	0.287
-376.873	-101.100	-0.305	0.075
-375.858	800.000	0.017	-0.050
-374.844	439.464	0.096	0.211
-373.829	-200.000	-0.006	-0.032
-372.815	21.402	0.145	0.119
-371.800	407.797	-0.015	-0.033
-370.785	-158.607	-0.232	0.013
-369.771	170.723	0.076	-0.110
-368.756	-200.000	0.011	-0.085
-367.742	-12.770	0.215	-0.141
-366.727	52.101	0.146	-0.140
-365.712	800.000	-0.029	0.122
-364.698	-54.269	-0.142	-0.065
-363.683	279.940	0.120	0.216
-362.669	-87.181	0.123	-0.038
-361.654	800.000	0.073	-0.212
-360.639	-158.491	0.267	-0.016
-359.625	-159.548	0.199	0.011
-358.610	277.442	-0.092	0.165
-357.596	-63.132	-0.237	-0.098
-356.581	-22.045	-0.177	0.108
-355.566	126.303	-0.185	-0.235
-354.552	-112.444	0.412	-0.083
-353.537	-115.950	0.291	-0.054
-352.523	52.080	-0.135	-0.130
-351.508	800.000	-0.059	0.208
-350.493	-145.122	0.162	0.015
-349.479	11.984	0.272	-0.210
-348.464	191.624	-0.184	0.279
-347.450	-4.083	0.122	0.085
-346.435	2.576	-0.065	-0.047
-345.420	-200.000	-0.022	0.297
-344.406	-200.000	-0.001	0.208
-343.391	-200.000	-0.022	-0.119
-342.377	417.636	0.036	-0.077
-341.362	-200.000	0.029	0.161
-340.348	-26.830	-0.224	-0.132
-339.333	-52.998	-0.322	-0.149
-338.318	72.634	0.164	0.172
-337.304	461.210	-0.091	-0.203
-336.289	345.536	-0.140	0.276
-335.275	216.681	0.051	-0.081
-334.260	-97.670	-0.203	-0.053
-333.245	-114.096	-0.157	0.031
-332.231	-159.513	-0.073	-0.004
-331.216	-127.933	0.217	-0.031
-330.202	170.608	-0.040	-0.058
-329.187	-47.170	0.007	0.004
-328.172	569.210	0.072	-0.175
-327.158	800.000	-0.076	-0.238
-326.143	-102.424	0.199	-0.048
-325.129	-73.553	0.317	0.116
-324.114	44.854	-0.116	-0.108
-323.099	-200.000	-0.004	0.072
-322.085	224.345	-0.190	0.309
-321.070	-113.643	-0.242	-0.047
-320.056	800.000	0.053	-0.148
-319.041	61.908	-0.119	-0.119
-318.026	4.798	-0.298	0.220
-317.012	-111.742	0.247	0.050
-315.997	-58.378	-0.096	0.042
-314.983	-43.068	0.212	0.108
-313.968	266.104	0.164	-0.288
-312.953	402.422	-0.044	0.092
-311.939	471.504	-0.050	-0.113
-310.924	-115.239	-0.113	-0.022
-309.910	-168.372	-0.206	0.008
-308.895	149.483	-0.137	0.186
-307.880	-150.141	0.259	-0.020
-306.866	800.000	0.047	-0.201
-305.851	-122.562	-0.392	0.064
-304.837	26.140	0.255	-0.213
-303.822	-0.312	-0.120	-0.085
-302.807	-96.471	0.229	-0.061
-301.793	800.000	-0.058	0.185
-300.778	79.446	0.145	-0.156
-299.764	175.884	-0.097	0.141
-298.749	-77.329	-0.279	0.097
-297.735	-12.319	-0.164	-0.108
-296.720	64.047	-0.121	0.122
-295.705	67.323	0.167	0.171
-294.691	-41.784	-0.293	-0.151
-293.676	-65.635	-0.326	0.131
-292.662	51.467	-0.022	0.021
-291.647	12.602	0.017	0.013
-290.632	-113.026	-0.312	0.062
-289.618	-200.000	0.032	0.388
-288.603	11.546	0.153	0.118
-287.589	-25.534	-0.223	-0.132
-286.574	503.109	0.062	-0.144
-285.559	786.871	-0.053	0.146
-284.545	-168.096	0.129	-0.005
-283.530	-83.154	0.144	-0.046
-282.516	-15.892	0.097	-0.062
-281.501	-36.624	-0.153	-0.082
-280.486	241.019	-0.107	0.178
-279.472	59.989	-0.266	0.263
-278.457	-99.439	-0.066	-0.017
-277.443	42.367	-0.248	0.226
-276.428	800.000	0.067	0.195
-275.413	-81.447	-0.247	-0.082
-274.399	-19.359	0.144	-0.089
-273.384	800.000	-0.072	-0.212
-272.370	-98.554	-0.239	-0.061
-271.355	358.889	0.106	-0.213
-270.340	-60.509	-0.206	-0.088
-269.326	800.000	0.103	0.332
-268.311	261.555	0.069	-0.120
-267.297	-7.623	0.144	-0.097
-266.282	-160.796	0.420	-0.022
-265.267	284.167	0.089	-0.160
-264.253	65.757	-0.140	0.142
-263.238	-155.385	0.313	-0.020
-262.224	-73.245	0.336	0.123
-261.209	344.891	-0.117	-0.230
-260.195	800.000	-0.075	-0.244
-259.180	-21.054	0.095	-0.058
-258.165	356.632	0.122	0.243
-257.151	-148.678	0.260	0.021
-256.136	-50.130	-0.180	-0.085
-255.122	480.595	0.081	-0.183
-254.107	-91.727	0.395	-0.112
-253.092	110.383	-0.086	0.103
-252.078	-136.227	-0.098	0.011
-251.063	800.000	0.125	-0.351
-250.049	-69.432	0.182	0.070
-249.034	110.195	0.016	0.019
-248.019	47.150	0.128	0.119
-247.005	420.752	-0.224	-0.481
-245.990	479.777	0.059	-0.133
-244.976	-52.471	-0.136	-0.063
-243.961	288.525	-0.306	-0.555
-242.946	-200.000	-0.033	-0.154
-241.932	113.308	0.076	-0.093
-240.917	-66.748	0.236	0.094
-239.903	449.891	0.068	0.150
-238.888	296.608	0.067	0.124
-237.873	130.000	-0.049	-0.063
-236.859	451.064	-0.089	0.196
-235.844	-69.824	0.371	0.142
-234.830	800.000	-0.040	-0.167
-233.815	648.194	0.086	0.221
-232.800	-106.719	-0.352	0.078
-231.786	-200.000	0.002	0.152
-230.771	-153.287	0.382	0.027
-229.757	-200.000	-0.019	0.248
-228.742	752.654	0.102	-0.276
-227.727	-18.977	-0.312	-0.194
-226.713	-165.223	0.382	-0.017
-225.698	-200.000	0.008	-0.452
-224.684	-200.000	0.041	-0.224
-223.669	800.000	-0.152	0.460
-222.655	-127.894	0.309	-0.044
-221.640	255.251	0.084	0.143
-220.625	-200.000	0.054	0.450
-219.611	-7.055	0.195	0.132
-218.596	-125.982	0.329	-0.050
-217.582	-200.000	0.005	-0.095
-216.567	-19.872	-0.293	0.181
-215.552	-43.464	0.305	0.154
-214.538	-106.996	-0.233	-0.051
-213.523	112.804	0.078	-0.095
-212.509	800.000	-0.053	0.178
-211.494	-0.421	-0.145	0.103
-210.479	-132.467	0.154	0.020
-209.465	-200.000	0.036	0.396
-208.450	-52.178	-0.396	0.183
-207.436	84.218	0.418	0.456
-206.421	10.537	-0.044	0.034
-205.406	-118.572	-0.228	0.040
-204.392	-55.387	-0.149	0.067
-203.377	118.891	0.171	-0.211
-202.363	-200.000	0.061	-0.274
-201.348	68.563	0.266	0.273
-200.333	-200.000	-0.007	0.051
-199.319	-200.000	0.047	-0.241
-198.304	30.201	-0.129	-0.110
-197.290	-64.301	-0.293	0.119
-196.275	-88.613	-0.214	-0.064
-195.260	-67.532	0.169	0.066
-194.246	191.431	0.092	0.139
-193.231	-3.989	0.094	-0.065
-192.217	171.413	0.155	0.221
-191.202	-13.495	-0.135	0.087
-190.187	-55.581	-0.079	0.036
-189.173	-47.764	-0.056	0.027
-188.158	-27.171	0.343	-0.200
-187.144	-146.049	0.244	0.022
-186.129	83.270	0.165	0.179
-185.114	382.174	-0.072	0.148
-184.100	-200.000	0.013	0.133
-183.085	-72.478	-0.126	0.047
-182.071	-40.677	0.015	-0.008
-181.056	-200.000	-0.039	-0.175
-180.042	800.000	0.055	0.183
-179.027	99.838	0.033	0.038
-178.012	-100.769	0.198	-0.049
-176.998	-61.877	-0.164	-0.068
-175.983	-6.478	-0.251	0.171
-174.969	211.173	-0.221	0.347
-173.954	65.640	-0.389	0.393
-172.939	-108.065	-0.123	0.027
-171.925	156.858	0.147	0.203
-170.910	454.552	-0.044	-0.098
-169.896	-174.900	0.156	0.004
-168.881	-200.000	0.001	0.095
-167.866	45.154	-0.107	0.098
-166.852	-88.683	-0.304	0.090
-165.837	-99.870	0.068	0.017
-164.823	-200.000	-0.053	0.281
-163.808	-79.166	0.404	0.137
-162.793	25.281	0.053	-0.044
-161.779	-145.911	-0.227	0.020
-160.764	404.412	0.032	-0.068
-159.750	126.899	0.077	0.097
-158.735	132.932	-0.148	-0.191
-157.720	333.083	-0.121	0.234
-156.706	93.139	-0.059	0.067
-155.691	-200.000	-0.000	-0.020
-154.677	96.235	-0.178	0.203
-153.662	-125.286	0.144	-0.022
-152.647	-200.000	0.016	0.135
-151.633	-90.004	-0.339	0.099
-150.618	-85.832	0.146	0.045
-149.604	239.307	0.110	-0.182
-148.589	-9.080	0.212	0.141
-147.574	-100.304	0.175	0.043
-146.560	80.106	0.130	-0.139
-145.545	642.158	-0.076	-0.192
-144.531	174.997	0.150	-0.217
-143.516	-108.328	0.244	0.052
-142.502	-200.000	0.004	-0.601
-141.487	320.821	-0.125	0.237
-140.472	-74.805	0.125	0.045
-139.458	-171.468	-0.015	0.001
-138.443	-200.000	0.002	-0.142
-137.429	110.357	0.075	0.090
-136.414	-20.082	-0.230	-0.141
-135.399	-125.033	0.101	0.016
-134.385	60.823	-0.074	-0.074
-133.370	-134.075	0.116	0.014
-132.356	-20.940	-0.273	0.167
-131.341	45.533	-0.106	0.097
-130.326	326.342	0.145	0.276
-129.312	5.817	0.121	0.089
-128.297	-83.193	0.147	-0.047
-127.283	238.589	-0.144	-0.239
-126.268	-38.691	-0.274	-0.144
-125.253	-26.519	-0.118	0.069
-124.239	107.476	-0.197	0.234
-123.224	-22.666	0.095	-0.057
-122.210	-94.795	-0.170	-0.046
