DTS Sentinel unit serial number:	SN413079Multiplexer serial number:	ORYXHardware model number:	OX4-SRSoftware version number:	ORYX F/W v4.00 Oryx Data Collector v3.7.2.0data status	okinstallation	princeton_trtdifferential loss correction	single-endedforward channel	channel 1reverse channel	N/Adate	2019/09/12time	13:40:11forward acquisition time	60.00reverse acquisition time	0.00gamma	496.2192k internal	0.2292k external	0.2292temperature offset calibration	1.0051default loss term (dB/km)	0.3790temperature slope calibration	1.0000multiplexer offset coefficient	1.0000multiplexer slope coefficient	1.0000fibre end	0.00T internal ref (°C)	41.06T ext. ref 1 (°C)	2.15T ext. ref 2 (°C)	35.27length (m)	temperature (°C)	Stokes	anti-Stokes-747.200	-24.771	-0.408	0.248
-746.185	138.341	0.182	0.244
-745.171	128.850	0.129	-0.168
-744.156	-145.740	-0.063	-0.006
-743.142	-22.642	0.261	-0.162
-742.127	-144.240	-0.027	0.003
-741.112	474.687	0.089	0.205
-740.098	-71.732	0.194	-0.074
-739.083	-68.840	0.247	-0.098
-738.069	122.639	0.168	0.215
-737.054	-79.700	-0.099	0.034
-736.039	-156.053	-0.324	0.021
-735.025	-153.018	-0.163	0.012
-734.010	-200.000	-0.008	0.060
-732.996	67.599	-0.122	0.128
-731.981	-108.848	-0.287	0.063
-730.966	-119.040	0.301	-0.054
-729.952	-200.000	0.016	-0.392
-728.937	-72.543	-0.270	0.102
-727.923	-200.000	-0.045	-0.368
-726.908	-200.000	-0.024	-0.467
-725.894	800.000	-0.029	-0.123
-724.879	-107.275	0.474	-0.107
-723.864	800.000	-0.131	-0.446
-722.850	-200.000	0.003	0.185
-721.835	254.194	-0.183	-0.319
-720.821	140.083	-0.086	-0.116
-719.806	-97.282	0.167	-0.045
-718.791	-128.107	-0.213	-0.031
-717.777	227.546	-0.065	0.109
-716.762	237.681	0.167	-0.284
-715.748	800.000	-0.090	0.271
-714.733	52.533	-0.105	-0.102
-713.718	-112.096	0.264	0.054
-712.704	-91.007	0.198	0.058
-711.689	-200.000	-0.014	-0.114
-710.675	-61.663	-0.127	-0.054
-709.660	45.870	0.224	0.212
-708.645	-109.907	-0.215	0.046
-707.631	6.808	-0.178	0.136
-706.616	-5.154	-0.167	-0.117
-705.602	207.031	-0.022	0.035
-704.587	333.628	0.025	0.049
-703.572	-47.277	0.289	-0.144
-702.558	-0.427	-0.103	0.075
-701.543	-56.946	-0.035	0.016
-700.529	-200.000	0.021	-0.194
-699.514	-55.640	-0.073	0.033
-698.499	800.000	0.062	0.208
-697.485	-200.000	-0.011	-0.199
-696.470	24.237	-0.045	0.038
-695.456	800.000	0.030	0.109
-694.441	-147.895	-0.272	0.023
-693.426	-192.764	-0.294	0.003
-692.412	-96.431	-0.245	0.066
-691.397	26.411	0.063	0.054
-690.383	8.730	-0.078	-0.060
-689.368	-138.740	0.175	-0.019
-688.354	-99.895	-0.258	0.066
-687.339	168.115	-0.201	0.292
-686.324	-119.364	-0.242	0.043
-685.310	150.967	0.287	0.398
-684.295	318.372	0.049	0.095
-683.281	224.625	-0.056	-0.093
-682.266	-194.145	0.063	-0.001
-681.251	38.666	-0.163	-0.148
-680.237	169.038	-0.042	-0.062
-679.222	-85.828	0.191	0.060
-678.208	609.986	-0.114	-0.290
-677.193	-74.441	-0.390	-0.144
-676.178	27.149	-0.112	0.096
-675.164	-165.591	0.366	0.016
-674.149	-132.963	-0.247	0.032
-673.135	201.242	-0.059	0.093
-672.120	677.383	-0.072	0.191
-671.105	-141.304	0.088	-0.009
-670.091	-45.931	0.238	-0.120
-669.076	-113.838	-0.310	0.061
-668.062	331.979	0.101	-0.199
-667.047	-200.000	-0.039	0.379
-666.032	-200.000	-0.055	0.462
-665.018	800.000	0.022	-0.074
-664.003	-102.055	0.073	0.018
-662.989	-200.000	-0.048	-0.281
-661.974	-96.248	-0.182	0.049
-660.959	-142.105	-0.440	-0.045
-659.945	-25.479	-0.305	0.184
-658.930	-142.944	0.178	0.018
-657.916	-174.380	0.300	-0.009
-656.901	314.575	-0.088	-0.169
-655.886	-200.000	-0.022	-0.164
-654.872	173.201	-0.098	-0.144
-653.857	-92.406	-0.202	0.058
-652.843	-101.036	-0.401	-0.100
-651.828	-70.167	0.269	-0.104
-650.814	18.447	-0.090	-0.073
-649.799	-200.000	-0.011	0.159
-648.784	608.366	-0.074	0.188
-647.770	-160.500	0.200	-0.011
-646.755	-40.464	-0.068	-0.036
-645.741	-85.274	-0.189	0.060
-644.726	800.000	-0.030	0.093
-643.711	-200.000	0.048	0.246
-642.697	82.337	0.097	0.107
-641.682	77.200	0.163	-0.176
-640.668	15.545	-0.052	-0.042
-639.653	-53.279	-0.409	-0.191
-638.638	141.717	0.074	-0.100
-637.624	-31.030	0.051	-0.029
-636.609	204.807	-0.153	-0.242
-635.595	-3.018	-0.340	-0.242
-634.580	-70.531	-0.136	-0.053
-633.565	-200.000	-0.004	0.081
-632.551	-115.640	0.090	0.017
-631.536	-131.935	-0.170	-0.023
-630.522	-101.613	0.308	0.076
-629.507	153.425	0.097	-0.136
-628.492	-148.254	-0.160	0.013
-627.478	50.084	-0.177	-0.171
-626.463	127.584	-0.171	-0.221
-625.449	-39.899	-0.220	-0.117
-624.434	-200.000	-0.015	-0.317
-623.419	800.000	-0.023	0.089
-622.405	316.526	0.054	-0.103
-621.390	-14.899	-0.489	-0.319
-620.376	42.216	0.019	0.017
-619.361	248.628	-0.095	-0.164
-618.346	-80.933	-0.382	0.129
-617.332	-110.455	0.278	0.059
-616.317	-61.818	0.153	0.065
-615.303	20.575	0.115	-0.095
-614.288	-200.000	-0.048	0.315
-613.273	-200.000	0.018	0.170
-612.259	-129.818	-0.149	-0.021
-611.244	-145.018	-0.435	0.040
-610.230	-2.221	0.130	-0.093
-609.215	123.575	-0.164	0.209
-608.201	329.554	-0.162	-0.318
-607.186	800.000	-0.083	-0.275
-606.171	800.000	0.080	0.287
-605.157	800.000	0.076	0.250
-604.142	-68.554	-0.323	0.127
-603.128	126.857	-0.230	0.296
-602.113	-200.000	0.050	0.272
-601.098	241.547	0.077	0.131
-600.084	800.000	-0.069	-0.218
-599.069	273.076	-0.098	-0.177
-598.055	313.092	-0.059	0.113
-597.040	759.267	0.069	0.192
-596.025	-59.215	0.158	0.069
-595.011	772.467	-0.031	0.086
-593.996	-150.006	-0.308	-0.024
-592.982	-200.000	0.042	0.204
-591.967	21.961	0.154	-0.128
-590.952	800.000	-0.096	0.385
-589.938	76.097	-0.134	-0.145
-588.923	-71.708	0.038	0.014
-587.909	-188.472	-0.076	-0.001
-586.894	-15.273	0.282	0.184
-585.879	-99.151	-0.479	-0.123
-584.865	192.062	-0.192	0.294
-583.850	-43.480	0.146	-0.075
-582.836	115.158	-0.139	0.172
-581.821	670.993	-0.096	0.253
-580.806	-88.499	0.086	0.026
-579.792	-110.299	0.200	-0.042
-578.777	207.419	-0.304	-0.483
-577.763	64.298	0.102	-0.105
-576.748	-80.652	0.118	-0.040
-575.733	-83.262	0.231	0.075
-574.719	-158.568	0.312	-0.018
-573.704	-28.832	0.397	0.232
-572.690	21.601	-0.105	-0.087
-571.675	-46.208	0.250	0.125
-570.661	18.290	0.107	-0.087
-569.646	-7.279	0.138	-0.095
-568.631	-139.046	0.075	-0.008
-567.617	747.652	0.023	0.063
-566.602	-200.000	0.019	-0.145
-565.588	104.079	0.194	0.232
-564.573	-73.033	-0.441	0.165
-563.558	-200.000	0.020	0.121
-562.544	337.452	-0.123	-0.243
-561.529	-97.928	0.070	-0.018
-560.515	-200.000	-0.004	-0.062
-559.500	-48.303	-0.244	-0.120
-558.485	-112.470	-0.330	0.067
-557.471	-200.000	-0.003	0.047
-556.456	-20.519	0.145	-0.091
-555.442	-119.201	0.168	-0.030
-554.427	-200.000	-0.035	0.185
-553.412	111.475	-0.075	0.092
-552.398	-122.225	0.067	-0.011
-551.383	614.239	0.096	0.246
-550.369	298.251	0.112	-0.209
-549.354	-98.296	-0.172	-0.045
-548.339	19.929	0.027	-0.022
-547.325	800.000	-0.046	0.198
-546.310	800.000	0.056	0.222
-545.296	64.816	0.134	-0.137
-544.281	-200.000	0.005	0.100
-543.266	-71.700	0.260	-0.098
-542.252	-47.130	0.029	0.014
-541.237	182.141	-0.158	0.237
-540.223	-17.969	0.173	-0.110
-539.208	113.700	-0.212	-0.261
-538.193	196.336	0.064	0.099
-537.179	33.666	0.058	0.051
-536.164	-145.026	-0.113	0.010
-535.150	118.563	-0.053	0.066
-534.135	-7.010	0.042	-0.029
-533.121	-125.144	0.155	0.024
-532.106	473.556	0.038	-0.086
-531.091	17.700	-0.314	-0.254
-530.077	343.622	0.151	-0.300
-529.062	-100.259	-0.227	-0.057
-528.048	-51.657	-0.120	-0.057
-527.033	6.533	0.321	-0.242
-526.018	-53.306	-0.104	0.048
-525.004	655.085	-0.072	-0.187
-523.989	-200.000	0.004	0.145
-522.975	92.919	0.176	0.202
-521.960	99.087	-0.050	0.059
-520.945	-166.513	0.145	-0.006
-519.931	80.105	-0.171	-0.187
-518.916	-92.750	-0.084	0.024
-517.902	-143.368	0.451	-0.044
-516.887	-200.000	-0.055	0.312
-515.872	-200.000	0.003	-0.149
-514.858	-200.000	-0.024	-0.118
-513.843	458.951	-0.170	0.383
-512.829	-59.937	0.383	-0.166
-511.814	10.319	-0.132	-0.102
-510.799	9.408	-0.171	0.131
-509.785	74.692	-0.089	-0.095
-508.770	-131.256	-0.022	-0.003
-507.756	472.235	0.081	0.185
-506.741	172.961	0.194	0.283
-505.726	199.879	0.085	-0.133
-504.712	-5.961	0.148	-0.103
-503.697	-137.972	-0.345	0.039
-502.683	-200.000	-0.010	-0.139
-501.668	800.000	0.044	0.171
-500.653	270.854	-0.034	0.061
-499.639	-134.246	-0.066	-0.008
-498.624	-132.408	-0.452	0.059
-497.610	-196.212	-0.030	0.000
-496.595	800.000	0.047	0.142
-495.581	-200.000	0.004	0.060
-494.566	-200.000	-0.014	-0.069
-493.551	800.000	-0.114	-0.420
-492.537	430.232	-0.106	-0.233
-491.522	-200.000	0.001	0.053
-490.508	280.184	-0.066	0.119
-489.493	206.558	-0.076	0.119
-488.478	27.001	-0.252	-0.214
-487.464	-200.000	-0.048	0.280
-486.449	-89.856	-0.242	0.072
-485.435	800.000	-0.145	-0.416
-484.420	-18.803	-0.245	-0.155
-483.405	-103.515	0.198	0.047
-482.391	-72.042	0.092	-0.035
-481.376	-71.516	0.074	-0.028
-480.362	-118.279	-0.283	0.051
-479.347	800.000	0.028	-0.084
-478.332	98.142	-0.109	0.127
-477.318	800.000	0.073	0.215
-476.303	-112.726	-0.053	0.011
-475.289	82.548	-0.164	-0.180
-474.274	-200.000	-0.005	0.213
-473.259	800.000	0.045	-0.188
-472.245	800.000	-0.090	-0.264
-471.230	-52.144	-0.037	-0.018
-470.216	309.051	0.031	0.058
-469.201	-2.448	0.155	-0.110
-468.186	165.733	-0.253	0.363
-467.172	65.385	-0.172	-0.176
-466.157	-200.000	-0.024	-0.414
-465.143	465.418	0.073	-0.164
-464.128	-107.534	0.177	0.039
-463.113	67.180	0.036	-0.037
-462.099	-119.937	0.051	0.009
-461.084	444.356	0.200	-0.444
-460.070	448.099	0.127	-0.284
-459.055	57.861	0.127	-0.126
-458.040	-13.406	-0.119	-0.078
-457.026	-67.819	-0.250	0.099
-456.011	77.491	0.141	-0.152
-454.997	-69.865	-0.036	-0.014
-453.982	-110.057	-0.178	0.038
-452.968	-77.124	-0.186	0.066
-451.953	246.229	0.218	-0.372
-450.938	-200.000	0.010	-0.321
-449.924	45.473	0.087	0.081
-448.909	199.715	0.133	-0.207
-447.895	-39.020	-0.091	0.049
-446.880	300.221	-0.079	0.147
-445.865	231.153	-0.123	0.205
-444.851	-14.543	0.077	0.050
-443.836	2.911	-0.158	-0.116
-442.822	-144.998	-0.279	-0.026
-441.807	800.000	0.060	-0.262
-440.792	106.504	-0.139	0.167
-439.778	-62.224	0.107	-0.045
-438.763	3.300	-0.115	-0.085
-437.749	-19.938	0.302	-0.189
-436.734	-165.411	0.464	-0.021
-435.719	800.000	0.076	0.287
-434.705	75.398	0.322	0.344
-433.690	-57.377	-0.270	-0.120
-432.676	-200.000	-0.063	0.324
-431.661	-82.250	-0.091	-0.030
-430.646	-80.449	0.143	0.048
-429.632	-15.187	0.317	-0.205
-428.617	-200.000	0.011	-0.345
-427.603	-114.372	0.292	-0.057
-426.588	-126.641	-0.541	-0.081
-425.573	181.904	0.298	0.443
-424.559	800.000	-0.027	0.102
-423.544	-200.000	0.059	0.334
-422.530	382.129	0.145	0.300
-421.515	-200.000	0.339	0.001
-420.500	-128.920	-0.235	0.033
-419.486	-19.115	0.297	0.186
-418.471	-200.000	-0.014	0.085
-417.457	171.255	0.003	0.004
-416.442	-166.369	0.309	0.013
-415.428	152.746	0.213	0.295
-414.413	228.391	-0.050	-0.083
-413.398	42.161	-0.181	0.166
-412.384	-99.959	-0.281	-0.071
-411.369	800.000	-0.113	-0.389
-410.355	-67.751	-0.184	0.073
-409.340	800.000	-0.054	0.221
-408.325	800.000	0.047	-0.164
-407.311	-113.077	0.128	0.026
-406.296	371.600	-0.180	-0.370
-405.282	-121.342	-0.226	-0.038
-404.267	-83.381	-0.228	-0.074
-403.252	480.073	-0.056	0.128
-402.238	404.461	0.135	-0.287
-401.223	-65.911	0.110	-0.044
-400.209	61.231	-0.056	-0.057
-399.194	-146.160	-0.169	-0.015
-398.179	-200.000	0.070	-0.397
-397.165	-102.726	-0.387	-0.093
-396.150	-47.727	-0.122	-0.060
-395.136	800.000	-0.014	-0.041
-394.121	-132.424	0.046	-0.006
-393.106	-200.000	0.037	-0.177
-392.092	167.619	0.162	0.233
-391.077	-200.000	-0.026	0.322
-390.063	800.000	0.039	-0.118
-389.048	-200.000	0.024	0.369
-388.033	-141.906	0.133	0.013
-387.019	111.935	-0.163	0.198
-386.004	247.389	-0.142	0.242
-384.990	-115.715	-0.267	0.050
-383.975	-200.000	-0.022	-0.116
-382.960	62.081	0.082	0.082
-381.946	-200.000	0.003	-0.160
-380.931	-103.702	0.304	-0.072
-379.917	-200.000	0.008	0.466
-378.902	419.403	0.124	-0.268
-377.888	253.853	-0.212	-0.365
-376.873	73.886	0.165	-0.174
-375.858	-120.912	-0.413	0.070
-374.844	-3.009	0.117	-0.082
-373.829	-200.000	-0.000	0.112
-372.815	-5.935	-0.087	0.060
-371.800	-200.000	-0.010	-0.202
-370.785	-41.336	0.222	-0.115
-369.771	86.378	0.284	-0.316
-368.756	130.102	0.114	-0.147
-367.742	-136.547	0.217	0.025
-366.727	-200.000	0.047	0.301
-365.712	192.764	-0.201	-0.306
-364.698	114.468	0.082	0.101
-363.683	-200.000	0.043	0.318
-362.669	329.570	0.136	-0.264
-361.654	-107.907	-0.231	0.051
-360.639	-45.113	0.418	0.210
-359.625	480.381	-0.076	0.175
-358.610	-200.000	0.000	-0.059
-357.596	201.469	0.133	0.206
-356.581	-96.552	-0.248	0.066
-355.566	320.000	0.103	-0.196
-354.552	-146.580	0.072	0.006
-353.537	140.132	0.345	-0.459
-352.523	175.684	-0.065	-0.095
-351.508	82.145	-0.165	0.180
-350.493	472.584	0.068	-0.155
-349.479	348.642	-0.064	-0.127
-348.464	-144.531	0.133	-0.012
-347.450	167.923	0.102	0.146
-346.435	-180.683	0.162	0.003
-345.420	-200.000	-0.029	-0.151
-344.406	56.538	0.086	0.084
-343.391	-44.986	0.107	-0.054
-342.377	800.000	0.060	0.253
-341.362	-156.804	0.034	0.002
-340.348	613.598	0.030	0.076
-339.333	-67.584	0.118	0.047
-338.318	800.000	-0.094	-0.331
-337.304	-87.333	0.103	-0.032
-336.289	57.831	0.108	-0.106
-335.275	130.492	-0.195	0.251
-334.260	109.758	-0.097	-0.117
-333.245	-200.000	-0.023	-0.332
-332.231	37.941	0.219	0.196
-331.216	193.364	-0.093	-0.141
-330.202	-47.081	0.155	0.076
-329.187	-104.731	0.178	-0.041
-328.172	409.147	0.022	0.047
-327.158	224.873	-0.060	-0.098
-326.143	73.547	-0.172	0.182
-325.129	-5.241	-0.280	0.194
-324.114	800.000	0.053	0.217
-323.099	-200.000	0.048	0.223
-322.085	434.430	-0.003	0.006
-321.070	-25.428	0.411	-0.245
-320.056	-14.744	0.165	0.107
-319.041	-105.468	-0.262	-0.060
-318.026	435.633	0.063	-0.138
-317.012	196.729	-0.163	-0.250
-315.997	60.085	0.247	0.245
-314.983	-51.378	0.083	0.039
-313.968	129.982	-0.166	0.214
-312.953	-49.182	-0.115	0.056
-311.939	56.581	-0.238	-0.233
-310.924	-200.000	-0.072	0.375
-309.910	-13.236	-0.133	-0.087
-308.895	4.966	0.366	0.271
-307.880	-44.083	0.295	-0.149
-306.866	15.371	0.230	-0.182
-305.851	-52.300	-0.171	0.080
-304.837	196.000	0.215	0.330
-303.822	102.321	-0.083	0.098
-302.807	-200.000	0.055	-0.241
-301.793	-96.974	-0.207	-0.054
-300.778	-79.674	-0.332	0.113
-299.764	-78.687	0.119	-0.041
-298.749	65.498	0.309	-0.314
-297.735	-136.361	-0.436	-0.051
-296.720	6.894	-0.204	0.153
-295.705	6.488	0.108	0.081
-294.691	210.537	-0.183	0.289
-293.676	30.016	0.190	0.163
-292.662	-78.307	0.157	0.054
-291.647	-180.948	0.179	-0.004
-290.632	-200.000	0.040	0.328
-289.618	-103.573	0.233	-0.055
-288.603	-113.654	-0.330	-0.065
-287.589	-169.574	0.257	0.009
-286.574	800.000	-0.010	0.031
-285.559	-200.000	-0.032	0.252
-284.545	-200.000	0.016	0.213
-283.530	-58.962	-0.205	-0.089
-282.516	151.087	-0.030	-0.040
-281.501	-128.316	0.146	0.021
-280.486	-98.199	-0.206	-0.053
-279.472	-44.233	-0.054	0.027
-278.457	16.041	0.235	0.186
-277.443	-95.441	-0.164	0.044
-276.428	-141.765	0.288	-0.029
-275.413	-44.820	-0.447	0.224
-274.399	-130.896	-0.278	0.037
-273.384	-90.349	-0.227	-0.066
-272.370	57.049	-0.246	-0.241
-271.355	37.669	0.202	0.181
-270.340	2.109	-0.202	0.147
-269.326	-200.000	-0.047	-0.290
-268.311	189.116	-0.061	0.091
-267.297	-14.519	0.301	-0.195
-266.282	800.000	0.079	-0.269
-265.267	231.710	-0.168	0.276
-264.253	800.000	-0.038	0.159
-263.238	-200.000	0.009	-0.235
-262.224	800.000	-0.099	0.298
-261.209	-56.487	0.127	0.056
-260.195	-134.963	-0.217	-0.026
-259.180	800.000	-0.043	0.127
-258.165	-200.000	0.080	0.381
-257.151	-200.000	-0.007	-0.269
-256.136	-186.559	0.389	0.006
-255.122	-10.288	-0.057	-0.038
-254.107	-142.263	-0.056	-0.006
-253.092	517.126	0.073	-0.172
-252.078	-112.560	0.488	-0.098
-251.063	12.278	0.060	0.047
-250.049	148.974	-0.113	0.154
-249.034	556.583	-0.110	-0.266
-248.019	24.033	0.254	-0.210
-247.005	135.075	-0.122	0.160
-245.990	-121.131	-0.189	0.032
-244.976	-41.585	0.320	-0.165
-243.961	-130.127	0.270	-0.037
-242.946	-9.117	0.201	-0.135
-241.932	800.000	0.040	-0.139
-240.917	142.370	-0.164	0.218
-239.903	-200.000	0.022	0.136
-238.888	49.629	-0.193	-0.183
-237.873	208.498	0.036	0.057
-236.859	13.538	0.280	0.218
-235.844	16.476	-0.152	0.121
-234.830	-200.000	-0.018	0.121
-233.815	-200.000	0.002	0.076
-232.800	-155.751	-0.057	-0.004
-231.786	-14.806	0.281	0.181
-230.771	-177.268	-0.331	0.008
-229.757	800.000	0.080	0.319
-228.742	-76.691	0.156	-0.055
-227.727	-200.000	0.011	0.235
-226.713	55.083	0.103	0.100
-225.698	-74.558	0.255	-0.092
-224.684	527.323	0.092	-0.218
-223.669	-144.159	0.247	0.023
-222.655	-64.185	-0.325	0.133
-221.640	-69.138	-0.111	0.043
-220.625	-76.145	0.217	0.077
-219.611	-50.799	0.195	-0.092
-218.596	-87.539	0.073	0.022
-217.582	132.451	0.209	-0.270
-216.567	-200.000	-0.017	-0.079
-215.552	-200.000	0.079	0.397
-214.538	-159.820	-0.268	-0.015
-213.523	-0.653	0.107	-0.076
-212.509	61.154	0.150	-0.149
-211.494	435.400	0.090	0.197
-210.479	214.926	-0.060	0.095
-209.465	-107.632	-0.290	0.064
-208.450	-161.432	0.024	0.001
-207.436	683.215	-0.098	0.255
-206.421	-71.679	0.444	0.166
-205.406	-0.383	0.217	-0.154
-204.392	-200.000	-0.058	-0.298
-203.377	-55.809	0.256	0.115
-202.363	-46.102	-0.395	-0.195
-201.348	-14.643	-0.114	0.073
-200.333	48.818	-0.246	-0.232
-199.319	56.235	-0.126	-0.123
-198.304	313.708	-0.127	0.239
-197.290	-56.252	0.182	0.081
-196.275	-37.545	0.201	-0.108
-195.260	347.825	0.091	-0.179
-194.246	126.674	-0.094	-0.119
-193.231	-49.254	-0.153	0.073
-192.217	249.638	-0.073	-0.123
-191.202	243.074	-0.135	-0.227
-190.187	1.843	-0.118	0.085
-189.173	97.610	0.235	0.271
-188.158	1.515	0.076	0.054
-187.144	184.317	0.168	-0.249
-186.129	-88.708	-0.194	0.058
-185.114	800.000	0.067	0.207
-184.100	-95.098	-0.188	-0.051
-183.085	-200.000	0.020	-0.107
-182.071	-151.242	-0.322	-0.024
-181.056	-200.000	-0.023	0.146
-180.042	234.861	-0.085	-0.141
-179.027	-200.000	0.037	0.245
-178.012	34.034	0.207	0.180
-176.998	-25.964	-0.188	-0.111
-175.983	-200.000	-0.016	0.098
-174.969	-9.842	-0.156	0.104
-173.954	800.000	-0.034	-0.097
-172.939	48.175	-0.178	-0.167
-171.925	-200.000	0.027	-0.131
-170.910	-21.220	0.419	-0.257
-169.896	73.891	0.235	-0.246
-168.881	305.019	0.223	0.414
-167.866	27.838	0.224	0.189
-166.852	-189.414	0.134	-0.002
-165.837	79.055	-0.208	-0.223
-164.823	-41.208	0.239	0.124
-163.808	-71.067	0.123	-0.046
-162.793	35.798	0.105	0.092
-161.779	-196.409	-0.163	0.001
-160.764	800.000	-0.039	-0.113
-159.750	71.032	0.151	-0.157
-158.735	-129.510	0.340	0.047
-157.720	199.423	-0.079	-0.121
-156.706	800.000	-0.097	-0.346
-155.691	-20.022	-0.125	-0.077
-154.677	390.104	0.168	-0.349
-153.662	84.458	0.020	0.022
-152.647	-117.203	0.173	-0.032
-151.633	110.698	-0.250	0.301
-150.618	-5.361	-0.106	0.073
-149.604	-76.337	0.438	0.154
-148.589	-87.390	0.173	-0.052
-147.574	-88.895	0.284	0.084
-146.560	-34.506	-0.260	0.143
-145.545	-76.762	-0.163	-0.057
-144.531	-48.011	-0.213	0.103
-143.516	277.617	-0.098	0.174
-142.502	250.705	-0.240	-0.407
-141.487	445.379	0.113	-0.247
-140.472	290.196	0.189	0.344
-139.458	210.019	-0.055	-0.086
-138.443	695.952	-0.090	0.236
-137.429	-18.570	0.296	-0.184
-136.414	-200.000	0.008	-0.256
-135.399	-117.858	0.398	-0.071
-134.385	654.993	0.057	-0.147
-133.370	-6.752	-0.077	-0.052
-132.356	-200.000	0.040	0.445
-131.341	-200.000	-0.039	0.240
-130.326	576.771	0.080	0.196
-129.312	-108.649	-0.176	-0.038
-128.297	270.044	-0.118	0.207
-127.283	64.604	0.150	-0.152
-126.268	222.950	0.141	-0.228
-125.253	-0.742	-0.154	-0.109
-124.239	580.448	-0.051	0.124
-123.224	-200.000	0.032	-0.234
-122.210	15.630	-0.272	-0.213
-121.195	-127.943	0.310	0.045
