DTS Sentinel unit serial number:	SN413079Multiplexer serial number:	ORYXHardware model number:	OX4-SRSoftware version number:	ORYX F/W v4.00 Oryx Data Collector v3.7.2.0data status	okinstallation	princeton_trtdifferential loss correction	single-endedforward channel	channel 1reverse channel	N/Adate	2019/09/14time	23:38:35forward acquisition time	60.00reverse acquisition time	0.00gamma	496.2192k internal	0.2320k external	0.2320temperature offset calibration	0.9996default loss term (dB/km)	0.3790temperature slope calibration	1.0000multiplexer offset coefficient	1.0000multiplexer slope coefficient	1.0000fibre end	0.00T internal ref (°C)	32.31T ext. ref 1 (°C)	4.66T ext. ref 2 (°C)	27.28length (m)	temperature (°C)	Stokes	anti-Stokes-747.200	-10.921	-0.009	-0.006
-746.185	23.991	0.072	-0.060
-745.171	-200.000	0.072	-0.459
-744.156	800.000	0.104	0.356
-743.142	-164.774	-0.177	0.008
-742.127	165.348	-0.191	0.273
-741.112	-200.000	0.000	0.096
-740.098	163.435	-0.148	-0.211
-739.083	-200.000	-0.016	-0.131
-738.069	-200.000	0.015	0.195
-737.054	-200.000	-0.050	0.269
-736.039	-119.647	-0.080	0.014
-735.025	66.840	-0.236	-0.243
-734.010	800.000	-0.132	-0.488
-732.996	783.201	-0.062	-0.171
-731.981	398.712	0.106	-0.224
-730.966	-105.577	-0.195	-0.045
-729.952	46.031	0.232	-0.217
-728.937	-124.874	-0.429	-0.067
-727.923	800.000	-0.042	0.164
-726.908	63.013	-0.092	-0.093
-725.894	-200.000	-0.015	-0.216
-724.879	-51.929	-0.089	-0.042
-723.864	459.946	-0.032	-0.071
-722.850	14.507	-0.221	-0.174
-721.835	27.101	-0.132	-0.112
-720.821	-63.061	0.264	0.110
-719.806	-200.000	-0.027	-0.144
-718.791	-102.801	-0.248	0.060
-717.777	800.000	-0.084	-0.281
-716.762	-200.000	-0.060	-0.304
-715.748	13.994	0.067	0.052
-714.733	-120.596	-0.177	-0.030
-713.718	-200.000	0.022	0.238
-712.704	-188.023	-0.163	0.002
-711.689	110.013	-0.020	-0.025
-710.675	64.300	-0.064	-0.065
-709.660	166.957	0.059	-0.084
-708.645	-48.660	-0.149	0.072
-707.631	177.385	0.144	0.212
-706.616	-128.055	-0.028	-0.004
-705.602	-200.000	0.018	-0.205
-704.587	-200.000	0.000	0.108
-703.572	-200.000	0.067	0.318
-702.558	-19.173	-0.236	-0.148
-701.543	-155.915	0.209	-0.013
-700.529	67.450	-0.205	0.211
-699.514	-25.508	-0.164	0.098
-698.499	-200.000	-0.009	0.250
-697.485	256.106	-0.032	-0.056
-696.470	-22.904	-0.078	-0.048
-695.456	-116.242	0.201	0.038
-694.441	800.000	0.067	-0.194
-693.426	-44.757	-0.179	-0.090
-692.412	-107.677	0.287	-0.063
-691.397	-200.000	-0.049	-0.270
-690.383	-163.994	-0.205	-0.010
-689.368	167.536	-0.101	-0.144
-688.354	-200.000	0.017	-0.181
-687.339	119.353	-0.101	-0.127
-686.324	277.127	-0.067	-0.120
-685.310	800.000	-0.063	-0.182
-684.295	11.949	-0.108	0.084
-683.281	20.402	0.076	-0.062
-682.266	-65.603	0.305	-0.123
-681.251	190.932	0.064	0.097
-680.237	-99.149	-0.024	-0.006
-679.222	-200.000	-0.012	0.076
-678.208	-7.133	0.141	-0.096
-677.193	228.556	0.182	-0.299
-676.178	-97.092	-0.182	0.048
-675.164	-200.000	-0.004	-0.060
-674.149	-200.000	-0.014	-0.319
-673.135	800.000	-0.128	-0.430
-672.120	-13.893	0.227	0.148
-671.105	-200.000	-0.051	-0.228
-670.091	105.782	-0.072	0.086
-669.076	-44.812	-0.304	0.153
-668.062	800.000	0.022	-0.060
-667.047	-60.997	-0.284	0.121
-666.032	-134.140	-0.375	0.047
-665.018	-94.276	-0.174	0.048
-664.003	-61.108	-0.074	0.032
-662.989	7.111	-0.184	0.139
-661.974	311.411	-0.037	-0.069
-660.959	16.235	0.265	0.210
-659.945	249.603	0.072	-0.122
-658.930	154.839	0.074	-0.102
-657.916	-169.163	0.189	-0.007
-656.901	89.444	0.204	-0.229
-655.886	-104.737	0.132	0.031
-654.872	82.825	0.142	-0.155
-653.857	-200.000	-0.032	-0.271
-652.843	-178.659	-0.125	-0.003
-651.828	-164.734	-0.141	0.006
-650.814	78.403	0.145	-0.156
-649.799	-177.407	0.128	0.003
-648.784	-200.000	0.056	0.277
-647.770	5.513	0.071	-0.052
-646.755	-200.000	-0.014	0.208
-645.741	-77.693	-0.247	-0.086
-644.726	613.953	-0.056	0.141
-643.711	117.729	-0.059	0.073
-642.697	-148.725	0.393	-0.032
-641.682	-40.563	-0.233	-0.122
-640.668	-200.000	0.211	0.001
-639.653	118.420	0.089	-0.110
-638.638	495.689	0.136	-0.314
-637.624	-200.000	-0.026	0.132
-636.609	800.000	0.044	0.151
-635.595	-14.835	0.217	0.140
-634.580	244.010	-0.135	-0.229
-633.565	-84.727	-0.283	0.090
-632.551	351.048	0.154	-0.306
-631.536	-200.000	-0.005	0.074
-630.522	-121.660	-0.444	-0.074
-629.507	275.609	-0.104	-0.186
-628.492	189.488	0.064	0.097
-627.478	-58.681	0.113	-0.049
-626.463	-165.898	0.404	0.017
-625.449	94.496	-0.200	-0.228
-624.434	-34.904	-0.316	0.174
-623.419	-114.559	0.288	0.056
-622.405	-74.020	0.191	0.070
-621.390	-40.209	-0.171	-0.090
-620.376	-25.340	-0.178	0.106
-619.361	529.534	0.043	-0.103
-618.346	268.329	-0.129	-0.227
-617.332	118.156	-0.085	0.106
-616.317	4.596	0.184	-0.136
-615.303	115.855	-0.048	-0.059
-614.288	614.108	-0.037	0.094
-613.273	-103.548	0.336	-0.079
-612.259	-169.175	0.245	-0.009
-611.244	-30.258	0.086	0.049
-610.230	-88.255	0.160	-0.048
-609.215	-91.631	0.031	0.009
-608.201	-137.379	0.226	-0.026
-607.186	-200.000	-0.072	-0.413
-606.171	-200.000	-0.019	0.132
-605.157	-200.000	0.006	0.228
-604.142	33.125	-0.108	0.094
-603.128	800.000	-0.032	-0.125
-602.113	-53.582	0.253	-0.116
-601.098	151.488	0.081	0.110
-600.084	800.000	-0.058	0.188
-599.069	800.000	0.034	0.111
-598.055	-3.123	0.105	0.074
-597.040	-200.000	-0.014	-0.067
-596.025	-56.473	-0.196	-0.087
-595.011	-200.000	-0.095	-0.427
-593.996	-126.758	-0.210	-0.031
-592.982	-140.094	0.255	-0.027
-591.967	800.000	0.072	-0.242
-590.952	-156.693	-0.231	-0.014
-589.938	-200.000	0.003	0.287
-588.923	72.193	0.271	-0.284
-587.909	-86.408	-0.320	0.099
-586.894	73.366	-0.109	0.114
-585.879	-40.520	0.212	-0.110
-584.865	-58.509	-0.301	0.131
-583.850	629.731	0.088	0.224
-582.836	-32.263	0.031	-0.018
-581.821	-200.000	0.066	-0.387
-580.806	269.348	-0.089	-0.156
-579.792	-143.106	-0.146	-0.014
-578.777	277.370	-0.092	0.164
-577.763	408.518	-0.158	0.335
-576.748	-169.135	0.198	-0.007
-575.733	-30.896	0.318	0.181
-574.719	455.588	-0.072	-0.159
-573.704	-37.858	0.249	0.133
-572.690	429.136	-0.124	0.270
-571.675	-55.736	0.069	-0.031
-570.661	62.135	0.152	0.152
-569.646	-81.344	-0.065	-0.022
-568.631	-172.975	0.070	-0.002
-567.617	800.000	-0.049	0.145
-566.602	-11.551	0.160	0.106
-565.588	-200.000	0.045	-0.296
-564.573	800.000	0.073	-0.254
-563.558	147.165	-0.096	-0.130
-562.544	-3.846	-0.085	0.059
-561.529	71.893	-0.168	0.175
-560.515	-200.000	0.034	0.302
-559.500	46.921	0.186	-0.174
-558.485	-200.000	-0.118	-0.536
-557.471	-18.389	0.102	0.064
-556.456	-66.597	-0.066	-0.026
-555.442	-114.909	-0.195	0.037
-554.427	-69.111	0.125	-0.048
-553.412	-51.481	-0.082	-0.039
-552.398	800.000	0.054	-0.167
-551.383	-200.000	-0.049	-0.247
-550.369	-98.541	0.195	0.050
-549.354	350.151	0.171	-0.339
-548.339	60.678	0.234	-0.232
-547.325	800.000	0.053	0.158
-546.310	-18.822	-0.242	0.151
-545.296	286.331	0.126	-0.229
-544.281	12.175	-0.109	-0.084
-543.266	-9.672	-0.167	0.112
-542.252	-200.000	0.063	0.339
-541.237	-6.819	-0.104	-0.071
-540.223	64.002	-0.320	0.322
-539.208	-27.843	-0.286	0.166
-538.193	259.087	-0.124	0.214
-537.179	336.668	-0.044	-0.087
-536.164	-37.075	0.088	-0.047
-535.150	-63.028	0.008	-0.003
-534.135	368.842	0.091	-0.186
-533.121	-125.534	-0.189	-0.029
-532.106	-160.889	-0.105	0.006
-531.091	197.889	-0.058	0.089
-530.077	553.440	0.123	-0.296
-529.062	-200.000	0.009	-0.068
-528.048	-200.000	-0.017	0.205
-527.033	-123.477	-0.120	-0.019
-526.018	800.000	-0.007	-0.032
-525.004	266.638	-0.119	0.209
-523.989	-78.965	0.155	0.053
-522.975	125.488	0.161	0.203
-521.960	-123.384	-0.204	-0.033
-520.945	102.577	0.159	0.187
-519.931	-200.000	-0.040	-0.213
-518.916	-200.000	-0.024	-0.301
-517.902	45.256	0.255	0.236
-516.887	233.037	0.161	-0.266
-515.872	-200.000	-0.008	0.298
-514.858	529.722	-0.024	-0.058
-513.843	106.898	-0.047	-0.056
-512.829	800.000	0.015	0.047
-511.814	161.947	0.179	0.251
-510.799	-200.000	0.007	0.254
-509.785	748.931	0.110	-0.298
-508.770	57.727	0.050	-0.049
-507.756	-170.765	0.085	-0.003
-506.741	-128.088	-0.294	0.042
-505.726	-3.863	0.324	0.225
-504.712	723.829	-0.094	-0.250
-503.697	80.330	-0.348	-0.375
-502.683	-87.651	0.182	0.055
-501.668	-42.264	0.101	-0.052
-500.653	-200.000	0.042	-0.304
-499.639	-200.000	0.056	-0.275
-498.624	-138.715	-0.163	0.018
-497.610	730.105	-0.095	-0.255
-496.595	382.498	-0.138	-0.284
-495.581	-95.629	0.340	0.091
-494.566	176.134	0.049	0.071
-493.551	-89.226	0.390	0.115
-492.537	-28.597	0.125	-0.072
-491.522	51.287	0.348	0.331
-490.508	-200.000	0.006	-0.604
-489.493	61.435	-0.089	-0.089
-488.478	-139.740	0.202	0.021
-487.464	-166.335	-0.210	-0.009
-486.449	-36.498	-0.203	0.110
-485.435	800.000	0.005	-0.018
-484.420	-200.000	0.002	-0.179
-483.405	800.000	-0.062	-0.251
-482.391	800.000	0.036	-0.108
-481.376	212.501	-0.030	0.048
-480.362	-105.843	-0.356	0.080
-479.347	118.600	0.127	-0.157
-478.332	-200.000	0.012	0.428
-477.318	-200.000	-0.023	0.447
-476.303	800.000	0.072	0.207
-475.289	-177.302	-0.170	0.004
-474.274	-88.415	0.057	-0.017
-473.259	16.603	-0.269	-0.213
-472.245	268.539	0.079	0.138
-471.230	-200.000	0.011	0.172
-470.216	-8.211	0.078	-0.052
-469.201	70.816	-0.196	-0.203
-468.186	-67.192	0.280	0.110
-467.172	-85.915	-0.082	-0.025
-466.157	800.000	0.071	0.207
-465.143	57.967	-0.172	0.168
-464.128	774.773	0.034	-0.094
-463.113	800.000	-0.062	-0.217
-462.099	24.939	-0.132	-0.110
-461.084	-57.641	0.080	0.035
-460.070	46.065	-0.050	-0.046
-459.055	-79.078	0.450	0.153
-458.040	-47.285	0.093	-0.045
-457.026	-168.619	-0.381	-0.014
-456.011	-200.000	-0.022	-0.145
-454.997	100.711	0.142	-0.165
-453.982	-200.000	-0.025	-0.336
-452.968	-200.000	0.082	0.480
-451.953	-21.682	0.039	-0.024
-450.938	157.689	0.134	-0.185
-449.924	-71.180	-0.137	-0.051
-448.909	-98.601	0.255	-0.065
-447.895	-116.152	-0.063	0.012
-446.880	681.867	-0.030	0.078
-445.865	800.000	-0.055	0.233
-444.851	-89.035	0.040	-0.012
-443.836	-125.397	-0.212	0.032
-442.822	800.000	0.073	0.266
-441.807	5.137	-0.279	0.205
-440.792	507.970	-0.090	0.209
-439.778	-78.719	0.154	-0.053
-438.763	329.829	0.103	0.198
-437.749	-79.787	0.154	-0.052
-436.734	49.903	0.259	-0.244
-435.719	0.464	-0.118	0.084
-434.705	-71.445	-0.418	-0.156
-433.690	30.688	0.158	0.135
-432.676	800.000	-0.114	-0.324
-431.661	-200.000	-0.018	-0.091
-430.646	197.768	0.115	0.176
-429.632	800.000	-0.073	-0.219
-428.617	36.130	0.222	-0.195
-427.603	-159.112	-0.280	0.016
-426.588	188.057	-0.240	0.358
-425.573	87.196	-0.130	0.143
-424.559	87.610	-0.034	-0.038
-423.544	-200.000	-0.018	0.090
-422.530	93.641	-0.120	0.136
-421.515	800.000	-0.073	-0.296
-420.500	321.986	0.075	-0.143
-419.486	-55.756	0.199	-0.089
-418.471	140.868	0.096	-0.127
-417.457	9.664	-0.125	-0.095
-416.442	32.407	-0.264	0.228
-415.428	598.471	0.078	0.193
-414.413	-200.000	-0.052	0.264
-413.398	168.906	0.212	-0.302
-412.384	-128.779	-0.242	0.034
-411.369	13.889	0.129	-0.100
-410.355	-111.842	-0.240	0.048
-409.340	800.000	-0.064	-0.207
-408.325	-14.133	-0.095	0.061
-407.311	-13.243	0.149	0.097
-406.296	52.927	-0.056	0.053
-405.282	800.000	-0.011	0.032
-404.267	-34.758	-0.110	-0.060
-403.252	106.102	-0.134	-0.158
-402.238	365.755	0.079	-0.158
-401.223	-122.240	0.275	-0.045
-400.209	800.000	0.028	0.094
-399.194	407.039	-0.038	-0.080
-398.179	-87.764	-0.126	-0.038
-397.165	581.771	0.178	0.434
-396.150	24.788	-0.195	0.161
-395.136	-144.227	-0.082	-0.008
-394.121	-37.174	0.201	0.107
-393.106	609.493	-0.112	0.278
-392.092	-110.962	0.339	0.069
-391.077	800.000	0.020	-0.071
-390.063	800.000	0.030	-0.111
-389.048	-200.000	0.004	-0.198
-388.033	-74.972	0.377	0.135
-387.019	-5.833	-0.084	0.057
-386.004	-40.554	-0.149	-0.077
-384.990	-53.315	-0.330	-0.151
-383.975	149.283	-0.071	-0.096
-382.960	220.867	0.088	-0.140
-381.946	582.664	0.066	0.162
-380.931	156.068	-0.181	0.249
-379.917	-200.000	-0.036	-0.300
-378.902	-162.768	-0.272	0.013
-377.888	185.263	-0.191	0.282
-376.873	-126.870	-0.333	-0.049
-375.858	60.801	0.036	-0.035
-374.844	-100.962	-0.122	-0.030
-373.829	271.793	-0.104	-0.183
-372.815	232.790	0.094	0.154
-371.800	-32.374	0.099	-0.055
-370.785	-78.261	-0.317	-0.109
-369.771	66.122	-0.240	-0.243
-368.756	522.473	0.089	-0.208
-367.742	652.513	-0.132	-0.337
-366.727	-87.698	-0.173	0.052
-365.712	-138.301	0.316	0.035
-364.698	129.735	0.095	-0.122
-363.683	-95.267	0.213	0.057
-362.669	-200.000	-0.004	0.096
-361.654	783.509	-0.096	0.263
-360.639	-149.207	-0.249	-0.020
-359.625	54.067	0.179	-0.171
-358.610	102.484	-0.029	0.033
-357.596	378.279	-0.093	0.190
-356.581	-48.700	0.347	0.166
-355.566	769.709	-0.069	0.187
-354.552	-152.455	0.178	-0.013
-353.537	800.000	-0.064	-0.255
-352.523	800.000	0.089	0.275
-351.508	-70.098	0.236	0.090
-350.493	-103.015	-0.170	0.040
-349.479	-96.739	0.192	0.050
-348.464	8.446	0.012	0.009
-347.450	-200.000	-0.032	-0.198
-346.435	-165.343	-0.293	0.013
-345.420	692.881	0.109	0.284
-344.406	36.572	0.235	0.206
-343.391	-200.000	-0.016	0.178
-342.377	-117.903	0.111	-0.020
-341.362	-117.426	-0.223	-0.040
-340.348	-40.952	0.171	-0.088
-339.333	-200.000	-0.010	0.138
-338.318	-41.825	-0.259	0.132
-337.304	-156.076	0.039	-0.002
-336.289	-6.220	-0.269	-0.182
-335.275	-40.588	0.069	0.036
-334.260	134.155	-0.121	0.157
-333.245	239.299	-0.071	-0.118
-332.231	-79.169	-0.172	-0.058
-331.216	69.767	-0.332	-0.341
-330.202	-111.484	0.299	0.060
-329.187	60.374	-0.232	0.229
-328.172	-89.303	0.279	0.082
-327.158	800.000	-0.023	-0.069
-326.143	29.020	0.069	0.058
-325.129	62.665	-0.164	0.164
-324.114	45.310	0.295	-0.270
-323.099	134.250	0.086	-0.111
-322.085	-175.193	0.289	0.008
-321.070	154.739	-0.109	-0.150
-320.056	-67.675	0.133	0.052
-319.041	-121.915	-0.156	-0.025
-318.026	31.725	-0.162	-0.138
-317.012	-200.000	0.026	-0.213
-315.997	97.389	0.112	0.128
-314.983	-200.000	-0.004	0.341
-313.968	-36.824	0.202	-0.108
-312.953	48.743	0.288	0.269
-311.939	800.000	0.088	0.285
-310.924	-94.706	-0.470	-0.127
-309.910	172.039	0.059	-0.084
-308.895	21.083	-0.126	-0.102
-307.880	-56.843	-0.122	0.053
-306.866	-200.000	-0.010	0.046
-305.851	-74.866	0.138	0.049
-304.837	114.360	-0.064	-0.077
-303.822	-200.000	-0.015	-0.223
-302.807	-135.628	0.347	-0.041
-301.793	-149.449	0.182	-0.014
-300.778	120.140	0.200	-0.247
-299.764	800.000	-0.024	0.096
-298.749	82.436	-0.241	-0.259
-297.735	-119.134	0.357	0.062
-296.720	800.000	-0.128	-0.485
-295.705	800.000	0.001	0.003
-294.691	-200.000	0.076	-0.346
-293.676	-152.333	0.277	0.020
-292.662	-200.000	0.012	0.161
-291.647	-16.289	-0.087	-0.055
-290.632	-200.000	0.003	0.034
-289.618	-47.802	-0.248	-0.119
-288.603	197.574	-0.104	0.157
-287.589	-96.749	0.097	0.025
-286.574	158.508	-0.139	0.192
-285.559	-69.040	-0.099	0.038
-284.545	-70.258	-0.300	0.113
-283.530	-169.759	-0.251	-0.009
-282.516	-200.000	-0.017	-0.198
-281.501	-79.788	-0.043	0.014
-280.486	-200.000	-0.001	0.180
-279.472	-185.556	-0.212	-0.003
-278.457	-66.328	0.291	-0.115
-277.443	-11.936	0.145	0.095
-276.428	-200.000	0.010	-0.165
-275.413	-118.418	0.119	0.021
-274.399	73.922	-0.174	-0.181
-273.384	54.279	-0.208	0.198
-272.370	-118.602	0.191	0.033
-271.355	321.075	0.159	0.300
-270.340	45.882	-0.169	0.155
-269.326	160.843	0.134	0.185
-268.311	-173.160	-0.077	-0.002
-267.297	-200.000	0.068	0.412
-266.282	168.382	-0.132	0.187
-265.267	-51.645	0.114	-0.053
-264.253	-22.536	0.272	0.163
-263.238	24.632	0.140	0.115
-262.224	-200.000	-0.006	-0.277
-261.209	333.878	0.073	0.139
-260.195	-91.106	-0.443	-0.126
-259.180	-94.711	0.351	-0.094
-258.165	287.930	0.069	-0.124
-257.151	800.000	-0.066	-0.269
-256.136	800.000	-0.020	0.086
-255.122	-59.008	-0.168	-0.072
-254.107	31.673	0.270	-0.230
-253.092	-68.903	-0.132	-0.051
-252.078	-200.000	-0.015	0.095
-251.063	109.199	0.084	0.100
-250.049	-33.320	-0.164	0.090
-249.034	201.075	-0.020	0.031
-248.019	77.973	-0.100	0.106
-247.005	-59.813	0.110	-0.047
-245.990	-65.545	0.191	0.076
-244.976	208.626	0.187	0.290
-243.961	800.000	-0.033	0.119
-242.946	-145.988	0.219	-0.019
-241.932	69.968	-0.131	-0.134
-240.917	800.000	-0.104	-0.315
-239.903	195.122	-0.371	-0.559
-238.888	266.177	-0.144	-0.249
-237.873	123.318	-0.147	0.183
-236.859	90.207	-0.030	0.033
-235.844	164.543	0.204	0.285
-234.830	-7.128	0.124	0.083
-233.815	15.702	0.130	0.101
-232.800	136.335	-0.029	-0.037
-231.786	-148.505	-0.173	-0.014
-230.771	-200.000	0.062	0.332
-229.757	-110.444	-0.194	-0.040
-228.742	39.841	-0.246	-0.219
-227.727	42.537	0.179	-0.162
-226.713	-200.000	-0.012	0.291
-225.698	9.132	0.381	0.285
-224.684	-200.000	-0.010	0.076
-223.669	533.040	0.108	0.253
-222.655	-118.573	-0.104	-0.018
-221.640	-51.115	-0.229	0.107
-220.625	-42.873	-0.177	-0.089
-219.611	-124.804	0.103	0.016
-218.596	-127.246	0.125	0.018
-217.582	137.990	-0.239	-0.310
-216.567	102.142	-0.047	-0.055
-215.552	-110.612	-0.182	-0.037
-214.538	-194.186	0.155	0.001
-213.523	151.833	-0.155	0.209
-212.509	-37.105	0.151	0.080
-211.494	800.000	-0.045	-0.195
-210.479	-154.802	-0.431	0.028
-209.465	-200.000	-0.038	-0.189
-208.450	800.000	-0.047	-0.180
-207.436	-49.459	0.365	0.172
-206.421	52.621	0.106	-0.101
-205.406	-149.242	0.198	0.016
-204.392	-82.773	-0.053	0.017
-203.377	-6.629	0.128	-0.086
-202.363	-23.558	0.089	0.053
-201.348	-200.000	-0.029	0.150
-200.333	5.012	-0.207	0.151
-199.319	113.243	0.089	0.107
-198.304	-19.944	0.157	-0.096
-197.290	800.000	-0.095	0.282
-196.275	-200.000	-0.016	-0.187
-195.260	-200.000	0.016	0.270
-194.246	-1.558	-0.122	-0.085
-193.231	-83.865	0.149	0.047
-192.217	-200.000	-0.046	0.320
-191.202	526.949	-0.171	0.399
-190.187	-117.551	-0.124	0.022
-189.173	-163.526	0.066	-0.003
-188.158	151.294	0.253	-0.340
-187.144	443.317	0.109	0.237
-186.129	800.000	-0.057	0.160
-185.114	29.552	0.101	0.085
-184.100	341.563	-0.040	0.076
-183.085	664.990	0.056	0.144
-182.071	-42.220	-0.086	0.044
-181.056	800.000	0.094	-0.293
-180.042	-200.000	-0.007	-0.067
-179.027	-109.144	0.288	0.061
-178.012	48.903	0.116	-0.107
-176.998	36.443	0.231	0.201
-175.983	48.852	0.177	0.164
-174.969	39.549	-0.115	0.102
-173.954	125.345	-0.159	-0.198
-172.939	-40.896	-0.252	0.129
-171.925	76.092	-0.115	-0.121
-170.910	-75.937	0.124	-0.043
-169.896	-200.000	-0.018	-0.420
-168.881	-39.940	-0.256	-0.132
-167.866	-83.191	-0.396	0.126
-166.852	-200.000	-0.013	-0.081
-165.837	800.000	-0.009	-0.030
-164.823	-168.982	0.183	-0.007
-163.808	-200.000	-0.047	0.222
-162.793	-55.292	0.301	0.133
-161.779	-22.009	0.261	-0.157
-160.764	-102.043	0.235	0.056
-159.750	-200.000	0.038	0.248
-158.735	800.000	0.072	-0.266
-157.720	-64.418	-0.303	-0.122
-156.706	173.501	-0.134	-0.192
-155.691	121.228	-0.013	-0.016
-154.677	-200.000	0.013	0.187
-153.662	-50.218	0.145	0.068
-152.647	800.000	0.106	-0.300
-151.633	-103.163	-0.281	0.066
-150.618	-127.358	-0.110	0.016
-149.604	106.919	-0.161	0.189
-148.589	274.687	0.097	-0.169
-147.574	43.272	-0.289	-0.261
-146.560	-88.856	-0.108	0.032
-145.545	-72.298	-0.205	0.075
-144.531	225.095	-0.122	-0.195
-143.516	-145.952	0.203	0.018
-142.502	-105.918	0.518	-0.115
-141.487	37.413	-0.121	0.106
-140.472	800.000	0.059	-0.181
-139.458	107.855	0.070	-0.082
-138.443	-3.014	-0.414	-0.286
-137.429	83.186	-0.030	-0.032
-136.414	-14.735	0.108	-0.068
-135.399	14.481	0.089	0.069
-134.385	-200.000	-0.061	0.264
-133.370	800.000	-0.047	-0.170
-132.356	-200.000	0.051	0.247
-131.341	-200.000	0.033	0.248
-130.326	-133.574	-0.252	0.031
-129.312	800.000	0.124	-0.369
-128.297	256.641	-0.087	-0.147
-127.283	-74.904	-0.185	-0.066
-126.268	222.311	0.082	0.130
-125.253	-14.563	-0.055	0.035
-124.239	-200.000	-0.028	0.145
-123.224	-106.391	0.137	0.030
-122.210	800.000	0.068	0.254
