DTS Sentinel unit serial number:	SN413079Multiplexer serial number:	ORYXHardware model number:	OX4-SRSoftware version number:	ORYX F/W v4.00 Oryx Data Collector v3.7.2.0data status	okinstallation	princeton_trtdifferential loss correction	single-endedforward channel	channel 1reverse channel	N/Adate	2019/09/11time	07:00:11forward acquisition time	60.00reverse acquisition time	0.00gamma	496.2192k internal	0.2330k external	0.2330temperature offset calibration	0.9916default loss term (dB/km)	0.3790temperature slope calibration	1.0000multiplexer offset coefficient	1.0000multiplexer slope coefficient	1.0000fibre end	0.00T internal ref (°C)	30.12T ext. ref 1 (°C)	-0.09T ext. ref 2 (°C)	25.84length (m)	temperature (°C)	Stokes	anti-Stokes-747.200	-29.507	0.091	0.052
-746.185	800.000	0.059	0.242
-745.171	650.183	0.044	-0.113
-744.156	3.994	0.370	0.272
-743.142	9.661	-0.284	0.216
-742.127	800.000	0.113	0.393
-741.112	35.182	0.050	0.044
-740.098	-200.000	-0.008	-0.083
-739.083	6.933	0.390	0.293
-738.069	800.000	0.066	0.204
-737.054	304.513	-0.065	-0.121
-736.039	-200.000	-0.015	-0.200
-735.025	-6.955	-0.357	0.244
-734.010	-142.817	-0.316	0.031
-732.996	-111.269	-0.217	-0.045
-731.981	800.000	0.042	-0.143
-730.966	767.843	0.094	0.257
-729.952	-119.588	-0.540	0.094
-728.937	178.084	0.031	-0.045
-727.923	137.614	-0.291	0.383
-726.908	639.405	0.072	-0.185
-725.894	19.829	-0.146	0.118
-724.879	57.051	-0.117	0.114
-723.864	-200.000	-0.067	0.338
-722.850	-72.831	-0.228	-0.085
-721.835	-200.000	-0.016	-0.115
-720.821	49.649	-0.181	0.172
-719.806	643.434	-0.049	0.125
-718.791	-46.643	0.109	-0.054
-717.777	164.540	0.146	-0.207
-716.762	116.967	0.095	-0.117
-715.748	-87.568	-0.081	-0.025
-714.733	609.086	-0.098	0.247
-713.718	-138.930	-0.145	-0.016
-712.704	59.870	-0.332	-0.330
-711.689	-121.130	0.243	0.041
-710.675	215.561	-0.087	0.139
-709.660	326.404	-0.128	-0.246
-708.645	-200.000	-0.009	0.083
-707.631	-157.598	0.209	0.013
-706.616	-200.000	-0.030	0.139
-705.602	-200.000	-0.003	0.073
-704.587	-200.000	-0.059	-0.429
-703.572	800.000	-0.016	0.063
-702.558	500.537	-0.116	0.269
-701.543	284.005	-0.164	-0.296
-700.529	-95.670	0.116	-0.031
-699.514	57.289	-0.158	-0.155
-698.499	-129.354	-0.235	-0.033
-697.485	-128.030	0.052	-0.008
-696.470	800.000	-0.051	-0.160
-695.456	-200.000	-0.022	-0.240
-694.441	-44.074	0.089	0.045
-693.426	202.372	0.048	-0.075
-692.412	532.895	-0.016	0.038
-691.397	328.330	0.024	0.046
-690.383	-87.023	-0.308	0.094
-689.368	-48.545	-0.186	-0.090
-688.354	-118.265	0.114	-0.020
-687.339	-200.000	0.011	0.136
-686.324	614.186	-0.129	-0.325
-685.310	114.308	0.147	-0.180
-684.295	235.837	-0.084	-0.139
-683.281	-10.301	0.045	0.030
-682.266	473.404	0.063	0.142
-681.251	-87.437	-0.056	0.017
-680.237	800.000	0.016	-0.064
-679.222	-200.000	-0.016	-0.110
-678.208	43.474	0.377	0.346
-677.193	-200.000	0.017	-0.150
-676.178	9.852	-0.125	0.095
-675.164	-25.601	-0.101	-0.060
-674.149	-24.696	-0.178	0.107
-673.135	524.455	0.045	0.106
-672.120	160.448	-0.043	0.061
-671.105	-146.314	0.367	0.032
-670.091	-185.223	0.069	0.001
-669.076	-119.105	-0.288	-0.051
-668.062	-8.532	-0.079	0.054
-667.047	-87.841	-0.099	-0.030
-666.032	-1.442	-0.093	-0.066
-665.018	-77.571	-0.303	-0.105
-664.003	91.717	0.130	0.146
-662.989	-6.312	-0.128	0.088
-661.974	-143.221	0.220	-0.021
-660.959	-20.006	0.242	-0.150
-659.945	106.802	0.324	-0.387
-658.930	249.401	-0.109	-0.185
-657.916	798.109	-0.173	0.479
-656.901	368.204	0.041	-0.083
-655.886	-200.000	0.040	-0.524
-654.872	-116.319	0.169	0.031
-653.857	-87.610	-0.538	0.163
-652.843	132.681	-0.108	0.140
-651.828	162.517	0.118	-0.166
-650.814	800.000	0.040	-0.145
-649.799	3.540	0.123	-0.090
-648.784	-200.000	-0.014	0.281
-647.770	21.730	0.216	-0.176
-646.755	800.000	0.062	-0.195
-645.741	800.000	-0.019	-0.074
-644.726	-200.000	-0.014	-0.280
-643.711	161.340	-0.031	-0.044
-642.697	559.662	-0.117	0.284
-641.682	226.448	0.145	0.237
-640.668	56.038	-0.195	-0.190
-639.653	-66.485	-0.257	-0.102
-638.638	-200.000	-0.048	-0.226
-637.624	-145.285	-0.294	0.027
-636.609	-15.603	-0.315	-0.202
-635.595	-52.014	-0.191	0.089
-634.580	-136.855	0.368	-0.042
-633.565	48.480	0.067	0.063
-632.551	-26.680	-0.157	0.092
-631.536	-200.000	0.014	0.293
-630.522	-200.000	0.012	0.069
-629.507	643.875	-0.098	-0.250
-628.492	800.000	0.083	0.264
-627.478	800.000	-0.115	0.323
-626.463	-53.107	-0.308	0.142
-625.449	376.942	-0.112	-0.229
-624.434	177.396	-0.194	0.283
-623.419	62.502	0.160	0.160
-622.405	-177.475	0.300	-0.007
-621.390	-40.720	0.095	-0.049
-620.376	587.171	-0.127	0.312
-619.361	45.591	-0.108	0.100
-618.346	773.372	-0.112	-0.306
-617.332	-36.769	0.286	-0.154
-616.317	123.512	-0.190	0.239
-615.303	-64.972	-0.157	-0.063
-614.288	35.281	-0.204	0.180
-613.273	28.645	0.143	-0.121
-612.259	800.000	0.064	0.178
-611.244	-102.829	0.117	-0.028
-610.230	800.000	-0.003	0.011
-609.215	-38.265	-0.160	0.085
-608.201	-200.000	-0.006	-0.077
-607.186	-84.776	-0.262	-0.082
-606.171	16.973	0.230	-0.183
-605.157	355.243	-0.164	-0.327
-604.142	-162.845	0.321	-0.016
-603.128	-90.857	0.322	-0.093
-602.113	305.872	-0.095	-0.176
-601.098	163.118	-0.092	0.130
-600.084	7.489	-0.394	-0.295
-599.069	-62.702	0.296	0.123
-598.055	800.000	0.060	-0.199
-597.040	-200.000	-0.014	-0.126
-596.025	-120.202	-0.228	-0.039
-595.011	-57.921	0.212	-0.093
-593.996	800.000	-0.078	0.224
-592.982	132.940	0.080	-0.104
-591.967	668.377	0.139	-0.360
-590.952	-174.709	-0.192	-0.005
-589.938	-88.033	0.170	-0.051
-588.923	-25.180	-0.065	-0.039
-587.909	-200.000	-0.013	-0.087
-586.894	361.006	-0.185	-0.372
-585.879	-85.092	0.408	0.128
-584.865	-87.742	-0.447	0.135
-583.850	204.825	0.114	-0.177
-582.836	-76.949	0.123	-0.043
-581.821	183.879	-0.091	0.134
-580.806	-27.639	-0.106	0.062
-579.792	-1.975	0.369	0.259
-578.777	800.000	-0.110	0.460
-577.763	-200.000	-0.021	0.483
-576.748	571.370	0.069	-0.169
-575.733	-200.000	-0.027	0.143
-574.719	146.768	-0.131	-0.177
-573.704	722.519	-0.070	-0.187
-572.690	-76.993	0.300	-0.105
-571.675	-52.945	0.121	0.055
-570.661	-119.373	0.252	0.044
-569.646	341.396	-0.055	0.107
-568.631	-86.502	-0.321	-0.098
-567.617	800.000	0.091	-0.309
-566.602	190.746	-0.196	-0.295
-565.588	-2.067	-0.336	-0.236
-564.573	53.785	-0.213	0.205
-563.558	49.388	0.263	0.247
-562.544	-4.124	-0.205	0.142
-561.529	24.593	0.207	0.171
-560.515	-84.766	-0.063	-0.020
-559.500	-65.967	0.239	0.095
-558.485	-126.256	-0.136	-0.020
-557.471	126.289	-0.159	-0.202
-556.456	243.782	0.120	0.201
-555.442	102.134	-0.267	-0.312
-554.427	455.526	0.141	0.312
-553.412	-200.000	-0.060	-0.426
-552.398	77.209	0.239	0.254
-551.383	326.634	-0.215	0.412
-550.369	-171.673	-0.380	0.013
-549.354	100.397	0.138	-0.160
-548.339	-200.000	-0.072	-0.514
-547.325	491.050	0.096	-0.219
-546.310	-200.000	0.011	-0.092
-545.296	26.789	-0.352	0.295
-544.281	-150.955	-0.368	-0.028
-543.266	-129.299	0.099	-0.014
-542.252	-69.276	0.269	-0.103
-541.237	-74.686	-0.101	0.036
-540.223	588.613	0.095	-0.234
-539.208	-15.079	-0.064	0.041
-538.193	224.809	-0.076	0.122
-537.179	-123.480	-0.448	-0.071
-536.164	800.000	-0.046	-0.164
-535.150	18.299	0.273	-0.218
-534.135	-27.688	0.030	-0.018
-533.121	40.768	-0.268	-0.241
-532.106	222.218	-0.060	0.097
-531.091	-89.988	-0.079	0.023
-530.077	28.954	0.239	-0.203
-529.062	-200.000	0.015	0.222
-528.048	235.290	-0.246	-0.405
-527.033	-200.000	0.080	0.393
-526.018	-200.000	-0.008	-0.045
-525.004	-79.894	0.311	-0.105
-523.989	-84.865	-0.081	0.025
-522.975	-53.605	0.319	0.146
-521.960	-54.725	0.180	-0.081
-520.945	149.841	-0.099	-0.134
-519.931	800.000	0.070	-0.210
-518.916	58.736	0.221	0.217
-517.902	-12.587	-0.164	-0.107
-516.887	45.264	0.185	0.170
-515.872	-44.664	0.157	0.078
-514.858	35.472	0.205	0.179
-513.843	-70.069	0.113	-0.043
-512.829	13.378	-0.197	0.153
-511.814	-86.367	0.043	0.013
-510.799	21.698	-0.079	0.064
-509.785	-200.000	-0.000	-0.098
-508.770	800.000	0.027	-0.082
-507.756	73.859	0.268	0.281
-506.741	6.614	0.128	-0.095
-505.726	-68.117	-0.196	0.076
-504.712	-133.806	-0.192	-0.024
-503.697	-200.000	0.011	0.195
-502.683	-200.000	-0.072	-0.318
-501.668	-200.000	-0.023	0.181
-500.653	121.045	-0.123	-0.152
-499.639	119.731	-0.083	0.103
-498.624	-31.021	0.262	0.147
-497.610	-75.700	-0.201	-0.071
-496.595	196.920	0.047	-0.071
-495.581	-200.000	0.002	0.053
-494.566	-200.000	-0.008	-0.238
-493.551	51.830	0.079	-0.075
-492.537	-23.108	0.331	-0.199
-491.522	12.331	-0.399	-0.306
-490.508	-60.210	0.113	-0.048
-489.493	-115.168	0.323	0.061
-488.478	-200.000	-0.018	-0.108
-487.464	-14.171	-0.328	-0.211
-486.449	-16.698	-0.268	-0.169
-485.435	-200.000	0.037	-0.168
-484.420	329.720	0.082	0.157
-483.405	-61.639	-0.236	0.099
-482.391	272.791	-0.025	-0.043
-481.376	225.222	-0.058	0.093
-480.362	-200.000	0.064	-0.289
-479.347	-27.863	0.173	-0.100
-478.332	-51.953	-0.153	-0.071
-477.318	-200.000	-0.038	0.352
-476.303	203.798	0.036	0.056
-475.289	519.235	-0.056	0.130
-474.274	800.000	-0.069	0.228
-473.259	210.275	-0.051	0.080
-472.245	-50.210	-0.189	-0.089
-471.230	-200.000	0.028	-0.271
-470.216	47.264	-0.054	-0.050
-469.201	431.731	0.164	0.354
-468.186	-55.391	-0.256	0.114
-467.172	36.983	-0.072	0.064
-466.157	221.442	-0.115	0.184
-465.143	800.000	0.071	0.252
-464.128	-49.580	-0.324	-0.154
-463.113	-67.544	0.489	0.191
-462.099	800.000	0.092	0.330
-461.084	-154.869	-0.423	0.028
-460.070	379.451	-0.135	0.275
-459.055	269.055	0.082	-0.144
-458.040	164.229	0.281	0.395
-457.026	800.000	-0.166	-0.503
-456.011	-149.265	-0.332	-0.026
-454.997	103.709	-0.209	-0.244
-453.982	-44.284	0.175	-0.087
-452.968	-200.000	0.026	0.137
-451.953	354.561	-0.180	0.356
-450.938	57.088	0.089	0.087
-449.924	-44.500	-0.307	0.153
-448.909	-85.955	-0.119	-0.037
-447.895	-200.000	0.002	0.279
-446.880	357.607	-0.063	0.125
-445.865	628.131	-0.049	0.124
-444.851	784.781	-0.154	0.419
-443.836	-121.136	-0.496	0.083
-442.822	-0.991	0.146	0.103
-441.807	-81.749	-0.148	-0.048
-440.792	-158.735	-0.137	-0.008
-439.778	-60.352	0.101	0.043
-438.763	17.751	-0.142	-0.112
-437.749	800.000	-0.069	0.206
-436.734	132.617	-0.105	-0.135
-435.719	800.000	0.066	0.197
-434.705	-200.000	0.026	0.310
-433.690	-200.000	0.026	0.294
-432.676	-137.115	-0.089	0.010
-431.661	-84.693	0.364	-0.114
-430.646	0.680	0.277	-0.197
-429.632	-200.000	0.071	0.396
-428.617	-27.613	0.213	-0.123
-427.603	682.963	-0.082	0.212
-426.588	-107.115	0.066	-0.014
-425.573	-200.000	-0.007	0.238
-424.559	-129.318	-0.271	-0.038
-423.544	187.572	-0.195	-0.290
-422.530	-114.614	0.231	-0.044
-421.515	290.260	-0.090	0.163
-420.500	-200.000	0.015	-0.193
-419.486	711.446	-0.036	-0.096
-418.471	88.113	-0.108	-0.119
-417.457	376.513	0.100	-0.202
-416.442	417.845	-0.084	-0.179
-415.428	-53.757	0.102	-0.046
-414.413	-190.481	-0.155	0.002
-413.398	-69.849	0.158	0.060
-412.384	-200.000	-0.016	-0.139
-411.369	241.938	0.161	0.267
-410.355	-200.000	0.020	0.170
-409.340	181.500	0.080	0.118
-408.325	42.859	0.142	-0.129
-407.311	328.617	-0.036	0.068
-406.296	-94.920	-0.111	0.030
-405.282	224.339	-0.062	-0.100
-404.267	263.027	0.136	-0.235
-403.252	-109.761	0.175	-0.036
-402.238	-92.818	0.032	0.009
-401.223	-49.130	0.109	-0.052
-400.209	470.564	-0.021	0.047
-399.194	-115.269	-0.272	-0.051
-398.179	2.654	-0.099	0.071
-397.165	430.391	-0.073	-0.158
-396.150	-100.888	0.465	0.114
-395.136	161.649	-0.143	-0.198
-394.121	511.979	0.106	-0.245
-393.106	89.255	0.091	0.100
-392.092	536.688	-0.067	-0.157
-391.077	141.455	-0.279	0.367
-390.063	-17.166	0.169	0.106
-389.048	202.125	-0.211	0.323
-388.033	108.841	0.043	0.051
-387.019	-87.608	0.122	0.036
-386.004	123.033	0.126	0.157
-384.990	-200.000	0.032	0.272
-383.975	-22.679	-0.167	0.100
-382.960	-200.000	-0.053	-0.320
-381.946	-116.594	0.236	0.043
-380.931	90.856	0.084	-0.094
-379.917	-89.869	-0.160	0.046
-378.902	743.257	0.065	-0.175
-377.888	135.884	-0.214	0.277
-376.873	-68.326	-0.149	-0.058
-375.858	214.138	-0.103	0.162
-374.844	-152.912	0.060	-0.004
-373.829	-200.000	0.087	-0.432
-372.815	-49.474	0.147	-0.069
-371.800	800.000	-0.071	-0.244
-370.785	2.687	0.093	-0.067
-369.771	-86.580	-0.102	-0.031
-368.756	90.006	0.129	-0.143
-367.742	800.000	0.068	0.201
-366.727	-131.420	-0.373	0.049
-365.712	-181.881	-0.371	0.007
-364.698	-12.931	0.270	0.174
-363.683	800.000	-0.088	0.246
-362.669	-200.000	0.024	-0.117
-361.654	-5.704	0.330	-0.225
-360.639	-200.000	0.050	-0.265
-359.625	-139.254	0.152	0.016
-358.610	64.345	0.127	0.127
-357.596	-110.443	0.273	-0.056
-356.581	800.000	0.029	-0.088
-355.566	553.301	0.145	0.345
-354.552	-200.000	-0.034	-0.524
-353.537	800.000	0.005	-0.018
-352.523	122.520	-0.382	-0.474
-351.508	-68.885	0.337	0.129
-350.493	-20.147	-0.506	-0.309
-349.479	97.205	0.118	0.134
-348.464	284.558	-0.047	0.083
-347.450	800.000	-0.037	-0.153
-346.435	-73.986	0.322	-0.116
-345.420	188.520	0.113	-0.167
-344.406	-46.013	-0.050	-0.025
-343.391	-139.775	0.238	-0.025
-342.377	45.933	0.082	-0.075
-341.362	-91.104	-0.356	-0.101
-340.348	-42.530	0.112	0.057
-339.333	149.525	-0.025	-0.034
-338.318	419.624	-0.119	0.252
-337.304	-200.000	-0.045	0.410
-336.289	376.457	0.089	0.181
-335.275	63.147	0.200	0.199
-334.260	27.534	-0.141	0.118
-333.245	-14.266	0.211	-0.135
-332.231	-85.495	0.185	0.057
-331.216	-52.049	0.144	0.066
-330.202	-99.079	0.144	-0.036
-329.187	-24.146	0.129	-0.076
-328.172	-52.966	0.223	-0.102
-327.158	-4.585	0.238	0.163
-326.143	600.469	-0.043	-0.105
-325.129	239.267	0.117	-0.193
-324.114	337.487	-0.092	-0.176
-323.099	-114.584	0.555	0.105
-322.085	-97.078	-0.079	-0.020
-321.070	-200.000	-0.003	-0.303
-320.056	-138.954	0.226	0.024
-319.041	-30.529	-0.140	0.078
-318.026	-4.790	0.054	-0.037
-317.012	527.865	0.089	0.207
-315.997	-71.306	0.095	0.035
-314.983	800.000	0.097	0.285
-313.968	800.000	-0.024	0.087
-312.953	116.404	-0.203	-0.247
-311.939	800.000	0.050	0.141
-310.924	800.000	0.042	0.129
-309.910	-121.168	-0.194	-0.032
-308.895	800.000	0.053	-0.197
-307.880	-69.278	-0.310	-0.118
-306.866	800.000	0.031	-0.121
-305.851	-10.834	0.190	-0.124
-304.837	-200.000	0.002	0.045
-303.822	-91.883	-0.139	-0.039
-302.807	382.759	-0.059	0.120
-301.793	1.052	0.235	0.166
-300.778	39.243	0.078	-0.069
-299.764	17.709	0.296	-0.233
-298.749	800.000	-0.062	0.265
-297.735	-84.856	-0.322	-0.100
-296.720	800.000	0.072	0.258
-295.705	-5.551	0.016	-0.011
-294.691	135.366	-0.147	-0.189
-293.676	-125.398	0.339	-0.051
-292.662	-19.360	-0.072	0.044
-291.647	95.693	-0.196	0.221
-290.632	3.783	-0.091	-0.065
-289.618	131.159	0.103	-0.131
-288.603	-116.755	0.312	-0.057
-287.589	-200.000	0.005	0.086
-286.574	90.550	-0.158	-0.175
-285.559	-22.622	0.052	0.031
-284.545	422.031	0.058	-0.124
-283.530	413.907	-0.063	0.132
-282.516	-23.597	0.198	-0.117
-281.501	405.458	0.139	0.289
-280.486	-71.382	0.132	0.049
-279.472	-5.400	0.124	-0.084
-278.457	-200.000	0.004	-0.121
-277.443	160.633	-0.133	0.184
-276.428	0.283	-0.155	-0.109
-275.413	448.689	-0.075	-0.164
-274.399	-115.325	0.066	0.012
-273.384	356.774	-0.029	0.057
-272.370	143.867	-0.140	0.184
-271.355	-8.925	0.382	0.253
-270.340	-84.628	-0.146	0.046
-269.326	-52.318	0.295	-0.135
-268.311	-184.061	-0.209	0.003
-267.297	218.895	-0.086	-0.136
-266.282	70.476	-0.181	-0.185
-265.267	10.010	-0.284	-0.213
-264.253	-200.000	0.000	0.135
-263.238	-200.000	-0.046	-0.237
-262.224	-15.887	-0.254	-0.160
-261.209	-2.173	0.511	-0.355
-260.195	189.931	-0.171	0.254
-259.180	300.579	-0.029	0.053
-258.165	9.807	-0.184	-0.138
-257.151	249.424	-0.134	0.224
-256.136	210.538	0.125	0.194
-255.122	-149.307	0.120	0.009
-254.107	-181.981	-0.157	-0.003
-253.092	537.237	0.088	0.206
-252.078	-167.245	0.046	0.002
-251.063	800.000	-0.088	-0.240
-250.049	150.516	0.059	-0.079
-249.034	138.805	-0.266	-0.345
-248.019	-2.848	0.256	-0.177
-247.005	-29.965	0.316	-0.178
-245.990	41.337	-0.171	0.153
-244.976	99.607	0.117	0.133
-243.961	-155.200	0.251	-0.016
-242.946	316.123	-0.057	0.105
-241.932	-144.186	-0.274	0.025
-240.917	-65.761	0.065	-0.026
-239.903	180.608	0.097	-0.140
-238.888	48.159	-0.126	-0.117
-237.873	45.254	-0.058	0.053
-236.859	-194.089	0.064	-0.001
-235.844	-70.501	-0.198	0.074
-234.830	165.191	0.136	-0.189
-233.815	-156.947	-0.291	0.018
-232.800	-100.286	0.312	0.076
-231.786	33.982	0.066	0.057
-230.771	-200.000	-0.009	0.083
-229.757	-46.549	0.197	-0.095
-228.742	800.000	0.099	-0.289
-227.727	-140.319	0.107	0.011
-226.713	-123.478	0.132	-0.021
-225.698	75.133	-0.208	0.216
-224.684	223.952	-0.119	-0.189
-223.669	-63.909	0.303	-0.122
-222.655	371.262	0.074	0.148
-221.640	800.000	-0.024	0.084
-220.625	-200.000	-0.030	-0.134
-219.611	110.890	-0.123	-0.146
-218.596	121.989	0.152	-0.187
-217.582	-200.000	-0.008	-0.096
-216.567	162.816	0.179	-0.248
-215.552	-105.759	0.301	0.067
-214.538	100.545	0.163	-0.186
-213.523	190.478	-0.012	-0.018
-212.509	-117.352	0.167	-0.030
-211.494	-30.713	-0.109	0.061
-210.479	-52.061	0.314	0.144
-209.465	113.199	0.190	0.228
-208.450	-62.474	-0.118	-0.049
-207.436	-145.535	0.287	-0.025
-206.421	-162.768	-0.143	-0.007
-205.406	-143.880	-0.395	0.037
-204.392	-3.983	-0.073	0.050
-203.377	-200.000	0.036	0.186
-202.363	147.007	0.080	0.106
-201.348	398.820	0.072	-0.148
-200.333	262.856	0.147	0.251
-199.319	-36.426	0.086	-0.045
-198.304	-200.000	-0.023	0.208
-197.290	-84.518	-0.097	0.030
-196.275	-122.855	0.251	0.040
-195.260	169.630	-0.068	0.095
-194.246	211.691	0.110	-0.171
-193.231	-10.430	-0.154	-0.101
-192.217	-200.000	0.008	-0.120
-191.202	712.492	0.095	-0.247
-190.187	-200.000	-0.035	0.269
-189.173	-200.000	-0.018	0.131
-188.158	148.643	-0.149	-0.198
-187.144	-181.879	0.508	0.010
-186.129	-77.107	-0.151	-0.052
-185.114	-200.000	-0.001	-0.333
-184.100	-200.000	-0.028	0.227
-183.085	123.212	0.154	0.191
-182.071	-110.002	0.199	0.041
-181.056	708.738	-0.083	0.216
-180.042	443.192	-0.049	-0.105
-179.027	-200.000	0.027	0.349
-178.012	800.000	-0.124	0.347
-176.998	-131.111	0.163	0.021
-175.983	-16.297	-0.241	-0.150
-174.969	-200.000	0.013	-0.345
-173.954	-200.000	0.008	0.265
-172.939	-124.309	0.093	-0.014
-171.925	107.674	0.081	0.095
-170.910	81.472	-0.223	0.238
-169.896	-200.000	0.065	-0.306
-168.881	105.011	0.279	-0.324
-167.866	-76.742	-0.283	-0.098
-166.852	-44.011	-0.444	0.219
-165.837	-55.610	0.076	0.033
-164.823	16.016	-0.100	-0.078
-163.808	230.091	0.012	-0.020
-162.793	-23.777	0.153	0.090
-161.779	-136.487	-0.041	0.005
-160.764	-200.000	-0.024	0.280
-159.750	265.135	-0.034	-0.058
-158.735	-145.207	-0.065	0.006
-157.720	-53.533	-0.320	0.144
-156.706	44.173	0.048	0.044
-155.691	-38.172	0.033	-0.017
-154.677	-200.000	-0.016	0.148
-153.662	-21.316	-0.166	-0.100
-152.647	800.000	-0.071	0.279
-151.633	-177.031	-0.196	-0.005
-150.618	800.000	-0.112	-0.372
-149.604	5.031	-0.056	0.041
-148.589	152.577	-0.273	-0.367
-147.574	-200.000	-0.031	-0.179
-146.560	-183.588	-0.314	-0.005
-145.545	-130.417	0.328	-0.044
-144.531	-45.919	0.180	-0.087
-143.516	30.634	0.080	0.067
-142.502	-60.866	-0.405	-0.169
-141.487	-200.000	0.015	-0.114
-140.472	-52.112	0.045	0.021
-139.458	25.852	0.105	-0.086
-138.443	-200.000	-0.031	0.444
-137.429	-134.868	0.137	0.016
-136.414	-180.096	0.473	0.010
-135.399	-200.000	0.021	-0.142
-134.385	-200.000	-0.032	0.164
-133.370	-88.901	0.208	0.061
-132.356	-37.516	-0.323	-0.170
-131.341	-142.770	-0.013	0.001
-130.326	-200.000	0.071	-0.315
-129.312	-200.000	0.227	0.000
-128.297	-156.824	0.459	-0.028
-127.283	-130.802	0.244	0.032
-126.268	-200.000	0.009	0.178
-125.253	-200.000	0.041	0.238
-124.239	-24.616	-0.043	0.025
-123.224	-75.837	0.246	0.086
-122.210	238.959	-0.009	0.015
-121.195	85.229	0.070	0.076
