DTS Sentinel unit serial number:	SN413079Multiplexer serial number:	ORYXHardware model number:	OX4-SRSoftware version number:	ORYX F/W v4.00 Oryx Data Collector v3.7.2.0data status	okinstallation	princeton_trtdifferential loss correction	single-endedforward channel	channel 1reverse channel	N/Adate	2019/09/12time	23:54:35forward acquisition time	60.00reverse acquisition time	0.00gamma	496.2192k internal	0.2328k external	0.2328temperature offset calibration	1.0147default loss term (dB/km)	0.3790temperature slope calibration	1.0000multiplexer offset coefficient	1.0000multiplexer slope coefficient	1.0000fibre end	0.00T internal ref (°C)	28.72T ext. ref 1 (°C)	3.77T ext. ref 2 (°C)	23.41length (m)	temperature (°C)	Stokes	anti-Stokes-747.200	27.235	0.098	-0.083
-746.185	-138.067	-0.075	-0.008
-745.171	-74.218	0.135	0.049
-744.156	-124.171	0.174	-0.028
-743.142	307.908	-0.099	0.185
-742.127	284.124	0.188	0.340
-741.112	800.000	0.053	0.190
-740.098	374.092	-0.056	0.114
-739.083	-94.252	0.114	-0.032
-738.069	800.000	-0.024	0.077
-737.054	-200.000	-0.004	0.046
-736.039	-76.438	-0.112	0.040
-735.025	-63.829	0.253	0.104
-734.010	7.067	-0.295	-0.221
-732.996	-38.985	-0.355	-0.188
-731.981	-200.000	-0.029	-0.192
-730.966	4.966	-0.237	-0.175
-729.952	-91.241	0.109	-0.032
-728.937	159.352	0.077	0.108
-727.923	98.401	0.077	0.090
-726.908	-122.822	-0.319	-0.052
-725.894	-100.366	0.241	0.060
-724.879	-128.622	0.163	-0.023
-723.864	33.697	0.178	0.156
-722.850	-102.863	-0.027	-0.007
-721.835	-129.784	0.229	-0.032
-720.821	800.000	0.049	-0.152
-719.806	-4.021	0.050	0.035
-718.791	-96.065	-0.437	-0.117
-717.777	-11.471	0.058	0.038
-716.762	172.014	-0.165	-0.239
-715.748	-200.000	-0.070	-0.322
-714.733	153.493	-0.183	0.252
-713.718	-24.390	-0.225	-0.135
-712.704	-200.000	-0.004	-0.147
-711.689	218.152	0.025	-0.040
-710.675	800.000	-0.095	-0.300
-709.660	286.496	-0.181	-0.328
-708.645	-76.824	-0.063	-0.022
-707.631	392.244	-0.216	-0.451
-706.616	512.255	0.165	-0.387
-705.602	-89.657	0.152	0.045
-704.587	419.076	0.091	-0.197
-703.572	331.502	0.175	-0.339
-702.558	800.000	0.071	0.224
-701.543	11.433	0.067	-0.052
-700.529	-65.498	0.128	0.052
-699.514	-96.227	0.239	0.064
-698.499	-179.526	0.204	-0.004
-697.485	-200.000	-0.018	-0.309
-696.470	-200.000	0.051	0.358
-695.456	107.881	0.111	-0.132
-694.441	-0.985	0.104	0.074
-693.426	800.000	-0.126	0.540
-692.412	-20.873	0.051	0.032
-691.397	156.822	0.051	-0.071
-690.383	-170.563	0.084	0.003
-689.368	-50.177	-0.167	-0.079
-688.354	-200.000	-0.021	-0.666
-687.339	-25.619	-0.310	-0.184
-686.324	118.477	0.125	0.155
-685.310	-123.794	0.123	-0.020
-684.295	-186.165	0.018	0.000
-683.281	-185.433	-0.188	-0.003
-682.266	347.474	0.090	-0.178
-681.251	-200.000	0.030	-0.285
-680.237	-138.842	-0.275	0.030
-679.222	317.669	-0.170	0.324
-678.208	800.000	-0.063	0.253
-677.193	-124.571	-0.282	0.044
-676.178	-131.906	-0.045	0.006
-675.164	-190.987	-0.191	-0.002
-674.149	237.395	0.078	-0.130
-673.135	-200.000	-0.061	-0.356
-672.120	-50.819	-0.428	-0.202
-671.105	800.000	-0.030	0.094
-670.091	391.090	0.060	-0.126
-669.076	800.000	0.056	0.223
-668.062	-200.000	-0.017	0.236
-667.047	-200.000	0.001	0.317
-666.032	-3.206	-0.217	-0.152
-665.018	441.506	-0.135	-0.296
-664.003	147.800	-0.136	-0.184
-662.989	132.337	-0.118	0.153
-661.974	800.000	-0.081	-0.267
-660.959	-172.259	0.131	0.004
-659.945	800.000	0.063	0.208
-658.930	312.497	-0.181	-0.341
-657.916	-101.598	0.308	-0.075
-656.901	-200.000	-0.009	-0.111
-655.886	301.174	-0.114	-0.211
-654.872	-13.804	-0.115	0.074
-653.857	84.959	-0.190	0.209
-652.843	300.301	-0.128	0.238
-651.828	800.000	-0.050	0.159
-650.814	-200.000	0.051	-0.235
-649.799	193.832	-0.187	-0.284
-648.784	-200.000	-0.021	0.336
-647.770	-200.000	-0.006	0.088
-646.755	198.069	0.149	-0.229
-645.741	-41.070	0.126	0.065
-644.726	-200.000	-0.003	0.164
-643.711	800.000	-0.027	0.112
-642.697	-200.000	-0.036	-0.310
-641.682	541.339	-0.063	-0.150
-640.668	792.749	0.041	0.113
-639.653	-40.009	0.172	-0.090
-638.638	426.263	0.224	-0.484
-637.624	-80.559	0.346	0.116
-636.609	-112.003	-0.562	0.114
-635.595	-200.000	-0.028	-0.161
-634.580	71.335	-0.105	0.110
-633.565	-138.656	-0.541	-0.059
-632.551	166.766	-0.219	-0.312
-631.536	-118.252	-0.386	-0.069
-630.522	485.977	-0.083	0.191
-629.507	292.875	-0.082	0.150
-628.492	-200.000	-0.016	-0.089
-627.478	-105.721	0.400	-0.091
-626.463	-146.385	-0.365	0.032
-625.449	29.122	0.143	-0.121
-624.434	-103.249	-0.188	0.044
-623.419	-72.164	-0.120	0.045
-622.405	665.883	0.054	-0.140
-621.390	-0.181	-0.101	-0.072
-620.376	-98.164	0.119	0.031
-619.361	-119.891	-0.203	0.035
-618.346	-22.772	0.082	-0.050
-617.332	-130.528	0.328	-0.044
-616.317	671.746	-0.063	-0.164
-615.303	-110.082	-0.314	0.066
-614.288	15.516	-0.147	-0.116
-613.273	437.011	-0.052	0.114
-612.259	638.128	0.089	-0.227
-611.244	500.047	-0.047	-0.109
-610.230	687.138	-0.025	-0.067
-609.215	418.160	-0.172	-0.369
-608.201	5.220	0.100	-0.074
-607.186	791.629	-0.047	-0.130
-606.171	289.795	0.163	-0.297
-605.157	4.983	0.219	0.162
-604.142	138.755	0.131	-0.173
-603.128	13.358	0.162	-0.126
-602.113	-43.100	0.161	-0.082
-601.098	-200.000	-0.011	0.368
-600.084	-44.485	-0.221	-0.111
-599.069	-143.830	-0.112	-0.011
-598.055	-194.353	-0.211	0.002
-597.040	117.170	0.170	-0.209
-596.025	-30.569	0.152	0.086
-595.011	-200.000	0.021	0.137
-593.996	-73.796	-0.200	0.073
-592.982	-97.958	0.070	0.018
-591.967	-97.009	-0.230	0.060
-590.952	-200.000	-0.062	-0.278
-589.938	-200.000	0.039	-0.407
-588.923	-117.232	-0.147	0.027
-587.909	-36.433	0.049	-0.027
-586.894	-96.432	0.035	-0.009
-585.879	9.067	-0.102	0.077
-584.865	-200.000	0.036	-0.290
-583.850	-80.573	-0.043	0.014
-582.836	800.000	-0.094	0.331
-581.821	-15.840	0.076	-0.048
-580.806	-151.495	0.132	-0.010
-579.792	178.381	0.087	0.127
-578.777	136.763	0.041	0.053
-577.763	-82.696	0.140	-0.045
-576.748	-122.085	0.224	0.037
-575.733	420.879	-0.040	-0.085
-574.719	800.000	0.082	-0.322
-573.704	55.111	0.110	-0.107
-572.690	-129.700	-0.118	-0.016
-571.675	51.804	-0.424	-0.404
-570.661	-92.127	0.330	-0.093
-569.646	-164.251	-0.366	-0.017
-568.631	451.766	0.089	0.198
-567.617	-183.069	-0.255	-0.005
-566.602	800.000	0.085	0.278
-565.588	-127.244	0.263	0.039
-564.573	-101.593	-0.209	0.051
-563.558	-147.161	-0.237	0.020
-562.544	-200.000	-0.057	0.279
-561.529	-200.000	-0.002	0.214
-560.515	-129.527	-0.293	0.041
-559.500	-106.121	-0.267	-0.060
-558.485	68.561	0.058	-0.059
-557.471	108.502	-0.180	0.215
-556.456	501.436	0.080	-0.186
-555.442	-200.000	-0.033	-0.235
-554.427	24.559	-0.202	-0.167
-553.412	800.000	-0.047	-0.132
-552.398	800.000	0.048	0.131
-551.383	-118.177	-0.219	0.039
-550.369	-38.396	-0.149	0.079
-549.354	137.158	0.111	0.145
-548.339	-200.000	-0.005	0.044
-547.325	203.534	0.100	-0.155
-546.310	-101.761	0.249	-0.060
-545.296	-94.449	-0.242	-0.066
-544.281	-50.824	-0.255	-0.120
-543.266	-101.745	0.114	-0.028
-542.252	-135.947	0.357	-0.042
-541.237	-28.650	-0.131	-0.076
-540.223	-40.667	-0.202	-0.105
-539.208	-117.982	-0.180	-0.032
-538.193	-23.293	-0.356	-0.214
-537.179	487.663	-0.072	-0.165
-536.164	-200.000	-0.002	0.045
-535.150	-200.000	-0.038	-0.177
-534.135	154.513	0.085	-0.117
-533.121	-127.436	0.241	0.035
-532.106	-200.000	-0.026	0.218
-531.091	67.179	0.202	-0.206
-530.077	-170.638	-0.361	-0.013
-529.062	-37.205	0.329	-0.176
-528.048	88.683	-0.183	0.203
-527.033	44.566	-0.092	0.085
-526.018	90.078	0.139	-0.155
-525.004	84.776	0.122	0.134
-523.989	24.502	-0.194	0.161
-522.975	-200.000	-0.041	-0.316
-521.960	-200.000	-0.019	-0.297
-520.945	-200.000	0.036	-0.399
-519.931	40.110	0.105	0.095
-518.916	384.970	-0.065	-0.135
-517.902	-74.672	0.209	0.075
-516.887	-200.000	-0.004	0.297
-515.872	-200.000	0.059	0.336
-514.858	-27.520	0.315	-0.183
-513.843	228.534	0.091	0.149
-512.829	324.814	-0.110	0.210
-511.814	-38.019	0.290	-0.154
-510.799	-200.000	-0.017	0.178
-509.785	800.000	0.103	0.415
-508.770	42.707	0.143	0.130
-507.756	-78.659	-0.063	-0.021
-506.741	767.567	0.140	-0.381
-505.726	800.000	-0.044	-0.152
-504.712	45.711	0.291	0.268
-503.697	-200.000	-0.004	-0.071
-502.683	161.414	-0.112	0.157
-501.668	-164.141	0.205	0.009
-500.653	800.000	-0.103	0.287
-499.639	-66.304	-0.099	-0.039
-498.624	-51.259	-0.214	0.100
-497.610	800.000	-0.012	-0.051
-496.595	-29.481	-0.137	-0.078
-495.581	315.945	-0.093	0.175
-494.566	800.000	-0.031	0.119
-493.551	190.296	0.054	-0.080
-492.537	-72.972	0.267	0.098
-491.522	-200.000	-0.012	-0.118
-490.508	800.000	-0.070	-0.269
-489.493	3.804	-0.191	-0.139
-488.478	-112.091	0.393	0.079
-487.464	79.229	0.031	0.034
-486.449	-164.544	0.113	-0.005
-485.435	450.028	-0.026	-0.058
-484.420	-179.558	-0.188	-0.004
-483.405	6.922	0.177	0.131
-482.391	-149.141	-0.276	-0.022
-481.376	-163.146	0.324	0.016
-480.362	-200.000	0.002	-0.089
-479.347	-0.649	-0.088	-0.062
-478.332	48.091	0.137	-0.128
-477.318	35.430	-0.128	-0.112
-476.303	74.973	0.164	-0.172
-475.289	-200.000	0.041	0.194
-474.274	-157.975	0.193	0.011
-473.259	87.197	-0.043	0.048
-472.245	696.910	0.027	0.071
-471.230	53.522	-0.123	0.118
-470.216	-4.175	0.223	-0.154
-469.201	-200.000	-0.000	-0.259
-468.186	-91.266	-0.114	-0.033
-467.172	432.900	0.096	-0.209
-466.157	143.922	-0.084	-0.112
-465.143	-84.800	0.393	-0.123
-464.128	277.530	-0.107	-0.191
-463.113	-200.000	-0.036	-0.386
-462.099	-59.290	-0.228	-0.098
-461.084	800.000	0.008	0.030
-460.070	-39.306	0.177	-0.093
-459.055	-26.484	0.166	-0.097
-458.040	-200.000	0.024	0.177
-457.026	-13.912	0.085	0.055
-456.011	69.443	-0.250	-0.256
-454.997	63.404	0.226	-0.226
-453.982	128.376	-0.111	0.141
-452.968	-200.000	-0.002	0.214
-451.953	48.473	-0.248	0.232
-450.938	79.889	-0.128	0.137
-449.924	-168.006	-0.162	-0.006
-448.909	125.336	0.099	0.124
-447.895	-117.016	0.105	-0.019
-446.880	-151.993	-0.154	-0.011
-445.865	-126.102	-0.152	0.023
-444.851	316.399	-0.180	-0.339
-443.836	-85.588	0.159	-0.049
-442.822	-84.401	-0.176	0.055
-441.807	-200.000	-0.026	-0.143
-440.792	-200.000	-0.024	0.118
-439.778	556.968	0.100	-0.240
-438.763	-88.060	-0.198	0.059
-437.749	105.408	-0.164	-0.193
-436.734	-58.718	-0.166	-0.071
-435.719	-149.791	-0.121	-0.009
-434.705	-104.547	0.102	0.023
-433.690	800.000	0.010	-0.036
-432.676	-186.633	-0.034	-0.000
-431.661	-51.311	0.317	-0.147
-430.646	800.000	0.073	-0.237
-429.632	51.993	0.215	-0.204
-428.617	-10.277	-0.269	-0.178
-427.603	139.735	0.066	-0.087
-426.588	5.219	-0.112	-0.082
-425.573	-88.755	-0.231	0.068
-424.559	-191.913	0.180	0.002
-423.544	-86.831	-0.378	0.115
-422.530	-200.000	0.011	-0.114
-421.515	-64.460	0.027	-0.011
-420.500	774.797	-0.105	0.285
-419.486	48.928	0.205	-0.192
-418.471	396.443	0.082	-0.170
-417.457	-164.416	0.309	0.014
-416.442	-190.410	-0.031	-0.000
-415.428	-47.939	0.139	-0.067
-414.413	450.276	-0.190	-0.418
-413.398	-41.012	0.233	0.120
-412.384	7.218	0.215	-0.160
-411.369	53.380	0.221	-0.211
-410.355	70.752	-0.185	0.190
-409.340	92.229	0.185	-0.208
-408.325	-78.272	0.182	0.062
-407.311	-157.493	-0.088	0.005
-406.296	-200.000	-0.071	-0.435
-405.282	-83.457	-0.230	0.073
-404.267	-200.000	0.068	0.433
-403.252	30.238	0.276	-0.235
-402.238	339.763	-0.084	-0.163
-401.223	800.000	0.037	0.103
-400.209	-170.150	-0.106	-0.004
-399.194	-200.000	0.019	0.204
-398.179	-200.000	0.066	0.290
-397.165	-148.792	0.421	0.034
-396.150	146.853	-0.192	-0.256
-395.136	490.651	0.064	0.146
-394.121	47.480	-0.163	-0.151
-393.106	-110.453	-0.130	-0.027
-392.092	-0.555	-0.397	0.280
-391.077	-153.663	-0.138	0.009
-390.063	283.869	-0.056	0.101
-389.048	-64.778	-0.120	0.048
-388.033	-82.048	-0.102	-0.033
-387.019	595.605	-0.134	0.330
-386.004	800.000	-0.055	-0.207
-384.990	17.607	-0.428	0.338
-383.975	-200.000	-0.057	-0.285
-382.960	-200.000	0.008	-0.092
-381.946	-170.055	0.610	-0.022
-380.931	-112.250	-0.308	-0.061
-379.917	800.000	0.044	0.150
-378.902	-95.504	0.496	-0.132
-377.888	19.653	-0.083	0.066
-376.873	54.682	-0.165	-0.158
-375.858	455.914	0.043	0.094
-374.844	138.892	-0.113	0.148
-373.829	-34.462	0.076	0.041
-372.815	123.308	0.042	-0.053
-371.800	-200.000	-0.001	0.028
-370.785	27.393	0.152	-0.127
-369.771	-102.610	-0.322	0.076
-368.756	800.000	0.072	0.249
-367.742	-3.173	0.060	0.041
-366.727	334.422	0.027	-0.052
-365.712	-84.608	-0.233	0.073
-364.698	55.345	0.298	-0.286
-363.683	800.000	-0.045	-0.143
-362.669	800.000	0.087	-0.241
-361.654	-107.929	-0.115	-0.025
-360.639	-133.223	-0.136	-0.017
-359.625	172.142	-0.163	0.233
-358.610	486.903	0.125	0.284
-357.596	-93.279	0.200	0.055
-356.581	19.204	0.315	-0.251
-355.566	-30.453	0.041	0.023
-354.552	-61.529	-0.155	0.064
-353.537	-106.451	0.332	0.074
-352.523	-115.726	0.280	0.052
-351.508	499.866	0.067	-0.154
-350.493	63.754	-0.126	-0.126
-349.479	-32.335	0.216	-0.119
-348.464	-200.000	-0.091	0.475
-347.450	-71.914	-0.261	0.096
-346.435	130.915	0.136	-0.173
-345.420	-200.000	0.049	0.251
-344.406	-72.027	-0.150	0.055
-343.391	-200.000	0.004	0.229
-342.377	-200.000	-0.023	0.159
-341.362	-200.000	0.002	-0.150
-340.348	-200.000	0.004	-0.072
-339.333	-33.870	0.271	-0.148
-338.318	800.000	0.059	0.202
-337.304	116.080	0.097	-0.118
-336.289	-178.009	-0.380	0.009
-335.275	308.774	0.061	-0.114
-334.260	-200.000	0.000	-0.206
-333.245	-47.214	-0.179	-0.086
-332.231	242.145	0.091	0.151
-331.216	-200.000	-0.028	0.253
-330.202	800.000	-0.037	0.132
-329.187	-124.693	-0.265	-0.041
-328.172	-126.331	0.346	-0.051
-327.158	57.390	0.074	-0.072
-326.143	-48.889	0.123	0.058
-325.129	35.542	-0.233	0.203
-324.114	-200.000	0.023	0.508
-323.099	84.991	-0.055	0.059
-322.085	260.752	0.119	-0.204
-321.070	151.939	0.110	0.149
-320.056	-118.585	0.283	-0.050
-319.041	-67.918	0.089	-0.034
-318.026	417.804	-0.039	0.083
-317.012	-200.000	-0.007	0.340
-315.997	477.373	0.006	0.014
-314.983	433.950	0.084	-0.180
-313.968	800.000	-0.066	0.275
-312.953	800.000	-0.128	-0.365
-311.939	-64.978	0.361	-0.145
-310.924	800.000	-0.055	-0.152
-309.910	800.000	0.058	-0.169
-308.895	161.610	0.135	-0.188
-307.880	-26.487	0.020	-0.011
-306.866	-200.000	-0.002	0.139
-305.851	336.691	0.094	0.180
-304.837	-200.000	0.042	0.216
-303.822	800.000	0.120	0.373
-302.807	-99.066	0.075	-0.019
-301.793	-23.356	0.163	-0.097
-300.778	-152.129	0.009	-0.001
-299.764	-10.685	-0.267	0.175
-298.749	167.427	0.132	0.185
-297.735	-200.000	0.007	-0.200
-296.720	-53.118	-0.251	-0.114
-295.705	-119.136	0.272	0.047
-294.691	-163.342	0.269	0.013
-293.676	34.812	-0.226	0.196
-292.662	208.662	-0.089	-0.138
-291.647	69.324	0.069	0.070
-290.632	-127.042	0.161	-0.023
-289.618	96.885	-0.086	0.098
-288.603	-10.073	-0.069	0.046
-287.589	406.915	0.124	-0.259
-286.574	123.070	0.143	0.177
-285.559	-200.000	0.016	-0.238
-284.545	-37.160	0.094	0.050
-283.530	-40.519	0.152	0.078
-282.516	87.939	0.187	0.205
-281.501	-112.364	-0.197	0.039
-280.486	-200.000	-0.005	0.334
-279.472	800.000	0.029	-0.125
-278.457	247.246	-0.098	-0.164
-277.443	115.562	0.134	0.162
-276.428	-128.106	0.184	-0.026
-275.413	166.164	0.259	0.362
-274.399	35.726	-0.471	-0.409
-273.384	-43.702	0.365	0.182
-272.370	-200.000	0.025	-0.160
-271.355	347.791	0.079	-0.155
-270.340	-200.000	0.050	0.242
-269.326	-200.000	-0.004	0.205
-268.311	-97.520	0.047	0.012
-267.297	-200.000	-0.022	0.357
-266.282	-200.000	0.032	0.383
-265.267	418.732	0.161	0.340
-264.253	399.547	-0.092	0.191
-263.238	-67.427	0.052	0.020
-262.224	-51.184	0.015	-0.007
-261.209	-120.643	-0.370	0.062
-260.195	-103.162	0.385	-0.090
-259.180	-46.833	-0.359	-0.174
-258.165	233.866	-0.243	-0.396
-257.151	-160.669	-0.298	-0.016
-256.136	-200.000	0.012	0.101
-255.122	800.000	-0.085	0.290
-254.107	-55.161	0.147	0.065
-253.092	781.644	-0.058	0.156
-252.078	283.880	-0.093	0.165
-251.063	-200.000	0.026	0.159
-250.049	800.000	-0.055	0.169
-249.034	-11.602	-0.132	-0.086
-248.019	800.000	0.016	-0.048
-247.005	-200.000	0.001	0.243
-245.990	258.740	0.113	0.193
-244.976	-13.138	0.030	-0.020
-243.961	14.551	0.145	-0.112
-242.946	800.000	-0.057	0.199
-241.932	800.000	0.021	-0.066
-240.917	-90.734	-0.243	-0.069
-239.903	800.000	0.142	-0.461
-238.888	800.000	0.057	0.241
-237.873	136.299	0.023	0.030
-236.859	396.603	0.075	-0.154
-235.844	486.432	-0.035	0.080
-234.830	110.802	-0.104	0.124
-233.815	-200.000	-0.023	0.102
-232.800	800.000	-0.075	0.231
-231.786	7.095	0.158	0.116
-230.771	44.955	-0.277	0.252
-229.757	87.624	-0.016	-0.018
-228.742	-153.764	-0.176	0.012
-227.727	86.674	-0.148	-0.161
-226.713	-97.403	-0.289	0.074
-225.698	-114.029	0.329	-0.063
-224.684	-200.000	0.119	-0.598
-223.669	-83.639	-0.319	-0.101
-222.655	-137.483	-0.190	-0.021
-221.640	-143.920	0.252	0.023
-220.625	227.699	0.190	0.305
-219.611	-200.000	0.004	0.272
-218.596	1.413	0.122	0.087
-217.582	-128.607	0.531	0.074
-216.567	-127.043	-0.314	0.045
-215.552	-141.407	-0.205	-0.021
-214.538	800.000	-0.044	-0.130
-213.523	51.761	-0.319	0.300
-212.509	-12.165	0.201	-0.130
-211.494	361.475	-0.087	-0.171
-210.479	45.938	0.120	0.110
-209.465	-9.136	0.042	-0.028
-208.450	800.000	0.037	-0.106
-207.436	684.026	-0.077	0.198
-206.421	-200.000	0.006	-0.052
-205.406	792.697	0.101	0.274
-204.392	-50.653	0.672	0.312
-203.377	-128.894	-0.390	0.054
-202.363	13.716	-0.158	-0.121
-201.348	135.666	0.130	-0.166
-200.333	-84.987	-0.257	-0.079
-199.319	-152.770	-0.198	-0.014
-198.304	639.392	-0.087	0.219
-197.290	-105.918	0.059	0.013
-196.275	-120.875	-0.293	0.049
-195.260	-74.872	-0.101	-0.036
-194.246	-142.569	0.047	-0.005
-193.231	637.390	0.125	-0.314
-192.217	-85.511	-0.189	-0.058
-191.202	-200.000	0.021	0.276
-190.187	-33.841	0.192	0.104
-189.173	-5.839	-0.232	0.157
-188.158	-99.932	-0.160	-0.039
-187.144	240.758	-0.071	0.117
-186.129	-74.165	0.088	0.031
-185.114	0.251	0.181	0.128
-184.100	-90.845	0.042	0.012
-183.085	-37.977	0.120	0.063
-182.071	800.000	0.042	-0.171
-181.056	-119.282	-0.067	-0.011
-180.042	-104.783	-0.284	0.064
-179.027	-62.682	0.170	-0.069
-178.012	-75.512	-0.103	0.036
-176.998	227.427	0.119	0.191
-175.983	-36.072	-0.150	0.080
-174.969	-101.557	-0.181	0.043
-173.954	40.304	-0.275	0.244
-172.939	-44.229	-0.362	-0.179
-171.925	-34.299	0.275	0.149
-170.910	232.702	0.072	-0.117
-169.896	225.662	0.149	0.237
-168.881	-159.442	0.172	0.009
-167.866	-11.245	-0.153	0.099
-166.852	143.826	-0.097	0.127
-165.837	106.158	0.082	-0.095
-164.823	741.224	0.100	-0.264
-163.808	212.244	0.078	-0.121
-162.793	-47.984	0.052	-0.025
-161.779	-10.844	0.298	-0.194
-160.764	-128.738	-0.073	0.010
-159.750	61.188	0.119	0.116
-158.735	221.132	0.229	0.362
-157.720	-109.982	0.420	0.087
-156.706	800.000	0.064	0.213
-155.691	770.172	0.056	-0.150
-154.677	800.000	0.070	-0.223
-153.662	-200.000	0.040	-0.187
-152.647	127.038	0.072	0.090
-151.633	-200.000	0.041	0.390
-150.618	-44.942	-0.227	-0.112
-149.604	-134.547	-0.015	-0.002
-148.589	-84.300	0.111	-0.034
-147.574	293.776	0.034	-0.061
-146.560	-200.000	-0.019	0.135
-145.545	-103.435	0.114	0.026
-144.531	141.764	-0.340	0.444
-143.516	123.100	-0.102	-0.125
-142.502	-200.000	0.005	-0.372
-141.487	-200.000	0.001	0.164
-140.472	-68.256	-0.180	-0.069
-139.458	-200.000	0.015	0.250
-138.443	-132.777	-0.206	-0.026
-137.429	-29.496	0.202	0.113
-136.414	-71.341	0.364	-0.134
-135.399	-99.832	-0.030	-0.007
-134.385	-200.000	-0.001	0.217
-133.370	-200.000	-0.015	-0.091
-132.356	800.000	-0.143	0.391
-131.341	472.435	0.254	0.564
-130.326	373.689	-0.047	-0.094
-129.312	181.937	0.016	-0.024
-128.297	-200.000	0.016	0.086
-127.283	-127.636	0.023	0.003
-126.268	-123.036	0.117	0.019
-125.253	-5.738	0.260	0.175
-124.239	-200.000	-0.004	0.171
-123.224	33.610	0.115	-0.098
-122.210	191.920	0.209	-0.310
