DTS Sentinel unit serial number:	SN413079Multiplexer serial number:	ORYXHardware model number:	OX4-SRSoftware version number:	ORYX F/W v4.00 Oryx Data Collector v3.7.2.0data status	okinstallation	princeton_trtdifferential loss correction	single-endedforward channel	channel 1reverse channel	N/Adate	2019/09/17time	00:38:35forward acquisition time	60.00reverse acquisition time	0.00gamma	496.2192k internal	0.2324k external	0.2324temperature offset calibration	0.9961default loss term (dB/km)	0.3790temperature slope calibration	1.0000multiplexer offset coefficient	1.0000multiplexer slope coefficient	1.0000fibre end	0.00T internal ref (°C)	29.44T ext. ref 1 (°C)	0.12T ext. ref 2 (°C)	23.96length (m)	temperature (°C)	Stokes	anti-Stokes-747.200	800.000	0.028	0.121
-746.185	-64.292	-0.062	0.026
-745.171	-79.986	-0.245	0.083
-744.156	800.000	0.143	0.491
-743.142	-125.635	0.197	0.030
-742.127	129.168	0.139	0.179
-741.112	-102.568	-0.387	0.093
-740.098	-75.676	-0.076	-0.027
-739.083	51.505	-0.119	0.114
-738.069	-117.599	0.055	0.010
-737.054	-200.000	-0.006	0.085
-736.039	22.664	0.240	0.199
-735.025	-130.965	0.242	0.033
-734.010	-122.888	-0.219	-0.036
-732.996	800.000	0.117	-0.343
-731.981	78.121	0.148	-0.159
-730.966	53.040	-0.345	0.333
-729.952	-21.430	-0.232	0.143
-728.937	0.821	-0.223	-0.161
-727.923	176.631	-0.099	-0.145
-726.908	-38.636	-0.301	-0.160
-725.894	-143.385	-0.150	0.014
-724.879	-89.097	-0.269	-0.080
-723.864	108.026	-0.094	-0.113
-722.850	-200.000	0.028	0.261
-721.835	-67.292	-0.251	0.100
-720.821	-80.946	0.145	0.048
-719.806	87.934	0.249	-0.279
-718.791	443.854	0.105	-0.232
-717.777	13.976	0.283	-0.222
-716.762	-200.000	-0.003	-0.082
-715.748	-47.623	0.073	-0.036
-714.733	-74.937	0.122	-0.044
-713.718	-167.186	0.151	0.006
-712.704	800.000	0.039	-0.119
-711.689	23.443	-0.314	0.261
-710.675	56.761	0.038	0.037
-709.660	-109.016	0.080	-0.017
-708.645	647.407	-0.090	-0.231
-707.631	-87.620	0.309	0.094
-706.616	29.692	-0.151	-0.129
-705.602	-123.237	-0.400	0.065
-704.587	-83.561	0.286	0.092
-703.572	-24.671	-0.173	-0.104
-702.558	208.967	-0.236	0.373
-701.543	-53.071	0.151	0.070
-700.529	800.000	-0.090	-0.339
-699.514	-152.002	-0.173	0.013
-698.499	740.030	-0.052	0.142
-697.485	235.099	0.093	-0.155
-696.470	800.000	-0.072	0.283
-695.456	-66.949	0.061	-0.024
-694.441	-128.367	-0.270	-0.039
-693.426	-35.173	0.179	-0.098
-692.412	-200.000	0.020	0.087
-691.397	20.462	0.126	-0.103
-690.383	-108.505	-0.237	-0.051
-689.368	-200.000	-0.028	0.195
-688.354	0.085	-0.307	0.220
-687.339	96.674	-0.263	0.303
-686.324	800.000	0.059	0.176
-685.310	102.893	-0.152	-0.179
-684.295	-114.416	-0.418	-0.081
-683.281	-169.663	-0.226	0.008
-682.266	-200.000	-0.037	-0.192
-681.251	-67.448	-0.024	0.009
-680.237	-200.000	0.054	-0.300
-679.222	-66.034	0.074	-0.030
-678.208	530.031	-0.102	-0.242
-677.193	-40.240	0.349	-0.183
-676.178	-130.065	-0.170	-0.023
-675.164	-200.000	0.352	-0.001
-674.149	54.562	-0.124	0.121
-673.135	-60.928	0.251	0.107
-672.120	46.957	0.046	0.043
-671.105	800.000	-0.115	-0.500
-670.091	13.603	0.077	-0.060
-669.076	-95.037	-0.197	0.054
-668.062	-87.074	-0.178	-0.054
-667.047	13.870	-0.076	0.059
-666.032	-200.000	0.011	0.082
-665.018	120.826	0.118	0.147
-664.003	531.992	-0.117	-0.278
-662.989	-55.007	0.163	-0.074
-661.974	-200.000	0.030	0.323
-660.959	172.173	0.345	0.499
-659.945	462.472	-0.124	-0.278
-658.930	269.733	-0.120	-0.212
-657.916	471.645	-0.111	-0.251
-656.901	258.868	-0.082	0.143
-655.886	289.668	-0.172	-0.314
-654.872	-200.000	0.092	0.564
-653.857	800.000	-0.046	0.151
-652.843	338.916	0.138	0.270
-651.828	70.628	-0.065	-0.067
-650.814	-101.874	0.274	-0.067
-649.799	-83.630	0.311	0.100
-648.784	-32.027	-0.155	0.087
-647.770	144.137	-0.097	0.131
-646.755	-19.811	0.417	-0.259
-645.741	3.356	0.222	0.162
-644.726	-126.586	0.275	0.041
-643.711	60.595	0.179	0.179
-642.697	-7.525	-0.204	0.139
-641.682	-17.990	0.290	-0.183
-640.668	-85.418	0.238	-0.074
-639.653	86.104	-0.134	0.148
-638.638	201.486	0.174	-0.269
-637.624	-40.567	-0.101	-0.053
-636.609	512.082	-0.113	0.264
-635.595	-111.774	0.300	-0.061
-634.580	254.333	-0.154	-0.265
-633.565	25.514	0.149	-0.124
-632.551	-87.809	-0.129	-0.039
-631.536	209.274	-0.179	-0.282
-630.522	126.422	0.084	-0.107
-629.507	-200.000	0.066	-0.673
-628.492	135.824	-0.165	0.216
-627.478	92.595	-0.194	-0.220
-626.463	-78.778	0.344	0.118
-625.449	-50.089	0.103	-0.049
-624.434	194.648	-0.195	-0.298
-623.419	102.792	0.176	0.207
-622.405	131.142	0.137	0.177
-621.390	-37.688	0.236	-0.126
-620.376	-109.605	-0.202	0.043
-619.361	-44.572	-0.189	0.095
-618.346	-200.000	-0.040	-0.237
-617.332	-58.279	-0.339	-0.148
-616.317	19.567	0.171	-0.138
-615.303	800.000	-0.032	-0.129
-614.288	-79.840	0.292	0.098
-613.273	367.252	0.088	0.178
-612.259	172.686	0.123	-0.178
-611.244	87.096	-0.302	0.335
-610.230	58.838	-0.256	-0.252
-609.215	-71.082	0.273	0.103
-608.201	78.483	0.198	-0.212
-607.186	220.959	0.140	0.226
-606.171	-41.247	0.229	-0.119
-605.157	211.315	0.144	0.228
-604.142	204.550	0.112	-0.174
-603.128	-38.838	-0.098	0.052
-602.113	51.819	-0.287	0.274
-601.098	-31.290	-0.089	-0.050
-600.084	66.790	-0.183	0.187
-599.069	800.000	-0.072	-0.315
-598.055	-24.471	-0.294	0.176
-597.040	-200.000	-0.023	0.249
-596.025	18.453	-0.277	0.222
-595.011	10.860	-0.159	0.122
-593.996	365.691	-0.052	-0.105
-592.982	800.000	0.075	0.212
-591.967	57.820	0.071	-0.070
-590.952	-54.778	-0.232	-0.105
-589.938	95.589	-0.315	-0.360
-588.923	-200.000	0.026	-0.175
-587.909	196.765	0.146	0.224
-586.894	36.833	-0.205	-0.182
-585.879	235.280	-0.144	-0.238
-584.865	-82.251	0.280	-0.091
-583.850	660.939	0.035	0.089
-582.836	-98.486	0.074	0.019
-581.821	450.636	-0.175	0.388
-580.806	800.000	0.049	-0.203
-579.792	131.882	-0.074	0.095
-578.777	527.504	-0.152	-0.359
-577.763	169.089	0.269	-0.385
-576.748	-200.000	0.148	-0.001
-575.733	800.000	0.066	0.182
-574.719	48.314	-0.143	-0.134
-573.704	-18.399	-0.350	-0.219
-572.690	-47.461	-0.394	-0.192
-571.675	-45.962	0.110	0.054
-570.661	-72.213	-0.161	-0.060
-569.646	165.618	-0.196	-0.278
-568.631	-125.271	-0.237	-0.036
-567.617	-200.000	0.041	0.242
-566.602	73.938	0.077	-0.081
-565.588	-124.434	0.532	0.083
-564.573	59.139	0.218	0.215
-563.558	6.453	0.221	0.164
-562.544	-28.993	0.429	0.247
-561.529	62.271	0.184	0.184
-560.515	5.643	-0.270	-0.200
-559.500	-200.000	0.001	-0.541
-558.485	371.730	0.084	0.171
-557.471	-134.713	0.476	0.058
-556.456	-164.700	0.176	-0.008
-555.442	15.286	0.153	-0.120
-554.427	-200.000	0.017	-0.099
-553.412	-51.837	-0.143	-0.067
-552.398	-184.375	-0.251	-0.004
-551.383	564.077	0.016	0.039
-550.369	-5.943	0.190	0.130
-549.354	-136.790	0.230	0.027
-548.339	-26.431	0.317	-0.186
-547.325	-34.784	-0.123	0.067
-546.310	49.157	-0.118	0.112
-545.296	-112.161	-0.247	-0.050
-544.281	140.386	0.117	0.155
-543.266	462.390	0.043	-0.096
-542.252	46.904	0.233	-0.217
-541.237	-123.472	0.231	0.037
-540.223	-177.306	0.280	-0.007
-539.208	-39.801	-0.268	-0.140
-538.193	120.584	0.036	-0.044
-537.179	800.000	-0.016	0.063
-536.164	-102.108	-0.377	0.091
-535.150	800.000	0.051	-0.211
-534.135	27.005	0.060	0.050
-533.121	-84.656	0.138	-0.043
-532.106	45.566	-0.173	0.160
-531.091	-137.623	-0.559	0.063
-530.077	430.233	0.030	-0.066
-529.062	-200.000	0.086	-0.000
-528.048	-73.855	-0.075	-0.027
-527.033	215.833	0.181	0.287
-526.018	-200.000	-0.031	-0.175
-525.004	148.388	-0.207	0.280
-523.989	43.919	-0.156	-0.143
-522.975	775.892	-0.014	0.038
-521.960	222.738	-0.039	0.062
-520.945	81.133	-0.092	0.099
-519.931	9.565	0.095	-0.072
-518.916	81.164	0.275	0.297
-517.902	111.810	0.128	0.155
-516.887	-200.000	-0.038	-0.280
-515.872	-131.014	-0.065	-0.009
-514.858	-23.841	-0.362	-0.217
-513.843	99.604	0.206	-0.238
-512.829	75.939	0.141	-0.150
-511.814	-101.488	0.089	-0.022
-510.799	-172.328	0.049	0.002
-509.785	800.000	-0.064	-0.203
-508.770	-17.648	0.208	0.131
-507.756	492.901	0.069	-0.158
-506.741	-200.000	-0.000	0.131
-505.726	-200.000	0.062	-0.291
-504.712	1.412	0.174	0.125
-503.697	-99.034	-0.139	-0.035
-502.683	-140.184	0.169	-0.018
-501.668	46.657	-0.265	0.246
-500.653	469.067	0.076	-0.171
-499.639	-120.753	-0.155	-0.026
-498.624	-200.000	-0.001	0.319
-497.610	-200.000	0.056	0.364
-496.595	232.730	-0.092	-0.151
-495.581	-150.176	-0.235	-0.018
-494.566	-149.353	0.188	0.015
-493.551	-29.904	-0.299	-0.171
-492.537	248.784	0.085	0.145
-491.522	84.193	0.191	-0.209
-490.508	180.569	0.219	0.322
-489.493	-130.452	0.085	0.011
-488.478	426.920	0.062	-0.134
-487.464	111.090	-0.182	-0.219
-486.449	324.834	0.141	0.269
-485.435	-106.449	-0.087	-0.019
-484.420	573.465	0.096	0.233
-483.405	-200.000	0.091	-0.658
-482.391	168.114	-0.110	-0.156
-481.376	93.872	0.104	-0.118
-480.362	93.688	-0.120	-0.136
-479.347	72.039	-0.128	0.133
-478.332	-138.176	0.456	-0.051
-477.318	0.114	0.020	0.015
-476.303	-200.000	0.041	0.247
-475.289	-144.320	-0.075	-0.007
-474.274	800.000	0.036	-0.153
-473.259	-172.169	-0.202	-0.006
-472.245	-200.000	-0.036	0.179
-471.230	-200.000	-0.024	0.228
-470.216	800.000	0.077	0.255
-469.201	297.434	0.100	0.183
-468.186	298.300	0.055	-0.101
-467.172	-200.000	-0.061	-0.323
-466.157	800.000	-0.126	-0.397
-465.143	-24.882	-0.201	-0.119
-464.128	66.854	-0.222	0.226
-463.113	54.696	-0.216	0.208
-462.099	525.654	0.055	-0.128
-461.084	-7.465	-0.257	-0.174
-460.070	258.358	-0.140	0.240
-459.055	40.123	0.096	0.087
-458.040	54.049	-0.119	0.115
-457.026	-200.000	-0.048	-0.236
-456.011	-83.909	0.161	-0.051
-454.997	-70.647	-0.180	0.068
-453.982	-103.905	-0.305	-0.071
-452.968	-34.924	0.233	0.127
-451.953	149.175	-0.061	-0.082
-450.938	-79.301	-0.163	0.055
-449.924	-90.767	0.177	-0.051
-448.909	-200.000	0.004	-0.416
-447.895	19.600	-0.051	0.041
-446.880	-24.807	-0.265	-0.157
-445.865	-22.707	0.344	0.208
-444.851	800.000	0.032	0.106
-443.836	-17.209	0.152	-0.096
-442.822	406.201	0.108	-0.228
-441.807	-21.328	0.396	-0.241
-440.792	-64.982	0.275	-0.111
-439.778	-86.201	0.118	-0.036
-438.763	-91.237	0.274	-0.078
-437.749	579.650	0.093	-0.227
-436.734	93.591	0.014	0.016
-435.719	28.533	0.232	0.196
-434.705	247.779	-0.108	0.181
-433.690	428.007	-0.194	0.417
-432.676	88.213	0.082	-0.091
-431.661	-92.488	0.234	0.066
-430.646	-1.203	-0.217	-0.153
-429.632	-28.047	-0.183	-0.106
-428.617	256.831	0.153	-0.261
-427.603	489.684	0.178	-0.407
-426.588	58.679	-0.152	-0.149
-425.573	-71.067	0.032	-0.012
-424.559	-178.796	-0.256	0.006
-423.544	248.032	-0.162	-0.272
-422.530	-47.157	0.119	0.058
-421.515	-103.954	-0.090	-0.021
-420.500	-200.000	0.051	0.265
-419.486	83.869	0.164	-0.179
-418.471	419.335	-0.014	-0.030
-417.457	25.484	-0.281	-0.233
-416.442	92.907	0.219	-0.247
-415.428	-77.654	-0.176	-0.061
-414.413	-140.878	-0.273	-0.028
-413.398	-37.417	-0.140	0.074
-412.384	72.559	0.086	-0.090
-411.369	132.682	0.287	0.369
-410.355	123.350	-0.147	-0.183
-409.340	-200.000	-0.045	0.205
-408.325	41.983	-0.212	-0.192
-407.311	-63.580	0.267	0.109
-406.296	800.000	-0.027	0.104
-405.282	-200.000	0.004	0.193
-404.267	64.187	0.133	0.133
-403.252	-91.673	-0.228	-0.064
-402.238	-25.436	0.145	-0.085
-401.223	800.000	-0.099	-0.310
-400.209	86.601	0.251	-0.276
-399.194	300.081	0.038	-0.070
-398.179	603.223	0.017	0.042
-397.165	-111.283	0.068	-0.014
-396.150	-200.000	-0.047	0.232
-395.136	12.260	0.259	0.199
-394.121	-95.858	-0.231	-0.061
-393.106	-61.177	-0.276	-0.116
-392.092	188.713	-0.005	-0.007
-391.077	-200.000	-0.037	0.222
-390.063	-65.517	-0.245	0.098
-389.048	-114.106	0.426	-0.082
-388.033	-200.000	-0.035	-0.193
-387.019	-200.000	0.004	-0.188
-386.004	-200.000	0.034	0.165
-384.990	-153.376	0.166	-0.011
-383.975	-168.142	0.087	-0.003
-382.960	-83.387	-0.325	-0.104
-381.946	164.137	0.083	0.116
-380.931	721.597	-0.212	-0.562
-379.917	52.977	0.106	-0.101
-378.902	-39.719	0.144	-0.075
-377.888	-34.854	0.187	-0.102
-376.873	-7.078	-0.251	0.170
-375.858	31.413	0.211	0.181
-374.844	-9.549	-0.176	0.117
-373.829	-200.000	-0.067	0.351
-372.815	65.095	-0.106	0.107
-371.800	-64.963	0.279	-0.112
-370.785	83.576	0.083	0.090
-369.771	475.994	0.155	0.348
-368.756	-93.643	-0.166	0.046
-367.742	28.586	-0.123	0.103
-366.727	-121.662	0.110	0.018
-365.712	800.000	0.029	-0.121
-364.698	581.948	-0.052	0.128
-363.683	261.901	0.172	-0.297
-362.669	744.504	-0.058	-0.154
-361.654	99.867	-0.137	-0.158
-360.639	-7.881	0.048	0.032
-359.625	107.344	0.140	0.166
-358.610	256.997	-0.075	0.128
-357.596	315.741	0.024	-0.045
-356.581	175.345	-0.076	0.109
-355.566	-144.364	0.291	0.027
-354.552	-85.787	-0.231	0.071
-353.537	800.000	0.099	0.305
-352.523	-200.000	0.003	-0.166
-351.508	-15.224	0.360	-0.229
-350.493	124.084	-0.011	-0.014
-349.479	-9.395	-0.278	-0.184
-348.464	-68.363	0.122	-0.047
-347.450	800.000	0.043	-0.127
-346.435	273.665	0.146	0.257
-345.420	-35.988	-0.233	-0.125
-344.406	581.315	0.010	0.025
-343.391	800.000	0.062	0.184
-342.377	-200.000	0.102	-0.566
-341.362	249.520	0.021	-0.035
-340.348	54.760	-0.152	-0.146
-339.333	-200.000	-0.012	0.226
-338.318	-92.938	-0.062	-0.017
-337.304	-61.362	-0.292	0.122
-336.289	-56.860	0.317	0.139
-335.275	57.857	-0.084	0.082
-334.260	252.102	-0.084	0.143
-333.245	-68.114	-0.226	0.087
-332.231	-136.365	0.288	-0.033
-331.216	-93.757	-0.234	-0.064
-330.202	-43.488	0.140	0.070
-329.187	344.473	-0.115	0.225
-328.172	-200.000	-0.029	-0.322
-327.158	101.527	0.300	-0.347
-326.143	-0.772	-0.222	0.156
-325.129	390.734	0.050	0.103
-324.114	-46.970	0.199	0.096
-323.099	76.641	-0.234	-0.246
-322.085	150.840	0.030	0.040
-321.070	-155.705	-0.359	-0.023
-320.056	145.660	-0.048	-0.064
-319.041	321.877	0.129	-0.244
-318.026	-73.006	-0.138	0.050
-317.012	239.327	0.070	0.115
-315.997	-50.092	0.058	-0.027
-314.983	-155.811	0.274	-0.017
-313.968	-117.589	-0.203	-0.036
-312.953	-200.000	-0.048	0.302
-311.939	98.856	-0.130	-0.149
-310.924	-90.163	0.188	0.054
-309.910	52.890	0.174	0.165
-308.895	353.648	-0.047	-0.092
-307.880	246.907	-0.194	-0.324
-306.866	548.244	-0.172	0.410
-305.851	800.000	0.015	-0.060
-304.837	-13.741	-0.524	0.336
-303.822	800.000	0.083	0.258
-302.807	1.195	0.102	-0.073
-301.793	-25.851	0.189	0.110
-300.778	800.000	-0.037	0.147
-299.764	-200.000	0.041	0.319
-298.749	-200.000	0.063	0.439
-297.735	800.000	0.035	0.112
-296.720	800.000	0.080	0.320
-295.705	-115.202	0.356	0.067
-294.691	138.900	0.050	-0.066
-293.676	-163.291	-0.139	-0.007
-292.662	-200.000	0.128	0.562
-291.647	-47.795	0.066	-0.032
-290.632	-200.000	0.072	-0.315
-289.618	-138.967	-0.123	-0.013
-288.603	-102.668	-0.154	-0.036
-287.589	800.000	-0.057	0.230
-286.574	575.157	-0.099	0.239
-285.559	353.182	0.126	0.248
-284.545	62.620	-0.320	-0.317
-283.530	169.721	0.102	0.145
-282.516	-42.048	0.176	-0.089
-281.501	-200.000	0.019	0.113
-280.486	86.106	0.035	-0.039
-279.472	215.125	0.063	0.100
-278.457	76.157	-0.064	0.067
-277.443	-88.284	-0.319	0.094
-276.428	-200.000	0.044	-0.302
-275.413	-200.000	0.018	0.235
-274.399	800.000	-0.079	0.314
-273.384	462.810	-0.113	0.250
-272.370	-89.891	-0.124	0.036
-271.355	-200.000	0.026	0.120
-270.340	-34.846	0.329	0.178
-269.326	125.223	-0.043	0.053
-268.311	257.987	0.184	0.314
-267.297	-200.000	-0.009	0.237
-266.282	-200.000	-0.022	-0.179
-265.267	-200.000	-0.111	-0.489
-264.253	-140.881	0.284	-0.029
-263.238	-77.018	0.201	0.070
-262.224	-200.000	0.051	0.483
-261.209	-200.000	0.020	-0.235
-260.195	467.779	0.172	0.383
-259.180	40.068	-0.165	-0.147
-258.165	103.890	-0.156	-0.182
-257.151	770.417	-0.113	0.305
-256.136	-74.528	-0.237	-0.084
-255.122	-110.357	-0.172	0.035
-254.107	-175.371	-0.261	-0.007
-253.092	-200.000	0.017	-0.297
-252.078	289.598	-0.064	-0.116
-251.063	-50.925	-0.221	0.103
-250.049	194.112	-0.181	0.272
-249.034	-69.212	0.244	0.093
-248.019	250.683	-0.099	0.167
-247.005	641.182	-0.112	-0.283
-245.990	-68.790	-0.046	-0.018
-244.976	92.004	-0.171	-0.190
-243.961	226.533	0.121	-0.194
-242.946	187.205	0.107	-0.158
-241.932	528.838	-0.059	0.138
-240.917	71.387	-0.085	-0.087
-239.903	139.604	-0.148	-0.193
-238.888	-94.187	0.333	-0.090
-237.873	-86.305	0.313	-0.095
-236.859	-200.000	0.034	0.227
-235.844	23.681	-0.117	-0.096
-234.830	-66.319	-0.260	-0.102
-233.815	-26.515	0.223	0.129
-232.800	-46.915	0.213	0.103
-231.786	220.178	0.011	0.017
-230.771	-97.223	0.167	0.043
-229.757	-200.000	-0.016	0.071
-228.742	49.183	0.039	0.037
-227.727	161.184	0.181	0.250
-226.713	-200.000	0.013	-0.082
-225.698	800.000	-0.102	-0.305
-224.684	-127.474	-0.320	-0.046
-223.669	419.908	0.100	-0.213
-222.655	-81.276	-0.132	-0.043
-221.640	260.852	-0.068	0.117
-220.625	-4.688	-0.201	0.137
-219.611	-134.288	0.191	0.023
-218.596	-200.000	-0.011	0.123
-217.582	800.000	-0.120	0.498
-216.567	-181.038	-0.049	0.001
-215.552	-105.991	-0.213	-0.047
-214.538	277.801	0.090	0.159
-213.523	-132.968	-0.315	-0.040
-212.509	800.000	0.054	-0.218
-211.494	-200.000	0.122	-0.001
-210.479	800.000	0.050	-0.208
-209.465	54.014	-0.166	-0.157
-208.450	-64.458	-0.106	0.042
-207.436	58.058	-0.202	-0.195
-206.421	-200.000	0.222	0.001
-205.406	504.000	0.105	-0.240
-204.392	-178.863	0.168	-0.004
-203.377	158.778	-0.063	-0.086
-202.363	800.000	-0.064	-0.243
-201.348	-122.792	0.073	0.012
-200.333	127.695	0.154	0.193
-199.319	-200.000	0.059	0.349
-198.304	-200.000	0.008	-0.192
-197.290	-200.000	-0.014	-0.244
-196.275	-158.890	-0.041	0.002
-195.260	598.367	0.042	-0.102
-194.246	395.092	-0.101	0.208
-193.231	-104.773	0.109	0.025
-192.217	283.811	0.038	-0.067
-191.202	191.690	0.143	0.213
-190.187	27.577	-0.433	0.360
-189.173	-114.720	0.335	-0.063
-188.158	-200.000	0.017	-0.439
-187.144	289.800	-0.117	-0.209
-186.129	800.000	-0.082	-0.250
-185.114	-101.035	-0.498	0.121
-184.100	163.907	0.072	-0.100
-183.085	-60.256	-0.221	0.093
-182.071	800.000	-0.151	0.472
-181.056	410.321	0.153	0.321
-180.042	137.181	-0.250	0.322
-179.027	-200.000	-0.044	0.200
-178.012	10.402	0.162	0.122
-176.998	107.781	0.169	0.199
-175.983	159.718	0.104	0.143
-174.969	-18.039	0.129	-0.080
-173.954	-200.000	0.006	-0.261
-172.939	-46.091	0.393	0.191
-171.925	-25.696	-0.237	0.138
-170.910	-30.025	-0.374	0.210
-169.896	117.276	-0.424	0.515
-168.881	-76.931	0.136	0.047
-167.866	41.096	-0.343	-0.306
-166.852	-142.124	-0.308	0.030
-165.837	-200.000	-0.016	-0.093
-164.823	-44.851	0.299	0.147
-163.808	211.698	0.005	0.008
-162.793	-200.000	0.005	-0.237
-161.779	238.637	-0.057	0.094
-160.764	-69.484	0.422	0.160
-159.750	93.816	-0.161	-0.181
-158.735	-123.512	0.094	-0.015
-157.720	-148.623	-0.263	-0.021
-156.706	-200.000	-0.016	0.255
-155.691	-200.000	0.042	-0.428
-154.677	27.914	0.154	-0.128
-153.662	491.431	-0.037	-0.083
-152.647	-107.562	0.182	0.039
-151.633	134.953	-0.163	-0.209
-150.618	111.536	-0.193	0.230
-149.604	-46.827	0.148	0.071
-148.589	-200.000	0.018	0.104
-147.574	800.000	-0.065	-0.189
-146.560	-31.037	-0.204	0.114
-145.545	55.881	-0.357	0.342
-144.531	-100.833	0.025	0.006
-143.516	-31.375	-0.042	0.024
-142.502	-115.516	-0.093	-0.017
-141.487	-200.000	0.004	0.120
-140.472	-139.586	0.443	-0.047
-139.458	-54.433	0.208	-0.093
-138.443	-79.253	-0.130	-0.044
-137.429	302.695	-0.097	-0.178
-136.414	-12.090	-0.261	-0.169
-135.399	-48.625	0.247	-0.117
-134.385	-49.053	-0.375	0.177
-133.370	-200.000	-0.032	0.368
-132.356	169.646	-0.083	0.117
-131.341	241.257	0.070	-0.116
-130.326	-74.608	-0.191	0.068
-129.312	-82.293	-0.206	-0.066
-128.297	19.392	0.299	-0.237
-127.283	-75.007	0.246	-0.087
-126.268	164.450	-0.067	-0.094
-125.253	-151.010	0.171	-0.013
-124.239	-15.986	0.317	0.199
-123.224	461.792	0.126	0.278
-122.210	-12.197	-0.277	0.179
-121.195	-200.000	0.081	-0.434
-120.180	800.000	0.051	0.161
