DTS Sentinel unit serial number:	SN413079Multiplexer serial number:	ORYXHardware model number:	OX4-SRSoftware version number:	ORYX F/W v4.00 Oryx Data Collector v3.7.2.0data status	okinstallation	princeton_trtdifferential loss correction	single-endedforward channel	channel 1reverse channel	N/Adate	2019/09/14time	11:26:35forward acquisition time	60.00reverse acquisition time	0.00gamma	496.2192k internal	0.2298k external	0.2298temperature offset calibration	1.0089default loss term (dB/km)	0.3790temperature slope calibration	1.0000multiplexer offset coefficient	1.0000multiplexer slope coefficient	1.0000fibre end	0.00T internal ref (°C)	36.75T ext. ref 1 (°C)	4.54T ext. ref 2 (°C)	32.74length (m)	temperature (°C)	Stokes	anti-Stokes-747.200	-157.975	-0.067	-0.004
-746.185	-110.845	-0.166	0.035
-745.171	-78.999	-0.162	0.056
-744.156	800.000	-0.034	-0.125
-743.142	313.685	-0.223	-0.428
-742.127	800.000	0.027	0.090
-741.112	-77.272	0.223	-0.079
-740.098	-92.262	-0.326	0.094
-739.083	800.000	0.111	-0.318
-738.069	-35.245	-0.287	0.159
-737.054	-178.933	0.082	0.002
-736.039	-116.673	0.153	0.029
-735.025	-200.000	-0.023	0.113
-734.010	-85.871	0.370	-0.117
-732.996	88.013	-0.197	-0.223
-731.981	-200.000	0.053	-0.277
-730.966	49.491	-0.057	-0.054
-729.952	-200.000	-0.008	-0.143
-728.937	150.259	0.114	0.158
-727.923	-152.547	0.254	0.019
-726.908	172.359	-0.199	-0.292
-725.894	-95.531	-0.233	0.064
-724.879	800.000	0.095	0.350
-723.864	473.788	0.109	0.252
-722.850	800.000	-0.054	0.152
-721.835	3.373	-0.165	0.122
-720.821	-101.377	0.193	0.048
-719.806	40.189	0.248	-0.227
-718.791	330.040	0.121	-0.237
-717.777	561.461	0.061	0.151
-716.762	324.448	0.191	-0.372
-715.748	-112.764	-0.069	-0.014
-714.733	-82.445	-0.245	-0.081
-713.718	-200.000	0.018	-0.167
-712.704	-0.690	0.179	0.129
-711.689	-126.437	0.170	0.026
-710.675	800.000	0.038	0.151
-709.660	800.000	0.096	0.287
-708.645	-108.969	-0.092	0.020
-707.631	-119.282	-0.304	-0.054
-706.616	-92.444	0.228	0.065
-705.602	-200.000	-0.028	0.173
-704.587	27.521	-0.172	-0.148
-703.572	712.112	0.068	0.184
-702.558	216.991	0.157	0.255
-701.543	-60.895	0.131	0.057
-700.529	-106.496	0.185	0.042
-699.514	-61.845	-0.106	-0.045
-698.499	-110.525	-0.321	0.068
-697.485	-31.305	0.086	0.049
-696.470	-80.328	0.291	0.099
-695.456	486.435	0.123	-0.287
-694.441	-200.000	-0.028	-0.275
-693.426	104.786	0.109	-0.130
-692.412	800.000	0.059	0.185
-691.397	-54.529	-0.139	0.064
-690.383	405.137	0.094	-0.203
-689.368	-200.000	0.026	0.270
-688.354	800.000	0.011	-0.032
-687.339	800.000	-0.060	0.252
-686.324	-84.843	0.118	-0.038
-685.310	-110.842	0.061	0.013
-684.295	250.321	-0.197	-0.342
-683.281	534.396	0.177	0.428
-682.266	-60.573	0.130	0.056
-681.251	-200.000	-0.024	-0.250
-680.237	-56.377	-0.135	-0.061
-679.222	-200.000	-0.022	-0.393
-678.208	-200.000	0.014	-0.255
-677.193	239.582	-0.237	0.402
-676.178	34.144	0.083	0.074
-675.164	91.568	0.160	-0.184
-674.149	408.585	0.087	-0.186
-673.135	205.741	0.178	0.282
-672.120	-0.188	0.341	-0.247
-671.105	-178.042	0.133	0.003
-670.091	-58.417	0.281	0.124
-669.076	51.298	-0.205	-0.198
-668.062	27.440	0.201	0.172
-667.047	148.527	0.092	-0.126
-666.032	43.525	0.210	0.195
-665.018	-135.129	0.201	-0.025
-664.003	72.967	-0.251	-0.267
-662.989	-184.261	0.112	0.002
-661.974	-154.565	0.189	-0.013
-660.959	-17.701	-0.026	0.017
-659.945	133.468	0.038	0.050
-658.930	-200.000	0.019	0.279
-657.916	-200.000	-0.027	-0.321
-656.901	-80.903	-0.124	0.042
-655.886	-22.647	-0.247	0.152
-654.872	-128.865	0.149	0.021
-653.857	-80.674	-0.143	0.049
-652.843	81.644	0.319	-0.351
-651.828	-200.000	0.015	-0.163
-650.814	153.572	0.152	-0.212
-649.799	81.236	-0.077	0.085
-648.784	800.000	0.022	0.063
-647.770	-200.000	0.013	-0.238
-646.755	-200.000	0.045	-0.322
-645.741	-77.815	0.260	0.091
-644.726	-200.000	-0.024	0.297
-643.711	-109.132	0.330	-0.071
-642.697	387.143	0.139	0.292
-641.682	59.638	0.225	-0.226
-640.668	800.000	0.115	-0.415
-639.653	548.431	-0.118	-0.286
-638.638	500.631	-0.085	0.200
-637.624	305.910	0.085	0.161
-636.609	-32.311	-0.218	-0.123
-635.595	-163.725	-0.384	0.018
-634.580	132.962	0.208	-0.273
-633.565	7.529	-0.230	0.175
-632.551	-109.653	-0.111	0.024
-631.536	-104.194	-0.125	0.030
-630.522	202.728	0.065	-0.101
-629.507	-200.000	0.008	0.193
-628.492	75.596	0.063	-0.067
-627.478	-200.000	-0.092	-0.449
-626.463	-45.636	0.192	-0.097
-625.449	659.562	-0.072	0.187
-624.434	-200.000	0.045	-0.341
-623.419	-109.054	0.244	-0.053
-622.405	165.922	-0.075	0.108
-621.390	657.213	-0.073	0.190
-620.376	800.000	-0.057	-0.248
-619.361	110.176	-0.139	-0.170
-618.346	-35.130	-0.259	0.143
-617.332	53.559	-0.174	0.170
-616.317	-82.630	0.261	0.086
-615.303	-133.629	0.194	0.025
-614.288	-176.103	-0.142	0.004
-613.273	-200.000	-0.018	-0.189
-612.259	207.044	0.113	-0.179
-611.244	-125.275	0.105	0.016
-610.230	36.269	-0.248	-0.222
-609.215	-122.424	0.345	0.057
-608.201	-45.041	0.172	-0.087
-607.186	-82.888	0.095	0.031
-606.171	150.787	-0.126	-0.173
-605.157	-166.477	-0.361	-0.015
-604.142	1.702	-0.121	0.089
-603.128	33.104	-0.119	0.104
-602.113	304.750	0.076	0.143
-601.098	800.000	-0.058	-0.203
-600.084	-200.000	-0.038	-0.174
-599.069	293.887	0.057	-0.106
-598.055	9.418	0.239	-0.184
-597.040	-200.000	0.021	0.113
-596.025	406.701	-0.053	0.114
-595.011	-32.419	0.122	0.069
-593.996	65.746	0.162	-0.167
-592.982	-142.874	-0.299	0.030
-591.967	49.099	0.124	-0.119
-590.952	-200.000	-0.008	-0.342
-589.938	-57.381	0.335	-0.149
-588.923	182.057	-0.050	-0.075
-587.909	-40.793	-0.066	0.035
-586.894	21.774	0.244	0.202
-585.879	-1.123	-0.386	0.277
-584.865	-200.000	-0.027	-0.307
-583.850	-63.486	-0.254	0.106
-582.836	437.654	-0.095	-0.210
-581.821	22.971	-0.274	0.228
-580.806	176.007	-0.096	-0.142
-579.792	-22.864	0.151	0.092
-578.777	-200.000	0.006	-0.063
-577.763	107.302	-0.094	-0.114
-576.748	800.000	-0.042	0.160
-575.733	-179.671	-0.090	-0.002
-574.719	-80.198	-0.453	0.154
-573.704	44.136	0.286	0.266
-572.690	112.053	-0.081	-0.099
-571.675	-200.000	0.046	0.294
-570.661	800.000	0.056	0.238
-569.646	-36.369	0.189	0.103
-568.631	800.000	-0.114	0.485
-567.617	121.088	-0.094	0.119
-566.602	-117.004	-0.198	-0.037
-565.588	7.713	-0.135	-0.102
-564.573	749.155	-0.070	0.191
-563.558	-200.000	0.065	-0.346
-562.544	-200.000	-0.066	-0.408
-561.529	-200.000	-0.041	-0.231
-560.515	-200.000	-0.013	0.101
-559.500	800.000	-0.072	0.217
-558.485	-149.791	0.209	0.017
-557.471	455.152	-0.014	-0.032
-556.456	-116.729	0.163	0.030
-555.442	-200.000	-0.022	0.165
-554.427	568.148	-0.036	-0.088
-553.412	-109.580	-0.034	0.007
-552.398	-94.668	0.116	0.032
-551.383	47.227	-0.135	-0.127
-550.369	-73.213	-0.137	-0.051
-549.354	-91.148	0.278	-0.081
-548.339	-70.686	-0.059	0.023
-547.325	-64.865	0.259	-0.106
-546.310	54.882	0.232	-0.226
-545.296	-22.882	0.090	-0.055
-544.281	40.982	0.263	-0.241
-543.266	-115.501	0.269	-0.051
-542.252	-200.000	0.000	-0.177
-541.237	293.323	-0.192	-0.355
-540.223	-200.000	0.019	-0.097
-539.208	238.644	0.059	0.100
-538.193	-51.112	-0.074	0.035
-537.179	24.094	0.272	-0.228
-536.164	-200.000	0.025	0.142
-535.150	-62.180	0.184	-0.078
-534.135	417.150	0.025	-0.054
-533.121	-111.602	-0.167	0.034
-532.106	800.000	-0.064	0.183
-531.091	-30.288	-0.218	0.126
-530.077	-83.429	0.275	0.089
-529.062	-200.000	0.005	-0.121
-528.048	33.037	-0.063	-0.055
-527.033	800.000	0.034	-0.102
-526.018	84.426	-0.204	0.226
-525.004	-88.621	-0.184	0.055
-523.989	141.109	-0.089	0.119
-522.975	230.469	0.160	-0.264
-521.960	-157.365	-0.278	-0.017
-520.945	800.000	0.082	0.236
-519.931	119.226	0.104	0.131
-518.916	4.063	0.344	-0.254
-517.902	-100.154	0.318	-0.080
-516.887	-3.963	-0.221	0.155
-515.872	-79.829	-0.129	-0.044
-514.858	800.000	-0.041	0.174
-513.843	800.000	-0.070	-0.286
-512.829	-200.000	-0.041	-0.203
-511.814	387.494	-0.014	-0.029
-510.799	573.571	0.080	-0.198
-509.785	-135.660	0.135	-0.016
-508.770	-200.000	0.037	-0.175
-507.756	800.000	0.037	0.105
-506.741	-128.316	0.178	0.026
-505.726	-35.510	-0.115	-0.063
-504.712	-2.119	-0.205	-0.145
-503.697	218.581	0.089	0.144
-502.683	-200.000	-0.003	0.022
-501.668	-200.000	-0.042	-0.359
-500.653	-200.000	0.059	0.308
-499.639	36.475	-0.146	0.130
-498.624	-200.000	0.016	-0.240
-497.610	504.477	-0.111	-0.260
-496.595	31.353	0.243	-0.211
-495.581	-200.000	0.001	-0.040
-494.566	150.942	-0.277	-0.381
-493.551	350.519	-0.078	-0.155
-492.537	224.626	-0.184	0.300
-491.522	40.896	-0.112	-0.102
-490.508	149.825	-0.203	0.279
-489.493	-10.726	-0.191	-0.128
-488.478	-15.474	-0.116	-0.075
-487.464	-200.000	-0.021	0.118
-486.449	114.230	-0.106	0.131
-485.435	-7.506	0.382	0.261
-484.420	-34.265	0.175	-0.097
-483.405	-176.044	-0.376	0.010
-482.391	129.609	-0.127	0.164
-481.376	-170.765	-0.071	0.002
-480.362	-200.000	0.060	0.379
-479.347	-86.494	-0.482	-0.149
-478.332	-22.345	-0.216	-0.132
-477.318	-114.314	-0.066	0.013
-476.303	-73.790	-0.291	-0.107
-475.289	-111.006	0.241	-0.050
-474.274	68.070	0.101	-0.104
-473.259	367.545	-0.061	-0.125
-472.245	-200.000	0.022	0.225
-471.230	-200.000	-0.057	-0.316
-470.216	187.969	0.108	-0.163
-469.201	7.710	-0.036	-0.027
-468.186	-94.737	0.375	-0.103
-467.172	-29.074	0.105	0.061
-466.157	50.330	-0.197	-0.188
-465.143	350.440	-0.092	0.184
-464.128	-200.000	-0.028	0.631
-463.113	-71.651	-0.048	-0.018
-462.099	800.000	0.102	-0.394
-461.084	-44.070	-0.241	0.122
-460.070	383.132	-0.137	-0.284
-459.055	-141.566	-0.371	-0.038
-458.040	-75.134	0.053	-0.019
-457.026	-149.882	-0.238	0.019
-456.011	-200.000	-0.048	0.289
-454.997	59.468	-0.198	0.198
-453.982	800.000	-0.042	-0.169
-452.968	119.697	-0.059	0.074
-451.953	45.525	-0.190	0.177
-450.938	-36.585	0.154	-0.084
-449.924	-200.000	-0.079	0.390
-448.909	2.866	0.208	-0.153
-447.895	800.000	0.066	0.263
-446.880	159.037	-0.133	0.186
-445.865	-68.803	-0.033	0.013
-444.851	-200.000	0.003	-0.332
-443.836	-53.094	-0.316	0.146
-442.822	-200.000	-0.037	0.370
-441.807	800.000	0.085	-0.262
-440.792	-57.243	0.249	0.111
-439.778	800.000	0.064	-0.252
-438.763	216.013	-0.036	-0.058
-437.749	800.000	0.141	-0.471
-436.734	800.000	-0.047	-0.182
-435.719	600.471	-0.033	-0.083
-434.705	-149.978	0.106	-0.008
-433.690	-88.569	-0.257	0.077
-432.676	58.211	0.103	0.102
-431.661	-163.989	-0.113	0.005
-430.646	230.215	0.073	0.120
-429.632	-106.769	-0.154	0.034
-428.617	197.010	-0.081	0.125
-427.603	27.114	0.068	-0.057
-426.588	-10.730	0.224	0.150
-425.573	-154.003	-0.228	-0.016
-424.559	-165.721	-0.165	-0.007
-423.544	-17.016	-0.117	-0.075
-422.530	-43.025	-0.020	0.010
-421.515	-110.262	0.322	0.068
-420.500	800.000	-0.050	0.208
-419.486	-40.527	0.166	0.087
-418.471	-150.426	0.300	-0.023
-417.457	70.428	-0.151	-0.157
-416.442	-12.278	-0.136	0.090
-415.428	-81.518	0.331	0.110
-414.413	-171.142	0.014	-0.000
-413.398	205.983	-0.153	0.240
-412.384	522.236	0.095	-0.226
-411.369	-44.085	-0.204	0.103
-410.355	131.652	-0.125	0.162
-409.340	-35.115	-0.136	0.075
-408.325	302.670	-0.211	-0.393
-407.311	502.444	-0.031	0.072
-406.296	14.284	-0.164	0.129
-405.282	-134.076	-0.337	0.042
-404.267	-73.471	0.278	-0.102
-403.252	76.568	0.219	0.234
-402.238	-93.499	-0.106	0.030
-401.223	800.000	-0.074	0.258
-400.209	-179.539	0.306	-0.007
-399.194	228.069	-0.153	0.251
-398.179	202.809	0.155	0.241
-397.165	-103.626	0.433	0.102
-396.150	3.367	-0.101	-0.074
-395.136	328.030	-0.080	-0.155
-394.121	800.000	0.030	-0.108
-393.106	-57.051	0.091	-0.040
-392.092	46.322	-0.109	0.101
-391.077	462.167	0.115	0.258
-390.063	51.529	-0.158	0.151
-389.048	358.400	0.093	-0.186
-388.033	-84.077	0.087	-0.028
-387.019	-200.000	0.242	0.000
-386.004	-186.993	-0.061	0.001
-384.990	133.299	0.162	-0.211
-383.975	145.125	0.098	0.132
-382.960	81.648	-0.096	-0.104
-381.946	-81.190	0.109	-0.036
-380.931	-200.000	-0.026	0.191
-379.917	183.844	-0.024	-0.035
-378.902	168.743	0.109	-0.157
-377.888	114.645	-0.239	-0.293
-376.873	443.652	0.146	0.322
-375.858	-95.654	-0.132	0.035
-374.844	-136.933	-0.334	-0.039
-373.829	113.190	0.170	0.208
-372.815	-155.350	0.235	-0.015
-371.800	-132.328	0.140	-0.018
-370.785	-111.613	-0.060	0.012
-369.771	800.000	-0.011	-0.034
-368.756	318.627	0.172	0.328
-367.742	-200.000	-0.052	0.347
-366.727	119.913	-0.177	0.220
-365.712	-200.000	0.009	0.114
-364.698	800.000	0.107	0.379
-363.683	591.837	-0.068	-0.169
-362.669	357.087	-0.141	0.283
-361.654	-200.000	-0.028	0.272
-360.639	-200.000	0.238	0.000
-359.625	-17.663	-0.211	0.133
-358.610	208.153	-0.038	-0.059
-357.596	720.691	0.026	0.069
-356.581	-136.712	-0.253	-0.029
-355.566	106.277	0.133	0.158
-354.552	414.393	-0.038	-0.081
-353.537	-56.019	0.192	-0.086
-352.523	-3.898	-0.290	-0.203
-351.508	-200.000	0.078	0.494
-350.493	31.674	-0.195	0.168
-349.479	-71.461	-0.476	-0.179
-348.464	88.546	0.272	0.304
-347.450	267.096	0.067	0.118
-346.435	154.116	0.207	-0.285
-345.420	-66.963	-0.338	-0.134
-344.406	281.839	0.152	0.273
-343.391	16.595	0.225	0.178
-342.377	-105.624	-0.244	-0.056
-341.362	64.364	-0.084	-0.085
-340.348	-200.000	0.022	0.320
-339.333	-185.289	-0.275	0.004
-338.318	-200.000	0.071	-0.340
-337.304	-48.205	-0.162	-0.078
-336.289	228.031	0.055	-0.090
-335.275	-69.960	-0.398	0.153
-334.260	-78.652	-0.200	0.069
-333.245	800.000	0.098	-0.389
-332.231	-93.797	-0.394	0.109
-331.216	-155.946	-0.169	0.011
-330.202	-73.626	0.092	0.034
-329.187	800.000	-0.065	0.236
-328.172	209.134	-0.143	0.224
-327.158	-17.056	-0.195	0.123
-326.143	-9.706	-0.171	-0.114
-325.129	220.245	0.075	0.120
-324.114	-200.000	-0.015	-0.196
-323.099	-72.079	-0.155	-0.058
-322.085	-120.669	0.168	0.028
-321.070	194.000	-0.079	0.120
-320.056	800.000	-0.054	0.162
-319.041	152.992	0.113	0.155
-318.026	-72.235	0.163	0.061
-317.012	789.415	0.029	-0.081
-315.997	-200.000	-0.011	0.196
-314.983	76.829	0.219	-0.233
-313.968	-88.973	0.106	0.032
-312.953	-138.886	-0.138	0.015
-311.939	217.584	0.037	0.059
-310.924	-95.591	0.285	0.077
-309.910	-86.690	-0.305	-0.094
-308.895	-36.524	-0.117	-0.063
-307.880	-184.860	0.348	-0.006
-306.866	-43.407	-0.311	-0.158
-305.851	-122.093	0.444	0.073
-304.837	-46.836	-0.462	0.227
-303.822	-56.625	-0.331	0.147
-302.807	460.180	-0.085	0.191
-301.793	-63.169	0.151	-0.062
-300.778	-138.277	-0.133	0.015
-299.764	173.071	-0.186	-0.269
-298.749	-43.235	0.102	0.052
-297.735	88.279	-0.005	0.006
-296.720	-92.034	0.225	-0.064
-295.705	-3.575	0.097	-0.067
-294.691	-132.896	-0.140	-0.018
-293.676	-104.978	0.257	-0.059
-292.662	-200.000	-0.065	-0.330
-291.647	206.778	-0.279	-0.437
-290.632	14.488	0.235	-0.184
-289.618	-200.000	0.050	0.000
-288.603	-29.547	0.230	0.132
-287.589	134.003	-0.250	0.325
-286.574	-13.328	0.188	0.122
-285.559	-11.763	0.285	0.188
-284.545	443.869	0.060	0.132
-283.530	-110.191	-0.188	0.039
-282.516	37.640	0.156	-0.139
-281.501	363.663	0.084	-0.170
-280.486	-71.169	0.066	-0.025
-279.472	12.885	0.181	0.140
-278.457	187.273	-0.147	0.220
-277.443	-200.000	0.019	-0.151
-276.428	-111.013	0.182	0.038
-275.413	-77.792	0.204	0.071
-274.399	-104.647	0.270	-0.062
-273.384	319.067	-0.132	0.251
-272.370	-21.358	0.185	0.113
-271.355	47.081	-0.133	-0.124
-270.340	194.673	0.148	0.225
-269.326	-200.000	0.012	0.072
-268.311	-200.000	-0.026	-0.149
-267.297	157.091	0.198	0.274
-266.282	-151.120	0.129	-0.010
-265.267	2.340	-0.152	-0.110
-264.253	-200.000	-0.007	-0.327
-263.238	204.723	-0.076	-0.118
-262.224	45.155	0.283	0.262
-261.209	36.600	0.156	-0.138
-260.195	141.803	0.134	0.178
-259.180	-92.065	0.353	-0.100
-258.165	13.220	0.163	-0.127
-257.151	-60.771	-0.197	-0.084
-256.136	1.336	0.328	-0.236
-255.122	-200.000	-0.027	0.188
-254.107	178.964	0.128	0.188
-253.092	2.145	-0.502	0.364
-252.078	-122.042	0.157	-0.026
-251.063	-163.181	0.280	0.013
-250.049	165.230	0.095	0.135
-249.034	304.676	-0.096	0.178
-248.019	-200.000	0.036	0.170
-247.005	471.619	-0.139	-0.313
-245.990	-200.000	0.048	-0.274
-244.976	37.817	0.340	-0.302
-243.961	362.738	0.108	0.217
-242.946	-161.320	0.320	0.017
-241.932	102.004	0.023	0.027
-240.917	101.129	-0.131	0.152
-239.903	-61.562	0.300	0.126
-238.888	800.000	-0.009	0.032
-237.873	50.379	0.234	0.221
-236.859	-22.974	0.120	-0.073
-235.844	-200.000	-0.017	0.215
-234.830	585.592	0.032	-0.078
-233.815	800.000	-0.028	-0.088
-232.800	15.657	0.228	-0.179
-231.786	-200.000	-0.013	-0.084
-230.771	108.120	0.088	0.105
-229.757	32.300	0.275	-0.238
-228.742	-21.750	-0.057	-0.035
-227.727	71.298	-0.146	0.151
-226.713	-200.000	-0.024	-0.223
-225.698	1.680	0.238	0.171
-224.684	127.157	-0.097	-0.123
-223.669	158.347	0.108	-0.150
-222.655	-73.196	-0.364	-0.133
-221.640	-16.368	0.157	-0.099
-220.625	-51.968	0.057	0.027
-219.611	466.203	0.022	0.049
-218.596	800.000	-0.071	0.273
-217.582	19.076	0.307	-0.246
-216.567	800.000	-0.070	-0.205
-215.552	-155.245	-0.163	-0.011
-214.538	-200.000	-0.064	0.313
-213.523	221.137	-0.246	-0.396
-212.509	-169.468	-0.152	-0.006
-211.494	-16.074	0.326	-0.207
-210.479	181.993	0.114	-0.168
-209.465	208.148	0.085	0.133
-208.450	227.785	-0.031	0.050
-207.436	-150.011	-0.411	-0.032
-206.421	351.636	0.094	0.186
-205.406	-28.041	-0.137	0.079
-204.392	-85.319	-0.081	-0.025
-203.377	50.111	-0.200	-0.189
-202.363	6.203	-0.179	-0.133
-201.348	721.331	-0.052	-0.139
-200.333	-70.930	-0.194	0.073
-199.319	128.550	0.090	-0.114
-198.304	8.786	-0.112	-0.085
-197.290	-74.750	0.167	0.060
-196.275	-150.945	-0.365	0.028
-195.260	95.719	0.009	-0.010
-194.246	173.066	-0.170	-0.245
-193.231	568.466	0.055	0.134
-192.217	-52.658	-0.219	0.101
-191.202	65.268	-0.178	0.180
-190.187	-2.645	0.182	-0.127
-189.173	-100.167	0.037	-0.009
-188.158	375.764	-0.023	-0.047
-187.144	134.231	0.198	-0.257
-186.129	185.367	-0.074	0.109
-185.114	-124.150	0.342	-0.054
-184.100	-58.243	0.150	-0.065
-183.085	-90.574	0.118	0.034
-182.071	-125.107	0.237	-0.036
-181.056	87.142	-0.106	-0.117
-180.042	43.424	0.131	-0.119
-179.027	-95.994	-0.114	0.030
-178.012	161.202	0.115	0.160
-176.998	-85.881	0.157	0.049
-175.983	-200.000	-0.008	0.193
-174.969	194.619	-0.109	0.165
-173.954	27.115	-0.039	0.033
-172.939	-200.000	-0.014	-0.073
-171.925	606.237	-0.162	-0.402
-170.910	-48.112	-0.346	-0.167
-169.896	-58.479	0.114	-0.049
-168.881	248.278	0.127	-0.214
-167.866	-200.000	0.003	-0.088
-166.852	-47.216	-0.179	-0.087
-165.837	623.691	0.119	0.300
-164.823	787.880	0.136	-0.371
-163.808	-200.000	0.062	0.632
-162.793	64.799	-0.091	0.091
-161.779	87.513	0.253	-0.279
-160.764	-112.806	-0.073	0.014
-159.750	-200.000	0.016	-0.217
-158.735	-98.933	0.251	-0.063
-157.720	-141.366	0.059	-0.006
-156.706	-200.000	0.017	0.179
-155.691	-68.153	-0.124	0.048
-154.677	125.621	0.155	0.195
-153.662	-96.549	0.175	0.046
-152.647	108.857	0.053	0.063
-151.633	-25.980	0.219	-0.128
-150.618	-168.193	-0.262	-0.010
-149.604	-200.000	-0.006	0.080
-148.589	-77.357	0.095	0.033
-147.574	800.000	-0.079	-0.313
-146.560	80.442	-0.239	-0.256
-145.545	-5.281	0.120	-0.082
-144.531	96.492	-0.087	-0.099
-143.516	-128.701	0.265	-0.037
-142.502	800.000	-0.101	-0.387
-141.487	431.382	0.073	-0.158
-140.472	-51.410	-0.225	-0.105
-139.458	581.715	-0.030	-0.073
-138.443	-200.000	-0.029	-0.446
-137.429	-200.000	-0.032	-0.183
-136.414	229.805	-0.060	0.097
-135.399	-200.000	-0.002	-0.109
-134.385	17.706	0.247	-0.196
-133.370	800.000	-0.041	-0.164
-132.356	-200.000	0.014	0.186
-131.341	-19.151	0.130	0.080
-130.326	106.472	-0.156	-0.184
-129.312	-200.000	-0.048	-0.460
-128.297	311.272	-0.046	0.086
-127.283	258.872	0.201	-0.345
-126.268	89.068	-0.219	0.243
-125.253	800.000	-0.106	-0.352
-124.239	-124.033	0.053	0.008
-123.224	211.779	0.144	-0.225
-122.210	-5.984	0.190	0.130
-121.195	-15.662	-0.180	0.114
