DTS Sentinel unit serial number:	SN413079Multiplexer serial number:	ORYXHardware model number:	OX4-SRSoftware version number:	ORYX F/W v4.00 Oryx Data Collector v3.7.2.0data status	okinstallation	princeton_trtdifferential loss correction	single-endedforward channel	channel 1reverse channel	N/Adate	2019/09/10time	21:52:12forward acquisition time	60.00reverse acquisition time	0.00gamma	496.2192k internal	0.2331k external	0.2331temperature offset calibration	0.9938default loss term (dB/km)	0.3790temperature slope calibration	1.0000multiplexer offset coefficient	1.0000multiplexer slope coefficient	1.0000fibre end	0.00T internal ref (°C)	30.81T ext. ref 1 (°C)	-0.31T ext. ref 2 (°C)	24.01length (m)	temperature (°C)	Stokes	anti-Stokes-747.200	-13.487	-0.418	-0.273
-746.185	800.000	-0.079	0.298
-745.171	-200.000	-0.007	0.131
-744.156	-200.000	-0.015	0.211
-743.142	135.355	-0.255	-0.334
-742.127	224.163	0.243	0.394
-741.112	-108.442	-0.071	0.015
-740.098	-23.948	-0.256	0.154
-739.083	18.654	-0.148	-0.119
-738.069	-114.751	-0.121	0.023
-737.054	-56.893	-0.317	-0.141
-736.039	156.585	-0.049	-0.068
-735.025	800.000	-0.144	-0.424
-734.010	800.000	0.024	-0.075
-732.996	304.574	-0.079	-0.147
-731.981	-8.843	-0.314	0.212
-730.966	439.070	-0.036	0.079
-729.952	-121.530	-0.103	-0.017
-728.937	-83.478	-0.140	-0.045
-727.923	-146.664	-0.074	-0.006
-726.908	-200.000	-0.042	-0.214
-725.894	-93.986	-0.106	0.029
-724.879	386.177	-0.175	-0.363
-723.864	-11.362	-0.167	0.110
-722.850	-94.590	-0.346	-0.095
-721.835	119.860	-0.140	-0.175
-720.821	118.760	0.175	0.218
-719.806	273.583	-0.083	0.148
-718.791	800.000	0.068	-0.272
-717.777	330.325	0.109	-0.210
-716.762	-81.653	0.167	-0.055
-715.748	-144.923	-0.219	0.020
-714.733	800.000	-0.121	-0.486
-713.718	-32.132	0.193	-0.109
-712.704	-200.000	0.000	-0.270
-711.689	1.775	-0.219	0.158
-710.675	-17.179	0.058	-0.037
-709.660	129.767	0.112	-0.143
-708.645	523.928	-0.022	-0.053
-707.631	359.580	0.078	0.157
-706.616	44.015	-0.135	0.124
-705.602	207.015	0.055	0.087
-704.587	13.355	-0.098	-0.076
-703.572	-200.000	0.011	-0.098
-702.558	481.616	-0.034	0.077
-701.543	800.000	0.062	-0.206
-700.529	265.756	-0.041	-0.072
-699.514	-200.000	0.048	0.262
-698.499	153.054	-0.110	-0.152
-697.485	-138.889	-0.244	0.027
-696.470	160.515	0.103	-0.144
-695.456	-19.109	-0.252	0.157
-694.441	-0.850	-0.104	-0.074
-693.426	-32.689	-0.211	0.118
-692.412	208.424	0.061	-0.095
-691.397	163.139	-0.108	-0.153
-690.383	67.017	-0.072	0.073
-689.368	-51.106	0.171	0.080
-688.354	-70.737	-0.152	-0.057
-687.339	118.435	0.096	-0.119
-686.324	-47.817	-0.338	0.165
-685.310	277.301	0.118	0.212
-684.295	136.088	0.209	0.273
-683.281	84.193	0.069	0.076
-682.266	800.000	-0.064	-0.195
-681.251	-40.764	0.110	-0.057
-680.237	-103.041	-0.212	-0.050
-679.222	192.075	0.036	0.054
-678.208	473.593	0.110	-0.249
-677.193	-10.170	-0.370	-0.247
-676.178	162.495	0.305	0.429
-675.164	-186.293	-0.147	-0.002
-674.149	-41.299	-0.160	0.083
-673.135	36.787	0.199	0.176
-672.120	253.252	-0.158	0.270
-671.105	-200.000	-0.050	-0.347
-670.091	-200.000	-0.012	0.114
-669.076	117.091	0.107	0.132
-668.062	800.000	-0.032	0.101
-667.047	-84.953	0.067	-0.021
-666.032	524.401	0.108	-0.256
-665.018	16.536	-0.328	-0.260
-664.003	312.036	0.140	-0.263
-662.989	-60.538	0.213	-0.091
-661.974	176.465	-0.184	-0.268
-660.959	219.598	0.104	0.167
-659.945	-69.069	-0.078	0.030
-658.930	-138.248	-0.275	0.031
-657.916	42.308	0.128	-0.117
-656.901	-137.335	-0.237	0.027
-655.886	-200.000	0.006	-0.092
-654.872	-200.000	0.007	-0.166
-653.857	800.000	0.155	-0.433
-652.843	-105.080	0.147	-0.034
-651.828	37.565	0.275	-0.244
-650.814	-200.000	0.108	-0.552
-649.799	399.558	-0.164	0.344
-648.784	-200.000	-0.065	0.288
-647.770	-125.860	-0.325	-0.049
-646.755	21.450	-0.070	-0.057
-645.741	45.042	0.156	-0.144
-644.726	-74.649	-0.509	-0.183
-643.711	224.063	-0.024	-0.039
-642.697	-50.370	-0.114	0.054
-641.682	-180.745	-0.036	-0.001
-640.668	-43.218	-0.080	-0.040
-639.653	128.852	-0.098	0.125
-638.638	-200.000	0.040	0.198
-637.624	120.815	-0.174	-0.217
-636.609	800.000	0.008	-0.029
-635.595	299.083	-0.199	-0.366
-634.580	-31.371	0.096	-0.054
-633.565	-107.393	0.120	-0.026
-632.551	212.836	0.083	0.131
-631.536	-80.135	0.247	-0.083
-630.522	593.144	-0.112	0.278
-629.507	-48.444	-0.105	0.050
-628.492	278.930	-0.102	0.182
-627.478	488.151	0.131	-0.299
-626.463	55.174	-0.310	0.300
-625.449	28.854	0.335	0.284
-624.434	800.000	0.016	0.054
-623.419	-113.728	-0.217	-0.042
-622.405	800.000	-0.012	0.047
-621.390	19.187	0.200	-0.161
-620.376	180.721	0.060	-0.088
-619.361	-12.860	-0.196	0.128
-618.346	-200.000	0.026	-0.160
-617.332	-60.372	0.054	0.023
-616.317	181.486	-0.081	-0.120
-615.303	80.153	0.146	0.157
-614.288	-168.327	-0.221	-0.009
-613.273	-8.285	-0.079	0.053
-612.259	-102.747	0.283	0.067
-611.244	47.342	-0.165	-0.154
-610.230	-15.881	0.114	0.073
-609.215	220.132	0.143	0.229
-608.201	576.553	0.053	0.130
-607.186	-71.745	-0.136	0.051
-606.171	800.000	0.008	-0.028
-605.157	29.012	0.077	0.065
-604.142	204.126	-0.114	0.177
-603.128	-37.612	-0.380	-0.203
-602.113	361.590	0.067	-0.135
-601.098	-200.000	0.039	0.200
-600.084	-65.442	-0.265	-0.106
-599.069	50.605	-0.120	-0.113
-598.055	206.683	-0.083	0.130
-597.040	67.215	0.152	-0.155
-596.025	144.669	-0.134	0.180
-595.011	712.261	0.033	-0.087
-593.996	10.992	-0.041	-0.032
-592.982	501.443	-0.091	0.209
-591.967	31.778	0.192	0.165
-590.952	34.229	0.148	-0.129
-589.938	0.413	0.320	0.229
-588.923	800.000	0.027	-0.084
-587.909	-156.778	-0.157	-0.010
-586.894	6.006	0.307	0.227
-585.879	800.000	0.087	0.338
-584.865	-200.000	-0.006	0.094
-583.850	38.612	0.214	0.191
-582.836	-93.079	-0.043	-0.012
-581.821	-46.884	-0.244	0.119
-580.806	101.177	0.144	0.167
-579.792	-200.000	0.002	-0.098
-578.777	113.233	-0.094	0.114
-577.763	-200.000	-0.019	-0.090
-576.748	-200.000	-0.001	0.102
-575.733	-67.649	-0.016	-0.006
-574.719	46.838	-0.050	0.046
-573.704	-200.000	-0.030	-0.139
-572.690	26.946	0.056	0.047
-571.675	-200.000	-0.057	-0.301
-570.661	800.000	-0.033	-0.102
-569.646	-171.361	0.024	-0.001
-568.631	-62.336	0.284	-0.118
-567.617	14.388	-0.060	-0.047
-566.602	-149.317	0.198	-0.016
-565.588	153.572	0.176	-0.241
-564.573	94.348	0.239	-0.271
-563.558	10.068	0.227	-0.173
-562.544	800.000	-0.016	-0.068
-561.529	800.000	-0.057	0.220
-560.515	-77.285	-0.373	0.130
-559.500	236.725	-0.112	0.185
-558.485	800.000	0.086	0.325
-557.471	191.886	-0.055	-0.082
-556.456	-31.786	0.292	-0.164
-555.442	-140.858	0.333	-0.034
-554.427	401.895	-0.097	-0.203
-553.412	-25.880	-0.136	0.080
-552.398	-106.609	0.347	-0.077
-551.383	285.297	-0.034	-0.060
-550.369	116.466	-0.098	0.120
-549.354	-200.000	0.016	0.120
-548.339	-42.724	0.120	-0.061
-547.325	-158.607	-0.082	0.005
-546.310	-68.908	0.240	0.093
-545.296	751.411	0.134	-0.361
-544.281	280.903	-0.096	-0.172
-543.266	-200.000	0.013	-0.316
-542.252	139.292	0.272	-0.357
-541.237	214.604	-0.093	-0.147
-540.223	-145.700	0.130	-0.012
-539.208	-200.000	0.031	-0.313
-538.193	135.369	0.028	-0.036
-537.179	800.000	-0.087	0.267
-536.164	-200.000	-0.039	-0.457
-535.150	-19.942	-0.142	0.088
-534.135	12.495	-0.117	-0.090
-533.121	-58.036	0.242	-0.105
-532.106	327.277	0.104	-0.199
-531.091	-200.000	0.030	0.193
-530.077	-49.092	-0.302	-0.144
-529.062	385.341	0.151	-0.310
-528.048	-136.831	-0.266	0.031
-527.033	18.588	-0.212	0.169
-526.018	80.570	-0.077	0.083
-525.004	-75.964	-0.252	0.089
-523.989	-14.831	0.177	-0.113
-522.975	-200.000	0.018	-0.227
-521.960	-82.251	0.229	0.075
-520.945	52.295	-0.132	0.126
-519.931	-11.028	0.345	0.227
-518.916	-82.024	-0.224	0.073
-517.902	25.023	-0.120	-0.100
-516.887	6.474	0.162	0.120
-515.872	-200.000	-0.070	-0.619
-514.858	-112.975	-0.171	0.034
-513.843	535.594	0.135	0.318
-512.829	118.027	0.149	0.184
-511.814	-13.724	-0.147	-0.095
-510.799	535.038	-0.138	0.325
-509.785	800.000	-0.090	-0.335
-508.770	346.643	0.137	-0.268
-507.756	-46.044	0.304	0.150
-506.741	14.421	-0.250	0.194
-505.726	-57.233	0.209	-0.092
-504.712	-121.322	0.108	0.018
-503.697	-102.284	0.353	-0.084
-502.683	-55.687	-0.101	0.045
-501.668	6.648	-0.071	-0.053
-500.653	5.580	-0.155	0.114
-499.639	-124.590	0.175	-0.027
-498.624	-200.000	-0.024	0.296
-497.610	381.863	-0.208	-0.426
-496.595	151.660	-0.055	0.075
-495.581	180.866	-0.026	0.038
-494.566	-7.496	-0.008	0.005
-493.551	-54.026	0.151	-0.068
-492.537	60.042	0.154	-0.152
-491.522	148.264	0.103	0.139
-490.508	-200.000	0.070	-0.362
-489.493	123.934	0.093	-0.116
-488.478	-200.000	-0.007	0.110
-487.464	-19.919	0.325	0.200
-486.449	800.000	-0.047	0.132
-485.435	800.000	0.075	0.212
-484.420	-103.073	-0.268	0.063
-483.405	-200.000	0.028	-0.155
-482.391	81.295	0.144	-0.155
-481.376	191.900	0.122	0.183
-480.362	-83.313	-0.235	0.075
-479.347	-160.451	-0.311	-0.017
-478.332	93.090	-0.232	0.262
-477.318	90.078	0.131	0.146
-476.303	31.629	-0.127	0.109
-475.289	217.074	0.129	-0.205
-474.274	-200.000	-0.002	0.047
-473.259	-13.248	-0.391	0.253
-472.245	-37.151	-0.095	-0.051
-471.230	-90.057	0.210	-0.061
-470.216	-82.153	0.304	0.099
-469.201	15.893	0.125	0.098
-468.186	-200.000	0.013	0.241
-467.172	108.675	0.177	-0.211
-466.157	-200.000	-0.059	0.333
-465.143	-115.755	-0.360	0.067
-464.128	-121.855	0.152	0.025
-463.113	462.081	-0.120	-0.266
-462.099	-148.313	0.360	-0.029
-461.084	294.357	-0.147	0.268
-460.070	51.406	-0.169	0.160
-459.055	-128.233	0.190	0.027
-458.040	-15.521	0.140	-0.089
-457.026	87.055	0.252	0.277
-456.011	-13.014	0.166	-0.108
-454.997	147.637	0.156	0.210
-453.982	179.737	-0.194	0.283
-452.968	0.956	-0.144	-0.103
-451.953	11.451	0.170	-0.130
-450.938	-200.000	0.000	-0.023
-449.924	182.526	0.224	0.329
-448.909	53.934	-0.351	0.336
-447.895	-108.403	-0.085	-0.018
-446.880	20.587	0.126	-0.102
-445.865	-36.943	-0.313	0.167
-444.851	13.802	-0.183	0.142
-443.836	-141.152	0.036	-0.004
-442.822	-118.866	-0.074	-0.013
-441.807	58.437	-0.241	-0.235
-440.792	-200.000	-0.046	0.353
-439.778	800.000	0.089	-0.263
-438.763	167.985	-0.071	-0.100
-437.749	38.319	0.166	-0.147
-436.734	-85.981	-0.206	0.063
-435.719	183.564	-0.099	0.146
-434.705	-111.454	-0.134	0.027
-433.690	256.660	-0.040	-0.069
-432.676	-62.012	-0.180	0.075
-431.661	800.000	0.037	-0.142
-430.646	800.000	-0.068	-0.244
-429.632	21.603	-0.315	-0.255
-428.617	-80.578	-0.304	-0.101
-427.603	618.645	-0.117	-0.291
-426.588	363.749	-0.133	-0.266
-425.573	15.633	0.182	0.142
-424.559	-44.812	-0.150	0.075
-423.544	-118.931	0.414	0.072
-422.530	800.000	-0.061	0.172
-421.515	800.000	-0.048	-0.203
-420.500	-200.000	0.048	0.344
-419.486	800.000	0.034	-0.119
-418.471	148.080	0.106	0.143
-417.457	-200.000	-0.064	0.367
-416.442	-172.053	0.143	0.005
-415.428	22.327	-0.057	-0.046
-414.413	800.000	-0.082	-0.302
-413.398	-200.000	0.014	-0.473
-412.384	607.755	0.138	-0.343
-411.369	23.657	0.079	0.064
-410.355	-200.000	-0.015	-0.215
-409.340	-105.144	0.281	-0.064
-408.325	630.450	-0.096	-0.242
-407.311	-67.092	-0.041	-0.016
-406.296	0.221	-0.249	0.176
-405.282	-200.000	0.003	0.049
-404.267	386.219	-0.232	-0.476
-403.252	-200.000	0.072	-0.348
-402.238	-143.858	0.043	-0.004
-401.223	-72.924	-0.365	-0.133
-400.209	43.825	-0.178	0.162
-399.194	-200.000	-0.021	0.134
-398.179	173.217	-0.132	0.189
-397.165	514.435	0.057	-0.132
-396.150	137.244	-0.305	0.396
-395.136	-76.960	-0.122	0.042
-394.121	274.494	0.227	0.399
-393.106	-200.000	0.007	0.125
-392.092	33.877	0.115	-0.099
-391.077	-200.000	0.006	0.041
-390.063	-71.926	-0.446	-0.165
-389.048	-102.285	0.081	-0.019
-388.033	233.437	0.061	-0.100
-387.019	-12.190	-0.088	0.057
-386.004	-200.000	-0.061	0.329
-384.990	800.000	-0.058	0.158
-383.975	-200.000	-0.045	0.246
-382.960	-200.000	-0.004	-0.286
-381.946	-200.000	0.021	0.193
-380.931	-200.000	-0.002	0.279
-379.917	-22.765	-0.217	-0.130
-378.902	303.060	0.107	-0.196
-377.888	84.853	-0.238	0.258
-376.873	405.125	-0.070	0.146
-375.858	171.439	0.124	-0.177
-374.844	-83.692	-0.327	0.104
-373.829	-35.795	0.317	0.170
-372.815	-200.000	0.037	0.231
-371.800	-120.001	0.020	-0.003
-370.785	26.639	0.225	0.187
-369.771	-126.341	-0.276	-0.041
-368.756	11.679	0.081	-0.061
-367.742	-200.000	-0.015	-0.156
-366.727	63.933	-0.212	-0.211
-365.712	-36.119	0.048	0.026
-364.698	-80.219	0.101	-0.033
-363.683	-200.000	-0.030	0.303
-362.669	-200.000	0.053	-0.248
-361.654	595.563	0.075	0.184
-360.639	23.558	0.178	0.145
-359.625	-65.815	-0.167	-0.066
-358.610	-46.110	0.145	0.071
-357.596	120.218	-0.229	0.282
-356.581	-110.115	0.253	-0.052
-355.566	-97.531	0.234	0.060
-354.552	19.420	-0.256	-0.204
-353.537	32.720	0.233	-0.200
-352.523	190.246	-0.102	0.152
-351.508	-176.425	-0.416	0.011
-350.493	-65.943	0.143	-0.057
-349.479	-200.000	0.030	0.000
-348.464	162.272	-0.114	-0.158
-347.450	52.505	0.212	-0.201
-346.435	-56.953	0.429	0.188
-345.420	340.182	0.083	0.160
-344.406	107.961	-0.092	0.108
-343.391	-147.882	-0.178	0.015
-342.377	-156.412	-0.193	0.012
-341.362	207.547	0.109	0.168
-340.348	493.029	0.101	0.229
-339.333	-119.207	0.236	0.041
-338.318	243.845	0.153	0.255
-337.304	-199.503	-0.144	-0.001
-336.289	69.432	-0.173	0.177
-335.275	-200.000	0.025	-0.110
-334.260	-200.000	0.000	-0.128
-333.245	-70.009	0.004	-0.002
-332.231	-200.000	0.004	-0.050
-331.216	-67.076	0.132	0.052
-330.202	573.690	-0.043	-0.104
-329.187	-11.433	0.034	-0.022
-328.172	-34.771	-0.161	0.087
-327.158	73.770	0.125	-0.130
-326.143	-200.000	-0.014	0.090
-325.129	95.294	-0.080	-0.090
-324.114	-76.203	0.099	0.035
-323.099	-75.968	0.070	-0.024
-322.085	8.316	0.241	-0.179
-321.070	-200.000	0.024	-0.198
-320.056	-200.000	-0.038	0.185
-319.041	800.000	-0.038	-0.138
-318.026	800.000	-0.086	0.318
-317.012	800.000	0.016	0.048
-315.997	800.000	0.018	-0.050
-314.983	-150.127	0.102	-0.008
-313.968	800.000	0.046	0.185
-312.953	-20.007	0.282	-0.172
-311.939	-172.096	0.360	-0.011
-310.924	173.258	0.111	-0.158
-309.910	-200.000	0.007	-0.138
-308.895	424.787	0.057	0.121
-307.880	-94.509	0.107	-0.029
-306.866	212.036	0.099	0.154
-305.851	6.047	0.185	-0.136
-304.837	227.848	-0.228	-0.367
-303.822	71.262	0.048	0.049
-302.807	-68.290	0.254	0.098
-301.793	73.597	-0.185	0.191
-300.778	172.135	0.227	-0.323
-299.764	-129.927	0.154	0.021
-298.749	58.877	0.279	-0.271
-297.735	-48.051	0.079	-0.038
-296.720	100.623	0.136	-0.156
-295.705	104.749	0.104	-0.121
-294.691	515.783	-0.099	0.228
-293.676	58.442	0.238	-0.230
-292.662	-200.000	0.029	-0.387
-291.647	-33.464	-0.123	-0.067
-290.632	800.000	-0.008	0.031
-289.618	-152.765	-0.047	-0.003
-288.603	-200.000	0.064	0.295
-287.589	-32.933	-0.130	-0.072
-286.574	80.414	0.055	-0.058
-285.559	403.480	-0.131	-0.273
-284.545	-71.806	-0.183	0.067
-283.530	-54.739	-0.292	0.131
-282.516	-30.343	0.130	-0.073
-281.501	-125.364	-0.343	-0.052
-280.486	-21.115	-0.029	0.018
-279.472	-200.000	0.023	0.298
-278.457	800.000	0.120	0.438
-277.443	-159.726	-0.069	-0.004
-276.428	-49.128	-0.129	0.061
-275.413	235.981	0.264	0.431
-274.399	-155.953	0.104	0.007
-273.384	-200.000	-0.052	-0.313
-272.370	-162.696	0.331	-0.016
-271.355	24.423	-0.142	-0.116
-270.340	-144.061	0.452	0.042
-269.326	-77.022	-0.058	-0.020
-268.311	-200.000	-0.006	0.272
-267.297	-22.603	-0.047	0.028
-266.282	-89.010	-0.125	-0.037
-265.267	-200.000	0.001	-0.134
-264.253	254.671	0.103	-0.174
-263.238	608.717	0.043	-0.106
-262.224	-200.000	-0.004	-0.119
-261.209	259.376	0.110	-0.187
-260.195	4.325	0.082	-0.060
-259.180	590.309	0.105	0.257
-258.165	-200.000	0.018	0.118
-257.151	-133.802	-0.079	0.010
-256.136	-200.000	-0.092	0.435
-255.122	-121.437	-0.188	0.031
-254.107	-38.961	-0.214	0.111
-253.092	800.000	0.053	-0.188
-252.078	-200.000	0.033	-0.162
-251.063	-103.900	0.117	-0.027
-250.049	626.371	-0.052	0.130
-249.034	31.692	-0.137	-0.117
-248.019	349.184	-0.034	0.065
-247.005	306.531	0.059	0.109
-245.990	800.000	-0.038	-0.104
-244.976	-11.950	-0.139	-0.090
-243.961	46.771	-0.178	0.163
-242.946	-200.000	0.054	0.296
-241.932	436.321	0.056	-0.120
-240.917	-200.000	-0.054	-0.666
-239.903	45.205	0.142	0.129
-238.888	-60.757	0.336	-0.140
-237.873	-17.006	0.080	-0.050
-236.859	174.650	0.156	-0.223
-235.844	-25.412	0.047	0.027
-234.830	-200.000	0.007	-0.130
-233.815	73.953	0.097	-0.101
-232.800	-182.519	-0.046	0.001
-231.786	598.828	0.075	-0.183
-230.771	-7.692	0.115	-0.077
-229.757	48.306	-0.023	0.021
-228.742	-75.932	0.236	-0.082
-227.727	-107.043	-0.010	0.002
-226.713	53.059	0.204	-0.192
-225.698	324.785	-0.106	0.200
-224.684	777.427	-0.089	-0.241
-223.669	-200.000	-0.009	-0.229
-222.655	75.605	-0.095	-0.099
-221.640	10.914	-0.245	-0.184
-220.625	-40.173	-0.312	0.160
-219.611	166.479	0.089	-0.125
-218.596	-200.000	-0.040	0.324
-217.582	-90.454	0.146	-0.042
-216.567	165.608	-0.117	-0.163
-215.552	-200.000	0.022	0.193
-214.538	-18.911	0.136	0.084
-213.523	107.694	0.153	0.179
-212.509	-56.796	-0.211	0.092
-211.494	-200.000	-0.011	0.383
-210.479	-200.000	0.035	0.202
-209.465	50.164	-0.265	0.246
-208.450	82.971	0.131	-0.140
-207.436	55.143	-0.230	0.219
-206.421	-16.352	-0.138	0.086
-205.406	-149.329	-0.433	-0.034
-204.392	-101.260	0.266	-0.064
-203.377	800.000	-0.144	0.419
-202.363	-91.809	-0.171	-0.048
-201.348	446.119	0.026	-0.056
-200.333	-200.000	-0.029	-0.240
-199.319	174.077	-0.076	-0.108
-198.304	-200.000	-0.021	-0.200
-197.290	-123.527	0.148	0.023
-196.275	-200.000	-0.004	0.025
-195.260	70.218	-0.062	0.063
-194.246	-50.781	0.407	0.189
-193.231	177.285	0.039	0.056
-192.217	223.198	-0.114	-0.181
-191.202	800.000	-0.116	-0.392
-190.187	-200.000	0.024	0.117
-189.173	-200.000	-0.013	-0.265
-188.158	-25.173	0.270	-0.157
-187.144	-34.092	-0.081	-0.044
-186.129	53.998	0.269	-0.255
-185.114	-15.726	0.188	0.118
-184.100	560.102	-0.099	-0.235
-183.085	-74.824	0.098	0.035
-182.071	-55.504	0.115	0.051
-181.056	178.360	-0.137	0.196
-180.042	213.207	0.211	-0.328
-179.027	-58.571	0.104	-0.044
-178.012	-79.632	-0.061	-0.020
-176.998	-111.904	-0.392	0.078
-175.983	-37.320	0.364	0.191
-174.969	-109.263	0.080	-0.017
-173.954	9.635	0.230	-0.172
-172.939	-148.658	-0.328	0.026
-171.925	-200.000	0.044	-0.274
-170.910	114.041	0.174	0.208
-169.896	800.000	0.047	-0.143
-168.881	154.473	-0.184	-0.249
-167.866	777.770	-0.062	-0.168
-166.852	-95.910	-0.380	-0.100
-165.837	403.597	-0.132	-0.273
-164.823	32.392	0.076	-0.065
-163.808	361.075	-0.062	0.122
-162.793	12.666	0.072	0.055
-161.779	-200.000	-0.020	0.281
-160.764	626.180	-0.130	-0.323
-159.750	-76.731	-0.222	-0.076
-158.735	366.278	-0.015	0.029
-157.720	-200.000	0.030	0.247
-156.706	384.381	0.100	0.203
-155.691	-200.000	-0.037	0.210
-154.677	33.027	-0.187	-0.159
-153.662	50.394	-0.279	0.259
-152.647	429.009	-0.056	0.119
-151.633	-101.929	0.160	0.038
-150.618	241.836	0.140	0.230
-149.604	-200.000	0.017	0.477
-148.589	169.076	-0.080	0.113
-147.574	-155.976	-0.082	0.005
-146.560	-80.015	0.191	0.063
-145.545	-10.811	0.157	0.102
-144.531	-200.000	0.010	-0.288
-143.516	-100.645	-0.011	-0.003
-142.502	303.575	0.178	0.324
-141.487	-200.000	0.007	0.095
-140.472	72.934	0.288	-0.296
-139.458	457.068	-0.079	-0.172
-138.443	-135.127	-0.408	0.048
-137.429	-86.489	-0.251	-0.076
-136.414	173.025	0.180	-0.255
-135.399	18.445	0.313	0.246
-134.385	-200.000	0.008	0.102
-133.370	120.092	-0.093	-0.113
-132.356	604.569	-0.070	-0.172
-131.341	-200.000	-0.023	-0.121
-130.326	-200.000	-0.045	0.353
-129.312	320.200	0.096	0.178
-128.297	-47.843	0.200	0.095
-127.283	287.906	-0.071	0.127
-126.268	800.000	0.027	0.109
-125.253	438.103	0.066	0.141
-124.239	-76.226	-0.396	-0.137
-123.224	190.470	-0.088	-0.129
-122.210	-200.000	-0.016	-0.193
-121.195	763.440	-0.031	-0.083
