DTS Sentinel unit serial number:	SN413079Multiplexer serial number:	ORYXHardware model number:	OX4-SRSoftware version number:	ORYX F/W v4.00 Oryx Data Collector v3.7.2.0data status	okinstallation	princeton_trtdifferential loss correction	single-endedforward channel	channel 1reverse channel	N/Adate	2019/09/17time	21:54:35forward acquisition time	60.00reverse acquisition time	0.00gamma	496.2192k internal	0.2341k external	0.2341temperature offset calibration	0.9977default loss term (dB/km)	0.3790temperature slope calibration	1.0000multiplexer offset coefficient	1.0000multiplexer slope coefficient	1.0000fibre end	0.00T internal ref (°C)	26.25T ext. ref 1 (°C)	0.19T ext. ref 2 (°C)	18.95length (m)	temperature (°C)	Stokes	anti-Stokes-747.200	-108.796	-0.261	0.056
-746.185	12.265	0.047	0.037
-745.171	24.707	0.122	0.101
-744.156	209.372	-0.311	0.488
-743.142	302.181	0.125	-0.231
-742.127	-21.723	0.200	0.122
-741.112	800.000	-0.076	-0.304
-740.098	-200.000	-0.046	0.211
-739.083	800.000	0.033	0.133
-738.069	800.000	0.026	-0.086
-737.054	800.000	0.045	-0.135
-736.039	800.000	-0.051	0.167
-735.025	91.054	-0.119	-0.134
-734.010	618.430	0.084	-0.212
-732.996	800.000	-0.050	-0.182
-731.981	103.259	0.017	0.020
-730.966	-200.000	-0.057	-0.358
-729.952	-200.000	0.000	0.006
-728.937	-200.000	0.017	0.107
-727.923	-200.000	0.032	0.308
-726.908	-63.923	-0.337	-0.138
-725.894	705.132	-0.145	-0.383
-724.879	-129.126	0.261	0.036
-723.864	488.667	-0.089	0.204
-722.850	-82.377	0.132	0.043
-721.835	10.724	0.220	0.168
-720.821	-200.000	-0.005	-0.053
-719.806	800.000	-0.055	0.243
-718.791	37.438	0.063	0.056
-717.777	-167.015	0.198	0.008
-716.762	-200.000	-0.032	-0.218
-715.748	571.245	-0.034	-0.084
-714.733	-28.109	0.352	-0.204
-713.718	271.222	0.041	0.072
-712.704	130.943	-0.139	0.179
-711.689	-33.728	0.041	0.023
-710.675	4.821	0.327	-0.241
-709.660	-57.604	-0.308	-0.135
-708.645	-200.000	0.012	-0.308
-707.631	158.385	0.096	-0.133
-706.616	-33.958	-0.139	-0.077
-705.602	52.646	0.125	0.119
-704.587	92.597	-0.124	-0.140
-703.572	-92.640	-0.136	0.038
-702.558	0.659	-0.124	0.088
-701.543	135.658	0.171	0.223
-700.529	-200.000	0.014	0.263
-699.514	800.000	-0.073	-0.219
-698.499	-88.318	-0.112	0.033
-697.485	-200.000	-0.034	0.258
-696.470	-200.000	0.023	-0.234
-695.456	-36.697	-0.243	0.131
-694.441	356.680	-0.095	-0.190
-693.426	-147.678	-0.281	0.024
-692.412	800.000	0.108	-0.425
-691.397	179.262	0.205	-0.300
-690.383	206.334	0.106	0.165
-689.368	-96.739	-0.272	-0.072
-688.354	-33.898	0.440	-0.243
-687.339	-118.126	0.256	-0.046
-686.324	382.677	-0.100	0.206
-685.310	-152.610	-0.184	-0.013
-684.295	373.209	0.085	-0.173
-683.281	-120.043	0.491	0.084
-682.266	60.655	-0.134	0.133
-681.251	800.000	-0.107	-0.382
-680.237	-84.716	-0.054	-0.017
-679.222	-160.668	-0.230	-0.012
-678.208	8.038	-0.243	-0.182
-677.193	-29.598	0.133	0.076
-676.178	386.774	0.028	-0.057
-675.164	800.000	-0.060	0.189
-674.149	381.280	0.164	-0.336
-673.135	-15.650	-0.367	-0.234
-672.120	337.169	0.110	-0.214
-671.105	233.753	-0.080	-0.132
-670.091	32.517	-0.171	0.148
-669.076	-23.721	-0.263	0.157
-668.062	22.794	0.141	0.115
-667.047	353.403	0.029	0.058
-666.032	-200.000	-0.070	-0.568
-665.018	-70.011	0.370	0.141
-664.003	17.178	-0.307	0.244
-662.989	24.424	0.268	-0.222
-661.974	236.507	-0.205	-0.339
-660.959	-200.000	0.032	0.186
-659.945	-73.459	-0.097	-0.035
-658.930	-200.000	-0.042	-0.303
-657.916	-200.000	-0.009	-0.270
-656.901	800.000	0.037	-0.129
-655.886	23.930	0.193	0.159
-654.872	800.000	0.047	0.172
-653.857	-127.353	0.240	0.035
-652.843	-200.000	0.017	-0.289
-651.828	-28.716	0.123	0.071
-650.814	-154.172	0.327	0.022
-649.799	-72.225	-0.087	0.032
-648.784	641.030	0.071	0.181
-647.770	-133.235	-0.220	-0.028
-646.755	800.000	-0.073	0.224
-645.741	47.227	-0.148	0.138
-644.726	-130.669	0.366	-0.049
-643.711	-58.165	-0.099	0.043
-642.697	-61.498	0.389	-0.163
-641.682	-80.369	0.123	-0.041
-640.668	-200.000	0.009	-0.070
-639.653	-187.404	-0.338	-0.005
-638.638	-200.000	-0.001	-0.031
-637.624	72.278	-0.025	-0.026
-636.609	-176.774	-0.148	-0.004
-635.595	-89.052	0.167	0.049
-634.580	45.342	-0.242	0.222
-633.565	-15.452	0.153	-0.097
-632.551	-18.506	-0.151	0.094
-631.536	-129.623	-0.077	-0.011
-630.522	-24.709	-0.286	0.170
-629.507	800.000	-0.014	0.040
-628.492	-200.000	0.026	-0.145
-627.478	237.973	-0.163	0.270
-626.463	-114.537	0.382	0.073
-625.449	800.000	-0.098	0.280
-624.434	22.880	-0.097	0.079
-623.419	-106.246	0.049	-0.011
-622.405	104.714	-0.100	0.117
-621.390	800.000	-0.084	-0.327
-620.376	457.870	0.076	-0.168
-619.361	539.708	0.096	0.229
-618.346	266.473	-0.177	0.308
-617.332	-200.000	0.003	-0.349
-616.317	310.242	0.151	-0.282
-615.303	-137.231	0.073	0.008
-614.288	-200.000	0.028	0.280
-613.273	17.953	0.120	0.096
-612.259	-113.907	0.294	-0.057
-611.244	-45.659	0.134	0.066
-610.230	107.608	0.085	-0.101
-609.215	800.000	0.037	0.107
-608.201	123.484	-0.115	0.144
-607.186	800.000	0.021	0.064
-606.171	55.204	0.078	-0.075
-605.157	-104.636	0.223	-0.051
-604.142	10.203	-0.239	-0.181
-603.128	-45.125	0.071	-0.035
-602.113	41.644	-0.058	0.052
-601.098	-139.092	-0.421	0.045
-600.084	-23.738	-0.188	0.112
-599.069	-53.039	-0.185	0.085
-598.055	50.528	-0.034	-0.032
-597.040	58.820	-0.103	-0.101
-596.025	110.638	-0.170	0.204
-595.011	5.649	0.193	-0.142
-593.996	-62.834	-0.321	0.132
-592.982	-129.763	0.202	0.028
-591.967	154.570	0.104	-0.142
-590.952	-200.000	-0.011	0.066
-589.938	-48.431	0.142	-0.068
-588.923	467.419	0.178	-0.398
-587.909	572.141	0.121	-0.294
-586.894	557.259	0.096	0.231
-585.879	239.131	0.076	-0.126
-584.865	-42.021	0.141	0.072
-583.850	55.494	0.223	0.215
-582.836	330.755	-0.030	-0.057
-581.821	160.630	-0.290	0.403
-580.806	-69.351	0.112	-0.043
-579.792	-101.796	-0.284	0.068
-578.777	-142.542	0.399	-0.039
-577.763	742.154	0.123	0.329
-576.748	-141.917	-0.353	-0.035
-575.733	-4.605	-0.062	-0.043
-574.719	-198.110	-0.343	0.002
-573.704	-83.661	0.341	0.109
-572.690	43.949	-0.151	-0.138
-571.675	-200.000	-0.055	0.328
-570.661	-164.380	-0.116	0.005
-569.646	-61.320	-0.157	-0.066
-568.631	87.469	-0.108	0.119
-567.617	-16.960	0.335	-0.211
-566.602	265.642	0.142	0.247
-565.588	800.000	-0.027	0.115
-564.573	-200.000	-0.013	-0.069
-563.558	800.000	-0.147	-0.411
-562.544	178.081	0.114	-0.165
-561.529	10.486	-0.155	0.117
-560.515	-35.822	0.214	0.115
-559.500	-200.000	-0.014	-0.260
-558.485	149.245	-0.101	-0.135
-557.471	-200.000	0.075	-0.363
-556.456	-72.308	-0.295	0.109
-555.442	39.989	-0.068	0.061
-554.427	-178.379	-0.170	-0.004
-553.412	800.000	-0.045	-0.153
-552.398	511.712	-0.108	-0.251
-551.383	16.294	-0.138	-0.108
-550.369	-66.296	0.314	-0.124
-549.354	32.351	-0.326	0.280
-548.339	-200.000	-0.056	0.291
-547.325	-39.013	-0.097	0.051
-546.310	-83.159	0.083	0.027
-545.296	138.744	-0.078	0.101
-544.281	-49.576	-0.302	0.143
-543.266	-94.886	0.090	0.024
-542.252	-14.823	0.336	0.214
-541.237	270.043	-0.163	0.284
-540.223	148.797	-0.139	0.187
-539.208	-172.739	-0.379	-0.012
-538.193	800.000	-0.055	0.158
-537.179	-122.681	0.148	0.024
-536.164	-161.639	0.107	-0.005
-535.150	371.711	-0.079	0.160
-534.135	119.952	0.049	-0.061
-533.121	296.523	0.114	0.208
-532.106	-133.019	-0.077	-0.010
-531.091	-200.000	0.026	-0.122
-530.077	216.134	-0.147	0.232
-529.062	113.306	0.249	-0.301
-528.048	-59.864	-0.105	0.045
-527.033	270.117	-0.111	-0.193
-526.018	163.076	-0.244	-0.341
-525.004	128.335	0.101	0.128
-523.989	-97.192	-0.079	-0.020
-522.975	698.045	0.074	-0.193
-521.960	445.598	0.138	-0.302
-520.945	800.000	0.068	-0.208
-519.931	-31.577	0.259	-0.145
-518.916	800.000	0.064	-0.199
-517.902	123.869	0.292	0.364
-516.887	-100.887	-0.276	0.067
-515.872	-151.878	0.309	0.023
-514.858	-200.000	-0.027	-0.231
-513.843	787.216	0.057	-0.155
-512.829	482.295	-0.072	-0.162
-511.814	65.779	-0.332	0.334
-510.799	-57.827	0.170	-0.074
-509.785	179.380	0.078	-0.113
-508.770	-200.000	0.005	0.126
-507.756	800.000	-0.065	0.207
-506.741	588.095	0.082	0.200
-505.726	-200.000	-0.003	-0.022
-504.712	-103.528	-0.172	0.040
-503.697	471.598	-0.085	-0.189
-502.683	-24.690	0.036	-0.021
-501.668	-72.222	-0.364	0.134
-500.653	-34.250	-0.178	0.097
-499.639	12.823	0.135	0.104
-498.624	-51.454	-0.219	-0.102
-497.610	-128.119	0.152	0.022
-496.595	17.499	0.170	-0.134
-495.581	-87.175	-0.226	-0.068
-494.566	220.616	-0.076	-0.121
-493.551	-44.270	0.097	-0.048
-492.537	-200.000	0.043	-0.211
-491.522	255.267	-0.080	0.137
-490.508	178.322	-0.159	-0.231
-489.493	645.169	-0.166	-0.421
-488.478	-200.000	0.033	-0.193
-487.464	-152.597	-0.099	-0.007
-486.449	-200.000	0.051	-0.345
-485.435	800.000	0.054	0.199
-484.420	-21.568	0.079	0.047
-483.405	33.246	0.146	0.125
-482.391	-200.000	-0.059	0.416
-481.376	-83.280	0.103	-0.033
-480.362	-200.000	0.045	-0.383
-479.347	11.919	0.049	-0.038
-478.332	-107.494	-0.291	-0.063
-477.318	800.000	-0.076	0.229
-476.303	36.937	-0.086	-0.076
-475.289	620.278	-0.143	0.358
-474.274	32.007	0.151	-0.129
-473.259	800.000	-0.096	-0.381
-472.245	80.833	0.181	-0.194
-471.230	-200.000	-0.010	0.096
-470.216	-200.000	-0.008	0.039
-469.201	-27.814	0.122	-0.070
-468.186	268.357	-0.052	0.091
-467.172	800.000	-0.080	0.226
-466.157	377.532	-0.059	0.120
-465.143	733.836	0.012	0.031
-464.128	-200.000	0.027	0.145
-463.113	-162.669	0.142	-0.007
-462.099	-154.175	0.194	0.013
-461.084	-77.373	0.140	-0.048
-460.070	322.997	-0.184	-0.347
-459.055	800.000	0.060	-0.227
-458.040	-61.005	0.224	-0.094
-457.026	800.000	-0.120	-0.331
-456.011	116.349	0.132	-0.160
-454.997	-200.000	-0.016	-0.073
-453.982	800.000	-0.065	0.229
-452.968	-200.000	-0.006	-0.201
-451.953	76.904	0.086	0.091
-450.938	-34.465	0.290	0.158
-449.924	800.000	0.024	0.072
-448.909	122.948	0.030	0.038
-447.895	439.967	0.084	-0.182
-446.880	-88.799	0.141	0.042
-445.865	149.798	0.234	0.314
-444.851	35.945	0.085	-0.074
-443.836	11.363	-0.157	-0.119
-442.822	143.560	-0.063	0.083
-441.807	509.176	0.080	0.184
-440.792	85.433	0.231	0.251
-439.778	279.898	-0.113	0.200
-438.763	-92.063	-0.229	-0.064
-437.749	-76.229	0.324	-0.113
-436.734	-200.000	0.026	-0.299
-435.719	46.158	0.120	-0.110
-434.705	-56.187	0.079	0.035
-433.690	222.465	0.049	0.078
-432.676	-4.018	-0.102	0.070
-431.661	268.162	0.094	0.162
-430.646	252.481	0.151	-0.255
-429.632	-76.903	-0.329	-0.114
-428.617	800.000	0.107	-0.390
-427.603	147.326	-0.080	-0.107
-426.588	246.154	0.176	-0.293
-425.573	436.484	-0.218	-0.470
-424.559	-200.000	-0.004	-0.040
-423.544	543.592	-0.019	-0.046
-422.530	-98.743	-0.058	0.015
-421.515	-200.000	-0.091	-0.434
-420.500	-106.360	-0.112	0.025
-419.486	-158.440	0.235	0.013
-418.471	74.791	-0.088	0.092
-417.457	9.734	0.316	0.237
-416.442	-19.264	0.269	-0.165
-415.428	-120.662	-0.190	-0.032
-414.413	800.000	0.105	0.337
-413.398	254.351	-0.020	-0.034
-412.384	800.000	0.066	0.213
-411.369	-14.935	0.108	0.068
-410.355	166.786	0.057	-0.080
-409.340	-86.856	-0.401	0.121
-408.325	27.568	-0.295	0.246
-407.311	800.000	-0.100	0.329
-406.296	53.868	0.092	0.087
-405.282	265.307	-0.111	-0.191
-404.267	-121.384	0.134	-0.022
-403.252	-200.000	0.029	-0.149
-402.238	-133.089	-0.117	0.015
-401.223	22.272	-0.207	-0.167
-400.209	700.147	-0.110	-0.287
-399.194	-85.871	0.446	-0.137
-398.179	15.221	0.234	-0.182
-397.165	-42.299	-0.162	0.082
-396.150	-200.000	0.026	0.165
-395.136	800.000	-0.022	0.083
-394.121	205.677	0.209	0.321
-393.106	-138.867	0.132	-0.014
-392.092	-200.000	0.030	0.255
-391.077	150.566	0.059	-0.079
-390.063	43.761	-0.196	-0.177
-389.048	-200.000	-0.069	0.401
-388.033	-104.641	0.234	-0.053
-387.019	-94.311	-0.066	0.018
-386.004	2.031	0.267	-0.191
-384.990	421.614	0.120	0.254
-383.975	313.130	0.060	0.112
-382.960	32.550	-0.268	-0.229
-381.946	-146.301	-0.344	-0.030
-380.931	303.576	-0.128	-0.234
-379.917	-200.000	0.039	-0.192
-378.902	-200.000	0.029	-0.394
-377.888	-45.612	0.062	0.030
-376.873	-74.081	0.144	-0.052
-375.858	35.724	-0.066	-0.057
-374.844	103.679	-0.116	0.135
-373.829	800.000	0.031	-0.128
-372.815	33.011	-0.304	-0.260
-371.800	231.784	-0.028	-0.046
-370.785	-23.271	0.273	0.162
-369.771	48.801	-0.134	-0.124
-368.756	-86.693	-0.381	0.115
-367.742	800.000	0.123	-0.363
-366.727	216.363	-0.080	-0.126
-365.712	-200.000	0.066	0.312
-364.698	-200.000	0.002	0.278
-363.683	-24.635	-0.209	-0.123
-362.669	14.092	0.308	0.237
-361.654	132.144	0.114	0.146
-360.639	43.908	-0.125	-0.113
-359.625	73.236	-0.062	0.064
-358.610	419.367	0.069	-0.146
-357.596	-130.114	0.095	0.013
-356.581	67.851	0.156	-0.158
-355.566	-200.000	-0.046	-0.234
-354.552	800.000	0.030	0.106
-353.537	469.097	0.058	-0.129
-352.523	288.970	-0.121	0.216
-351.508	121.940	0.203	0.250
-350.493	4.722	-0.207	0.150
-349.479	-200.000	-0.032	-0.217
-348.464	-46.978	0.094	-0.045
-347.450	205.066	0.071	0.108
-346.435	112.122	0.076	-0.091
-345.420	612.178	0.059	-0.146
-344.406	-102.958	-0.134	-0.031
-343.391	-122.143	-0.442	0.072
-342.377	270.280	0.195	0.337
-341.362	432.610	0.072	0.155
-340.348	-200.000	0.019	-0.129
-339.333	83.577	0.254	0.273
-338.318	-100.443	0.215	0.053
-337.304	800.000	0.042	0.181
-336.289	-110.928	-0.035	-0.007
-335.275	-55.898	0.143	0.063
-334.260	-88.511	-0.122	0.036
-333.245	-200.000	-0.012	-0.095
-332.231	298.815	0.107	-0.195
-331.216	-200.000	0.001	-0.181
-330.202	-200.000	-0.017	0.229
-329.187	4.449	-0.156	0.113
-328.172	-125.082	0.336	-0.051
-327.158	-200.000	0.007	-0.078
-326.143	-92.172	-0.078	0.022
-325.129	195.311	0.055	0.083
-324.114	-200.000	-0.032	-0.497
-323.099	-65.552	0.339	0.134
-322.085	-36.590	0.153	-0.081
-321.070	8.403	-0.071	-0.053
-320.056	-0.161	0.170	-0.119
-319.041	-41.395	0.242	0.123
-318.026	-164.571	0.141	-0.006
-317.012	-200.000	0.039	-0.330
-315.997	37.471	0.109	-0.095
-314.983	-200.000	0.009	0.110
-313.968	113.041	0.182	-0.218
-312.953	-124.427	-0.366	-0.056
-311.939	-200.000	-0.017	-0.160
-310.924	-29.752	0.358	0.201
-309.910	-200.000	0.002	0.036
-308.895	163.086	-0.212	0.294
-307.880	800.000	-0.081	-0.258
-306.866	153.019	-0.074	-0.100
-305.851	-75.775	-0.106	0.037
-304.837	-177.990	0.320	-0.007
-303.822	317.808	0.087	-0.162
-302.807	-61.162	-0.272	-0.113
-301.793	411.318	0.139	-0.290
-300.778	-71.134	0.394	-0.146
-299.764	-61.610	0.247	-0.102
-298.749	400.399	-0.169	-0.349
-297.735	-10.756	0.116	0.075
-296.720	-200.000	-0.001	-0.107
-295.705	48.645	-0.302	0.279
-294.691	27.101	-0.174	0.144
-293.676	40.432	-0.219	-0.194
-292.662	0.884	0.087	-0.061
-291.647	-106.460	0.251	0.055
-290.632	800.000	-0.010	-0.040
-289.618	-23.263	-0.259	-0.154
-288.603	-200.000	0.030	-0.177
-287.589	800.000	-0.038	0.124
-286.574	9.065	-0.370	0.275
-285.559	110.579	0.103	-0.122
-284.545	-99.234	-0.137	0.034
-283.530	-200.000	0.011	-0.454
-282.516	398.518	-0.051	-0.106
-281.501	800.000	-0.074	0.210
-280.486	-129.070	-0.187	0.026
-279.472	67.434	0.386	-0.388
-278.457	-200.000	-0.013	-0.126
-277.443	508.037	0.013	-0.030
-276.428	-140.870	-0.351	0.036
-275.413	-76.134	-0.152	0.053
-274.399	25.171	-0.105	0.086
-273.384	-109.299	-0.084	0.018
-272.370	800.000	0.015	-0.045
-271.355	104.632	-0.083	0.096
-270.340	-114.056	0.427	-0.081
-269.326	-53.391	0.167	-0.075
-268.311	539.139	0.117	-0.274
-267.297	60.299	-0.134	-0.131
-266.282	-84.032	0.114	0.036
-265.267	-28.913	-0.117	0.066
-264.253	187.148	-0.121	-0.177
-263.238	-29.891	0.189	0.106
-262.224	-200.000	0.052	0.236
-261.209	-200.000	-0.056	-0.297
-260.195	349.114	-0.086	0.167
-259.180	161.691	0.154	-0.212
-258.165	405.691	-0.097	-0.202
-257.151	-143.951	-0.250	0.023
-256.136	204.179	0.276	0.420
-255.122	-73.714	-0.136	-0.049
-254.107	6.498	-0.190	-0.139
-253.092	800.000	0.060	0.211
-252.078	-161.561	-0.275	0.014
-251.063	11.455	-0.301	0.226
-250.049	-200.000	-0.033	-0.257
-249.034	51.872	0.236	-0.221
-248.019	-11.457	-0.087	-0.056
-247.005	-200.000	-0.029	0.454
-245.990	26.138	-0.086	-0.070
-244.976	-147.384	0.331	0.028
-243.961	-101.012	-0.458	0.110
-242.946	800.000	0.077	-0.212
-241.932	357.420	-0.034	0.067
-240.917	-31.947	-0.121	0.066
-239.903	-52.312	0.397	0.181
-238.888	-81.262	-0.216	-0.070
-237.873	-200.000	-0.031	-0.202
-236.859	800.000	-0.040	0.134
-235.844	243.054	0.169	-0.279
-234.830	551.697	0.063	0.149
-233.815	414.431	0.058	0.122
-232.800	-0.022	-0.051	-0.036
-231.786	800.000	0.044	-0.185
-230.771	347.079	0.109	0.210
-229.757	36.142	-0.070	-0.060
-228.742	-115.499	-0.074	0.014
-227.727	-200.000	0.037	-0.237
-226.713	0.329	0.084	-0.059
-225.698	-53.321	-0.164	-0.074
-224.684	97.611	-0.122	0.138
-223.669	-2.925	-0.249	0.171
-222.655	-200.000	0.012	0.231
-221.640	87.680	-0.127	0.138
-220.625	74.138	0.184	0.189
-219.611	209.631	0.074	0.115
-218.596	38.240	-0.189	-0.165
-217.582	-112.845	0.357	-0.069
-216.567	-174.524	-0.081	-0.002
-215.552	-135.962	-0.233	0.027
-214.538	566.623	-0.102	0.243
-213.523	50.852	-0.049	0.046
-212.509	121.682	-0.226	0.277
-211.494	-55.949	0.064	0.028
-210.479	751.217	-0.138	0.366
-209.465	363.167	-0.011	0.022
-208.450	-19.434	0.160	0.097
-207.436	46.580	0.136	0.124
-206.421	-145.389	-0.147	0.013
-205.406	-12.824	0.148	0.094
-204.392	-200.000	0.051	0.385
-203.377	73.192	-0.225	-0.231
-202.363	-169.262	0.116	-0.004
-201.348	-182.718	-0.138	0.002
-200.333	-83.372	0.296	0.093
-199.319	-117.834	0.086	-0.015
-198.304	771.933	-0.051	0.136
-197.290	629.305	0.015	-0.038
-196.275	326.947	0.082	0.155
-195.260	196.492	0.177	0.264
-194.246	-4.164	0.137	-0.093
-193.231	800.000	-0.028	-0.105
-192.217	210.023	0.106	0.164
-191.202	258.172	-0.127	-0.215
-190.187	800.000	0.034	0.130
-189.173	432.803	-0.134	0.284
-188.158	-36.651	-0.189	-0.100
-187.144	-38.512	-0.319	0.165
-186.129	61.351	-0.119	-0.116
-185.114	142.574	-0.139	0.181
-184.100	-200.000	0.003	0.148
-183.085	-185.922	-0.690	0.010
-182.071	51.368	0.036	0.034
-181.056	-87.800	0.332	0.098
-180.042	5.098	-0.124	-0.089
-179.027	-200.000	0.041	0.189
-178.012	196.517	-0.032	-0.048
-176.998	-200.000	0.011	-0.421
-175.983	-161.272	0.098	0.005
-174.969	376.399	0.022	-0.043
-173.954	-24.655	0.207	0.121
-172.939	192.736	0.229	0.338
-171.925	412.842	0.042	0.088
-170.910	-182.224	-0.110	0.002
-169.896	26.799	0.224	0.184
-168.881	205.196	-0.121	-0.185
-167.866	800.000	-0.091	0.337
-166.852	117.378	0.144	-0.173
-165.837	-67.095	0.119	0.046
-164.823	-160.292	0.322	-0.017
-163.808	100.698	-0.170	0.193
-162.793	-200.000	0.119	0.000
-161.779	48.087	-0.184	-0.169
-160.764	-200.000	-0.019	0.090
-159.750	-66.467	0.380	0.148
-158.735	643.299	0.093	0.233
-157.720	-4.758	-0.210	-0.142
-156.706	-59.169	0.194	-0.082
-155.691	254.330	0.107	0.180
-154.677	-80.360	0.143	-0.047
-153.662	70.908	-0.042	0.042
-152.647	86.485	-0.167	0.180
-151.633	192.169	0.100	-0.147
-150.618	422.869	0.069	-0.145
-149.604	-19.262	-0.244	0.148
-148.589	-184.631	0.202	-0.003
-147.574	81.790	0.183	-0.194
-146.560	-200.000	0.018	-0.350
-145.545	54.767	-0.229	-0.216
-144.531	-43.758	-0.161	-0.079
-143.516	-23.811	0.172	0.101
-142.502	35.047	0.216	-0.185
-141.487	134.865	-0.087	0.111
-140.472	800.000	-0.075	0.280
-139.458	-28.797	0.122	-0.069
-138.443	-182.744	0.038	-0.001
-137.429	-7.704	-0.172	0.113
-136.414	-160.082	0.077	-0.004
-135.399	53.794	0.273	-0.256
-134.385	800.000	0.070	0.275
-133.370	-200.000	-0.019	0.211
-132.356	-200.000	0.042	-0.201
-131.341	141.200	-0.215	0.278
-130.326	33.543	-0.069	-0.058
-129.312	-200.000	-0.027	0.368
-128.297	399.105	0.037	0.075
-127.283	-45.196	-0.406	-0.197
-126.268	-200.000	-0.006	-0.228
-125.253	492.447	0.021	-0.047
-124.239	800.000	-0.090	0.279
-123.224	178.507	-0.147	0.210
-122.210	283.426	0.029	0.050
-121.195	-22.325	-0.171	-0.101
-120.180	-200.000	0.019	-0.101
