DTS Sentinel unit serial number:	SN413079Multiplexer serial number:	ORYXHardware model number:	OX4-SRSoftware version number:	ORYX F/W v4.00 Oryx Data Collector v3.7.2.0data status	okinstallation	princeton_trtdifferential loss correction	single-endedforward channel	channel 1reverse channel	N/Adate	2019/09/13time	13:46:35forward acquisition time	60.00reverse acquisition time	0.00gamma	496.2192k internal	0.2303k external	0.2303temperature offset calibration	1.0163default loss term (dB/km)	0.3790temperature slope calibration	1.0000multiplexer offset coefficient	1.0000multiplexer slope coefficient	1.0000fibre end	0.00T internal ref (°C)	35.12T ext. ref 1 (°C)	4.57T ext. ref 2 (°C)	30.96length (m)	temperature (°C)	Stokes	anti-Stokes-747.200	-19.776	-0.232	0.146
-746.185	10.049	0.269	0.209
-745.171	8.469	0.187	0.143
-744.156	-200.000	0.047	0.320
-743.142	-200.000	0.116	-0.000
-742.127	-95.024	0.035	0.010
-741.112	179.761	0.146	0.218
-740.098	-165.814	0.276	-0.012
-739.083	737.654	0.069	0.188
-738.069	-200.000	0.041	0.405
-737.054	439.118	-0.115	0.255
-736.039	-158.660	0.146	0.009
-735.025	-4.858	-0.185	-0.130
-734.010	-143.078	-0.383	-0.038
-732.996	62.531	0.215	-0.219
-731.981	-98.987	-0.188	-0.049
-730.966	-85.933	-0.119	0.038
-729.952	-70.502	-0.250	-0.096
-728.937	-48.565	-0.093	-0.046
-727.923	-18.083	-0.086	-0.055
-726.908	-82.898	0.019	-0.006
-725.894	146.580	-0.334	-0.457
-724.879	-200.000	-0.013	-0.278
-723.864	-46.772	-0.041	-0.021
-722.850	11.249	-0.259	-0.202
-721.835	655.979	0.085	-0.223
-720.821	-200.000	-0.011	-0.111
-719.806	102.560	-0.145	-0.173
-718.791	580.626	0.050	-0.125
-717.777	800.000	0.050	-0.154
-716.762	-95.077	-0.346	0.095
-715.748	-88.284	-0.151	-0.046
-714.733	-73.504	-0.232	-0.086
-713.718	-28.032	0.104	-0.062
-712.704	-143.705	-0.497	-0.048
-711.689	-76.588	-0.264	-0.094
-710.675	800.000	0.084	0.295
-709.660	40.292	0.066	0.060
-708.645	800.000	-0.103	-0.314
-707.631	-156.077	-0.204	-0.013
-706.616	-200.000	-0.037	0.510
-705.602	800.000	0.035	-0.121
-704.587	-7.503	-0.224	-0.154
-703.572	3.474	0.134	0.099
-702.558	84.890	-0.179	0.199
-701.543	-121.357	-0.244	0.041
-700.529	78.607	0.220	-0.239
-699.514	255.225	0.083	-0.144
-698.499	-0.524	-0.154	-0.111
-697.485	138.504	0.060	-0.080
-696.470	52.869	-0.124	-0.121
-695.456	-153.957	-0.339	0.024
-694.441	-200.000	-0.006	-0.514
-693.426	-200.000	0.014	-0.071
-692.412	254.187	-0.107	0.186
-691.397	-200.000	0.060	-0.399
-690.383	-72.277	-0.329	-0.124
-689.368	706.929	0.063	-0.170
-688.354	800.000	-0.065	-0.250
-687.339	800.000	0.039	0.120
-686.324	-95.252	-0.272	0.074
-685.310	-2.208	-0.247	-0.176
-684.295	800.000	0.045	0.165
-683.281	-36.056	-0.196	0.108
-682.266	-32.715	0.179	-0.101
-681.251	-200.000	0.035	-0.333
-680.237	-26.875	-0.183	-0.109
-679.222	800.000	0.069	-0.256
-678.208	-36.317	-0.219	-0.120
-677.193	530.250	0.063	0.152
-676.178	-63.988	0.099	-0.041
-675.164	-137.543	-0.420	0.048
-674.149	286.181	0.064	0.117
-673.135	262.878	0.104	0.183
-672.120	-144.487	0.363	-0.034
-671.105	800.000	-0.035	-0.115
-670.091	800.000	-0.030	-0.115
-669.076	-65.166	0.431	-0.177
-668.062	-109.756	0.174	-0.037
-667.047	230.795	-0.074	0.123
-666.032	-177.729	-0.478	0.012
-665.018	-200.000	-0.079	-0.558
-664.003	37.900	-0.216	0.195
-662.989	-20.421	-0.129	-0.080
-661.974	5.133	0.153	-0.114
-660.959	779.796	-0.058	0.160
-659.945	-63.216	-0.118	-0.050
-658.930	42.951	0.213	0.197
-657.916	-105.888	0.275	-0.063
-656.901	134.421	0.175	-0.230
-655.886	123.525	-0.243	-0.309
-654.872	-167.208	-0.081	-0.003
-653.857	146.892	-0.155	0.211
-652.843	800.000	0.071	0.203
-651.828	172.084	0.112	-0.163
-650.814	-151.671	-0.570	-0.043
-649.799	324.889	0.107	0.208
-648.784	7.837	0.117	0.089
-647.770	-200.000	-0.004	0.064
-646.755	86.627	-0.078	-0.087
-645.741	-200.000	0.007	0.163
-644.726	-200.000	0.011	-0.100
-643.711	-76.759	0.380	0.135
-642.697	-131.732	0.313	-0.042
-641.682	-0.516	-0.137	0.099
-640.668	-200.000	0.017	0.106
-639.653	-158.456	-0.109	-0.006
-638.638	-200.000	0.014	-0.236
-637.624	800.000	0.050	-0.209
-636.609	-100.591	-0.002	0.001
-635.595	-200.000	-0.011	-0.069
-634.580	-200.000	-0.002	0.035
-633.565	353.795	-0.072	-0.146
-632.551	-49.665	-0.123	-0.059
-631.536	-200.000	0.001	-0.198
-630.522	637.090	-0.092	0.236
-629.507	-53.438	-0.419	-0.194
-628.492	251.759	-0.099	0.171
-627.478	-143.411	-0.249	-0.024
-626.463	-200.000	0.008	0.174
-625.449	-86.113	0.147	-0.046
-624.434	20.817	-0.112	-0.092
-623.419	340.316	0.074	-0.146
-622.405	800.000	0.049	-0.206
-621.390	800.000	-0.063	-0.241
-620.376	-200.000	-0.054	0.276
-619.361	-161.398	-0.213	-0.011
-618.346	-30.420	0.299	-0.172
-617.332	35.929	0.092	-0.082
-616.317	-121.661	-0.085	0.014
-615.303	800.000	0.058	-0.180
-614.288	160.104	-0.287	0.406
-613.273	-89.831	-0.248	0.073
-612.259	28.149	0.293	0.251
-611.244	800.000	-0.100	0.443
-610.230	800.000	-0.052	0.226
-609.215	-143.291	0.075	0.007
-608.201	800.000	0.059	0.187
-607.186	423.730	0.128	-0.280
-606.171	-13.590	-0.074	-0.048
-605.157	-85.721	0.308	0.097
-604.142	73.822	-0.156	-0.166
-603.128	-143.147	-0.150	-0.015
-602.113	-100.386	0.205	0.051
-601.098	-48.273	0.239	-0.117
-600.084	-169.426	-0.202	0.007
-599.069	347.509	-0.038	0.075
-598.055	121.709	0.163	0.206
-597.040	335.183	-0.105	-0.206
-596.025	108.230	0.177	0.213
-595.011	-182.331	-0.355	0.007
-593.996	-53.413	0.029	0.013
-592.982	-141.352	0.309	-0.032
-591.967	-53.842	0.186	-0.086
-590.952	80.585	-0.083	0.091
-589.938	101.904	0.094	0.111
-588.923	61.936	-0.229	-0.232
-587.909	-95.707	-0.109	0.030
-586.894	-200.000	-0.007	-0.164
-585.879	-92.114	0.082	0.024
-584.865	800.000	-0.044	0.131
-583.850	149.135	-0.159	0.217
-582.836	784.989	-0.092	0.255
-581.821	723.552	-0.092	-0.249
-580.806	285.077	-0.061	-0.112
-579.792	139.041	-0.134	0.178
-578.777	-200.000	-0.029	0.130
-577.763	-28.768	0.077	0.045
-576.748	798.670	-0.146	0.407
-575.733	800.000	-0.075	-0.283
-574.719	-200.000	-0.000	0.016
-573.704	-41.123	-0.232	-0.121
-572.690	-92.190	-0.074	-0.021
-571.675	136.725	-0.225	0.297
-570.661	800.000	0.034	0.137
-569.646	800.000	0.018	0.075
-568.631	-34.388	0.027	-0.015
-567.617	-200.000	-0.024	-0.252
-566.602	-55.667	-0.158	0.072
-565.588	800.000	-0.044	-0.134
-564.573	176.739	-0.111	0.163
-563.558	-200.000	0.041	-0.272
-562.544	-169.418	0.036	-0.001
-561.529	43.204	0.140	-0.129
-560.515	73.370	-0.180	0.191
-559.500	-147.482	-0.152	-0.013
-558.485	-100.367	0.205	-0.051
-557.471	-35.258	-0.236	0.130
-556.456	-200.000	-0.004	-0.139
-555.442	25.875	0.343	0.289
-554.427	492.716	-0.037	0.086
-553.412	51.226	-0.148	0.142
-552.398	79.366	-0.141	-0.153
-551.383	-100.015	-0.068	-0.017
-550.369	15.567	-0.218	0.173
-549.354	216.302	0.137	0.219
-548.339	245.692	0.095	0.161
-547.325	-13.758	-0.064	-0.042
-546.310	-91.608	0.120	0.034
-545.296	-166.480	-0.121	-0.005
-544.281	112.598	-0.115	0.141
-543.266	126.103	0.116	0.148
-542.252	-200.000	-0.048	0.216
-541.237	80.276	-0.158	0.172
-540.223	-63.178	0.176	-0.073
-539.208	-85.891	-0.339	-0.106
-538.193	144.118	0.069	-0.093
-537.179	264.949	0.257	-0.453
-536.164	-129.804	-0.259	0.036
-535.150	800.000	0.073	0.289
-534.135	-134.455	-0.072	0.009
-533.121	-168.861	-0.209	-0.008
-532.106	-39.139	-0.117	0.062
-531.091	-42.880	0.330	0.169
-530.077	54.240	-0.198	0.193
-529.062	800.000	-0.052	0.170
-528.048	173.882	-0.113	0.165
-527.033	-125.435	-0.235	0.036
-526.018	50.638	0.157	-0.150
-525.004	-68.652	0.116	-0.045
-523.989	-200.000	-0.010	0.180
-522.975	12.261	-0.158	0.123
-521.960	800.000	-0.050	0.176
-520.945	88.891	-0.133	0.149
-519.931	-141.762	0.400	-0.041
-518.916	121.082	-0.221	0.277
-517.902	-77.087	0.259	0.091
-516.887	530.748	-0.069	-0.164
-515.872	-75.529	-0.239	0.086
-514.858	-139.712	0.150	0.016
-513.843	-11.310	0.207	-0.137
-512.829	62.114	0.340	-0.342
-511.814	-123.611	-0.050	0.008
-510.799	366.027	-0.091	-0.186
-509.785	-200.000	0.009	0.176
-508.770	800.000	-0.037	-0.104
-507.756	-52.820	-0.255	-0.119
-506.741	173.814	0.107	-0.156
-505.726	-53.078	-0.156	0.072
-504.712	-37.826	-0.278	-0.149
-503.697	164.088	0.128	-0.182
-502.683	-200.000	-0.014	0.232
-501.668	327.427	-0.222	-0.430
-500.653	116.333	-0.066	0.082
-499.639	-174.570	0.134	-0.004
-498.624	-0.174	0.315	-0.226
-497.610	-200.000	-0.007	0.126
-496.595	13.740	-0.165	0.129
-495.581	-78.793	-0.258	0.089
-494.566	-200.000	0.005	-0.269
-493.551	-200.000	-0.003	0.033
-492.537	-114.673	0.230	0.044
-491.522	92.344	0.236	0.269
-490.508	500.170	0.045	-0.105
-489.493	-127.690	-0.250	0.037
-488.478	9.492	-0.167	-0.127
-487.464	-52.041	-0.176	-0.083
-486.449	103.863	0.167	-0.198
-485.435	289.922	-0.117	0.215
-484.420	-200.000	0.047	0.321
-483.405	422.535	0.123	0.265
-482.391	-51.045	-0.187	-0.089
-481.376	-97.015	0.103	-0.027
-480.362	-176.405	0.162	0.004
-479.347	800.000	0.103	-0.290
-478.332	503.497	-0.133	-0.310
-477.318	66.497	0.169	-0.173
-476.303	-107.122	-0.167	0.037
-475.289	-149.661	0.133	0.011
-474.274	26.317	-0.139	0.117
-473.259	-67.902	0.218	0.086
-472.245	1.698	-0.362	-0.263
-471.230	-200.000	-0.031	0.152
-470.216	238.932	-0.253	0.424
-469.201	726.158	-0.069	-0.187
-468.186	800.000	0.079	-0.312
-467.172	-200.000	-0.029	-0.149
-466.157	27.201	-0.099	0.084
-465.143	-31.918	0.224	0.126
-464.128	-200.000	0.073	-0.376
-463.113	315.307	0.063	0.120
-462.099	23.379	0.171	0.141
-461.084	21.259	0.205	0.168
-460.070	-200.000	0.001	0.026
-459.055	-20.435	-0.374	-0.232
-458.040	-36.215	0.094	0.051
-457.026	800.000	0.052	-0.176
-456.011	-200.000	-0.020	-0.275
-454.997	573.401	-0.117	0.286
-453.982	481.876	0.160	0.366
-452.968	-2.400	-0.166	0.117
-451.953	217.408	0.074	-0.118
-450.938	-112.090	-0.251	-0.051
-449.924	13.567	-0.124	-0.097
-448.909	35.608	-0.055	0.049
-447.895	-68.190	0.305	0.120
-446.880	-159.699	0.232	-0.013
-445.865	-63.239	0.396	0.164
-444.851	-144.122	-0.104	0.010
-443.836	682.313	0.084	0.221
-442.822	-65.030	0.047	0.019
-441.807	143.043	0.186	-0.249
-440.792	1.217	0.307	-0.222
-439.778	-62.525	-0.176	-0.074
-438.763	-200.000	-0.027	-0.159
-437.749	-13.009	-0.064	-0.042
-436.734	800.000	0.059	0.255
-435.719	674.599	-0.085	0.223
-434.705	-6.083	0.324	-0.223
-433.690	-137.287	-0.339	-0.039
-432.676	-200.000	0.001	-0.265
-431.661	105.025	0.160	-0.190
-430.646	-200.000	0.013	0.269
-429.632	-200.000	-0.047	-0.312
-428.617	562.606	-0.031	0.076
-427.603	-70.269	-0.151	-0.058
-426.588	191.500	-0.106	0.161
-425.573	186.089	-0.154	0.231
-424.559	800.000	0.122	-0.344
-423.544	-200.000	0.085	-0.442
-422.530	-107.288	0.200	0.044
-421.515	-200.000	0.006	0.066
-420.500	40.825	0.022	0.020
-419.486	326.207	-0.071	-0.137
-418.471	-49.783	-0.104	-0.050
-417.457	800.000	0.086	-0.296
-416.442	502.534	-0.058	-0.135
-415.428	-114.800	-0.218	0.042
-414.413	101.049	0.153	-0.179
-413.398	-69.563	-0.211	0.081
-412.384	800.000	-0.066	-0.241
-411.369	-152.215	0.064	0.005
-410.355	800.000	-0.048	-0.191
-409.340	22.927	0.294	-0.242
-408.325	-200.000	0.035	-0.414
-407.311	-112.031	0.079	0.016
-406.296	25.168	-0.083	-0.069
-405.282	-200.000	0.035	0.308
-404.267	36.627	0.398	0.354
-403.252	99.375	-0.210	0.244
-402.238	-155.028	-0.058	-0.004
-401.223	-45.853	-0.080	-0.040
-400.209	15.642	0.084	0.066
-399.194	-200.000	-0.016	0.174
-398.179	-200.000	-0.003	-0.040
-397.165	365.949	-0.142	-0.287
-396.150	-56.044	-0.236	0.106
-395.136	800.000	-0.099	0.356
-394.121	-1.006	-0.162	0.115
-393.106	36.214	-0.025	0.022
-392.092	-173.754	0.084	-0.003
-391.077	-83.828	0.133	-0.043
-390.063	800.000	-0.090	0.293
-389.048	179.155	-0.277	0.407
-388.033	-67.743	-0.167	-0.066
-387.019	-11.421	0.222	-0.147
-386.004	-111.619	0.426	0.087
-384.990	53.573	-0.149	-0.144
-383.975	-10.390	-0.195	0.130
-382.960	-70.163	0.164	0.063
-381.946	-39.706	0.112	-0.059
-380.931	800.000	-0.043	-0.169
-379.917	360.105	0.034	-0.068
-378.902	117.133	-0.163	0.202
-377.888	-153.429	0.111	-0.008
-376.873	-200.000	-0.000	0.012
-375.858	-12.388	-0.146	0.096
-374.844	110.605	-0.075	-0.090
-373.829	-200.000	-0.018	-0.209
-372.815	-126.556	-0.318	0.047
-371.800	21.617	0.193	-0.158
-370.785	-108.967	-0.068	0.015
-369.771	-168.640	-0.343	-0.013
-368.756	-41.870	0.239	-0.123
-367.742	-160.907	0.446	0.024
-366.727	628.784	0.066	-0.169
-365.712	-200.000	-0.006	-0.106
-364.698	-200.000	-0.008	0.082
-363.683	128.733	-0.285	0.364
-362.669	800.000	-0.067	0.203
-361.654	-97.402	0.080	-0.021
-360.639	-153.665	0.297	-0.021
-359.625	6.835	-0.083	-0.062
-358.610	97.408	-0.236	-0.272
-357.596	100.713	-0.122	0.142
-356.581	300.414	-0.118	-0.218
-355.566	-29.767	-0.166	0.095
-354.552	-12.654	-0.114	0.074
-353.537	56.968	0.418	-0.409
-352.523	-4.262	0.196	0.136
-351.508	86.084	-0.155	0.171
-350.493	800.000	0.045	-0.136
-349.479	44.634	-0.248	-0.229
-348.464	562.095	-0.016	-0.039
-347.450	-77.007	-0.304	-0.106
-346.435	-137.205	0.136	-0.016
-345.420	800.000	0.055	0.167
-344.406	-157.611	0.192	-0.011
-343.391	43.302	-0.131	0.120
-342.377	-112.782	-0.082	-0.016
-341.362	-17.403	-0.304	-0.192
-340.348	-200.000	-0.001	0.185
-339.333	-200.000	0.057	-0.283
-338.318	-22.780	0.247	0.150
-337.304	-7.929	0.246	-0.166
-336.289	-35.169	0.039	-0.021
-335.275	283.215	0.089	-0.160
-334.260	99.337	0.153	0.178
-333.245	-200.000	-0.038	-0.252
-332.231	-128.888	0.164	0.023
-331.216	19.885	0.298	-0.240
-330.202	59.371	-0.077	0.076
-329.187	-61.964	0.243	-0.102
-328.172	35.190	-0.177	0.156
-327.158	400.949	-0.077	0.163
-326.143	-200.000	-0.060	0.266
-325.129	-199.954	-0.030	-0.000
-324.114	440.731	0.100	-0.219
-323.099	4.420	-0.328	0.241
-322.085	-200.000	0.027	-0.178
-321.070	73.446	0.162	-0.169
-320.056	800.000	-0.054	-0.162
-319.041	117.555	0.191	-0.236
-318.026	-37.082	-0.106	-0.057
-317.012	-14.911	0.120	0.077
-315.997	-171.942	-0.321	-0.010
-314.983	134.341	0.296	-0.385
-313.968	-183.845	-0.293	0.005
-312.953	80.783	0.047	-0.050
-311.939	94.251	0.106	-0.120
-310.924	800.000	-0.012	-0.043
-309.910	-63.272	0.077	0.032
-308.895	-46.644	-0.153	0.075
-307.880	421.162	0.083	-0.179
-306.866	-138.672	-0.130	0.014
-305.851	35.660	0.161	-0.142
-304.837	-5.489	0.170	-0.117
-303.822	301.233	0.019	0.035
-302.807	-200.000	0.018	0.159
-301.793	347.890	0.151	-0.298
-300.778	161.237	0.161	-0.225
-299.764	-167.475	0.161	0.006
-298.749	236.448	-0.217	0.359
-297.735	-200.000	-0.052	0.238
-296.720	-200.000	-0.030	-0.180
-295.705	19.864	0.188	0.152
-294.691	166.056	-0.051	-0.073
-293.676	139.373	-0.050	-0.066
-292.662	60.051	-0.245	0.242
-291.647	-200.000	-0.016	0.209
-290.632	-20.051	0.078	0.048
-289.618	-117.392	-0.332	0.060
-288.603	41.558	0.143	-0.130
-287.589	-135.174	0.113	-0.014
-286.574	-200.000	0.022	-0.282
-285.559	-200.000	-0.011	0.248
-284.545	-97.334	-0.087	-0.023
-283.530	-42.288	-0.299	-0.153
-282.516	38.632	0.219	0.196
-281.501	-16.192	-0.209	0.133
-280.486	-200.000	0.026	-0.198
-279.472	-106.493	-0.162	-0.036
-278.457	-88.603	-0.181	0.054
-277.443	-200.000	-0.017	0.101
-276.428	-115.557	-0.308	0.058
-275.413	146.049	-0.178	0.239
-274.399	35.044	0.265	0.232
-273.384	-95.123	-0.176	0.047
-272.370	105.432	0.079	0.093
-271.355	49.624	-0.259	-0.244
-270.340	-30.096	-0.276	0.157
-269.326	-95.162	0.134	-0.036
-268.311	-42.836	-0.305	-0.155
-267.297	-90.178	0.231	0.067
-266.282	-152.812	-0.513	0.036
-265.267	-200.000	-0.042	-0.297
-264.253	-200.000	-0.021	-0.110
-263.238	382.942	-0.224	0.461
-262.224	-57.135	0.225	0.099
-261.209	800.000	0.083	-0.275
-260.195	50.758	0.221	0.210
-259.180	800.000	-0.045	-0.142
-258.165	-58.177	0.391	-0.170
-257.151	-66.631	0.181	-0.072
-256.136	-38.360	0.120	0.064
-255.122	800.000	-0.045	-0.137
-254.107	-164.338	0.324	-0.015
-253.092	-22.722	0.029	-0.017
-252.078	145.625	-0.180	0.241
-251.063	138.290	0.073	0.095
-250.049	-200.000	0.013	0.192
-249.034	-38.221	0.394	0.209
-248.019	47.900	-0.398	0.371
-247.005	-93.355	-0.085	-0.024
-245.990	-97.228	0.108	0.028
-244.976	-200.000	-0.010	-0.188
-243.961	377.216	-0.163	0.333
-242.946	-200.000	-0.019	-0.536
-241.932	88.470	-0.157	0.174
-240.917	800.000	0.017	0.052
-239.903	23.579	0.157	0.129
-238.888	274.836	-0.058	0.102
-237.873	-200.000	0.000	0.059
-236.859	529.562	-0.097	0.228
-235.844	-81.234	-0.218	-0.072
-234.830	800.000	-0.054	0.162
-233.815	76.713	-0.035	0.037
-232.800	-102.351	-0.165	0.040
-231.786	-77.562	-0.226	-0.078
-230.771	375.068	0.144	-0.293
-229.757	-66.131	0.298	-0.118
-228.742	412.198	-0.135	-0.286
-227.727	-48.448	-0.062	0.030
-226.713	186.934	-0.208	-0.309
-225.698	194.041	0.175	-0.264
-224.684	77.627	0.060	-0.064
-223.669	162.748	0.092	-0.129
-222.655	-161.236	0.210	-0.011
-221.640	800.000	0.008	0.027
-220.625	78.350	0.166	-0.177
-219.611	-41.622	-0.202	0.104
-218.596	-33.423	-0.090	-0.050
-217.582	-56.022	0.292	-0.130
-216.567	-200.000	0.006	0.092
-215.552	228.577	-0.110	0.180
-214.538	-200.000	-0.088	0.426
-213.523	-120.796	0.271	0.046
-212.509	-188.054	0.272	0.003
-211.494	-132.657	-0.240	0.031
-210.479	-41.018	-0.192	-0.099
-209.465	-58.971	-0.133	0.057
-208.450	319.297	0.133	-0.252
-207.436	-54.965	0.197	0.089
-206.421	-59.110	0.227	-0.098
-205.406	-87.176	-0.110	0.033
-204.392	-200.000	-0.038	-0.169
-203.377	-179.161	0.107	-0.002
-202.363	-113.417	0.297	0.058
-201.348	709.920	0.090	0.238
-200.333	136.657	0.194	0.252
-199.319	31.870	-0.162	0.139
-198.304	16.853	0.199	-0.157
-197.290	499.052	-0.098	-0.225
-196.275	-122.576	0.128	0.021
-195.260	37.685	0.190	0.168
-194.246	687.742	-0.170	0.444
-193.231	420.150	-0.150	0.320
-192.217	800.000	0.037	-0.121
-191.202	-200.000	-0.011	-0.103
-190.187	-200.000	-0.004	-0.050
-189.173	-87.987	0.353	-0.106
-188.158	25.071	-0.068	-0.056
-187.144	27.267	-0.073	-0.061
-186.129	9.057	-0.145	-0.109
-185.114	443.922	-0.112	-0.244
-184.100	800.000	0.079	0.282
-183.085	800.000	0.094	-0.394
-182.071	-200.000	-0.005	0.228
-181.056	-36.099	-0.502	0.270
-180.042	39.050	0.195	0.174
-179.027	175.348	0.203	-0.294
-178.012	452.708	0.104	-0.229
-176.998	-152.758	0.231	-0.016
-175.983	-200.000	0.031	-0.250
-174.969	-200.000	0.038	-0.323
-173.954	204.968	0.110	0.170
-172.939	-98.128	-0.094	0.024
-171.925	10.261	0.210	-0.159
-170.910	-61.563	0.165	0.069
-169.896	-97.250	-0.245	0.064
-168.881	66.578	0.314	-0.318
-167.866	363.133	0.130	0.260
-166.852	800.000	0.036	0.126
-165.837	245.050	-0.070	-0.117
-164.823	800.000	-0.064	0.199
-163.808	105.212	0.188	-0.221
-162.793	-200.000	0.018	0.168
-161.779	-85.613	0.291	-0.090
-160.764	-50.827	0.123	0.058
-159.750	-121.839	-0.174	-0.029
-158.735	-10.620	0.432	-0.285
-157.720	800.000	0.062	0.171
-156.706	-14.779	-0.045	-0.029
-155.691	-90.902	0.329	0.094
-154.677	-84.243	0.121	0.038
-153.662	480.521	-0.081	0.183
-152.647	-126.677	0.138	-0.020
-151.633	-62.875	0.222	-0.091
-150.618	12.887	-0.055	0.042
-149.604	-139.964	0.187	-0.020
-148.589	23.916	0.099	-0.081
-147.574	-66.970	-0.253	0.099
-146.560	322.034	-0.069	-0.131
-145.545	212.417	0.195	0.307
-144.531	121.747	0.063	0.078
-143.516	-84.377	-0.112	0.035
-142.502	-47.504	-0.126	-0.061
-141.487	-131.654	0.116	-0.015
-140.472	-48.384	0.154	-0.074
-139.458	42.313	0.101	0.092
-138.443	476.197	0.051	0.115
-137.429	800.000	-0.044	0.121
-136.414	-200.000	0.021	0.096
-135.399	-200.000	0.010	-0.122
-134.385	-200.000	-0.020	-0.164
-133.370	-83.431	0.201	-0.064
-132.356	-152.580	-0.296	0.021
-131.341	19.390	-0.143	-0.114
-130.326	492.449	0.104	0.237
-129.312	-200.000	-0.019	-0.123
-128.297	289.792	0.229	0.413
-127.283	139.742	-0.027	-0.035
-126.268	-152.903	0.272	0.019
-125.253	545.748	-0.098	0.232
-124.239	171.923	0.099	-0.142
-123.224	-98.203	0.123	0.032
-122.210	-100.516	-0.164	-0.040
