DTS Sentinel unit serial number:	SN413079Multiplexer serial number:	ORYXHardware model number:	OX4-SRSoftware version number:	ORYX F/W v4.00 Oryx Data Collector v3.7.2.0data status	okinstallation	princeton_trtdifferential loss correction	single-endedforward channel	channel 1reverse channel	N/Adate	2019/09/12time	07:28:11forward acquisition time	60.00reverse acquisition time	0.00gamma	496.2192k internal	0.2318k external	0.2318temperature offset calibration	1.0046default loss term (dB/km)	0.3790temperature slope calibration	1.0000multiplexer offset coefficient	1.0000multiplexer slope coefficient	1.0000fibre end	0.00T internal ref (°C)	32.44T ext. ref 1 (°C)	1.62T ext. ref 2 (°C)	29.01length (m)	temperature (°C)	Stokes	anti-Stokes-747.200	397.232	-0.168	0.355
-746.185	185.843	0.090	0.135
-745.171	800.000	-0.059	0.227
-744.156	-35.230	-0.323	0.178
-743.142	-200.000	0.001	0.021
-742.127	137.999	-0.042	-0.055
-741.112	-130.150	-0.202	0.028
-740.098	151.703	-0.336	0.463
-739.083	174.274	0.059	-0.086
-738.069	-200.000	0.028	0.151
-737.054	-80.476	-0.084	0.028
-736.039	-63.857	-0.217	0.090
-735.025	-200.000	-0.062	0.392
-734.010	-76.329	0.151	-0.054
-732.996	800.000	0.060	-0.192
-731.981	189.923	-0.095	0.144
-730.966	-200.000	0.003	-0.205
-729.952	-44.195	0.084	-0.043
-728.937	635.826	0.023	-0.059
-727.923	-58.475	-0.096	0.042
-726.908	-190.101	0.291	0.003
-725.894	-200.000	-0.014	0.093
-724.879	-4.131	0.111	-0.078
-723.864	-42.052	-0.131	-0.068
-722.850	-14.211	-0.114	-0.074
-721.835	-200.000	-0.000	-0.008
-720.821	-105.469	0.499	0.115
-719.806	42.523	0.111	0.102
-718.791	-200.000	0.020	0.143
-717.777	-51.143	-0.058	0.028
-716.762	97.580	-0.170	-0.198
-715.748	-42.421	-0.277	0.143
-714.733	800.000	0.086	-0.263
-713.718	-200.000	0.017	-0.101
-712.704	180.351	0.107	-0.159
-711.689	-200.000	0.014	-0.190
-710.675	-0.851	-0.302	0.216
-709.660	-118.234	0.303	-0.055
-708.645	-9.545	-0.132	0.089
-707.631	696.475	-0.048	0.128
-706.616	-100.794	0.415	-0.103
-705.602	98.886	-0.063	-0.073
-704.587	-107.076	-0.324	-0.072
-703.572	800.000	-0.078	-0.247
-702.558	262.010	-0.111	-0.194
-701.543	44.311	0.432	-0.401
-700.529	-32.826	-0.485	0.272
-699.514	-200.000	0.023	-0.334
-698.499	253.805	0.112	0.193
-697.485	54.471	0.173	-0.168
-696.470	333.327	0.027	0.053
-695.456	-108.247	-0.142	-0.031
-694.441	-127.784	-0.320	-0.047
-693.426	62.969	-0.140	-0.142
-692.412	-200.000	-0.019	-0.399
-691.397	735.727	-0.069	0.187
-690.383	300.271	-0.091	-0.170
-689.368	-65.479	-0.170	0.069
-688.354	292.865	0.008	0.015
-687.339	24.787	-0.091	-0.076
-686.324	-84.228	0.433	0.139
-685.310	-200.000	0.030	0.249
-684.295	-200.000	0.036	0.301
-683.281	-57.625	0.054	0.024
-682.266	-200.000	0.023	0.160
-681.251	-54.305	-0.333	0.153
-680.237	-200.000	-0.009	0.162
-679.222	-45.286	-0.222	0.111
-678.208	-0.418	-0.221	-0.159
-677.193	507.706	0.031	0.072
-676.178	-125.998	-0.338	0.051
-675.164	62.922	-0.129	0.130
-674.149	800.000	-0.021	-0.090
-673.135	9.839	0.280	-0.215
-672.120	-48.474	0.230	-0.112
-671.105	-9.564	-0.160	-0.108
-670.091	-184.966	-0.066	0.001
-669.076	-116.905	0.322	-0.059
-668.062	-200.000	0.026	0.198
-667.047	436.939	-0.062	0.135
-666.032	-158.305	0.298	-0.018
-665.018	171.598	0.041	-0.059
-664.003	171.351	0.154	-0.223
-662.989	80.737	0.113	-0.123
-661.974	96.524	-0.092	-0.106
-660.959	132.447	-0.214	-0.279
-659.945	216.102	0.030	-0.048
-658.930	-125.817	0.274	-0.042
-657.916	-200.000	-0.054	0.242
-656.901	-200.000	0.004	0.323
-655.886	800.000	-0.065	-0.202
-654.872	-137.858	-0.077	0.009
-653.857	530.632	-0.054	0.129
-652.843	-54.098	-0.116	0.053
-651.828	186.409	-0.123	0.184
-650.814	291.525	-0.163	-0.299
-649.799	-104.033	-0.261	0.061
-648.784	-174.732	-0.196	0.006
-647.770	-27.909	0.086	-0.050
-646.755	-115.346	-0.429	0.082
-645.741	-61.573	0.265	-0.112
-644.726	40.700	-0.184	0.168
-643.711	-103.510	-0.094	0.022
-642.697	-200.000	0.020	-0.482
-641.682	79.079	-0.141	0.153
-640.668	57.004	-0.259	-0.254
-639.653	800.000	-0.181	0.519
-638.638	-87.072	-0.239	0.073
-637.624	508.591	-0.123	0.287
-636.609	-200.000	-0.013	0.136
-635.595	-200.000	0.043	0.257
-634.580	-127.800	-0.367	-0.053
-633.565	-72.850	-0.205	0.076
-632.551	-53.504	0.089	-0.041
-631.536	800.000	0.103	-0.366
-630.522	35.456	0.147	0.130
-629.507	-200.000	0.036	-0.268
-628.492	-12.554	0.258	-0.170
-627.478	800.000	0.054	-0.225
-626.463	-200.000	-0.153	-0.680
-625.449	-200.000	-0.004	-0.440
-624.434	-149.941	-0.182	0.014
-623.419	-147.463	0.117	-0.010
-622.405	487.278	-0.104	-0.240
-621.390	-158.088	0.158	0.009
-620.376	149.513	-0.051	0.070
-619.361	328.943	-0.135	0.260
-618.346	-48.051	-0.203	-0.099
-617.332	-200.000	-0.000	-0.145
-616.317	132.911	0.104	-0.136
-615.303	-200.000	-0.034	-0.388
-614.288	24.320	0.112	-0.093
-613.273	-200.000	0.022	-0.216
-612.259	9.792	-0.060	0.046
-611.244	800.000	-0.011	-0.044
-610.230	800.000	-0.012	0.037
-609.215	254.016	0.201	-0.346
-608.201	-106.281	0.189	0.043
-607.186	800.000	-0.056	0.165
-606.171	22.599	-0.025	0.021
-605.157	98.155	0.157	0.182
-604.142	-32.629	-0.249	0.139
-603.128	545.527	-0.058	-0.140
-602.113	200.067	0.116	-0.179
-601.098	-31.017	-0.167	-0.095
-600.084	-200.000	-0.009	-0.089
-599.069	-34.791	-0.154	-0.085
-598.055	-130.780	0.238	-0.032
-597.040	210.791	-0.085	-0.134
-596.025	-200.000	0.061	-0.325
-595.011	-24.422	-0.104	0.063
-593.996	-129.850	0.249	-0.034
-592.982	-13.517	-0.088	0.058
-591.967	-37.222	0.140	0.076
-590.952	126.620	0.067	-0.086
-589.938	800.000	0.019	-0.064
-588.923	264.852	0.087	-0.153
-587.909	302.129	0.076	0.142
-586.894	-200.000	0.011	0.243
-585.879	28.619	0.080	-0.068
-584.865	-200.000	0.053	0.525
-583.850	299.594	-0.087	0.161
-582.836	-140.065	0.076	0.008
-581.821	-143.342	-0.426	0.041
-580.806	-111.293	0.119	-0.024
-579.792	-106.599	0.464	-0.104
-578.777	-200.000	0.001	-0.156
-577.763	-200.000	0.037	-0.185
-576.748	144.137	0.170	0.228
-575.733	463.571	-0.092	0.207
-574.719	-141.837	-0.044	-0.004
-573.704	-200.000	0.030	-0.240
-572.690	-200.000	-0.013	-0.134
-571.675	-200.000	-0.014	-0.332
-570.661	-32.298	-0.076	-0.043
-569.646	123.608	-0.130	-0.164
-568.631	73.993	-0.117	0.123
-567.617	58.246	-0.257	-0.253
-566.602	-200.000	-0.044	-0.246
-565.588	400.938	-0.041	-0.086
-564.573	65.010	-0.193	-0.196
-563.558	800.000	0.039	-0.138
-562.544	-78.761	0.147	0.050
-561.529	-52.336	-0.114	-0.053
-560.515	800.000	-0.016	0.053
-559.500	428.494	0.118	0.257
-558.485	202.927	-0.257	-0.399
-557.471	174.995	-0.115	0.167
-556.456	234.715	-0.169	0.281
-555.442	-10.036	0.159	-0.106
-554.427	-83.308	-0.139	-0.045
-553.412	-66.639	0.242	-0.096
-552.398	85.143	0.110	0.121
-551.383	-142.285	-0.311	0.031
-550.369	-83.309	-0.434	0.140
-549.354	22.289	0.261	0.214
-548.339	-97.242	-0.105	0.027
-547.325	474.135	-0.036	0.083
-546.310	777.282	-0.063	-0.173
-545.296	-141.792	-0.238	0.024
-544.281	-200.000	-0.032	0.155
-543.266	41.023	0.070	0.063
-542.252	-111.082	-0.067	-0.014
-541.237	546.802	0.032	-0.078
-540.223	800.000	0.074	-0.212
-539.208	-132.831	0.254	-0.033
-538.193	-200.000	0.023	0.264
-537.179	-99.666	-0.135	-0.034
-536.164	-122.544	0.182	-0.030
-535.150	-171.386	-0.161	-0.005
-534.135	469.139	0.081	0.184
-533.121	-200.000	0.030	-0.301
-532.106	302.496	-0.076	-0.142
-531.091	-136.196	0.166	0.020
-530.077	800.000	-0.055	-0.152
-529.062	-25.015	0.092	0.055
-528.048	800.000	0.028	0.088
-527.033	-145.066	-0.201	0.018
-526.018	800.000	-0.057	0.163
-525.004	-200.000	0.017	0.130
-523.989	-114.419	0.279	-0.054
-522.975	161.010	0.063	0.089
-521.960	-200.000	0.056	-0.429
-520.945	-132.845	-0.328	0.042
-519.931	456.904	-0.072	-0.160
-518.916	800.000	-0.142	0.422
-517.902	0.911	-0.231	0.166
-516.887	325.720	-0.097	0.187
-515.872	59.049	-0.162	-0.160
-514.858	86.093	-0.126	-0.139
-513.843	-93.176	-0.122	-0.034
-512.829	800.000	-0.019	-0.079
-511.814	-143.926	0.270	0.026
-510.799	800.000	0.067	0.219
-509.785	122.249	-0.185	-0.232
-508.770	53.902	-0.022	-0.021
-507.756	31.300	-0.084	-0.072
-506.741	800.000	0.046	0.201
-505.726	14.892	0.092	0.072
-504.712	-108.375	-0.070	-0.015
-503.697	-200.000	0.034	-0.285
-502.683	-32.789	-0.223	0.124
-501.668	488.881	-0.075	-0.171
-500.653	-200.000	0.028	-0.207
-499.639	-161.802	-0.530	-0.027
-498.624	199.310	0.214	0.328
-497.610	-200.000	0.000	0.040
-496.595	124.489	0.099	0.124
-495.581	-58.975	0.222	-0.096
-494.566	378.871	-0.098	0.202
-493.551	13.243	-0.110	0.086
-492.537	-44.770	0.118	0.059
-491.522	800.000	-0.078	-0.282
-490.508	78.225	0.295	0.315
-489.493	-90.684	-0.215	0.062
-488.478	-11.568	0.164	-0.108
-487.464	-172.068	-0.390	0.013
-486.449	36.920	-0.209	-0.185
-485.435	800.000	-0.087	-0.316
-484.420	-110.601	0.322	-0.067
-483.405	-142.651	-0.279	0.027
-482.391	-200.000	0.030	0.316
-481.376	51.601	-0.150	0.143
-480.362	47.169	-0.148	-0.138
-479.347	-200.000	-0.002	-0.215
-478.332	-17.976	-0.230	0.144
-477.318	386.794	-0.109	0.225
-476.303	-95.647	0.225	0.060
-475.289	-200.000	-0.079	0.349
-474.274	-200.000	-0.047	-0.213
-473.259	2.656	0.075	-0.055
-472.245	-200.000	-0.020	-0.114
-471.230	-42.415	-0.259	-0.132
-470.216	-5.992	0.061	0.042
-469.201	233.684	-0.109	0.180
-468.186	-114.682	-0.077	-0.015
-467.172	-98.905	0.317	-0.081
-466.157	99.955	-0.105	0.121
-465.143	-79.053	0.128	-0.043
-464.128	282.525	-0.063	-0.114
-463.113	45.329	0.118	-0.109
-462.099	-91.971	-0.302	0.086
-461.084	-125.275	0.133	-0.020
-460.070	-62.539	0.088	0.037
-459.055	-200.000	-0.008	-0.051
-458.040	314.634	0.173	0.327
-457.026	147.718	0.120	-0.162
-456.011	-97.397	0.238	0.062
-454.997	311.676	0.190	0.357
-453.982	500.269	0.099	0.229
-452.968	-7.495	0.125	0.085
-451.953	-80.520	0.150	0.050
-450.938	-122.785	0.076	-0.012
-449.924	-200.000	0.008	0.209
-448.909	52.719	-0.207	0.198
-447.895	800.000	0.075	-0.241
-446.880	-200.000	0.005	0.069
-445.865	-129.802	0.183	-0.025
-444.851	-150.418	-0.033	0.003
-443.836	30.066	-0.411	-0.351
-442.822	39.254	0.197	0.176
-441.807	-127.129	-0.149	-0.022
-440.792	-139.994	-0.224	-0.024
-439.778	-49.976	-0.327	-0.155
-438.763	24.977	0.197	0.164
-437.749	800.000	0.034	0.116
-436.734	-29.069	-0.152	-0.087
-435.719	-124.156	-0.247	0.039
-434.705	195.674	0.127	0.193
-433.690	275.954	-0.050	-0.089
-432.676	348.424	0.045	0.089
-431.661	-200.000	-0.033	0.193
-430.646	265.372	-0.100	0.174
-429.632	800.000	0.045	-0.182
-428.617	398.705	0.165	-0.345
-427.603	-109.860	0.178	-0.037
-426.588	72.228	-0.223	-0.232
-425.573	-200.000	-0.024	-0.339
-424.559	235.800	-0.178	0.294
-423.544	443.197	-0.076	0.166
-422.530	-200.000	0.023	0.120
-421.515	-200.000	0.032	-0.163
-420.500	317.720	0.061	0.114
-419.486	28.096	0.126	-0.106
-418.471	214.398	0.126	-0.200
-417.457	-200.000	-0.072	-0.391
-416.442	25.356	-0.040	0.033
-415.428	184.161	-0.139	0.206
-414.413	33.258	-0.204	0.177
-413.398	-200.000	-0.005	0.147
-412.384	-200.000	0.014	0.118
-411.369	-200.000	-0.001	0.024
-410.355	103.212	0.138	0.162
-409.340	266.949	-0.186	0.325
-408.325	41.338	0.063	0.057
-407.311	127.473	-0.233	-0.295
-406.296	-136.455	0.288	0.033
-405.282	-200.000	-0.021	-0.146
-404.267	-116.364	0.084	0.016
-403.252	-200.000	0.113	0.528
-402.238	-200.000	-0.019	-0.153
-401.223	132.880	-0.057	0.073
-400.209	-124.279	0.294	-0.046
-399.194	139.409	-0.092	-0.121
-398.179	-17.796	0.190	-0.119
-397.165	431.287	-0.102	-0.220
-396.150	499.762	0.032	-0.073
-395.136	149.832	-0.057	-0.077
-394.121	144.626	0.057	-0.076
-393.106	256.277	-0.001	0.002
-392.092	111.305	0.136	-0.164
-391.077	-61.539	0.215	-0.090
-390.063	-74.582	0.195	0.070
-389.048	14.645	-0.151	-0.117
-388.033	-34.028	0.258	0.142
-387.019	91.399	0.241	0.270
-386.004	800.000	-0.083	-0.263
-384.990	91.208	-0.133	0.149
-383.975	238.462	-0.152	-0.251
-382.960	-10.304	0.396	-0.262
-381.946	-18.636	0.344	0.214
-380.931	-200.000	0.005	0.065
-379.917	-200.000	-0.002	0.159
-378.902	800.000	0.041	-0.123
-377.888	120.947	-0.074	0.092
-376.873	-9.636	0.137	0.091
-375.858	-155.724	0.160	-0.010
-374.844	800.000	-0.033	0.140
-373.829	-13.822	-0.148	-0.095
-372.815	732.017	0.027	0.072
-371.800	-15.116	0.068	0.044
-370.785	22.089	0.068	0.056
-369.771	-200.000	-0.017	-0.146
-368.756	-129.720	-0.121	-0.017
-367.742	-40.831	0.207	0.107
-366.727	-114.095	-0.203	-0.039
-365.712	800.000	-0.030	-0.109
-364.698	4.733	0.343	0.251
-363.683	-200.000	-0.019	0.142
-362.669	-200.000	0.052	0.368
-361.654	478.146	-0.068	-0.155
-360.639	95.407	0.300	0.341
-359.625	800.000	-0.061	0.222
-358.610	24.114	-0.261	0.215
-357.596	-83.487	-0.219	-0.070
-356.581	14.995	0.170	-0.132
-355.566	-123.910	0.273	0.043
-354.552	-95.828	-0.203	0.054
-353.537	-125.279	-0.407	0.062
-352.523	182.998	-0.056	-0.082
-351.508	-140.945	0.286	-0.029
-350.493	646.830	-0.093	-0.237
-349.479	-10.322	-0.093	-0.062
-348.464	3.269	0.206	0.150
-347.450	144.138	0.213	-0.283
-346.435	800.000	0.067	-0.243
-345.420	-59.859	-0.103	0.044
-344.406	328.383	-0.070	-0.135
-343.391	-89.785	0.234	-0.068
-342.377	635.686	0.036	0.090
-341.362	93.950	-0.170	-0.192
-340.348	-93.979	0.162	0.044
-339.333	-200.000	0.011	-0.170
-338.318	-112.927	0.118	0.023
-337.304	116.547	0.212	0.259
-336.289	-200.000	-0.008	-0.337
-335.275	-148.699	0.552	-0.045
-334.260	-119.012	-0.226	-0.039
-333.245	250.901	-0.141	0.239
-332.231	-150.182	-0.134	0.010
-331.216	52.336	0.214	-0.203
-330.202	800.000	-0.023	0.064
-329.187	-92.393	-0.124	0.035
-328.172	-48.353	0.190	-0.091
-327.158	-12.347	-0.193	-0.125
-326.143	-126.278	0.375	0.056
-325.129	274.295	-0.106	-0.187
-324.114	800.000	-0.044	-0.174
-323.099	103.020	-0.067	-0.078
-322.085	291.343	-0.175	-0.317
-321.070	-200.000	-0.014	0.243
-320.056	2.326	0.221	0.159
-319.041	45.649	-0.117	0.107
-318.026	205.373	0.171	-0.265
-317.012	-127.131	0.280	0.041
-315.997	-161.542	0.162	0.008
-314.983	-52.333	-0.118	-0.055
-313.968	148.969	0.141	-0.189
-312.953	124.017	0.262	-0.328
-311.939	61.373	-0.102	-0.101
-310.924	81.143	0.202	0.217
-309.910	152.901	0.118	0.161
-308.895	-200.000	-0.040	0.364
-307.880	800.000	0.087	0.370
-306.866	21.794	-0.086	0.070
-305.851	106.534	0.011	0.013
-304.837	800.000	-0.031	0.124
-303.822	91.938	-0.019	0.021
-302.807	97.787	0.217	-0.248
-301.793	-66.863	0.144	-0.057
-300.778	97.923	-0.124	0.142
-299.764	473.543	-0.068	0.151
-298.749	678.752	0.063	0.162
-297.735	245.952	0.115	0.193
-296.720	-101.443	-0.185	0.045
-295.705	460.870	-0.141	0.313
-294.691	88.932	-0.421	0.466
-293.676	65.170	-0.113	0.114
-292.662	-200.000	0.050	0.350
-291.647	-69.564	-0.316	0.120
-290.632	668.291	-0.081	-0.209
-289.618	-170.249	-0.243	-0.009
-288.603	-200.000	-0.022	-0.176
-287.589	129.022	0.163	-0.207
-286.574	800.000	0.056	0.240
-285.559	-200.000	0.011	-0.196
-284.545	-200.000	-0.040	0.187
-283.530	431.974	0.075	-0.161
-282.516	-24.998	0.450	-0.265
-281.501	-62.919	-0.267	0.110
-280.486	800.000	0.134	-0.470
-279.472	800.000	-0.039	0.132
-278.457	-84.429	0.221	-0.069
-277.443	-4.645	-0.188	-0.129
-276.428	800.000	0.080	0.259
-275.413	499.790	0.131	0.300
-274.399	-131.897	0.531	0.069
-273.384	572.136	-0.082	0.198
-272.370	188.626	-0.057	0.085
-271.355	26.513	0.063	0.052
-270.340	82.734	-0.149	-0.160
-269.326	-72.097	-0.217	-0.080
-268.311	-82.501	0.125	0.040
-267.297	800.000	-0.045	0.165
-266.282	188.260	0.072	-0.106
-265.267	-142.621	0.372	-0.036
-264.253	43.471	-0.220	0.199
-263.238	-200.000	0.031	-0.225
-262.224	-159.410	0.115	-0.006
-261.209	-145.551	-0.166	0.015
-260.195	-120.948	0.413	-0.069
-259.180	87.815	-0.125	0.138
-258.165	26.574	0.059	-0.049
-257.151	800.000	0.059	0.207
-256.136	-8.826	-0.135	-0.090
-255.122	800.000	0.009	-0.027
-254.107	-113.185	0.109	-0.021
-253.092	-97.185	-0.055	-0.014
-252.078	-200.000	0.011	0.303
-251.063	73.130	0.229	0.237
-250.049	16.448	-0.112	0.088
-249.034	-200.000	-0.206	0.001
-248.019	-200.000	-0.030	0.259
-247.005	-94.186	0.479	-0.130
-245.990	66.532	-0.047	0.047
-244.976	-63.524	0.456	-0.186
-243.961	-106.853	-0.211	-0.046
-242.946	164.436	0.080	-0.111
-241.932	-33.198	-0.144	0.079
-240.917	-9.966	-0.370	0.244
-239.903	-117.612	0.527	-0.094
-238.888	-200.000	-0.036	-0.276
-237.873	-115.368	-0.111	-0.021
-236.859	350.806	-0.176	-0.345
-235.844	519.097	0.096	0.224
-234.830	800.000	0.091	-0.253
-233.815	34.833	0.074	-0.064
-232.800	-138.920	-0.620	0.067
-231.786	-147.027	-0.190	-0.016
-230.771	28.691	0.098	-0.082
-229.757	800.000	-0.060	-0.229
-228.742	-128.785	-0.329	-0.046
-227.727	-81.010	0.133	-0.044
-226.713	151.705	0.073	-0.099
-225.698	347.175	0.184	0.359
-224.684	458.977	0.139	0.306
-223.669	522.637	0.047	-0.111
-222.655	-200.000	-0.016	-0.158
-221.640	-200.000	-0.064	0.317
-220.625	-98.204	-0.178	0.045
-219.611	-104.233	-0.178	0.041
-218.596	447.884	0.037	0.080
-217.582	-161.120	-0.232	-0.012
-216.567	34.810	-0.207	0.179
-215.552	748.259	-0.122	-0.327
-214.538	800.000	0.020	0.078
-213.523	-172.057	0.240	-0.008
-212.509	-91.559	0.454	0.128
-211.494	-75.256	0.416	0.147
-210.479	-53.424	0.333	-0.151
-209.465	-200.000	0.030	-0.254
-208.450	-145.431	-0.102	-0.009
-207.436	256.118	-0.164	0.279
-206.421	277.986	0.121	0.214
-205.406	165.780	0.072	0.101
-204.392	-91.133	0.176	0.050
-203.377	87.628	-0.261	0.286
-202.363	284.091	0.044	-0.079
-201.348	13.322	0.087	-0.067
-200.333	123.017	-0.032	-0.040
-199.319	-100.976	-0.374	-0.091
-198.304	163.735	0.096	0.134
-197.290	-160.942	0.140	0.007
-196.275	-124.118	-0.050	0.008
-195.260	-200.000	0.061	-0.273
-194.246	291.521	-0.092	0.165
-193.231	176.691	0.155	-0.223
-192.217	-114.897	0.062	-0.012
-191.202	298.292	-0.154	-0.280
-190.187	-133.496	0.086	-0.011
-189.173	-200.000	-0.068	-0.395
-188.158	108.920	-0.135	-0.160
-187.144	22.181	0.168	-0.136
-186.129	-56.207	0.183	-0.081
-185.114	90.840	-0.147	0.163
-184.100	-138.187	0.156	0.017
-183.085	800.000	-0.052	0.216
-182.071	-200.000	-0.002	-0.097
-181.056	800.000	-0.074	0.216
-180.042	568.753	-0.105	0.253
-179.027	-124.411	0.259	0.040
-178.012	319.375	0.075	-0.141
-176.998	671.074	0.022	-0.056
-175.983	-125.441	-0.048	0.007
-174.969	-34.953	-0.194	0.105
-173.954	167.996	-0.097	-0.136
-172.939	-200.000	-0.041	0.227
-171.925	-200.000	-0.015	0.206
-170.910	-127.570	0.196	0.028
-169.896	22.592	-0.127	0.103
-168.881	-34.356	-0.147	-0.080
-167.866	65.762	0.073	0.073
-166.852	-35.557	-0.182	0.098
-165.837	713.336	-0.090	0.236
-164.823	-11.401	0.027	0.017
-163.808	113.521	-0.162	-0.195
-162.793	-200.000	-0.045	0.250
-161.779	626.713	0.021	-0.051
-160.764	-23.674	-0.189	-0.112
-159.750	-89.278	0.306	0.089
-158.735	-200.000	-0.004	-0.170
-157.720	-200.000	-0.006	0.040
-156.706	147.446	0.111	0.148
-155.691	-63.206	-0.076	0.031
-154.677	-131.079	-0.235	0.031
-153.662	-94.441	0.388	-0.105
-152.647	128.973	-0.147	-0.185
-151.633	-46.241	0.409	-0.199
-150.618	251.571	-0.055	0.093
-149.604	-43.879	-0.162	0.081
-148.589	-6.042	-0.280	0.190
-147.574	202.050	0.097	0.148
-146.560	-200.000	0.013	0.462
-145.545	-161.713	0.113	-0.006
-144.531	414.205	0.092	0.193
-143.516	27.083	-0.204	0.169
-142.502	118.606	-0.077	-0.094
-141.487	224.824	-0.158	-0.253
-140.472	-21.730	-0.128	0.077
-139.458	-66.075	0.293	-0.116
-138.443	-26.524	0.269	0.156
-137.429	343.524	-0.066	-0.128
-136.414	26.280	-0.115	0.095
-135.399	148.651	0.070	-0.093
-134.385	-200.000	0.044	0.348
-133.370	-146.812	0.225	-0.019
-132.356	-200.000	-0.036	0.236
-131.341	-190.094	-0.090	0.001
-130.326	-47.421	-0.333	-0.160
-129.312	800.000	0.088	-0.269
-128.297	-88.160	0.318	-0.094
-127.283	-34.477	-0.161	0.087
-126.268	-118.454	-0.453	-0.079
-125.253	-164.212	0.177	-0.008
-124.239	-200.000	0.005	-0.285
-123.224	800.000	0.106	0.359
-122.210	-77.504	0.403	0.138
