DTS Sentinel unit serial number:	SN413079Multiplexer serial number:	ORYXHardware model number:	OX4-SRSoftware version number:	ORYX F/W v4.00 Oryx Data Collector v3.7.2.0data status	okinstallation	princeton_trtdifferential loss correction	single-endedforward channel	channel 1reverse channel	N/Adate	2019/09/10time	18:44:11forward acquisition time	60.00reverse acquisition time	0.00gamma	496.2192k internal	0.2310k external	0.2310temperature offset calibration	0.9928default loss term (dB/km)	0.3790temperature slope calibration	1.0000multiplexer offset coefficient	1.0000multiplexer slope coefficient	1.0000fibre end	0.00T internal ref (°C)	35.25T ext. ref 1 (°C)	-0.31T ext. ref 2 (°C)	27.36length (m)	temperature (°C)	Stokes	anti-Stokes-747.200	800.000	-0.052	-0.216
-746.185	99.892	-0.228	-0.268
-745.171	-200.000	-0.018	-0.128
-744.156	252.353	-0.124	0.215
-743.142	-200.000	0.079	-0.369
-742.127	-34.925	0.234	-0.129
-741.112	-172.407	-0.202	-0.007
-740.098	-104.840	0.216	-0.050
-739.083	327.553	-0.028	0.055
-738.069	703.611	-0.164	0.439
-737.054	74.649	-0.147	0.157
-736.039	-200.000	-0.021	-0.238
-735.025	-192.297	0.277	-0.003
-734.010	-70.101	0.231	0.089
-732.996	-76.895	-0.380	0.135
-731.981	194.762	0.127	0.195
-730.966	5.271	-0.231	-0.173
-729.952	-200.000	-0.019	0.124
-728.937	-200.000	-0.048	-0.222
-727.923	-95.332	-0.273	0.075
-726.908	800.000	-0.082	-0.340
-725.894	102.523	0.109	-0.129
-724.879	-123.879	-0.031	0.005
-723.864	-200.000	-0.031	-0.331
-722.850	349.590	0.065	-0.131
-721.835	-96.645	-0.118	0.032
-720.821	4.234	-0.219	0.163
-719.806	449.256	-0.048	-0.107
-718.791	-200.000	-0.017	-0.105
-717.777	150.380	-0.144	-0.199
-716.762	33.051	-0.095	-0.084
-715.748	-104.391	-0.231	0.054
-714.733	117.857	-0.056	-0.069
-713.718	146.044	0.198	-0.269
-712.704	-128.108	-0.106	0.015
-711.689	-200.000	0.009	0.125
-710.675	240.325	-0.048	-0.080
-709.660	-200.000	0.060	-0.377
-708.645	-200.000	-0.015	0.109
-707.631	313.978	0.199	-0.379
-706.616	-200.000	-0.010	-0.096
-705.602	41.554	-0.282	-0.259
-704.587	113.006	0.142	0.175
-703.572	-3.710	0.138	-0.097
-702.558	-40.716	-0.323	0.170
-701.543	189.155	-0.106	-0.162
-700.529	196.024	0.079	0.122
-699.514	-200.000	-0.017	-0.095
-698.499	117.058	0.069	0.086
-697.485	43.119	0.086	-0.079
-696.470	-47.833	0.361	0.177
-695.456	80.814	-0.159	0.174
-694.441	74.986	0.104	-0.111
-693.426	-95.762	-0.228	-0.062
-692.412	-115.768	0.088	0.017
-691.397	-16.570	-0.292	-0.188
-690.383	-90.791	-0.581	-0.170
-689.368	-78.108	-0.083	-0.029
-688.354	-7.278	0.303	-0.208
-687.339	800.000	-0.049	0.166
-686.324	75.476	-0.063	-0.067
-685.310	118.981	0.096	0.121
-684.295	-200.000	-0.008	0.280
-683.281	-66.568	0.078	0.031
-682.266	-81.010	0.030	-0.010
-681.251	240.102	0.152	-0.257
-680.237	418.038	0.169	-0.365
-679.222	800.000	-0.071	-0.278
-678.208	-51.783	-0.151	0.071
-677.193	232.086	-0.159	-0.264
-676.178	800.000	-0.021	-0.085
-675.164	800.000	0.064	0.196
-674.149	27.469	-0.106	0.090
-673.135	-16.440	-0.241	0.155
-672.120	272.794	0.096	-0.172
-671.105	800.000	0.080	-0.277
-670.091	96.113	-0.154	-0.178
-669.076	219.784	0.094	-0.152
-668.062	-200.000	-0.023	0.152
-667.047	-134.243	0.136	0.017
-666.032	-25.225	-0.082	0.049
-665.018	747.830	0.115	0.314
-664.003	104.599	0.198	-0.236
-662.989	-17.517	0.251	-0.160
-661.974	800.000	-0.048	-0.151
-660.959	800.000	0.073	0.271
-659.945	-200.000	0.048	0.283
-658.930	-200.000	0.000	-0.028
-657.916	-81.500	-0.104	-0.035
-656.901	-200.000	-0.094	0.000
-655.886	-69.926	0.256	-0.099
-654.872	-149.534	0.158	0.013
-653.857	-98.163	0.301	0.078
-652.843	-9.374	-0.221	-0.149
-651.828	-83.745	0.117	-0.038
-650.814	23.487	-0.183	-0.152
-649.799	-200.000	0.019	-0.403
-648.784	-64.224	0.124	-0.051
-647.770	224.120	0.187	0.305
-646.755	76.231	-0.036	0.038
-645.741	-120.162	0.077	0.013
-644.726	-114.739	0.242	-0.047
-643.711	-137.717	-0.223	-0.025
-642.697	-8.446	0.351	0.239
-641.682	204.730	0.059	-0.093
-640.668	74.708	0.129	-0.137
-639.653	-175.753	-0.218	-0.006
-638.638	226.714	0.235	0.386
-637.624	-40.693	0.139	-0.073
-636.609	627.686	-0.061	-0.157
-635.595	-24.428	-0.123	-0.074
-634.580	-165.306	-0.677	-0.030
-633.565	459.513	0.129	0.290
-632.551	-24.715	-0.319	0.192
-631.536	426.945	-0.057	0.124
-630.522	184.264	-0.140	-0.209
-629.507	-148.778	-0.221	-0.018
-628.492	-78.616	0.329	-0.114
-627.478	800.000	0.072	0.314
-626.463	800.000	0.059	0.186
-625.449	43.782	0.163	0.150
-624.434	-83.269	-0.204	0.066
-623.419	-188.737	-0.108	0.001
-622.405	-200.000	-0.023	-0.378
-621.390	323.176	0.090	-0.173
-620.376	175.381	-0.169	0.248
-619.361	-200.000	-0.015	-0.545
-618.346	-6.964	0.101	-0.070
-617.332	-83.045	0.130	0.042
-616.317	-55.753	0.214	0.097
-615.303	293.219	0.099	0.182
-614.288	299.185	-0.153	0.285
-613.273	800.000	-0.043	-0.175
-612.259	267.082	0.167	0.295
-611.244	1.509	0.020	0.014
-610.230	-200.000	-0.037	-0.303
-609.215	18.786	-0.298	-0.241
-608.201	-52.998	0.282	-0.131
-607.186	-17.332	-0.219	-0.139
-606.171	-108.812	0.467	-0.101
-605.157	-54.857	-0.221	0.101
-604.142	-55.028	-0.253	-0.115
-603.128	-66.485	0.255	0.102
-602.113	142.104	-0.135	0.180
-601.098	80.332	-0.249	-0.271
-600.084	-127.214	0.219	-0.032
-599.069	-200.000	-0.081	-0.000
-598.055	39.411	-0.176	-0.159
-597.040	25.738	0.183	0.154
-596.025	-200.000	-0.015	0.105
-595.011	800.000	-0.109	-0.309
-593.996	-200.000	-0.014	-0.065
-592.982	6.987	-0.141	0.106
-591.967	-200.000	-0.035	0.193
-590.952	800.000	-0.095	0.317
-589.938	800.000	0.100	0.364
-588.923	-34.997	-0.090	0.050
-587.909	30.089	-0.186	-0.160
-586.894	143.188	-0.166	-0.223
-585.879	800.000	-0.050	-0.173
-584.865	38.561	0.224	-0.202
-583.850	111.751	-0.089	-0.109
-582.836	-24.797	0.362	-0.217
-581.821	500.128	0.060	-0.139
-580.806	-44.076	0.178	-0.090
-579.792	189.513	-0.214	0.324
-578.777	-29.216	0.113	-0.065
-577.763	373.479	-0.085	-0.174
-576.748	-77.436	0.182	-0.064
-575.733	-145.013	0.233	0.021
-574.719	-99.738	0.215	-0.054
-573.704	292.849	-0.128	0.235
-572.690	800.000	-0.040	0.130
-571.675	183.973	0.106	0.158
-570.661	-60.116	0.186	0.080
-569.646	-146.914	0.154	0.013
-568.631	-61.585	0.278	0.118
-567.617	-200.000	-0.024	-0.119
-566.602	-72.276	-0.058	0.022
-565.588	129.004	-0.123	0.158
-564.573	90.358	-0.255	-0.288
-563.558	238.187	0.111	-0.186
-562.544	64.275	0.062	-0.063
-561.529	-121.656	-0.097	0.016
-560.515	128.743	-0.233	-0.299
-559.500	322.417	0.049	0.094
-558.485	319.302	0.095	-0.181
-557.471	130.447	0.168	-0.217
-556.456	-114.973	0.225	0.043
-555.442	-38.450	-0.306	0.163
-554.427	-150.113	0.226	-0.018
-553.412	35.761	0.338	-0.300
-552.398	800.000	0.069	-0.279
-551.383	45.567	0.222	-0.207
-550.369	800.000	0.018	-0.063
-549.354	138.545	-0.076	0.101
-548.339	-145.148	-0.177	-0.016
-547.325	800.000	-0.063	-0.176
-546.310	121.024	0.149	-0.187
-545.296	256.274	-0.193	-0.334
-544.281	-59.112	0.453	-0.197
-543.266	-200.000	0.013	0.160
-542.252	263.388	-0.111	-0.194
-541.237	789.869	0.171	0.472
-540.223	434.664	0.025	0.055
-539.208	638.754	-0.128	0.329
-538.193	18.675	-0.218	0.176
-537.179	57.289	0.153	-0.150
-536.164	-102.037	0.336	0.082
-535.150	143.453	-0.082	0.110
-534.135	800.000	-0.151	-0.442
-533.121	-200.000	-0.035	-0.401
-532.106	58.161	-0.190	-0.187
-531.091	-200.000	0.011	-0.318
-530.077	-106.292	0.236	-0.053
-529.062	286.989	-0.058	-0.105
-528.048	-142.479	0.129	0.013
-527.033	43.074	0.040	0.037
-526.018	-200.000	0.009	-0.059
-525.004	78.017	-0.099	0.106
-523.989	121.869	0.244	0.307
-522.975	-60.499	-0.166	-0.071
-521.960	-32.738	-0.323	-0.181
-520.945	-200.000	-0.020	0.133
-519.931	-61.895	-0.115	-0.048
-518.916	-24.747	-0.115	-0.069
-517.902	427.683	0.090	-0.196
-516.887	-87.995	-0.316	-0.095
-515.872	-200.000	-0.013	0.087
-514.858	-170.308	-0.226	-0.008
-513.843	214.655	-0.098	-0.157
-512.829	-200.000	-0.018	-0.109
-511.814	-56.113	0.189	-0.085
-510.799	-53.100	-0.122	0.057
-509.785	-61.207	-0.044	0.019
-508.770	-5.120	-0.227	0.157
-507.756	207.067	0.148	-0.232
-506.741	-64.498	-0.470	0.192
-505.726	-82.548	-0.265	0.086
-504.712	-200.000	0.001	0.123
-503.697	188.199	0.050	0.076
-502.683	-120.223	-0.282	-0.048
-501.668	723.188	-0.099	-0.266
-500.653	-91.221	0.265	0.076
-499.639	-200.000	0.026	-0.176
-498.624	66.536	0.104	0.106
-497.610	-200.000	-0.450	0.001
-496.595	-200.000	0.044	-0.221
-495.581	37.202	0.260	0.232
-494.566	-41.301	-0.363	-0.188
-493.551	463.577	0.121	0.271
-492.537	279.874	-0.053	0.095
-491.522	-9.249	-0.124	-0.083
-490.508	203.511	-0.169	-0.263
-489.493	93.943	-0.102	-0.116
-488.478	71.013	0.141	0.147
-487.464	186.080	0.169	0.253
-486.449	-200.000	-0.043	0.342
-485.435	-87.604	0.347	0.105
-484.420	-152.561	0.196	-0.014
-483.405	-169.684	0.155	0.006
-482.391	-68.557	-0.192	-0.075
-481.376	-93.209	-0.265	-0.074
-480.362	-200.000	-0.057	0.333
-479.347	-101.300	0.107	0.026
-478.332	80.006	-0.206	-0.223
-477.318	111.273	0.116	0.140
-476.303	126.837	0.009	0.012
-475.289	470.963	0.085	-0.192
-474.274	5.175	-0.250	-0.185
-473.259	-40.023	0.205	0.108
-472.245	81.359	0.157	-0.170
-471.230	558.148	0.061	0.148
-470.216	-157.836	0.070	0.004
-469.201	55.319	-0.135	0.131
-468.186	-200.000	0.022	-0.152
-467.172	-1.122	0.189	-0.134
-466.157	-92.469	0.270	-0.076
-465.143	-45.660	-0.261	-0.130
-464.128	47.541	-0.120	0.112
-463.113	-200.000	-0.028	0.138
-462.099	-15.009	-0.264	0.170
-461.084	92.225	0.101	-0.114
-460.070	-25.471	0.041	0.025
-459.055	-29.020	0.156	0.090
-458.040	800.000	0.108	0.339
-457.026	165.907	-0.144	-0.205
-456.011	-59.577	-0.166	-0.071
-454.997	66.353	0.268	0.273
-453.982	-110.389	0.184	-0.038
-452.968	237.917	-0.114	-0.191
-451.953	210.886	-0.153	0.241
-450.938	322.572	0.051	0.098
-449.924	-144.591	0.064	0.006
-448.909	18.547	0.233	-0.187
-447.895	17.027	-0.078	0.062
-446.880	754.467	0.010	-0.028
-445.865	620.708	-0.037	0.094
-444.851	110.217	-0.101	-0.121
-443.836	77.609	-0.393	-0.420
-442.822	-148.393	-0.252	-0.021
-441.807	339.369	-0.088	-0.172
-440.792	479.132	-0.123	-0.280
-439.778	-181.152	-0.341	-0.007
-438.763	574.232	-0.064	-0.157
-437.749	72.717	0.172	-0.180
-436.734	-137.942	0.253	-0.028
-435.719	-102.173	-0.298	-0.072
-434.705	-40.967	-0.100	-0.052
-433.690	198.647	-0.120	-0.185
-432.676	92.889	0.265	0.300
-431.661	-200.000	-0.012	-0.057
-430.646	373.433	0.109	-0.223
-429.632	-101.646	-0.184	-0.045
-428.617	219.720	0.035	0.056
-427.603	-118.261	0.255	0.046
-426.588	101.435	0.262	-0.306
-425.573	430.997	0.138	-0.299
-424.559	603.903	-0.177	0.441
-423.544	-101.446	0.435	-0.106
-422.530	82.001	0.083	0.090
-421.515	-136.878	-0.143	0.016
-420.500	62.813	-0.109	-0.109
-419.486	800.000	0.046	0.195
-418.471	-200.000	0.031	0.267
-417.457	376.031	0.152	0.311
-416.442	-138.001	-0.464	0.052
-415.428	-59.770	0.134	0.057
-414.413	-62.994	0.059	-0.025
-413.398	3.147	-0.015	0.011
-412.384	73.640	-0.205	0.215
-411.369	41.891	0.144	0.131
-410.355	-163.794	0.117	0.006
-409.340	29.688	-0.387	0.330
-408.325	-83.880	0.148	0.047
-407.311	-57.395	0.214	-0.094
-406.296	-74.434	0.171	0.062
-405.282	198.046	0.134	0.205
-404.267	-78.986	0.216	-0.074
-403.252	-66.980	0.181	-0.072
-402.238	800.000	0.108	-0.319
-401.223	-123.127	0.256	-0.041
-400.209	-156.995	-0.191	-0.012
-399.194	-200.000	-0.017	-0.372
-398.179	-78.747	0.337	0.115
-397.165	82.514	0.095	0.103
-396.150	-200.000	0.012	0.187
-395.136	628.975	0.043	0.108
-394.121	88.687	0.049	-0.054
-393.106	-200.000	0.053	0.292
-392.092	800.000	-0.063	0.249
-391.077	43.253	0.258	-0.236
-390.063	-62.130	-0.277	-0.116
-389.048	800.000	0.096	0.389
-388.033	76.754	-0.084	-0.089
-387.019	-164.003	-0.290	-0.014
-386.004	603.823	-0.024	-0.061
-384.990	-116.778	0.365	-0.067
-383.975	-39.456	-0.302	-0.158
-382.960	-125.805	0.208	0.031
-381.946	800.000	-0.021	-0.091
-380.931	229.433	0.143	-0.234
-379.917	-101.069	-0.296	-0.073
-378.902	-162.013	0.218	0.011
-377.888	-0.701	0.295	0.209
-376.873	-200.000	-0.014	-0.111
-375.858	425.286	0.071	0.152
-374.844	339.676	-0.037	0.071
-373.829	79.929	0.157	-0.169
-372.815	800.000	-0.065	-0.232
-371.800	-182.182	-0.229	-0.004
-370.785	9.742	-0.390	-0.296
-369.771	-13.366	0.043	-0.028
-368.756	-97.688	0.260	0.067
-367.742	535.870	0.114	0.271
-366.727	-5.947	0.039	0.026
-365.712	-16.115	0.110	0.070
-364.698	-142.341	0.242	-0.024
-363.683	125.655	0.177	-0.224
-362.669	-200.000	0.126	0.001
-361.654	253.507	-0.040	-0.069
-360.639	-23.169	-0.019	0.011
-359.625	-200.000	0.009	-0.127
-358.610	444.825	-0.157	-0.346
-357.596	-200.000	-0.187	-0.000
-356.581	-13.159	0.057	-0.037
-355.566	107.796	-0.116	-0.138
-354.552	77.636	-0.052	-0.056
-353.537	-200.000	0.029	0.295
-352.523	-200.000	0.060	-0.296
-351.508	-111.959	-0.048	0.010
-350.493	-99.309	-0.358	-0.090
-349.479	407.229	0.060	0.128
-348.464	-14.481	0.078	-0.050
-347.450	560.308	0.091	0.221
-346.435	162.398	-0.193	-0.271
-345.420	13.984	0.158	0.123
-344.406	-200.000	0.091	-0.588
-343.391	331.219	-0.119	-0.229
-342.377	45.622	-0.344	0.318
-341.362	24.879	-0.209	0.173
-340.348	240.166	-0.171	-0.285
-339.333	105.241	0.091	-0.107
-338.318	800.000	0.052	0.150
-337.304	-165.356	-0.406	-0.018
-336.289	-41.013	0.206	-0.106
-335.275	508.185	-0.030	-0.070
-334.260	-7.848	0.209	0.141
-333.245	800.000	-0.027	0.103
-332.231	-118.243	-0.292	-0.052
-331.216	800.000	-0.036	-0.103
-330.202	-181.542	0.153	0.003
-329.187	91.415	-0.123	0.138
-328.172	-44.535	0.212	0.106
-327.158	-52.186	-0.091	-0.042
-326.143	57.083	0.156	0.152
-325.129	284.205	-0.079	0.142
-324.114	-102.507	0.222	0.053
-323.099	26.329	0.044	0.036
-322.085	402.727	-0.133	-0.279
-321.070	-143.787	0.156	0.015
-320.056	-200.000	-0.005	0.058
-319.041	-200.000	-0.012	0.294
-318.026	469.220	0.128	0.286
-317.012	23.070	-0.184	-0.151
-315.997	-200.000	0.050	-0.224
-314.983	-200.000	-0.025	-0.182
-313.968	-102.802	0.262	0.062
-312.953	76.262	-0.216	0.228
-311.939	-200.000	0.039	-0.249
-310.924	131.495	0.126	-0.162
-309.910	-31.824	-0.394	-0.220
-308.895	-67.512	-0.168	0.066
-307.880	403.898	-0.058	0.123
-306.866	-103.146	0.339	-0.080
-305.851	-81.238	0.256	-0.084
-304.837	-97.698	-0.382	0.099
-303.822	-5.815	0.199	0.136
-302.807	-50.317	-0.057	-0.027
-301.793	800.000	0.045	-0.193
-300.778	800.000	0.102	-0.335
-299.764	-122.948	-0.169	0.027
-298.749	-200.000	0.001	-0.144
-297.735	-106.194	0.222	0.050
-296.720	-66.996	-0.327	0.129
-295.705	-124.171	-0.312	0.049
-294.691	414.405	0.131	-0.278
-293.676	63.650	-0.292	-0.293
-292.662	-25.643	0.134	0.079
-291.647	-200.000	-0.040	0.182
-290.632	84.868	-0.114	-0.124
-289.618	120.768	-0.135	0.167
-288.603	-126.284	0.127	0.019
-287.589	-27.169	0.322	-0.187
-286.574	800.000	0.014	0.042
-285.559	-200.000	0.024	-0.219
-284.545	-140.357	-0.306	-0.032
-283.530	-57.347	0.224	-0.098
-282.516	81.528	0.263	0.284
-281.501	-108.947	0.059	-0.013
-280.486	576.982	-0.115	0.281
-279.472	-200.000	0.010	-0.103
-278.457	171.634	0.262	-0.375
-277.443	-200.000	-0.006	-0.129
-276.428	-117.088	0.165	0.030
-275.413	-141.321	0.218	0.022
-274.399	182.661	0.220	-0.323
-273.384	-151.084	-0.260	0.019
-272.370	169.366	0.019	-0.027
-271.355	800.000	0.102	-0.306
-270.340	-200.000	0.041	-0.195
-269.326	-200.000	-0.015	-0.438
-268.311	-200.000	0.019	-0.092
-267.297	-200.000	0.003	0.161
-266.282	-42.563	0.206	0.105
-265.267	-0.596	0.217	0.154
-264.253	-116.759	-0.167	0.031
-263.238	-21.377	-0.183	0.111
-262.224	-39.678	-0.418	-0.218
-261.209	-81.001	0.305	0.101
-260.195	214.353	0.131	0.207
-259.180	-42.840	-0.070	-0.035
-258.165	-200.000	0.020	0.173
-257.151	-120.665	-0.249	0.042
-256.136	272.980	0.139	-0.244
-255.122	4.372	-0.324	-0.237
-254.107	-73.945	-0.111	-0.040
-253.092	169.001	0.066	-0.094
-252.078	175.756	0.108	0.156
-251.063	717.685	0.077	-0.203
-250.049	-200.000	0.011	0.225
-249.034	39.027	0.198	0.176
-248.019	-71.963	0.174	0.064
-247.005	-31.148	0.155	0.087
-245.990	-3.422	-0.208	0.144
-244.976	-84.696	-0.145	0.045
-243.961	-200.000	-0.049	0.355
-242.946	-9.513	-0.171	0.114
-241.932	-200.000	0.056	0.279
-240.917	385.436	-0.113	0.232
-239.903	-80.654	0.360	0.119
-238.888	304.882	0.090	0.166
-237.873	-49.356	0.279	0.133
-236.859	-200.000	0.019	0.134
-235.844	-112.096	0.482	0.097
-234.830	-200.000	-0.040	0.197
-233.815	-40.527	-0.205	-0.106
-232.800	51.718	0.216	-0.205
-231.786	-152.865	-0.305	-0.022
-230.771	3.371	-0.107	-0.078
-229.757	626.643	-0.103	0.258
-228.742	-200.000	-0.003	0.043
-227.727	40.907	0.265	-0.238
-226.713	222.529	-0.065	0.104
-225.698	-200.000	0.113	0.521
-224.684	65.715	-0.162	0.164
-223.669	-200.000	0.029	0.349
-222.655	384.580	-0.088	-0.181
-221.640	252.864	-0.244	-0.414
-220.625	474.988	-0.045	-0.102
-219.611	-34.702	-0.374	-0.204
-218.596	800.000	-0.081	-0.266
-217.582	139.647	0.090	0.118
-216.567	-37.296	0.180	0.096
-215.552	61.751	-0.309	0.307
-214.538	-105.958	0.470	0.105
-213.523	501.318	-0.078	0.178
-212.509	373.622	-0.051	0.103
-211.494	114.853	0.095	0.115
-210.479	54.580	0.116	-0.111
-209.465	-40.775	0.131	0.067
-208.450	200.664	-0.148	0.227
-207.436	-126.631	-0.319	-0.047
-206.421	299.017	0.229	0.419
-205.406	37.429	0.241	-0.212
-204.392	218.586	-0.065	0.103
-203.377	241.174	-0.162	-0.269
-202.363	-31.691	-0.505	0.282
-201.348	-16.202	-0.165	0.104
-200.333	204.278	-0.202	0.311
-199.319	-54.895	-0.252	-0.113
-198.304	-99.574	0.220	-0.055
-197.290	156.808	-0.182	0.250
-196.275	-200.000	0.001	0.109
-195.260	-65.047	-0.408	0.164
-194.246	177.431	0.123	0.178
-193.231	280.306	0.085	0.151
-192.217	794.834	0.119	0.326
-191.202	-79.121	0.043	0.015
-190.187	192.390	0.105	0.157
-189.173	-197.115	0.048	0.000
-188.158	-100.230	-0.108	0.027
-187.144	431.269	-0.207	0.446
-186.129	800.000	-0.039	0.147
-185.114	24.899	-0.139	0.114
-184.100	110.704	-0.224	-0.268
-183.085	-155.649	0.354	0.023
-182.071	10.701	-0.030	0.023
-181.056	800.000	-0.067	-0.234
-180.042	-72.332	-0.063	-0.023
-179.027	-83.764	-0.464	0.147
-178.012	302.879	0.085	0.157
-176.998	125.608	-0.062	0.077
-175.983	-150.285	0.285	-0.022
-174.969	800.000	-0.096	-0.335
-173.954	-114.774	0.071	0.014
-172.939	301.743	0.129	-0.238
-171.925	-111.456	-0.229	0.046
-170.910	-5.005	0.012	0.008
-169.896	-105.108	0.384	-0.087
-168.881	-200.000	-0.047	0.363
-167.866	-28.119	0.078	-0.045
-166.852	-200.000	-0.069	0.325
-165.837	800.000	0.132	0.366
-164.823	379.997	0.097	0.198
-163.808	-131.085	0.100	0.013
-162.793	800.000	0.084	-0.274
-161.779	800.000	0.052	-0.201
-160.764	-97.040	0.095	-0.025
-159.750	-145.163	-0.107	-0.010
-158.735	147.855	0.245	-0.327
-157.720	46.339	-0.305	0.281
-156.706	-200.000	-0.025	0.382
-155.691	130.641	0.058	-0.074
-154.677	467.908	-0.166	0.370
-153.662	-142.954	-0.247	0.024
-152.647	83.586	-0.122	0.132
-151.633	-131.183	0.221	0.029
-150.618	-108.410	0.112	-0.024
-149.604	-200.000	-0.030	0.147
-148.589	-102.959	-0.197	-0.046
-147.574	369.759	0.094	0.189
-146.560	-200.000	0.016	0.129
-145.545	-48.022	0.341	-0.163
-144.531	-65.177	0.150	-0.060
-143.516	15.183	0.113	0.088
-142.502	-104.684	-0.370	-0.084
-141.487	249.756	-0.071	-0.120
-140.472	12.507	0.181	0.139
-139.458	41.423	0.139	0.125
-138.443	140.586	-0.122	0.160
-137.429	-60.066	0.318	0.135
-136.414	25.703	-0.058	0.048
-135.399	131.128	0.243	0.310
-134.385	135.484	-0.038	0.049
-133.370	77.491	0.064	-0.068
-132.356	-200.000	0.029	0.221
-131.341	124.166	-0.044	0.054
-130.326	8.723	0.214	0.160
-129.312	800.000	0.011	-0.033
-128.297	800.000	0.057	-0.238
-127.283	-22.521	0.222	0.133
-126.268	-32.323	-0.123	-0.068
-125.253	196.141	0.139	-0.210
-124.239	-200.000	-0.022	0.147
-123.224	-200.000	0.000	0.203
-122.210	154.473	-0.061	0.083
-121.195	-86.637	-0.072	-0.022
