DTS Sentinel unit serial number:	SN413079Multiplexer serial number:	ORYXHardware model number:	OX4-SRSoftware version number:	ORYX F/W v4.00 Oryx Data Collector v3.7.2.0data status	okinstallation	princeton_trtdifferential loss correction	single-endedforward channel	channel 1reverse channel	N/Adate	2019/09/14time	04:42:35forward acquisition time	60.00reverse acquisition time	0.00gamma	496.2192k internal	0.2334k external	0.2334temperature offset calibration	1.0079default loss term (dB/km)	0.3790temperature slope calibration	1.0000multiplexer offset coefficient	1.0000multiplexer slope coefficient	1.0000fibre end	0.00T internal ref (°C)	26.81T ext. ref 1 (°C)	3.36T ext. ref 2 (°C)	21.98length (m)	temperature (°C)	Stokes	anti-Stokes-747.200	-54.197	0.277	-0.127
-746.185	-14.361	0.069	-0.045
-745.171	237.996	0.053	-0.088
-744.156	800.000	0.034	0.146
-743.142	-70.516	0.246	-0.093
-742.127	201.708	-0.153	0.237
-741.112	-14.885	-0.060	-0.039
-740.098	338.777	-0.122	0.238
-739.083	59.362	0.242	0.240
-738.069	-31.267	-0.183	-0.103
-737.054	800.000	0.049	-0.162
-736.039	-36.999	-0.198	-0.107
-735.025	-112.673	0.246	-0.049
-734.010	-144.728	-0.379	0.035
-732.996	122.334	-0.117	-0.146
-731.981	-200.000	-0.054	-0.323
-730.966	567.926	-0.152	-0.370
-729.952	56.633	-0.414	-0.404
-728.937	42.484	0.152	0.139
-727.923	800.000	-0.087	0.353
-726.908	161.440	0.170	-0.238
-725.894	79.671	-0.106	0.114
-724.879	-58.770	0.094	-0.041
-723.864	-68.497	-0.221	0.086
-722.850	-5.878	-0.221	0.152
-721.835	30.180	0.214	0.183
-720.821	800.000	-0.096	0.279
-719.806	85.628	0.170	-0.187
-718.791	123.398	0.245	0.308
-717.777	706.697	0.070	-0.184
-716.762	-92.006	-0.248	-0.071
-715.748	-162.478	-0.298	0.015
-714.733	-169.218	0.285	0.011
-713.718	512.568	-0.016	0.039
-712.704	380.944	0.081	0.168
-711.689	-19.667	0.189	-0.117
-710.675	50.959	0.178	0.169
-709.660	-115.801	0.317	-0.060
-708.645	-200.000	-0.006	0.135
-707.631	-146.421	-0.094	0.008
-706.616	-163.985	0.138	0.006
-705.602	668.891	-0.081	-0.210
-704.587	7.409	0.127	-0.095
-703.572	-162.048	-0.284	0.014
-702.558	295.152	-0.086	0.158
-701.543	-48.240	-0.366	-0.177
-700.529	-90.266	-0.134	0.039
-699.514	205.894	-0.060	0.093
-698.499	-35.441	-0.102	-0.056
-697.485	-92.235	-0.118	0.033
-696.470	67.798	0.097	0.099
-695.456	-200.000	0.004	-0.332
-694.441	786.808	-0.023	-0.064
-693.426	466.990	0.029	0.066
-692.412	280.007	0.144	-0.258
-691.397	-200.000	0.015	0.102
-690.383	-32.293	-0.064	0.036
-689.368	513.713	-0.093	-0.217
-688.354	123.814	0.105	-0.132
-687.339	-117.153	0.331	-0.060
-686.324	-76.731	0.203	-0.071
-685.310	648.239	-0.066	-0.170
-684.295	180.653	0.181	-0.267
-683.281	-89.199	0.027	-0.008
-682.266	-40.704	-0.159	-0.083
-681.251	190.558	0.175	-0.264
-680.237	170.653	0.054	0.078
-679.222	-200.000	0.007	-0.040
-678.208	-200.000	0.016	-0.078
-677.193	-200.000	-0.369	0.000
-676.178	800.000	-0.054	0.205
-675.164	-61.529	-0.281	-0.118
-674.149	-200.000	0.037	0.289
-673.135	-172.481	0.567	-0.018
-672.120	-46.790	-0.219	0.107
-671.105	91.506	-0.107	-0.121
-670.091	-200.000	0.003	0.129
-669.076	89.399	0.089	-0.099
-668.062	106.321	0.159	-0.189
-667.047	130.056	-0.066	0.085
-666.032	185.768	-0.112	0.167
-665.018	-93.125	0.449	-0.125
-664.003	122.485	0.163	0.204
-662.989	800.000	-0.130	-0.403
-661.974	37.103	-0.245	-0.217
-660.959	7.086	0.217	-0.162
-659.945	154.840	-0.058	-0.080
-658.930	-87.464	-0.089	-0.027
-657.916	-29.991	0.135	-0.077
-656.901	268.526	-0.087	-0.152
-655.886	-200.000	0.030	-0.147
-654.872	-45.990	-0.248	-0.123
-653.857	98.500	-0.149	-0.172
-652.843	-83.521	-0.184	0.059
-651.828	800.000	0.043	-0.130
-650.814	-63.039	0.167	-0.069
-649.799	182.687	0.093	0.138
-648.784	-144.437	-0.193	0.018
-647.770	800.000	0.065	0.261
-646.755	56.820	-0.234	0.229
-645.741	58.775	-0.234	-0.230
-644.726	343.431	-0.096	-0.188
-643.711	800.000	0.009	-0.034
-642.697	147.052	0.039	0.052
-641.682	64.051	-0.267	-0.269
-640.668	-200.000	-0.009	0.184
-639.653	-45.580	0.297	0.147
-638.638	-200.000	-0.020	-0.233
-637.624	-40.712	-0.126	0.066
-636.609	-200.000	-0.005	-0.057
-635.595	-86.536	-0.529	-0.162
-634.580	800.000	0.063	-0.238
-633.565	33.476	-0.276	0.240
-632.551	-86.321	-0.122	0.038
-631.536	79.174	0.100	-0.108
-630.522	-136.411	-0.093	0.011
-629.507	10.092	0.336	-0.255
-628.492	14.571	-0.204	0.160
-627.478	800.000	0.129	0.363
-626.463	800.000	0.074	-0.275
-625.449	-143.480	-0.103	-0.010
-624.434	316.179	-0.094	-0.178
-623.419	222.662	-0.012	-0.019
-622.405	800.000	-0.019	-0.062
-621.390	-85.143	-0.004	0.001
-620.376	-105.853	0.030	-0.007
-619.361	-78.204	-0.245	-0.084
-618.346	452.357	-0.127	0.281
-617.332	733.535	-0.029	0.079
-616.317	-200.000	0.003	0.049
-615.303	-36.358	-0.149	-0.080
-614.288	-61.025	0.338	-0.143
-613.273	800.000	0.042	-0.175
-612.259	-200.000	0.064	-0.339
-611.244	-35.650	-0.242	0.131
-610.230	800.000	-0.060	-0.166
-609.215	-200.000	-0.036	0.171
-608.201	-135.347	-0.191	-0.023
-607.186	473.036	0.062	0.140
-606.171	-91.117	-0.137	0.039
-605.157	-63.588	-0.242	0.099
-604.142	-94.719	0.094	-0.025
-603.128	206.490	-0.151	-0.235
-602.113	245.043	0.207	0.349
-601.098	-28.046	-0.162	0.094
-600.084	-21.393	-0.240	-0.146
-599.069	800.000	-0.040	-0.150
-598.055	-129.274	0.439	0.061
-597.040	185.047	-0.167	-0.247
-596.025	-200.000	-0.033	-0.177
-595.011	542.489	0.014	-0.033
-593.996	-60.162	-0.435	0.185
-592.982	399.807	0.160	0.336
-591.967	61.264	-0.077	-0.076
-590.952	-200.000	-0.018	0.129
-589.938	199.829	-0.158	0.242
-588.923	-200.000	0.012	-0.057
-587.909	-200.000	0.034	-0.291
-586.894	200.825	0.132	-0.203
-585.879	-200.000	-0.018	-0.128
-584.865	-138.715	0.092	0.010
-583.850	35.855	0.195	-0.171
-582.836	-87.835	0.105	-0.032
-581.821	12.383	-0.154	0.119
-580.806	184.004	-0.046	0.068
-579.792	37.690	-0.051	-0.045
-578.777	-200.000	-0.007	-0.059
-577.763	178.670	0.158	-0.230
-576.748	-146.303	0.194	0.017
-575.733	244.278	-0.199	-0.334
-574.719	-133.528	0.323	0.040
-573.704	51.676	0.045	0.042
-572.690	-200.000	0.011	-0.099
-571.675	155.264	0.126	0.173
-570.661	4.481	-0.067	-0.049
-569.646	47.637	0.244	0.227
-568.631	355.825	-0.009	-0.018
-567.617	-38.692	0.040	0.021
-566.602	-107.069	-0.238	-0.052
-565.588	-18.571	-0.347	0.216
-564.573	-48.876	-0.055	-0.026
-563.558	-130.132	0.260	0.035
-562.544	250.386	0.097	0.165
-561.529	-200.000	-0.025	-0.119
-560.515	-10.419	-0.094	0.062
-559.500	69.030	0.054	-0.056
-558.485	-72.587	-0.242	0.089
-557.471	-4.593	-0.091	0.063
-556.456	-107.649	-0.288	-0.063
-555.442	800.000	-0.106	0.436
-554.427	454.727	-0.123	0.273
-553.412	61.440	0.087	-0.086
-552.398	208.293	0.133	0.208
-551.383	594.009	0.128	-0.315
-550.369	-200.000	0.077	0.527
-549.354	17.622	0.148	0.117
-548.339	-5.775	-0.190	0.129
-547.325	-152.793	-0.322	0.023
-546.310	-109.608	0.216	0.045
-545.296	-111.021	-0.035	0.007
-544.281	-200.000	0.014	-0.189
-543.266	-123.390	0.198	-0.031
-542.252	-63.628	-0.114	0.047
-541.237	115.629	0.122	0.149
-540.223	-90.440	-0.298	0.086
-539.208	18.595	-0.355	0.283
-538.193	160.671	-0.216	0.300
-537.179	373.238	-0.039	-0.079
-536.164	0.550	0.040	0.029
-535.150	126.953	0.117	-0.148
-534.135	6.771	-0.117	-0.086
-533.121	-200.000	-0.006	0.309
-532.106	-92.253	-0.330	-0.093
-531.091	-75.170	0.282	0.100
-530.077	-200.000	0.021	-0.126
-529.062	-128.841	-0.417	0.058
-528.048	-200.000	-0.074	-0.386
-527.033	-133.268	-0.199	-0.025
-526.018	-40.495	-0.341	-0.176
-525.004	-140.550	0.552	0.057
-523.989	-128.257	-0.480	0.068
-522.975	44.675	-0.093	-0.086
-521.960	-107.816	0.421	-0.091
-520.945	118.256	-0.046	-0.056
-519.931	290.998	-0.042	-0.077
-518.916	-200.000	-0.012	0.066
-517.902	800.000	0.062	0.257
-516.887	-200.000	0.005	0.132
-515.872	649.488	0.050	-0.127
-514.858	-60.139	-0.283	0.120
-513.843	407.880	0.077	-0.162
-512.829	388.198	-0.169	-0.348
-511.814	-155.583	0.163	-0.010
-510.799	-200.000	0.031	0.285
-509.785	-134.044	0.334	-0.041
-508.770	76.967	0.269	-0.285
-507.756	676.878	0.061	0.157
-506.741	-38.191	0.254	0.134
-505.726	800.000	-0.024	-0.070
-504.712	163.587	0.106	0.148
-503.697	172.022	0.146	-0.208
-502.683	543.260	-0.086	-0.205
-501.668	-3.878	0.137	0.094
-500.653	148.344	0.160	0.215
-499.639	-87.435	0.080	0.024
-498.624	5.025	-0.183	0.134
-497.610	800.000	-0.025	-0.069
-496.595	-116.957	-0.236	-0.043
-495.581	800.000	0.095	0.269
-494.566	714.908	0.117	-0.308
-493.551	800.000	-0.073	0.209
-492.537	-134.851	-0.278	0.033
-491.522	61.831	0.108	0.108
-490.508	142.839	-0.202	-0.267
-489.493	-200.000	0.011	-0.244
-488.478	800.000	-0.109	0.338
-487.464	248.075	-0.122	0.205
-486.449	357.725	-0.186	0.370
-485.435	594.315	0.090	0.222
-484.420	-84.556	0.176	-0.055
-483.405	-200.000	-0.016	-0.425
-482.391	223.538	-0.229	-0.368
-481.376	152.831	0.064	0.087
-480.362	-13.769	-0.132	0.085
-479.347	-75.943	-0.391	-0.138
-478.332	-181.661	-0.168	0.003
-477.318	32.818	0.226	-0.195
-476.303	290.664	0.047	-0.086
-475.289	45.808	-0.278	-0.256
-474.274	574.127	-0.073	-0.177
-473.259	-40.731	0.304	-0.156
-472.245	-105.018	-0.247	0.056
-471.230	283.990	0.051	-0.091
-470.216	-140.137	0.274	0.029
-469.201	3.229	0.111	-0.080
-468.186	-200.000	-0.024	0.157
-467.172	587.208	0.058	0.141
-466.157	-38.100	0.209	-0.110
-465.143	23.767	-0.335	-0.274
-464.128	-200.000	-0.011	0.184
-463.113	-61.768	0.144	0.060
-462.099	-163.832	-0.242	0.011
-461.084	-200.000	-0.032	-0.251
-460.070	251.618	-0.088	-0.149
-459.055	219.955	-0.067	0.107
-458.040	193.535	-0.086	-0.130
-457.026	-22.623	-0.232	-0.139
-456.011	800.000	0.102	0.314
-454.997	41.909	-0.142	0.128
-453.982	380.625	0.095	-0.193
-452.968	18.823	-0.289	0.230
-451.953	167.588	-0.093	0.132
-450.938	-107.239	-0.106	-0.023
-449.924	-200.000	0.060	0.312
-448.909	-19.413	0.137	-0.085
-447.895	33.230	-0.013	0.011
-446.880	15.231	0.391	-0.305
-445.865	29.482	-0.264	-0.223
-444.851	135.671	0.013	-0.017
-443.836	-200.000	0.076	-0.395
-442.822	-125.219	-0.060	0.009
-441.807	192.540	-0.203	0.305
-440.792	-21.259	-0.162	0.098
-439.778	-61.412	0.329	0.137
-438.763	-34.567	-0.122	-0.066
-437.749	798.182	0.058	0.158
-436.734	-105.992	0.254	0.057
-435.719	-200.000	0.032	-0.468
-434.705	50.152	0.257	0.241
-433.690	1.325	-0.055	0.039
-432.676	-200.000	0.018	-0.081
-431.661	800.000	0.047	-0.195
-430.646	-86.642	0.119	0.036
-429.632	17.933	-0.217	0.171
-428.617	47.380	-0.316	0.292
-427.603	-48.421	0.110	0.052
-426.588	89.964	0.197	0.218
-425.573	-135.128	-0.146	0.017
-424.559	-46.520	-0.240	0.117
-423.544	-200.000	-0.002	0.071
-422.530	91.215	0.128	0.143
-421.515	-200.000	-0.003	0.198
-420.500	435.977	-0.112	-0.241
-419.486	732.178	-0.066	-0.175
-418.471	-0.538	-0.042	0.030
-417.457	194.358	0.083	-0.125
-416.442	-136.296	0.416	-0.048
-415.428	282.209	0.110	0.196
-414.413	800.000	-0.056	-0.177
-413.398	800.000	-0.085	-0.253
-412.384	-200.000	0.012	-0.180
-411.369	-200.000	-0.029	-0.349
-410.355	800.000	-0.024	-0.103
-409.340	-200.000	0.007	0.137
-408.325	-189.164	-0.296	-0.003
-407.311	503.478	0.086	0.198
-406.296	-200.000	-0.016	-0.165
-405.282	224.849	-0.096	0.154
-404.267	-30.871	0.261	0.147
-403.252	-100.195	-0.132	0.033
-402.238	43.800	-0.080	-0.073
-401.223	-112.967	0.059	-0.012
-400.209	73.457	-0.099	0.102
-399.194	14.924	0.040	-0.031
-398.179	-132.013	-0.235	-0.030
-397.165	191.252	-0.016	0.024
-396.150	113.880	-0.195	-0.236
-395.136	-200.000	-0.033	0.175
-394.121	-121.031	-0.244	0.041
-393.106	-77.035	-0.313	-0.108
-392.092	800.000	-0.072	0.237
-391.077	800.000	-0.056	0.167
-390.063	-200.000	-0.008	0.323
-389.048	-200.000	-0.049	0.230
-388.033	180.438	-0.092	-0.133
-387.019	192.745	-0.111	0.166
-386.004	280.616	-0.160	0.283
-384.990	254.827	0.296	-0.501
-383.975	-79.020	0.338	-0.114
-382.960	-109.670	-0.084	0.018
-381.946	-101.360	0.118	-0.029
-380.931	-200.000	-0.015	0.317
-379.917	-0.202	0.144	-0.101
-378.902	-200.000	-0.007	-0.165
-377.888	-120.676	0.186	0.031
-376.873	-86.421	-0.246	0.075
-375.858	-200.000	0.048	-0.309
-374.844	41.583	-0.196	0.176
-373.829	418.359	0.124	0.264
-372.815	77.539	-0.036	-0.038
-371.800	-200.000	0.015	-0.074
-370.785	772.246	0.082	0.220
-369.771	800.000	0.042	-0.134
-368.756	337.048	0.111	-0.214
-367.742	-61.890	0.280	-0.116
-366.727	-200.000	-0.022	-0.200
-365.712	94.125	-0.351	-0.394
-364.698	343.804	-0.092	0.178
-363.683	45.915	-0.320	0.293
-362.669	-31.179	-0.029	0.016
-361.654	-200.000	0.030	0.133
-360.639	-200.000	0.036	-0.187
-359.625	29.506	0.118	0.099
-358.610	27.290	0.200	-0.166
-357.596	800.000	-0.114	-0.362
-356.581	-128.241	0.122	-0.017
-355.566	44.167	0.207	0.188
-354.552	-200.000	-0.063	0.349
-353.537	-200.000	0.024	0.252
-352.523	0.277	-0.259	-0.183
-351.508	-157.595	-0.300	-0.018
-350.493	-160.512	0.343	-0.018
-349.479	-174.816	0.109	0.003
-348.464	-91.277	0.325	0.092
-347.450	-200.000	-0.000	-0.038
-346.435	417.316	-0.144	-0.305
-345.420	58.463	0.210	-0.204
-344.406	-121.612	-0.201	-0.033
-343.391	-117.225	0.197	0.035
-342.377	-34.702	0.336	0.182
-341.362	68.107	-0.003	0.003
-340.348	19.935	0.152	-0.121
-339.333	-17.647	0.230	-0.143
-338.318	75.354	0.173	0.180
-337.304	-53.843	-0.220	-0.099
-336.289	-57.917	0.089	-0.038
-335.275	-84.172	-0.031	-0.010
-334.260	-200.000	-0.023	-0.125
-333.245	-137.113	0.085	0.010
-332.231	-17.895	0.103	-0.064
-331.216	-126.424	-0.235	-0.035
-330.202	-39.758	-0.068	0.035
-329.187	-200.000	-0.026	0.381
-328.172	90.833	0.114	-0.126
-327.158	109.036	0.083	0.099
-326.143	-200.000	0.032	-0.349
-325.129	-200.000	0.021	0.220
-324.114	-118.402	0.225	0.039
-323.099	-200.000	0.016	0.311
-322.085	-200.000	-0.015	0.093
-321.070	658.899	0.097	-0.248
-320.056	357.611	-0.020	-0.040
-319.041	-178.746	-0.180	0.004
-318.026	59.126	0.178	-0.173
-317.012	43.021	0.243	0.219
-315.997	-146.445	-0.225	0.019
-314.983	-200.000	0.019	-0.177
-313.968	55.797	0.234	0.224
-312.953	-200.000	-0.237	0.001
-311.939	-105.226	0.145	0.033
-310.924	800.000	-0.046	-0.181
-309.910	-74.118	0.164	0.059
-308.895	-112.986	-0.135	0.026
-307.880	76.720	-0.053	-0.056
-306.866	-164.316	0.545	0.025
-305.851	-101.268	0.153	-0.037
-304.837	576.144	-0.118	-0.284
-303.822	530.894	0.142	-0.332
-302.807	30.231	0.162	-0.137
-301.793	763.072	-0.125	0.336
-300.778	166.749	-0.092	-0.128
-299.764	800.000	-0.063	0.205
-298.749	-200.000	-0.004	0.085
-297.735	800.000	-0.029	-0.125
-296.720	168.945	-0.079	-0.111
-295.705	-200.000	-0.005	0.108
-294.691	49.925	0.236	-0.220
-293.676	672.393	-0.071	-0.181
-292.662	-98.992	0.195	-0.049
-291.647	-200.000	-0.019	-0.170
-290.632	364.947	-0.083	-0.165
-289.618	-200.000	0.012	0.102
-288.603	59.562	-0.116	-0.113
-287.589	-99.915	0.198	-0.049
-286.574	29.079	0.051	0.042
-285.559	379.776	-0.085	-0.173
-284.545	-87.166	0.285	-0.085
-283.530	-72.037	0.292	0.107
-282.516	-78.208	0.066	-0.022
-281.501	24.639	-0.140	0.114
-280.486	-19.087	0.273	0.167
-279.472	151.180	0.085	0.114
-278.457	-4.179	-0.231	-0.158
-277.443	98.363	-0.276	-0.314
-276.428	-19.093	0.070	-0.043
-275.413	800.000	-0.037	0.156
-274.399	-97.248	0.348	0.090
-273.384	544.845	0.061	-0.143
-272.370	67.779	-0.111	-0.112
-271.355	532.102	-0.022	-0.052
-270.340	0.635	0.132	-0.093
-269.326	-87.436	-0.199	-0.060
-268.311	-133.860	0.252	-0.031
-267.297	-36.357	0.236	0.125
-266.282	-16.334	0.102	-0.064
-265.267	425.036	0.111	-0.236
-264.253	-13.915	-0.298	-0.190
-263.238	-200.000	0.003	0.197
-262.224	-200.000	-0.026	0.132
-261.209	800.000	-0.063	0.216
-260.195	-47.286	-0.319	-0.153
-259.180	239.143	0.135	-0.221
-258.165	800.000	0.061	0.167
-257.151	-81.942	0.331	0.107
-256.136	-4.496	0.084	-0.058
-255.122	-11.016	-0.263	0.171
-254.107	48.316	-0.076	-0.070
-253.092	84.668	-0.071	-0.077
-252.078	800.000	0.028	-0.076
-251.063	-200.000	0.032	-0.378
-250.049	-44.334	-0.278	-0.137
-249.034	136.973	0.110	-0.142
-248.019	-16.908	0.236	-0.147
-247.005	-200.000	-0.056	0.313
-245.990	110.012	0.211	-0.249
-244.976	-40.615	-0.136	-0.069
-243.961	91.728	-0.059	0.066
-242.946	-200.000	0.084	0.478
-241.932	-200.000	-0.012	0.113
-240.917	420.088	-0.137	-0.289
-239.903	-73.857	0.318	0.114
-238.888	-144.274	-0.286	-0.026
-237.873	-200.000	0.171	0.000
-236.859	152.758	-0.100	-0.134
-235.844	-200.000	0.017	0.267
-234.830	-63.473	0.427	0.173
-233.815	460.412	0.057	-0.125
-232.800	-60.269	0.261	0.109
-231.786	-151.719	-0.026	-0.002
-230.771	394.409	-0.070	0.143
-229.757	800.000	0.052	-0.143
-228.742	10.957	0.311	-0.234
-227.727	67.599	-0.232	-0.234
-226.713	-66.069	-0.201	-0.079
-225.698	73.836	-0.088	0.091
-224.684	492.289	-0.043	0.096
-223.669	106.684	0.152	0.178
-222.655	-200.000	0.019	0.085
-221.640	48.820	0.188	0.174
-220.625	52.107	0.146	-0.137
-219.611	-157.804	-0.037	-0.002
-218.596	-200.000	-0.068	-0.292
-217.582	112.712	-0.256	0.305
-216.567	-157.378	-0.109	0.006
-215.552	36.511	-0.100	-0.087
-214.538	-64.861	0.072	0.029
-213.523	-94.747	0.304	0.081
-212.509	265.706	0.143	-0.245
-211.494	-74.328	0.249	-0.089
-210.479	-131.094	-0.203	-0.027
-209.465	48.776	-0.052	0.048
-208.450	363.899	0.072	0.142
-207.436	-200.000	0.067	0.573
-206.421	97.525	0.119	-0.134
-205.406	77.183	0.096	-0.100
-204.392	125.481	0.102	0.127
-203.377	29.399	0.098	0.082
-202.363	-58.047	0.268	-0.115
-201.348	282.384	0.116	0.205
-200.333	-200.000	-0.042	-0.279
-199.319	214.165	-0.089	0.138
-198.304	8.080	0.209	-0.154
-197.290	334.476	0.138	0.262
-196.275	28.216	-0.098	-0.081
-195.260	785.278	0.029	0.078
-194.246	-200.000	-0.027	0.317
-193.231	-99.853	-0.295	-0.073
-192.217	-22.671	0.159	0.095
-191.202	-66.626	-0.006	0.002
-190.187	-99.025	0.054	0.013
-189.173	224.207	0.060	0.095
-188.158	15.390	0.027	0.021
-187.144	-71.047	-0.040	-0.015
-186.129	107.558	-0.120	-0.140
-185.114	-200.000	-0.031	0.240
-184.100	-200.000	0.007	0.162
-183.085	-200.000	0.033	0.144
-182.071	-35.964	0.277	0.147
-181.056	-36.402	0.163	0.086
-180.042	-143.036	-0.209	0.020
-179.027	-179.331	0.209	-0.005
-178.012	516.599	-0.183	0.420
-176.998	416.444	0.116	-0.243
-175.983	42.461	0.035	-0.031
-174.969	-200.000	0.010	-0.136
-173.954	-129.181	0.202	-0.028
-172.939	14.651	-0.216	0.166
-171.925	25.819	0.355	0.291
-170.910	-160.772	-0.141	-0.007
-169.896	48.987	-0.225	0.208
-168.881	-200.000	0.009	0.042
-167.866	-65.673	-0.100	-0.040
-166.852	-200.000	0.008	-0.152
-165.837	-200.000	0.030	0.139
-164.823	800.000	-0.026	0.112
-163.808	-200.000	0.013	0.287
-162.793	-13.932	0.224	-0.142
-161.779	-88.180	0.352	-0.103
-160.764	-161.208	-0.135	0.007
-159.750	189.113	0.115	0.169
-158.735	122.136	0.160	0.197
-157.720	800.000	-0.191	-0.534
-156.706	-168.919	0.103	-0.004
-155.691	325.572	-0.139	-0.262
-154.677	-72.583	-0.247	-0.089
-153.662	-63.712	-0.154	-0.062
-152.647	-200.000	0.037	-0.163
-151.633	-200.000	-0.052	0.312
-150.618	-83.800	0.325	0.102
-149.604	185.439	0.038	0.055
-148.589	-200.000	0.000	-0.460
-147.574	-200.000	0.018	-0.171
-146.560	-200.000	-0.019	-0.239
-145.545	62.983	0.119	-0.117
-144.531	-99.211	0.080	0.020
-143.516	-0.452	-0.162	0.113
-142.502	-61.294	0.100	-0.041
-141.487	-100.146	0.156	0.038
-140.472	-47.996	-0.255	-0.121
-139.458	-143.863	-0.381	0.035
-138.443	-147.343	-0.195	0.016
-137.429	25.599	0.180	-0.147
-136.414	54.215	0.367	0.347
-135.399	-200.000	-0.036	-0.238
-134.385	38.237	0.237	-0.207
-133.370	547.865	-0.123	0.289
-132.356	-200.000	0.039	0.199
-131.341	-56.650	0.105	0.046
-130.326	-200.000	0.019	-0.258
-129.312	800.000	0.051	0.203
-128.297	-0.816	-0.164	-0.114
-127.283	119.387	0.108	0.131
-126.268	602.593	-0.086	-0.210
-125.253	-200.000	0.003	-0.161
-124.239	189.005	-0.094	0.139
-123.224	40.055	0.104	0.092
-122.210	-200.000	-0.003	0.071
-121.195	-200.000	-0.030	-0.199
