DTS Sentinel unit serial number:	SN413079Multiplexer serial number:	ORYXHardware model number:	OX4-SRSoftware version number:	ORYX F/W v4.00 Oryx Data Collector v3.7.2.0data status	okinstallation	princeton_trtdifferential loss correction	single-endedforward channel	channel 1reverse channel	N/Adate	2019/09/15time	23:26:35forward acquisition time	60.00reverse acquisition time	0.00gamma	496.2192k internal	0.2331k external	0.2331temperature offset calibration	0.9971default loss term (dB/km)	0.3790temperature slope calibration	1.0000multiplexer offset coefficient	1.0000multiplexer slope coefficient	1.0000fibre end	0.00T internal ref (°C)	28.20T ext. ref 1 (°C)	9.15T ext. ref 2 (°C)	22.11length (m)	temperature (°C)	Stokes	anti-Stokes-747.200	-153.261	-0.371	0.026
-746.185	-86.261	0.185	0.057
-745.171	-116.280	0.011	-0.002
-744.156	182.492	0.079	0.117
-743.142	-200.000	0.036	0.231
-742.127	-50.782	0.229	-0.108
-741.112	-200.000	-0.016	0.125
-740.098	-200.000	-0.002	0.184
-739.083	446.927	0.037	0.082
-738.069	-200.000	-0.003	0.185
-737.054	-140.645	-0.132	0.014
-736.039	346.977	0.041	-0.082
-735.025	-76.761	0.457	0.161
-734.010	293.794	-0.065	-0.119
-732.996	202.491	-0.051	0.078
-731.981	14.780	-0.112	0.088
-730.966	-200.000	-0.003	0.125
-729.952	240.281	0.209	-0.351
-728.937	182.852	-0.155	-0.230
-727.923	80.737	0.413	-0.447
-726.908	-110.490	-0.259	-0.054
-725.894	224.871	-0.072	-0.116
-724.879	-200.000	-0.019	0.113
-723.864	-200.000	-0.186	0.000
-722.850	533.640	0.090	-0.215
-721.835	-18.627	-0.348	0.218
-720.821	-159.886	0.109	-0.006
-719.806	800.000	-0.135	-0.468
-718.791	-200.000	0.004	-0.395
-717.777	-130.575	-0.192	0.026
-716.762	18.574	-0.061	0.049
-715.748	800.000	-0.031	-0.125
-714.733	363.933	0.135	0.273
-713.718	121.847	-0.234	0.294
-712.704	-150.961	0.279	-0.021
-711.689	644.758	-0.136	-0.349
-710.675	645.997	-0.014	0.035
-709.660	-59.451	-0.221	0.095
-708.645	-175.420	0.154	-0.004
-707.631	-26.354	-0.028	0.016
-706.616	800.000	0.089	0.261
-705.602	-13.807	0.178	-0.116
-704.587	-114.461	0.240	0.046
-703.572	105.786	-0.272	-0.323
-702.558	-90.437	-0.311	-0.090
-701.543	158.723	0.195	0.272
-700.529	59.068	-0.189	-0.187
-699.514	-140.791	-0.010	0.001
-698.499	60.941	0.095	0.095
-697.485	119.441	-0.243	-0.303
-696.470	523.576	0.054	-0.128
-695.456	88.255	-0.227	-0.253
-694.441	-76.869	0.387	0.136
-693.426	-200.000	-0.002	0.023
-692.412	76.282	-0.239	-0.254
-691.397	84.456	-0.124	-0.136
-690.383	-200.000	0.004	0.286
-689.368	-99.551	0.318	-0.080
-688.354	-70.298	0.123	-0.047
-687.339	-144.266	0.166	-0.016
-686.324	-5.837	-0.131	-0.090
-685.310	-26.822	-0.107	-0.063
-684.295	-102.115	-0.373	-0.090
-683.281	-61.152	0.197	-0.083
-682.266	-200.000	-0.007	-0.251
-681.251	-83.343	0.095	0.031
-680.237	-130.296	-0.220	-0.030
-679.222	-82.358	-0.123	-0.040
-678.208	-200.000	0.029	-0.329
-677.193	-200.000	0.009	0.168
-676.178	206.755	0.055	-0.086
-675.164	-200.000	0.030	-0.218
-674.149	-200.000	-0.005	0.082
-673.135	-68.917	0.489	-0.189
-672.120	167.866	0.098	-0.139
-671.105	-7.293	0.043	0.029
-670.091	-26.352	0.122	0.072
-669.076	-0.276	-0.089	0.064
-668.062	-200.000	0.004	0.070
-667.047	258.281	0.099	0.171
-666.032	800.000	-0.041	-0.151
-665.018	-200.000	-0.035	-0.359
-664.003	662.892	-0.038	-0.098
-662.989	-82.957	0.118	-0.038
-661.974	243.592	0.017	-0.029
-660.959	66.536	-0.182	-0.186
-659.945	44.423	0.115	0.106
-658.930	196.242	-0.070	0.108
-657.916	558.855	-0.070	-0.168
-656.901	800.000	-0.070	-0.266
-655.886	88.094	-0.129	0.144
-654.872	-176.828	0.057	-0.001
-653.857	-200.000	-0.006	0.277
-652.843	-35.671	-0.286	0.155
-651.828	-24.249	-0.104	0.062
-650.814	-200.000	-0.020	-0.174
-649.799	546.052	0.070	-0.168
-648.784	-19.767	0.133	0.083
-647.770	-134.857	-0.204	-0.025
-646.755	800.000	-0.056	-0.240
-645.741	-200.000	0.068	-0.301
-644.726	-15.104	0.199	-0.127
-643.711	-200.000	0.012	0.235
-642.697	565.552	0.089	-0.217
-641.682	38.744	0.100	0.090
-640.668	-141.900	-0.155	0.015
-639.653	-54.088	-0.181	0.082
-638.638	342.773	-0.056	0.110
-637.624	233.399	0.046	0.076
-636.609	102.376	-0.185	0.216
-635.595	-59.324	0.370	0.159
-634.580	264.701	0.083	0.145
-633.565	183.929	-0.242	0.359
-632.551	-158.061	0.397	0.023
-631.536	-87.037	-0.316	0.096
-630.522	-30.689	-0.218	0.124
-629.507	-141.079	0.322	0.033
-628.492	-129.416	0.119	0.017
-627.478	-200.000	0.029	0.146
-626.463	-115.654	-0.108	-0.020
-625.449	-37.709	0.070	-0.037
-624.434	-113.249	-0.250	-0.049
-623.419	800.000	0.060	0.220
-622.405	511.464	-0.248	0.579
-621.390	-175.819	0.413	-0.011
-620.376	-62.003	-0.167	-0.070
-619.361	132.414	-0.176	0.227
-618.346	-16.207	0.102	-0.065
-617.332	-200.000	0.034	-0.366
-616.317	800.000	0.066	-0.277
-615.303	270.157	0.081	-0.142
-614.288	41.185	0.051	-0.046
-613.273	165.362	-0.093	-0.132
-612.259	66.999	0.125	0.127
-611.244	-75.191	0.172	0.062
-610.230	205.776	-0.160	0.249
-609.215	-61.340	-0.194	-0.082
-608.201	-53.359	0.087	-0.040
-607.186	330.645	0.070	0.134
-606.171	26.422	-0.123	-0.103
-605.157	244.116	0.074	0.124
-604.142	-20.524	-0.332	-0.204
-603.128	44.606	0.136	0.125
-602.113	-59.294	-0.243	0.105
-601.098	-200.000	-0.013	0.226
-600.084	32.665	-0.210	-0.182
-599.069	-127.370	0.082	-0.012
-598.055	-47.400	-0.251	-0.122
-597.040	-31.764	-0.098	-0.055
-596.025	-200.000	-0.025	-0.111
-595.011	-109.740	-0.203	0.043
-593.996	800.000	-0.064	-0.269
-592.982	36.241	0.108	-0.095
-591.967	-70.101	-0.335	0.127
-590.952	-0.065	-0.292	-0.208
-589.938	-74.491	-0.365	0.132
-588.923	800.000	0.083	-0.311
-587.909	34.775	-0.207	-0.181
-586.894	414.347	0.162	-0.346
-585.879	279.463	-0.050	0.089
-584.865	-56.182	-0.071	-0.031
-583.850	126.118	-0.209	-0.264
-582.836	672.809	0.065	-0.170
-581.821	-62.548	0.396	0.164
-580.806	-200.000	0.004	-0.075
-579.792	65.912	0.168	0.171
-578.777	-8.059	-0.018	0.012
-577.763	49.731	-0.128	0.121
-576.748	-102.352	0.126	0.030
-575.733	-200.000	-0.046	-0.251
-574.719	54.564	0.078	-0.075
-573.704	393.105	-0.064	0.134
-572.690	-200.000	-0.006	-0.033
-571.675	1.579	-0.120	0.086
-570.661	-156.858	-0.342	0.021
-569.646	-26.695	0.108	0.063
-568.631	-6.376	0.156	0.106
-567.617	-200.000	-0.026	0.227
-566.602	317.792	-0.110	-0.209
-565.588	331.822	0.072	0.139
-564.573	122.405	-0.059	0.073
-563.558	800.000	-0.076	0.230
-562.544	-54.765	-0.045	-0.020
-561.529	-145.599	-0.053	-0.005
-560.515	109.597	0.092	0.110
-559.500	-200.000	0.029	-0.261
-558.485	-97.083	0.260	-0.068
-557.471	-200.000	-0.079	0.467
-556.456	179.550	-0.091	0.134
-555.442	-20.128	-0.185	-0.114
-554.427	209.475	0.039	-0.061
-553.412	-200.000	0.012	0.288
-552.398	611.982	-0.028	-0.069
-551.383	800.000	-0.070	0.217
-550.369	-1.466	0.295	-0.208
-549.354	-21.788	-0.368	-0.224
-548.339	770.598	0.120	-0.328
-547.325	719.955	-0.038	0.100
-546.310	-200.000	-0.066	-0.304
-545.296	46.404	-0.268	-0.248
-544.281	-153.283	-0.174	-0.012
-543.266	74.322	-0.177	-0.186
-542.252	-20.408	0.190	0.117
-541.237	333.096	-0.060	0.116
-540.223	585.694	-0.094	0.231
-539.208	-63.686	0.138	0.057
-538.193	224.267	0.128	-0.207
-537.179	800.000	-0.059	-0.185
-536.164	74.083	-0.141	-0.148
-535.150	-58.038	-0.092	0.040
-534.135	-147.886	-0.117	-0.010
-533.121	-48.238	0.189	-0.091
-532.106	652.785	-0.081	0.208
-531.091	60.376	0.131	-0.129
-530.077	-91.454	-0.221	-0.063
-529.062	91.923	-0.327	0.367
-528.048	-200.000	-0.016	0.094
-527.033	-21.455	0.382	0.233
-526.018	-61.370	0.187	-0.078
-525.004	-85.436	0.167	0.052
-523.989	120.290	-0.171	-0.212
-522.975	-53.396	0.213	-0.097
-521.960	-31.350	-0.079	0.044
-520.945	-37.408	-0.073	-0.039
-519.931	113.975	-0.119	0.145
-518.916	-200.000	-0.074	-0.379
-517.902	-135.948	0.283	-0.033
-516.887	800.000	0.033	-0.140
-515.872	339.410	0.139	-0.271
-514.858	115.505	-0.126	0.154
-513.843	-116.336	0.156	-0.029
-512.829	500.373	-0.141	-0.324
-511.814	480.307	0.101	0.229
-510.799	-170.444	0.497	-0.017
-509.785	-34.361	0.281	-0.154
-508.770	111.413	-0.113	0.136
-507.756	-76.023	0.171	-0.060
-506.741	130.386	-0.158	0.202
-505.726	-59.152	0.145	0.062
-504.712	800.000	-0.028	0.085
-503.697	-146.003	-0.105	-0.009
-502.683	161.234	0.151	-0.210
-501.668	23.097	-0.116	-0.095
-500.653	-200.000	-0.063	0.448
-499.639	16.013	0.214	0.168
-498.624	-90.883	-0.056	0.016
-497.610	-51.764	-0.217	0.101
-496.595	124.792	0.197	-0.248
-495.581	-44.239	-0.284	-0.142
-494.566	153.972	0.232	0.316
-493.551	238.018	0.237	-0.393
-492.537	90.219	-0.169	-0.189
-491.522	-200.000	-0.003	0.154
-490.508	-58.946	0.178	-0.077
-489.493	-15.011	0.216	-0.138
-488.478	-58.259	-0.220	-0.096
-487.464	239.613	-0.115	-0.191
-486.449	-117.825	-0.383	-0.069
-485.435	-200.000	-0.054	-0.238
-484.420	-31.059	0.321	0.180
-483.405	21.744	-0.294	0.238
-482.391	64.284	-0.173	-0.173
-481.376	-65.427	-0.141	0.056
-480.362	-21.013	0.087	0.053
-479.347	-200.000	-0.037	0.169
-478.332	-158.186	-0.052	0.003
-477.318	5.224	0.063	0.046
-476.303	51.364	-0.015	-0.015
-475.289	190.718	-0.287	-0.429
-474.274	157.822	0.186	-0.257
-473.259	-111.630	0.310	0.063
-472.245	236.512	-0.068	0.112
-471.230	307.434	-0.129	0.239
-470.216	-73.635	-0.097	-0.035
-469.201	68.173	0.307	-0.313
-468.186	579.781	0.050	-0.121
-467.172	46.865	-0.234	0.216
-466.157	417.207	-0.188	0.399
-465.143	-127.208	-0.495	-0.072
-464.128	-56.438	-0.279	0.123
-463.113	175.837	0.098	0.142
-462.099	-75.077	-0.108	0.038
-461.084	-11.278	0.309	-0.203
-460.070	-43.023	0.109	0.055
-459.055	-200.000	0.003	-0.030
-458.040	48.766	-0.096	0.090
-457.026	-200.000	-0.029	0.165
-456.011	-41.869	0.213	0.109
-454.997	153.241	-0.140	0.191
-453.982	-24.480	0.348	0.206
-452.968	-7.450	-0.150	0.101
-451.953	-24.152	0.174	0.103
-450.938	-200.000	0.032	0.231
-449.924	48.455	-0.034	-0.032
-448.909	-12.144	-0.108	-0.071
-447.895	509.463	-0.096	0.222
-446.880	28.893	-0.064	0.054
-445.865	292.225	-0.177	-0.320
-444.851	800.000	-0.064	-0.196
-443.836	-98.219	0.124	-0.032
-442.822	271.209	-0.041	0.071
-441.807	173.295	0.133	-0.190
-440.792	-200.000	0.021	-0.258
-439.778	-85.176	0.099	0.031
-438.763	-200.000	-0.003	0.233
-437.749	-41.680	0.398	0.203
-436.734	242.636	-0.081	0.134
-435.719	-62.834	-0.195	-0.080
-434.705	800.000	0.043	-0.154
-433.690	399.041	0.061	-0.126
-432.676	800.000	-0.027	0.102
-431.661	1.055	-0.202	-0.144
-430.646	800.000	-0.091	0.255
-429.632	-200.000	-0.003	0.376
-428.617	-200.000	-0.091	-0.485
-427.603	-161.252	0.231	0.012
-426.588	-200.000	0.012	-0.141
-425.573	-25.176	0.161	0.095
-424.559	250.484	-0.044	-0.074
-423.544	173.961	-0.248	-0.356
-422.530	-27.598	0.154	-0.089
-421.515	-44.212	0.324	-0.161
-420.500	-114.156	0.246	-0.047
-419.486	43.823	-0.152	-0.139
-418.471	-108.947	-0.068	-0.014
-417.457	224.818	0.129	-0.208
-416.442	-56.262	0.350	-0.154
-415.428	-52.484	-0.290	0.133
-414.413	171.396	-0.044	0.063
-413.398	282.922	-0.172	0.307
-412.384	227.885	0.192	0.311
-411.369	295.008	-0.133	0.243
-410.355	139.559	-0.095	0.124
-409.340	-104.705	-0.229	0.052
-408.325	172.434	0.201	0.288
-407.311	766.031	0.090	0.242
-406.296	204.935	0.053	-0.081
-405.282	-200.000	0.017	-0.207
-404.267	-115.778	-0.095	0.018
-403.252	-44.834	-0.147	0.073
-402.238	-200.000	-0.021	0.368
-401.223	-145.459	0.290	-0.026
-400.209	-200.000	0.024	0.124
-399.194	94.422	-0.098	-0.111
-398.179	-173.690	0.078	-0.002
-397.165	-130.905	0.460	-0.061
-396.150	42.862	-0.141	-0.128
-395.136	24.573	-0.097	-0.080
-394.121	57.848	0.305	-0.296
-393.106	100.556	0.141	0.162
-392.092	-87.778	0.120	0.036
-391.077	-68.795	-0.008	-0.003
-390.063	-103.178	0.191	0.045
-389.048	52.879	-0.234	0.222
-388.033	-78.836	0.242	-0.082
-387.019	177.274	-0.145	0.209
-386.004	-113.206	0.234	0.046
-384.990	408.559	0.236	0.495
-383.975	676.010	0.063	0.162
-382.960	369.954	0.162	-0.326
-381.946	227.343	0.052	-0.084
-380.931	-140.694	-0.248	0.025
-379.917	-46.972	0.080	0.039
-378.902	1.952	-0.201	-0.144
-377.888	680.581	-0.055	-0.141
-376.873	80.322	0.037	0.039
-375.858	297.543	-0.097	-0.176
-374.844	-194.461	0.350	-0.003
-373.829	-147.814	0.035	0.003
-372.815	-179.935	-0.187	-0.004
-371.800	-159.312	-0.279	0.016
-370.785	800.000	-0.127	-0.415
-369.771	-200.000	0.010	-0.055
-368.756	-200.000	0.017	0.445
-367.742	-39.833	0.191	0.099
-366.727	-74.455	0.553	-0.198
-365.712	16.824	-0.079	-0.062
-364.698	-137.060	-0.483	-0.055
-363.683	-120.989	0.090	-0.015
-362.669	-200.000	0.008	-0.355
-361.654	394.485	-0.099	0.204
-360.639	-139.371	0.043	-0.005
-359.625	-45.640	0.192	0.094
-358.610	87.463	-0.166	-0.182
-357.596	542.604	0.052	0.123
-356.581	800.000	-0.011	-0.045
-355.566	-47.760	-0.065	-0.031
-354.552	-45.469	0.303	-0.149
-353.537	-40.928	-0.205	0.105
-352.523	148.824	0.051	0.068
-351.508	-114.960	-0.133	-0.025
-350.493	800.000	0.144	-0.426
-349.479	18.928	-0.261	0.208
-348.464	27.589	0.130	-0.109
-347.450	800.000	0.199	-0.580
-346.435	-9.785	0.332	-0.219
-345.420	-140.276	-0.025	0.003
-344.406	-200.000	-0.023	-0.103
-343.391	62.311	-0.144	-0.142
-342.377	-116.813	-0.219	-0.040
-341.362	-200.000	0.091	0.396
-340.348	-48.947	0.137	0.065
-339.333	-200.000	0.072	0.372
-338.318	309.115	0.190	-0.352
-337.304	800.000	-0.069	0.227
-336.289	-164.952	0.170	-0.008
-335.275	-200.000	0.002	-0.080
-334.260	-71.445	0.158	-0.059
-333.245	411.188	0.146	-0.306
-332.231	141.547	-0.128	-0.168
-331.216	110.234	0.120	-0.143
-330.202	294.627	-0.234	0.423
-329.187	198.113	-0.104	-0.158
-328.172	57.075	-0.089	-0.085
-327.158	1.904	0.225	0.161
-326.143	-111.972	0.087	0.017
-325.129	-8.614	-0.074	-0.049
-324.114	-110.361	-0.099	-0.020
-323.099	800.000	-0.039	-0.129
-322.085	-200.000	-0.038	0.382
-321.070	381.589	0.024	0.048
-320.056	-62.079	0.278	-0.115
-319.041	-82.067	-0.072	0.023
-318.026	148.519	0.099	-0.132
-317.012	-56.406	-0.140	0.062
-315.997	-39.178	-0.171	-0.089
-314.983	-58.572	-0.114	-0.049
-313.968	-11.154	-0.217	0.142
-312.953	-200.000	-0.052	0.261
-311.939	-22.435	-0.081	0.049
-310.924	-200.000	-0.089	0.567
-309.910	-200.000	0.011	0.167
-308.895	347.218	-0.032	-0.062
-307.880	446.351	0.054	0.118
-306.866	800.000	0.112	0.397
-305.851	-93.927	0.254	-0.069
-304.837	147.661	-0.161	-0.214
-303.822	-74.503	-0.241	0.086
-302.807	-159.815	0.121	0.007
-301.793	-65.421	-0.088	-0.035
-300.778	-124.839	0.089	-0.014
-299.764	27.921	0.267	0.223
-298.749	506.057	-0.031	-0.071
-297.735	-120.370	0.061	0.010
-296.720	130.693	-0.003	-0.004
-295.705	181.662	-0.190	-0.276
-294.691	-200.000	0.026	-0.280
-293.676	141.002	0.317	-0.414
-292.662	365.980	-0.047	0.094
-291.647	171.113	0.076	-0.108
-290.632	-109.005	-0.291	-0.061
-289.618	-107.926	-0.143	-0.031
-288.603	-192.599	-0.382	-0.003
-287.589	-185.953	0.155	0.002
-286.574	202.009	-0.153	0.234
-285.559	553.472	-0.113	0.268
-284.545	-44.099	-0.221	-0.110
-283.530	-35.344	0.069	0.037
-282.516	267.862	-0.115	0.199
-281.501	800.000	0.115	0.352
-280.486	78.057	-0.149	0.157
-279.472	78.956	-0.169	0.179
-278.457	-64.022	-0.340	-0.137
-277.443	-88.530	-0.066	0.019
-276.428	192.345	0.081	0.121
-275.413	234.947	-0.031	-0.050
-274.399	-200.000	-0.055	0.359
-273.384	-117.466	-0.102	0.018
-272.370	-113.332	-0.294	0.057
-271.355	220.441	-0.188	0.298
-270.340	-200.000	-0.029	0.536
-269.326	-68.055	0.083	-0.032
-268.311	29.755	-0.221	-0.186
-267.297	-84.624	-0.400	0.125
-266.282	-6.064	-0.282	-0.191
-265.267	-4.147	-0.203	-0.139
-264.253	-59.580	0.332	-0.140
-263.238	-148.700	0.101	-0.008
-262.224	177.235	0.079	0.113
-261.209	800.000	0.137	0.400
-260.195	305.034	0.183	0.336
-259.180	-200.000	0.000	0.145
-258.165	-200.000	-0.038	-0.411
-257.151	-140.008	-0.089	0.009
-256.136	-67.220	-0.227	-0.088
-255.122	343.667	0.038	-0.073
-254.107	144.299	-0.245	0.323
-253.092	40.077	0.142	0.126
-252.078	-200.000	0.019	-0.100
-251.063	800.000	0.151	-0.454
-250.049	710.685	-0.018	-0.047
-249.034	381.237	0.132	0.268
-248.019	-9.011	-0.295	0.195
-247.005	-0.280	0.149	0.105
-245.990	363.465	0.042	-0.083
-244.976	800.000	-0.130	-0.449
-243.961	800.000	0.064	-0.272
-242.946	42.494	0.052	-0.047
-241.932	35.417	0.211	-0.183
-240.917	99.693	-0.162	-0.185
-239.903	-104.582	0.163	0.037
-238.888	800.000	0.088	-0.268
-237.873	-54.978	-0.297	0.132
-236.859	-200.000	0.004	-0.026
-235.844	639.074	-0.180	-0.451
-234.830	-8.250	0.333	-0.221
-233.815	800.000	0.041	0.116
-232.800	-66.404	-0.309	0.121
-231.786	-20.223	-0.071	0.043
-230.771	-2.683	0.233	0.161
-229.757	-151.604	0.027	0.002
-228.742	204.536	0.323	0.494
-227.727	616.738	-0.068	-0.167
-226.713	606.435	0.168	-0.413
-225.698	-129.733	-0.238	0.032
-224.684	-200.000	-0.011	0.129
-223.669	-200.000	-0.023	0.261
-222.655	131.498	0.194	-0.246
-221.640	-54.294	-0.183	0.082
-220.625	-200.000	0.035	0.326
-219.611	251.852	0.187	0.315
-218.596	-47.143	0.239	-0.115
-217.582	-70.981	0.227	0.084
-216.567	398.206	-0.123	0.253
-215.552	55.314	-0.146	0.139
-214.538	36.765	0.053	-0.046
-213.523	-178.918	0.077	-0.002
-212.509	800.000	-0.064	0.195
-211.494	-200.000	0.072	-0.321
-210.479	-200.000	-0.008	0.092
-209.465	-200.000	0.040	0.261
-208.450	66.859	0.004	-0.004
-207.436	42.763	-0.258	0.231
-206.421	89.785	-0.177	-0.195
-205.406	25.904	0.247	-0.203
-204.392	-53.302	-0.252	0.114
-203.377	31.804	-0.080	0.068
-202.363	-121.172	-0.256	0.042
-201.348	-34.028	0.322	-0.174
-200.333	767.560	-0.023	0.061
-199.319	159.160	0.146	-0.200
-198.304	-22.720	0.073	-0.044
-197.290	-200.000	0.099	0.467
-196.275	-100.495	0.264	-0.064
-195.260	-61.345	0.177	-0.073
-194.246	-45.537	-0.289	0.141
-193.231	-178.920	-0.117	-0.003
-192.217	800.000	-0.075	-0.204
-191.202	795.936	0.087	-0.236
-190.187	-200.000	-0.045	0.218
-189.173	159.570	0.177	-0.243
-188.158	-77.268	0.286	0.098
-187.144	525.121	-0.114	-0.265
-186.129	-81.686	0.292	-0.094
-185.114	-200.000	0.011	0.056
-184.100	800.000	0.074	-0.246
-183.085	717.664	-0.083	-0.217
-182.071	231.576	0.218	-0.352
-181.056	-85.530	0.373	-0.114
-180.042	76.125	0.082	-0.086
-179.027	201.647	-0.040	0.060
-178.012	-81.894	0.192	0.062
-176.998	-200.000	0.057	-0.337
-175.983	800.000	-0.139	-0.536
-174.969	445.983	-0.108	-0.234
-173.954	-15.853	-0.123	0.077
-172.939	-91.462	0.361	-0.101
-171.925	90.459	-0.061	0.068
-170.910	800.000	0.046	0.174
-169.896	244.974	-0.056	-0.092
-168.881	-200.000	-0.040	0.277
-167.866	107.923	0.260	-0.305
-166.852	-200.000	-0.011	-0.052
-165.837	-10.090	0.281	0.183
-164.823	162.079	-0.021	0.029
-163.808	530.163	0.100	-0.233
-162.793	-97.847	-0.137	0.035
-161.779	-46.976	-0.072	-0.035
-160.764	800.000	0.025	-0.073
-159.750	-80.479	0.305	0.100
-158.735	236.673	0.025	0.041
-157.720	583.089	-0.205	0.495
-156.706	-200.000	0.020	0.242
-155.691	800.000	0.087	-0.249
-154.677	-127.498	0.173	0.025
-153.662	-85.725	-0.260	-0.079
-152.647	800.000	-0.007	-0.024
-151.633	-161.611	0.245	0.012
-150.618	430.126	-0.027	-0.057
-149.604	-48.467	-0.213	-0.101
-148.589	254.048	-0.096	-0.161
-147.574	11.751	0.262	0.198
-146.560	800.000	-0.042	0.176
-145.545	200.836	0.180	0.273
-144.531	-54.859	-0.259	-0.115
-143.516	-116.212	-0.256	0.047
-142.502	-102.140	0.195	0.046
-141.487	320.393	-0.057	-0.106
-140.472	-123.882	0.018	-0.003
-139.458	-53.621	-0.189	0.085
-138.443	142.922	0.214	0.280
-137.429	99.679	-0.110	0.125
-136.414	-200.000	-0.045	0.325
-135.399	119.388	-0.177	-0.215
-134.385	317.623	0.139	0.259
-133.370	-9.014	0.258	0.170
-132.356	-93.097	0.229	-0.063
-131.341	-200.000	-0.033	0.158
-130.326	-127.165	-0.019	0.003
-129.312	800.000	-0.104	-0.371
-128.297	532.061	0.052	-0.122
-127.283	408.779	-0.073	-0.152
-126.268	-200.000	0.021	-0.119
-125.253	143.161	0.105	-0.137
-124.239	250.903	-0.085	-0.143
-123.224	-139.783	0.354	0.037
-122.210	61.242	-0.195	0.190
