DTS Sentinel unit serial number:	SN413079Multiplexer serial number:	ORYXHardware model number:	OX4-SRSoftware version number:	ORYX F/W v4.00 Oryx Data Collector v3.7.2.0data status	okinstallation	princeton_trtdifferential loss correction	single-endedforward channel	channel 1reverse channel	N/Adate	2019/09/12time	19:19:34forward acquisition time	15.00reverse acquisition time	0.00gamma	496.2192k internal	0.2321k external	0.2321temperature offset calibration	1.0122default loss term (dB/km)	0.3790temperature slope calibration	1.0000multiplexer offset coefficient	1.0000multiplexer slope coefficient	1.0000fibre end	0.00T internal ref (°C)	32.44T ext. ref 1 (°C)	3.23T ext. ref 2 (°C)	27.08length (m)	temperature (°C)	Stokes	anti-Stokes-747.200	-107.967	0.302	-0.066
-746.185	-200.000	-0.023	-0.508
-745.171	-60.557	0.316	0.136
-744.156	-200.000	0.003	-0.509
-743.142	-43.461	0.323	-0.165
-742.127	-200.000	0.179	-1.110
-741.112	300.129	0.071	-0.133
-740.098	-17.089	0.203	-0.130
-739.083	-135.411	0.530	0.064
-738.069	13.651	0.592	-0.465
-737.054	151.405	-0.394	-0.542
-736.039	496.512	-0.198	-0.460
-735.025	434.419	-0.058	-0.128
-734.010	-200.000	-0.076	-0.600
-732.996	-168.627	-0.099	-0.004
-731.981	-139.570	0.338	0.036
-730.966	170.465	-0.232	-0.335
-729.952	800.000	0.158	0.606
-728.937	512.102	-0.403	0.947
-727.923	-122.668	-0.988	0.162
-726.908	800.000	-0.226	0.991
-725.894	79.831	0.271	-0.294
-724.879	8.321	0.531	0.403
-723.864	-93.083	0.724	0.204
-722.850	-129.789	1.169	0.162
-721.835	-200.000	-0.002	-0.350
-720.821	-132.013	0.385	0.051
-719.806	-200.000	-0.007	-0.396
-718.791	221.631	-0.535	0.869
-717.777	16.963	0.589	0.471
-716.762	-200.000	0.002	-0.321
-715.748	32.104	0.131	-0.114
-714.733	-200.000	-0.028	-0.237
-713.718	293.814	0.250	0.460
-712.704	78.199	0.370	-0.399
-711.689	102.875	0.376	-0.445
-710.675	3.158	-0.664	-0.487
-709.660	-64.253	0.249	-0.102
-708.645	234.420	0.122	0.203
-707.631	-200.000	-0.037	0.434
-706.616	286.479	0.538	0.981
-705.602	800.000	0.087	0.324
-704.587	59.105	-0.341	-0.338
-703.572	-81.535	0.395	0.131
-702.558	-130.771	0.401	-0.054
-701.543	-93.530	-0.310	0.087
-700.529	-152.563	0.336	-0.024
-699.514	248.128	-0.706	1.205
-698.499	-18.244	-0.345	-0.218
-697.485	269.769	0.136	0.242
-696.470	-200.000	-0.034	-0.404
-695.456	800.000	0.422	1.309
-694.441	800.000	-0.030	0.093
-693.426	-37.682	-0.892	0.479
-692.412	-138.679	0.648	-0.072
-691.397	-78.061	-0.538	-0.187
-690.383	-134.605	0.485	0.060
-689.368	549.771	-0.159	0.385
-688.354	129.419	-0.205	0.264
-687.339	634.055	-0.193	0.493
-686.324	-87.795	-0.757	-0.230
-685.310	-127.442	0.659	0.097
-684.295	-27.826	-0.807	0.472
-683.281	71.941	-0.428	0.448
-682.266	168.246	-0.296	0.425
-681.251	-85.303	0.405	0.128
-680.237	288.481	0.189	0.345
-679.222	253.071	0.421	0.724
-678.208	-200.000	0.102	-0.564
-677.193	-155.545	0.374	-0.024
-676.178	59.229	0.391	-0.388
-675.164	78.636	-0.440	0.474
-674.149	94.463	0.492	0.564
-673.135	228.563	-0.390	-0.641
-672.120	-6.167	-0.904	-0.623
-671.105	101.442	0.091	-0.107
-670.091	-200.000	0.075	-0.474
-669.076	-50.171	0.198	0.094
-668.062	100.324	0.500	-0.585
-667.047	-17.721	-0.162	0.103
-666.032	-22.444	-0.233	0.142
-665.018	-66.339	-0.581	-0.233
-664.003	183.037	0.439	0.653
-662.989	-29.949	-0.247	-0.142
-661.974	211.570	0.711	1.127
-660.959	445.595	-0.202	0.446
-659.945	144.542	0.633	-0.852
-658.930	-83.118	-0.317	0.103
-657.916	46.587	0.171	-0.160
-656.901	-94.196	0.275	-0.076
-655.886	-143.730	0.496	0.047
-654.872	584.372	-0.129	0.319
-653.857	170.233	-0.300	-0.432
-652.843	-154.279	0.255	0.017
-651.828	-200.000	-0.065	-0.517
-650.814	77.173	-0.259	-0.277
-649.799	-178.262	0.215	0.005
-648.784	99.124	0.316	0.368
-647.770	800.000	0.098	0.326
-646.755	144.711	-0.273	0.368
-645.741	-170.734	-0.318	-0.011
-644.726	-96.159	0.683	-0.183
-643.711	-200.000	-0.045	0.434
-642.697	320.254	0.192	0.368
-641.682	-200.000	-0.059	0.843
-640.668	800.000	0.069	0.287
-639.653	-11.086	0.196	-0.130
-638.638	-82.944	-0.386	-0.125
-637.624	-1.169	-0.666	-0.474
-636.609	137.808	-0.299	0.394
-635.595	-150.756	-0.639	0.049
-634.580	-21.734	-0.739	0.453
-633.565	-50.899	0.658	-0.311
-632.551	530.928	-0.044	0.104
-631.536	800.000	0.241	0.864
-630.522	-125.282	-0.163	-0.025
-629.507	-27.261	0.508	-0.298
-628.492	-72.047	-0.336	-0.126
-627.478	800.000	0.263	-0.966
-626.463	55.390	-0.390	0.379
-625.449	261.454	0.248	0.433
-624.434	-69.585	-0.347	-0.134
-623.419	800.000	-0.199	-0.784
-622.405	-48.665	0.469	-0.227
-621.390	-101.313	-0.428	-0.105
-620.376	-200.000	0.068	-0.958
-619.361	-156.894	0.558	0.034
-618.346	572.727	-0.376	-0.922
-617.332	27.578	0.455	-0.385
-616.317	-200.000	-0.185	1.126
-615.303	-200.000	0.008	0.094
-614.288	-110.616	-0.694	0.144
-613.273	800.000	0.290	-0.901
-612.259	262.427	0.168	0.292
-611.244	-67.563	-0.485	-0.191
-610.230	800.000	0.213	-0.615
-609.215	800.000	0.249	0.749
-608.201	800.000	-0.146	0.445
-607.186	48.700	0.107	-0.101
-606.171	27.897	0.390	0.331
-605.157	-54.946	-0.639	0.290
-604.142	-7.145	0.491	-0.335
-603.128	-32.767	-0.909	-0.508
-602.113	800.000	0.139	0.535
-601.098	-75.601	-0.443	-0.158
-600.084	800.000	0.228	0.700
-599.069	-81.238	-0.592	-0.196
-598.055	-29.559	-0.420	-0.241
-597.040	-23.962	-0.327	0.196
-596.025	25.139	0.262	0.219
-595.011	288.748	0.526	-0.958
-593.996	-130.386	-0.431	0.059
-592.982	-48.301	0.293	-0.142
-591.967	800.000	-0.137	-0.475
-590.952	-106.163	1.397	0.315
-589.938	-200.000	0.018	-0.302
-588.923	235.873	0.303	0.504
-587.909	-82.509	-0.683	0.223
-586.894	23.004	0.109	-0.090
-585.879	-41.914	-0.113	0.058
-584.865	800.000	-0.054	-0.232
-583.850	-85.429	0.616	-0.193
-582.836	488.877	-0.086	0.196
-581.821	800.000	0.091	-0.299
-580.806	10.769	-0.208	-0.160
-579.792	-200.000	0.002	0.163
-578.777	800.000	-0.043	-0.150
-577.763	-89.440	0.252	-0.074
-576.748	-200.000	0.014	-0.439
-575.733	224.142	0.358	0.580
-574.719	-94.931	-0.689	-0.187
-573.704	-83.865	0.205	0.066
-572.690	-104.199	-0.717	-0.167
-571.675	-66.707	0.793	-0.315
-570.661	160.363	0.228	-0.319
-569.646	-200.000	0.033	0.439
-568.631	-200.000	0.082	-0.426
-567.617	-124.782	0.758	0.118
-566.602	-58.751	-0.536	0.233
-565.588	-58.321	-0.520	-0.227
-564.573	-151.252	-0.425	0.032
-563.558	-73.401	-0.441	-0.162
-562.544	800.000	0.183	-0.623
-561.529	-82.440	0.526	-0.171
-560.515	75.370	-0.212	-0.224
-559.500	-126.776	0.902	-0.134
-558.485	6.405	-0.503	-0.375
-557.471	-200.000	-0.012	-0.625
-556.456	382.264	0.294	0.606
-555.442	-122.486	0.821	-0.134
-554.427	-21.308	0.382	-0.234
-553.412	666.315	-0.271	-0.702
-552.398	-124.987	-0.531	-0.082
-551.383	42.333	-0.745	0.680
-550.369	726.218	-0.076	-0.202
-549.354	23.084	0.625	-0.515
-548.339	-200.000	0.168	-0.805
-547.325	128.678	0.066	0.085
-546.310	-87.678	-0.297	0.090
-545.296	765.343	0.259	-0.705
-544.281	-19.882	-0.183	0.114
-543.266	-100.337	-0.699	0.174
-542.252	-200.000	0.051	0.377
-541.237	-180.722	-0.993	0.020
-540.223	800.000	-0.067	-0.252
-539.208	74.476	0.346	-0.364
-538.193	-163.281	0.562	0.027
-537.179	-85.403	-0.166	0.052
-536.164	-14.731	0.132	0.085
-535.150	96.651	-0.178	0.205
-534.135	-100.399	-0.243	0.060
-533.121	-200.000	0.025	0.249
-532.106	124.282	0.475	-0.598
-531.091	-87.949	-0.562	-0.169
-530.077	236.951	0.548	0.910
-529.062	85.900	-0.283	0.312
-528.048	354.720	-0.470	0.936
-527.033	800.000	-0.108	-0.391
-526.018	118.725	-0.344	0.426
-525.004	800.000	0.112	0.455
-523.989	376.749	-0.273	-0.559
-522.975	800.000	-0.128	-0.402
-521.960	451.985	0.156	0.345
-520.945	-113.561	0.198	-0.039
-519.931	-41.006	0.607	-0.315
-518.916	-200.000	-0.028	-0.347
-517.902	-200.000	-0.030	0.512
-516.887	-200.000	0.011	-0.306
-515.872	-122.995	-0.354	-0.057
-514.858	800.000	-0.018	-0.078
-513.843	-83.142	0.132	0.042
-512.829	617.271	0.112	-0.282
-511.814	299.472	0.048	-0.088
-510.799	324.310	-0.142	0.271
-509.785	713.808	-0.181	0.480
-508.770	800.000	0.114	0.318
-507.756	144.004	-0.310	0.414
-506.741	800.000	0.236	-0.736
-505.726	-200.000	0.088	0.633
-504.712	800.000	-0.050	0.201
-503.697	205.683	0.503	0.782
-502.683	-86.380	-0.258	0.079
-501.668	-105.672	0.187	0.042
-500.653	8.077	-0.191	0.143
-499.639	-200.000	0.003	0.284
-498.624	-13.207	-0.256	-0.166
-497.610	332.359	-0.330	-0.638
-496.595	41.238	-0.495	0.447
-495.581	25.612	-0.148	-0.123
-494.566	-80.556	-1.286	-0.429
-493.551	-13.459	0.233	0.151
-492.537	-52.127	-0.223	-0.103
-491.522	545.110	0.164	0.391
-490.508	800.000	0.145	0.569
-489.493	-37.525	-0.373	-0.199
-488.478	534.525	-0.361	-0.857
-487.464	491.311	0.305	-0.698
-486.449	-200.000	0.092	-0.474
-485.435	-49.842	-0.152	-0.072
-484.420	264.222	0.252	-0.439
-483.405	-115.373	0.268	-0.051
-482.391	85.683	0.207	-0.228
-481.376	-17.999	0.138	-0.087
-480.362	-197.841	-0.623	0.004
-479.347	28.043	-0.290	0.245
-478.332	140.939	-0.529	-0.700
-477.318	28.151	-0.289	0.244
-476.303	65.786	0.463	-0.469
-475.289	354.681	0.079	0.156
-474.274	0.934	0.494	-0.354
-473.259	-15.432	-0.503	0.321
-472.245	310.414	0.400	0.750
-471.230	-83.698	0.680	0.217
-470.216	-54.749	-0.181	-0.082
-469.201	36.916	0.221	0.195
-468.186	-200.000	-0.045	-0.805
-467.172	-0.380	0.424	-0.301
-466.157	-105.417	0.539	-0.122
-465.143	325.138	-0.512	0.979
-464.128	-128.389	-0.601	-0.085
-463.113	-0.344	0.040	-0.028
-462.099	324.994	-0.142	-0.271
-461.084	590.814	0.311	-0.767
-460.070	-59.270	-0.527	-0.227
-459.055	800.000	-0.048	0.184
-458.040	505.870	-0.111	0.256
-457.026	-39.110	-0.416	0.219
-456.011	136.009	-0.352	-0.459
-454.997	-146.623	0.432	0.037
-453.982	-200.000	0.025	0.224
-452.968	-10.522	0.408	-0.270
-451.953	-25.161	0.646	0.382
-450.938	-111.175	-0.396	0.081
-449.924	259.062	-0.215	-0.370
-448.909	248.811	-0.248	-0.419
-447.895	-200.000	-0.052	0.550
-446.880	-200.000	0.166	0.870
-445.865	800.000	0.175	0.504
-444.851	634.373	-0.256	-0.649
-443.836	-200.000	0.020	-0.466
-442.822	-54.279	0.630	0.286
-441.807	310.781	0.183	-0.343
-440.792	-56.892	0.148	-0.065
-439.778	-23.172	-0.225	0.135
-438.763	-24.598	0.394	0.234
-437.749	800.000	0.116	-0.331
-436.734	562.812	0.514	-1.242
-435.719	-200.000	-0.169	-0.862
-434.705	-200.000	0.009	0.189
-433.690	-82.067	-0.909	0.296
-432.676	138.686	0.636	0.834
-431.661	800.000	-0.137	0.434
-430.646	-200.000	0.060	-0.675
-429.632	16.880	0.789	-0.624
-428.617	800.000	-0.009	0.035
-427.603	417.428	0.364	0.777
-426.588	-153.654	-0.514	0.035
-425.573	171.881	-0.364	0.522
-424.559	124.900	-0.261	0.328
-423.544	56.999	0.159	0.154
-422.530	-162.477	1.321	-0.065
-421.515	-200.000	0.017	-0.617
-420.500	111.282	-0.475	0.572
-419.486	800.000	-0.076	-0.299
-418.471	62.773	-0.375	-0.374
-417.457	-6.958	-0.557	0.378
-416.442	-10.290	1.016	0.673
-415.428	514.045	0.140	0.326
-414.413	-200.000	-0.117	0.656
-413.398	-200.000	-0.006	-0.274
-412.384	-19.410	0.648	0.401
-411.369	140.992	0.312	0.411
-410.355	-155.246	-0.313	0.020
-409.340	40.564	0.272	0.244
-408.325	531.672	-0.274	0.648
-407.311	800.000	0.095	-0.281
-406.296	98.564	0.616	0.709
-405.282	-47.682	-0.847	-0.410
-404.267	144.336	0.039	0.052
-403.252	800.000	0.126	0.540
-402.238	-163.019	0.843	0.041
-401.223	55.537	0.316	0.305
-400.209	87.507	0.500	-0.552
-399.194	50.328	-0.079	0.074
-398.179	5.804	0.839	0.619
-397.165	800.000	0.161	0.543
-396.150	27.091	0.385	0.322
-395.136	-200.000	0.018	-0.119
-394.121	-51.053	-0.576	-0.269
-393.106	-121.188	0.183	0.031
-392.092	353.385	0.260	0.515
-391.077	-39.059	0.522	-0.274
-390.063	-74.606	-0.644	0.231
-389.048	-70.951	0.679	-0.255
-388.033	-200.000	-0.019	-0.475
-387.019	-149.373	-0.125	0.010
-386.004	159.354	-0.334	0.463
-384.990	199.187	0.433	0.662
-383.975	-200.000	0.009	0.454
-382.960	27.305	0.181	-0.152
-381.946	-139.883	-0.222	-0.023
-380.931	-115.513	0.129	0.024
-379.917	-73.616	-0.260	-0.094
-378.902	-157.623	-0.221	-0.013
-377.888	-200.000	0.016	-0.378
-376.873	126.850	0.133	0.168
-375.858	800.000	0.238	0.912
-374.844	-200.000	0.006	-0.216
-373.829	254.580	0.233	-0.397
-372.815	800.000	0.285	-1.151
-371.800	43.487	-0.171	0.156
-370.785	-200.000	-0.077	0.351
-369.771	-119.189	0.158	-0.028
-368.756	-128.242	0.191	-0.027
-367.742	-200.000	0.039	-0.470
-366.727	148.105	0.165	0.222
-365.712	-57.605	0.571	0.249
-364.698	800.000	-0.123	-0.378
-363.683	-200.000	-0.125	-0.760
-362.669	4.502	-0.563	-0.411
-361.654	-110.220	0.402	-0.083
-360.639	11.359	0.488	-0.372
-359.625	-200.000	-0.970	0.000
-358.610	652.389	-0.257	-0.656
-357.596	79.333	-0.075	0.080
-356.581	47.276	0.748	-0.693
-355.566	-200.000	-0.003	-0.100
-354.552	-200.000	0.082	-0.460
-353.537	-137.827	1.115	-0.124
-352.523	-6.958	-0.172	0.117
-351.508	-31.823	0.776	0.433
-350.493	-98.431	0.517	-0.132
-349.479	140.753	-0.558	-0.733
-348.464	800.000	-0.213	-0.921
-347.450	-185.099	-0.460	-0.007
-346.435	287.933	-0.248	0.447
-345.420	133.705	-0.153	-0.197
-344.406	-200.000	0.003	-0.344
-343.391	-15.753	0.422	0.268
-342.377	32.478	-0.595	-0.511
-341.362	-22.856	-0.364	0.219
-340.348	13.810	-0.369	-0.286
-339.333	377.203	0.283	0.575
-338.318	154.741	-0.467	0.639
-337.304	-49.027	-0.831	0.396
-336.289	-16.565	0.524	-0.330
-335.275	-61.625	-0.926	0.387
-334.260	6.162	-0.475	0.350
-333.245	-200.000	0.065	0.432
-332.231	385.071	-0.125	-0.257
-331.216	-79.180	0.497	-0.168
-330.202	239.669	-0.202	-0.335
-329.187	-132.650	-0.599	-0.076
-328.172	-200.000	0.012	-0.421
-327.158	146.218	-0.502	0.669
-326.143	-200.000	0.005	0.148
-325.129	-29.400	-0.531	-0.302
-324.114	-49.969	0.369	-0.174
-323.099	-61.338	0.370	0.155
-322.085	27.750	-0.474	-0.397
-321.070	-10.215	-1.142	0.754
-320.056	-74.037	-0.287	-0.103
-319.041	-45.879	0.647	0.317
-318.026	17.317	0.855	0.674
-317.012	-200.000	-0.069	-0.485
-315.997	146.727	-0.561	-0.749
-314.983	-80.110	-0.444	-0.148
-313.968	326.363	0.132	-0.251
-312.953	412.150	0.289	0.611
-311.939	-161.899	-0.245	0.012
-310.924	-118.492	-0.544	-0.096
-309.910	23.545	0.844	-0.690
-308.895	-67.136	-0.460	-0.180
-307.880	800.000	-0.115	-0.349
-306.866	-136.347	-0.110	-0.013
-305.851	104.986	-0.635	-0.744
-304.837	21.130	-0.324	-0.261
-303.822	-28.844	0.329	-0.188
-302.807	-104.176	1.206	0.278
-301.793	800.000	-0.135	0.582
-300.778	-200.000	-0.030	0.309
-299.764	98.057	-0.283	0.323
-298.749	1.060	-0.746	0.531
-297.735	-200.000	-0.036	0.416
-296.720	-121.666	-0.893	-0.147
-295.705	131.878	0.812	1.037
-294.691	-4.462	-0.237	0.163
-293.676	-200.000	-0.185	-1.097
-292.662	800.000	0.120	-0.483
-291.647	144.076	-0.216	0.286
-290.632	-62.408	-0.779	0.322
-289.618	-44.912	0.470	0.233
-288.603	69.024	0.898	-0.917
-287.589	17.467	0.800	0.631
-286.574	-32.443	-0.436	0.241
-285.559	31.190	-0.773	0.658
-284.545	-53.534	-0.554	0.252
-283.530	-20.555	0.825	-0.503
-282.516	-13.140	-0.835	0.539
-281.501	221.836	0.246	0.392
-280.486	-200.000	-0.078	0.346
-279.472	-129.533	0.563	0.077
-278.457	-75.579	-0.930	-0.328
-277.443	-56.803	0.353	-0.155
-276.428	-139.530	1.156	-0.123
-275.413	-200.000	0.001	0.411
-274.399	653.729	-0.231	-0.588
-273.384	-32.757	-0.500	-0.276
-272.370	-42.248	0.427	-0.216
-271.355	-74.718	0.602	0.215
-270.340	-2.606	-0.043	0.030
-269.326	-138.927	-0.388	0.042
-268.311	530.310	0.212	-0.497
-267.297	403.289	0.192	-0.400
-266.282	740.669	0.116	-0.308
-265.267	-200.000	-0.025	0.479
-264.253	-200.000	0.032	-0.365
-263.238	-71.658	0.403	-0.149
-262.224	106.704	0.221	0.261
-261.209	255.682	-0.213	0.363
-260.195	-69.738	-0.025	-0.009
-259.180	-200.000	-0.092	-0.594
-258.165	-162.785	0.340	-0.016
-257.151	-2.538	-0.258	0.179
-256.136	-108.878	-0.418	-0.088
-255.122	-79.589	-0.652	-0.218
-254.107	82.640	0.380	0.409
-253.092	-155.474	0.386	-0.025
-252.078	800.000	-0.075	0.213
-251.063	-200.000	-0.025	-0.351
-250.049	686.329	-0.161	-0.416
-249.034	800.000	-0.295	0.968
-248.019	-74.888	0.521	0.185
-247.005	800.000	-0.220	0.783
-245.990	-36.348	0.164	0.088
-244.976	800.000	0.040	0.109
-243.961	-146.837	-0.838	-0.072
-242.946	69.638	-0.356	-0.364
-241.932	91.859	-0.414	0.461
-240.917	-200.000	0.108	0.535
-239.903	10.604	-0.357	0.270
-238.888	326.744	-0.510	-0.969
-237.873	-200.000	-0.000	-0.523
-236.859	-200.000	-0.092	0.590
-235.844	106.308	0.295	0.347
-234.830	772.425	0.223	0.601
-233.815	-173.473	0.538	0.016
-232.800	-39.297	0.134	-0.069
-231.786	-200.000	-0.175	-1.137
-230.771	800.000	-0.233	0.879
-229.757	586.967	-0.184	-0.448
-228.742	26.331	-0.660	0.546
-227.727	77.855	0.335	-0.354
-226.713	-69.079	0.409	-0.156
-225.698	-10.175	-0.536	0.352
-224.684	800.000	-0.246	0.934
-223.669	800.000	0.068	-0.274
-222.655	-194.621	-0.310	0.002
-221.640	17.784	0.075	0.059
-220.625	389.175	0.292	-0.600
-219.611	11.171	0.322	0.244
-218.596	-111.579	-0.350	0.070
-217.582	-76.339	0.722	0.252
-216.567	99.530	-0.053	0.060
-215.552	-188.155	-0.522	-0.007
-214.538	-85.027	-0.189	-0.059
-213.523	158.925	-0.155	0.213
-212.509	-200.000	-0.048	-0.367
-211.494	173.691	-0.837	-1.196
-210.479	-74.549	0.402	-0.143
-209.465	413.888	0.069	0.145
-208.450	-111.439	1.007	-0.203
-207.436	797.676	-0.108	-0.294
-206.421	-200.000	0.095	0.521
-205.406	263.065	0.400	-0.688
-204.392	506.121	0.284	0.652
-203.377	-200.000	-0.100	0.619
-202.363	-0.381	0.605	0.425
-201.348	-129.401	-0.805	-0.111
-200.333	-200.000	-0.176	-0.914
-199.319	28.599	0.342	-0.286
-198.304	-200.000	0.036	0.586
-197.290	-4.550	0.271	-0.185
-196.275	503.704	-0.296	0.678
-195.260	0.183	-0.552	0.389
-194.246	-55.902	0.316	0.139
-193.231	121.057	-0.089	-0.110
-192.217	7.042	-0.391	0.288
-191.202	-79.312	0.117	-0.039
-190.187	186.188	-0.262	-0.386
-189.173	-117.951	0.244	0.043
-188.158	-153.248	0.577	-0.040
-187.144	-167.604	0.765	0.030
-186.129	-48.907	0.483	0.229
-185.114	169.580	0.090	0.127
-184.100	-200.000	0.012	0.591
-183.085	-56.558	-0.263	-0.115
-182.071	-200.000	-0.024	-0.449
-181.056	94.256	0.881	-0.988
-180.042	800.000	-0.246	0.781
-179.027	-200.000	0.033	-0.241
-178.012	85.127	0.485	-0.526
-176.998	-186.883	-0.205	-0.003
-175.983	357.970	-0.064	0.127
-174.969	-24.794	0.553	0.325
-173.954	-200.000	-0.053	-0.784
-172.939	-20.960	0.491	-0.297
-171.925	-200.000	0.040	0.879
-170.910	-0.496	0.155	0.109
-169.896	11.529	0.357	0.271
-168.881	443.974	-0.309	-0.669
-167.866	27.551	-0.548	0.456
-166.852	315.740	-0.296	0.552
-165.837	102.457	-0.376	-0.435
-164.823	-71.017	-0.353	-0.131
-163.808	354.166	-0.190	0.373
-162.793	-190.036	0.641	0.007
-161.779	-170.523	0.669	0.023
-160.764	-70.134	0.933	-0.351
-159.750	-200.000	-0.017	0.534
-158.735	-200.000	-0.238	-1.199
-157.720	-186.153	-0.742	-0.011
-156.706	85.341	-0.328	-0.356
-155.691	44.479	0.357	0.324
-154.677	58.142	0.179	0.173
-153.662	800.000	0.225	0.903
-152.647	-125.664	-0.311	0.046
-151.633	237.759	0.284	0.466
-150.618	-163.811	1.131	-0.052
-149.604	800.000	0.096	-0.315
-148.589	484.322	0.386	-0.867
-147.574	167.592	-0.378	0.531
-146.560	463.448	0.186	-0.409
-145.545	-37.598	-0.546	0.287
-144.531	800.000	-0.271	-1.039
-143.516	337.150	0.459	-0.881
-142.502	17.129	-0.492	0.385
-141.487	21.013	0.119	0.095
-140.472	108.357	0.574	-0.676
-139.458	-56.846	-0.549	-0.240
-138.443	102.892	0.507	0.586
-137.429	72.495	0.393	-0.404
-136.414	800.000	0.361	-1.098
-135.399	233.972	-0.410	-0.667
-134.385	-49.640	1.045	0.491
-133.370	-53.115	0.353	-0.160
-132.356	-200.000	0.046	-0.559
-131.341	190.104	-0.407	0.603
-130.326	800.000	-0.060	0.234
-129.312	-200.000	0.159	0.932
-128.297	290.552	-0.029	-0.053
-127.283	-50.187	-0.794	-0.371
-126.268	20.207	-0.515	0.410
-125.253	-100.127	-0.850	0.209
-124.239	453.984	0.150	-0.328
-123.224	-200.000	-0.062	0.783
-122.210	182.386	-0.547	-0.796
-121.195	800.000	-0.047	-0.183
