DTS Sentinel unit serial number:	SN413079Multiplexer serial number:	ORYXHardware model number:	OX4-SRSoftware version number:	ORYX F/W v4.00 Oryx Data Collector v3.7.2.0data status	okinstallation	princeton_trtdifferential loss correction	single-endedforward channel	channel 1reverse channel	N/Adate	2019/09/16time	22:50:35forward acquisition time	60.00reverse acquisition time	0.00gamma	496.2192k internal	0.2325k external	0.2325temperature offset calibration	0.9956default loss term (dB/km)	0.3790temperature slope calibration	1.0000multiplexer offset coefficient	1.0000multiplexer slope coefficient	1.0000fibre end	0.00T internal ref (°C)	30.50T ext. ref 1 (°C)	0.09T ext. ref 2 (°C)	24.13length (m)	temperature (°C)	Stokes	anti-Stokes-747.200	-200.000	0.011	-0.115
-746.185	-82.838	0.238	0.078
-745.171	-54.147	-0.323	-0.148
-744.156	-142.751	-0.337	0.033
-743.142	-46.668	0.321	-0.158
-742.127	-200.000	-0.018	0.087
-741.112	677.705	-0.156	-0.409
-740.098	-73.480	-0.191	0.070
-739.083	-94.527	0.264	0.073
-738.069	-157.103	0.241	-0.015
-737.054	-122.733	0.083	-0.013
-736.039	331.540	0.257	-0.500
-735.025	-130.560	0.424	-0.058
-734.010	800.000	0.033	0.134
-732.996	112.082	-0.237	-0.289
-731.981	-12.245	-0.144	0.095
-730.966	-167.644	-0.088	-0.004
-729.952	196.396	0.110	-0.169
-728.937	80.054	0.282	-0.305
-727.923	800.000	-0.076	-0.257
-726.908	-16.699	-0.499	-0.318
-725.894	-200.000	-0.054	-0.341
-724.879	173.635	0.090	-0.131
-723.864	800.000	-0.044	0.180
-722.850	-200.000	-0.064	-0.322
-721.835	-40.785	0.280	0.146
-720.821	800.000	0.029	-0.119
-719.806	-200.000	-0.033	-0.182
-718.791	800.000	0.120	-0.404
-717.777	-45.767	-0.137	-0.068
-716.762	-111.032	0.419	0.087
-715.748	-36.251	0.284	0.155
-714.733	-126.572	0.225	0.034
-713.718	800.000	0.065	-0.200
-712.704	800.000	-0.133	-0.371
-711.689	597.131	-0.080	0.199
-710.675	-200.000	-0.008	0.173
-709.660	-50.742	0.257	-0.122
-708.645	-187.007	0.136	-0.002
-707.631	12.968	-0.063	-0.049
-706.616	-100.230	0.178	-0.045
-705.602	-52.321	0.272	-0.127
-704.587	-48.535	0.283	-0.137
-703.572	2.185	-0.094	-0.068
-702.558	-162.978	0.503	0.025
-701.543	-111.250	-0.167	-0.034
-700.529	40.249	-0.023	0.021
-699.514	462.653	-0.117	0.263
-698.499	-30.983	-0.192	0.109
-697.485	698.479	0.013	0.034
-696.470	42.290	-0.236	-0.216
-695.456	800.000	0.043	-0.154
-694.441	70.034	0.150	-0.156
-693.426	-200.000	0.027	-0.292
-692.412	-9.462	0.196	-0.132
-691.397	-200.000	0.007	0.043
-690.383	132.195	0.109	0.142
-689.368	173.505	-0.144	-0.209
-688.354	62.862	-0.110	-0.111
-687.339	93.040	0.249	0.283
-686.324	-108.341	0.304	0.066
-685.310	767.797	0.035	-0.096
-684.295	-16.714	0.213	-0.136
-683.281	-200.000	-0.016	-0.207
-682.266	37.209	-0.245	0.218
-681.251	-59.101	0.189	-0.082
-680.237	-200.000	-0.017	-0.387
-679.222	-200.000	0.016	-0.081
-678.208	-200.000	0.015	-0.299
-677.193	137.069	0.157	-0.207
-676.178	-84.766	0.316	0.100
-675.164	332.902	0.217	-0.422
-674.149	-59.787	-0.199	0.086
-673.135	-34.498	-0.314	-0.173
-672.120	-200.000	-0.003	0.137
-671.105	37.639	0.088	0.078
-670.091	-105.721	-0.277	-0.063
-669.076	29.754	0.172	0.147
-668.062	-58.021	-0.129	-0.057
-667.047	-22.946	-0.272	0.165
-666.032	19.522	-0.210	-0.170
-665.018	-23.031	-0.355	0.215
-664.003	728.234	0.032	-0.086
-662.989	-200.000	0.025	-0.488
-661.974	-101.570	0.194	-0.047
-660.959	800.000	0.153	0.444
-659.945	-30.702	-0.215	0.122
-658.930	201.767	0.146	0.227
-657.916	-97.616	0.391	0.102
-656.901	31.893	0.246	-0.213
-655.886	40.460	-0.099	0.089
-654.872	188.005	-0.110	-0.166
-653.857	-200.000	0.011	-0.376
-652.843	110.265	0.099	0.120
-651.828	59.331	-0.115	-0.114
-650.814	596.635	-0.172	-0.429
-649.799	404.602	0.097	0.206
-648.784	13.840	-0.080	0.063
-647.770	-124.497	-0.235	0.037
-646.755	-122.236	0.183	-0.030
-645.741	-200.000	0.001	0.219
-644.726	-200.000	0.006	0.037
-643.711	-61.971	-0.124	0.052
-642.697	170.974	0.221	-0.318
-641.682	-93.332	-0.103	0.029
-640.668	-200.000	0.028	-0.252
-639.653	-200.000	0.043	-0.399
-638.638	-104.246	-0.291	-0.068
-637.624	745.514	0.122	0.329
-636.609	89.551	-0.131	-0.147
-635.595	291.282	-0.110	0.200
-634.580	-127.032	0.200	-0.030
-633.565	114.005	-0.239	0.292
-632.551	-30.795	0.128	0.073
-631.536	-200.000	-0.019	-0.089
-630.522	-76.827	-0.088	-0.031
-629.507	50.227	-0.280	-0.266
-628.492	-83.109	0.312	0.101
-627.478	-79.213	-0.274	0.093
-626.463	157.164	0.180	-0.250
-625.449	-25.987	-0.139	-0.082
-624.434	-70.705	0.047	0.018
-623.419	348.545	0.211	-0.418
-622.405	68.176	0.169	-0.174
-621.390	-97.481	-0.144	-0.038
-620.376	-64.596	-0.240	0.098
-619.361	-191.910	-0.293	0.003
-618.346	261.792	0.034	0.059
-617.332	-53.455	0.106	-0.049
-616.317	2.060	-0.390	-0.283
-615.303	-118.433	-0.193	0.034
-614.288	87.943	-0.212	0.236
-613.273	-200.000	0.019	-0.155
-612.259	20.019	-0.129	0.104
-611.244	-200.000	0.030	0.154
-610.230	99.682	0.116	-0.134
-609.215	-11.138	-0.073	-0.048
-608.201	-67.103	0.239	-0.095
-607.186	800.000	-0.027	0.114
-606.171	-80.231	0.055	0.018
-605.157	46.838	0.038	-0.035
-604.142	-21.240	-0.192	-0.118
-603.128	-54.644	0.067	-0.030
-602.113	389.662	-0.016	-0.032
-601.098	271.983	-0.062	-0.109
-600.084	115.502	0.057	0.070
-599.069	-92.217	0.231	0.065
-598.055	121.040	0.208	-0.259
-597.040	-200.000	-0.018	0.135
-596.025	137.755	0.081	-0.106
-595.011	17.676	0.181	-0.145
-593.996	-200.000	-0.016	-0.411
-592.982	-200.000	0.009	-0.062
-591.967	-147.251	-0.159	0.014
-590.952	-200.000	0.018	-0.101
-589.938	128.807	0.216	-0.276
-588.923	-62.878	-0.036	-0.015
-587.909	800.000	-0.093	0.370
-586.894	162.620	-0.146	0.206
-585.879	249.780	0.033	-0.056
-584.865	620.951	0.116	0.292
-583.850	257.135	0.100	0.173
-582.836	237.695	-0.065	-0.108
-581.821	-147.115	0.427	0.037
-580.806	28.267	-0.190	-0.161
-579.792	-200.000	-0.021	0.309
-578.777	11.803	-0.280	0.216
-577.763	-144.055	-0.312	0.029
-576.748	-161.417	-0.124	0.006
-575.733	-47.389	0.100	0.049
-574.719	-200.000	0.062	0.483
-573.704	7.087	0.240	0.180
-572.690	9.284	-0.280	0.212
-571.675	800.000	-0.014	0.043
-570.661	-200.000	-0.072	-0.492
-569.646	149.664	0.076	0.103
-568.631	-142.745	-0.152	0.015
-567.617	503.421	-0.115	0.267
-566.602	-75.380	0.254	-0.091
-565.588	-85.793	-0.370	0.115
-564.573	-200.000	-0.025	-0.272
-563.558	-26.987	-0.064	-0.038
-562.544	800.000	-0.055	0.163
-561.529	213.170	-0.024	-0.038
-560.515	274.054	0.111	0.197
-559.500	-200.000	-0.001	0.316
-558.485	423.452	-0.126	-0.271
-557.471	9.065	0.129	-0.097
-556.456	800.000	0.064	0.272
-555.442	593.609	0.050	0.123
-554.427	278.024	-0.102	0.183
-553.412	132.833	0.243	0.314
-552.398	11.544	0.257	-0.197
-551.383	-77.232	-0.067	0.023
-550.369	-109.360	0.066	-0.014
-549.354	64.963	-0.118	-0.119
-548.339	34.178	0.144	-0.126
-547.325	800.000	0.036	-0.117
-546.310	45.971	0.067	-0.062
-545.296	-200.000	0.024	0.351
-544.281	-52.524	-0.209	0.097
-543.266	-32.034	-0.353	-0.198
-542.252	-54.955	0.185	-0.084
-541.237	-82.543	-0.405	0.131
-540.223	-138.135	-0.133	-0.015
-539.208	-200.000	0.010	0.297
-538.193	-200.000	-0.045	0.267
-537.179	-116.781	0.376	0.069
-536.164	-173.205	-0.101	-0.003
-535.150	-72.806	0.198	-0.073
-534.135	-128.426	0.359	0.051
-533.121	-54.999	0.165	-0.075
-532.106	97.517	0.084	-0.097
-531.091	-115.974	0.249	0.046
-530.077	14.179	0.388	-0.303
-529.062	800.000	-0.072	-0.307
-528.048	-20.619	0.252	-0.155
-527.033	-200.000	0.006	-0.183
-526.018	118.443	-0.212	-0.262
-525.004	-160.174	-0.224	-0.012
-523.989	-183.016	0.169	0.003
-522.975	29.163	0.240	-0.204
-521.960	276.270	-0.055	-0.097
-520.945	-49.822	0.136	0.065
-519.931	-200.000	0.057	-0.369
-518.916	-58.851	0.503	-0.218
-517.902	199.883	-0.332	0.510
-516.887	22.349	-0.273	0.223
-515.872	-81.128	0.069	-0.023
-514.858	42.858	0.047	-0.042
-513.843	46.262	0.202	0.187
-512.829	-126.150	0.225	-0.034
-511.814	-41.170	-0.327	0.169
-510.799	-62.197	-0.279	-0.116
-509.785	-67.859	0.256	-0.100
-508.770	-144.569	0.110	0.010
-507.756	-200.000	-0.060	-0.324
-506.741	32.239	-0.208	-0.179
-505.726	-200.000	0.043	0.286
-504.712	4.214	0.078	0.057
-503.697	210.801	-0.124	0.194
-502.683	800.000	0.069	0.235
-501.668	-43.770	-0.139	0.070
-500.653	-200.000	-0.002	-0.053
-499.639	175.916	-0.117	-0.170
-498.624	287.989	0.023	0.041
-497.610	-56.166	0.041	0.018
-496.595	-104.678	-0.021	-0.005
-495.581	71.096	-0.034	0.035
-494.566	127.165	0.132	0.167
-493.551	80.829	-0.240	-0.259
-492.537	-8.654	0.215	0.144
-491.522	133.597	0.096	-0.125
-490.508	-31.630	-0.331	-0.185
-489.493	-200.000	0.022	0.174
-488.478	-104.565	0.412	-0.095
-487.464	-200.000	0.004	-0.088
-486.449	-157.030	0.257	-0.016
-485.435	-102.252	0.081	0.019
-484.420	-48.880	-0.031	0.015
-483.405	514.588	-0.127	-0.296
-482.391	337.190	0.099	0.192
-481.376	-124.435	0.122	-0.019
-480.362	326.824	-0.061	-0.118
-479.347	-97.707	0.262	-0.068
-478.332	-79.393	-0.110	-0.037
-477.318	800.000	0.040	0.140
-476.303	45.100	0.268	0.247
-475.289	54.066	-0.233	-0.224
-474.274	209.443	-0.144	-0.225
-473.259	-120.917	-0.194	0.033
-472.245	463.694	-0.055	-0.123
-471.230	-82.931	0.256	0.082
-470.216	-83.636	-0.060	0.019
-469.201	-15.200	-0.160	0.102
-468.186	-53.800	0.239	0.109
-467.172	237.871	0.104	0.171
-466.157	232.256	-0.078	-0.128
-465.143	-200.000	-0.048	-0.244
-464.128	-19.078	0.364	-0.226
-463.113	-39.468	0.420	-0.220
-462.099	800.000	-0.046	0.156
-461.084	-185.412	-0.230	-0.004
-460.070	-21.514	0.587	-0.358
-459.055	-107.951	-0.286	-0.062
-458.040	69.411	0.082	0.085
-457.026	-200.000	-0.000	-0.106
-456.011	-151.628	-0.175	-0.013
-454.997	-200.000	0.008	0.070
-453.982	48.557	0.214	0.200
-452.968	-48.873	-0.341	0.163
-451.953	32.155	0.042	0.036
-450.938	-59.842	-0.165	-0.071
-449.924	-67.662	-0.090	0.035
-448.909	507.848	-0.146	0.338
-447.895	-110.357	-0.082	0.017
-446.880	134.898	0.042	-0.055
-445.865	47.490	-0.183	0.170
-444.851	-38.222	0.240	0.127
-443.836	-200.000	-0.011	-0.304
-442.822	135.950	-0.079	-0.102
-441.807	136.585	-0.131	-0.170
-440.792	-200.000	0.006	-0.234
-439.778	319.284	-0.113	0.213
-438.763	-47.054	0.392	-0.191
-437.749	759.506	-0.139	-0.375
-436.734	-55.657	0.366	-0.163
-435.719	-32.356	0.178	-0.099
-434.705	377.930	-0.077	0.158
-433.690	-24.002	0.115	-0.069
-432.676	-200.000	0.006	-0.467
-431.661	186.195	0.034	-0.051
-430.646	-49.178	-0.356	0.169
-429.632	68.247	-0.163	-0.167
-428.617	342.143	0.043	0.083
-427.603	174.494	0.205	-0.296
-426.588	-169.100	-0.238	0.009
-425.573	800.000	-0.090	-0.334
-424.559	373.676	-0.011	0.022
-423.544	800.000	-0.143	-0.410
-422.530	-97.427	-0.149	0.039
-421.515	-103.209	0.140	0.033
-420.500	-115.177	-0.091	-0.017
-419.486	800.000	0.097	0.297
-418.471	-39.445	0.189	-0.098
-417.457	-83.144	-0.123	-0.039
-416.442	87.771	0.141	-0.156
-415.428	800.000	-0.092	-0.333
-414.413	144.068	-0.186	-0.248
-413.398	526.043	-0.101	-0.236
-412.384	-200.000	-0.037	-0.480
-411.369	-47.261	-0.184	0.089
-410.355	-200.000	0.033	0.158
-409.340	-143.528	-0.075	-0.007
-408.325	9.285	-0.127	-0.096
-407.311	-200.000	0.024	0.107
-406.296	-200.000	0.057	0.311
-405.282	-15.685	0.089	-0.057
-404.267	2.455	0.015	-0.011
-403.252	305.117	0.247	-0.457
-402.238	-189.467	-0.285	0.003
-401.223	173.086	-0.127	0.182
-400.209	800.000	0.035	-0.098
-399.194	800.000	-0.124	-0.524
-398.179	273.725	0.053	0.093
-397.165	-44.486	0.170	0.084
-396.150	5.929	-0.227	-0.167
-395.136	-4.047	0.214	0.147
-394.121	-82.750	0.217	0.070
-393.106	800.000	0.044	0.157
-392.092	-62.852	-0.280	-0.115
-391.077	92.458	0.128	0.143
-390.063	183.758	-0.034	-0.050
-389.048	-123.622	-0.144	0.023
-388.033	-200.000	-0.012	-0.105
-387.019	-63.049	-0.273	0.112
-386.004	800.000	0.124	0.357
-384.990	-200.000	-0.056	0.258
-383.975	111.271	0.121	-0.145
-382.960	-200.000	-0.023	-0.218
-381.946	-108.914	0.286	-0.061
-380.931	-200.000	-0.017	-0.182
-379.917	-200.000	0.005	-0.205
-378.902	-55.850	0.252	-0.112
-377.888	-200.000	0.009	-0.048
-376.873	-136.803	0.191	0.022
-375.858	-151.811	0.396	-0.029
-374.844	800.000	-0.074	0.282
-373.829	800.000	-0.069	-0.263
-372.815	800.000	0.099	0.381
-371.800	-151.854	-0.287	-0.021
-370.785	-200.000	-0.031	0.169
-369.771	73.236	0.126	-0.131
-368.756	227.716	-0.083	-0.135
-367.742	-54.113	0.019	0.009
-366.727	-148.529	-0.127	-0.010
-365.712	14.659	0.350	0.272
-364.698	262.032	0.085	0.146
-363.683	-117.279	-0.075	-0.014
-362.669	800.000	0.065	0.282
-361.654	-90.540	0.141	0.041
-360.639	-106.727	-0.314	-0.069
-359.625	-91.553	-0.351	-0.099
-358.610	152.537	0.130	0.177
-357.596	-182.829	0.305	-0.005
-356.581	-86.359	-0.236	-0.072
-355.566	333.885	0.041	-0.078
-354.552	-14.370	0.322	0.206
-353.537	498.961	0.135	0.309
-352.523	-60.767	-0.176	0.074
-351.508	-25.642	0.227	-0.133
-350.493	-200.000	-0.003	0.203
-349.479	-136.806	-0.012	0.001
-348.464	-200.000	-0.014	-0.072
-347.450	-42.805	-0.215	-0.108
-346.435	228.026	-0.073	0.119
-345.420	800.000	0.052	0.205
-344.406	-200.000	0.042	-0.265
-343.391	800.000	0.043	0.121
-342.377	-77.569	0.106	-0.037
-341.362	-27.885	0.147	0.085
-340.348	800.000	0.011	0.035
-339.333	-200.000	-0.010	-0.211
-338.318	-200.000	-0.039	0.380
-337.304	-200.000	0.003	0.187
-336.289	28.849	-0.046	0.039
-335.275	72.515	-0.155	0.161
-334.260	4.422	-0.238	0.174
-333.245	766.784	0.028	0.075
-332.231	-112.913	0.127	0.025
-331.216	200.319	0.131	-0.200
-330.202	15.992	-0.219	0.171
-329.187	-46.787	0.453	0.220
-328.172	-36.616	-0.510	0.272
-327.158	-3.895	-0.311	-0.214
-326.143	311.791	0.089	-0.165
-325.129	68.323	-0.167	0.170
-324.114	6.642	-0.187	0.138
-323.099	800.000	0.084	0.231
-322.085	-8.057	-0.477	0.319
-321.070	31.021	-0.094	-0.080
-320.056	455.037	0.123	0.271
-319.041	123.188	-0.066	-0.082
-318.026	-132.696	-0.047	-0.006
-317.012	14.438	0.252	-0.195
-315.997	-104.390	-0.182	0.042
-314.983	-176.131	0.331	0.009
-313.968	-115.116	-0.072	0.014
-312.953	-200.000	0.014	0.089
-311.939	-200.000	0.013	-0.090
-310.924	-13.388	-0.378	0.243
-309.910	-200.000	-0.029	0.304
-308.895	800.000	0.061	0.202
-307.880	123.564	-0.103	-0.128
-306.866	-54.147	0.379	0.171
-305.851	-88.604	-0.318	0.094
-304.837	-21.919	-0.140	0.084
-303.822	-73.735	0.016	0.006
-302.807	-200.000	-0.017	0.336
-301.793	37.403	0.237	-0.209
-300.778	-85.937	-0.079	0.024
-299.764	-33.682	-0.101	0.055
-298.749	-200.000	0.022	0.144
-297.735	-200.000	-0.011	-0.353
-296.720	-113.717	0.140	0.027
-295.705	-154.532	0.358	-0.024
-294.691	-200.000	-0.029	-0.128
-293.676	-7.937	0.227	-0.152
-292.662	-200.000	-0.023	-0.214
-291.647	800.000	-0.057	0.206
-290.632	-126.674	0.300	-0.044
-289.618	256.562	-0.050	-0.085
-288.603	-115.746	-0.186	0.035
-287.589	-145.283	-0.193	0.017
-286.574	212.568	-0.155	0.242
-285.559	372.978	-0.131	0.264
-284.545	467.671	-0.140	-0.311
-283.530	74.711	0.167	-0.174
-282.516	-163.782	-0.124	-0.006
-281.501	135.237	-0.344	-0.443
-280.486	-0.647	0.325	-0.228
-279.472	173.817	0.058	-0.083
-278.457	-118.622	-0.183	0.032
-277.443	-126.290	0.134	0.020
-276.428	-200.000	-0.010	-0.194
-275.413	-200.000	0.018	-0.382
-274.399	-200.000	-0.029	-0.188
-273.384	-40.741	0.255	0.131
-272.370	-43.236	0.081	-0.040
-271.355	800.000	-0.056	0.191
-270.340	124.853	0.095	0.119
-269.326	-200.000	-0.043	0.215
-268.311	800.000	-0.024	-0.095
-267.297	-200.000	-0.047	0.262
-266.282	23.554	0.104	-0.084
-265.267	-0.245	0.095	-0.067
-264.253	-78.660	0.566	-0.191
-263.238	39.282	-0.183	-0.162
-262.224	-45.409	-0.171	-0.084
-261.209	800.000	-0.088	0.265
-260.195	-157.736	-0.136	-0.008
-259.180	-74.620	0.349	0.124
-258.165	-100.306	-0.079	0.019
-257.151	-102.518	-0.090	0.021
-256.136	-200.000	0.006	0.077
-255.122	-200.000	0.011	-0.139
-254.107	-73.456	0.053	-0.019
-253.092	-190.666	-0.553	0.006
-252.078	416.135	-0.305	-0.644
-251.063	114.347	0.160	-0.193
-250.049	374.313	0.229	0.462
-249.034	-14.220	0.350	-0.223
-248.019	-200.000	0.025	-0.492
-247.005	160.794	0.237	0.327
-245.990	138.615	-0.018	0.024
-244.976	-59.868	0.050	0.021
-243.961	-200.000	-0.012	0.203
-242.946	156.505	-0.123	-0.168
-241.932	-85.587	-0.324	-0.100
-240.917	112.150	0.009	-0.010
-239.903	800.000	0.099	0.276
-238.888	-97.591	0.007	0.002
-237.873	-200.000	-0.048	0.356
-236.859	800.000	-0.098	0.381
-235.844	-183.633	-0.444	-0.008
-234.830	-200.000	-0.024	0.185
-233.815	-52.992	0.298	-0.136
-232.800	-92.260	-0.133	0.037
-231.786	800.000	0.013	-0.047
-230.771	-138.166	0.022	0.002
-229.757	21.457	0.301	0.242
-228.742	-18.076	0.239	0.148
-227.727	98.606	-0.181	0.206
-226.713	0.547	0.097	-0.069
-225.698	-76.329	-0.076	0.026
-224.684	-200.000	0.001	0.085
-223.669	-29.557	0.130	-0.073
-222.655	679.750	-0.070	0.181
-221.640	-181.644	-0.235	0.004
-220.625	65.170	0.203	0.202
-219.611	-47.513	0.107	0.051
-218.596	31.762	-0.184	-0.157
-217.582	196.590	0.095	-0.144
-216.567	3.088	0.196	-0.141
-215.552	-31.123	0.108	-0.060
-214.538	800.000	-0.050	-0.183
-213.523	33.137	0.126	-0.108
-212.509	26.088	0.219	-0.180
-211.494	59.783	0.125	0.122
-210.479	-200.000	-0.014	-0.221
-209.465	-200.000	0.064	-0.329
-208.450	210.202	0.184	-0.285
-207.436	-200.000	-0.006	-0.139
-206.421	48.192	-0.238	0.220
-205.406	800.000	-0.145	0.420
-204.392	-200.000	-0.035	0.277
-203.377	-200.000	0.016	-0.187
-202.363	800.000	-0.056	-0.154
-201.348	800.000	0.094	0.339
-200.333	-200.000	0.002	-0.127
-199.319	127.243	0.083	-0.104
-198.304	-151.019	-0.667	0.050
-197.290	297.725	-0.080	0.145
-196.275	126.756	0.104	0.130
-195.260	-200.000	0.038	-0.282
-194.246	-10.844	0.204	-0.133
-193.231	-132.534	-0.372	0.047
-192.217	800.000	-0.059	-0.208
-191.202	-200.000	-0.034	0.347
-190.187	-102.169	-0.069	-0.016
-189.173	169.082	0.138	-0.194
-188.158	800.000	0.058	-0.199
-187.144	7.361	-0.250	0.185
-186.129	-66.716	-0.188	-0.074
-185.114	-200.000	0.024	-0.177
-184.100	-78.925	-0.276	0.093
-183.085	-167.628	0.455	0.018
-182.071	26.185	0.029	0.024
-181.056	-80.166	0.200	0.066
-180.042	48.860	-0.044	-0.041
-179.027	187.034	-0.100	0.147
-178.012	-200.000	0.032	0.171
-176.998	-129.999	0.174	-0.023
-175.983	-200.000	0.017	0.260
-174.969	377.131	-0.102	0.206
-173.954	800.000	-0.080	-0.260
-172.939	800.000	0.087	0.303
-171.925	462.505	-0.073	0.162
-170.910	-60.468	0.192	-0.080
-169.896	255.620	-0.036	0.061
-168.881	-120.756	-0.161	0.027
-167.866	-50.596	0.076	0.035
-166.852	-12.066	0.149	-0.096
-165.837	-64.677	-0.135	-0.054
-164.823	-99.630	0.338	0.084
-163.808	-144.334	-0.203	-0.019
-162.793	795.140	-0.174	0.472
-161.779	-16.989	-0.078	0.049
-160.764	117.258	0.115	0.139
-159.750	189.615	-0.053	0.079
-158.735	-200.000	-0.020	0.305
-157.720	-200.000	0.031	-0.157
-156.706	-105.797	-0.188	0.042
-155.691	800.000	0.051	0.174
-154.677	-200.000	0.032	-0.211
-153.662	-82.388	-0.056	0.018
-152.647	-93.725	-0.254	0.069
-151.633	800.000	0.020	-0.067
-150.618	652.081	0.034	0.085
-149.604	-12.383	0.110	-0.071
-148.589	-135.906	-0.397	0.046
-147.574	-200.000	0.009	0.173
-146.560	36.857	-0.279	-0.243
-145.545	-200.000	-0.008	0.105
-144.531	-200.000	0.057	-0.320
-143.516	20.255	0.215	0.171
-142.502	-181.255	-0.147	0.003
-141.487	-65.472	-0.244	-0.097
-140.472	123.809	0.090	0.112
-139.458	-28.718	-0.118	-0.067
-138.443	575.437	-0.048	0.116
-137.429	-135.439	0.291	0.034
-136.414	-176.114	0.093	0.002
-135.399	20.216	-0.142	0.113
-134.385	-200.000	0.006	-0.116
-133.370	123.303	-0.261	-0.323
-132.356	421.383	0.124	0.263
-131.341	-145.668	-0.249	-0.022
-130.326	-200.000	0.041	0.244
-129.312	-200.000	0.013	0.233
-128.297	800.000	-0.054	-0.178
-127.283	-200.000	0.004	-0.176
-126.268	-43.811	0.153	-0.076
-125.253	141.429	-0.217	0.284
-124.239	-106.465	0.393	-0.086
-123.224	274.465	0.143	0.249
-122.210	800.000	-0.041	0.168
