DTS Sentinel unit serial number:	SN413079Multiplexer serial number:	ORYXHardware model number:	OX4-SRSoftware version number:	ORYX F/W v4.00 Oryx Data Collector v3.7.2.0data status	okinstallation	princeton_trtdifferential loss correction	single-endedforward channel	channel 1reverse channel	N/Adate	2019/09/17time	23:42:35forward acquisition time	60.00reverse acquisition time	0.00gamma	496.2192k internal	0.2340k external	0.2340temperature offset calibration	0.9978default loss term (dB/km)	0.3790temperature slope calibration	1.0000multiplexer offset coefficient	1.0000multiplexer slope coefficient	1.0000fibre end	0.00T internal ref (°C)	24.06T ext. ref 1 (°C)	0.17T ext. ref 2 (°C)	17.52length (m)	temperature (°C)	Stokes	anti-Stokes-747.200	538.666	-0.041	0.099
-746.185	159.166	0.141	0.197
-745.171	-200.000	0.002	0.035
-744.156	144.745	0.123	-0.165
-743.142	-200.000	-0.018	0.173
-742.127	212.385	0.110	0.174
-741.112	-70.003	-0.303	-0.116
-740.098	285.954	-0.178	0.322
-739.083	47.930	-0.115	0.107
-738.069	-29.248	-0.040	0.023
-737.054	33.912	-0.191	-0.167
-736.039	166.617	0.036	0.051
-735.025	-200.000	-0.037	0.190
-734.010	154.477	-0.304	-0.418
-732.996	352.643	0.064	0.126
-731.981	12.812	-0.263	0.204
-730.966	-84.996	-0.248	0.078
-729.952	800.000	-0.058	-0.175
-728.937	-200.000	0.037	0.196
-727.923	26.500	-0.167	-0.140
-726.908	800.000	0.104	-0.400
-725.894	-81.276	-0.270	-0.089
-724.879	-36.451	-0.368	-0.199
-723.864	32.696	0.220	-0.191
-722.850	289.311	0.191	-0.347
-721.835	211.837	-0.112	-0.177
-720.821	800.000	0.066	-0.213
-719.806	391.757	0.027	-0.056
-718.791	-200.000	-0.073	-0.372
-717.777	-200.000	-0.016	0.192
-716.762	-41.679	-0.203	0.105
-715.748	-80.846	0.410	0.136
-714.733	-200.000	-0.052	0.260
-713.718	33.502	-0.255	-0.222
-712.704	-140.301	0.335	0.035
-711.689	-6.063	0.340	-0.233
-710.675	30.607	-0.310	-0.265
-709.660	-81.458	0.233	0.077
-708.645	-125.022	-0.282	-0.043
-707.631	-91.292	0.189	-0.054
-706.616	-200.000	0.054	0.371
-705.602	587.659	-0.035	-0.085
-704.587	-125.780	-0.253	-0.038
-703.572	47.679	0.121	-0.113
-702.558	-111.816	-0.284	-0.058
-701.543	-23.780	0.152	0.091
-700.529	-108.566	-0.279	0.060
-699.514	-200.000	-0.048	0.223
-698.499	18.648	0.083	-0.066
-697.485	-105.485	-0.267	0.061
-696.470	-200.000	0.004	-0.209
-695.456	-200.000	-0.021	0.297
-694.441	-148.875	-0.161	0.013
-693.426	442.060	-0.108	-0.238
-692.412	-103.474	-0.161	0.038
-691.397	390.916	0.049	-0.103
-690.383	-56.504	-0.237	-0.105
-689.368	800.000	-0.130	0.387
-688.354	-200.000	0.005	0.046
-687.339	-66.427	-0.107	-0.043
-686.324	81.664	0.253	-0.274
-685.310	-200.000	-0.058	-0.314
-684.295	-200.000	0.039	-0.187
-683.281	-60.678	-0.062	0.026
-682.266	-83.756	-0.081	-0.026
-681.251	42.832	-0.190	0.173
-680.237	326.049	0.170	-0.325
-679.222	-56.966	-0.109	0.048
-678.208	-67.436	0.114	-0.045
-677.193	-126.221	0.150	-0.023
-676.178	-0.782	0.157	-0.111
-675.164	-105.191	0.243	0.056
-674.149	29.389	0.066	-0.056
-673.135	97.290	0.147	0.169
-672.120	-176.315	-0.111	0.003
-671.105	-17.446	0.103	0.065
-670.091	-19.793	-0.080	0.049
-669.076	-40.208	-0.265	0.138
-668.062	-58.740	-0.022	-0.009
-667.047	-58.804	-0.438	0.190
-666.032	65.907	-0.141	0.143
-665.018	-6.270	0.436	0.298
-664.003	157.595	0.078	0.108
-662.989	-160.700	-0.127	0.007
-661.974	-170.446	-0.126	0.004
-660.959	45.833	-0.064	-0.060
-659.945	-73.814	-0.186	-0.068
-658.930	-200.000	-0.001	-0.186
-657.916	-121.331	0.200	-0.033
-656.901	800.000	-0.031	-0.102
-655.886	-43.377	-0.238	0.120
-654.872	-131.265	0.384	-0.051
-653.857	164.809	-0.072	-0.102
-652.843	73.113	0.066	0.069
-651.828	-200.000	-0.028	-0.139
-650.814	-145.991	-0.256	-0.023
-649.799	180.398	0.157	0.230
-648.784	712.660	-0.051	-0.135
-647.770	800.000	-0.170	-0.468
-646.755	442.041	0.042	-0.091
-645.741	-130.544	-0.156	-0.021
-644.726	452.323	0.153	-0.337
-643.711	36.655	-0.120	-0.106
-642.697	-200.000	-0.029	-0.195
-641.682	-31.863	-0.244	-0.137
-640.668	141.297	-0.185	0.245
-639.653	4.750	0.023	0.017
-638.638	223.975	0.129	0.207
-637.624	800.000	-0.143	-0.420
-636.609	-200.000	0.013	0.508
-635.595	671.468	-0.082	0.212
-634.580	-67.496	-0.200	0.078
-633.565	800.000	-0.119	-0.386
-632.551	-173.772	-0.247	0.007
-631.536	277.783	0.066	-0.117
-630.522	-77.547	-0.216	0.075
-629.507	-123.920	-0.180	-0.028
-628.492	-18.126	-0.158	-0.099
-627.478	9.375	0.212	0.160
-626.463	800.000	-0.061	0.182
-625.449	-72.637	-0.220	0.081
-624.434	-21.540	0.106	-0.065
-623.419	-100.007	0.204	-0.051
-622.405	-105.577	0.196	-0.044
-621.390	-29.821	0.217	0.123
-620.376	93.325	-0.331	0.374
-619.361	18.037	0.112	0.089
-618.346	-200.000	-0.011	-0.142
-617.332	-75.276	0.219	-0.078
-616.317	-146.468	-0.233	-0.020
-615.303	-200.000	0.023	0.632
-614.288	-1.991	-0.044	-0.031
-613.273	478.110	-0.050	-0.113
-612.259	800.000	-0.036	0.101
-611.244	-33.693	0.269	-0.148
-610.230	-37.039	0.140	-0.075
-609.215	-200.000	-0.001	-0.205
-608.201	91.745	0.132	-0.148
-607.186	228.030	-0.153	-0.248
-606.171	126.937	-0.072	0.091
-605.157	-157.749	0.187	0.011
-604.142	277.280	0.110	0.195
-603.128	262.265	-0.066	0.114
-602.113	113.122	0.051	0.062
-601.098	-139.176	0.087	-0.009
-600.084	485.612	0.092	-0.209
-599.069	800.000	0.055	0.210
-598.055	-153.164	0.133	-0.009
-597.040	-32.049	0.170	-0.095
-596.025	142.237	0.118	0.156
-595.011	-200.000	-0.031	-0.295
-593.996	75.279	-0.101	0.106
-592.982	800.000	-0.053	0.222
-591.967	-110.268	0.206	-0.043
-590.952	-61.295	0.257	0.108
-589.938	-92.768	0.214	0.060
-588.923	-110.783	-0.212	-0.044
-587.909	-19.859	0.232	-0.143
-586.894	699.398	-0.053	-0.138
-585.879	-52.102	-0.438	0.203
-584.865	-80.564	-0.399	0.132
-583.850	30.363	0.063	0.054
-582.836	800.000	-0.028	-0.112
-581.821	-65.637	0.185	-0.074
-580.806	187.297	-0.094	-0.140
-579.792	665.512	-0.054	0.139
-578.777	-52.431	-0.165	-0.076
-577.763	37.965	0.464	-0.411
-576.748	-143.178	-0.219	-0.021
-575.733	91.397	-0.088	0.099
-574.719	-124.869	0.087	-0.013
-573.704	71.511	-0.233	0.241
-572.690	-159.518	0.261	0.014
-571.675	36.800	0.072	0.063
-570.661	-32.163	-0.203	-0.113
-569.646	1.760	0.025	0.018
-568.631	15.056	0.077	-0.060
-567.617	356.200	0.048	-0.095
-566.602	-200.000	0.005	0.137
-565.588	0.896	0.170	0.121
-564.573	359.481	0.075	0.150
-563.558	2.163	-0.278	0.200
-562.544	167.289	0.122	-0.173
-561.529	800.000	0.023	0.092
-560.515	-114.150	0.182	-0.035
-559.500	-39.262	-0.117	-0.061
-558.485	-200.000	0.007	0.180
-557.471	-200.000	-0.015	0.143
-556.456	50.333	-0.085	0.080
-555.442	171.993	0.113	0.162
-554.427	4.078	0.091	0.066
-553.412	-95.314	-0.075	-0.020
-552.398	-200.000	0.004	-0.449
-551.383	-35.169	-0.134	-0.073
-550.369	534.533	0.135	0.320
-549.354	-73.604	0.159	-0.058
-548.339	-5.666	-0.145	-0.099
-547.325	-50.782	-0.122	-0.057
-546.310	114.911	-0.121	-0.147
-545.296	-156.610	-0.305	-0.019
-544.281	-23.635	-0.344	-0.205
-543.266	-92.194	0.264	0.074
-542.252	158.360	0.212	-0.292
-541.237	29.367	-0.128	-0.109
-540.223	-44.570	-0.172	0.086
-539.208	-12.736	-0.375	0.243
-538.193	92.615	0.164	0.184
-537.179	276.447	0.112	-0.198
-536.164	13.208	-0.116	0.089
-535.150	-94.088	-0.259	0.071
-534.135	20.751	-0.094	-0.076
-533.121	-173.899	0.104	-0.003
-532.106	800.000	-0.055	-0.191
-531.091	331.715	-0.127	0.243
-530.077	-168.925	0.062	0.002
-529.062	48.613	0.070	0.065
-528.048	-150.790	0.561	0.042
-527.033	-147.404	-0.285	-0.024
-526.018	122.526	0.260	-0.323
-525.004	-116.958	-0.127	-0.023
-523.989	-140.368	0.233	0.024
-522.975	704.797	0.076	-0.200
-521.960	-75.289	0.335	-0.119
-520.945	800.000	-0.052	0.162
-519.931	-121.454	-0.092	-0.015
-518.916	-143.821	0.327	-0.031
-517.902	26.714	-0.077	-0.064
-516.887	99.850	-0.215	-0.247
-515.872	-200.000	0.003	0.150
-514.858	-46.211	-0.157	-0.077
-513.843	182.659	-0.276	-0.405
-512.829	267.296	0.147	-0.256
-511.814	-185.461	0.367	0.006
-510.799	-200.000	0.021	0.118
-509.785	239.610	-0.096	-0.159
-508.770	33.048	0.226	0.194
-507.756	-47.287	0.076	-0.037
-506.741	-47.638	-0.259	-0.125
-505.726	-119.428	0.051	-0.009
-504.712	366.432	-0.105	-0.211
-503.697	235.365	0.079	-0.130
-502.683	204.555	0.082	-0.127
-501.668	-200.000	0.001	-0.305
-500.653	247.612	0.105	0.175
-499.639	114.376	0.189	0.228
-498.624	-57.088	0.222	0.097
-497.610	-117.939	-0.346	-0.062
-496.595	356.851	0.075	-0.149
-495.581	51.931	-0.253	0.240
-494.566	-153.458	0.277	-0.019
-493.551	23.398	-0.131	-0.107
-492.537	19.049	0.135	0.107
-491.522	-200.000	0.015	0.253
-490.508	-142.419	-0.264	-0.026
-489.493	37.380	-0.248	-0.218
-488.478	-75.242	-0.264	0.093
-487.464	-98.884	0.186	-0.047
-486.449	9.889	-0.160	0.120
-485.435	-136.679	-0.063	-0.007
-484.420	-41.510	0.135	0.069
-483.405	-54.808	0.242	0.109
-482.391	147.266	-0.151	0.202
-481.376	-86.163	-0.197	-0.060
-480.362	-153.272	0.329	0.023
-479.347	315.996	0.159	0.299
-478.332	-200.000	0.006	-0.183
-477.318	-200.000	0.007	-0.370
-476.303	-63.276	-0.112	-0.046
-475.289	-200.000	-0.079	0.357
-474.274	-137.459	-0.227	-0.025
-473.259	-30.778	-0.143	0.080
-472.245	-129.414	-0.251	-0.035
-471.230	-61.577	-0.138	0.058
-470.216	-123.162	0.210	0.033
-469.201	11.884	0.245	0.187
-468.186	-13.485	-0.088	-0.057
-467.172	-177.345	-0.028	0.001
-466.157	800.000	0.128	0.431
-465.143	-200.000	-0.033	0.202
-464.128	-200.000	-0.003	0.058
-463.113	132.219	-0.121	0.155
-462.099	-131.825	-0.348	0.045
-461.084	224.473	0.089	-0.142
-460.070	-64.359	-0.058	0.023
-459.055	800.000	0.055	0.214
-458.040	-60.987	-0.089	0.037
-457.026	398.283	-0.140	0.290
-456.011	800.000	-0.035	-0.101
-454.997	-151.497	-0.199	0.015
-453.982	-8.967	0.109	0.072
-452.968	165.056	-0.171	-0.239
-451.953	36.504	0.052	0.046
-450.938	-32.786	-0.134	-0.074
-449.924	698.865	0.106	-0.276
-448.909	304.249	0.101	-0.186
-447.895	-101.515	-0.505	-0.122
-446.880	-200.000	-0.027	-0.143
-445.865	348.493	-0.129	-0.253
-444.851	-81.008	0.452	0.149
-443.836	-43.473	-0.167	0.083
-442.822	435.412	-0.128	-0.276
-441.807	25.549	0.261	-0.215
-440.792	-200.000	0.027	0.120
-439.778	-44.575	-0.059	0.029
-438.763	800.000	-0.058	-0.170
-437.749	-118.060	-0.246	-0.044
-436.734	-55.356	0.269	0.120
-435.719	-88.083	0.287	-0.085
-434.705	-146.453	-0.255	-0.022
-433.690	501.862	-0.061	-0.140
-432.676	32.400	0.146	0.125
-431.661	-200.000	0.020	0.317
-430.646	132.749	-0.229	0.293
-429.632	72.590	0.254	0.263
-428.617	-9.911	0.154	0.102
-427.603	88.551	-0.135	0.149
-426.588	-200.000	-0.032	0.403
-425.573	-45.595	0.089	0.044
-424.559	211.719	-0.181	0.282
-423.544	-200.000	0.010	-0.293
-422.530	389.526	-0.064	0.132
-421.515	-15.712	0.199	-0.126
-420.500	-86.861	0.159	0.048
-419.486	-200.000	0.015	-0.112
-418.471	-200.000	-0.022	0.273
-417.457	607.975	0.039	0.096
-416.442	-9.736	-0.152	0.100
-415.428	633.582	0.108	-0.272
-414.413	1.166	-0.326	0.232
-413.398	41.910	-0.201	0.180
-412.384	93.792	-0.058	-0.066
-411.369	-200.000	0.043	0.309
-410.355	176.808	0.081	0.117
-409.340	1.372	0.370	0.264
-408.325	87.823	-0.347	0.380
-407.311	-75.671	-0.151	-0.053
-406.296	-26.297	-0.224	-0.130
-405.282	120.205	0.059	0.073
-404.267	-41.202	-0.203	0.104
-403.252	-73.354	-0.223	-0.081
-402.238	93.499	0.136	0.152
-401.223	-141.738	-0.108	0.011
-400.209	306.883	0.100	0.185
-399.194	-77.262	0.416	-0.143
-398.179	33.648	-0.195	0.168
-397.165	-51.371	0.139	-0.065
-396.150	346.318	0.067	-0.130
-395.136	21.330	-0.249	-0.200
-394.121	-200.000	0.021	0.444
-393.106	800.000	-0.035	0.110
-392.092	-54.697	-0.089	0.040
-391.077	-9.049	-0.234	-0.155
-390.063	-31.235	-0.400	-0.223
-389.048	-68.866	0.268	-0.102
-388.033	365.197	-0.166	0.331
-387.019	786.410	0.133	0.360
-386.004	-200.000	-0.045	-0.223
-384.990	3.469	-0.095	0.068
-383.975	560.030	-0.059	0.140
-382.960	-78.193	0.321	-0.109
-381.946	240.975	0.042	-0.070
-380.931	29.094	-0.316	0.265
-379.917	-200.000	0.068	0.307
-378.902	-92.071	-0.154	-0.043
-377.888	17.932	-0.173	-0.136
-376.873	213.708	-0.063	-0.099
-375.858	-54.680	0.027	-0.012
-374.844	567.253	-0.140	-0.336
-373.829	-70.569	-0.152	-0.057
-372.815	65.493	0.062	-0.062
-371.800	214.073	0.175	-0.273
-370.785	94.087	-0.094	-0.106
-369.771	-46.521	-0.353	0.171
-368.756	145.694	-0.178	0.235
-367.742	-200.000	-0.014	-0.253
-366.727	-155.460	0.212	0.014
-365.712	113.394	-0.296	-0.355
-364.698	263.322	0.148	-0.254
-363.683	485.759	-0.035	-0.078
-362.669	29.575	-0.259	0.217
-361.654	-186.874	-0.080	-0.001
-360.639	-15.502	0.059	0.037
-359.625	-127.446	0.068	0.010
-358.610	-200.000	-0.007	-0.099
-357.596	-200.000	-0.011	0.179
-356.581	-49.010	-0.027	0.013
-355.566	-25.690	0.188	-0.110
-354.552	525.194	-0.074	-0.173
-353.537	800.000	0.059	0.207
-352.523	264.143	0.089	0.153
-351.508	-58.967	0.174	-0.074
-350.493	-108.359	0.421	-0.090
-349.479	29.150	0.049	-0.041
-348.464	-50.856	0.122	0.056
-347.450	3.817	0.207	-0.149
-346.435	266.502	0.106	-0.183
-345.420	-189.751	0.126	0.001
-344.406	38.693	-0.421	-0.371
-343.391	166.282	-0.086	0.120
-342.377	-174.818	-0.211	-0.006
-341.362	-58.122	-0.079	-0.034
-340.348	800.000	-0.015	0.041
-339.333	265.484	0.226	-0.389
-338.318	217.314	0.072	0.113
-337.304	8.254	0.114	0.085
-336.289	1.856	-0.210	0.150
-335.275	310.145	-0.234	-0.432
-334.260	-128.272	-0.250	-0.035
-333.245	52.908	0.103	0.097
-332.231	-132.253	0.201	-0.026
-331.216	-200.000	-0.003	-0.024
-330.202	-72.855	-0.264	-0.096
-329.187	-102.292	-0.272	0.064
-328.172	800.000	0.012	-0.034
-327.158	63.328	-0.125	-0.123
-326.143	-106.943	-0.190	0.041
-325.129	-87.546	0.225	-0.067
-324.114	575.433	0.033	-0.078
-323.099	800.000	-0.060	0.172
-322.085	-101.751	0.161	-0.039
-321.070	413.765	0.184	-0.387
-320.056	-128.144	0.237	0.033
-319.041	-1.522	0.044	0.031
-318.026	-200.000	-0.001	0.194
-317.012	92.277	0.305	0.339
-315.997	-200.000	-0.044	-0.225
-314.983	45.594	-0.283	-0.258
-313.968	-200.000	-0.049	-0.246
-312.953	423.178	0.093	-0.198
-311.939	26.449	-0.146	0.121
-310.924	128.455	-0.047	-0.059
-309.910	-200.000	-0.064	0.470
-308.895	-75.520	0.468	-0.164
-307.880	-116.810	0.195	0.035
-306.866	-28.586	0.159	-0.090
-305.851	-118.106	-0.378	-0.067
-304.837	-64.463	0.294	0.118
-303.822	98.882	-0.135	-0.153
-302.807	44.847	0.179	0.162
-301.793	-136.909	-0.076	-0.009
-300.778	-200.000	0.002	0.283
-299.764	-172.985	0.208	-0.006
-298.749	151.236	-0.154	-0.207
-297.735	-200.000	0.013	-0.095
-296.720	585.524	0.189	-0.458
-295.705	149.283	0.118	-0.157
-294.691	-137.220	0.134	-0.015
-293.676	-34.802	-0.272	0.146
-292.662	67.465	0.158	0.159
-291.647	741.102	0.012	0.031
-290.632	737.446	-0.134	0.353
-289.618	-200.000	-0.051	0.510
-288.603	468.357	0.033	0.073
-287.589	-200.000	0.004	0.017
-286.574	800.000	-0.078	0.250
-285.559	800.000	0.099	-0.292
-284.545	-150.656	0.203	0.015
-283.530	514.184	-0.112	0.257
-282.516	800.000	0.128	0.404
-281.501	45.804	-0.089	-0.081
-280.486	1.680	0.223	0.158
-279.472	15.592	0.072	-0.056
-278.457	-33.036	-0.387	-0.211
-277.443	-6.179	0.152	-0.102
-276.428	-2.766	-0.083	0.057
-275.413	-42.803	-0.145	-0.072
-274.399	68.444	-0.257	-0.259
-273.384	16.973	-0.063	-0.049
-272.370	703.526	0.056	-0.147
-271.355	-200.000	-0.011	-0.094
-270.340	594.525	0.003	0.006
-269.326	47.315	-0.052	0.048
-268.311	-200.000	0.007	0.119
-267.297	129.893	0.091	-0.114
-266.282	-74.695	-0.217	-0.077
-265.267	-200.000	-0.004	0.120
-264.253	122.372	0.096	0.118
-263.238	128.191	-0.047	0.059
-262.224	612.867	0.039	-0.096
-261.209	109.257	-0.023	-0.027
-260.195	-99.524	0.075	0.018
-259.180	75.806	0.267	0.277
-258.165	54.641	-0.130	0.123
-257.151	-49.027	-0.144	-0.068
-256.136	-200.000	0.020	-0.094
-255.122	-103.645	-0.268	-0.062
-254.107	103.619	-0.145	-0.167
-253.092	528.687	-0.130	0.301
-252.078	110.160	-0.110	0.130
-251.063	-88.953	0.315	0.092
-250.049	417.101	-0.127	-0.266
-249.034	-141.517	0.216	-0.021
-248.019	39.392	-0.223	0.196
-247.005	203.246	-0.179	-0.272
-245.990	-19.776	0.193	0.117
-244.976	800.000	0.038	-0.102
-243.961	215.160	-0.044	0.069
-242.946	19.650	0.131	-0.104
-241.932	800.000	0.078	-0.317
-240.917	29.044	0.206	-0.172
-239.903	-58.142	-0.205	0.088
-238.888	800.000	0.091	-0.276
-237.873	-26.418	0.310	-0.179
-236.859	220.151	-0.192	0.303
-235.844	524.838	-0.084	0.195
-234.830	64.284	-0.056	-0.056
-233.815	-200.000	-0.026	0.125
-232.800	206.156	0.032	-0.049
-231.786	-200.000	0.003	-0.236
-230.771	-175.628	0.242	0.006
-229.757	-127.102	0.223	-0.032
-228.742	-200.000	-0.169	-0.001
-227.727	-172.732	-0.176	-0.005
-226.713	-92.420	-0.020	-0.005
-225.698	-200.000	0.020	0.117
-224.684	800.000	0.105	-0.394
-223.669	122.716	-0.091	0.112
-222.655	-107.129	-0.332	0.072
-221.640	47.413	-0.151	-0.139
-220.625	-200.000	-0.004	-0.344
-219.611	-200.000	0.085	0.391
-218.596	-200.000	-0.013	-0.116
-217.582	25.539	-0.271	0.221
-216.567	-161.577	-0.110	0.006
-215.552	-158.634	-0.138	0.008
-214.538	532.822	0.021	-0.050
-213.523	-199.864	-0.017	0.000
-212.509	-98.548	0.203	-0.051
-211.494	-66.010	0.230	0.090
-210.479	-139.531	-0.096	-0.010
-209.465	-41.186	0.230	0.117
-208.450	300.567	-0.157	0.284
-207.436	800.000	0.047	0.141
-206.421	-158.351	0.336	0.019
-205.406	-200.000	0.008	0.098
-204.392	800.000	-0.011	0.048
-203.377	-200.000	0.050	-0.456
-202.363	-200.000	-0.023	-0.420
-201.348	69.218	-0.245	-0.248
-200.333	-185.688	-0.225	0.003
-199.319	800.000	-0.020	0.071
-198.304	394.026	-0.152	0.310
-197.290	55.360	0.230	-0.218
-196.275	54.849	-0.217	-0.205
-195.260	45.535	-0.277	0.251
-194.246	243.545	0.127	0.209
-193.231	353.102	0.161	0.313
-192.217	48.156	0.121	0.111
-191.202	-126.755	0.124	-0.018
-190.187	-98.127	0.169	-0.043
-189.173	-173.879	-0.268	-0.008
-188.158	-200.000	0.028	-0.324
-187.144	84.212	-0.156	-0.167
-186.129	381.075	0.147	0.296
-185.114	465.709	0.105	0.230
-184.100	255.028	0.255	0.428
-183.085	-31.477	-0.113	0.062
-182.071	800.000	0.073	0.217
-181.056	-200.000	-0.002	-0.181
-180.042	-34.544	0.070	-0.037
-179.027	-176.044	0.249	-0.006
-178.012	800.000	0.027	0.109
-176.998	272.955	-0.139	-0.241
-175.983	-55.971	0.350	-0.153
-174.969	27.042	0.173	0.143
-173.954	-200.000	0.004	-0.097
-172.939	46.016	0.175	0.159
-171.925	201.036	0.124	-0.188
-170.910	547.350	0.171	-0.400
-169.896	-125.645	0.176	-0.026
-168.881	323.804	0.067	-0.126
-167.866	1.113	0.177	0.125
-166.852	-200.000	0.022	0.355
-165.837	145.685	0.226	-0.297
-164.823	35.372	-0.067	-0.058
-163.808	96.858	-0.077	-0.087
-162.793	-13.239	0.073	0.046
-161.779	75.834	0.197	0.204
-160.764	-106.367	0.027	-0.006
-159.750	-91.835	0.199	-0.055
-158.735	-63.904	0.275	0.110
-157.720	-200.000	-0.008	-0.378
-156.706	-200.000	0.060	-0.318
-155.691	-123.804	0.108	-0.017
-154.677	-200.000	-0.007	-0.176
-153.662	-31.298	0.317	0.175
-152.647	-166.944	0.419	-0.017
-151.633	466.809	0.050	0.109
-150.618	-200.000	-0.002	-0.138
-149.604	-148.275	-0.265	0.021
-148.589	800.000	0.076	0.262
-147.574	800.000	-0.113	0.374
-146.560	457.228	0.144	-0.313
-145.545	146.955	0.071	-0.094
-144.531	171.347	-0.262	0.368
-143.516	-159.161	-0.071	0.004
-142.502	198.846	0.215	-0.322
-141.487	249.467	-0.092	0.153
-140.472	-200.000	0.033	-0.175
-139.458	-196.853	0.147	0.001
-138.443	800.000	0.141	0.433
-137.429	-107.440	-0.239	0.051
-136.414	-63.638	-0.194	-0.078
-135.399	27.560	-0.173	0.142
-134.385	-200.000	-0.002	0.269
-133.370	-83.199	0.095	-0.030
-132.356	-200.000	-0.015	0.193
-131.341	-200.000	-0.027	-0.291
-130.326	100.467	-0.109	0.124
-129.312	-200.000	0.038	0.413
-128.297	436.381	0.195	-0.416
-127.283	70.575	-0.311	-0.314
-126.268	-99.738	-0.279	-0.068
-125.253	161.019	-0.137	0.188
-124.239	-63.001	-0.183	-0.074
-123.224	800.000	-0.059	-0.206
-122.210	-200.000	0.033	0.203
-121.195	800.000	-0.031	-0.095
