DTS Sentinel unit serial number:	SN413079Multiplexer serial number:	ORYXHardware model number:	OX4-SRSoftware version number:	ORYX F/W v4.00 Oryx Data Collector v3.7.2.0data status	okinstallation	princeton_trtdifferential loss correction	single-endedforward channel	channel 1reverse channel	N/Adate	2019/09/16time	19:02:35forward acquisition time	60.00reverse acquisition time	0.00gamma	496.2192k internal	0.2311k external	0.2311temperature offset calibration	0.9943default loss term (dB/km)	0.3790temperature slope calibration	1.0000multiplexer offset coefficient	1.0000multiplexer slope coefficient	1.0000fibre end	0.00T internal ref (°C)	35.52T ext. ref 1 (°C)	0.06T ext. ref 2 (°C)	28.70length (m)	temperature (°C)	Stokes	anti-Stokes-747.200	191.404	0.132	-0.202
-746.185	8.907	-0.227	0.174
-745.171	-95.393	0.334	0.091
-744.156	800.000	-0.081	0.279
-743.142	648.453	0.031	-0.080
-742.127	505.857	0.118	0.278
-741.112	800.000	-0.067	0.192
-740.098	-200.000	0.018	0.154
-739.083	18.023	0.099	0.080
-738.069	-70.285	-0.168	-0.065
-737.054	-91.658	-0.099	0.029
-736.039	350.705	-0.056	0.113
-735.025	-159.057	0.306	-0.018
-734.010	-200.000	-0.013	-0.222
-732.996	-200.000	-0.010	0.048
-731.981	131.462	-0.201	-0.262
-730.966	-41.998	0.035	0.018
-729.952	-162.790	-0.272	-0.013
-728.937	10.844	-0.182	-0.141
-727.923	-200.000	-0.004	-0.112
-726.908	-109.813	-0.149	-0.032
-725.894	-200.000	0.036	0.218
-724.879	-92.090	-0.205	0.059
-723.864	-144.176	0.231	0.022
-722.850	5.545	-0.253	0.190
-721.835	-200.000	0.017	0.090
-720.821	-200.000	-0.018	-0.220
-719.806	9.902	0.056	-0.043
-718.791	66.325	0.092	-0.095
-717.777	-4.127	0.026	-0.018
-716.762	669.783	0.070	0.183
-715.748	-48.388	0.238	-0.116
-714.733	800.000	-0.084	-0.312
-713.718	-85.127	0.069	-0.022
-712.704	485.423	0.141	-0.325
-711.689	155.581	0.165	0.230
-710.675	-29.137	0.055	0.032
-709.660	34.844	-0.218	-0.193
-708.645	800.000	0.013	-0.046
-707.631	-200.000	-0.010	0.064
-706.616	-200.000	0.005	0.074
-705.602	134.676	0.124	-0.163
-704.587	-123.110	0.197	-0.032
-703.572	-2.752	-0.306	-0.217
-702.558	-55.872	-0.086	-0.039
-701.543	120.748	0.154	-0.194
-700.529	-109.317	-0.497	0.107
-699.514	-53.681	0.275	0.127
-698.499	332.303	-0.076	0.148
-697.485	93.576	0.161	-0.184
-696.470	26.154	0.195	-0.165
-695.456	157.731	0.187	-0.262
-694.441	146.277	-0.119	-0.161
-693.426	76.595	-0.171	0.184
-692.412	-115.923	0.387	-0.073
-691.397	47.076	-0.200	0.188
-690.383	-37.054	0.220	0.119
-689.368	-200.000	0.020	0.100
-688.354	342.047	-0.096	0.190
-687.339	514.040	0.123	0.290
-686.324	444.738	-0.084	-0.187
-685.310	-200.000	-0.008	-0.119
-684.295	-200.000	0.031	-0.326
-683.281	-107.825	-0.201	-0.044
-682.266	-80.141	0.369	-0.125
-681.251	-200.000	-0.037	0.171
-680.237	145.836	0.030	0.040
-679.222	407.514	-0.092	-0.197
-678.208	-13.102	0.216	-0.142
-677.193	-70.892	0.166	0.063
-676.178	67.951	-0.143	0.148
-675.164	99.772	-0.275	-0.322
-674.149	174.766	-0.078	0.115
-673.135	-32.004	0.150	-0.085
-672.120	-30.982	-0.130	-0.074
-671.105	-78.589	-0.337	-0.117
-670.091	101.861	0.090	-0.106
-669.076	-137.613	-0.097	-0.011
-668.062	-200.000	0.020	-0.200
-667.047	-110.450	0.422	0.089
-666.032	-200.000	0.014	0.259
-665.018	-161.582	0.133	0.007
-664.003	-200.000	-0.041	-0.212
-662.989	162.409	-0.013	-0.019
-661.974	800.000	0.037	-0.119
-660.959	-90.874	0.215	-0.063
-659.945	-140.153	-0.497	0.053
-658.930	-47.743	-0.231	-0.113
-657.916	117.737	0.171	-0.213
-656.901	-200.000	0.058	-0.315
-655.886	-200.000	0.002	-0.085
-654.872	-108.489	-0.335	-0.073
-653.857	143.945	0.317	-0.428
-652.843	331.158	-0.072	0.140
-651.828	26.322	-0.100	0.085
-650.814	800.000	-0.045	-0.151
-649.799	-200.000	-0.011	0.099
-648.784	-110.043	0.070	-0.015
-647.770	68.290	0.309	-0.320
-646.755	-173.287	-0.137	0.004
-645.741	320.705	0.101	-0.195
-644.726	-9.878	0.150	-0.101
-643.711	576.706	0.084	-0.208
-642.697	56.048	-0.194	0.190
-641.682	-168.258	-0.141	-0.006
-640.668	350.399	0.086	-0.172
-639.653	800.000	0.058	-0.256
-638.638	75.026	0.165	-0.176
-637.624	-47.121	-0.161	-0.079
-636.609	117.963	-0.152	0.189
-635.595	163.861	0.180	0.256
-634.580	103.411	-0.132	0.156
-633.565	800.000	0.113	-0.335
-632.551	193.072	-0.091	-0.139
-631.536	31.930	-0.195	-0.170
-630.522	-200.000	-0.043	-0.288
-629.507	-17.091	0.169	-0.108
-628.492	-125.377	0.146	0.022
-627.478	370.767	-0.126	-0.257
-626.463	-200.000	-0.050	0.227
-625.449	800.000	0.123	-0.458
-624.434	-51.402	0.078	-0.037
-623.419	-182.894	0.121	0.002
-622.405	800.000	-0.039	0.121
-621.390	800.000	-0.092	0.338
-620.376	187.520	-0.108	-0.163
-619.361	-51.099	-0.169	0.080
-618.346	194.495	0.118	0.180
-617.332	196.705	-0.189	0.291
-616.317	-200.000	0.014	0.261
-615.303	-200.000	-0.013	-0.335
-614.288	11.784	-0.074	-0.058
-613.273	800.000	-0.063	-0.187
-612.259	14.452	0.138	-0.109
-611.244	32.386	0.068	-0.059
-610.230	-119.306	0.034	-0.006
-609.215	-119.822	0.177	-0.031
-608.201	223.518	-0.107	-0.174
-607.186	-10.193	0.359	0.241
-606.171	-72.519	-0.088	0.033
-605.157	800.000	-0.142	-0.418
-604.142	-200.000	-0.012	-0.445
-603.128	-200.000	0.007	0.249
-602.113	118.493	-0.347	-0.432
-601.098	-66.074	0.174	0.070
-600.084	800.000	-0.058	-0.216
-599.069	413.185	0.101	-0.216
-598.055	-200.000	-0.009	0.175
-597.040	10.317	-0.169	-0.130
-596.025	800.000	0.059	-0.220
-595.011	237.852	0.198	-0.331
-593.996	-200.000	0.000	-0.135
-592.982	-200.000	0.038	0.215
-591.967	135.618	-0.136	0.179
-590.952	-134.453	-0.544	0.067
-589.938	735.182	0.056	0.151
-588.923	-48.308	-0.214	-0.104
-587.909	-200.000	-0.047	0.224
-586.894	68.546	0.242	0.250
-585.879	-200.000	0.063	-0.345
-584.865	-40.731	-0.219	-0.115
-583.850	-200.000	-0.014	-0.143
-582.836	80.248	0.097	-0.105
-581.821	63.891	0.098	0.100
-580.806	-200.000	0.034	-0.229
-579.792	-200.000	0.075	-0.337
-578.777	-200.000	0.031	-0.207
-577.763	620.522	-0.112	0.284
-576.748	119.298	-0.042	0.053
-575.733	465.739	-0.139	0.313
-574.719	-200.000	0.014	-0.067
-573.704	511.482	-0.046	0.109
-572.690	-28.958	0.308	0.178
-571.675	38.751	0.243	-0.219
-570.661	83.633	0.093	0.102
-569.646	65.021	0.212	0.216
-568.631	-83.572	0.041	0.013
-567.617	-79.530	-0.285	0.097
-566.602	-75.146	-0.242	-0.087
-565.588	-116.381	-0.549	-0.102
-564.573	415.378	0.152	-0.327
-563.558	79.097	-0.042	0.045
-562.544	34.063	-0.092	0.081
-561.529	800.000	-0.031	0.128
-560.515	293.590	-0.111	0.205
-559.500	-8.528	-0.111	-0.075
-558.485	-200.000	-0.046	0.401
-557.471	-5.096	0.305	0.211
-556.456	800.000	0.094	-0.324
-555.442	-200.000	-0.090	0.456
-554.427	-67.846	-0.385	-0.152
-553.412	-48.011	-0.218	-0.106
-552.398	-0.607	-0.173	0.124
-551.383	-200.000	-0.015	-0.239
-550.369	597.397	-0.123	-0.308
-549.354	800.000	-0.053	-0.156
-548.339	44.220	-0.214	-0.198
-547.325	-191.534	-0.303	-0.003
-546.310	-64.085	0.230	-0.094
-545.296	-200.000	0.002	-0.285
-544.281	498.637	-0.110	0.255
-543.266	-200.000	-0.056	0.425
-542.252	7.749	-0.108	-0.081
-541.237	96.702	-0.103	-0.119
-540.223	105.569	-0.201	-0.239
-539.208	-200.000	0.028	-0.211
-538.193	-119.402	0.135	0.024
-537.179	800.000	-0.046	-0.203
-536.164	-19.681	-0.258	-0.161
-535.150	389.885	0.094	0.196
-534.135	-35.200	-0.333	0.183
-533.121	137.953	-0.107	-0.142
-532.106	800.000	0.029	-0.086
-531.091	-114.463	-0.131	0.025
-530.077	-72.386	0.198	0.074
-529.062	151.358	0.067	0.092
-528.048	315.713	0.123	-0.234
-527.033	37.449	0.125	-0.112
-526.018	320.120	0.080	0.153
-525.004	243.388	0.141	-0.239
-523.989	-55.687	0.109	-0.049
-522.975	327.407	0.067	-0.130
-521.960	308.935	-0.046	-0.086
-520.945	-57.475	0.102	-0.045
-519.931	10.503	0.196	0.150
-518.916	33.013	0.077	0.067
-517.902	64.050	-0.114	0.116
-516.887	-200.000	0.033	-0.322
-515.872	201.951	-0.084	-0.130
-514.858	-127.314	0.226	-0.033
-513.843	55.157	-0.122	0.119
-512.829	201.313	-0.075	0.116
-511.814	101.026	0.143	0.168
-510.799	483.111	-0.065	0.148
-509.785	-84.449	-0.398	0.126
-508.770	414.671	0.128	0.273
-507.756	-187.160	-0.110	-0.002
-506.741	155.670	0.055	-0.076
-505.726	-128.523	-0.219	-0.031
-504.712	20.085	-0.240	-0.195
-503.697	-14.733	0.174	-0.112
-502.683	800.000	-0.102	-0.334
-501.668	-100.851	-0.369	-0.091
-500.653	-106.403	-0.254	-0.057
-499.639	-200.000	0.013	-0.153
-498.624	-126.367	0.444	0.067
-497.610	-200.000	0.022	0.099
-496.595	43.233	-0.124	0.114
-495.581	-45.097	-0.173	-0.086
-494.566	-200.000	-0.006	-0.196
-493.551	616.815	0.058	0.146
-492.537	800.000	0.064	0.216
-491.522	18.701	0.117	-0.094
-490.508	-188.297	-0.203	0.003
-489.493	183.072	-0.089	-0.132
-488.478	44.502	-0.181	-0.167
-487.464	-20.397	-0.148	-0.091
-486.449	-200.000	-0.014	0.167
-485.435	-175.594	-0.255	0.007
-484.420	-200.000	0.019	-0.285
-483.405	-2.822	0.016	0.011
-482.391	-200.000	-0.011	0.201
-481.376	-134.687	-0.150	0.018
-480.362	800.000	0.056	0.163
-479.347	-12.052	0.015	0.010
-478.332	-81.311	-0.118	0.039
-477.318	266.126	0.111	-0.194
-476.303	81.617	-0.072	-0.078
-475.289	-71.677	0.238	0.089
-474.274	-128.465	0.130	-0.019
-473.259	-81.762	-0.390	0.128
-472.245	48.525	0.105	0.099
-471.230	60.431	0.222	0.221
-470.216	-42.977	-0.239	0.122
-469.201	-184.115	0.189	-0.003
-468.186	-200.000	-0.022	-0.102
-467.172	-200.000	-0.063	-0.429
-466.157	146.975	0.181	0.244
-465.143	104.202	-0.106	-0.125
-464.128	4.262	-0.318	-0.234
-463.113	800.000	0.063	0.221
-462.099	-12.321	-0.122	0.080
-461.084	-42.135	0.261	0.134
-460.070	-155.974	-0.316	0.020
-459.055	6.892	-0.072	0.054
-458.040	8.143	-0.112	0.084
-457.026	91.963	0.174	-0.196
-456.011	800.000	0.048	0.138
-454.997	800.000	-0.065	-0.207
-453.982	-191.602	0.198	0.002
-452.968	80.606	0.117	0.127
-451.953	-91.758	0.072	0.021
-450.938	-150.548	0.364	-0.028
-449.924	-165.136	0.116	-0.005
-448.909	440.749	0.108	0.236
-447.895	-101.579	-0.109	-0.027
-446.880	-1.823	0.311	0.220
-445.865	-57.677	-0.203	0.089
-444.851	-52.802	0.120	0.056
-443.836	-12.328	0.184	0.120
-442.822	354.960	-0.024	-0.047
-441.807	-50.591	-0.287	0.136
-440.792	800.000	0.089	-0.263
-439.778	-17.567	-0.368	0.232
-438.763	-160.975	0.394	0.021
-437.749	-57.193	0.142	0.063
-436.734	715.429	-0.060	0.159
-435.719	-8.193	0.181	0.122
-434.705	188.046	0.263	0.394
-433.690	800.000	-0.065	-0.230
-432.676	800.000	-0.051	-0.191
-431.661	-52.258	0.102	0.047
-430.646	-37.449	-0.374	0.200
-429.632	-21.268	-0.209	0.128
-428.617	-200.000	0.012	-0.165
-427.603	-200.000	-0.080	0.397
-426.588	-157.310	0.237	0.014
-425.573	44.821	-0.091	0.084
-424.559	586.606	0.115	-0.283
-423.544	116.737	0.169	-0.208
-422.530	-52.041	-0.129	0.060
-421.515	-16.745	0.127	-0.080
-420.500	-108.563	0.315	-0.068
-419.486	189.195	-0.091	-0.136
-418.471	310.689	-0.287	0.538
-417.457	-136.614	0.175	0.020
-416.442	-200.000	-0.001	-0.045
-415.428	-28.938	0.107	0.061
-414.413	416.575	-0.139	-0.296
-413.398	800.000	0.037	-0.159
-412.384	-120.963	0.123	-0.021
-411.369	541.427	-0.030	-0.072
-410.355	87.250	0.170	0.188
-409.340	-83.119	-0.117	0.038
-408.325	-107.078	0.257	-0.057
-407.311	-71.595	-0.166	-0.062
-406.296	800.000	0.101	0.339
-405.282	-155.205	0.380	0.025
-404.267	-200.000	-0.053	-0.262
-403.252	-12.684	-0.119	0.078
-402.238	210.161	-0.117	0.183
-401.223	-49.707	-0.236	-0.112
-400.209	9.051	-0.219	0.166
-399.194	256.013	0.157	0.270
-398.179	-200.000	-0.015	-0.142
-397.165	110.043	0.052	-0.062
-396.150	-89.518	0.411	-0.121
-395.136	800.000	-0.058	-0.163
-394.121	-142.538	0.086	-0.008
-393.106	13.869	0.204	-0.159
-392.092	326.039	0.160	0.307
-391.077	16.226	-0.252	-0.199
-390.063	5.764	-0.296	-0.219
-389.048	-43.229	-0.027	-0.014
-388.033	-97.949	0.096	-0.025
-387.019	-134.321	0.565	-0.069
-386.004	-142.945	-0.179	0.017
-384.990	800.000	0.069	0.208
-383.975	-15.621	-0.362	-0.231
-382.960	-200.000	0.076	-0.348
-381.946	194.252	-0.177	0.269
-380.931	-200.000	-0.012	0.221
-379.917	-132.989	-0.181	-0.023
-378.902	800.000	0.026	0.079
-377.888	-177.066	0.303	-0.008
-376.873	540.103	0.068	-0.162
-375.858	126.164	-0.251	-0.317
-374.844	800.000	-0.035	-0.134
-373.829	-200.000	0.018	0.167
-372.815	23.281	0.056	-0.046
-371.800	319.353	0.054	0.102
-370.785	-65.973	0.176	0.070
-369.771	800.000	-0.111	-0.326
-368.756	-200.000	0.091	-0.455
-367.742	-145.032	0.070	0.006
-366.727	-25.446	0.120	0.071
-365.712	-3.146	-0.158	-0.110
-364.698	-200.000	-0.012	0.059
-363.683	-200.000	-0.005	-0.054
-362.669	800.000	-0.089	0.274
-361.654	800.000	-0.091	0.358
-360.639	-85.679	0.178	0.055
-359.625	-22.262	-0.097	0.059
-358.610	119.561	-0.126	-0.156
-357.596	800.000	0.011	0.046
-356.581	-20.536	0.089	0.055
-355.566	149.532	0.070	0.094
-354.552	800.000	-0.040	-0.144
-353.537	-74.992	0.190	-0.068
-352.523	-42.543	0.156	0.079
-351.508	-88.822	0.173	-0.051
-350.493	800.000	0.060	0.200
-349.479	271.226	-0.154	-0.271
-348.464	16.184	0.178	-0.141
-347.450	-200.000	0.046	0.306
-346.435	43.455	-0.131	-0.119
-345.420	-104.021	0.111	0.026
-344.406	549.171	-0.074	-0.177
-343.391	372.662	0.045	-0.091
-342.377	95.458	0.188	0.214
-341.362	-68.740	0.196	-0.076
-340.348	-61.781	-0.057	-0.024
-339.333	81.627	-0.160	0.173
-338.318	59.460	0.300	0.295
-337.304	800.000	-0.022	0.080
-336.289	143.234	0.045	0.059
-335.275	134.197	-0.085	0.110
-334.260	-106.453	0.261	0.058
-333.245	-154.161	-0.202	0.014
-332.231	-71.644	0.249	-0.093
-331.216	28.360	0.237	-0.200
-330.202	-69.765	-0.135	0.051
-329.187	73.437	0.156	-0.163
-328.172	-63.466	-0.136	0.056
-327.158	-145.215	0.059	0.005
-326.143	-200.000	0.036	-0.229
-325.129	-88.812	-0.319	-0.095
-324.114	-116.359	0.230	0.043
-323.099	126.260	-0.215	0.271
-322.085	-103.691	-0.235	-0.055
-321.070	260.952	0.182	0.314
-320.056	-72.209	-0.096	0.035
-319.041	-113.230	-0.325	-0.064
-318.026	-143.520	0.244	-0.023
-317.012	-21.304	-0.105	-0.064
-315.997	-12.520	-0.318	-0.208
-314.983	-75.190	-0.136	0.048
-313.968	297.325	0.089	0.162
-312.953	-157.695	-0.134	0.008
-311.939	-200.000	0.020	-0.130
-310.924	-117.392	-0.058	0.011
-309.910	-101.903	-0.220	-0.053
-308.895	-21.702	-0.079	0.048
-307.880	-38.118	0.207	-0.110
-306.866	800.000	0.070	0.240
-305.851	-59.072	0.161	0.069
-304.837	54.618	0.194	0.187
-303.822	-57.077	-0.181	-0.080
-302.807	-91.941	0.117	-0.033
-301.793	-143.652	-0.319	-0.030
-300.778	-200.000	-0.059	0.304
-299.764	800.000	0.105	-0.351
-298.749	800.000	0.118	-0.387
-297.735	-31.453	0.237	0.133
-296.720	-6.574	-0.176	0.120
-295.705	430.292	0.073	0.158
-294.691	800.000	0.095	0.325
-293.676	-15.477	-0.370	-0.236
-292.662	-45.815	0.161	-0.079
-291.647	-32.280	-0.163	0.091
-290.632	-53.918	-0.172	0.078
-289.618	-47.252	-0.308	0.150
-288.603	-200.000	-0.012	-0.325
-287.589	-12.968	0.153	-0.099
-286.574	800.000	-0.035	0.129
-285.559	-143.893	-0.251	-0.024
-284.545	-200.000	0.032	-0.293
-283.530	18.428	-0.143	0.114
-282.516	-109.913	0.171	-0.036
-281.501	-183.307	0.320	-0.006
-280.486	43.879	-0.110	-0.100
-279.472	-99.818	0.231	-0.058
-278.457	-113.027	0.161	0.032
-277.443	-200.000	-0.053	0.490
-276.428	-150.930	-0.124	0.009
-275.413	92.298	0.101	0.114
-274.399	247.980	0.180	0.303
-273.384	245.235	0.031	-0.051
-272.370	-10.637	0.066	0.044
-271.355	128.349	0.222	0.281
-270.340	-47.592	-0.119	-0.058
-269.326	175.441	0.050	-0.072
-268.311	381.552	-0.061	0.124
-267.297	-8.292	0.217	-0.145
-266.282	320.371	0.062	0.118
-265.267	-57.059	-0.216	0.095
-264.253	55.827	0.071	-0.068
-263.238	-101.017	-0.068	0.017
-262.224	63.778	-0.136	-0.136
-261.209	800.000	-0.083	0.260
-260.195	69.994	0.036	-0.037
-259.180	-200.000	0.006	0.379
-258.165	128.000	-0.113	0.143
-257.151	-127.842	0.149	0.021
-256.136	-200.000	-0.015	-0.224
-255.122	-93.194	-0.180	0.050
-254.107	-77.788	-0.469	-0.161
-253.092	-9.821	-0.111	0.074
-252.078	-200.000	-0.029	0.243
-251.063	716.886	-0.129	0.340
-250.049	28.415	-0.068	-0.057
-249.034	232.141	0.087	-0.143
-248.019	202.241	-0.136	-0.209
-247.005	-200.000	0.016	-0.099
-245.990	-88.032	0.179	-0.054
-244.976	-180.311	-0.117	0.002
-243.961	-45.506	-0.228	-0.112
-242.946	44.001	-0.131	-0.119
-241.932	312.403	-0.149	0.278
-240.917	800.000	0.072	-0.225
-239.903	-112.157	-0.458	-0.091
-238.888	67.060	-0.197	-0.200
-237.873	61.265	-0.142	0.141
-236.859	800.000	0.059	-0.176
-235.844	800.000	0.020	-0.055
-234.830	85.526	0.174	0.190
-233.815	367.213	0.115	0.231
-232.800	-4.017	0.085	0.059
-231.786	-59.889	0.097	-0.041
-230.771	-46.821	0.198	0.096
-229.757	800.000	0.044	0.166
-228.742	615.184	-0.077	-0.193
-227.727	135.788	0.157	0.203
-226.713	-120.798	-0.194	-0.033
-225.698	84.355	0.270	0.293
-224.684	79.535	0.245	0.262
-223.669	469.700	0.166	0.372
-222.655	-48.910	-0.116	-0.055
-221.640	-84.407	0.364	0.114
-220.625	-124.026	0.219	-0.034
-219.611	-22.462	0.355	0.213
-218.596	266.346	0.157	0.272
-217.582	-152.655	0.193	-0.014
-216.567	352.320	-0.098	0.193
-215.552	-26.837	-0.027	-0.016
-214.538	-181.762	-0.160	-0.003
-213.523	125.820	-0.166	0.209
-212.509	169.722	-0.094	-0.133
-211.494	-200.000	0.024	-0.121
-210.479	800.000	0.063	-0.195
-209.465	207.824	0.014	0.022
-208.450	-148.064	0.152	0.013
-207.436	49.657	0.101	-0.094
-206.421	35.241	-0.187	-0.163
-205.406	-79.379	0.214	-0.072
-204.392	-45.739	0.118	-0.058
-203.377	10.726	-0.065	-0.049
-202.363	800.000	0.038	-0.130
-201.348	-200.000	0.022	0.126
-200.333	-200.000	-0.021	0.247
-199.319	-101.929	0.170	-0.041
-198.304	60.600	0.093	0.092
-197.290	-70.940	0.189	0.071
-196.275	-15.641	0.332	0.210
-195.260	8.742	-0.222	-0.166
-194.246	-77.544	0.240	-0.083
-193.231	-43.236	-0.231	-0.116
-192.217	265.668	0.049	-0.085
-191.202	157.557	-0.202	-0.278
-190.187	-200.000	0.041	-0.343
-189.173	381.262	-0.031	-0.064
-188.158	-48.059	0.152	-0.073
-187.144	12.551	0.200	-0.153
-186.129	-56.701	-0.207	0.091
-185.114	274.334	0.143	0.252
-184.100	-200.000	-0.032	-0.172
-183.085	67.127	0.246	0.249
-182.071	60.686	-0.086	-0.085
-181.056	723.123	0.093	0.246
-180.042	329.000	0.027	0.052
-179.027	-45.323	0.357	0.176
-178.012	-62.695	-0.292	-0.120
-176.998	-78.913	-0.259	0.088
-175.983	200.230	-0.123	0.187
-174.969	5.928	-0.238	0.175
-173.954	-200.000	0.036	-0.194
-172.939	433.313	0.061	0.132
-171.925	-147.457	0.159	-0.013
-170.910	47.214	0.091	-0.084
-169.896	-200.000	-0.034	-0.169
-168.881	185.800	0.059	0.087
-167.866	800.000	0.009	0.026
-166.852	32.654	-0.085	-0.073
-165.837	800.000	0.047	0.135
-164.823	800.000	-0.050	0.184
-163.808	116.954	-0.131	0.159
-162.793	223.979	-0.088	-0.140
-161.779	-105.769	0.281	-0.063
-160.764	-44.773	-0.149	-0.074
-159.750	-129.496	-0.259	0.036
-158.735	25.081	-0.039	0.032
-157.720	41.319	0.299	0.268
-156.706	-120.384	0.066	-0.011
-155.691	251.460	0.098	0.166
-154.677	-86.674	0.175	-0.053
-153.662	136.734	0.181	-0.235
-152.647	-200.000	0.003	0.041
-151.633	-200.000	-0.044	0.456
-150.618	184.640	0.244	0.359
-149.604	-6.633	-0.066	0.045
-148.589	-38.176	0.238	-0.125
-147.574	224.651	-0.112	-0.180
-146.560	-200.000	0.041	-0.207
-145.545	213.175	-0.120	-0.188
-144.531	800.000	0.025	0.072
-143.516	-200.000	0.054	-0.311
-142.502	8.523	0.234	0.175
-141.487	96.107	0.253	-0.286
-140.472	91.623	-0.275	0.307
-139.458	73.005	-0.110	0.114
-138.443	-61.317	-0.197	-0.082
-137.429	-112.437	0.116	0.023
-136.414	-133.845	-0.215	0.027
-135.399	800.000	-0.019	0.057
-134.385	-200.000	-0.006	0.042
-133.370	800.000	-0.050	-0.190
-132.356	-109.610	-0.268	-0.056
-131.341	-25.259	-0.205	-0.120
-130.326	-83.110	0.110	-0.035
-129.312	-14.042	0.263	-0.168
-128.297	-149.712	-0.103	-0.008
-127.283	-134.091	-0.172	-0.021
-126.268	44.788	0.270	0.246
-125.253	77.978	0.143	-0.151
-124.239	119.675	0.081	0.100
-123.224	322.877	-0.081	0.154
-122.210	-200.000	-0.040	-0.416
-121.195	-98.239	0.087	0.022
