DTS Sentinel unit serial number:	SN413079Multiplexer serial number:	ORYXHardware model number:	OX4-SRSoftware version number:	ORYX F/W v4.00 Oryx Data Collector v3.7.2.0data status	okinstallation	princeton_trtdifferential loss correction	single-endedforward channel	channel 1reverse channel	N/Adate	2019/09/19time	09:14:35forward acquisition time	60.00reverse acquisition time	0.00gamma	496.2192k internal	0.2342k external	0.2342temperature offset calibration	0.9999default loss term (dB/km)	0.3790temperature slope calibration	1.0000multiplexer offset coefficient	1.0000multiplexer slope coefficient	1.0000fibre end	0.00T internal ref (°C)	22.11T ext. ref 1 (°C)	0.60T ext. ref 2 (°C)	19.24length (m)	temperature (°C)	Stokes	anti-Stokes-747.200	-200.000	0.073	0.353
-746.185	-200.000	0.025	0.145
-745.171	-136.853	-0.106	0.012
-744.156	739.241	-0.119	0.319
-743.142	-108.955	0.301	-0.064
-742.127	90.119	-0.341	0.382
-741.112	-59.199	0.289	0.125
-740.098	-63.633	-0.136	0.056
-739.083	800.000	0.058	0.252
-738.069	-125.917	-0.139	0.021
-737.054	123.721	-0.233	-0.292
-736.039	-200.000	0.030	0.323
-735.025	800.000	0.083	0.316
-734.010	-200.000	0.012	-0.110
-732.996	-200.000	-0.078	-0.370
-731.981	-56.124	0.134	0.060
-730.966	326.585	-0.010	-0.019
-729.952	-84.256	0.094	0.030
-728.937	-14.796	-0.242	0.155
-727.923	357.293	0.103	0.205
-726.908	-154.290	-0.281	-0.019
-725.894	474.991	0.087	0.196
-724.879	531.161	0.124	0.294
-723.864	-23.238	0.144	0.087
-722.850	-192.057	0.273	-0.003
-721.835	-127.065	0.203	-0.030
-720.821	82.688	-0.204	0.221
-719.806	-33.325	0.094	-0.052
-718.791	378.899	-0.038	-0.079
-717.777	129.432	0.028	-0.036
-716.762	449.372	-0.117	-0.258
-715.748	252.276	0.092	-0.157
-714.733	-93.500	0.100	-0.028
-713.718	-21.529	0.299	0.182
-712.704	-200.000	-0.035	-0.181
-711.689	-172.885	0.156	0.005
-710.675	-200.000	-0.020	0.162
-709.660	52.676	0.157	-0.150
-708.645	-90.942	-0.238	0.068
-707.631	-105.569	-0.106	0.024
-706.616	709.749	0.107	0.283
-705.602	-34.817	-0.276	-0.151
-704.587	-200.000	0.030	0.217
-703.572	257.261	0.041	0.070
-702.558	144.174	0.131	-0.175
-701.543	108.656	0.061	-0.073
-700.529	162.062	-0.071	-0.099
-699.514	-1.973	0.087	-0.061
-698.499	71.236	-0.323	0.335
-697.485	45.732	-0.187	-0.173
-696.470	-50.297	-0.317	0.150
-695.456	-181.880	0.076	0.001
-694.441	-135.319	-0.366	0.044
-693.426	395.455	0.069	0.143
-692.412	-121.725	0.360	0.059
-691.397	62.777	-0.168	0.168
-690.383	800.000	0.062	0.229
-689.368	-84.583	0.063	0.020
-688.354	-150.428	0.163	0.013
-687.339	-99.668	-0.213	0.053
-686.324	800.000	0.060	-0.173
-685.310	451.921	0.066	-0.145
-684.295	-58.995	-0.243	0.105
-683.281	61.641	0.240	-0.239
-682.266	85.021	-0.230	-0.252
-681.251	140.723	0.252	-0.332
-680.237	-114.014	-0.234	-0.045
-679.222	800.000	0.084	-0.282
-678.208	-126.718	0.193	0.029
-677.193	65.058	0.178	-0.180
-676.178	191.253	0.108	0.163
-675.164	118.175	-0.043	-0.053
-674.149	445.701	-0.106	-0.234
-673.135	39.182	-0.185	-0.165
-672.120	38.763	-0.233	-0.208
-671.105	-39.873	-0.281	0.147
-670.091	559.200	0.035	-0.084
-669.076	164.512	0.139	-0.196
-668.062	800.000	0.096	0.278
-667.047	-111.130	-0.411	0.084
-666.032	-200.000	-0.021	0.113
-665.018	245.763	-0.079	0.133
-664.003	-136.293	-0.220	-0.026
-662.989	52.520	-0.212	-0.202
-661.974	-110.012	-0.029	0.006
-660.959	694.523	-0.043	-0.114
-659.945	-92.123	0.242	-0.068
-658.930	255.204	-0.161	0.276
-657.916	-200.000	0.120	-0.000
-656.901	30.509	-0.020	-0.017
-655.886	626.637	0.047	0.119
-654.872	-79.233	-0.212	-0.072
-653.857	298.983	0.115	-0.211
-652.843	70.688	-0.110	-0.114
-651.828	800.000	-0.039	-0.109
-650.814	15.338	-0.156	-0.122
-649.799	-108.538	0.178	-0.038
-648.784	5.968	-0.070	0.052
-647.770	-113.127	-0.240	-0.047
-646.755	-88.647	-0.121	-0.036
-645.741	683.248	-0.151	0.394
-644.726	-154.799	0.175	0.012
-643.711	201.881	-0.239	-0.368
-642.697	-62.341	0.525	-0.218
-641.682	-104.544	-0.334	0.077
-640.668	462.040	0.092	0.204
-639.653	-39.528	-0.066	0.034
-638.638	329.610	0.132	-0.252
-637.624	27.711	-0.166	-0.139
-636.609	-54.206	-0.188	-0.085
-635.595	1.709	0.234	0.168
-634.580	47.096	-0.163	0.152
-633.565	6.774	0.063	0.047
-632.551	-200.000	-0.037	-0.201
-631.536	109.122	-0.022	-0.026
-630.522	800.000	0.038	-0.138
-629.507	209.317	0.228	0.357
-628.492	29.667	0.089	0.075
-627.478	-27.550	-0.255	0.147
-626.463	-200.000	-0.073	0.391
-625.449	-156.942	-0.489	0.030
-624.434	35.137	0.050	0.043
-623.419	201.891	-0.054	0.083
-622.405	-65.553	0.280	-0.112
-621.390	-100.406	-0.059	-0.015
-620.376	-104.685	0.119	0.027
-619.361	-200.000	-0.013	0.209
-618.346	800.000	0.087	0.246
-617.332	-51.063	-0.144	0.067
-616.317	-197.959	0.357	-0.002
-615.303	-109.732	0.189	-0.040
-614.288	-200.000	0.003	0.182
-613.273	118.660	-0.053	0.066
-612.259	800.000	-0.034	-0.133
-611.244	-198.521	0.217	0.001
-610.230	69.045	0.032	-0.033
-609.215	261.614	0.101	0.174
-608.201	-200.000	-0.002	-0.203
-607.186	-68.793	0.323	-0.125
-606.171	-200.000	0.349	0.001
-605.157	-5.035	-0.106	-0.073
-604.142	-200.000	-0.032	0.206
-603.128	596.303	-0.041	-0.102
-602.113	-200.000	0.052	0.363
-601.098	-10.924	-0.190	-0.125
-600.084	800.000	0.111	-0.318
-599.069	168.701	-0.163	0.231
-598.055	-62.596	0.118	-0.049
-597.040	-200.000	-0.018	0.133
-596.025	25.284	0.187	-0.155
-595.011	800.000	0.015	-0.060
-593.996	38.147	0.265	-0.235
-592.982	-200.000	0.013	-0.134
-591.967	-200.000	-0.017	0.169
-590.952	21.675	0.042	-0.034
-589.938	156.379	-0.121	0.166
-588.923	510.205	0.120	-0.278
-587.909	213.622	-0.215	-0.338
-586.894	-179.654	0.064	0.001
-585.879	-200.000	0.010	-0.077
-584.865	-200.000	0.001	-0.134
-583.850	-129.053	-0.295	-0.041
-582.836	-200.000	-0.024	0.134
-581.821	308.069	-0.091	0.170
-580.806	418.597	-0.092	-0.196
-579.792	260.373	-0.118	-0.203
-578.777	155.503	-0.155	-0.213
-577.763	-127.737	0.192	-0.028
-576.748	274.519	-0.051	-0.091
-575.733	-60.350	0.064	-0.027
-574.719	741.948	-0.007	0.019
-573.704	-200.000	-0.008	-0.142
-572.690	391.017	-0.101	-0.209
-571.675	306.022	-0.101	-0.187
-570.661	800.000	0.099	0.329
-569.646	458.692	-0.139	-0.308
-568.631	-33.253	-0.231	0.127
-567.617	-110.016	-0.236	-0.049
-566.602	800.000	-0.140	-0.411
-565.588	48.276	0.275	0.256
-564.573	800.000	0.147	0.436
-563.558	800.000	-0.063	-0.247
-562.544	-70.659	0.101	-0.038
-561.529	433.713	0.076	-0.165
-560.515	304.589	-0.039	0.073
-559.500	-200.000	0.041	0.312
-558.485	-200.000	0.162	0.000
-557.471	-62.471	0.213	0.088
-556.456	756.201	-0.107	-0.289
-555.442	-128.141	0.245	-0.035
-554.427	-172.493	-0.105	0.003
-553.412	770.945	-0.151	0.408
-552.398	-157.652	-0.249	0.015
-551.383	-166.087	-0.385	0.016
-550.369	429.349	0.165	-0.355
-549.354	-158.317	-0.294	0.017
-548.339	-200.000	-0.096	-0.679
-547.325	-22.268	-0.192	-0.115
-546.310	410.483	0.086	0.182
-545.296	-200.000	0.022	-0.213
-544.281	-86.025	0.221	-0.068
-543.266	-200.000	-0.064	-0.314
-542.252	163.469	-0.257	0.360
-541.237	800.000	-0.033	0.091
-540.223	336.875	0.151	-0.292
-539.208	-75.237	0.089	-0.032
-538.193	-141.812	-0.351	0.035
-537.179	319.068	-0.056	0.106
-536.164	800.000	-0.071	-0.196
-535.150	102.273	0.214	0.248
-534.135	800.000	0.051	-0.141
-533.121	38.081	-0.241	-0.213
-532.106	-139.399	-0.289	0.031
-531.091	-88.504	0.483	0.143
-530.077	-123.404	-0.416	0.066
-529.062	-73.163	0.058	-0.021
-528.048	298.095	0.055	-0.101
-527.033	-164.814	-0.159	0.007
-526.018	800.000	0.041	-0.137
-525.004	46.945	-0.185	-0.171
-523.989	140.994	0.223	0.293
-522.975	33.835	0.195	0.168
-521.960	800.000	0.061	0.204
-520.945	-34.400	-0.365	0.199
-519.931	-32.540	-0.109	-0.060
-518.916	244.978	-0.116	0.193
-517.902	-114.394	-0.113	0.022
-516.887	63.073	0.101	-0.100
-515.872	-111.571	-0.364	-0.073
-514.858	-50.680	-0.277	-0.130
-513.843	201.638	0.225	-0.344
-512.829	653.371	0.110	-0.281
-511.814	-61.081	0.131	-0.055
-510.799	27.451	-0.234	0.195
-509.785	16.567	-0.203	0.160
-508.770	12.314	0.203	-0.155
-507.756	-117.836	0.330	0.059
-506.741	-200.000	-0.024	-0.191
-505.726	-200.000	-0.008	0.052
-504.712	17.232	-0.096	0.075
-503.697	94.919	0.078	0.088
-502.683	-94.667	-0.219	0.059
-501.668	-130.735	0.180	0.024
-500.653	94.656	-0.192	0.217
-499.639	-10.168	0.073	-0.048
-498.624	-86.270	-0.339	0.104
-497.610	800.000	0.019	-0.073
-496.595	-135.604	0.390	-0.046
-495.581	265.962	0.153	0.265
-494.566	-200.000	-0.004	-0.021
-493.551	-103.991	0.284	0.066
-492.537	-115.048	-0.128	0.024
-491.522	36.845	0.175	0.153
-490.508	-88.281	-0.311	-0.092
-489.493	-200.000	0.317	0.000
-488.478	-200.000	-0.001	0.221
-487.464	756.531	-0.056	0.150
-486.449	18.500	-0.338	-0.268
-485.435	396.995	0.171	-0.355
-484.420	-200.000	0.038	-0.167
-483.405	-126.369	-0.147	-0.022
-482.391	73.880	-0.129	-0.134
-481.376	-2.383	0.029	-0.020
-480.362	-200.000	0.050	-0.354
-479.347	89.232	-0.101	-0.112
-478.332	88.570	-0.025	-0.028
-477.318	800.000	0.055	0.195
-476.303	-15.776	0.292	-0.184
-475.289	-130.096	0.192	0.026
-474.274	712.482	0.019	-0.050
-473.259	-109.747	0.117	-0.024
-472.245	-12.200	-0.121	0.079
-471.230	433.874	0.058	0.125
-470.216	-200.000	0.011	0.239
-469.201	-200.000	-0.017	0.099
-468.186	-103.855	-0.208	0.048
-467.172	184.050	0.075	-0.110
-466.157	42.841	-0.122	-0.110
-465.143	32.831	0.197	-0.169
-464.128	-92.579	-0.191	-0.053
-463.113	-15.259	0.213	-0.135
-462.099	207.105	-0.206	0.318
-461.084	351.692	0.115	0.225
-460.070	800.000	-0.085	-0.250
-459.055	-200.000	0.019	0.119
-458.040	-200.000	0.023	0.220
-457.026	79.428	-0.176	0.187
-456.011	-151.379	-0.532	-0.039
-454.997	65.333	-0.095	-0.095
-453.982	283.039	-0.211	-0.375
-452.968	-118.197	-0.285	-0.050
-451.953	320.728	-0.096	-0.180
-450.938	800.000	0.088	-0.243
-449.924	637.563	-0.023	-0.059
-448.909	217.057	0.105	0.166
-447.895	-5.844	0.102	0.069
-446.880	-10.267	0.064	-0.042
-445.865	-142.939	0.225	0.022
-444.851	-200.000	-0.030	-0.312
-443.836	800.000	0.052	-0.146
-442.822	-41.984	-0.179	-0.091
-441.807	-64.002	-0.147	0.060
-440.792	-116.170	-0.114	0.021
-439.778	20.882	-0.125	0.101
-438.763	-200.000	-0.022	-0.165
-437.749	-66.664	-0.110	0.043
-436.734	240.311	0.058	-0.096
-435.719	-43.194	-0.173	-0.087
-434.705	-103.357	0.125	0.029
-433.690	-200.000	0.016	0.247
-432.676	-46.981	-0.151	0.073
-431.661	-200.000	-0.014	0.103
-430.646	110.653	-0.148	0.176
-429.632	-38.548	-0.258	0.135
-428.617	-183.598	0.430	0.007
-427.603	-95.281	0.234	0.062
-426.588	321.875	-0.079	-0.149
-425.573	-200.000	-0.019	0.117
-424.559	174.930	-0.217	0.310
-423.544	261.576	-0.160	-0.274
-422.530	29.027	0.237	-0.198
-421.515	-31.193	0.157	-0.088
-420.500	-84.002	0.118	-0.037
-419.486	-200.000	-0.007	-0.049
-418.471	55.350	0.050	-0.048
-417.457	89.551	-0.200	0.220
-416.442	42.880	-0.043	-0.039
-415.428	38.850	0.061	0.054
-414.413	115.766	-0.198	-0.240
-413.398	-139.348	0.368	-0.039
-412.384	800.000	-0.112	0.327
-411.369	-91.980	0.172	0.048
-410.355	-165.718	0.369	0.016
-409.340	-200.000	0.012	0.076
-408.325	800.000	0.078	0.225
-407.311	16.720	0.074	-0.058
-406.296	-49.913	-0.070	0.033
-405.282	-160.789	-0.076	0.004
-404.267	-110.434	-0.269	-0.055
-403.252	800.000	0.047	0.204
-402.238	139.633	0.171	-0.222
-401.223	800.000	0.062	-0.263
-400.209	-9.893	-0.445	0.293
-399.194	800.000	-0.058	0.201
-398.179	-37.647	-0.341	-0.180
-397.165	800.000	0.010	-0.040
-396.150	800.000	0.034	0.102
-395.136	219.462	0.165	0.261
-394.121	37.473	-0.308	-0.270
-393.106	657.048	0.109	0.278
-392.092	276.913	-0.077	0.135
-391.077	17.893	0.127	-0.100
-390.063	447.448	-0.069	-0.149
-389.048	573.609	-0.139	-0.335
-388.033	-65.831	-0.048	0.019
-387.019	235.300	0.112	-0.182
-386.004	24.807	-0.237	0.194
-384.990	800.000	0.077	-0.298
-383.975	22.229	-0.181	0.146
-382.960	-71.103	-0.336	0.125
-381.946	-158.857	-0.231	-0.013
-380.931	-104.068	0.302	0.069
-379.917	800.000	-0.137	0.397
-378.902	-130.850	-0.169	0.022
-377.888	19.743	0.255	0.203
-376.873	169.081	0.034	0.048
-375.858	59.755	-0.013	0.013
-374.844	-89.970	-0.221	0.064
-373.829	-200.000	-0.011	-0.131
-372.815	-157.221	-0.125	-0.007
-371.800	78.493	-0.159	0.168
-370.785	-21.988	0.209	0.126
-369.771	-200.000	0.044	0.236
-368.756	-188.138	0.350	0.004
-367.742	46.629	-0.075	0.069
-366.727	-200.000	0.017	0.292
-365.712	109.482	0.156	0.184
-364.698	431.416	-0.087	0.186
-363.683	-200.000	-0.116	-0.515
-362.669	119.615	-0.120	0.147
-361.654	434.476	-0.028	-0.061
-360.639	-111.251	-0.395	0.080
-359.625	162.323	0.247	0.342
-358.610	-14.942	0.127	-0.081
-357.596	-200.000	0.038	0.392
-356.581	-3.482	-0.073	0.050
-355.566	83.855	0.016	-0.017
-354.552	22.263	-0.139	0.112
-353.537	157.919	0.166	0.227
-352.523	-185.847	-0.098	0.001
-351.508	-200.000	0.070	0.328
-350.493	682.364	-0.150	0.386
-349.479	-110.285	-0.419	-0.086
-348.464	554.920	-0.122	0.290
-347.450	584.104	0.097	-0.235
-346.435	-129.109	0.120	-0.017
-345.420	-114.773	-0.226	-0.043
-344.406	-110.205	-0.201	0.041
-343.391	-50.918	0.153	-0.071
-342.377	-72.461	0.087	-0.032
-341.362	-200.000	-0.012	0.152
-340.348	51.238	-0.171	0.160
-339.333	-23.977	-0.153	0.090
-338.318	-76.371	0.272	0.095
-337.304	115.901	0.179	0.216
-336.289	-100.913	0.173	0.042
-335.275	-113.059	-0.234	0.046
-334.260	-52.388	0.091	-0.041
-333.245	800.000	-0.042	0.141
-332.231	425.019	-0.210	0.445
-331.216	-200.000	0.043	-0.221
-330.202	-35.304	-0.057	-0.030
-329.187	-46.188	0.099	-0.048
-328.172	268.089	-0.138	0.239
-327.158	16.887	0.396	0.309
-326.143	44.842	0.140	-0.127
-325.129	-53.976	0.135	-0.060
-324.114	-112.738	0.496	0.097
-323.099	-200.000	-0.011	0.371
-322.085	219.858	0.156	0.246
-321.070	49.505	0.142	-0.132
-320.056	70.688	0.035	0.036
-319.041	41.930	-0.124	-0.111
-318.026	-80.693	-0.127	0.042
-317.012	114.184	-0.115	-0.138
-315.997	18.788	-0.188	0.149
-314.983	-90.192	-0.125	0.036
-313.968	49.460	-0.229	-0.212
-312.953	759.355	-0.025	0.068
-311.939	800.000	0.106	0.439
-310.924	-117.687	-0.238	-0.042
-309.910	800.000	0.046	-0.139
-308.895	-200.000	0.018	0.096
-307.880	-134.009	-0.279	0.034
-306.866	800.000	-0.027	-0.075
-305.851	-200.000	0.008	0.290
-304.837	344.786	-0.213	0.413
-303.822	800.000	0.033	0.122
-302.807	-200.000	0.056	-0.423
-301.793	-200.000	0.008	0.228
-300.778	-33.146	-0.102	-0.056
-299.764	-78.853	-0.137	-0.046
-298.749	-131.702	0.174	-0.023
-297.735	15.371	0.157	-0.121
-296.720	24.929	-0.414	0.338
-295.705	800.000	0.053	-0.227
-294.691	-56.994	0.348	-0.151
-293.676	-113.019	-0.143	-0.028
-292.662	-61.541	0.249	0.103
-291.647	800.000	0.055	0.159
-290.632	-200.000	0.003	0.156
-289.618	-200.000	-0.012	-0.126
-288.603	800.000	0.032	0.102
-287.589	-81.368	0.272	0.088
-286.574	-80.445	0.281	0.092
-285.559	124.299	-0.123	-0.152
-284.545	-47.333	0.270	0.129
-283.530	180.921	0.115	-0.166
-282.516	-11.114	-0.109	0.071
-281.501	88.802	0.089	0.098
-280.486	33.311	0.189	-0.162
-279.472	-41.442	0.159	-0.081
-278.457	-200.000	-0.036	-0.218
-277.443	-92.671	0.401	-0.111
-276.428	15.361	-0.140	-0.108
-275.413	-200.000	0.008	0.347
-274.399	300.232	0.163	-0.295
-273.384	-200.000	0.015	0.506
-272.370	-97.594	0.525	0.134
-271.355	-24.783	-0.097	0.056
-270.340	-19.007	0.292	0.179
-269.326	-77.718	-0.220	-0.075
-268.311	52.311	0.195	-0.183
-267.297	283.772	0.119	-0.211
-266.282	-200.000	-0.018	0.115
-265.267	9.190	-0.113	-0.084
-264.253	392.445	0.071	-0.145
-263.238	52.727	-0.105	-0.098
-262.224	-200.000	0.034	-0.634
-261.209	-200.000	0.048	-0.214
-260.195	-4.630	0.052	-0.035
-259.180	150.398	0.106	-0.141
-258.165	123.220	0.185	0.228
-257.151	-106.660	0.268	-0.059
-256.136	-200.000	-0.108	-0.000
-255.122	25.857	0.189	0.155
-254.107	49.844	-0.093	0.087
-253.092	-76.496	0.071	0.024
-252.078	-10.040	0.173	-0.113
-251.063	-51.739	-0.048	0.022
-250.049	-197.784	-0.182	0.001
-249.034	-2.673	-0.137	0.094
-248.019	-200.000	-0.005	-0.025
-247.005	-101.312	0.149	-0.036
-245.990	-23.839	0.177	-0.104
-244.976	-132.521	0.209	0.026
-243.961	1.149	0.327	-0.231
-242.946	117.925	-0.239	0.289
-241.932	-200.000	0.091	-0.440
-240.917	193.407	0.195	-0.289
-239.903	800.000	-0.106	0.323
-238.888	92.798	-0.039	0.044
-237.873	59.339	-0.029	0.028
-236.859	-200.000	-0.014	-0.322
-235.844	799.826	-0.023	0.063
-234.830	-58.254	-0.163	-0.070
-233.815	800.000	-0.141	0.540
-232.800	140.737	0.134	0.174
-231.786	-105.247	-0.099	0.022
-230.771	800.000	0.006	0.024
-229.757	800.000	-0.075	-0.221
-228.742	-158.529	-0.104	0.006
-227.727	219.973	0.146	0.230
-226.713	-19.422	-0.337	-0.205
-225.698	800.000	0.026	-0.084
-224.684	-200.000	0.013	-0.248
-223.669	800.000	-0.107	-0.403
-222.655	247.855	0.197	0.327
-221.640	-200.000	-0.039	-0.220
-220.625	-14.357	0.142	-0.090
-219.611	-28.870	0.237	0.134
-218.596	14.934	-0.180	0.138
-217.582	-142.873	-0.142	0.014
-216.567	186.153	-0.112	0.164
-215.552	-200.000	-0.016	0.109
-214.538	-200.000	0.033	-0.207
-213.523	78.263	0.067	-0.070
-212.509	-200.000	0.011	-0.212
-211.494	-67.330	0.310	-0.119
-210.479	73.212	-0.097	0.099
-209.465	-99.460	-0.104	-0.026
-208.450	-21.205	0.237	-0.142
-207.436	-199.518	0.313	-0.002
-206.421	800.000	0.157	0.432
-205.406	-104.868	0.203	-0.046
-204.392	349.829	0.061	0.117
-203.377	-80.000	0.384	-0.126
-202.363	398.511	0.085	-0.174
-201.348	346.591	0.078	-0.150
-200.333	312.062	0.258	-0.475
-199.319	252.465	-0.137	-0.228
-198.304	65.420	0.101	0.100
-197.290	394.163	-0.170	-0.348
-196.275	-200.000	0.007	0.054
-195.260	800.000	0.061	0.227
-194.246	-21.986	0.236	0.141
-193.231	-84.223	-0.150	0.047
-192.217	-200.000	-0.017	-0.109
-191.202	-7.105	-0.209	0.139
-190.187	-41.718	-0.267	0.134
-189.173	8.527	0.252	0.186
-188.158	-63.603	-0.238	0.096
-187.144	-95.830	-0.047	0.012
-186.129	-200.000	0.024	-0.131
-185.114	173.880	-0.060	0.084
-184.100	564.992	0.079	-0.188
-183.085	800.000	0.091	-0.255
-182.071	-42.342	0.212	-0.106
-181.056	-104.132	-0.196	0.045
-180.042	374.719	-0.090	-0.180
-179.027	-200.000	-0.014	-0.530
-178.012	-36.069	0.424	-0.224
-176.998	-0.903	0.237	-0.165
-175.983	-40.179	0.077	-0.039
-174.969	50.076	0.019	-0.018
-173.954	271.329	-0.280	-0.483
-172.939	32.103	-0.155	0.131
-171.925	284.689	-0.156	0.275
-170.910	-67.305	0.346	0.133
-169.896	800.000	-0.049	-0.181
-168.881	-62.969	0.116	-0.047
-167.866	-200.000	0.004	-0.104
-166.852	28.456	-0.072	-0.060
-165.837	696.017	-0.071	-0.182
-164.823	-200.000	0.003	0.136
-163.808	20.396	0.201	0.159
-162.793	-30.792	-0.289	-0.160
-161.779	-33.884	0.149	-0.080
-160.764	-200.000	-0.017	-0.139
-159.750	-28.575	0.101	-0.057
-158.735	800.000	0.153	0.439
-157.720	-80.333	0.282	-0.092
-156.706	-58.357	-0.348	0.148
-155.691	-134.545	0.106	0.013
-154.677	18.969	-0.236	-0.185
-153.662	-200.000	-0.003	-0.355
-152.647	75.248	-0.146	0.151
-151.633	-124.467	-0.286	0.044
-150.618	-85.179	0.409	0.125
-149.604	-61.328	0.082	-0.034
-148.589	800.000	-0.059	-0.238
-147.574	800.000	0.051	0.201
-146.560	-200.000	0.032	0.221
-145.545	754.293	0.087	-0.230
-144.531	148.280	-0.063	-0.084
-143.516	377.870	0.022	-0.044
-142.502	-200.000	-0.011	-0.055
-141.487	360.075	-0.060	0.118
-140.472	-36.509	-0.092	0.049
-139.458	800.000	0.076	-0.310
-138.443	1.971	-0.339	-0.239
-137.429	308.226	0.093	0.170
-136.414	84.732	-0.083	0.089
-135.399	-200.000	-0.025	0.324
-134.385	40.754	0.147	0.130
-133.370	-169.654	0.305	0.011
-132.356	-53.012	-0.170	-0.077
-131.341	336.974	-0.196	0.372
-130.326	-57.004	0.328	-0.141
-129.312	1.964	0.030	0.021
-128.297	-26.881	0.163	-0.093
-127.283	-70.293	-0.100	0.037
-126.268	800.000	-0.050	0.168
-125.253	-72.108	-0.117	-0.042
-124.239	-1.653	0.151	-0.104
-123.224	351.834	-0.049	0.095
-122.210	800.000	0.037	-0.109
-121.195	-200.000	0.024	0.209
