DTS Sentinel unit serial number:	SN413079Multiplexer serial number:	ORYXHardware model number:	OX4-SRSoftware version number:	ORYX F/W v4.00 Oryx Data Collector v3.7.2.0data status	okinstallation	princeton_trtdifferential loss correction	single-endedforward channel	channel 1reverse channel	N/Adate	2019/09/13time	08:02:35forward acquisition time	60.00reverse acquisition time	0.00gamma	496.2192k internal	0.2332k external	0.2332temperature offset calibration	1.0160default loss term (dB/km)	0.3790temperature slope calibration	1.0000multiplexer offset coefficient	1.0000multiplexer slope coefficient	1.0000fibre end	0.00T internal ref (°C)	26.89T ext. ref 1 (°C)	4.24T ext. ref 2 (°C)	23.15length (m)	temperature (°C)	Stokes	anti-Stokes-747.200	-101.810	-0.182	-0.044
-746.185	36.813	-0.145	0.129
-745.171	-111.893	-0.258	0.052
-744.156	-34.127	0.186	-0.103
-743.142	-79.096	-0.154	-0.053
-742.127	-59.878	-0.544	0.234
-741.112	265.243	0.116	-0.204
-740.098	55.346	0.179	0.174
-739.083	12.787	-0.122	-0.095
-738.069	-0.457	0.109	-0.078
-737.054	-69.719	-0.129	-0.050
-736.039	-200.000	-0.004	0.059
-735.025	-105.361	0.575	0.132
-734.010	-97.069	0.170	0.045
-732.996	-58.267	-0.247	0.108
-731.981	800.000	0.005	-0.017
-730.966	-122.607	0.228	-0.037
-729.952	-60.323	0.208	0.089
-728.937	-200.000	0.007	-0.224
-727.923	6.911	-0.222	-0.166
-726.908	79.789	0.128	-0.139
-725.894	282.075	-0.080	-0.144
-724.879	-158.196	-0.175	-0.010
-723.864	-22.770	-0.174	-0.106
-722.850	-73.021	-0.151	-0.056
-721.835	258.792	0.047	0.081
-720.821	600.655	-0.057	-0.141
-719.806	244.740	-0.171	-0.289
-718.791	-93.540	0.061	-0.017
-717.777	-42.532	0.146	-0.075
-716.762	-36.319	0.151	0.082
-715.748	-86.861	-0.097	0.030
-714.733	-159.896	0.191	0.011
-713.718	800.000	0.024	-0.082
-712.704	160.697	-0.335	-0.471
-711.689	-200.000	0.016	-0.198
-710.675	-50.217	-0.109	0.052
-709.660	-136.532	0.226	-0.026
-708.645	-200.000	0.021	-0.138
-707.631	-200.000	-0.017	0.076
-706.616	-14.171	0.264	0.171
-705.602	663.469	-0.074	0.192
-704.587	-123.972	0.062	0.010
-703.572	-200.000	0.014	-0.248
-702.558	-20.226	0.236	0.146
-701.543	264.160	-0.057	-0.100
-700.529	-87.926	-0.016	0.005
-699.514	-200.000	0.020	0.254
-698.499	-174.313	-0.076	0.002
-697.485	203.193	0.051	0.079
-696.470	81.025	0.241	-0.261
-695.456	49.724	-0.270	-0.255
-694.441	800.000	0.056	-0.176
-693.426	127.357	0.091	0.116
-692.412	-200.000	0.064	0.383
-691.397	63.335	-0.229	-0.231
-690.383	-76.362	0.158	0.056
-689.368	-200.000	-0.032	-0.194
-688.354	96.644	0.191	0.219
-687.339	74.951	-0.125	-0.132
-686.324	800.000	0.064	0.187
-685.310	521.759	-0.137	0.324
-684.295	529.861	0.143	-0.340
-683.281	645.303	0.073	-0.186
-682.266	800.000	-0.051	-0.151
-681.251	-200.000	0.000	-0.162
-680.237	-85.612	0.343	0.107
-679.222	496.338	-0.117	-0.271
-678.208	-142.485	0.134	0.013
-677.193	302.762	-0.015	0.028
-676.178	-200.000	-0.010	-0.060
-675.164	-0.953	0.103	-0.073
-674.149	-57.309	0.176	0.078
-673.135	-140.002	-0.305	-0.032
-672.120	800.000	0.057	-0.186
-671.105	204.729	0.099	0.154
-670.091	-59.134	-0.204	-0.088
-669.076	-200.000	0.010	0.247
-668.062	-125.889	-0.156	-0.024
-667.047	2.943	-0.061	0.045
-666.032	-5.808	0.243	0.167
-665.018	-80.624	0.226	0.076
-664.003	-71.823	-0.413	-0.154
-662.989	-80.122	-0.082	-0.028
-661.974	510.147	-0.124	-0.289
-660.959	-54.972	-0.207	0.094
-659.945	-56.595	0.412	-0.183
-658.930	48.840	0.038	-0.036
-657.916	228.997	0.108	0.177
-656.901	-126.710	-0.331	-0.049
-655.886	-33.858	-0.040	0.022
-654.872	281.533	0.147	0.263
-653.857	800.000	-0.044	-0.124
-652.843	-200.000	-0.001	0.016
-651.828	-80.067	0.327	0.110
-650.814	-166.035	-0.101	-0.004
-649.799	-11.725	0.382	-0.251
-648.784	49.551	-0.084	0.079
-647.770	-153.650	-0.153	-0.011
-646.755	13.070	-0.190	-0.147
-645.741	-4.916	-0.155	0.107
-644.726	147.638	-0.099	0.133
-643.711	-15.770	0.083	-0.053
-642.697	121.036	0.059	0.073
-641.682	800.000	0.044	-0.180
-640.668	39.980	0.231	0.208
-639.653	-82.557	0.146	-0.047
-638.638	-162.769	-0.173	0.008
-637.624	-7.497	-0.166	-0.113
-636.609	-200.000	-0.016	0.115
-635.595	-142.823	-0.430	-0.042
-634.580	773.835	0.051	0.138
-633.565	-87.249	-0.238	0.072
-632.551	72.725	0.274	-0.286
-631.536	-199.362	0.143	-0.001
-630.522	-24.614	-0.115	0.069
-629.507	566.088	0.162	0.395
-628.492	25.202	0.141	0.117
-627.478	-3.490	0.028	-0.020
-626.463	183.064	-0.199	-0.294
-625.449	370.862	-0.102	-0.207
-624.434	281.656	0.055	-0.099
-623.419	-90.885	0.144	-0.041
-622.405	-200.000	0.002	0.182
-621.390	800.000	-0.030	-0.113
-620.376	7.962	-0.241	0.181
-619.361	800.000	-0.010	0.032
-618.346	-200.000	0.008	-0.310
-617.332	477.125	-0.159	-0.359
-616.317	-37.050	0.162	-0.087
-615.303	-150.288	0.523	0.040
-614.288	-200.000	0.034	0.361
-613.273	800.000	-0.039	0.113
-612.259	-200.000	0.021	-0.132
-611.244	95.760	0.069	0.079
-610.230	-50.746	0.152	0.072
-609.215	-200.000	-0.002	0.069
-608.201	-200.000	-0.029	-0.191
-607.186	-200.000	-0.004	-0.043
-606.171	590.559	0.009	0.021
-605.157	465.049	-0.150	-0.336
-604.142	8.958	-0.107	0.080
-603.128	73.671	0.089	-0.094
-602.113	-41.544	0.322	-0.166
-601.098	298.149	0.164	-0.302
-600.084	-38.386	0.294	-0.156
-599.069	488.575	0.030	0.068
-598.055	-200.000	0.064	0.285
-597.040	-143.401	0.057	0.005
-596.025	183.487	-0.065	-0.097
-595.011	800.000	0.098	-0.355
-593.996	-57.269	0.227	0.100
-592.982	-145.597	-0.129	0.012
-591.967	-200.000	0.014	-0.199
-590.952	-115.086	-0.365	0.069
-589.938	-93.583	0.107	0.030
-588.923	-107.222	-0.113	0.025
-587.909	800.000	-0.064	-0.271
-586.894	800.000	0.060	0.212
-585.879	-200.000	-0.049	-0.289
-584.865	33.465	-0.193	0.168
-583.850	-51.131	-0.286	-0.134
-582.836	-91.414	-0.082	0.023
-581.821	-200.000	-0.019	0.181
-580.806	-200.000	-0.001	-0.144
-579.792	-58.071	0.079	-0.034
-578.777	492.604	0.036	-0.082
-577.763	337.495	0.048	-0.094
-576.748	-200.000	-0.056	0.323
-575.733	800.000	-0.030	0.097
-574.719	800.000	-0.023	0.071
-573.704	249.536	-0.127	-0.215
-572.690	-34.702	0.222	-0.121
-571.675	-200.000	0.040	0.363
-570.661	39.458	-0.268	-0.240
-569.646	69.630	0.216	-0.222
-568.631	-2.301	0.173	-0.121
-567.617	-58.603	-0.136	-0.059
-566.602	27.080	-0.192	0.161
-565.588	13.800	-0.213	0.165
-564.573	-200.000	-0.075	0.366
-563.558	14.542	-0.246	-0.192
-562.544	197.390	-0.119	0.182
-561.529	-63.089	-0.299	0.123
-560.515	-9.625	-0.354	-0.236
-559.500	800.000	0.101	0.365
-558.485	-160.817	0.394	0.021
-557.471	-55.183	-0.299	0.134
-556.456	-49.068	0.252	-0.120
-555.442	24.224	-0.064	0.053
-554.427	-81.164	-0.258	0.085
-553.412	-24.664	-0.121	-0.072
-552.398	746.049	-0.166	0.447
-551.383	42.338	0.242	0.219
-550.369	109.656	-0.165	-0.198
-549.354	484.944	0.080	-0.182
-548.339	-110.728	0.249	-0.051
-547.325	-24.407	-0.070	-0.042
-546.310	398.106	0.107	0.224
-545.296	122.771	0.073	0.091
-544.281	-51.480	0.110	0.052
-543.266	-133.982	0.241	0.030
-542.252	800.000	-0.157	0.454
-541.237	800.000	0.053	-0.190
-540.223	165.901	0.185	-0.262
-539.208	800.000	-0.130	-0.419
-538.193	800.000	0.127	-0.438
-537.179	-18.426	-0.031	-0.019
-536.164	150.991	-0.079	-0.107
-535.150	53.074	0.303	-0.289
-534.135	-200.000	-0.057	0.268
-533.121	70.824	0.150	0.155
-532.106	248.222	0.085	-0.144
-531.091	331.568	0.142	-0.274
-530.077	-19.546	-0.243	0.150
-529.062	-200.000	0.064	-0.407
-528.048	-200.000	0.017	-0.202
-527.033	-2.781	0.116	0.081
-526.018	-8.752	0.271	-0.181
-525.004	-78.796	-0.231	0.079
-523.989	-200.000	-0.030	-0.375
-522.975	378.957	0.034	-0.069
-521.960	-200.000	-0.049	-0.307
-520.945	108.628	-0.250	-0.298
-519.931	-170.192	0.236	-0.008
-518.916	73.714	-0.073	0.076
-517.902	390.269	0.007	-0.014
-516.887	40.219	-0.193	0.173
-515.872	94.799	-0.159	0.181
-514.858	-115.120	0.160	-0.030
-513.843	98.982	-0.131	0.151
-512.829	-67.758	-0.235	-0.092
-511.814	-200.000	-0.068	-0.360
-510.799	-200.000	0.044	0.214
-509.785	-118.087	-0.138	0.025
-508.770	-200.000	0.028	0.123
-507.756	800.000	-0.032	0.098
-506.741	-117.067	0.176	0.032
-505.726	800.000	-0.079	0.240
-504.712	-135.727	0.289	-0.034
-503.697	548.856	0.104	-0.248
-502.683	234.610	-0.156	-0.256
-501.668	57.218	-0.091	-0.089
-500.653	800.000	-0.061	0.176
-499.639	-59.970	0.156	0.067
-498.624	-11.051	0.174	-0.114
-497.610	61.368	-0.283	0.281
-496.595	800.000	0.070	0.287
-495.581	38.608	0.161	-0.143
-494.566	-22.192	0.024	-0.015
-493.551	-25.715	0.243	-0.143
-492.537	-70.930	0.145	-0.055
-491.522	-73.689	-0.464	-0.168
-490.508	-66.820	-0.306	0.121
-489.493	432.620	-0.103	0.223
-488.478	-146.384	-0.189	0.016
-487.464	-107.986	0.167	0.036
-486.449	-200.000	-0.064	0.297
-485.435	150.591	-0.058	-0.079
-484.420	-200.000	0.014	-0.250
-483.405	80.713	0.047	-0.050
-482.391	-189.657	-0.325	-0.004
-481.376	-62.877	0.068	0.028
-480.362	39.138	-0.137	0.122
-479.347	-29.552	-0.144	-0.082
-478.332	800.000	0.036	-0.144
-477.318	3.757	-0.261	0.190
-476.303	1.525	0.225	-0.161
-475.289	-200.000	0.014	0.177
-474.274	-200.000	0.049	0.264
-473.259	-24.043	0.063	-0.038
-472.245	163.734	0.166	0.233
-471.230	-131.096	-0.206	0.027
-470.216	-19.992	0.053	-0.033
-469.201	484.110	0.035	0.080
-468.186	-48.391	0.309	0.148
-467.172	-47.678	-0.306	-0.148
-466.157	204.960	-0.195	0.300
-465.143	-200.000	-0.045	0.339
-464.128	97.870	-0.262	-0.300
-463.113	800.000	-0.051	0.140
-462.099	-129.925	0.210	0.029
-461.084	43.640	0.162	0.148
-460.070	-12.421	0.195	0.127
-459.055	-109.848	0.279	0.058
-458.040	-124.515	-0.152	0.023
-457.026	-200.000	0.024	0.184
-456.011	-51.790	-0.272	-0.126
-454.997	135.975	0.135	0.176
-453.982	-145.611	-0.172	0.015
-452.968	-111.853	-0.357	-0.072
-451.953	53.453	-0.156	-0.149
-450.938	-200.000	0.055	-0.334
-449.924	-200.000	-0.020	-0.133
-448.909	395.003	0.208	-0.432
-447.895	431.317	0.029	0.063
-446.880	-104.550	-0.162	-0.037
-445.865	118.207	0.061	-0.075
-444.851	-41.489	-0.276	-0.141
-443.836	-9.633	0.100	0.066
-442.822	292.078	-0.044	-0.080
-441.807	-4.149	-0.038	-0.026
-440.792	668.366	-0.062	-0.160
-439.778	-104.999	0.075	-0.017
-438.763	-32.660	-0.188	-0.104
-437.749	57.800	-0.025	-0.024
-436.734	-200.000	-0.010	0.125
-435.719	598.226	0.104	0.256
-434.705	-21.288	0.125	-0.076
-433.690	161.999	0.131	-0.182
-432.676	-172.430	-0.211	0.007
-431.661	9.002	-0.496	0.372
-430.646	800.000	-0.060	-0.175
-429.632	-200.000	-0.054	-0.425
-428.617	800.000	0.056	-0.226
-427.603	-200.000	0.003	0.136
-426.588	-34.247	-0.111	-0.061
-425.573	-25.734	-0.360	-0.211
-424.559	-17.533	-0.180	-0.112
-423.544	-200.000	0.042	-0.221
-422.530	-45.779	0.113	-0.055
-421.515	126.285	0.136	-0.171
-420.500	-119.036	-0.049	0.009
-419.486	102.677	0.089	-0.104
-418.471	-200.000	-0.010	0.163
-417.457	-200.000	-0.001	-0.390
-416.442	-89.072	-0.189	-0.055
-415.428	-81.797	0.226	-0.074
-414.413	-126.462	0.232	0.034
-413.398	170.271	0.211	0.300
-412.384	130.919	0.051	-0.065
-411.369	-200.000	-0.042	0.292
-410.355	402.657	-0.014	-0.028
-409.340	-28.850	0.247	0.141
-408.325	800.000	0.051	0.149
-407.311	-200.000	-0.072	-0.483
-406.296	-140.132	0.123	-0.013
-405.282	261.903	0.016	-0.028
-404.267	-25.884	0.156	0.091
-403.252	-114.848	0.310	0.059
-402.238	-30.329	-0.323	0.182
-401.223	-14.784	-0.074	-0.047
-400.209	-114.491	-0.072	-0.014
-399.194	800.000	0.008	0.031
-398.179	800.000	-0.070	0.221
-397.165	-72.501	-0.189	-0.069
-396.150	-73.321	0.131	-0.047
-395.136	-151.885	-0.223	-0.016
-394.121	172.667	-0.043	0.061
-393.106	-200.000	0.025	-0.186
-392.092	-27.506	0.118	-0.068
-391.077	-155.417	-0.159	0.010
-390.063	333.502	-0.115	0.221
-389.048	-200.000	0.019	0.156
-388.033	251.336	0.182	0.308
-387.019	800.000	0.049	-0.165
-386.004	47.896	-0.221	-0.205
-384.990	743.981	-0.141	-0.376
-383.975	-87.371	0.219	0.066
-382.960	364.078	0.110	0.219
-381.946	-105.191	-0.253	0.057
-380.931	-74.924	-0.472	0.168
-379.917	-83.366	0.251	0.080
-378.902	-25.512	0.226	-0.133
-377.888	-160.315	-0.495	-0.026
-376.873	800.000	-0.071	-0.238
-375.858	2.092	0.183	0.131
-374.844	-200.000	0.033	0.278
-373.829	131.319	0.145	0.185
-372.815	112.584	0.087	0.105
-371.800	800.000	0.069	0.244
-370.785	-200.000	0.071	0.334
-369.771	345.078	0.073	0.141
-368.756	-200.000	-0.056	0.286
-367.742	-9.581	-0.205	0.136
-366.727	-125.745	0.253	0.038
-365.712	326.866	-0.172	-0.326
-364.698	319.544	0.089	-0.167
-363.683	800.000	0.072	0.213
-362.669	-64.875	-0.100	0.040
-361.654	-114.606	-0.139	0.026
-360.639	-1.984	0.348	-0.242
-359.625	184.424	0.181	-0.266
-358.610	-111.318	-0.151	0.031
-357.596	-67.827	0.097	0.038
-356.581	-200.000	-0.034	-0.213
-355.566	-127.444	-0.163	-0.023
-354.552	-143.916	-0.129	-0.012
-353.537	-18.862	0.243	0.150
-352.523	-200.000	0.036	-0.160
-351.508	800.000	-0.035	-0.109
-350.493	-200.000	0.063	0.295
-349.479	28.419	0.365	-0.306
-348.464	-200.000	-0.040	0.229
-347.450	189.722	-0.267	0.397
-346.435	-148.391	-0.389	-0.032
-345.420	8.419	0.155	0.116
-344.406	67.942	-0.355	-0.359
-343.391	68.581	-0.093	0.094
-342.377	-200.000	-0.011	0.391
-341.362	800.000	0.123	-0.384
-340.348	-200.000	-0.015	0.294
-339.333	-200.000	0.014	-0.125
-338.318	800.000	0.100	-0.278
-337.304	177.242	-0.065	-0.094
-336.289	110.174	0.145	-0.173
-335.275	-13.538	-0.251	0.161
-334.260	340.686	0.086	0.166
-333.245	266.454	-0.041	0.070
-332.231	-31.477	-0.083	-0.046
-331.216	800.000	0.042	0.124
-330.202	8.040	-0.142	-0.105
-329.187	-86.862	0.031	-0.010
-328.172	-35.168	-0.204	0.110
-327.158	82.587	-0.113	-0.121
-326.143	-163.876	0.196	0.009
-325.129	251.722	0.033	0.055
-324.114	-94.762	0.169	0.045
-323.099	-200.000	-0.045	-0.214
-322.085	-200.000	-0.004	0.126
-321.070	126.720	-0.183	0.230
-320.056	578.998	0.063	0.154
-319.041	299.724	0.213	-0.389
-318.026	261.699	-0.061	-0.105
-317.012	144.462	0.313	-0.414
-315.997	-14.931	0.187	-0.118
-314.983	-146.368	0.372	0.032
-313.968	15.886	-0.151	0.117
-312.953	-200.000	-0.043	0.283
-311.939	-101.735	0.324	0.078
-310.924	226.085	0.302	0.484
-309.910	201.738	-0.095	-0.144
-308.895	-96.973	-0.108	0.028
-307.880	590.832	-0.180	0.438
-306.866	-200.000	-0.029	-0.154
-305.851	23.884	0.179	-0.146
-304.837	-200.000	0.027	-0.222
-303.822	-103.573	0.363	0.084
-302.807	530.456	-0.103	-0.241
-301.793	-24.492	0.286	-0.169
-300.778	594.919	0.030	0.074
-299.764	-75.374	0.040	0.014
-298.749	412.422	-0.079	0.167
-297.735	-95.467	0.381	0.101
-296.720	121.379	-0.087	0.107
-295.705	459.049	-0.075	-0.165
-294.691	413.824	-0.060	-0.127
-293.676	-36.065	0.306	0.163
-292.662	-200.000	-0.025	-0.248
-291.647	-115.828	0.092	-0.017
-290.632	31.155	0.072	0.061
-289.618	-7.939	0.072	0.048
-288.603	-200.000	0.061	-0.436
-287.589	132.332	0.151	0.193
-286.574	-50.979	-0.406	0.189
-285.559	-21.019	0.201	0.121
-284.545	-120.541	0.198	0.033
-283.530	22.096	0.291	-0.235
-282.516	-132.077	0.083	-0.011
-281.501	-30.658	0.283	-0.158
-280.486	-88.487	-0.207	0.061
-279.472	-200.000	0.013	-0.106
-278.457	-64.925	0.352	0.141
-277.443	29.831	0.224	-0.189
-276.428	9.638	0.362	-0.271
-275.413	-13.897	0.156	-0.100
-274.399	-200.000	0.054	0.258
-273.384	-200.000	0.021	-0.133
-272.370	-28.396	-0.116	-0.066
-271.355	-121.407	0.266	0.044
-270.340	800.000	0.064	0.201
-269.326	125.789	-0.112	0.140
-268.311	203.365	-0.049	-0.075
-267.297	41.546	-0.128	-0.115
-266.282	-89.538	-0.169	-0.049
-265.267	392.830	-0.010	-0.021
-264.253	-128.605	-0.266	-0.037
-263.238	-200.000	-0.032	-0.195
-262.224	23.236	0.143	-0.116
-261.209	-132.446	-0.310	0.039
-260.195	-23.667	0.130	-0.077
-259.180	-43.059	-0.304	0.152
-258.165	-162.170	-0.087	0.004
-257.151	216.088	0.131	-0.206
-256.136	-200.000	0.005	0.032
-255.122	-60.580	0.100	0.042
-254.107	642.043	0.087	0.218
-253.092	800.000	-0.128	0.373
-252.078	191.796	0.088	0.131
-251.063	-134.053	0.095	0.012
-250.049	800.000	-0.106	0.340
-249.034	475.930	0.068	0.152
-248.019	141.298	0.279	-0.365
-247.005	4.561	-0.067	-0.049
-245.990	-118.624	-0.311	-0.054
-244.976	18.198	0.090	-0.071
-243.961	-127.707	0.034	0.005
-242.946	-35.270	0.146	0.079
-241.932	-200.000	0.017	-0.192
-240.917	800.000	0.131	0.444
-239.903	22.570	-0.185	0.149
-238.888	-63.989	-0.079	-0.032
-237.873	-200.000	0.058	0.281
-236.859	473.971	0.048	0.106
-235.844	-167.970	-0.220	-0.008
-234.830	-180.050	-0.235	-0.005
-233.815	800.000	0.123	0.366
-232.800	-148.544	-0.079	0.006
-231.786	-171.232	0.354	-0.012
-230.771	-59.419	-0.184	0.078
-229.757	110.869	-0.079	0.094
-228.742	-200.000	-0.022	-0.197
-227.727	-111.458	0.287	-0.058
-226.713	800.000	-0.053	0.151
-225.698	-93.661	0.318	0.087
-224.684	-64.340	-0.564	0.226
-223.669	-200.000	-0.008	-0.178
-222.655	-47.167	-0.436	0.209
-221.640	27.011	-0.117	0.097
-220.625	1.987	-0.102	-0.072
-219.611	245.269	0.024	0.040
-218.596	54.372	-0.037	0.035
-217.582	-200.000	-0.007	-0.190
-216.567	36.477	-0.295	0.256
-215.552	577.136	0.066	0.159
-214.538	51.431	0.066	0.062
-213.523	-63.581	-0.259	-0.105
-212.509	70.503	0.226	-0.230
-211.494	-37.365	0.128	-0.067
-210.479	-200.000	-0.040	0.229
-209.465	25.165	-0.297	0.243
-208.450	-200.000	0.020	0.143
-207.436	174.374	0.065	-0.093
-206.421	-83.869	0.171	0.054
-205.406	278.563	0.031	0.054
-204.392	382.009	-0.022	0.044
-203.377	285.198	-0.148	0.263
-202.363	-156.514	-0.254	0.016
-201.348	-78.700	0.268	-0.090
-200.333	180.780	-0.139	0.201
-199.319	144.943	-0.122	0.160
-198.304	36.487	0.098	0.085
-197.290	177.841	-0.087	0.125
-196.275	-130.249	0.178	-0.024
-195.260	2.511	-0.049	-0.035
-194.246	-131.806	0.281	0.036
-193.231	800.000	0.035	0.102
-192.217	-200.000	0.042	-0.216
-191.202	155.897	0.214	-0.290
-190.187	-200.000	-0.080	-0.488
-189.173	800.000	-0.047	-0.141
-188.158	-200.000	0.009	0.324
-187.144	-21.077	0.192	-0.116
-186.129	-101.398	-0.287	0.069
-185.114	35.007	-0.069	0.059
-184.100	69.282	0.208	0.211
-183.085	-200.000	-0.009	-0.120
-182.071	426.800	-0.052	-0.110
-181.056	-14.646	0.059	-0.037
-180.042	-26.790	-0.133	0.077
-179.027	71.086	0.230	-0.235
-178.012	441.888	-0.129	-0.278
-176.998	477.461	-0.038	0.085
-175.983	-117.251	0.166	0.030
-174.969	-150.878	0.135	0.010
-173.954	-67.170	0.079	0.031
-172.939	173.934	-0.041	0.058
-171.925	-134.706	-0.375	-0.045
-170.910	-200.000	0.024	0.120
-169.896	122.104	0.309	-0.379
-168.881	-200.000	0.229	-0.001
-167.866	36.307	-0.209	0.181
-166.852	-200.000	-0.058	-0.366
-165.837	800.000	-0.077	-0.290
-164.823	-18.450	0.064	0.039
-163.808	-200.000	-0.008	-0.281
-162.793	-200.000	-0.032	0.273
-161.779	81.761	-0.162	0.172
-160.764	-200.000	-0.027	0.187
-159.750	-3.761	-0.455	0.311
-158.735	242.691	-0.016	0.026
-157.720	-20.457	-0.074	0.045
-156.706	593.417	0.169	0.410
-155.691	-200.000	0.025	-0.128
-154.677	-105.532	0.121	-0.027
-153.662	-200.000	0.001	-0.030
-152.647	-132.557	0.152	-0.019
-151.633	-96.068	0.259	-0.068
-150.618	-12.232	-0.045	0.029
-149.604	319.173	0.151	0.281
-148.589	22.165	-0.141	0.113
-147.574	-197.027	0.348	0.002
-146.560	332.966	-0.114	0.216
-145.545	508.723	0.172	0.392
-144.531	167.886	0.164	0.230
-143.516	122.071	-0.152	0.187
-142.502	37.070	0.169	0.147
-141.487	261.621	-0.154	0.263
-140.472	-173.036	0.235	0.007
-139.458	-151.963	0.472	0.034
-138.443	12.615	-0.108	-0.082
-137.429	800.000	-0.069	0.211
-136.414	-200.000	0.027	0.119
-135.399	20.289	-0.187	0.148
-134.385	-93.246	-0.385	0.105
-133.370	-170.025	0.208	-0.007
-132.356	-179.873	-0.239	0.005
-131.341	600.650	0.092	-0.224
-130.326	-163.774	-0.177	-0.008
-129.312	17.174	-0.190	-0.148
-128.297	0.847	0.265	-0.186
-127.283	-161.769	0.172	0.009
-126.268	800.000	0.059	0.186
-125.253	-110.219	0.262	0.054
-124.239	159.618	0.021	-0.029
-123.224	-200.000	0.076	0.396
-122.210	18.462	-0.116	-0.091
-121.195	-148.711	0.248	-0.020
