DTS Sentinel unit serial number:	SN413079Multiplexer serial number:	ORYXHardware model number:	OX4-SRSoftware version number:	ORYX F/W v4.00 Oryx Data Collector v3.7.2.0data status	okinstallation	princeton_trtdifferential loss correction	single-endedforward channel	channel 1reverse channel	N/Adate	2019/09/17time	11:42:35forward acquisition time	60.00reverse acquisition time	0.00gamma	496.2192k internal	0.2322k external	0.2322temperature offset calibration	0.9974default loss term (dB/km)	0.3790temperature slope calibration	1.0000multiplexer offset coefficient	1.0000multiplexer slope coefficient	1.0000fibre end	0.00T internal ref (°C)	30.83T ext. ref 1 (°C)	0.40T ext. ref 2 (°C)	26.64length (m)	temperature (°C)	Stokes	anti-Stokes-747.200	-42.229	0.119	-0.061
-746.185	83.293	-0.191	0.210
-745.171	-200.000	0.008	-0.122
-744.156	-31.769	-0.147	0.084
-743.142	-83.519	0.039	-0.013
-742.127	-200.000	0.040	0.256
-741.112	-200.000	0.010	0.125
-740.098	800.000	-0.115	0.372
-739.083	71.072	0.375	0.392
-738.069	-200.000	0.029	0.147
-737.054	108.212	0.116	-0.139
-736.039	-96.219	-0.254	0.068
-735.025	800.000	0.030	0.116
-734.010	-122.540	-0.095	-0.016
-732.996	800.000	0.082	-0.305
-731.981	6.920	0.138	-0.104
-730.966	96.607	-0.072	0.084
-729.952	275.141	-0.108	-0.193
-728.937	-63.680	-0.422	-0.175
-727.923	-1.874	-0.249	0.177
-726.908	3.294	-0.073	-0.054
-725.894	-200.000	0.073	-0.381
-724.879	97.912	-0.233	-0.270
-723.864	-80.652	-0.608	-0.204
-722.850	201.480	0.056	-0.087
-721.835	-41.755	0.262	0.136
-720.821	-200.000	-0.016	-0.198
-719.806	-18.452	-0.184	0.116
-718.791	173.827	-0.153	-0.223
-717.777	409.396	0.097	0.207
-716.762	-75.392	-0.143	-0.051
-715.748	147.380	0.142	-0.193
-714.733	-151.256	-0.317	0.024
-713.718	-200.000	-0.015	-0.292
-712.704	22.795	0.221	0.183
-711.689	-200.000	0.037	-0.185
-710.675	-2.579	0.084	-0.059
-709.660	800.000	-0.029	0.087
-708.645	-68.418	0.190	-0.075
-707.631	-82.855	0.069	-0.023
-706.616	-127.407	-0.405	0.059
-705.602	800.000	-0.020	0.075
-704.587	-200.000	-0.025	-0.142
-703.572	162.145	-0.140	-0.199
-702.558	-48.473	0.260	-0.126
-701.543	614.575	-0.121	0.306
-700.529	199.189	0.209	0.323
-699.514	61.259	-0.056	0.057
-698.499	107.813	0.127	-0.153
-697.485	136.579	-0.225	0.296
-696.470	-200.000	0.058	0.280
-695.456	-35.350	-0.157	0.086
-694.441	-110.022	0.247	-0.052
-693.426	35.746	-0.290	-0.257
-692.412	-38.271	0.329	-0.176
-691.397	-200.000	-0.007	0.120
-690.383	461.221	0.009	-0.021
-689.368	-95.951	-0.197	0.053
-688.354	284.606	0.193	-0.351
-687.339	3.606	-0.134	-0.099
-686.324	800.000	0.138	-0.437
-685.310	-120.006	-0.432	-0.075
-684.295	-200.000	0.016	0.146
-683.281	-150.083	-0.411	-0.032
-682.266	-86.375	0.163	-0.050
-681.251	800.000	0.091	-0.259
-680.237	-33.694	0.170	-0.095
-679.222	-200.000	-0.013	-0.282
-678.208	-26.971	0.237	0.139
-677.193	-200.000	-0.009	0.078
-676.178	258.028	0.165	-0.287
-675.164	-200.000	0.004	-0.150
-674.149	-81.284	-0.020	-0.007
-673.135	-134.816	-0.391	0.048
-672.120	-111.656	0.532	-0.109
-671.105	-5.601	-0.226	0.156
-670.091	94.656	-0.213	0.244
-669.076	-200.000	-0.033	-0.207
-668.062	-200.000	-0.008	-0.108
-667.047	-200.000	-0.015	-0.088
-666.032	-200.000	0.027	-0.149
-665.018	-157.446	-0.212	0.013
-664.003	79.804	-0.061	-0.066
-662.989	202.417	0.079	0.123
-661.974	-15.535	0.404	0.260
-660.959	-133.333	-0.416	0.053
-659.945	800.000	0.038	-0.118
-658.930	-84.216	-0.229	-0.073
-657.916	-102.155	-0.062	0.015
-656.901	-121.454	0.103	-0.017
-655.886	-36.599	0.208	-0.113
-654.872	-60.299	-0.229	-0.098
-653.857	-66.887	0.507	-0.202
-652.843	69.585	-0.072	-0.075
-651.828	73.586	-0.046	0.049
-650.814	-96.553	-0.286	-0.076
-649.799	800.000	0.064	0.188
-648.784	-200.000	0.014	-0.132
-647.770	800.000	-0.034	-0.129
-646.755	-200.000	-0.005	0.035
-645.741	-72.494	-0.030	0.011
-644.726	-200.000	-0.003	-0.077
-643.711	576.186	0.087	-0.215
-642.697	244.341	-0.167	-0.282
-641.682	-200.000	-0.050	-0.303
-640.668	86.365	-0.199	-0.221
-639.653	-30.583	-0.045	-0.026
-638.638	-183.807	0.186	0.003
-637.624	-200.000	0.031	-0.172
-636.609	-75.664	0.076	-0.027
-635.595	-200.000	-0.053	0.375
-634.580	380.121	-0.130	-0.268
-633.565	258.533	0.021	0.036
-632.551	170.763	0.073	0.106
-631.536	-91.251	0.102	-0.029
-630.522	43.945	0.124	-0.115
-629.507	31.904	-0.346	0.299
-628.492	547.451	0.016	0.038
-627.478	-179.611	0.313	0.007
-626.463	-143.571	0.108	-0.010
-625.449	-200.000	-0.042	-0.356
-624.434	25.258	-0.210	-0.176
-623.419	-200.000	0.020	-0.117
-622.405	-69.147	-0.275	0.106
-621.390	-200.000	0.004	0.299
-620.376	-150.981	-0.369	-0.028
-619.361	-187.919	-0.261	-0.003
-618.346	-113.790	0.252	0.049
-617.332	115.252	-0.163	0.200
-616.317	800.000	0.011	-0.038
-615.303	-200.000	-0.009	0.104
-614.288	-23.880	0.337	0.203
-613.273	109.099	-0.066	0.079
-612.259	-200.000	-0.006	0.077
-611.244	154.374	-0.140	-0.193
-610.230	75.889	-0.211	-0.225
-609.215	118.944	0.160	-0.198
-608.201	297.194	-0.136	-0.251
-607.186	-16.839	0.106	0.067
-606.171	-200.000	0.004	0.130
-605.157	3.768	-0.117	-0.086
-604.142	494.528	0.097	-0.224
-603.128	12.819	-0.134	0.104
-602.113	-147.622	0.089	0.007
-601.098	72.327	0.042	-0.044
-600.084	462.151	0.068	-0.152
-599.069	33.698	-0.329	-0.287
-598.055	-200.000	-0.058	-0.285
-597.040	-200.000	0.023	-0.153
-596.025	-51.202	-0.506	0.238
-595.011	791.625	-0.032	-0.089
-593.996	-119.573	0.080	-0.014
-592.982	800.000	0.094	0.283
-591.967	-159.966	0.163	0.009
-590.952	-123.236	-0.098	0.016
-589.938	-102.136	0.196	0.047
-588.923	-200.000	0.020	-0.164
-587.909	-158.020	-0.225	0.013
-586.894	-57.614	0.150	0.066
-585.879	583.942	-0.126	0.311
-584.865	-125.522	-0.112	-0.017
-583.850	-42.868	-0.211	0.108
-582.836	-41.737	-0.146	0.075
-581.821	33.542	-0.037	-0.032
-580.806	-72.502	0.022	-0.008
-579.792	-164.449	-0.284	-0.013
-578.777	329.516	-0.041	0.079
-577.763	11.143	0.091	0.070
-576.748	-82.994	-0.299	-0.097
-575.733	-200.000	0.019	-0.166
-574.719	800.000	-0.040	-0.163
-573.704	-66.953	-0.378	-0.150
-572.690	800.000	-0.058	-0.199
-571.675	-200.000	0.025	0.124
-570.661	-124.883	-0.356	-0.055
-569.646	-50.150	0.055	0.026
-568.631	-100.046	-0.212	-0.053
-567.617	-200.000	0.049	0.259
-566.602	138.639	0.141	-0.185
-565.588	800.000	0.092	0.289
-564.573	-200.000	0.020	0.152
-563.558	199.866	0.189	0.292
-562.544	-200.000	-0.034	-0.288
-561.529	-157.039	-0.166	-0.010
-560.515	800.000	0.069	0.262
-559.500	-131.602	-0.111	0.015
-558.485	425.811	0.046	0.099
-557.471	-126.867	-0.172	0.025
-556.456	-71.401	0.068	-0.026
-555.442	73.854	0.269	-0.283
-554.427	-200.000	-0.054	0.265
-553.412	800.000	-0.085	-0.285
-552.398	-131.674	-0.296	-0.039
-551.383	-46.461	-0.212	-0.105
-550.369	60.428	-0.084	-0.083
-549.354	-136.752	-0.182	0.021
-548.339	-90.526	0.080	0.023
-547.325	756.085	0.064	-0.174
-546.310	-119.937	-0.112	0.019
-545.296	500.647	-0.052	0.120
-544.281	-23.896	0.229	0.137
-543.266	-95.369	0.138	0.037
-542.252	354.609	-0.119	0.237
-541.237	-76.927	-0.222	0.078
-540.223	-200.000	-0.052	-0.315
-539.208	171.158	-0.055	0.079
-538.193	-175.687	0.198	-0.005
-537.179	-200.000	0.015	0.202
-536.164	-200.000	0.014	0.357
-535.150	-158.350	-0.440	0.026
-534.135	-59.324	-0.066	-0.029
-533.121	-200.000	-0.005	-0.063
-532.106	800.000	-0.137	-0.394
-531.091	-53.322	0.178	0.082
-530.077	-97.856	-0.185	0.048
-529.062	-11.420	-0.140	0.092
-528.048	-71.476	0.261	0.098
-527.033	-200.000	-0.041	-0.211
-526.018	800.000	0.049	-0.147
-525.004	-200.000	-0.032	-0.307
-523.989	169.753	0.057	0.081
-522.975	-120.294	-0.040	0.007
-521.960	-132.349	-0.117	0.015
-520.945	800.000	0.012	-0.036
-519.931	-85.971	0.306	-0.095
-518.916	498.584	-0.107	-0.246
-517.902	0.659	-0.179	0.128
-516.887	-38.485	0.089	0.047
-515.872	58.102	-0.303	0.297
-514.858	-165.418	0.178	-0.008
-513.843	-133.246	0.221	-0.028
-512.829	-111.695	-0.075	-0.015
-511.814	510.513	-0.015	-0.035
-510.799	244.806	0.171	0.288
-509.785	23.254	0.273	-0.225
-508.770	396.822	0.073	0.152
-507.756	88.647	0.119	0.132
-506.741	-83.572	0.165	0.053
-505.726	-1.864	-0.154	-0.109
-504.712	26.699	-0.134	-0.112
-503.697	-161.326	0.086	0.004
-502.683	55.309	0.139	0.134
-501.668	317.852	-0.104	-0.197
-500.653	107.108	0.111	0.132
-499.639	478.545	0.068	0.155
-498.624	13.123	0.207	-0.161
-497.610	-25.816	-0.196	-0.116
-496.595	356.422	-0.101	-0.201
-495.581	-66.069	-0.352	0.141
-494.566	-200.000	0.183	0.001
-493.551	-200.000	0.005	-0.085
-492.537	800.000	-0.101	0.296
-491.522	274.750	0.101	0.179
-490.508	800.000	0.063	-0.264
-489.493	-200.000	-0.016	0.110
-488.478	149.904	0.053	-0.072
-487.464	121.791	-0.284	0.354
-486.449	43.963	0.158	-0.144
-485.435	-55.609	0.611	-0.274
-484.420	800.000	0.031	0.087
-483.405	109.734	-0.113	-0.136
-482.391	39.980	-0.047	-0.042
-481.376	-45.218	0.016	0.008
-480.362	800.000	-0.051	0.182
-479.347	-200.000	0.011	-0.104
-478.332	-10.499	0.391	-0.259
-477.318	-55.780	-0.155	0.069
-476.303	10.164	0.198	0.151
-475.289	11.864	-0.146	0.112
-474.274	298.585	-0.129	0.237
-473.259	-33.056	-0.535	0.297
-472.245	-32.173	0.278	0.155
-471.230	337.373	0.209	0.406
-470.216	-200.000	-0.029	-0.362
-469.201	78.181	0.157	-0.167
-468.186	0.889	-0.156	-0.112
-467.172	-17.784	0.278	0.174
-466.157	73.911	-0.300	-0.314
-465.143	563.587	0.098	-0.238
-464.128	-103.886	-0.092	0.021
-463.113	-200.000	-0.019	-0.182
-462.099	414.780	0.066	-0.140
-461.084	800.000	0.026	-0.111
-460.070	43.943	0.128	-0.117
-459.055	286.104	-0.075	-0.135
-458.040	131.388	0.173	0.222
-457.026	142.643	-0.105	0.140
-456.011	-126.360	0.076	-0.011
-454.997	8.390	0.098	0.073
-453.982	-200.000	-0.021	0.278
-452.968	80.457	0.236	0.254
-451.953	31.549	0.209	0.180
-450.938	-200.000	0.091	-0.460
-449.924	-70.616	-0.231	-0.087
-448.909	121.165	0.031	0.039
-447.895	800.000	-0.034	-0.136
-446.880	60.112	-0.026	-0.025
-445.865	-88.999	0.264	0.078
-444.851	-6.623	0.144	-0.098
-443.836	100.861	-0.083	-0.097
-442.822	-190.256	-0.231	0.003
-441.807	-138.244	0.136	0.015
-440.792	-34.105	-0.180	0.099
-439.778	800.000	0.080	0.292
-438.763	468.574	-0.032	0.072
-437.749	-131.088	0.415	0.055
-436.734	-126.081	-0.277	-0.041
-435.719	-62.531	0.060	0.025
-434.705	-148.586	0.217	-0.018
-433.690	-200.000	-0.049	0.222
-432.676	-79.046	-0.098	-0.033
-431.661	-110.752	-0.408	-0.084
-430.646	637.534	-0.086	-0.217
-429.632	-200.000	-0.028	0.283
-428.617	800.000	0.098	0.307
-427.603	-89.053	0.215	-0.063
-426.588	614.764	-0.081	-0.202
-425.573	-84.402	0.253	-0.080
-424.559	-8.306	-0.170	0.114
-423.544	-56.577	0.317	-0.140
-422.530	-7.380	0.246	0.166
-421.515	800.000	0.036	-0.154
-420.500	101.677	0.165	-0.192
-419.486	-90.008	-0.085	-0.025
-418.471	-6.359	-0.043	0.029
-417.457	146.174	-0.112	-0.150
-416.442	-96.048	-0.282	-0.075
-415.428	-30.696	-0.337	-0.190
-414.413	-14.599	-0.155	0.100
-413.398	741.802	0.076	-0.203
-412.384	-124.098	-0.277	-0.043
-411.369	-39.948	0.197	-0.102
-410.355	-200.000	-0.057	-0.250
-409.340	29.103	-0.128	0.108
-408.325	326.330	-0.136	0.260
-407.311	509.469	0.068	0.158
-406.296	-147.203	-0.408	0.035
-405.282	-68.857	0.219	0.084
-404.267	-77.704	0.152	0.052
-403.252	-45.370	0.061	0.030
-402.238	-132.088	0.454	0.059
-401.223	90.471	0.194	0.216
-400.209	-124.017	0.263	0.041
-399.194	-16.948	-0.600	0.378
-398.179	-200.000	-0.001	0.037
-397.165	107.686	0.155	0.183
-396.150	-6.260	0.166	0.113
-395.136	22.293	0.149	0.121
-394.121	-7.346	-0.082	0.055
-393.106	-22.798	0.135	-0.081
-392.092	-158.468	0.217	0.012
-391.077	87.564	0.107	0.118
-390.063	299.183	0.062	-0.113
-389.048	-200.000	-0.008	-0.340
-388.033	-164.090	0.148	-0.007
-387.019	643.392	0.124	0.316
-386.004	196.801	-0.027	0.040
-384.990	-34.588	-0.262	-0.143
-383.975	800.000	-0.014	-0.045
-382.960	79.290	0.251	-0.268
-381.946	527.764	0.091	-0.213
-380.931	35.362	0.118	-0.103
-379.917	-200.000	-0.015	0.093
-378.902	-113.997	0.105	0.020
-377.888	31.816	-0.326	0.280
-376.873	800.000	-0.066	0.207
-375.858	375.718	-0.177	-0.359
-374.844	-150.103	0.216	0.017
-373.829	-35.506	-0.239	0.129
-372.815	337.540	-0.022	-0.043
-371.800	-200.000	0.010	0.316
-370.785	486.309	0.083	0.187
-369.771	-113.432	0.298	0.058
-368.756	-200.000	-0.007	0.056
-367.742	54.187	-0.033	-0.031
-366.727	-196.617	-0.521	0.003
-365.712	800.000	0.052	0.175
-364.698	-200.000	-0.040	-0.395
-363.683	302.755	-0.125	0.230
-362.669	800.000	-0.114	0.409
-361.654	36.013	-0.315	-0.276
-360.639	800.000	0.092	-0.258
-359.625	38.906	-0.020	0.018
-358.610	800.000	-0.042	0.146
-357.596	147.631	0.223	0.298
-356.581	-200.000	0.020	0.139
-355.566	15.942	0.169	-0.133
-354.552	89.860	-0.135	-0.150
-353.537	17.853	-0.215	0.171
-352.523	800.000	0.181	-0.589
-351.508	800.000	-0.118	-0.451
-350.493	-7.241	-0.132	-0.089
-349.479	51.158	0.258	0.243
-348.464	208.635	0.094	0.146
-347.450	-7.473	-0.170	-0.115
-346.435	800.000	0.109	-0.325
-345.420	494.596	0.085	-0.194
-344.406	27.567	0.241	0.202
-343.391	108.919	0.102	0.121
-342.377	72.671	-0.142	-0.147
-341.362	579.932	0.104	0.252
-340.348	150.874	0.095	0.129
-339.333	-93.917	0.240	-0.066
-338.318	-72.025	-0.410	0.151
-337.304	-68.433	0.228	0.088
-336.289	-89.201	-0.484	-0.142
-335.275	420.897	0.014	-0.030
-334.260	139.579	0.107	-0.140
-333.245	800.000	0.023	-0.065
-332.231	-158.805	-0.082	0.005
-331.216	4.748	-0.180	0.132
-330.202	193.492	-0.115	0.172
-329.187	5.324	0.094	0.069
-328.172	-160.903	0.146	0.008
-327.158	477.484	0.091	0.205
-326.143	5.515	0.263	0.193
-325.129	403.094	-0.114	-0.239
-324.114	-200.000	0.014	0.128
-323.099	-200.000	-0.014	0.292
-322.085	540.868	0.070	-0.167
-321.070	-144.520	-0.160	-0.015
-320.056	-169.578	-0.137	0.005
-319.041	165.354	0.119	-0.167
-318.026	800.000	-0.081	0.291
-317.012	193.696	0.053	0.080
-315.997	-200.000	0.029	0.222
-314.983	-43.334	0.041	0.021
-313.968	-29.365	-0.137	0.078
-312.953	800.000	-0.054	0.211
-311.939	-186.263	0.171	-0.002
-310.924	-168.520	-0.059	0.002
-309.910	-200.000	0.012	-0.056
-308.895	-200.000	0.016	-0.161
-307.880	-200.000	-0.023	-0.347
-306.866	127.186	0.050	0.063
-305.851	-106.802	-0.243	-0.054
-304.837	82.753	0.207	0.223
-303.822	328.784	0.050	-0.096
-302.807	-200.000	-0.034	-0.204
-301.793	-39.970	-0.048	-0.025
-300.778	-29.060	-0.051	0.029
-299.764	-200.000	-0.006	0.243
-298.749	-200.000	0.027	0.188
-297.735	183.088	0.140	0.205
-296.720	-19.225	-0.172	-0.106
-295.705	-200.000	-0.016	-0.132
-294.691	-141.067	0.061	-0.006
-293.676	42.282	0.220	0.198
-292.662	166.898	0.090	0.127
-291.647	-147.136	-0.339	0.029
-290.632	-200.000	-0.025	-0.542
-289.618	-200.000	0.018	-0.135
-288.603	-200.000	-0.008	-0.412
-287.589	-91.734	0.269	0.076
-286.574	42.986	0.150	-0.135
-285.559	477.351	-0.128	-0.288
-284.545	-200.000	-0.007	0.124
-283.530	118.567	0.133	-0.163
-282.516	651.888	-0.036	0.090
-281.501	183.635	-0.094	-0.137
-280.486	800.000	-0.030	-0.092
-279.472	92.686	-0.183	-0.204
-278.457	-133.653	0.182	0.023
-277.443	-61.488	0.073	0.030
-276.428	-200.000	0.014	0.305
-275.413	800.000	-0.095	0.325
-274.399	-57.838	0.121	0.052
-273.384	30.041	-0.060	0.051
-272.370	-25.024	-0.076	0.045
-271.355	-80.828	0.182	0.060
-270.340	-180.485	0.152	-0.003
-269.326	-67.458	0.346	-0.135
-268.311	107.462	0.095	-0.112
-267.297	33.088	0.084	-0.072
-266.282	452.336	-0.055	0.122
-265.267	420.487	0.082	-0.175
-264.253	-55.042	0.163	0.073
-263.238	-200.000	0.024	0.136
-262.224	-120.744	-0.079	-0.013
-261.209	-11.315	0.371	-0.242
-260.195	103.272	-0.325	-0.377
-259.180	-200.000	-0.044	0.249
-258.165	95.952	-0.069	-0.079
-257.151	-5.372	0.209	0.143
-256.136	-146.127	-0.279	-0.024
-255.122	288.997	-0.206	0.369
-254.107	-90.647	0.231	0.066
-253.092	800.000	0.038	-0.155
-252.078	-133.858	-0.404	0.050
-251.063	-111.622	-0.376	-0.076
-250.049	-200.000	-0.006	0.298
-249.034	170.461	0.110	-0.156
-248.019	-18.787	-0.291	0.180
-247.005	-200.000	0.009	0.088
-245.990	-109.856	0.190	0.040
-244.976	-200.000	0.037	-0.261
-243.961	-52.181	0.343	-0.157
-242.946	28.988	0.215	0.181
-241.932	-17.744	-0.183	-0.114
-240.917	37.294	0.124	-0.108
-239.903	-45.025	0.102	0.050
-238.888	-200.000	-0.033	0.305
-237.873	-200.000	-0.027	-0.172
-236.859	-200.000	0.072	0.336
-235.844	89.065	-0.210	-0.231
-234.830	37.867	0.047	0.041
-233.815	-200.000	0.009	0.185
-232.800	-95.073	-0.437	-0.117
-231.786	-96.586	0.226	0.059
-230.771	428.280	0.017	0.036
-229.757	-46.328	0.227	-0.111
-228.742	-50.986	0.098	0.046
-227.727	-200.000	0.057	-0.400
-226.713	-0.726	-0.090	-0.063
-225.698	800.000	-0.057	0.197
-224.684	-55.543	-0.052	0.023
-223.669	244.697	-0.113	-0.188
-222.655	800.000	-0.108	-0.350
-221.640	41.218	0.296	-0.265
-220.625	800.000	-0.036	-0.132
-219.611	30.956	0.216	0.183
-218.596	-200.000	-0.016	-0.106
-217.582	-82.270	0.142	-0.046
-216.567	174.155	-0.130	-0.186
-215.552	68.444	-0.257	-0.260
-214.538	-114.374	0.103	-0.020
-213.523	607.705	-0.083	0.206
-212.509	-134.833	-0.112	0.013
-211.494	40.962	0.125	0.111
-210.479	180.469	0.147	0.213
-209.465	-104.421	0.127	-0.029
-208.450	-72.895	-0.099	0.036
-207.436	9.683	0.047	0.035
-206.421	46.042	-0.048	-0.044
-205.406	-200.000	-0.011	-0.117
-204.392	-137.228	0.105	0.012
-203.377	45.585	-0.299	-0.274
-202.363	-67.756	0.181	0.070
-201.348	800.000	-0.065	-0.255
-200.333	-155.154	-0.120	0.008
-199.319	-100.470	-0.078	0.019
-198.304	-51.388	0.150	-0.069
-197.290	-55.032	-0.282	0.125
-196.275	-73.901	-0.404	0.145
-195.260	-55.280	0.110	0.049
-194.246	-36.622	0.185	-0.099
-193.231	-90.889	0.197	-0.056
-192.217	800.000	-0.069	0.196
-191.202	800.000	-0.071	0.204
-190.187	20.614	-0.138	-0.110
-189.173	75.723	-0.120	0.125
-188.158	46.351	0.245	0.225
-187.144	-59.951	0.457	0.193
-186.129	-9.392	-0.391	0.258
-185.114	-90.171	0.519	-0.149
-184.100	252.301	-0.027	-0.046
-183.085	685.417	0.108	0.279
-182.071	781.296	0.056	-0.152
-181.056	-24.432	-0.160	0.094
-180.042	32.848	0.320	-0.274
-179.027	-145.726	-0.180	-0.016
-178.012	5.181	0.171	0.125
-176.998	67.808	0.179	-0.181
-175.983	42.003	-0.128	-0.115
-174.969	800.000	0.020	0.078
-173.954	800.000	0.028	-0.102
-172.939	41.720	0.246	-0.221
-171.925	257.984	-0.159	-0.270
-170.910	-2.620	-0.159	-0.110
-169.896	-182.613	-0.162	-0.003
-168.881	-200.000	-0.057	0.336
-167.866	-200.000	0.020	0.153
-166.852	-200.000	0.015	0.192
-165.837	314.568	0.247	0.459
-164.823	152.420	0.283	0.382
-163.808	133.061	-0.307	0.392
-162.793	800.000	0.037	-0.115
-161.779	-200.000	0.019	0.160
-160.764	130.036	0.165	-0.209
-159.750	-110.950	0.196	-0.040
-158.735	-200.000	-0.011	-0.104
-157.720	-21.581	0.134	-0.081
-156.706	258.030	0.135	-0.229
-155.691	788.244	-0.052	-0.141
-154.677	-92.574	0.108	-0.030
-153.662	-28.345	-0.214	0.122
-152.647	-80.526	0.183	-0.060
-151.633	-4.782	-0.127	0.086
-150.618	-200.000	0.059	-0.413
-149.604	67.210	0.076	-0.076
-148.589	-39.781	0.113	-0.058
-147.574	106.675	-0.123	-0.144
-146.560	-200.000	-0.003	0.044
-145.545	-200.000	0.063	0.357
-144.531	-115.550	-0.225	-0.042
-143.516	-94.796	-0.099	-0.026
-142.502	-127.257	0.182	0.026
-141.487	-80.695	-0.444	-0.146
-140.472	179.275	-0.112	0.162
-139.458	-200.000	-0.101	-0.487
-138.443	-200.000	-0.019	-0.128
-137.429	17.656	0.327	-0.257
-136.414	-143.614	-0.173	0.016
-135.399	-109.092	-0.097	0.020
-134.385	-21.515	0.211	0.127
-133.370	-159.734	0.187	0.010
-132.356	-163.616	0.329	0.015
-131.341	104.298	0.078	0.090
-130.326	340.065	0.140	-0.269
-129.312	256.802	-0.189	0.321
-128.297	-62.617	-0.097	0.040
-127.283	206.081	0.130	0.199
-126.268	98.107	0.183	-0.207
-125.253	-200.000	0.093	0.423
-124.239	-46.031	0.136	0.066
-123.224	82.605	0.208	-0.223
-122.210	32.004	0.120	-0.102
-121.195	800.000	-0.021	0.057
