DTS Sentinel unit serial number:	SN413079Multiplexer serial number:	ORYXHardware model number:	OX4-SRSoftware version number:	ORYX F/W v4.00 Oryx Data Collector v3.7.2.0data status	okinstallation	princeton_trtdifferential loss correction	single-endedforward channel	channel 1reverse channel	N/Adate	2019/09/19time	00:54:35forward acquisition time	60.00reverse acquisition time	0.00gamma	496.2192k internal	0.2343k external	0.2343temperature offset calibration	1.0019default loss term (dB/km)	0.3790temperature slope calibration	1.0000multiplexer offset coefficient	1.0000multiplexer slope coefficient	1.0000fibre end	0.00T internal ref (°C)	22.02T ext. ref 1 (°C)	0.72T ext. ref 2 (°C)	15.36length (m)	temperature (°C)	Stokes	anti-Stokes-747.200	-93.597	-0.260	-0.072
-746.185	10.743	-0.251	0.192
-745.171	332.136	-0.121	0.235
-744.156	80.228	0.047	0.050
-743.142	-149.494	0.199	-0.016
-742.127	363.968	0.157	0.316
-741.112	-200.000	-0.024	-0.171
-740.098	-200.000	0.010	0.329
-739.083	-154.796	-0.265	0.018
-738.069	61.519	-0.344	0.343
-737.054	16.337	0.304	0.240
-736.039	134.881	-0.151	0.196
-735.025	-17.779	0.092	-0.058
-734.010	-26.681	-0.088	-0.052
-732.996	-200.000	-0.024	-0.123
-731.981	19.795	-0.217	-0.175
-730.966	-38.473	-0.120	0.063
-729.952	800.000	-0.028	-0.084
-728.937	507.514	-0.131	-0.304
-727.923	-72.041	-0.238	-0.088
-726.908	-36.826	-0.273	0.147
-725.894	-47.345	-0.240	-0.117
-724.879	43.151	-0.345	-0.315
-723.864	131.444	0.201	-0.258
-722.850	75.865	0.235	-0.248
-721.835	67.975	-0.257	-0.263
-720.821	-81.843	-0.173	-0.057
-719.806	-150.042	-0.150	0.012
-718.791	-27.570	0.060	0.035
-717.777	-167.778	-0.198	0.008
-716.762	-35.244	-0.325	-0.177
-715.748	-124.540	0.330	0.051
-714.733	-95.904	-0.339	-0.090
-713.718	481.464	0.083	0.189
-712.704	20.571	-0.236	-0.191
-711.689	-74.452	0.258	-0.093
-710.675	-102.821	-0.158	-0.038
-709.660	-126.057	0.202	-0.030
-708.645	-200.000	-0.037	-0.192
-707.631	-200.000	0.003	0.024
-706.616	800.000	0.033	-0.120
-705.602	67.762	0.291	-0.298
-704.587	-200.000	0.083	-0.376
-703.572	-25.305	-0.155	0.092
-702.558	-200.000	-0.040	0.280
-701.543	-91.027	0.180	0.052
-700.529	38.306	0.052	0.047
-699.514	485.866	0.081	0.185
-698.499	-39.685	0.090	0.047
-697.485	-110.523	0.168	0.035
-696.470	-72.812	0.138	-0.051
-695.456	-200.000	-0.011	0.194
-694.441	-200.000	0.021	-0.196
-693.426	-36.646	0.242	-0.130
-692.412	800.000	-0.089	-0.359
-691.397	-200.000	0.005	-0.121
-690.383	309.894	0.032	-0.059
-689.368	234.671	-0.061	-0.101
-688.354	373.901	-0.116	-0.236
-687.339	-109.940	0.296	-0.062
-686.324	-133.219	-0.303	0.038
-685.310	453.106	0.096	-0.211
-684.295	539.234	0.032	-0.077
-683.281	635.543	0.018	0.046
-682.266	-126.130	0.015	0.002
-681.251	24.481	-0.054	0.044
-680.237	-200.000	-0.017	0.403
-679.222	-200.000	0.007	0.337
-678.208	-28.915	-0.251	0.144
-677.193	800.000	-0.107	0.328
-676.178	-200.000	-0.071	0.412
-675.164	-18.182	-0.159	0.099
-674.149	-141.065	0.496	0.051
-673.135	800.000	-0.139	-0.566
-672.120	540.542	-0.132	-0.315
-671.105	-168.024	-0.203	-0.008
-670.091	222.771	-0.073	-0.118
-669.076	540.441	-0.177	-0.421
-668.062	7.257	0.194	-0.145
-667.047	-89.117	-0.189	0.056
-666.032	132.516	0.073	-0.094
-665.018	630.998	-0.097	0.245
-664.003	-200.000	-0.059	-0.350
-662.989	382.478	-0.023	-0.047
-661.974	107.270	0.015	-0.017
-660.959	800.000	-0.113	-0.434
-659.945	-143.755	-0.247	-0.023
-658.930	-200.000	-0.010	0.178
-657.916	431.171	0.230	-0.497
-656.901	800.000	-0.052	0.143
-655.886	116.188	0.229	0.280
-654.872	-119.041	-0.197	0.034
-653.857	-200.000	-0.025	-0.423
-652.843	246.256	-0.257	-0.432
-651.828	-138.824	-0.218	0.024
-650.814	87.593	0.201	-0.222
-649.799	800.000	-0.039	-0.130
-648.784	113.803	0.170	-0.207
-647.770	-200.000	-0.028	0.143
-646.755	-200.000	-0.032	-0.184
-645.741	112.262	-0.256	-0.309
-644.726	-200.000	-0.017	-0.229
-643.711	167.011	0.251	-0.356
-642.697	-200.000	-0.018	-0.115
-641.682	76.917	-0.090	-0.095
-640.668	277.441	0.022	-0.039
-639.653	-109.059	0.195	0.041
-638.638	725.649	-0.071	0.188
-637.624	-200.000	0.054	0.277
-636.609	52.492	0.156	0.149
-635.595	800.000	-0.066	0.218
-634.580	-30.860	0.198	0.111
-633.565	-93.613	-0.094	-0.026
-632.551	-200.000	-0.026	-0.324
-631.536	401.748	0.117	-0.245
-630.522	-39.877	0.160	-0.083
-629.507	-0.108	0.290	-0.206
-628.492	-196.852	0.289	0.002
-627.478	-15.577	0.079	-0.050
-626.463	-200.000	-0.058	0.424
-625.449	-200.000	0.018	-0.080
-624.434	-43.719	0.347	-0.174
-623.419	-200.000	0.005	-0.159
-622.405	800.000	0.035	0.122
-621.390	-148.850	-0.255	0.021
-620.376	-200.000	0.046	-0.334
-619.361	-200.000	-0.051	0.228
-618.346	98.334	0.140	-0.161
-617.332	-182.264	-0.340	-0.006
-616.317	-89.225	0.065	0.019
-615.303	-154.461	0.277	0.018
-614.288	-200.000	-0.347	0.000
-613.273	611.233	0.062	-0.155
-612.259	-98.599	0.118	-0.030
-611.244	-168.690	-0.340	-0.013
-610.230	219.859	0.131	-0.210
-609.215	-159.618	-0.383	-0.021
-608.201	-53.652	-0.200	-0.091
-607.186	348.115	0.040	-0.078
-606.171	-131.731	-0.183	-0.024
-605.157	-200.000	-0.002	-0.142
-604.142	13.931	-0.196	0.151
-603.128	98.976	-0.104	-0.119
-602.113	749.190	-0.053	-0.141
-601.098	-200.000	-0.032	0.347
-600.084	-200.000	0.045	-0.285
-599.069	-137.969	-0.184	0.020
-598.055	639.562	0.076	0.193
-597.040	566.670	0.092	-0.222
-596.025	-2.378	0.126	0.088
-595.011	-200.000	-0.003	0.024
-593.996	-32.510	0.092	-0.051
-592.982	-112.099	-0.268	-0.054
-591.967	-200.000	0.042	0.231
-590.952	800.000	0.091	-0.329
-589.938	1.978	0.133	-0.096
-588.923	800.000	0.104	-0.361
-587.909	164.062	0.049	-0.069
-586.894	-106.719	-0.263	0.058
-585.879	-88.598	-0.212	0.063
-584.865	800.000	-0.039	0.122
-583.850	-14.722	-0.121	-0.077
-582.836	4.999	0.361	0.264
-581.821	-82.123	-0.202	-0.066
-580.806	180.179	-0.107	-0.156
-579.792	98.331	0.160	0.183
-578.777	-79.190	0.194	-0.066
-577.763	193.780	0.030	-0.045
-576.748	-200.000	-0.036	-0.183
-575.733	800.000	-0.045	0.191
-574.719	165.671	-0.205	-0.288
-573.704	121.827	-0.192	0.239
-572.690	116.314	0.176	-0.214
-571.675	-200.000	-0.046	0.343
-570.661	786.196	0.069	0.189
-569.646	-136.309	-0.141	-0.016
-568.631	-66.545	0.108	-0.043
-567.617	-180.291	-0.130	-0.003
-566.602	800.000	0.033	0.113
-565.588	45.089	-0.169	-0.155
-564.573	98.293	0.135	-0.155
-563.558	-91.217	0.371	0.106
-562.544	800.000	-0.043	0.143
-561.529	-172.772	-0.302	-0.009
-560.515	-49.309	0.252	0.120
-559.500	-84.644	0.228	-0.071
-558.485	203.717	0.072	0.110
-557.471	339.815	-0.178	-0.345
-556.456	-63.155	0.306	0.125
-555.442	-200.000	0.000	0.326
-554.427	800.000	-0.100	0.358
-553.412	-33.384	-0.195	0.107
-552.398	-200.000	0.010	0.264
-551.383	31.261	0.266	-0.227
-550.369	-82.035	-0.284	0.092
-549.354	377.952	-0.072	0.147
-548.339	136.855	0.158	-0.205
-547.325	348.596	0.216	-0.424
-546.310	-33.711	0.057	0.031
-545.296	800.000	-0.066	-0.237
-544.281	-200.000	0.024	-0.130
-543.266	-200.000	0.018	-0.103
-542.252	393.517	-0.098	0.203
-541.237	-111.827	-0.074	0.015
-540.223	-7.809	0.039	-0.026
-539.208	-42.256	-0.129	-0.065
-538.193	-200.000	-0.040	0.180
-537.179	800.000	0.134	-0.559
-536.164	-122.622	-0.371	0.060
-535.150	88.915	-0.174	-0.193
-534.135	463.022	-0.098	-0.218
-533.121	-200.000	-0.004	-0.070
-532.106	113.693	-0.297	-0.358
-531.091	800.000	-0.031	-0.131
-530.077	-200.000	0.077	0.574
-529.062	-42.242	-0.244	-0.124
-528.048	-20.305	-0.050	0.031
-527.033	415.094	0.182	-0.385
-526.018	-200.000	0.022	0.194
-525.004	-57.104	0.293	0.128
-523.989	800.000	-0.075	-0.235
-522.975	800.000	0.063	0.266
-521.960	45.485	-0.334	0.306
-520.945	-161.446	-0.191	0.010
-519.931	-5.531	0.216	-0.147
-518.916	-0.864	0.138	-0.097
-517.902	-88.930	-0.302	0.089
-516.887	-99.420	0.301	0.075
-515.872	50.995	-0.198	-0.187
-514.858	-198.338	0.369	-0.002
-513.843	112.793	-0.055	0.066
-512.829	-120.269	-0.367	-0.062
-511.814	-87.746	0.282	-0.084
-510.799	268.247	-0.072	-0.125
-509.785	-200.000	-0.007	0.068
-508.770	800.000	-0.031	0.087
-507.756	414.727	0.074	0.156
-506.741	-15.247	-0.069	-0.044
-505.726	-69.926	-0.426	-0.161
-504.712	488.077	0.138	0.312
-503.697	-103.334	0.328	0.077
-502.683	-23.611	0.204	-0.121
-501.668	-46.180	-0.086	-0.042
-500.653	210.741	0.067	0.104
-499.639	-112.763	0.287	-0.057
-498.624	57.405	0.144	0.139
-497.610	148.560	-0.091	-0.122
-496.595	210.440	-0.151	0.236
-495.581	37.103	0.143	-0.125
-494.566	114.462	-0.140	-0.170
-493.551	413.054	0.159	0.336
-492.537	-2.733	0.106	-0.073
-491.522	397.173	-0.194	-0.401
-490.508	-69.751	0.118	-0.045
-489.493	-2.826	-0.164	0.114
-488.478	-167.957	0.280	-0.011
-487.464	-200.000	-0.044	0.232
-486.449	54.578	0.104	-0.099
-485.435	-129.750	0.109	0.015
-484.420	39.351	-0.108	0.096
-483.405	-148.475	0.156	0.013
-482.391	339.181	0.037	0.071
-481.376	53.191	0.137	0.130
-480.362	-145.271	-0.152	0.014
-479.347	-200.000	0.026	0.135
-478.332	-200.000	0.008	-0.071
-477.318	-200.000	0.015	0.169
-476.303	152.245	0.144	0.195
-475.289	168.638	-0.164	0.231
-474.274	-200.000	0.023	-0.168
-473.259	800.000	0.088	-0.272
-472.245	-133.728	0.287	0.035
-471.230	302.383	-0.036	0.065
-470.216	-106.233	-0.226	0.050
-469.201	-135.939	0.169	-0.020
-468.186	-14.865	-0.296	-0.188
-467.172	-127.021	-0.142	0.021
-466.157	-86.931	-0.520	0.157
-465.143	-56.834	0.075	0.033
-464.128	386.969	-0.160	-0.328
-463.113	-8.094	-0.223	-0.149
-462.099	125.877	0.164	-0.205
-461.084	-200.000	0.032	0.143
-460.070	273.792	-0.141	-0.247
-459.055	-200.000	0.037	-0.250
-458.040	-200.000	-0.042	-0.236
-457.026	-24.035	-0.225	-0.133
-456.011	-54.930	0.225	-0.101
-454.997	461.365	-0.021	-0.046
-453.982	-0.280	-0.162	0.114
-452.968	-141.506	-0.205	-0.021
-451.953	-167.685	0.247	-0.010
-450.938	71.688	0.188	-0.194
-449.924	-107.734	-0.263	-0.057
-448.909	121.622	0.042	0.052
-447.895	-200.000	-0.022	-0.320
-446.880	615.262	0.088	-0.218
-445.865	-200.000	-0.001	0.015
-444.851	663.867	-0.088	0.224
-443.836	68.019	-0.226	0.229
-442.822	-55.519	0.163	-0.072
-441.807	-200.000	-0.022	0.193
-440.792	406.907	-0.181	-0.379
-439.778	-200.000	0.023	-0.295
-438.763	-0.041	0.196	0.138
-437.749	55.947	0.142	0.136
-436.734	10.356	0.324	-0.244
-435.719	-2.748	0.054	0.038
-434.705	-130.455	0.218	-0.029
-433.690	267.798	0.085	0.148
-432.676	-9.545	0.143	0.094
-431.661	-66.536	-0.356	-0.140
-430.646	-200.000	0.022	-0.127
-429.632	-200.000	-0.047	0.281
-428.617	800.000	0.117	-0.411
-427.603	-69.646	-0.271	-0.102
-426.588	-134.660	0.168	0.020
-425.573	-200.000	-0.014	0.250
-424.559	225.717	0.137	-0.220
-423.544	-130.776	-0.278	0.037
-422.530	16.047	-0.251	-0.195
-421.515	-97.712	-0.309	-0.079
-420.500	211.245	-0.095	-0.148
-419.486	-43.800	0.129	0.064
-418.471	10.314	-0.282	0.212
-417.457	61.490	-0.255	0.251
-416.442	-104.276	0.326	0.075
-415.428	-111.254	-0.363	0.073
-414.413	686.645	0.067	-0.172
-413.398	202.604	0.268	-0.409
-412.384	44.028	0.074	-0.067
-411.369	426.470	0.056	0.119
-410.355	-200.000	0.002	-0.167
-409.340	172.515	0.197	-0.280
-408.325	800.000	-0.038	0.149
-407.311	-194.359	-0.424	0.003
-406.296	-96.280	0.266	0.070
-405.282	222.032	0.123	0.196
-404.267	21.140	-0.181	-0.146
-403.252	83.483	0.215	0.232
-402.238	800.000	-0.040	-0.149
-401.223	217.695	0.189	-0.298
-400.209	-200.000	0.013	0.260
-399.194	800.000	-0.014	-0.057
-398.179	8.651	-0.274	0.204
-397.165	-200.000	-0.013	0.092
-396.150	-200.000	-0.017	-0.097
-395.136	-200.000	0.110	-0.000
-394.121	7.207	-0.191	-0.141
-393.106	632.856	-0.197	0.494
-392.092	-115.795	0.654	-0.121
-391.077	-70.643	-0.052	0.019
-390.063	-196.908	-0.197	-0.001
-389.048	-165.284	0.190	0.008
-388.033	218.055	0.108	-0.170
-387.019	-200.000	-0.012	-0.090
-386.004	-200.000	0.018	-0.120
-384.990	-129.683	-0.184	0.025
-383.975	-53.596	0.122	0.055
-382.960	800.000	0.025	0.076
-381.946	-200.000	0.040	0.178
-380.931	-200.000	0.074	0.387
-379.917	220.832	0.157	-0.248
-378.902	48.290	0.202	0.186
-377.888	-50.676	0.148	0.069
-376.873	-200.000	-0.002	-0.044
-375.858	-181.543	0.521	0.010
-374.844	-200.000	-0.050	0.267
-373.829	-133.844	0.273	0.033
-372.815	43.861	-0.082	0.074
-371.800	-159.927	-0.254	0.014
-370.785	65.796	-0.275	0.275
-369.771	-200.000	0.013	0.292
-368.756	394.299	0.053	0.110
-367.742	-89.380	0.162	-0.047
-366.727	-114.265	0.196	-0.037
-365.712	296.413	-0.075	0.136
-364.698	222.485	0.040	-0.063
-363.683	-0.923	-0.253	0.176
-362.669	227.609	-0.077	0.124
-361.654	14.206	0.297	0.228
-360.639	-151.011	-0.276	-0.021
-359.625	65.672	-0.380	0.379
-358.610	-4.091	-0.219	0.150
-357.596	800.000	-0.066	0.273
-356.581	-34.442	0.158	0.085
-355.566	-43.081	0.095	-0.047
-354.552	-200.000	-0.059	0.281
-353.537	-149.151	0.176	-0.014
-352.523	-200.000	-0.012	0.415
-351.508	-81.821	-0.054	0.018
-350.493	506.421	0.109	-0.250
-349.479	710.170	0.095	-0.249
-348.464	23.871	-0.179	0.145
-347.450	675.567	0.007	0.018
-346.435	-87.221	0.185	-0.055
-345.420	154.784	0.148	-0.201
-344.406	-151.902	-0.123	0.009
-343.391	-112.723	0.141	-0.028
-342.377	-128.808	0.310	-0.043
-341.362	106.094	0.112	-0.131
-340.348	-76.690	0.104	-0.036
-339.333	800.000	-0.130	-0.442
-338.318	-200.000	0.007	-0.130
-337.304	-200.000	-0.025	0.119
-336.289	52.398	-0.110	-0.104
-335.275	-29.611	-0.182	-0.103
-334.260	441.808	-0.054	-0.116
-333.245	-2.436	-0.166	-0.115
-332.231	93.041	-0.115	0.128
-331.216	-92.426	-0.350	0.097
-330.202	800.000	-0.038	0.129
-329.187	-26.618	0.131	-0.076
-328.172	-95.881	-0.159	0.042
-327.158	-19.018	0.195	-0.120
-326.143	110.184	-0.117	0.138
-325.129	0.683	-0.195	-0.137
-324.114	49.752	0.094	0.088
-323.099	102.382	0.067	0.077
-322.085	-72.934	0.094	-0.034
-321.070	423.674	-0.109	-0.231
-320.056	596.077	0.074	0.179
-319.041	800.000	0.063	-0.195
-318.026	-200.000	0.056	0.276
-317.012	-158.758	0.291	-0.016
-315.997	-180.501	-0.333	0.007
-314.983	229.520	-0.134	0.215
-313.968	-95.416	0.510	-0.135
-312.953	800.000	-0.121	0.340
-311.939	90.165	-0.117	0.128
-310.924	-126.080	-0.280	0.041
-309.910	-145.932	-0.221	-0.019
-308.895	-91.829	-0.032	0.009
-307.880	-61.928	0.252	-0.104
-306.866	362.540	-0.061	-0.121
-305.851	109.424	0.098	-0.115
-304.837	95.689	0.083	0.094
-303.822	-71.767	-0.087	-0.032
-302.807	-9.026	-0.196	0.129
-301.793	442.773	0.047	-0.102
-300.778	-98.891	-0.183	0.046
-299.764	-119.687	0.369	0.063
-298.749	-200.000	0.008	-0.082
-297.735	-19.337	0.074	0.045
-296.720	-40.719	-0.260	-0.132
-295.705	201.440	0.095	0.143
-294.691	691.328	0.221	0.569
-293.676	-200.000	0.066	0.321
-292.662	-200.000	-0.015	0.085
-291.647	-25.378	0.313	-0.182
-290.632	25.643	0.001	0.001
-289.618	327.470	-0.017	-0.032
-288.603	-200.000	0.002	0.086
-287.589	80.731	-0.295	0.313
-286.574	32.779	0.179	0.152
-285.559	-28.523	-0.095	-0.054
-284.545	74.410	0.258	0.266
-283.530	156.674	-0.286	-0.389
-282.516	-144.213	0.130	0.012
-281.501	-54.668	-0.338	-0.150
-280.486	126.163	0.018	0.023
-279.472	-37.434	0.224	0.118
-278.457	800.000	-0.088	-0.254
-277.443	-200.000	-0.088	-0.398
-276.428	-139.101	0.320	-0.034
-275.413	800.000	0.040	-0.154
-274.399	-32.834	-0.130	-0.071
-273.384	93.912	0.091	-0.101
-272.370	800.000	0.051	0.212
-271.355	25.203	0.131	-0.107
-270.340	800.000	0.014	0.039
-269.326	-14.441	0.140	0.089
-268.311	-200.000	-0.029	0.163
-267.297	-136.441	0.100	-0.011
-266.282	-200.000	0.003	0.200
-265.267	-200.000	0.005	0.126
-264.253	534.142	0.033	0.076
-263.238	-152.082	0.063	-0.004
-262.224	-200.000	0.055	0.286
-261.209	37.084	-0.111	0.097
-260.195	-156.155	0.140	-0.009
-259.180	365.650	-0.124	-0.245
-258.165	179.014	-0.217	0.311
-257.151	-60.972	0.271	-0.113
-256.136	-93.970	0.121	-0.033
-255.122	-200.000	-0.040	-0.206
-254.107	-200.000	-0.030	0.142
-253.092	116.568	-0.380	-0.457
-252.078	102.311	-0.121	0.139
-251.063	-83.046	0.075	-0.024
-250.049	-131.610	-0.180	-0.023
-249.034	-72.535	0.118	0.043
-248.019	202.380	-0.012	0.019
-247.005	-37.487	-0.139	-0.073
-245.990	-200.000	-0.034	-0.197
-244.976	102.001	-0.251	0.288
-243.961	105.572	-0.081	-0.094
-242.946	-154.650	0.170	0.011
-241.932	39.069	-0.073	0.064
-240.917	107.107	0.014	0.016
-239.903	403.354	-0.165	-0.341
-238.888	-42.873	-0.164	0.082
-237.873	-42.731	-0.180	0.090
-236.859	-115.188	-0.197	-0.037
-235.844	-68.315	0.344	0.131
-234.830	-200.000	-0.007	-0.281
-233.815	-200.000	0.020	-0.168
-232.800	697.677	0.060	0.156
-231.786	42.363	-0.357	0.318
-230.771	-200.000	-0.001	0.170
-229.757	228.023	0.088	0.141
-228.742	324.356	-0.092	0.173
-227.727	-153.987	0.168	0.011
-226.713	105.944	0.109	-0.127
-225.698	602.690	-0.086	-0.209
-224.684	-146.993	0.217	-0.018
-223.669	-200.000	-0.022	0.132
-222.655	-103.325	-0.228	-0.053
-221.640	618.100	0.027	0.066
-220.625	37.185	0.189	0.165
-219.611	-200.000	0.066	-0.300
-218.596	800.000	-0.076	-0.237
-217.582	225.828	0.125	-0.199
-216.567	-7.905	0.316	-0.209
-215.552	671.866	-0.067	0.171
-214.538	-77.646	-0.277	0.094
-213.523	-107.115	-0.264	0.057
-212.509	-77.852	0.065	0.022
-211.494	4.371	0.090	0.065
-210.479	-12.912	0.178	-0.113
-209.465	256.399	0.082	-0.139
-208.450	93.461	-0.120	0.134
-207.436	82.895	0.039	-0.041
-206.421	800.000	0.087	0.300
-205.406	-117.497	-0.063	0.011
-204.392	234.106	-0.137	-0.222
-203.377	798.256	-0.026	-0.071
-202.363	345.274	0.102	-0.197
-201.348	709.635	0.228	0.592
-200.333	-130.446	0.105	-0.014
-199.319	-200.000	-0.025	-0.287
-198.304	-200.000	0.024	-0.278
-197.290	800.000	-0.029	-0.121
-196.275	281.214	0.172	0.302
-195.260	323.256	-0.020	0.038
-194.246	-5.116	0.333	-0.225
-193.231	-29.030	0.103	-0.058
-192.217	-105.182	-0.128	-0.029
-191.202	-200.000	0.069	-0.326
-190.187	533.908	-0.141	0.327
-189.173	769.092	-0.089	0.239
-188.158	-138.792	0.039	-0.004
-187.144	89.894	-0.214	0.234
-186.129	-75.473	-0.121	0.042
-185.114	31.734	0.206	0.174
-184.100	-14.861	0.292	0.184
-183.085	43.497	-0.166	-0.149
-182.071	422.466	-0.194	0.408
-181.056	-200.000	-0.035	0.197
-180.042	-49.419	0.121	0.057
-179.027	-52.268	0.217	-0.099
-178.012	-200.000	0.015	0.200
-176.998	-79.859	-0.162	-0.053
-175.983	18.236	-0.297	0.232
-174.969	25.606	-0.166	0.136
-173.954	-26.825	-0.080	-0.046
-172.939	800.000	-0.037	0.150
-171.925	-200.000	-0.028	0.221
-170.910	-161.543	-0.255	-0.013
-169.896	-116.678	-0.242	-0.044
-168.881	-98.995	-0.217	0.054
-167.866	-200.000	-0.023	-0.144
-166.852	85.621	-0.215	-0.231
-165.837	87.980	-0.188	0.204
-164.823	800.000	0.099	-0.295
-163.808	-200.000	0.025	-0.365
-162.793	55.353	0.094	0.089
-161.779	-127.192	0.313	-0.045
-160.764	-200.000	0.018	0.109
-159.750	-105.761	0.203	-0.045
-158.735	71.488	-0.182	-0.185
-157.720	800.000	-0.021	0.090
-156.706	290.253	0.053	0.093
-155.691	-76.526	0.262	0.090
-154.677	25.598	0.407	0.331
-153.662	220.849	0.086	0.135
-152.647	-119.104	0.085	-0.014
-151.633	-148.543	0.066	0.005
-150.618	-191.587	0.115	-0.001
-149.604	-200.000	0.006	0.056
-148.589	-200.000	0.021	-0.151
-147.574	-200.000	0.017	0.275
-146.560	800.000	-0.094	-0.327
-145.545	-90.134	0.257	0.073
-144.531	800.000	0.069	0.288
-143.516	-9.839	-0.014	-0.009
-142.502	-78.062	0.180	-0.061
-141.487	800.000	-0.063	-0.246
-140.472	68.051	-0.138	0.138
-139.458	91.505	-0.043	-0.047
-138.443	-149.409	0.058	-0.005
-137.429	-55.583	-0.215	0.094
-136.414	-196.718	0.033	0.000
-135.399	151.882	-0.151	0.201
-134.385	-102.456	-0.222	-0.052
-133.370	800.000	0.035	0.096
-132.356	501.593	0.034	0.077
-131.341	-200.000	-0.025	-0.206
-130.326	-22.351	0.240	-0.142
-129.312	-62.605	-0.081	0.033
-128.297	8.985	0.042	0.031
-127.283	-76.050	0.256	-0.088
-126.268	-81.796	0.251	-0.081
-125.253	141.905	-0.158	-0.205
-124.239	-200.000	0.006	0.132
-123.224	-143.832	0.258	-0.024
-122.210	-89.861	0.094	0.027
