DTS Sentinel unit serial number:	SN413079Multiplexer serial number:	ORYXHardware model number:	OX4-SRSoftware version number:	ORYX F/W v4.00 Oryx Data Collector v3.7.2.0data status	okinstallation	princeton_trtdifferential loss correction	single-endedforward channel	channel 1reverse channel	N/Adate	2019/09/15time	19:54:35forward acquisition time	60.00reverse acquisition time	0.00gamma	496.2192k internal	0.2312k external	0.2312temperature offset calibration	0.9959default loss term (dB/km)	0.3790temperature slope calibration	1.0000multiplexer offset coefficient	1.0000multiplexer slope coefficient	1.0000fibre end	0.00T internal ref (°C)	36.23T ext. ref 1 (°C)	7.51T ext. ref 2 (°C)	26.87length (m)	temperature (°C)	Stokes	anti-Stokes-747.200	41.619	-0.108	0.099
-746.185	24.478	0.075	-0.063
-745.171	-107.114	-0.099	-0.022
-744.156	-200.000	0.015	0.359
-743.142	445.911	0.068	0.152
-742.127	219.274	0.042	0.069
-741.112	-128.991	-0.088	0.012
-740.098	-65.105	-0.457	0.187
-739.083	-200.000	-0.001	0.196
-738.069	-200.000	-0.034	0.276
-737.054	73.045	0.066	0.070
-736.039	-200.000	0.018	0.093
-735.025	195.174	-0.239	0.369
-734.010	-63.188	-0.210	0.088
-732.996	-111.353	0.247	0.051
-731.981	800.000	0.086	-0.281
-730.966	-5.629	-0.167	0.116
-729.952	86.946	0.218	-0.244
-728.937	-139.475	-0.356	0.039
-727.923	-200.000	0.009	0.264
-726.908	-200.000	0.042	-0.407
-725.894	341.408	0.064	0.126
-724.879	19.678	0.069	0.056
-723.864	96.745	0.258	-0.299
-722.850	545.167	0.207	-0.502
-721.835	50.296	-0.036	0.035
-720.821	197.891	0.061	-0.094
-719.806	-44.819	-0.069	0.035
-718.791	57.765	-0.067	-0.066
-717.777	-84.872	-0.170	0.054
-716.762	608.300	0.088	0.222
-715.748	-129.094	-0.234	-0.033
-714.733	-200.000	-0.001	-0.078
-713.718	79.956	0.082	-0.089
-712.704	-200.000	-0.001	-0.050
-711.689	-17.827	-0.209	-0.133
-710.675	-200.000	-0.037	0.273
-709.660	8.731	0.167	-0.128
-708.645	-92.935	0.109	-0.031
-707.631	47.611	-0.063	0.060
-706.616	-13.208	0.148	-0.098
-705.602	-200.000	0.019	0.120
-704.587	-30.143	0.151	0.087
-703.572	87.623	0.178	-0.200
-702.558	-50.085	0.057	-0.027
-701.543	-97.269	0.417	0.110
-700.529	-169.099	-0.240	0.009
-699.514	-21.569	0.134	0.083
-698.499	-101.946	0.312	-0.076
-697.485	222.195	-0.029	-0.047
-696.470	179.500	-0.157	-0.233
-695.456	166.004	-0.114	0.163
-694.441	-9.625	-0.126	0.085
-693.426	-73.862	-0.041	0.015
-692.412	0.171	-0.084	0.061
-691.397	-37.581	-0.181	-0.098
-690.383	137.155	0.184	-0.243
-689.368	-61.649	0.284	0.121
-688.354	-62.613	0.397	-0.167
-687.339	-34.951	-0.429	-0.237
-686.324	32.384	-0.156	-0.136
-685.310	96.867	0.270	-0.313
-684.295	800.000	0.055	0.172
-683.281	2.732	-0.294	-0.216
-682.266	-135.958	-0.092	-0.011
-681.251	-76.773	-0.290	0.103
-680.237	337.094	0.096	-0.189
-679.222	11.623	0.229	0.178
-678.208	61.439	-0.397	-0.399
-677.193	-200.000	0.003	0.024
-676.178	-153.886	0.092	-0.006
-675.164	30.503	-0.185	0.160
-674.149	-200.000	0.060	-0.392
-673.135	-51.501	0.033	0.016
-672.120	800.000	-0.055	-0.178
-671.105	-42.340	0.121	-0.062
-670.091	-10.272	0.216	-0.145
-669.076	4.217	0.051	-0.038
-668.062	-50.145	-0.038	0.018
-667.047	-145.702	-0.093	-0.008
-666.032	800.000	0.083	-0.312
-665.018	284.782	0.140	-0.256
-664.003	-8.527	-0.143	-0.097
-662.989	525.850	0.196	-0.468
-661.974	486.302	0.016	-0.036
-660.959	86.496	-0.130	-0.145
-659.945	42.306	-0.088	0.081
-658.930	-6.647	-0.215	-0.148
-657.916	800.000	0.110	-0.339
-656.901	-52.006	-0.086	-0.040
-655.886	-11.970	-0.312	0.207
-654.872	-200.000	-0.030	-0.298
-653.857	800.000	-0.084	-0.236
-652.843	365.326	-0.153	-0.313
-651.828	352.971	-0.118	-0.237
-650.814	-174.042	0.233	-0.007
-649.799	-200.000	-0.000	-0.171
-648.784	-79.585	0.146	0.050
-647.770	-80.859	-0.218	0.073
-646.755	-200.000	-0.037	0.192
-645.741	-11.600	-0.366	0.243
-644.726	146.574	-0.224	-0.305
-643.711	81.397	-0.244	-0.267
-642.697	161.536	-0.172	-0.243
-641.682	-143.221	-0.344	-0.033
-640.668	800.000	0.056	-0.230
-639.653	-81.226	0.495	-0.165
-638.638	-136.843	-0.177	0.021
-637.624	-74.663	-0.179	-0.065
-636.609	189.637	0.196	-0.297
-635.595	-84.611	0.378	-0.121
-634.580	-200.000	0.024	-0.201
-633.565	-13.410	0.185	-0.121
-632.551	-72.201	0.100	0.037
-631.536	442.702	-0.098	0.216
-630.522	-200.000	0.008	-0.218
-629.507	-20.278	0.241	-0.150
-628.492	-200.000	-0.015	-0.146
-627.478	800.000	-0.009	0.032
-626.463	-46.672	-0.269	-0.133
-625.449	-200.000	-0.047	-0.334
-624.434	342.834	-0.106	0.210
-623.419	110.700	-0.145	0.177
-622.405	588.039	-0.052	0.130
-621.390	-62.230	0.174	-0.073
-620.376	62.729	0.095	-0.096
-619.361	35.104	-0.127	0.112
-618.346	-200.000	-0.052	0.279
-617.332	-178.873	-0.240	-0.005
-616.317	-200.000	-0.007	-0.235
-615.303	-47.332	-0.483	0.238
-614.288	343.323	-0.055	-0.108
-613.273	37.451	-0.195	0.175
-612.259	170.810	-0.109	-0.158
-611.244	800.000	-0.066	0.214
-610.230	-53.987	0.155	0.071
-609.215	-158.671	-0.228	0.013
-608.201	-200.000	0.021	-0.198
-607.186	-200.000	0.021	0.115
-606.171	-200.000	-0.000	-0.161
-605.157	-59.731	0.109	0.047
-604.142	-65.917	-0.245	0.099
-603.128	9.868	-0.308	-0.236
-602.113	-137.776	0.077	-0.009
-601.098	212.085	-0.085	-0.136
-600.084	-72.855	0.087	0.032
-599.069	-16.640	-0.257	0.164
-598.055	94.037	0.248	0.284
-597.040	-65.905	0.201	-0.081
-596.025	-46.137	0.211	-0.105
-595.011	85.209	-0.285	0.316
-593.996	-200.000	-0.017	0.276
-592.982	-200.000	-0.002	-0.162
-591.967	43.732	0.059	0.055
-590.952	-83.972	-0.434	-0.139
-589.938	743.926	0.017	-0.046
-588.923	-200.000	-0.026	0.276
-587.909	-33.082	-0.299	0.167
-586.894	-86.985	-0.272	0.084
-585.879	2.786	0.064	0.047
-584.865	-97.174	0.503	0.132
-583.850	119.677	0.154	-0.192
-582.836	-200.000	0.001	0.073
-581.821	-200.000	0.006	-0.645
-580.806	-200.000	0.032	-0.234
-579.792	603.882	0.084	0.210
-578.777	-65.289	0.274	-0.111
-577.763	800.000	-0.028	0.091
-576.748	-87.751	0.113	-0.034
-575.733	-14.680	-0.253	0.164
-574.719	-8.234	-0.051	-0.035
-573.704	213.442	-0.135	-0.216
-572.690	-38.062	0.091	0.049
-571.675	126.374	0.021	-0.026
-570.661	-17.726	0.176	0.112
-569.646	-200.000	-0.009	0.153
-568.631	382.433	0.072	-0.148
-567.617	-200.000	-0.009	-0.136
-566.602	-200.000	0.042	-0.226
-565.588	800.000	0.053	-0.169
-564.573	-21.250	-0.302	-0.186
-563.558	-200.000	0.007	-0.123
-562.544	-83.324	0.218	0.071
-561.529	800.000	0.123	-0.358
-560.515	24.090	0.214	0.178
-559.500	7.431	0.228	0.171
-558.485	10.538	-0.438	-0.336
-557.471	-200.000	0.017	-0.232
-556.456	-200.000	-0.012	-0.159
-555.442	-65.272	-0.031	0.012
-554.427	-10.150	-0.146	0.097
-553.412	-56.830	0.197	0.088
-552.398	-43.466	0.355	-0.181
-551.383	-169.099	0.101	0.004
-550.369	138.682	-0.230	0.304
-549.354	800.000	0.101	-0.298
-548.339	55.392	0.193	-0.188
-547.325	-20.684	0.520	-0.322
-546.310	800.000	0.110	-0.357
-545.296	-118.777	-0.371	0.066
-544.281	11.745	0.382	0.295
-543.266	81.172	0.142	-0.154
-542.252	-42.480	0.386	-0.198
-541.237	6.749	-0.216	0.162
-540.223	160.186	-0.106	-0.148
-539.208	-112.839	-0.113	0.023
-538.193	-55.462	-0.013	-0.006
-537.179	542.545	0.183	-0.440
-536.164	-106.047	-0.323	-0.073
-535.150	-110.901	-0.099	-0.021
-534.135	218.100	-0.152	-0.245
-533.121	87.521	0.211	0.235
-532.106	-16.447	-0.281	0.179
-531.091	-50.266	-0.304	0.145
-530.077	13.661	0.113	-0.088
-529.062	5.677	0.272	0.202
-528.048	0.593	-0.054	0.039
-527.033	40.830	0.160	0.146
-526.018	-13.133	-0.168	-0.110
-525.004	-30.073	-0.117	-0.067
-523.989	-83.086	-0.403	-0.130
-522.975	93.191	-0.221	0.251
-521.960	43.129	-0.141	-0.129
-520.945	-123.730	0.027	0.004
-519.931	22.284	0.029	-0.023
-518.916	-200.000	0.048	-0.218
-517.902	-18.836	-0.095	0.059
-516.887	21.500	-0.238	-0.195
-515.872	-200.000	-0.036	0.191
-514.858	-113.467	0.245	-0.048
-513.843	170.029	0.139	0.200
-512.829	-200.000	0.024	0.352
-511.814	-76.884	0.287	0.101
-510.799	259.317	0.048	-0.082
-509.785	57.666	0.098	0.096
-508.770	-29.321	-0.071	0.041
-507.756	-21.981	-0.228	0.140
-506.741	800.000	-0.058	0.181
-505.726	-84.595	-0.226	0.072
-504.712	-47.386	-0.155	-0.076
-503.697	45.160	-0.034	-0.031
-502.683	-100.541	-0.249	0.062
-501.668	-200.000	0.000	0.428
-500.653	-106.033	0.025	0.006
-499.639	-81.641	0.226	0.075
-498.624	267.825	-0.251	0.442
-497.610	-103.438	-0.234	0.055
-496.595	-159.511	0.325	0.018
-495.581	765.847	0.094	-0.258
-494.566	-30.218	-0.256	0.146
-493.551	-131.469	0.443	-0.059
-492.537	-103.976	0.109	-0.026
-491.522	-200.000	0.009	-0.306
-490.508	-32.153	0.304	0.171
-489.493	-200.000	0.008	0.349
-488.478	55.688	-0.108	-0.105
-487.464	227.757	-0.094	0.153
-486.449	-4.792	-0.091	-0.063
-485.435	800.000	-0.077	-0.270
-484.420	-171.792	0.196	-0.006
-483.405	96.722	0.101	-0.117
-482.391	155.161	-0.165	-0.228
-481.376	-173.004	0.186	-0.006
-480.362	-200.000	0.025	0.200
-479.347	800.000	0.080	-0.247
-478.332	-200.000	-0.052	-0.494
-477.318	446.478	-0.057	-0.127
-476.303	74.142	0.132	-0.140
-475.289	535.809	0.127	-0.303
-474.274	-158.624	-0.505	-0.029
-473.259	-132.411	-0.077	0.010
-472.245	114.359	0.140	0.172
-471.230	-118.061	0.173	0.031
-470.216	779.225	-0.129	-0.353
-469.201	-6.019	0.282	-0.193
-468.186	800.000	-0.032	0.111
-467.172	-200.000	0.021	-0.112
-466.157	483.876	0.174	-0.398
-465.143	-162.800	0.173	-0.008
-464.128	-181.898	-0.291	0.006
-463.113	-200.000	0.027	0.201
-462.099	-35.204	-0.034	0.018
-461.084	-200.000	0.031	0.412
-460.070	19.337	-0.128	0.103
-459.055	171.306	0.163	0.235
-458.040	-200.000	-0.044	0.194
-457.026	154.302	0.028	-0.039
-456.011	-153.629	0.179	-0.012
-454.997	-56.477	0.240	-0.107
-453.982	551.607	-0.072	-0.172
-452.968	-98.884	-0.069	-0.018
-451.953	-2.464	0.064	0.045
-450.938	676.195	0.053	0.138
-449.924	-48.660	-0.127	0.061
-448.909	251.695	0.051	-0.086
-447.895	-141.374	0.284	0.029
-446.880	-123.158	-0.312	0.050
-445.865	-200.000	-0.003	-0.082
-444.851	441.105	-0.177	0.389
-443.836	407.011	-0.163	0.344
-442.822	-65.887	-0.133	-0.053
-441.807	-87.725	0.251	0.076
-440.792	800.000	0.074	0.317
-439.778	-156.311	-0.169	-0.011
-438.763	-56.999	-0.147	-0.065
-437.749	-55.490	-0.136	-0.061
-436.734	-129.824	0.127	-0.018
-435.719	-35.234	-0.133	0.073
-434.705	800.000	-0.028	0.081
-433.690	-96.577	-0.256	0.068
-432.676	-200.000	0.010	-0.307
-431.661	275.187	0.063	-0.112
-430.646	-200.000	-0.006	-0.280
-429.632	-148.144	0.271	-0.022
-428.617	-141.418	-0.487	-0.049
-427.603	-95.667	-0.139	0.037
-426.588	-195.617	0.245	0.002
-425.573	800.000	-0.018	-0.074
-424.559	-81.793	-0.128	-0.042
-423.544	513.698	-0.092	-0.214
-422.530	-128.964	-0.176	-0.025
-421.515	-157.671	-0.123	-0.007
-420.500	-125.087	0.017	0.003
-419.486	355.600	0.145	-0.289
-418.471	800.000	0.136	-0.390
-417.457	800.000	0.105	-0.308
-416.442	-19.574	-0.264	0.164
-415.428	-115.026	0.288	0.055
-414.413	-87.197	-0.222	0.068
-413.398	137.225	-0.223	-0.292
-412.384	800.000	0.124	-0.477
-411.369	-50.673	-0.026	-0.012
-410.355	92.374	-0.154	0.174
-409.340	445.140	0.192	0.421
-408.325	32.568	-0.212	0.183
-407.311	800.000	0.105	0.412
-406.296	-148.504	0.413	-0.034
-405.282	348.140	0.102	-0.202
-404.267	490.124	0.129	0.296
-403.252	52.255	0.170	0.162
-402.238	-128.706	-0.166	-0.023
-401.223	19.365	-0.084	-0.068
-400.209	-18.239	0.279	-0.174
-399.194	-29.765	0.294	-0.168
-398.179	34.735	0.184	-0.161
-397.165	-200.000	-0.012	-0.196
-396.150	190.143	-0.123	0.185
-395.136	2.695	-0.257	0.186
-394.121	-135.453	0.400	0.048
-393.106	46.381	-0.226	-0.209
-392.092	-26.292	0.058	0.034
-391.077	-73.202	-0.248	-0.091
-390.063	-159.794	-0.172	-0.009
-389.048	-6.705	-0.007	-0.005
-388.033	7.707	-0.121	-0.091
-387.019	-200.000	0.062	0.286
-386.004	-200.000	-0.001	-0.192
-384.990	59.076	-0.070	0.069
-383.975	390.198	0.057	0.117
-382.960	-125.447	0.152	0.023
-381.946	-88.015	0.115	0.034
-380.931	640.648	-0.076	0.193
-379.917	-5.816	-0.047	0.033
-378.902	205.676	-0.003	0.005
-377.888	-40.931	0.201	0.104
-376.873	-30.389	-0.026	-0.014
-375.858	800.000	-0.026	-0.093
-374.844	-188.183	0.041	-0.001
-373.829	-200.000	0.004	-0.130
-372.815	-114.106	0.122	0.024
-371.800	268.796	0.173	0.304
-370.785	24.606	-0.195	0.161
-369.771	-92.730	0.534	-0.149
-368.756	28.240	0.153	0.130
-367.742	800.000	0.082	-0.248
-366.727	-24.841	-0.146	0.086
-365.712	-200.000	0.022	-0.129
-364.698	323.948	0.024	0.046
-363.683	164.239	0.046	0.065
-362.669	800.000	-0.114	0.326
-361.654	-74.579	0.078	-0.028
-360.639	-200.000	-0.035	-0.156
-359.625	-97.292	-0.361	0.094
-358.610	-121.668	-0.460	-0.076
-357.596	-111.336	-0.070	0.014
-356.581	249.886	-0.079	0.133
-355.566	-48.960	-0.244	0.117
-354.552	-200.000	0.018	0.185
-353.537	-200.000	-0.006	-0.125
-352.523	-27.050	0.145	-0.084
-351.508	298.991	0.097	0.179
-350.493	275.935	0.147	-0.260
-349.479	-83.088	0.214	-0.069
-348.464	-132.385	-0.461	-0.059
-347.450	260.304	-0.084	0.145
-346.435	33.457	0.384	0.334
-345.420	30.488	-0.374	-0.319
-344.406	544.552	-0.079	0.188
-343.391	157.102	0.097	-0.134
-342.377	39.832	0.206	0.185
-341.362	493.389	-0.094	0.215
-340.348	758.564	0.032	0.086
-339.333	-108.118	-0.326	-0.071
-338.318	612.967	-0.014	-0.034
-337.304	-9.790	0.045	-0.030
-336.289	193.200	0.086	-0.130
-335.275	20.059	-0.120	0.096
-334.260	-148.344	-0.225	-0.018
-333.245	23.882	0.327	-0.269
-332.231	57.684	0.142	0.139
-331.216	-200.000	-0.079	0.405
-330.202	-64.214	0.279	0.113
-329.187	800.000	-0.052	-0.200
-328.172	752.129	-0.020	0.054
-327.158	236.417	-0.100	-0.166
-326.143	159.879	0.190	0.265
-325.129	272.220	0.083	-0.146
-324.114	-6.676	-0.159	-0.108
-323.099	177.547	0.123	0.179
-322.085	-153.710	0.204	-0.014
-321.070	5.697	0.134	-0.099
-320.056	-141.807	0.284	-0.028
-319.041	-200.000	-0.019	-0.181
-318.026	43.698	-0.079	-0.072
-317.012	-85.369	0.285	0.089
-315.997	800.000	-0.072	-0.313
-314.983	-56.434	-0.173	-0.076
-313.968	77.727	0.149	0.159
-312.953	87.846	0.116	0.128
-311.939	330.751	-0.073	-0.140
-310.924	395.574	-0.158	0.328
-309.910	48.798	0.205	0.192
-308.895	800.000	0.035	0.137
-307.880	2.762	-0.385	-0.278
-306.866	800.000	0.080	0.277
-305.851	-200.000	0.032	0.200
-304.837	72.701	0.050	0.052
-303.822	69.524	-0.119	0.122
-302.807	-135.211	0.148	0.018
-301.793	-200.000	-0.052	-0.237
-300.778	-68.038	-0.236	-0.092
-299.764	800.000	0.084	-0.276
-298.749	-101.280	-0.200	-0.049
-297.735	146.128	-0.209	0.279
-296.720	-72.193	-0.117	-0.043
-295.705	16.319	-0.031	-0.024
-294.691	72.686	-0.155	-0.161
-293.676	359.848	0.165	-0.330
-292.662	-27.370	0.055	0.032
-291.647	800.000	0.016	0.045
-290.632	84.219	0.072	-0.079
-289.618	-46.790	-0.302	-0.147
-288.603	-94.509	-0.313	-0.085
-287.589	-200.000	-0.028	-0.227
-286.574	-200.000	0.009	0.311
-285.559	-200.000	-0.016	-0.228
-284.545	274.712	0.144	0.254
-283.530	4.054	0.187	-0.136
-282.516	-5.127	-0.419	0.287
-281.501	8.396	-0.081	-0.061
-280.486	-200.000	-0.038	0.345
-279.472	800.000	0.053	-0.208
-278.457	-50.759	0.148	0.069
-277.443	800.000	-0.044	0.153
-276.428	-200.000	-0.013	-0.155
-275.413	800.000	-0.115	-0.359
-274.399	-200.000	0.048	0.358
-273.384	40.561	0.065	0.058
-272.370	-80.791	-0.134	0.044
-271.355	-24.454	0.310	-0.184
-270.340	37.187	0.073	-0.065
-269.326	13.757	0.253	-0.196
-268.311	54.431	0.243	0.233
-267.297	-200.000	-0.063	0.363
-266.282	-200.000	0.025	-0.307
-265.267	92.751	0.129	0.145
-264.253	-25.134	-0.201	0.119
-263.238	308.540	-0.077	0.143
-262.224	-200.000	-0.017	-0.145
-261.209	-60.370	-0.150	0.064
-260.195	-25.968	-0.116	-0.068
-259.180	800.000	0.037	0.147
-258.165	-103.193	-0.192	0.045
-257.151	-105.207	0.147	0.033
-256.136	-34.574	0.306	0.167
-255.122	479.620	-0.103	0.232
-254.107	301.986	-0.086	-0.159
-253.092	-200.000	-0.028	0.246
-252.078	358.216	0.064	0.128
-251.063	24.480	0.059	-0.048
-250.049	207.853	-0.121	0.188
-249.034	-200.000	-0.001	0.021
-248.019	-167.532	-0.146	-0.006
-247.005	325.591	-0.121	-0.229
-245.990	190.924	0.152	0.228
-244.976	-39.267	-0.330	0.173
-243.961	-34.037	0.389	-0.213
-242.946	-200.000	0.010	-0.177
-241.932	800.000	0.040	0.141
-240.917	403.757	0.206	-0.432
-239.903	747.463	-0.076	-0.204
-238.888	-200.000	-0.001	0.138
-237.873	166.401	0.247	-0.348
-236.859	-87.622	0.340	-0.102
-235.844	-200.000	0.030	-0.191
-234.830	-200.000	0.021	0.273
-233.815	430.793	0.086	0.184
-232.800	-200.000	-0.033	-0.158
-231.786	-139.285	-0.175	0.019
-230.771	-130.922	-0.090	0.012
-229.757	-26.551	-0.173	-0.101
-228.742	4.906	-0.107	-0.078
-227.727	-200.000	0.021	0.206
-226.713	-200.000	-0.064	0.537
-225.698	247.226	0.084	0.141
-224.684	-100.325	0.218	0.054
-223.669	-173.590	-0.204	0.006
-222.655	-200.000	0.001	-0.135
-221.640	-200.000	-0.025	-0.136
-220.625	105.790	-0.038	0.044
-219.611	-68.621	0.174	0.067
-218.596	-124.529	-0.085	-0.013
-217.582	84.227	0.353	0.384
-216.567	-200.000	0.004	0.149
-215.552	134.485	0.088	-0.113
-214.538	-200.000	-0.038	-0.227
-213.523	-200.000	-0.063	-0.571
-212.509	-53.074	0.435	-0.199
-211.494	-80.704	0.385	-0.127
-210.479	-58.832	-0.093	0.040
-209.465	-200.000	-0.002	-0.084
-208.450	-200.000	-0.039	0.292
-207.436	-93.620	0.183	0.050
-206.421	-41.845	-0.321	0.163
-205.406	-101.099	0.309	0.075
-204.392	-135.002	0.107	0.013
-203.377	-41.457	-0.106	-0.054
-202.363	112.550	0.152	0.183
-201.348	-200.000	-0.028	0.175
-200.333	800.000	0.048	0.145
-199.319	800.000	0.030	-0.096
-198.304	102.971	0.171	-0.199
-197.290	-87.390	0.260	0.078
-196.275	311.620	0.038	0.070
-195.260	148.416	0.058	0.078
-194.246	-115.616	-0.139	-0.026
-193.231	-97.105	0.481	0.125
-192.217	134.926	0.145	0.187
-191.202	800.000	-0.120	-0.342
-190.187	178.329	-0.152	0.221
-189.173	-178.818	0.355	0.008
-188.158	732.290	-0.059	-0.158
-187.144	37.975	-0.251	-0.221
-186.129	506.169	-0.022	0.051
-185.114	-90.558	-0.184	-0.053
-184.100	23.050	0.101	0.083
-183.085	66.302	0.282	0.284
-182.071	90.367	-0.152	-0.169
-181.056	-200.000	0.002	-0.019
-180.042	-18.219	0.147	0.091
-179.027	331.949	0.118	-0.227
-178.012	800.000	0.045	-0.180
-176.998	122.492	0.048	0.060
-175.983	215.166	0.149	0.234
-174.969	-55.209	-0.111	-0.050
-173.954	-200.000	0.005	0.384
-172.939	4.089	-0.304	0.221
-171.925	-200.000	0.013	-0.105
-170.910	-80.839	0.252	-0.083
-169.896	-58.749	0.062	-0.027
-168.881	9.172	0.441	0.330
-167.866	-200.000	-0.040	-0.224
-166.852	-65.231	-0.210	0.084
-165.837	-5.680	-0.059	0.040
-164.823	-61.073	-0.350	-0.147
-163.808	219.185	-0.171	0.271
-162.793	-200.000	-0.043	0.318
-161.779	-200.000	0.020	0.163
-160.764	-189.111	-0.326	0.004
-159.750	-101.981	-0.101	0.024
-158.735	-97.618	-0.293	-0.075
-157.720	-37.257	0.135	0.071
-156.706	565.777	0.152	-0.365
-155.691	800.000	-0.123	0.383
-154.677	-200.000	-0.041	0.244
-153.662	-107.019	-0.124	-0.027
-152.647	-112.497	-0.042	-0.008
-151.633	205.898	0.183	0.282
-150.618	-37.613	0.143	-0.076
-149.604	-96.486	0.059	-0.016
-148.589	-22.883	-0.257	-0.153
-147.574	423.069	0.107	-0.227
-146.560	105.997	0.245	0.287
-145.545	-155.255	0.114	-0.007
-144.531	-200.000	0.077	-0.423
-143.516	-125.960	0.284	-0.042
-142.502	725.342	-0.075	-0.198
-141.487	-78.709	0.277	-0.094
-140.472	-97.855	-0.417	-0.107
-139.458	800.000	-0.035	0.130
-138.443	-101.938	-0.066	-0.016
-137.429	-89.103	0.321	0.094
-136.414	-47.435	-0.326	0.157
-135.399	59.276	-0.063	-0.062
-134.385	800.000	-0.063	0.189
-133.370	800.000	-0.031	-0.126
-132.356	4.554	-0.096	-0.070
-131.341	140.154	0.147	-0.192
-130.326	-156.683	-0.099	0.006
-129.312	381.518	-0.244	-0.495
-128.297	-137.450	-0.226	-0.025
-127.283	-183.944	0.165	0.003
-126.268	-200.000	-0.068	0.362
-125.253	-137.633	0.268	0.030
-124.239	-75.416	-0.287	-0.101
-123.224	800.000	0.034	-0.137
-122.210	-38.081	-0.207	0.109
-121.195	15.828	-0.121	0.094
