DTS Sentinel unit serial number:	SN413079Multiplexer serial number:	ORYXHardware model number:	OX4-SRSoftware version number:	ORYX F/W v4.00 Oryx Data Collector v3.7.2.0data status	okinstallation	princeton_trtdifferential loss correction	single-endedforward channel	channel 1reverse channel	N/Adate	2019/09/15time	07:26:35forward acquisition time	60.00reverse acquisition time	0.00gamma	496.2192k internal	0.2324k external	0.2324temperature offset calibration	0.9999default loss term (dB/km)	0.3790temperature slope calibration	1.0000multiplexer offset coefficient	1.0000multiplexer slope coefficient	1.0000fibre end	0.00T internal ref (°C)	30.56T ext. ref 1 (°C)	4.87T ext. ref 2 (°C)	25.70length (m)	temperature (°C)	Stokes	anti-Stokes-747.200	-200.000	-0.013	-0.224
-746.185	800.000	-0.090	0.305
-745.171	521.669	0.148	0.351
-744.156	144.038	-0.072	-0.097
-743.142	137.841	0.220	-0.291
-742.127	-181.856	0.278	0.005
-741.112	-200.000	0.002	-0.131
-740.098	-200.000	0.002	-0.144
-739.083	-200.000	-0.030	0.162
-738.069	9.994	-0.080	-0.061
-737.054	-50.129	0.219	-0.105
-736.039	-2.924	-0.237	-0.167
-735.025	226.269	0.134	0.219
-734.010	50.908	-0.300	-0.287
-732.996	-200.000	0.057	-0.365
-731.981	800.000	0.024	-0.086
-730.966	-200.000	0.042	-0.261
-729.952	71.029	-0.236	-0.247
-728.937	-148.526	-0.401	-0.033
-727.923	-44.454	-0.131	-0.066
-726.908	20.869	-0.049	-0.040
-725.894	800.000	0.033	-0.142
-724.879	-176.669	-0.429	-0.011
-723.864	142.284	0.180	0.240
-722.850	-118.277	-0.423	0.076
-721.835	-107.695	0.295	0.065
-720.821	564.646	0.111	-0.271
-719.806	-18.245	-0.179	0.113
-718.791	118.147	0.031	0.038
-717.777	204.868	-0.126	-0.196
-716.762	-120.098	-0.166	0.029
-715.748	715.888	-0.013	0.036
-714.733	800.000	0.027	0.095
-713.718	225.667	-0.050	-0.082
-712.704	57.302	-0.086	0.085
-711.689	-200.000	0.048	-0.238
-710.675	113.558	-0.208	-0.255
-709.660	-200.000	0.001	0.059
-708.645	483.869	0.157	-0.361
-707.631	41.533	0.135	0.123
-706.616	-6.485	-0.113	-0.077
-705.602	-200.000	0.008	0.153
-704.587	15.470	0.134	0.106
-703.572	-200.000	0.029	-0.294
-702.558	-22.064	0.290	-0.177
-701.543	-200.000	0.017	-0.167
-700.529	410.801	0.119	0.254
-699.514	-200.000	-0.036	0.192
-698.499	93.150	-0.088	-0.101
-697.485	-38.303	-0.373	-0.199
-696.470	-33.067	-0.257	-0.143
-695.456	-163.736	-0.053	-0.003
-694.441	-200.000	-0.022	0.372
-693.426	-122.843	-0.290	-0.047
-692.412	127.668	-0.143	0.183
-691.397	-80.087	0.341	-0.115
-690.383	460.878	0.064	-0.144
-689.368	353.712	0.063	0.126
-688.354	62.620	0.178	0.179
-687.339	47.529	0.177	-0.166
-686.324	800.000	0.054	0.177
-685.310	158.097	-0.152	-0.212
-684.295	-113.242	-0.297	0.059
-683.281	133.504	0.144	0.188
-682.266	-11.470	0.153	0.102
-681.251	152.709	-0.049	-0.067
-680.237	-200.000	-0.060	0.000
-679.222	-25.108	0.062	-0.037
-678.208	-60.484	-0.295	-0.126
-677.193	-200.000	-0.006	0.063
-676.178	-118.059	0.235	0.042
-675.164	1.160	0.108	0.078
-674.149	-53.209	0.245	0.113
-673.135	106.482	0.191	-0.228
-672.120	-102.178	0.194	-0.047
-671.105	-115.484	0.239	0.045
-670.091	220.423	0.101	0.163
-669.076	-200.000	-0.012	0.315
-668.062	-128.957	-0.095	0.013
-667.047	800.000	-0.056	-0.190
-666.032	384.562	0.093	-0.192
-665.018	174.421	-0.197	0.287
-664.003	-200.000	0.071	-0.432
-662.989	-3.580	-0.149	0.104
-661.974	241.602	-0.060	0.101
-660.959	119.528	0.182	-0.227
-659.945	-64.559	0.249	0.102
-658.930	-3.442	-0.120	0.084
-657.916	800.000	0.071	0.257
-656.901	800.000	-0.058	-0.217
-655.886	800.000	-0.071	-0.250
-654.872	-148.710	-0.432	-0.035
-653.857	-46.958	0.202	0.099
-652.843	-139.836	-0.254	-0.027
-651.828	800.000	-0.110	-0.370
-650.814	180.797	0.219	-0.324
-649.799	81.088	0.215	-0.233
-648.784	93.252	-0.221	-0.251
-647.770	-24.819	-0.147	0.088
-646.755	-200.000	-0.025	-0.122
-645.741	800.000	-0.103	-0.429
-644.726	-58.978	-0.175	-0.076
-643.711	-200.000	0.070	-0.354
-642.697	-32.574	0.205	0.115
-641.682	73.017	0.100	-0.106
-640.668	-69.427	-0.290	0.112
-639.653	-188.479	0.302	-0.004
-638.638	144.913	0.027	-0.036
-637.624	-117.739	0.078	-0.014
-636.609	-114.713	-0.161	0.031
-635.595	32.022	0.243	-0.211
-634.580	800.000	-0.081	-0.244
-633.565	-200.000	0.024	0.273
-632.551	-25.107	0.298	0.178
-631.536	-52.933	0.086	-0.040
-630.522	517.210	-0.048	-0.114
-629.507	628.382	0.074	0.189
-628.492	-28.205	0.217	-0.126
-627.478	138.470	-0.103	-0.136
-626.463	-98.608	0.036	-0.009
-625.449	-200.000	0.010	0.260
-624.434	326.749	0.147	-0.283
-623.419	481.616	-0.068	-0.154
-622.405	-3.168	0.096	0.068
-621.390	800.000	-0.089	-0.318
-620.376	75.395	0.192	0.203
-619.361	-200.000	-0.002	0.043
-618.346	-200.000	0.005	0.287
-617.332	-200.000	-0.023	-0.203
-616.317	-7.691	-0.213	0.145
-615.303	128.899	0.157	0.201
-614.288	-146.183	-0.141	-0.012
-613.273	-175.817	-0.224	-0.006
-612.259	-133.711	-0.167	0.021
-611.244	47.149	0.234	0.218
-610.230	159.834	0.036	0.051
-609.215	138.481	-0.310	-0.408
-608.201	-200.000	-0.023	0.268
-607.186	800.000	-0.047	-0.195
-606.171	-200.000	0.028	0.336
-605.157	-79.767	0.266	-0.090
-604.142	-200.000	0.062	0.311
-603.128	-200.000	0.032	-0.142
-602.113	-67.438	0.230	0.091
-601.098	5.100	-0.252	-0.187
-600.084	-200.000	0.032	-0.431
-599.069	137.402	0.078	0.103
-598.055	138.233	0.229	-0.301
-597.040	76.180	-0.144	0.153
-596.025	-200.000	-0.042	-0.195
-595.011	-141.939	-0.386	-0.039
-593.996	800.000	-0.058	-0.191
-592.982	-200.000	-0.017	0.079
-591.967	800.000	0.083	-0.253
-590.952	166.759	-0.049	0.070
-589.938	-161.583	0.107	0.005
-588.923	197.153	0.112	0.171
-587.909	58.063	-0.218	0.215
-586.894	-55.455	-0.136	-0.061
-585.879	-54.154	0.303	-0.138
-584.865	53.530	0.153	-0.147
-583.850	-56.460	0.040	-0.018
-582.836	8.671	-0.145	-0.110
-581.821	595.653	-0.087	0.216
-580.806	800.000	-0.103	0.327
-579.792	-200.000	-0.025	0.175
-578.777	800.000	0.140	0.411
-577.763	-105.347	0.005	-0.001
-576.748	258.505	-0.200	-0.346
-575.733	-33.953	-0.371	-0.205
-574.719	-46.789	-0.213	-0.104
-573.704	-67.099	-0.159	-0.063
-572.690	724.578	-0.028	-0.074
-571.675	101.302	-0.210	-0.245
-570.661	22.541	0.049	0.040
-569.646	147.660	0.078	-0.105
-568.631	82.083	0.132	-0.144
-567.617	465.051	-0.089	0.199
-566.602	-3.734	-0.055	-0.039
-565.588	55.815	-0.103	-0.100
-564.573	499.279	0.068	-0.157
-563.558	503.576	0.093	-0.215
-562.544	55.639	-0.083	-0.080
-561.529	-8.377	0.147	0.099
-560.515	-133.355	0.185	-0.023
-559.500	-17.667	-0.072	0.045
-558.485	-200.000	0.023	0.200
-557.471	-159.458	-0.306	-0.017
-556.456	-10.356	0.117	0.078
-555.442	-108.473	0.097	-0.021
-554.427	-124.739	0.092	0.014
-553.412	-200.000	0.027	-0.318
-552.398	18.614	-0.124	-0.100
-551.383	-148.329	0.202	0.017
-550.369	-200.000	-0.038	0.214
-549.354	-11.723	-0.122	0.080
-548.339	-116.222	0.096	0.018
-547.325	-200.000	-0.088	0.466
-546.310	-46.820	0.136	0.067
-545.296	411.988	-0.133	-0.283
-544.281	17.336	-0.328	0.261
-543.266	19.517	-0.218	-0.175
-542.252	43.107	-0.186	-0.170
-541.237	-116.035	0.256	-0.048
-540.223	-83.960	0.063	0.020
-539.208	800.000	-0.096	0.291
-538.193	-52.803	-0.073	0.034
-537.179	800.000	-0.052	-0.182
-536.164	800.000	0.047	0.178
-535.150	258.643	0.130	-0.225
-534.135	-178.756	0.094	-0.002
-533.121	-200.000	-0.077	-0.366
-532.106	606.656	0.026	0.065
-531.091	289.014	-0.143	-0.259
-530.077	127.653	-0.212	-0.270
-529.062	222.251	0.171	-0.276
-528.048	-200.000	0.022	-0.188
-527.033	23.669	0.150	-0.124
-526.018	-60.983	0.221	0.093
-525.004	-9.101	-0.082	-0.055
-523.989	-1.823	0.260	-0.183
-522.975	-35.364	-0.258	-0.141
-521.960	-51.991	-0.038	-0.017
-520.945	-72.597	0.113	-0.042
-519.931	-13.571	0.357	-0.231
-518.916	593.818	0.120	-0.297
-517.902	-58.480	0.277	0.120
-516.887	706.118	-0.128	0.337
-515.872	-92.281	-0.192	0.054
-514.858	-108.237	-0.111	0.024
-513.843	800.000	-0.070	-0.217
-512.829	-151.261	-0.222	-0.017
-511.814	-200.000	-0.003	-0.119
-510.799	159.284	-0.072	0.100
-509.785	-200.000	0.021	-0.218
-508.770	-197.725	-0.219	-0.001
-507.756	268.307	-0.155	-0.271
-506.741	-37.079	-0.066	-0.035
-505.726	-200.000	-0.021	0.379
-504.712	124.541	-0.062	0.078
-503.697	603.167	-0.102	-0.253
-502.683	156.880	0.102	-0.140
-501.668	800.000	0.040	0.124
-500.653	12.602	-0.099	-0.076
-499.639	94.214	-0.064	-0.072
-498.624	-97.625	-0.170	-0.044
-497.610	-200.000	0.044	-0.304
-496.595	800.000	-0.121	-0.463
-495.581	800.000	-0.050	-0.173
-494.566	438.697	0.014	0.030
-493.551	-104.331	0.127	0.029
-492.537	-67.121	-0.137	0.054
-491.522	-122.184	-0.270	0.044
-490.508	-200.000	0.022	-0.186
-489.493	-200.000	0.055	-0.242
-488.478	59.271	-0.108	0.106
-487.464	-200.000	-0.068	0.362
-486.449	-200.000	-0.023	-0.127
-485.435	800.000	-0.005	-0.019
-484.420	110.232	-0.017	-0.021
-483.405	-147.148	0.373	0.032
-482.391	77.279	-0.077	-0.082
-481.376	-88.923	-0.115	-0.034
-480.362	-45.425	-0.374	0.185
-479.347	40.961	-0.003	0.003
-478.332	252.842	-0.041	0.069
-477.318	-200.000	0.004	0.063
-476.303	26.504	0.454	0.379
-475.289	4.840	0.138	0.101
-474.274	-104.553	0.078	-0.018
-473.259	396.357	-0.097	0.203
-472.245	-200.000	-0.035	-0.300
-471.230	29.641	0.299	-0.254
-470.216	562.704	-0.071	-0.171
-469.201	-64.994	-0.063	-0.025
-468.186	121.704	-0.121	-0.150
-467.172	800.000	-0.048	-0.206
-466.157	-156.435	-0.200	0.012
-465.143	-136.079	0.063	0.007
-464.128	211.288	0.098	-0.154
-463.113	-77.214	0.098	0.034
-462.099	-12.989	0.335	0.217
-461.084	-112.102	0.224	0.045
-460.070	-200.000	-0.026	-0.236
-459.055	-200.000	0.037	-0.242
-458.040	258.297	-0.152	-0.261
-457.026	42.180	-0.113	0.103
-456.011	-174.788	0.232	-0.007
-454.997	255.725	-0.092	-0.158
-453.982	-179.750	0.055	0.001
-452.968	-93.313	0.112	0.031
-451.953	-15.413	0.248	0.158
-450.938	-123.467	0.074	0.012
-449.924	-200.000	-0.031	-0.163
-448.909	-135.142	-0.441	0.053
-447.895	-116.670	0.322	-0.059
-446.880	19.057	-0.168	-0.134
-445.865	-106.332	-0.324	0.072
-444.851	-200.000	0.000	0.154
-443.836	-27.807	-0.070	-0.040
-442.822	183.509	-0.147	-0.216
-441.807	407.091	-0.097	0.204
-440.792	57.153	-0.222	0.216
-439.778	180.001	0.103	0.151
-438.763	-71.403	-0.234	0.087
-437.749	567.385	0.057	-0.137
-436.734	-140.332	-0.197	0.021
-435.719	-143.699	-0.226	-0.021
-434.705	800.000	-0.056	0.236
-433.690	113.383	-0.221	0.268
-432.676	800.000	0.082	0.254
-431.661	-47.057	-0.477	-0.232
-430.646	-119.663	-0.072	-0.012
-429.632	-75.346	-0.391	0.139
-428.617	-83.795	-0.234	-0.074
-427.603	-28.059	-0.383	-0.221
-426.588	-13.988	-0.184	0.119
-425.573	6.217	-0.167	-0.124
-424.559	113.825	-0.064	-0.078
-423.544	-200.000	0.007	0.070
-422.530	97.319	0.162	-0.185
-421.515	-12.951	0.256	-0.166
-420.500	-153.829	-0.138	-0.009
-419.486	-81.633	0.153	-0.050
-418.471	800.000	-0.115	-0.356
-417.457	266.525	-0.111	0.193
-416.442	-200.000	-0.002	-0.131
-415.428	-61.289	-0.175	0.074
-414.413	-59.064	-0.314	-0.135
-413.398	578.309	-0.004	-0.010
-412.384	800.000	0.123	-0.400
-411.369	-94.376	-0.252	0.069
-410.355	800.000	0.025	-0.080
-409.340	-69.322	0.386	-0.148
-408.325	97.714	-0.077	-0.089
-407.311	-47.605	0.247	0.120
-406.296	71.785	0.213	0.221
-405.282	173.788	0.068	-0.098
-404.267	84.012	0.048	-0.052
-403.252	-200.000	0.023	0.129
-402.238	16.066	-0.175	-0.137
-401.223	284.399	-0.091	0.164
-400.209	314.958	0.162	-0.304
-399.194	100.398	-0.147	-0.170
-398.179	-200.000	-0.028	-0.251
-397.165	-2.296	-0.137	-0.095
-396.150	124.540	-0.145	0.182
-395.136	800.000	0.092	0.304
-394.121	177.109	0.022	0.032
-393.106	-57.339	0.219	-0.096
-392.092	179.766	-0.174	0.254
-391.077	-93.320	-0.104	-0.029
-390.063	-22.060	0.251	0.152
-389.048	-51.650	-0.159	-0.074
-388.033	-37.725	0.078	0.042
-387.019	-200.000	-0.002	-0.077
-386.004	54.989	-0.112	0.108
-384.990	133.757	-0.196	-0.252
-383.975	0.642	0.321	0.228
-382.960	-34.616	-0.260	-0.142
-381.946	-200.000	0.029	-0.136
-380.931	-85.538	0.346	-0.107
-379.917	11.333	-0.217	0.166
-378.902	-91.419	0.098	0.028
-377.888	-114.591	-0.099	-0.019
-376.873	157.143	0.157	0.217
-375.858	103.532	0.069	-0.081
-374.844	571.923	0.049	0.119
-373.829	-75.352	0.248	-0.088
-372.815	-200.000	-0.018	-0.119
-371.800	800.000	0.058	0.171
-370.785	-35.158	-0.116	-0.063
-369.771	-200.000	-0.011	0.159
-368.756	-200.000	0.012	0.119
-367.742	-20.181	0.010	0.006
-366.727	-110.111	0.413	0.086
-365.712	-200.000	0.008	0.102
-364.698	-103.317	-0.134	0.031
-363.683	8.424	-0.093	-0.070
-362.669	-148.422	0.377	0.031
-361.654	-200.000	-0.003	-0.366
-360.639	-46.767	0.198	0.096
-359.625	117.435	-0.090	0.111
-358.610	-200.000	-0.040	0.291
-357.596	-158.305	0.483	0.028
-356.581	-200.000	0.012	0.103
-355.566	-114.501	-0.411	0.078
-354.552	-106.778	-0.147	0.033
-353.537	-125.775	0.383	-0.058
-352.523	-52.201	0.098	-0.045
-351.508	39.860	-0.188	-0.168
-350.493	6.481	0.070	-0.052
-349.479	-153.195	-0.174	-0.012
-348.464	99.252	0.071	-0.082
-347.450	338.162	-0.169	-0.326
-346.435	-152.737	0.336	-0.024
-345.420	115.420	0.304	0.369
-344.406	-48.492	-0.275	0.131
-343.391	800.000	0.076	0.210
-342.377	72.325	0.136	-0.141
-341.362	165.868	0.100	0.140
-340.348	-145.256	0.193	0.017
-339.333	-49.778	-0.319	0.151
-338.318	800.000	-0.050	0.202
-337.304	34.279	0.168	-0.145
-336.289	-200.000	0.039	-0.274
-335.275	-78.055	0.232	0.079
-334.260	-127.021	-0.314	0.046
-333.245	258.300	-0.082	-0.140
-332.231	317.797	0.181	0.341
-331.216	-143.258	-0.435	-0.042
-330.202	306.213	-0.043	-0.079
-329.187	73.426	-0.149	-0.155
-328.172	-39.529	-0.152	-0.079
-327.158	-200.000	-0.005	-0.205
-326.143	-80.612	-0.226	0.075
-325.129	-153.075	-0.150	0.010
-324.114	-48.765	-0.113	-0.054
-323.099	-12.616	-0.157	0.102
-322.085	393.889	-0.088	0.182
-321.070	32.396	0.116	-0.100
-320.056	800.000	-0.027	-0.084
-319.041	-52.145	-0.237	0.109
-318.026	-49.542	-0.119	0.056
-317.012	-152.895	-0.096	0.007
-315.997	-62.507	0.291	0.120
-314.983	800.000	0.021	0.075
-313.968	-184.850	0.245	0.004
-312.953	-155.639	-0.532	-0.034
-311.939	62.308	0.201	0.199
-310.924	634.351	-0.076	0.191
-309.910	139.248	0.201	-0.263
-308.895	800.000	0.028	0.083
-307.880	-63.962	-0.398	0.161
-306.866	-162.208	-0.187	0.009
-305.851	67.808	0.066	-0.067
-304.837	112.778	0.253	-0.304
-303.822	19.611	0.303	0.242
-302.807	-116.130	-0.355	0.065
-301.793	-200.000	-0.012	-0.135
-300.778	229.100	-0.038	0.062
-299.764	43.115	0.095	0.086
-298.749	-200.000	-0.008	-0.210
-297.735	241.164	-0.126	-0.208
-296.720	-4.064	-0.469	0.323
-295.705	174.853	0.213	0.306
-294.691	633.936	0.187	0.471
-293.676	-58.363	0.242	0.105
-292.662	-42.322	0.348	0.176
-291.647	199.685	0.053	-0.081
-290.632	233.079	0.051	0.083
-289.618	-44.139	0.373	0.186
-288.603	-118.257	-0.286	0.050
-287.589	-168.193	0.352	0.014
-286.574	-20.906	0.163	0.099
-285.559	-29.479	-0.229	0.130
-284.545	116.765	0.310	0.378
-283.530	130.329	0.047	-0.060
-282.516	297.504	-0.055	0.099
-281.501	127.245	0.139	0.175
-280.486	-200.000	0.005	-0.070
-279.472	202.652	0.163	0.250
-278.457	147.056	0.201	0.269
-277.443	13.376	0.147	0.113
-276.428	-94.880	0.339	0.091
-275.413	190.979	0.126	0.188
-274.399	-200.000	0.008	-0.083
-273.384	-154.491	0.332	0.022
-272.370	-200.000	0.010	-0.168
-271.355	112.081	-0.118	-0.142
-270.340	-200.000	0.078	0.414
-269.326	54.507	-0.219	-0.209
-268.311	156.876	0.190	0.261
-267.297	-65.124	0.159	0.064
-266.282	443.353	-0.076	-0.165
-265.267	-161.599	-0.228	-0.012
-264.253	25.106	-0.084	-0.069
-263.238	146.853	-0.159	0.212
-262.224	800.000	-0.047	0.186
-261.209	339.453	0.058	0.112
-260.195	-23.736	0.242	0.144
-259.180	-200.000	0.036	0.413
-258.165	80.049	0.236	0.251
-257.151	244.040	0.128	-0.213
-256.136	-200.000	-0.061	-0.285
-255.122	-75.313	0.297	0.105
-254.107	800.000	-0.060	0.211
-253.092	-47.142	0.102	-0.049
-252.078	66.217	-0.241	0.242
-251.063	-153.939	0.224	0.015
-250.049	637.875	-0.061	-0.154
-249.034	149.059	-0.059	0.079
-248.019	-92.002	0.196	-0.055
-247.005	800.000	0.016	0.064
-245.990	-88.437	0.161	-0.047
-244.976	-4.126	-0.047	0.032
-243.961	-34.155	-0.177	-0.096
-242.946	382.528	0.089	0.182
-241.932	137.539	0.192	-0.249
-240.917	800.000	0.052	-0.197
-239.903	-189.575	0.227	-0.003
-238.888	-109.773	-0.106	0.022
-237.873	-200.000	-0.004	0.086
-236.859	-38.829	-0.118	0.062
-235.844	453.615	0.132	0.290
-234.830	-200.000	0.013	0.078
-233.815	-65.715	-0.066	0.026
-232.800	153.442	-0.037	-0.050
-231.786	222.681	-0.062	0.098
-230.771	81.852	-0.147	-0.157
-229.757	-200.000	-0.028	-0.307
-228.742	-33.428	-0.135	0.074
-227.727	-163.063	0.151	0.007
-226.713	800.000	-0.067	-0.200
-225.698	-88.437	-0.218	0.064
-224.684	-161.187	0.121	0.006
-223.669	-142.342	0.179	-0.017
-222.655	65.160	0.230	0.230
-221.640	800.000	0.054	-0.173
-220.625	-200.000	-0.029	-0.203
-219.611	-200.000	-0.042	0.189
-218.596	194.973	-0.289	0.434
-217.582	217.808	0.092	0.145
-216.567	-74.337	0.353	-0.126
-215.552	-125.023	-0.352	-0.054
-214.538	109.417	-0.213	0.253
-213.523	169.434	0.092	-0.129
-212.509	-200.000	-0.063	-0.442
-211.494	350.859	-0.040	-0.078
-210.479	24.468	-0.048	0.039
-209.465	231.532	0.081	0.132
-208.450	-200.000	-0.014	0.179
-207.436	-137.067	0.216	-0.024
-206.421	-79.492	-0.104	-0.035
-205.406	-200.000	0.001	-0.164
-204.392	-32.131	0.002	0.001
-203.377	-141.243	-0.256	0.026
-202.363	41.773	0.188	-0.168
-201.348	-149.462	-0.444	0.035
-200.333	-200.000	-0.004	-0.135
-199.319	800.000	-0.041	0.119
-198.304	-200.000	-0.023	0.229
-197.290	-142.014	0.192	0.019
-196.275	-21.316	-0.097	-0.059
-195.260	-77.151	0.373	-0.128
-194.246	-200.000	0.036	0.180
-193.231	-200.000	-0.040	0.255
-192.217	-93.473	-0.545	0.149
-191.202	118.228	-0.139	0.170
-190.187	-65.295	0.269	-0.107
-189.173	252.619	0.065	-0.109
-188.158	-57.336	0.264	-0.115
-187.144	-200.000	-0.007	0.154
-186.129	294.936	-0.061	0.111
-185.114	-137.081	0.191	0.022
-184.100	192.047	0.066	-0.099
-183.085	-200.000	0.003	0.034
-182.071	-200.000	0.029	0.425
-181.056	-116.060	-0.264	-0.048
-180.042	64.267	-0.163	0.162
-179.027	800.000	0.118	-0.322
-178.012	-131.792	0.271	0.035
-176.998	86.248	-0.088	-0.096
-175.983	-168.411	0.118	0.004
-174.969	-62.545	0.244	-0.100
-173.954	-200.000	-0.047	0.416
-172.939	-98.673	0.298	0.075
-171.925	-200.000	0.059	-0.314
-170.910	162.950	-0.171	0.237
-169.896	-200.000	-0.008	-0.164
-168.881	-24.592	0.206	0.121
-167.866	-101.176	0.124	-0.030
-166.852	38.394	-0.173	0.152
-165.837	160.330	0.157	-0.216
-164.823	-25.910	0.032	-0.018
-163.808	-80.887	0.153	-0.050
-162.793	693.985	0.080	-0.206
-161.779	-138.186	-0.158	0.017
-160.764	-63.556	0.472	0.191
-159.750	800.000	-0.118	0.434
-158.735	193.063	0.210	0.313
-157.720	-54.553	0.124	0.056
-156.706	130.462	-0.297	0.376
-155.691	800.000	0.048	0.193
-154.677	-60.907	-0.088	-0.037
-153.662	-200.000	-0.077	-0.364
-152.647	-25.008	0.432	-0.253
-151.633	-149.726	-0.343	0.027
-150.618	31.642	-0.093	-0.079
-149.604	186.393	0.156	-0.229
-148.589	-18.705	-0.231	0.142
-147.574	14.233	0.084	-0.065
-146.560	-124.862	0.161	-0.024
-145.545	-49.337	0.330	-0.155
-144.531	431.723	0.017	-0.037
-143.516	-200.000	0.011	-0.119
-142.502	-66.654	0.118	-0.046
-141.487	-200.000	-0.113	0.000
-140.472	-146.904	0.104	0.009
-139.458	-79.754	-0.094	-0.031
-138.443	800.000	0.005	0.022
-137.429	-123.756	-0.197	-0.031
-136.414	-200.000	0.010	0.249
-135.399	126.259	0.116	-0.144
-134.385	195.654	-0.111	0.166
-133.370	36.121	0.297	0.257
-132.356	-175.349	0.410	-0.011
-131.341	277.842	0.155	0.272
-130.326	800.000	-0.090	0.293
-129.312	-200.000	0.038	-0.277
-128.297	-40.974	0.400	0.204
-127.283	-200.000	-0.010	0.227
-126.268	141.078	0.091	0.119
-125.253	43.657	0.305	-0.275
-124.239	-127.027	-0.300	0.043
-123.224	-138.397	-0.157	-0.017
-122.210	-119.164	0.177	0.031
