DTS Sentinel unit serial number:	SN413079Multiplexer serial number:	ORYXHardware model number:	OX4-SRSoftware version number:	ORYX F/W v4.00 Oryx Data Collector v3.7.2.0data status	okinstallation	princeton_trtdifferential loss correction	single-endedforward channel	channel 1reverse channel	N/Adate	2019/09/18time	18:50:35forward acquisition time	60.00reverse acquisition time	0.00gamma	496.2192k internal	0.2304k external	0.2304temperature offset calibration	1.0015default loss term (dB/km)	0.3790temperature slope calibration	1.0000multiplexer offset coefficient	1.0000multiplexer slope coefficient	1.0000fibre end	0.00T internal ref (°C)	37.03T ext. ref 1 (°C)	0.92T ext. ref 2 (°C)	26.85length (m)	temperature (°C)	Stokes	anti-Stokes-747.200	772.968	0.051	0.142
-746.185	75.325	0.082	0.088
-745.171	-200.000	-0.099	0.499
-744.156	-200.000	-0.070	0.567
-743.142	-39.452	-0.318	0.170
-742.127	560.047	-0.076	-0.187
-741.112	-114.928	0.162	0.031
-740.098	-66.432	0.133	0.054
-739.083	-200.000	-0.021	0.195
-738.069	78.457	-0.146	0.159
-737.054	-200.000	-0.045	0.206
-736.039	-158.899	-0.447	-0.026
-735.025	216.939	0.073	-0.118
-734.010	4.622	-0.213	-0.159
-732.996	27.407	-0.201	-0.172
-731.981	41.897	-0.091	0.084
-730.966	90.492	0.073	0.083
-729.952	269.822	0.032	0.058
-728.937	205.865	0.145	-0.230
-727.923	60.458	0.103	0.104
-726.908	-167.464	0.120	0.005
-725.894	162.713	-0.136	0.195
-724.879	-140.714	-0.352	0.037
-723.864	141.608	-0.062	0.084
-722.850	-64.050	0.332	0.138
-721.835	-13.826	0.200	0.132
-720.821	162.251	0.055	-0.078
-719.806	-153.654	-0.353	-0.025
-718.791	-200.000	0.022	-0.354
-717.777	129.330	-0.100	-0.130
-716.762	324.300	-0.109	0.211
-715.748	-94.517	-0.184	-0.051
-714.733	290.800	-0.097	-0.180
-713.718	64.927	0.100	0.103
-712.704	166.932	0.111	0.160
-711.689	601.032	0.154	-0.390
-710.675	538.886	0.015	-0.036
-709.660	-200.000	0.027	-0.240
-708.645	-200.000	-0.015	-0.246
-707.631	-153.340	0.261	0.019
-706.616	-200.000	0.037	-0.467
-705.602	-90.901	0.396	0.116
-704.587	379.842	0.123	0.257
-703.572	-200.000	-0.012	-0.232
-702.558	-200.000	-0.013	-0.073
-701.543	-200.000	0.013	0.149
-700.529	707.633	0.156	-0.418
-699.514	406.260	-0.119	-0.255
-698.499	-105.009	-0.087	-0.020
-697.485	800.000	-0.107	-0.299
-696.470	356.091	-0.086	-0.175
-695.456	-105.233	-0.374	-0.087
-694.441	-168.042	-0.293	-0.012
-693.426	-60.341	0.278	0.120
-692.412	314.314	-0.045	0.086
-691.397	-200.000	-0.005	-0.342
-690.383	32.658	-0.345	-0.303
-689.368	-67.616	-0.063	-0.025
-688.354	-53.002	0.064	-0.030
-687.339	123.902	0.167	0.213
-686.324	58.627	-0.225	0.224
-685.310	150.795	-0.137	-0.189
-684.295	4.807	-0.137	0.102
-683.281	800.000	-0.059	0.259
-682.266	30.722	-0.147	-0.128
-681.251	-200.000	0.016	0.089
-680.237	-94.340	0.229	0.064
-679.222	-119.498	-0.207	0.036
-678.208	25.165	-0.329	0.278
-677.193	-126.833	0.179	-0.027
-676.178	-45.812	0.067	0.034
-675.164	57.346	0.118	0.117
-674.149	-116.646	-0.177	-0.033
-673.135	-33.776	-0.090	0.051
-672.120	67.447	-0.088	-0.091
-671.105	747.665	0.089	0.244
-670.091	34.837	-0.134	-0.119
-669.076	585.658	0.189	0.472
-668.062	30.779	0.182	0.158
-667.047	662.255	-0.146	0.382
-666.032	-39.450	-0.092	-0.049
-665.018	-107.411	0.349	0.078
-664.003	-2.576	0.281	-0.200
-662.989	-200.000	-0.001	0.062
-661.974	-200.000	0.016	0.118
-660.959	-200.000	-0.034	0.152
-659.945	-12.746	-0.164	0.109
-658.930	-111.943	-0.229	0.047
-657.916	-200.000	0.004	0.317
-656.901	-87.228	-0.518	0.160
-655.886	-200.000	0.008	0.099
-654.872	-87.798	0.083	-0.025
-653.857	218.895	-0.170	0.275
-652.843	39.841	-0.181	0.165
-651.828	-88.141	-0.429	-0.131
-650.814	-200.000	-0.003	-0.016
-649.799	110.332	-0.227	-0.277
-648.784	-54.001	-0.262	-0.121
-647.770	255.213	-0.084	-0.146
-646.755	800.000	-0.035	-0.102
-645.741	800.000	0.061	0.244
-644.726	-47.251	0.154	0.076
-643.711	-75.957	-0.330	0.119
-642.697	3.283	0.109	-0.080
-641.682	275.406	0.047	0.085
-640.668	219.221	0.079	0.128
-639.653	26.061	-0.153	0.130
-638.638	324.018	-0.121	0.234
-637.624	-200.000	-0.034	-0.231
-636.609	2.563	-0.027	0.020
-635.595	58.068	-0.139	-0.138
-634.580	133.427	-0.118	-0.155
-633.565	317.055	0.039	0.074
-632.551	106.050	-0.150	0.180
-631.536	-182.783	0.161	0.003
-630.522	-16.873	-0.249	-0.159
-629.507	-106.268	-0.125	-0.028
-628.492	210.417	-0.265	-0.422
-627.478	87.000	0.161	0.180
-626.463	-127.420	0.031	0.005
-625.449	70.028	0.122	-0.128
-624.434	800.000	-0.041	-0.145
-623.419	800.000	-0.103	-0.376
-622.405	114.751	-0.130	-0.161
-621.390	-200.000	0.065	0.364
-620.376	-200.000	0.138	0.000
-619.361	800.000	-0.118	-0.367
-618.346	-200.000	0.000	-0.008
-617.332	-73.975	-0.236	0.087
-616.317	-200.000	0.024	0.151
-615.303	-142.144	-0.123	0.012
-614.288	612.839	-0.066	-0.167
-613.273	13.392	-0.119	0.093
-612.259	-200.000	-0.023	0.240
-611.244	265.143	0.050	-0.089
-610.230	-157.584	0.097	0.006
-609.215	-93.808	0.469	0.131
-608.201	-64.144	0.288	0.119
-607.186	800.000	0.067	0.209
-606.171	-92.398	-0.204	0.058
-605.157	-110.317	0.396	-0.083
-604.142	101.055	0.143	-0.169
-603.128	84.806	-0.108	-0.120
-602.113	200.398	0.064	-0.100
-601.098	58.046	-0.151	-0.150
-600.084	-200.000	0.055	0.263
-599.069	162.720	-0.118	-0.168
-598.055	324.683	0.026	-0.050
-597.040	257.456	-0.091	-0.159
-596.025	800.000	0.055	-0.232
-595.011	238.327	0.189	0.318
-593.996	168.061	-0.189	-0.272
-592.982	-200.000	0.010	-0.104
-591.967	158.532	-0.160	0.224
-590.952	350.845	0.083	0.167
-589.938	30.814	0.234	-0.203
-588.923	93.056	0.044	-0.051
-587.909	88.849	-0.166	-0.187
-586.894	-70.910	-0.104	-0.040
-585.879	-24.967	-0.190	-0.114
-584.865	-54.245	0.233	-0.107
-583.850	-200.000	0.035	0.231
-582.836	-200.000	-0.041	-0.391
-581.821	-49.047	0.083	-0.040
-580.806	-169.291	0.143	0.005
-579.792	-106.034	-0.147	-0.033
-578.777	176.804	-0.149	-0.220
-577.763	330.258	-0.114	0.223
-576.748	36.662	-0.193	-0.172
-575.733	-57.773	-0.113	0.050
-574.719	-200.000	-0.025	-0.223
-573.704	653.786	-0.130	-0.337
-572.690	81.923	0.214	0.234
-571.675	800.000	-0.114	0.418
-570.661	-200.000	-0.002	0.018
-569.646	-131.160	0.169	0.023
-568.631	-200.000	-0.006	0.226
-567.617	43.070	-0.111	-0.103
-566.602	139.016	-0.133	-0.177
-565.588	265.876	0.165	-0.291
-564.573	800.000	0.050	0.142
-563.558	214.990	-0.040	-0.064
-562.544	800.000	-0.064	-0.207
-561.529	730.406	-0.126	0.340
-560.515	-100.777	0.174	-0.043
-559.500	172.060	0.062	0.090
-558.485	-52.407	-0.100	-0.047
-557.471	36.523	-0.308	0.275
-556.456	65.821	-0.074	0.076
-555.442	-92.945	0.106	-0.030
-554.427	-168.996	-0.114	-0.004
-553.412	800.000	0.036	0.153
-552.398	30.048	0.127	0.110
-551.383	-2.687	-0.391	0.276
-550.369	-69.333	0.040	0.016
-549.354	-116.116	0.299	0.056
-548.339	800.000	-0.080	0.312
-547.325	-117.907	0.216	0.039
-546.310	800.000	-0.061	0.175
-545.296	70.448	0.084	0.088
-544.281	-200.000	0.074	0.334
-543.266	800.000	0.051	-0.153
-542.252	-96.251	0.266	0.071
-541.237	-85.081	0.175	-0.055
-540.223	-113.176	-0.184	0.037
-539.208	-21.304	0.214	0.132
-538.193	53.902	0.053	0.051
-537.179	-112.138	-0.124	-0.025
-536.164	-6.794	-0.343	0.235
-535.150	-32.763	0.068	0.038
-534.135	150.502	0.057	0.079
-533.121	-79.546	-0.380	-0.129
-532.106	-91.043	-0.118	0.034
-531.091	-91.501	0.364	-0.105
-530.077	-72.290	-0.269	-0.100
-529.062	49.142	-0.206	-0.195
-528.048	-200.000	-0.006	-0.679
-527.033	149.904	-0.092	-0.126
-526.018	271.509	0.108	0.192
-525.004	183.605	0.190	0.284
-523.989	800.000	0.108	-0.459
-522.975	113.961	-0.046	0.057
-521.960	-200.000	-0.046	-0.312
-520.945	194.573	0.193	0.295
-519.931	5.523	-0.216	-0.161
-518.916	339.991	0.196	-0.386
-517.902	-150.249	-0.327	0.026
-516.887	85.408	-0.155	0.172
-515.872	-21.787	0.195	0.120
-514.858	800.000	-0.109	0.383
-513.843	541.080	-0.047	0.114
-512.829	800.000	0.103	-0.296
-511.814	-32.449	0.250	0.141
-510.799	334.547	0.110	0.216
-509.785	-200.000	0.016	0.315
-508.770	-69.052	-0.220	-0.085
-507.756	58.428	0.047	-0.046
-506.741	-200.000	-0.083	0.375
-505.726	25.295	0.221	-0.186
-504.712	-200.000	0.033	-0.181
-503.697	60.400	-0.225	-0.224
-502.683	26.029	-0.198	-0.166
-501.668	-200.000	0.023	0.158
-500.653	-114.268	-0.387	0.075
-499.639	-60.053	-0.085	-0.037
-498.624	800.000	0.047	0.152
-497.610	-124.341	-0.279	0.044
-496.595	-39.994	0.119	0.063
-495.581	318.357	-0.104	0.198
-494.566	-19.286	0.070	0.044
-493.551	17.848	-0.188	0.151
-492.537	-200.000	0.070	0.629
-491.522	-200.000	0.051	0.420
-490.508	-97.572	-0.143	0.037
-489.493	-8.583	0.214	-0.145
-488.478	-195.571	0.069	-0.001
-487.464	-111.059	-0.157	-0.032
-486.449	-200.000	0.004	0.206
-485.435	-200.000	-0.007	0.076
-484.420	-98.728	0.139	-0.036
-483.405	-100.830	-0.132	-0.033
-482.391	-98.286	0.164	0.042
-481.376	-200.000	-0.001	-0.144
-480.362	275.645	0.037	-0.066
-479.347	-200.000	-0.013	-0.124
-478.332	-94.238	0.156	0.043
-477.318	-108.175	0.071	-0.015
-476.303	389.770	0.127	0.265
-475.289	800.000	-0.096	-0.363
-474.274	16.284	-0.087	-0.069
-473.259	72.981	0.095	0.100
-472.245	-28.157	-0.048	-0.028
-471.230	-85.343	-0.521	-0.164
-470.216	-61.234	-0.040	-0.017
-469.201	5.110	0.161	0.120
-468.186	-6.919	0.023	-0.016
-467.172	-200.000	0.014	-0.146
-466.157	-56.100	-0.188	0.084
-465.143	82.339	0.043	0.046
-464.128	-65.096	0.104	-0.042
-463.113	-82.450	-0.136	-0.045
-462.099	160.309	-0.125	-0.175
-461.084	161.987	-0.186	0.263
-460.070	-23.497	-0.174	-0.105
-459.055	57.434	0.111	0.109
-458.040	-74.028	0.240	-0.088
-457.026	160.342	-0.134	-0.188
-456.011	-200.000	-0.002	-0.075
-454.997	18.004	-0.227	0.182
-453.982	-88.780	0.066	0.020
-452.968	-200.000	0.044	-0.203
-451.953	-81.084	0.105	0.035
-450.938	-67.439	-0.167	0.066
-449.924	800.000	-0.029	0.096
-448.909	23.130	-0.286	0.236
-447.895	-46.272	0.063	0.031
-446.880	-120.107	0.163	0.028
-445.865	43.527	0.229	-0.211
-444.851	105.707	0.058	0.069
-443.836	-115.053	0.238	0.046
-442.822	738.137	-0.043	0.117
-441.807	42.271	-0.201	0.184
-440.792	213.821	0.070	0.111
-439.778	-200.000	0.000	0.407
-438.763	-86.138	0.204	0.063
-437.749	-200.000	-0.008	0.183
-436.734	-131.969	0.246	-0.032
-435.719	-50.871	-0.138	0.065
-434.705	561.645	0.166	0.404
-433.690	286.054	-0.096	-0.174
-432.676	106.877	-0.156	-0.186
-431.661	-200.000	-0.006	-0.235
-430.646	63.825	0.052	-0.053
-429.632	-147.163	-0.093	0.008
-428.617	-200.000	-0.061	-0.319
-427.603	6.070	0.191	-0.143
-426.588	72.191	0.210	0.219
-425.573	-133.704	0.278	0.035
-424.559	-46.516	-0.187	0.092
-423.544	800.000	0.076	0.246
-422.530	-161.414	0.495	0.026
-421.515	-137.436	0.336	-0.038
-420.500	800.000	-0.066	-0.197
-419.486	131.469	0.101	0.131
-418.471	47.924	0.152	-0.143
-417.457	-16.212	0.109	-0.069
-416.442	-84.451	-0.306	-0.097
-415.428	23.517	0.053	0.044
-414.413	-200.000	-0.054	-0.312
-413.398	800.000	0.074	0.245
-412.384	-25.842	0.243	-0.144
-411.369	352.040	0.106	0.212
-410.355	-200.000	-0.010	-0.100
-409.340	-39.697	-0.410	-0.216
-408.325	-21.719	-0.044	-0.027
-407.311	-173.278	-0.288	-0.009
-406.296	577.563	-0.045	-0.110
-405.282	24.981	0.098	0.082
-404.267	-200.000	-0.004	-0.048
-403.252	494.547	0.111	-0.255
-402.238	169.379	0.111	-0.159
-401.223	-11.144	0.175	0.116
-400.209	25.006	0.409	-0.341
-399.194	-81.607	-0.123	-0.040
-398.179	30.461	0.129	-0.111
-397.165	-104.146	0.332	0.078
-396.150	-6.938	-0.175	0.119
-395.136	-200.000	0.004	-0.050
-394.121	386.040	-0.136	0.281
-393.106	-124.813	0.352	-0.055
-392.092	-26.510	-0.099	-0.058
-391.077	-44.442	-0.154	-0.077
-390.063	417.371	0.017	-0.036
-389.048	-200.000	-0.004	-0.048
-388.033	414.779	0.103	-0.221
-387.019	135.795	0.295	-0.386
-386.004	102.115	0.137	0.160
-384.990	130.215	-0.093	-0.120
-383.975	556.877	0.020	0.049
-382.960	-32.233	-0.217	0.122
-381.946	456.691	0.148	-0.331
-380.931	-64.573	-0.403	0.164
-379.917	59.222	-0.276	0.272
-378.902	-200.000	0.046	-0.245
-377.888	-200.000	-0.029	0.180
-376.873	555.496	-0.065	-0.158
-375.858	800.000	0.027	-0.082
-374.844	-115.164	0.442	-0.084
-373.829	-102.230	0.080	-0.019
-372.815	-21.637	0.096	-0.058
-371.800	-35.605	0.168	0.092
-370.785	-51.306	-0.135	0.063
-369.771	197.229	0.099	-0.152
-368.756	-71.566	0.218	-0.082
-367.742	236.625	0.080	-0.132
-366.727	-200.000	-0.079	-0.533
-365.712	161.407	0.133	-0.186
-364.698	-200.000	-0.025	-0.178
-363.683	-116.439	-0.543	-0.101
-362.669	800.000	0.062	0.236
-361.654	-109.914	0.041	-0.009
-360.639	-0.212	-0.262	0.187
-359.625	-115.372	-0.161	0.030
-358.610	31.803	0.064	-0.055
-357.596	-4.079	0.143	-0.099
-356.581	71.018	0.080	0.083
-355.566	-60.120	-0.222	-0.095
-354.552	-200.000	0.003	-0.020
-353.537	352.973	0.065	0.129
-352.523	9.182	-0.101	0.076
-351.508	32.776	-0.183	0.159
-350.493	171.837	0.165	0.237
-349.479	-143.399	-0.191	-0.018
-348.464	-72.238	0.160	-0.059
-347.450	420.611	-0.052	-0.112
-346.435	43.137	-0.305	0.279
-345.420	800.000	0.037	-0.158
-344.406	446.232	0.077	-0.170
-343.391	2.734	0.321	0.234
-342.377	-47.196	-0.338	0.165
-341.362	800.000	-0.025	-0.104
-340.348	-36.040	-0.190	-0.103
-339.333	635.547	0.078	-0.198
-338.318	13.520	-0.166	-0.129
-337.304	-200.000	0.020	0.217
-336.289	-200.000	-0.025	-0.145
-335.275	577.255	-0.061	0.149
-334.260	-45.724	-0.410	-0.203
-333.245	378.204	-0.036	-0.073
-332.231	64.868	0.196	-0.198
-331.216	-12.553	0.328	0.215
-330.202	-200.000	0.010	0.172
-329.187	800.000	-0.093	0.302
-328.172	-25.717	0.201	0.119
-327.158	712.554	0.092	-0.245
-326.143	-200.000	-0.015	-0.244
-325.129	10.737	0.153	-0.117
-324.114	-200.000	-0.034	-0.332
-323.099	112.103	0.099	0.119
-322.085	178.285	-0.052	-0.076
-321.070	-200.000	-0.027	-0.120
-320.056	-4.144	0.150	0.104
-319.041	70.563	0.206	0.213
-318.026	135.921	-0.260	0.339
-317.012	-152.730	-0.159	-0.011
-315.997	-137.357	0.198	-0.022
-314.983	-6.366	0.264	-0.180
-313.968	-17.423	0.054	-0.034
-312.953	133.339	-0.214	0.277
-311.939	577.352	-0.037	0.091
-310.924	8.583	-0.231	0.174
-309.910	-200.000	-0.043	0.209
-308.895	517.656	-0.058	-0.135
-307.880	183.947	0.107	0.158
-306.866	105.472	0.107	0.127
-305.851	-200.000	0.003	0.267
-304.837	-200.000	-0.049	0.215
-303.822	75.135	-0.152	0.160
-302.807	552.973	0.130	-0.313
-301.793	800.000	-0.011	0.031
-300.778	-33.720	0.317	0.175
-299.764	800.000	0.062	0.259
-298.749	-164.591	-0.177	-0.008
-297.735	-200.000	-0.065	-0.413
-296.720	161.576	0.045	0.063
-295.705	492.281	0.088	0.201
-294.691	800.000	0.069	-0.293
-293.676	111.552	-0.132	-0.159
-292.662	-64.984	-0.260	0.105
-291.647	-200.000	0.005	-0.278
-290.632	204.284	0.206	-0.320
-289.618	-159.885	-0.128	-0.007
-288.603	-200.000	-0.002	-0.123
-287.589	426.717	-0.028	-0.060
-286.574	-163.888	-0.264	-0.012
-285.559	-81.935	0.329	0.108
-284.545	-200.000	0.033	0.251
-283.530	35.621	-0.224	-0.196
-282.516	-103.739	0.314	-0.074
-281.501	800.000	-0.012	0.036
-280.486	-90.715	0.125	-0.036
-279.472	800.000	-0.051	0.143
-278.457	800.000	0.041	0.145
-277.443	-200.000	0.012	0.239
-276.428	-200.000	0.036	0.208
-275.413	800.000	0.063	-0.180
-274.399	107.974	0.187	0.223
-273.384	-144.050	-0.389	0.036
-272.370	119.081	0.152	-0.187
-271.355	88.305	-0.215	-0.239
-270.340	-23.929	-0.270	-0.162
-269.326	303.016	0.161	-0.298
-268.311	149.725	0.210	0.284
-267.297	-125.401	-0.504	0.077
-266.282	187.124	0.169	0.252
-265.267	56.532	-0.122	-0.119
-264.253	800.000	-0.047	0.161
-263.238	-200.000	0.052	-0.277
-262.224	-82.317	0.198	-0.064
-261.209	-200.000	-0.012	-0.057
-260.195	-200.000	-0.078	0.375
-259.180	-132.218	0.208	-0.027
-258.165	-52.254	0.174	0.081
-257.151	68.585	0.158	0.162
-256.136	331.305	-0.071	-0.136
-255.122	800.000	-0.078	-0.319
-254.107	-200.000	0.019	-0.161
-253.092	-147.660	-0.137	-0.012
-252.078	154.446	-0.009	0.013
-251.063	-200.000	0.047	0.247
-250.049	58.311	0.188	-0.184
-249.034	136.962	0.052	-0.067
-248.019	-143.352	0.128	-0.012
-247.005	-61.564	-0.106	-0.045
-245.990	356.871	0.055	-0.110
-244.976	416.550	-0.064	-0.137
-243.961	-16.037	-0.206	0.131
-242.946	-200.000	0.032	0.297
-241.932	395.583	-0.213	0.443
-240.917	-200.000	0.040	-0.184
-239.903	-200.000	0.016	0.276
-238.888	-200.000	0.020	-0.129
-237.873	800.000	0.022	0.069
-236.859	-55.128	0.087	-0.039
-235.844	72.687	-0.072	0.075
-234.830	-127.740	-0.089	-0.013
-233.815	55.784	0.156	-0.151
-232.800	-200.000	0.013	0.402
-231.786	-138.585	0.284	-0.031
-230.771	47.210	0.080	-0.074
-229.757	278.427	-0.122	0.217
-228.742	52.138	-0.170	-0.162
-227.727	800.000	-0.047	0.153
-226.713	-78.931	0.338	0.115
-225.698	168.403	-0.180	-0.256
-224.684	-200.000	-0.005	0.042
-223.669	-120.006	-0.050	-0.008
-222.655	-150.513	-0.077	-0.006
-221.640	-121.551	-0.206	-0.034
-220.625	-35.423	0.108	-0.059
-219.611	-88.989	0.425	-0.126
-218.596	19.595	-0.239	-0.192
-217.582	-6.266	-0.088	-0.060
-216.567	-92.523	0.229	-0.064
-215.552	-122.461	0.250	0.041
-214.538	2.986	0.166	-0.120
-213.523	257.673	0.124	-0.212
-212.509	40.823	-0.090	-0.081
-211.494	184.817	-0.134	-0.198
-210.479	464.173	0.203	0.452
-209.465	509.290	0.100	0.231
-208.450	-67.907	-0.159	0.062
-207.436	-36.705	0.250	-0.134
-206.421	-200.000	-0.017	0.138
-205.406	-200.000	0.003	-0.425
-204.392	421.840	0.094	-0.200
-203.377	46.492	-0.197	0.182
-202.363	119.073	0.133	-0.165
-201.348	36.287	0.154	0.135
-200.333	-52.296	0.090	0.042
-199.319	-186.014	0.021	-0.000
-198.304	276.909	-0.008	0.014
-197.290	-129.961	0.134	0.018
-196.275	-54.412	-0.371	-0.167
-195.260	-200.000	-0.046	0.415
-194.246	-69.434	0.453	0.173
-193.231	255.144	-0.069	0.117
-192.217	213.273	0.039	0.061
-191.202	-84.921	0.300	-0.094
-190.187	-34.818	-0.337	0.183
-189.173	-200.000	-0.037	0.205
-188.158	148.079	0.069	0.093
-187.144	36.352	0.237	-0.208
-186.129	-200.000	0.008	-0.217
-185.114	-162.851	-0.177	0.009
-184.100	-200.000	0.010	0.137
-183.085	-55.380	0.055	-0.025
-182.071	-135.956	-0.086	0.010
-181.056	-55.868	-0.158	-0.070
-180.042	681.579	0.103	0.267
-179.027	-132.995	-0.304	-0.038
-178.012	-200.000	0.062	-0.386
-176.998	800.000	-0.089	-0.361
-175.983	-17.488	0.057	0.036
-174.969	800.000	-0.043	0.188
-173.954	371.327	0.055	-0.111
-172.939	800.000	0.049	0.152
-171.925	-143.066	-0.033	0.003
-170.910	357.640	0.061	-0.122
-169.896	-154.060	0.201	0.014
-168.881	113.922	-0.237	0.287
-167.866	-29.892	-0.021	-0.012
-166.852	400.358	-0.042	0.087
-165.837	-57.139	0.132	0.058
-164.823	-184.539	-0.395	0.006
-163.808	800.000	0.030	-0.112
-162.793	-200.000	0.004	0.320
-161.779	30.391	-0.076	-0.064
-160.764	630.303	-0.070	0.175
-159.750	-197.644	0.258	0.002
-158.735	800.000	-0.043	0.159
-157.720	246.421	-0.120	-0.201
-156.706	800.000	-0.074	-0.283
-155.691	-200.000	0.025	0.114
-154.677	800.000	-0.093	-0.352
-153.662	213.672	0.034	-0.053
-152.647	-52.156	0.189	0.087
-151.633	104.628	-0.018	0.021
-150.618	19.632	-0.148	-0.118
-149.604	-29.479	0.200	-0.114
-148.589	147.660	0.108	0.145
-147.574	-200.000	-0.004	-0.088
-146.560	-200.000	0.008	0.085
-145.545	-67.767	-0.366	-0.142
-144.531	64.959	0.129	-0.129
-143.516	421.653	-0.052	-0.110
-142.502	18.334	-0.051	0.041
-141.487	-200.000	0.047	-0.278
-140.472	280.442	-0.108	0.192
-139.458	25.473	-0.157	-0.130
-138.443	28.237	0.076	0.064
-137.429	153.533	-0.104	0.142
-136.414	-106.568	0.471	0.104
-135.399	-17.461	-0.189	-0.118
-134.385	-166.329	-0.166	0.007
-133.370	-200.000	-0.014	0.121
-132.356	800.000	0.060	-0.180
-131.341	-111.118	-0.068	-0.014
-130.326	-7.244	0.163	-0.110
-129.312	-53.187	0.198	-0.091
-128.297	541.264	0.083	0.197
-127.283	450.569	-0.108	-0.238
-126.268	-150.380	0.019	0.001
-125.253	-200.000	-0.010	0.199
-124.239	800.000	-0.053	0.208
-123.224	51.165	0.122	-0.115
-122.210	81.561	0.041	-0.044
-121.195	-130.135	0.291	-0.039
