DTS Sentinel unit serial number:	SN413079Multiplexer serial number:	ORYXHardware model number:	OX4-SRSoftware version number:	ORYX F/W v4.00 Oryx Data Collector v3.7.2.0data status	okinstallation	princeton_trtdifferential loss correction	single-endedforward channel	channel 1reverse channel	N/Adate	2019/09/13time	07:42:35forward acquisition time	60.00reverse acquisition time	0.00gamma	496.2192k internal	0.2334k external	0.2334temperature offset calibration	1.0159default loss term (dB/km)	0.3790temperature slope calibration	1.0000multiplexer offset coefficient	1.0000multiplexer slope coefficient	1.0000fibre end	0.00T internal ref (°C)	26.44T ext. ref 1 (°C)	4.20T ext. ref 2 (°C)	22.57length (m)	temperature (°C)	Stokes	anti-Stokes-747.200	-39.409	0.198	-0.104
-746.185	-32.625	0.141	-0.079
-745.171	-200.000	0.011	0.265
-744.156	800.000	-0.076	0.247
-743.142	-200.000	-0.037	-0.333
-742.127	-78.867	-0.270	0.092
-741.112	-147.010	0.307	0.026
-740.098	-19.576	-0.133	-0.083
-739.083	-70.993	-0.365	-0.138
-738.069	-163.853	0.047	0.002
-737.054	198.497	-0.232	0.357
-736.039	800.000	-0.080	-0.243
-735.025	-51.085	0.185	-0.087
-734.010	85.978	0.168	0.186
-732.996	-159.997	0.063	0.003
-731.981	132.059	-0.121	0.156
-730.966	249.598	0.124	0.211
-729.952	-114.321	-0.435	0.084
-728.937	234.176	0.118	-0.196
-727.923	441.083	0.059	0.130
-726.908	-78.686	-0.080	-0.027
-725.894	-69.134	-0.074	0.029
-724.879	-139.975	-0.376	-0.040
-723.864	321.904	0.092	-0.176
-722.850	84.761	-0.282	-0.311
-721.835	-200.000	-0.019	0.089
-720.821	-44.295	-0.038	0.019
-719.806	-200.000	-0.024	-0.308
-718.791	800.000	-0.056	-0.156
-717.777	-61.229	-0.124	0.052
-716.762	304.426	0.159	0.296
-715.748	68.525	0.240	0.247
-714.733	-88.045	-0.265	-0.080
-713.718	-98.907	-0.168	0.043
-712.704	133.147	-0.098	0.127
-711.689	200.088	-0.162	0.249
-710.675	800.000	0.047	0.153
-709.660	233.709	-0.044	0.073
-708.645	-22.158	0.116	-0.071
-707.631	-200.000	0.022	0.235
-706.616	720.994	-0.115	0.306
-705.602	-200.000	-0.017	-0.436
-704.587	-200.000	-0.001	0.439
-703.572	-67.121	-0.086	-0.034
-702.558	-103.960	0.325	-0.076
-701.543	15.125	0.181	-0.142
-700.529	-200.000	-0.002	-0.134
-699.514	800.000	0.083	-0.306
-698.499	-166.789	-0.175	-0.007
-697.485	-38.122	0.211	0.112
-696.470	-125.481	-0.342	-0.052
-695.456	-32.067	0.059	0.033
-694.441	123.977	0.161	-0.203
-693.426	360.205	-0.045	-0.090
-692.412	-13.318	-0.056	0.037
-691.397	-25.681	-0.190	-0.112
-690.383	186.878	0.108	-0.162
-689.368	708.835	-0.073	-0.194
-688.354	-200.000	0.029	0.320
-687.339	-25.089	-0.326	-0.194
-686.324	-49.602	0.226	0.108
-685.310	99.865	-0.101	0.117
-684.295	-200.000	-0.004	-0.068
-683.281	-144.848	0.191	-0.018
-682.266	-104.898	0.191	0.044
-681.251	-38.160	-0.438	-0.233
-680.237	9.926	0.058	-0.044
-679.222	800.000	-0.094	-0.272
-678.208	-106.847	-0.244	-0.054
-677.193	-73.379	0.225	0.083
-676.178	96.116	-0.055	-0.063
-675.164	126.059	0.136	-0.173
-674.149	-136.212	-0.366	0.043
-673.135	-3.089	0.066	0.046
-672.120	69.201	-0.171	0.177
-671.105	702.324	0.031	0.081
-670.091	-62.345	0.238	-0.099
-669.076	544.029	-0.126	-0.303
-668.062	58.191	-0.369	0.362
-667.047	-200.000	0.022	-0.162
-666.032	3.025	0.125	-0.091
-665.018	-61.919	-0.235	-0.099
-664.003	51.090	-0.409	-0.388
-662.989	-18.961	0.227	0.142
-661.974	-22.284	-0.137	0.083
-660.959	6.947	0.137	0.102
-659.945	800.000	-0.019	0.070
-658.930	125.292	0.066	0.084
-657.916	3.967	0.094	0.069
-656.901	71.372	-0.099	-0.102
-655.886	704.720	0.015	-0.041
-654.872	83.935	-0.172	-0.188
-653.857	-136.804	-0.195	0.022
-652.843	37.676	-0.109	0.096
-651.828	79.287	-0.146	0.157
-650.814	18.602	0.136	-0.109
-649.799	800.000	0.054	0.206
-648.784	-57.688	-0.247	-0.108
-647.770	-182.403	-0.407	-0.008
-646.755	-184.674	-0.165	0.003
-645.741	-200.000	0.104	0.510
-644.726	-200.000	0.010	0.285
-643.711	227.300	0.264	-0.429
-642.697	153.160	0.128	-0.176
-641.682	-60.315	-0.164	0.070
-640.668	-26.817	0.049	-0.029
-639.653	35.774	0.144	-0.127
-638.638	-136.886	-0.251	-0.029
-637.624	-115.572	0.391	-0.073
-636.609	-99.780	0.462	-0.116
-635.595	-200.000	0.045	0.252
-634.580	-1.773	0.135	-0.095
-633.565	9.278	0.230	-0.174
-632.551	183.508	-0.041	-0.060
-631.536	94.548	-0.084	-0.096
-630.522	57.650	-0.178	0.174
-629.507	-11.292	-0.161	0.106
-628.492	230.415	0.044	0.072
-627.478	800.000	0.106	0.322
-626.463	244.939	-0.070	-0.118
-625.449	-85.548	0.239	-0.074
-624.434	45.153	0.310	-0.286
-623.419	-124.321	0.433	-0.068
-622.405	-200.000	0.019	0.119
-621.390	-200.000	0.024	-0.208
-620.376	9.900	-0.144	0.109
-619.361	59.275	0.113	-0.112
-618.346	-86.726	0.199	-0.061
-617.332	-79.002	-0.084	-0.029
-616.317	8.159	0.132	-0.099
-615.303	149.846	-0.056	-0.076
-614.288	39.158	-0.170	-0.152
-613.273	39.183	-0.239	-0.214
-612.259	-148.788	0.299	-0.024
-611.244	-99.642	-0.124	0.031
-610.230	-176.183	-0.137	-0.004
-609.215	-200.000	-0.069	-0.352
-608.201	-200.000	-0.027	-0.227
-607.186	-200.000	-0.008	-0.045
-606.171	800.000	0.039	0.147
-605.157	455.819	0.096	-0.212
-604.142	-200.000	-0.044	0.228
-603.128	-187.063	0.100	0.001
-602.113	-71.920	0.277	0.103
-601.098	-179.921	-0.374	-0.008
-600.084	-115.587	-0.065	0.012
-599.069	-148.472	0.621	0.051
-598.055	-108.711	-0.323	0.069
-597.040	-144.636	-0.336	0.031
-596.025	37.580	-0.181	-0.160
-595.011	-136.061	-0.129	-0.015
-593.996	-53.081	-0.184	0.085
-592.982	119.194	0.236	0.292
-591.967	374.920	0.012	-0.025
-590.952	-130.206	0.282	0.038
-589.938	-111.104	0.075	0.015
-588.923	-47.895	-0.105	-0.051
-587.909	-15.560	0.105	-0.067
-586.894	24.782	-0.128	0.106
-585.879	-173.176	0.248	-0.008
-584.865	-200.000	0.014	-0.097
-583.850	12.267	-0.115	0.089
-582.836	257.438	0.029	0.049
-581.821	-17.387	-0.491	-0.309
-580.806	800.000	-0.045	0.159
-579.792	-166.004	-0.331	-0.014
-578.777	61.523	-0.303	0.301
-577.763	-144.644	-0.174	-0.016
-576.748	-106.241	-0.311	-0.070
-575.733	-200.000	-0.019	0.320
-574.719	376.027	0.101	-0.207
-573.704	-200.000	0.177	0.000
-572.690	-63.386	0.070	-0.029
-571.675	165.672	-0.213	-0.300
-570.661	-36.182	-0.147	-0.079
-569.646	-54.208	-0.348	0.158
-568.631	-200.000	0.039	-0.249
-567.617	277.764	0.153	0.271
-566.602	179.456	-0.204	0.298
-565.588	-81.303	-0.209	0.069
-564.573	-5.198	-0.209	-0.143
-563.558	-80.166	0.448	-0.150
-562.544	-178.659	0.154	-0.004
-561.529	2.679	-0.153	0.111
-560.515	135.826	-0.053	0.069
-559.500	-71.241	-0.125	0.047
-558.485	109.472	0.146	0.174
-557.471	-200.000	0.022	-0.437
-556.456	2.334	-0.184	0.133
-555.442	800.000	0.072	-0.205
-554.427	327.295	0.057	-0.110
-553.412	800.000	-0.042	-0.177
-552.398	25.575	0.078	0.065
-551.383	-142.993	-0.144	0.014
-550.369	-84.127	0.250	-0.079
-549.354	-137.585	0.372	0.042
-548.339	19.093	0.154	0.123
-547.325	49.507	0.098	0.092
-546.310	188.465	0.064	0.095
-545.296	-50.053	-0.132	-0.062
-544.281	-76.145	0.223	-0.079
-543.266	151.414	-0.144	0.195
-542.252	170.284	-0.161	-0.230
-541.237	-106.643	-0.023	-0.005
-540.223	-2.111	0.277	-0.194
-539.208	-200.000	-0.003	-0.175
-538.193	-200.000	-0.004	0.066
-537.179	13.160	0.152	0.117
-536.164	-200.000	-0.000	0.098
-535.150	800.000	0.007	0.024
-534.135	-11.844	0.374	-0.245
-533.121	-92.826	-0.272	0.076
-532.106	800.000	-0.030	0.114
-531.091	511.588	-0.034	0.079
-530.077	8.143	0.255	-0.190
-529.062	17.861	0.170	0.135
-528.048	-77.751	0.478	0.165
-527.033	783.038	0.025	-0.068
-526.018	-142.671	0.273	0.027
-525.004	376.552	-0.049	-0.100
-523.989	-58.594	-0.189	0.082
-522.975	64.000	0.148	-0.148
-521.960	-200.000	-0.008	-0.324
-520.945	-93.021	0.280	-0.078
-519.931	53.729	-0.166	0.159
-518.916	10.765	-0.191	-0.145
-517.902	-141.930	0.344	-0.034
-516.887	-25.820	0.169	0.099
-515.872	472.387	0.131	0.294
-514.858	28.434	0.122	-0.103
-513.843	-103.526	0.167	0.039
-512.829	221.147	0.089	-0.142
-511.814	-200.000	0.008	-0.087
-510.799	639.228	-0.018	0.047
-509.785	390.847	-0.025	-0.052
-508.770	-91.893	-0.185	-0.052
-507.756	-149.732	-0.155	-0.012
-506.741	-88.384	-0.295	-0.088
-505.726	-200.000	0.025	-0.253
-504.712	-55.446	0.054	-0.024
-503.697	-86.900	0.105	0.032
-502.683	216.955	-0.021	-0.033
-501.668	-83.228	-0.333	-0.107
-500.653	133.326	-0.300	-0.386
-499.639	-142.321	0.158	-0.016
-498.624	188.989	0.060	0.089
-497.610	37.072	-0.012	-0.011
-496.595	524.511	-0.113	0.265
-495.581	800.000	-0.019	0.070
-494.566	-200.000	0.067	-0.377
-493.551	-200.000	0.014	0.066
-492.537	39.134	0.242	0.216
-491.522	-200.000	0.003	-0.164
-490.508	-92.241	0.312	0.088
-489.493	16.772	-0.231	-0.182
-488.478	167.954	0.041	0.058
-487.464	-200.000	-0.014	-0.086
-486.449	132.590	-0.079	0.102
-485.435	218.169	-0.071	0.113
-484.420	-200.000	-0.035	0.217
-483.405	188.514	0.144	0.215
-482.391	159.263	-0.083	-0.114
-481.376	800.000	0.029	-0.121
-480.362	40.822	0.139	-0.125
-479.347	-147.517	-0.198	0.017
-478.332	-49.350	0.312	0.148
-477.318	-132.758	-0.204	-0.026
-476.303	-34.645	-0.216	-0.117
-475.289	-124.362	0.210	-0.033
-474.274	12.448	-0.150	0.115
-473.259	116.557	-0.118	-0.144
-472.245	-200.000	0.020	-0.191
-471.230	-177.330	-0.561	-0.014
-470.216	537.353	0.106	-0.251
-469.201	-114.771	0.206	-0.039
-468.186	-143.874	0.049	-0.005
-467.172	-200.000	-0.006	-0.084
-466.157	262.962	0.068	-0.117
-465.143	-31.931	-0.227	0.126
-464.128	-198.566	-0.110	-0.001
-463.113	180.729	-0.053	0.078
-462.099	17.415	-0.161	-0.127
-461.084	-89.836	-0.205	-0.060
-460.070	-121.303	-0.408	-0.068
-459.055	147.331	0.046	-0.061
-458.040	562.858	-0.098	-0.235
-457.026	-175.270	-0.343	0.009
-456.011	1.666	0.166	-0.118
-454.997	-57.253	-0.262	-0.114
-453.982	147.112	0.190	-0.254
-452.968	170.860	0.123	0.174
-451.953	-73.877	-0.584	0.211
-450.938	48.296	-0.137	0.127
-449.924	143.694	0.126	-0.166
-448.909	-68.014	-0.263	-0.102
-447.895	-106.002	0.112	0.025
-446.880	54.665	-0.078	-0.074
-445.865	130.550	-0.127	0.162
-444.851	-200.000	0.007	-0.279
-443.836	173.062	0.074	-0.105
-442.822	-31.141	0.259	0.145
-441.807	-60.404	-0.223	-0.094
-440.792	205.415	0.110	0.170
-439.778	-86.007	-0.395	0.121
-438.763	44.115	-0.165	-0.150
-437.749	-200.000	-0.010	0.223
-436.734	-47.856	0.198	0.095
-435.719	117.056	-0.053	-0.064
-434.705	-47.640	-0.079	0.038
-433.690	-200.000	-0.079	0.359
-432.676	-106.123	0.326	0.073
-431.661	-68.245	-0.186	0.072
-430.646	-37.735	-0.246	0.130
-429.632	-200.000	0.050	0.228
-428.617	111.138	0.046	0.055
-427.603	461.327	-0.064	-0.142
-426.588	-67.911	0.129	-0.050
-425.573	-87.536	0.337	-0.101
-424.559	-76.476	0.476	0.166
-423.544	-90.485	-0.326	-0.094
-422.530	-4.890	-0.058	0.039
-421.515	-8.198	-0.173	0.115
-420.500	-50.622	-0.211	-0.099
-419.486	176.913	0.073	-0.105
-418.471	-71.017	0.211	-0.079
-417.457	60.411	-0.173	-0.170
-416.442	-200.000	0.003	-0.340
-415.428	203.129	-0.083	0.128
-414.413	246.168	-0.017	0.028
-413.398	42.628	-0.463	-0.418
-412.384	-101.665	0.068	-0.016
-411.369	-41.219	-0.250	-0.128
-410.355	-200.000	-0.024	-0.136
-409.340	-11.132	-0.167	-0.109
-408.325	-187.811	-0.204	-0.003
-407.311	14.024	-0.270	0.208
-406.296	-10.153	-0.311	-0.205
-405.282	218.157	-0.156	0.247
-404.267	-134.316	0.170	-0.021
-403.252	-142.823	0.265	-0.026
-402.238	-2.986	-0.208	-0.144
-401.223	-111.109	0.101	0.021
-400.209	176.313	0.094	0.135
-399.194	105.173	0.086	-0.101
-398.179	702.534	0.070	0.183
-397.165	-22.904	0.282	0.169
-396.150	-200.000	0.043	0.207
-395.136	85.826	0.220	-0.240
-394.121	-86.473	-0.147	0.045
-393.106	800.000	-0.035	-0.121
-392.092	-200.000	0.026	0.115
-391.077	198.201	0.129	0.195
-390.063	-156.457	-0.271	-0.017
-389.048	101.617	0.299	-0.345
-388.033	133.244	-0.251	-0.321
-387.019	17.751	0.221	-0.175
-386.004	-65.289	-0.223	0.089
-384.990	128.298	0.121	0.153
-383.975	267.504	0.217	0.376
-382.960	-119.255	-0.208	-0.036
-381.946	-48.822	-0.263	0.125
-380.931	800.000	0.085	0.245
-379.917	82.949	0.030	-0.032
-378.902	-200.000	0.030	-0.137
-377.888	-200.000	-0.080	0.367
-376.873	791.194	0.102	-0.277
-375.858	239.454	-0.201	-0.331
-374.844	-121.709	-0.185	0.030
-373.829	-111.220	0.302	-0.061
-372.815	-16.713	0.267	0.167
-371.800	183.006	-0.158	0.231
-370.785	-200.000	-0.019	-0.265
-369.771	-200.000	0.040	0.202
-368.756	775.180	0.089	0.240
-367.742	-200.000	-0.010	0.075
-366.727	-50.073	0.358	0.168
-365.712	-1.485	-0.157	-0.110
-364.698	-200.000	-0.063	0.342
-363.683	-176.864	-0.040	-0.001
-362.669	-70.290	0.271	0.102
-361.654	-80.370	-0.287	0.095
-360.639	331.375	-0.168	0.321
-359.625	-200.000	-0.052	-0.357
-358.610	242.235	0.043	0.071
-357.596	42.792	0.160	-0.144
-356.581	800.000	-0.107	-0.357
-355.566	-88.223	0.089	0.026
-354.552	-200.000	0.026	-0.139
-353.537	38.008	0.134	0.118
-352.523	800.000	-0.123	0.421
-351.508	-155.556	0.165	-0.011
-350.493	79.765	-0.241	0.256
-349.479	107.968	-0.054	0.064
-348.464	-200.000	0.012	0.072
-347.450	-200.000	0.026	-0.175
-346.435	78.375	0.065	0.068
-345.420	74.598	0.042	-0.044
-344.406	-52.977	0.190	0.086
-343.391	451.375	0.124	0.270
-342.377	-52.689	-0.416	0.190
-341.362	800.000	0.053	0.203
-340.348	800.000	0.079	0.308
-339.333	-53.265	-0.335	-0.152
-338.318	-26.879	0.061	0.035
-337.304	800.000	0.080	-0.232
-336.289	-200.000	0.005	-0.134
-335.275	-99.449	0.267	-0.066
-334.260	61.077	0.090	-0.089
-333.245	140.995	-0.051	0.067
-332.231	-5.917	0.080	-0.054
-331.216	350.456	-0.149	-0.291
-330.202	-20.978	-0.166	0.101
-329.187	30.265	0.066	-0.056
-328.172	-200.000	0.036	-0.366
-327.158	43.516	-0.218	-0.197
-326.143	-59.453	0.238	-0.101
-325.129	68.886	-0.250	-0.254
-324.114	609.268	0.048	-0.119
-323.099	128.207	-0.082	0.103
-322.085	-16.143	-0.155	0.097
-321.070	32.749	0.096	0.082
-320.056	-125.010	-0.093	-0.014
-319.041	-200.000	-0.053	0.556
-318.026	-83.039	0.248	-0.079
-317.012	-3.264	-0.233	0.161
-315.997	-133.494	0.242	-0.030
-314.983	-109.358	-0.488	0.102
-313.968	-160.645	0.088	-0.005
-312.953	800.000	0.045	-0.123
-311.939	-103.508	0.237	0.055
-310.924	-59.598	-0.271	0.115
-309.910	-149.781	0.323	0.025
-308.895	432.629	-0.045	0.097
-307.880	82.705	0.131	-0.141
-306.866	-124.184	-0.355	0.055
-305.851	-200.000	0.001	0.195
-304.837	-16.227	0.462	-0.290
-303.822	-171.548	0.100	-0.003
-302.807	-21.983	0.162	0.097
-301.793	213.144	-0.177	0.275
-300.778	-97.223	0.317	-0.082
-299.764	36.388	0.189	-0.165
-298.749	-37.756	0.139	0.073
-297.735	-67.735	-0.198	-0.076
-296.720	30.832	0.152	0.129
-295.705	489.595	0.083	0.188
-294.691	26.644	-0.036	0.029
-293.676	800.000	-0.050	0.173
-292.662	-9.188	0.258	-0.170
-291.647	800.000	-0.077	0.307
-290.632	46.259	-0.218	0.199
-289.618	-84.366	0.289	-0.090
-288.603	-52.869	-0.309	-0.140
-287.589	98.122	0.161	0.182
-286.574	-60.921	-0.103	-0.043
-285.559	218.082	-0.040	-0.063
-284.545	71.373	-0.018	-0.019
-283.530	-73.143	0.134	-0.049
-282.516	-200.000	-0.025	0.119
-281.501	48.121	-0.208	-0.192
-280.486	800.000	-0.084	0.231
-279.472	-161.565	0.088	-0.004
-278.457	800.000	-0.044	-0.176
-277.443	-121.608	0.130	0.021
-276.428	278.301	-0.178	-0.313
-275.413	-121.284	-0.116	-0.019
-274.399	-57.697	0.130	-0.056
-273.384	-126.747	0.456	-0.067
-272.370	800.000	-0.059	0.242
-271.355	19.526	-0.172	0.136
-270.340	-117.542	-0.393	-0.070
-269.326	-200.000	0.046	-0.341
-268.311	-121.247	0.412	-0.068
-267.297	-200.000	-0.040	0.300
-266.282	-3.317	0.084	-0.058
-265.267	800.000	0.071	0.243
-264.253	-200.000	0.016	-0.133
-263.238	134.903	-0.170	0.218
-262.224	-13.194	0.094	-0.060
-261.209	-130.133	-0.170	-0.023
-260.195	-108.443	0.334	0.071
-259.180	-200.000	0.029	0.190
-258.165	125.670	-0.107	0.133
-257.151	121.537	-0.157	-0.193
-256.136	1.660	0.163	0.116
-255.122	800.000	0.094	-0.266
-254.107	-85.587	0.360	0.110
-253.092	-108.489	0.218	-0.046
-252.078	800.000	-0.038	-0.150
-251.063	-3.022	-0.110	-0.076
-250.049	-13.342	-0.110	0.070
-249.034	-162.346	0.040	-0.002
-248.019	4.359	-0.087	0.063
-247.005	-200.000	-0.031	-0.352
-245.990	166.007	0.092	-0.129
-244.976	1.356	-0.089	0.063
-243.961	-6.708	-0.186	0.125
-242.946	-104.102	-0.166	0.038
-241.932	182.070	-0.077	0.111
-240.917	50.635	0.046	-0.043
-239.903	-7.152	-0.159	-0.106
-238.888	-112.020	-0.173	0.034
-237.873	-174.916	-0.119	0.003
-236.859	516.172	0.169	0.388
-235.844	20.887	0.161	-0.129
-234.830	-101.293	0.105	0.025
-233.815	-200.000	-0.023	-0.110
-232.800	20.995	-0.228	0.182
-231.786	-134.830	0.098	0.012
-230.771	-200.000	0.039	0.241
-229.757	-200.000	0.000	0.013
-228.742	-5.706	0.275	-0.186
-227.727	403.823	-0.025	-0.051
-226.713	51.687	0.294	0.275
-225.698	52.543	-0.031	0.029
-224.684	597.307	0.066	0.160
-223.669	800.000	-0.046	-0.128
-222.655	42.961	0.125	-0.112
-221.640	-1.905	-0.111	-0.077
-220.625	800.000	-0.049	-0.205
-219.611	800.000	-0.121	0.374
-218.596	15.208	0.094	-0.072
-217.582	580.168	0.113	0.274
-216.567	-72.536	-0.155	0.056
-215.552	762.464	-0.107	0.286
-214.538	233.126	-0.165	0.267
-213.523	-58.658	-0.176	-0.075
-212.509	-53.562	0.159	0.071
-211.494	11.415	-0.248	-0.187
-210.479	800.000	0.081	-0.252
-209.465	-200.000	0.006	-0.073
-208.450	-200.000	-0.013	-0.294
-207.436	-200.000	0.012	0.174
-206.421	-78.100	-0.373	-0.126
-205.406	-73.078	0.313	-0.113
-204.392	214.621	0.118	-0.184
-203.377	208.942	0.082	0.127
-202.363	136.638	-0.267	0.342
-201.348	331.011	0.084	-0.159
-200.333	-32.395	0.398	-0.219
-199.319	-67.581	-0.279	-0.108
-198.304	-133.838	0.189	-0.023
-197.290	-154.031	0.113	-0.008
-196.275	-69.334	-0.228	-0.086
-195.260	209.096	0.152	0.234
-194.246	-200.000	-0.053	0.539
-193.231	-112.204	0.213	0.042
-192.217	383.481	-0.031	0.063
-191.202	-106.230	-0.063	0.014
-190.187	32.230	0.259	-0.220
-189.173	-111.960	0.220	0.044
-188.158	-49.734	0.098	-0.046
-187.144	78.823	0.215	-0.226
-186.129	800.000	-0.067	0.273
-185.114	-200.000	-0.004	-0.076
-184.100	47.661	-0.153	0.140
-183.085	540.332	-0.105	-0.245
-182.071	-200.000	0.007	-0.186
-181.056	-200.000	0.005	-0.127
-180.042	-10.910	0.070	0.046
-179.027	800.000	0.044	0.164
-178.012	141.467	-0.145	-0.189
-176.998	-80.580	0.367	-0.120
-175.983	190.268	-0.082	-0.122
-174.969	-200.000	-0.001	0.128
-173.954	26.216	-0.303	-0.249
-172.939	387.231	0.136	0.276
-171.925	-200.000	-0.076	-0.338
-170.910	800.000	-0.084	-0.249
-169.896	116.208	-0.064	-0.076
-168.881	-120.801	0.070	-0.012
-167.866	330.657	0.146	0.277
-166.852	152.796	-0.095	0.128
-165.837	-200.000	0.021	0.141
-164.823	-77.398	-0.272	-0.093
-163.808	41.879	-0.203	0.181
-162.793	-126.728	0.346	-0.050
-161.779	6.361	-0.216	0.158
-160.764	108.629	0.112	0.132
-159.750	-11.381	0.308	0.199
-158.735	294.211	-0.057	0.103
-157.720	-146.657	0.199	0.017
-156.706	800.000	-0.041	0.152
-155.691	-200.000	0.004	0.071
-154.677	-120.977	-0.062	-0.010
-153.662	800.000	0.042	-0.143
-152.647	259.483	0.105	0.178
-151.633	30.271	0.226	0.190
-150.618	-200.000	-0.031	0.269
-149.604	521.152	-0.056	0.130
-148.589	-168.135	0.164	0.006
-147.574	355.703	-0.048	-0.093
-146.560	297.186	-0.183	0.331
-145.545	-134.610	0.183	0.022
-144.531	-93.058	-0.202	0.055
-143.516	-112.350	0.268	-0.053
-142.502	298.244	0.047	0.086
-141.487	800.000	0.082	-0.251
-140.472	129.351	0.088	0.111
-139.458	-155.173	-0.085	0.005
-138.443	-200.000	0.025	0.245
-137.429	-200.000	0.081	-0.368
-136.414	-15.345	-0.135	0.085
-135.399	-167.431	-0.076	-0.003
-134.385	191.342	0.225	0.333
-133.370	-17.686	0.047	0.029
-132.356	193.830	0.053	-0.079
-131.341	68.915	-0.080	-0.081
-130.326	800.000	0.034	-0.094
-129.312	39.549	0.073	-0.064
-128.297	771.176	-0.079	-0.212
-127.283	-84.936	-0.306	0.094
-126.268	647.835	0.121	0.303
-125.253	93.990	0.184	0.205
-124.239	-32.329	0.153	0.084
-123.224	-200.000	-0.013	0.263
-122.210	-200.000	0.016	-0.105
-121.195	-79.809	-0.111	0.037
