DTS Sentinel unit serial number:	SN413079Multiplexer serial number:	ORYXHardware model number:	OX4-SRSoftware version number:	ORYX F/W v4.00 Oryx Data Collector v3.7.2.0data status	okinstallation	princeton_trtdifferential loss correction	single-endedforward channel	channel 1reverse channel	N/Adate	2019/09/13time	07:14:35forward acquisition time	60.00reverse acquisition time	0.00gamma	496.2192k internal	0.2335k external	0.2335temperature offset calibration	1.0157default loss term (dB/km)	0.3790temperature slope calibration	1.0000multiplexer offset coefficient	1.0000multiplexer slope coefficient	1.0000fibre end	0.00T internal ref (°C)	26.06T ext. ref 1 (°C)	4.14T ext. ref 2 (°C)	21.42length (m)	temperature (°C)	Stokes	anti-Stokes-747.200	800.000	0.048	-0.192
-746.185	-76.329	-0.179	-0.063
-745.171	-95.848	0.026	0.007
-744.156	-200.000	-0.049	0.559
-743.142	-121.465	-0.073	0.012
-742.127	-200.000	-0.038	0.364
-741.112	-200.000	0.025	0.188
-740.098	400.557	0.225	0.475
-739.083	671.205	0.106	0.275
-738.069	800.000	-0.073	0.251
-737.054	800.000	0.074	-0.209
-736.039	41.769	-0.111	-0.101
-735.025	-155.694	0.327	-0.021
-734.010	-100.006	-0.482	-0.121
-732.996	9.314	-0.307	-0.233
-731.981	-200.000	-0.006	-0.156
-730.966	103.818	-0.106	-0.125
-729.952	-200.000	-0.046	-0.429
-728.937	15.181	-0.075	-0.059
-727.923	-200.000	-0.007	-0.057
-726.908	-83.916	0.324	-0.103
-725.894	574.889	0.082	0.200
-724.879	-109.654	-0.369	-0.078
-723.864	46.231	-0.236	0.219
-722.850	-140.964	-0.370	0.038
-721.835	-144.860	-0.169	-0.016
-720.821	173.276	-0.167	-0.242
-719.806	-200.000	0.055	0.375
-718.791	26.799	-0.263	0.221
-717.777	405.419	-0.080	0.169
-716.762	-200.000	-0.021	-0.193
-715.748	193.305	0.077	-0.117
-714.733	249.494	0.061	0.104
-713.718	50.160	-0.138	0.131
-712.704	-77.400	0.279	0.097
-711.689	9.455	0.228	-0.173
-710.675	-57.607	0.096	0.042
-709.660	46.852	0.134	0.125
-708.645	-200.000	-0.008	-0.062
-707.631	-200.000	0.033	-0.304
-706.616	800.000	0.091	-0.334
-705.602	-200.000	-0.021	-0.216
-704.587	-76.515	-0.175	0.062
-703.572	3.182	-0.517	-0.377
-702.558	-112.242	0.298	0.060
-701.543	183.984	-0.010	0.016
-700.529	-116.670	0.124	0.023
-699.514	-86.793	0.120	0.037
-698.499	319.561	0.059	-0.113
-697.485	6.262	-0.064	-0.048
-696.470	800.000	-0.147	-0.409
-695.456	479.203	-0.041	0.094
-694.441	-200.000	-0.037	0.236
-693.426	213.886	0.122	0.194
-692.412	-64.541	0.191	0.078
-691.397	-200.000	0.004	0.020
-690.383	-200.000	0.014	-0.134
-689.368	2.684	0.103	0.075
-688.354	698.234	-0.034	-0.089
-687.339	124.216	-0.111	-0.140
-686.324	25.062	-0.220	0.183
-685.310	-102.298	-0.281	0.068
-684.295	-101.666	-0.133	0.032
-683.281	-31.664	-0.059	-0.033
-682.266	-0.540	-0.084	-0.060
-681.251	49.094	0.066	0.062
-680.237	-121.472	0.094	-0.016
-679.222	166.627	0.071	-0.101
-678.208	800.000	0.070	0.207
-677.193	134.096	-0.184	0.239
-676.178	800.000	-0.038	0.152
-675.164	-171.788	-0.115	-0.004
-674.149	-31.971	0.171	0.096
-673.135	-200.000	-0.028	0.153
-672.120	275.037	0.159	-0.283
-671.105	450.571	0.121	0.268
-670.091	19.532	-0.201	0.162
-669.076	487.921	0.075	-0.171
-668.062	57.458	0.087	-0.085
-667.047	-31.122	-0.311	0.176
-666.032	800.000	-0.017	-0.068
-665.018	108.984	-0.131	-0.157
-664.003	319.369	0.110	0.209
-662.989	80.434	0.096	-0.104
-661.974	-131.423	-0.203	-0.027
-660.959	-200.000	0.008	-0.122
-659.945	-200.000	0.024	-0.243
-658.930	-92.023	0.159	0.045
-657.916	182.660	-0.352	-0.520
-656.901	-1.893	0.044	0.031
-655.886	-190.986	-0.175	0.002
-654.872	-108.411	0.252	-0.054
-653.857	-198.204	-0.323	-0.002
-652.843	159.644	0.063	-0.088
-651.828	-169.409	-0.228	0.008
-650.814	800.000	0.050	0.164
-649.799	-200.000	0.008	0.098
-648.784	334.400	0.114	0.220
-647.770	800.000	0.072	-0.235
-646.755	-83.100	-0.053	-0.017
-645.741	-47.191	-0.031	-0.015
-644.726	21.093	0.237	0.192
-643.711	94.569	-0.219	-0.249
-642.697	712.439	-0.060	-0.158
-641.682	-200.000	-0.004	0.146
-640.668	-102.912	-0.468	-0.111
-639.653	568.310	-0.214	-0.520
-638.638	-50.932	0.157	-0.074
-637.624	-54.851	0.188	0.085
-636.609	-40.635	-0.224	-0.116
-635.595	800.000	0.029	0.088
-634.580	-132.855	-0.257	-0.033
-633.565	-200.000	0.023	-0.260
-632.551	-30.275	-0.271	-0.154
-631.536	-35.989	0.335	-0.181
-630.522	-54.787	0.162	0.073
-629.507	-108.466	-0.167	-0.036
-628.492	-23.582	-0.384	-0.230
-627.478	43.054	0.054	-0.049
-626.463	-200.000	0.008	-0.142
-625.449	370.331	-0.136	0.276
-624.434	535.598	-0.057	0.135
-623.419	-114.050	0.136	0.026
-622.405	125.525	0.094	-0.119
-621.390	52.872	0.162	-0.155
-620.376	-200.000	0.008	0.049
-619.361	800.000	-0.042	0.156
-618.346	58.375	0.130	0.127
-617.332	692.555	-0.059	0.155
-616.317	-37.908	0.293	0.156
-615.303	-200.000	-0.021	0.182
-614.288	-53.974	-0.189	0.086
-613.273	-200.000	0.003	0.362
-612.259	-137.328	-0.331	0.038
-611.244	-191.434	-0.305	-0.003
-610.230	-91.374	0.092	0.026
-609.215	-48.755	-0.143	0.068
-608.201	627.716	0.121	0.306
-607.186	53.534	0.126	0.121
-606.171	-3.877	0.214	0.148
-605.157	-200.000	0.001	0.339
-604.142	116.408	0.135	0.165
-603.128	-11.949	0.201	-0.132
-602.113	-200.000	-0.012	-0.105
-601.098	324.871	-0.078	0.149
-600.084	800.000	0.117	0.428
-599.069	278.417	0.026	0.046
-598.055	-31.717	0.243	0.136
-597.040	187.348	0.159	0.237
-596.025	800.000	0.021	-0.065
-595.011	-19.313	-0.320	-0.198
-593.996	132.776	0.405	0.522
-592.982	-73.605	-0.140	-0.051
-591.967	464.744	-0.180	-0.403
-590.952	-153.381	0.019	-0.001
-589.938	-200.000	0.005	-0.052
-588.923	800.000	0.038	0.164
-587.909	59.580	-0.106	0.104
-586.894	-200.000	0.016	-0.155
-585.879	-36.909	0.284	0.152
-584.865	-9.699	-0.041	0.028
-583.850	82.733	0.119	-0.129
-582.836	-200.000	0.007	-0.144
-581.821	-200.000	-0.051	-0.316
-580.806	-127.906	0.105	0.015
-579.792	398.297	-0.080	-0.166
-578.777	-200.000	-0.012	0.146
-577.763	612.819	0.065	-0.161
-576.748	157.343	-0.169	-0.234
-575.733	83.661	-0.217	-0.236
-574.719	37.600	0.122	-0.108
-573.704	-109.283	0.097	0.021
-572.690	-200.000	0.038	0.174
-571.675	173.314	0.235	-0.338
-570.661	800.000	-0.087	0.264
-569.646	800.000	-0.084	0.326
-568.631	286.178	-0.028	0.051
-567.617	99.863	-0.398	-0.460
-566.602	65.823	0.374	-0.378
-565.588	123.351	0.178	0.222
-564.573	253.381	0.052	0.089
-563.558	42.593	-0.127	0.115
-562.544	-200.000	0.011	-0.069
-561.529	-44.532	0.097	-0.048
-560.515	-131.062	-0.242	-0.032
-559.500	-200.000	0.022	0.132
-558.485	25.286	-0.103	-0.085
-557.471	-1.591	-0.215	-0.151
-556.456	-36.177	-0.017	0.009
-555.442	-9.283	-0.199	0.133
-554.427	-41.130	-0.241	-0.124
-553.412	-200.000	0.026	-0.187
-552.398	-76.888	-0.218	0.076
-551.383	-57.810	0.236	-0.103
-550.369	40.449	0.355	-0.319
-549.354	191.339	-0.223	0.335
-548.339	800.000	-0.072	-0.314
-547.325	-150.625	-0.370	0.028
-546.310	-200.000	-0.016	0.188
-545.296	47.919	-0.125	0.116
-544.281	15.800	-0.373	0.293
-543.266	-41.219	0.192	-0.099
-542.252	-49.244	-0.181	-0.086
-541.237	-63.546	-0.113	-0.046
-540.223	-41.884	0.151	0.077
-539.208	25.780	0.349	-0.290
-538.193	-77.635	0.210	-0.072
-537.179	800.000	0.041	0.178
-536.164	411.316	-0.063	-0.133
-535.150	-200.000	-0.011	0.268
-534.135	-54.984	0.223	-0.100
-533.121	-56.906	0.136	0.060
-532.106	-54.703	-0.206	-0.093
-531.091	-200.000	-0.026	-0.121
-530.077	90.304	-0.162	-0.181
-529.062	-162.771	-0.136	0.007
-528.048	214.639	-0.078	0.123
-527.033	-59.396	0.190	-0.081
-526.018	163.308	-0.120	0.168
-525.004	-200.000	0.010	0.194
-523.989	-170.009	0.118	0.004
-522.975	-152.484	-0.151	0.011
-521.960	425.658	-0.023	0.049
-520.945	800.000	0.100	-0.309
-519.931	-200.000	-0.001	0.302
-518.916	-114.621	0.129	-0.025
-517.902	-161.669	0.090	-0.005
-516.887	56.873	0.025	0.024
-515.872	624.447	0.107	-0.268
-514.858	-200.000	0.027	-0.155
-513.843	-200.000	0.003	0.123
-512.829	-111.850	0.215	-0.043
-511.814	800.000	0.028	-0.109
-510.799	-33.130	0.021	-0.011
-509.785	-96.378	-0.230	0.061
-508.770	-178.776	-0.154	-0.003
-507.756	-44.675	0.150	-0.075
-506.741	94.785	0.140	-0.159
-505.726	-15.495	0.100	0.064
-504.712	-200.000	-0.003	0.205
-503.697	-54.611	-0.055	0.025
-502.683	-38.348	-0.076	-0.040
-501.668	-117.955	-0.326	-0.058
-500.653	-46.638	-0.135	-0.066
-499.639	-200.000	-0.021	-0.396
-498.624	-75.584	0.301	0.107
-497.610	-78.801	0.354	-0.120
-496.595	279.783	-0.121	0.216
-495.581	19.647	-0.181	-0.145
-494.566	-54.380	0.269	-0.121
-493.551	800.000	0.055	-0.223
-492.537	43.918	0.280	0.255
-491.522	-60.781	0.245	-0.103
-490.508	102.371	-0.249	0.290
-489.493	-200.000	0.045	-0.229
-488.478	183.704	0.025	-0.037
-487.464	35.195	-0.071	0.062
-486.449	-93.781	-0.123	-0.034
-485.435	311.562	0.077	-0.144
-484.420	-31.024	0.153	0.086
-483.405	-200.000	-0.014	-0.331
-482.391	178.142	-0.138	-0.201
-481.376	353.314	0.114	0.225
-480.362	58.102	-0.280	0.272
-479.347	98.425	0.046	0.052
-478.332	469.976	-0.042	0.093
-477.318	-78.120	-0.444	0.152
-476.303	800.000	0.121	0.477
-475.289	-200.000	0.029	0.194
-474.274	217.589	0.102	-0.162
-473.259	-145.960	0.200	-0.018
-472.245	-122.837	-0.255	0.041
-471.230	33.968	-0.060	-0.052
-470.216	39.159	0.150	-0.133
-469.201	-146.663	0.088	0.008
-468.186	800.000	0.168	0.539
-467.172	52.924	-0.350	0.333
-466.157	-200.000	-0.004	-0.177
-465.143	50.453	0.175	0.164
-464.128	58.243	0.097	0.095
-463.113	-200.000	-0.020	-0.531
-462.099	23.652	0.082	0.067
-461.084	-116.249	-0.023	0.004
-460.070	6.389	0.129	-0.095
-459.055	401.954	-0.058	0.121
-458.040	-12.176	-0.067	0.043
-457.026	50.100	-0.184	0.173
-456.011	-86.800	-0.125	0.038
-454.997	-200.000	-0.007	0.078
-453.982	-104.309	-0.283	0.065
-452.968	-1.906	0.238	-0.166
-451.953	-200.000	0.030	-0.369
-450.938	-85.258	0.203	0.063
-449.924	-200.000	0.045	-0.245
-448.909	211.258	-0.101	0.158
-447.895	-14.432	-0.076	0.049
-446.880	-96.369	-0.062	-0.016
-445.865	-87.360	-0.133	-0.040
-444.851	-107.295	-0.315	-0.069
-443.836	-124.165	0.012	0.002
-442.822	-200.000	-0.002	0.077
-441.807	34.408	0.203	-0.176
-440.792	240.609	-0.173	0.286
-439.778	41.015	0.410	0.368
-438.763	27.346	0.229	-0.191
-437.749	-125.254	-0.111	-0.017
-436.734	-200.000	0.016	-0.249
-435.719	800.000	-0.066	0.198
-434.705	89.427	0.135	0.149
-433.690	-200.000	-0.008	-0.116
-432.676	333.861	-0.148	0.285
-431.661	800.000	-0.063	-0.262
-430.646	367.561	-0.055	-0.111
-429.632	40.075	-0.453	-0.404
-428.617	-200.000	0.055	-0.349
-427.603	-200.000	0.039	-0.421
-426.588	800.000	0.054	-0.220
-425.573	-64.921	-0.234	0.094
-424.559	-109.772	0.195	0.041
-423.544	190.194	-0.073	0.109
-422.530	-10.065	0.151	-0.099
-421.515	-131.337	0.379	-0.050
-420.500	-24.562	-0.098	0.058
-419.486	-200.000	0.037	-0.258
-418.471	-200.000	0.009	0.207
-417.457	647.077	-0.073	0.185
-416.442	800.000	-0.058	0.175
-415.428	-91.554	0.241	0.068
-414.413	347.180	0.035	-0.068
-413.398	-131.727	-0.294	-0.038
-412.384	467.258	0.087	-0.192
-411.369	-200.000	0.021	-0.295
-410.355	-21.442	0.261	-0.158
-409.340	79.561	-0.037	-0.040
-408.325	114.182	0.286	-0.346
-407.311	-90.526	-0.283	0.081
-406.296	345.357	0.238	-0.463
-405.282	40.871	-0.121	0.108
-404.267	-200.000	0.041	0.215
-403.252	-200.000	0.022	-0.180
-402.238	114.246	0.086	0.104
-401.223	2.388	0.171	0.122
-400.209	800.000	-0.048	-0.146
-399.194	35.762	0.174	-0.152
-398.179	800.000	0.044	-0.154
-397.165	-28.650	0.026	-0.015
-396.150	-9.197	-0.382	0.253
-395.136	-32.841	-0.197	-0.109
-394.121	13.777	-0.131	0.101
-393.106	186.598	-0.192	-0.283
-392.092	-70.650	-0.402	0.151
-391.077	-67.800	0.340	-0.132
-390.063	-101.816	-0.405	0.097
-389.048	-81.826	0.241	0.078
-388.033	-127.631	0.170	0.024
-387.019	-200.000	-0.047	0.211
-386.004	-30.857	-0.365	0.204
-384.990	-10.662	0.289	-0.190
-383.975	-200.000	-0.041	-0.336
-382.960	44.110	0.092	-0.084
-381.946	-128.812	0.283	-0.039
-380.931	627.642	0.051	-0.128
-379.917	124.230	-0.195	-0.243
-378.902	-149.257	0.131	-0.010
-377.888	-5.790	-0.351	0.238
-376.873	-79.231	0.238	-0.080
-375.858	-28.585	-0.194	0.111
-374.844	-145.624	0.237	-0.021
-373.829	-9.804	-0.048	0.032
-372.815	-200.000	0.001	-0.169
-371.800	104.494	-0.160	0.187
-370.785	6.832	-0.166	0.122
-369.771	74.477	-0.218	0.227
-368.756	30.948	0.300	-0.254
-367.742	-200.000	-0.023	-0.281
-366.727	466.942	-0.042	0.093
-365.712	-97.041	0.144	-0.037
-364.698	-120.631	-0.118	-0.020
-363.683	187.250	-0.121	0.179
-362.669	485.518	0.148	-0.334
-361.654	3.843	0.176	0.127
-360.639	-13.275	0.095	0.061
-359.625	72.100	-0.211	0.217
-358.610	-90.329	-0.182	-0.052
-357.596	139.064	0.130	0.169
-356.581	3.397	-0.160	0.115
-355.566	-58.109	0.156	-0.067
-354.552	-112.988	-0.073	0.014
-353.537	800.000	0.057	-0.239
-352.523	226.642	0.156	0.250
-351.508	-59.401	0.153	0.065
-350.493	-73.413	-0.113	-0.041
-349.479	-50.401	0.156	0.073
-348.464	-200.000	-0.004	-0.027
-347.450	-200.000	-0.019	-0.153
-346.435	-115.411	-0.128	-0.024
-345.420	37.095	0.354	0.310
-344.406	-200.000	-0.017	-0.150
-343.391	-62.286	-0.110	0.045
-342.377	-21.862	-0.103	-0.062
-341.362	-98.664	-0.147	0.037
-340.348	248.607	0.197	0.330
-339.333	-101.324	-0.211	0.051
-338.318	9.482	0.126	-0.095
-337.304	800.000	0.021	-0.085
-336.289	-114.596	0.274	-0.052
-335.275	-24.926	0.227	-0.133
-334.260	-136.953	-0.221	-0.025
-333.245	125.712	-0.130	0.163
-332.231	163.161	0.164	-0.227
-331.216	-200.000	0.012	0.119
-330.202	146.142	-0.128	-0.170
-329.187	-118.550	-0.255	0.045
-328.172	-126.436	-0.141	0.021
-327.158	-36.344	0.427	-0.227
-326.143	-27.425	-0.114	0.065
-325.129	177.198	0.043	0.062
-324.114	800.000	0.025	-0.101
-323.099	-168.806	-0.236	0.009
-322.085	-200.000	0.028	0.316
-321.070	800.000	0.105	-0.334
-320.056	618.691	-0.157	-0.389
-319.041	296.622	0.152	-0.275
-318.026	12.238	0.105	0.080
-317.012	-86.912	0.182	-0.055
-315.997	-163.637	-0.317	0.015
-314.983	-54.878	-0.123	-0.055
-313.968	585.499	0.224	0.544
-312.953	800.000	0.069	0.251
-311.939	86.048	0.216	0.235
-310.924	-110.322	0.119	0.025
-309.910	-54.350	0.224	0.100
-308.895	345.746	0.144	-0.279
-307.880	-33.963	0.158	0.086
-306.866	-200.000	0.008	0.113
-305.851	-70.978	-0.356	-0.132
-304.837	-120.466	0.131	-0.022
-303.822	-124.133	-0.136	-0.021
-302.807	-98.929	0.196	0.049
-301.793	-200.000	0.023	0.130
-300.778	800.000	0.151	0.423
-299.764	800.000	0.042	-0.155
-298.749	348.384	-0.051	-0.100
-297.735	-102.437	0.076	-0.018
-296.720	137.721	0.049	0.063
-295.705	385.138	-0.053	-0.108
-294.691	-172.469	-0.262	0.008
-293.676	39.522	-0.156	0.138
-292.662	-88.639	0.148	0.044
-291.647	-154.439	-0.203	-0.013
-290.632	528.945	-0.136	-0.318
-289.618	-76.952	-0.231	0.080
-288.603	515.507	0.056	0.129
-287.589	-200.000	0.035	0.322
-286.574	-113.177	0.047	-0.009
-285.559	224.446	-0.089	-0.142
-284.545	0.194	-0.135	0.095
-283.530	-200.000	0.009	0.219
-282.516	81.083	-0.031	0.033
-281.501	141.295	-0.070	-0.091
-280.486	8.094	0.199	0.147
-279.472	-200.000	-0.079	-0.437
-278.457	-82.075	-0.212	-0.068
-277.443	202.270	0.085	-0.130
-276.428	800.000	-0.080	0.226
-275.413	-79.652	-0.056	0.019
-274.399	-129.002	0.218	-0.030
-273.384	-157.456	-0.472	0.028
-272.370	-76.165	-0.109	0.038
-271.355	200.295	-0.138	0.208
-270.340	-35.383	0.120	0.064
-269.326	-88.451	0.068	0.020
-268.311	800.000	-0.040	-0.169
-267.297	800.000	-0.076	-0.300
-266.282	-65.589	0.137	0.054
-265.267	75.649	-0.111	-0.116
-264.253	58.298	0.112	0.108
-263.238	22.068	-0.220	-0.177
-262.224	372.348	0.109	-0.217
-261.209	-77.141	0.296	-0.102
-260.195	-93.701	-0.284	0.077
-259.180	-200.000	-0.003	-0.027
-258.165	320.711	0.172	-0.322
-257.151	148.127	0.023	0.031
-256.136	-200.000	-0.037	-0.168
-255.122	15.474	0.209	-0.162
-254.107	-188.154	-0.121	0.002
-253.092	-200.000	0.035	-0.181
-252.078	50.090	-0.190	0.177
-251.063	543.698	-0.028	0.066
-250.049	307.766	0.087	0.159
-249.034	800.000	-0.013	0.036
-248.019	573.085	-0.112	-0.270
-247.005	320.075	0.130	0.243
-245.990	263.598	0.218	0.374
-244.976	194.983	-0.170	0.254
-243.961	180.547	-0.035	-0.050
-242.946	-200.000	-0.024	0.211
-241.932	450.360	0.160	-0.349
-240.917	104.430	0.098	0.113
-239.903	147.658	-0.235	-0.312
-238.888	766.282	0.096	-0.258
-237.873	-200.000	-0.014	0.088
-236.859	800.000	-0.108	-0.356
-235.844	32.126	-0.025	-0.022
-234.830	-200.000	0.032	-0.304
-233.815	6.833	0.370	0.272
-232.800	167.999	0.236	0.331
-231.786	-103.140	-0.243	0.057
-230.771	-116.884	0.322	-0.058
-229.757	32.089	0.254	-0.216
-228.742	-105.412	0.026	0.006
-227.727	347.325	0.081	0.158
-226.713	287.929	0.154	-0.274
-225.698	400.854	0.152	0.315
-224.684	-200.000	-0.016	0.240
-223.669	392.199	0.060	0.122
-222.655	-113.441	-0.117	0.023
-221.640	-200.000	0.003	-0.110
-220.625	-87.055	-0.234	-0.070
-219.611	24.239	-0.171	-0.139
-218.596	-113.381	0.133	0.026
-217.582	121.632	-0.033	0.041
-216.567	110.020	0.196	0.232
-215.552	-200.000	-0.080	-0.446
-214.538	-36.989	0.194	0.102
-213.523	-138.474	-0.168	-0.018
-212.509	-40.777	-0.301	0.153
-211.494	221.045	0.152	0.240
-210.479	-129.261	-0.196	0.027
-209.465	-200.000	-0.065	0.379
-208.450	-140.643	-0.197	-0.020
-207.436	149.541	-0.143	0.190
-206.421	-200.000	0.032	0.184
-205.406	-104.655	0.238	0.054
-204.392	-140.011	-0.221	-0.023
-203.377	-51.484	-0.290	-0.133
-202.363	15.435	-0.043	-0.033
-201.348	-32.574	-0.158	-0.087
-200.333	-133.802	-0.275	0.034
-199.319	-136.269	0.245	-0.028
-198.304	441.115	0.174	-0.375
-197.290	-125.323	0.176	0.026
-196.275	-91.749	0.234	-0.065
-195.260	119.919	0.249	0.303
-194.246	-200.000	0.026	0.256
-193.231	-97.248	-0.343	-0.088
-192.217	392.014	0.116	0.236
-191.202	-4.911	-0.087	0.059
-190.187	-108.864	0.524	0.110
-189.173	341.891	-0.135	-0.259
-188.158	-127.756	-0.137	-0.019
-187.144	110.585	0.218	0.258
-186.129	-200.000	-0.048	0.421
-185.114	-97.033	-0.184	-0.047
-184.100	-92.265	-0.143	-0.040
-183.085	222.588	0.169	0.268
-182.071	-200.000	0.001	-0.187
-181.056	-61.241	0.166	-0.069
-180.042	-200.000	-0.046	0.490
-179.027	-144.733	-0.410	0.037
-178.012	-33.252	0.115	0.063
-176.998	-126.548	-0.277	0.040
-175.983	1.030	0.132	0.093
-174.969	39.157	0.153	-0.134
-173.954	-172.628	-0.248	0.008
-172.939	-65.630	0.326	0.129
-171.925	84.956	0.122	0.131
-170.910	131.935	-0.243	0.307
-169.896	-50.228	0.218	-0.101
-168.881	800.000	0.145	-0.422
-167.866	-136.410	-0.440	0.050
-166.852	-141.986	-0.281	0.028
-165.837	-53.478	0.158	-0.071
-164.823	-96.024	0.564	-0.147
-163.808	-95.274	-0.081	-0.021
-162.793	-95.533	-0.155	0.041
-161.779	289.255	-0.031	-0.056
-160.764	67.489	0.294	0.295
-159.750	-73.494	0.172	-0.062
-158.735	372.250	-0.022	0.043
-157.720	409.175	0.040	-0.084
-156.706	-109.990	0.049	0.010
-155.691	-162.611	-0.315	0.015
-154.677	-149.581	0.096	0.007
-153.662	119.006	-0.070	-0.084
-152.647	-167.976	0.126	-0.005
-151.633	132.862	-0.055	0.069
-150.618	297.025	-0.057	-0.103
-149.604	800.000	-0.017	0.046
-148.589	279.689	0.129	0.226
-147.574	380.045	0.068	-0.136
-146.560	-178.817	0.195	0.004
-145.545	420.301	-0.127	0.268
-144.531	-200.000	-0.014	-0.265
-143.516	-200.000	0.044	-0.279
-142.502	-112.879	0.278	0.054
-141.487	438.898	0.044	0.095
-140.472	-62.201	-0.109	0.045
-139.458	800.000	-0.056	-0.207
-138.443	236.203	0.080	-0.130
-137.429	340.959	0.102	0.195
-136.414	670.267	0.026	-0.067
-135.399	-24.361	-0.308	0.180
-134.385	800.000	0.080	0.285
-133.370	306.051	0.178	-0.324
-132.356	8.175	-0.088	-0.065
-131.341	13.462	0.046	0.035
-130.326	1.034	0.301	-0.212
-129.312	-64.739	-0.224	0.089
-128.297	46.467	-0.186	0.170
-127.283	-54.113	0.199	-0.089
-126.268	-113.582	0.332	0.064
-125.253	-161.972	0.059	0.003
-124.239	161.358	-0.173	0.237
-123.224	-70.069	-0.178	-0.066
-122.210	64.514	-0.129	0.128
-121.195	-200.000	0.021	-0.223
