DTS Sentinel unit serial number:	SN413079Multiplexer serial number:	ORYXHardware model number:	OX4-SRSoftware version number:	ORYX F/W v4.00 Oryx Data Collector v3.7.2.0data status	okinstallation	princeton_trtdifferential loss correction	single-endedforward channel	channel 1reverse channel	N/Adate	2019/09/15time	07:18:35forward acquisition time	60.00reverse acquisition time	0.00gamma	496.2192k internal	0.2324k external	0.2324temperature offset calibration	0.9992default loss term (dB/km)	0.3790temperature slope calibration	1.0000multiplexer offset coefficient	1.0000multiplexer slope coefficient	1.0000fibre end	0.00T internal ref (°C)	30.56T ext. ref 1 (°C)	4.86T ext. ref 2 (°C)	25.81length (m)	temperature (°C)	Stokes	anti-Stokes-747.200	-200.000	0.009	-0.176
-746.185	-200.000	-0.002	0.421
-745.171	-101.456	0.381	0.094
-744.156	800.000	0.029	-0.117
-743.142	-88.262	-0.279	0.084
-742.127	-121.904	-0.154	-0.026
-741.112	-90.468	-0.247	-0.072
-740.098	558.461	-0.110	0.269
-739.083	-22.851	-0.045	0.028
-738.069	-170.098	-0.120	-0.004
-737.054	-86.776	-0.189	-0.058
-736.039	800.000	-0.131	-0.447
-735.025	21.170	0.256	0.209
-734.010	-200.000	0.002	-0.085
-732.996	-50.117	-0.361	-0.172
-731.981	116.824	0.118	0.146
-730.966	20.733	0.220	-0.179
-729.952	-200.000	-0.008	-0.201
-728.937	-126.655	-0.154	0.023
-727.923	-88.102	-0.238	0.072
-726.908	-30.555	0.077	-0.044
-725.894	347.491	-0.043	-0.085
-724.879	-129.155	0.078	0.011
-723.864	29.133	0.174	0.149
-722.850	760.260	-0.008	-0.022
-721.835	-200.000	0.014	-0.308
-720.821	-140.343	0.288	0.030
-719.806	146.141	0.188	-0.254
-718.791	224.219	-0.087	-0.142
-717.777	-86.551	-0.196	0.061
-716.762	133.224	0.171	0.223
-715.748	-200.000	0.027	0.441
-714.733	-200.000	0.040	0.336
-713.718	145.137	-0.244	-0.329
-712.704	-87.046	0.302	-0.093
-711.689	-200.000	-0.072	0.332
-710.675	800.000	0.035	0.139
-709.660	-200.000	0.011	0.281
-708.645	-55.480	-0.031	0.014
-707.631	204.811	-0.056	0.087
-706.616	41.685	-0.186	0.170
-705.602	-8.489	-0.183	-0.124
-704.587	697.694	-0.041	-0.109
-703.572	800.000	0.074	0.250
-702.558	-200.000	-0.009	0.068
-701.543	37.682	-0.264	-0.236
-700.529	44.943	0.189	-0.176
-699.514	295.789	-0.197	-0.363
-698.499	800.000	-0.080	0.266
-697.485	25.224	0.180	0.150
-696.470	259.967	0.069	0.119
-695.456	-135.977	0.222	0.026
-694.441	800.000	-0.031	-0.102
-693.426	331.343	0.044	-0.086
-692.412	-138.511	0.408	0.045
-691.397	-97.682	0.339	-0.088
-690.383	800.000	-0.063	-0.212
-689.368	-77.477	0.118	0.041
-688.354	241.560	0.028	0.047
-687.339	-62.082	-0.183	-0.077
-686.324	-200.000	-0.012	-0.103
-685.310	800.000	-0.116	-0.354
-684.295	107.179	-0.095	-0.114
-683.281	-200.000	-0.003	-0.033
-682.266	440.544	-0.042	-0.093
-681.251	-200.000	0.028	-0.308
-680.237	120.119	-0.092	0.115
-679.222	800.000	-0.053	-0.231
-678.208	-20.095	0.170	-0.106
-677.193	-193.306	-0.186	0.002
-676.178	223.374	0.081	-0.131
-675.164	800.000	0.029	0.108
-674.149	21.222	-0.005	-0.004
-673.135	-200.000	0.021	-0.201
-672.120	185.666	-0.261	-0.391
-671.105	-200.000	-0.001	0.355
-670.091	291.679	-0.054	0.099
-669.076	800.000	0.053	0.148
-668.062	331.526	-0.078	-0.150
-667.047	138.646	0.048	-0.063
-666.032	-102.606	0.230	-0.055
-665.018	-7.655	0.376	-0.256
-664.003	800.000	-0.053	0.169
-662.989	-200.000	0.005	-0.212
-661.974	-200.000	0.010	0.371
-660.959	-200.000	0.024	-0.439
-659.945	-189.888	0.095	-0.001
-658.930	-24.000	-0.263	-0.158
-657.916	-80.811	0.200	0.067
-656.901	-49.373	-0.197	0.095
-655.886	-200.000	-0.034	0.416
-654.872	106.434	-0.102	0.122
-653.857	-200.000	0.056	0.272
-652.843	-200.000	-0.067	-0.415
-651.828	38.070	-0.253	0.227
-650.814	800.000	-0.023	0.081
-649.799	800.000	0.052	0.149
-648.784	-1.975	0.230	-0.162
-647.770	258.617	-0.070	0.122
-646.755	-79.714	-0.133	0.045
-645.741	76.670	-0.112	0.119
-644.726	-89.539	-0.150	-0.044
-643.711	-200.000	0.003	-0.068
-642.697	-32.390	0.061	-0.034
-641.682	-80.795	-0.233	0.078
-640.668	800.000	-0.127	0.387
-639.653	-170.513	-0.238	-0.008
-638.638	22.735	0.332	-0.273
-637.624	-40.248	-0.035	0.018
-636.609	800.000	0.059	0.255
-635.595	195.019	0.101	0.154
-634.580	-117.139	-0.142	0.026
-633.565	-200.000	-0.030	0.190
-632.551	23.329	0.155	0.128
-631.536	302.552	0.118	-0.219
-630.522	378.841	-0.073	-0.151
-629.507	-200.000	-0.013	0.093
-628.492	-87.198	0.296	0.090
-627.478	-121.805	0.145	-0.024
-626.463	-102.374	-0.245	0.059
-625.449	-59.424	-0.208	0.090
-624.434	800.000	-0.065	-0.224
-623.419	-149.435	-0.321	-0.026
-622.405	463.829	-0.070	-0.157
-621.390	-116.217	0.176	-0.033
-620.376	-7.163	-0.260	-0.177
-619.361	183.685	-0.092	-0.137
-618.346	-43.057	0.235	-0.120
-617.332	-59.418	0.086	-0.037
-616.317	88.146	0.194	0.216
-615.303	-21.285	-0.069	-0.042
-614.288	-200.000	0.006	-0.265
-613.273	800.000	0.085	0.277
-612.259	24.167	-0.086	0.072
-611.244	-10.544	0.226	-0.150
-610.230	120.599	-0.091	0.114
-609.215	800.000	-0.081	0.321
-608.201	91.792	0.065	-0.073
-607.186	-130.003	0.129	-0.018
-606.171	-76.335	-0.358	0.126
-605.157	-125.858	-0.122	0.019
-604.142	-106.706	-0.119	0.027
-603.128	124.356	0.101	-0.127
-602.113	760.979	-0.044	0.119
-601.098	138.315	0.123	0.162
-600.084	27.420	-0.130	-0.109
-599.069	-45.791	0.392	0.195
-598.055	79.476	0.198	-0.213
-597.040	-172.409	-0.450	0.014
-596.025	81.430	-0.137	0.149
-595.011	26.878	0.031	-0.026
-593.996	-172.788	0.227	-0.007
-592.982	100.341	-0.028	-0.032
-591.967	-38.412	0.087	0.046
-590.952	158.503	0.025	0.034
-589.938	36.215	-0.136	-0.120
-588.923	-121.754	0.259	0.043
-587.909	91.317	0.084	0.094
-586.894	-70.010	-0.198	-0.076
-585.879	671.983	0.029	-0.075
-584.865	-3.891	0.269	0.187
-583.850	-41.823	-0.393	-0.202
-582.836	800.000	0.082	0.277
-581.821	800.000	0.095	0.342
-580.806	-126.053	0.294	0.044
-579.792	354.523	0.069	0.138
-578.777	749.713	-0.029	0.078
-577.763	-8.459	-0.135	-0.091
-576.748	-200.000	0.034	0.219
-575.733	-134.483	-0.160	0.020
-574.719	-150.994	-0.226	-0.017
-573.704	759.206	-0.079	0.215
-572.690	31.556	0.182	-0.157
-571.675	800.000	0.071	-0.257
-570.661	800.000	0.080	-0.301
-569.646	688.785	0.088	-0.231
-568.631	-200.000	0.013	0.110
-567.617	-76.557	0.116	0.041
-566.602	-135.353	0.299	0.036
-565.588	13.507	-0.102	-0.080
-564.573	269.753	0.043	-0.076
-563.558	108.910	0.076	0.091
-562.544	-4.084	-0.126	0.088
-561.529	-24.220	-0.215	0.129
-560.515	-200.000	0.004	-0.203
-559.500	800.000	-0.113	-0.325
-558.485	526.958	-0.042	0.099
-557.471	41.410	-0.082	-0.074
-556.456	-200.000	-0.007	-0.141
-555.442	-70.039	-0.059	-0.023
-554.427	15.817	-0.184	0.145
-553.412	-95.642	-0.240	-0.064
-552.398	-200.000	0.028	0.335
-551.383	-30.670	0.213	-0.121
-550.369	-45.033	-0.207	0.103
-549.354	100.478	0.088	0.102
-548.339	-124.856	-0.223	0.035
-547.325	34.960	0.068	-0.060
-546.310	47.998	0.033	-0.031
-545.296	-200.000	-0.045	-0.281
-544.281	-200.000	-0.061	-0.380
-543.266	-156.751	0.310	0.019
-542.252	-200.000	-0.003	-0.049
-541.237	-18.297	-0.404	0.253
-540.223	-121.635	0.153	-0.025
-539.208	222.765	0.140	0.226
-538.193	800.000	-0.027	0.096
-537.179	800.000	0.090	0.320
-536.164	100.586	-0.219	0.254
-535.150	-28.896	-0.298	-0.172
-534.135	341.528	-0.078	-0.153
-533.121	-8.235	0.395	0.266
-532.106	800.000	-0.053	0.195
-531.091	410.548	-0.178	-0.378
-530.077	2.518	0.110	0.080
-529.062	250.651	0.104	0.176
-528.048	-200.000	0.067	-0.393
-527.033	-92.598	-0.171	0.048
-526.018	365.503	-0.193	-0.389
-525.004	16.611	-0.086	-0.068
-523.989	431.294	0.162	0.351
-522.975	-73.496	0.207	0.076
-521.960	783.315	0.166	-0.455
-520.945	-25.990	0.118	0.070
-519.931	800.000	0.109	0.338
-518.916	-30.133	0.163	0.093
-517.902	88.699	0.262	-0.292
-516.887	100.505	0.164	-0.190
-515.872	-93.318	-0.340	0.094
-514.858	-12.740	0.139	-0.090
-513.843	-200.000	-0.005	-0.124
-512.829	164.452	-0.138	0.195
-511.814	-114.846	-0.045	-0.009
-510.799	24.987	-0.080	-0.067
-509.785	350.525	-0.059	-0.117
-508.770	373.537	0.042	0.086
-507.756	-200.000	0.095	0.488
-506.741	154.011	-0.033	-0.045
-505.726	-200.000	0.017	-0.207
-504.712	270.829	0.103	0.181
-503.697	550.123	-0.134	0.321
-502.683	-200.000	0.013	-0.115
-501.668	370.770	0.140	-0.283
-500.653	54.221	0.143	0.138
-499.639	-108.799	0.454	-0.097
-498.624	800.000	0.110	-0.453
-497.610	654.068	-0.042	0.107
-496.595	-56.343	-0.086	-0.038
-495.581	-8.347	0.251	-0.169
-494.566	-149.008	-0.114	-0.009
-493.551	-154.226	0.141	-0.010
-492.537	169.544	0.110	-0.158
-491.522	73.185	-0.094	-0.099
-490.508	-137.396	-0.065	-0.007
-489.493	-93.795	0.119	0.033
-488.478	98.072	-0.228	-0.262
-487.464	-22.929	0.061	0.037
-486.449	-8.681	0.288	-0.193
-485.435	-25.574	-0.234	0.138
-484.420	-93.458	0.279	0.077
-483.405	-52.445	0.376	0.174
-482.391	-81.985	-0.294	-0.096
-481.376	15.207	0.155	-0.122
-480.362	77.015	-0.021	-0.022
-479.347	-57.317	-0.322	0.142
-478.332	-200.000	-0.046	-0.333
-477.318	5.315	-0.171	-0.126
-476.303	234.929	0.157	-0.259
-475.289	-82.052	-0.408	0.133
-474.274	586.584	0.128	-0.315
-473.259	800.000	0.051	-0.195
-472.245	800.000	0.022	-0.082
-471.230	-132.571	-0.423	0.054
-470.216	-140.441	0.445	0.046
-469.201	-67.476	-0.157	-0.062
-468.186	800.000	-0.021	0.080
-467.172	-182.690	-0.321	-0.006
-466.157	-13.072	-0.270	0.175
-465.143	18.316	0.084	0.067
-464.128	-145.154	-0.360	-0.033
-463.113	-153.351	0.360	0.025
-462.099	800.000	-0.114	0.321
-461.084	96.309	-0.035	0.040
-460.070	261.739	-0.258	0.446
-459.055	-53.760	-0.189	-0.086
-458.040	97.220	-0.190	-0.218
-457.026	32.052	0.129	-0.111
-456.011	800.000	-0.061	-0.185
-454.997	356.904	-0.097	-0.193
-453.982	128.728	0.074	-0.094
-452.968	-136.655	-0.274	-0.032
-451.953	43.686	-0.160	-0.146
-450.938	-130.738	-0.309	-0.041
-449.924	280.737	-0.099	-0.177
-448.909	199.906	0.090	0.138
-447.895	-64.006	0.257	-0.105
-446.880	800.000	0.114	0.345
-445.865	-200.000	-0.051	0.357
-444.851	-133.893	0.439	-0.054
-443.836	12.375	-0.185	-0.142
-442.822	-8.872	0.171	0.114
-441.807	-37.761	-0.141	0.075
-440.792	27.298	0.343	-0.288
-439.778	-182.738	0.123	-0.002
-438.763	800.000	0.071	-0.236
-437.749	45.730	-0.348	-0.321
-436.734	-200.000	-0.008	-0.150
-435.719	-200.000	0.003	-0.032
-434.705	580.418	-0.083	-0.202
-433.690	-62.350	0.511	0.212
-432.676	320.019	0.200	0.379
-431.661	67.274	0.161	0.164
-430.646	-67.845	-0.062	0.024
-429.632	-137.877	0.138	-0.015
-428.617	-89.756	0.141	-0.041
-427.603	-136.122	-0.338	-0.039
-426.588	-200.000	0.027	-0.297
-425.573	-110.536	-0.261	-0.054
-424.559	-102.628	0.084	-0.020
-423.544	-200.000	-0.005	0.147
-422.530	0.056	-0.058	0.041
-421.515	-200.000	-0.002	0.206
-420.500	249.321	0.103	0.174
-419.486	-125.814	0.213	0.032
-418.471	180.689	-0.121	-0.177
-417.457	-200.000	-0.011	0.099
-416.442	-145.359	-0.298	-0.027
-415.428	-147.578	-0.207	0.017
-414.413	213.367	0.140	-0.220
-413.398	-40.839	-0.234	-0.121
-412.384	-31.296	0.164	0.092
-411.369	57.613	0.128	-0.125
-410.355	101.155	-0.180	-0.209
-409.340	-83.329	-0.323	-0.103
-408.325	42.720	0.278	-0.253
-407.311	30.278	-0.126	0.108
-406.296	-200.000	-0.014	0.280
-405.282	75.189	-0.206	-0.216
-404.267	405.921	0.168	0.353
-403.252	43.064	-0.150	0.136
-402.238	107.176	-0.073	0.086
-401.223	71.176	0.183	-0.189
-400.209	97.576	-0.018	0.020
-399.194	-47.654	0.170	0.082
-398.179	-148.832	0.194	-0.016
-397.165	-116.572	0.359	-0.066
-396.150	-95.486	-0.148	0.039
-395.136	-115.765	0.139	0.026
-394.121	-200.000	-0.025	0.185
-393.106	800.000	0.069	0.218
-392.092	800.000	-0.013	-0.058
-391.077	-200.000	0.076	0.601
-390.063	-42.376	-0.084	-0.042
-389.048	508.170	-0.066	-0.153
-388.033	-186.037	0.337	-0.005
-387.019	800.000	-0.027	0.110
-386.004	-106.808	-0.338	0.075
-384.990	-7.422	0.074	-0.050
-383.975	-134.711	0.311	0.038
-382.960	-200.000	0.009	0.481
-381.946	-177.062	-0.213	0.005
-380.931	362.037	-0.113	-0.225
-379.917	-200.000	-0.031	-0.311
-378.902	126.854	-0.068	0.086
-377.888	-200.000	0.042	0.380
-376.873	194.391	0.330	-0.498
-375.858	89.319	0.018	0.020
-374.844	6.017	0.144	0.106
-373.829	-70.401	-0.347	-0.131
-372.815	-142.288	-0.084	-0.008
-371.800	203.063	-0.178	-0.273
-370.785	507.779	0.081	0.186
-369.771	581.916	0.095	-0.231
-368.756	-157.201	-0.258	-0.016
-367.742	-123.964	0.265	0.041
-366.727	11.380	0.189	-0.144
-365.712	-128.811	0.070	-0.010
-364.698	-82.748	-0.196	0.063
-363.683	226.069	-0.063	0.102
-362.669	471.947	-0.031	-0.070
-361.654	-34.621	0.205	-0.112
-360.639	-117.710	0.206	0.037
-359.625	-200.000	-0.015	0.256
-358.610	-47.373	-0.079	0.038
-357.596	-40.900	0.182	0.094
-356.581	-40.511	0.325	0.167
-355.566	-64.492	-0.117	0.047
-354.552	146.213	-0.235	-0.314
-353.537	-172.907	-0.157	0.005
-352.523	-200.000	0.030	0.185
-351.508	294.233	0.099	0.179
-350.493	435.670	0.187	0.404
-349.479	-200.000	0.002	0.310
-348.464	-153.528	-0.235	0.016
-347.450	-140.115	-0.196	-0.021
-346.435	-71.024	0.132	-0.049
-345.420	-200.000	-0.033	0.333
-344.406	61.381	-0.199	0.197
-343.391	297.377	-0.019	-0.035
-342.377	495.910	0.091	-0.208
-341.362	-150.881	0.091	-0.007
-340.348	-0.526	-0.042	-0.030
-339.333	-116.108	-0.458	0.085
-338.318	132.122	0.255	0.326
-337.304	196.886	0.038	-0.057
-336.289	640.968	-0.076	-0.192
-335.275	800.000	0.070	-0.215
-334.260	309.938	0.127	-0.236
-333.245	-130.666	0.152	0.020
-332.231	800.000	0.113	0.345
-331.216	800.000	-0.070	-0.300
-330.202	-191.430	0.236	-0.002
-329.187	800.000	-0.050	-0.153
-328.172	-22.199	-0.264	0.159
-327.158	508.197	0.136	0.314
-326.143	-200.000	0.018	0.140
-325.129	14.772	-0.067	-0.052
-324.114	-71.895	0.301	0.111
-323.099	407.955	-0.025	-0.053
-322.085	606.749	0.092	-0.229
-321.070	-200.000	-0.012	-0.306
-320.056	-99.440	-0.246	0.062
-319.041	-148.471	0.355	-0.029
-318.026	-9.271	-0.073	-0.048
-317.012	-137.289	-0.177	0.020
-315.997	171.818	-0.045	0.064
-314.983	-200.000	-0.010	-0.085
-313.968	167.170	0.075	0.105
-312.953	-65.974	-0.205	-0.081
-311.939	-91.064	0.085	0.024
-310.924	7.814	-0.143	0.106
-309.910	-113.360	-0.215	-0.042
-308.895	87.795	0.050	-0.056
-307.880	74.557	0.186	0.194
-306.866	187.683	0.361	0.535
-305.851	-200.000	0.005	0.150
-304.837	-200.000	0.013	0.142
-303.822	-200.000	0.008	0.041
-302.807	-200.000	0.022	-0.316
-301.793	-152.653	-0.136	-0.010
-300.778	149.999	0.039	0.053
-299.764	-200.000	0.023	-0.138
-298.749	421.186	0.051	0.109
-297.735	-11.493	-0.030	0.020
-296.720	-69.277	-0.291	-0.111
-295.705	800.000	-0.081	0.332
-294.691	-40.874	-0.130	-0.067
-293.676	341.938	0.059	-0.115
-292.662	-73.195	-0.391	0.142
-291.647	800.000	0.047	-0.129
-290.632	131.350	0.083	0.106
-289.618	-61.249	0.253	-0.106
-288.603	243.845	-0.156	-0.260
-287.589	-200.000	-0.029	-0.250
-286.574	-200.000	0.018	-0.109
-285.559	636.196	-0.069	-0.175
-284.545	88.997	-0.169	-0.186
-283.530	800.000	0.063	0.265
-282.516	-17.594	-0.114	-0.071
-281.501	-170.385	-0.192	0.007
-280.486	-13.589	0.080	-0.051
-279.472	-118.985	0.173	0.030
-278.457	-200.000	0.004	0.042
-277.443	-42.164	0.335	-0.170
-276.428	37.218	0.105	-0.092
-275.413	-43.433	0.154	0.077
-274.399	-63.765	0.349	0.141
-273.384	-147.029	0.267	-0.023
-272.370	9.743	-0.195	-0.147
-271.355	553.222	0.153	0.364
-270.340	-200.000	0.006	-0.570
-269.326	104.005	-0.045	0.052
-268.311	13.441	-0.095	-0.073
-267.297	77.270	-0.102	-0.107
-266.282	604.252	0.083	-0.205
-265.267	-62.153	0.159	-0.066
-264.253	-87.383	-0.209	-0.063
-263.238	-5.601	-0.288	0.196
-262.224	128.365	0.080	0.101
-261.209	-81.660	-0.291	0.095
-260.195	-4.756	-0.024	0.016
-259.180	-200.000	-0.023	-0.300
-258.165	-171.528	0.349	-0.011
-257.151	800.000	-0.177	-0.535
-256.136	-5.571	-0.089	-0.061
-255.122	-22.071	0.145	-0.087
-254.107	-52.150	-0.083	0.038
-253.092	-78.764	-0.193	-0.065
-252.078	-200.000	0.057	0.280
-251.063	-78.948	-0.037	0.012
-250.049	-11.302	-0.312	-0.203
-249.034	-57.394	-0.102	-0.044
-248.019	-115.245	0.184	-0.034
-247.005	800.000	-0.086	0.266
-245.990	114.692	0.163	0.197
-244.976	-104.615	-0.018	0.004
-243.961	-18.191	0.274	-0.169
-242.946	-125.505	0.248	0.037
-241.932	-120.097	-0.406	-0.069
-240.917	-42.114	-0.413	0.209
-239.903	-134.065	0.050	-0.006
-238.888	-71.240	-0.254	-0.094
-237.873	188.901	-0.264	0.391
-236.859	-58.048	-0.278	0.120
-235.844	197.846	-0.035	0.054
-234.830	-89.107	0.182	0.053
-233.815	-200.000	-0.004	-0.122
-232.800	-33.025	0.236	0.129
-231.786	-200.000	-0.005	0.097
-230.771	-200.000	0.048	-0.275
-229.757	-14.481	-0.086	-0.055
-228.742	135.557	-0.172	0.221
-227.727	642.861	-0.092	-0.233
-226.713	800.000	0.013	0.036
-225.698	433.125	-0.028	-0.061
-224.684	484.942	0.177	0.399
-223.669	-78.053	0.201	-0.068
-222.655	-200.000	0.013	-0.285
-221.640	62.333	-0.190	-0.187
-220.625	35.491	-0.213	-0.185
-219.611	-92.797	-0.294	-0.081
-218.596	-136.915	-0.195	0.022
-217.582	-7.029	0.100	0.067
-216.567	-65.352	0.190	-0.076
-215.552	800.000	0.041	0.130
-214.538	52.061	0.117	-0.110
-213.523	-40.565	-0.176	0.090
-212.509	-155.582	0.114	0.007
-211.494	188.823	-0.089	0.131
-210.479	800.000	0.123	0.464
-209.465	-73.748	0.451	0.162
-208.450	178.709	0.173	-0.250
-207.436	-200.000	0.084	0.486
-206.421	-200.000	-0.040	0.203
-205.406	-85.175	-0.140	0.043
-204.392	-144.727	-0.237	-0.022
-203.377	-10.459	0.107	0.070
-202.363	-200.000	-0.019	0.541
-201.348	-108.290	0.212	-0.045
-200.333	13.741	-0.150	0.115
-199.319	70.443	-0.236	0.241
-198.304	59.204	0.128	-0.125
-197.290	-47.676	0.336	-0.161
-196.275	112.612	-0.251	0.300
-195.260	800.000	0.087	-0.355
-194.246	800.000	0.120	-0.483
-193.231	-63.308	-0.208	-0.084
-192.217	-53.377	0.183	-0.083
-191.202	-200.000	-0.016	-0.238
-190.187	-144.262	-0.102	0.009
-189.173	-54.399	0.265	-0.119
-188.158	421.874	0.087	-0.184
-187.144	472.418	-0.134	-0.297
-186.129	-152.803	-0.379	-0.027
-185.114	491.014	-0.128	0.289
-184.100	-66.301	-0.116	0.046
-183.085	87.975	0.153	-0.168
-182.071	-80.495	-0.088	0.029
-181.056	-10.581	0.129	-0.084
-180.042	-66.032	-0.209	0.082
-179.027	-200.000	-0.010	0.085
-178.012	435.274	-0.045	-0.096
-176.998	672.233	-0.012	0.030
-175.983	-200.000	-0.013	0.166
-174.969	140.572	-0.072	-0.094
-173.954	-191.929	-0.077	-0.001
-172.939	-196.822	-0.235	-0.002
-171.925	-104.001	0.359	0.082
-170.910	77.528	-0.144	0.152
-169.896	736.061	0.099	-0.262
-168.881	-37.578	0.290	-0.153
-167.866	800.000	0.052	-0.198
-166.852	-200.000	0.034	0.379
-165.837	-183.675	0.149	-0.003
-164.823	-103.696	0.182	-0.042
-163.808	-200.000	0.033	-0.145
-162.793	144.834	-0.129	-0.170
-161.779	-116.959	0.058	-0.011
-160.764	362.599	-0.049	0.098
-159.750	-59.281	0.335	-0.142
-158.735	-11.871	-0.177	-0.115
-157.720	-82.791	0.142	0.045
-156.706	-59.389	0.265	0.112
-155.691	-78.399	-0.098	-0.033
-154.677	-200.000	-0.023	0.302
-153.662	-149.832	0.159	-0.012
-152.647	-200.000	-0.046	-0.223
-151.633	-21.612	0.071	0.043
-150.618	-52.697	-0.117	-0.053
-149.604	-20.745	-0.154	0.093
-148.589	-200.000	-0.043	-0.289
-147.574	800.000	0.050	-0.172
-146.560	-200.000	0.072	0.313
-145.545	800.000	0.004	-0.014
-144.531	320.757	0.110	-0.205
-143.516	29.469	0.221	0.185
-142.502	-66.572	0.203	-0.080
-141.487	434.323	-0.102	-0.217
-140.472	155.380	0.081	-0.109
-139.458	328.820	0.122	-0.231
-138.443	-91.609	0.084	-0.024
-137.429	800.000	0.102	-0.331
-136.414	85.206	-0.115	0.124
-135.399	-54.544	0.321	0.143
-134.385	197.751	0.071	0.108
-133.370	-50.927	-0.295	-0.137
-132.356	-197.927	0.309	-0.002
-131.341	291.230	-0.146	-0.261
-130.326	-200.000	-0.017	0.093
-129.312	-15.846	0.066	0.041
-128.297	-200.000	0.045	-0.205
-127.283	-74.823	-0.162	-0.057
-126.268	-200.000	-0.029	0.251
-125.253	800.000	-0.110	0.315
-124.239	41.073	0.096	-0.085
-123.224	-200.000	0.010	-0.316
-122.210	142.485	-0.274	-0.359
