DTS Sentinel unit serial number:	SN413079Multiplexer serial number:	ORYXHardware model number:	OX4-SRSoftware version number:	ORYX F/W v4.00 Oryx Data Collector v3.7.2.0data status	okinstallation	princeton_trtdifferential loss correction	single-endedforward channel	channel 1reverse channel	N/Adate	2019/09/14time	15:22:35forward acquisition time	60.00reverse acquisition time	0.00gamma	496.2192k internal	0.2295k external	0.2295temperature offset calibration	1.0071default loss term (dB/km)	0.3790temperature slope calibration	1.0000multiplexer offset coefficient	1.0000multiplexer slope coefficient	1.0000fibre end	0.00T internal ref (°C)	39.06T ext. ref 1 (°C)	5.10T ext. ref 2 (°C)	33.77length (m)	temperature (°C)	Stokes	anti-Stokes-747.200	-78.412	0.251	0.088
-746.185	119.325	-0.077	0.098
-745.171	-101.980	-0.141	-0.035
-744.156	391.005	0.124	0.263
-743.142	104.830	-0.181	0.218
-742.127	247.025	-0.151	0.260
-741.112	-78.770	-0.213	-0.074
-740.098	41.522	0.155	0.143
-739.083	164.539	-0.143	-0.207
-738.069	-25.648	-0.102	0.062
-737.054	-107.667	0.115	0.026
-736.039	-197.906	0.115	0.001
-735.025	-89.449	0.311	-0.093
-734.010	800.000	0.075	-0.222
-732.996	-113.990	-0.504	0.100
-731.981	-100.437	-0.208	0.053
-730.966	230.825	-0.216	-0.362
-729.952	-200.000	0.008	-0.362
-728.937	213.614	-0.116	-0.188
-727.923	800.000	0.065	-0.203
-726.908	54.158	0.188	-0.185
-725.894	51.490	-0.093	-0.090
-724.879	-198.462	0.163	-0.001
-723.864	175.256	0.133	0.197
-722.850	198.013	-0.210	0.327
-721.835	46.750	0.106	0.101
-720.821	154.968	0.055	0.077
-719.806	6.984	-0.182	-0.138
-718.791	10.230	-0.136	0.106
-717.777	87.305	0.221	-0.250
-716.762	475.160	-0.193	-0.444
-715.748	62.705	-0.110	-0.112
-714.733	11.713	-0.187	-0.147
-713.718	800.000	0.075	0.308
-712.704	-111.236	-0.229	0.048
-711.689	-167.676	-0.446	0.018
-710.675	757.201	0.173	0.477
-709.660	274.732	-0.070	0.127
-708.645	800.000	-0.070	-0.208
-707.631	-104.826	-0.351	-0.082
-706.616	116.483	0.144	-0.181
-705.602	-80.964	-0.223	-0.075
-704.587	15.964	0.178	-0.143
-703.572	-98.962	0.163	0.042
-702.558	-16.490	-0.309	-0.200
-701.543	160.117	-0.038	-0.054
-700.529	-39.329	-0.201	0.107
-699.514	-200.000	0.011	-0.123
-698.499	-200.000	-0.059	0.263
-697.485	104.534	0.247	0.297
-696.470	153.933	-0.098	0.137
-695.456	5.853	-0.249	-0.188
-694.441	-62.298	-0.112	-0.048
-693.426	39.502	-0.262	-0.240
-692.412	-42.359	-0.148	0.077
-691.397	-34.335	-0.081	-0.045
-690.383	-200.000	-0.028	-0.309
-689.368	-17.432	0.080	0.051
-688.354	722.513	-0.100	-0.270
-687.339	-176.556	-0.171	-0.004
-686.324	-200.000	-0.065	-0.336
-685.310	244.260	0.129	0.221
-684.295	266.056	0.044	0.079
-683.281	-200.000	0.002	-0.230
-682.266	370.178	0.084	-0.173
-681.251	800.000	-0.055	-0.189
-680.237	-200.000	-0.068	-0.378
-679.222	164.332	-0.163	-0.234
-678.208	-26.424	0.071	-0.043
-677.193	20.927	0.024	0.020
-676.178	-135.933	-0.132	-0.016
-675.164	800.000	0.022	0.087
-674.149	-62.883	0.343	0.145
-673.135	382.086	0.124	0.259
-672.120	-200.000	0.006	0.152
-671.105	-49.412	-0.092	0.045
-670.091	-200.000	-0.054	0.415
-669.076	-200.000	0.012	0.133
-668.062	-147.005	0.565	0.049
-667.047	331.239	0.108	-0.213
-666.032	598.957	0.131	-0.332
-665.018	-166.902	0.262	0.011
-664.003	496.106	-0.079	-0.186
-662.989	228.130	-0.159	-0.264
-661.974	108.265	0.174	0.211
-660.959	-133.825	0.204	0.026
-659.945	800.000	0.040	-0.159
-658.930	106.849	-0.078	-0.095
-657.916	53.603	-0.124	-0.122
-656.901	-200.000	-0.005	-0.081
-655.886	-138.997	-0.205	0.023
-654.872	-200.000	-0.010	-0.112
-653.857	166.495	-0.069	-0.100
-652.843	-147.366	0.087	0.008
-651.828	242.112	-0.138	0.235
-650.814	97.589	-0.266	-0.312
-649.799	-200.000	-0.008	0.098
-648.784	49.321	-0.135	-0.130
-647.770	160.071	0.150	0.213
-646.755	-200.000	-0.017	0.178
-645.741	-152.842	0.026	-0.002
-644.726	-200.000	-0.013	0.191
-643.711	-200.000	-0.021	0.186
-642.697	-136.295	-0.161	0.019
-641.682	97.083	-0.183	-0.213
-640.668	591.714	0.085	-0.214
-639.653	800.000	0.034	0.129
-638.638	-73.052	0.194	0.072
-637.624	-128.311	0.172	-0.025
-636.609	193.548	-0.229	-0.352
-635.595	177.590	-0.095	-0.141
-634.580	25.673	0.221	-0.188
-633.565	575.593	0.068	-0.170
-632.551	318.668	-0.047	0.090
-631.536	66.582	-0.256	0.265
-630.522	800.000	0.101	-0.287
-629.507	-200.000	-0.001	0.144
-628.492	729.738	-0.032	-0.087
-627.478	137.925	0.176	0.235
-626.463	-111.704	-0.019	0.004
-625.449	71.403	-0.186	0.197
-624.434	-169.248	0.362	0.014
-623.419	206.696	0.088	-0.139
-622.405	601.619	0.004	-0.011
-621.390	-58.802	0.170	0.075
-620.376	-26.561	-0.223	-0.133
-619.361	-200.000	-0.019	-0.141
-618.346	-164.696	-0.497	0.023
-617.332	419.326	-0.093	-0.203
-616.317	24.510	0.096	-0.081
-615.303	541.615	-0.076	0.185
-614.288	-166.343	-0.351	-0.015
-613.273	159.617	-0.073	-0.103
-612.259	-200.000	-0.030	0.253
-611.244	-200.000	-0.005	0.126
-610.230	167.402	0.131	-0.190
-609.215	-200.000	-0.064	-0.365
-608.201	450.797	-0.228	-0.511
-607.186	800.000	-0.057	-0.223
-606.171	-200.000	0.039	0.218
-605.157	-29.131	-0.199	0.116
-604.142	-13.879	0.291	-0.191
-603.128	268.912	-0.162	-0.290
-602.113	-61.937	0.264	0.112
-601.098	205.542	0.174	-0.275
-600.084	800.000	-0.065	-0.191
-599.069	-200.000	0.013	-0.425
-598.055	92.878	-0.092	-0.105
-597.040	-200.000	-0.009	0.084
-596.025	-58.927	-0.185	0.081
-595.011	-83.729	-0.285	-0.092
-593.996	-200.000	-0.002	-0.176
-592.982	-115.068	0.147	0.028
-591.967	529.316	-0.108	-0.260
-590.952	-200.000	-0.003	-0.219
-589.938	73.141	0.133	-0.141
-588.923	-200.000	-0.001	-0.105
-587.909	800.000	0.059	0.194
-586.894	-116.108	0.408	-0.077
-585.879	1.117	0.205	0.149
-584.865	621.518	-0.073	-0.187
-583.850	800.000	0.063	-0.230
-582.836	-79.793	-0.280	0.096
-581.821	5.553	0.099	0.074
-580.806	122.725	0.295	-0.375
-579.792	-50.525	-0.153	0.073
-578.777	138.574	0.180	0.240
-577.763	36.758	-0.120	0.108
-576.748	-200.000	-0.006	0.231
-575.733	-149.342	-0.339	0.027
-574.719	147.025	-0.309	-0.422
-573.704	214.168	0.107	0.173
-572.690	800.000	0.136	0.413
-571.675	-118.581	0.226	0.041
-570.661	403.935	0.026	-0.056
-569.646	69.189	0.075	0.079
-568.631	-109.406	-0.414	0.089
-567.617	-2.471	0.187	-0.133
-566.602	649.815	-0.022	-0.056
-565.588	-200.000	-0.004	0.114
-564.573	261.853	-0.089	-0.156
-563.558	84.328	0.046	0.051
-562.544	-90.980	-0.224	-0.065
-561.529	-200.000	-0.011	-0.413
-560.515	-109.652	-0.118	-0.025
-559.500	800.000	-0.068	0.243
-558.485	800.000	0.082	-0.253
-557.471	-101.942	0.237	-0.058
-556.456	83.401	-0.083	-0.092
-555.442	-148.066	-0.112	-0.009
-554.427	132.623	0.142	-0.185
-553.412	130.913	-0.136	-0.177
-552.398	-137.952	0.269	-0.031
-551.383	55.224	-0.140	0.137
-550.369	42.037	-0.222	0.205
-549.354	-98.307	0.227	0.059
-548.339	-166.486	0.488	-0.021
-547.325	-200.000	0.009	-0.119
-546.310	69.515	0.175	0.183
-545.296	-138.031	0.198	0.022
-544.281	33.256	-0.145	0.128
-543.266	185.616	-0.169	-0.255
-542.252	800.000	0.034	-0.107
-541.237	-110.438	0.279	-0.059
-540.223	12.293	0.225	0.176
-539.208	213.819	0.076	-0.122
-538.193	-88.007	0.161	0.049
-537.179	66.689	-0.131	0.136
-536.164	-72.602	0.196	0.073
-535.150	593.056	0.049	-0.123
-534.135	-200.000	-0.032	-0.246
-533.121	-1.415	0.331	0.237
-532.106	32.068	-0.300	0.262
-531.091	-86.061	-0.344	0.108
-530.077	800.000	-0.056	0.179
-529.062	800.000	0.042	-0.147
-528.048	-90.244	0.142	-0.042
-527.033	91.429	0.168	-0.191
-526.018	409.944	0.037	-0.078
-525.004	800.000	-0.060	0.175
-523.989	459.474	0.194	0.437
-522.975	-200.000	-0.022	0.000
-521.960	128.283	-0.125	-0.161
-520.945	5.144	0.056	0.042
-519.931	-60.119	0.067	-0.029
-518.916	-155.020	-0.129	0.009
-517.902	251.860	0.079	-0.137
-516.887	-77.201	0.583	0.206
-515.872	65.485	-0.021	0.021
-514.858	800.000	-0.082	-0.297
-513.843	-160.130	-0.161	0.009
-512.829	16.059	-0.107	-0.085
-511.814	-174.596	0.305	-0.009
-510.799	800.000	0.051	0.203
-509.785	800.000	0.064	0.203
-508.770	123.715	-0.224	-0.284
-507.756	92.775	-0.109	0.125
-506.741	-200.000	-0.006	-0.122
-505.726	-38.079	0.382	0.205
-504.712	-21.194	-0.261	0.162
-503.697	-84.635	-0.352	-0.112
-502.683	121.576	-0.105	-0.133
-501.668	-15.925	0.205	0.132
-500.653	-145.201	-0.084	0.008
-499.639	697.928	-0.028	-0.076
-498.624	-56.151	0.561	-0.253
-497.610	97.531	0.112	-0.131
-496.595	-165.782	0.343	0.015
-495.581	800.000	0.106	0.357
-494.566	255.014	0.172	0.299
-493.551	-200.000	0.023	0.397
-492.537	-200.000	-0.019	0.155
-491.522	107.152	-0.273	0.328
-490.508	-100.682	0.287	0.072
-489.493	-120.050	-0.226	0.039
-488.478	541.097	-0.077	-0.185
-487.464	-118.305	0.126	0.023
-486.449	-200.000	-0.027	0.135
-485.435	127.258	-0.086	-0.111
-484.420	-6.476	-0.050	-0.035
-483.405	-54.412	-0.225	-0.103
-482.391	315.134	0.185	0.352
-481.376	-13.843	-0.114	-0.075
-480.362	-10.281	0.047	0.032
-479.347	-188.010	-0.050	-0.001
-478.332	-51.782	-0.191	0.090
-477.318	-140.582	-0.212	0.022
-476.303	303.428	-0.015	-0.029
-475.289	-200.000	-0.025	0.183
-474.274	18.976	0.096	0.078
-473.259	-200.000	0.032	0.157
-472.245	800.000	0.019	-0.074
-471.230	199.653	0.249	0.386
-470.216	800.000	0.035	0.131
-469.201	92.385	0.099	-0.113
-468.186	124.672	0.127	0.162
-467.172	800.000	0.079	0.241
-466.157	-194.631	0.293	0.002
-465.143	800.000	-0.016	-0.063
-464.128	800.000	-0.127	0.383
-463.113	96.387	0.070	-0.080
-462.099	-200.000	0.016	0.202
-461.084	10.345	-0.211	0.162
-460.070	-200.000	-0.001	0.170
-459.055	-129.298	0.215	0.030
-458.040	116.025	0.124	-0.153
-457.026	380.738	-0.047	0.098
-456.011	126.102	-0.273	-0.349
-454.997	225.545	-0.236	-0.386
-453.982	-200.000	-0.025	-0.527
-452.968	-163.438	0.298	-0.014
-451.953	-52.356	-0.246	0.115
-450.938	165.647	-0.170	0.243
-449.924	88.271	0.264	0.296
-448.909	-91.139	-0.025	-0.007
-447.895	-103.145	-0.230	-0.055
-446.880	115.927	-0.207	0.256
-445.865	250.793	-0.115	0.198
-444.851	141.488	-0.046	-0.061
-443.836	-60.294	-0.321	-0.138
-442.822	-93.035	-0.238	-0.067
-441.807	-5.589	0.124	0.086
-440.792	-129.655	-0.160	-0.022
-439.778	-143.980	0.353	0.034
-438.763	-174.699	0.091	0.003
-437.749	-78.429	0.223	0.077
-436.734	-200.000	-0.040	-0.277
-435.719	-108.098	-0.250	-0.055
-434.705	666.461	0.105	-0.275
-433.690	-200.000	-0.012	-0.075
-432.676	-200.000	-0.017	-0.319
-431.661	-134.613	0.191	-0.024
-430.646	-101.494	-0.177	-0.044
-429.632	183.292	0.144	0.215
-428.617	-0.368	0.064	-0.046
-427.603	-200.000	-0.048	0.226
-426.588	30.075	-0.097	-0.084
-425.573	-101.098	-0.370	0.092
-424.559	-61.938	0.135	0.057
-423.544	12.234	0.135	0.105
-422.530	800.000	0.053	0.198
-421.515	-49.856	-0.151	-0.073
-420.500	-9.240	0.246	-0.166
-419.486	327.139	0.129	-0.250
-418.471	-171.916	0.237	-0.008
-417.457	-57.503	-0.320	-0.142
-416.442	436.722	0.017	0.037
-415.428	-22.946	0.164	0.100
-414.413	220.793	0.160	-0.259
-413.398	-49.342	-0.348	0.168
-412.384	-55.104	-0.260	-0.118
-411.369	-71.204	0.178	0.068
-410.355	555.014	-0.018	0.043
-409.340	-33.496	0.379	0.211
-408.325	-200.000	0.010	0.110
-407.311	-200.000	0.009	0.374
-406.296	-108.657	0.079	0.017
-405.282	-14.141	0.139	0.090
-404.267	363.748	0.198	-0.401
-403.252	-132.465	-0.145	0.019
-402.238	41.180	-0.050	-0.045
-401.223	122.542	-0.232	-0.292
-400.209	132.449	0.117	0.153
-399.194	344.711	0.164	-0.325
-398.179	-85.788	-0.360	-0.112
-397.165	-184.734	0.430	0.007
-396.150	-22.592	0.199	0.121
-395.136	-106.824	0.214	0.048
-394.121	116.342	-0.025	-0.031
-393.106	800.000	-0.021	-0.062
-392.092	-200.000	-0.037	-0.353
-391.077	-200.000	-0.037	0.381
-390.063	96.332	-0.087	-0.100
-389.048	-32.061	-0.445	-0.251
-388.033	77.770	-0.269	-0.289
-387.019	-118.438	-0.172	0.031
-386.004	13.338	-0.263	0.206
-384.990	-25.943	0.312	-0.185
-383.975	430.956	0.159	-0.346
-382.960	-57.160	-0.304	0.135
-381.946	-143.676	-0.401	-0.038
-380.931	-128.027	-0.106	0.015
-379.917	-66.298	0.110	0.044
-378.902	-136.368	0.246	-0.029
-377.888	-34.599	-0.082	0.045
-376.873	-200.000	0.200	0.000
-375.858	559.357	0.179	0.435
-374.844	-200.000	-0.031	0.215
-373.829	-84.506	-0.311	-0.099
-372.815	37.725	0.184	-0.164
-371.800	459.940	0.112	-0.251
-370.785	-200.000	-0.031	0.188
-369.771	162.876	0.214	-0.303
-368.756	52.609	0.125	0.120
-367.742	-19.806	0.133	0.083
-366.727	-200.000	0.014	-0.118
-365.712	-84.940	-0.077	-0.024
-364.698	-49.644	0.139	-0.067
-363.683	-91.713	-0.236	-0.068
-362.669	-200.000	-0.023	0.150
-361.654	800.000	-0.038	-0.120
-360.639	-200.000	-0.037	0.241
-359.625	48.722	-0.252	0.238
-358.610	379.495	-0.097	-0.200
-357.596	74.376	-0.192	-0.204
-356.581	-123.233	0.286	0.046
-355.566	-200.000	-0.005	-0.173
-354.552	6.238	0.303	0.226
-353.537	369.598	0.106	-0.216
-352.523	-200.000	-0.003	0.263
-351.508	649.702	-0.175	-0.452
-350.493	-178.700	-0.568	-0.013
-349.479	52.827	-0.165	-0.159
-348.464	-25.771	-0.133	-0.079
-347.450	84.228	0.265	0.291
-346.435	-59.523	0.162	-0.070
-345.420	-96.290	0.150	0.040
-344.406	-200.000	-0.028	0.161
-343.391	478.412	0.232	0.529
-342.377	-124.500	0.193	0.030
-341.362	800.000	0.082	0.283
-340.348	-23.490	-0.286	-0.173
-339.333	-42.276	0.084	-0.043
-338.318	-200.000	-0.049	0.249
-337.304	-200.000	0.082	0.396
-336.289	-200.000	0.009	0.156
-335.275	106.551	-0.162	-0.194
-334.260	-200.000	0.059	0.279
-333.245	-49.912	-0.188	-0.090
-332.231	147.744	-0.077	-0.105
-331.216	-200.000	0.010	-0.127
-330.202	-95.934	0.189	0.051
-329.187	-200.000	0.008	-0.163
-328.172	-65.805	0.369	-0.148
-327.158	-63.203	-0.270	0.112
-326.143	11.075	0.236	0.182
-325.129	-200.000	0.024	-0.144
-324.114	261.819	-0.143	0.249
-323.099	-29.747	-0.260	0.149
-322.085	-200.000	0.042	-0.316
-321.070	-16.451	-0.050	0.032
-320.056	-175.401	-0.315	-0.009
-319.041	-140.057	0.295	0.031
-318.026	-85.880	0.157	-0.049
-317.012	-41.246	0.259	0.134
-315.997	51.836	-0.161	0.154
-314.983	93.101	0.273	0.310
-313.968	231.623	0.008	-0.014
-312.953	109.103	-0.180	-0.216
-311.939	47.270	-0.144	0.135
-310.924	-87.833	-0.071	0.022
-309.910	-77.230	0.343	-0.120
-308.895	-200.000	-0.043	-0.215
-307.880	-51.679	-0.239	-0.112
-306.866	800.000	-0.082	-0.292
-305.851	480.294	0.086	0.196
-304.837	-200.000	0.040	0.208
-303.822	-102.591	0.198	-0.048
-302.807	-89.090	0.399	-0.118
-301.793	-200.000	-0.008	-0.078
-300.778	-82.897	-0.259	0.084
-299.764	-115.522	-0.520	-0.098
-298.749	-200.000	0.031	0.198
-297.735	80.222	0.117	-0.127
-296.720	164.131	-0.149	0.210
-295.705	36.396	-0.128	-0.114
-294.691	-90.328	-0.372	-0.109
-293.676	-142.701	-0.278	-0.027
-292.662	-63.799	0.347	-0.143
-291.647	242.925	0.018	-0.031
-290.632	-200.000	-0.043	-0.227
-289.618	327.651	0.094	-0.182
-288.603	34.767	-0.141	0.124
-287.589	58.468	-0.156	-0.154
-286.574	-82.636	-0.165	-0.054
-285.559	-200.000	0.025	0.148
-284.545	-111.967	0.154	0.031
-283.530	-32.045	-0.154	-0.086
-282.516	-41.466	-0.186	-0.096
-281.501	-126.057	-0.214	0.032
-280.486	97.620	0.212	0.245
-279.472	-200.000	-0.008	0.287
-278.457	-102.105	0.358	-0.086
-277.443	-111.791	-0.302	-0.061
-276.428	503.913	-0.063	-0.147
-275.413	-95.893	-0.205	-0.055
-274.399	800.000	0.099	0.329
-273.384	133.913	-0.327	0.425
-272.370	-200.000	0.070	0.353
-271.355	448.689	0.118	-0.262
-270.340	135.235	-0.074	-0.096
-269.326	303.692	-0.066	-0.123
-268.311	523.958	0.105	-0.248
-267.297	-119.446	-0.302	-0.053
-266.282	-138.883	-0.096	-0.010
-265.267	800.000	0.134	0.532
-264.253	196.270	0.234	-0.358
-263.238	-167.324	-0.111	-0.004
-262.224	-76.390	-0.270	-0.095
-261.209	-200.000	0.031	-0.194
-260.195	105.619	-0.080	0.095
-259.180	283.812	0.206	-0.372
-258.165	-200.000	0.034	-0.236
-257.151	-74.358	-0.240	0.087
-256.136	714.651	-0.060	-0.160
-255.122	-200.000	0.012	0.286
-254.107	109.743	0.060	0.072
-253.092	-73.542	0.196	0.072
-252.078	800.000	0.064	0.226
-251.063	-200.000	-0.031	-0.232
-250.049	761.808	0.064	0.175
-249.034	71.421	0.230	0.240
-248.019	-81.426	0.161	0.053
-247.005	-195.866	0.400	-0.003
-245.990	733.510	0.019	-0.050
-244.976	-200.000	-0.031	0.157
-243.961	-55.627	0.223	0.100
-242.946	287.637	-0.197	0.357
-241.932	5.093	0.130	-0.096
-240.917	-65.087	0.006	0.002
-239.903	100.617	0.123	0.144
-238.888	100.742	0.273	-0.318
-237.873	-190.881	-0.076	-0.001
-236.859	-107.208	0.209	-0.046
-235.844	423.373	0.181	0.390
-234.830	-118.396	-0.350	0.062
-233.815	92.340	0.114	-0.129
-232.800	-70.564	-0.253	-0.096
-231.786	-200.000	-0.011	-0.091
-230.771	6.237	-0.233	0.173
-229.757	-85.156	-0.074	-0.023
-228.742	157.820	-0.065	-0.091
-227.727	-200.000	-0.028	0.191
-226.713	-8.652	-0.039	-0.026
-225.698	-200.000	-0.033	-0.155
-224.684	41.737	0.206	0.187
-223.669	111.265	-0.213	0.257
-222.655	-47.127	0.187	0.092
-221.640	-21.237	0.097	0.060
-220.625	-59.300	-0.274	-0.118
-219.611	-44.024	-0.073	0.037
-218.596	-114.836	-0.133	-0.025
-217.582	77.711	-0.339	0.362
-216.567	-120.300	-0.085	-0.014
-215.552	48.377	0.101	-0.095
-214.538	-200.000	-0.025	-0.163
-213.523	-82.352	0.191	-0.062
-212.509	-75.263	-0.162	0.058
-211.494	-200.000	0.008	0.114
-210.479	-122.463	0.212	0.035
-209.465	-44.516	0.088	-0.044
-208.450	111.717	-0.248	-0.299
-207.436	47.075	0.224	-0.209
-206.421	-108.133	0.270	0.059
-205.406	313.239	-0.082	-0.155
-204.392	-200.000	-0.023	-0.211
-203.377	-200.000	0.018	-0.278
-202.363	-98.083	-0.128	-0.033
-201.348	81.941	-0.195	-0.211
-200.333	-13.079	0.054	0.035
-199.319	800.000	-0.095	0.388
-198.304	-200.000	-0.011	-0.077
-197.290	-150.687	-0.145	-0.011
-196.275	800.000	0.081	0.351
-195.260	-200.000	-0.001	0.011
-194.246	-9.432	-0.182	-0.121
-193.231	-109.515	-0.215	0.046
-192.217	504.749	0.123	-0.284
-191.202	-60.007	-0.020	-0.008
-190.187	21.262	0.113	-0.092
-189.173	-200.000	0.016	0.215
-188.158	-36.860	-0.204	-0.109
-187.144	-200.000	0.044	-0.279
-186.129	-122.799	-0.098	-0.016
-185.114	-142.311	-0.159	0.016
-184.100	124.418	0.099	-0.124
-183.085	-88.710	0.157	-0.047
-182.071	-96.644	0.153	-0.040
-181.056	800.000	-0.034	0.122
-180.042	141.864	-0.106	-0.140
-179.027	34.477	0.315	0.275
-178.012	800.000	-0.073	-0.229
-176.998	20.399	-0.058	0.047
-175.983	50.278	-0.067	0.063
-174.969	-132.370	0.171	-0.022
-173.954	292.145	0.092	0.168
-172.939	-50.941	-0.224	0.105
-171.925	-186.418	0.106	-0.002
-170.910	60.444	0.138	-0.136
-169.896	-73.151	0.311	0.114
-168.881	26.828	-0.112	0.094
-167.866	-4.419	-0.147	-0.102
-166.852	800.000	-0.043	0.150
-165.837	160.387	0.087	0.121
-164.823	-16.355	0.300	0.190
-163.808	-200.000	-0.027	-0.163
-162.793	-149.086	0.151	0.012
-161.779	-200.000	0.089	0.396
-160.764	-14.975	0.287	0.184
-159.750	800.000	-0.097	-0.308
-158.735	105.155	-0.187	0.220
-157.720	45.585	0.115	0.106
-156.706	-74.386	0.327	-0.118
-155.691	-152.712	-0.358	-0.025
-154.677	-68.522	-0.234	-0.091
-153.662	-200.000	-0.002	-0.169
-152.647	-172.090	-0.178	0.006
-151.633	42.258	-0.115	-0.104
-150.618	190.320	0.227	-0.340
-149.604	266.288	-0.107	-0.187
-148.589	-200.000	0.014	0.096
-147.574	43.314	-0.110	0.100
-146.560	-200.000	0.032	0.295
-145.545	-37.037	0.280	-0.150
-144.531	-141.581	-0.210	-0.021
-143.516	84.839	0.272	0.298
-142.502	60.849	-0.086	-0.085
-141.487	-40.787	0.231	-0.120
-140.472	37.826	-0.203	0.180
-139.458	-96.368	-0.354	-0.094
-138.443	-33.635	-0.274	0.151
-137.429	-55.673	0.178	0.080
-136.414	-3.563	-0.142	-0.099
-135.399	-131.237	-0.299	0.040
-134.385	-117.446	0.143	0.026
-133.370	84.902	0.043	-0.047
-132.356	800.000	0.020	-0.062
-131.341	-128.080	0.077	-0.011
-130.326	467.748	-0.070	0.156
-129.312	-16.125	0.185	0.117
-128.297	-9.654	-0.040	0.027
-127.283	-200.000	0.035	-0.579
-126.268	76.455	-0.149	0.157
-125.253	128.191	-0.047	-0.059
-124.239	800.000	-0.089	0.279
-123.224	1.450	-0.032	0.023
