DTS Sentinel unit serial number:	SN413079Multiplexer serial number:	ORYXHardware model number:	OX4-SRSoftware version number:	ORYX F/W v4.00 Oryx Data Collector v3.7.2.0data status	okinstallation	princeton_trtdifferential loss correction	single-endedforward channel	channel 1reverse channel	N/Adate	2019/09/15time	12:10:35forward acquisition time	60.00reverse acquisition time	0.00gamma	496.2192k internal	0.2305k external	0.2305temperature offset calibration	0.9983default loss term (dB/km)	0.3790temperature slope calibration	1.0000multiplexer offset coefficient	1.0000multiplexer slope coefficient	1.0000fibre end	0.00T internal ref (°C)	34.56T ext. ref 1 (°C)	5.04T ext. ref 2 (°C)	31.16length (m)	temperature (°C)	Stokes	anti-Stokes-747.200	63.055	-0.233	-0.238
-746.185	439.103	0.174	0.387
-745.171	244.430	0.149	0.254
-744.156	-121.081	-0.503	-0.086
-743.142	-1.129	0.178	-0.128
-742.127	31.376	-0.340	0.298
-741.112	66.001	-0.151	0.155
-740.098	-200.000	-0.015	0.143
-739.083	-140.612	-0.130	-0.014
-738.069	679.999	-0.083	0.221
-737.054	-171.638	0.121	-0.004
-736.039	49.154	-0.094	0.090
-735.025	-58.940	0.057	-0.025
-734.010	-26.363	-0.152	-0.091
-732.996	-200.000	0.007	0.165
-731.981	800.000	-0.059	0.192
-730.966	-14.232	-0.202	0.133
-729.952	-200.000	-0.030	-0.234
-728.937	-29.806	0.269	-0.156
-727.923	-200.000	-0.053	-0.246
-726.908	-77.994	0.170	-0.060
-725.894	-53.216	0.036	0.017
-724.879	256.191	-0.033	-0.058
-723.864	499.311	-0.124	0.291
-722.850	339.840	0.065	-0.128
-721.835	-73.271	-0.257	0.096
-720.821	-200.000	0.018	-0.346
-719.806	243.901	0.191	0.327
-718.791	-200.000	-0.003	-0.188
-717.777	90.431	0.177	-0.201
-716.762	800.000	-0.033	-0.117
-715.748	563.856	-0.065	-0.159
-714.733	-92.433	-0.077	0.022
-713.718	42.908	-0.157	-0.145
-712.704	-164.726	0.304	0.014
-711.689	80.253	0.117	0.128
-710.675	800.000	0.083	0.243
-709.660	155.321	-0.150	0.210
-708.645	0.100	0.160	-0.116
-707.631	-200.000	-0.013	0.211
-706.616	-119.618	-0.138	-0.024
-705.602	-98.828	0.175	0.045
-704.587	-148.325	-0.166	0.014
-703.572	331.543	0.076	-0.149
-702.558	-181.010	0.053	-0.001
-701.543	800.000	-0.181	-0.512
-700.529	28.225	0.210	-0.181
-699.514	409.311	-0.088	0.189
-698.499	230.143	0.117	-0.195
-697.485	615.544	-0.081	-0.207
-696.470	-200.000	0.012	0.278
-695.456	-164.116	0.339	0.016
-694.441	-200.000	0.014	-0.157
-693.426	-99.197	0.296	0.076
-692.412	125.493	-0.198	-0.254
-691.397	32.585	0.280	-0.245
-690.383	323.896	0.083	-0.160
-689.368	87.662	0.088	-0.099
-688.354	106.267	-0.136	0.163
-687.339	-88.762	0.120	0.036
-686.324	-55.154	-0.351	-0.160
-685.310	-7.293	0.247	-0.170
-684.295	83.920	-0.110	0.122
-683.281	102.490	-0.189	0.224
-682.266	216.866	-0.026	0.042
-681.251	-58.371	0.269	-0.119
-680.237	468.459	0.131	0.299
-679.222	74.815	0.043	0.045
-678.208	-43.333	-0.366	-0.188
-677.193	44.773	0.061	-0.057
-676.178	800.000	0.015	-0.045
-675.164	-188.317	0.413	-0.005
-674.149	102.692	0.104	-0.124
-673.135	-121.588	-0.131	-0.022
-672.120	-110.277	0.281	0.059
-671.105	-200.000	-0.044	-0.341
-670.091	177.124	0.170	-0.252
-669.076	800.000	-0.059	-0.169
-668.062	800.000	0.087	0.348
-667.047	258.320	0.081	0.142
-666.032	44.220	-0.327	0.304
-665.018	-105.279	0.337	-0.078
-664.003	40.969	-0.134	-0.122
-662.989	286.341	-0.085	0.155
-661.974	-61.154	-0.238	0.102
-660.959	-200.000	0.051	-0.345
-659.945	-105.714	0.378	0.087
-658.930	-46.207	-0.293	0.146
-657.916	-124.365	-0.067	0.011
-656.901	18.066	-0.104	-0.084
-655.886	127.024	0.194	-0.250
-654.872	800.000	-0.120	-0.358
-653.857	-19.454	0.044	-0.028
-652.843	39.212	0.160	-0.145
-651.828	-51.547	0.246	-0.116
-650.814	-200.000	0.014	-0.126
-649.799	-200.000	0.000	0.067
-648.784	538.127	-0.085	-0.204
-647.770	304.896	-0.056	-0.105
-646.755	-60.317	0.349	-0.151
-645.741	-200.000	0.047	-0.251
-644.726	-11.963	-0.079	-0.052
-643.711	-200.000	0.001	-0.226
-642.697	-200.000	-0.031	-0.306
-641.682	-200.000	0.006	-0.273
-640.668	-194.096	0.314	-0.003
-639.653	800.000	-0.131	0.373
-638.638	-71.695	0.044	0.017
-637.624	442.538	-0.080	-0.179
-636.609	145.923	-0.114	-0.155
-635.595	-93.513	-0.183	0.051
-634.580	-200.000	0.021	0.323
-633.565	-200.000	0.058	0.385
-632.551	-106.772	-0.185	0.042
-631.536	222.703	0.127	0.207
-630.522	-200.000	-0.015	-0.197
-629.507	-105.108	-0.178	-0.041
-628.492	51.318	0.164	0.158
-627.478	2.181	0.317	-0.232
-626.463	1.675	0.101	0.074
-625.449	51.850	-0.082	-0.079
-624.434	-59.802	0.039	0.017
-623.419	187.808	0.233	0.353
-622.405	-157.919	0.188	-0.011
-621.390	-108.880	-0.350	0.076
-620.376	-27.004	-0.464	-0.274
-619.361	-200.000	-0.015	0.121
-618.346	800.000	-0.099	0.280
-617.332	-17.937	-0.073	-0.047
-616.317	-200.000	-0.026	-0.148
-615.303	-17.109	-0.121	-0.077
-614.288	-175.957	0.213	-0.006
-613.273	414.124	0.088	-0.189
-612.259	-50.514	0.222	-0.106
-611.244	9.853	-0.054	0.042
-610.230	-144.607	0.133	-0.012
-609.215	344.675	-0.072	0.143
-608.201	-95.332	0.208	0.057
-607.186	39.348	0.366	0.332
-606.171	-148.614	0.053	-0.004
-605.157	157.145	-0.108	-0.151
-604.142	-11.786	-0.152	-0.101
-603.128	800.000	0.067	0.188
-602.113	-134.830	-0.104	-0.013
-601.098	287.348	-0.130	0.238
-600.084	256.680	-0.146	-0.253
-599.069	66.813	0.126	-0.129
-598.055	114.794	0.078	0.096
-597.040	-167.138	-0.201	0.008
-596.025	-21.812	-0.257	0.158
-595.011	201.330	-0.082	0.128
-593.996	235.776	0.052	0.088
-592.982	800.000	-0.032	-0.133
-591.967	-200.000	0.069	-0.373
-590.952	48.944	0.302	-0.287
-589.938	42.584	0.184	0.169
-588.923	800.000	0.056	0.160
-587.909	-49.991	-0.083	-0.040
-586.894	135.998	-0.026	0.035
-585.879	271.618	-0.080	0.142
-584.865	-89.499	-0.225	-0.067
-583.850	-155.098	-0.248	-0.016
-582.836	-5.221	-0.230	0.160
-581.821	-60.958	0.251	0.107
-580.806	314.642	-0.129	-0.246
-579.792	4.972	0.206	-0.153
-578.777	-146.702	-0.123	-0.011
-577.763	-200.000	-0.037	-0.369
-576.748	25.019	0.206	0.173
-575.733	-104.354	-0.087	0.020
-574.719	7.904	-0.042	-0.032
-573.704	-59.261	0.181	0.079
-572.690	-200.000	0.008	0.122
-571.675	210.895	0.029	-0.047
-570.661	-61.476	0.088	0.038
-569.646	77.158	-0.089	-0.095
-568.631	-200.000	-0.022	0.118
-567.617	46.112	0.160	-0.149
-566.602	-200.000	0.007	-0.438
-565.588	-87.299	-0.114	-0.035
-564.573	471.208	-0.069	-0.157
-563.558	200.546	-0.117	-0.181
-562.544	-200.000	-0.044	-0.217
-561.529	-36.039	0.193	0.106
-560.515	174.706	-0.145	-0.212
-559.500	-70.354	0.233	0.089
-558.485	142.383	-0.054	-0.073
-557.471	332.986	0.077	-0.149
-556.456	15.695	-0.117	-0.093
-555.442	-186.874	0.229	-0.003
-554.427	800.000	-0.045	-0.135
-553.412	-153.192	-0.396	-0.028
-552.398	-143.262	0.228	0.022
-551.383	68.616	-0.169	0.175
-550.369	-200.000	-0.007	0.034
-549.354	534.145	0.080	0.191
-548.339	-200.000	-0.010	0.123
-547.325	-52.398	0.075	0.035
-546.310	-82.187	-0.141	0.046
-545.296	243.779	-0.095	-0.160
-544.281	800.000	0.023	-0.081
-543.266	-158.860	0.260	-0.015
-542.252	-15.005	0.444	0.287
-541.237	-200.000	0.002	-0.198
-540.223	122.515	0.158	0.199
-539.208	25.909	-0.094	0.079
-538.193	-92.597	0.118	0.034
-537.179	183.109	0.130	0.193
-536.164	226.520	0.239	0.392
-535.150	120.747	-0.210	0.263
-534.135	-126.851	0.121	0.018
-533.121	311.588	-0.129	0.244
-532.106	-161.564	0.095	-0.005
-531.091	189.480	0.085	0.129
-530.077	148.669	0.151	0.206
-529.062	-52.462	0.294	0.137
-528.048	-139.780	-0.231	-0.025
-527.033	1.583	-0.043	-0.031
-526.018	23.505	-0.203	-0.169
-525.004	29.485	-0.089	-0.077
-523.989	306.929	-0.151	-0.284
-522.975	10.665	0.227	-0.175
-521.960	104.736	-0.051	-0.061
-520.945	386.153	0.077	0.161
-519.931	-165.295	-0.170	0.008
-518.916	800.000	0.105	0.301
-517.902	-59.537	0.278	0.120
-516.887	800.000	0.057	0.216
-515.872	-200.000	0.011	-0.054
-514.858	-200.000	0.009	0.125
-513.843	-200.000	0.018	0.084
-512.829	203.218	0.084	-0.132
-511.814	-200.000	0.082	-0.414
-510.799	38.007	-0.136	-0.122
-509.785	800.000	-0.014	0.056
-508.770	800.000	0.063	0.266
-507.756	-109.775	0.104	-0.022
-506.741	-200.000	0.013	-0.161
-505.726	476.923	0.055	-0.127
-504.712	54.770	0.195	-0.190
-503.697	-200.000	-0.022	-0.125
-502.683	-164.803	0.191	0.009
-501.668	-132.869	0.201	0.026
-500.653	47.615	0.087	-0.082
-499.639	-200.000	-0.030	-0.243
-498.624	467.674	0.104	-0.235
-497.610	-43.779	-0.093	-0.047
-496.595	-55.880	0.136	0.061
-495.581	-64.928	-0.319	-0.130
-494.566	414.669	0.032	0.070
-493.551	-200.000	0.025	-0.119
-492.537	800.000	0.050	0.161
-491.522	-83.693	0.217	-0.070
-490.508	6.906	0.168	-0.126
-489.493	-200.000	0.008	-0.079
-488.478	-200.000	-0.010	0.101
-487.464	549.318	-0.015	-0.036
-486.449	-200.000	0.007	0.062
-485.435	-85.856	0.130	-0.041
-484.420	-200.000	0.019	0.109
-483.405	-76.782	0.205	-0.072
-482.391	42.511	0.206	0.189
-481.376	-200.000	-0.041	-0.346
-480.362	232.388	0.085	-0.141
-479.347	-101.496	-0.209	-0.051
-478.332	-122.091	-0.330	-0.055
-477.318	-200.000	0.044	0.243
-476.303	19.665	0.086	0.069
-475.289	-18.302	-0.163	-0.103
-474.274	-57.579	0.127	-0.056
-473.259	321.091	-0.103	-0.198
-472.245	226.734	-0.099	0.162
-471.230	311.264	0.067	0.127
-470.216	166.712	0.218	0.311
-469.201	-200.000	0.002	-0.022
-468.186	800.000	-0.098	-0.355
-467.172	-200.000	-0.030	0.185
-466.157	-29.439	-0.015	0.009
-465.143	800.000	0.063	0.222
-464.128	-64.432	-0.216	0.089
-463.113	800.000	-0.036	-0.141
-462.099	484.404	-0.019	0.043
-461.084	87.793	-0.088	-0.098
-460.070	-129.507	-0.459	0.064
-459.055	-200.000	0.019	0.169
-458.040	-200.000	0.036	-0.180
-457.026	330.304	-0.116	-0.225
-456.011	-200.000	-0.018	-0.125
-454.997	-55.606	-0.109	0.049
-453.982	-180.688	0.111	0.002
-452.968	-145.269	-0.226	0.021
-451.953	5.053	-0.259	-0.192
-450.938	-23.222	0.179	0.108
-449.924	413.918	-0.121	0.259
-448.909	-11.565	0.108	-0.071
-447.895	14.274	0.202	0.159
-446.880	268.769	0.125	-0.220
-445.865	-16.306	0.151	0.097
-444.851	518.466	-0.085	-0.199
-443.836	-125.983	0.078	-0.012
-442.822	-200.000	-0.039	0.182
-441.807	-200.000	0.021	0.118
-440.792	-20.774	0.159	-0.098
-439.778	-144.599	-0.335	0.031
-438.763	-27.067	-0.270	0.159
-437.749	-164.297	0.491	-0.023
-436.734	-15.213	-0.156	-0.100
-435.719	-50.393	-0.217	0.103
-434.705	800.000	-0.014	0.049
-433.690	800.000	-0.059	-0.229
-432.676	158.965	0.195	0.273
-431.661	-132.711	-0.438	-0.056
-430.646	-200.000	-0.011	-0.291
-429.632	-128.903	-0.163	-0.023
-428.617	-106.004	-0.384	0.087
-427.603	800.000	0.105	0.353
-426.588	-60.920	0.063	-0.027
-425.573	148.893	-0.158	0.215
-424.559	-200.000	-0.019	-0.199
-423.544	464.842	0.025	-0.056
-422.530	-93.657	0.111	-0.031
-421.515	-114.303	-0.248	-0.048
-420.500	197.445	-0.231	-0.355
-419.486	-200.000	-0.021	0.136
-418.471	-57.569	-0.125	0.055
-417.457	-94.588	-0.344	0.094
-416.442	-148.301	0.182	-0.015
-415.428	126.468	-0.131	-0.166
-414.413	105.941	0.157	-0.186
-413.398	-200.000	0.032	0.191
-412.384	535.994	0.040	0.096
-411.369	161.500	-0.088	0.124
-410.355	-144.163	0.071	0.007
-409.340	117.941	0.137	-0.169
-408.325	476.928	0.087	-0.199
-407.311	-54.719	-0.281	-0.128
-406.296	61.976	-0.092	0.092
-405.282	-200.000	-0.027	0.146
-404.267	-107.204	-0.177	0.039
-403.252	-118.694	-0.265	-0.047
-402.238	87.567	-0.019	-0.021
-401.223	34.147	0.091	0.079
-400.209	800.000	0.083	0.345
-399.194	-22.914	-0.174	-0.105
-398.179	609.417	-0.128	-0.321
-397.165	326.592	0.107	-0.207
-396.150	800.000	0.039	-0.153
-395.136	-65.044	0.188	0.076
-394.121	2.332	-0.298	-0.216
-393.106	52.546	-0.089	0.086
-392.092	-78.068	-0.238	-0.082
-391.077	645.045	-0.101	-0.259
-390.063	429.151	0.084	-0.182
-389.048	-18.023	-0.271	-0.170
-388.033	270.782	0.083	0.147
-387.019	-49.172	0.169	-0.081
-386.004	-200.000	0.004	-0.413
-384.990	535.846	-0.117	-0.278
-383.975	33.478	-0.039	-0.034
-382.960	-94.001	-0.188	0.052
-381.946	85.236	-0.304	0.335
-380.931	-125.956	0.250	-0.038
-379.917	800.000	-0.161	-0.565
-378.902	101.822	0.118	0.138
-377.888	-200.000	0.014	0.232
-376.873	475.796	-0.101	-0.228
-375.858	-74.542	-0.207	0.075
-374.844	6.357	0.259	0.193
-373.829	223.284	0.110	-0.178
-372.815	201.895	-0.060	-0.093
-371.800	-178.105	0.321	-0.008
-370.785	-200.000	0.017	-0.212
-369.771	-74.708	-0.362	-0.131
-368.756	800.000	-0.005	-0.021
-367.742	-72.354	0.204	-0.076
-366.727	-48.460	-0.163	-0.079
-365.712	-198.308	-0.325	0.002
-364.698	-200.000	-0.048	0.283
-363.683	112.447	-0.137	-0.166
-362.669	-122.214	-0.144	0.024
-361.654	-200.000	0.006	-0.234
-360.639	800.000	0.041	-0.146
-359.625	348.908	-0.044	0.087
-358.610	-32.514	-0.079	-0.044
-357.596	348.199	-0.055	-0.109
-356.581	110.846	0.200	0.241
-355.566	7.434	0.121	0.090
-354.552	258.858	-0.055	-0.094
-353.537	106.796	-0.321	0.382
-352.523	-27.894	-0.181	0.105
-351.508	-124.111	-0.224	-0.035
-350.493	-200.000	0.025	-0.181
-349.479	-200.000	0.016	-0.330
-348.464	273.721	-0.122	-0.215
-347.450	2.115	0.127	0.092
-346.435	800.000	0.013	-0.038
-345.420	164.301	-0.267	-0.377
-344.406	-200.000	-0.022	0.123
-343.391	-123.125	-0.133	-0.021
-342.377	-40.851	-0.286	-0.148
-341.362	-11.260	0.334	0.221
-340.348	56.155	0.067	0.065
-339.333	56.715	-0.193	0.188
-338.318	105.905	-0.071	0.084
-337.304	800.000	-0.011	-0.048
-336.289	116.962	0.341	0.420
-335.275	-200.000	-0.002	0.179
-334.260	27.877	-0.128	0.108
-333.245	-139.480	0.411	0.044
-332.231	130.243	-0.216	-0.277
-331.216	800.000	-0.065	0.279
-330.202	19.695	-0.158	0.128
-329.187	606.804	0.095	0.237
-328.172	93.738	-0.112	-0.127
-327.158	397.496	0.242	-0.506
-326.143	-130.243	0.207	0.028
-325.129	-200.000	-0.006	0.356
-324.114	-131.170	0.281	-0.037
-323.099	800.000	0.054	0.213
-322.085	112.269	-0.016	-0.019
-321.070	800.000	-0.118	0.331
-320.056	4.077	-0.183	0.134
-319.041	37.910	0.028	0.025
-318.026	800.000	0.047	0.154
-317.012	-200.000	-0.023	-0.160
-315.997	-139.338	0.310	0.033
-314.983	-200.000	0.238	0.001
-313.968	77.007	-0.140	-0.149
-312.953	142.747	0.272	-0.362
-311.939	36.298	-0.180	0.159
-310.924	152.004	0.136	0.185
-309.910	376.699	0.048	0.099
-308.895	440.098	-0.057	0.125
-307.880	51.855	0.162	0.155
-306.866	-200.000	0.001	0.107
-305.851	50.015	-0.048	0.045
-304.837	-47.311	0.214	0.104
-303.822	48.355	-0.075	0.070
-302.807	126.623	0.074	0.094
-301.793	-64.520	0.134	-0.054
-300.778	18.822	-0.168	0.135
-299.764	94.984	-0.204	-0.233
-298.749	-47.617	0.201	0.097
-297.735	800.000	-0.013	0.038
-296.720	-200.000	-0.003	0.254
-295.705	-97.510	0.230	0.060
-294.691	67.348	0.055	-0.056
-293.676	-200.000	0.009	-0.200
-292.662	20.674	0.102	-0.083
-291.647	-200.000	-0.062	-0.331
-290.632	-115.798	0.191	0.036
-289.618	145.666	-0.216	-0.290
-288.603	-124.465	-0.095	-0.015
-287.589	-200.000	-0.016	-0.121
-286.574	-93.427	-0.104	0.029
-285.559	-200.000	0.070	0.445
-284.545	-17.910	-0.140	0.088
-283.530	800.000	0.010	-0.031
-282.516	-20.989	0.275	0.168
-281.501	-132.656	0.258	-0.033
-280.486	-95.131	0.404	0.109
-279.472	800.000	-0.083	-0.250
-278.457	6.339	0.098	0.073
-277.443	15.674	-0.216	0.170
-276.428	-96.264	0.032	0.009
-275.413	-88.564	0.050	0.015
-274.399	169.696	0.083	0.119
-273.384	-200.000	0.031	-0.180
-272.370	-81.559	-0.050	0.016
-271.355	260.325	0.129	-0.223
-270.340	-77.759	0.067	0.023
-269.326	-200.000	-0.034	-0.422
-268.311	92.113	-0.103	0.116
-267.297	-102.247	-0.268	-0.064
-266.282	149.736	-0.199	-0.269
-265.267	72.717	-0.033	-0.034
-264.253	-4.895	-0.179	0.123
-263.238	800.000	0.019	-0.073
-262.224	-157.420	-0.198	-0.012
-261.209	800.000	0.056	0.160
-260.195	-200.000	0.006	0.047
-259.180	-140.715	0.267	0.028
-258.165	-200.000	-0.006	0.049
-257.151	-37.716	-0.043	0.023
-256.136	8.537	-0.119	0.089
-255.122	45.798	-0.195	0.180
-254.107	84.383	-0.085	0.093
-253.092	-129.998	0.150	0.021
-252.078	-104.982	-0.132	0.030
-251.063	-151.539	-0.376	0.028
-250.049	-123.704	-0.201	0.032
-249.034	-85.915	-0.223	-0.069
-248.019	-151.768	-0.106	-0.008
-247.005	-97.438	0.266	0.069
-245.990	-56.777	-0.122	0.054
-244.976	-200.000	0.050	-0.388
-243.961	5.022	-0.121	0.089
-242.946	525.583	0.095	0.224
-241.932	-92.890	0.266	0.074
-240.917	106.122	-0.073	0.086
-239.903	800.000	-0.043	-0.181
-238.888	800.000	-0.046	0.134
-237.873	-186.075	-0.023	-0.000
-236.859	-30.695	0.121	-0.069
-235.844	444.648	0.173	0.379
-234.830	-200.000	-0.030	-0.223
-233.815	-200.000	-0.010	0.067
-232.800	106.468	0.294	0.348
-231.786	800.000	0.011	0.041
-230.771	589.354	0.112	-0.276
-229.757	663.311	0.066	-0.169
-228.742	-93.755	0.253	0.070
-227.727	-200.000	-0.049	-0.350
-226.713	-200.000	-0.022	0.294
-225.698	-151.324	-0.157	0.012
-224.684	800.000	-0.105	0.294
-223.669	159.344	0.210	0.291
-222.655	358.204	-0.143	-0.285
-221.640	-123.858	0.420	0.066
-220.625	436.948	-0.028	0.061
-219.611	-83.205	-0.050	0.016
-218.596	36.818	0.054	0.048
-217.582	231.897	-0.048	0.078
-216.567	634.692	-0.104	0.264
-215.552	-200.000	-0.045	0.347
-214.538	-200.000	-0.040	-0.362
-213.523	129.886	0.140	-0.178
-212.509	-26.720	-0.410	-0.239
-211.494	6.976	0.433	-0.321
-210.479	-200.000	-0.001	0.106
-209.465	-81.640	0.065	-0.021
-208.450	-85.385	0.249	-0.077
-207.436	183.050	-0.189	0.277
-206.421	0.085	0.107	-0.076
-205.406	800.000	-0.076	0.312
-204.392	608.861	-0.121	0.301
-203.377	800.000	-0.018	0.071
-202.363	-200.000	-0.017	0.091
-201.348	-83.660	0.065	0.021
-200.333	-71.114	-0.273	0.102
-199.319	559.739	0.107	-0.257
-198.304	-14.294	0.178	0.114
-197.290	17.883	0.129	0.102
-196.275	13.791	0.142	-0.110
-195.260	99.781	-0.152	-0.175
-194.246	-23.479	0.111	0.066
-193.231	25.349	0.107	0.089
-192.217	-200.000	-0.207	0.000
-191.202	-78.668	0.045	0.015
-190.187	-200.000	-0.026	-0.206
-189.173	50.855	0.221	-0.209
-188.158	150.159	-0.145	0.195
-187.144	-200.000	-0.014	0.065
-186.129	-63.613	0.292	-0.119
-185.114	-86.144	-0.131	-0.040
-184.100	60.233	-0.174	0.171
-183.085	-20.974	0.383	0.234
-182.071	384.581	0.107	0.220
-181.056	800.000	-0.009	-0.026
-180.042	800.000	0.046	0.191
-179.027	-60.086	-0.219	-0.093
-178.012	-152.957	0.289	-0.020
-176.998	69.948	-0.190	-0.195
-175.983	61.073	-0.033	-0.032
-174.969	13.699	0.188	0.145
-173.954	-200.000	0.017	-0.234
-172.939	766.684	0.072	-0.196
-171.925	-67.432	0.291	0.114
-170.910	-33.671	0.365	-0.200
-169.896	-69.006	0.138	0.053
-168.881	800.000	-0.026	-0.092
-167.866	414.604	-0.052	0.110
-166.852	-200.000	-0.014	0.099
-165.837	-200.000	0.155	0.000
-164.823	33.018	0.236	0.203
-163.808	79.444	-0.200	0.213
-162.793	97.803	0.099	0.113
-161.779	-26.540	-0.316	0.184
-160.764	445.605	-0.125	0.272
-159.750	26.773	-0.093	-0.078
-158.735	800.000	0.020	-0.054
-157.720	16.236	0.107	-0.084
-156.706	-117.486	-0.107	-0.019
-155.691	367.108	-0.062	-0.124
-154.677	-124.432	-0.178	-0.028
-153.662	45.504	0.198	-0.181
-152.647	316.103	-0.189	0.354
-151.633	-153.798	-0.058	-0.004
-150.618	106.966	0.038	0.045
-149.604	161.819	0.226	-0.315
-148.589	401.770	-0.072	-0.151
-147.574	542.159	0.046	0.109
-146.560	-97.897	0.166	0.043
-145.545	-18.456	0.147	0.091
-144.531	299.359	0.069	0.127
-143.516	-200.000	-0.012	0.077
-142.502	32.324	-0.312	0.268
-141.487	91.867	0.121	0.136
-140.472	157.398	-0.126	0.173
-139.458	8.107	0.108	0.080
-138.443	-109.303	-0.112	-0.024
-137.429	800.000	-0.076	0.214
-136.414	27.449	-0.138	-0.115
-135.399	286.295	-0.085	0.152
-134.385	-19.889	0.278	0.171
-133.370	83.816	-0.083	-0.090
-132.356	-14.817	-0.195	0.124
-131.341	-153.213	-0.066	-0.005
-130.326	172.380	-0.075	-0.107
-129.312	307.044	0.079	-0.147
-128.297	-11.424	0.318	0.208
-127.283	800.000	-0.046	0.181
-126.268	17.336	0.119	0.094
-125.253	-200.000	0.040	0.221
-124.239	194.636	-0.103	0.155
-123.224	-200.000	-0.030	-0.189
-122.210	-200.000	-0.086	-0.390
-121.195	-200.000	0.049	-0.268
