DTS Sentinel unit serial number:	SN413079Multiplexer serial number:	ORYXHardware model number:	OX4-SRSoftware version number:	ORYX F/W v4.00 Oryx Data Collector v3.7.2.0data status	okinstallation	princeton_trtdifferential loss correction	single-endedforward channel	channel 1reverse channel	N/Adate	2019/09/14time	06:50:35forward acquisition time	60.00reverse acquisition time	0.00gamma	496.2192k internal	0.2337k external	0.2337temperature offset calibration	1.0079default loss term (dB/km)	0.3790temperature slope calibration	1.0000multiplexer offset coefficient	1.0000multiplexer slope coefficient	1.0000fibre end	0.00T internal ref (°C)	26.25T ext. ref 1 (°C)	3.43T ext. ref 2 (°C)	20.80length (m)	temperature (°C)	Stokes	anti-Stokes-747.200	-177.196	0.379	-0.009
-746.185	-200.000	0.020	0.146
-745.171	800.000	-0.122	0.362
-744.156	-54.726	-0.279	-0.127
-743.142	708.720	0.071	0.189
-742.127	-35.548	-0.213	0.116
-741.112	740.814	0.032	-0.087
-740.098	14.355	-0.313	-0.245
-739.083	-92.869	-0.168	0.047
-738.069	684.125	-0.165	0.433
-737.054	-21.703	0.144	-0.088
-736.039	-90.169	-0.235	0.069
-735.025	-32.489	-0.252	-0.141
-734.010	800.000	-0.049	-0.202
-732.996	-166.402	-0.375	0.016
-731.981	24.231	-0.078	0.065
-730.966	-200.000	0.007	-0.139
-729.952	-200.000	0.035	-0.261
-728.937	262.226	-0.122	-0.212
-727.923	-107.717	-0.100	0.022
-726.908	151.334	0.049	0.067
-725.894	72.031	0.102	-0.106
-724.879	146.201	-0.104	-0.140
-723.864	-68.008	-0.189	-0.074
-722.850	424.282	-0.097	0.210
-721.835	-38.462	0.170	-0.090
-720.821	-44.705	0.126	0.063
-719.806	-200.000	0.079	0.380
-718.791	-86.543	-0.145	0.045
-717.777	635.256	0.173	-0.441
-716.762	-68.698	0.202	-0.078
-715.748	-8.477	0.228	0.153
-714.733	-200.000	0.061	0.270
-713.718	121.835	-0.198	0.247
-712.704	94.173	-0.241	-0.275
-711.689	418.938	0.146	-0.313
-710.675	-200.000	-0.010	-0.060
-709.660	-31.151	-0.208	-0.118
-708.645	-200.000	0.026	0.162
-707.631	209.697	0.111	0.175
-706.616	109.635	0.176	-0.211
-705.602	-42.316	0.279	0.143
-704.587	-87.718	-0.154	-0.047
-703.572	-74.068	0.092	0.033
-702.558	768.714	-0.084	-0.230
-701.543	43.238	-0.147	0.135
-700.529	16.638	-0.100	-0.079
-699.514	-95.132	0.174	0.047
-698.499	-200.000	0.034	-0.197
-697.485	108.584	-0.118	-0.141
-696.470	-24.923	0.067	0.040
-695.456	-29.927	-0.253	-0.144
-694.441	-153.098	-0.229	0.016
-693.426	-41.966	0.298	-0.153
-692.412	-47.923	0.136	0.066
-691.397	-71.237	-0.223	-0.084
-690.383	87.352	-0.086	0.096
-689.368	-29.418	-0.054	-0.031
-688.354	-55.115	0.385	0.173
-687.339	140.550	0.225	-0.298
-686.324	-30.123	-0.111	-0.063
-685.310	-27.455	0.113	-0.066
-684.295	133.470	0.043	0.055
-683.281	-200.000	-0.038	0.188
-682.266	-121.558	0.354	0.059
-681.251	-74.963	-0.359	-0.129
-680.237	-77.612	0.017	-0.006
-679.222	-200.000	-0.001	-0.222
-678.208	-200.000	-0.052	-0.408
-677.193	-20.016	-0.150	0.093
-676.178	13.634	0.227	-0.176
-675.164	150.022	-0.125	-0.170
-674.149	-172.284	0.124	-0.004
-673.135	-58.616	0.084	-0.037
-672.120	-200.000	0.063	-0.313
-671.105	800.000	-0.074	-0.290
-670.091	54.768	0.100	0.097
-669.076	-165.953	-0.246	0.011
-668.062	-75.457	-0.156	0.055
-667.047	11.324	-0.336	-0.257
-666.032	269.788	-0.158	-0.278
-665.018	-15.388	0.354	0.227
-664.003	800.000	-0.154	0.430
-662.989	-42.305	0.271	-0.138
-661.974	-14.515	-0.257	-0.165
-660.959	16.337	-0.161	-0.127
-659.945	8.276	-0.242	-0.182
-658.930	114.150	-0.041	-0.050
-657.916	13.206	0.284	-0.220
-656.901	203.315	-0.127	-0.196
-655.886	800.000	0.029	-0.103
-654.872	141.499	0.076	0.100
-653.857	-10.727	-0.409	-0.270
-652.843	800.000	0.147	-0.419
-651.828	-106.425	-0.322	0.072
-650.814	-200.000	-0.001	0.112
-649.799	14.855	-0.270	0.211
-648.784	-4.383	-0.302	-0.209
-647.770	-200.000	0.006	0.052
-646.755	1.703	-0.282	0.203
-645.741	-102.083	0.246	0.059
-644.726	-111.187	-0.242	0.050
-643.711	301.667	0.065	0.120
-642.697	42.949	-0.012	0.011
-641.682	-200.000	0.014	0.311
-640.668	800.000	-0.091	0.272
-639.653	800.000	-0.043	0.144
-638.638	76.774	-0.112	0.119
-637.624	-200.000	-0.006	-0.185
-636.609	-115.750	-0.183	0.034
-635.595	-200.000	-0.008	-0.151
-634.580	-200.000	0.009	-0.180
-633.565	705.257	0.163	-0.429
-632.551	17.157	0.271	-0.215
-631.536	-96.652	0.128	0.034
-630.522	49.953	-0.190	0.179
-629.507	-200.000	0.023	-0.239
-628.492	-200.000	-0.011	0.062
-627.478	-144.460	-0.276	0.026
-626.463	-146.586	0.255	0.022
-625.449	-40.956	-0.164	-0.085
-624.434	-42.856	-0.176	0.089
-623.419	-200.000	-0.093	0.545
-622.405	-138.050	0.104	0.012
-621.390	239.104	-0.095	0.157
-620.376	-132.895	0.187	-0.024
-619.361	110.894	-0.031	0.038
-618.346	514.193	-0.204	-0.475
-617.332	-95.451	0.388	0.104
-616.317	70.764	0.132	0.136
-615.303	162.110	0.175	-0.245
-614.288	-118.635	0.530	0.093
-613.273	-27.135	-0.412	-0.240
-612.259	-110.011	-0.214	-0.045
-611.244	-30.440	0.159	-0.090
-610.230	233.541	0.139	0.228
-609.215	509.199	0.105	0.244
-608.201	71.684	0.087	-0.090
-607.186	-74.869	0.142	0.051
-606.171	-200.000	-0.323	-0.000
-605.157	467.571	-0.146	-0.328
-604.142	-200.000	0.031	0.274
-603.128	-79.589	0.213	-0.072
-602.113	-85.389	-0.281	0.087
-601.098	599.278	-0.041	0.102
-600.084	88.169	-0.121	-0.134
-599.069	495.388	-0.127	0.291
-598.055	47.355	-0.418	-0.389
-597.040	-30.297	0.200	0.113
-596.025	53.984	-0.133	-0.127
-595.011	-16.411	-0.128	0.081
-593.996	-84.194	-0.115	-0.036
-592.982	-105.651	0.139	-0.031
-591.967	-84.863	0.269	-0.084
-590.952	52.028	-0.345	-0.328
-589.938	372.309	-0.154	0.311
-588.923	-200.000	0.006	0.030
-587.909	-158.121	-0.310	0.018
-586.894	-145.925	0.139	-0.012
-585.879	-150.777	0.266	-0.020
-584.865	-18.896	-0.253	0.157
-583.850	-200.000	0.023	-0.203
-582.836	-95.743	0.112	-0.030
-581.821	-191.581	-0.328	0.003
-580.806	-200.000	0.055	0.301
-579.792	-79.801	-0.147	0.049
-578.777	800.000	0.047	-0.171
-577.763	-86.256	0.088	0.027
-576.748	448.455	0.146	0.322
-575.733	38.715	0.317	-0.283
-574.719	44.844	0.172	0.158
-573.704	-64.471	-0.394	-0.159
-572.690	770.539	0.051	0.139
-571.675	800.000	-0.092	-0.311
-570.661	327.066	-0.136	-0.260
-569.646	68.774	0.064	0.066
-568.631	5.825	0.178	0.131
-567.617	90.278	0.031	0.035
-566.602	345.826	-0.115	-0.225
-565.588	-200.000	0.024	0.272
-564.573	800.000	0.111	-0.371
-563.558	-145.920	0.109	0.010
-562.544	-30.258	-0.157	-0.089
-561.529	800.000	0.022	0.095
-560.515	-158.225	-0.346	-0.020
-559.500	186.536	-0.024	0.036
-558.485	-118.593	0.336	-0.059
-557.471	-174.968	-0.048	-0.001
-556.456	-127.827	-0.172	-0.025
-555.442	-169.914	0.142	0.005
-554.427	800.000	-0.070	0.248
-553.412	-135.560	0.251	0.030
-552.398	800.000	-0.049	0.138
-551.383	-200.000	-0.004	0.256
-550.369	-11.324	0.191	0.126
-549.354	371.291	-0.076	0.153
-548.339	-130.407	0.121	-0.016
-547.325	-200.000	0.010	0.186
-546.310	9.223	-0.240	-0.181
-545.296	-126.257	0.091	-0.014
-544.281	800.000	-0.006	-0.025
-543.266	30.288	-0.185	0.157
-542.252	-8.518	-0.256	-0.171
-541.237	800.000	-0.079	-0.258
-540.223	-93.963	-0.368	-0.101
-539.208	290.029	0.104	-0.188
-538.193	-36.633	-0.033	-0.018
-537.179	-28.389	0.136	-0.078
-536.164	798.613	0.073	-0.200
-535.150	-56.500	0.053	0.023
-534.135	33.017	0.071	-0.061
-533.121	-44.393	-0.061	-0.030
-532.106	18.689	-0.141	-0.112
-531.091	142.480	-0.142	-0.187
-530.077	356.657	-0.095	-0.189
-529.062	120.554	-0.071	0.088
-528.048	-40.856	0.146	-0.075
-527.033	-5.369	-0.202	-0.138
-526.018	-52.049	0.155	0.072
-525.004	-200.000	0.032	0.305
-523.989	-100.448	-0.033	0.008
-522.975	-200.000	0.047	-0.220
-521.960	-200.000	0.003	-0.117
-520.945	-88.592	0.439	-0.130
-519.931	-153.545	-0.094	-0.006
-518.916	57.137	-0.112	-0.109
-517.902	-111.374	0.123	0.025
-516.887	-130.023	0.199	0.027
-515.872	-106.729	-0.170	-0.038
-514.858	800.000	-0.100	0.382
-513.843	3.649	-0.166	0.121
-512.829	474.886	0.046	0.104
-511.814	-186.318	-0.152	-0.002
-510.799	141.729	-0.266	0.351
-509.785	-47.557	-0.335	-0.162
-508.770	473.898	0.084	0.189
-507.756	-120.175	-0.194	-0.033
-506.741	-200.000	0.007	0.029
-505.726	-122.579	-0.055	0.009
-504.712	109.884	-0.110	-0.131
-503.697	-73.341	-0.272	-0.099
-502.683	142.741	0.194	-0.256
-501.668	800.000	-0.040	-0.147
-500.653	-130.131	0.060	0.008
-499.639	81.899	0.193	0.207
-498.624	-100.387	-0.230	0.057
-497.610	-90.668	0.178	0.051
-496.595	105.716	-0.078	0.091
-495.581	-121.939	0.078	-0.013
-494.566	800.000	0.080	-0.236
-493.551	-71.456	-0.200	0.074
-492.537	-68.258	0.227	0.088
-491.522	-76.600	0.082	-0.028
-490.508	-106.324	0.360	-0.080
-489.493	9.681	0.056	-0.043
-488.478	419.973	-0.089	-0.189
-487.464	800.000	0.121	0.342
-486.449	800.000	-0.088	0.251
-485.435	-31.237	0.117	0.065
-484.420	-200.000	0.069	-0.361
-483.405	596.147	0.155	-0.382
-482.391	-128.822	0.061	0.008
-481.376	72.952	-0.094	-0.098
-480.362	-50.526	0.160	0.075
-479.347	-200.000	0.007	-0.134
-478.332	480.119	-0.135	0.304
-477.318	-74.818	0.218	0.078
-476.303	67.126	-0.081	0.082
-475.289	-200.000	0.019	-0.299
-474.274	800.000	0.061	0.248
-473.259	-5.776	0.167	0.113
-472.245	-74.995	-0.063	-0.023
-471.230	84.425	-0.077	0.084
-470.216	-128.553	0.130	-0.018
-469.201	-36.322	-0.142	-0.076
-468.186	112.321	-0.153	0.184
-467.172	148.226	0.201	0.269
-466.157	199.196	0.155	0.236
-465.143	-200.000	0.036	0.261
-464.128	-200.000	-0.037	-0.252
-463.113	-200.000	0.005	-0.247
-462.099	17.171	0.059	-0.046
-461.084	-151.927	0.175	-0.013
-460.070	-144.337	-0.301	-0.028
-459.055	508.540	0.095	0.220
-458.040	24.862	0.199	0.163
-457.026	-200.000	0.000	-0.039
-456.011	179.363	-0.042	-0.060
-454.997	-102.707	-0.150	0.036
-453.982	800.000	-0.065	-0.213
-452.968	220.398	-0.243	-0.387
-451.953	-166.703	-0.163	0.007
-450.938	111.961	-0.136	0.163
-449.924	-92.847	0.179	0.050
-448.909	-139.105	-0.297	0.032
-447.895	-45.164	0.262	-0.129
-446.880	-200.000	0.023	0.106
-445.865	285.117	-0.062	-0.112
-444.851	-119.247	-0.457	-0.079
-443.836	670.976	-0.079	-0.202
-442.822	-56.331	-0.142	0.062
-441.807	-123.456	0.282	-0.045
-440.792	0.481	0.146	0.104
-439.778	-200.000	-0.068	0.322
-438.763	-168.487	-0.429	-0.016
-437.749	-68.600	0.139	-0.053
-436.734	-45.210	0.279	-0.138
-435.719	-172.913	0.130	-0.004
-434.705	-37.573	0.202	0.107
-433.690	800.000	-0.037	-0.123
-432.676	0.331	0.235	-0.166
-431.661	565.917	-0.026	0.063
-430.646	-200.000	0.023	-0.258
-429.632	-48.231	0.182	-0.087
-428.617	371.964	0.097	-0.196
-427.603	-46.582	0.370	-0.180
-426.588	-92.821	-0.226	-0.063
-425.573	-76.912	-0.164	-0.057
-424.559	227.684	-0.112	0.180
-423.544	167.232	-0.232	0.327
-422.530	-200.000	0.040	0.243
-421.515	800.000	-0.063	-0.191
-420.500	-198.631	0.142	0.001
-419.486	118.146	0.137	-0.168
-418.471	-200.000	0.020	-0.147
-417.457	-106.134	-0.211	-0.047
-416.442	20.277	0.171	-0.137
-415.428	-77.304	0.031	-0.011
-414.413	52.478	0.061	0.058
-413.398	70.926	-0.156	0.160
-412.384	800.000	-0.100	0.275
-411.369	-200.000	-0.008	-0.063
-410.355	33.858	-0.233	-0.201
-409.340	64.855	0.087	-0.087
-408.325	-18.216	0.166	-0.103
-407.311	-6.379	0.068	0.046
-406.296	-154.202	0.152	-0.010
-405.282	237.492	-0.197	0.323
-404.267	188.992	-0.209	0.309
-403.252	-153.194	0.283	-0.020
-402.238	-200.000	0.048	-0.341
-401.223	425.763	0.048	-0.102
-400.209	-200.000	-0.019	-0.095
-399.194	-31.437	0.224	-0.125
-398.179	72.195	-0.236	0.243
-397.165	58.450	0.199	0.193
-396.150	-58.720	0.166	0.071
-395.136	-164.545	-0.508	-0.023
-394.121	-200.000	0.061	0.270
-393.106	-72.172	-0.167	0.061
-392.092	-39.193	0.293	-0.152
-391.077	39.621	-0.066	-0.059
-390.063	-86.130	-0.168	-0.051
-389.048	118.472	-0.118	0.144
-388.033	-200.000	0.020	-0.087
-387.019	358.010	0.079	0.156
-386.004	800.000	-0.063	0.197
-384.990	132.730	0.136	0.174
-383.975	-73.835	0.582	-0.209
-382.960	-200.000	-0.042	-0.216
-381.946	-153.672	-0.117	-0.008
-380.931	-162.151	0.290	0.014
-379.917	-24.608	-0.311	0.183
-378.902	-78.034	-0.267	-0.091
-377.888	-18.450	-0.072	-0.045
-376.873	-61.078	0.224	0.093
-375.858	-55.832	0.120	-0.053
-374.844	-200.000	0.355	0.001
-373.829	-74.324	0.396	0.142
-372.815	272.037	-0.142	-0.247
-371.800	-47.295	0.219	0.105
-370.785	81.970	-0.192	-0.206
-369.771	-42.667	-0.255	-0.128
-368.756	798.353	-0.086	0.234
-367.742	-35.187	0.304	0.164
-366.727	26.724	-0.123	0.102
-365.712	65.913	-0.040	0.040
-364.698	281.153	0.094	-0.166
-363.683	-200.000	-0.001	-0.092
-362.669	-200.000	-0.003	0.058
-361.654	-200.000	0.055	-0.308
-360.639	-200.000	-0.017	-0.203
-359.625	-82.282	-0.353	-0.114
-358.610	28.316	-0.212	-0.177
-357.596	-152.226	0.163	-0.012
-356.581	648.075	0.102	-0.257
-355.566	-200.000	0.004	0.052
-354.552	-88.472	-0.180	-0.053
-353.537	-21.373	0.241	0.145
-352.523	485.435	0.088	-0.199
-351.508	252.544	0.057	0.096
-350.493	-14.813	-0.068	-0.043
-349.479	-71.492	0.291	0.108
-348.464	384.379	0.189	0.385
-347.450	-108.455	-0.120	-0.025
-346.435	-79.642	-0.089	0.030
-345.420	-200.000	0.017	0.301
-344.406	-132.235	-0.232	-0.030
-343.391	-200.000	0.027	0.225
-342.377	-200.000	0.014	0.140
-341.362	-200.000	0.257	0.001
-340.348	-167.910	0.234	0.009
-339.333	-2.199	-0.055	-0.038
-338.318	-200.000	-0.001	0.044
-337.304	3.784	-0.188	0.135
-336.289	-37.823	-0.252	-0.132
-335.275	58.576	0.098	-0.095
-334.260	161.723	-0.066	0.091
-333.245	-200.000	-0.021	-0.131
-332.231	800.000	-0.032	-0.088
-331.216	-83.203	0.117	-0.037
-330.202	-200.000	0.059	0.293
-329.187	800.000	0.055	-0.160
-328.172	-0.579	-0.170	-0.119
-327.158	800.000	0.068	-0.267
-326.143	-185.008	0.220	0.003
-325.129	800.000	0.035	-0.112
-324.114	-63.068	-0.125	-0.051
-323.099	93.865	0.122	0.136
-322.085	800.000	-0.054	0.181
-321.070	390.331	-0.055	-0.112
-320.056	666.057	-0.189	-0.483
-319.041	-13.188	-0.131	-0.084
-318.026	307.973	0.038	-0.071
-317.012	-45.206	0.202	0.099
-315.997	800.000	0.043	0.171
-314.983	-200.000	-0.002	0.058
-313.968	-120.696	-0.127	0.021
-312.953	-110.808	-0.180	0.037
-311.939	431.878	-0.048	0.102
-310.924	195.511	-0.062	0.093
-309.910	-200.000	0.188	0.000
-308.895	263.449	0.105	0.179
-307.880	-200.000	0.043	-0.307
-306.866	800.000	0.059	-0.230
-305.851	-200.000	-0.048	-0.227
-304.837	259.807	0.048	-0.082
-303.822	-134.347	-0.157	0.019
-302.807	-89.768	-0.045	-0.013
-301.793	82.207	0.249	-0.266
-300.778	-200.000	-0.043	-0.313
-299.764	83.209	0.038	0.041
-298.749	-26.707	0.173	-0.100
-297.735	-200.000	0.037	0.276
-296.720	20.624	-0.132	-0.106
-295.705	-66.672	0.037	0.015
-294.691	175.630	0.153	-0.219
-293.676	800.000	0.028	0.088
-292.662	800.000	-0.110	0.346
-291.647	-190.934	-0.302	0.003
-290.632	305.406	-0.142	0.260
-289.618	-89.000	-0.296	0.086
-288.603	-200.000	0.026	-0.261
-287.589	-200.000	0.042	-0.187
-286.574	-200.000	0.074	-0.465
-285.559	-200.000	0.005	0.057
-284.545	-52.468	0.091	-0.042
-283.530	-130.612	0.287	0.038
-282.516	-87.014	0.295	0.089
-281.501	25.293	0.190	0.156
-280.486	-200.000	0.054	-0.303
-279.472	-19.489	0.038	0.023
-278.457	582.270	0.150	0.364
-277.443	-93.225	0.201	0.055
-276.428	-48.425	0.088	-0.042
-275.413	800.000	0.020	-0.065
-274.399	-200.000	0.000	-0.034
-273.384	800.000	-0.029	-0.121
-272.370	-86.861	-0.271	-0.082
-271.355	-88.554	0.279	0.082
-270.340	-67.511	0.052	-0.020
-269.326	147.085	-0.146	-0.194
-268.311	499.849	-0.197	-0.448
-267.297	4.239	-0.147	-0.106
-266.282	-173.473	-0.067	0.002
-265.267	-97.435	0.261	0.067
-264.253	-200.000	0.043	-0.186
-263.238	144.758	-0.097	-0.128
-262.224	-200.000	-0.049	0.266
-261.209	-200.000	0.005	-0.227
-260.195	-54.616	-0.337	0.150
-259.180	-122.401	0.508	-0.082
-258.165	83.849	-0.344	0.370
-257.151	175.615	-0.054	-0.078
-256.136	-200.000	-0.065	0.532
-255.122	-200.000	0.013	0.198
-254.107	-97.654	-0.240	-0.061
-253.092	800.000	-0.107	0.364
-252.078	243.277	-0.014	-0.023
-251.063	55.427	0.217	0.207
-250.049	27.934	-0.130	0.108
-249.034	-37.979	0.097	0.051
-248.019	-67.730	0.288	-0.111
-247.005	66.378	0.032	-0.032
-245.990	6.325	-0.291	-0.212
-244.976	524.689	-0.153	0.355
-243.961	350.412	-0.103	-0.201
-242.946	620.749	-0.072	0.179
-241.932	23.208	0.297	0.240
-240.917	388.742	-0.030	-0.061
-239.903	-137.514	0.228	-0.025
-238.888	-200.000	-0.050	0.221
-237.873	800.000	-0.059	0.164
-236.859	-66.736	0.119	0.046
-235.844	-200.000	0.006	0.058
-234.830	93.287	-0.122	0.136
-233.815	-107.611	-0.284	0.061
-232.800	-200.000	-0.018	0.097
-231.786	107.389	-0.165	0.194
-230.771	-169.058	0.231	0.008
-229.757	-88.692	-0.103	0.030
-228.742	-78.876	-0.180	-0.060
-227.727	800.000	-0.061	0.234
-226.713	79.004	0.095	-0.100
-225.698	23.118	-0.146	0.118
-224.684	448.332	-0.045	-0.098
-223.669	-200.000	0.029	-0.241
-222.655	-200.000	-0.012	-0.294
-221.640	42.370	0.284	0.254
-220.625	-200.000	0.035	-0.189
-219.611	-159.010	0.383	-0.021
-218.596	-104.542	0.188	0.043
-217.582	30.574	0.274	-0.230
-216.567	-40.248	-0.119	-0.061
-215.552	-117.501	0.401	0.071
-214.538	179.017	-0.058	-0.083
-213.523	109.843	-0.150	0.177
-212.509	-24.242	-0.063	0.037
-211.494	-6.644	0.372	-0.249
-210.479	134.638	0.300	-0.383
-209.465	-200.000	-0.040	-0.272
-208.450	-66.561	0.117	0.046
-207.436	512.173	-0.053	0.121
-206.421	-200.000	0.018	0.082
-205.406	-200.000	0.041	-0.282
-204.392	3.107	0.222	-0.159
-203.377	-137.649	0.299	0.033
-202.363	4.440	0.162	-0.117
-201.348	422.974	-0.058	-0.123
-200.333	-200.000	-0.025	-0.323
-199.319	188.613	0.111	0.164
-198.304	-120.770	-0.170	-0.028
-197.290	91.205	0.040	0.044
-196.275	-200.000	0.016	-0.086
-195.260	800.000	0.082	0.296
-194.246	-26.166	-0.236	0.136
-193.231	-200.000	0.010	0.256
-192.217	-200.000	0.019	0.277
-191.202	800.000	-0.077	-0.218
-190.187	-87.577	-0.139	0.041
-189.173	-200.000	0.027	0.136
-188.158	43.256	0.236	-0.212
-187.144	800.000	-0.085	0.249
-186.129	-116.960	-0.214	0.038
-185.114	-11.717	0.182	0.117
-184.100	-95.383	0.243	0.064
-183.085	-100.406	-0.446	-0.109
-182.071	-50.506	0.093	-0.043
-181.056	-160.631	0.120	0.006
-180.042	11.252	-0.126	-0.094
-179.027	-91.281	-0.165	-0.046
-178.012	66.366	0.120	-0.119
-176.998	763.886	0.166	-0.443
-175.983	292.080	-0.176	-0.315
-174.969	-35.337	-0.173	0.093
-173.954	-41.993	0.114	0.057
-172.939	-45.318	-0.127	0.062
-171.925	369.764	-0.052	0.103
-170.910	-80.149	-0.094	-0.031
-169.896	-153.584	-0.261	0.018
-168.881	102.972	0.231	0.266
-167.866	676.049	-0.092	0.234
-166.852	87.866	-0.110	-0.120
-165.837	800.000	-0.061	-0.179
-164.823	800.000	-0.074	-0.216
-163.808	-81.125	-0.246	0.080
-162.793	-200.000	-0.006	0.433
-161.779	201.381	-0.112	0.169
-160.764	93.335	-0.139	-0.154
-159.750	800.000	0.047	-0.131
-158.735	-0.380	0.164	-0.114
-157.720	118.400	0.105	0.127
-156.706	19.696	0.210	0.166
-155.691	-66.037	0.326	0.128
-154.677	35.727	-0.234	-0.201
-153.662	441.805	-0.101	0.216
-152.647	30.272	-0.481	0.403
-151.633	467.393	0.211	0.465
-150.618	800.000	0.061	0.183
-149.604	179.482	-0.127	-0.182
-148.589	-200.000	0.032	0.147
-147.574	-170.036	0.349	0.012
-146.560	800.000	0.076	-0.270
-145.545	-6.420	-0.364	-0.244
-144.531	-148.500	-0.184	-0.015
-143.516	-31.943	-0.275	0.151
-142.502	-87.867	0.134	0.040
-141.487	185.800	-0.084	0.122
-140.472	620.194	0.099	0.245
-139.458	-200.000	0.007	0.087
-138.443	-62.015	-0.265	-0.108
-137.429	-107.490	0.571	0.123
-136.414	65.012	-0.093	0.093
-135.399	211.940	-0.120	0.186
-134.385	-21.355	0.245	-0.147
-133.370	65.557	-0.042	-0.042
-132.356	-200.000	0.040	-0.363
-131.341	173.993	-0.188	-0.266
-130.326	-183.056	-0.210	-0.004
-129.312	-1.748	0.128	0.089
-128.297	-79.798	-0.219	0.072
-127.283	-200.000	-0.034	0.204
-126.268	800.000	-0.089	-0.247
-125.253	-85.642	-0.319	0.097
-124.239	-13.372	0.132	-0.084
-123.224	250.996	0.068	0.114
-122.210	285.460	-0.132	0.234
-121.195	83.367	-0.364	-0.388
