DTS Sentinel unit serial number:	SN413079Multiplexer serial number:	ORYXHardware model number:	OX4-SRSoftware version number:	ORYX F/W v4.00 Oryx Data Collector v3.7.2.0data status	okinstallation	princeton_trtdifferential loss correction	single-endedforward channel	channel 1reverse channel	N/Adate	2019/09/15time	18:50:35forward acquisition time	60.00reverse acquisition time	0.00gamma	496.2192k internal	0.2289k external	0.2289temperature offset calibration	0.9936default loss term (dB/km)	0.3790temperature slope calibration	1.0000multiplexer offset coefficient	1.0000multiplexer slope coefficient	1.0000fibre end	0.00T internal ref (°C)	43.03T ext. ref 1 (°C)	6.94T ext. ref 2 (°C)	33.81length (m)	temperature (°C)	Stokes	anti-Stokes-747.200	410.738	0.076	-0.165
-746.185	800.000	-0.130	0.539
-745.171	-200.000	-0.022	0.317
-744.156	46.199	0.331	0.315
-743.142	-72.698	0.221	0.084
-742.127	48.776	0.321	0.309
-741.112	-125.174	-0.275	0.043
-740.098	293.602	0.019	0.035
-739.083	800.000	-0.045	0.164
-738.069	-7.440	-0.217	-0.150
-737.054	800.000	0.053	-0.166
-736.039	-8.337	-0.462	0.319
-735.025	800.000	0.066	0.267
-734.010	-166.703	-0.386	0.016
-732.996	-118.243	-0.201	0.037
-731.981	325.304	-0.092	-0.180
-730.966	30.242	-0.184	-0.161
-729.952	83.963	-0.201	-0.225
-728.937	380.416	-0.107	0.225
-727.923	319.984	-0.130	0.253
-726.908	-27.180	-0.268	-0.160
-725.894	71.459	0.188	0.200
-724.879	-76.131	0.235	0.085
-723.864	-18.271	-0.328	-0.210
-722.850	-81.606	-0.304	0.102
-721.835	800.000	0.025	0.074
-720.821	-96.416	0.320	-0.086
-719.806	-120.837	-0.135	-0.023
-718.791	-130.412	-0.268	-0.037
-717.777	-57.258	-0.353	-0.159
-716.762	62.172	0.069	0.070
-715.748	785.238	0.080	-0.224
-714.733	107.275	-0.113	-0.138
-713.718	131.527	0.182	0.240
-712.704	-154.348	-0.154	0.011
-711.689	41.791	0.371	-0.344
-710.675	-200.000	0.032	-0.198
-709.660	-200.000	-0.003	-0.019
-708.645	800.000	-0.047	0.159
-707.631	-26.712	0.188	-0.112
-706.616	-200.000	-0.002	0.106
-705.602	58.237	-0.256	-0.256
-704.587	287.643	-0.021	-0.039
-703.572	181.472	0.143	0.215
-702.558	161.245	0.086	0.123
-701.543	-92.761	0.319	-0.091
-700.529	800.000	-0.034	-0.119
-699.514	-51.417	0.091	-0.043
-698.499	-45.690	-0.277	-0.140
-697.485	-89.643	-0.190	0.057
-696.470	40.951	-0.100	-0.093
-695.456	-200.000	0.080	-0.398
-694.441	26.550	0.186	-0.159
-693.426	23.908	0.167	-0.141
-692.412	-102.199	0.426	0.105
-691.397	-169.773	-0.190	0.007
-690.383	-27.640	-0.154	0.091
-689.368	348.686	0.218	-0.439
-688.354	-200.000	-0.021	-0.334
-687.339	25.465	-0.238	0.202
-686.324	-200.000	-0.021	-0.111
-685.310	447.849	-0.159	-0.359
-684.295	229.229	-0.143	-0.238
-683.281	-46.576	-0.156	0.078
-682.266	-114.710	0.158	-0.031
-681.251	-115.915	0.104	0.020
-680.237	529.603	0.104	0.251
-679.222	-178.133	0.056	0.001
-678.208	-86.925	0.135	-0.042
-677.193	-83.803	0.156	0.051
-676.178	-200.000	-0.015	-0.251
-675.164	-70.463	-0.160	-0.062
-674.149	11.470	0.128	0.100
-673.135	-68.465	0.446	-0.177
-672.120	-200.000	-0.009	-0.412
-671.105	58.544	0.145	0.145
-670.091	-200.000	0.004	-0.238
-669.076	-113.214	-0.315	0.063
-668.062	-85.631	-0.048	0.015
-667.047	-71.923	-0.044	0.017
-666.032	279.972	-0.092	-0.168
-665.018	-200.000	0.030	-0.235
-664.003	-10.384	-0.286	-0.193
-662.989	-119.899	0.198	0.035
-661.974	-34.865	-0.333	-0.186
-660.959	-200.000	0.003	-0.237
-659.945	-200.000	-0.022	0.196
-658.930	-47.813	0.124	-0.061
-657.916	-112.223	-0.349	0.072
-656.901	-43.522	0.150	-0.077
-655.886	271.635	-0.141	-0.254
-654.872	-200.000	0.033	-0.269
-653.857	111.239	-0.015	0.019
-652.843	-119.165	-0.240	-0.043
-651.828	106.842	-0.342	0.415
-650.814	-200.000	0.007	-0.045
-649.799	-17.110	-0.246	-0.158
-648.784	-30.077	-0.386	-0.224
-647.770	-66.940	-0.160	-0.065
-646.755	-129.571	-0.079	0.011
-645.741	-200.000	-0.024	-0.269
-644.726	211.006	0.206	-0.330
-643.711	91.924	0.044	0.050
-642.697	-53.916	-0.274	-0.128
-641.682	21.974	-0.302	0.251
-640.668	-108.397	-0.162	0.036
-639.653	-151.954	0.206	0.015
-638.638	-129.246	0.128	0.018
-637.624	-114.830	0.215	0.042
-636.609	125.039	-0.020	-0.026
-635.595	-159.552	-0.234	0.013
-634.580	68.843	0.076	-0.080
-633.565	47.416	-0.209	0.199
-632.551	-31.164	0.423	0.243
-631.536	-104.656	-0.183	0.043
-630.522	-200.000	-0.006	0.394
-629.507	-200.000	0.037	-0.319
-628.492	-62.465	-0.243	0.103
-627.478	-200.000	0.029	0.236
-626.463	-106.709	-0.033	-0.007
-625.449	-107.433	-0.011	-0.002
-624.434	92.394	-0.312	-0.359
-623.419	-84.165	-0.334	-0.108
-622.405	19.597	0.154	-0.126
-621.390	-200.000	-0.159	0.000
-620.376	234.267	-0.089	0.150
-619.361	-77.526	-0.140	-0.050
-618.346	200.143	0.135	0.211
-617.332	-59.854	-0.191	-0.083
-616.317	-200.000	0.026	0.134
-615.303	-45.493	-0.189	0.096
-614.288	11.992	-0.108	-0.085
-613.273	-200.000	-0.017	0.420
-612.259	-200.000	-0.076	0.343
-611.244	800.000	-0.150	-0.503
-610.230	235.578	0.020	-0.034
-609.215	385.862	-0.083	-0.174
-608.201	-133.953	-0.316	0.040
-607.186	-116.752	-0.081	-0.015
-606.171	-8.495	-0.035	-0.024
-605.157	394.861	0.147	0.312
-604.142	381.486	-0.153	-0.320
-603.128	-138.989	-0.217	-0.024
-602.113	26.138	-0.308	-0.262
-601.098	-185.120	-0.031	0.000
-600.084	-156.970	-0.177	0.011
-599.069	-45.281	0.238	-0.120
-598.055	-63.341	0.186	0.078
-597.040	-97.501	-0.181	0.048
-596.025	-143.669	-0.286	0.028
-595.011	282.853	0.150	0.273
-593.996	-200.000	-0.011	0.076
-592.982	446.783	-0.186	-0.416
-591.967	-3.964	0.162	-0.114
-590.952	638.730	0.099	0.256
-589.938	-176.249	-0.146	0.004
-588.923	-200.000	0.324	-0.002
-587.909	-200.000	-0.014	-0.078
-586.894	-119.557	-0.355	-0.063
-585.879	-47.585	-0.271	-0.134
-584.865	-22.273	0.187	0.115
-583.850	-27.673	0.115	-0.068
-582.836	748.004	0.056	0.155
-581.821	33.327	-0.230	0.204
-580.806	11.919	0.269	0.211
-579.792	-96.435	0.194	-0.052
-578.777	-48.944	-0.218	0.106
-577.763	-134.015	0.412	-0.052
-576.748	800.000	-0.082	-0.274
-575.733	800.000	-0.011	-0.032
-574.719	-41.343	0.228	0.120
-573.704	7.347	-0.064	-0.049
-572.690	-26.155	-0.148	-0.089
-571.675	800.000	0.032	0.113
-570.661	239.326	-0.162	0.274
-569.646	-92.237	-0.403	0.116
-568.631	60.571	-0.095	-0.096
-567.617	-47.602	0.145	-0.072
-566.602	-110.414	0.345	-0.073
-565.588	-65.572	-0.372	0.152
-564.573	-116.794	-0.155	0.029
-563.558	-79.369	0.430	-0.148
-562.544	71.981	-0.157	-0.167
-561.529	187.127	-0.090	-0.137
-560.515	-134.988	0.302	-0.037
-559.500	-28.911	-0.249	-0.145
-558.485	214.872	0.129	0.209
-557.471	60.497	-0.144	-0.145
-556.456	-155.817	-0.184	0.012
-555.442	165.131	0.045	-0.064
-554.427	-139.717	0.429	0.046
-553.412	-104.656	0.089	0.021
-552.398	394.163	-0.068	0.144
-551.383	596.130	0.119	0.301
-550.369	800.000	0.015	0.051
-549.354	49.820	0.248	0.238
-548.339	-43.787	0.167	0.085
-547.325	51.090	0.110	-0.106
-546.310	619.322	0.075	0.193
-545.296	514.631	-0.165	-0.391
-544.281	15.756	-0.148	-0.118
-543.266	60.818	-0.146	-0.148
-542.252	28.130	0.168	0.144
-541.237	188.487	-0.175	0.266
-540.223	-7.855	0.144	-0.099
-539.208	533.620	-0.020	-0.049
-538.193	-48.256	-0.362	-0.178
-537.179	800.000	-0.065	-0.183
-536.164	-200.000	-0.028	0.142
-535.150	-34.306	-0.214	0.120
-534.135	-151.073	0.076	0.006
-533.121	800.000	-0.074	0.261
-532.106	58.711	0.016	0.016
-531.091	-8.757	-0.063	-0.043
-530.077	0.583	0.300	-0.218
-529.062	157.564	-0.103	0.145
-528.048	-52.372	0.168	-0.079
-527.033	-2.644	0.163	0.116
-526.018	-136.290	0.025	0.003
-525.004	-129.171	0.135	-0.019
-523.989	640.609	0.026	0.067
-522.975	19.409	-0.084	0.068
-521.960	171.782	-0.086	-0.125
-520.945	-200.000	0.024	-0.139
-519.931	-113.464	-0.245	-0.049
-518.916	-200.000	-0.003	0.164
-517.902	-200.000	-0.025	-0.137
-516.887	362.873	0.040	0.081
-515.872	162.410	-0.052	0.074
-514.858	123.816	-0.169	0.215
-513.843	57.550	-0.113	-0.112
-512.829	800.000	0.042	0.182
-511.814	-21.942	-0.173	0.107
-510.799	-104.300	-0.325	0.076
-509.785	359.392	0.057	-0.116
-508.770	375.645	0.068	-0.141
-507.756	-103.314	-0.442	-0.106
-506.741	-49.472	-0.065	-0.031
-505.726	-111.102	0.103	0.021
-504.712	-200.000	0.000	0.198
-503.697	371.696	0.161	-0.332
-502.683	88.259	-0.225	-0.253
-501.668	-140.253	-0.269	-0.029
-500.653	2.839	0.180	-0.132
-499.639	73.542	-0.130	-0.138
-498.624	78.089	-0.135	-0.146
-497.610	-200.000	0.035	-0.157
-496.595	-6.037	-0.128	0.089
-495.581	800.000	-0.045	-0.184
-494.566	395.021	-0.072	-0.153
-493.551	-62.620	0.807	0.340
-492.537	-139.485	-0.378	-0.041
-491.522	-84.619	0.053	0.017
-490.508	-72.845	0.091	-0.034
-489.493	101.011	0.116	0.137
-488.478	-82.836	0.211	-0.069
-487.464	243.783	0.027	-0.046
-486.449	443.238	0.064	0.143
-485.435	-128.658	0.267	-0.038
-484.420	-14.117	-0.178	0.116
-483.405	-84.352	0.101	0.033
-482.391	222.956	0.091	-0.149
-481.376	800.000	0.108	0.377
-480.362	62.827	-0.045	0.046
-479.347	133.244	-0.406	-0.533
-478.332	253.535	-0.066	-0.114
-477.318	31.722	-0.095	-0.083
-476.303	136.042	0.102	-0.135
-475.289	419.190	-0.038	0.082
-474.274	473.843	-0.049	0.112
-473.259	391.026	-0.049	0.103
-472.245	293.989	-0.033	0.062
-471.230	252.920	-0.082	0.142
-470.216	-200.000	-0.015	0.377
-469.201	-200.000	0.021	0.222
-468.186	-200.000	-0.002	-0.279
-467.172	800.000	-0.085	-0.244
-466.157	-115.833	-0.271	-0.051
-465.143	-60.243	-0.256	-0.111
-464.128	-123.091	0.195	-0.032
-463.113	-31.133	0.174	-0.100
-462.099	255.629	0.171	0.298
-461.084	187.518	0.037	0.056
-460.070	-126.887	0.271	0.040
-459.055	590.323	0.101	0.251
-458.040	-129.923	-0.190	0.026
-457.026	27.249	0.199	0.169
-456.011	492.676	0.202	0.469
-454.997	673.360	0.058	0.152
-453.982	-187.336	0.280	-0.004
-452.968	12.955	-0.337	-0.264
-451.953	44.556	0.125	0.116
-450.938	800.000	0.059	0.181
-449.924	164.721	-0.290	0.414
-448.909	800.000	0.111	0.440
-447.895	-200.000	-0.014	-0.162
-446.880	785.208	0.102	-0.283
-445.865	52.707	0.122	-0.118
-444.851	800.000	-0.103	-0.397
-443.836	-56.716	0.272	-0.122
-442.822	5.605	0.081	-0.060
-441.807	-76.515	-0.154	-0.055
-440.792	-44.094	0.367	-0.187
-439.778	-149.295	0.353	0.029
-438.763	-58.768	-0.157	-0.069
-437.749	262.484	0.112	-0.197
-436.734	124.804	0.186	0.237
-435.719	-200.000	0.029	0.273
-434.705	134.083	-0.186	-0.244
-433.690	-36.766	0.152	0.082
-432.676	-200.000	-0.062	0.400
-431.661	73.061	-0.144	-0.152
-430.646	-168.439	-0.217	-0.008
-429.632	-73.270	-0.198	0.074
-428.617	-98.223	0.081	0.021
-427.603	398.735	-0.045	-0.096
-426.588	85.632	-0.240	-0.267
-425.573	458.993	0.089	-0.201
-424.559	364.718	0.079	-0.161
-423.544	127.669	0.164	0.210
-422.530	-200.000	0.032	0.449
-421.515	800.000	-0.109	0.374
-420.500	-85.886	0.329	0.103
-419.486	-60.751	0.126	0.054
-418.471	-140.181	0.342	-0.036
-417.457	800.000	-0.053	-0.205
-416.442	242.585	-0.058	0.098
-415.428	-200.000	-0.021	0.219
-414.413	42.730	0.185	-0.170
-413.398	-38.004	-0.253	-0.136
-412.384	-200.000	0.006	0.049
-411.369	3.495	-0.051	0.037
-410.355	-57.570	0.127	0.056
-409.340	800.000	0.059	0.212
-408.325	1.845	-0.047	0.034
-407.311	-165.591	-0.317	-0.014
-406.296	494.145	0.034	-0.079
-405.282	800.000	-0.043	-0.183
-404.267	-99.530	0.150	-0.038
-403.252	-200.000	-0.093	-0.461
-402.238	-107.403	0.118	0.026
-401.223	-200.000	-0.021	0.093
-400.209	70.201	0.184	0.193
-399.194	-67.239	-0.305	-0.121
-398.179	-200.000	0.007	-0.300
-397.165	800.000	0.132	-0.449
-396.150	800.000	-0.009	0.035
-395.136	-40.003	-0.098	-0.052
-394.121	800.000	0.185	0.533
-393.106	257.094	0.069	-0.119
-392.092	-48.729	-0.359	-0.174
-391.077	104.920	-0.297	-0.354
-390.063	88.867	-0.102	-0.114
-389.048	-24.503	0.179	-0.108
-388.033	551.551	-0.072	0.174
-387.019	-172.100	0.283	0.009
-386.004	112.424	0.086	-0.105
-384.990	-108.497	0.212	0.046
-383.975	51.536	-0.083	0.079
-382.960	113.590	-0.093	-0.114
-381.946	-18.827	0.290	0.182
-380.931	319.202	-0.053	0.102
-379.917	-14.678	-0.045	0.029
-378.902	60.959	-0.343	0.344
-377.888	-200.000	0.047	0.407
-376.873	-200.000	-0.014	0.158
-375.858	298.031	0.044	0.082
-374.844	-200.000	0.018	0.089
-373.829	-101.105	-0.434	-0.107
-372.815	-200.000	-0.015	0.095
-371.800	4.674	-0.071	-0.052
-370.785	-118.668	0.154	0.027
-369.771	101.637	-0.076	0.090
-368.756	45.381	0.203	0.189
-367.742	-46.920	0.013	-0.007
-366.727	-200.000	-0.011	0.149
-365.712	-200.000	-0.009	0.084
-364.698	-56.867	-0.178	-0.079
-363.683	-200.000	-0.062	0.277
-362.669	540.150	0.099	0.238
-361.654	-7.188	0.036	-0.024
-360.639	310.050	-0.089	-0.168
-359.625	-109.605	-0.289	-0.062
-358.610	17.657	-0.272	-0.219
-357.596	-107.442	0.040	0.009
-356.581	-38.408	-0.119	0.064
-355.566	53.574	0.222	0.215
-354.552	-23.306	0.227	0.137
-353.537	-200.000	-0.004	-0.122
-352.523	441.781	0.078	-0.172
-351.508	106.312	0.083	-0.099
-350.493	112.324	-0.163	0.198
-349.479	-200.000	-0.050	-0.245
-348.464	318.489	-0.040	0.077
-347.450	-200.000	-0.011	0.166
-346.435	40.192	0.392	0.356
-345.420	331.488	0.050	-0.097
-344.406	-200.000	0.005	-0.236
-343.391	800.000	-0.062	-0.271
-342.377	-116.787	0.163	0.030
-341.362	-41.025	-0.171	-0.089
-340.348	-60.858	-0.200	-0.085
-339.333	800.000	-0.042	-0.157
-338.318	-19.056	0.030	-0.019
-337.304	-99.619	0.153	-0.039
-336.289	6.749	-0.107	0.081
-335.275	-161.369	0.483	-0.025
-334.260	-200.000	0.045	0.399
-333.245	287.151	-0.150	-0.273
-332.231	-200.000	0.011	-0.126
-331.216	800.000	-0.090	0.290
-330.202	-61.072	0.233	-0.099
-329.187	19.714	0.066	0.053
-328.172	-78.420	0.483	-0.167
-327.158	-50.114	0.016	0.008
-326.143	-20.843	-0.216	-0.133
-325.129	8.782	-0.114	-0.086
-324.114	314.277	-0.086	0.163
-323.099	-113.839	-0.171	0.034
-322.085	-63.832	0.041	-0.017
-321.070	-200.000	-0.029	-0.155
-320.056	800.000	0.055	-0.231
-319.041	-174.675	-0.372	-0.011
-318.026	21.032	-0.295	-0.241
-317.012	800.000	0.012	-0.037
-315.997	-38.490	-0.072	-0.038
-314.983	-200.000	0.009	0.101
-313.968	-92.287	-0.239	-0.068
-312.953	-133.265	-0.114	0.014
-311.939	12.533	0.098	0.076
-310.924	757.468	-0.169	0.461
-309.910	-185.082	0.171	0.003
-308.895	-25.508	-0.151	0.090
-307.880	1.892	-0.117	-0.085
-306.866	-91.445	-0.142	-0.041
-305.851	-170.200	0.120	-0.004
-304.837	-132.800	-0.145	0.019
-303.822	-179.490	0.391	0.009
-302.807	16.510	0.183	0.145
-301.793	-167.666	0.294	0.012
-300.778	3.605	0.132	-0.097
-299.764	-100.550	0.196	0.049
-298.749	-67.176	0.065	0.026
-297.735	-200.000	0.011	0.085
-296.720	-200.000	-0.033	0.170
-295.705	64.774	-0.236	0.240
-294.691	800.000	-0.077	-0.251
-293.676	-135.674	-0.196	-0.023
-292.662	-3.375	0.082	0.057
-291.647	215.342	-0.153	0.245
-290.632	-66.898	0.172	-0.069
-289.618	-200.000	0.026	0.211
-288.603	66.129	0.060	0.062
-287.589	-135.953	-0.018	0.002
-286.574	800.000	0.071	-0.203
-285.559	-14.799	-0.609	-0.393
-284.545	200.338	-0.211	-0.327
-283.530	294.269	-0.085	-0.156
-282.516	58.157	-0.119	0.118
-281.501	16.217	0.202	0.160
-280.486	48.540	-0.184	-0.173
-279.472	86.879	-0.193	0.214
-278.457	-59.778	-0.259	0.111
-277.443	-126.378	0.316	0.047
-276.428	3.857	0.157	0.115
-275.413	-27.392	-0.095	0.056
-274.399	-200.000	0.008	-0.187
-273.384	-37.092	0.210	-0.113
-272.370	-83.954	0.203	-0.065
-271.355	42.968	0.015	-0.014
-270.340	328.746	-0.128	-0.248
-269.326	5.883	0.158	-0.118
-268.311	-53.272	0.052	0.024
-267.297	9.026	0.093	-0.071
-266.282	-5.496	-0.213	-0.147
-265.267	309.323	0.055	0.103
-264.253	-90.692	-0.026	-0.008
-263.238	-88.643	0.382	-0.114
-262.224	14.570	-0.098	0.077
-261.209	-145.752	-0.430	-0.039
-260.195	-107.245	-0.185	0.041
-259.180	-60.852	0.066	0.028
-258.165	42.816	-0.156	0.143
-257.151	-107.582	0.470	-0.103
-256.136	-200.000	0.040	-0.187
-255.122	50.532	0.089	-0.085
-254.107	-84.405	0.263	0.083
-253.092	170.469	0.176	-0.253
-252.078	-134.159	0.206	-0.025
-251.063	-2.016	-0.161	-0.114
-250.049	473.617	0.009	0.019
-249.034	466.828	0.013	-0.030
-248.019	1.996	-0.090	-0.065
-247.005	219.309	0.155	-0.249
-245.990	40.666	-0.259	0.234
-244.976	156.120	-0.074	0.103
-243.961	38.736	0.104	0.093
-242.946	800.000	0.081	-0.225
-241.932	-115.318	0.452	-0.086
-240.917	-147.525	0.064	-0.005
-239.903	-103.627	-0.106	-0.025
-238.888	-130.353	0.299	-0.041
-237.873	-84.084	0.451	-0.144
-236.859	-37.269	0.052	0.028
-235.844	255.923	-0.097	-0.167
-234.830	-56.262	0.271	-0.121
-233.815	-178.012	0.058	0.001
-232.800	-40.456	0.373	0.195
-231.786	-95.145	0.301	0.082
-230.771	800.000	0.077	0.238
-229.757	-94.532	0.189	0.052
-228.742	615.810	0.079	-0.199
-227.727	-200.000	0.034	0.208
-226.713	-123.498	0.155	-0.025
-225.698	-52.755	-0.067	-0.031
-224.684	-200.000	0.028	0.245
-223.669	-21.096	0.277	-0.170
-222.655	83.822	0.107	0.117
-221.640	-25.251	-0.246	0.146
-220.625	16.722	-0.147	0.117
-219.611	-200.000	-0.027	-0.256
-218.596	325.653	0.128	0.245
-217.582	57.860	0.150	-0.147
-216.567	-112.154	0.169	0.034
-215.552	-33.718	-0.239	-0.133
-214.538	-181.211	-0.195	0.004
-213.523	-116.033	0.399	-0.075
-212.509	-66.148	0.229	-0.092
-211.494	358.526	-0.173	0.347
-210.479	112.982	0.147	0.179
-209.465	800.000	0.031	0.124
-208.450	178.161	-0.135	0.197
-207.436	311.516	0.163	0.306
-206.421	201.650	-0.224	0.347
-205.406	-200.000	-0.026	-0.136
-204.392	800.000	0.048	-0.162
-203.377	800.000	0.047	-0.175
-202.363	21.352	0.012	-0.009
-201.348	800.000	-0.056	0.187
-200.333	-200.000	0.045	-0.305
-199.319	-63.054	0.049	-0.020
-198.304	98.132	0.193	0.222
-197.290	-120.874	0.125	0.021
-196.275	429.310	0.049	0.106
-195.260	-144.128	0.136	0.013
-194.246	-12.826	-0.125	0.082
-193.231	136.856	0.178	-0.233
-192.217	-200.000	0.034	-0.210
-191.202	-35.776	-0.273	0.148
-190.187	324.253	-0.034	0.064
-189.173	152.661	-0.120	0.165
-188.158	-13.435	-0.177	-0.115
-187.144	-160.161	-0.313	-0.017
-186.129	131.842	0.147	0.190
-185.114	800.000	0.057	-0.169
-184.100	-39.110	0.206	-0.109
-183.085	-182.573	0.305	-0.006
-182.071	198.076	-0.118	-0.181
-181.056	267.640	0.095	0.166
-180.042	-28.624	0.246	0.142
-179.027	-119.498	0.286	0.050
-178.012	-200.000	-0.027	-0.143
-176.998	800.000	-0.062	0.183
-175.983	-79.043	0.095	-0.032
-174.969	196.596	0.075	0.114
-173.954	-70.465	0.201	-0.076
-172.939	-200.000	-0.086	-0.504
-171.925	-200.000	0.019	-0.352
-170.910	63.194	-0.188	-0.189
-169.896	-94.729	0.057	-0.016
-168.881	257.119	-0.151	-0.261
-167.866	755.627	0.114	0.310
-166.852	-52.862	0.133	0.061
-165.837	-111.634	-0.084	-0.017
-164.823	388.218	0.097	-0.201
-163.808	-100.680	-0.198	-0.049
-162.793	565.573	-0.077	-0.188
-161.779	26.620	-0.099	-0.083
-160.764	-40.192	0.146	0.076
-159.750	-200.000	-0.059	-0.378
-158.735	-146.893	0.237	0.020
-157.720	565.017	-0.122	0.296
-156.706	-109.579	-0.052	-0.011
-155.691	-200.000	-0.060	-0.279
-154.677	-200.000	-0.054	0.252
-153.662	-13.889	-0.184	0.119
-152.647	27.172	-0.195	0.164
-151.633	286.367	0.060	-0.108
-150.618	492.705	0.104	0.238
-149.604	108.799	0.286	-0.342
-148.589	33.568	0.141	-0.123
-147.574	-126.355	0.326	0.049
-146.560	-62.337	-0.173	-0.072
-145.545	-28.751	0.169	0.098
-144.531	-57.760	-0.185	0.081
-143.516	-2.057	0.093	-0.066
-142.502	-71.112	-0.143	-0.054
-141.487	-64.731	0.380	-0.154
-140.472	-124.273	-0.059	-0.009
-139.458	800.000	0.041	-0.124
-138.443	285.007	-0.066	0.119
-137.429	276.279	0.040	0.070
-136.414	-104.821	0.239	-0.055
-135.399	259.661	0.080	-0.139
-134.385	800.000	-0.005	0.022
-133.370	-200.000	0.058	-0.331
-132.356	12.209	-0.086	-0.067
-131.341	-7.458	0.215	-0.146
-130.326	-64.886	-0.054	-0.022
-129.312	-200.000	0.070	-0.343
-128.297	50.063	-0.151	-0.142
-127.283	-187.667	0.081	0.001
-126.268	-200.000	0.016	-0.346
-125.253	-200.000	0.011	0.251
-124.239	-175.414	0.313	-0.009
-123.224	87.156	0.104	0.115
-122.210	-100.430	0.079	-0.020
-121.195	-147.917	-0.187	-0.016
