DTS Sentinel unit serial number:	SN413079Multiplexer serial number:	ORYXHardware model number:	OX4-SRSoftware version number:	ORYX F/W v4.00 Oryx Data Collector v3.7.2.0data status	okinstallation	princeton_trtdifferential loss correction	single-endedforward channel	channel 1reverse channel	N/Adate	2019/09/17time	07:38:35forward acquisition time	60.00reverse acquisition time	0.00gamma	496.2192k internal	0.2332k external	0.2332temperature offset calibration	0.9967default loss term (dB/km)	0.3790temperature slope calibration	1.0000multiplexer offset coefficient	1.0000multiplexer slope coefficient	1.0000fibre end	0.00T internal ref (°C)	27.17T ext. ref 1 (°C)	0.12T ext. ref 2 (°C)	21.90length (m)	temperature (°C)	Stokes	anti-Stokes-747.200	800.000	-0.076	0.216
-746.185	99.780	0.104	0.121
-745.171	-124.551	0.308	-0.048
-744.156	-200.000	-0.023	0.385
-743.142	74.556	0.177	-0.187
-742.127	-200.000	-0.003	0.258
-741.112	-200.000	-0.010	0.098
-740.098	-119.090	0.262	-0.046
-739.083	539.071	-0.090	0.216
-738.069	-128.203	-0.449	0.064
-737.054	-200.000	-0.017	0.074
-736.039	-118.258	0.167	-0.030
-735.025	-200.000	0.065	0.393
-734.010	-200.000	-0.004	-0.230
-732.996	-95.659	-0.214	-0.058
-731.981	446.832	-0.071	-0.156
-730.966	-8.657	0.123	-0.083
-729.952	8.714	-0.049	0.037
-728.937	800.000	-0.052	-0.150
-727.923	-167.440	0.123	0.005
-726.908	-200.000	-0.020	0.174
-725.894	51.391	-0.325	-0.310
-724.879	-60.590	-0.261	0.111
-723.864	-15.100	0.336	0.216
-722.850	-97.080	0.145	-0.038
-721.835	504.080	0.248	-0.576
-720.821	192.376	-0.021	0.032
-719.806	35.405	-0.066	-0.059
-718.791	-200.000	-0.037	0.250
-717.777	-153.507	0.216	0.015
-716.762	145.850	0.287	-0.386
-715.748	-78.471	0.131	-0.045
-714.733	800.000	-0.088	-0.286
-713.718	800.000	-0.043	0.178
-712.704	-53.662	-0.154	-0.071
-711.689	621.392	-0.070	-0.176
-710.675	-149.475	0.267	0.021
-709.660	211.104	-0.059	-0.094
-708.645	-200.000	0.015	-0.087
-707.631	79.167	0.205	-0.221
-706.616	-103.402	0.320	0.076
-705.602	-54.653	-0.229	0.104
-704.587	-85.370	0.069	-0.021
-703.572	-149.254	-0.277	0.022
-702.558	-6.219	-0.148	0.102
-701.543	-200.000	0.046	0.229
-700.529	-46.226	0.170	-0.084
-699.514	800.000	-0.056	0.200
-698.499	800.000	0.013	0.057
-697.485	-200.000	-0.040	-0.232
-696.470	-200.000	-0.042	0.223
-695.456	-13.030	-0.342	0.223
-694.441	92.552	-0.088	-0.099
-693.426	-200.000	-0.010	-0.081
-692.412	363.024	0.082	-0.165
-691.397	113.887	0.195	-0.238
-690.383	181.914	-0.060	-0.089
-689.368	309.637	-0.165	-0.309
-688.354	80.649	0.281	-0.304
-687.339	60.972	-0.032	-0.031
-686.324	800.000	0.033	0.119
-685.310	-160.146	0.184	-0.010
-684.295	-97.613	0.279	-0.073
-683.281	-56.415	-0.223	-0.099
-682.266	-71.230	-0.128	-0.048
-681.251	-117.139	-0.190	0.035
-680.237	209.249	-0.128	-0.202
-679.222	800.000	-0.013	0.047
-678.208	-200.000	-0.015	0.113
-677.193	79.769	-0.111	0.120
-676.178	-76.929	-0.202	-0.071
-675.164	200.414	0.076	-0.117
-674.149	-98.735	-0.368	0.094
-673.135	94.622	0.056	-0.064
-672.120	619.305	0.124	0.313
-671.105	-200.000	0.001	0.045
-670.091	-132.196	-0.248	0.032
-669.076	162.170	0.185	-0.259
-668.062	-177.237	0.165	-0.004
-667.047	-85.053	0.071	-0.022
-666.032	800.000	0.092	-0.326
-665.018	-200.000	0.096	-0.500
-664.003	-200.000	-0.026	-0.119
-662.989	-200.000	0.027	0.146
-661.974	-126.549	0.308	0.046
-660.959	-9.045	-0.173	0.116
-659.945	-144.508	-0.068	0.006
-658.930	-61.840	0.217	0.091
-657.916	800.000	-0.089	-0.258
-656.901	-200.000	0.018	0.089
-655.886	17.815	-0.164	-0.131
-654.872	484.931	0.115	0.262
-653.857	-84.199	-0.259	0.082
-652.843	294.359	0.035	0.065
-651.828	-99.580	0.319	0.080
-650.814	-62.185	-0.189	-0.079
-649.799	505.906	-0.086	0.199
-648.784	330.924	-0.163	0.314
-647.770	82.550	0.162	0.177
-646.755	15.536	0.124	-0.098
-645.741	-85.598	-0.348	0.109
-644.726	-200.000	-0.006	-0.123
-643.711	-200.000	0.055	0.325
-642.697	-200.000	-0.003	0.151
-641.682	800.000	0.058	-0.192
-640.668	-200.000	0.009	-0.191
-639.653	-200.000	0.005	-0.244
-638.638	0.032	-0.153	-0.109
-637.624	184.674	-0.112	-0.166
-636.609	-67.266	-0.215	0.085
-635.595	-66.939	0.070	-0.028
-634.580	136.977	0.131	-0.171
-633.565	-178.465	-0.125	-0.003
-632.551	22.032	0.091	-0.074
-631.536	5.740	0.066	-0.049
-630.522	-44.635	0.288	0.144
-629.507	-200.000	0.026	-0.285
-628.492	2.746	-0.050	-0.037
-627.478	-140.680	0.290	0.030
-626.463	-120.480	0.140	0.024
-625.449	-11.208	0.180	0.119
-624.434	376.494	-0.127	-0.260
-623.419	-65.163	0.255	-0.103
-622.405	-130.300	-0.204	0.028
-621.390	-159.403	0.216	0.012
-620.376	-81.270	0.070	0.023
-619.361	-130.685	0.055	0.007
-618.346	46.851	-0.185	0.172
-617.332	12.451	-0.291	-0.225
-616.317	-162.334	0.216	0.011
-615.303	254.613	-0.064	0.109
-614.288	-200.000	-0.000	0.100
-613.273	-200.000	0.031	0.179
-612.259	-70.121	0.186	0.071
-611.244	157.084	0.203	-0.280
-610.230	-200.000	-0.051	-0.454
-609.215	-5.253	-0.269	0.185
-608.201	320.061	0.176	0.334
-607.186	-64.646	-0.485	-0.197
-606.171	13.200	0.034	-0.026
-605.157	-154.225	-0.326	0.022
-604.142	160.869	-0.042	0.059
-603.128	-200.000	-0.031	-0.261
-602.113	-134.763	0.169	-0.021
-601.098	-95.588	0.378	0.101
-600.084	-146.761	-0.171	0.015
-599.069	-112.015	-0.276	0.056
-598.055	-109.663	0.233	-0.049
-597.040	29.965	-0.255	-0.217
-596.025	367.011	-0.038	-0.077
-595.011	182.447	0.149	-0.220
-593.996	800.000	-0.039	-0.114
-592.982	35.918	-0.217	-0.191
-591.967	56.851	-0.154	0.150
-590.952	-128.316	-0.430	0.061
-589.938	84.429	0.210	0.230
-588.923	-84.309	0.312	-0.099
-587.909	-11.001	-0.149	0.098
-586.894	-7.355	-0.164	-0.111
-585.879	-95.863	-0.397	-0.106
-584.865	-167.186	0.464	-0.019
-583.850	-200.000	-0.020	-0.128
-582.836	442.806	-0.071	-0.155
-581.821	-200.000	0.002	-0.144
-580.806	-200.000	-0.044	0.262
-579.792	-141.133	0.214	0.022
-578.777	382.148	-0.140	-0.288
-577.763	8.527	0.178	-0.134
-576.748	209.918	0.132	-0.208
-575.733	-200.000	0.006	-0.062
-574.719	478.428	-0.144	0.326
-573.704	-126.994	-0.124	0.018
-572.690	-100.622	-0.476	-0.117
-571.675	-28.985	-0.111	-0.064
-570.661	-105.766	-0.080	0.018
-569.646	30.082	0.317	-0.270
-568.631	23.348	-0.139	0.114
-567.617	-93.675	0.264	-0.073
-566.602	132.429	-0.188	0.242
-565.588	5.484	0.111	-0.082
-564.573	760.458	-0.033	0.089
-563.558	800.000	0.128	0.387
-562.544	-19.807	0.346	-0.213
-561.529	-200.000	-0.015	0.132
-560.515	7.829	-0.055	-0.041
-559.500	-107.210	0.117	0.026
-558.485	-94.328	0.235	0.064
-557.471	-200.000	-0.004	-0.069
-556.456	587.010	-0.214	0.526
-555.442	93.530	-0.080	0.090
-554.427	224.129	0.172	0.277
-553.412	103.883	0.099	-0.116
-552.398	155.405	-0.187	-0.257
-551.383	-48.743	-0.285	-0.137
-550.369	-100.429	0.268	0.066
-549.354	-92.308	0.415	-0.117
-548.339	64.074	0.090	0.090
-547.325	12.718	0.254	0.196
-546.310	-19.579	0.021	0.013
-545.296	-200.000	-0.058	0.282
-544.281	-11.732	0.243	0.159
-543.266	-42.401	0.147	-0.075
-542.252	108.519	-0.221	0.263
-541.237	-200.000	0.010	-0.065
-540.223	31.772	-0.160	-0.137
-539.208	56.725	-0.182	0.177
-538.193	25.583	-0.155	0.129
-537.179	442.757	-0.091	-0.200
-536.164	-96.115	0.080	0.021
-535.150	-109.766	-0.305	-0.064
-534.135	-118.847	-0.437	-0.077
-533.121	800.000	-0.045	0.156
-532.106	-144.537	-0.184	0.017
-531.091	-87.205	0.130	-0.039
-530.077	220.145	0.169	-0.269
-529.062	-200.000	0.017	-0.089
-528.048	-200.000	0.015	-0.071
-527.033	-200.000	-0.034	-0.217
-526.018	-88.360	0.168	-0.050
-525.004	-73.550	0.294	-0.107
-523.989	-200.000	-0.011	-0.189
-522.975	117.019	-0.174	0.213
-521.960	80.564	-0.181	0.195
-520.945	252.921	-0.207	-0.353
-519.931	-200.000	0.040	0.232
-518.916	-108.507	-0.074	-0.016
-517.902	103.341	0.051	-0.059
-516.887	-198.118	-0.089	0.001
-515.872	296.367	0.023	-0.042
-514.858	-200.000	0.001	0.043
-513.843	-98.095	0.207	-0.053
-512.829	-57.809	-0.183	0.080
-511.814	-42.375	0.170	0.086
-510.799	-98.634	-0.039	-0.010
-509.785	-200.000	-0.022	-0.100
-508.770	-200.000	0.058	0.256
-507.756	-200.000	-0.006	-0.056
-506.741	86.715	-0.098	0.108
-505.726	-17.846	0.150	-0.094
-504.712	26.407	0.165	0.137
-503.697	-110.827	0.284	-0.058
-502.683	74.203	-0.068	-0.071
-501.668	63.239	0.178	0.178
-500.653	-64.481	0.072	-0.029
-499.639	481.796	0.032	-0.073
-498.624	24.031	0.072	-0.059
-497.610	132.417	0.097	-0.125
-496.595	-81.976	-0.264	-0.086
-495.581	-112.873	0.384	0.076
-494.566	89.156	0.209	-0.232
-493.551	-109.721	0.177	0.037
-492.537	10.677	0.207	-0.157
-491.522	0.580	-0.141	0.101
-490.508	-36.891	-0.034	0.018
-489.493	266.952	-0.095	0.165
-488.478	87.969	-0.081	-0.090
-487.464	53.345	-0.147	0.140
-486.449	-200.000	0.033	0.235
-485.435	300.512	0.195	0.359
-484.420	-136.970	0.530	-0.060
-483.405	414.787	0.031	0.065
-482.391	706.808	0.142	-0.374
-481.376	-4.743	0.038	-0.026
-480.362	-48.803	-0.091	-0.044
-479.347	16.086	0.088	-0.069
-478.332	-2.693	-0.128	0.089
-477.318	800.000	-0.069	0.210
-476.303	800.000	0.021	-0.072
-475.289	382.153	-0.039	-0.080
-474.274	-129.950	-0.252	-0.034
-473.259	-149.135	-0.037	-0.003
-472.245	16.440	0.084	-0.066
-471.230	-200.000	0.033	-0.278
-470.216	-200.000	0.020	0.184
-469.201	800.000	-0.034	-0.122
-468.186	-10.161	-0.096	-0.063
-467.172	-200.000	0.010	-0.233
-466.157	-200.000	0.042	-0.338
-465.143	-59.380	-0.120	0.051
-464.128	-47.060	0.117	0.057
-463.113	-200.000	-0.015	0.128
-462.099	431.714	0.133	0.287
-461.084	645.539	0.120	0.305
-460.070	-4.201	-0.102	-0.070
-459.055	-89.951	-0.080	0.023
-458.040	-48.758	-0.173	-0.083
-457.026	-113.574	0.374	-0.073
-456.011	200.841	0.062	0.094
-454.997	-112.623	-0.141	-0.028
-453.982	-200.000	-0.096	-0.517
-452.968	-51.200	-0.211	0.098
-451.953	300.078	-0.030	-0.054
-450.938	-146.187	-0.265	0.023
-449.924	-55.050	-0.144	-0.065
-448.909	-75.027	-0.169	-0.060
-447.895	18.009	-0.139	0.110
-446.880	-136.268	0.262	0.030
-445.865	79.219	0.187	0.200
-444.851	-63.283	0.027	-0.011
-443.836	110.562	0.141	0.169
-442.822	5.761	0.039	-0.029
-441.807	241.397	-0.051	-0.084
-440.792	-55.043	-0.058	-0.026
-439.778	220.383	0.174	-0.277
-438.763	449.782	-0.077	-0.169
-437.749	1.870	-0.033	0.024
-436.734	-182.715	-0.244	-0.004
-435.719	-200.000	-0.009	-0.105
-434.705	65.219	-0.123	0.124
-433.690	65.191	0.120	0.121
-432.676	800.000	-0.098	-0.322
-431.661	-7.036	0.196	-0.132
-430.646	164.248	-0.018	-0.026
-429.632	-200.000	-0.006	-0.238
-428.617	342.620	0.046	0.090
-427.603	462.028	-0.109	-0.241
-426.588	140.359	-0.194	0.254
-425.573	-121.556	0.209	-0.035
-424.559	51.121	0.170	-0.161
-423.544	-146.976	0.351	-0.030
-422.530	378.722	0.086	-0.174
-421.515	-29.854	-0.057	-0.032
-420.500	90.797	-0.119	0.133
-419.486	-200.000	-0.006	-0.268
-418.471	127.627	0.253	0.319
-417.457	-196.303	-0.120	0.001
-416.442	-200.000	-0.018	-0.134
-415.428	-120.570	-0.244	0.041
-414.413	415.920	-0.128	-0.272
-413.398	-38.450	-0.342	0.180
-412.384	69.272	-0.057	-0.059
-411.369	681.800	0.063	-0.163
-410.355	580.149	-0.047	-0.115
-409.340	27.656	-0.083	0.069
-408.325	-10.897	0.277	0.181
-407.311	-5.812	-0.202	-0.137
-406.296	-200.000	0.005	0.086
-405.282	-190.871	-0.234	-0.002
-404.267	-142.039	0.227	0.022
-403.252	267.585	-0.114	-0.198
-402.238	241.436	0.027	-0.045
-401.223	800.000	0.112	-0.332
-400.209	800.000	0.012	0.051
-399.194	-136.444	0.221	-0.025
-398.179	702.002	0.063	-0.166
-397.165	800.000	0.095	-0.368
-396.150	84.322	0.060	0.065
-395.136	-83.964	0.127	-0.040
-394.121	26.090	-0.032	-0.026
-393.106	-200.000	0.031	0.497
-392.092	-46.239	0.046	-0.023
-391.077	50.956	0.063	-0.059
-390.063	-56.964	-0.164	0.072
-389.048	213.006	0.175	0.274
-388.033	-200.000	0.008	0.420
-387.019	107.985	0.082	0.097
-386.004	-198.400	-0.400	0.002
-384.990	576.932	0.094	0.228
-383.975	33.031	0.113	0.098
-382.960	-71.164	0.215	-0.080
-381.946	205.196	0.206	0.317
-380.931	-200.000	-0.036	0.159
-379.917	800.000	0.071	0.269
-378.902	142.017	-0.043	-0.056
-377.888	800.000	-0.119	0.438
-376.873	18.462	-0.149	0.118
-375.858	29.683	0.243	0.205
-374.844	346.783	-0.074	-0.144
-373.829	140.627	-0.086	0.112
-372.815	230.549	-0.155	-0.251
-371.800	183.989	-0.107	0.157
-370.785	-112.331	0.084	0.017
-369.771	-176.715	-0.289	0.007
-368.756	-200.000	0.026	0.380
-367.742	156.141	-0.051	-0.069
-366.727	-200.000	-0.011	-0.056
-365.712	-133.430	-0.153	0.019
-364.698	800.000	-0.065	0.194
-363.683	23.921	0.113	0.093
-362.669	775.997	-0.083	0.223
-361.654	-169.791	-0.057	-0.002
-360.639	97.479	0.142	0.162
-359.625	110.058	0.126	0.150
-358.610	22.442	0.161	0.130
-357.596	470.027	0.092	-0.204
-356.581	-114.051	0.152	-0.029
-355.566	-200.000	-0.038	-0.190
-354.552	223.208	0.138	0.220
-353.537	198.384	0.043	-0.066
-352.523	-8.813	0.121	0.080
-351.508	-139.702	0.226	-0.024
-350.493	-79.980	0.088	-0.029
-349.479	-200.000	0.033	-0.264
-348.464	444.717	-0.064	-0.139
-347.450	-37.571	-0.072	0.038
-346.435	10.506	-0.071	-0.054
-345.420	240.697	0.078	-0.129
-344.406	112.478	-0.063	0.075
-343.391	-56.668	-0.200	0.088
-342.377	-200.000	-0.034	0.245
-341.362	-25.408	0.120	0.070
-340.348	-148.501	-0.375	-0.030
-339.333	800.000	-0.007	0.026
-338.318	-200.000	-0.022	0.182
-337.304	-121.815	0.228	-0.037
-336.289	-200.000	0.098	0.464
-335.275	131.485	0.083	0.106
-334.260	800.000	0.014	0.047
-333.245	-118.910	0.303	0.053
-332.231	-200.000	0.046	-0.213
-331.216	800.000	0.033	0.097
-330.202	86.764	0.245	-0.267
-329.187	800.000	-0.056	-0.198
-328.172	-100.172	-0.240	-0.059
-327.158	15.665	-0.065	0.051
-326.143	85.382	0.116	0.126
-325.129	-20.432	0.086	-0.052
-324.114	668.527	0.059	0.150
-323.099	136.511	0.143	-0.184
-322.085	44.384	-0.076	0.069
-321.070	690.631	0.055	0.142
-320.056	-35.802	0.166	0.089
-319.041	-168.258	-0.133	0.005
-318.026	-200.000	0.024	-0.292
-317.012	800.000	-0.107	-0.364
-315.997	270.874	0.076	-0.133
-314.983	-200.000	-0.023	0.258
-313.968	800.000	-0.058	0.216
-312.953	-163.786	0.180	0.008
-311.939	-200.000	0.021	0.181
-310.924	130.240	0.087	-0.110
-309.910	385.773	-0.098	0.199
-308.895	-81.544	-0.275	0.089
-307.880	800.000	0.085	0.251
-306.866	-46.489	-0.206	0.100
-305.851	190.528	0.214	-0.318
-304.837	96.337	-0.144	0.163
-303.822	156.661	-0.132	0.180
-302.807	-157.357	0.212	0.013
-301.793	-44.355	-0.114	0.056
-300.778	-39.611	0.139	0.072
-299.764	-94.123	-0.098	-0.027
-298.749	800.000	-0.044	-0.137
-297.735	800.000	0.078	0.272
-296.720	800.000	-0.087	0.354
-295.705	800.000	0.033	-0.140
-294.691	-29.343	-0.391	0.221
-293.676	-189.521	-0.084	0.001
-292.662	800.000	0.103	-0.321
-291.647	150.836	0.228	0.307
-290.632	800.000	-0.071	-0.253
-289.618	-11.918	-0.223	0.144
-288.603	279.408	0.128	0.225
-287.589	496.405	0.109	-0.248
-286.574	-200.000	0.088	-0.399
-285.559	-107.915	-0.196	0.042
-284.545	-200.000	-0.009	-0.102
-283.530	800.000	0.032	-0.114
-282.516	153.712	0.056	-0.075
-281.501	735.521	-0.108	0.285
-280.486	152.446	0.237	0.319
-279.472	-128.704	-0.396	0.055
-278.457	-200.000	-0.012	-0.316
-277.443	-200.000	0.025	-0.252
-276.428	-43.534	0.163	0.081
-275.413	800.000	-0.066	0.234
-274.399	181.609	-0.042	-0.062
-273.384	9.323	-0.048	0.036
-272.370	12.283	0.439	0.334
-271.355	-200.000	-0.001	-0.090
-270.340	800.000	0.035	0.096
-269.326	-172.297	-0.228	-0.007
-268.311	-93.710	-0.110	-0.030
-267.297	69.103	0.067	-0.068
-266.282	85.838	-0.139	-0.151
-265.267	-143.628	-0.102	-0.010
-264.253	473.229	0.069	-0.153
-263.238	-15.402	-0.288	-0.182
-262.224	202.825	0.015	-0.023
-261.209	6.316	0.172	0.126
-260.195	-127.143	-0.265	-0.038
-259.180	-85.298	0.056	-0.017
-258.165	800.000	-0.114	-0.311
-257.151	-0.006	0.227	0.160
-256.136	15.652	-0.274	-0.212
-255.122	62.106	-0.235	-0.232
-254.107	146.490	0.227	0.301
-253.092	-200.000	-0.079	0.433
-252.078	800.000	0.084	-0.345
-251.063	-200.000	0.028	0.144
-250.049	192.976	0.105	0.157
-249.034	-32.695	-0.251	0.138
-248.019	96.365	0.203	-0.229
-247.005	555.093	-0.077	-0.182
-245.990	226.063	-0.070	-0.112
-244.976	-107.878	-0.513	0.110
-243.961	78.574	0.146	0.154
-242.946	21.877	0.137	0.110
-241.932	439.880	0.013	0.029
-240.917	-147.246	0.050	0.004
-239.903	-200.000	0.010	-0.053
-238.888	-189.915	-0.313	-0.003
-237.873	122.537	0.165	-0.204
-236.859	-200.000	-0.005	-0.082
-235.844	-200.000	0.021	-0.452
-234.830	106.174	-0.150	-0.175
-233.815	218.517	0.271	-0.427
-232.800	-193.496	-0.043	-0.000
-231.786	25.516	0.077	0.063
-230.771	-48.339	-0.145	-0.069
-229.757	-102.337	-0.374	-0.088
-228.742	-200.000	-0.009	0.076
-227.727	24.920	-0.188	-0.154
-226.713	440.490	0.055	-0.118
-225.698	-200.000	-0.010	-0.261
-224.684	-73.129	0.028	-0.010
-223.669	124.825	0.155	-0.193
-222.655	-69.390	-0.168	0.063
-221.640	126.496	0.223	0.278
-220.625	800.000	0.030	-0.128
-219.611	-56.038	-0.328	-0.144
-218.596	12.741	0.300	0.228
-217.582	-200.000	0.014	-0.130
-216.567	36.313	0.126	-0.109
-215.552	64.341	0.338	-0.335
-214.538	57.778	-0.308	-0.297
-213.523	-86.104	-0.306	-0.093
-212.509	44.150	-0.251	0.227
-211.494	-200.000	0.031	0.196
-210.479	-200.000	-0.009	0.367
-209.465	-130.307	-0.086	-0.012
-208.450	383.170	0.084	-0.169
-207.436	345.032	-0.095	0.185
-206.421	-69.526	0.304	0.115
-205.406	251.543	-0.201	0.336
-204.392	86.595	-0.071	0.077
-203.377	-77.221	0.467	-0.160
-202.363	-200.000	-0.052	-0.262
-201.348	-9.673	-0.141	0.093
-200.333	-26.919	-0.102	-0.059
-199.319	340.897	0.083	0.160
-198.304	800.000	0.085	0.240
-197.290	109.096	-0.097	-0.114
-196.275	-136.876	-0.238	-0.027
-195.260	61.639	-0.044	0.043
-194.246	170.966	-0.130	-0.183
-193.231	-200.000	0.014	-0.216
-192.217	-200.000	0.001	-0.489
-191.202	-42.406	-0.166	-0.083
-190.187	-147.941	-0.055	0.005
-189.173	-75.727	-0.101	-0.035
-188.158	-121.511	0.235	0.038
-187.144	-112.866	0.115	0.022
-186.129	166.018	-0.088	0.122
-185.114	-200.000	0.008	0.235
-184.100	526.068	0.034	-0.078
-183.085	60.444	0.193	0.188
-182.071	-117.365	0.290	0.052
-181.056	124.227	0.206	0.255
-180.042	777.304	-0.012	0.031
-179.027	800.000	-0.040	0.150
-178.012	-15.787	-0.097	0.061
-176.998	4.361	-0.086	0.062
-175.983	-200.000	0.045	-0.220
-174.969	-200.000	-0.009	0.152
-173.954	-61.290	0.371	0.154
-172.939	263.767	0.132	-0.225
-171.925	-142.311	0.124	-0.012
-170.910	-200.000	0.018	0.079
-169.896	-200.000	-0.001	0.237
-168.881	-92.436	-0.263	0.073
-167.866	-60.726	0.270	0.113
-166.852	-81.718	-0.385	0.124
-165.837	522.796	0.195	-0.451
-164.823	-135.240	-0.040	-0.005
-163.808	-115.063	-0.134	-0.025
-162.793	-103.720	0.373	-0.086
-161.779	-200.000	0.027	0.292
-160.764	29.514	-0.277	-0.232
-159.750	800.000	-0.073	-0.233
-158.735	625.103	-0.156	0.388
-157.720	-50.234	-0.154	0.071
-156.706	800.000	0.034	0.143
-155.691	-79.515	0.047	0.016
-154.677	31.838	-0.096	-0.082
-153.662	151.076	0.109	0.145
-152.647	-200.000	-0.006	-0.130
-151.633	-106.359	-0.245	-0.054
-150.618	-200.000	0.006	-0.416
-149.604	800.000	0.103	-0.386
-148.589	119.242	-0.136	-0.166
-147.574	800.000	0.012	0.048
-146.560	-184.205	0.261	-0.004
-145.545	342.159	-0.125	0.239
-144.531	-200.000	0.029	0.126
-143.516	-30.094	0.183	0.102
-142.502	-200.000	-0.044	-0.271
-141.487	525.204	0.096	0.222
-140.472	-200.000	-0.002	-0.071
-139.458	213.289	-0.145	-0.225
-138.443	5.746	-0.059	-0.043
-137.429	39.969	-0.113	-0.100
-136.414	-70.380	0.374	0.139
-135.399	-58.232	0.149	-0.064
-134.385	-200.000	0.024	-0.225
-133.370	99.033	-0.023	-0.026
-132.356	31.089	0.301	0.253
-131.341	548.016	0.183	0.431
-130.326	32.814	-0.116	-0.098
-129.312	-89.373	0.160	0.046
-128.297	-114.181	0.531	-0.101
-127.283	-178.447	-0.452	0.010
-126.268	31.148	0.026	0.022
-125.253	465.514	0.101	-0.223
-124.239	160.492	-0.176	-0.241
-123.224	800.000	0.020	0.055
-122.210	-145.603	0.332	-0.029
