DTS Sentinel unit serial number:	SN413079Multiplexer serial number:	ORYXHardware model number:	OX4-SRSoftware version number:	ORYX F/W v4.00 Oryx Data Collector v3.7.2.0data status	okinstallation	princeton_trtdifferential loss correction	single-endedforward channel	channel 1reverse channel	N/Adate	2019/09/16time	01:38:35forward acquisition time	60.00reverse acquisition time	0.00gamma	496.2192k internal	0.2333k external	0.2333temperature offset calibration	0.9981default loss term (dB/km)	0.3790temperature slope calibration	1.0000multiplexer offset coefficient	1.0000multiplexer slope coefficient	1.0000fibre end	0.00T internal ref (°C)	27.31T ext. ref 1 (°C)	9.97T ext. ref 2 (°C)	22.22length (m)	temperature (°C)	Stokes	anti-Stokes-747.200	800.000	0.101	0.292
-746.185	-200.000	-0.005	0.386
-745.171	-104.755	-0.218	-0.051
-744.156	800.000	-0.082	0.250
-743.142	800.000	-0.079	0.251
-742.127	31.289	-0.248	0.214
-741.112	800.000	-0.096	0.312
-740.098	-129.975	-0.209	-0.029
-739.083	-15.003	-0.104	-0.067
-738.069	-124.159	-0.467	-0.074
-737.054	113.646	-0.213	0.260
-736.039	-4.080	-0.210	0.146
-735.025	30.130	0.164	0.141
-734.010	129.752	-0.008	0.010
-732.996	-58.247	0.215	-0.094
-731.981	483.059	-0.102	0.234
-730.966	-200.000	-0.006	-0.086
-729.952	-88.429	-0.382	-0.115
-728.937	246.716	0.104	-0.176
-727.923	-200.000	-0.060	0.299
-726.908	19.022	-0.075	-0.060
-725.894	185.540	-0.288	0.430
-724.879	-111.494	-0.104	0.021
-723.864	172.359	-0.153	0.221
-722.850	160.715	0.184	0.258
-721.835	49.015	-0.226	-0.214
-720.821	-16.357	0.321	0.204
-719.806	32.830	-0.103	-0.089
-718.791	-200.000	0.035	-0.232
-717.777	181.362	-0.361	-0.534
-716.762	134.689	-0.219	-0.286
-715.748	336.324	-0.035	-0.069
-714.733	1.090	0.040	-0.029
-713.718	800.000	-0.021	-0.067
-712.704	56.608	0.186	0.182
-711.689	-200.000	-0.031	0.177
-710.675	-131.473	-0.286	-0.038
-709.660	-153.814	-0.189	0.013
-708.645	-133.152	-0.152	0.019
-707.631	-200.000	0.019	-0.281
-706.616	-41.847	-0.270	0.139
-705.602	294.349	-0.106	0.194
-704.587	-187.979	-0.188	0.002
-703.572	19.480	0.161	0.130
-702.558	-75.949	0.236	0.084
-701.543	159.209	0.165	0.230
-700.529	12.104	0.144	0.111
-699.514	483.650	0.119	0.272
-698.499	-130.151	-0.202	0.028
-697.485	-200.000	-0.020	0.111
-696.470	379.994	0.037	0.076
-695.456	93.303	-0.087	-0.099
-694.441	249.839	-0.131	-0.223
-693.426	-200.000	0.048	-0.329
-692.412	800.000	0.081	-0.294
-691.397	-90.379	0.210	0.061
-690.383	-200.000	0.061	-0.477
-689.368	-32.936	-0.062	0.035
-688.354	45.410	-0.095	-0.088
-687.339	-19.596	-0.060	0.037
-686.324	-38.363	-0.046	0.024
-685.310	71.819	-0.092	-0.096
-684.295	-200.000	-0.003	0.220
-683.281	-7.752	0.200	-0.136
-682.266	-38.218	-0.139	-0.074
-681.251	800.000	0.044	0.159
-680.237	800.000	-0.079	-0.259
-679.222	32.097	-0.164	-0.142
-678.208	-67.668	0.167	-0.065
-677.193	-200.000	-0.016	-0.092
-676.178	-200.000	-0.004	-0.027
-675.164	-117.497	-0.390	-0.071
-674.149	277.655	-0.095	-0.170
-673.135	-200.000	-0.032	-0.154
-672.120	15.046	-0.217	-0.171
-671.105	129.332	0.028	0.036
-670.091	-46.463	-0.253	0.125
-669.076	518.437	0.075	-0.176
-668.062	-175.922	-0.231	0.006
-667.047	-43.448	-0.285	0.145
-666.032	24.980	-0.067	-0.056
-665.018	181.539	0.080	-0.118
-664.003	-122.923	-0.414	-0.067
-662.989	225.132	0.207	0.336
-661.974	-107.546	-0.113	-0.025
-660.959	-200.000	-0.006	-0.294
-659.945	-200.000	-0.072	-0.458
-658.930	-3.719	-0.204	-0.142
-657.916	-122.094	-0.335	-0.055
-656.901	16.029	0.251	-0.199
-655.886	-69.728	0.177	-0.068
-654.872	-154.264	0.120	0.008
-653.857	4.763	-0.131	0.097
-652.843	-90.715	-0.291	-0.084
-651.828	768.327	0.120	0.328
-650.814	547.871	0.211	-0.505
-649.799	-150.355	-0.134	-0.010
-648.784	-72.198	-0.200	-0.074
-647.770	18.644	-0.264	0.211
-646.755	14.252	-0.141	0.110
-645.741	17.929	0.103	-0.082
-644.726	-161.577	0.470	0.024
-643.711	-200.000	-0.006	-0.040
-642.697	68.209	0.185	-0.190
-641.682	800.000	-0.060	0.229
-640.668	-100.478	-0.215	-0.053
-639.653	-95.554	-0.093	-0.025
-638.638	-95.816	0.229	-0.061
-637.624	800.000	0.089	0.329
-636.609	55.600	-0.029	0.028
-635.595	-36.642	0.242	0.130
-634.580	-85.562	-0.148	-0.046
-633.565	800.000	0.023	-0.086
-632.551	-52.182	-0.175	-0.081
-631.536	153.426	-0.262	0.359
-630.522	94.520	-0.140	0.160
-629.507	-200.000	0.022	0.157
-628.492	800.000	-0.087	0.257
-627.478	800.000	0.049	-0.212
-626.463	800.000	0.075	0.284
-625.449	-32.751	0.169	-0.094
-624.434	-88.312	0.144	0.043
-623.419	91.194	0.186	0.209
-622.405	686.654	-0.125	0.326
-621.390	800.000	-0.048	-0.146
-620.376	262.620	-0.071	0.124
-619.361	147.923	0.080	-0.109
-618.346	398.604	-0.160	-0.335
-617.332	800.000	0.039	0.115
-616.317	800.000	-0.063	0.229
-615.303	-70.073	-0.382	0.146
-614.288	800.000	-0.117	-0.389
-613.273	96.907	0.018	0.020
-612.259	-9.235	-0.192	0.128
-611.244	-122.035	-0.334	0.055
-610.230	800.000	-0.012	0.051
-609.215	800.000	0.025	0.093
-608.201	13.472	-0.363	0.281
-607.186	485.464	-0.020	0.046
-606.171	90.548	-0.055	-0.062
-605.157	21.554	-0.337	0.274
-604.142	-71.076	0.236	0.089
-603.128	-200.000	0.054	-0.299
-602.113	-39.411	-0.283	0.148
-601.098	-200.000	-0.007	-0.155
-600.084	-69.976	-0.179	0.068
-599.069	-200.000	-0.024	-0.225
-598.055	11.364	0.092	-0.071
-597.040	55.732	-0.244	0.237
-596.025	519.436	-0.036	0.085
-595.011	24.217	-0.183	0.151
-593.996	-14.817	-0.276	0.177
-592.982	-82.912	0.334	0.108
-591.967	800.000	0.063	-0.244
-590.952	291.149	-0.057	-0.104
-589.938	800.000	-0.078	0.273
-588.923	257.846	0.014	-0.024
-587.909	512.470	0.022	0.052
-586.894	92.350	-0.204	0.229
-585.879	-136.365	-0.593	-0.069
-584.865	800.000	0.052	-0.162
-583.850	0.863	-0.216	-0.154
-582.836	-42.756	-0.176	0.090
-581.821	800.000	-0.052	0.221
-580.806	255.596	-0.085	0.146
-579.792	-142.188	0.093	-0.009
-578.777	225.807	-0.063	-0.102
-577.763	-64.252	-0.188	-0.077
-576.748	16.388	-0.190	-0.150
-575.733	162.428	0.111	-0.155
-574.719	-200.000	0.017	0.152
-573.704	-138.878	-0.416	0.045
-572.690	-130.031	0.316	0.043
-571.675	-19.376	0.130	-0.081
-570.661	59.757	0.038	-0.037
-569.646	800.000	-0.042	0.153
-568.631	71.771	-0.100	-0.104
-567.617	800.000	-0.034	-0.116
-566.602	705.091	-0.080	0.212
-565.588	-85.543	0.419	0.130
-564.573	-200.000	-0.051	0.354
-563.558	800.000	-0.066	-0.206
-562.544	131.841	0.314	-0.404
-561.529	-50.961	-0.243	0.114
-560.515	10.984	0.013	0.010
-559.500	-78.215	-0.525	-0.180
-558.485	-110.195	0.151	-0.031
-557.471	25.723	0.135	-0.112
-556.456	-106.094	-0.173	0.039
-555.442	19.161	-0.471	-0.377
-554.427	194.636	0.174	-0.263
-553.412	-200.000	0.028	-0.142
-552.398	141.254	-0.107	-0.141
-551.383	317.361	-0.180	-0.340
-550.369	130.037	0.081	0.103
-549.354	-200.000	-0.016	-0.087
-548.339	-186.245	0.210	-0.003
-547.325	693.236	0.053	0.140
-546.310	-76.381	0.310	-0.109
-545.296	78.747	-0.033	0.035
-544.281	-200.000	0.021	-0.370
-543.266	-19.801	0.110	-0.068
-542.252	-117.028	-0.204	0.037
-541.237	-200.000	0.042	0.249
-540.223	-200.000	-0.168	-0.000
-539.208	-200.000	-0.027	0.164
-538.193	49.494	-0.103	-0.096
-537.179	-200.000	0.010	-0.258
-536.164	-74.482	0.220	-0.079
-535.150	800.000	-0.035	-0.134
-534.135	26.636	0.190	-0.159
-533.121	-111.368	0.176	0.036
-532.106	-200.000	-0.017	-0.127
-531.091	238.540	0.132	-0.219
-530.077	-200.000	0.034	-0.227
-529.062	423.318	0.131	-0.280
-528.048	-47.776	-0.061	0.030
-527.033	29.444	0.063	-0.054
-526.018	-10.637	-0.073	-0.048
-525.004	132.050	-0.040	-0.051
-523.989	138.007	-0.098	-0.127
-522.975	472.628	0.062	-0.139
-521.960	-132.165	0.123	0.016
-520.945	100.662	-0.260	-0.301
-519.931	-200.000	-0.002	-0.117
-518.916	-78.125	0.246	-0.084
-517.902	306.585	-0.200	-0.371
-516.887	-97.869	-0.045	0.012
-515.872	-100.775	0.034	0.008
-514.858	106.769	-0.104	0.123
-513.843	36.694	0.153	0.135
-512.829	538.770	0.094	-0.222
-511.814	800.000	0.064	0.189
-510.799	-155.740	0.255	0.016
-509.785	531.558	0.091	0.215
-508.770	372.689	0.107	-0.216
-507.756	-24.513	-0.198	-0.118
-506.741	-43.406	0.044	0.022
-505.726	122.067	-0.094	0.117
-504.712	-66.357	0.184	-0.073
-503.697	560.892	0.071	-0.171
-502.683	-79.124	0.209	0.071
-501.668	48.985	0.159	0.149
-500.653	-200.000	0.046	0.249
-499.639	126.591	0.218	0.275
-498.624	115.023	-0.065	-0.079
-497.610	-16.664	-0.237	-0.150
-496.595	-200.000	-0.020	-0.160
-495.581	-200.000	-0.006	0.032
-494.566	-119.468	0.145	0.025
-493.551	587.922	-0.113	-0.276
-492.537	649.701	0.077	-0.196
-491.522	171.795	-0.175	0.250
-490.508	-158.560	-0.291	0.017
-489.493	-200.000	0.063	0.283
-488.478	-200.000	-0.043	-0.297
-487.464	-102.473	0.023	0.005
-486.449	-5.206	0.251	0.172
-485.435	7.758	-0.145	0.108
-484.420	-35.894	0.127	0.068
-483.405	-200.000	0.059	-0.267
-482.391	132.412	-0.029	-0.037
-481.376	575.065	0.026	-0.063
-480.362	-113.081	-0.142	-0.028
-479.347	-146.901	-0.266	0.023
-478.332	-162.289	0.270	-0.013
-477.318	367.552	-0.013	-0.026
-476.303	-200.000	-0.066	0.412
-475.289	-55.269	-0.286	0.128
-474.274	-81.311	0.041	0.013
-473.259	-200.000	0.002	0.122
-472.245	140.074	-0.016	-0.020
-471.230	-60.735	-0.205	0.086
-470.216	16.740	0.246	0.193
-469.201	310.633	0.057	-0.106
-468.186	-49.249	-0.352	-0.167
-467.172	35.032	-0.102	-0.088
-466.157	708.491	-0.119	-0.314
-465.143	447.116	-0.124	0.272
-464.128	-200.000	0.013	-0.176
-463.113	362.546	0.154	-0.307
-462.099	-200.000	-0.145	0.000
-461.084	-200.000	0.077	0.000
-460.070	-200.000	0.013	0.234
-459.055	-77.477	0.281	-0.097
-458.040	800.000	-0.031	-0.102
-457.026	48.973	-0.030	0.028
-456.011	-126.637	0.259	0.038
-454.997	39.418	-0.377	-0.336
-453.982	-200.000	-0.017	-0.127
-452.968	-53.840	0.202	-0.092
-451.953	178.171	0.226	-0.328
-450.938	800.000	0.036	-0.114
-449.924	287.609	-0.196	-0.352
-448.909	69.348	0.224	-0.229
-447.895	539.741	-0.095	0.225
-446.880	-64.381	-0.157	0.064
-445.865	278.241	0.195	-0.345
-444.851	-86.098	0.507	-0.156
-443.836	-22.901	-0.238	-0.143
-442.822	121.799	0.105	-0.130
-441.807	391.338	0.026	0.053
-440.792	545.077	0.094	0.223
-439.778	74.326	0.170	0.178
-438.763	145.029	-0.265	0.352
-437.749	100.903	-0.081	0.094
-436.734	800.000	0.152	0.447
-435.719	357.286	-0.048	-0.095
-434.705	568.782	-0.090	-0.218
-433.690	800.000	0.053	0.151
-432.676	10.389	-0.258	-0.195
-431.661	-9.137	0.235	-0.156
-430.646	-200.000	-0.002	-0.114
-429.632	-114.579	-0.235	0.045
-428.617	15.364	-0.149	-0.116
-427.603	284.599	0.129	-0.231
-426.588	45.627	-0.141	-0.129
-425.573	559.517	-0.096	0.231
-424.559	-113.882	-0.191	-0.037
-423.544	-126.367	0.253	-0.037
-422.530	-88.517	0.450	-0.133
-421.515	-104.866	0.095	-0.022
-420.500	320.499	0.028	0.053
-419.486	110.919	0.075	-0.089
-418.471	142.859	0.127	0.167
-417.457	507.143	-0.151	-0.347
-416.442	477.848	-0.078	-0.174
-415.428	-22.626	-0.160	0.096
-414.413	-133.997	0.389	-0.048
-413.398	564.185	0.070	-0.168
-412.384	-41.181	0.189	0.097
-411.369	-200.000	-0.033	0.313
-410.355	83.925	-0.213	-0.230
-409.340	-184.090	0.075	-0.001
-408.325	336.082	-0.166	0.320
-407.311	-200.000	0.029	0.133
-406.296	-141.514	0.166	-0.017
-405.282	12.986	0.305	-0.234
-404.267	75.908	0.230	0.242
-403.252	84.445	-0.043	-0.046
-402.238	-200.000	-0.012	-0.121
-401.223	-200.000	0.027	-0.200
-400.209	35.286	-0.163	0.142
-399.194	8.610	0.149	0.111
-398.179	-184.627	-0.422	0.007
-397.165	-104.033	-0.168	-0.039
-396.150	800.000	0.070	-0.262
-395.136	-66.627	-0.082	0.032
-394.121	59.752	0.173	0.169
-393.106	-80.605	0.054	-0.018
-392.092	-129.850	0.190	0.026
-391.077	363.201	-0.051	0.102
-390.063	-200.000	0.049	0.253
-389.048	-200.000	0.004	-0.406
-388.033	100.650	-0.090	-0.104
-387.019	89.613	0.031	0.035
-386.004	-55.163	-0.269	0.120
-384.990	-200.000	-0.029	0.294
-383.975	251.453	-0.308	0.520
-382.960	-121.854	0.305	0.050
-381.946	-20.107	-0.105	0.064
-380.931	723.262	-0.104	-0.274
-379.917	536.708	0.121	-0.285
-378.902	800.000	-0.074	0.227
-377.888	800.000	-0.084	0.257
-376.873	375.253	0.100	-0.202
-375.858	-25.081	-0.038	0.022
-374.844	403.938	-0.102	0.212
-373.829	-98.689	0.211	-0.053
-372.815	-157.165	-0.278	0.017
-371.800	71.534	0.262	-0.269
-370.785	-107.111	0.295	-0.064
-369.771	800.000	0.108	-0.387
-368.756	8.260	0.172	-0.128
-367.742	-200.000	0.060	-0.704
-366.727	-39.538	-0.133	-0.069
-365.712	-200.000	0.036	0.367
-364.698	800.000	-0.059	0.180
-363.683	204.320	0.043	0.066
-362.669	-12.878	0.234	-0.151
-361.654	-200.000	0.022	-0.095
-360.639	-83.114	-0.236	0.075
-359.625	-124.618	0.314	0.048
-358.610	-169.969	-0.426	0.015
-357.596	-13.862	-0.109	-0.069
-356.581	-26.641	0.204	0.118
-355.566	-146.390	-0.234	0.020
-354.552	-76.577	0.245	-0.085
-353.537	-191.621	0.098	-0.001
-352.523	-5.004	0.226	0.154
-351.508	58.718	0.150	-0.146
-350.493	800.000	0.050	0.202
-349.479	-200.000	-0.016	-0.157
-348.464	800.000	-0.041	0.125
-347.450	-57.965	-0.285	-0.123
-346.435	168.257	0.190	-0.268
-345.420	-200.000	-0.004	0.088
-344.406	477.425	0.025	0.056
-343.391	85.132	-0.224	0.244
-342.377	-114.296	0.116	0.022
-341.362	-200.000	-0.016	-0.206
-340.348	310.484	-0.100	0.185
-339.333	-127.087	0.557	0.081
-338.318	800.000	0.022	0.087
-337.304	-125.597	0.372	0.056
-336.289	117.569	-0.102	0.124
-335.275	316.711	0.226	0.422
-334.260	21.320	0.305	0.245
-333.245	-200.000	-0.076	0.386
-332.231	126.156	-0.172	0.215
-331.216	100.666	-0.092	0.106
-330.202	-72.368	0.296	-0.108
-329.187	287.726	-0.170	0.304
-328.172	-200.000	0.045	-0.287
-327.158	-74.022	0.510	0.183
-326.143	-166.056	0.136	0.006
-325.129	-55.161	0.095	0.042
-324.114	-62.602	-0.398	0.163
-323.099	-200.000	0.052	-0.288
-322.085	-200.000	0.039	0.195
-321.070	-22.961	-0.408	0.243
-320.056	-200.000	-0.010	0.121
-319.041	-200.000	0.042	-0.296
-318.026	193.487	-0.139	-0.208
-317.012	-150.742	0.169	-0.013
-315.997	493.858	0.105	0.238
-314.983	-200.000	-0.012	-0.167
-313.968	-34.049	0.468	-0.255
-312.953	204.648	-0.079	-0.121
-311.939	-200.000	0.036	0.258
-310.924	118.163	-0.066	-0.080
-309.910	-101.339	-0.258	-0.062
-308.895	665.995	0.092	-0.234
-307.880	246.741	0.071	-0.119
-306.866	69.764	-0.139	0.141
-305.851	-200.000	-0.046	0.398
-304.837	-67.373	-0.312	-0.121
-303.822	-200.000	0.001	0.019
-302.807	-10.439	0.180	-0.118
-301.793	42.191	-0.113	0.101
-300.778	-56.143	-0.113	0.050
-299.764	50.060	0.095	-0.088
-298.749	4.246	-0.185	-0.134
-297.735	800.000	-0.066	-0.226
-296.720	-123.074	-0.147	-0.023
-295.705	-182.103	-0.106	-0.002
-294.691	510.360	0.045	-0.104
-293.676	189.810	0.110	0.163
-292.662	-120.114	0.282	0.048
-291.647	126.456	0.226	0.283
-290.632	205.937	0.068	0.105
-289.618	82.102	-0.125	-0.134
-288.603	-87.632	-0.254	-0.076
-287.589	153.540	0.239	-0.324
-286.574	-49.860	-0.212	0.099
-285.559	-46.788	-0.249	0.121
-284.545	127.755	-0.131	0.164
-283.530	37.999	0.336	0.295
-282.516	132.186	-0.081	-0.102
-281.501	-63.808	0.074	0.030
-280.486	328.142	-0.093	-0.175
-279.472	-144.585	0.105	-0.010
-278.457	569.996	0.102	0.244
-277.443	-100.291	0.297	-0.073
-276.428	186.068	0.073	-0.108
-275.413	-18.374	-0.430	0.265
-274.399	189.838	-0.084	-0.125
-273.384	38.018	-0.140	0.123
-272.370	10.274	0.130	0.098
-271.355	172.908	-0.282	0.401
-270.340	512.808	0.086	0.198
-269.326	498.317	0.057	-0.129
-268.311	295.655	-0.024	-0.043
-267.297	-42.003	0.126	0.064
-266.282	-109.242	0.340	0.071
-265.267	351.076	-0.084	0.163
-264.253	-3.926	0.252	0.173
-263.238	-200.000	0.003	-0.142
-262.224	-119.138	-0.195	-0.034
-261.209	174.851	0.055	-0.079
-260.195	800.000	0.052	0.156
-259.180	-200.000	-0.020	0.179
-258.165	800.000	-0.115	-0.345
-257.151	205.332	-0.180	-0.277
-256.136	44.671	0.055	0.050
-255.122	223.857	0.100	0.160
-254.107	139.365	-0.138	-0.179
-253.092	-57.830	0.170	-0.073
-252.078	800.000	-0.014	-0.059
-251.063	-169.105	0.237	0.009
-250.049	214.048	-0.025	0.039
-249.034	13.073	-0.166	-0.126
-248.019	-31.856	0.269	-0.149
-247.005	800.000	-0.060	0.188
-245.990	20.673	0.196	-0.156
-244.976	800.000	0.040	0.125
-243.961	-84.500	0.259	0.081
-242.946	-200.000	-0.022	0.307
-241.932	-120.099	-0.221	-0.037
-240.917	800.000	0.078	0.253
-239.903	-43.249	0.439	0.219
-238.888	9.308	-0.205	-0.153
-237.873	189.198	0.103	-0.153
-236.859	800.000	0.080	-0.226
-235.844	800.000	-0.045	-0.188
-234.830	70.774	0.090	0.092
-233.815	-38.092	-0.339	-0.177
-232.800	-53.330	-0.103	-0.047
-231.786	-37.997	0.047	0.025
-230.771	-200.000	0.005	-0.093
-229.757	-200.000	-0.009	0.324
-228.742	194.950	0.116	0.174
-227.727	800.000	0.067	0.261
-226.713	-52.133	-0.194	-0.089
-225.698	784.185	0.070	0.188
-224.684	39.846	-0.074	0.066
-223.669	800.000	0.072	-0.211
-222.655	3.716	-0.037	0.027
-221.640	193.031	0.096	-0.143
-220.625	75.433	-0.086	0.090
-219.611	-11.245	0.056	0.036
-218.596	-20.009	-0.375	-0.228
-217.582	-18.146	0.090	0.055
-216.567	-145.098	-0.140	0.013
-215.552	432.468	-0.019	0.041
-214.538	800.000	-0.034	-0.100
-213.523	-17.883	0.174	0.108
-212.509	-150.041	0.213	-0.016
-211.494	-34.837	-0.067	0.036
-210.479	-40.715	0.333	0.170
-209.465	-51.269	-0.224	-0.103
-208.450	-86.533	-0.129	-0.039
-207.436	-106.028	-0.144	0.032
-206.421	176.821	0.139	0.199
-205.406	-114.460	0.316	-0.060
-204.392	-93.648	-0.374	0.102
-203.377	31.981	-0.165	0.140
-202.363	800.000	0.061	-0.213
-201.348	185.604	0.036	0.053
-200.333	-200.000	0.025	0.184
-199.319	84.626	0.085	0.091
-198.304	37.346	0.102	-0.089
-197.290	800.000	0.023	0.077
-196.275	-68.569	-0.040	0.015
-195.260	-200.000	-0.009	0.169
-194.246	355.551	0.046	0.090
-193.231	2.634	0.087	0.062
-192.217	150.899	-0.100	-0.134
-191.202	656.239	-0.031	0.079
-190.187	132.211	-0.078	-0.099
-189.173	186.309	-0.022	-0.032
-188.158	-52.515	0.311	-0.142
-187.144	148.346	-0.220	0.293
-186.129	800.000	0.050	-0.143
-185.114	-88.665	-0.191	0.056
-184.100	48.688	0.353	-0.326
-183.085	-56.232	-0.223	-0.098
-182.071	800.000	0.110	0.362
-181.056	800.000	-0.131	0.454
-180.042	68.994	-0.014	0.014
-179.027	-49.129	-0.237	0.112
-178.012	-200.000	-0.002	-0.210
-176.998	-69.740	0.282	-0.106
-175.983	-181.740	0.183	-0.003
-174.969	518.031	0.052	0.119
-173.954	-128.302	-0.441	0.062
-172.939	-33.290	0.395	0.215
-171.925	-200.000	-0.060	-0.324
-170.910	-42.277	0.200	0.101
-169.896	-95.770	-0.133	0.035
-168.881	86.579	-0.239	-0.259
-167.866	-26.710	0.182	0.105
-166.852	-33.305	-0.244	-0.133
-165.837	-200.000	0.018	0.173
-164.823	-200.000	0.025	-0.142
-163.808	559.666	0.045	0.107
-162.793	-200.000	0.012	-0.096
-161.779	-97.890	0.409	-0.104
-160.764	-65.525	-0.297	-0.117
-159.750	123.025	0.292	0.360
-158.735	85.767	0.131	-0.142
-157.720	-200.000	-0.040	-0.187
-156.706	-200.000	-0.010	-0.087
-155.691	518.301	-0.160	-0.367
-154.677	-200.000	0.004	-0.198
-153.662	800.000	-0.160	0.481
-152.647	800.000	-0.095	-0.328
-151.633	73.370	0.234	0.241
-150.618	110.552	0.154	-0.182
-149.604	24.580	0.649	0.528
-148.589	61.823	-0.326	0.319
-147.574	5.365	0.224	0.162
-146.560	268.832	-0.088	-0.152
-145.545	41.131	-0.204	0.181
-144.531	65.174	0.075	0.075
-143.516	2.686	-0.091	0.065
-142.502	-59.014	-0.374	0.158
-141.487	-200.000	0.041	-0.224
-140.472	-200.000	0.025	-0.181
-139.458	800.000	0.061	-0.227
-138.443	-67.136	-0.100	-0.039
-137.429	-198.486	-0.284	0.002
-136.414	223.283	-0.095	-0.150
-135.399	-37.811	-0.324	0.169
-134.385	-200.000	0.021	-0.360
-133.370	85.124	0.200	0.215
-132.356	571.665	-0.139	0.333
-131.341	-200.000	0.061	0.307
-130.326	-17.055	-0.243	0.150
-129.312	61.863	-0.194	0.190
-128.297	36.943	0.189	-0.164
-127.283	224.482	-0.130	0.207
-126.268	4.365	-0.259	0.186
-125.253	-28.077	-0.252	0.143
-124.239	11.946	0.124	-0.094
-123.224	72.308	-0.172	0.176
-122.210	-34.646	0.106	0.057
-121.195	-11.210	0.190	0.123
-120.180	156.546	0.301	0.408
