DTS Sentinel unit serial number:	SN413079Multiplexer serial number:	ORYXHardware model number:	OX4-SRSoftware version number:	ORYX F/W v4.00 Oryx Data Collector v3.7.2.0data status	okinstallation	princeton_trtdifferential loss correction	single-endedforward channel	channel 1reverse channel	N/Adate	2019/09/12time	16:32:11forward acquisition time	60.00reverse acquisition time	0.00gamma	496.2192k internal	0.2305k external	0.2305temperature offset calibration	1.0089default loss term (dB/km)	0.3790temperature slope calibration	1.0000multiplexer offset coefficient	1.0000multiplexer slope coefficient	1.0000fibre end	0.00T internal ref (°C)	37.20T ext. ref 1 (°C)	2.54T ext. ref 2 (°C)	29.71length (m)	temperature (°C)	Stokes	anti-Stokes-747.200	221.986	-0.098	-0.160
-746.185	-48.130	-0.258	-0.127
-745.171	-121.080	0.274	0.047
-744.156	-39.604	-0.124	0.066
-743.142	-87.635	0.512	0.157
-742.127	589.312	-0.153	0.385
-741.112	135.684	-0.105	-0.139
-740.098	484.411	0.134	0.310
-739.083	-200.000	-0.056	0.336
-738.069	186.179	0.183	0.278
-737.054	-200.000	0.008	0.050
-736.039	753.946	-0.045	-0.125
-735.025	800.000	0.091	0.343
-734.010	71.637	-0.065	-0.068
-732.996	-146.220	-0.130	-0.012
-731.981	-4.471	0.229	-0.161
-730.966	490.979	0.068	-0.158
-729.952	-65.976	-0.159	0.065
-728.937	481.600	0.076	-0.176
-727.923	192.005	0.215	-0.330
-726.908	-34.880	0.157	0.087
-725.894	-149.684	-0.397	-0.032
-724.879	800.000	-0.043	-0.160
-723.864	148.874	-0.069	-0.095
-722.850	-80.996	-0.073	0.025
-721.835	-155.894	0.117	-0.008
-720.821	-200.000	-0.057	0.275
-719.806	-12.858	-0.222	-0.147
-718.791	-200.000	0.045	-0.293
-717.777	22.030	-0.174	0.145
-716.762	128.975	-0.105	-0.136
-715.748	-167.131	-0.255	-0.011
-714.733	800.000	0.063	-0.202
-713.718	-43.734	0.160	0.082
-712.704	-62.891	-0.139	0.059
-711.689	662.288	-0.198	-0.519
-710.675	-200.000	0.002	0.217
-709.660	354.464	-0.087	0.176
-708.645	138.932	-0.166	0.222
-707.631	268.237	-0.222	-0.395
-706.616	-200.000	0.015	-0.093
-705.602	85.241	-0.178	-0.198
-704.587	-200.000	-0.035	-0.174
-703.572	-71.656	-0.052	-0.020
-702.558	353.551	-0.095	-0.192
-701.543	800.000	-0.080	-0.236
-700.529	800.000	0.078	-0.220
-699.514	29.341	0.159	0.138
-698.499	-200.000	0.023	0.106
-697.485	313.376	-0.210	0.402
-696.470	-84.014	0.449	0.145
-695.456	-153.637	-0.238	-0.017
-694.441	-200.000	0.022	-0.230
-693.426	165.519	-0.024	0.034
-692.412	800.000	-0.057	0.180
-691.397	110.675	-0.150	0.183
-690.383	316.699	0.038	0.073
-689.368	-57.611	0.159	0.071
-688.354	-138.998	-0.262	-0.029
-687.339	58.634	-0.276	-0.276
-686.324	6.679	-0.173	0.131
-685.310	-75.304	-0.364	-0.132
-684.295	-200.000	-0.023	0.208
-683.281	224.502	0.151	-0.248
-682.266	430.279	-0.113	-0.248
-681.251	261.169	-0.039	0.068
-680.237	222.084	0.072	0.118
-679.222	-200.000	-0.010	0.222
-678.208	-200.000	0.014	-0.158
-677.193	-200.000	-0.073	0.424
-676.178	135.400	-0.207	0.274
-675.164	345.208	-0.031	-0.062
-674.149	-200.000	-0.007	0.041
-673.135	-42.592	-0.361	0.186
-672.120	-200.000	-0.002	-0.152
-671.105	-147.891	0.051	0.004
-670.091	-80.569	-0.312	-0.106
-669.076	136.275	0.159	0.210
-668.062	112.186	-0.034	-0.042
-667.047	-78.313	0.270	0.094
-666.032	-103.011	0.141	0.034
-665.018	-185.350	0.133	0.002
-664.003	343.788	-0.027	0.053
-662.989	325.675	0.070	-0.135
-661.974	-83.582	0.277	-0.090
-660.959	231.407	-0.141	-0.234
-659.945	-46.085	-0.288	0.144
-658.930	326.148	0.235	0.455
-657.916	-120.316	0.400	0.069
-656.901	434.621	-0.150	-0.331
-655.886	-53.631	0.118	-0.055
-654.872	391.357	-0.033	0.070
-653.857	166.170	-0.246	0.353
-652.843	21.330	-0.092	0.076
-651.828	-200.000	0.017	-0.297
-650.814	1.874	0.152	0.111
-649.799	-111.005	0.395	-0.082
-648.784	-126.388	-0.026	0.004
-647.770	-156.041	-0.137	0.009
-646.755	-62.906	0.186	-0.078
-645.741	-83.407	0.159	0.052
-644.726	7.817	0.044	-0.034
-643.711	800.000	-0.016	-0.065
-642.697	-118.201	0.289	-0.052
-641.682	46.276	0.272	-0.256
-640.668	-50.948	0.086	-0.041
-639.653	800.000	0.056	-0.171
-638.638	191.756	0.080	-0.122
-637.624	-9.801	-0.416	0.281
-636.609	-61.804	0.084	-0.036
-635.595	489.035	0.169	-0.391
-634.580	-122.470	0.250	-0.041
-633.565	-67.048	-0.156	-0.062
-632.551	-124.827	-0.321	0.050
-631.536	101.695	-0.246	0.291
-630.522	533.052	-0.099	0.238
-629.507	267.195	-0.038	0.068
-628.492	800.000	-0.029	0.115
-627.478	611.726	0.011	-0.028
-626.463	17.992	-0.154	0.125
-625.449	-200.000	0.053	0.321
-624.434	238.780	-0.116	0.196
-623.419	-52.414	0.088	-0.041
-622.405	-200.000	0.032	-0.820
-621.390	-200.000	0.002	-0.332
-620.376	-200.000	-0.031	0.254
-619.361	-59.709	0.065	-0.028
-618.346	-4.396	-0.080	-0.056
-617.332	800.000	-0.046	0.134
-616.317	212.492	0.026	0.042
-615.303	-21.509	-0.104	-0.064
-614.288	-137.327	0.061	-0.007
-613.273	-27.785	-0.042	-0.025
-612.259	-41.839	0.302	0.157
-611.244	-147.482	-0.245	0.021
-610.230	-168.863	-0.328	-0.012
-609.215	-60.310	0.250	0.108
-608.201	800.000	-0.059	-0.198
-607.186	727.222	0.048	0.130
-606.171	45.813	-0.028	0.026
-605.157	-194.054	-0.070	-0.001
-604.142	-29.527	-0.060	-0.035
-603.128	-11.024	0.073	-0.049
-602.113	-85.836	-0.113	0.036
-601.098	25.040	0.226	0.190
-600.084	30.243	-0.077	-0.066
-599.069	-14.951	-0.103	0.067
-598.055	-46.363	0.210	-0.104
-597.040	-200.000	0.021	-0.328
-596.025	-200.000	0.014	-0.066
-595.011	-200.000	0.011	0.053
-593.996	-125.231	0.300	0.046
-592.982	422.855	0.026	0.056
-591.967	51.159	0.180	0.173
-590.952	-138.074	-0.227	0.026
-589.938	289.829	-0.160	0.293
-588.923	-59.537	-0.021	-0.009
-587.909	-131.369	-0.168	0.022
-586.894	84.222	-0.163	0.180
-585.879	-200.000	-0.007	-0.180
-584.865	733.280	0.054	0.145
-583.850	-153.167	0.275	0.019
-582.836	159.386	-0.148	0.208
-581.821	-109.908	0.307	-0.065
-580.806	-21.401	-0.269	0.166
-579.792	-60.074	-0.163	-0.070
-578.777	171.093	-0.042	-0.061
-577.763	437.406	-0.064	0.141
-576.748	-200.000	-0.030	-0.199
-575.733	222.458	-0.146	0.238
-574.719	-200.000	-0.041	0.198
-573.704	-76.709	-0.234	-0.083
-572.690	126.280	0.042	0.053
-571.675	-5.818	0.148	-0.102
-570.661	800.000	-0.087	0.381
-569.646	-96.432	-0.224	-0.060
-568.631	324.761	-0.052	0.100
-567.617	114.114	0.101	-0.124
-566.602	102.338	0.141	-0.166
-565.588	177.453	-0.130	-0.192
-564.573	800.000	-0.092	-0.268
-563.558	800.000	0.024	-0.073
-562.544	-75.205	-0.049	0.018
-561.529	-44.322	0.085	0.043
-560.515	163.127	-0.186	-0.264
-559.500	-77.579	-0.253	0.089
-558.485	226.550	0.063	0.103
-557.471	124.434	-0.145	-0.184
-556.456	-4.871	0.332	-0.231
-555.442	402.740	-0.117	0.248
-554.427	32.747	0.232	0.203
-553.412	-33.017	-0.342	0.192
-552.398	-160.908	-0.201	0.011
-551.383	52.900	-0.146	0.141
-550.369	229.952	0.139	-0.229
-549.354	4.184	-0.065	0.048
-548.339	-140.273	-0.209	-0.022
-547.325	-155.050	0.238	-0.016
-546.310	-134.495	0.129	-0.016
-545.296	50.932	0.093	-0.089
-544.281	-10.011	-0.194	0.130
-543.266	800.000	-0.063	0.198
-542.252	-200.000	0.043	0.192
-541.237	150.691	0.158	0.217
-540.223	-165.809	-0.123	-0.005
-539.208	-1.199	0.176	0.126
-538.193	142.024	0.163	-0.218
-537.179	-126.680	-0.029	0.004
-536.164	-141.529	0.322	-0.033
-535.150	336.012	-0.037	0.073
-534.135	-121.546	0.418	0.070
-533.121	-200.000	0.010	0.167
-532.106	353.399	-0.226	-0.453
-531.091	14.328	-0.041	0.032
-530.077	-43.872	-0.141	-0.072
-529.062	800.000	0.071	0.240
-528.048	-144.802	0.237	-0.022
-527.033	-8.284	-0.209	-0.142
-526.018	-38.352	0.123	-0.066
-525.004	-38.741	0.044	0.023
-523.989	-61.770	-0.056	-0.024
-522.975	-59.120	0.079	-0.034
-521.960	-161.609	-0.258	-0.013
-520.945	198.048	-0.057	0.088
-519.931	102.607	-0.133	-0.157
-518.916	477.966	-0.065	0.149
-517.902	-92.174	-0.168	0.048
-516.887	150.444	-0.125	0.172
-515.872	-69.622	-0.080	0.031
-514.858	-91.558	0.229	-0.066
-513.843	184.822	-0.100	0.150
-512.829	-65.968	-0.150	-0.060
-511.814	-200.000	-0.019	-0.230
-510.799	800.000	-0.055	-0.217
-509.785	-1.816	-0.086	0.061
-508.770	80.140	-0.065	0.070
-507.756	-103.908	-0.150	0.035
-506.741	-165.711	0.368	0.016
-505.726	278.271	0.054	0.097
-504.712	-110.194	-0.040	0.008
-503.697	-200.000	-0.017	-0.457
-502.683	-18.762	-0.193	0.121
-501.668	-200.000	-0.021	0.219
-500.653	26.457	0.236	-0.199
-499.639	-171.522	0.324	0.011
-498.624	-158.903	0.417	0.024
-497.610	97.797	0.288	0.333
-496.595	216.030	0.068	0.110
-495.581	524.740	0.097	0.231
-494.566	-6.549	-0.238	-0.163
-493.551	-150.973	-0.287	-0.022
-492.537	-45.550	0.146	-0.073
-491.522	612.646	0.076	0.192
-490.508	-111.063	0.517	0.107
-489.493	-79.929	-0.143	0.049
-488.478	249.659	0.088	-0.150
-487.464	158.203	-0.171	0.239
-486.449	354.417	-0.247	0.495
-485.435	27.940	0.210	-0.179
-484.420	87.591	-0.099	0.110
-483.405	-200.000	-0.031	0.144
-482.391	-51.575	-0.389	-0.183
-481.376	166.051	0.102	-0.146
-480.362	-200.000	0.050	-0.271
-479.347	-99.413	-0.107	-0.027
-478.332	-15.484	-0.185	-0.119
-477.318	313.791	0.061	-0.115
-476.303	-167.239	-0.117	-0.005
-475.289	9.284	-0.045	0.035
-474.274	42.850	0.025	0.023
-473.259	45.523	0.271	0.252
-472.245	-122.788	0.237	-0.039
-471.230	160.331	0.111	0.156
-470.216	223.088	0.067	-0.109
-469.201	85.028	0.230	0.254
-468.186	50.493	-0.321	-0.305
-467.172	-23.238	-0.048	0.029
-466.157	73.889	-0.173	0.182
-465.143	-145.800	0.305	-0.027
-464.128	-147.145	0.199	-0.017
-463.113	-117.836	-0.103	0.019
-462.099	71.013	0.152	0.159
-461.084	399.327	-0.089	-0.187
-460.070	-108.490	0.187	0.040
-459.055	31.468	0.272	0.235
-458.040	-108.770	0.087	0.019
-457.026	93.767	-0.269	0.306
-456.011	-200.000	-0.017	-0.139
-454.997	245.985	0.120	0.203
-453.982	-26.913	0.190	-0.112
-452.968	800.000	0.045	-0.154
-451.953	-97.385	-0.254	-0.067
-450.938	293.373	0.018	-0.033
-449.924	-173.654	0.272	0.008
-448.909	21.523	0.154	-0.126
-447.895	568.036	0.053	-0.130
-446.880	290.517	-0.079	0.145
-445.865	151.709	0.115	0.157
-444.851	177.384	0.032	-0.047
-443.836	-97.164	-0.122	0.032
-442.822	140.038	-0.202	-0.268
-441.807	15.504	-0.322	0.254
-440.792	-200.000	-0.047	-0.247
-439.778	102.650	0.275	-0.324
-438.763	-112.367	-0.266	0.053
-437.749	-200.000	0.030	-0.203
-436.734	-19.084	0.407	0.254
-435.719	22.194	0.115	-0.095
-434.705	800.000	-0.050	-0.170
-433.690	-200.000	0.038	0.193
-432.676	198.930	0.112	-0.172
-431.661	-79.468	0.169	0.057
-430.646	800.000	0.095	0.389
-429.632	-200.000	0.005	0.213
-428.617	317.078	-0.140	0.266
-427.603	33.824	0.111	0.097
-426.588	-105.637	-0.323	0.074
-425.573	436.701	-0.014	-0.030
-424.559	47.787	0.094	-0.088
-423.544	-200.000	0.017	-0.171
-422.530	205.119	0.093	0.144
-421.515	-109.264	0.142	0.030
-420.500	-196.386	0.280	-0.002
-419.486	-53.983	0.014	0.006
-418.471	-196.272	0.194	0.001
-417.457	-200.000	0.007	0.137
-416.442	800.000	-0.071	0.251
-415.428	800.000	0.047	-0.161
-414.413	53.832	0.175	-0.169
-413.398	-6.449	0.115	-0.079
-412.384	664.998	-0.104	-0.269
-411.369	-200.000	0.011	0.092
-410.355	800.000	0.068	-0.286
-409.340	-128.296	-0.266	0.038
-408.325	-94.840	0.124	0.034
-407.311	-200.000	0.019	0.229
-406.296	92.098	-0.031	0.035
-405.282	-22.155	-0.096	0.059
-404.267	188.691	0.141	0.211
-403.252	123.232	0.084	0.106
-402.238	-107.839	0.203	-0.044
-401.223	-102.886	0.098	-0.023
-400.209	-55.568	-0.293	-0.132
-399.194	14.231	0.035	-0.027
-398.179	-12.689	-0.166	-0.108
-397.165	-53.477	-0.217	-0.100
-396.150	-200.000	-0.020	0.286
-395.136	-50.063	-0.089	-0.042
-394.121	77.951	-0.169	0.181
-393.106	-120.409	-0.216	-0.037
-392.092	-2.352	0.072	0.051
-391.077	-10.809	-0.145	-0.096
-390.063	136.441	-0.266	0.349
-389.048	-200.000	-0.017	-0.322
-388.033	800.000	-0.005	-0.015
-387.019	-200.000	0.016	0.270
-386.004	134.211	-0.132	-0.172
-384.990	37.917	-0.170	-0.151
-383.975	800.000	0.134	-0.410
-382.960	-114.613	-0.100	0.019
-381.946	250.434	-0.224	-0.381
-380.931	144.829	0.135	0.182
-379.917	434.389	0.199	-0.433
-378.902	-200.000	0.024	0.133
-377.888	-200.000	0.026	0.150
-376.873	1.212	-0.220	0.158
-375.858	-171.131	0.013	0.000
-374.844	-200.000	0.021	0.296
-373.829	-52.120	0.090	0.042
-372.815	52.568	-0.121	-0.116
-371.800	16.299	0.323	-0.256
-370.785	55.123	-0.093	0.090
-369.771	53.281	0.118	-0.114
-368.756	-131.546	0.524	0.069
-367.742	-200.000	0.035	0.207
-366.727	-200.000	-0.008	-0.038
-365.712	93.182	0.083	-0.094
-364.698	-200.000	0.004	0.067
-363.683	-49.509	-0.257	-0.123
-362.669	-200.000	-0.006	0.094
-361.654	800.000	-0.026	0.086
-360.639	659.107	-0.062	0.161
-359.625	32.217	-0.295	-0.255
-358.610	-68.013	-0.153	-0.060
-357.596	-32.533	0.168	0.094
-356.581	100.868	0.203	0.237
-355.566	-139.490	-0.253	-0.027
-354.552	-111.744	0.171	0.035
-353.537	800.000	-0.061	0.213
-352.523	34.272	0.252	0.221
-351.508	342.441	-0.119	-0.234
-350.493	-120.455	0.192	0.033
-349.479	-34.847	-0.126	0.069
-348.464	-44.206	0.147	0.074
-347.450	800.000	0.059	0.234
-346.435	-114.364	0.296	0.057
-345.420	712.616	-0.070	0.187
-344.406	-77.445	-0.010	0.003
-343.391	2.716	-0.035	-0.026
-342.377	40.571	0.267	0.241
-341.362	800.000	-0.070	0.223
-340.348	210.970	0.191	-0.300
-339.333	-38.264	0.200	-0.106
-338.318	-93.186	0.120	0.033
-337.304	800.000	-0.095	0.403
-336.289	101.264	0.203	-0.237
-335.275	66.789	-0.335	-0.341
-334.260	-52.468	0.040	-0.019
-333.245	-187.047	0.215	-0.003
-332.231	-66.678	-0.214	0.085
-331.216	11.322	0.038	0.029
-330.202	653.364	0.034	-0.086
-329.187	-193.507	0.481	-0.004
-328.172	-200.000	0.036	-0.200
-327.158	68.049	0.121	0.124
-326.143	129.020	0.175	-0.223
-325.129	-137.471	0.306	-0.035
-324.114	27.296	-0.073	-0.061
-323.099	800.000	-0.012	0.035
-322.085	-200.000	-0.050	0.418
-321.070	34.179	0.107	-0.094
-320.056	417.332	-0.107	0.230
-319.041	23.330	-0.188	-0.154
-318.026	-200.000	0.032	-0.273
-317.012	54.585	0.160	0.155
-315.997	216.678	-0.029	-0.047
-314.983	6.798	0.151	-0.112
-313.968	162.506	-0.342	-0.480
-312.953	-97.161	-0.302	0.079
-311.939	-95.955	-0.202	-0.054
-310.924	800.000	-0.107	0.317
-309.910	92.352	-0.304	-0.343
-308.895	800.000	-0.096	-0.323
-307.880	-124.253	0.192	0.030
-306.866	-200.000	0.030	-0.300
-305.851	4.359	-0.274	0.201
-304.837	-27.749	0.131	0.076
-303.822	-25.835	-0.274	-0.161
-302.807	-137.130	-0.139	-0.016
-301.793	92.076	0.255	0.287
-300.778	17.401	0.048	-0.038
-299.764	-66.024	-0.258	0.103
-298.749	200.756	-0.111	0.171
-297.735	325.724	-0.069	-0.133
-296.720	800.000	0.046	0.196
-295.705	269.080	-0.115	0.202
-294.691	-127.651	-0.027	0.004
-293.676	-83.155	-0.179	-0.057
-292.662	29.762	0.404	-0.344
-291.647	-60.134	-0.116	0.050
-290.632	54.000	-0.066	-0.063
-289.618	-32.980	0.272	0.151
-288.603	66.115	0.121	-0.123
-287.589	162.963	0.164	-0.230
-286.574	-10.252	-0.337	-0.224
-285.559	-106.998	-0.021	-0.005
-284.545	-30.184	0.036	0.021
-283.530	-82.601	0.057	0.018
-282.516	-200.000	-0.003	0.108
-281.501	16.497	0.078	0.061
-280.486	449.056	-0.180	0.397
-279.472	800.000	0.105	-0.339
-278.457	-1.326	0.230	-0.162
-277.443	-14.777	0.213	0.136
-276.428	-44.625	-0.209	-0.104
-275.413	-8.240	-0.121	0.081
-274.399	800.000	-0.105	-0.310
-273.384	-78.196	-0.366	0.126
-272.370	-32.018	-0.065	0.037
-271.355	-200.000	-0.022	-0.430
-270.340	65.746	0.073	0.074
-269.326	-118.438	-0.338	-0.060
-268.311	106.502	-0.217	0.257
-267.297	-200.000	-0.016	0.149
-266.282	-135.590	-0.146	-0.017
-265.267	26.364	-0.207	-0.173
-264.253	800.000	0.093	-0.259
-263.238	532.640	-0.133	0.315
-262.224	43.436	-0.131	-0.120
-261.209	36.055	0.194	0.171
-260.195	235.243	0.030	-0.050
-259.180	-200.000	-0.021	-0.180
-258.165	3.076	-0.179	-0.130
-257.151	-131.165	0.213	0.028
-256.136	100.790	-0.157	-0.182
-255.122	-46.511	-0.082	0.040
-254.107	270.757	-0.144	-0.252
-253.092	89.833	0.164	-0.183
-252.078	-126.822	-0.260	0.038
-251.063	99.288	-0.110	-0.127
-250.049	160.974	0.078	-0.109
-249.034	-174.091	-0.198	-0.006
-248.019	38.932	-0.056	-0.050
-247.005	-21.891	-0.156	-0.095
-245.990	800.000	0.060	-0.236
-244.976	800.000	0.042	-0.127
-243.961	-159.042	0.344	-0.019
-242.946	-200.000	0.012	0.118
-241.932	-27.307	0.152	0.089
-240.917	-185.613	0.394	0.006
-239.903	-58.580	-0.041	0.018
-238.888	294.297	-0.096	-0.176
-237.873	-131.331	-0.336	-0.044
-236.859	-200.000	0.007	0.052
-235.844	81.750	-0.199	0.215
-234.830	346.371	0.231	-0.454
-233.815	567.183	0.041	-0.099
-232.800	-200.000	0.020	-0.252
-231.786	-116.899	0.200	0.037
-230.771	581.121	-0.085	0.208
-229.757	-200.000	-0.002	-0.268
-228.742	-129.490	-0.186	0.026
-227.727	-17.938	-0.147	-0.092
-226.713	-170.185	0.488	-0.017
-225.698	-42.938	0.097	0.049
-224.684	-16.704	-0.080	0.050
-223.669	-200.000	-0.024	0.128
-222.655	682.426	0.049	-0.128
-221.640	-40.689	-0.233	-0.121
-220.625	-119.918	-0.167	0.029
-219.611	-200.000	0.021	-0.143
-218.596	70.668	-0.079	-0.081
-217.582	-44.569	-0.006	-0.003
-216.567	-27.147	-0.154	0.089
-215.552	-29.734	0.255	0.145
-214.538	800.000	0.060	-0.202
-213.523	-40.086	0.285	-0.148
-212.509	-93.348	0.383	0.106
-211.494	-200.000	-0.005	-0.251
-210.479	-147.169	-0.325	-0.028
-209.465	800.000	0.095	-0.328
-208.450	-150.893	-0.242	0.018
-207.436	36.356	0.201	-0.177
-206.421	92.101	0.295	0.331
-205.406	267.598	0.208	0.363
-204.392	-42.380	-0.069	0.035
-203.377	292.369	-0.084	0.152
-202.363	-42.750	-0.266	0.135
-201.348	-113.788	-0.172	0.033
-200.333	220.069	-0.060	-0.095
-199.319	-100.168	-0.022	-0.005
-198.304	-200.000	0.013	0.254
-197.290	-88.732	0.370	-0.109
-196.275	800.000	-0.102	-0.299
-195.260	800.000	-0.093	0.274
-194.246	-115.345	0.104	-0.020
-193.231	-95.413	-0.067	-0.018
-192.217	-200.000	-0.003	0.222
-191.202	-152.764	0.162	0.011
-190.187	-123.222	0.176	0.028
-189.173	274.462	0.169	0.299
-188.158	800.000	-0.069	-0.221
-187.144	167.353	-0.101	0.142
-186.129	16.354	-0.158	-0.124
-185.114	53.621	-0.178	-0.170
-184.100	-68.044	-0.217	0.084
-183.085	-61.211	-0.366	-0.154
-182.071	485.694	-0.149	-0.338
-181.056	201.107	-0.051	0.078
-180.042	242.586	0.061	0.102
-179.027	-135.705	-0.355	0.042
-178.012	800.000	-0.021	-0.081
-176.998	-80.690	0.322	0.107
-175.983	-200.000	-0.026	0.183
-174.969	-149.074	0.231	0.018
-173.954	37.049	0.058	-0.051
-172.939	800.000	-0.153	0.425
-171.925	-196.272	-0.109	0.001
-170.910	-111.301	-0.057	0.012
-169.896	531.919	-0.004	-0.010
-168.881	-129.414	-0.341	-0.047
-167.866	-200.000	0.026	0.000
-166.852	-60.534	0.386	0.163
-165.837	2.945	0.097	0.070
-164.823	-79.120	0.380	-0.128
-163.808	-29.285	-0.166	-0.094
-162.793	-200.000	0.002	0.203
-161.779	80.598	0.128	-0.138
-160.764	119.737	-0.180	0.222
-159.750	-84.423	-0.361	0.113
-158.735	-144.724	-0.133	0.012
-157.720	-200.000	-0.044	0.472
-156.706	101.128	-0.142	0.165
-155.691	-69.972	0.329	-0.125
-154.677	608.304	0.172	-0.426
-153.662	153.219	-0.182	-0.248
-152.647	371.388	-0.134	0.269
-151.633	-23.719	0.365	-0.218
-150.618	-89.759	0.166	0.048
-149.604	408.600	0.100	0.211
-148.589	800.000	-0.028	-0.109
-147.574	515.724	-0.047	0.109
-146.560	43.919	0.090	-0.082
-145.545	190.792	0.123	-0.184
-144.531	-45.371	0.272	-0.134
-143.516	-135.076	-0.118	-0.014
-142.502	-14.752	0.340	0.217
-141.487	203.212	0.154	0.237
-140.472	-142.490	-0.167	0.016
-139.458	800.000	-0.018	0.068
-138.443	-106.412	0.171	0.038
-137.429	-122.571	-0.313	0.051
-136.414	-141.466	0.385	-0.039
-135.399	-200.000	-0.009	-0.083
-134.385	343.269	-0.092	-0.180
-133.370	-200.000	-0.024	0.393
-132.356	12.081	0.248	0.189
-131.341	411.662	-0.084	0.176
-130.326	-172.378	0.216	-0.007
-129.312	-200.000	0.016	0.072
-128.297	460.343	0.049	0.108
-127.283	-111.339	-0.021	0.004
-126.268	800.000	-0.105	-0.310
-125.253	800.000	0.091	0.351
-124.239	99.620	0.090	0.104
-123.224	-200.000	0.030	-0.207
-122.210	-75.561	-0.124	-0.044
-121.195	-81.097	0.225	0.074
