DTS Sentinel unit serial number:	SN413079Multiplexer serial number:	ORYXHardware model number:	OX4-SRSoftware version number:	ORYX F/W v4.00 Oryx Data Collector v3.7.2.0data status	okinstallation	princeton_trtdifferential loss correction	single-endedforward channel	channel 1reverse channel	N/Adate	2019/09/17time	15:42:35forward acquisition time	60.00reverse acquisition time	0.00gamma	496.2192k internal	0.2293k external	0.2293temperature offset calibration	0.9962default loss term (dB/km)	0.3790temperature slope calibration	1.0000multiplexer offset coefficient	1.0000multiplexer slope coefficient	1.0000fibre end	0.00T internal ref (°C)	38.81T ext. ref 1 (°C)	0.37T ext. ref 2 (°C)	36.52length (m)	temperature (°C)	Stokes	anti-Stokes-747.200	-14.893	-0.218	0.143
-746.185	-64.470	-0.182	0.076
-745.171	-118.641	0.178	-0.032
-744.156	-200.000	0.031	0.302
-743.142	-200.000	-0.057	-0.468
-742.127	67.174	0.153	0.159
-741.112	180.057	0.069	-0.103
-740.098	-200.000	0.008	-0.189
-739.083	-200.000	0.001	0.197
-738.069	-49.957	0.285	0.138
-737.054	90.852	0.127	0.146
-736.039	33.773	-0.133	-0.118
-735.025	-10.098	0.015	0.010
-734.010	800.000	0.018	0.077
-732.996	800.000	0.055	-0.231
-731.981	503.171	-0.106	-0.251
-730.966	-107.985	0.223	0.049
-729.952	-135.221	-0.452	0.055
-728.937	252.713	-0.139	-0.243
-727.923	-144.140	0.195	0.019
-726.908	-155.414	0.087	-0.006
-725.894	-19.580	-0.163	-0.103
-724.879	617.224	0.070	0.179
-723.864	68.807	-0.100	0.105
-722.850	-200.000	-0.046	-0.215
-721.835	-200.000	0.014	-0.397
-720.821	123.480	-0.148	0.190
-719.806	496.624	0.091	0.214
-718.791	-11.510	-0.124	0.083
-717.777	-41.999	0.337	0.176
-716.762	-16.974	-0.189	-0.122
-715.748	62.519	-0.114	0.117
-714.733	30.360	-0.390	-0.341
-713.718	-157.279	-0.190	-0.012
-712.704	-12.519	0.113	-0.075
-711.689	-46.328	0.107	0.054
-710.675	800.000	-0.028	-0.081
-709.660	-118.277	0.075	0.014
-708.645	280.950	-0.114	0.208
-707.631	278.098	0.072	0.130
-706.616	-160.736	0.114	-0.006
-705.602	194.294	0.129	0.199
-704.587	-120.836	-0.462	-0.080
-703.572	-139.099	0.141	-0.016
-702.558	-139.585	0.220	-0.024
-701.543	-114.709	0.374	0.073
-700.529	-78.876	0.244	0.085
-699.514	-126.124	-0.203	-0.031
-698.499	800.000	-0.062	0.238
-697.485	179.888	0.216	0.323
-696.470	800.000	-0.135	0.474
-695.456	-44.565	0.217	-0.111
-694.441	-200.000	0.017	-0.145
-693.426	599.112	0.062	-0.157
-692.412	-57.342	0.283	-0.127
-691.397	-200.000	0.018	-0.184
-690.383	-200.000	0.044	-0.399
-689.368	-167.817	-0.132	0.005
-688.354	-63.454	0.104	-0.044
-687.339	800.000	0.118	-0.453
-686.324	211.924	0.145	-0.233
-685.310	-63.796	0.252	0.105
-684.295	800.000	-0.028	0.100
-683.281	-63.094	0.162	0.068
-682.266	-143.941	0.176	0.017
-681.251	-147.325	0.286	-0.025
-680.237	-98.536	0.388	-0.101
-679.222	-200.000	0.042	-0.201
-678.208	122.339	-0.108	-0.138
-677.193	-47.227	0.169	-0.084
-676.178	-200.000	-0.009	0.150
-675.164	188.806	-0.070	-0.106
-674.149	32.373	0.226	-0.199
-673.135	-200.000	0.031	-0.219
-672.120	800.000	-0.060	0.233
-671.105	62.725	0.187	-0.191
-670.091	-200.000	0.061	-0.328
-669.076	77.886	-0.124	0.135
-668.062	-150.465	-0.078	0.006
-667.047	-80.638	-0.177	0.060
-666.032	69.279	-0.139	-0.146
-665.018	800.000	-0.207	0.586
-664.003	-16.696	0.077	0.050
-662.989	-200.000	-0.010	-0.178
-661.974	-114.222	0.248	0.049
-660.959	800.000	-0.062	0.232
-659.945	-121.653	0.139	-0.024
-658.930	-200.000	-0.020	0.155
-657.916	-143.321	0.343	0.034
-656.901	-200.000	-0.002	-0.083
-655.886	-36.984	0.067	0.037
-654.872	14.744	0.140	0.112
-653.857	225.037	0.159	-0.262
-652.843	-101.090	-0.009	-0.002
-651.828	347.063	0.068	0.137
-650.814	-35.692	-0.204	-0.113
-649.799	-200.000	-0.009	-0.094
-648.784	62.959	0.046	0.047
-647.770	800.000	-0.079	0.257
-646.755	-200.000	0.053	-0.338
-645.741	-159.883	0.201	-0.011
-644.726	-55.482	-0.292	-0.133
-643.711	-200.000	-0.027	0.155
-642.697	231.074	-0.041	0.068
-641.682	71.589	-0.164	0.174
-640.668	191.762	0.204	0.314
-639.653	123.273	-0.204	0.260
-638.638	63.537	0.253	-0.258
-637.624	800.000	-0.065	0.198
-636.609	-47.816	-0.172	0.085
-635.595	197.461	0.046	0.071
-634.580	-27.234	-0.242	0.144
-633.565	500.327	-0.063	-0.149
-632.551	301.538	-0.140	0.264
-631.536	-149.347	-0.204	0.017
-630.522	234.423	-0.095	0.159
-629.507	-107.791	0.279	0.062
-628.492	7.723	0.143	-0.109
-627.478	-21.151	0.253	0.158
-626.463	76.763	0.291	-0.315
-625.449	-52.376	-0.140	0.066
-624.434	-90.226	-0.102	0.030
-623.419	-200.000	0.021	-0.121
-622.405	-161.643	-0.686	-0.036
-621.390	771.598	0.121	0.337
-620.376	148.349	0.087	0.119
-619.361	218.825	-0.067	0.109
-618.346	73.690	-0.170	-0.181
-617.332	-57.216	-0.293	-0.132
-616.317	-200.000	-0.017	-0.216
-615.303	800.000	0.030	0.126
-614.288	800.000	0.034	-0.136
-613.273	46.556	0.103	0.097
-612.259	563.030	-0.068	0.167
-611.244	-101.001	0.105	-0.026
-610.230	800.000	0.109	0.421
-609.215	65.083	0.239	0.246
-608.201	-113.853	-0.296	-0.059
-607.186	-156.533	0.433	-0.027
-606.171	-159.021	-0.293	-0.017
-605.157	-200.000	-0.012	0.111
-604.142	-200.000	0.031	0.144
-603.128	226.264	0.101	-0.167
-602.113	-38.334	0.203	0.109
-601.098	-200.000	-0.006	0.109
-600.084	103.326	-0.034	0.041
-599.069	-105.079	0.301	-0.070
-598.055	-1.124	-0.079	0.056
-597.040	285.159	0.084	0.154
-596.025	189.054	-0.092	0.140
-595.011	736.601	-0.037	0.101
-593.996	-15.262	0.315	-0.205
-592.982	-200.000	0.009	0.115
-591.967	-13.581	0.294	-0.194
-590.952	623.703	0.054	0.139
-589.938	36.754	0.301	-0.270
-588.923	-200.000	-0.027	-0.180
-587.909	511.355	0.084	-0.200
-586.894	381.435	0.016	0.033
-585.879	-200.000	-0.071	-0.398
-584.865	-170.964	-0.061	0.002
-583.850	-80.274	-0.094	-0.032
-582.836	-11.184	0.334	-0.224
-581.821	-200.000	0.022	-0.104
-580.806	-70.520	-0.222	-0.086
-579.792	-200.000	-0.049	0.332
-578.777	10.838	0.338	-0.262
-577.763	800.000	-0.085	-0.264
-576.748	-200.000	-0.032	-0.284
-575.733	-55.830	-0.187	0.085
-574.719	-1.532	-0.182	-0.130
-573.704	118.874	-0.234	0.294
-572.690	-200.000	0.020	-0.227
-571.675	-200.000	-0.006	-0.279
-570.661	129.985	-0.125	-0.162
-569.646	294.269	-0.130	-0.241
-568.631	-9.615	0.389	0.264
-567.617	-48.808	-0.061	-0.030
-566.602	533.876	-0.058	0.140
-565.588	-113.935	-0.066	0.013
-564.573	11.659	-0.073	0.057
-563.558	114.515	-0.128	-0.158
-562.544	77.239	0.074	0.080
-561.529	454.512	-0.123	0.278
-560.515	149.221	0.148	-0.203
-559.500	8.334	0.128	0.098
-558.485	556.838	0.128	0.314
-557.471	800.000	0.097	-0.313
-556.456	-200.000	-0.035	0.233
-555.442	800.000	-0.047	-0.157
-554.427	-98.132	0.355	0.093
-553.412	-200.000	-0.032	-0.188
-552.398	52.738	-0.297	-0.288
-551.383	468.326	-0.111	-0.252
-550.369	-82.416	0.108	-0.036
-549.354	-108.926	-0.143	0.031
-548.339	-200.000	-0.010	-0.143
-547.325	428.645	-0.016	0.035
-546.310	800.000	0.119	0.396
-545.296	12.132	-0.095	0.074
-544.281	-98.435	0.123	0.032
-543.266	-200.000	-0.047	0.327
-542.252	-38.355	0.266	0.143
-541.237	-33.497	-0.160	-0.090
-540.223	457.177	-0.112	0.253
-539.208	-200.000	0.049	0.319
-538.193	75.890	-0.098	-0.105
-537.179	-40.204	-0.101	-0.053
-536.164	16.085	-0.071	0.057
-535.150	487.484	-0.068	0.159
-534.135	29.826	-0.174	0.151
-533.121	203.686	0.038	-0.059
-532.106	-85.817	0.156	-0.049
-531.091	177.116	-0.048	0.070
-530.077	800.000	-0.084	0.241
-529.062	-200.000	-0.025	0.361
-528.048	-25.231	-0.123	0.074
-527.033	800.000	-0.006	0.021
-526.018	800.000	0.038	-0.162
-525.004	-83.793	0.414	0.134
-523.989	-66.143	-0.125	0.050
-522.975	-46.048	-0.329	-0.164
-521.960	-47.190	-0.012	0.006
-520.945	-159.055	-0.207	-0.012
-519.931	-129.437	-0.493	-0.069
-518.916	227.192	-0.028	-0.046
-517.902	800.000	0.026	0.092
-516.887	-157.748	0.251	-0.015
-515.872	577.559	0.052	-0.129
-514.858	-200.000	0.028	-0.158
-513.843	-53.921	0.227	-0.105
-512.829	56.191	0.152	0.149
-511.814	556.122	-0.026	-0.063
-510.799	-200.000	-0.028	0.364
-509.785	-5.196	-0.087	0.061
-508.770	33.791	-0.150	0.133
-507.756	-82.240	0.120	0.039
-506.741	-48.885	0.075	-0.037
-505.726	-39.916	0.367	0.194
-504.712	-200.000	-0.052	0.293
-503.697	-107.934	0.060	-0.013
-502.683	-34.905	-0.128	-0.071
-501.668	-43.752	-0.155	0.079
-500.653	-17.515	-0.155	-0.099
-499.639	328.352	-0.094	-0.184
-498.624	92.894	-0.045	0.052
-497.610	45.068	-0.136	-0.127
-496.595	-200.000	0.021	-0.099
-495.581	-200.000	0.049	-0.232
-494.566	-55.684	-0.231	-0.105
-493.551	205.115	0.185	0.291
-492.537	533.683	0.170	0.407
-491.522	-73.594	-0.078	-0.029
-490.508	-136.831	-0.218	0.025
-489.493	91.722	-0.114	-0.130
-488.478	-16.238	-0.379	-0.244
-487.464	424.813	0.045	-0.098
-486.449	647.198	0.022	-0.058
-485.435	-98.804	0.297	0.076
-484.420	-90.620	-0.108	0.032
-483.405	33.353	0.027	-0.024
-482.391	216.891	-0.106	0.171
-481.376	-200.000	0.044	0.200
-480.362	-200.000	-0.226	-0.001
-479.347	-97.601	0.232	0.061
-478.332	800.000	0.060	-0.229
-477.318	-60.279	0.187	-0.080
-476.303	-200.000	-0.018	-0.459
-475.289	-113.736	0.122	0.024
-474.274	76.932	-0.184	0.198
-473.259	602.647	0.086	0.216
-472.245	-160.452	-0.043	0.002
-471.230	-200.000	0.030	-0.189
-470.216	600.581	-0.047	-0.118
-469.201	-152.910	-0.229	0.016
-468.186	25.139	0.362	-0.304
-467.172	99.330	0.068	0.079
-466.157	-140.285	0.242	0.026
-465.143	-162.001	0.216	0.011
-464.128	-200.000	-0.037	0.214
-463.113	-200.000	0.033	0.200
-462.099	-23.418	0.455	0.277
-461.084	800.000	-0.070	-0.260
-460.070	-200.000	-0.001	-0.476
-459.055	-124.125	-0.147	-0.023
-458.040	-72.325	0.306	-0.115
-457.026	-122.009	-0.177	0.029
-456.011	-111.480	-0.215	0.044
-454.997	254.235	0.139	-0.241
-453.982	-25.264	-0.101	-0.061
-452.968	-200.000	-0.089	0.442
-451.953	800.000	0.037	-0.128
-450.938	-77.128	0.204	0.072
-449.924	-11.462	-0.134	0.089
-448.909	-200.000	-0.020	-0.328
-447.895	-200.000	-0.002	0.209
-446.880	-129.050	0.074	0.010
-445.865	122.703	0.152	0.193
-444.851	-97.260	-0.230	0.061
-443.836	-113.473	-0.201	-0.040
-442.822	61.251	0.056	0.057
-441.807	30.225	-0.083	-0.072
-440.792	256.428	0.157	-0.272
-439.778	630.322	-0.059	0.151
-438.763	-9.465	-0.160	-0.108
-437.749	195.164	-0.053	0.081
-436.734	-104.766	-0.054	0.013
-435.719	-117.260	0.154	0.028
-434.705	587.898	0.194	-0.483
-433.690	-26.904	0.136	-0.080
-432.676	-138.693	0.094	-0.010
-431.661	126.717	0.121	0.155
-430.646	374.878	0.137	-0.281
-429.632	365.812	-0.092	-0.188
-428.617	300.446	-0.083	-0.156
-427.603	48.774	0.186	-0.177
-426.588	-132.899	0.393	0.051
-425.573	-136.431	0.147	-0.017
-424.559	755.020	0.061	-0.168
-423.544	-60.426	0.278	0.119
-422.530	-149.738	-0.158	-0.013
-421.515	-200.000	-0.005	0.104
-420.500	-200.000	0.022	-0.465
-419.486	-58.734	-0.057	-0.025
-418.471	-200.000	0.013	-0.323
-417.457	352.348	-0.054	0.109
-416.442	-41.397	-0.209	-0.109
-415.428	-163.992	-0.281	0.013
-414.413	-186.362	-0.197	0.003
-413.398	17.577	-0.162	-0.130
-412.384	-81.190	-0.239	-0.080
-411.369	800.000	0.073	-0.214
-410.355	-80.207	-0.276	0.093
-409.340	-200.000	0.019	-0.216
-408.325	108.035	-0.075	-0.090
-407.311	800.000	0.117	-0.357
-406.296	35.404	-0.112	-0.099
-405.282	-52.572	0.121	0.056
-404.267	743.580	-0.060	0.162
-403.252	-164.736	0.167	-0.008
-402.238	11.940	0.220	-0.171
-401.223	-200.000	-0.054	-0.447
-400.209	-188.360	0.137	-0.002
-399.194	-7.720	-0.191	0.130
-398.179	697.700	-0.065	-0.172
-397.165	800.000	0.043	0.165
-396.150	153.641	0.162	-0.224
-395.136	-200.000	-0.006	0.076
-394.121	800.000	0.061	-0.175
-393.106	-200.000	-0.005	0.075
-392.092	800.000	-0.118	0.335
-391.077	-200.000	-0.060	-0.380
-390.063	-32.573	-0.118	-0.066
-389.048	-109.947	0.182	-0.039
-388.033	517.748	-0.098	-0.232
-387.019	566.199	0.041	-0.101
-386.004	-53.670	0.167	-0.077
-384.990	-142.600	-0.120	0.012
-383.975	-200.000	-0.034	-0.313
-382.960	227.256	-0.119	-0.194
-381.946	71.827	-0.095	-0.099
-380.931	-41.344	0.146	-0.076
-379.917	82.518	-0.218	-0.239
-378.902	-200.000	-0.000	0.035
-377.888	-200.000	-0.008	0.239
-376.873	-112.838	-0.087	-0.017
-375.858	-200.000	0.009	-0.214
-374.844	332.903	0.109	-0.213
-373.829	308.106	-0.207	-0.390
-372.815	800.000	-0.116	-0.399
-371.800	-106.049	0.205	0.046
-370.785	119.811	0.183	0.229
-369.771	-200.000	-0.094	0.423
-368.756	16.332	-0.152	0.121
-367.742	-200.000	-0.040	0.189
-366.727	666.238	-0.052	0.137
-365.712	38.152	-0.045	0.040
-364.698	-200.000	-0.030	0.452
-363.683	-133.690	-0.085	0.011
-362.669	800.000	0.033	-0.126
-361.654	297.501	0.049	0.090
-360.639	-51.611	0.047	0.022
-359.625	800.000	0.052	-0.168
-358.610	126.876	-0.176	-0.224
-357.596	-16.260	-0.031	-0.020
-356.581	-25.457	0.175	-0.104
-355.566	373.530	-0.010	0.020
-354.552	219.903	0.177	-0.286
-353.537	480.049	-0.111	0.253
-352.523	-82.766	0.166	-0.054
-351.508	194.873	-0.135	0.206
-350.493	-31.736	-0.103	0.058
-349.479	237.156	-0.011	-0.019
-348.464	800.000	0.062	0.263
-347.450	485.735	-0.084	0.194
-346.435	54.584	-0.337	0.328
-345.420	-31.605	0.274	-0.155
-344.406	-200.000	-0.026	0.284
-343.391	226.944	-0.147	0.241
-342.377	-200.000	-0.042	0.287
-341.362	-200.000	0.017	0.341
-340.348	5.785	0.406	0.302
-339.333	-200.000	0.004	-0.056
-338.318	-200.000	0.032	-0.253
-337.304	44.051	0.155	0.143
-336.289	-73.690	0.254	-0.093
-335.275	192.786	-0.046	-0.069
-334.260	93.790	0.008	0.009
-333.245	102.143	0.192	0.226
-332.231	41.230	0.222	-0.202
-331.216	244.701	-0.203	0.343
-330.202	-200.000	0.013	0.166
-329.187	628.940	0.081	-0.206
-328.172	-200.000	0.002	-0.442
-327.158	280.272	-0.087	0.157
-326.143	61.794	-0.035	-0.035
-325.129	-114.919	0.231	-0.044
-324.114	170.170	-0.191	-0.275
-323.099	-200.000	-0.055	-0.349
-322.085	-61.241	0.363	-0.154
-321.070	-142.142	-0.170	0.017
-320.056	-63.287	0.312	-0.129
-319.041	-99.245	0.153	-0.039
-318.026	15.842	-0.057	-0.045
-317.012	-200.000	0.005	0.031
-315.997	-200.000	0.036	0.200
-314.983	183.302	0.198	0.295
-313.968	-29.279	-0.110	0.063
-312.953	56.548	-0.214	-0.210
-311.939	-200.000	0.005	-0.174
-310.924	-168.712	-0.232	-0.009
-309.910	-173.619	-0.063	0.002
-308.895	41.055	-0.205	0.186
-307.880	-84.515	0.159	0.050
-306.866	-67.190	-0.088	-0.035
-305.851	185.800	-0.098	0.147
-304.837	-200.000	0.017	-0.261
-303.822	4.867	-0.171	0.126
-302.807	-29.292	-0.067	0.038
-301.793	174.462	0.040	0.058
-300.778	-200.000	0.027	-0.259
-299.764	95.265	-0.207	-0.237
-298.749	128.638	-0.065	0.083
-297.735	167.005	0.130	-0.186
-296.720	-125.426	0.268	-0.041
-295.705	-200.000	0.000	0.177
-294.691	-26.285	0.115	0.068
-293.676	102.367	-0.034	0.040
-292.662	-200.000	-0.014	0.151
-291.647	229.605	0.175	0.287
-290.632	-137.843	0.321	0.036
-289.618	137.836	-0.043	0.057
-288.603	-98.108	-0.406	0.105
-287.589	612.677	-0.113	0.284
-286.574	-28.418	0.153	0.088
-285.559	800.000	-0.042	-0.183
-284.545	-200.000	-0.010	0.082
-283.530	50.997	0.048	-0.046
-282.516	-61.789	0.434	-0.183
-281.501	-57.758	-0.194	0.085
-280.486	-60.607	0.101	0.043
-279.472	5.645	0.199	0.147
-278.457	-200.000	-0.009	-0.092
-277.443	-103.465	0.341	-0.081
-276.428	104.339	-0.144	-0.170
-275.413	-57.137	-0.205	0.091
-274.399	-200.000	-0.067	-0.382
-273.384	-122.923	0.201	0.032
-272.370	303.606	0.137	-0.254
-271.355	-200.000	-0.020	0.206
-270.340	194.141	-0.197	0.300
-269.326	-97.568	-0.059	-0.015
-268.311	800.000	-0.080	-0.315
-267.297	535.782	-0.083	0.197
-266.282	158.403	-0.082	0.114
-265.267	-135.830	0.155	0.018
-264.253	13.209	-0.098	0.076
-263.238	800.000	0.033	0.126
-262.224	-137.839	0.190	-0.021
-261.209	-200.000	0.021	-0.224
-260.195	283.647	-0.014	0.026
-259.180	95.163	-0.267	-0.306
-258.165	-112.042	0.082	-0.017
-257.151	87.223	-0.169	0.188
-256.136	-200.000	0.012	0.147
-255.122	47.087	0.183	-0.171
-254.107	-85.364	-0.184	-0.058
-253.092	66.953	0.175	0.179
-252.078	22.096	0.145	0.119
-251.063	-200.000	0.050	0.446
-250.049	-71.085	0.362	-0.136
-249.034	172.243	-0.108	0.156
-248.019	-133.973	-0.206	-0.026
-247.005	800.000	0.041	-0.130
-245.990	800.000	0.024	0.093
-244.976	92.005	-0.259	-0.293
-243.961	-152.139	0.285	-0.021
-242.946	-18.868	0.276	0.173
-241.932	260.205	-0.161	0.280
-240.917	68.210	-0.247	-0.253
-239.903	-200.000	0.047	0.437
-238.888	-103.939	0.051	0.012
-237.873	800.000	0.036	0.159
-236.859	429.036	0.129	-0.280
-235.844	800.000	0.018	-0.075
-234.830	-79.014	0.445	-0.152
-233.815	385.249	-0.068	0.141
-232.800	-24.949	0.351	0.209
-231.786	55.926	-0.077	0.075
-230.771	346.482	-0.017	0.034
-229.757	282.837	0.052	0.093
-228.742	144.089	0.168	0.225
-227.727	-200.000	-0.023	-0.443
-226.713	-2.916	-0.096	-0.067
-225.698	-52.882	0.143	0.066
-224.684	1.759	-0.130	0.094
-223.669	449.384	0.076	0.167
-222.655	-125.319	-0.205	-0.031
-221.640	136.213	0.066	0.086
-220.625	-200.000	0.022	0.134
-219.611	-41.186	-0.095	-0.049
-218.596	-70.699	-0.090	0.034
-217.582	-12.805	-0.062	0.040
-216.567	62.844	-0.173	0.174
-215.552	-96.114	-0.238	-0.063
-214.538	83.531	0.224	0.244
-213.523	304.772	-0.178	-0.332
-212.509	99.386	-0.074	-0.086
-211.494	446.487	0.077	0.171
-210.479	100.761	-0.181	-0.210
-209.465	408.187	-0.026	-0.055
-208.450	-200.000	0.053	-0.280
-207.436	-58.049	-0.155	-0.068
-206.421	309.488	-0.094	-0.175
-205.406	543.027	0.080	0.190
-204.392	26.677	0.085	0.071
-203.377	800.000	0.057	0.172
-202.363	-129.335	-0.099	-0.014
-201.348	-178.041	-0.482	0.011
-200.333	-147.899	-0.138	0.012
-199.319	21.914	0.209	0.170
-198.304	-200.000	0.001	-0.043
-197.290	-31.632	-0.360	-0.203
-196.275	462.030	-0.029	-0.065
-195.260	-114.051	0.261	0.051
-194.246	199.532	0.087	-0.133
-193.231	-200.000	-0.040	-0.179
-192.217	-200.000	-0.014	0.394
-191.202	195.943	0.127	0.194
-190.187	-200.000	0.028	0.231
-189.173	800.000	0.088	-0.351
-188.158	137.539	0.076	0.100
-187.144	33.538	0.203	0.177
-186.129	-89.656	-0.116	-0.034
-185.114	-151.598	-0.258	-0.019
-184.100	464.243	0.094	0.211
-183.085	-200.000	-0.009	0.135
-182.071	-45.661	-0.234	-0.116
-181.056	-114.395	-0.375	-0.072
-180.042	-200.000	-0.014	-0.353
-179.027	-123.675	0.065	-0.010
-178.012	166.229	0.117	0.166
-176.998	-200.000	0.032	-0.237
-175.983	477.036	-0.085	0.192
-174.969	-180.646	-0.439	-0.009
-173.954	-9.290	0.315	-0.210
-172.939	-22.254	-0.147	0.089
-171.925	166.091	0.382	0.541
-170.910	13.089	0.103	0.080
-169.896	421.064	0.138	-0.297
-168.881	176.754	-0.155	-0.225
-167.866	-105.407	-0.043	0.010
-166.852	-116.152	-0.096	-0.018
-165.837	-70.791	-0.203	-0.077
-164.823	40.527	-0.053	0.048
-163.808	-200.000	0.031	0.148
-162.793	-12.369	0.190	-0.124
-161.779	12.919	0.176	0.136
-160.764	-171.488	-0.289	-0.010
-159.750	-55.300	0.157	-0.070
-158.735	274.201	-0.184	-0.325
-157.720	133.832	0.110	0.142
-156.706	257.098	-0.020	0.035
-155.691	-92.338	0.423	0.119
-154.677	61.114	0.108	0.107
-153.662	-200.000	-0.008	0.043
-152.647	-96.276	-0.334	0.089
-151.633	-86.838	-0.290	0.089
-150.618	-77.057	0.117	-0.041
-149.604	-131.341	-0.210	-0.028
-148.589	800.000	0.028	-0.101
-147.574	-200.000	0.025	-0.135
-146.560	80.323	-0.131	-0.141
-145.545	-45.315	0.251	-0.124
-144.531	329.577	-0.062	-0.119
-143.516	-200.000	-0.018	-0.189
-142.502	94.764	0.079	-0.090
-141.487	-83.216	-0.110	-0.035
-140.472	23.564	0.051	0.042
-139.458	116.765	0.034	0.042
-138.443	-94.250	0.017	0.005
-137.429	-200.000	-0.005	-0.107
-136.414	800.000	-0.020	-0.056
-135.399	72.900	-0.206	0.215
-134.385	316.204	0.182	0.343
-133.370	160.824	-0.014	0.020
-132.356	800.000	0.105	0.315
-131.341	800.000	-0.029	-0.104
-130.326	800.000	-0.024	0.080
-129.312	292.565	-0.174	0.316
-128.297	-87.351	-0.333	-0.101
-127.283	-36.523	0.022	0.012
-126.268	268.920	-0.079	-0.139
-125.253	-136.791	-0.240	-0.028
-124.239	78.968	0.021	0.022
-123.224	-75.034	-0.227	0.081
-122.210	800.000	-0.170	0.562
