DTS Sentinel unit serial number:	SN413079Multiplexer serial number:	ORYXHardware model number:	OX4-SRSoftware version number:	ORYX F/W v4.00 Oryx Data Collector v3.7.2.0data status	okinstallation	princeton_trtdifferential loss correction	single-endedforward channel	channel 1reverse channel	N/Adate	2019/09/15time	16:02:35forward acquisition time	60.00reverse acquisition time	0.00gamma	496.2192k internal	0.2291k external	0.2291temperature offset calibration	0.9939default loss term (dB/km)	0.3790temperature slope calibration	1.0000multiplexer offset coefficient	1.0000multiplexer slope coefficient	1.0000fibre end	0.00T internal ref (°C)	42.83T ext. ref 1 (°C)	5.34T ext. ref 2 (°C)	40.09length (m)	temperature (°C)	Stokes	anti-Stokes-747.200	800.000	-0.029	-0.128
-746.185	22.777	0.105	0.088
-745.171	-200.000	-0.014	0.297
-744.156	-200.000	-0.005	0.080
-743.142	-154.830	-0.256	-0.017
-742.127	349.595	0.136	0.275
-741.112	-200.000	0.008	-0.282
-740.098	-15.258	-0.152	0.100
-739.083	58.143	0.183	-0.184
-738.069	-116.288	0.036	0.007
-737.054	263.161	-0.050	0.090
-736.039	40.617	0.227	-0.209
-735.025	-16.009	-0.173	0.113
-734.010	86.965	-0.132	-0.149
-732.996	-141.682	-0.173	0.018
-731.981	209.037	-0.140	0.224
-730.966	-200.000	0.061	-0.334
-729.952	546.873	-0.058	-0.142
-728.937	182.732	-0.214	-0.324
-727.923	-5.515	-0.176	-0.124
-726.908	800.000	-0.110	-0.309
-725.894	-90.509	0.161	0.048
-724.879	-200.000	-0.010	-0.221
-723.864	-63.979	-0.383	-0.160
-722.850	305.555	0.063	0.120
-721.835	-119.120	-0.230	-0.041
-720.821	77.996	-0.165	0.180
-719.806	-200.000	0.042	-0.241
-718.791	181.712	-0.221	0.333
-717.777	800.000	0.085	0.259
-716.762	-116.926	0.069	0.013
-715.748	57.368	-0.090	0.090
-714.733	-147.747	-0.211	-0.018
-713.718	186.651	-0.122	0.186
-712.704	-104.751	-0.293	-0.069
-711.689	186.855	0.075	-0.114
-710.675	50.808	0.133	0.129
-709.660	-8.204	0.106	-0.073
-708.645	-161.414	-0.550	0.029
-707.631	-123.228	0.504	0.083
-706.616	-200.000	0.004	0.040
-705.602	-200.000	-0.107	0.515
-704.587	10.921	-0.217	0.169
-703.572	263.157	-0.114	0.203
-702.558	800.000	-0.091	-0.309
-701.543	224.031	-0.181	0.300
-700.529	-200.000	-0.047	0.422
-699.514	111.389	0.052	-0.064
-698.499	-200.000	-0.050	0.262
-697.485	-97.910	0.035	-0.009
-696.470	-113.190	0.151	-0.030
-695.456	800.000	-0.058	0.176
-694.441	-89.393	-0.111	0.033
-693.426	-68.093	-0.117	-0.046
-692.412	569.077	-0.047	-0.118
-691.397	-123.241	-0.036	0.006
-690.383	112.616	-0.147	-0.181
-689.368	-134.925	0.255	-0.032
-688.354	-55.328	-0.282	-0.129
-687.339	-70.657	-0.051	-0.020
-686.324	359.409	0.160	0.327
-685.310	-28.663	0.052	-0.031
-684.295	-104.980	0.106	0.025
-683.281	-200.000	0.056	-0.322
-682.266	-55.009	0.266	0.122
-681.251	-116.706	0.072	-0.013
-680.237	-200.000	0.006	-0.036
-679.222	0.914	0.170	0.124
-678.208	10.722	-0.245	-0.191
-677.193	-200.000	-0.056	0.299
-676.178	17.751	-0.246	-0.200
-675.164	221.353	-0.061	0.100
-674.149	250.601	0.021	-0.036
-673.135	-87.793	0.077	0.024
-672.120	-53.060	-0.044	0.021
-671.105	-151.160	-0.407	0.031
-670.091	83.378	0.222	-0.247
-669.076	175.418	-0.072	-0.107
-668.062	800.000	-0.011	-0.034
-667.047	-200.000	-0.010	-0.205
-666.032	-125.696	-0.194	-0.030
-665.018	17.263	-0.166	0.135
-664.003	-172.377	-0.185	-0.006
-662.989	335.809	0.071	0.140
-661.974	38.948	-0.170	0.155
-660.959	72.758	-0.135	0.143
-659.945	-104.994	-0.207	0.049
-658.930	-52.884	0.096	-0.045
-657.916	-7.343	-0.204	0.141
-656.901	-143.952	-0.057	0.005
-655.886	-113.149	0.233	0.047
-654.872	19.941	-0.163	0.134
-653.857	-200.000	0.021	0.125
-652.843	-198.987	0.070	0.000
-651.828	-42.214	-0.172	0.090
-650.814	800.000	-0.025	-0.078
-649.799	105.850	-0.113	-0.137
-648.784	175.578	0.034	0.050
-647.770	-87.878	-0.383	-0.118
-646.755	-117.709	-0.191	-0.035
-645.741	-89.491	-0.153	0.046
-644.726	408.279	0.094	0.202
-643.711	786.145	0.013	-0.038
-642.697	-106.738	-0.204	0.046
-641.682	-37.353	-0.117	0.064
-640.668	-139.877	-0.264	0.028
-639.653	33.156	0.417	0.369
-638.638	285.601	0.139	-0.255
-637.624	-200.000	-0.014	-0.206
-636.609	80.628	0.064	-0.071
-635.595	800.000	-0.073	-0.235
-634.580	800.000	0.129	-0.467
-633.565	-148.192	0.207	-0.017
-632.551	-95.999	-0.249	0.068
-631.536	-200.000	-0.002	-0.366
-630.522	800.000	-0.079	0.286
-629.507	398.234	0.191	0.408
-628.492	-89.794	0.308	0.092
-627.478	-200.000	0.054	0.284
-626.463	-14.897	0.135	-0.088
-625.449	-200.000	0.011	-0.229
-624.434	-80.168	0.183	-0.062
-623.419	-200.000	0.013	-0.068
-622.405	800.000	0.066	0.251
-621.390	-72.323	-0.098	-0.037
-620.376	250.129	-0.080	0.138
-619.361	47.507	-0.235	-0.223
-618.346	16.978	0.215	-0.174
-617.332	160.823	0.179	0.255
-616.317	-200.000	0.013	0.102
-615.303	-94.754	-0.465	-0.129
-614.288	-200.000	-0.002	0.107
-613.273	-118.059	0.111	-0.020
-612.259	800.000	-0.052	0.170
-611.244	123.815	0.151	-0.193
-610.230	800.000	-0.055	0.196
-609.215	-200.000	-0.037	-0.307
-608.201	-71.855	-0.430	-0.163
-607.186	226.549	-0.101	0.167
-606.171	163.011	-0.046	0.066
-605.157	-20.802	0.142	-0.089
-604.142	800.000	0.126	0.418
-603.128	94.909	0.453	0.524
-602.113	-200.000	-0.032	0.214
-601.098	-164.605	-0.311	-0.014
-600.084	83.229	-0.096	0.106
-599.069	2.050	-0.236	0.173
-598.055	-200.000	0.037	-0.194
-597.040	254.330	0.049	-0.085
-596.025	86.436	-0.074	-0.083
-595.011	-158.326	0.162	0.010
-593.996	-200.000	-0.014	-0.104
-592.982	-124.582	0.092	-0.014
-591.967	128.939	-0.162	0.211
-590.952	221.074	-0.074	-0.121
-589.938	800.000	-0.058	0.247
-588.923	-128.064	-0.236	0.034
-587.909	256.201	0.092	-0.160
-586.894	34.361	0.223	-0.198
-585.879	752.486	0.087	-0.238
-584.865	-95.107	-0.400	0.110
-583.850	800.000	-0.033	-0.113
-582.836	-107.788	-0.144	-0.032
-581.821	-116.754	0.096	-0.018
-580.806	-187.386	-0.189	-0.003
-579.792	110.582	-0.190	-0.233
-578.777	-102.745	-0.317	0.077
-577.763	358.528	0.084	-0.171
-576.748	13.294	0.185	-0.146
-575.733	800.000	0.042	-0.129
-574.719	-109.326	0.236	-0.051
-573.704	53.718	0.057	0.056
-572.690	17.084	0.110	0.088
-571.675	458.819	0.075	0.170
-570.661	-200.000	-0.025	-0.204
-569.646	281.010	0.095	0.172
-568.631	-200.000	0.039	0.411
-567.617	800.000	-0.110	-0.413
-566.602	800.000	-0.109	-0.338
-565.588	-52.179	0.129	0.061
-564.573	37.120	-0.077	0.069
-563.558	-41.225	-0.181	-0.095
-562.544	8.616	0.124	-0.095
-561.529	800.000	-0.040	0.150
-560.515	102.033	0.138	0.164
-559.500	-200.000	-0.010	-0.133
-558.485	-21.534	0.197	-0.122
-557.471	800.000	0.032	-0.100
-556.456	-9.418	-0.243	-0.165
-555.442	45.087	-0.054	-0.051
-554.427	158.315	-0.085	0.120
-553.412	-80.274	0.296	0.101
-552.398	228.634	-0.116	-0.192
-551.383	800.000	0.094	0.391
-550.369	-158.302	-0.165	0.010
-549.354	16.754	0.285	-0.229
-548.339	558.695	0.040	0.099
-547.325	-130.358	-0.160	-0.022
-546.310	2.145	-0.120	-0.088
-545.296	99.912	0.113	0.133
-544.281	128.153	-0.080	-0.103
-543.266	800.000	0.057	0.168
-542.252	-200.000	-0.011	0.126
-541.237	-200.000	0.038	-0.181
-540.223	-200.000	-0.024	-0.213
-539.208	-105.571	0.290	0.067
-538.193	-99.172	-0.110	-0.028
-537.179	365.683	0.048	-0.099
-536.164	-73.662	0.276	0.102
-535.150	-104.287	0.315	-0.074
-534.135	-94.871	-0.178	-0.049
-533.121	-93.566	0.127	-0.036
-532.106	4.812	0.180	-0.134
-531.091	-181.585	-0.040	-0.001
-530.077	136.138	-0.205	-0.272
-529.062	-127.780	-0.268	0.039
-528.048	68.024	0.141	0.146
-527.033	116.183	-0.377	-0.468
-526.018	-200.000	-0.019	0.254
-525.004	334.985	0.148	-0.292
-523.989	622.996	0.137	-0.350
-522.975	315.613	0.113	0.216
-521.960	679.335	-0.058	-0.152
-520.945	467.102	0.050	0.115
-519.931	177.856	0.118	0.175
-518.916	38.131	-0.207	-0.187
-517.902	62.159	0.142	0.144
-516.887	-94.173	0.078	-0.022
-515.872	-178.329	0.328	-0.008
-514.858	-78.047	-0.298	0.104
-513.843	-200.000	0.020	0.193
-512.829	-95.995	0.159	0.043
-511.814	391.500	-0.026	0.055
-510.799	78.305	-0.160	-0.174
-509.785	-34.594	-0.103	0.057
-508.770	663.018	-0.099	-0.259
-507.756	-33.501	-0.133	0.075
-506.741	-77.636	0.344	-0.121
-505.726	-123.870	0.366	-0.059
-504.712	-34.253	0.163	-0.091
-503.697	11.609	-0.291	-0.227
-502.683	-33.109	0.315	0.177
-501.668	6.912	0.094	0.071
-500.653	269.452	0.124	0.222
-499.639	800.000	0.162	0.588
-498.624	-20.002	0.309	-0.194
-497.610	-142.035	-0.143	-0.014
-496.595	-167.686	-0.193	-0.008
-495.581	-34.290	0.217	0.121
-494.566	800.000	0.042	-0.164
-493.551	800.000	-0.068	0.238
-492.537	-200.000	-0.019	0.109
-491.522	-59.912	-0.193	-0.084
-490.508	-71.196	0.280	-0.107
-489.493	295.811	-0.031	-0.057
-488.478	800.000	-0.134	0.448
-487.464	309.487	0.086	-0.163
-486.449	67.214	0.154	0.160
-485.435	96.722	0.225	0.261
-484.420	-200.000	-0.021	0.304
-483.405	22.632	-0.253	-0.210
-482.391	-200.000	0.010	-0.356
-481.376	-111.816	-0.107	-0.022
-480.362	-37.216	-0.232	-0.126
-479.347	-47.558	0.245	-0.121
-478.332	57.491	0.089	0.088
-477.318	378.471	0.173	-0.358
-476.303	-81.601	-0.291	0.097
-475.289	-10.609	-0.391	0.262
-474.274	-180.238	-0.184	-0.004
-473.259	800.000	0.022	-0.069
-472.245	-102.040	0.202	-0.049
-471.230	104.319	-0.128	-0.152
-470.216	-119.027	-0.128	-0.023
-469.201	82.620	0.046	-0.050
-468.186	39.776	-0.196	-0.178
-467.172	-125.796	0.196	-0.030
-466.157	-115.867	-0.291	0.055
-465.143	-172.739	0.228	0.007
-464.128	-103.246	-0.134	0.032
-463.113	104.315	-0.047	0.055
-462.099	-200.000	0.000	0.062
-461.084	-35.798	-0.264	0.145
-460.070	-98.939	0.094	-0.024
-459.055	54.580	0.131	0.128
-458.040	20.324	-0.133	0.109
-457.026	-55.190	0.397	0.181
-456.011	-200.000	0.018	-0.318
-454.997	-45.915	-0.096	-0.048
-453.982	800.000	0.067	0.217
-452.968	181.594	0.114	-0.170
-451.953	-200.000	0.047	-0.247
-450.938	-53.045	0.186	-0.087
-449.924	-94.582	0.026	-0.007
-448.909	-19.794	0.166	-0.104
-447.895	-11.237	0.166	-0.111
-446.880	201.641	0.185	0.289
-445.865	272.168	-0.107	0.192
-444.851	-108.732	-0.205	0.044
-443.836	471.412	-0.060	-0.136
-442.822	4.774	0.199	0.148
-441.807	-75.684	0.172	0.062
-440.792	392.088	0.114	0.241
-439.778	768.432	0.066	-0.183
-438.763	-200.000	0.028	-0.168
-437.749	583.223	0.121	0.300
-436.734	-95.607	-0.047	-0.013
-435.719	235.193	0.045	-0.075
-434.705	28.443	0.085	-0.073
-433.690	-100.498	-0.132	-0.033
-432.676	522.449	-0.051	0.122
-431.661	-43.324	-0.223	0.114
-430.646	-45.195	-0.162	0.081
-429.632	102.781	-0.118	-0.140
-428.617	800.000	0.008	0.032
-427.603	-111.024	0.063	-0.013
-426.588	-200.000	0.012	0.159
-425.573	-54.667	0.220	-0.101
-424.559	800.000	-0.056	0.196
-423.544	373.716	-0.124	0.254
-422.530	800.000	0.046	0.173
-421.515	-4.188	-0.067	-0.047
-420.500	-182.054	-0.284	0.005
-419.486	59.664	0.071	-0.071
-418.471	47.691	-0.136	-0.129
-417.457	83.711	-0.091	-0.100
-416.442	74.456	-0.043	0.046
-415.428	800.000	0.007	0.027
-414.413	-112.328	0.203	-0.041
-413.398	437.812	-0.087	0.192
-412.384	-81.940	-0.139	0.046
-411.369	-200.000	-0.023	0.139
-410.355	-173.885	-0.107	-0.003
-409.340	473.235	-0.164	-0.373
-408.325	40.202	-0.109	-0.099
-407.311	271.812	-0.176	-0.313
-406.296	71.331	0.091	-0.096
-405.282	-78.754	0.385	0.133
-404.267	27.185	-0.330	0.280
-403.252	-78.614	0.178	-0.062
-402.238	414.870	-0.106	-0.228
-401.223	-68.637	0.229	0.090
-400.209	360.054	0.185	-0.374
-399.194	-67.311	-0.282	0.112
-398.179	-183.725	0.151	-0.003
-397.165	102.600	-0.160	-0.189
-396.150	-200.000	0.008	-0.098
-395.136	-92.997	-0.107	-0.030
-394.121	-17.702	0.248	0.157
-393.106	800.000	-0.074	-0.276
-392.092	-200.000	0.010	0.192
-391.077	270.892	0.143	-0.255
-390.063	-13.671	-0.308	-0.201
-389.048	-200.000	-0.008	0.174
-388.033	-17.870	-0.192	0.122
-387.019	-101.806	-0.113	-0.028
-386.004	-61.010	-0.191	-0.081
-384.990	-193.904	-0.288	-0.002
-383.975	-138.161	0.349	-0.039
-382.960	800.000	-0.084	-0.266
-381.946	122.680	0.073	0.092
-380.931	-11.341	-0.276	0.183
-379.917	800.000	-0.056	0.220
-378.902	93.633	-0.185	-0.212
-377.888	405.594	-0.097	-0.207
-376.873	518.823	-0.144	-0.340
-375.858	541.779	-0.146	0.352
-374.844	-200.000	0.001	-0.200
-373.829	-34.490	0.225	-0.124
-372.815	-9.251	-0.202	0.136
-371.800	-149.528	-0.189	0.015
-370.785	99.210	-0.268	0.313
-369.771	-48.473	-0.435	-0.211
-368.756	800.000	-0.070	0.257
-367.742	-200.000	0.011	-0.058
-366.727	-200.000	0.019	-0.334
-365.712	-200.000	0.004	0.086
-364.698	-200.000	-0.001	0.230
-363.683	800.000	-0.033	0.102
-362.669	220.286	0.025	-0.040
-361.654	19.584	-0.190	0.154
-360.639	-170.884	0.214	0.007
-359.625	721.529	0.130	0.348
-358.610	31.153	0.243	0.210
-357.596	-123.386	0.142	0.023
-356.581	-200.000	0.004	-0.079
-355.566	-149.199	0.251	-0.020
-354.552	89.961	-0.152	-0.172
-353.537	800.000	-0.044	0.127
-352.523	-200.000	-0.032	-0.218
-351.508	100.286	-0.078	0.091
-350.493	777.263	0.086	0.237
-349.479	-16.884	0.188	-0.120
-348.464	800.000	0.043	0.146
-347.450	-19.512	-0.278	-0.173
-346.435	-65.914	-0.253	0.102
-345.420	97.697	0.226	0.262
-344.406	143.142	0.067	0.090
-343.391	-99.810	-0.045	0.011
-342.377	-15.815	-0.204	0.131
-341.362	800.000	0.017	0.055
-340.348	-79.431	0.199	0.068
-339.333	-167.162	-0.060	-0.002
-338.318	800.000	-0.098	0.317
-337.304	-19.631	-0.223	0.139
-336.289	-2.825	-0.117	0.082
-335.275	800.000	-0.050	0.180
-334.260	-58.871	-0.075	-0.033
-333.245	-190.715	0.104	0.001
-332.231	49.513	0.208	-0.198
-331.216	242.098	0.031	0.052
-330.202	-70.444	0.127	-0.049
-329.187	800.000	0.025	0.107
-328.172	-146.264	-0.249	-0.022
-327.158	800.000	0.074	-0.280
-326.143	-87.885	0.155	0.047
-325.129	-200.000	0.021	0.095
-324.114	-112.869	-0.189	0.038
-323.099	800.000	0.033	0.139
-322.085	-200.000	-0.014	0.131
-321.070	800.000	0.118	-0.509
-320.056	-143.379	-0.124	0.012
-319.041	670.609	0.046	0.120
-318.026	24.795	0.322	-0.269
-317.012	-47.046	-0.276	-0.136
-315.997	-146.706	-0.182	0.016
-314.983	-34.243	-0.135	0.074
-313.968	278.256	-0.100	0.180
-312.953	-139.941	-0.297	-0.032
-311.939	800.000	-0.022	0.080
-310.924	-3.057	-0.270	0.190
-309.910	-200.000	-0.012	-0.127
-308.895	-23.605	0.198	0.120
-307.880	24.555	0.120	-0.100
-306.866	-200.000	-0.002	0.210
-305.851	90.204	0.114	0.128
-304.837	-200.000	-0.014	0.266
-303.822	800.000	-0.166	0.469
-302.807	-200.000	0.008	0.292
-301.793	-99.631	0.155	-0.039
-300.778	-200.000	-0.069	0.334
-299.764	-122.627	-0.264	-0.043
-298.749	399.884	-0.038	0.079
-297.735	-200.000	-0.004	0.231
-296.720	114.325	0.259	-0.318
-295.705	77.576	0.198	-0.212
-294.691	670.394	0.136	-0.356
-293.676	120.409	-0.221	0.276
-292.662	-200.000	-0.005	0.061
-291.647	250.687	-0.125	0.213
-290.632	-54.244	0.277	-0.126
-289.618	-32.349	0.112	-0.063
-288.603	-124.827	0.099	0.015
-287.589	-76.247	0.413	0.147
-286.574	177.212	0.124	0.182
-285.559	199.417	-0.166	0.256
-284.545	29.527	0.098	-0.084
-283.530	-200.000	0.001	0.133
-282.516	-46.739	0.441	0.217
-281.501	-200.000	0.010	0.269
-280.486	5.229	0.112	0.083
-279.472	-200.000	0.018	0.085
-278.457	-160.893	-0.007	-0.000
-277.443	-20.072	0.117	0.073
-276.428	117.545	-0.112	0.138
-275.413	-160.878	0.068	-0.004
-274.399	-72.425	0.426	-0.158
-273.384	123.860	-0.166	0.210
-272.370	-40.084	-0.138	-0.072
-271.355	238.109	-0.116	0.193
-270.340	-130.076	-0.063	0.009
-269.326	-18.198	-0.285	0.179
-268.311	39.562	0.296	0.266
-267.297	27.985	-0.060	0.051
-266.282	-40.778	0.095	-0.050
-265.267	110.639	-0.236	-0.286
-264.253	748.387	0.059	0.161
-263.238	-157.971	0.165	0.010
-262.224	-200.000	0.039	0.255
-261.209	-83.163	0.362	-0.117
-260.195	800.000	-0.094	-0.372
-259.180	-21.515	0.198	-0.122
-258.165	-62.455	-0.274	0.114
-257.151	452.417	0.092	0.205
-256.136	-200.000	-0.010	-0.092
-255.122	236.330	0.126	-0.210
-254.107	356.120	0.099	0.199
-253.092	-200.000	-0.005	0.158
-252.078	412.953	-0.150	-0.320
-251.063	-182.079	-0.395	-0.007
-250.049	800.000	-0.027	-0.079
-249.034	-98.615	0.223	0.057
-248.019	800.000	-0.076	0.314
-247.005	-116.800	0.377	0.069
-245.990	415.511	0.130	-0.279
-244.976	316.376	0.061	-0.116
-243.961	70.133	-0.098	0.101
-242.946	-54.594	-0.263	-0.119
-241.932	800.000	-0.055	-0.223
-240.917	35.476	0.074	0.065
-239.903	-200.000	0.011	-0.353
-238.888	28.443	-0.094	0.080
-237.873	160.153	-0.095	-0.133
-236.859	-15.386	0.279	-0.179
-235.844	-200.000	-0.029	0.317
-234.830	-122.080	-0.186	0.031
-233.815	-100.132	-0.154	-0.039
-232.800	-200.000	-0.064	0.290
-231.786	49.993	-0.224	0.212
-230.771	239.077	0.024	-0.040
-229.757	608.223	-0.018	0.046
-228.742	75.932	0.075	0.080
-227.727	800.000	0.046	0.188
-226.713	114.646	-0.101	-0.124
-225.698	790.698	-0.104	0.287
-224.684	-74.026	-0.209	0.076
-223.669	-124.187	0.257	0.040
-222.655	48.549	0.132	-0.124
-221.640	-142.735	-0.104	0.010
-220.625	-85.560	0.227	0.071
-219.611	641.906	0.039	-0.099
-218.596	127.785	0.144	-0.183
-217.582	-66.430	-0.216	-0.086
-216.567	800.000	-0.172	0.525
-215.552	117.010	-0.090	0.111
-214.538	101.743	0.086	0.100
-213.523	160.070	-0.198	0.277
-212.509	6.898	-0.265	-0.198
-211.494	-200.000	0.019	-0.190
-210.479	800.000	-0.046	-0.181
-209.465	-200.000	-0.048	-0.376
-208.450	164.663	0.209	-0.295
-207.436	-56.783	-0.246	-0.109
-206.421	-200.000	-0.015	-0.118
-205.406	344.969	-0.162	-0.319
-204.392	-200.000	0.000	-0.240
-203.377	-83.572	0.016	-0.005
-202.363	-12.181	0.108	-0.071
-201.348	-111.641	-0.098	0.020
-200.333	-200.000	-0.007	0.074
-199.319	34.705	-0.112	-0.098
-198.304	211.795	-0.098	-0.154
-197.290	-200.000	-0.036	0.167
-196.275	800.000	-0.064	0.202
-195.260	142.515	0.185	-0.246
-194.246	28.060	0.157	-0.133
-193.231	48.894	0.040	-0.038
-192.217	-121.410	0.085	-0.014
-191.202	487.746	0.105	-0.240
-190.187	-46.101	-0.135	-0.067
-189.173	-200.000	0.078	-0.443
-188.158	480.408	-0.080	-0.183
-187.144	172.128	0.110	-0.158
-186.129	800.000	-0.079	0.263
-185.114	800.000	0.091	-0.281
-184.100	-17.204	0.082	0.052
-183.085	64.818	-0.176	-0.178
-182.071	589.868	0.089	-0.220
-181.056	-5.374	0.191	-0.131
-180.042	273.800	-0.017	-0.029
-179.027	-88.826	0.139	0.041
-178.012	-200.000	0.071	-0.415
-176.998	-148.783	0.433	0.035
-175.983	800.000	-0.164	-0.507
-174.969	-200.000	-0.007	-0.218
-173.954	37.100	-0.099	-0.088
-172.939	-190.440	-0.185	0.002
-171.925	433.903	0.089	0.193
-170.910	-93.743	-0.393	0.109
-169.896	448.557	0.049	0.109
-168.881	-200.000	0.018	0.202
-167.866	-111.465	-0.073	-0.015
-166.852	800.000	0.083	0.254
-165.837	-118.413	-0.098	0.017
-164.823	400.045	0.172	-0.361
-163.808	-200.000	-0.014	0.191
-162.793	-129.188	-0.035	-0.005
-161.779	592.310	0.024	-0.060
-160.764	195.506	0.078	0.119
-159.750	22.653	0.253	0.207
-158.735	419.500	0.069	0.148
-157.720	800.000	0.116	0.323
-156.706	-181.985	0.333	0.006
-155.691	392.199	0.062	-0.128
-154.677	-106.756	0.137	-0.031
-153.662	-169.444	0.035	0.001
-152.647	481.148	-0.198	-0.451
-151.633	-11.576	0.478	-0.314
-150.618	800.000	-0.136	0.390
-149.604	-105.332	0.159	0.036
-148.589	-111.726	-0.192	0.039
-147.574	-200.000	-0.041	0.274
-146.560	-200.000	-0.009	0.134
-145.545	-102.691	0.049	-0.012
-144.531	22.252	-0.268	0.219
-143.516	-5.065	0.165	0.114
-142.502	-41.658	0.272	0.140
-141.487	182.651	-0.220	0.324
-140.472	-174.973	-0.401	-0.011
-139.458	474.411	-0.130	-0.292
-138.443	800.000	0.075	0.222
-137.429	341.524	-0.054	-0.105
-136.414	800.000	0.036	-0.122
-135.399	572.343	0.116	0.283
-134.385	-157.468	-0.286	0.017
-133.370	800.000	-0.161	0.447
-132.356	-200.000	-0.031	0.492
-131.341	105.962	-0.157	-0.186
-130.326	-22.429	0.117	0.071
-129.312	60.332	0.071	-0.071
-128.297	-65.411	0.151	0.061
-127.283	-65.296	0.224	0.090
-126.268	38.051	-0.139	0.124
-125.253	246.354	0.179	0.301
-124.239	-98.542	0.356	0.091
-123.224	561.132	0.099	0.240
-122.210	-26.890	0.063	-0.037
