DTS Sentinel unit serial number:	SN413079Multiplexer serial number:	ORYXHardware model number:	OX4-SRSoftware version number:	ORYX F/W v4.00 Oryx Data Collector v3.7.2.0data status	okinstallation	princeton_trtdifferential loss correction	single-endedforward channel	channel 1reverse channel	N/Adate	2019/09/16time	20:02:35forward acquisition time	60.00reverse acquisition time	0.00gamma	496.2192k internal	0.2321k external	0.2321temperature offset calibration	0.9954default loss term (dB/km)	0.3790temperature slope calibration	1.0000multiplexer offset coefficient	1.0000multiplexer slope coefficient	1.0000fibre end	0.00T internal ref (°C)	33.33T ext. ref 1 (°C)	0.08T ext. ref 2 (°C)	26.64length (m)	temperature (°C)	Stokes	anti-Stokes-747.200	-200.000	-0.446	0.002
-746.185	72.075	-0.157	0.165
-745.171	72.797	0.072	0.076
-744.156	-32.984	-0.232	0.130
-743.142	-41.839	-0.253	0.131
-742.127	205.012	-0.186	0.292
-741.112	19.686	0.220	0.179
-740.098	-54.822	-0.157	-0.072
-739.083	248.823	-0.095	0.163
-738.069	-153.380	0.348	0.024
-737.054	190.856	-0.184	-0.279
-736.039	46.513	-0.262	-0.245
-735.025	715.734	-0.086	0.230
-734.010	138.348	-0.109	0.145
-732.996	-171.854	-0.329	0.011
-731.981	229.014	-0.037	-0.061
-730.966	155.896	0.095	-0.133
-729.952	-200.000	-0.055	-0.356
-728.937	9.901	0.162	-0.124
-727.923	-119.592	0.148	0.026
-726.908	13.365	-0.067	0.052
-725.894	-17.864	0.051	-0.032
-724.879	-73.514	-0.314	-0.116
-723.864	-155.652	-0.491	0.032
-722.850	-32.713	0.099	-0.055
-721.835	29.043	0.341	0.292
-720.821	88.744	-0.161	-0.180
-719.806	39.232	0.222	-0.201
-718.791	19.960	-0.094	-0.077
-717.777	366.076	-0.098	-0.199
-716.762	800.000	-0.124	-0.352
-715.748	228.732	0.230	0.379
-714.733	4.566	-0.216	0.160
-713.718	-95.189	-0.425	0.116
-712.704	95.826	0.232	0.268
-711.689	-120.063	0.027	0.005
-710.675	-106.609	0.265	-0.059
-709.660	219.737	-0.019	0.031
-708.645	-173.474	-0.147	0.004
-707.631	448.820	-0.036	0.079
-706.616	55.388	0.223	0.218
-705.602	10.001	0.353	0.271
-704.587	-150.770	0.287	0.022
-703.572	381.093	0.157	-0.325
-702.558	-106.368	-0.082	0.019
-701.543	-69.481	-0.217	-0.084
-700.529	164.258	-0.147	-0.209
-699.514	1.489	0.059	0.043
-698.499	800.000	-0.049	-0.145
-697.485	64.749	0.157	0.160
-696.470	-85.598	-0.219	0.069
-695.456	-126.728	-0.338	-0.050
-694.441	267.344	-0.056	-0.099
-693.426	800.000	-0.075	-0.249
-692.412	58.734	-0.362	-0.358
-691.397	615.118	-0.120	-0.304
-690.383	237.398	0.222	-0.372
-689.368	-138.691	0.161	-0.018
-688.354	-115.610	-0.294	0.056
-687.339	-200.000	-0.009	0.077
-686.324	-95.717	-0.130	-0.035
-685.310	302.932	0.181	0.337
-684.295	-135.771	0.347	0.041
-683.281	-127.491	-0.015	-0.002
-682.266	-100.534	-0.225	0.056
-681.251	-200.000	-0.033	0.146
-680.237	21.256	0.292	-0.239
-679.222	-49.823	0.044	0.021
-678.208	449.011	-0.187	-0.416
-677.193	61.428	0.062	0.062
-676.178	800.000	-0.031	0.106
-675.164	733.458	0.070	0.188
-674.149	800.000	-0.020	-0.068
-673.135	-120.708	-0.513	-0.087
-672.120	272.515	-0.268	-0.477
-671.105	11.805	-0.153	-0.119
-670.091	725.959	-0.126	-0.339
-669.076	-30.934	-0.222	0.126
-668.062	-158.525	-0.484	-0.028
-667.047	-70.284	-0.237	0.090
-666.032	33.237	0.249	0.218
-665.018	1.073	0.337	-0.244
-664.003	-132.962	0.250	-0.032
-662.989	-48.668	-0.101	-0.049
-661.974	-191.259	0.204	0.002
-660.959	163.301	0.255	-0.361
-659.945	-95.676	0.324	0.087
-658.930	-24.516	-0.099	-0.059
-657.916	-200.000	0.052	-0.335
-656.901	-200.000	0.027	-0.126
-655.886	97.738	-0.216	0.251
-654.872	-185.203	0.072	0.001
-653.857	-200.000	0.044	0.346
-652.843	-200.000	0.020	0.423
-651.828	45.390	-0.452	-0.420
-650.814	106.909	0.240	-0.287
-649.799	-94.313	-0.303	0.083
-648.784	346.112	0.050	-0.099
-647.770	512.738	0.030	-0.072
-646.755	100.275	0.085	-0.100
-645.741	-81.786	-0.253	0.083
-644.726	-55.717	-0.144	-0.065
-643.711	51.240	0.271	0.259
-642.697	46.206	-0.241	-0.224
-641.682	492.837	-0.121	-0.280
-640.668	79.256	-0.062	-0.067
-639.653	-30.601	-0.113	0.064
-638.638	-35.506	-0.291	0.159
-637.624	-104.738	0.295	0.068
-636.609	106.114	-0.238	-0.284
-635.595	276.413	0.112	0.201
-634.580	261.842	0.154	0.269
-633.565	-3.312	0.316	0.221
-632.551	77.777	-0.132	0.141
-631.536	-11.750	-0.344	-0.227
-630.522	54.811	0.139	-0.135
-629.507	800.000	-0.045	0.188
-628.492	800.000	-0.098	-0.291
-627.478	377.586	-0.101	-0.207
-626.463	565.723	-0.095	-0.231
-625.449	800.000	0.033	0.128
-624.434	18.382	0.333	0.267
-623.419	800.000	-0.079	-0.242
-622.405	-178.935	-0.420	-0.010
-621.390	-163.070	-0.174	-0.008
-620.376	-200.000	-0.021	0.217
-619.361	76.224	-0.204	0.218
-618.346	-160.712	-0.179	-0.010
-617.332	-200.000	-0.027	-0.358
-616.317	800.000	0.088	-0.367
-615.303	-200.000	0.008	0.137
-614.288	432.335	-0.059	0.128
-613.273	-22.600	0.264	0.161
-612.259	59.967	-0.316	-0.314
-611.244	19.022	-0.351	-0.283
-610.230	-48.449	0.203	0.098
-609.215	-155.729	-0.221	-0.014
-608.201	-200.000	0.050	-0.551
-607.186	-105.320	-0.351	-0.080
-606.171	-178.958	0.122	0.003
-605.157	-150.497	0.218	0.017
-604.142	-120.764	0.210	0.036
-603.128	763.695	0.047	-0.129
-602.113	-82.321	-0.217	0.071
-601.098	-39.422	0.135	-0.071
-600.084	-200.000	-0.028	0.179
-599.069	-87.952	0.068	0.021
-598.055	3.828	0.020	0.014
-597.040	-75.270	-0.082	0.029
-596.025	50.302	0.124	-0.118
-595.011	37.308	-0.085	0.075
-593.996	34.256	0.071	-0.062
-592.982	292.210	-0.072	-0.132
-591.967	-26.365	-0.368	0.217
-590.952	195.433	0.137	-0.210
-589.938	-200.000	0.020	-0.196
-588.923	-94.173	0.250	0.069
-587.909	-54.046	-0.254	-0.116
-586.894	-200.000	-0.004	-0.095
-585.879	56.563	0.079	-0.077
-584.865	119.223	-0.313	0.390
-583.850	-123.594	0.223	-0.036
-582.836	272.853	0.059	0.104
-581.821	-41.576	-0.202	-0.104
-580.806	800.000	-0.063	0.188
-579.792	741.489	-0.039	0.106
-578.777	-104.942	-0.194	0.045
-577.763	-51.198	0.112	0.052
-576.748	154.304	-0.071	-0.099
-575.733	86.968	-0.179	-0.199
-574.719	800.000	-0.110	-0.407
-573.704	-119.907	0.120	0.021
-572.690	397.443	0.098	0.206
-571.675	-49.016	-0.113	0.054
-570.661	-45.623	-0.404	0.201
-569.646	447.748	-0.089	-0.198
-568.631	680.449	0.077	-0.202
-567.617	-200.000	-0.030	0.204
-566.602	-92.181	0.422	0.120
-565.588	-200.000	-0.013	-0.130
-564.573	-157.350	-0.227	-0.014
-563.558	88.889	-0.153	0.170
-562.544	-66.156	-0.381	0.152
-561.529	413.982	0.056	-0.120
-560.515	389.393	-0.125	0.260
-559.500	94.869	0.210	-0.240
-558.485	638.119	-0.208	-0.531
-557.471	-200.000	0.016	-0.121
-556.456	-44.328	-0.183	0.092
-555.442	-115.730	-0.364	0.069
-554.427	-61.147	-0.088	-0.037
-553.412	-94.204	-0.073	-0.020
-552.398	209.025	0.116	-0.182
-551.383	-53.805	-0.044	0.020
-550.369	-55.659	-0.051	0.023
-549.354	-200.000	0.027	0.255
-548.339	-200.000	0.004	0.048
-547.325	551.360	-0.030	0.072
-546.310	-112.243	0.458	0.092
-545.296	-74.277	0.254	-0.092
-544.281	-46.430	0.460	-0.226
-543.266	68.633	0.148	-0.153
-542.252	800.000	0.034	-0.145
-541.237	-124.415	-0.236	-0.037
-540.223	269.188	-0.101	0.179
-539.208	-154.185	-0.128	-0.009
-538.193	3.293	-0.122	0.089
-537.179	-200.000	-0.045	0.315
-536.164	-63.868	0.184	-0.076
-535.150	80.346	-0.150	-0.162
-534.135	147.775	-0.165	0.222
-533.121	-200.000	0.001	0.110
-532.106	301.823	0.136	0.252
-531.091	47.776	-0.245	0.229
-530.077	285.968	-0.087	0.157
-529.062	-200.000	0.018	0.199
-528.048	172.031	0.077	-0.110
-527.033	-53.101	-0.149	0.069
-526.018	789.768	0.114	0.314
-525.004	593.165	0.053	-0.132
-523.989	800.000	0.104	-0.334
-522.975	84.657	-0.070	-0.077
-521.960	-200.000	0.006	0.044
-520.945	262.921	0.112	0.194
-519.931	-37.091	-0.232	-0.124
-518.916	-200.000	-0.020	-0.267
-517.902	311.732	0.071	0.133
-516.887	-200.000	-0.005	-0.239
-515.872	174.819	-0.176	-0.255
-514.858	800.000	0.117	-0.488
-513.843	60.853	-0.111	-0.110
-512.829	536.943	0.128	0.305
-511.814	-143.511	0.234	-0.022
-510.799	140.133	0.152	-0.201
-509.785	78.280	-0.202	-0.216
-508.770	-139.352	-0.198	-0.021
-507.756	123.867	-0.210	-0.264
-506.741	-200.000	-0.015	0.454
-505.726	-45.020	0.281	0.140
-504.712	800.000	-0.084	-0.239
-503.697	800.000	0.075	0.313
-502.683	121.576	0.060	-0.075
-501.668	-160.848	-0.281	0.015
-500.653	39.225	-0.187	0.167
-499.639	155.971	0.028	0.038
-498.624	-50.681	0.126	0.059
-497.610	-80.454	-0.135	-0.045
-496.595	635.958	-0.147	0.375
-495.581	-144.903	-0.301	-0.028
-494.566	12.461	-0.040	-0.031
-493.551	-23.872	0.073	0.044
-492.537	-200.000	-0.011	0.154
-491.522	-200.000	-0.005	0.031
-490.508	-200.000	0.035	0.412
-489.493	-200.000	-0.037	0.169
-488.478	184.127	0.015	-0.023
-487.464	-42.997	-0.338	-0.172
-486.449	-36.458	-0.238	-0.128
-485.435	136.503	-0.219	0.286
-484.420	-200.000	0.058	0.358
-483.405	800.000	-0.043	-0.128
-482.391	253.417	0.155	-0.264
-481.376	1.137	0.137	-0.098
-480.362	42.615	-0.196	-0.178
-479.347	464.327	0.111	0.249
-478.332	800.000	0.015	-0.065
-477.318	800.000	-0.057	0.172
-476.303	353.350	-0.043	0.085
-475.289	-77.105	0.345	-0.120
-474.274	122.735	-0.129	-0.162
-473.259	1.190	-0.115	-0.082
-472.245	-72.657	0.240	0.089
-471.230	-200.000	-0.016	-0.135
-470.216	-179.006	0.340	0.008
-469.201	119.392	-0.145	0.179
-468.186	15.602	0.221	-0.174
-467.172	215.238	0.070	-0.110
-466.157	53.642	0.346	0.332
-465.143	-30.640	0.146	-0.083
-464.128	800.000	0.109	-0.351
-463.113	-38.215	-0.228	-0.121
-462.099	101.048	0.167	-0.195
-461.084	-39.097	-0.325	0.171
-460.070	-200.000	0.110	0.504
-459.055	730.760	0.067	0.180
-458.040	-66.905	0.100	-0.040
-457.026	-57.452	0.253	-0.111
-456.011	754.261	0.038	0.104
-454.997	8.520	-0.092	-0.069
-453.982	35.183	0.351	-0.307
-452.968	-16.526	-0.225	-0.142
-451.953	-74.961	-0.214	-0.077
-450.938	-200.000	0.045	-0.259
-449.924	-85.043	0.344	0.108
-448.909	800.000	0.013	-0.053
-447.895	38.831	-0.260	0.232
-446.880	369.505	0.017	0.033
-445.865	132.738	0.155	-0.200
-444.851	-46.429	0.157	0.077
-443.836	-137.958	0.266	0.030
-442.822	-200.000	-0.011	-0.153
-441.807	-114.129	-0.258	-0.050
-440.792	87.451	-0.111	0.122
-439.778	517.663	0.140	0.327
-438.763	88.561	-0.168	-0.186
-437.749	348.596	-0.072	-0.141
-436.734	-38.543	0.195	0.103
-435.719	-26.779	-0.148	0.087
-434.705	236.612	0.121	-0.199
-433.690	-96.284	0.313	-0.083
-432.676	-120.434	0.125	0.021
-431.661	-200.000	0.005	-0.114
-430.646	72.341	0.141	-0.147
-429.632	124.978	-0.224	0.282
-428.617	-44.087	0.296	-0.148
-427.603	800.000	-0.037	0.126
-426.588	-9.494	0.271	0.180
-425.573	305.128	0.162	0.300
-424.559	-103.430	-0.250	0.059
-423.544	-200.000	0.056	0.326
-422.530	-79.025	0.157	0.053
-421.515	-200.000	0.017	-0.099
-420.500	-1.264	-0.184	-0.129
-419.486	-85.696	-0.185	0.057
-418.471	800.000	-0.077	-0.216
-417.457	-200.000	0.009	-0.214
-416.442	-97.067	0.227	-0.059
-415.428	800.000	0.071	-0.208
-414.413	55.256	-0.201	0.194
-413.398	83.425	0.089	0.096
-412.384	-142.144	0.368	0.036
-411.369	326.824	0.090	0.172
-410.355	5.379	0.269	0.198
-409.340	22.474	0.138	-0.113
-408.325	-200.000	0.009	0.123
-407.311	-59.176	0.157	-0.067
-406.296	100.300	0.247	-0.286
-405.282	-17.571	-0.133	-0.084
-404.267	106.604	0.019	-0.023
-403.252	-59.220	0.214	-0.092
-402.238	-18.210	0.115	0.072
-401.223	-200.000	0.020	-0.090
-400.209	72.059	0.119	-0.124
-399.194	-141.097	0.283	-0.029
-398.179	739.547	0.014	0.038
-397.165	159.636	0.194	0.270
-396.150	23.929	-0.108	-0.088
-395.136	800.000	0.074	0.205
-394.121	47.868	0.171	-0.160
-393.106	-200.000	0.119	-0.521
-392.092	-37.099	0.396	-0.211
-391.077	-70.652	-0.014	0.005
-390.063	-81.519	-0.138	-0.045
-389.048	-162.261	0.127	-0.006
-388.033	-16.001	-0.150	-0.095
-387.019	-200.000	0.055	0.368
-386.004	191.705	-0.094	0.141
-384.990	-118.721	0.159	-0.028
-383.975	107.209	0.107	0.126
-382.960	42.131	0.141	-0.127
-381.946	-67.867	-0.110	0.043
-380.931	-73.735	-0.028	-0.010
-379.917	-63.627	0.145	0.059
-378.902	800.000	0.039	-0.132
-377.888	-153.080	0.104	-0.007
-376.873	508.876	-0.129	-0.300
-375.858	-38.775	-0.305	0.160
-374.844	800.000	-0.064	-0.201
-373.829	16.900	-0.207	-0.164
-372.815	-40.135	-0.191	0.099
-371.800	-186.907	-0.084	-0.001
-370.785	-115.845	-0.190	-0.035
-369.771	800.000	0.059	0.180
-368.756	-200.000	0.023	-0.180
-367.742	-0.935	-0.240	0.169
-366.727	-115.455	-0.359	0.067
-365.712	36.124	-0.060	-0.053
-364.698	-5.206	0.339	-0.232
-363.683	134.296	0.120	-0.155
-362.669	126.701	0.169	-0.213
-361.654	-200.000	-0.003	-0.020
-360.639	-79.722	-0.331	0.111
-359.625	39.740	-0.060	-0.053
-358.610	2.372	-0.151	-0.109
-357.596	-51.448	-0.148	0.069
-356.581	-77.828	-0.065	-0.022
-355.566	644.293	0.101	-0.256
-354.552	480.752	-0.119	0.268
-353.537	-148.529	-0.230	-0.019
-352.523	-200.000	-0.034	0.175
-351.508	-153.761	0.181	0.012
-350.493	155.561	0.054	0.074
-349.479	182.900	0.042	0.062
-348.464	-80.293	-0.149	0.050
-347.450	121.482	-0.055	0.069
-346.435	800.000	-0.052	0.181
-345.420	-46.366	-0.081	-0.039
-344.406	-133.778	0.057	-0.007
-343.391	-174.705	0.180	0.005
-342.377	88.199	-0.221	0.244
-341.362	236.869	-0.058	-0.095
-340.348	750.227	-0.076	0.203
-339.333	-70.515	0.201	-0.076
-338.318	-16.044	-0.210	0.133
-337.304	-123.115	0.155	-0.025
-336.289	-50.431	-0.187	-0.088
-335.275	24.967	-0.213	0.175
-334.260	-45.442	-0.272	0.134
-333.245	90.110	-0.058	0.064
-332.231	99.149	-0.089	-0.103
-331.216	-95.770	0.159	-0.042
-330.202	-108.657	0.112	0.024
-329.187	-185.000	0.169	-0.003
-328.172	274.966	0.045	-0.079
-327.158	-200.000	0.007	-0.108
-326.143	13.835	-0.082	0.063
-325.129	28.209	-0.117	0.098
-324.114	-0.669	0.203	-0.143
-323.099	800.000	-0.088	-0.350
-322.085	-107.382	-0.210	0.046
-321.070	800.000	0.149	0.467
-320.056	137.349	0.102	0.132
-319.041	28.352	0.259	0.218
-318.026	800.000	-0.055	-0.208
-317.012	22.196	-0.139	-0.112
-315.997	800.000	-0.034	-0.095
-314.983	459.971	0.196	0.433
-313.968	28.674	-0.075	-0.063
-312.953	626.154	-0.058	-0.145
-311.939	-38.510	-0.258	-0.136
-310.924	-27.830	0.264	0.152
-309.910	-89.461	0.178	-0.052
-308.895	-20.279	-0.102	0.062
-307.880	186.272	0.133	0.196
-306.866	289.058	0.049	0.088
-305.851	123.399	-0.288	-0.358
-304.837	800.000	0.005	-0.016
-303.822	-30.330	-0.083	-0.047
-302.807	-114.663	0.418	-0.080
-301.793	-40.149	0.320	-0.166
-300.778	800.000	0.091	-0.346
-299.764	323.795	0.082	-0.155
-298.749	107.813	0.167	-0.198
-297.735	154.705	-0.026	-0.036
-296.720	719.490	-0.148	-0.391
-295.705	-200.000	0.011	0.172
-294.691	-82.948	-0.115	0.037
-293.676	485.866	-0.032	0.072
-292.662	107.039	0.060	-0.071
-291.647	-92.535	-0.245	0.068
-290.632	467.885	-0.184	-0.411
-289.618	800.000	-0.080	0.252
-288.603	200.567	0.080	0.122
-287.589	-200.000	0.040	0.250
-286.574	620.589	0.095	-0.237
-285.559	297.101	0.055	-0.100
-284.545	-24.757	0.242	0.143
-283.530	-9.055	-0.092	0.061
-282.516	-103.933	-0.286	0.066
-281.501	-10.356	-0.298	-0.196
-280.486	-30.947	0.179	-0.100
-279.472	800.000	-0.076	0.264
-278.457	-52.040	0.234	-0.108
-277.443	93.332	-0.058	-0.065
-276.428	442.386	-0.251	0.546
-275.413	191.140	-0.171	0.255
-274.399	-200.000	0.024	0.263
-273.384	239.924	0.138	0.228
-272.370	117.928	-0.149	0.182
-271.355	72.337	-0.048	-0.050
-270.340	800.000	-0.059	-0.213
-269.326	-81.548	0.214	0.070
-268.311	800.000	0.025	0.095
-267.297	-37.929	-0.371	-0.196
-266.282	-155.228	0.326	-0.021
-265.267	-91.414	0.174	-0.049
-264.253	111.633	-0.165	-0.198
-263.238	-136.209	0.286	0.033
-262.224	76.247	0.333	0.350
-261.209	-29.456	0.103	-0.058
-260.195	766.325	0.095	0.257
-259.180	-108.988	0.135	0.029
-258.165	107.746	0.173	-0.205
-257.151	249.735	-0.067	-0.113
-256.136	452.819	-0.136	-0.298
-255.122	-119.804	-0.508	-0.087
-254.107	158.938	0.151	0.208
-253.092	-200.000	0.023	0.131
-252.078	37.668	-0.169	0.149
-251.063	24.262	0.231	0.189
-250.049	34.504	-0.108	0.093
-249.034	182.353	0.121	-0.177
-248.019	122.950	0.231	-0.286
-247.005	-69.336	-0.079	-0.030
-245.990	340.528	0.043	-0.083
-244.976	-152.463	0.243	0.017
-243.961	-200.000	-0.002	0.017
-242.946	21.666	-0.148	-0.120
-241.932	-147.821	0.311	-0.026
-240.917	155.759	0.121	0.165
-239.903	-65.507	0.159	0.063
-238.888	800.000	0.023	-0.082
-237.873	-200.000	0.046	0.225
-236.859	-52.527	0.217	-0.099
-235.844	-48.065	0.014	0.007
-234.830	10.121	-0.213	0.160
-233.815	-98.366	-0.191	0.048
-232.800	-165.232	0.348	-0.015
-231.786	58.147	-0.294	-0.285
-230.771	-200.000	-0.025	-0.246
-229.757	800.000	-0.078	-0.261
-228.742	-141.699	0.115	-0.011
-227.727	-52.729	0.111	-0.051
-226.713	-200.000	0.077	-0.367
-225.698	-200.000	0.018	0.247
-224.684	-114.250	-0.188	0.036
-223.669	-200.000	0.037	-0.202
-222.655	-179.092	-0.151	0.003
-221.640	-68.510	-0.216	-0.083
-220.625	121.960	0.135	0.167
-219.611	-200.000	0.054	0.237
-218.596	-28.866	-0.180	-0.102
-217.582	74.614	-0.163	0.169
-216.567	225.025	0.108	0.173
-215.552	-40.266	0.310	-0.160
-214.538	-53.442	0.174	0.079
-213.523	17.372	0.150	-0.118
-212.509	-18.240	-0.196	-0.121
-211.494	-143.047	0.076	-0.007
-210.479	494.491	0.086	0.196
-209.465	434.422	-0.175	-0.377
-208.450	119.205	-0.196	0.240
-207.436	-105.426	0.116	0.026
-206.421	25.555	0.211	0.174
-205.406	-20.284	-0.209	-0.127
-204.392	639.204	0.109	0.275
-203.377	-68.254	-0.393	-0.151
-202.363	-49.645	0.368	0.173
-201.348	-200.000	0.011	0.067
-200.333	800.000	-0.055	-0.183
-199.319	-71.668	0.133	0.049
-198.304	-73.212	0.375	0.136
-197.290	-137.968	0.326	0.036
-196.275	-12.360	-0.383	0.247
-195.260	15.261	0.234	0.181
-194.246	317.709	-0.011	0.020
-193.231	48.509	-0.165	0.153
-192.217	-130.603	0.113	0.015
-191.202	800.000	0.063	0.196
-190.187	75.105	0.230	-0.240
-189.173	391.007	-0.058	0.120
-188.158	38.342	-0.166	-0.146
-187.144	154.822	-0.214	-0.290
-186.129	-89.797	0.092	-0.026
-185.114	800.000	-0.082	0.247
-184.100	-106.251	0.219	-0.049
-183.085	239.366	-0.179	0.295
-182.071	-79.384	-0.050	0.017
-181.056	198.805	0.183	0.277
-180.042	800.000	-0.056	-0.180
-179.027	-57.267	-0.223	0.097
-178.012	35.748	-0.308	0.268
-176.998	33.203	-0.145	0.125
-175.983	800.000	-0.030	-0.123
-174.969	-76.775	-0.208	0.072
-173.954	-145.248	0.122	-0.011
-172.939	680.974	0.058	-0.148
-171.925	77.646	0.020	0.021
-170.910	73.811	-0.263	-0.273
-169.896	-14.163	0.272	-0.174
-168.881	-81.709	-0.202	0.065
-167.866	-69.427	-0.161	-0.061
-166.852	79.222	-0.247	-0.261
-165.837	474.142	0.116	0.258
-164.823	407.105	0.160	0.334
-163.808	394.646	0.169	0.347
-162.793	321.334	-0.128	0.240
-161.779	-159.505	-0.139	-0.008
-160.764	-76.100	-0.098	-0.034
-159.750	292.343	-0.129	-0.232
-158.735	-64.240	0.333	0.134
-157.720	-54.346	0.314	-0.141
-156.706	-97.850	0.334	0.085
-155.691	-160.627	0.264	-0.014
-154.677	800.000	0.050	0.154
-153.662	500.111	-0.164	0.374
-152.647	800.000	0.098	-0.333
-151.633	800.000	0.066	-0.197
-150.618	-200.000	0.018	0.088
-149.604	-200.000	0.000	0.122
-148.589	590.886	0.055	0.135
-147.574	800.000	0.047	-0.187
-146.560	-46.598	0.189	-0.092
-145.545	-101.760	0.247	-0.059
-144.531	10.599	-0.279	-0.210
-143.516	-167.450	-0.201	0.008
-142.502	321.776	-0.119	0.223
-141.487	654.092	-0.053	-0.134
-140.472	433.271	-0.097	-0.208
-139.458	-200.000	-0.039	-0.268
-138.443	1.729	0.308	0.219
-137.429	800.000	-0.105	-0.293
-136.414	54.558	0.107	0.102
-135.399	-4.009	0.156	0.107
-134.385	-200.000	0.021	-0.155
-133.370	-200.000	0.014	-0.115
-132.356	203.850	-0.190	-0.290
-131.341	-166.527	0.211	-0.009
-130.326	273.193	0.120	-0.209
-129.312	-25.430	0.467	-0.272
-128.297	0.731	-0.382	0.270
-127.283	23.025	-0.242	0.196
-126.268	-200.000	-0.025	-0.304
-125.253	-88.510	0.292	-0.086
-124.239	76.250	-0.111	0.116
-123.224	-31.473	0.067	0.037
-122.210	33.739	0.076	0.066
-121.195	-92.400	0.309	0.086
-120.180	476.814	0.025	0.055
