DTS Sentinel unit serial number:	SN413079Multiplexer serial number:	ORYXHardware model number:	OX4-SRSoftware version number:	ORYX F/W v4.00 Oryx Data Collector v3.7.2.0data status	okinstallation	princeton_trtdifferential loss correction	single-endedforward channel	channel 1reverse channel	N/Adate	2019/09/15time	16:30:35forward acquisition time	60.00reverse acquisition time	0.00gamma	496.2192k internal	0.2292k external	0.2292temperature offset calibration	0.9931default loss term (dB/km)	0.3790temperature slope calibration	1.0000multiplexer offset coefficient	1.0000multiplexer slope coefficient	1.0000fibre end	0.00T internal ref (°C)	43.91T ext. ref 1 (°C)	5.59T ext. ref 2 (°C)	40.59length (m)	temperature (°C)	Stokes	anti-Stokes-747.200	254.723	-0.104	0.183
-746.185	800.000	0.027	0.081
-745.171	-62.066	-0.120	0.051
-744.156	149.542	0.103	-0.143
-743.142	93.248	0.095	0.109
-742.127	160.629	-0.126	0.180
-741.112	-31.810	-0.291	0.167
-740.098	-17.383	0.315	0.203
-739.083	-200.000	0.045	0.350
-738.069	-146.379	-0.087	0.008
-737.054	123.350	0.120	-0.154
-736.039	37.307	-0.129	-0.117
-735.025	-200.000	0.009	-0.106
-734.010	285.276	-0.081	0.149
-732.996	-20.555	-0.182	-0.115
-731.981	19.279	-0.101	0.083
-730.966	-14.684	-0.168	0.110
-729.952	539.913	-0.187	-0.456
-728.937	18.802	-0.101	-0.083
-727.923	97.524	-0.298	-0.350
-726.908	-99.381	0.080	-0.021
-725.894	191.528	0.398	-0.612
-724.879	-86.112	0.121	0.038
-723.864	1.420	-0.316	0.232
-722.850	66.717	0.091	-0.095
-721.835	782.707	0.054	0.150
-720.821	190.704	-0.217	-0.334
-719.806	-193.207	0.507	-0.005
-718.791	61.565	0.158	0.161
-717.777	-70.792	0.151	-0.058
-716.762	92.807	0.085	0.098
-715.748	232.840	0.080	-0.134
-714.733	-147.224	0.107	0.009
-713.718	-200.000	-0.021	-0.096
-712.704	186.438	-0.168	-0.256
-711.689	800.000	0.025	0.087
-710.675	800.000	-0.020	0.058
-709.660	-24.700	-0.148	-0.090
-708.645	-59.622	-0.052	0.023
-707.631	-200.000	0.051	-0.299
-706.616	129.445	0.136	-0.177
-705.602	39.354	-0.086	-0.079
-704.587	-135.066	-0.152	-0.019
-703.572	-200.000	-0.011	-0.079
-702.558	610.273	0.068	0.174
-701.543	365.789	0.077	0.158
-700.529	-151.298	0.434	-0.033
-699.514	174.518	0.151	-0.224
-698.499	-41.266	-0.144	0.076
-697.485	-107.144	-0.210	-0.047
-696.470	-55.455	-0.383	0.175
-695.456	109.677	-0.082	-0.101
-694.441	-105.877	-0.183	0.042
-693.426	800.000	0.023	0.065
-692.412	-200.000	-0.002	0.054
-691.397	-56.150	0.118	-0.054
-690.383	6.130	0.219	0.166
-689.368	313.750	-0.061	0.117
-688.354	44.667	0.124	-0.117
-687.339	800.000	-0.114	-0.322
-686.324	-200.000	0.065	0.337
-685.310	379.255	-0.016	0.033
-684.295	-16.440	-0.299	0.193
-683.281	21.518	0.240	0.200
-682.266	115.006	-0.074	0.093
-681.251	-200.000	-0.050	-0.347
-680.237	382.340	-0.222	-0.466
-679.222	-128.948	0.283	0.041
-678.208	219.519	0.025	-0.041
-677.193	-85.183	-0.076	0.024
-676.178	-86.579	0.059	-0.019
-675.164	-29.953	-0.294	-0.171
-674.149	61.668	-0.043	-0.044
-673.135	723.120	-0.089	-0.242
-672.120	-91.896	-0.084	-0.024
-671.105	-2.154	-0.273	-0.195
-670.091	-102.961	-0.470	0.114
-669.076	-110.310	-0.082	-0.017
-668.062	225.103	0.057	0.095
-667.047	88.269	0.177	-0.200
-666.032	-100.217	0.212	-0.054
-665.018	-107.025	0.268	0.060
-664.003	168.052	0.045	-0.066
-662.989	-110.071	0.129	-0.027
-661.974	-88.916	0.119	0.036
-660.959	-96.739	-0.153	0.041
-659.945	8.637	-0.147	-0.113
-658.930	-41.387	0.181	0.095
-657.916	-168.918	0.104	0.004
-656.901	-52.149	-0.270	-0.128
-655.886	-135.591	0.155	0.019
-654.872	99.487	-0.113	0.133
-653.857	94.030	-0.326	0.377
-652.843	-109.035	0.110	0.024
-651.828	19.510	-0.133	0.109
-650.814	-101.513	0.287	0.071
-649.799	-143.078	0.060	0.006
-648.784	3.212	0.394	-0.292
-647.770	-34.873	0.309	0.172
-646.755	-119.806	-0.255	-0.045
-645.741	213.616	-0.112	0.180
-644.726	-10.362	0.021	-0.014
-643.711	-130.123	-0.099	0.014
-642.697	328.414	0.103	0.202
-641.682	-188.028	-0.274	-0.004
-640.668	-113.475	-0.116	0.023
-639.653	310.083	0.034	0.064
-638.638	-200.000	-0.009	-0.231
-637.624	-20.886	-0.217	0.135
-636.609	43.969	0.251	0.234
-635.595	-18.403	0.128	-0.082
-634.580	51.054	-0.066	0.064
-633.565	-119.067	0.183	-0.033
-632.551	-67.823	0.172	0.068
-631.536	-99.313	0.182	-0.047
-630.522	160.802	0.053	-0.075
-629.507	-58.233	-0.266	0.118
-628.492	-153.914	0.297	0.021
-627.478	629.637	0.089	0.229
-626.463	-17.314	0.109	0.070
-625.449	-200.000	-0.028	0.379
-624.434	55.655	-0.023	0.023
-623.419	-200.000	0.040	0.248
-622.405	526.585	-0.146	-0.350
-621.390	-200.000	0.006	0.076
-620.376	-82.547	-0.160	-0.053
-619.361	61.596	-0.073	-0.074
-618.346	336.485	0.025	-0.049
-617.332	-153.697	0.289	-0.020
-616.317	-95.729	0.314	0.085
-615.303	-128.838	-0.517	-0.074
-614.288	96.075	-0.061	0.071
-613.273	800.000	0.081	-0.294
-612.259	-161.036	-0.430	-0.023
-611.244	-91.858	-0.179	0.052
-610.230	-200.000	0.041	-0.289
-609.215	-59.624	-0.165	-0.072
-608.201	-200.000	-0.014	-0.334
-607.186	-112.710	0.240	0.049
-606.171	-130.827	0.396	0.054
-605.157	-59.933	-0.152	-0.066
-604.142	261.843	-0.193	-0.340
-603.128	-72.355	0.295	0.111
-602.113	-168.765	-0.159	0.006
-601.098	-26.283	-0.193	-0.115
-600.084	-65.201	0.248	-0.102
-599.069	800.000	0.086	0.252
-598.055	-100.122	-0.200	-0.051
-597.040	-200.000	-0.009	0.059
-596.025	-82.250	-0.193	-0.064
-595.011	390.191	0.107	-0.226
-593.996	27.863	-0.102	-0.088
-592.982	152.297	-0.186	-0.258
-591.967	463.709	0.074	0.169
-590.952	104.442	0.100	-0.120
-589.938	-71.049	0.095	0.036
-588.923	135.333	-0.069	-0.092
-587.909	-37.805	-0.282	-0.152
-586.894	-98.405	-0.156	0.041
-585.879	163.370	-0.095	0.135
-584.865	76.959	0.175	0.189
-583.850	10.489	-0.006	-0.004
-582.836	-200.000	-0.039	-0.219
-581.821	-200.000	0.016	0.345
-580.806	-200.000	-0.168	0.000
-579.792	185.476	-0.073	-0.111
-578.777	80.151	-0.010	0.010
-577.763	-64.480	-0.247	-0.102
-576.748	111.985	0.206	-0.253
-575.733	-200.000	0.012	-0.108
-574.719	-200.000	0.015	0.075
-573.704	-76.988	0.271	0.096
-572.690	-62.653	-0.151	0.064
-571.675	-96.636	0.111	-0.030
-570.661	-184.788	0.199	0.003
-569.646	-58.327	0.212	0.094
-568.631	-26.618	0.123	0.073
-567.617	-109.311	-0.216	0.047
-566.602	264.376	0.174	-0.307
-565.588	-200.000	0.005	0.149
-564.573	-200.000	-0.019	-0.232
-563.558	-200.000	0.048	-0.303
-562.544	388.646	-0.175	0.368
-561.529	-200.000	-0.008	-0.197
-560.515	-200.000	-0.007	-0.114
-559.500	223.317	0.128	-0.210
-558.485	362.379	0.074	-0.151
-557.471	745.587	-0.037	-0.102
-556.456	-200.000	-0.063	-0.302
-555.442	-128.686	0.104	-0.015
-554.427	-63.490	-0.385	-0.161
-553.412	-99.310	0.346	0.089
-552.398	19.030	-0.256	-0.209
-551.383	213.019	0.167	0.268
-550.369	-30.914	0.328	0.188
-549.354	101.357	0.179	0.211
-548.339	62.301	-0.022	0.023
-547.325	-200.000	-0.031	-0.216
-546.310	-118.442	-0.191	-0.034
-545.296	234.506	-0.298	-0.498
-544.281	-141.852	0.197	-0.020
-543.266	-71.400	0.148	-0.056
-542.252	-21.252	-0.085	0.053
-541.237	800.000	0.052	-0.210
-540.223	-120.470	-0.285	-0.049
-539.208	-26.678	-0.153	-0.091
-538.193	227.719	-0.123	0.203
-537.179	131.792	0.349	-0.456
-536.164	173.648	0.179	-0.262
-535.150	-200.000	-0.041	0.363
-534.135	15.273	0.113	-0.090
-533.121	47.989	-0.209	-0.198
-532.106	-200.000	-0.009	0.204
-531.091	-83.991	-0.212	0.069
-530.077	-89.476	0.047	-0.014
-529.062	-90.202	0.181	0.053
-528.048	479.801	0.166	0.382
-527.033	-200.000	0.011	0.300
-526.018	800.000	-0.041	-0.116
-525.004	102.719	-0.299	-0.355
-523.989	-17.036	-0.067	-0.043
-522.975	31.128	0.116	0.101
-521.960	645.845	0.103	-0.266
-520.945	16.031	0.161	-0.129
-519.931	342.398	0.040	0.079
-518.916	12.508	-0.149	0.116
-517.902	-185.769	-0.579	-0.009
-516.887	-15.518	-0.096	0.062
-515.872	44.324	0.209	-0.195
-514.858	-67.861	0.078	0.031
-513.843	-115.084	-0.289	-0.056
-512.829	-76.310	-0.303	0.108
-511.814	-200.000	0.039	0.270
-510.799	-169.667	0.134	0.005
-509.785	-200.000	-0.005	0.079
-508.770	-200.000	0.055	-0.454
-507.756	136.416	0.284	0.375
-506.741	-200.000	-0.023	0.375
-505.726	8.655	0.140	0.107
-504.712	183.583	0.053	-0.080
-503.697	98.470	-0.050	-0.058
-502.683	503.862	0.137	-0.321
-501.668	-53.885	-0.276	0.128
-500.653	266.858	0.087	0.155
-499.639	170.941	-0.050	0.072
-498.624	9.573	-0.048	0.037
-497.610	800.000	0.030	0.103
-496.595	8.708	0.299	0.228
-495.581	-117.754	0.234	-0.043
-494.566	-200.000	0.003	0.139
-493.551	13.588	-0.124	-0.098
-492.537	-138.109	0.031	0.003
-491.522	-200.000	0.006	-0.049
-490.508	523.847	0.108	-0.257
-489.493	117.050	-0.177	-0.221
-488.478	-137.674	-0.733	0.084
-487.464	800.000	0.061	0.187
-486.449	-200.000	0.015	0.158
-485.435	800.000	0.087	0.250
-484.420	-47.482	-0.135	0.067
-483.405	-200.000	-0.013	-0.083
-482.391	205.626	-0.062	0.098
-481.376	11.939	-0.137	0.107
-480.362	800.000	-0.098	-0.341
-479.347	5.957	0.145	-0.109
-478.332	-78.852	0.132	-0.046
-477.318	33.767	0.232	-0.204
-476.303	800.000	-0.045	0.160
-475.289	-23.716	0.138	-0.084
-474.274	492.568	0.020	-0.047
-473.259	-5.761	-0.080	0.056
-472.245	-200.000	-0.019	-0.233
-471.230	800.000	-0.014	-0.053
-470.216	-65.979	0.226	-0.091
-469.201	54.923	-0.141	-0.138
-468.186	-200.000	-0.009	-0.109
-467.172	-200.000	-0.051	-0.526
-466.157	-120.570	-0.278	-0.048
-465.143	-115.346	-0.147	0.028
-464.128	-44.182	-0.250	-0.127
-463.113	-43.251	0.338	0.173
-462.099	-33.505	0.147	-0.082
-461.084	261.386	0.036	-0.064
-460.070	-74.694	0.202	0.073
-459.055	786.751	-0.012	-0.034
-458.040	326.653	-0.040	-0.078
-457.026	498.389	-0.131	-0.305
-456.011	-131.281	0.217	0.029
-454.997	224.920	0.152	0.249
-453.982	469.666	0.078	-0.178
-452.968	800.000	-0.091	0.292
-451.953	-40.544	0.327	-0.172
-450.938	-47.835	-0.159	0.078
-449.924	-193.359	0.148	-0.001
-448.909	112.434	-0.207	0.254
-447.895	-200.000	-0.032	0.147
-446.880	-129.987	0.310	0.043
-445.865	-200.000	0.015	0.168
-444.851	31.927	-0.275	-0.240
-443.836	124.937	-0.164	-0.209
-442.822	718.648	0.063	-0.169
-441.807	-197.210	-0.088	-0.001
-440.792	496.602	0.063	-0.147
-439.778	-58.316	0.142	-0.063
-438.763	11.366	0.222	0.172
-437.749	214.396	-0.074	0.118
-436.734	449.234	-0.079	0.175
-435.719	800.000	-0.181	-0.609
-434.705	295.092	0.071	-0.131
-433.690	313.419	-0.048	0.092
-432.676	-60.004	-0.097	-0.042
-431.661	-200.000	-0.009	-0.204
-430.646	-200.000	-0.026	0.161
-429.632	7.024	-0.031	0.024
-428.617	-81.088	-0.376	-0.126
-427.603	800.000	-0.056	0.156
-426.588	-200.000	-0.000	0.152
-425.573	-200.000	-0.018	0.205
-424.559	19.014	0.063	-0.051
-423.544	-200.000	0.049	0.326
-422.530	180.400	0.261	-0.387
-421.515	800.000	0.027	0.088
-420.500	-163.084	0.132	-0.006
-419.486	238.957	-0.137	0.230
-418.471	-200.000	0.004	-0.107
-417.457	-200.000	0.027	0.253
-416.442	152.271	0.025	-0.035
-415.428	361.946	-0.141	-0.286
-414.413	-84.240	-0.186	-0.060
-413.398	-0.219	0.147	-0.105
-412.384	131.921	0.115	-0.149
-411.369	3.154	0.249	-0.183
-410.355	-200.000	-0.054	0.339
-409.340	-42.760	-0.186	0.096
-408.325	155.364	0.121	-0.169
-407.311	-200.000	0.006	0.116
-406.296	-61.283	-0.286	-0.122
-405.282	-53.410	-0.277	0.128
-404.267	-6.841	0.115	0.079
-403.252	-93.094	-0.168	-0.047
-402.238	-200.000	-0.019	0.157
-401.223	800.000	-0.034	-0.107
-400.209	30.825	0.064	-0.055
-399.194	-14.484	0.390	0.254
-398.179	-200.000	-0.004	-0.080
-397.165	63.524	-0.179	0.182
-396.150	-154.598	0.196	0.013
-395.136	102.895	-0.155	0.184
-394.121	-200.000	0.023	0.187
-393.106	800.000	-0.023	-0.101
-392.092	-200.000	0.006	-0.064
-391.077	-36.472	-0.014	-0.008
-390.063	94.252	-0.227	0.260
-389.048	109.101	-0.169	0.204
-388.033	400.244	0.174	-0.368
-387.019	21.300	0.119	-0.098
-386.004	-99.691	0.346	0.088
-384.990	363.693	-0.056	0.113
-383.975	-179.167	-0.084	0.002
-382.960	26.032	0.104	-0.088
-381.946	-156.183	-0.185	-0.012
-380.931	-200.000	-0.025	0.229
-379.917	36.920	0.121	0.108
-378.902	273.375	-0.233	0.416
-377.888	127.446	0.137	0.175
-376.873	474.754	0.118	-0.269
-375.858	59.796	-0.296	-0.295
-374.844	-16.598	0.313	-0.200
-373.829	95.296	0.033	-0.038
-372.815	-48.002	0.197	0.096
-371.800	303.595	-0.101	0.188
-370.785	444.597	-0.158	0.350
-369.771	-131.987	-0.133	0.017
-368.756	-200.000	0.052	0.315
-367.742	499.840	-0.141	0.328
-366.727	80.790	0.272	0.296
-365.712	-20.904	-0.183	-0.113
-364.698	144.076	-0.172	-0.231
-363.683	-41.196	-0.055	-0.029
-362.669	117.279	-0.142	0.177
-361.654	156.722	-0.082	0.114
-360.639	42.537	-0.090	0.082
-359.625	56.675	0.108	0.106
-358.610	22.327	-0.191	0.157
-357.596	-200.000	0.002	-0.141
-356.581	100.584	0.157	-0.184
-355.566	315.054	-0.156	-0.296
-354.552	-51.805	0.112	0.053
-353.537	158.632	0.152	0.213
-352.523	133.744	-0.231	-0.302
-351.508	29.468	0.073	-0.062
-350.493	113.187	0.108	0.132
-349.479	800.000	0.061	-0.215
-348.464	800.000	-0.036	0.111
-347.450	23.884	0.215	-0.178
-346.435	-200.000	0.006	-0.297
-345.420	-200.000	0.001	-0.181
-344.406	-60.979	-0.303	-0.129
-343.391	164.070	0.139	-0.197
-342.377	598.225	0.089	0.222
-341.362	-200.000	0.006	0.220
-340.348	445.083	0.043	-0.095
-339.333	-200.000	0.027	0.498
-338.318	800.000	-0.114	0.386
-337.304	-166.504	0.179	0.008
-336.289	612.756	0.095	0.239
-335.275	800.000	-0.069	-0.230
-334.260	-133.394	-0.255	0.032
-333.245	-41.816	0.407	0.210
-332.231	-200.000	0.027	-0.121
-331.216	193.531	0.074	-0.112
-330.202	-44.728	-0.090	0.045
-329.187	528.999	0.095	0.226
-328.172	-51.865	0.343	0.161
-327.158	41.380	0.082	-0.074
-326.143	-140.821	0.449	0.047
-325.129	-200.000	0.022	-0.176
-324.114	-200.000	0.084	-0.457
-323.099	247.536	0.126	-0.215
-322.085	614.359	0.108	-0.272
-321.070	-168.455	-0.105	-0.004
-320.056	-200.000	0.005	-0.036
-319.041	800.000	0.043	-0.166
-318.026	157.297	0.129	-0.179
-317.012	-30.192	-0.216	-0.124
-315.997	96.077	-0.038	-0.044
-314.983	-48.595	0.206	0.100
-313.968	800.000	0.049	0.188
-312.953	800.000	-0.031	0.090
-311.939	-39.268	-0.181	0.096
-310.924	-200.000	-0.064	0.449
-309.910	-100.951	0.235	-0.058
-308.895	-47.459	-0.083	-0.040
-307.880	114.068	0.186	-0.227
-306.866	741.244	0.051	0.138
-305.851	-133.690	-0.319	0.040
-304.837	82.600	-0.337	0.368
-303.822	800.000	-0.063	-0.247
-302.807	208.356	0.261	-0.410
-301.793	34.616	-0.230	0.203
-300.778	174.463	-0.090	-0.131
-299.764	516.468	0.079	-0.185
-298.749	800.000	0.065	-0.244
-297.735	-100.675	0.158	0.039
-296.720	6.297	-0.232	0.173
-295.705	73.552	-0.123	0.129
-294.691	-23.310	-0.209	0.126
-293.676	-144.834	0.143	-0.013
-292.662	-119.008	0.035	-0.006
-291.647	-8.601	-0.216	0.146
-290.632	0.122	0.096	-0.069
-289.618	253.719	0.159	0.274
-288.603	-14.538	0.268	0.173
-287.589	-200.000	0.012	-0.065
-286.574	-14.726	-0.258	-0.166
-285.559	61.290	-0.141	0.141
-284.545	698.067	-0.121	-0.320
-283.530	-66.498	0.337	0.134
-282.516	-200.000	-0.001	0.108
-281.501	58.280	0.311	0.307
-280.486	-200.000	0.004	0.504
-279.472	2.559	-0.230	0.167
-278.457	-17.290	-0.355	-0.225
-277.443	268.948	-0.146	-0.258
-276.428	-200.000	0.012	-0.058
-275.413	-51.869	0.134	0.062
-274.399	-68.385	-0.244	0.095
-273.384	-146.234	-0.184	0.016
-272.370	53.380	0.302	-0.291
-271.355	800.000	-0.047	-0.174
-270.340	408.961	0.117	0.249
-269.326	-48.040	0.305	-0.148
-268.311	371.458	0.104	0.213
-267.297	8.304	-0.316	0.239
-266.282	145.827	-0.114	0.154
-265.267	-200.000	0.019	0.149
-264.253	3.842	-0.211	-0.155
-263.238	-76.083	-0.164	0.058
-262.224	-15.184	0.224	-0.144
-261.209	68.850	-0.066	0.068
-260.195	-71.338	-0.226	0.085
-259.180	59.687	-0.194	0.192
-258.165	110.822	-0.216	0.261
-257.151	-200.000	-0.017	0.292
-256.136	-87.416	0.216	-0.066
-255.122	800.000	0.121	0.448
-254.107	454.818	-0.043	0.096
-253.092	192.407	-0.059	-0.089
-252.078	118.018	-0.044	-0.054
-251.063	-110.596	0.161	0.033
-250.049	-0.182	0.170	-0.121
-249.034	-0.520	-0.145	0.103
-248.019	67.493	0.077	-0.079
-247.005	-105.286	0.128	0.029
-245.990	103.129	0.121	0.142
-244.976	-18.704	-0.291	-0.182
-243.961	-200.000	-0.012	0.079
-242.946	-155.183	-0.091	0.006
-241.932	98.797	0.171	-0.198
-240.917	-200.000	0.007	0.162
-239.903	81.507	-0.281	0.305
-238.888	744.784	-0.072	0.194
-237.873	-200.000	-0.016	-0.216
-236.859	-130.412	0.079	-0.011
-235.844	-200.000	-0.106	0.482
-234.830	132.524	0.084	-0.109
-233.815	-49.635	-0.086	0.041
-232.800	-123.500	-0.241	0.038
-231.786	-200.000	0.032	-0.147
-230.771	800.000	-0.022	-0.068
-229.757	-149.967	-0.292	-0.023
-228.742	800.000	0.092	-0.394
-227.727	11.152	0.209	0.160
-226.713	264.697	-0.110	0.193
-225.698	80.334	-0.230	0.248
-224.684	-173.871	-0.101	0.003
-223.669	-85.398	-0.152	0.047
-222.655	84.073	-0.277	0.303
-221.640	-86.743	0.077	-0.024
-220.625	264.075	-0.121	-0.211
-219.611	143.137	0.047	-0.062
-218.596	-34.610	-0.033	-0.018
-217.582	-151.072	-0.166	-0.013
-216.567	-41.341	-0.213	-0.110
-215.552	-19.093	0.041	-0.025
-214.538	390.569	-0.151	-0.315
-213.523	-128.138	0.103	-0.015
-212.509	-196.265	-0.433	0.003
-211.494	800.000	-0.091	-0.318
-210.479	800.000	-0.081	0.228
-209.465	101.716	0.152	0.177
-208.450	194.600	0.074	0.112
-207.436	338.968	0.130	0.254
-206.421	204.127	0.100	0.156
-205.406	-131.533	-0.207	0.027
-204.392	793.439	0.066	0.182
-203.377	-200.000	0.002	-0.064
-202.363	-200.000	0.140	-0.000
-201.348	86.131	0.067	0.074
-200.333	43.608	-0.242	0.221
-199.319	-128.751	-0.115	-0.016
-198.304	-200.000	-0.001	-0.085
-197.290	-190.411	0.350	0.004
-196.275	-170.466	0.381	-0.013
-195.260	-139.496	-0.142	-0.015
-194.246	-3.501	0.091	-0.064
-193.231	-53.496	0.283	-0.130
-192.217	-43.091	0.179	0.091
-191.202	701.249	-0.105	-0.276
-190.187	-200.000	-0.046	-0.298
-189.173	-53.732	0.206	-0.094
-188.158	800.000	-0.055	0.219
-187.144	-200.000	0.012	0.088
-186.129	-15.753	-0.128	-0.082
-185.114	-141.483	0.381	-0.039
-184.100	84.839	0.061	-0.067
-183.085	-120.044	0.161	-0.028
-182.071	800.000	-0.063	0.203
-181.056	81.229	0.317	-0.343
-180.042	-49.638	-0.069	0.033
-179.027	23.561	-0.207	-0.171
-178.012	-76.664	-0.099	0.035
-176.998	-89.640	-0.118	-0.035
-175.983	-139.141	0.111	0.012
-174.969	800.000	0.077	-0.222
-173.954	-46.222	0.308	0.152
-172.939	20.596	0.067	-0.054
-171.925	447.020	0.195	-0.430
-170.910	-147.793	0.136	0.011
-169.896	-42.289	0.147	-0.075
-168.881	-200.000	-0.065	0.416
-167.866	-159.533	-0.305	0.017
-166.852	800.000	-0.149	0.482
-165.837	-53.362	0.435	-0.199
-164.823	336.106	0.067	-0.130
-163.808	-200.000	-0.006	-0.095
-162.793	68.571	-0.097	0.100
-161.779	-0.410	0.059	-0.042
-160.764	-105.102	-0.240	-0.055
-159.750	23.574	-0.165	0.136
-158.735	-200.000	0.044	0.198
-157.720	297.759	0.162	-0.298
-156.706	-200.000	-0.029	-0.301
-155.691	-120.553	0.295	-0.050
-154.677	-12.726	0.123	-0.080
-153.662	-140.698	-0.115	0.012
-152.647	-61.234	0.187	-0.079
-151.633	433.221	0.024	-0.051
-150.618	-43.358	0.256	-0.129
-149.604	-114.176	-0.132	0.026
-148.589	-111.523	0.108	0.022
-147.574	60.077	-0.239	0.236
-146.560	-127.097	-0.271	0.040
-145.545	-200.000	0.071	0.398
-144.531	356.882	0.029	-0.057
-143.516	5.480	-0.031	0.023
-142.502	800.000	-0.070	0.297
-141.487	-140.454	0.172	-0.018
-140.472	140.033	-0.171	0.225
-139.458	538.112	0.042	-0.100
-138.443	0.341	0.166	0.118
-137.429	148.831	-0.127	0.172
-136.414	404.627	-0.034	-0.071
-135.399	46.973	-0.141	0.131
-134.385	-200.000	0.004	-0.025
-133.370	677.332	0.054	-0.141
-132.356	291.231	-0.095	0.172
-131.341	-200.000	0.027	0.141
-130.326	207.374	-0.150	-0.233
-129.312	145.668	-0.299	-0.400
-128.297	455.589	0.115	-0.254
-127.283	-83.332	0.295	-0.095
-126.268	-115.750	-0.124	0.023
-125.253	683.549	0.107	0.279
-124.239	335.572	0.121	-0.235
-123.224	189.991	-0.190	0.284
-122.210	-143.857	0.207	0.020
-121.195	-200.000	0.000	0.020
