DTS Sentinel unit serial number:	SN413079Multiplexer serial number:	ORYXHardware model number:	OX4-SRSoftware version number:	ORYX F/W v4.00 Oryx Data Collector v3.7.2.0data status	okinstallation	princeton_trtdifferential loss correction	single-endedforward channel	channel 1reverse channel	N/Adate	2019/09/12time	20:03:34forward acquisition time	15.00reverse acquisition time	0.00gamma	496.2192k internal	0.2324k external	0.2324temperature offset calibration	1.0133default loss term (dB/km)	0.3790temperature slope calibration	1.0000multiplexer offset coefficient	1.0000multiplexer slope coefficient	1.0000fibre end	0.00T internal ref (°C)	31.69T ext. ref 1 (°C)	3.44T ext. ref 2 (°C)	26.39length (m)	temperature (°C)	Stokes	anti-Stokes-747.200	-116.401	-0.310	0.058
-746.185	-29.508	-0.439	-0.254
-745.171	106.395	0.891	1.066
-744.156	-41.658	-0.578	0.300
-743.142	248.313	0.277	-0.473
-742.127	-200.000	0.012	0.360
-741.112	-157.954	-0.456	0.027
-740.098	-49.703	-0.386	-0.185
-739.083	48.062	1.065	-1.005
-738.069	-2.187	0.685	0.486
-737.054	157.402	0.440	0.615
-736.039	-9.931	0.377	-0.253
-735.025	28.215	-0.141	-0.120
-734.010	-139.934	-1.097	0.117
-732.996	21.512	-0.964	0.791
-731.981	-103.208	-1.011	0.241
-730.966	226.134	-0.411	0.673
-729.952	37.754	-0.423	0.380
-728.937	85.486	-0.700	-0.775
-727.923	88.438	-0.571	-0.640
-726.908	800.000	-0.111	-0.464
-725.894	605.850	-0.284	-0.714
-724.879	-116.377	-0.593	-0.111
-723.864	-200.000	-0.046	-0.319
-722.850	-127.662	-0.164	-0.024
-721.835	-106.187	0.793	0.179
-720.821	-200.000	0.035	0.232
-719.806	-0.509	0.440	0.315
-718.791	304.132	-0.278	-0.520
-717.777	24.808	0.175	0.146
-716.762	338.562	0.086	-0.169
-715.748	645.274	-0.114	-0.293
-714.733	270.511	0.206	0.366
-713.718	-50.497	0.451	0.214
-712.704	-198.363	0.840	-0.005
-711.689	87.125	0.866	0.965
-710.675	-200.000	-0.016	0.416
-709.660	-200.000	-0.003	-0.087
-708.645	543.010	-0.098	0.236
-707.631	-30.864	-1.368	0.780
-706.616	-130.700	0.283	0.038
-705.602	800.000	0.110	0.320
-704.587	-51.931	-0.374	0.175
-703.572	-64.517	-0.213	-0.087
-702.558	-31.385	-0.308	-0.174
-701.543	670.303	-0.161	0.421
-700.529	54.330	0.262	-0.254
-699.514	7.416	-0.507	-0.382
-698.499	-26.785	0.681	0.402
-697.485	-0.266	0.347	-0.249
-696.470	56.917	0.359	-0.352
-695.456	34.807	0.409	0.361
-694.441	-72.033	-0.923	-0.345
-693.426	-108.166	-1.152	-0.251
-692.412	86.933	-0.467	-0.520
-691.397	-54.337	-0.640	-0.293
-690.383	-56.572	-0.828	-0.370
-689.368	-200.000	0.011	0.097
-688.354	5.431	-0.267	-0.198
-687.339	-63.872	-0.427	-0.176
-686.324	-200.000	-0.006	-0.716
-685.310	800.000	0.012	-0.046
-684.295	-200.000	-0.126	0.756
-683.281	800.000	0.084	-0.306
-682.266	397.633	-0.219	0.461
-681.251	30.379	-0.072	0.062
-680.237	83.545	0.340	-0.373
-679.222	490.672	-0.162	-0.374
-678.208	184.202	0.194	-0.289
-677.193	-71.490	-0.315	-0.119
-676.178	-15.422	-0.877	0.564
-675.164	80.058	-0.150	-0.162
-674.149	-96.291	0.380	-0.101
-673.135	337.823	0.309	0.606
-672.120	800.000	0.277	-0.865
-671.105	-170.745	-0.437	-0.015
-670.091	52.460	-0.287	-0.275
-669.076	169.224	0.197	-0.283
-668.062	-200.000	-0.062	-0.315
-667.047	-50.987	0.512	0.242
-666.032	-200.000	0.014	0.326
-665.018	-200.000	-0.036	-0.234
-664.003	-158.927	-0.188	-0.011
-662.989	624.626	-0.127	0.322
-661.974	-142.355	0.180	-0.018
-660.959	-50.321	0.391	-0.186
-659.945	-200.000	0.153	0.708
-658.930	-23.081	-0.584	0.354
-657.916	306.382	0.309	0.579
-656.901	119.447	-0.111	-0.139
-655.886	599.109	0.071	-0.177
-654.872	186.158	-0.417	0.624
-653.857	184.778	0.559	-0.834
-652.843	66.728	0.217	-0.222
-651.828	731.501	0.183	-0.493
-650.814	158.861	-0.192	0.269
-649.799	323.012	-0.211	-0.405
-648.784	-35.210	-1.253	0.686
-647.770	87.114	0.294	0.327
-646.755	-189.449	0.818	0.010
-645.741	125.055	0.037	-0.047
-644.726	-185.064	0.163	0.003
-643.711	54.758	-0.406	-0.394
-642.697	21.435	0.190	-0.155
-641.682	504.170	-0.407	0.947
-640.668	-10.229	-0.922	-0.616
-639.653	350.422	-0.120	0.238
-638.638	-200.000	-0.094	1.051
-637.624	92.384	-0.476	-0.540
-636.609	-43.928	1.208	0.611
-635.595	800.000	-0.104	-0.363
-634.580	-75.591	-1.024	-0.366
-633.565	-49.227	0.089	0.043
-632.551	594.903	-0.427	-1.061
-631.536	-15.600	0.680	-0.436
-630.522	-200.000	0.036	0.197
-629.507	-161.150	-0.909	0.048
-628.492	800.000	-0.099	-0.321
-627.478	-125.631	-0.788	0.120
-626.463	129.258	-0.870	1.117
-625.449	-98.357	0.839	-0.216
-624.434	-162.130	-0.766	0.039
-623.419	95.137	-0.340	-0.389
-622.405	-155.234	0.140	0.009
-621.390	-59.310	0.134	0.058
-620.376	-172.154	-0.221	-0.007
-619.361	18.207	-0.251	-0.201
-618.346	-30.228	-0.610	-0.348
-617.332	-36.859	-0.345	-0.186
-616.317	-190.315	-0.901	-0.010
-615.303	-200.000	-0.019	0.978
-614.288	-200.000	0.009	0.281
-613.273	77.107	-0.586	0.625
-612.259	-43.955	-0.235	0.119
-611.244	-113.745	-0.907	-0.178
-610.230	-26.428	0.309	0.182
-609.215	-18.859	-0.416	0.260
-608.201	168.433	-0.508	0.727
-607.186	-126.398	0.595	0.089
-606.171	-20.447	-0.411	-0.254
-605.157	-200.000	-0.089	-0.479
-604.142	96.910	0.085	-0.098
-603.128	-83.088	-0.383	-0.124
-602.113	687.659	0.115	0.301
-601.098	136.277	-0.614	0.803
-600.084	157.619	0.593	-0.825
-599.069	141.977	0.254	-0.339
-598.055	-153.852	0.138	-0.009
-597.040	-112.012	0.184	-0.037
-596.025	-52.957	-0.434	0.200
-595.011	245.207	0.062	-0.105
-593.996	-97.966	-0.226	-0.058
-592.982	-47.143	0.165	0.081
-591.967	-42.088	-0.542	0.278
-590.952	84.448	-0.285	-0.313
-589.938	715.284	0.247	-0.657
-588.923	-200.000	0.015	0.346
-587.909	-200.000	-0.003	-0.358
-586.894	-130.746	-1.190	-0.160
-585.879	700.339	0.269	0.710
-584.865	-200.000	-0.006	-0.291
-583.850	-124.020	0.632	0.100
-582.836	403.903	-0.355	0.750
-581.821	200.509	0.237	0.366
-580.806	9.031	0.464	0.352
-579.792	-6.869	0.265	-0.181
-578.777	-200.000	-0.002	0.155
-577.763	18.140	-0.841	0.673
-576.748	-200.000	-0.032	0.714
-575.733	-70.666	-0.347	0.132
-574.719	-136.675	0.454	0.053
-573.704	800.000	0.104	-0.423
-572.690	38.181	-0.213	0.190
-571.675	-127.863	-0.489	0.071
-570.661	-200.000	-0.089	-0.537
-569.646	444.180	-0.083	0.183
-568.631	353.130	-0.228	0.454
-567.617	-138.118	0.648	0.072
-566.602	-200.000	-0.055	-0.263
-565.588	282.738	-0.271	-0.487
-564.573	-25.695	-0.080	-0.047
-563.558	-106.607	0.031	0.007
-562.544	11.926	-0.771	-0.594
-561.529	-102.631	-0.714	0.171
-560.515	589.064	-0.181	-0.448
-559.500	-137.888	-0.097	0.011
-558.485	633.435	-0.059	-0.150
-557.471	374.473	-0.182	0.371
-556.456	-19.638	-0.452	0.280
-555.442	-200.000	0.057	-0.332
-554.427	622.715	0.202	0.509
-553.412	-200.000	0.017	0.241
-552.398	-160.173	0.274	0.015
-551.383	-140.538	0.685	0.071
-550.369	-111.849	-0.208	0.042
-549.354	-138.747	0.578	-0.063
-548.339	99.732	0.316	0.367
-547.325	-200.000	-0.063	-0.498
-546.310	-45.663	-0.521	0.258
-545.296	-92.762	-0.712	-0.200
-544.281	162.826	-0.303	-0.425
-543.266	6.874	0.547	-0.408
-542.252	800.000	0.265	0.858
-541.237	800.000	-0.047	0.184
-540.223	-200.000	-0.001	-0.934
-539.208	800.000	0.137	-0.512
-538.193	-200.000	-0.013	0.307
-537.179	-115.536	0.225	-0.042
-536.164	-119.622	-0.500	-0.087
-535.150	-109.080	0.291	-0.062
-534.135	-149.034	-0.413	-0.033
-533.121	545.226	0.397	-0.949
-532.106	-81.002	-0.327	0.108
-531.091	31.100	-0.529	-0.454
-530.077	-107.257	0.869	0.191
-529.062	-200.000	0.002	0.393
-528.048	-89.395	0.474	0.140
-527.033	-200.000	0.002	0.059
-526.018	-12.514	0.807	0.528
-525.004	-156.234	-0.568	0.036
-523.989	104.590	-0.057	0.068
-522.975	800.000	0.166	-0.487
-521.960	-200.000	0.124	0.614
-520.945	-132.798	0.191	0.024
-519.931	241.175	0.364	0.609
-518.916	12.766	0.558	0.431
-517.902	-200.000	0.027	0.290
-516.887	485.897	0.301	-0.687
-515.872	224.915	0.283	-0.458
-514.858	-124.092	-0.434	0.068
-513.843	800.000	-0.208	-0.765
-512.829	170.931	-0.174	-0.249
-511.814	-179.432	-0.440	-0.010
-510.799	14.953	-0.474	-0.371
-509.785	48.383	0.205	-0.192
-508.770	-40.014	-0.067	-0.035
-507.756	-3.360	0.146	0.101
-506.741	-200.000	0.266	1.200
-505.726	-149.939	0.350	-0.027
-504.712	25.647	0.670	0.558
-503.697	75.810	0.255	-0.270
-502.683	-151.937	-0.959	-0.070
-501.668	303.912	-0.231	0.428
-500.653	-43.032	0.576	-0.292
-499.639	-11.612	0.412	-0.271
-498.624	-0.794	-0.412	0.292
-497.610	41.875	0.353	0.320
-496.595	-200.000	-0.014	0.386
-495.581	293.684	-0.104	0.190
-494.566	-50.266	0.775	-0.366
-493.551	-76.242	0.890	-0.314
-492.537	-200.000	0.099	0.435
-491.522	167.119	0.204	0.289
-490.508	800.000	-0.081	-0.332
-489.493	44.682	0.364	0.335
-488.478	-149.364	0.008	-0.001
-487.464	-58.221	-0.484	0.211
-486.449	110.250	0.533	-0.640
-485.435	-72.245	-0.682	-0.252
-484.420	800.000	-0.161	-0.703
-483.405	-138.218	0.541	0.060
-482.391	-49.585	-0.491	-0.233
-481.376	-56.662	-0.835	0.370
-480.362	-200.000	0.011	0.420
-479.347	-99.664	0.565	0.142
-478.332	25.587	0.311	-0.259
-477.318	-114.179	-0.537	-0.104
-476.303	-48.246	0.248	-0.119
-475.289	271.480	-0.210	0.369
-474.274	772.390	0.158	0.429
-473.259	-127.009	-0.132	0.019
-472.245	378.627	-0.073	0.149
-471.230	-80.277	0.470	0.157
-470.216	-200.000	-0.255	1.241
-469.201	-171.976	-0.855	-0.028
-468.186	-93.236	-0.219	0.061
-467.172	-165.313	0.598	0.026
-466.157	412.001	-0.288	0.610
-465.143	-146.424	-0.532	0.046
-464.128	-200.000	0.066	-0.459
-463.113	-48.023	1.155	-0.558
-462.099	-200.000	0.090	-0.455
-461.084	-112.199	-0.017	-0.003
-460.070	-161.791	1.140	-0.058
-459.055	19.733	0.524	-0.421
-458.040	-200.000	0.099	0.894
-457.026	493.304	-0.201	-0.459
-456.011	-133.677	0.488	0.061
-454.997	-78.823	-0.521	-0.177
-453.982	16.490	0.784	-0.618
-452.968	4.847	-0.447	0.328
-451.953	26.352	0.716	-0.597
-450.938	-42.946	0.150	0.076
-449.924	-90.740	-1.325	0.382
-448.909	216.982	0.186	0.295
-447.895	-84.046	0.802	-0.254
-446.880	-58.984	-0.714	0.308
-445.865	139.903	0.188	0.247
-444.851	-200.000	-0.086	-0.871
-443.836	-33.030	-0.442	-0.245
-442.822	-157.439	0.434	0.026
-441.807	-31.039	0.525	-0.295
-440.792	-137.582	-0.624	0.070
-439.778	-200.000	-0.094	-0.755
-438.763	405.042	-0.065	0.137
-437.749	70.174	-0.519	0.535
-436.734	-46.779	0.694	0.339
-435.719	800.000	0.163	-0.475
-434.705	-200.000	0.646	-0.002
-433.690	79.233	0.377	0.403
-432.676	-77.926	0.466	-0.160
-431.661	-170.511	0.922	-0.032
-430.646	-200.000	-0.015	0.211
-429.632	-56.390	-0.365	-0.162
-428.617	357.511	-0.208	0.414
-427.603	-200.000	-0.111	0.816
-426.588	6.944	-0.355	0.264
-425.573	-10.764	0.431	-0.284
-424.559	-181.307	0.393	0.008
-423.544	96.950	-0.630	-0.720
-422.530	-30.274	0.352	-0.199
-421.515	423.095	-0.308	-0.660
-420.500	800.000	-0.145	0.583
-419.486	-73.323	-0.667	-0.243
-418.471	-55.178	-0.426	0.191
-417.457	34.928	0.373	0.326
-416.442	-117.609	0.963	-0.173
-415.428	-200.000	-0.023	0.316
-414.413	718.163	0.314	-0.832
-413.398	-42.487	-0.730	0.371
-412.384	-200.000	0.017	-0.722
-411.369	260.392	-0.118	0.203
-410.355	-107.019	0.490	0.108
-409.340	800.000	0.079	0.245
-408.325	-78.549	0.549	-0.187
-407.311	-200.000	0.030	-0.863
-406.296	-200.000	-0.129	-0.850
-405.282	-200.000	0.059	-0.486
-404.267	206.862	0.383	-0.594
-403.252	800.000	-0.356	-1.074
-402.238	36.901	0.665	0.586
-401.223	609.077	0.297	-0.738
-400.209	65.106	-0.095	-0.096
-399.194	-79.051	1.222	-0.414
-398.179	-43.483	1.104	-0.555
-397.165	-91.068	0.448	0.128
-396.150	499.353	0.162	-0.372
-395.136	-41.165	-0.305	0.157
-394.121	-126.230	-0.349	0.052
-393.106	800.000	0.071	0.282
-392.092	96.399	-0.130	-0.148
-391.077	-39.954	0.151	-0.078
-390.063	-93.100	0.839	-0.233
-389.048	-200.000	-0.001	0.260
-388.033	800.000	0.163	0.552
-387.019	118.192	-0.116	0.142
-386.004	-200.000	-0.016	0.095
-384.990	221.420	0.128	-0.204
-383.975	18.459	-0.651	-0.518
-382.960	800.000	0.158	0.500
-381.946	-64.460	-0.418	-0.169
-380.931	133.714	0.174	0.224
-379.917	800.000	0.099	-0.333
-378.902	-2.045	-0.645	0.451
-377.888	-4.043	-0.215	0.148
-376.873	-200.000	0.107	0.652
-375.858	42.968	-0.565	-0.512
-374.844	-146.782	0.400	-0.034
-373.829	300.975	-0.213	-0.392
-372.815	-31.985	-1.145	0.638
-371.800	133.265	-0.377	-0.485
-370.785	-6.301	0.886	-0.601
-369.771	61.351	0.420	0.415
-368.756	-19.487	0.893	-0.551
-367.742	481.670	0.216	-0.488
-366.727	800.000	0.298	-0.831
-365.712	382.714	-0.209	0.428
-364.698	564.670	-0.054	0.130
-363.683	109.990	-0.466	-0.556
-362.669	269.242	-0.317	0.553
-361.654	-30.469	0.238	-0.134
-360.639	84.339	-0.544	-0.592
-359.625	-110.600	-0.489	-0.101
-358.610	218.694	-0.389	-0.618
-357.596	-168.069	0.791	-0.031
-356.581	-98.189	0.578	-0.148
-355.566	-163.250	-0.750	0.036
-354.552	800.000	0.044	0.127
-353.537	-194.897	-0.702	0.005
-352.523	-108.297	0.472	0.101
-351.508	143.788	0.557	0.738
-350.493	800.000	0.174	-0.663
-349.479	78.101	0.144	0.153
-348.464	-200.000	-0.147	0.807
-347.450	440.468	0.335	0.728
-346.435	-200.000	-0.023	0.374
-345.420	-120.159	-0.369	0.063
-344.406	1.822	0.932	0.668
-343.391	-48.217	-1.017	-0.488
-342.377	588.050	0.312	-0.764
-341.362	-160.454	-0.638	-0.034
-340.348	258.850	0.193	-0.331
-339.333	-105.871	0.109	-0.025
-338.318	171.401	-0.189	0.269
-337.304	161.919	0.450	0.627
-336.289	-200.000	0.045	0.358
-335.275	467.093	0.227	-0.506
-334.260	28.981	0.434	0.366
-333.245	-200.000	-0.036	0.769
-332.231	-141.217	-0.265	0.027
-331.216	-106.980	0.957	0.210
-330.202	-141.480	-0.791	-0.079
-329.187	-12.210	0.173	0.112
-328.172	420.421	0.356	0.758
-327.158	-90.858	0.646	0.185
-326.143	-152.072	-0.551	-0.040
-325.129	210.848	0.634	-0.990
-324.114	327.136	0.096	-0.183
-323.099	-75.844	0.415	0.146
-322.085	-37.184	-0.312	0.166
-321.070	162.972	-0.254	-0.354
-320.056	139.820	-0.335	-0.438
-319.041	-130.859	-0.439	0.058
-318.026	298.746	0.234	-0.428
-317.012	800.000	-0.146	-0.410
-315.997	-6.112	0.646	-0.438
-314.983	12.163	0.222	0.170
-313.968	-200.000	-0.020	0.612
-312.953	208.136	0.257	-0.399
-311.939	756.129	0.129	-0.347
-310.924	78.948	-0.203	-0.215
-309.910	365.672	0.063	-0.125
-308.895	-10.093	0.569	0.375
-307.880	599.586	0.162	-0.399
-306.866	-18.156	0.395	0.245
-305.851	-17.462	-0.328	0.205
-304.837	800.000	-0.094	-0.376
-303.822	698.787	0.150	-0.391
-302.807	-162.796	-1.019	-0.049
-301.793	-29.652	0.507	0.287
-300.778	97.658	-0.251	-0.286
-299.764	-142.970	-0.344	0.033
-298.749	-130.600	-0.148	-0.020
-297.735	-200.000	0.116	-0.823
-296.720	11.993	-0.091	-0.069
-295.705	219.903	0.348	-0.553
-294.691	-136.478	0.819	-0.094
-293.676	-137.197	-0.202	0.023
-292.662	-87.350	0.208	0.063
-291.647	-200.000	0.007	-0.342
-290.632	-91.679	0.502	-0.142
-289.618	800.000	-0.095	-0.309
-288.603	315.795	0.461	-0.863
-287.589	-77.203	0.497	0.172
-286.574	800.000	0.107	0.437
-285.559	141.343	0.352	-0.462
-284.545	34.610	-0.158	-0.137
-283.530	-200.000	-0.027	0.532
-282.516	-200.000	0.208	0.918
-281.501	161.513	-0.675	0.936
-280.486	240.978	0.193	-0.319
-279.472	517.122	0.061	0.142
-278.457	17.403	0.835	-0.657
-277.443	161.471	0.148	-0.206
-276.428	-200.000	-0.107	-0.690
-275.413	800.000	0.394	-1.272
-274.399	37.922	0.616	-0.543
-273.384	-26.990	-0.839	0.485
-272.370	800.000	-0.272	0.819
-271.355	16.010	-0.376	0.293
-270.340	-200.000	-0.031	-0.201
-269.326	104.926	-0.210	-0.246
-268.311	800.000	-0.244	-0.725
-267.297	-8.519	-0.827	0.551
-266.282	-46.639	-0.537	-0.261
-265.267	16.576	0.908	0.711
-264.253	-200.000	-0.009	-0.154
-263.238	477.192	0.166	-0.372
-262.224	-114.652	0.526	0.100
-261.209	13.843	-0.297	-0.229
-260.195	-67.178	-0.443	0.173
-259.180	800.000	0.148	-0.474
-258.165	-104.794	0.649	0.148
-257.151	-200.000	-0.036	0.552
-256.136	69.229	0.062	0.063
-255.122	-75.799	0.765	0.268
-254.107	-124.499	-0.186	0.029
-253.092	-57.848	0.522	0.226
-252.078	-200.000	0.019	-0.885
-251.063	-177.070	0.837	0.021
-250.049	100.118	0.302	-0.346
-249.034	2.551	-0.236	0.170
-248.019	27.516	0.382	0.318
-247.005	177.002	-0.241	-0.348
-245.990	-92.989	-0.167	0.046
-244.976	-25.885	-0.206	0.120
-243.961	-45.118	0.501	0.247
-242.946	784.848	-0.197	0.535
-241.932	138.353	-0.332	0.432
-240.917	242.552	-0.239	-0.396
-239.903	65.059	-0.474	0.474
-238.888	653.208	0.121	0.307
-237.873	48.957	-0.411	0.382
-236.859	227.793	0.069	0.112
-235.844	-25.533	0.398	-0.233
-234.830	-137.182	0.544	0.061
-233.815	-9.697	-0.946	0.624
-232.800	77.972	0.552	0.583
-231.786	-13.583	-0.128	0.082
-230.771	800.000	0.117	0.441
-229.757	800.000	-0.090	0.274
-228.742	-136.448	-0.526	-0.060
-227.727	96.131	-0.348	-0.394
-226.713	-108.821	-0.775	-0.164
-225.698	109.386	-0.273	0.324
-224.684	29.390	-0.216	-0.181
-223.669	13.435	-0.519	0.398
-222.655	335.289	0.169	-0.324
-221.640	175.091	0.099	0.141
-220.625	-200.000	0.040	-0.175
-219.611	46.678	-0.150	0.138
-218.596	-75.294	-0.283	0.100
-217.582	-200.000	0.015	0.253
-216.567	-200.000	-0.108	0.547
-215.552	-14.812	0.170	0.108
-214.538	150.760	0.112	-0.150
-213.523	-126.321	-0.263	0.039
-212.509	-19.313	-0.885	-0.543
-211.494	793.430	0.184	-0.501
-210.479	-24.502	-0.419	-0.247
-209.465	30.332	0.422	0.357
-208.450	550.585	-0.630	1.495
-207.436	800.000	-0.120	-0.442
-206.421	-45.154	-0.390	-0.192
-205.406	-200.000	-0.064	-0.337
-204.392	-200.000	-0.027	-0.546
-203.377	-97.668	0.327	0.084
-202.363	90.891	-0.201	-0.223
-201.348	800.000	0.159	0.505
-200.333	-4.869	0.042	0.028
-199.319	-176.150	0.362	0.009
-198.304	-200.000	0.024	0.555
-197.290	-135.808	0.590	0.069
-196.275	299.598	-0.225	-0.409
-195.260	-200.000	0.032	0.627
-194.246	-152.892	0.557	-0.039
-193.231	541.168	0.097	0.228
-192.217	500.521	-0.142	-0.323
-191.202	-35.676	-0.676	-0.362
-190.187	800.000	-0.154	0.550
-189.173	-200.000	0.016	-0.203
-188.158	-189.699	-0.295	-0.003
-187.144	-11.886	1.072	0.695
-186.129	800.000	-0.268	0.837
-185.114	50.605	-0.252	-0.235
-184.100	-48.031	0.488	0.233
-183.085	-200.000	-0.079	0.671
-182.071	-174.093	0.545	0.016
-181.056	800.000	-0.258	-1.115
-180.042	-165.342	0.412	-0.018
-179.027	800.000	-0.195	0.592
-178.012	-130.277	-0.511	0.069
-176.998	639.036	-0.247	-0.620
-175.983	800.000	-0.072	-0.308
-174.969	-106.517	-0.049	-0.011
-173.954	-128.848	0.945	-0.131
-172.939	-35.383	-0.194	0.104
-171.925	800.000	0.140	0.407
-170.910	229.073	-0.312	-0.502
-169.896	6.595	0.702	-0.515
-168.881	192.904	0.224	-0.335
-167.866	-52.630	-0.846	0.386
-166.852	650.397	0.104	-0.264
-165.837	-11.919	-0.238	0.154
-164.823	800.000	0.164	-0.488
-163.808	-75.898	0.538	0.188
-162.793	-37.711	-0.244	-0.128
-161.779	8.747	0.318	0.237
-160.764	534.070	0.094	0.219
-159.750	-43.943	-0.335	0.166
-158.735	-2.653	-0.184	0.127
-157.720	-103.960	-0.215	0.050
-156.706	703.636	-0.301	0.782
-155.691	-200.000	0.023	-0.167
-154.677	-200.000	0.058	-0.256
-153.662	-133.197	0.660	0.082
-152.647	389.083	-0.579	1.183
-151.633	-125.384	-0.960	0.144
-150.618	258.845	-0.339	-0.577
-149.604	-21.519	-0.250	0.150
-148.589	-129.170	1.242	0.171
-147.574	-96.337	-0.381	-0.100
-146.560	317.834	0.338	-0.631
-145.545	-105.510	-0.449	-0.101
-144.531	-98.424	-0.505	-0.128
-143.516	-77.772	0.842	0.287
-142.502	177.591	0.028	0.041
-141.487	543.306	0.062	0.146
-140.472	10.332	0.371	-0.278
-139.458	62.631	0.450	-0.443
-138.443	268.236	-0.250	-0.431
-137.429	5.827	0.402	-0.293
-136.414	116.043	0.123	0.149
-135.399	-200.000	0.155	0.851
-134.385	354.992	0.347	-0.680
-133.370	-1.687	0.593	0.412
-132.356	-2.355	0.201	-0.139
-131.341	-35.873	-1.189	0.635
-130.326	82.863	-0.328	-0.352
-129.312	-162.580	0.152	0.007
-128.297	-96.509	0.186	-0.048
-127.283	-23.017	-0.552	0.328
-126.268	-62.328	0.736	0.302
-125.253	-200.000	-0.101	-0.937
-124.239	-136.757	0.877	-0.100
-123.224	-83.155	-0.351	0.111
-122.210	9.692	0.590	0.441
-121.195	-2.269	0.628	-0.434
