DTS Sentinel unit serial number:	SN413079Multiplexer serial number:	ORYXHardware model number:	OX4-SRSoftware version number:	ORYX F/W v4.00 Oryx Data Collector v3.7.2.0data status	okinstallation	princeton_trtdifferential loss correction	single-endedforward channel	channel 1reverse channel	N/Adate	2019/09/14time	05:22:35forward acquisition time	60.00reverse acquisition time	0.00gamma	496.2192k internal	0.2333k external	0.2333temperature offset calibration	1.0077default loss term (dB/km)	0.3790temperature slope calibration	1.0000multiplexer offset coefficient	1.0000multiplexer slope coefficient	1.0000fibre end	0.00T internal ref (°C)	26.92T ext. ref 1 (°C)	3.38T ext. ref 2 (°C)	21.91length (m)	temperature (°C)	Stokes	anti-Stokes-747.200	-200.000	-0.032	0.352
-746.185	-122.539	0.076	0.012
-745.171	-27.572	-0.098	-0.057
-744.156	-84.436	0.066	-0.021
-743.142	324.789	0.055	-0.106
-742.127	-39.876	0.163	0.086
-741.112	-200.000	-0.009	-0.229
-740.098	50.644	-0.040	0.038
-739.083	-27.114	-0.168	0.098
-738.069	-200.000	-0.095	0.614
-737.054	-0.333	-0.024	-0.017
-736.039	-109.535	-0.174	0.037
-735.025	-128.815	-0.195	-0.028
-734.010	201.777	-0.109	-0.170
-732.996	-170.769	0.160	-0.006
-731.981	-113.198	0.227	-0.045
-730.966	248.821	0.092	-0.157
-729.952	800.000	0.050	-0.199
-728.937	3.940	0.136	-0.100
-727.923	246.153	-0.067	-0.113
-726.908	-106.116	-0.368	-0.083
-725.894	24.410	0.278	-0.231
-724.879	125.556	-0.032	0.041
-723.864	800.000	-0.077	-0.240
-722.850	546.660	0.088	0.211
-721.835	-17.595	0.133	-0.084
-720.821	800.000	-0.148	-0.462
-719.806	-121.463	0.320	-0.053
-718.791	-200.000	0.049	0.250
-717.777	-152.892	-0.560	0.040
-716.762	35.834	-0.202	0.179
-715.748	-111.004	0.330	0.068
-714.733	-200.000	-0.024	0.158
-713.718	-122.473	0.279	-0.046
-712.704	-200.000	-0.086	-0.441
-711.689	-179.115	-0.086	-0.002
-710.675	402.694	-0.048	0.101
-709.660	233.426	0.055	-0.091
-708.645	153.803	-0.054	0.074
-707.631	-62.778	-0.263	0.110
-706.616	78.942	-0.117	0.126
-705.602	-200.000	0.040	-0.269
-704.587	800.000	0.059	0.190
-703.572	731.541	-0.181	0.487
-702.558	-11.038	-0.166	-0.110
-701.543	89.477	0.354	-0.396
-700.529	79.457	-0.142	-0.153
-699.514	-157.915	0.168	0.010
-698.499	610.869	-0.009	-0.024
-697.485	-28.506	-0.258	0.149
-696.470	800.000	-0.136	-0.425
-695.456	-200.000	0.062	-0.395
-694.441	557.042	0.066	-0.160
-693.426	-105.609	-0.110	-0.025
-692.412	722.212	0.082	0.218
-691.397	582.660	-0.013	-0.032
-690.383	800.000	0.072	0.246
-689.368	-2.586	-0.040	0.028
-688.354	-39.076	-0.223	-0.118
-687.339	-114.079	-0.167	0.032
-686.324	442.191	0.124	0.272
-685.310	121.502	0.076	0.095
-684.295	-19.606	0.210	0.130
-683.281	-69.901	0.399	0.153
-682.266	25.523	0.156	0.131
-681.251	-115.325	-0.138	-0.026
-680.237	-126.073	0.133	0.020
-679.222	503.862	0.109	-0.253
-678.208	117.463	-0.335	-0.413
-677.193	-159.488	-0.151	0.008
-676.178	-200.000	0.028	-0.567
-675.164	-17.817	-0.120	0.075
-674.149	475.293	-0.066	0.149
-673.135	88.253	-0.080	-0.089
-672.120	-69.826	-0.415	0.159
-671.105	392.388	0.050	-0.104
-670.091	-121.523	-0.102	-0.017
-669.076	-52.249	-0.152	-0.071
-668.062	-91.107	-0.421	0.121
-667.047	118.271	0.168	-0.207
-666.032	449.730	0.103	-0.227
-665.018	2.408	0.250	0.181
-664.003	-200.000	0.023	0.332
-662.989	-200.000	0.024	-0.233
-661.974	308.013	-0.092	0.173
-660.959	-45.391	-0.130	-0.065
-659.945	-174.842	-0.425	0.012
-658.930	-88.377	0.260	0.078
-657.916	61.738	0.136	-0.135
-656.901	147.390	-0.085	-0.115
-655.886	8.836	0.134	-0.101
-654.872	-69.333	0.235	-0.090
-653.857	86.526	-0.150	-0.166
-652.843	-200.000	-0.001	0.123
-651.828	246.605	0.120	0.204
-650.814	-90.508	-0.387	-0.112
-649.799	480.299	-0.238	-0.541
-648.784	523.186	-0.102	0.241
-647.770	222.836	-0.232	-0.375
-646.755	244.037	-0.140	-0.236
-645.741	-59.363	-0.312	-0.134
-644.726	800.000	0.035	-0.138
-643.711	122.950	-0.043	-0.054
-642.697	57.447	0.088	-0.086
-641.682	539.544	-0.098	0.233
-640.668	-42.317	0.001	-0.001
-639.653	800.000	-0.045	0.145
-638.638	-63.400	-0.213	0.088
-637.624	800.000	0.045	-0.187
-636.609	-185.447	0.203	0.003
-635.595	-200.000	-0.014	-0.114
-634.580	-129.036	-0.385	-0.054
-633.565	56.047	0.265	0.257
-632.551	-93.368	0.223	0.062
-631.536	231.067	0.086	-0.141
-630.522	252.817	0.067	-0.115
-629.507	-16.755	-0.463	-0.293
-628.492	-200.000	-0.017	-0.497
-627.478	-171.146	0.282	-0.010
-626.463	-119.283	-0.134	0.023
-625.449	800.000	0.025	-0.103
-624.434	-111.837	0.291	0.059
-623.419	265.137	0.046	0.081
-622.405	-200.000	0.016	-0.396
-621.390	-134.432	-0.131	-0.016
-620.376	-200.000	0.003	0.013
-619.361	-113.862	-0.505	-0.098
-618.346	-200.000	0.019	-0.549
-617.332	-24.979	-0.228	0.135
-616.317	-150.048	0.278	-0.022
-615.303	-200.000	0.050	0.338
-614.288	234.318	-0.275	-0.453
-613.273	-131.347	0.495	0.066
-612.259	258.999	-0.069	-0.119
-611.244	23.946	-0.135	0.111
-610.230	-49.666	-0.185	0.088
-609.215	-37.455	0.448	-0.239
-608.201	-119.694	-0.357	0.062
-607.186	-200.000	0.005	-0.280
-606.171	-66.444	0.451	-0.179
-605.157	274.852	0.117	-0.207
-604.142	374.871	0.088	0.179
-603.128	800.000	-0.099	-0.285
-602.113	-111.858	0.233	-0.047
-601.098	-200.000	0.027	-0.148
-600.084	-127.287	0.088	0.013
-599.069	-200.000	-0.029	-0.273
-598.055	-150.883	0.216	0.016
-597.040	321.428	0.183	-0.347
-596.025	800.000	0.135	-0.380
-595.011	124.510	-0.166	0.209
-593.996	-86.083	0.200	-0.062
-592.982	-173.436	0.040	-0.001
-591.967	275.935	-0.169	0.299
-590.952	800.000	0.016	0.047
-589.938	-130.496	-0.227	-0.031
-588.923	168.245	-0.140	-0.199
-587.909	-200.000	-0.014	-0.083
-586.894	134.898	0.033	-0.043
-585.879	-95.203	-0.395	0.106
-584.865	302.156	-0.109	-0.202
-583.850	100.391	-0.173	0.200
-582.836	-67.296	-0.280	-0.110
-581.821	161.564	0.201	0.281
-580.806	-8.640	0.078	-0.052
-579.792	-200.000	-0.057	0.365
-578.777	-200.000	0.047	0.471
-577.763	711.151	-0.088	-0.233
-576.748	369.036	-0.087	-0.176
-575.733	93.977	-0.097	0.110
-574.719	106.746	-0.041	-0.049
-573.704	205.696	0.214	-0.333
-572.690	-88.217	0.296	0.089
-571.675	436.866	0.038	-0.083
-570.661	-12.395	-0.149	0.097
-569.646	-44.689	0.043	-0.022
-568.631	800.000	-0.079	-0.261
-567.617	68.335	0.052	-0.053
-566.602	-86.535	-0.228	-0.070
-565.588	-77.859	-0.260	-0.090
-564.573	48.409	0.288	-0.269
-563.558	277.500	-0.114	-0.202
-562.544	-40.867	-0.422	0.218
-561.529	-200.000	0.001	0.451
-560.515	361.915	-0.116	0.232
-559.500	-114.075	-0.225	-0.044
-558.485	-36.610	-0.225	-0.121
-557.471	442.001	-0.132	-0.288
-556.456	-183.535	0.157	-0.003
-555.442	161.319	-0.063	-0.088
-554.427	-200.000	0.053	0.471
-553.412	-40.384	-0.252	0.131
-552.398	-130.354	0.144	-0.019
-551.383	-156.842	-0.252	0.015
-550.369	-200.000	0.014	0.232
-549.354	-91.154	0.256	-0.073
-548.339	185.261	0.107	-0.158
-547.325	134.384	-0.023	-0.030
-546.310	-55.731	-0.158	0.070
-545.296	800.000	-0.096	0.280
-544.281	-200.000	-0.023	0.158
-543.266	4.337	-0.299	0.219
-542.252	33.650	-0.245	0.213
-541.237	-41.679	-0.341	-0.175
-540.223	200.347	-0.088	-0.135
-539.208	158.146	0.112	-0.154
-538.193	95.826	-0.127	0.145
-537.179	-101.530	0.055	0.013
-536.164	-200.000	-0.064	0.571
-535.150	-40.113	0.294	0.153
-534.135	-200.000	-0.018	0.221
-533.121	-65.452	0.445	-0.178
-532.106	-91.656	-0.217	0.062
-531.091	-14.199	-0.218	-0.140
-530.077	-200.000	-0.041	-0.317
-529.062	-200.000	0.001	-0.083
-528.048	-200.000	-0.103	-0.486
-527.033	-57.675	-0.454	0.198
-526.018	-107.315	0.225	0.049
-525.004	-9.822	0.196	0.130
-523.989	-8.666	0.121	0.081
-522.975	40.972	-0.217	0.195
-521.960	-106.921	-0.030	0.007
-520.945	-93.449	0.141	0.039
-519.931	-70.122	-0.326	0.123
-518.916	-141.215	0.287	-0.029
-517.902	763.467	0.087	-0.237
-516.887	-200.000	-0.000	-0.117
-515.872	496.357	0.197	-0.452
-514.858	5.309	-0.087	-0.064
-513.843	216.905	0.155	0.246
-512.829	109.670	-0.130	0.156
-511.814	-109.942	-0.075	0.016
-510.799	-200.000	-0.013	-0.148
-509.785	-90.515	0.102	-0.029
-508.770	-36.174	-0.143	0.077
-507.756	-69.337	0.334	0.128
-506.741	-97.097	-0.062	0.016
-505.726	626.878	-0.118	-0.297
-504.712	20.111	-0.123	-0.099
-503.697	-124.711	-0.160	0.025
-502.683	397.428	0.076	-0.159
-501.668	45.065	0.106	-0.098
-500.653	-52.544	-0.236	0.109
-499.639	-86.487	0.123	-0.038
-498.624	159.687	0.149	0.206
-497.610	19.453	0.324	-0.259
-496.595	-200.000	0.010	0.135
-495.581	-32.594	-0.212	0.117
-494.566	-65.497	-0.051	-0.020
-493.551	740.401	-0.003	0.008
-492.537	-200.000	0.051	-0.280
-491.522	140.154	0.261	-0.343
-490.508	681.480	0.175	-0.453
-489.493	-113.132	0.398	0.078
-488.478	365.240	0.036	0.072
-487.464	278.806	-0.150	-0.266
-486.449	-195.750	0.061	0.000
-485.435	118.549	-0.134	-0.165
-484.420	325.110	0.195	-0.372
-483.405	108.682	-0.052	-0.062
-482.391	-23.561	0.113	-0.068
-481.376	159.052	-0.096	0.132
-480.362	800.000	0.100	-0.386
-479.347	-200.000	0.040	0.201
-478.332	-200.000	-0.075	-0.409
-477.318	92.360	0.118	0.132
-476.303	143.147	-0.065	-0.086
-475.289	181.544	0.113	0.166
-474.274	642.655	-0.015	-0.038
-473.259	-79.475	-0.124	0.042
-472.245	-200.000	0.012	-0.114
-471.230	421.203	0.184	0.393
-470.216	2.746	-0.249	0.180
-469.201	-70.252	0.284	0.107
-468.186	800.000	-0.037	-0.155
-467.172	28.856	0.258	0.218
-466.157	-109.378	0.037	-0.008
-465.143	-200.000	0.074	-0.348
-464.128	-27.955	0.226	0.130
-463.113	104.097	0.133	0.155
-462.099	199.536	0.101	-0.154
-461.084	401.944	-0.095	0.198
-460.070	-200.000	0.001	0.151
-459.055	385.554	-0.241	-0.495
-458.040	-200.000	0.056	-0.315
-457.026	800.000	-0.092	-0.260
-456.011	800.000	-0.033	-0.127
-454.997	-200.000	0.045	0.392
-453.982	-28.156	-0.248	0.143
-452.968	-97.361	0.270	0.070
-451.953	-103.483	-0.108	-0.025
-450.938	-112.535	-0.349	0.069
-449.924	94.931	-0.157	0.178
-448.909	389.002	-0.220	0.454
-447.895	-29.105	-0.210	0.120
-446.880	-200.000	0.022	0.222
-445.865	-31.676	0.313	-0.175
-444.851	225.108	0.064	0.103
-443.836	22.907	0.164	-0.134
-442.822	-7.449	0.098	0.066
-441.807	-42.261	-0.523	0.265
-440.792	-77.985	0.369	-0.126
-439.778	34.682	0.221	0.192
-438.763	-200.000	0.031	-0.150
-437.749	-25.458	-0.119	-0.070
-436.734	800.000	0.014	0.048
-435.719	-13.097	0.166	0.107
-434.705	-12.653	-0.156	-0.101
-433.690	-200.000	0.002	-0.312
-432.676	8.354	-0.228	0.170
-431.661	-142.202	0.505	0.050
-430.646	85.655	-0.247	-0.269
-429.632	-52.536	0.165	-0.076
-428.617	800.000	-0.002	0.008
-427.603	-200.000	-0.016	0.193
-426.588	-145.660	0.282	0.025
-425.573	50.367	-0.245	0.230
-424.559	78.272	-0.196	-0.207
-423.544	-119.543	0.255	-0.044
-422.530	204.498	-0.077	0.118
-421.515	-50.372	0.379	-0.178
-420.500	-200.000	-0.040	-0.196
-419.486	-127.587	-0.146	-0.021
-418.471	417.005	-0.097	-0.206
-417.457	710.057	0.026	0.067
-416.442	78.055	-0.111	0.117
-415.428	-195.445	-0.264	-0.002
-414.413	-94.251	0.102	0.028
-413.398	-92.367	0.213	-0.060
-412.384	116.108	-0.163	-0.199
-411.369	3.742	-0.299	-0.216
-410.355	4.217	-0.220	-0.160
-409.340	-110.429	0.134	-0.028
-408.325	35.553	-0.147	0.128
-407.311	79.371	0.137	0.145
-406.296	-200.000	0.050	0.342
-405.282	173.707	0.202	-0.290
-404.267	-200.000	-0.012	-0.316
-403.252	-61.856	0.105	0.044
-402.238	-200.000	0.008	-0.051
-401.223	800.000	-0.061	0.172
-400.209	318.364	-0.014	-0.026
-399.194	381.832	-0.124	0.253
-398.179	-93.976	-0.418	-0.114
-397.165	188.653	0.041	0.061
-396.150	-30.434	0.059	0.033
-395.136	-29.737	-0.574	0.325
-394.121	68.646	-0.121	-0.123
-393.106	217.958	-0.192	0.303
-392.092	80.554	0.231	0.247
-391.077	-68.197	0.126	-0.049
-390.063	91.573	-0.193	0.215
-389.048	-23.121	-0.066	-0.039
-388.033	355.185	0.089	0.176
-387.019	513.323	0.077	0.177
-386.004	40.647	-0.187	0.167
-384.990	751.446	0.108	-0.288
-383.975	10.702	-0.189	-0.143
-382.960	612.297	-0.129	0.319
-381.946	-177.296	0.204	0.005
-380.931	685.399	-0.024	0.061
-379.917	-33.715	-0.307	-0.168
-378.902	-200.000	0.013	0.207
-377.888	792.818	-0.049	-0.134
-376.873	-65.208	-0.239	0.095
-375.858	402.086	0.093	-0.194
-374.844	157.014	0.146	-0.200
-373.829	118.822	0.301	0.369
-372.815	800.000	-0.012	0.050
-371.800	-21.797	0.123	-0.074
-370.785	-31.213	-0.284	-0.159
-369.771	-200.000	0.051	0.356
-368.756	-39.828	-0.231	-0.120
-367.742	251.510	0.185	-0.311
-366.727	38.279	-0.116	-0.103
-365.712	127.957	-0.107	0.135
-364.698	-155.402	-0.079	0.005
-363.683	-17.647	0.245	-0.153
-362.669	0.849	-0.080	-0.057
-361.654	207.125	-0.038	0.059
-360.639	-200.000	0.016	-0.202
-359.625	172.323	0.221	0.315
-358.610	-29.102	0.085	-0.048
-357.596	-34.934	-0.087	-0.047
-356.581	239.432	-0.201	-0.332
-355.566	-200.000	0.049	0.250
-354.552	-72.280	0.267	0.098
-353.537	-101.837	0.296	0.071
-352.523	-91.782	-0.335	0.094
-351.508	-48.901	-0.112	0.053
-350.493	-84.197	0.110	0.034
-349.479	-200.000	0.049	-0.416
-348.464	-200.000	0.020	0.134
-347.450	-162.572	-0.268	-0.013
-346.435	-80.066	0.266	0.088
-345.420	-200.000	-0.041	-0.200
-344.406	-9.333	0.088	-0.058
-343.391	-25.464	0.405	-0.237
-342.377	79.319	0.119	-0.126
-341.362	153.520	0.082	0.111
-340.348	578.955	-0.069	-0.167
-339.333	800.000	0.075	0.262
-338.318	156.078	-0.146	0.200
-337.304	-200.000	0.040	0.224
-336.289	315.857	0.151	0.282
-335.275	-200.000	-0.001	-0.166
-334.260	82.076	0.162	0.174
-333.245	265.554	-0.082	0.141
-332.231	42.463	-0.106	-0.095
-331.216	-200.000	0.026	-0.295
-330.202	-180.584	0.277	-0.006
-329.187	-121.457	0.304	-0.050
-328.172	800.000	-0.076	-0.326
-327.158	134.828	-0.058	-0.074
-326.143	-158.804	0.016	-0.001
-325.129	-153.657	-0.239	0.016
-324.114	-104.385	0.209	-0.048
-323.099	623.682	-0.114	0.285
-322.085	119.224	-0.078	-0.096
-321.070	-123.762	0.176	-0.027
-320.056	115.035	-0.191	0.231
-319.041	410.611	-0.054	-0.114
-318.026	-200.000	0.008	-0.252
-317.012	-200.000	-0.014	-0.095
-315.997	668.466	0.025	0.064
-314.983	-200.000	0.031	0.240
-313.968	800.000	-0.093	0.319
-312.953	-200.000	0.004	0.175
-311.939	-60.512	-0.256	0.108
-310.924	-200.000	0.003	0.264
-309.910	-200.000	0.030	0.257
-308.895	226.337	-0.118	0.189
-307.880	8.695	-0.286	-0.213
-306.866	-200.000	-0.053	0.325
-305.851	120.532	0.251	0.308
-304.837	267.472	-0.194	-0.336
-303.822	42.599	0.164	0.148
-302.807	594.267	0.104	-0.254
-301.793	-134.483	-0.201	0.024
-300.778	134.456	-0.115	0.148
-299.764	-94.269	0.022	0.006
-298.749	-200.000	-0.034	0.155
-297.735	222.888	-0.038	-0.061
-296.720	289.310	0.059	-0.106
-295.705	653.071	0.017	0.042
-294.691	800.000	-0.054	0.163
-293.676	-40.426	0.084	0.043
-292.662	264.883	0.099	0.171
-291.647	423.877	-0.088	0.187
-290.632	-200.000	-0.018	-0.080
-289.618	6.452	-0.230	-0.169
-288.603	-120.544	0.042	0.007
-287.589	633.176	0.036	0.090
-286.574	-22.984	0.486	0.289
-285.559	-38.176	0.073	-0.038
-284.545	-73.730	-0.175	0.063
-283.530	259.840	0.059	-0.101
-282.516	233.631	-0.146	-0.237
-281.501	-145.955	0.115	0.010
-280.486	423.345	0.036	-0.077
-279.472	370.962	0.071	0.143
-278.457	79.743	-0.057	-0.061
-277.443	109.510	-0.082	0.097
-276.428	172.520	-0.072	0.103
-275.413	-50.516	0.223	-0.104
-274.399	-200.000	-0.041	0.263
-273.384	-16.732	0.326	0.204
-272.370	-67.684	0.245	-0.095
-271.355	130.268	0.126	0.160
-270.340	-200.000	-0.031	-0.364
-269.326	86.609	0.077	0.084
-268.311	-19.796	-0.323	-0.197
-267.297	-194.929	0.157	-0.001
-266.282	800.000	0.063	-0.190
-265.267	-169.927	0.138	0.005
-264.253	-87.828	-0.147	0.044
-263.238	25.666	-0.086	-0.071
-262.224	-90.134	0.161	0.046
-261.209	800.000	-0.011	-0.031
-260.195	-83.888	-0.133	0.042
-259.180	525.808	0.161	-0.374
-258.165	314.721	-0.057	0.105
-257.151	-132.004	-0.254	-0.033
-256.136	46.624	0.014	-0.013
-255.122	-200.000	0.011	-0.115
-254.107	-200.000	0.032	-0.190
-253.092	251.947	-0.139	-0.233
-252.078	28.180	0.307	0.256
-251.063	-200.000	-0.014	0.077
-250.049	-79.750	0.163	0.054
-249.034	-7.428	-0.204	0.136
-248.019	-200.000	0.004	0.145
-247.005	-200.000	-0.057	0.268
-245.990	42.746	-0.191	-0.171
-244.976	-34.061	0.160	-0.087
-243.961	-129.725	-0.312	-0.042
-242.946	800.000	0.056	0.224
-241.932	800.000	-0.014	-0.042
-240.917	-200.000	-0.001	0.167
-239.903	11.259	0.075	-0.057
-238.888	-200.000	0.021	0.098
-237.873	-38.294	-0.172	-0.090
-236.859	-124.465	0.253	-0.039
-235.844	800.000	-0.052	-0.185
-234.830	-200.000	0.016	-0.153
-233.815	-71.309	0.230	0.085
-232.800	194.254	-0.042	0.063
-231.786	333.646	-0.022	0.042
-230.771	-142.090	-0.359	0.035
-229.757	-200.000	0.014	0.198
-228.742	-200.000	-0.004	-0.123
-227.727	-10.645	0.310	0.202
-226.713	220.193	0.084	-0.132
-225.698	-200.000	-0.063	0.496
-224.684	123.814	-0.030	-0.037
-223.669	800.000	-0.020	0.070
-222.655	-104.082	-0.113	-0.026
-221.640	-62.212	-0.068	-0.028
-220.625	127.959	-0.289	0.363
-219.611	-58.460	0.220	-0.094
-218.596	53.648	0.171	-0.162
-217.582	89.511	-0.071	-0.078
-216.567	800.000	-0.057	0.185
-215.552	23.932	0.181	0.147
-214.538	171.953	0.082	0.116
-213.523	-65.020	-0.047	-0.019
-212.509	800.000	0.143	0.480
-211.494	132.674	0.113	0.143
-210.479	-38.654	0.264	0.137
-209.465	124.827	-0.182	0.225
-208.450	-1.292	0.186	0.129
-207.436	800.000	-0.048	-0.195
-206.421	427.539	-0.167	0.355
-205.406	800.000	-0.144	0.423
-204.392	-185.006	-0.278	-0.004
-203.377	-200.000	-0.028	-0.142
-202.363	101.641	-0.184	0.211
-201.348	-2.315	0.352	0.243
-200.333	-112.369	-0.122	0.024
-199.319	-119.652	-0.294	-0.050
-198.304	-119.811	-0.086	-0.015
-197.290	159.184	0.212	0.291
-196.275	107.263	0.168	0.196
-195.260	-200.000	-0.079	0.394
-194.246	-191.907	0.309	0.003
-193.231	128.892	0.054	0.068
-192.217	-31.436	0.133	0.074
-191.202	386.848	-0.131	0.266
-190.187	-200.000	0.010	-0.051
-189.173	-76.311	0.266	0.092
-188.158	102.609	0.137	0.157
-187.144	-18.503	0.279	0.171
-186.129	-140.220	0.263	-0.027
-185.114	800.000	0.113	-0.336
-184.100	207.865	0.056	0.086
-183.085	554.207	0.082	-0.195
-182.071	-108.676	0.160	-0.034
-181.056	59.736	-0.132	0.129
-180.042	-51.560	0.160	0.073
-179.027	-94.037	-0.141	-0.038
-178.012	800.000	0.151	0.451
-176.998	800.000	0.011	-0.037
-175.983	-133.062	0.165	0.021
-174.969	274.066	-0.019	-0.033
-173.954	-33.459	0.099	0.054
-172.939	-200.000	-0.013	-0.128
-171.925	-200.000	0.053	-0.340
-170.910	-200.000	-0.006	-0.158
-169.896	213.028	0.171	0.266
-168.881	-36.519	0.202	-0.107
-167.866	275.874	0.192	-0.335
-166.852	49.853	0.077	-0.071
-165.837	163.513	0.156	0.216
-164.823	800.000	0.013	0.046
-163.808	-162.581	-0.208	0.010
-162.793	800.000	0.047	-0.138
-161.779	-96.974	-0.230	-0.059
-160.764	-169.157	0.164	-0.006
-159.750	8.660	-0.189	-0.140
-158.735	259.687	0.098	-0.166
-157.720	201.999	-0.032	-0.048
-156.706	61.842	-0.132	-0.129
-155.691	92.120	-0.135	-0.149
-154.677	94.460	0.158	-0.177
-153.662	73.044	-0.099	-0.101
-152.647	800.000	-0.055	-0.191
-151.633	-153.964	0.124	-0.008
-150.618	24.489	-0.067	-0.055
-149.604	-88.910	0.295	0.086
-148.589	172.869	0.142	-0.201
-147.574	-78.834	-0.249	0.083
-146.560	-39.274	-0.384	0.198
-145.545	-59.681	0.158	0.067
-144.531	-200.000	-0.007	-0.029
-143.516	-50.823	0.107	0.049
-142.502	191.679	-0.052	0.076
-141.487	37.325	-0.143	-0.125
-140.472	800.000	0.024	0.092
-139.458	800.000	0.042	-0.126
-138.443	-99.138	0.352	-0.087
-137.429	-200.000	-0.025	0.177
-136.414	-200.000	-0.035	0.238
-135.399	433.973	-0.175	-0.374
-134.385	44.461	0.289	-0.261
-133.370	-74.214	0.125	-0.045
-132.356	111.030	0.165	-0.196
-131.341	-19.941	-0.125	-0.076
-130.326	87.260	-0.215	0.233
-129.312	206.638	-0.078	0.119
-128.297	-200.000	-0.066	-0.343
-127.283	295.980	0.155	-0.278
-126.268	-200.000	-0.031	-0.149
-125.253	81.821	0.026	0.028
-124.239	-74.109	-0.319	-0.113
-123.224	-54.146	-0.126	0.056
-122.210	-74.792	0.165	-0.058
