DTS Sentinel unit serial number:	SN413079Multiplexer serial number:	ORYXHardware model number:	OX4-SRSoftware version number:	ORYX F/W v4.00 Oryx Data Collector v3.7.2.0data status	okinstallation	princeton_trtdifferential loss correction	single-endedforward channel	channel 1reverse channel	N/Adate	2019/09/19time	04:26:35forward acquisition time	60.00reverse acquisition time	0.00gamma	496.2192k internal	0.2342k external	0.2342temperature offset calibration	1.0022default loss term (dB/km)	0.3790temperature slope calibration	1.0000multiplexer offset coefficient	1.0000multiplexer slope coefficient	1.0000fibre end	0.00T internal ref (°C)	20.19T ext. ref 1 (°C)	0.63T ext. ref 2 (°C)	13.20length (m)	temperature (°C)	Stokes	anti-Stokes-747.200	-158.946	0.283	-0.016
-746.185	-130.076	-0.557	0.076
-745.171	-67.906	0.364	-0.142
-744.156	-127.255	-0.403	0.059
-743.142	150.326	-0.241	0.328
-742.127	-49.099	-0.238	0.114
-741.112	-52.886	0.340	0.157
-740.098	-98.161	-0.297	0.076
-739.083	508.442	0.092	0.215
-738.069	-96.256	-0.202	-0.054
-737.054	800.000	-0.062	-0.272
-736.039	30.912	-0.348	-0.299
-735.025	-200.000	-0.053	0.267
-734.010	-150.496	-0.302	-0.023
-732.996	-72.799	-0.184	-0.068
-731.981	18.055	0.290	-0.232
-730.966	800.000	-0.096	-0.303
-729.952	-34.516	-0.294	0.161
-728.937	-105.057	-0.270	0.062
-727.923	174.197	-0.160	0.232
-726.908	-83.853	-0.262	0.083
-725.894	-26.617	-0.091	0.053
-724.879	64.702	0.116	-0.117
-723.864	-35.334	-0.454	-0.247
-722.850	-63.957	0.096	-0.039
-721.835	288.001	-0.080	-0.146
-720.821	263.885	-0.023	0.041
-719.806	-200.000	0.020	-0.261
-718.791	-168.153	-0.395	-0.015
-717.777	800.000	-0.149	0.504
-716.762	160.079	0.043	-0.061
-715.748	-200.000	-0.038	0.290
-714.733	453.293	-0.087	-0.193
-713.718	-200.000	0.010	-0.218
-712.704	34.232	-0.222	-0.194
-711.689	121.466	0.102	0.128
-710.675	-15.543	0.212	0.135
-709.660	-200.000	0.048	-0.269
-708.645	-200.000	-0.003	0.031
-707.631	800.000	0.067	-0.267
-706.616	-75.137	-0.144	0.051
-705.602	207.960	-0.100	0.156
-704.587	11.197	0.259	0.199
-703.572	-200.000	0.015	-0.135
-702.558	149.477	0.132	0.179
-701.543	800.000	-0.113	0.336
-700.529	54.362	0.390	0.376
-699.514	-43.206	-0.169	0.085
-698.499	130.701	-0.260	-0.334
-697.485	187.520	0.230	0.343
-696.470	191.110	-0.044	0.066
-695.456	-76.782	-0.350	-0.123
-694.441	-119.054	-0.158	-0.028
-693.426	-68.949	-0.251	0.097
-692.412	41.899	0.147	0.133
-691.397	-200.000	-0.020	-0.263
-690.383	-168.309	0.267	-0.010
-689.368	68.160	-0.194	0.198
-688.354	-28.904	-0.284	-0.163
-687.339	800.000	0.038	-0.120
-686.324	-200.000	0.022	-0.321
-685.310	-44.663	0.118	-0.059
-684.295	-52.870	0.183	-0.084
-683.281	800.000	0.093	-0.285
-682.266	57.230	0.163	-0.159
-681.251	800.000	0.052	-0.199
-680.237	-35.874	-0.159	-0.086
-679.222	19.705	-0.056	0.045
-678.208	18.298	-0.138	-0.110
-677.193	104.281	-0.100	-0.117
-676.178	-200.000	0.035	0.459
-675.164	185.565	0.169	0.251
-674.149	-26.329	-0.139	0.082
-673.135	800.000	-0.073	-0.236
-672.120	280.088	-0.217	-0.387
-671.105	-23.820	0.102	-0.061
-670.091	-32.309	0.258	0.144
-669.076	-26.282	0.090	-0.053
-668.062	90.868	0.054	0.061
-667.047	-200.000	0.038	-0.193
-666.032	-200.000	0.004	0.023
-665.018	-104.773	-0.256	0.059
-664.003	269.740	0.150	-0.263
-662.989	-141.966	-0.405	0.040
-661.974	163.409	0.024	0.034
-660.959	200.347	-0.150	0.230
-659.945	-110.515	-0.183	0.038
-658.930	-200.000	0.036	0.271
-657.916	90.077	0.222	-0.248
-656.901	800.000	0.064	-0.242
-655.886	40.416	0.247	-0.222
-654.872	-200.000	-0.048	-0.289
-653.857	-52.431	-0.297	0.137
-652.843	-70.681	-0.261	-0.099
-651.828	-179.002	0.095	-0.002
-650.814	-51.920	0.265	0.123
-649.799	-78.320	-0.388	-0.133
-648.784	-40.868	0.062	-0.032
-647.770	325.197	0.100	-0.192
-646.755	-89.032	-0.411	-0.121
-645.741	370.547	-0.165	0.334
-644.726	225.618	-0.032	-0.051
-643.711	-94.113	-0.220	0.060
-642.697	-121.811	-0.117	0.019
-641.682	-200.000	-0.003	0.200
-640.668	-200.000	0.002	-0.177
-639.653	-185.271	-0.073	0.001
-638.638	-200.000	0.001	-0.069
-637.624	437.140	-0.047	0.103
-636.609	-112.332	0.076	0.015
-635.595	369.427	-0.095	0.191
-634.580	-57.881	0.104	-0.045
-633.565	-137.106	-0.098	-0.011
-632.551	66.572	-0.058	0.059
-631.536	50.370	0.169	-0.160
-630.522	183.514	0.060	-0.088
-629.507	-121.097	0.087	0.014
-628.492	-200.000	-0.007	-0.090
-627.478	-78.980	0.379	-0.129
-626.463	-200.000	-0.076	-0.672
-625.449	127.023	0.128	0.162
-624.434	656.619	0.050	0.129
-623.419	-35.631	-0.288	0.155
-622.405	-72.202	-0.166	0.061
-621.390	-142.911	0.446	0.043
-620.376	-99.532	-0.144	-0.036
-619.361	-73.338	0.170	0.062
-618.346	-196.403	-0.149	0.001
-617.332	39.672	-0.123	0.110
-616.317	-43.469	-0.225	0.113
-615.303	-89.442	0.055	0.016
-614.288	-63.114	-0.256	-0.105
-613.273	-105.442	-0.400	0.091
-612.259	-143.116	0.311	-0.030
-611.244	224.058	-0.073	-0.118
-610.230	564.468	-0.056	-0.136
-609.215	482.760	0.010	0.023
-608.201	-29.636	0.110	-0.063
-607.186	800.000	-0.086	-0.305
-606.171	723.422	0.065	0.172
-605.157	636.402	-0.085	0.216
-604.142	28.284	-0.056	-0.047
-603.128	800.000	0.109	-0.393
-602.113	96.600	-0.160	-0.183
-601.098	-200.000	-0.011	-0.179
-600.084	-121.985	-0.166	-0.027
-599.069	-171.898	-0.121	-0.004
-598.055	0.521	0.213	-0.152
-597.040	591.392	-0.145	0.357
-596.025	-54.964	-0.116	0.052
-595.011	-24.037	-0.310	0.184
-593.996	-25.677	-0.178	-0.105
-592.982	555.386	-0.057	0.136
-591.967	-81.401	-0.418	-0.137
-590.952	-186.386	0.097	-0.001
-589.938	-12.483	0.258	0.168
-588.923	-165.174	-0.154	0.007
-587.909	-3.515	-0.273	0.189
-586.894	-142.395	0.323	0.032
-585.879	439.937	0.080	-0.175
-584.865	160.776	-0.115	-0.159
-583.850	-147.531	-0.187	0.016
-582.836	-7.827	-0.169	0.113
-581.821	-133.353	-0.183	0.023
-580.806	-26.206	0.329	-0.192
-579.792	101.260	0.149	0.172
-578.777	-200.000	0.032	-0.244
-577.763	119.810	0.091	0.112
-576.748	5.857	-0.260	-0.192
-575.733	83.879	0.138	0.150
-574.719	98.158	-0.203	-0.232
-573.704	-24.442	0.366	-0.217
-572.690	19.965	-0.073	-0.059
-571.675	-150.987	0.321	-0.024
-570.661	352.625	-0.064	0.126
-569.646	402.559	-0.102	0.214
-568.631	-200.000	0.042	-0.291
-567.617	-200.000	0.001	0.229
-566.602	-118.092	0.236	0.042
-565.588	-47.979	-0.468	-0.225
-564.573	192.752	-0.039	-0.059
-563.558	-200.000	-0.021	-0.366
-562.544	-84.035	0.082	-0.026
-561.529	-47.741	0.213	0.103
-560.515	-88.076	0.374	0.112
-559.500	133.483	0.138	-0.177
-558.485	800.000	-0.063	0.189
-557.471	-124.545	-0.400	0.062
-556.456	336.374	0.083	0.161
-555.442	-2.584	0.113	-0.078
-554.427	-200.000	0.007	-0.104
-553.412	-56.856	0.240	-0.106
-552.398	-46.208	-0.141	-0.069
-551.383	800.000	0.146	0.430
-550.369	-164.294	0.112	-0.005
-549.354	-200.000	-0.026	-0.129
-548.339	215.592	0.188	-0.296
-547.325	-49.376	-0.294	-0.139
-546.310	178.687	0.085	0.123
-545.296	251.673	0.176	0.297
-544.281	-132.720	0.115	-0.015
-543.266	-96.933	0.119	-0.031
-542.252	-200.000	0.001	-0.140
-541.237	346.720	0.078	-0.152
-540.223	142.264	0.015	0.020
-539.208	-65.142	-0.252	-0.101
-538.193	408.009	0.092	-0.193
-537.179	-135.798	-0.299	0.035
-536.164	107.730	0.275	-0.326
-535.150	800.000	0.083	-0.295
-534.135	-103.059	-0.240	-0.057
-533.121	-24.984	-0.084	-0.049
-532.106	-148.014	0.416	-0.034
-531.091	800.000	-0.053	0.195
-530.077	-70.962	0.193	-0.072
-529.062	200.385	-0.048	0.073
-528.048	-200.000	0.002	-0.248
-527.033	800.000	-0.135	0.424
-526.018	-200.000	0.017	-0.147
-525.004	59.001	0.166	0.163
-523.989	-77.910	0.292	0.100
-522.975	-33.218	-0.184	0.101
-521.960	104.681	0.070	0.081
-520.945	193.384	-0.057	-0.086
-519.931	-116.473	-0.112	-0.021
-518.916	92.434	0.118	0.132
-517.902	800.000	0.097	-0.348
-516.887	800.000	-0.108	0.300
-515.872	-103.567	-0.182	-0.043
-514.858	51.308	0.156	-0.147
-513.843	126.618	0.192	0.241
-512.829	171.188	-0.065	-0.092
-511.814	-73.915	0.216	0.078
-510.799	-107.904	-0.355	-0.077
-509.785	-94.159	-0.262	-0.071
-508.770	215.255	0.104	-0.163
-507.756	-191.028	-0.095	0.001
-506.741	-143.546	-0.271	0.026
-505.726	225.297	-0.097	0.156
-504.712	-49.330	0.139	-0.066
-503.697	203.316	0.039	-0.060
-502.683	154.048	0.143	0.194
-501.668	-200.000	-0.065	-0.338
-500.653	-29.488	-0.284	0.161
-499.639	10.687	-0.093	-0.071
-498.624	-75.901	-0.320	0.112
-497.610	800.000	-0.017	-0.057
-496.595	200.970	0.048	-0.074
-495.581	711.824	-0.043	-0.114
-494.566	-200.000	0.005	0.031
-493.551	800.000	-0.156	0.541
-492.537	190.051	0.220	-0.327
-491.522	800.000	-0.058	-0.200
-490.508	-68.275	0.375	0.145
-489.493	-200.000	-0.004	-0.086
-488.478	15.849	-0.267	0.209
-487.464	-17.381	0.223	0.139
-486.449	800.000	0.118	-0.465
-485.435	85.561	-0.167	0.181
-484.420	16.067	-0.132	-0.103
-483.405	800.000	-0.069	-0.220
-482.391	-39.337	0.248	0.129
-481.376	80.311	-0.142	0.152
-480.362	-59.696	0.278	-0.118
-479.347	-151.788	0.280	0.020
-478.332	7.828	-0.401	0.298
-477.318	6.931	0.105	0.077
-476.303	800.000	-0.014	0.040
-475.289	77.426	0.203	-0.214
-474.274	-10.667	-0.151	-0.099
-473.259	10.406	0.188	0.142
-472.245	800.000	0.035	-0.144
-471.230	-12.221	0.092	0.059
-470.216	370.269	-0.096	0.193
-469.201	245.038	-0.148	0.247
-468.186	-200.000	-0.007	-0.099
-467.172	-171.221	0.282	-0.009
-466.157	-200.000	-0.053	0.305
-465.143	121.605	0.101	-0.125
-464.128	23.914	-0.145	-0.119
-463.113	800.000	-0.041	0.147
-462.099	-35.240	0.374	-0.202
-461.084	-69.158	0.263	-0.100
-460.070	-122.658	-0.497	0.080
-459.055	-73.150	0.194	0.071
-458.040	-24.587	0.103	-0.061
-457.026	-63.736	-0.250	-0.101
-456.011	487.714	-0.075	0.170
-454.997	-105.187	0.330	-0.075
-453.982	800.000	0.068	0.190
-452.968	-109.615	-0.294	0.061
-451.953	-64.101	0.184	0.074
-450.938	-119.155	-0.049	0.008
-449.924	48.437	-0.179	0.166
-448.909	-137.499	0.302	-0.034
-447.895	99.589	-0.175	-0.200
-446.880	-200.000	0.016	-0.190
-445.865	167.970	-0.207	-0.292
-444.851	800.000	0.061	0.213
-443.836	33.460	-0.224	-0.192
-442.822	800.000	0.077	0.249
-441.807	112.214	0.161	0.193
-440.792	255.325	0.163	-0.277
-439.778	-200.000	0.031	0.139
-438.763	-200.000	-0.017	0.313
-437.749	-21.906	0.133	0.080
-436.734	800.000	0.085	-0.275
-435.719	-75.792	-0.257	0.090
-434.705	23.651	-0.151	-0.123
-433.690	37.839	0.323	-0.284
-432.676	26.272	-0.215	0.177
-431.661	-97.529	-0.266	-0.068
-430.646	132.964	-0.120	-0.154
-429.632	-134.701	0.201	-0.024
-428.617	-45.963	-0.300	-0.146
-427.603	800.000	0.020	-0.059
-426.588	81.593	-0.068	0.073
-425.573	99.099	0.124	0.141
-424.559	-25.824	-0.159	0.093
-423.544	112.356	-0.220	-0.264
-422.530	-26.498	-0.086	0.050
-421.515	-114.325	0.380	-0.072
-420.500	-200.000	-0.024	-0.196
-419.486	-0.329	-0.283	0.199
-418.471	-81.193	0.292	0.096
-417.457	-169.217	0.110	-0.004
-416.442	418.298	0.111	-0.236
-415.428	-200.000	0.023	0.177
-414.413	-200.000	-0.021	-0.268
-413.398	-58.214	-0.117	-0.050
-412.384	-111.240	0.193	0.039
-411.369	191.559	0.094	0.141
-410.355	-93.395	0.234	-0.064
-409.340	-109.221	0.252	0.053
-408.325	800.000	-0.052	0.221
-407.311	-200.000	-0.018	-0.183
-406.296	13.817	0.314	0.241
-405.282	110.465	0.149	-0.177
-404.267	800.000	-0.023	-0.098
-403.252	6.980	0.169	-0.124
-402.238	800.000	-0.088	-0.267
-401.223	13.835	-0.206	-0.159
-400.209	-67.586	-0.400	-0.155
-399.194	-89.650	0.273	-0.079
-398.179	-200.000	0.007	-0.224
-397.165	800.000	0.040	0.122
-396.150	-200.000	0.009	-0.329
-395.136	24.508	-0.119	-0.097
-394.121	-200.000	-0.027	0.202
-393.106	-34.174	-0.146	-0.079
-392.092	56.818	-0.278	-0.268
-391.077	-200.000	-0.039	-0.178
-390.063	-160.519	-0.114	0.006
-389.048	-64.263	0.266	0.107
-388.033	-36.810	0.231	0.123
-387.019	800.000	-0.023	0.068
-386.004	-200.000	-0.029	0.171
-384.990	114.893	0.058	-0.070
-383.975	-62.744	-0.114	0.047
-382.960	233.396	0.116	0.189
-381.946	11.320	0.065	0.049
-380.931	14.174	0.075	0.057
-379.917	100.586	-0.216	0.248
-378.902	290.601	0.219	0.393
-377.888	-143.610	-0.165	0.016
-376.873	-108.334	-0.507	0.108
-375.858	800.000	0.042	0.163
-374.844	127.466	0.162	-0.204
-373.829	80.432	-0.142	0.151
-372.815	160.489	0.118	-0.163
-371.800	107.081	0.211	0.247
-370.785	-159.957	0.248	-0.013
-369.771	-115.830	-0.152	0.028
-368.756	-200.000	0.039	0.249
-367.742	423.318	-0.199	0.422
-366.727	-35.620	-0.262	-0.140
-365.712	372.849	-0.030	0.060
-364.698	333.019	0.065	-0.123
-363.683	-162.840	-0.104	0.005
-362.669	-35.962	0.308	0.164
-361.654	84.536	-0.081	0.087
-360.639	-5.451	-0.074	-0.050
-359.625	31.817	-0.088	-0.074
-358.610	316.858	-0.058	0.108
-357.596	-109.805	-0.175	0.036
-356.581	-200.000	0.031	-0.198
-355.566	159.932	-0.059	0.081
-354.552	-17.342	-0.495	-0.308
-353.537	51.276	-0.198	0.185
-352.523	800.000	-0.020	0.055
-351.508	677.141	-0.091	-0.234
-350.493	20.074	0.158	0.125
-349.479	800.000	-0.152	-0.491
-348.464	-76.921	0.169	0.058
-347.450	37.724	-0.405	0.355
-346.435	-81.276	-0.130	0.042
-345.420	108.634	0.026	-0.030
-344.406	349.815	0.251	-0.489
-343.391	69.200	-0.151	0.154
-342.377	-200.000	-0.059	-0.313
-341.362	800.000	0.043	0.158
-340.348	800.000	-0.064	-0.206
-339.333	203.582	0.076	-0.116
-338.318	-4.966	-0.155	0.105
-337.304	-155.771	0.030	0.002
-336.289	147.044	0.127	0.168
-335.275	-49.346	0.183	-0.086
-334.260	4.076	0.461	-0.332
-333.245	141.466	-0.166	-0.216
-332.231	-200.000	-0.029	-0.218
-331.216	-61.528	-0.046	0.019
-330.202	32.353	-0.222	0.189
-329.187	345.738	0.108	0.210
-328.172	-31.443	0.287	0.159
-327.158	800.000	-0.072	-0.300
-326.143	-200.000	0.048	-0.232
-325.129	-200.000	0.028	0.314
-324.114	-200.000	-0.021	-0.257
-323.099	55.669	0.044	-0.042
-322.085	-200.000	0.019	0.187
-321.070	279.404	-0.151	-0.266
-320.056	-200.000	0.005	0.509
-319.041	311.129	-0.088	-0.162
-318.026	-59.340	-0.259	-0.110
-317.012	-42.880	-0.145	-0.072
-315.997	-95.842	-0.270	-0.071
-314.983	-25.490	-0.078	-0.046
-313.968	-14.237	-0.122	0.077
-312.953	-139.770	-0.205	-0.021
-311.939	413.725	0.091	0.190
-310.924	493.764	-0.088	0.199
-309.910	151.873	-0.039	0.053
-308.895	484.526	-0.165	0.371
-307.880	800.000	-0.028	0.083
-306.866	-200.000	-0.027	-0.430
-305.851	535.828	-0.090	-0.211
-304.837	-12.978	0.113	-0.072
-303.822	49.294	0.154	0.143
-302.807	-18.995	0.293	-0.180
-301.793	-28.946	-0.097	0.055
-300.778	-200.000	0.011	0.082
-299.764	800.000	0.031	0.112
-298.749	-8.455	-0.171	-0.113
-297.735	-66.409	0.181	-0.071
-296.720	800.000	-0.043	0.148
-295.705	-175.780	0.331	0.009
-294.691	326.197	-0.126	0.237
-293.676	263.028	0.025	0.043
-292.662	-40.620	-0.140	-0.071
-291.647	-52.718	0.191	-0.087
-290.632	-173.419	0.097	-0.003
-289.618	-89.551	0.216	0.062
-288.603	59.635	-0.105	-0.102
-287.589	-128.316	0.226	-0.032
-286.574	-149.094	0.016	0.001
-285.559	-12.602	0.148	-0.095
-284.545	133.601	-0.188	0.239
-283.530	-200.000	0.059	-0.414
-282.516	800.000	-0.025	0.086
-281.501	164.147	0.115	0.160
-280.486	159.188	-0.028	-0.038
-279.472	-200.000	-0.023	0.205
-278.457	43.071	-0.099	-0.089
-277.443	-188.241	-0.152	0.002
-276.428	800.000	0.048	0.204
-275.413	79.040	0.103	0.109
-274.399	-200.000	0.050	0.245
-273.384	-99.154	0.154	-0.038
-272.370	82.238	-0.145	-0.155
-271.355	-39.424	-0.072	-0.037
-270.340	-130.602	0.236	-0.031
-269.326	347.721	0.153	0.297
-268.311	303.654	-0.015	-0.027
-267.297	-41.154	-0.241	-0.122
-266.282	-134.041	0.222	0.027
-265.267	-26.273	-0.133	-0.077
-264.253	-200.000	-0.046	0.339
-263.238	800.000	0.039	0.111
-262.224	-91.013	-0.054	0.015
-261.209	-200.000	-0.006	-0.251
-260.195	-200.000	0.057	-0.319
-259.180	-200.000	-0.057	0.256
-258.165	-200.000	-0.015	0.182
-257.151	-112.093	0.021	0.004
-256.136	-39.313	0.330	0.170
-255.122	160.938	-0.178	-0.245
-254.107	-200.000	-0.009	-0.192
-253.092	282.367	0.103	-0.182
-252.078	-200.000	-0.080	-0.350
-251.063	-68.858	0.039	0.015
-250.049	15.633	0.080	-0.062
-249.034	22.138	-0.162	-0.130
-248.019	15.676	-0.148	-0.114
-247.005	-163.289	0.242	0.011
-245.990	196.199	0.173	-0.259
-244.976	-200.000	-0.061	0.299
-243.961	59.303	-0.272	0.264
-242.946	800.000	0.052	0.196
-241.932	-197.517	-0.254	-0.002
-240.917	800.000	-0.078	-0.224
-239.903	800.000	-0.057	-0.157
-238.888	-200.000	-0.038	0.407
-237.873	390.609	0.130	0.265
-236.859	9.716	0.116	0.086
-235.844	8.728	0.177	-0.131
-234.830	-30.220	-0.184	-0.103
-233.815	-28.609	-0.171	0.097
-232.800	-11.791	0.173	0.112
-231.786	-31.086	0.144	0.080
-230.771	-5.770	0.128	0.086
-229.757	46.250	0.265	0.241
-228.742	453.172	-0.051	-0.110
-227.727	273.813	-0.035	0.060
-226.713	198.002	-0.109	-0.164
-225.698	-200.000	0.014	-0.131
-224.684	65.552	0.229	-0.227
-223.669	-22.000	0.084	-0.050
-222.655	-200.000	0.010	0.195
-221.640	212.407	0.094	-0.145
-220.625	800.000	0.072	0.244
-219.611	16.717	0.202	0.157
-218.596	-200.000	0.038	0.247
-217.582	-124.602	-0.318	-0.048
-216.567	-125.261	0.384	0.058
-215.552	119.482	0.112	0.136
-214.538	126.882	0.083	0.103
-213.523	-41.565	0.357	0.180
-212.509	175.576	0.181	0.257
-211.494	-30.810	0.225	-0.125
-210.479	-143.884	0.230	-0.021
-209.465	156.092	0.067	0.091
-208.450	8.744	0.130	-0.096
-207.436	-116.669	-0.198	0.036
-206.421	-102.911	-0.076	0.018
-205.406	63.354	0.138	0.135
-204.392	-49.744	0.141	-0.066
-203.377	122.075	0.102	-0.125
-202.363	-50.841	0.312	-0.144
-201.348	-84.742	0.150	0.046
-200.333	-66.316	-0.203	0.079
-199.319	800.000	-0.029	-0.103
-198.304	328.850	-0.114	0.214
-197.290	-200.000	0.044	-0.261
-196.275	800.000	-0.017	0.058
-195.260	365.373	0.012	0.024
-194.246	-200.000	-0.001	0.185
-193.231	100.506	-0.157	0.179
-192.217	800.000	0.099	0.379
-191.202	-14.021	-0.241	0.153
-190.187	-17.051	-0.079	-0.049
-189.173	-10.557	-0.285	0.185
-188.158	11.560	-0.200	-0.151
-187.144	209.990	-0.013	0.020
-186.129	-80.347	-0.369	-0.121
-185.114	-128.786	-0.187	-0.026
-184.100	361.005	0.119	-0.234
-183.085	247.442	0.124	0.205
-182.071	127.610	-0.083	-0.103
-181.056	-105.427	0.225	-0.050
-180.042	-79.974	-0.261	0.086
-179.027	311.809	-0.065	0.119
-178.012	-40.466	0.167	0.085
-176.998	-24.846	-0.166	-0.097
-175.983	-101.166	-0.247	-0.059
-174.969	-200.000	-0.046	-0.253
-173.954	405.004	0.126	0.261
-172.939	800.000	0.034	-0.108
-171.925	599.526	-0.064	0.155
-170.910	-129.050	0.525	-0.072
-169.896	-200.000	0.001	0.364
-168.881	42.100	-0.044	0.039
-167.866	265.244	0.058	0.099
-166.852	-200.000	0.017	0.151
-165.837	-51.303	-0.384	0.176
-164.823	-200.000	0.001	-0.036
-163.808	40.963	-0.248	-0.220
-162.793	-126.159	0.439	0.064
-161.779	215.391	-0.066	0.103
-160.764	-200.000	0.002	-0.039
-159.750	395.514	-0.072	-0.147
-158.735	510.300	-0.097	0.221
-157.720	22.738	0.160	-0.128
-156.706	-200.000	-0.043	0.361
-155.691	88.943	0.083	0.091
-154.677	-49.949	0.196	-0.091
-153.662	175.442	0.263	-0.374
-152.647	-51.530	0.199	-0.091
-151.633	-40.289	0.275	0.140
-150.618	-70.315	0.256	0.095
-149.604	-26.964	-0.099	0.057
-148.589	206.387	0.090	0.138
-147.574	-78.104	-0.404	-0.136
-146.560	-130.226	0.212	-0.028
-145.545	-200.000	0.002	-0.293
-144.531	25.855	-0.037	-0.030
-143.516	317.931	-0.086	0.159
-142.502	257.302	-0.107	0.181
-141.487	779.838	0.035	-0.094
-140.472	800.000	-0.103	0.296
-139.458	-6.991	0.174	0.116
-138.443	-98.061	0.435	0.110
-137.429	-0.194	-0.337	0.234
-136.414	17.331	0.150	-0.116
-135.399	-61.165	0.300	-0.124
-134.385	-23.146	0.188	-0.111
-133.370	-154.325	-0.198	0.013
-132.356	800.000	0.092	0.300
-131.341	-200.000	-0.013	-0.199
-130.326	303.911	0.094	0.170
-129.312	-53.457	-0.270	-0.121
-128.297	800.000	-0.043	0.123
-127.283	76.086	-0.179	-0.185
-126.268	-31.083	0.157	0.087
-125.253	50.042	-0.208	0.192
-124.239	-171.107	0.213	-0.007
-123.224	333.147	-0.118	0.223
-122.210	-112.470	0.262	-0.051
-121.195	-200.000	-0.065	0.406
