DTS Sentinel unit serial number:	SN413079Multiplexer serial number:	ORYXHardware model number:	OX4-SRSoftware version number:	ORYX F/W v4.00 Oryx Data Collector v3.7.2.0data status	okinstallation	princeton_trtdifferential loss correction	single-endedforward channel	channel 1reverse channel	N/Adate	2019/09/16time	04:42:36forward acquisition time	60.00reverse acquisition time	0.00gamma	496.2192k internal	0.2333k external	0.2333temperature offset calibration	0.9984default loss term (dB/km)	0.3790temperature slope calibration	1.0000multiplexer offset coefficient	1.0000multiplexer slope coefficient	1.0000fibre end	0.00T internal ref (°C)	27.19T ext. ref 1 (°C)	10.90T ext. ref 2 (°C)	21.44length (m)	temperature (°C)	Stokes	anti-Stokes-747.200	225.100	0.124	0.201
-746.185	18.156	-0.319	0.256
-745.171	-2.319	-0.051	0.036
-744.156	-0.262	0.300	0.214
-743.142	-13.464	0.147	-0.096
-742.127	66.562	-0.143	0.146
-741.112	32.149	-0.089	0.077
-740.098	-71.307	0.107	0.040
-739.083	88.528	-0.250	-0.279
-738.069	-200.000	0.011	0.283
-737.054	550.500	-0.192	0.463
-736.039	-200.000	0.030	0.298
-735.025	-63.273	-0.089	-0.037
-734.010	800.000	0.082	-0.294
-732.996	-132.865	-0.348	0.045
-731.981	-98.710	-0.443	-0.113
-730.966	525.855	0.098	-0.231
-729.952	800.000	0.057	-0.181
-728.937	128.801	0.204	0.261
-727.923	125.589	-0.238	-0.302
-726.908	800.000	-0.028	-0.093
-725.894	-200.000	-0.003	0.155
-724.879	148.795	-0.033	-0.044
-723.864	800.000	-0.045	-0.197
-722.850	64.826	-0.298	0.303
-721.835	-200.000	0.002	-0.236
-720.821	-43.563	-0.494	-0.250
-719.806	-24.431	-0.331	-0.198
-718.791	-34.027	-0.197	-0.109
-717.777	412.314	-0.117	-0.249
-716.762	-177.196	0.276	-0.007
-715.748	-14.681	0.109	-0.070
-714.733	233.235	-0.059	0.098
-713.718	-0.592	-0.225	-0.160
-712.704	696.114	-0.035	-0.092
-711.689	800.000	-0.062	0.212
-710.675	302.853	-0.173	0.321
-709.660	-132.699	-0.298	-0.038
-708.645	-150.612	0.148	-0.011
-707.631	-200.000	-0.023	0.343
-706.616	-94.064	-0.067	0.018
-705.602	-109.170	0.164	-0.035
-704.587	-200.000	0.003	0.073
-703.572	800.000	-0.134	0.513
-702.558	-78.773	0.110	0.038
-701.543	-15.247	-0.318	-0.204
-700.529	94.698	-0.195	0.222
-699.514	-65.811	0.140	0.056
-698.499	251.489	0.150	-0.256
-697.485	152.559	-0.110	0.150
-696.470	-101.995	0.339	-0.082
-695.456	98.737	0.212	-0.246
-694.441	7.982	-0.326	0.245
-693.426	23.624	0.209	0.172
-692.412	-200.000	0.038	-0.204
-691.397	30.184	0.081	0.069
-690.383	-136.113	-0.329	-0.039
-689.368	358.939	-0.098	-0.197
-688.354	-61.080	-0.122	-0.052
-687.339	-200.000	-0.047	0.263
-686.324	800.000	0.054	0.208
-685.310	-200.000	-0.012	-0.320
-684.295	-35.090	-0.343	0.187
-683.281	363.037	-0.109	0.220
-682.266	-108.700	-0.050	-0.011
-681.251	800.000	0.104	0.296
-680.237	30.794	-0.028	-0.024
-679.222	24.115	0.155	-0.129
-678.208	800.000	-0.088	0.349
-677.193	-11.691	-0.252	0.166
-676.178	-10.886	0.142	-0.094
-675.164	1.366	0.109	0.079
-674.149	165.806	-0.059	-0.083
-673.135	-77.330	-0.166	0.058
-672.120	-67.724	-0.180	-0.071
-671.105	66.501	0.341	0.347
-670.091	-200.000	-0.013	-0.288
-669.076	-68.231	-0.434	0.169
-668.062	-23.211	-0.022	-0.013
-667.047	800.000	0.098	-0.285
-666.032	-1.999	-0.110	-0.077
-665.018	289.813	-0.115	-0.210
-664.003	-200.000	0.026	-0.301
-662.989	522.678	0.069	-0.161
-661.974	56.122	-0.053	0.051
-660.959	-200.000	0.036	0.406
-659.945	-65.413	0.075	0.030
-658.930	526.186	0.112	0.264
-657.916	274.896	0.133	0.236
-656.901	800.000	0.104	-0.406
-655.886	9.548	-0.159	-0.120
-654.872	517.801	-0.082	0.192
-653.857	-156.892	-0.211	0.013
-652.843	-200.000	-0.002	-0.186
-651.828	-200.000	-0.026	-0.191
-650.814	800.000	-0.055	0.193
-649.799	-200.000	0.005	0.150
-648.784	-200.000	-0.015	-0.117
-647.770	150.374	0.233	-0.318
-646.755	-38.013	-0.194	-0.103
-645.741	-200.000	0.019	-0.088
-644.726	391.160	0.047	0.098
-643.711	97.029	-0.119	-0.137
-642.697	41.958	0.272	-0.247
-641.682	-22.651	-0.336	0.203
-640.668	-2.368	0.093	0.065
-639.653	-48.002	0.180	0.087
-638.638	368.149	-0.133	-0.268
-637.624	33.370	-0.030	-0.026
-636.609	163.324	-0.148	-0.209
-635.595	-140.447	-0.090	0.009
-634.580	60.262	-0.272	0.270
-633.565	-127.834	0.465	-0.067
-632.551	-200.000	0.025	-0.182
-631.536	-152.350	-0.417	0.030
-630.522	37.557	0.083	0.074
-629.507	449.842	0.015	-0.032
-628.492	-200.000	-0.062	0.400
-627.478	50.340	0.098	0.093
-626.463	-200.000	0.033	0.161
-625.449	-200.000	-0.008	-0.104
-624.434	135.567	0.124	-0.161
-623.419	-115.831	-0.198	-0.037
-622.405	92.782	-0.129	0.145
-621.390	31.902	0.208	-0.180
-620.376	192.035	-0.120	-0.182
-619.361	-20.311	0.088	0.054
-618.346	-84.037	0.280	0.089
-617.332	303.134	0.153	0.283
-616.317	-200.000	-0.042	-0.223
-615.303	-98.331	0.452	-0.116
-614.288	39.280	-0.284	0.254
-613.273	800.000	0.022	-0.092
-612.259	-92.184	0.144	-0.041
-611.244	-78.714	0.435	0.149
-610.230	-24.813	-0.105	-0.062
-609.215	108.184	0.046	-0.055
-608.201	-75.678	0.406	0.144
-607.186	-145.709	0.363	-0.032
-606.171	145.314	-0.176	-0.235
-605.157	800.000	0.032	-0.099
-604.142	52.404	0.102	0.097
-603.128	220.585	0.230	-0.369
-602.113	53.249	0.150	0.144
-601.098	-122.677	-0.455	0.074
-600.084	302.475	0.193	-0.357
-599.069	181.076	-0.059	-0.086
-598.055	-108.722	-0.446	0.096
-597.040	800.000	-0.054	0.215
-596.025	62.836	0.076	-0.076
-595.011	-200.000	0.021	-0.391
-593.996	-15.011	0.232	0.149
-592.982	309.373	-0.165	0.308
-591.967	-200.000	-0.078	-0.384
-590.952	-91.883	-0.212	-0.060
-589.938	-200.000	0.006	-0.090
-588.923	305.057	0.062	-0.115
-587.909	57.636	-0.083	-0.081
-586.894	21.439	0.329	-0.268
-585.879	-108.025	-0.291	-0.063
-584.865	235.385	-0.066	-0.109
-583.850	-200.000	0.024	-0.370
-582.836	28.795	0.224	-0.190
-581.821	800.000	0.048	-0.203
-580.806	800.000	0.036	0.112
-579.792	-87.924	0.199	-0.060
-578.777	-177.624	0.229	0.006
-577.763	68.571	0.067	-0.069
-576.748	34.313	-0.038	0.033
-575.733	-24.067	-0.060	-0.036
-574.719	400.668	-0.080	-0.167
-573.704	406.666	0.118	0.249
-572.690	800.000	0.055	-0.157
-571.675	348.822	-0.109	-0.215
-570.661	-200.000	0.151	-0.000
-569.646	-71.819	-0.141	0.052
-568.631	251.628	-0.137	-0.233
-567.617	71.614	0.100	-0.103
-566.602	800.000	0.028	0.107
-565.588	800.000	-0.023	0.082
-564.573	32.804	-0.192	-0.166
-563.558	-200.000	-0.022	0.260
-562.544	26.983	0.146	-0.122
-561.529	93.153	0.131	-0.148
-560.515	-133.881	0.356	-0.044
-559.500	142.787	-0.076	-0.101
-558.485	-58.828	0.158	-0.068
-557.471	-200.000	0.044	0.248
-556.456	127.072	-0.113	-0.143
-555.442	-42.211	-0.291	-0.148
-554.427	-11.124	-0.223	-0.147
-553.412	11.844	-0.376	-0.288
-552.398	94.504	0.038	0.043
-551.383	160.941	-0.122	-0.170
-550.369	-119.449	-0.269	-0.047
-549.354	241.295	0.071	0.118
-548.339	-88.977	0.078	-0.023
-547.325	-97.324	-0.267	0.070
-546.310	-53.452	0.166	-0.076
-545.296	-200.000	0.042	-0.245
-544.281	160.589	0.204	-0.284
-543.266	43.531	0.348	0.317
-542.252	38.043	-0.086	0.077
-541.237	20.186	-0.224	-0.181
-540.223	303.718	0.079	-0.145
-539.208	232.615	-0.184	-0.301
-538.193	-200.000	-0.213	0.001
-537.179	-132.434	-0.351	-0.045
-536.164	-200.000	-0.018	-0.091
-535.150	-102.742	0.488	-0.116
-534.135	-200.000	0.012	-0.169
-533.121	10.116	-0.066	0.050
-532.106	800.000	0.113	-0.334
-531.091	-200.000	0.002	-0.320
-530.077	-8.401	-0.555	-0.372
-529.062	56.423	-0.235	0.228
-528.048	-133.442	-0.270	0.034
-527.033	-23.067	-0.151	0.091
-526.018	-97.488	0.424	-0.110
-525.004	800.000	0.094	-0.292
-523.989	-54.540	0.164	-0.074
-522.975	205.783	0.095	0.147
-521.960	501.589	-0.069	-0.160
-520.945	180.581	-0.067	0.098
-519.931	-200.000	0.010	0.344
-518.916	800.000	-0.021	0.076
-517.902	-200.000	0.008	0.294
-516.887	-200.000	-0.025	-0.152
-515.872	-31.071	0.308	-0.173
-514.858	-200.000	-0.027	-0.199
-513.843	-191.736	-0.324	-0.003
-512.829	800.000	0.110	0.358
-511.814	237.928	0.080	-0.132
-510.799	38.318	0.197	-0.175
-509.785	-148.376	-0.168	-0.014
-508.770	800.000	-0.062	0.193
-507.756	-14.375	0.148	-0.095
-506.741	-157.337	-0.341	0.021
-505.726	-5.595	-0.168	-0.115
-504.712	42.168	0.110	0.099
-503.697	-67.199	-0.172	0.067
-502.683	-29.206	0.138	0.079
-501.668	216.970	-0.029	-0.045
-500.653	-200.000	-0.041	-0.189
-499.639	800.000	0.046	0.162
-498.624	-112.617	-0.261	0.052
-497.610	99.408	-0.220	0.254
-496.595	-102.569	0.122	0.029
-495.581	-169.774	-0.093	-0.003
-494.566	-71.591	-0.390	0.145
-493.551	-24.364	-0.222	0.132
-492.537	-24.715	-0.259	-0.153
-491.522	134.028	0.224	0.289
-490.508	347.185	0.078	0.154
-489.493	-58.444	0.297	-0.129
-488.478	214.438	0.056	0.088
-487.464	59.549	-0.224	-0.220
-486.449	40.932	0.080	-0.072
-485.435	39.702	0.227	0.203
-484.420	-72.505	0.151	0.056
-483.405	-196.359	-0.054	-0.000
-482.391	288.107	-0.047	0.085
-481.376	-170.975	-0.037	-0.001
-480.362	-153.316	-0.064	-0.004
-479.347	-200.000	0.001	0.203
-478.332	-200.000	0.008	0.087
-477.318	-79.492	-0.191	0.064
-476.303	19.515	0.044	0.035
-475.289	-173.969	-0.342	-0.010
-474.274	800.000	-0.070	-0.268
-473.259	119.568	0.013	-0.016
-472.245	39.364	-0.155	-0.138
-471.230	425.820	0.101	-0.216
-470.216	-200.000	0.079	-0.411
-469.201	276.872	-0.044	-0.078
-468.186	222.426	0.082	-0.132
-467.172	229.358	0.085	0.138
-466.157	202.908	-0.142	-0.218
-465.143	-110.265	0.259	0.054
-464.128	286.436	-0.195	-0.350
-463.113	-200.000	0.023	-0.106
-462.099	-63.938	0.077	0.031
-461.084	66.959	0.017	0.017
-460.070	539.974	0.113	-0.268
-459.055	-109.775	0.093	-0.020
-458.040	-102.624	0.081	0.019
-457.026	23.197	0.154	0.126
-456.011	-43.420	-0.324	-0.163
-454.997	-57.044	-0.280	-0.123
-453.982	64.165	-0.162	0.162
-452.968	-60.532	0.268	-0.113
-451.953	185.946	-0.048	-0.071
-450.938	-123.008	0.154	-0.025
-449.924	800.000	0.105	-0.289
-448.909	101.324	-0.080	-0.093
-447.895	-18.583	0.207	-0.129
-446.880	174.423	-0.069	-0.099
-445.865	-200.000	0.027	0.273
-444.851	-200.000	0.042	-0.263
-443.836	-69.733	0.251	-0.095
-442.822	-200.000	-0.043	0.250
-441.807	-200.000	0.049	-0.465
-440.792	219.887	0.089	-0.142
-439.778	-53.455	-0.216	0.098
-438.763	-135.063	-0.166	0.020
-437.749	-96.539	0.223	0.059
-436.734	-43.400	-0.235	0.118
-435.719	800.000	0.062	0.190
-434.705	800.000	-0.122	0.341
-433.690	315.470	0.209	0.392
-432.676	800.000	0.071	-0.210
-431.661	279.754	-0.109	0.194
-430.646	139.026	-0.115	0.150
-429.632	558.276	-0.099	0.237
-428.617	132.146	0.101	0.129
-427.603	13.743	0.079	-0.061
-426.588	52.261	0.179	0.169
-425.573	-200.000	0.036	-0.180
-424.559	-151.037	-0.106	-0.008
-423.544	-91.248	0.095	-0.027
-422.530	-2.089	-0.199	-0.139
-421.515	-121.745	0.179	-0.029
-420.500	800.000	-0.110	0.357
-419.486	61.676	0.158	0.156
-418.471	455.126	0.124	0.274
-417.457	248.508	-0.282	0.475
-416.442	-89.633	0.124	-0.036
-415.428	50.742	-0.151	-0.142
-414.413	800.000	-0.051	-0.219
-413.398	41.514	0.189	-0.170
-412.384	-77.167	-0.386	0.134
-411.369	37.407	0.148	0.130
-410.355	-26.953	-0.236	0.137
-409.340	125.294	-0.126	-0.158
-408.325	115.011	-0.084	0.102
-407.311	-85.166	-0.060	0.019
-406.296	226.042	0.090	0.144
-405.282	394.065	-0.092	-0.191
-404.267	-135.926	0.095	-0.011
-403.252	327.506	0.095	0.181
-402.238	-200.000	0.052	-0.302
-401.223	-200.000	-0.012	0.186
-400.209	51.219	-0.202	0.190
-399.194	21.759	0.099	0.080
-398.179	54.205	0.153	-0.146
-397.165	-106.105	-0.179	0.040
-396.150	-200.000	-0.017	-0.407
-395.136	-146.423	-0.191	0.017
-394.121	766.246	-0.056	0.150
-393.106	168.597	0.076	0.108
-392.092	469.904	0.044	0.099
-391.077	-200.000	0.002	0.345
-390.063	-128.060	0.195	0.028
-389.048	-200.000	-0.044	-0.303
-388.033	-90.112	0.312	-0.090
-387.019	131.248	0.134	-0.171
-386.004	351.830	-0.056	-0.110
-384.990	170.156	-0.081	-0.115
-383.975	67.975	0.148	-0.150
-382.960	800.000	0.048	0.152
-381.946	13.417	0.478	0.368
-380.931	-98.290	0.216	0.055
-379.917	120.886	-0.044	0.054
-378.902	30.868	-0.167	-0.142
-377.888	-200.000	0.051	0.378
-376.873	-41.466	0.051	-0.026
-375.858	-68.964	-0.187	-0.072
-374.844	13.701	-0.171	0.131
-373.829	-200.000	0.019	0.195
-372.815	111.564	-0.037	-0.045
-371.800	800.000	-0.125	0.354
-370.785	-47.689	0.339	0.163
-369.771	243.439	-0.157	0.262
-368.756	-121.472	0.107	-0.018
-367.742	33.479	0.221	-0.191
-366.727	-38.822	-0.165	-0.086
-365.712	-200.000	-0.041	0.239
-364.698	800.000	-0.045	0.164
-363.683	-107.395	0.140	-0.030
-362.669	190.439	-0.085	-0.126
-361.654	298.910	-0.050	-0.091
-360.639	-200.000	-0.016	-0.104
-359.625	150.388	-0.128	-0.172
-358.610	18.969	0.186	-0.148
-357.596	-26.327	0.087	0.050
-356.581	185.129	-0.190	-0.279
-355.566	-35.506	-0.167	-0.090
-354.552	277.191	-0.180	0.318
-353.537	51.817	-0.291	0.274
-352.523	800.000	0.105	-0.402
-351.508	101.370	-0.128	-0.148
-350.493	216.831	-0.051	0.080
-349.479	593.485	-0.076	-0.187
-348.464	-33.212	0.187	0.102
-347.450	-75.614	-0.159	0.056
-346.435	107.141	-0.118	0.139
-345.420	-200.000	-0.016	0.243
-344.406	208.545	0.075	0.116
-343.391	-65.067	0.203	-0.081
-342.377	-57.301	-0.253	0.110
-341.362	125.674	-0.162	0.203
-340.348	211.368	-0.268	0.417
-339.333	384.735	0.161	-0.327
-338.318	800.000	-0.108	-0.336
-337.304	800.000	-0.058	-0.224
-336.289	-200.000	0.046	0.274
-335.275	274.078	0.084	0.147
-334.260	-200.000	0.017	0.142
-333.245	-200.000	0.026	0.155
-332.231	800.000	-0.054	-0.201
-331.216	-165.773	-0.096	0.004
-330.202	-22.141	-0.292	-0.175
-329.187	69.097	0.186	-0.189
-328.172	-200.000	0.032	-0.280
-327.158	87.859	-0.081	-0.088
-326.143	-198.939	-0.035	0.000
-325.129	185.174	-0.159	0.233
-324.114	800.000	-0.088	-0.304
-323.099	21.233	-0.163	-0.131
-322.085	130.581	0.273	0.347
-321.070	-200.000	0.003	-0.098
-320.056	64.487	0.153	0.153
-319.041	-21.067	-0.215	0.130
-318.026	-164.238	0.283	-0.013
-317.012	42.968	-0.099	0.089
-315.997	7.568	0.214	-0.159
-314.983	-121.723	-0.216	-0.035
-313.968	-120.387	-0.331	-0.056
-312.953	15.899	0.202	-0.157
-311.939	-44.243	0.036	-0.018
-310.924	39.465	-0.262	0.232
-309.910	800.000	0.111	0.395
-308.895	-139.966	-0.291	-0.030
-307.880	800.000	-0.101	0.386
-306.866	-200.000	-0.008	-0.376
-305.851	-200.000	-0.049	0.254
-304.837	-67.838	-0.064	0.025
-303.822	292.092	-0.058	0.104
-302.807	-96.650	0.271	-0.071
-301.793	-114.177	-0.343	0.066
-300.778	85.727	-0.219	0.237
-299.764	-34.623	0.124	0.067
-298.749	-172.019	-0.257	-0.008
-297.735	97.274	0.100	0.114
-296.720	-200.000	0.022	0.152
-295.705	129.943	0.157	0.198
-294.691	164.765	-0.138	0.192
-293.676	-60.874	-0.094	0.039
-292.662	-200.000	-0.235	0.000
-291.647	800.000	0.018	-0.064
-290.632	-140.987	0.086	-0.009
-289.618	-30.805	0.457	0.255
-288.603	-170.216	0.287	0.010
-287.589	-7.246	-0.068	-0.045
-286.574	375.120	0.027	-0.055
-285.559	-62.926	0.392	0.160
-284.545	47.221	0.249	-0.229
-283.530	-118.266	-0.254	0.045
-282.516	-61.944	0.333	-0.137
-281.501	-85.613	-0.090	0.028
-280.486	-136.746	0.155	0.018
-279.472	-200.000	0.013	-0.139
-278.457	194.392	0.080	0.119
-277.443	-59.741	0.178	0.075
-276.428	142.914	-0.112	-0.147
-275.413	-149.393	0.248	0.019
-274.399	-200.000	-0.010	0.104
-273.384	800.000	-0.041	0.148
-272.370	-200.000	-0.010	0.226
-271.355	23.024	0.065	-0.052
-270.340	-97.150	0.070	0.018
-269.326	46.504	0.159	0.146
-268.311	155.247	0.050	-0.068
-267.297	800.000	-0.038	-0.110
-266.282	75.769	0.191	0.199
-265.267	-200.000	0.024	0.525
-264.253	-200.000	-0.007	0.061
-263.238	43.613	-0.391	-0.353
-262.224	-200.000	0.076	0.000
-261.209	-98.807	0.083	-0.021
-260.195	2.917	0.116	0.083
-259.180	39.071	-0.060	0.053
-258.165	-27.858	0.304	-0.174
-257.151	240.994	-0.057	0.094
-256.136	-178.692	-0.325	0.007
-255.122	-87.669	0.130	-0.039
-254.107	800.000	0.150	-0.457
-253.092	349.258	0.096	0.187
-252.078	572.154	-0.070	0.168
-251.063	-200.000	0.013	-0.096
-250.049	-86.600	0.317	0.096
-249.034	800.000	0.063	0.270
-248.019	-36.355	-0.263	-0.140
-247.005	209.802	0.150	-0.233
-245.990	-46.854	-0.054	0.026
-244.976	-77.751	-0.319	0.109
-243.961	-98.037	0.181	-0.046
-242.946	-68.711	0.299	-0.114
-241.932	-200.000	0.011	0.068
-240.917	-47.684	-0.237	-0.113
-239.903	-66.792	-0.110	-0.043
-238.888	708.970	0.030	0.078
-237.873	-200.000	-0.013	0.171
-236.859	-127.712	-0.076	-0.011
-235.844	-68.804	-0.181	0.069
-234.830	529.704	0.102	-0.237
-233.815	-200.000	-0.098	-0.446
-232.800	121.019	0.094	0.116
-231.786	16.676	-0.162	-0.126
-230.771	-68.555	0.473	0.181
-229.757	156.856	0.164	0.224
-228.742	-4.675	0.105	0.071
-227.727	-128.996	-0.272	0.038
-226.713	-66.115	0.164	0.065
-225.698	99.919	-0.315	0.360
-224.684	-200.000	-0.024	0.125
-223.669	149.074	-0.114	-0.152
-222.655	-200.000	0.013	0.126
-221.640	281.600	-0.055	0.096
-220.625	-200.000	0.074	0.361
-219.611	800.000	0.029	0.120
-218.596	155.783	-0.102	0.138
-217.582	-87.854	0.173	0.051
-216.567	126.798	-0.452	-0.564
-215.552	-24.111	0.152	0.089
-214.538	-36.423	-0.044	-0.023
-213.523	18.678	-0.256	-0.201
-212.509	-200.000	0.114	-0.000
-211.494	-85.719	0.388	-0.119
-210.479	800.000	-0.062	0.244
-209.465	-71.372	-0.339	-0.125
-208.450	800.000	0.038	-0.136
-207.436	-200.000	-0.085	0.635
-206.421	147.375	0.228	0.302
-205.406	-108.793	-0.255	-0.054
-204.392	800.000	-0.056	0.223
-203.377	180.746	-0.123	0.178
-202.363	-10.750	-0.326	-0.212
-201.348	-85.397	-0.104	-0.032
-200.333	468.479	0.016	-0.036
-199.319	72.595	-0.096	-0.099
-198.304	314.874	-0.115	-0.213
-197.290	196.594	0.061	-0.092
-196.275	-12.833	-0.168	-0.108
-195.260	407.709	-0.171	0.357
-194.246	13.333	-0.207	-0.158
-193.231	-68.908	0.245	0.093
-192.217	124.430	0.152	0.188
-191.202	39.223	0.192	0.169
-190.187	68.149	0.279	-0.281
-189.173	-200.000	0.001	0.149
-188.158	237.984	0.134	0.219
-187.144	162.586	0.102	0.141
-186.129	-78.911	0.207	0.069
-185.114	-34.209	0.197	-0.106
-184.100	-141.304	-0.155	0.015
-183.085	316.262	-0.171	0.319
-182.071	800.000	-0.068	0.282
-181.056	35.584	-0.069	-0.060
-180.042	-45.565	-0.224	0.109
-179.027	61.674	0.125	0.122
-178.012	121.065	0.156	-0.191
-176.998	460.758	0.088	0.192
-175.983	-200.000	0.008	-0.067
-174.969	266.156	-0.020	0.035
-173.954	157.151	0.207	-0.281
-172.939	800.000	0.055	0.220
-171.925	224.515	0.069	0.110
-170.910	-131.130	0.439	-0.058
-169.896	-28.723	0.140	-0.079
-168.881	-200.000	-0.048	-0.222
-167.866	348.990	-0.031	-0.059
-166.852	800.000	0.039	0.156
-165.837	-58.967	0.053	0.023
-164.823	-200.000	-0.009	-0.216
-163.808	-101.499	0.077	0.018
-162.793	-79.424	-0.154	-0.051
-161.779	68.770	0.085	-0.086
-160.764	-1.841	-0.106	0.073
-159.750	-200.000	-0.001	-0.204
-158.735	125.933	0.184	0.229
-157.720	-115.388	0.210	0.039
-156.706	-160.401	0.046	-0.002
-155.691	-200.000	-0.040	0.291
-154.677	-200.000	-0.023	-0.118
-153.662	619.315	0.029	-0.072
-152.647	461.625	-0.101	-0.222
-151.633	-200.000	0.028	0.163
-150.618	-4.879	0.171	-0.116
-149.604	438.290	0.172	0.369
-148.589	599.022	0.069	0.168
-147.574	-168.656	0.383	0.014
-146.560	800.000	-0.088	-0.339
-145.545	-153.172	-0.190	0.013
-144.531	13.872	-0.162	0.124
-143.516	-200.000	-0.001	0.120
-142.502	262.338	-0.101	0.171
-141.487	30.349	-0.142	0.119
-140.472	346.535	-0.087	-0.168
-139.458	315.719	0.079	-0.147
-138.443	-45.332	0.171	-0.083
-137.429	-120.296	-0.306	-0.051
-136.414	29.915	-0.111	0.093
-135.399	-1.478	0.194	0.134
-134.385	-143.793	-0.364	-0.034
-133.370	39.265	-0.318	0.279
-132.356	-14.004	0.186	-0.118
-131.341	800.000	0.126	-0.431
-130.326	47.586	-0.191	-0.175
-129.312	590.496	0.103	0.248
-128.297	-148.041	0.250	-0.020
-127.283	38.999	0.144	-0.126
-126.268	641.328	-0.038	-0.094
-125.253	258.574	-0.145	0.246
-124.239	-200.000	-0.005	-0.274
-123.224	-200.000	0.029	0.157
-122.210	-200.000	0.012	0.101
-121.195	-162.263	-0.177	0.009
