DTS Sentinel unit serial number:	SN413079Multiplexer serial number:	ORYXHardware model number:	OX4-SRSoftware version number:	ORYX F/W v4.00 Oryx Data Collector v3.7.2.0data status	okinstallation	princeton_trtdifferential loss correction	single-endedforward channel	channel 1reverse channel	N/Adate	2019/09/13time	00:58:35forward acquisition time	60.00reverse acquisition time	0.00gamma	496.2192k internal	0.2330k external	0.2330temperature offset calibration	1.0140default loss term (dB/km)	0.3790temperature slope calibration	1.0000multiplexer offset coefficient	1.0000multiplexer slope coefficient	1.0000fibre end	0.00T internal ref (°C)	28.06T ext. ref 1 (°C)	3.65T ext. ref 2 (°C)	22.60length (m)	temperature (°C)	Stokes	anti-Stokes-747.200	472.750	-0.057	0.130
-746.185	58.742	0.214	0.211
-745.171	-62.949	-0.185	-0.077
-744.156	-67.136	0.084	-0.033
-743.142	531.200	-0.047	0.113
-742.127	301.257	-0.084	0.157
-741.112	-111.848	-0.132	0.027
-740.098	-70.904	-0.092	-0.035
-739.083	-200.000	0.019	0.142
-738.069	-67.939	-0.234	0.092
-737.054	702.026	-0.185	0.489
-736.039	-8.242	-0.363	-0.246
-735.025	-22.479	0.129	0.079
-734.010	-200.000	0.008	-0.236
-732.996	14.852	0.126	-0.099
-731.981	800.000	0.064	0.272
-730.966	47.096	-0.197	-0.184
-729.952	-200.000	-0.029	0.406
-728.937	800.000	-0.045	0.193
-727.923	-135.996	-0.272	-0.032
-726.908	31.779	-0.200	-0.173
-725.894	-28.614	0.113	-0.065
-724.879	-200.000	-0.029	0.263
-723.864	137.279	0.109	0.143
-722.850	662.738	-0.085	0.220
-721.835	212.734	-0.154	0.245
-720.821	-131.063	-0.293	0.039
-719.806	-101.721	0.122	-0.030
-718.791	-200.000	0.042	0.236
-717.777	-43.416	-0.056	0.028
-716.762	464.195	0.077	0.172
-715.748	-50.247	0.258	-0.123
-714.733	454.625	-0.204	-0.455
-713.718	-32.970	-0.161	-0.090
-712.704	-49.360	-0.263	-0.126
-711.689	36.712	0.039	0.034
-710.675	13.623	0.256	-0.200
-709.660	268.622	0.147	-0.259
-708.645	611.292	0.098	0.246
-707.631	-105.016	-0.415	0.096
-706.616	-46.369	-0.078	0.039
-705.602	800.000	-0.104	0.387
-704.587	523.068	0.162	-0.384
-703.572	115.718	0.251	-0.309
-702.558	-200.000	0.000	0.230
-701.543	-200.000	0.060	0.289
-700.529	-72.834	0.140	-0.052
-699.514	-139.376	-0.015	-0.002
-698.499	-174.046	-0.156	-0.005
-697.485	26.825	-0.188	-0.158
-696.470	800.000	0.087	-0.287
-695.456	-50.193	-0.164	0.078
-694.441	678.535	-0.026	-0.068
-693.426	15.138	-0.050	-0.039
-692.412	-200.000	-0.021	0.153
-691.397	706.966	0.108	-0.287
-690.383	36.551	0.273	-0.242
-689.368	-200.000	-0.000	0.104
-688.354	640.449	-0.076	-0.194
-687.339	-200.000	-0.002	-0.182
-686.324	476.968	0.055	-0.126
-685.310	-86.612	0.098	0.030
-684.295	-30.385	0.491	0.280
-683.281	-73.418	0.067	-0.024
-682.266	44.376	-0.014	-0.013
-681.251	120.034	-0.063	0.078
-680.237	-41.476	0.132	0.068
-679.222	-97.668	0.302	0.079
-678.208	-37.482	0.242	0.130
-677.193	-57.174	0.276	-0.122
-676.178	-200.000	0.038	-0.293
-675.164	-86.770	-0.329	-0.101
-674.149	-200.000	-0.026	-0.157
-673.135	-200.000	-0.005	-0.458
-672.120	-129.384	0.116	-0.016
-671.105	-132.838	0.236	-0.030
-670.091	-102.648	-0.107	-0.026
-669.076	738.390	-0.070	-0.188
-668.062	-75.655	0.232	-0.083
-667.047	800.000	0.084	-0.237
-666.032	181.384	-0.097	0.143
-665.018	17.136	0.311	-0.247
-664.003	-27.935	-0.341	-0.198
-662.989	104.924	-0.211	-0.250
-661.974	357.305	0.030	-0.061
-660.959	-71.083	0.355	0.134
-659.945	97.358	0.029	0.034
-658.930	41.870	-0.269	-0.245
-657.916	20.546	0.080	-0.065
-656.901	79.733	-0.096	-0.103
-655.886	33.254	-0.178	0.155
-654.872	84.732	0.102	-0.112
-653.857	-112.225	0.355	-0.072
-652.843	273.608	0.178	0.316
-651.828	800.000	-0.045	-0.124
-650.814	-200.000	-0.024	-0.215
-649.799	-200.000	-0.083	-0.387
-648.784	169.617	-0.116	0.167
-647.770	29.968	0.263	-0.225
-646.755	310.810	-0.057	-0.107
-645.741	-47.271	-0.170	-0.083
-644.726	-80.842	0.343	-0.114
-643.711	218.629	-0.058	-0.094
-642.697	-28.757	0.227	0.131
-641.682	532.580	-0.053	0.126
-640.668	-200.000	0.014	-0.144
-639.653	396.258	-0.101	-0.211
-638.638	-82.694	-0.212	0.069
-637.624	-200.000	-0.036	-0.173
-636.609	475.361	-0.029	0.067
-635.595	119.998	-0.226	-0.281
-634.580	20.166	-0.269	-0.218
-633.565	87.064	-0.330	0.365
-632.551	-200.000	0.013	0.104
-631.536	187.104	0.063	0.094
-630.522	161.076	0.174	-0.244
-629.507	525.682	0.184	-0.435
-628.492	119.437	-0.128	-0.158
-627.478	-200.000	0.041	-0.236
-626.463	-98.955	-0.084	-0.021
-625.449	-96.609	-0.183	-0.048
-624.434	-165.209	0.099	0.004
-623.419	800.000	-0.023	0.092
-622.405	800.000	-0.030	-0.121
-621.390	-200.000	0.001	-0.399
-620.376	-58.986	-0.195	0.085
-619.361	-173.066	-0.106	-0.003
-618.346	-37.213	-0.333	0.178
-617.332	443.401	-0.017	-0.038
-616.317	269.247	0.067	-0.117
-615.303	-200.000	0.059	-0.273
-614.288	-200.000	-0.004	-0.217
-613.273	-188.408	-0.331	-0.004
-612.259	800.000	-0.008	-0.024
-611.244	-200.000	-0.036	-0.215
-610.230	-80.626	0.124	-0.041
-609.215	-133.504	-0.299	0.038
-608.201	800.000	-0.044	0.147
-607.186	152.240	0.010	0.013
-606.171	121.777	0.062	0.078
-605.157	-88.524	-0.181	-0.054
-604.142	800.000	-0.016	-0.061
-603.128	536.904	0.114	-0.271
-602.113	-89.484	-0.200	0.059
-601.098	-129.648	-0.350	-0.048
-600.084	-28.081	-0.218	-0.126
-599.069	-63.958	0.174	-0.071
-598.055	268.604	0.071	0.126
-597.040	91.318	0.086	-0.097
-596.025	-146.639	-0.201	-0.017
-595.011	-3.784	0.365	0.254
-593.996	-200.000	-0.008	0.228
-592.982	48.236	0.309	0.289
-591.967	-200.000	-0.043	0.361
-590.952	54.660	0.213	0.206
-589.938	140.686	0.135	-0.179
-588.923	-200.000	-0.004	-0.128
-587.909	662.837	-0.109	0.283
-586.894	-82.963	-0.353	0.114
-585.879	-163.368	-0.188	0.009
-584.865	-89.310	0.173	0.051
-583.850	-200.000	-0.077	-0.343
-582.836	52.933	-0.216	-0.207
-581.821	-124.737	0.543	-0.084
-580.806	-200.000	-0.006	0.043
-579.792	1.743	0.224	0.162
-578.777	800.000	0.061	0.249
-577.763	-44.266	-0.398	0.199
-576.748	49.669	0.286	-0.269
-575.733	800.000	0.031	0.109
-574.719	-50.746	-0.125	0.059
-573.704	-91.954	0.218	0.062
-572.690	-200.000	0.040	0.308
-571.675	-116.642	0.168	0.031
-570.661	120.802	0.187	-0.233
-569.646	800.000	-0.042	0.136
-568.631	-66.420	0.086	-0.034
-567.617	-200.000	0.011	-0.372
-566.602	800.000	-0.080	-0.336
-565.588	-200.000	0.567	-0.001
-564.573	800.000	-0.057	0.208
-563.558	-87.291	0.457	-0.139
-562.544	20.432	-0.275	-0.222
-561.529	321.023	-0.156	0.297
-560.515	95.722	-0.170	0.194
-559.500	20.005	-0.155	-0.125
-558.485	-200.000	0.035	-0.303
-557.471	243.723	0.114	-0.191
-556.456	800.000	-0.053	0.213
-555.442	46.524	-0.090	0.084
-554.427	-200.000	0.035	-0.246
-553.412	800.000	-0.063	-0.239
-552.398	-149.713	0.629	-0.049
-551.383	178.969	-0.098	-0.144
-550.369	26.476	0.031	-0.026
-549.354	800.000	-0.069	-0.260
-548.339	261.685	-0.137	-0.237
-547.325	-134.450	0.199	0.024
-546.310	692.581	0.080	-0.209
-545.296	-97.453	-0.166	0.043
-544.281	-200.000	0.025	0.148
-543.266	29.704	-0.247	0.210
-542.252	497.963	-0.067	0.153
-541.237	-37.840	-0.042	-0.022
-540.223	-104.528	0.098	-0.023
-539.208	-200.000	-0.003	-0.057
-538.193	73.511	-0.186	0.195
-537.179	261.819	0.040	-0.069
-536.164	184.420	0.228	-0.338
-535.150	72.134	0.118	0.123
-534.135	-5.111	0.232	-0.159
-533.121	242.232	0.013	-0.022
-532.106	-94.202	-0.360	-0.098
-531.091	-200.000	-0.021	0.283
-530.077	133.711	0.149	0.192
-529.062	800.000	-0.052	-0.216
-528.048	-46.597	-0.341	-0.167
-527.033	-91.082	0.006	-0.002
-526.018	-83.224	0.241	-0.077
-525.004	-138.892	0.196	-0.021
-523.989	517.648	0.151	-0.352
-522.975	-111.179	-0.202	-0.041
-521.960	-21.584	0.138	0.084
-520.945	-200.000	0.039	-0.250
-519.931	-103.850	-0.201	0.047
-518.916	-0.476	0.240	0.170
-517.902	-23.834	0.338	0.202
-516.887	-45.028	-0.016	0.008
-515.872	-65.649	-0.339	-0.136
-514.858	-86.981	-0.290	-0.088
-513.843	-200.000	-0.029	-0.214
-512.829	-65.675	-0.077	0.031
-511.814	-197.082	-0.415	0.003
-510.799	-103.268	-0.399	-0.094
-509.785	18.152	-0.159	-0.127
-508.770	105.239	0.161	-0.190
-507.756	-200.000	-0.024	-0.111
-506.741	285.239	-0.102	-0.184
-505.726	-63.136	-0.155	-0.064
-504.712	-46.926	-0.099	0.048
-503.697	-200.000	0.031	0.355
-502.683	-116.295	-0.241	-0.044
-501.668	4.098	-0.123	-0.090
-500.653	38.441	-0.304	0.270
-499.639	-200.000	0.042	0.314
-498.624	12.750	-0.231	0.178
-497.610	-20.660	0.365	0.223
-496.595	529.464	-0.085	0.199
-495.581	396.026	-0.168	-0.351
-494.566	-116.883	-0.060	0.011
-493.551	800.000	0.039	-0.129
-492.537	800.000	-0.032	0.132
-491.522	-200.000	-0.007	-0.124
-490.508	-81.504	-0.179	0.059
-489.493	-200.000	0.059	-0.369
-488.478	44.785	0.165	0.152
-487.464	-14.858	0.157	0.101
-486.449	-200.000	0.028	-0.265
-485.435	-200.000	0.044	-0.292
-484.420	428.343	-0.071	-0.154
-483.405	-41.472	0.070	-0.036
-482.391	-200.000	-0.003	-0.161
-481.376	463.198	-0.086	-0.192
-480.362	-112.664	-0.361	-0.072
-479.347	-55.636	0.411	-0.184
-478.332	-116.428	-0.352	-0.065
-477.318	40.104	0.210	-0.189
-476.303	-95.202	-0.256	-0.069
-475.289	800.000	0.047	0.144
-474.274	138.391	0.204	-0.266
-473.259	800.000	-0.059	0.231
-472.245	-200.000	0.046	-0.227
-471.230	-152.663	-0.203	-0.014
-470.216	287.707	0.124	0.224
-469.201	800.000	-0.027	-0.098
-468.186	580.322	-0.007	0.017
-467.172	12.653	-0.317	-0.244
-466.157	89.862	0.282	0.314
-465.143	-118.797	0.163	0.029
-464.128	30.053	0.177	-0.151
-463.113	708.497	0.064	-0.170
-462.099	32.279	-0.102	0.087
-461.084	-8.276	0.348	-0.233
-460.070	-96.363	-0.428	0.113
-459.055	-200.000	0.037	-0.272
-458.040	-23.776	0.262	-0.156
-457.026	-6.355	-0.226	0.153
-456.011	-200.000	0.035	0.323
-454.997	-118.981	-0.237	0.041
-453.982	-152.461	-0.313	-0.022
-452.968	-200.000	0.004	-0.132
-451.953	-42.296	-0.139	-0.071
-450.938	-51.421	-0.440	0.205
-449.924	800.000	-0.083	0.324
-448.909	-96.732	-0.100	-0.026
-447.895	-3.999	0.107	-0.074
-446.880	-190.909	-0.099	0.001
-445.865	-200.000	-0.033	0.332
-444.851	-96.101	-0.038	0.010
-443.836	212.512	0.070	0.110
-442.822	508.630	0.156	0.362
-441.807	-113.969	0.294	0.057
-440.792	-133.525	0.271	-0.034
-439.778	-73.144	-0.158	0.058
-438.763	-200.000	0.019	-0.095
-437.749	86.972	0.143	0.158
-436.734	297.134	0.152	0.277
-435.719	128.545	-0.297	-0.376
-434.705	99.244	0.057	0.065
-433.690	-20.381	0.229	0.140
-432.676	507.852	0.100	-0.230
-431.661	706.030	-0.066	0.174
-430.646	95.662	-0.169	0.192
-429.632	-29.112	-0.126	-0.072
-428.617	563.430	-0.165	0.398
-427.603	5.743	0.287	-0.211
-426.588	-100.355	-0.179	-0.044
-425.573	109.806	-0.145	-0.173
-424.559	66.309	0.250	0.252
-423.544	-190.330	-0.472	-0.005
-422.530	-173.491	-0.386	-0.012
-421.515	-200.000	-0.071	-0.366
-420.500	-200.000	0.027	0.174
-419.486	-200.000	0.006	0.082
-418.471	10.376	0.121	-0.092
-417.457	230.922	-0.185	0.301
-416.442	-75.797	0.220	0.077
-415.428	211.027	0.201	0.314
-414.413	-200.000	0.022	0.147
-413.398	114.918	-0.078	-0.095
-412.384	-58.174	0.142	0.061
-411.369	197.953	0.282	-0.429
-410.355	715.971	-0.152	0.401
-409.340	84.536	0.132	-0.144
-408.325	83.115	-0.298	-0.322
-407.311	800.000	-0.035	-0.138
-406.296	-200.000	0.003	0.044
-405.282	60.843	0.061	-0.060
-404.267	300.951	-0.075	0.137
-403.252	1.349	0.279	-0.199
-402.238	-61.955	-0.228	0.095
-401.223	9.834	0.075	-0.056
-400.209	102.140	0.290	-0.336
-399.194	-0.155	0.048	-0.034
-398.179	-110.225	0.237	-0.049
-397.165	-200.000	-0.021	0.220
-396.150	-200.000	0.028	-0.211
-395.136	-50.017	0.330	-0.155
-394.121	-98.528	-0.256	0.065
-393.106	100.349	0.106	0.122
-392.092	-33.512	0.060	0.033
-391.077	323.657	-0.122	0.232
-390.063	-70.416	-0.302	0.114
-389.048	329.946	-0.039	-0.074
-388.033	-130.845	0.097	-0.013
-387.019	46.550	-0.087	-0.080
-386.004	473.286	0.076	-0.169
-384.990	-70.293	0.228	0.086
-383.975	-200.000	0.013	-0.058
-382.960	-36.578	-0.402	0.214
-381.946	332.285	0.233	0.447
-380.931	510.895	-0.096	0.223
-379.917	142.986	0.117	-0.154
-378.902	-109.080	0.019	0.004
-377.888	56.179	0.139	-0.134
-376.873	-200.000	-0.028	-0.142
-375.858	-14.584	0.116	0.074
-374.844	-47.980	0.180	-0.086
-373.829	-100.984	-0.517	0.126
-372.815	134.842	-0.079	-0.101
-371.800	-28.554	0.024	0.014
-370.785	-200.000	0.004	0.048
-369.771	-83.344	0.129	0.041
-368.756	71.660	0.142	0.147
-367.742	-78.917	-0.366	0.124
-366.727	-200.000	0.052	-0.233
-365.712	596.261	0.055	-0.135
-364.698	57.935	0.211	-0.205
-363.683	-68.044	-0.168	0.065
-362.669	30.103	0.218	-0.185
-361.654	-121.106	-0.121	-0.020
-360.639	800.000	0.157	0.433
-359.625	115.036	-0.208	-0.252
-358.610	74.436	-0.164	-0.171
-357.596	-119.845	0.329	-0.056
-356.581	30.354	0.080	-0.067
-355.566	350.146	0.246	0.482
-354.552	800.000	0.058	-0.232
-353.537	-27.201	0.338	0.195
-352.523	-54.652	0.273	-0.122
-351.508	19.685	0.200	0.160
-350.493	-45.465	0.290	-0.142
-349.479	800.000	0.086	0.373
-348.464	56.542	0.068	0.065
-347.450	220.415	0.074	0.118
-346.435	419.987	-0.053	-0.112
-345.420	477.424	-0.143	0.322
-344.406	-84.587	0.257	-0.080
-343.391	161.160	-0.156	-0.216
-342.377	-126.261	-0.173	0.026
-341.362	-43.772	-0.125	0.063
-340.348	-108.502	-0.259	-0.055
-339.333	29.404	-0.087	0.073
-338.318	-78.339	0.179	-0.061
-337.304	800.000	0.049	0.205
-336.289	615.300	0.023	0.058
-335.275	-26.304	0.168	0.098
-334.260	800.000	-0.062	0.264
-333.245	119.998	0.132	-0.163
-332.231	-116.785	0.046	-0.008
-331.216	13.307	0.116	0.089
-330.202	-12.579	-0.025	-0.016
-329.187	85.010	-0.110	-0.119
-328.172	-118.794	0.121	0.021
-327.158	107.145	-0.217	-0.255
-326.143	800.000	0.048	-0.141
-325.129	-39.906	0.122	-0.063
-324.114	54.093	0.088	-0.084
-323.099	-200.000	0.123	0.686
-322.085	-125.060	0.182	-0.028
-321.070	91.202	0.087	0.096
-320.056	196.342	0.173	0.261
-319.041	800.000	0.050	-0.215
-318.026	800.000	0.076	-0.279
-317.012	-87.794	0.102	-0.030
-315.997	462.443	-0.125	-0.276
-314.983	64.392	0.169	-0.169
-313.968	-111.007	0.076	-0.015
-312.953	-52.251	-0.322	-0.148
-311.939	-123.360	-0.152	0.024
-310.924	57.698	0.232	-0.225
-309.910	225.739	0.156	0.250
-308.895	-119.589	0.097	-0.017
-307.880	-122.070	-0.064	-0.010
-306.866	158.305	0.179	0.246
-305.851	522.941	-0.053	-0.124
-304.837	10.712	0.219	0.166
-303.822	-144.491	0.154	0.014
-302.807	502.636	0.062	0.141
-301.793	104.580	-0.044	-0.051
-300.778	92.134	-0.161	0.180
-299.764	48.272	-0.259	-0.240
-298.749	11.848	-0.135	0.103
-297.735	-98.027	0.134	-0.034
-296.720	-200.000	0.014	-0.123
-295.705	737.162	-0.013	0.034
-294.691	336.409	-0.085	-0.163
-293.676	564.893	0.120	-0.288
-292.662	-96.906	-0.138	0.036
-291.647	-200.000	0.008	-0.196
-290.632	208.649	0.071	0.110
-289.618	800.000	0.045	0.126
-288.603	44.163	0.178	0.161
-287.589	235.897	-0.134	-0.220
-286.574	-26.287	-0.069	0.040
-285.559	-200.000	-0.009	0.102
-284.545	-52.469	-0.199	0.091
-283.530	-200.000	0.049	0.324
-282.516	17.631	0.292	0.230
-281.501	-200.000	0.074	0.418
-280.486	-159.704	-0.125	-0.007
-279.472	-13.220	0.055	-0.035
-278.457	-200.000	-0.004	0.104
-277.443	-200.000	0.005	0.034
-276.428	480.190	0.026	0.058
-275.413	-52.232	-0.313	0.144
-274.399	-200.000	-0.038	-0.172
-273.384	-173.048	-0.139	-0.004
-272.370	143.973	0.314	0.414
-271.355	-51.356	-0.287	-0.133
-270.340	107.913	0.089	-0.105
-269.326	-101.854	-0.323	0.077
-268.311	-122.685	0.207	0.033
-267.297	-200.000	-0.003	0.218
-266.282	57.636	0.105	0.101
-265.267	-66.717	0.200	-0.078
-264.253	69.672	0.074	0.075
-263.238	-200.000	-0.013	-0.195
-262.224	511.915	0.074	0.170
-261.209	-46.586	0.195	0.095
-260.195	-132.358	0.176	-0.022
-259.180	-200.000	0.118	0.546
-258.165	-61.384	0.033	-0.014
-257.151	-200.000	0.038	0.216
-256.136	81.731	-0.100	0.107
-255.122	352.332	-0.114	-0.224
-254.107	25.810	-0.324	-0.267
-253.092	312.927	0.087	-0.162
-252.078	188.133	0.194	-0.287
-251.063	-27.038	-0.150	-0.086
-250.049	-140.120	-0.047	-0.005
-249.034	-117.921	-0.202	-0.036
-248.019	20.839	0.200	0.160
-247.005	-165.951	-0.413	-0.017
-245.990	32.936	0.229	0.196
-244.976	46.757	0.282	0.259
-243.961	-71.405	0.129	-0.048
-242.946	545.149	-0.090	-0.213
-241.932	-200.000	0.066	0.315
-240.917	224.971	0.081	-0.129
-239.903	-64.003	0.098	0.040
-238.888	152.265	-0.158	0.214
-237.873	-150.866	-0.131	0.010
-236.859	24.886	0.069	0.056
-235.844	-88.422	0.228	0.067
-234.830	-200.000	-0.002	0.278
-233.815	-72.626	-0.168	-0.061
-232.800	-122.674	0.036	-0.006
-231.786	-23.309	-0.363	0.216
-230.771	-200.000	0.041	0.180
-229.757	93.150	0.191	-0.213
-228.742	-69.180	0.186	0.070
-227.727	391.003	-0.060	0.123
-226.713	441.526	0.127	0.274
-225.698	800.000	0.077	0.226
-224.684	-122.916	0.372	0.059
-223.669	81.812	0.137	-0.147
-222.655	-80.773	0.345	-0.113
-221.640	214.421	-0.021	-0.033
-220.625	-7.513	-0.158	-0.105
-219.611	-56.758	-0.182	0.080
-218.596	59.700	0.229	-0.222
-217.582	-136.800	-0.401	0.046
-216.567	-200.000	-0.017	0.128
-215.552	-175.680	-0.234	0.006
-214.538	449.389	0.184	-0.400
-213.523	-111.016	-0.129	-0.026
-212.509	-68.419	-0.240	-0.092
-211.494	24.107	0.065	0.053
-210.479	-79.700	0.173	0.058
-209.465	-200.000	0.024	-0.156
-208.450	-49.294	0.138	-0.065
-207.436	800.000	0.032	0.110
-206.421	-70.014	0.183	-0.069
-205.406	-113.850	-0.219	-0.042
-204.392	38.544	-0.012	0.011
-203.377	800.000	0.044	0.121
-202.363	-200.000	0.004	-0.209
-201.348	218.775	0.099	-0.156
-200.333	-200.000	0.096	-0.471
-199.319	-177.727	-0.087	-0.002
-198.304	-121.373	0.065	0.011
-197.290	-200.000	-0.008	-0.177
-196.275	96.042	0.201	-0.226
-195.260	565.350	-0.046	-0.111
-194.246	-200.000	-0.073	-0.415
-193.231	-200.000	-0.011	-0.183
-192.217	279.831	-0.120	0.211
-191.202	-200.000	0.026	0.336
-190.187	-60.591	-0.200	0.084
-189.173	-59.130	0.167	0.071
-188.158	800.000	0.027	0.081
-187.144	210.375	-0.188	-0.291
-186.129	-135.298	-0.086	0.010
-185.114	-200.000	-0.031	0.206
-184.100	-200.000	0.048	0.272
-183.085	436.209	-0.042	-0.090
-182.071	800.000	-0.075	0.275
-181.056	421.354	0.114	0.240
-180.042	284.151	-0.192	0.339
-179.027	59.488	-0.088	-0.085
-178.012	4.820	-0.213	0.154
-176.998	-16.917	0.129	-0.080
-175.983	482.622	0.073	0.164
-174.969	-97.844	-0.047	0.012
-173.954	800.000	-0.040	0.155
-172.939	696.888	0.011	0.028
-171.925	22.984	0.142	0.115
-170.910	-58.878	-0.177	-0.075
-169.896	-97.270	0.147	-0.038
-168.881	-112.382	-0.388	0.076
-167.866	56.784	-0.133	-0.127
-166.852	800.000	-0.050	0.157
-165.837	324.156	-0.215	0.404
-164.823	79.852	-0.128	0.136
-163.808	151.062	-0.224	-0.300
-162.793	-99.053	0.308	-0.077
-161.779	-200.000	0.028	0.184
-160.764	-200.000	-0.032	0.274
-159.750	-200.000	0.043	-0.207
-158.735	800.000	0.071	0.195
-157.720	800.000	0.059	0.254
-156.706	-200.000	0.000	0.054
-155.691	147.892	-0.090	0.120
-154.677	41.250	0.148	-0.131
-153.662	123.938	0.259	0.320
-152.647	-25.217	-0.110	-0.064
-151.633	407.893	0.054	-0.113
-150.618	-23.098	-0.304	0.180
-149.604	-52.511	-0.277	0.126
-148.589	102.986	0.103	-0.119
-147.574	753.524	-0.058	0.154
-146.560	-200.000	0.001	0.235
-145.545	-200.000	-0.001	-0.010
-144.531	469.395	-0.161	0.355
-143.516	417.767	0.148	-0.312
-142.502	81.234	0.107	0.114
-141.487	800.000	0.110	-0.442
-140.472	-200.000	-0.033	-0.329
-139.458	-200.000	0.020	-0.226
-138.443	800.000	0.079	0.331
-137.429	127.740	-0.226	-0.282
-136.414	66.452	-0.064	0.064
-135.399	380.869	-0.006	-0.012
-134.385	800.000	-0.053	0.189
-133.370	-50.919	-0.272	0.126
-132.356	67.223	-0.104	-0.104
-131.341	-75.214	-0.277	0.097
-130.326	-102.238	-0.257	0.061
-129.312	-88.630	-0.385	-0.113
-128.297	-200.000	-0.005	0.289
-127.283	800.000	-0.107	-0.292
-126.268	506.898	0.121	0.276
-125.253	-200.000	-0.025	0.391
-124.239	-98.469	0.265	-0.067
-123.224	800.000	-0.145	-0.407
-122.210	-65.614	0.115	-0.045
-121.195	-14.784	-0.065	0.041
