DTS Sentinel unit serial number:	SN413079Multiplexer serial number:	ORYXHardware model number:	OX4-SRSoftware version number:	ORYX F/W v4.00 Oryx Data Collector v3.7.2.0data status	okinstallation	princeton_trtdifferential loss correction	single-endedforward channel	channel 1reverse channel	N/Adate	2019/09/12time	13:48:11forward acquisition time	60.00reverse acquisition time	0.00gamma	496.2192k internal	0.2292k external	0.2292temperature offset calibration	1.0054default loss term (dB/km)	0.3790temperature slope calibration	1.0000multiplexer offset coefficient	1.0000multiplexer slope coefficient	1.0000fibre end	0.00T internal ref (°C)	40.94T ext. ref 1 (°C)	2.16T ext. ref 2 (°C)	35.41length (m)	temperature (°C)	Stokes	anti-Stokes-747.200	-94.464	-0.206	0.058
-746.185	-91.494	-0.286	0.083
-745.171	125.646	0.156	0.201
-744.156	-38.875	0.110	-0.059
-743.142	-200.000	-0.010	0.155
-742.127	-200.000	-0.003	-0.049
-741.112	397.584	0.059	0.126
-740.098	-200.000	0.004	0.357
-739.083	-200.000	0.012	0.331
-738.069	166.648	0.374	0.542
-737.054	-200.000	-0.050	0.318
-736.039	-11.569	-0.259	-0.174
-735.025	319.203	-0.039	-0.076
-734.010	-200.000	0.048	0.404
-732.996	-99.012	-0.092	-0.024
-731.981	-200.000	-0.035	-0.227
-730.966	105.012	0.253	0.306
-729.952	-200.000	0.005	-0.072
-728.937	323.357	0.059	-0.115
-727.923	-126.214	-0.145	0.022
-726.908	478.689	-0.006	0.015
-725.894	121.473	-0.178	0.227
-724.879	67.822	-0.164	-0.172
-723.864	195.570	0.151	-0.235
-722.850	-200.000	0.001	-0.170
-721.835	573.672	-0.043	-0.108
-720.821	800.000	-0.094	-0.364
-719.806	-140.363	0.076	-0.008
-718.791	285.456	0.091	-0.168
-717.777	-125.765	-0.312	0.048
-716.762	151.777	-0.055	-0.076
-715.748	-97.615	-0.127	0.034
-714.733	46.798	-0.146	0.139
-713.718	-0.839	0.131	-0.095
-712.704	800.000	0.019	-0.057
-711.689	-6.527	0.161	-0.112
-710.675	800.000	-0.067	0.246
-709.660	-113.213	-0.209	-0.042
-708.645	-200.000	-0.001	-0.147
-707.631	-53.846	0.275	-0.128
-706.616	-119.350	0.360	-0.064
-705.602	-123.398	-0.488	-0.080
-704.587	25.454	0.046	0.039
-703.572	-200.000	-0.003	-0.345
-702.558	-200.000	-0.030	0.334
-701.543	-151.051	-0.365	0.028
-700.529	-8.563	0.416	-0.285
-699.514	-10.695	0.062	0.042
-698.499	-200.000	0.029	-0.173
-697.485	-123.586	-0.176	0.029
-696.470	73.909	-0.080	-0.086
-695.456	363.294	0.085	0.174
-694.441	205.489	-0.107	0.170
-693.426	253.868	-0.135	0.235
-692.412	195.092	0.075	-0.117
-691.397	162.958	0.092	-0.133
-690.383	-200.000	0.026	0.160
-689.368	-157.179	-0.327	-0.020
-688.354	143.444	0.139	-0.190
-687.339	422.743	-0.045	0.098
-686.324	-119.075	-0.165	-0.030
-685.310	134.839	0.060	-0.079
-684.295	-38.962	0.255	0.137
-683.281	-200.000	0.027	0.150
-682.266	-200.000	0.046	-0.296
-681.251	142.682	-0.107	-0.145
-680.237	30.354	-0.242	0.211
-679.222	-184.843	-0.336	-0.005
-678.208	536.917	-0.054	0.130
-677.193	-200.000	0.030	-0.134
-676.178	266.610	-0.055	0.098
-675.164	-103.906	0.054	-0.013
-674.149	15.135	-0.276	-0.220
-673.135	-22.784	0.335	0.206
-672.120	-200.000	-0.057	0.503
-671.105	-200.000	-0.073	0.385
-670.091	8.681	-0.070	-0.054
-669.076	209.265	0.151	-0.241
-668.062	669.971	-0.105	-0.279
-667.047	401.418	-0.217	-0.465
-666.032	-200.000	-0.082	0.402
-665.018	-200.000	-0.019	0.155
-664.003	-88.845	0.050	-0.015
-662.989	-200.000	-0.001	0.092
-661.974	-29.380	-0.206	0.120
-660.959	-8.046	0.193	-0.133
-659.945	-200.000	0.089	-0.000
-658.930	55.914	0.110	0.109
-657.916	50.710	0.077	-0.074
-656.901	-200.000	0.001	0.107
-655.886	-200.000	-0.035	-0.175
-654.872	173.958	-0.076	0.112
-653.857	-200.000	0.016	0.140
-652.843	800.000	-0.025	0.110
-651.828	-149.665	-0.362	-0.029
-650.814	800.000	0.046	-0.156
-649.799	-200.000	0.019	-0.540
-648.784	800.000	0.021	-0.079
-647.770	78.126	0.149	0.162
-646.755	99.439	0.094	0.111
-645.741	-17.252	-0.319	-0.205
-644.726	47.623	-0.110	-0.105
-643.711	-49.856	-0.281	0.136
-642.697	800.000	-0.032	-0.106
-641.682	-37.368	-0.249	-0.136
-640.668	570.306	0.074	0.184
-639.653	-24.115	0.301	-0.183
-638.638	-84.997	-0.298	-0.095
-637.624	800.000	0.055	-0.189
-636.609	800.000	-0.066	-0.191
-635.595	-200.000	0.044	0.292
-634.580	-165.258	0.166	0.007
-633.565	190.899	0.092	-0.141
-632.551	109.633	0.163	-0.199
-631.536	-200.000	0.002	0.115
-630.522	-200.000	0.005	-0.135
-629.507	24.914	-0.181	-0.153
-628.492	-200.000	0.044	0.235
-627.478	-90.490	0.226	0.067
-626.463	-200.000	0.041	0.240
-625.449	-200.000	-0.001	-0.077
-624.434	24.538	0.235	-0.198
-623.419	625.094	-0.033	-0.086
-622.405	-144.031	0.204	0.019
-621.390	256.182	0.048	0.085
-620.376	-54.776	0.187	0.086
-619.361	-174.087	0.284	-0.008
-618.346	-103.343	0.211	-0.051
-617.332	152.744	0.122	-0.169
-616.317	-0.922	-0.158	-0.114
-615.303	-200.000	0.036	-0.172
-614.288	800.000	-0.074	0.295
-613.273	-38.955	-0.137	0.073
-612.259	-18.762	0.235	0.149
-611.244	-148.611	0.279	-0.023
-610.230	407.570	-0.046	-0.098
-609.215	-44.577	0.160	-0.081
-608.201	135.408	0.081	-0.107
-607.186	-200.000	0.011	0.136
-606.171	-200.000	0.017	-0.109
-605.157	-136.410	0.339	0.040
-604.142	-200.000	-0.002	0.263
-603.128	-178.662	0.153	0.004
-602.113	-77.640	-0.180	0.064
-601.098	10.249	-0.081	-0.062
-600.084	-200.000	0.052	-0.274
-599.069	306.732	-0.133	-0.252
-598.055	800.000	-0.035	-0.150
-597.040	800.000	-0.078	0.227
-596.025	-200.000	0.024	-0.151
-595.011	43.984	0.231	-0.215
-593.996	-123.303	-0.101	0.016
-592.982	-200.000	0.033	0.242
-591.967	3.345	-0.316	0.234
-590.952	300.993	0.013	0.024
-589.938	5.450	-0.229	-0.172
-588.923	-122.916	-0.235	0.039
-587.909	111.525	-0.114	-0.139
-586.894	664.784	0.104	0.274
-585.879	800.000	-0.076	0.257
-584.865	39.703	-0.150	-0.137
-583.850	-68.903	0.192	0.075
-582.836	198.696	-0.224	0.348
-581.821	-97.575	-0.236	0.062
-580.806	46.192	-0.152	0.144
-579.792	-5.846	0.176	-0.123
-578.777	29.789	0.168	0.146
-577.763	27.216	-0.168	-0.144
-576.748	-180.276	0.432	0.009
-575.733	638.820	-0.014	0.037
-574.719	-174.950	-0.334	0.010
-573.704	-200.000	0.041	0.467
-572.690	-11.702	0.116	-0.077
-571.675	16.072	0.103	0.082
-570.661	-105.838	0.080	-0.018
-569.646	-16.261	-0.313	-0.202
-568.631	800.000	-0.098	-0.337
-567.617	62.104	0.158	-0.160
-566.602	61.040	-0.110	0.111
-565.588	174.700	-0.143	-0.211
-564.573	-200.000	-0.026	0.134
-563.558	-62.848	-0.050	-0.021
-562.544	-124.435	-0.103	-0.016
-561.529	-200.000	-0.018	0.110
-560.515	718.128	-0.125	0.337
-559.500	-55.213	-0.096	0.044
-558.485	-131.261	-0.246	0.033
-557.471	800.000	-0.110	0.312
-556.456	482.713	0.026	0.060
-555.442	645.249	0.095	0.245
-554.427	800.000	-0.102	-0.326
-553.412	53.720	-0.017	0.016
-552.398	-50.174	0.166	-0.080
-551.383	-38.992	-0.266	-0.142
-550.369	-102.465	-0.063	-0.015
-549.354	-200.000	0.055	0.460
-548.339	56.083	-0.068	-0.067
-547.325	-127.627	-0.204	0.030
-546.310	-143.528	0.251	-0.024
-545.296	-139.231	0.187	0.021
-544.281	800.000	-0.005	0.021
-543.266	197.341	-0.097	0.151
-542.252	-189.404	0.238	0.003
-541.237	91.135	-0.140	-0.160
-540.223	-116.318	0.161	-0.030
-539.208	-18.372	0.033	-0.021
-538.193	-98.865	-0.206	0.053
-537.179	113.420	-0.219	0.269
-536.164	-200.000	0.016	-0.331
-535.150	-119.390	-0.304	0.054
-534.135	91.958	0.281	0.321
-533.121	-104.092	0.339	0.080
-532.106	386.948	0.111	0.232
-531.091	198.898	0.166	-0.259
-530.077	-50.312	0.329	0.158
-529.062	800.000	-0.073	-0.316
-528.048	157.030	-0.022	-0.030
-527.033	-200.000	-0.010	0.146
-526.018	-82.541	-0.301	0.099
-525.004	124.692	-0.094	0.120
-523.989	60.901	0.226	-0.228
-522.975	-200.000	-0.012	-0.164
-521.960	17.618	-0.159	-0.129
-520.945	-5.070	-0.137	0.095
-519.931	800.000	-0.074	0.229
-518.916	-32.851	-0.132	0.074
-517.902	168.502	0.238	-0.344
-516.887	-112.494	-0.668	0.135
-515.872	-40.203	0.149	0.079
-514.858	-109.847	-0.445	-0.095
-513.843	487.115	0.139	0.321
-512.829	-200.000	0.019	0.263
-511.814	47.026	0.049	-0.046
-510.799	46.521	-0.146	0.137
-509.785	263.658	0.067	-0.118
-508.770	178.712	0.105	-0.156
-507.756	-94.907	0.292	0.080
-506.741	130.556	-0.083	-0.107
-505.726	-78.323	-0.271	-0.094
-504.712	-144.905	-0.084	-0.008
-503.697	34.285	-0.315	0.279
-502.683	-79.822	-0.080	0.027
-501.668	459.608	0.037	0.084
-500.653	-200.000	0.033	-0.290
-499.639	5.780	-0.338	0.253
-498.624	800.000	0.039	-0.112
-497.610	-143.879	-0.020	-0.002
-496.595	-81.416	0.150	0.050
-495.581	-40.173	0.035	-0.019
-494.566	246.218	-0.038	0.064
-493.551	-103.644	0.238	0.057
-492.537	-87.737	0.151	0.046
-491.522	-200.000	0.022	0.196
-490.508	110.662	0.329	-0.401
-489.493	-24.982	0.123	0.074
-488.478	-161.035	0.213	0.011
-487.464	-88.375	0.168	-0.051
-486.449	100.781	-0.116	0.137
-485.435	-95.298	0.280	-0.076
-484.420	-130.398	0.220	0.030
-483.405	-200.000	-0.013	-0.107
-482.391	-1.923	0.218	0.155
-481.376	-27.070	-0.219	0.130
-480.362	-121.286	-0.144	0.024
-479.347	47.809	0.095	0.090
-478.332	-83.355	-0.128	-0.042
-477.318	698.414	-0.022	0.059
-476.303	-105.418	0.199	0.046
-475.289	-22.468	-0.113	-0.069
-474.274	-145.279	-0.227	-0.021
-473.259	51.175	-0.378	-0.363
-472.245	21.845	-0.230	-0.190
-471.230	-49.018	0.181	-0.088
-470.216	-1.620	0.051	-0.036
-469.201	-90.298	-0.300	-0.088
-468.186	-82.530	-0.222	-0.073
-467.172	-80.253	-0.181	0.061
-466.157	229.388	0.109	0.179
-465.143	800.000	-0.045	-0.148
-464.128	-161.084	0.124	0.007
-463.113	43.402	-0.231	-0.214
-462.099	-62.580	0.224	0.094
-461.084	-112.025	-0.101	-0.021
-460.070	-200.000	-0.012	0.181
-459.055	-57.669	0.116	0.052
-458.040	-165.631	0.197	0.009
-457.026	364.270	0.093	-0.189
-456.011	48.167	0.204	-0.193
-454.997	-200.000	0.027	-0.135
-453.982	20.331	-0.152	-0.124
-452.968	102.433	0.029	0.035
-451.953	-104.163	0.199	-0.047
-450.938	-140.882	0.234	-0.024
-449.924	-200.000	0.014	0.105
-448.909	87.288	-0.077	0.086
-447.895	800.000	-0.033	-0.100
-446.880	165.122	0.105	-0.149
-445.865	-200.000	0.023	0.191
-444.851	31.653	0.115	0.100
-443.836	-65.423	0.164	-0.067
-442.822	456.913	0.049	0.109
-441.807	-200.000	0.027	-0.223
-440.792	38.329	0.061	-0.055
-439.778	150.597	-0.092	0.126
-438.763	688.202	0.086	-0.227
-437.749	532.074	-0.043	-0.102
-436.734	-88.066	-0.234	0.071
-435.719	-20.652	0.210	-0.130
-434.705	-134.007	-0.250	0.031
-433.690	754.141	0.048	0.131
-432.676	-122.592	-0.270	0.044
-431.661	-96.402	-0.284	-0.076
-430.646	139.808	0.119	0.158
-429.632	-200.000	-0.039	-0.268
-428.617	252.469	-0.086	-0.149
-427.603	425.829	0.154	-0.335
-426.588	111.110	0.125	-0.152
-425.573	-35.758	0.198	-0.109
-424.559	-26.874	-0.242	0.143
-423.544	409.573	-0.086	0.185
-422.530	-62.861	-0.165	0.069
-421.515	-200.000	0.001	0.055
-420.500	662.412	0.118	-0.308
-419.486	-200.000	0.000	-0.054
-418.471	-200.000	0.001	-0.247
-417.457	193.927	-0.128	-0.196
-416.442	-24.998	-0.246	-0.147
-415.428	-138.788	0.279	0.031
-414.413	34.699	-0.171	-0.151
-413.398	30.392	-0.046	-0.040
-412.384	-28.720	0.151	-0.088
-411.369	-1.069	-0.042	0.030
-410.355	150.954	0.085	-0.117
-409.340	800.000	-0.100	0.386
-408.325	800.000	-0.083	0.265
-407.311	77.348	-0.131	-0.141
-406.296	-200.000	-0.019	-0.134
-405.282	-200.000	0.061	-0.407
-404.267	-169.432	-0.101	0.004
-403.252	64.991	0.153	-0.156
-402.238	18.857	-0.097	-0.078
-401.223	164.685	-0.081	-0.116
-400.209	-200.000	0.077	-0.498
-399.194	-200.000	0.006	-0.254
-398.179	-38.051	-0.170	-0.091
-397.165	271.819	-0.043	-0.077
-396.150	189.047	0.133	-0.201
-395.136	800.000	0.020	0.076
-394.121	111.648	-0.194	0.237
-393.106	109.137	0.040	-0.048
-392.092	31.399	0.124	0.107
-391.077	55.984	-0.230	0.226
-390.063	-200.000	0.016	-0.094
-389.048	-200.000	-0.036	0.310
-388.033	-30.195	0.365	0.209
-387.019	-200.000	-0.002	0.312
-386.004	172.095	-0.228	-0.330
-384.990	800.000	0.040	0.135
-383.975	-74.552	0.041	-0.015
-382.960	171.087	-0.150	0.217
-381.946	-49.609	-0.057	0.028
-380.931	-80.213	0.052	0.018
-379.917	-144.606	-0.067	-0.006
-378.902	38.717	0.342	0.308
-377.888	800.000	0.018	-0.072
-376.873	800.000	-0.076	-0.271
-375.858	299.964	0.128	-0.237
-374.844	-200.000	-0.019	0.258
-373.829	-56.624	-0.304	-0.136
-372.815	-107.457	-0.165	0.037
-371.800	60.930	-0.102	-0.102
-370.785	-86.485	0.296	0.092
-369.771	-65.648	-0.372	0.151
-368.756	402.520	0.085	0.181
-367.742	361.657	0.122	-0.247
-366.727	-21.958	-0.369	0.226
-365.712	-164.020	0.117	-0.005
-364.698	-103.079	0.243	-0.058
-363.683	30.591	0.161	0.139
-362.669	459.233	0.139	-0.312
-361.654	-129.655	-0.084	-0.012
-360.639	-200.000	0.002	-0.022
-359.625	-40.764	0.374	-0.195
-358.610	190.386	0.175	-0.265
-357.596	-200.000	-0.037	0.191
-356.581	231.141	0.275	-0.454
-355.566	109.422	0.170	-0.205
-354.552	-30.533	-0.176	-0.101
-353.537	-168.312	-0.302	0.012
-352.523	-91.406	-0.088	-0.025
-351.508	24.702	-0.046	0.038
-350.493	-40.733	0.089	-0.046
-349.479	-0.536	-0.073	-0.052
-348.464	29.603	0.261	0.224
-347.450	25.714	-0.372	-0.312
-346.435	-120.694	0.128	0.022
-345.420	-200.000	0.056	0.395
-344.406	191.898	-0.033	0.050
-343.391	-73.382	0.297	-0.110
-342.377	-200.000	-0.019	-0.277
-341.362	800.000	-0.135	-0.520
-340.348	102.488	0.192	-0.226
-339.333	-55.260	-0.159	-0.072
-338.318	-67.123	0.182	0.072
-337.304	681.631	-0.061	0.161
-336.289	68.355	-0.022	-0.023
-335.275	61.812	0.056	-0.056
-334.260	-35.680	-0.011	-0.006
-333.245	-200.000	-0.012	0.231
-332.231	-96.632	0.169	-0.045
-331.216	99.415	-0.268	0.312
-330.202	-121.601	-0.265	-0.044
-329.187	-84.647	0.360	0.114
-328.172	-1.521	0.063	0.045
-327.158	-107.740	-0.159	-0.035
-326.143	-200.000	0.014	-0.152
-325.129	-6.242	-0.146	-0.100
-324.114	-6.825	-0.213	-0.146
-323.099	-4.503	0.056	0.039
-322.085	-5.693	0.105	-0.072
-321.070	4.145	-0.141	0.104
-320.056	-96.713	-0.306	-0.081
-319.041	-132.175	0.415	0.054
-318.026	319.095	-0.213	0.407
-317.012	-11.066	0.178	0.118
-315.997	-200.000	0.013	0.349
-314.983	-200.000	-0.031	0.270
-313.968	-200.000	0.014	0.285
-312.953	800.000	0.038	0.108
-311.939	88.133	0.068	0.076
-310.924	-95.095	0.175	0.048
-309.910	253.671	0.083	0.143
-308.895	800.000	-0.066	-0.188
-307.880	-73.374	0.602	-0.221
-306.866	-27.728	-0.109	-0.063
-305.851	-99.641	0.367	0.093
-304.837	207.908	-0.114	0.179
-303.822	-90.554	0.221	-0.064
-302.807	-200.000	-0.032	-0.226
-301.793	-8.073	0.218	-0.148
-300.778	427.945	-0.079	0.171
-299.764	164.510	0.119	0.169
-298.749	111.355	0.276	-0.335
-297.735	-159.826	0.409	0.023
-296.720	-52.586	-0.255	-0.118
-295.705	-7.690	-0.243	-0.165
-294.691	-188.037	-0.127	0.002
-293.676	154.324	0.172	0.238
-292.662	800.000	0.023	0.083
-291.647	2.107	0.146	0.106
-290.632	-92.463	-0.066	0.019
-289.618	800.000	-0.059	0.171
-288.603	-36.816	-0.108	-0.058
-287.589	-200.000	0.070	0.388
-286.574	126.929	0.164	-0.209
-285.559	548.931	0.056	0.135
-284.545	-58.291	0.470	0.205
-283.530	-75.531	0.238	0.085
-282.516	718.095	-0.094	0.251
-281.501	-125.249	-0.256	0.039
-280.486	148.903	0.163	0.222
-279.472	314.419	0.012	0.023
-278.457	-85.882	-0.392	0.122
-277.443	127.689	-0.222	-0.284
-276.428	238.368	-0.060	-0.100
-275.413	-129.883	-0.131	-0.018
-274.399	73.722	-0.008	0.008
-273.384	-52.340	-0.295	-0.137
-272.370	-134.806	0.067	-0.008
-271.355	133.917	-0.181	0.235
-270.340	-94.929	0.066	-0.018
-269.326	265.539	-0.076	-0.134
-268.311	-22.672	0.419	0.254
-267.297	-67.086	-0.292	0.116
-266.282	419.883	-0.182	0.391
-265.267	-140.650	-0.499	-0.052
-264.253	-200.000	-0.006	-0.210
-263.238	182.406	0.205	-0.303
-262.224	-0.504	-0.152	0.108
-261.209	-90.626	0.546	0.158
-260.195	483.084	0.039	-0.088
-259.180	-200.000	-0.043	0.223
-258.165	-173.012	-0.197	0.006
-257.151	-200.000	-0.001	0.085
-256.136	-60.909	-0.356	0.151
-255.122	387.734	-0.128	0.266
-254.107	-195.319	-0.058	-0.000
-253.092	-135.470	0.328	0.039
-252.078	29.788	-0.281	0.240
-251.063	-136.450	0.238	-0.028
-250.049	258.574	-0.234	0.405
-249.034	-124.578	-0.205	-0.032
-248.019	-172.260	0.124	-0.004
-247.005	-181.532	-0.214	0.004
-245.990	18.160	-0.288	0.231
-244.976	-200.000	-0.035	-0.198
-243.961	-200.000	0.002	0.079
-242.946	63.137	0.179	-0.180
-241.932	18.920	-0.216	0.174
-240.917	131.062	-0.164	-0.211
-239.903	32.498	0.180	-0.156
-238.888	307.414	0.151	0.283
-237.873	185.611	0.130	-0.194
-236.859	-26.790	0.091	0.053
-235.844	-166.355	0.211	-0.009
-234.830	-0.906	0.220	-0.156
-233.815	634.640	0.097	0.246
-232.800	227.012	-0.105	0.171
-231.786	-200.000	-0.012	0.105
-230.771	800.000	-0.113	-0.487
-229.757	42.842	-0.092	-0.084
-228.742	800.000	0.106	0.324
-227.727	-200.000	0.023	-0.168
-226.713	141.356	-0.249	-0.331
-225.698	-0.452	0.264	0.188
-224.684	652.340	0.027	0.068
-223.669	-128.496	-0.357	-0.051
-222.655	-61.534	0.141	-0.059
-221.640	800.000	-0.085	-0.237
-220.625	800.000	0.064	0.274
-219.611	-200.000	0.031	0.232
-218.596	-18.131	-0.156	-0.098
-217.582	330.213	0.056	-0.109
-216.567	168.028	0.238	-0.339
-215.552	800.000	-0.083	-0.261
-214.538	-86.123	-0.255	0.079
-213.523	355.821	0.086	-0.173
-212.509	-110.523	0.217	-0.045
-211.494	-118.655	-0.148	-0.026
-210.479	95.742	-0.207	-0.236
-209.465	-200.000	0.024	0.226
-208.450	-142.284	-0.084	-0.008
-207.436	18.357	0.144	0.115
-206.421	117.512	-0.035	-0.043
-205.406	397.618	-0.146	-0.306
-204.392	-137.833	0.106	0.012
-203.377	24.018	0.208	0.172
-202.363	157.133	-0.206	0.285
-201.348	-200.000	0.013	-0.151
-200.333	90.922	-0.275	-0.309
-199.319	141.643	-0.037	-0.049
-198.304	-37.700	0.235	0.125
-197.290	-200.000	-0.009	0.316
-196.275	-141.195	-0.201	0.021
-195.260	606.408	0.058	0.144
-194.246	800.000	-0.073	0.226
-193.231	-73.610	0.185	0.067
-192.217	-130.496	-0.195	0.026
-191.202	167.998	-0.068	0.097
-190.187	-39.162	-0.198	0.104
-189.173	130.004	0.180	0.231
-188.158	-128.879	-0.283	-0.040
-187.144	-72.768	0.095	-0.035
-186.129	317.919	0.101	-0.192
-185.114	27.718	0.161	0.136
-184.100	47.687	-0.075	-0.070
-183.085	-71.627	0.083	0.031
-182.071	-51.382	0.071	0.033
-181.056	800.000	0.045	-0.183
-180.042	47.003	0.126	-0.117
-179.027	800.000	0.036	-0.140
-178.012	73.290	0.041	0.043
-176.998	-164.856	0.155	-0.007
-175.983	567.950	0.051	0.123
-174.969	-113.680	-0.017	-0.003
-173.954	-0.953	-0.252	0.179
-172.939	-200.000	-0.026	0.465
-171.925	245.948	0.131	0.221
-170.910	-126.750	0.167	0.025
-169.896	800.000	0.104	-0.442
-168.881	-200.000	0.009	-0.096
-167.866	-200.000	0.061	-0.422
-166.852	-100.077	-0.119	0.030
-165.837	-51.618	0.455	-0.213
-164.823	-200.000	-0.008	0.252
-163.808	210.268	-0.261	-0.409
-162.793	800.000	-0.102	-0.320
-161.779	-61.453	-0.359	0.151
-160.764	-120.729	0.146	-0.025
-159.750	-163.597	0.195	0.009
-158.735	399.736	0.041	-0.085
-157.720	114.314	0.384	0.468
-156.706	-81.704	-0.242	0.079
-155.691	82.273	-0.245	0.266
-154.677	-16.884	0.205	0.130
-153.662	-145.155	-0.172	0.016
-152.647	-174.170	0.188	-0.005
-151.633	-200.000	-0.004	-0.171
-150.618	157.559	-0.180	0.249
-149.604	-200.000	-0.024	0.190
-148.589	100.151	0.072	-0.083
-147.574	800.000	0.016	0.051
-146.560	-70.197	-0.150	0.057
-145.545	-35.702	-0.285	0.155
-144.531	-200.000	-0.069	0.331
-143.516	125.945	0.104	0.131
-142.502	242.347	-0.167	0.280
-141.487	800.000	-0.053	-0.209
-140.472	-55.072	-0.152	0.068
-139.458	-200.000	0.055	0.272
-138.443	438.142	0.094	-0.206
-137.429	-200.000	-0.027	-0.308
-136.414	-160.226	0.132	0.007
-135.399	-44.831	-0.341	-0.170
-134.385	-122.643	0.294	0.048
-133.370	651.930	0.107	-0.275
-132.356	-200.000	0.036	-0.294
-131.341	-56.059	0.075	0.034
-130.326	-39.856	-0.059	-0.031
-129.312	564.270	0.164	-0.397
-128.297	210.931	0.179	0.282
-127.283	-200.000	0.023	0.156
-126.268	-115.852	0.196	0.037
-125.253	231.021	-0.141	0.231
-124.239	120.635	-0.139	0.172
-123.224	3.106	-0.064	-0.047
-122.210	-9.017	0.156	0.105
