DTS Sentinel unit serial number:	SN413079Multiplexer serial number:	ORYXHardware model number:	OX4-SRSoftware version number:	ORYX F/W v4.00 Oryx Data Collector v3.7.2.0data status	okinstallation	princeton_trtdifferential loss correction	single-endedforward channel	channel 1reverse channel	N/Adate	2019/09/19time	15:46:35forward acquisition time	60.00reverse acquisition time	0.00gamma	496.2192k internal	0.2305k external	0.2305temperature offset calibration	1.0028default loss term (dB/km)	0.3790temperature slope calibration	1.0000multiplexer offset coefficient	1.0000multiplexer slope coefficient	1.0000fibre end	0.00T internal ref (°C)	34.86T ext. ref 1 (°C)	1.20T ext. ref 2 (°C)	33.43length (m)	temperature (°C)	Stokes	anti-Stokes-747.200	191.027	-0.218	0.335
-746.185	262.155	-0.016	0.028
-745.171	-68.646	-0.277	-0.109
-744.156	-190.297	-0.178	-0.002
-743.142	-189.199	0.233	0.003
-742.127	800.000	0.075	0.270
-741.112	62.166	0.155	-0.157
-740.098	172.886	0.166	0.244
-739.083	-81.839	0.069	0.023
-738.069	800.000	-0.052	0.161
-737.054	-171.909	0.282	-0.009
-736.039	30.283	-0.106	0.092
-735.025	-57.937	0.338	-0.150
-734.010	212.639	-0.079	-0.128
-732.996	767.419	-0.110	-0.304
-731.981	263.512	-0.169	-0.298
-730.966	-200.000	-0.018	-0.232
-729.952	-98.259	0.104	-0.027
-728.937	99.866	0.107	-0.126
-727.923	-5.785	-0.306	-0.213
-726.908	800.000	-0.029	0.117
-725.894	-25.790	0.212	-0.127
-724.879	-200.000	0.003	0.054
-723.864	800.000	-0.052	-0.211
-722.850	-200.000	0.015	-0.084
-721.835	-87.106	-0.111	0.034
-720.821	44.752	-0.193	-0.180
-719.806	-200.000	0.002	-0.125
-718.791	-95.253	0.352	0.096
-717.777	165.105	-0.185	-0.265
-716.762	34.999	-0.215	0.191
-715.748	-38.007	-0.076	0.041
-714.733	-87.144	0.195	0.060
-713.718	129.230	0.080	0.104
-712.704	-46.490	-0.254	0.127
-711.689	68.859	0.074	0.078
-710.675	187.411	-0.038	0.058
-709.660	-10.923	0.232	0.156
-708.645	-146.840	0.086	0.008
-707.631	-38.991	0.200	-0.107
-706.616	-28.950	-0.321	0.187
-705.602	800.000	-0.122	0.405
-704.587	-153.337	0.134	-0.009
-703.572	-200.000	-0.023	-0.255
-702.558	316.426	-0.027	0.052
-701.543	-110.382	-0.218	-0.046
-700.529	-63.526	0.059	0.025
-699.514	-111.209	0.145	-0.030
-698.499	-144.305	0.127	-0.012
-697.485	228.811	-0.099	0.163
-696.470	-79.061	-0.237	0.082
-695.456	197.517	0.121	-0.188
-694.441	33.142	-0.189	0.167
-693.426	52.737	0.235	-0.228
-692.412	-200.000	0.011	-0.181
-691.397	341.579	0.140	-0.277
-690.383	-200.000	-0.079	-0.521
-689.368	-200.000	-0.082	-0.678
-688.354	-71.761	0.220	-0.083
-687.339	-82.136	-0.086	0.028
-686.324	-200.000	0.001	-0.111
-685.310	0.506	0.065	-0.047
-684.295	-131.450	0.061	0.008
-683.281	800.000	-0.052	0.203
-682.266	-51.418	-0.213	0.101
-681.251	-68.268	0.350	0.138
-680.237	-19.365	-0.233	0.147
-679.222	-7.232	0.265	-0.183
-678.208	431.170	-0.042	0.092
-677.193	-106.277	-0.144	-0.033
-676.178	-43.735	-0.241	0.123
-675.164	800.000	0.121	-0.427
-674.149	-130.705	0.191	0.026
-673.135	-150.468	-0.390	-0.030
-672.120	581.939	-0.057	-0.142
-671.105	-72.376	-0.177	0.067
-670.091	800.000	-0.055	-0.210
-669.076	101.737	-0.112	-0.133
-668.062	-50.304	-0.270	0.129
-667.047	-57.013	-0.177	-0.079
-666.032	-37.187	-0.239	-0.130
-665.018	-200.000	0.057	-0.299
-664.003	800.000	0.052	0.223
-662.989	155.512	0.099	-0.138
-661.974	315.771	-0.034	-0.065
-660.959	-137.231	-0.058	-0.007
-659.945	-151.750	0.314	0.023
-658.930	65.985	0.291	-0.300
-657.916	-200.000	0.006	-0.186
-656.901	38.321	-0.115	0.104
-655.886	293.792	-0.121	0.225
-654.872	17.312	0.074	-0.060
-653.857	100.225	0.116	-0.136
-652.843	-180.831	0.127	0.003
-651.828	800.000	0.094	-0.360
-650.814	800.000	0.075	0.292
-649.799	186.610	-0.092	0.139
-648.784	46.036	0.235	-0.221
-647.770	-102.351	-0.168	0.041
-646.755	-81.950	-0.252	-0.084
-645.741	120.580	-0.253	0.319
-644.726	-200.000	0.000	-0.171
-643.711	-2.524	0.258	0.183
-642.697	-107.092	0.054	0.012
-641.682	-90.350	0.224	0.066
-640.668	-108.999	0.318	-0.069
-639.653	65.792	-0.169	-0.174
-638.638	-93.554	0.191	0.054
-637.624	-23.247	-0.099	0.060
-636.609	281.100	-0.144	0.261
-635.595	-103.984	0.079	0.019
-634.580	-35.853	-0.477	-0.262
-633.565	-172.474	-0.213	0.007
-632.551	736.196	-0.101	0.275
-631.536	-97.600	-0.222	0.058
-630.522	800.000	-0.073	0.255
-629.507	-61.808	-0.186	0.079
-628.492	-57.152	0.271	-0.121
-627.478	-88.664	0.037	-0.011
-626.463	205.687	-0.193	-0.304
-625.449	177.364	-0.129	-0.190
-624.434	2.604	-0.239	-0.176
-623.419	-9.597	-0.024	0.016
-622.405	-65.252	0.197	-0.080
-621.390	-126.958	-0.285	-0.042
-620.376	-200.000	0.014	0.282
-619.361	147.685	-0.054	0.074
-618.346	255.675	0.150	0.260
-617.332	47.766	0.169	0.160
-616.317	13.129	-0.133	-0.105
-615.303	-114.683	-0.160	-0.031
-614.288	-58.699	0.208	0.091
-613.273	-118.269	-0.079	0.014
-612.259	-200.000	0.006	0.079
-611.244	800.000	0.116	-0.438
-610.230	-75.190	-0.507	-0.183
-609.215	302.777	0.147	-0.275
-608.201	800.000	-0.060	-0.182
-607.186	-200.000	0.022	-0.141
-606.171	-64.290	0.220	0.091
-605.157	115.152	-0.150	-0.185
-604.142	220.220	-0.086	0.140
-603.128	-12.787	-0.060	0.040
-602.113	-200.000	0.008	0.044
-601.098	-200.000	0.042	-0.235
-600.084	-119.538	-0.435	-0.076
-599.069	54.109	-0.245	-0.239
-598.055	24.006	-0.140	0.117
-597.040	227.694	-0.028	0.045
-596.025	-48.182	0.076	-0.037
-595.011	-200.000	0.040	-0.267
-593.996	23.422	0.278	-0.231
-592.982	800.000	-0.078	0.263
-591.967	-66.181	-0.162	-0.065
-590.952	-105.738	0.077	0.018
-589.938	-57.402	0.264	0.117
-588.923	-68.252	0.128	-0.050
-587.909	547.729	-0.098	0.238
-586.894	-20.538	0.240	0.149
-585.879	-81.010	-0.041	0.014
-584.865	163.236	-0.123	-0.174
-583.850	-126.739	-0.203	0.030
-582.836	-168.061	-0.324	-0.013
-581.821	-200.000	0.026	-0.303
-580.806	-200.000	0.040	-0.192
-579.792	-129.300	-0.213	0.030
-578.777	-70.110	-0.286	0.110
-577.763	-200.000	-0.036	-0.234
-576.748	390.896	-0.023	0.048
-575.733	-161.748	0.258	-0.013
-574.719	-122.463	0.467	0.077
-573.704	282.629	0.162	-0.294
-572.690	191.704	-0.367	-0.559
-571.675	119.990	0.083	0.104
-570.661	9.827	-0.121	-0.093
-569.646	800.000	-0.149	-0.441
-568.631	13.126	0.168	0.132
-567.617	-139.857	-0.331	-0.035
-566.602	179.953	-0.094	-0.139
-565.588	-128.657	-0.380	-0.054
-564.573	-92.208	-0.080	0.023
-563.558	-57.156	-0.238	-0.106
-562.544	-200.000	0.024	-0.136
-561.529	-110.339	-0.250	-0.053
-560.515	800.000	0.071	0.313
-559.500	-200.000	-0.041	-0.196
-558.485	334.619	-0.123	0.241
-557.471	46.061	0.131	-0.123
-556.456	800.000	-0.098	-0.395
-555.442	800.000	0.109	-0.305
-554.427	399.829	0.117	-0.248
-553.412	297.136	-0.092	-0.171
-552.398	382.757	0.049	0.103
-551.383	-173.459	-0.396	-0.012
-550.369	-57.381	0.320	-0.142
-549.354	506.909	-0.052	0.122
-548.339	-136.678	-0.224	0.026
-547.325	800.000	-0.103	0.299
-546.310	90.333	-0.020	-0.022
-545.296	272.492	-0.078	-0.139
-544.281	70.963	0.221	0.231
-543.266	-200.000	-0.011	0.161
-542.252	243.646	0.090	0.152
-541.237	800.000	-0.081	0.299
-540.223	179.048	-0.268	0.396
-539.208	373.143	0.152	-0.312
-538.193	800.000	-0.035	-0.148
-537.179	-44.480	0.193	-0.098
-536.164	-125.605	-0.331	-0.051
-535.150	17.193	0.136	0.109
-534.135	81.469	0.121	-0.133
-533.121	800.000	-0.053	-0.202
-532.106	491.682	-0.060	0.138
-531.091	-112.872	-0.393	0.079
-530.077	-70.547	0.101	0.038
-529.062	-200.000	-0.064	0.349
-528.048	209.243	0.147	0.233
-527.033	127.308	0.309	0.396
-526.018	-200.000	0.012	0.224
-525.004	4.299	-0.449	0.332
-523.989	184.165	0.017	-0.026
-522.975	-200.000	-0.004	-0.224
-521.960	258.740	-0.131	-0.228
-520.945	59.076	-0.222	0.220
-519.931	-91.358	-0.103	0.030
-518.916	800.000	-0.069	-0.208
-517.902	68.596	0.093	-0.096
-516.887	-5.624	0.230	-0.159
-515.872	415.254	0.115	-0.247
-514.858	18.468	0.148	0.119
-513.843	280.528	0.046	-0.084
-512.829	-79.886	0.131	0.044
-511.814	95.461	-0.162	0.187
-510.799	133.012	0.081	0.105
-509.785	228.480	0.023	-0.037
-508.770	800.000	-0.094	-0.288
-507.756	23.491	-0.169	-0.140
-506.741	58.123	-0.220	0.217
-505.726	-200.000	-0.023	0.147
-504.712	3.938	-0.057	0.042
-503.697	94.492	-0.147	-0.168
-502.683	-200.000	-0.010	-0.093
-501.668	-43.389	-0.194	0.099
-500.653	8.405	-0.066	-0.050
-499.639	-145.606	-0.206	0.019
-498.624	-20.220	0.006	0.004
-497.610	-200.000	0.038	-0.234
-496.595	-1.702	-0.223	-0.158
-495.581	800.000	-0.068	0.292
-494.566	148.473	0.109	0.148
-493.551	311.671	-0.169	-0.319
-492.537	80.973	0.369	-0.401
-491.522	-114.672	-0.128	0.025
-490.508	-112.838	0.133	0.027
-489.493	-200.000	0.005	0.075
-488.478	55.802	-0.114	0.112
-487.464	-78.698	-0.129	0.045
-486.449	105.363	0.226	0.269
-485.435	112.159	-0.089	-0.109
-484.420	363.160	-0.048	0.097
-483.405	-178.895	0.163	-0.004
-482.391	-200.000	-0.008	0.335
-481.376	3.458	-0.153	0.112
-480.362	-162.449	-0.124	0.006
-479.347	-200.000	-0.024	-0.150
-478.332	-200.000	-0.013	0.092
-477.318	9.332	-0.120	0.092
-476.303	-128.847	-0.045	-0.006
-475.289	-48.311	-0.195	0.095
-474.274	800.000	-0.060	-0.216
-473.259	800.000	0.046	0.161
-472.245	-107.757	0.203	0.045
-471.230	-24.510	0.332	0.199
-470.216	-11.980	-0.052	0.034
-469.201	-9.072	0.170	-0.115
-468.186	-144.438	-0.115	-0.011
-467.172	44.738	0.207	-0.192
-466.157	166.945	0.100	-0.142
-465.143	7.638	-0.122	0.092
-464.128	-3.960	0.074	-0.052
-463.113	800.000	-0.111	-0.317
-462.099	800.000	0.036	0.141
-461.084	-34.124	-0.059	0.033
-460.070	13.178	0.219	0.171
-459.055	655.919	0.038	-0.098
-458.040	-200.000	-0.009	-0.047
-457.026	800.000	-0.077	0.266
-456.011	-185.425	-0.324	0.005
-454.997	800.000	-0.015	0.053
-453.982	247.231	0.072	-0.122
-452.968	77.922	0.118	-0.127
-451.953	46.734	-0.316	-0.295
-450.938	35.791	0.318	-0.281
-449.924	780.998	0.075	0.206
-448.909	23.370	0.116	-0.096
-447.895	800.000	-0.089	0.269
-446.880	513.120	0.130	-0.305
-445.865	148.882	0.291	-0.396
-444.851	-44.674	0.251	-0.126
-443.836	107.600	0.257	-0.308
-442.822	-110.706	-0.131	0.027
-441.807	107.062	-0.198	-0.237
-440.792	472.291	-0.110	-0.249
-439.778	3.214	0.096	0.070
-438.763	-79.816	0.155	0.052
-437.749	102.683	0.238	0.281
-436.734	-0.210	0.268	-0.192
-435.719	-44.429	-0.210	-0.106
-434.705	-200.000	0.013	-0.097
-433.690	275.927	0.134	-0.238
-432.676	-73.389	0.168	-0.062
-431.661	800.000	-0.090	0.274
-430.646	800.000	0.050	0.212
-429.632	-163.993	0.160	-0.007
-428.617	70.918	0.046	0.048
-427.603	-23.350	0.142	-0.086
-426.588	-131.926	0.242	-0.032
-425.573	800.000	0.085	-0.245
-424.559	313.531	-0.059	0.112
-423.544	800.000	-0.023	-0.069
-422.530	-72.329	-0.128	-0.047
-421.515	80.461	-0.173	0.188
-420.500	272.479	0.032	0.056
-419.486	-76.497	-0.270	-0.095
-418.471	-46.609	0.152	-0.075
-417.457	106.716	-0.139	-0.166
-416.442	-155.048	-0.117	-0.008
-415.428	131.928	0.199	-0.258
-414.413	800.000	-0.075	0.278
-413.398	22.540	0.171	0.141
-412.384	86.189	-0.180	-0.199
-411.369	337.187	-0.128	0.251
-410.355	-200.000	-0.004	-0.255
-409.340	-107.920	0.089	-0.020
-408.325	-200.000	0.047	0.270
-407.311	85.253	-0.187	-0.206
-406.296	163.226	-0.199	0.282
-405.282	291.984	0.160	-0.292
-404.267	-61.371	0.442	0.187
-403.252	191.144	-0.174	-0.264
-402.238	-33.828	-0.281	0.156
-401.223	2.158	0.107	0.078
-400.209	-200.000	-0.030	0.371
-399.194	108.409	-0.028	-0.033
-398.179	31.727	0.122	0.106
-397.165	800.000	-0.082	0.350
-396.150	800.000	-0.029	0.115
-395.136	22.146	-0.164	0.135
-394.121	337.795	-0.046	0.090
-393.106	800.000	0.045	-0.144
-392.092	-95.991	-0.367	-0.098
-391.077	-148.619	0.159	-0.013
-390.063	-33.687	0.062	-0.034
-389.048	266.433	-0.074	-0.130
-388.033	-200.000	0.055	-0.339
-387.019	-15.001	0.158	0.101
-386.004	-91.111	-0.338	0.097
-384.990	-177.668	-0.150	0.004
-383.975	234.933	0.040	0.066
-382.960	-2.300	-0.206	0.145
-381.946	-135.769	0.080	-0.009
-380.931	11.242	0.067	0.052
-379.917	-200.000	0.009	-0.100
-378.902	161.993	0.240	-0.338
-377.888	-128.978	0.326	-0.046
-376.873	-50.922	-0.306	0.144
-375.858	-99.307	-0.072	-0.018
-374.844	260.324	0.094	-0.163
-373.829	-64.909	-0.054	-0.022
-372.815	15.342	0.111	0.087
-371.800	641.654	-0.132	-0.336
-370.785	-99.609	-0.005	-0.001
-369.771	-115.787	-0.157	0.029
-368.756	-200.000	0.046	0.297
-367.742	-175.436	0.033	0.001
-366.727	-37.693	-0.121	0.065
-365.712	174.032	0.183	-0.265
-364.698	-9.178	-0.377	0.253
-363.683	-103.793	0.109	0.026
-362.669	-92.563	0.192	-0.054
-361.654	-61.346	0.089	-0.037
-360.639	-200.000	0.034	0.175
-359.625	373.787	0.062	0.126
-358.610	-22.385	0.128	0.078
-357.596	79.817	-0.211	0.227
-356.581	281.952	-0.015	-0.027
-355.566	174.802	-0.054	-0.078
-354.552	512.286	0.031	-0.073
-353.537	-200.000	-0.003	-0.064
-352.523	250.702	-0.201	-0.342
-351.508	-2.181	-0.306	-0.215
-350.493	79.090	0.155	0.167
-349.479	111.154	0.049	0.060
-348.464	-196.402	-0.121	0.001
-347.450	9.333	0.156	0.118
-346.435	129.613	-0.214	0.274
-345.420	17.820	0.409	0.326
-344.406	-115.988	0.143	0.027
-343.391	114.755	-0.176	0.214
-342.377	120.430	0.108	0.135
-341.362	-182.024	-0.321	-0.006
-340.348	-19.315	0.235	0.146
-339.333	-95.174	0.116	-0.031
-338.318	-130.703	-0.477	-0.064
-337.304	100.931	-0.058	0.067
-336.289	499.102	-0.081	-0.186
-335.275	221.000	-0.000	0.000
-334.260	321.462	-0.030	-0.058
-333.245	-0.856	0.128	-0.091
-332.231	-134.615	-0.196	0.024
-331.216	195.911	0.153	0.234
-330.202	-60.621	0.331	0.141
-329.187	162.238	-0.095	0.134
-328.172	-128.507	0.112	0.016
-327.158	-26.366	-0.217	0.127
-326.143	54.171	-0.101	0.097
-325.129	-103.332	0.527	-0.125
-324.114	25.267	0.087	-0.072
-323.099	-1.210	0.326	-0.231
-322.085	211.198	-0.134	0.211
-321.070	780.984	0.105	0.286
-320.056	-111.357	0.256	-0.052
-319.041	99.061	-0.163	-0.189
-318.026	-70.585	0.147	-0.056
-317.012	-29.775	0.142	-0.081
-315.997	86.944	0.147	-0.163
-314.983	162.396	-0.194	0.272
-313.968	-120.776	0.252	0.043
-312.953	208.678	0.094	0.148
-311.939	-200.000	0.015	0.261
-310.924	258.465	0.113	0.195
-309.910	-200.000	0.014	0.284
-308.895	-35.608	-0.229	0.124
-307.880	-3.797	-0.213	0.148
-306.866	-84.926	-0.263	-0.083
-305.851	349.350	-0.068	0.134
-304.837	800.000	0.045	0.190
-303.822	-113.095	0.340	0.067
-302.807	-52.034	-0.197	-0.092
-301.793	-70.219	0.131	-0.050
-300.778	-200.000	0.047	0.285
-299.764	-200.000	0.020	0.087
-298.749	-122.915	-0.211	-0.034
-297.735	123.700	-0.082	0.103
-296.720	49.204	0.248	0.233
-295.705	800.000	0.131	0.436
-294.691	-62.381	-0.268	0.111
-293.676	800.000	0.048	-0.154
-292.662	-200.000	-0.041	0.199
-291.647	-106.919	0.272	-0.060
-290.632	127.255	0.078	-0.099
-289.618	313.025	-0.035	0.065
-288.603	354.047	-0.240	-0.476
-287.589	-200.000	-0.030	-0.372
-286.574	22.448	0.101	0.083
-285.559	-64.657	0.065	0.026
-284.545	748.910	0.190	0.513
-283.530	-141.697	-0.209	-0.021
-282.516	-111.367	0.037	0.008
-281.501	-105.107	-0.324	0.074
-280.486	-72.907	0.185	0.068
-279.472	33.815	0.341	-0.296
-278.457	248.776	0.020	-0.034
-277.443	61.191	0.203	0.201
-276.428	-120.791	0.467	-0.079
-275.413	-200.000	0.039	-0.265
-274.399	130.030	0.087	0.111
-273.384	-6.824	0.264	-0.180
-272.370	-77.616	0.132	0.046
-271.355	-21.961	0.261	-0.159
-270.340	-200.000	-0.039	0.220
-269.326	193.241	-0.069	0.105
-268.311	-190.243	0.135	0.001
-267.297	522.182	-0.083	-0.194
-266.282	-64.717	0.190	-0.077
-265.267	-59.179	0.254	0.109
-264.253	-80.128	0.139	-0.046
-263.238	55.481	0.139	0.134
-262.224	-66.214	0.305	0.121
-261.209	-130.150	-0.106	-0.014
-260.195	-27.043	-0.374	0.218
-259.180	-200.000	0.012	-0.146
-258.165	800.000	0.071	0.204
-257.151	25.102	0.299	-0.248
-256.136	-80.695	0.440	0.146
-255.122	-56.471	-0.343	-0.152
-254.107	199.959	0.051	0.079
-253.092	71.945	0.161	-0.167
-252.078	-200.000	0.037	-0.548
-251.063	-7.478	-0.013	-0.009
-250.049	-200.000	-0.030	0.163
-249.034	111.555	-0.031	0.038
-248.019	228.389	0.198	-0.322
-247.005	-45.075	0.275	-0.137
-245.990	-50.947	-0.111	0.052
-244.976	-44.161	-0.067	0.033
-243.961	-200.000	0.015	-0.188
-242.946	14.329	0.099	0.077
-241.932	105.985	-0.186	0.220
-240.917	85.664	-0.262	0.288
-239.903	131.730	0.044	0.057
-238.888	-38.099	-0.201	0.106
-237.873	304.855	-0.132	-0.244
-236.859	31.333	-0.414	-0.355
-235.844	-200.000	-0.028	-0.193
-234.830	44.118	-0.112	-0.102
-233.815	-104.296	0.158	0.037
-232.800	360.396	-0.079	-0.158
-231.786	131.242	-0.166	-0.213
-230.771	-174.906	-0.226	0.006
-229.757	-2.065	-0.205	-0.144
-228.742	24.553	0.061	-0.050
-227.727	-200.000	-0.002	0.205
-226.713	13.127	-0.136	-0.105
-225.698	467.719	0.110	0.245
-224.684	-9.143	0.121	-0.081
-223.669	-200.000	-0.011	0.063
-222.655	-200.000	0.032	0.293
-221.640	412.808	-0.154	-0.327
-220.625	53.793	0.071	-0.068
-219.611	-4.186	0.338	-0.233
-218.596	-200.000	-0.074	-0.367
-217.582	800.000	0.050	0.201
-216.567	375.308	-0.095	0.193
-215.552	-200.000	0.020	-0.092
-214.538	130.203	-0.161	-0.205
-213.523	-9.565	0.140	-0.093
-212.509	25.431	0.271	-0.224
-211.494	-26.286	-0.309	-0.181
-210.479	-200.000	-0.042	0.523
-209.465	59.617	-0.201	0.198
-208.450	-152.206	0.295	0.021
-207.436	14.125	0.207	-0.161
-206.421	-47.149	0.226	-0.110
-205.406	60.096	0.170	0.168
-204.392	800.000	-0.102	0.344
-203.377	-33.909	0.218	0.119
-202.363	12.769	-0.295	-0.227
-201.348	-200.000	-0.029	0.194
-200.333	-184.210	0.319	-0.005
-199.319	47.753	0.157	0.146
-198.304	15.446	0.100	-0.078
-197.290	800.000	0.108	0.312
-196.275	-88.483	0.187	-0.055
-195.260	53.118	-0.038	0.036
-194.246	-69.313	0.103	0.039
-193.231	800.000	0.048	-0.156
-192.217	142.260	0.280	0.370
-191.202	34.373	-0.100	0.087
-190.187	3.521	0.213	0.155
-189.173	-200.000	0.053	-0.309
-188.158	13.914	0.120	-0.093
-187.144	-200.000	-0.010	-0.141
-186.129	174.948	-0.037	0.053
-185.114	-29.740	0.427	-0.243
-184.100	800.000	-0.166	0.575
-183.085	210.605	0.153	0.240
-182.071	41.034	0.043	0.038
-181.056	-145.893	-0.492	-0.043
-180.042	83.818	-0.023	0.025
-179.027	-200.000	0.009	0.168
-178.012	-107.778	-0.461	-0.100
-176.998	800.000	0.021	-0.082
-175.983	26.610	0.322	0.268
-174.969	124.779	-0.097	-0.121
-173.954	254.067	0.120	0.204
-172.939	800.000	0.043	0.139
-171.925	-200.000	0.051	0.382
-170.910	-200.000	-0.004	-0.055
-169.896	-200.000	-0.042	-0.376
-168.881	800.000	0.096	-0.331
-167.866	571.302	-0.037	-0.089
-166.852	-200.000	-0.058	-0.362
-165.837	226.475	0.086	0.139
-164.823	-200.000	-0.065	0.451
-163.808	-200.000	0.052	0.332
-162.793	159.155	0.021	0.029
-161.779	306.810	0.101	-0.186
-160.764	-200.000	0.011	-0.262
-159.750	-54.267	-0.175	0.079
-158.735	-200.000	0.025	0.212
-157.720	-200.000	0.011	0.085
-156.706	65.083	-0.152	-0.153
-155.691	744.638	0.086	0.230
-154.677	0.902	-0.140	-0.100
-153.662	-200.000	-0.037	-0.368
-152.647	270.537	0.053	0.092
-151.633	-162.935	0.241	-0.012
-150.618	-46.729	-0.135	0.066
-149.604	800.000	0.028	-0.088
-148.589	19.653	0.273	-0.219
-147.574	-118.130	0.113	0.020
-146.560	690.477	0.076	0.199
-145.545	-42.509	0.180	-0.091
-144.531	35.776	-0.303	0.265
-143.516	4.825	0.142	0.104
-142.502	68.764	0.122	0.125
-141.487	-49.121	-0.152	0.072
-140.472	800.000	0.091	-0.282
-139.458	-197.663	-0.157	-0.001
-138.443	434.781	0.049	-0.105
-137.429	-25.924	-0.187	-0.109
-136.414	-111.225	-0.264	0.054
-135.399	-61.689	-0.288	0.120
-134.385	8.052	-0.291	-0.217
-133.370	56.088	-0.126	-0.121
-132.356	-33.371	0.171	-0.094
-131.341	33.657	-0.055	-0.047
-130.326	245.625	-0.205	0.343
-129.312	-200.000	0.023	-0.332
-128.297	242.191	0.116	0.192
-127.283	45.083	-0.145	0.133
-126.268	-144.261	-0.103	0.009
-125.253	-200.000	-0.015	0.517
-124.239	800.000	-0.048	-0.201
-123.224	800.000	0.067	0.205
-122.210	5.852	-0.158	0.116
-121.195	111.217	0.023	-0.028
-120.180	-200.000	-0.037	0.325
-119.166	-40.546	0.232	-0.119
