DTS Sentinel unit serial number:	SN413079Multiplexer serial number:	ORYXHardware model number:	OX4-SRSoftware version number:	ORYX F/W v4.00 Oryx Data Collector v3.7.2.0data status	okinstallation	princeton_trtdifferential loss correction	single-endedforward channel	channel 1reverse channel	N/Adate	2019/09/13time	16:26:35forward acquisition time	60.00reverse acquisition time	0.00gamma	496.2192k internal	0.2303k external	0.2303temperature offset calibration	1.0161default loss term (dB/km)	0.3790temperature slope calibration	1.0000multiplexer offset coefficient	1.0000multiplexer slope coefficient	1.0000fibre end	0.00T internal ref (°C)	35.02T ext. ref 1 (°C)	4.87T ext. ref 2 (°C)	30.97length (m)	temperature (°C)	Stokes	anti-Stokes-747.200	800.000	0.131	0.457
-746.185	-67.098	0.194	0.078
-745.171	753.918	-0.151	0.417
-744.156	-42.318	-0.610	0.317
-743.142	588.205	0.060	-0.150
-742.127	29.963	-0.226	0.197
-741.112	-46.692	-0.342	0.171
-740.098	118.289	0.089	0.112
-739.083	-115.970	0.037	0.007
-738.069	-200.000	-0.052	0.292
-737.054	10.293	0.073	-0.056
-736.039	15.678	-0.218	-0.175
-735.025	-200.000	-0.005	0.344
-734.010	55.863	-0.148	-0.146
-732.996	-135.418	-0.238	-0.029
-731.981	12.084	0.251	0.197
-730.966	-74.405	0.305	-0.112
-729.952	-125.332	-0.112	-0.017
-728.937	229.829	0.095	0.158
-727.923	-65.458	-0.275	0.112
-726.908	223.407	-0.108	0.177
-725.894	-73.433	0.158	0.059
-724.879	222.721	0.113	-0.186
-723.864	-46.179	-0.296	-0.148
-722.850	-108.619	-0.352	0.077
-721.835	-84.245	-0.453	0.146
-720.821	-69.532	-0.062	0.024
-719.806	171.153	-0.059	-0.086
-718.791	153.199	-0.060	-0.084
-717.777	129.852	0.049	-0.063
-716.762	800.000	-0.014	-0.053
-715.748	228.482	0.082	0.135
-714.733	-200.000	-0.004	0.021
-713.718	121.401	-0.194	0.246
-712.704	-200.000	-0.026	-0.255
-711.689	-35.387	-0.487	-0.269
-710.675	-81.819	-0.091	0.030
-709.660	499.426	-0.024	-0.056
-708.645	-148.287	-0.259	-0.022
-707.631	-19.896	0.195	0.123
-706.616	3.104	0.303	-0.224
-705.602	218.470	0.122	-0.198
-704.587	8.641	0.196	0.150
-703.572	-128.768	-0.115	-0.016
-702.558	-167.806	-0.029	0.001
-701.543	154.961	0.089	-0.124
-700.529	310.645	-0.221	0.420
-699.514	-17.956	-0.063	-0.040
-698.499	-53.753	0.111	0.051
-697.485	120.009	0.119	-0.150
-696.470	-18.769	-0.105	-0.066
-695.456	44.332	0.028	0.026
-694.441	-200.000	-0.072	-0.342
-693.426	-104.309	0.335	0.079
-692.412	262.018	-0.097	0.171
-691.397	-11.497	-0.189	0.127
-690.383	-132.455	-0.129	0.017
-689.368	-4.389	-0.384	-0.270
-688.354	-62.846	0.197	-0.083
-687.339	-47.913	-0.209	0.103
-686.324	207.633	-0.022	-0.035
-685.310	100.114	0.171	0.201
-684.295	800.000	0.029	0.090
-683.281	-200.000	0.005	0.144
-682.266	427.106	-0.098	0.215
-681.251	14.593	0.103	0.082
-680.237	800.000	0.016	0.069
-679.222	-200.000	-0.006	0.046
-678.208	598.895	0.050	0.127
-677.193	-3.417	0.240	0.170
-676.178	461.495	0.129	0.293
-675.164	-22.205	-0.056	0.035
-674.149	3.708	0.211	-0.156
-673.135	-161.925	0.187	-0.010
-672.120	80.111	0.193	0.211
-671.105	-51.947	-0.211	0.099
-670.091	16.362	-0.053	0.043
-669.076	19.334	-0.018	-0.015
-668.062	-102.670	-0.088	-0.021
-667.047	800.000	0.013	0.054
-666.032	-41.947	-0.111	-0.058
-665.018	-175.349	-0.222	-0.006
-664.003	-49.716	-0.392	-0.189
-662.989	-44.902	-0.202	0.102
-661.974	800.000	0.036	-0.120
-660.959	34.682	-0.166	0.148
-659.945	6.471	0.179	0.135
-658.930	800.000	-0.081	-0.286
-657.916	14.618	0.057	-0.046
-656.901	-33.176	0.427	-0.240
-655.886	-109.062	-0.144	-0.031
-654.872	-200.000	0.009	0.146
-653.857	152.214	0.100	-0.139
-652.843	-115.709	0.162	0.031
-651.828	154.681	-0.066	0.092
-650.814	-60.120	0.161	0.070
-649.799	58.246	0.268	-0.267
-648.784	-99.268	-0.207	0.053
-647.770	-200.000	0.017	-0.112
-646.755	800.000	0.035	0.104
-645.741	-4.564	-0.314	-0.220
-644.726	55.015	-0.127	0.124
-643.711	161.747	-0.305	0.433
-642.697	-42.150	0.337	0.175
-641.682	423.054	0.113	-0.246
-640.668	-141.252	0.204	-0.021
-639.653	788.892	0.018	-0.049
-638.638	-200.000	-0.049	0.310
-637.624	-123.305	-0.179	-0.029
-636.609	-200.000	-0.032	-0.262
-635.595	-99.975	-0.147	-0.037
-634.580	210.955	0.050	-0.080
-633.565	-76.346	-0.191	0.068
-632.551	-200.000	0.001	-0.241
-631.536	-200.000	0.018	0.125
-630.522	-26.866	-0.277	-0.164
-629.507	245.226	-0.068	-0.116
-628.492	206.722	0.095	0.150
-627.478	-149.413	0.249	-0.020
-626.463	-20.478	0.137	-0.085
-625.449	-40.900	-0.151	0.079
-624.434	18.303	0.236	0.191
-623.419	-101.594	0.219	-0.054
-622.405	800.000	0.062	-0.177
-621.390	734.050	0.037	-0.101
-620.376	-60.101	-0.170	-0.074
-619.361	-70.439	-0.290	0.111
-618.346	-200.000	0.027	0.572
-617.332	-96.574	-0.206	-0.055
-616.317	400.713	0.049	0.104
-615.303	517.859	0.165	0.391
-614.288	141.974	-0.207	-0.279
-613.273	-200.000	-0.007	-0.138
-612.259	318.772	-0.089	-0.171
-611.244	205.509	-0.062	-0.098
-610.230	100.627	-0.109	-0.129
-609.215	184.614	0.064	-0.096
-608.201	-77.941	-0.149	0.052
-607.186	-135.377	-0.075	0.009
-606.171	-67.840	-0.237	-0.094
-605.157	-167.874	-0.309	0.012
-604.142	-14.457	0.401	0.262
-603.128	-200.000	-0.031	-0.219
-602.113	-61.812	0.419	0.178
-601.098	65.575	-0.294	0.302
-600.084	227.852	0.181	0.298
-599.069	-91.975	0.200	-0.057
-598.055	-200.000	-0.018	-0.547
-597.040	-200.000	-0.057	-0.305
-596.025	155.715	-0.140	0.196
-595.011	0.962	0.222	0.161
-593.996	-200.000	-0.005	0.157
-592.982	-200.000	0.003	0.225
-591.967	-75.874	-0.273	-0.098
-590.952	52.508	-0.102	0.099
-589.938	245.123	-0.108	-0.185
-588.923	-200.000	-0.039	0.196
-587.909	438.360	0.143	-0.316
-586.894	62.372	-0.126	-0.127
-585.879	-32.458	-0.042	0.024
-584.865	90.691	0.079	0.090
-583.850	-58.473	-0.066	0.029
-582.836	77.757	0.211	-0.228
-581.821	78.945	0.200	-0.217
-580.806	8.343	-0.163	0.124
-579.792	17.550	0.131	-0.105
-578.777	5.187	-0.302	-0.225
-577.763	244.876	0.157	0.267
-576.748	-34.601	0.143	-0.079
-575.733	800.000	-0.059	-0.212
-574.719	299.659	0.030	0.056
-573.704	-130.207	-0.138	0.019
-572.690	800.000	0.033	-0.127
-571.675	698.126	0.093	-0.247
-570.661	-127.410	-0.193	-0.028
-569.646	15.410	-0.358	-0.284
-568.631	-138.175	0.144	-0.016
-567.617	87.495	-0.112	-0.125
-566.602	358.594	0.138	0.279
-565.588	85.932	0.158	0.176
-564.573	121.889	-0.166	0.209
-563.558	-200.000	0.055	0.274
-562.544	800.000	0.076	-0.278
-561.529	-20.388	0.196	-0.122
-560.515	-200.000	-0.007	0.263
-559.500	700.478	0.027	0.073
-558.485	-172.100	0.232	-0.008
-557.471	-173.278	0.319	0.010
-556.456	651.364	-0.073	0.190
-555.442	-200.000	0.058	0.270
-554.427	-32.796	0.229	-0.129
-553.412	-92.728	-0.326	-0.092
-552.398	-200.000	-0.025	-0.248
-551.383	-200.000	-0.010	0.086
-550.369	28.631	-0.303	-0.259
-549.354	52.252	-0.086	0.083
-548.339	-85.709	-0.208	0.065
-547.325	554.981	0.045	-0.109
-546.310	-122.573	0.141	-0.023
-545.296	103.539	0.103	0.122
-544.281	638.534	0.077	0.198
-543.266	800.000	-0.034	0.112
-542.252	169.352	-0.378	0.546
-541.237	701.628	0.056	0.150
-540.223	-14.204	-0.317	-0.206
-539.208	215.596	0.159	-0.254
-538.193	799.698	0.029	0.080
-537.179	-200.000	-0.048	0.279
-536.164	800.000	-0.024	-0.091
-535.150	-200.000	0.057	0.372
-534.135	-96.446	0.077	-0.020
-533.121	156.639	0.162	0.226
-532.106	800.000	0.070	0.267
-531.091	-200.000	0.060	-0.268
-530.077	-200.000	0.001	-0.463
-529.062	116.719	0.069	-0.085
-528.048	36.374	0.098	0.088
-527.033	173.895	-0.273	0.398
-526.018	92.373	-0.137	-0.156
-525.004	21.877	0.003	0.002
-523.989	128.013	-0.218	-0.280
-522.975	-41.002	-0.163	-0.085
-521.960	-200.000	0.048	-0.217
-520.945	466.936	0.036	0.083
-519.931	240.874	0.054	-0.092
-518.916	-120.332	0.227	-0.039
-517.902	297.121	-0.097	0.179
-516.887	-200.000	-0.014	-0.111
-515.872	8.532	-0.254	-0.193
-514.858	77.947	0.106	-0.115
-513.843	-200.000	-0.041	-0.259
-512.829	7.803	-0.077	-0.058
-511.814	497.314	-0.052	0.122
-510.799	800.000	0.080	-0.232
-509.785	-200.000	-0.063	0.384
-508.770	800.000	-0.056	0.168
-507.756	-80.643	0.086	0.029
-506.741	22.017	0.091	-0.075
-505.726	-43.932	-0.092	-0.047
-504.712	650.915	-0.078	-0.202
-503.697	-200.000	0.019	-0.250
-502.683	-200.000	0.049	-0.368
-501.668	569.270	0.049	-0.120
-500.653	59.874	-0.121	0.121
-499.639	-65.190	0.196	-0.080
-498.624	359.312	-0.105	-0.211
-497.610	-109.773	0.267	-0.057
-496.595	-151.878	-0.061	0.004
-495.581	199.338	-0.041	-0.064
-494.566	-200.000	0.028	0.263
-493.551	672.096	-0.147	0.384
-492.537	-70.692	-0.186	0.071
-491.522	78.526	-0.149	-0.161
-490.508	335.701	0.034	-0.066
-489.493	-200.000	0.014	-0.085
-488.478	-200.000	0.009	0.385
-487.464	488.056	0.058	0.133
-486.449	-200.000	-0.061	0.346
-485.435	11.325	-0.199	0.153
-484.420	800.000	-0.020	0.087
-483.405	-102.580	0.047	0.011
-482.391	-200.000	-0.018	0.218
-481.376	151.761	-0.141	0.193
-480.362	91.204	-0.087	-0.099
-479.347	-79.914	-0.059	-0.020
-478.332	-180.623	-0.112	-0.002
-477.318	13.223	-0.043	0.034
-476.303	132.090	0.157	-0.203
-475.289	-110.765	0.165	0.034
-474.274	23.428	-0.156	0.129
-473.259	-200.000	0.055	0.321
-472.245	-174.941	-0.233	0.007
-471.230	-132.648	0.203	0.026
-470.216	119.743	0.113	-0.141
-469.201	-161.839	0.235	-0.012
-468.186	-131.445	-0.439	0.058
-467.172	-22.326	-0.186	0.114
-466.157	-14.673	-0.439	-0.284
-465.143	169.804	-0.097	-0.140
-464.128	388.441	-0.105	-0.218
-463.113	91.284	0.261	-0.295
-462.099	-75.863	0.277	0.099
-461.084	-78.708	-0.188	-0.065
-460.070	-9.796	-0.139	0.093
-459.055	-29.232	-0.318	0.184
-458.040	8.681	0.139	-0.106
-457.026	-81.301	0.262	0.087
-456.011	-36.218	-0.391	0.212
-454.997	-74.809	-0.257	0.093
-453.982	16.972	-0.392	0.313
-452.968	-200.000	-0.021	0.250
-451.953	800.000	-0.075	0.257
-450.938	-200.000	-0.002	-0.043
-449.924	-200.000	0.024	-0.177
-448.909	-110.077	0.089	-0.019
-447.895	104.964	-0.074	0.088
-446.880	-76.515	-0.348	-0.123
-445.865	-112.480	-0.147	0.030
-444.851	-115.573	0.134	-0.025
-443.836	-200.000	-0.002	0.211
-442.822	61.123	0.052	-0.052
-441.807	-57.595	0.072	0.032
-440.792	800.000	0.045	-0.135
-439.778	-36.862	-0.183	-0.099
-438.763	196.461	0.152	0.233
-437.749	44.017	-0.144	0.133
-436.734	338.065	-0.070	0.138
-435.719	-44.453	-0.226	-0.114
-434.705	-49.837	0.200	0.096
-433.690	-200.000	-0.068	-0.383
-432.676	535.809	-0.081	-0.194
-431.661	-108.356	-0.249	-0.054
-430.646	-20.882	-0.016	-0.010
-429.632	-164.342	-0.199	-0.009
-428.617	-200.000	0.003	-0.171
-427.603	-200.000	-0.008	-0.096
-426.588	-200.000	0.014	-0.082
-425.573	-119.643	0.343	0.060
-424.559	-200.000	-0.011	-0.098
-423.544	17.182	0.098	0.078
-422.530	67.654	-0.429	-0.441
-421.515	-200.000	0.053	0.313
-420.500	-21.877	-0.274	0.167
-419.486	92.311	0.047	0.053
-418.471	-200.000	-0.034	0.181
-417.457	191.060	0.145	-0.220
-416.442	-84.008	0.039	-0.013
-415.428	-190.861	0.318	-0.003
-414.413	-126.256	0.266	-0.040
-413.398	72.461	0.216	0.226
-412.384	182.364	0.223	0.330
-411.369	800.000	-0.063	-0.214
-410.355	-125.224	0.307	-0.047
-409.340	345.910	0.141	0.279
-408.325	41.948	-0.105	0.095
-407.311	198.829	-0.131	-0.202
-406.296	-173.737	-0.090	-0.003
-405.282	71.989	0.080	-0.084
-404.267	-85.469	0.114	0.036
-403.252	-97.264	-0.118	0.031
-402.238	431.169	0.130	-0.284
-401.223	-200.000	0.030	-0.212
-400.209	430.708	0.141	-0.307
-399.194	206.187	-0.096	-0.150
-398.179	120.164	0.250	0.311
-397.165	21.965	0.140	0.115
-396.150	309.321	-0.128	0.240
-395.136	84.745	-0.167	-0.184
-394.121	159.395	-0.235	0.328
-393.106	11.259	-0.154	0.119
-392.092	-61.962	0.142	0.060
-391.077	-40.930	0.154	0.080
-390.063	800.000	0.016	-0.063
-389.048	800.000	-0.049	-0.197
-388.033	521.728	-0.114	-0.268
-387.019	89.097	-0.234	-0.262
-386.004	161.287	-0.056	0.079
-384.990	18.681	0.081	0.065
-383.975	126.567	-0.148	0.189
-382.960	-200.000	-0.002	0.220
-381.946	139.810	-0.033	0.043
-380.931	800.000	0.042	-0.126
-379.917	-200.000	0.076	0.389
-378.902	-10.671	0.150	0.099
-377.888	23.400	-0.229	-0.189
-376.873	-126.673	0.347	-0.052
-375.858	-200.000	-0.063	-0.316
-374.844	48.433	-0.088	-0.083
-373.829	-96.560	0.068	0.018
-372.815	-109.208	0.093	0.020
-371.800	71.878	-0.065	-0.068
-370.785	372.886	-0.078	-0.158
-369.771	198.184	-0.092	0.141
-368.756	-43.380	-0.300	-0.152
-367.742	-143.653	0.137	0.013
-366.727	5.830	-0.248	-0.184
-365.712	-82.901	-0.431	-0.140
-364.698	-91.373	-0.371	-0.106
-363.683	-200.000	0.069	-0.334
-362.669	118.563	-0.004	-0.005
-361.654	-200.000	-0.014	-0.102
-360.639	87.322	0.090	-0.100
-359.625	223.992	0.116	0.189
-358.610	-7.647	0.125	-0.085
-357.596	328.841	0.077	0.149
-356.581	800.000	0.032	0.096
-355.566	800.000	0.079	0.266
-354.552	505.320	-0.072	0.168
-353.537	-200.000	0.035	0.223
-352.523	-200.000	-0.012	0.100
-351.508	-140.279	0.262	-0.027
-350.493	-137.726	0.092	-0.010
-349.479	-72.560	-0.117	0.043
-348.464	-3.641	-0.124	-0.087
-347.450	-113.466	-0.215	-0.042
-346.435	58.003	-0.087	-0.086
-345.420	-54.384	0.159	-0.072
-344.406	-200.000	0.037	0.277
-343.391	100.590	-0.169	0.197
-342.377	-47.077	0.224	0.110
-341.362	-21.169	0.143	-0.088
-340.348	120.383	0.171	-0.212
-339.333	85.755	0.344	-0.380
-338.318	-144.822	-0.225	0.021
-337.304	-200.000	0.016	0.275
-336.289	-200.000	-0.021	0.231
-335.275	-200.000	0.014	-0.181
-334.260	-200.000	-0.008	-0.071
-333.245	-200.000	0.037	-0.328
-332.231	-57.318	0.287	-0.127
-331.216	115.361	0.040	-0.049
-330.202	-100.905	-0.172	0.042
-329.187	-137.735	-0.038	0.004
-328.172	-0.764	0.102	-0.073
-327.158	-9.449	0.064	-0.043
-326.143	331.871	-0.167	-0.324
-325.129	-69.676	0.184	0.070
-324.114	7.806	0.268	0.201
-323.099	149.951	-0.159	0.216
-322.085	32.947	-0.131	-0.114
-321.070	-200.000	-0.016	0.281
-320.056	5.617	-0.211	-0.156
-319.041	19.895	0.111	0.090
-318.026	39.342	-0.126	-0.113
-317.012	-53.533	-0.196	0.090
-315.997	800.000	0.040	0.173
-314.983	437.010	0.069	-0.150
-313.968	800.000	0.072	0.223
-312.953	-200.000	-0.060	-0.286
-311.939	34.599	0.199	-0.174
-310.924	209.905	-0.157	-0.247
-309.910	142.790	-0.197	0.262
-308.895	797.862	0.025	0.068
-307.880	-43.917	0.332	-0.167
-306.866	124.726	0.015	-0.019
-305.851	156.394	-0.104	0.144
-304.837	-25.386	0.106	-0.063
-303.822	800.000	0.030	-0.103
-302.807	23.982	-0.318	0.262
-301.793	85.052	-0.212	0.233
-300.778	800.000	0.010	0.030
-299.764	-200.000	0.009	-0.232
-298.749	-140.543	0.107	0.011
-297.735	800.000	-0.030	0.118
-296.720	484.373	0.120	0.274
-295.705	15.809	0.202	0.159
-294.691	-25.322	0.184	0.109
-293.676	-200.000	0.020	0.129
-292.662	94.556	0.174	-0.197
-291.647	800.000	-0.021	0.077
-290.632	514.824	0.224	-0.524
-289.618	588.897	0.103	0.255
-288.603	-53.978	0.160	0.073
-287.589	-83.268	-0.199	-0.064
-286.574	25.746	-0.193	-0.161
-285.559	-11.220	0.032	0.021
-284.545	-200.000	0.039	0.551
-283.530	-200.000	-0.040	-0.295
-282.516	-200.000	0.021	0.275
-281.501	-2.905	-0.204	-0.142
-280.486	-200.000	-0.014	-0.187
-279.472	113.455	0.229	0.279
-278.457	7.332	-0.334	-0.250
-277.443	-200.000	0.048	0.290
-276.428	800.000	-0.048	0.148
-275.413	339.107	-0.124	-0.241
-274.399	800.000	0.129	-0.458
-273.384	28.358	-0.144	0.121
-272.370	-37.858	0.174	0.092
-271.355	-94.494	0.277	0.076
-270.340	-161.807	0.470	0.024
-269.326	795.120	0.041	-0.112
-268.311	800.000	0.105	0.421
-267.297	-61.743	0.178	0.075
-266.282	219.373	-0.177	-0.283
-265.267	-133.970	-0.222	0.027
-264.253	104.791	0.208	0.246
-263.238	156.011	0.118	-0.163
-262.224	247.694	0.238	0.402
-261.209	128.597	0.135	0.172
-260.195	-103.929	0.195	-0.046
-259.180	41.684	0.107	-0.097
-258.165	451.594	0.089	-0.196
-257.151	360.071	-0.140	-0.280
-256.136	-88.856	0.369	-0.110
-255.122	-150.041	0.217	-0.017
-254.107	800.000	-0.055	0.235
-253.092	-114.366	0.262	0.050
-252.078	-117.169	-0.406	0.074
-251.063	668.982	-0.063	-0.162
-250.049	-107.802	0.186	-0.041
-249.034	-113.428	0.285	-0.056
-248.019	-47.000	-0.184	0.090
-247.005	235.203	0.043	0.071
-245.990	239.835	0.096	0.161
-244.976	800.000	0.124	0.372
-243.961	530.128	-0.076	0.179
-242.946	319.384	-0.056	-0.106
-241.932	-200.000	0.001	-0.206
-240.917	800.000	0.019	-0.059
-239.903	-68.138	0.334	0.130
-238.888	-200.000	0.009	-0.110
-237.873	800.000	0.131	0.418
-236.859	-97.436	0.179	0.047
-235.844	-200.000	0.031	-0.153
-234.830	-200.000	0.046	-0.279
-233.815	71.214	0.111	0.115
-232.800	-200.000	0.020	0.278
-231.786	-200.000	-0.064	0.527
-230.771	-132.048	0.255	-0.033
-229.757	214.717	-0.333	-0.527
-228.742	-200.000	-0.004	0.332
-227.727	449.395	0.125	0.275
-226.713	-200.000	-0.014	-0.153
-225.698	-24.243	-0.182	-0.109
-224.684	-160.053	0.358	0.019
-223.669	91.398	0.029	-0.033
-222.655	602.935	-0.195	0.483
-221.640	15.561	0.051	0.040
-220.625	-23.468	0.183	-0.109
-219.611	-200.000	-0.016	-0.137
-218.596	355.069	-0.154	-0.306
-217.582	160.515	-0.196	-0.273
-216.567	692.745	-0.048	-0.126
-215.552	98.718	0.153	-0.176
-214.538	108.638	-0.263	0.313
-213.523	-21.152	0.107	-0.065
-212.509	-69.192	0.294	0.113
-211.494	-70.574	0.310	0.117
-210.479	350.657	-0.115	-0.226
-209.465	800.000	0.062	-0.179
-208.450	192.840	-0.187	-0.281
-207.436	58.871	0.108	-0.106
-206.421	-187.580	-0.131	-0.002
-205.406	-92.392	-0.332	-0.093
-204.392	18.150	-0.255	-0.203
-203.377	-200.000	-0.028	-0.125
-202.363	5.997	0.172	0.127
-201.348	800.000	0.051	0.181
-200.333	-200.000	-0.029	0.138
-199.319	-81.908	-0.066	-0.022
-198.304	-97.885	0.155	0.040
-197.290	38.310	0.331	0.294
-196.275	-125.607	-0.130	-0.020
-195.260	34.069	0.258	-0.224
-194.246	100.045	-0.182	0.210
-193.231	65.266	0.089	-0.090
-192.217	-36.524	-0.149	-0.080
-191.202	87.582	-0.113	-0.125
-190.187	46.718	0.333	0.309
-189.173	408.443	0.218	0.460
-188.158	-200.000	0.005	-0.039
-187.144	-200.000	0.048	-0.258
-186.129	-200.000	-0.032	0.143
-185.114	61.561	0.076	0.076
-184.100	-124.701	-0.062	-0.010
-183.085	-22.743	-0.261	0.157
-182.071	-44.301	-0.076	0.038
-181.056	-20.896	0.141	-0.086
-180.042	134.000	-0.090	-0.116
-179.027	206.021	0.153	0.237
-178.012	54.416	0.119	-0.114
-176.998	-78.796	0.016	-0.006
-175.983	-10.475	0.330	0.218
-174.969	14.704	0.028	-0.022
-173.954	55.808	-0.099	0.096
-172.939	-125.886	-0.153	-0.023
-171.925	-96.670	0.244	-0.064
-170.910	69.975	-0.108	-0.111
-169.896	-83.374	0.237	-0.076
-168.881	18.055	-0.175	-0.139
-167.866	-25.512	-0.103	-0.060
-166.852	2.148	-0.105	0.075
-165.837	165.003	0.106	0.149
-164.823	-61.128	0.094	0.040
-163.808	67.234	-0.243	-0.246
-162.793	800.000	-0.080	-0.268
-161.779	-106.295	0.325	-0.073
-160.764	-200.000	-0.028	-0.414
-159.750	42.785	0.213	-0.193
-158.735	800.000	0.072	-0.232
-157.720	457.499	0.073	0.162
-156.706	262.306	0.121	0.210
-155.691	-73.279	0.160	0.058
-154.677	-200.000	-0.026	0.288
-153.662	480.719	-0.233	-0.527
-152.647	80.227	-0.351	-0.376
-151.633	151.229	-0.186	-0.252
-150.618	-14.234	-0.213	0.137
-149.604	-78.064	0.218	-0.075
-148.589	45.921	0.242	-0.223
-147.574	214.157	0.052	0.083
-146.560	-79.555	-0.163	0.055
-145.545	800.000	-0.044	-0.142
-144.531	-71.733	0.249	0.092
-143.516	-169.313	-0.104	-0.004
-142.502	23.156	-0.143	0.116
-141.487	172.891	-0.205	-0.293
-140.472	0.553	0.545	0.388
-139.458	-200.000	0.019	0.156
-138.443	-200.000	-0.013	0.212
-137.429	-143.998	0.271	-0.025
-136.414	-142.094	-0.165	-0.016
-135.399	785.832	-0.045	-0.122
-134.385	-200.000	0.027	0.136
-133.370	114.143	0.152	0.184
-132.356	800.000	0.053	0.161
-131.341	48.481	0.398	0.371
-130.326	67.692	0.098	0.099
-129.312	27.052	0.108	0.090
-128.297	800.000	0.060	-0.187
-127.283	171.804	0.075	-0.107
-126.268	-158.237	0.386	0.022
-125.253	800.000	-0.091	0.302
-124.239	83.100	0.050	-0.055
-123.224	-200.000	-0.014	-0.312
-122.210	-92.222	-0.166	0.047
-121.195	-200.000	-0.050	0.326
-120.180	78.074	-0.240	0.255
