DTS Sentinel unit serial number:	SN413079Multiplexer serial number:	ORYXHardware model number:	OX4-SRSoftware version number:	ORYX F/W v4.00 Oryx Data Collector v3.7.2.0data status	okinstallation	princeton_trtdifferential loss correction	single-endedforward channel	channel 1reverse channel	N/Adate	2019/09/17time	09:46:35forward acquisition time	60.00reverse acquisition time	0.00gamma	496.2192k internal	0.2323k external	0.2323temperature offset calibration	0.9960default loss term (dB/km)	0.3790temperature slope calibration	1.0000multiplexer offset coefficient	1.0000multiplexer slope coefficient	1.0000fibre end	0.00T internal ref (°C)	29.39T ext. ref 1 (°C)	0.14T ext. ref 2 (°C)	25.37length (m)	temperature (°C)	Stokes	anti-Stokes-747.200	-116.483	0.351	0.065
-746.185	-200.000	-0.021	0.455
-745.171	-43.001	-0.433	-0.222
-744.156	-23.541	-0.319	0.194
-743.142	-91.745	-0.148	-0.043
-742.127	478.411	0.078	0.177
-741.112	123.288	-0.129	0.163
-740.098	-154.753	0.265	0.018
-739.083	800.000	0.084	0.275
-738.069	800.000	0.064	0.275
-737.054	312.849	-0.117	-0.221
-736.039	-57.865	-0.171	-0.075
-735.025	-175.336	0.121	0.003
-734.010	-200.000	0.021	-0.193
-732.996	-11.197	-0.284	-0.189
-731.981	-115.207	-0.266	-0.051
-730.966	800.000	-0.063	0.191
-729.952	-24.791	0.159	0.095
-728.937	-12.299	0.079	0.052
-727.923	-200.000	-0.024	-0.111
-726.908	74.047	0.206	0.218
-725.894	265.639	-0.199	-0.350
-724.879	-156.528	0.278	-0.017
-723.864	800.000	-0.044	0.184
-722.850	-200.000	0.035	0.242
-721.835	800.000	0.070	-0.221
-720.821	-96.217	-0.225	0.060
-719.806	86.679	-0.223	0.248
-718.791	66.914	-0.088	0.090
-717.777	183.095	0.099	-0.147
-716.762	800.000	0.029	-0.084
-715.748	800.000	0.041	-0.148
-714.733	-200.000	-0.013	0.133
-713.718	-152.989	-0.402	0.029
-712.704	143.448	-0.178	-0.239
-711.689	59.889	0.208	-0.207
-710.675	-6.155	-0.145	-0.100
-709.660	31.645	-0.319	0.277
-708.645	-15.148	0.256	-0.165
-707.631	38.882	0.231	-0.208
-706.616	-50.791	-0.073	-0.035
-705.602	85.590	-0.299	-0.331
-704.587	-77.492	-0.148	-0.052
-703.572	254.811	-0.109	-0.188
-702.558	28.760	-0.339	0.289
-701.543	-200.000	-0.013	-0.102
-700.529	320.769	0.087	-0.167
-699.514	-128.984	-0.161	0.023
-698.499	-89.710	0.186	-0.055
-697.485	10.859	-0.197	-0.152
-696.470	-200.000	0.032	-0.184
-695.456	-108.421	0.154	0.033
-694.441	-200.000	-0.025	-0.158
-693.426	-39.629	-0.249	-0.131
-692.412	-63.532	-0.275	-0.114
-691.397	525.107	0.094	-0.223
-690.383	-123.246	-0.259	0.042
-689.368	705.502	-0.037	0.098
-688.354	-127.291	0.294	-0.043
-687.339	599.034	-0.139	-0.348
-686.324	-120.173	-0.198	0.034
-685.310	-200.000	-0.039	0.326
-684.295	-73.401	0.236	-0.087
-683.281	45.174	-0.340	0.315
-682.266	-200.000	0.013	-0.273
-681.251	225.634	-0.050	0.082
-680.237	151.703	-0.217	-0.298
-679.222	11.768	0.185	-0.143
-678.208	800.000	-0.055	0.223
-677.193	-140.465	-0.271	0.028
-676.178	-200.000	-0.048	-0.499
-675.164	-162.907	0.181	-0.009
-674.149	144.668	-0.155	-0.209
-673.135	74.792	-0.178	0.188
-672.120	-36.584	0.224	-0.121
-671.105	58.438	-0.163	0.161
-670.091	-2.994	0.221	0.156
-669.076	-134.924	-0.110	0.013
-668.062	800.000	-0.105	0.303
-667.047	299.961	0.147	0.272
-666.032	-80.359	-0.253	0.085
-665.018	-200.000	0.039	0.259
-664.003	116.875	0.043	0.053
-662.989	-93.893	-0.010	-0.003
-661.974	-5.742	-0.175	-0.121
-660.959	37.416	0.215	0.192
-659.945	51.734	-0.125	-0.120
-658.930	151.519	0.100	-0.137
-657.916	-20.258	0.360	0.223
-656.901	-200.000	-0.031	0.316
-655.886	155.000	0.092	-0.128
-654.872	-30.191	-0.242	-0.139
-653.857	155.417	0.064	0.089
-652.843	800.000	0.077	0.278
-651.828	-200.000	-0.071	0.341
-650.814	107.373	-0.051	-0.061
-649.799	-0.409	0.386	0.276
-648.784	175.811	0.113	0.165
-647.770	-36.327	0.139	0.075
-646.755	-48.803	-0.338	-0.163
-645.741	-36.120	0.028	0.015
-644.726	-132.448	0.275	0.036
-643.711	-70.590	0.398	0.152
-642.697	800.000	-0.027	-0.079
-641.682	800.000	-0.115	-0.464
-640.668	494.399	0.154	0.355
-639.653	9.828	0.251	0.192
-638.638	-200.000	0.042	0.260
-637.624	-38.843	-0.330	0.175
-636.609	-26.403	0.210	-0.124
-635.595	-117.681	0.174	-0.032
-634.580	-200.000	-0.048	-0.372
-633.565	-40.003	-0.124	-0.065
-632.551	-118.836	0.078	-0.014
-631.536	800.000	0.044	0.163
-630.522	382.945	0.079	-0.163
-629.507	800.000	0.059	-0.189
-628.492	-200.000	0.025	0.146
-627.478	-200.000	0.004	-0.273
-626.463	36.675	0.218	-0.193
-625.449	-98.505	0.093	-0.024
-624.434	200.679	-0.036	0.055
-623.419	196.484	0.094	0.144
-622.405	8.073	0.244	-0.184
-621.390	462.685	0.246	0.552
-620.376	7.944	-0.054	-0.041
-619.361	-200.000	0.002	-0.198
-618.346	1.723	-0.143	0.104
-617.332	-8.726	-0.312	0.211
-616.317	-100.585	-0.518	-0.129
-615.303	31.501	-0.153	0.132
-614.288	-200.000	-0.004	-0.039
-613.273	239.806	0.111	-0.185
-612.259	-91.628	0.354	0.101
-611.244	108.363	-0.159	0.191
-610.230	23.349	0.043	0.035
-609.215	-126.074	-0.461	0.070
-608.201	57.314	0.104	-0.102
-607.186	800.000	-0.156	-0.568
-606.171	-200.000	0.020	0.094
-605.157	8.626	-0.177	-0.134
-604.142	-139.772	-0.096	-0.010
-603.128	207.678	-0.128	0.201
-602.113	112.196	-0.047	0.057
-601.098	46.025	0.116	-0.108
-600.084	-134.335	0.226	-0.028
-599.069	-200.000	0.042	-0.296
-598.055	-200.000	0.028	0.257
-597.040	595.244	-0.027	-0.067
-596.025	350.158	-0.136	-0.270
-595.011	577.298	0.012	0.029
-593.996	259.646	0.217	0.377
-592.982	-59.243	-0.184	-0.079
-591.967	-2.177	-0.176	0.124
-590.952	52.115	-0.061	-0.058
-589.938	-61.329	-0.101	-0.043
-588.923	800.000	-0.073	0.278
-587.909	53.820	-0.266	0.256
-586.894	-200.000	-0.009	0.131
-585.879	158.405	0.248	-0.345
-584.865	346.565	-0.064	-0.127
-583.850	-108.520	-0.139	-0.030
-582.836	-93.391	-0.205	0.057
-581.821	800.000	-0.159	-0.591
-580.806	-20.751	-0.142	-0.088
-579.792	-69.061	-0.318	0.123
-578.777	5.885	-0.210	0.156
-577.763	-67.370	-0.355	0.140
-576.748	800.000	0.071	-0.225
-575.733	-64.988	-0.375	0.152
-574.719	-200.000	0.001	0.020
-573.704	-55.202	0.194	0.087
-572.690	692.169	0.024	-0.063
-571.675	-29.780	0.147	-0.084
-570.661	-55.680	-0.167	0.075
-569.646	65.010	-0.024	-0.025
-568.631	-18.438	0.250	-0.157
-567.617	86.708	0.153	0.169
-566.602	150.573	0.164	0.224
-565.588	800.000	0.111	-0.379
-564.573	-57.269	0.079	-0.035
-563.558	-69.362	-0.164	-0.063
-562.544	410.616	0.092	0.196
-561.529	-45.827	-0.184	0.091
-560.515	-85.899	0.326	0.101
-559.500	-117.536	-0.071	0.013
-558.485	-26.993	0.138	-0.081
-557.471	-169.212	-0.347	-0.013
-556.456	-200.000	0.002	0.174
-555.442	-67.754	-0.172	-0.068
-554.427	-37.939	-0.077	0.041
-553.412	-77.550	0.202	0.070
-552.398	148.202	-0.116	0.157
-551.383	102.232	-0.210	-0.246
-550.369	800.000	0.088	0.313
-549.354	11.456	-0.312	-0.240
-548.339	-91.290	0.067	-0.019
-547.325	-200.000	0.019	0.156
-546.310	-200.000	-0.026	-0.246
-545.296	737.977	-0.085	-0.227
-544.281	-36.342	0.416	-0.225
-543.266	-200.000	0.005	-0.260
-542.252	-200.000	-0.006	0.309
-541.237	-27.136	-0.155	-0.090
-540.223	-108.464	0.250	0.054
-539.208	-200.000	0.038	0.208
-538.193	-173.017	-0.137	0.004
-537.179	-145.505	0.264	-0.024
-536.164	800.000	0.065	-0.198
-535.150	800.000	-0.014	0.039
-534.135	-62.836	0.139	0.058
-533.121	-78.586	0.192	0.066
-532.106	435.920	0.093	-0.202
-531.091	-200.000	-0.005	0.066
-530.077	23.763	-0.286	-0.236
-529.062	-147.390	0.116	0.010
-528.048	80.543	-0.304	0.328
-527.033	-200.000	0.078	0.370
-526.018	-157.874	-0.244	0.014
-525.004	-200.000	-0.022	0.374
-523.989	-104.277	0.232	0.054
-522.975	188.035	-0.120	0.180
-521.960	3.320	0.091	0.066
-520.945	800.000	0.018	0.067
-519.931	-17.349	0.092	0.058
-518.916	-61.888	0.098	0.041
-517.902	800.000	-0.109	-0.336
-516.887	-200.000	-0.039	-0.322
-515.872	-200.000	-0.028	0.132
-514.858	-133.954	-0.469	-0.058
-513.843	-28.425	-0.121	0.070
-512.829	-133.257	-0.195	0.025
-511.814	-9.252	-0.113	-0.076
-510.799	-200.000	-0.001	0.271
-509.785	100.625	-0.104	-0.120
-508.770	417.709	-0.082	0.176
-507.756	-109.348	-0.294	0.062
-506.741	288.890	0.123	0.222
-505.726	-25.140	-0.158	0.094
-504.712	-110.846	0.407	-0.084
-503.697	170.489	0.024	-0.034
-502.683	-200.000	-0.043	-0.270
-501.668	164.308	0.163	-0.230
-500.653	-106.758	0.207	-0.046
-499.639	-175.853	0.175	-0.005
-498.624	-21.257	0.270	-0.165
-497.610	-200.000	0.012	-0.199
-496.595	457.647	0.031	-0.068
-495.581	-200.000	0.057	-0.254
-494.566	-55.334	-0.169	0.076
-493.551	-21.660	-0.064	-0.039
-492.537	-39.812	0.229	0.120
-491.522	-105.464	-0.095	0.022
-490.508	-200.000	0.019	0.282
-489.493	-129.692	-0.113	-0.016
-488.478	85.033	-0.066	0.072
-487.464	800.000	0.131	0.508
-486.449	611.487	-0.080	-0.200
-485.435	-105.515	-0.321	0.073
-484.420	-200.000	-0.062	0.363
-483.405	-133.986	0.108	0.013
-482.391	173.760	-0.156	0.225
-481.376	-200.000	-0.051	-0.351
-480.362	800.000	-0.043	-0.130
-479.347	758.446	0.095	-0.258
-478.332	-61.912	-0.187	0.078
-477.318	-70.847	0.105	0.039
-476.303	-37.449	-0.143	0.076
-475.289	112.191	-0.122	0.147
-474.274	800.000	0.069	-0.236
-473.259	-131.558	-0.433	-0.057
-472.245	417.928	-0.155	0.331
-471.230	-192.804	-0.138	0.001
-470.216	118.824	-0.110	0.136
-469.201	443.687	0.093	-0.203
-468.186	37.710	0.154	0.136
-467.172	-141.712	0.215	0.022
-466.157	-68.102	-0.141	-0.055
-465.143	730.368	-0.033	0.089
-464.128	207.176	0.070	-0.109
-463.113	48.485	0.157	-0.147
-462.099	57.893	-0.242	-0.237
-461.084	-156.778	-0.059	-0.004
-460.070	389.674	0.056	0.117
-459.055	-41.123	-0.161	-0.083
-458.040	250.396	-0.104	-0.177
-457.026	800.000	-0.052	-0.172
-456.011	-65.093	-0.107	0.043
-454.997	385.508	0.040	-0.083
-453.982	78.503	0.095	0.102
-452.968	-200.000	0.023	0.102
-451.953	-200.000	0.024	0.108
-450.938	138.249	-0.222	0.291
-449.924	-4.680	0.054	0.037
-448.909	6.244	-0.125	-0.092
-447.895	24.782	0.122	0.101
-446.880	-61.064	0.084	-0.035
-445.865	-200.000	-0.012	0.067
-444.851	183.601	-0.173	-0.255
-443.836	20.873	-0.113	-0.092
-442.822	-200.000	-0.079	0.505
-441.807	-94.159	-0.228	0.062
-440.792	-4.617	0.170	-0.117
-439.778	9.334	0.059	-0.045
-438.763	-200.000	0.008	-0.325
-437.749	-31.840	0.226	-0.126
-436.734	435.780	-0.118	0.256
-435.719	337.809	-0.117	0.226
-434.705	43.968	-0.149	0.136
-433.690	-49.165	0.103	-0.049
-432.676	159.210	0.243	-0.337
-431.661	189.128	0.098	-0.147
-430.646	-200.000	0.018	0.179
-429.632	102.060	0.207	-0.241
-428.617	14.298	0.141	0.110
-427.603	-154.002	0.016	0.001
-426.588	-22.245	0.368	0.223
-425.573	-200.000	-0.048	-0.349
-424.559	-98.524	0.086	0.022
-423.544	-200.000	-0.024	-0.120
-422.530	-0.578	-0.121	0.085
-421.515	-180.731	-0.202	-0.004
-420.500	158.656	0.102	0.141
-419.486	276.572	0.058	0.102
-418.471	800.000	0.034	0.124
-417.457	12.796	0.223	0.172
-416.442	81.275	0.160	0.172
-415.428	-21.000	0.344	0.210
-414.413	-84.182	-0.103	0.033
-413.398	80.250	-0.198	0.212
-412.384	-46.770	-0.210	0.102
-411.369	57.515	0.168	-0.164
-410.355	202.929	0.087	-0.135
-409.340	176.355	-0.033	-0.048
-408.325	-52.959	-0.322	0.148
-407.311	121.024	0.148	0.183
-406.296	800.000	-0.037	0.151
-405.282	275.929	0.100	0.178
-404.267	102.580	0.207	0.241
-403.252	450.284	0.053	0.117
-402.238	699.818	0.052	0.137
-401.223	-28.146	-0.244	0.141
-400.209	-200.000	0.034	0.288
-399.194	23.427	-0.236	-0.194
-398.179	-24.446	0.095	0.056
-397.165	229.916	-0.043	-0.070
-396.150	-25.975	-0.191	-0.112
-395.136	219.016	0.195	-0.311
-394.121	-75.125	-0.252	-0.090
-393.106	-22.571	0.166	-0.100
-392.092	106.187	-0.172	0.203
-391.077	800.000	0.028	-0.104
-390.063	465.717	0.111	-0.247
-389.048	309.556	-0.033	-0.061
-388.033	-200.000	-0.002	0.083
-387.019	-200.000	-0.047	-0.284
-386.004	-58.220	-0.179	-0.078
-384.990	256.888	-0.146	-0.251
-383.975	-200.000	0.018	0.111
-382.960	-32.411	-0.152	0.084
-381.946	-178.481	-0.331	0.008
-380.931	490.014	0.044	-0.101
-379.917	-158.731	-0.111	-0.006
-378.902	800.000	-0.118	0.356
-377.888	-200.000	0.025	0.326
-376.873	-139.449	0.172	-0.018
-375.858	-182.119	-0.289	0.005
-374.844	-63.558	0.133	-0.054
-373.829	-107.352	-0.093	-0.020
-372.815	240.310	0.040	0.067
-371.800	-40.780	-0.380	-0.196
-370.785	270.414	0.180	0.316
-369.771	-200.000	0.012	0.455
-368.756	800.000	-0.084	0.305
-367.742	516.989	0.139	-0.324
-366.727	-105.665	0.182	0.041
-365.712	250.668	-0.091	0.153
-364.698	-11.336	-0.350	-0.229
-363.683	96.266	0.073	0.083
-362.669	-26.268	0.225	0.132
-361.654	-200.000	0.003	0.061
-360.639	-200.000	0.059	0.274
-359.625	-137.434	-0.309	-0.035
-358.610	-200.000	-0.011	-0.134
-357.596	645.307	-0.092	0.233
-356.581	-110.580	-0.231	0.048
-355.566	73.710	0.130	-0.135
-354.552	-131.253	0.461	-0.061
-353.537	-43.708	0.021	0.010
-352.523	800.000	0.048	-0.134
-351.508	692.059	-0.084	0.218
-350.493	77.301	0.247	-0.261
-349.479	197.025	-0.250	-0.379
-348.464	-90.539	0.137	-0.039
-347.450	29.048	0.319	-0.269
-346.435	-144.420	0.173	-0.016
-345.420	-97.994	0.251	-0.064
-344.406	-30.669	-0.135	0.076
-343.391	-200.000	-0.010	0.148
-342.377	27.957	0.137	0.115
-341.362	-61.621	0.211	-0.088
-340.348	-200.000	-0.081	0.355
-339.333	-75.887	-0.295	0.104
-338.318	113.949	0.059	-0.072
-337.304	723.704	0.012	0.032
-336.289	122.352	0.177	-0.220
-335.275	455.247	0.079	-0.174
-334.260	800.000	-0.003	-0.011
-333.245	-148.549	-0.114	-0.009
-332.231	-145.304	0.039	0.003
-331.216	-47.317	0.344	-0.167
-330.202	-88.215	0.061	-0.018
-329.187	163.554	0.013	0.018
-328.172	-179.865	-0.151	-0.003
-327.158	11.664	0.069	0.053
-326.143	-200.000	-0.020	0.129
-325.129	-108.692	-0.145	-0.031
-324.114	112.650	0.090	-0.109
-323.099	-173.190	0.315	0.010
-322.085	-71.967	-0.100	-0.037
-321.070	55.360	-0.178	0.171
-320.056	-118.986	0.173	-0.030
-319.041	88.722	0.075	-0.083
-318.026	309.197	0.028	-0.052
-317.012	-36.365	-0.339	-0.182
-315.997	81.795	-0.200	-0.215
-314.983	800.000	-0.033	0.122
-313.968	-200.000	-0.017	0.179
-312.953	-200.000	0.004	-0.114
-311.939	42.308	-0.127	0.114
-310.924	366.510	0.128	-0.256
-309.910	-133.082	0.284	-0.036
-308.895	-140.227	-0.235	-0.024
-307.880	800.000	-0.048	0.140
-306.866	178.149	0.226	0.327
-305.851	-200.000	-0.043	-0.229
-304.837	132.845	-0.058	-0.074
-303.822	-141.350	0.483	-0.049
-302.807	-55.685	-0.134	-0.060
-301.793	800.000	-0.081	-0.269
-300.778	350.392	-0.134	0.263
-299.764	-200.000	-0.050	0.279
-298.749	-98.009	0.189	0.048
-297.735	408.809	0.218	-0.457
-296.720	437.462	0.255	-0.551
-295.705	55.563	0.163	0.157
-294.691	245.611	-0.011	-0.018
-293.676	-60.181	-0.320	-0.135
-292.662	169.223	-0.154	-0.217
-291.647	396.080	-0.047	-0.098
-290.632	286.892	-0.088	-0.158
-289.618	-157.579	0.059	-0.004
-288.603	-130.940	0.044	0.006
-287.589	-200.000	-0.052	0.299
-286.574	-200.000	0.040	-0.295
-285.559	-200.000	-0.011	-0.089
-284.545	11.466	0.162	-0.123
-283.530	370.899	0.200	-0.402
-282.516	-171.975	0.454	-0.015
-281.501	63.658	0.165	-0.164
-280.486	621.523	0.112	0.280
-279.472	-200.000	-0.014	0.073
-278.457	23.974	0.142	-0.116
-277.443	0.759	0.286	0.203
-276.428	74.782	0.183	0.191
-275.413	287.707	-0.197	0.354
-274.399	-200.000	0.034	-0.345
-273.384	658.181	-0.095	-0.243
-272.370	-200.000	-0.011	-0.228
-271.355	34.449	0.338	0.292
-270.340	137.087	-0.077	0.100
-269.326	84.448	-0.198	-0.214
-268.311	-53.632	-0.266	0.120
-267.297	14.873	0.295	0.229
-266.282	-38.172	-0.188	-0.099
-265.267	-79.111	-0.081	0.027
-264.253	-168.118	-0.079	-0.003
-263.238	-200.000	0.011	0.119
-262.224	-31.013	0.243	-0.136
-261.209	503.330	-0.063	0.144
-260.195	-102.737	-0.214	0.051
-259.180	513.104	0.179	0.414
-258.165	800.000	-0.039	0.110
-257.151	-200.000	0.058	-0.386
-256.136	48.414	0.308	0.286
-255.122	-11.797	0.110	0.072
-254.107	371.191	0.082	-0.165
-253.092	-128.076	0.054	0.008
-252.078	-117.213	-0.086	-0.016
-251.063	426.546	-0.149	0.319
-250.049	-1.192	0.113	0.079
-249.034	800.000	0.121	-0.410
-248.019	-143.866	-0.438	0.041
-247.005	-65.542	0.269	0.107
-245.990	-200.000	-0.001	0.008
-244.976	108.511	-0.139	0.164
-243.961	367.367	0.197	-0.395
-242.946	-112.964	-0.173	-0.034
-241.932	-102.361	-0.154	-0.037
-240.917	-200.000	0.056	0.349
-239.903	-137.902	-0.437	-0.048
-238.888	-200.000	-0.015	-0.109
-237.873	-200.000	-0.030	0.209
-236.859	134.306	-0.143	-0.183
-235.844	106.600	0.226	0.265
-234.830	238.375	-0.223	0.366
-233.815	-1.560	-0.159	-0.111
-232.800	109.228	0.054	-0.064
-231.786	-200.000	-0.042	0.212
-230.771	-21.621	-0.057	-0.034
-229.757	-200.000	-0.013	0.155
-228.742	208.276	0.117	-0.182
-227.727	-123.738	-0.297	-0.047
-226.713	16.563	0.053	0.042
-225.698	56.867	-0.152	0.146
-224.684	800.000	-0.195	-0.603
-223.669	-106.393	-0.128	0.028
-222.655	800.000	-0.020	-0.075
-221.640	37.396	-0.160	-0.141
-220.625	-137.449	0.061	-0.007
-219.611	229.942	-0.220	0.356
-218.596	-200.000	-0.005	-0.073
-217.582	9.843	-0.124	0.093
-216.567	-200.000	0.009	-0.285
-215.552	-72.624	0.318	0.116
-214.538	800.000	0.025	0.093
-213.523	-116.663	0.229	-0.042
-212.509	83.761	-0.162	-0.175
-211.494	-78.446	0.377	0.128
-210.479	33.564	0.053	0.045
-209.465	558.685	0.041	-0.098
-208.450	135.811	0.145	0.187
-207.436	-38.953	0.170	0.089
-206.421	-62.902	-0.302	-0.123
-205.406	-120.740	-0.204	-0.034
-204.392	800.000	0.095	-0.340
-203.377	31.651	-0.191	0.163
-202.363	-135.577	0.146	-0.017
-201.348	56.055	0.202	-0.194
-200.333	-145.058	0.194	0.017
-199.319	-180.445	0.257	-0.005
-198.304	-139.711	-0.208	0.022
-197.290	-200.000	-0.076	0.361
-196.275	262.862	0.103	0.177
-195.260	522.004	0.075	-0.174
-194.246	-55.758	0.138	-0.061
-193.231	-200.000	-0.001	0.054
-192.217	687.140	0.084	0.217
-191.202	6.310	0.058	0.043
-190.187	-86.779	-0.360	-0.109
-189.173	-200.000	0.024	-0.113
-188.158	36.112	-0.047	-0.041
-187.144	-92.562	0.294	-0.081
-186.129	16.377	-0.277	0.216
-185.114	-145.152	0.234	0.021
-184.100	578.819	0.129	-0.311
-183.085	-63.012	-0.157	-0.064
-182.071	-7.158	-0.292	-0.196
-181.056	195.157	0.103	-0.154
-180.042	-100.072	-0.303	-0.075
-179.027	-200.000	-0.013	-0.284
-178.012	-200.000	-0.030	0.284
-176.998	-10.911	0.137	-0.089
-175.983	117.699	0.074	0.089
-174.969	485.915	0.161	0.363
-173.954	-200.000	0.012	0.058
-172.939	-99.998	0.282	0.069
-171.925	-61.271	0.078	0.032
-170.910	-25.591	0.096	-0.056
-169.896	-77.311	0.167	-0.057
-168.881	13.361	-0.139	0.107
-167.866	178.964	-0.150	-0.217
-166.852	-104.957	0.222	-0.050
-165.837	-74.777	-0.134	-0.048
-164.823	-200.000	0.001	0.080
-163.808	-182.220	-0.094	-0.002
-162.793	15.175	-0.116	0.090
-161.779	-111.138	0.190	0.038
-160.764	157.909	0.247	-0.338
-159.750	-183.676	-0.209	-0.004
-158.735	-41.752	0.392	-0.199
-157.720	141.715	-0.045	0.059
-156.706	287.108	0.270	-0.482
-155.691	-125.752	0.229	0.034
-154.677	272.263	-0.113	-0.197
-153.662	-157.490	-0.587	0.035
-152.647	800.000	0.038	-0.144
-151.633	-141.229	0.132	0.013
-150.618	-87.772	0.252	0.075
-149.604	-95.209	-0.155	-0.041
-148.589	40.472	0.109	-0.097
-147.574	60.710	-0.149	0.145
-146.560	-181.952	-0.162	0.003
-145.545	462.854	0.087	-0.192
-144.531	-33.502	0.324	0.176
-143.516	-187.519	-0.234	-0.003
-142.502	-74.530	0.108	0.038
-141.487	800.000	-0.023	-0.082
-140.472	-111.044	0.109	0.022
-139.458	-200.000	0.051	-0.273
-138.443	136.946	0.183	0.236
-137.429	18.256	-0.282	0.222
-136.414	-125.174	0.114	-0.017
-135.399	800.000	-0.058	0.205
-134.385	-77.110	-0.049	-0.017
-133.370	25.594	-0.129	-0.106
-132.356	-154.286	0.321	0.021
-131.341	73.274	0.237	0.244
-130.326	15.678	-0.028	-0.022
-129.312	86.893	-0.159	0.173
-128.297	-18.588	0.047	0.029
-127.283	-200.000	-0.028	-0.260
-126.268	98.069	0.173	0.196
-125.253	184.863	-0.215	-0.314
-124.239	113.048	0.255	0.305
-123.224	-112.533	-0.228	0.045
-122.210	250.895	-0.150	0.251
-121.195	-107.910	0.158	-0.034
