DTS Sentinel unit serial number:	SN413079Multiplexer serial number:	ORYXHardware model number:	OX4-SRSoftware version number:	ORYX F/W v4.00 Oryx Data Collector v3.7.2.0data status	okinstallation	princeton_trtdifferential loss correction	single-endedforward channel	channel 1reverse channel	N/Adate	2019/09/14time	06:10:35forward acquisition time	60.00reverse acquisition time	0.00gamma	496.2192k internal	0.2336k external	0.2336temperature offset calibration	1.0082default loss term (dB/km)	0.3790temperature slope calibration	1.0000multiplexer offset coefficient	1.0000multiplexer slope coefficient	1.0000fibre end	0.00T internal ref (°C)	26.75T ext. ref 1 (°C)	3.40T ext. ref 2 (°C)	20.84length (m)	temperature (°C)	Stokes	anti-Stokes-747.200	-101.406	-0.249	-0.061
-746.185	-151.025	-0.165	-0.013
-745.171	104.398	-0.215	-0.255
-744.156	-94.325	-0.126	0.035
-743.142	-200.000	-0.010	-0.096
-742.127	800.000	-0.026	0.076
-741.112	103.023	-0.088	0.104
-740.098	606.166	-0.078	0.196
-739.083	190.834	-0.095	-0.144
-738.069	-95.116	-0.327	-0.089
-737.054	-134.542	-0.260	0.032
-736.039	55.045	-0.176	-0.171
-735.025	-123.135	0.314	0.051
-734.010	426.838	-0.065	0.140
-732.996	267.818	-0.092	-0.162
-731.981	-79.722	0.310	-0.105
-730.966	-86.067	-0.146	-0.045
-729.952	-200.000	-0.020	0.137
-728.937	33.324	-0.308	0.268
-727.923	-51.880	0.388	-0.181
-726.908	-119.053	-0.117	-0.021
-725.894	-54.439	-0.218	-0.099
-724.879	-86.376	-0.114	0.035
-723.864	-147.180	-0.336	0.029
-722.850	222.439	0.075	-0.122
-721.835	265.036	0.124	-0.216
-720.821	18.289	0.026	-0.021
-719.806	800.000	0.067	0.275
-718.791	77.876	0.246	0.263
-717.777	-123.595	-0.164	-0.026
-716.762	-117.852	-0.201	-0.036
-715.748	130.661	-0.187	-0.240
-714.733	-109.066	0.218	0.046
-713.718	-3.539	0.182	-0.127
-712.704	152.885	-0.147	-0.202
-711.689	-140.801	0.258	0.027
-710.675	389.358	0.146	-0.304
-709.660	800.000	-0.066	-0.288
-708.645	-128.324	0.147	-0.021
-707.631	-38.741	-0.032	-0.017
-706.616	-33.898	0.441	-0.244
-705.602	800.000	-0.017	-0.058
-704.587	800.000	0.034	0.107
-703.572	19.958	-0.155	-0.125
-702.558	-144.677	0.313	-0.029
-701.543	37.537	0.062	-0.055
-700.529	166.739	-0.272	-0.387
-699.514	240.794	0.073	-0.121
-698.499	18.512	0.324	0.260
-697.485	162.695	0.216	-0.303
-696.470	-200.000	0.064	-0.309
-695.456	65.046	0.222	-0.225
-694.441	137.062	-0.141	0.184
-693.426	-129.245	0.256	0.036
-692.412	-133.927	-0.454	0.056
-691.397	150.246	-0.055	-0.075
-690.383	-134.831	0.296	0.036
-689.368	-179.649	0.200	-0.004
-688.354	-76.553	-0.094	-0.033
-687.339	196.986	0.040	-0.061
-686.324	-83.200	0.076	-0.025
-685.310	9.550	-0.220	-0.167
-684.295	176.252	-0.040	-0.058
-683.281	-165.133	-0.196	0.009
-682.266	800.000	-0.020	-0.078
-681.251	-200.000	-0.012	-0.105
-680.237	-99.207	0.212	-0.054
-679.222	366.831	-0.149	0.302
-678.208	-200.000	-0.028	0.209
-677.193	126.285	-0.022	0.028
-676.178	252.853	-0.125	-0.213
-675.164	-36.823	0.182	0.098
-674.149	319.929	-0.122	0.232
-673.135	-200.000	0.038	0.230
-672.120	-94.552	0.097	-0.027
-671.105	-45.664	-0.155	0.077
-670.091	-25.420	-0.439	0.260
-669.076	-178.821	-0.243	-0.006
-668.062	-84.472	-0.179	0.057
-667.047	199.433	0.086	0.132
-666.032	331.775	0.061	-0.117
-665.018	-200.000	-0.015	0.153
-664.003	-1.703	0.198	0.139
-662.989	-147.587	-0.146	0.012
-661.974	-200.000	0.040	-0.203
-660.959	-93.160	0.201	-0.056
-659.945	80.685	-0.148	0.160
-658.930	-39.100	-0.299	0.157
-657.916	182.168	0.125	0.185
-656.901	254.882	0.058	-0.099
-655.886	128.525	-0.116	0.148
-654.872	-150.530	0.138	-0.011
-653.857	-2.665	-0.138	0.097
-652.843	16.245	0.003	-0.002
-651.828	-200.000	-0.028	-0.358
-650.814	149.923	0.215	-0.292
-649.799	34.049	0.261	-0.227
-648.784	-200.000	-0.038	-0.166
-647.770	800.000	0.032	0.118
-646.755	-26.930	-0.213	-0.124
-645.741	-36.406	0.149	0.080
-644.726	-129.907	0.278	-0.038
-643.711	-200.000	-0.025	-0.120
-642.697	800.000	-0.070	-0.193
-641.682	-200.000	-0.011	-0.065
-640.668	81.932	-0.215	-0.233
-639.653	44.800	-0.028	0.026
-638.638	172.724	-0.150	-0.217
-637.624	-81.226	-0.158	-0.052
-636.609	425.975	0.062	-0.134
-635.595	282.695	-0.084	-0.151
-634.580	185.961	-0.053	0.079
-633.565	107.163	-0.153	0.181
-632.551	543.547	-0.115	-0.273
-631.536	800.000	-0.056	0.171
-630.522	-3.026	-0.215	0.150
-629.507	-165.903	-0.276	-0.012
-628.492	-200.000	-0.026	-0.162
-627.478	-75.294	-0.081	0.029
-626.463	185.174	-0.074	0.111
-625.449	-100.059	0.247	-0.061
-624.434	71.286	-0.191	0.198
-623.419	-200.000	0.035	0.292
-622.405	71.771	0.097	0.101
-621.390	-93.245	-0.131	-0.036
-620.376	-55.085	-0.128	-0.058
-619.361	-104.345	-0.151	0.035
-618.346	16.057	-0.251	-0.197
-617.332	267.284	0.193	0.337
-616.317	-77.046	-0.122	-0.043
-615.303	437.895	-0.069	0.151
-614.288	-196.698	0.141	-0.001
-613.273	-139.363	0.337	-0.036
-612.259	-13.099	-0.063	0.041
-611.244	-63.943	-0.052	-0.021
-610.230	-147.104	0.518	-0.044
-609.215	-200.000	0.043	-0.191
-608.201	229.727	0.167	-0.272
-607.186	150.073	0.129	0.175
-606.171	17.330	0.185	0.147
-605.157	104.322	0.223	-0.262
-604.142	-149.700	-0.285	0.022
-603.128	-182.818	-0.117	0.002
-602.113	-106.595	-0.266	-0.059
-601.098	-200.000	0.001	0.019
-600.084	112.302	0.180	0.217
-599.069	394.490	-0.072	-0.150
-598.055	-164.048	-0.050	0.002
-597.040	108.616	0.089	-0.107
-596.025	-35.698	-0.409	-0.221
-595.011	-200.000	0.049	0.240
-593.996	4.525	0.180	-0.132
-592.982	-130.588	-0.227	-0.031
-591.967	-8.683	0.068	-0.045
-590.952	-146.398	0.172	-0.015
-589.938	-101.295	0.162	0.040
-588.923	800.000	-0.105	0.319
-587.909	199.167	0.239	-0.366
-586.894	-200.000	-0.021	0.165
-585.879	-179.285	0.239	0.005
-584.865	800.000	0.093	-0.373
-583.850	-101.223	0.123	-0.030
-582.836	631.144	0.036	-0.090
-581.821	42.387	0.024	-0.022
-580.806	449.912	-0.062	0.136
-579.792	16.240	-0.534	0.421
-578.777	800.000	0.012	0.037
-577.763	-109.628	0.292	0.061
-576.748	46.297	0.279	-0.258
-575.733	800.000	-0.053	-0.193
-574.719	-200.000	0.002	-0.026
-573.704	191.644	-0.229	-0.344
-572.690	282.521	-0.120	-0.214
-571.675	-143.086	0.170	-0.016
-570.661	238.764	-0.109	-0.180
-569.646	266.704	0.137	0.239
-568.631	-157.418	-0.146	0.009
-567.617	-200.000	0.058	0.278
-566.602	-200.000	0.011	-0.215
-565.588	295.711	-0.180	-0.328
-564.573	-148.706	0.036	-0.003
-563.558	-28.416	-0.088	0.051
-562.544	346.975	-0.095	-0.187
-561.529	32.547	0.206	0.177
-560.515	130.621	0.193	0.247
-559.500	-200.000	-0.027	-0.149
-558.485	-64.420	-0.159	0.065
-557.471	2.396	0.120	0.086
-556.456	93.478	-0.199	-0.225
-555.442	22.595	0.156	0.127
-554.427	-200.000	-0.047	0.217
-553.412	-116.856	-0.442	-0.081
-552.398	-82.801	-0.204	0.066
-551.383	-200.000	0.041	0.413
-550.369	4.334	-0.145	0.106
-549.354	-62.406	0.147	-0.061
-548.339	-87.455	0.167	0.050
-547.325	-85.423	-0.211	0.066
-546.310	495.236	-0.198	0.453
-545.296	32.881	0.172	-0.148
-544.281	87.819	-0.044	0.049
-543.266	-1.458	0.104	-0.073
-542.252	200.248	0.232	-0.355
-541.237	-79.664	-0.280	-0.094
-540.223	70.965	-0.140	-0.145
-539.208	-26.905	-0.362	0.210
-538.193	-27.412	-0.235	0.136
-537.179	-87.057	-0.238	0.072
-536.164	130.893	0.229	0.293
-535.150	116.522	-0.071	-0.087
-534.135	-200.000	0.004	0.174
-533.121	-22.566	0.107	0.065
-532.106	-108.997	-0.251	-0.053
-531.091	242.462	-0.128	-0.214
-530.077	-42.360	-0.120	-0.061
-529.062	236.167	-0.240	0.395
-528.048	-200.000	0.009	-0.115
-527.033	-200.000	-0.029	-0.349
-526.018	94.078	-0.182	-0.206
-525.004	-33.700	0.267	0.146
-523.989	38.802	0.214	-0.191
-522.975	-75.364	-0.075	-0.027
-521.960	85.920	0.147	0.161
-520.945	-147.318	0.256	0.022
-519.931	800.000	-0.045	-0.169
-518.916	69.363	-0.264	0.271
-517.902	800.000	0.082	-0.289
-516.887	-94.502	0.232	-0.063
-515.872	-68.935	-0.381	-0.146
-514.858	-200.000	-0.007	0.033
-513.843	800.000	-0.115	0.330
-512.829	-42.095	-0.212	0.108
-511.814	-152.213	-0.331	-0.024
-510.799	52.186	0.080	0.076
-509.785	-61.829	-0.165	-0.069
-508.770	-86.715	-0.057	-0.017
-507.756	-92.021	0.304	-0.086
-506.741	-25.704	0.105	-0.061
-505.726	-95.734	-0.205	0.055
-504.712	151.052	-0.258	-0.349
-503.697	-151.114	0.141	-0.011
-502.683	-162.633	-0.281	0.014
-501.668	-200.000	-0.031	0.174
-500.653	109.184	0.077	0.091
-499.639	-6.626	-0.065	-0.044
-498.624	781.974	0.061	-0.165
-497.610	-110.059	0.227	0.047
-496.595	17.670	-0.096	-0.076
-495.581	95.482	0.058	0.066
-494.566	-195.012	-0.162	-0.001
-493.551	535.604	0.032	-0.075
-492.537	-103.921	-0.292	0.068
-491.522	46.780	-0.188	0.173
-490.508	-110.428	-0.323	0.067
-489.493	313.475	-0.215	0.403
-488.478	800.000	-0.081	0.306
-487.464	-200.000	-0.020	0.403
-486.449	800.000	-0.124	-0.377
-485.435	-142.853	-0.229	0.022
-484.420	-17.127	0.025	0.016
-483.405	-134.353	0.332	-0.040
-482.391	-6.888	-0.138	-0.093
-481.376	138.437	-0.125	-0.163
-480.362	139.673	0.123	0.161
-479.347	126.076	0.220	-0.277
-478.332	-55.034	-0.171	-0.076
-477.318	-80.222	0.245	-0.081
-476.303	-200.000	0.023	-0.197
-475.289	800.000	-0.027	-0.093
-474.274	507.782	-0.081	0.186
-473.259	-200.000	0.022	0.183
-472.245	-55.997	0.205	0.091
-471.230	220.229	-0.089	0.142
-470.216	-124.871	-0.039	-0.006
-469.201	-96.282	0.058	0.015
-468.186	81.122	-0.260	0.279
-467.172	-151.402	-0.297	0.022
-466.157	-91.281	0.021	0.006
-465.143	-200.000	-0.027	0.278
-464.128	-200.000	0.025	-0.122
-463.113	-200.000	0.018	-0.119
-462.099	73.543	0.076	0.079
-461.084	-200.000	-0.002	-0.021
-460.070	-200.000	0.046	0.273
-459.055	465.408	0.057	-0.128
-458.040	157.802	0.142	0.195
-457.026	-200.000	-0.018	-0.239
-456.011	-52.568	-0.263	0.120
-454.997	-76.410	0.240	0.084
-453.982	-0.907	0.114	0.080
-452.968	10.051	-0.107	0.081
-451.953	800.000	-0.031	0.102
-450.938	213.838	-0.139	-0.218
-449.924	800.000	0.213	-0.662
-448.909	800.000	-0.080	0.324
-447.895	87.199	0.224	0.246
-446.880	50.536	0.344	-0.323
-445.865	-31.902	-0.140	-0.078
-444.851	-200.000	-0.049	0.235
-443.836	-200.000	-0.025	0.206
-442.822	800.000	-0.045	0.173
-441.807	769.586	-0.089	-0.242
-440.792	513.327	0.060	0.138
-439.778	800.000	0.050	-0.158
-438.763	-8.148	-0.182	-0.122
-437.749	-200.000	-0.027	-0.170
-436.734	75.122	-0.061	0.064
-435.719	173.793	0.055	0.079
-434.705	-200.000	0.007	0.249
-433.690	-200.000	0.035	0.364
-432.676	800.000	-0.060	-0.172
-431.661	45.264	-0.065	0.059
-430.646	-200.000	-0.003	-0.286
-429.632	-36.100	-0.233	-0.125
-428.617	800.000	0.072	0.305
-427.603	-66.994	0.218	0.085
-426.588	-12.893	-0.159	-0.103
-425.573	32.078	0.087	-0.074
-424.559	800.000	-0.105	-0.353
-423.544	47.771	0.246	0.227
-422.530	147.922	0.215	0.287
-421.515	800.000	-0.143	-0.430
-420.500	800.000	0.084	0.359
-419.486	-132.118	0.041	0.005
-418.471	-128.346	-0.372	-0.053
-417.457	14.521	-0.098	0.076
-416.442	-86.592	0.191	0.058
-415.428	-56.744	0.293	0.128
-414.413	-127.801	-0.147	0.021
-413.398	-200.000	0.045	-0.301
-412.384	430.959	-0.082	-0.176
-411.369	58.413	0.232	-0.226
-410.355	51.665	-0.063	-0.060
-409.340	-18.702	-0.309	-0.191
-408.325	-115.641	0.102	0.019
-407.311	800.000	-0.025	-0.089
-406.296	-88.104	-0.233	0.069
-405.282	53.516	-0.037	0.035
-404.267	258.272	0.070	-0.120
-403.252	157.387	-0.090	-0.123
-402.238	19.119	0.217	-0.173
-401.223	103.588	0.132	0.154
-400.209	-109.957	0.358	-0.074
-399.194	436.380	0.152	0.328
-398.179	423.202	0.197	0.420
-397.165	5.175	0.192	-0.140
-396.150	53.967	0.096	0.091
-395.136	-6.580	0.175	0.118
-394.121	800.000	-0.162	0.671
-393.106	-15.810	0.173	0.109
-392.092	217.231	-0.235	0.372
-391.077	-23.336	0.179	0.107
-390.063	-75.898	-0.075	0.026
-389.048	87.321	-0.138	0.151
-388.033	523.078	0.109	0.253
-387.019	-180.430	-0.157	0.003
-386.004	-200.000	0.003	0.324
-384.990	-74.065	-0.486	0.174
-383.975	-151.445	0.224	0.016
-382.960	-122.753	-0.274	-0.044
-381.946	800.000	0.127	0.360
-380.931	13.857	0.146	-0.112
-379.917	15.809	-0.138	0.107
-378.902	-200.000	-0.013	-0.289
-377.888	441.369	-0.076	0.164
-376.873	-106.307	-0.434	-0.096
-375.858	141.433	0.089	-0.116
-374.844	109.002	0.233	-0.276
-373.829	-69.756	0.178	0.067
-372.815	-151.468	-0.259	-0.019
-371.800	-109.685	-0.209	-0.043
-370.785	-200.000	0.020	0.325
-369.771	-200.000	-0.013	-0.180
-368.756	800.000	0.056	0.195
-367.742	264.608	-0.120	-0.206
-366.727	800.000	-0.086	-0.285
-365.712	-43.659	-0.185	-0.092
-364.698	-27.095	0.139	0.080
-363.683	-4.949	0.128	-0.087
-362.669	-41.984	-0.224	0.113
-361.654	69.494	-0.243	0.248
-360.639	224.572	0.075	-0.119
-359.625	-77.432	0.110	0.038
-358.610	800.000	0.028	0.118
-357.596	-54.852	0.107	0.048
-356.581	45.221	-0.294	0.269
-355.566	32.125	-0.109	-0.093
-354.552	-100.228	0.161	-0.040
-353.537	641.475	-0.147	-0.370
-352.523	93.219	-0.131	-0.146
-351.508	713.554	-0.020	0.052
-350.493	-200.000	0.007	0.260
-349.479	-47.489	-0.250	0.120
-348.464	24.320	0.199	-0.163
-347.450	-102.099	0.224	0.053
-346.435	186.767	-0.050	0.074
-345.420	-32.275	-0.221	-0.122
-344.406	560.481	-0.092	0.219
-343.391	728.887	-0.055	-0.146
-342.377	294.243	0.032	-0.058
-341.362	194.268	-0.049	-0.073
-340.348	800.000	-0.096	-0.324
-339.333	262.867	0.051	-0.088
-338.318	117.713	-0.037	0.045
-337.304	-15.843	0.130	-0.082
-336.289	507.163	0.059	-0.136
-335.275	-127.181	0.372	-0.054
-334.260	140.021	-0.154	0.200
-333.245	-200.000	0.042	-0.238
-332.231	800.000	0.024	-0.087
-331.216	-34.893	0.127	-0.069
-330.202	123.258	0.274	0.339
-329.187	-110.809	-0.311	-0.063
-328.172	-111.408	0.300	0.061
-327.158	-60.587	0.116	0.049
-326.143	-74.090	0.219	0.078
-325.129	-200.000	-0.409	-0.001
-324.114	-96.575	-0.311	0.081
-323.099	-100.177	0.328	-0.081
-322.085	-128.269	0.239	-0.034
-321.070	-10.286	0.111	-0.073
-320.056	-34.065	-0.073	-0.040
-319.041	-173.947	0.291	0.008
-318.026	-109.248	-0.260	0.055
-317.012	109.265	0.204	0.242
-315.997	-200.000	-0.038	0.319
-314.983	-93.550	-0.375	0.102
-313.968	-147.955	0.181	-0.015
-312.953	800.000	0.018	0.075
-311.939	119.646	-0.080	-0.098
-310.924	-200.000	0.013	0.144
-309.910	-113.364	-0.031	-0.006
-308.895	0.341	0.281	0.198
-307.880	-74.304	0.095	-0.034
-306.866	-43.629	-0.239	-0.119
-305.851	-200.000	0.028	0.138
-304.837	-46.364	-0.237	-0.115
-303.822	-76.860	0.120	0.041
-302.807	-65.311	0.342	-0.136
-301.793	-200.000	0.018	-0.113
-300.778	-32.307	-0.050	-0.028
-299.764	-200.000	0.049	0.227
-298.749	286.602	0.120	0.214
-297.735	800.000	0.055	0.233
-296.720	129.693	0.139	-0.175
-295.705	-200.000	0.044	0.241
-294.691	95.034	0.226	0.254
-293.676	20.126	0.454	0.362
-292.662	-24.816	-0.226	-0.132
-291.647	-114.691	0.033	-0.006
-290.632	-200.000	-0.006	-0.125
-289.618	800.000	-0.111	0.338
-288.603	518.884	-0.094	-0.217
-287.589	10.614	-0.118	0.088
-286.574	68.137	-0.191	0.193
-285.559	295.997	-0.060	0.108
-284.545	-64.163	0.373	0.150
-283.530	-169.580	-0.287	-0.010
-282.516	180.156	0.122	-0.176
-281.501	800.000	0.056	-0.219
-280.486	213.232	-0.193	-0.300
-279.472	800.000	0.075	-0.221
-278.457	-30.033	-0.303	-0.170
-277.443	-200.000	-0.051	0.291
-276.428	-200.000	-0.135	0.000
-275.413	33.446	0.209	-0.179
-274.399	149.574	0.119	0.159
-273.384	-56.776	-0.176	-0.077
-272.370	-200.000	0.005	-0.194
-271.355	-96.757	0.164	-0.042
-270.340	439.995	0.055	0.119
-269.326	194.980	-0.098	0.146
-268.311	50.831	-0.046	-0.043
-267.297	-79.833	0.296	0.098
-266.282	-32.208	-0.261	-0.144
-265.267	800.000	-0.047	0.138
-264.253	-19.592	0.280	0.171
-263.238	187.321	-0.085	0.126
-262.224	-135.608	0.308	-0.036
-261.209	24.522	-0.115	0.094
-260.195	-200.000	0.033	0.267
-259.180	800.000	0.012	0.041
-258.165	38.949	0.084	0.074
-257.151	-66.207	0.263	-0.103
-256.136	156.076	-0.136	0.185
-255.122	-200.000	-0.054	0.264
-254.107	-200.000	0.023	0.202
-253.092	-200.000	0.011	-0.166
-252.078	-156.374	-0.156	-0.010
-251.063	138.633	-0.151	-0.195
-250.049	-100.100	-0.077	0.019
-249.034	125.790	-0.141	-0.176
-248.019	36.276	0.044	-0.038
-247.005	-68.375	-0.317	-0.121
-245.990	262.144	-0.122	-0.209
-244.976	800.000	0.046	0.148
-243.961	-56.131	-0.386	-0.169
-242.946	-200.000	-0.083	-0.371
-241.932	17.858	0.247	0.194
-240.917	-200.000	0.009	-0.109
-239.903	-200.000	-0.029	-0.358
-238.888	-66.599	0.131	0.051
-237.873	-200.000	-0.017	-0.215
-236.859	149.643	0.143	0.191
-235.844	57.196	0.204	-0.196
-234.830	-200.000	-0.029	-0.247
-233.815	-51.453	0.108	-0.050
-232.800	-200.000	-0.020	0.142
-231.786	-78.309	-0.079	-0.027
-230.771	-34.971	-0.135	-0.073
-229.757	-89.186	-0.289	-0.084
-228.742	323.684	0.074	-0.139
-227.727	-152.502	-0.176	-0.012
-226.713	-38.185	-0.046	-0.024
-225.698	-197.811	0.179	0.001
-224.684	-129.614	0.187	-0.025
-223.669	134.381	0.132	-0.169
-222.655	-200.000	0.021	0.278
-221.640	-141.298	0.206	0.021
-220.625	200.578	0.048	-0.073
-219.611	-200.000	0.029	-0.173
-218.596	-200.000	0.040	0.218
-217.582	-130.508	0.114	-0.015
-216.567	-152.558	0.147	0.010
-215.552	-117.257	0.220	-0.039
-214.538	-53.173	-0.042	0.019
-213.523	-46.089	0.191	0.093
-212.509	-3.284	-0.175	0.120
-211.494	-78.790	0.174	-0.058
-210.479	800.000	0.183	-0.568
-209.465	63.773	-0.080	-0.079
-208.450	271.165	0.101	0.175
-207.436	-0.175	-0.331	-0.232
-206.421	290.997	0.128	0.229
-205.406	496.684	0.085	-0.191
-204.392	-57.316	0.196	-0.085
-203.377	-70.426	-0.219	0.082
-202.363	-115.363	0.098	0.018
-201.348	-200.000	0.017	-0.173
-200.333	800.000	0.045	0.128
-199.319	61.965	-0.201	0.197
-198.304	-41.019	0.133	-0.068
-197.290	-200.000	-0.005	-0.168
-196.275	800.000	0.077	-0.331
-195.260	5.332	0.356	0.258
-194.246	-55.767	0.228	-0.100
-193.231	-26.909	-0.288	-0.165
-192.217	473.485	0.053	0.116
-191.202	-37.567	-0.137	-0.072
-190.187	800.000	0.049	-0.207
-189.173	53.004	0.411	0.387
-188.158	89.000	0.154	0.168
-187.144	34.500	0.272	0.233
-186.129	-200.000	-0.018	0.084
-185.114	13.181	-0.154	0.117
-184.100	148.776	0.378	-0.502
-183.085	47.567	0.080	-0.073
-182.071	-26.554	-0.121	-0.069
-181.056	-200.000	0.018	-0.237
-180.042	-61.639	0.366	0.151
-179.027	-43.067	0.162	-0.081
-178.012	177.702	-0.201	0.288
-176.998	-200.000	-0.011	-0.239
-175.983	146.806	-0.130	0.171
-174.969	-200.000	0.052	0.328
-173.954	-78.119	0.064	0.021
-172.939	685.059	0.126	-0.322
-171.925	-73.383	0.270	-0.097
-170.910	800.000	0.023	-0.097
-169.896	33.948	-0.254	-0.217
-168.881	-200.000	-0.003	-0.070
-167.866	-19.212	0.046	-0.028
-166.852	-163.359	0.099	0.005
-165.837	-40.910	-0.241	-0.122
-164.823	5.424	-0.272	0.197
-163.808	307.892	0.070	0.128
-162.793	-200.000	0.007	-0.188
-161.779	-66.122	0.163	-0.064
-160.764	-130.802	0.261	-0.034
-159.750	-200.000	-0.063	-0.306
-158.735	-200.000	0.016	0.090
-157.720	-43.499	0.043	-0.021
-156.706	10.871	-0.208	-0.156
-155.691	488.810	0.114	-0.255
-154.677	-35.691	0.275	-0.146
-153.662	-200.000	0.014	-0.081
-152.647	74.179	0.097	-0.100
-151.633	-69.591	0.443	0.166
-150.618	-73.638	0.167	0.060
-149.604	127.426	0.211	-0.263
-148.589	-200.000	-0.072	0.316
-147.574	-200.000	0.018	-0.083
-146.560	800.000	0.055	-0.184
-145.545	612.551	0.075	0.184
-144.531	282.334	-0.205	0.360
-143.516	800.000	0.022	0.086
-142.502	6.684	0.049	0.036
-141.487	-200.000	0.014	-0.069
-140.472	800.000	-0.014	-0.041
-139.458	53.269	-0.194	-0.182
-138.443	223.643	-0.164	0.260
-137.429	185.078	0.111	-0.161
-136.414	-118.157	0.138	0.024
-135.399	800.000	-0.028	0.118
-134.385	23.545	-0.328	0.264
-133.370	49.419	-0.272	-0.251
-132.356	-200.000	0.009	0.064
-131.341	-71.895	-0.278	0.101
-130.326	75.860	0.127	0.131
-129.312	26.928	-0.215	0.177
-128.297	516.357	-0.171	0.392
-127.283	568.121	-0.040	0.094
-126.268	46.816	0.170	0.155
-125.253	800.000	0.064	0.193
-124.239	800.000	-0.063	0.228
-123.224	-200.000	0.012	-0.108
-122.210	-105.203	0.030	0.007
