DTS Sentinel unit serial number:	SN413079Multiplexer serial number:	ORYXHardware model number:	OX4-SRSoftware version number:	ORYX F/W v4.00 Oryx Data Collector v3.7.2.0data status	okinstallation	princeton_trtdifferential loss correction	single-endedforward channel	channel 1reverse channel	N/Adate	2019/09/10time	21:16:11forward acquisition time	60.00reverse acquisition time	0.00gamma	496.2192k internal	0.2329k external	0.2329temperature offset calibration	0.9936default loss term (dB/km)	0.3790temperature slope calibration	1.0000multiplexer offset coefficient	1.0000multiplexer slope coefficient	1.0000fibre end	0.00T internal ref (°C)	31.37T ext. ref 1 (°C)	-0.31T ext. ref 2 (°C)	24.48length (m)	temperature (°C)	Stokes	anti-Stokes-747.200	-200.000	-0.031	-0.143
-746.185	275.342	-0.137	0.245
-745.171	-200.000	0.008	0.360
-744.156	-165.152	-0.300	-0.013
-743.142	-0.494	0.222	-0.159
-742.127	-200.000	0.010	-0.069
-741.112	54.796	-0.112	0.108
-740.098	-200.000	0.057	0.256
-739.083	-200.000	0.004	-0.225
-738.069	-170.301	0.092	0.003
-737.054	157.011	0.118	-0.164
-736.039	-17.524	-0.205	-0.130
-735.025	-69.924	0.082	-0.032
-734.010	-105.989	-0.355	0.081
-732.996	-200.000	0.052	-0.252
-731.981	0.922	-0.181	-0.131
-730.966	-4.645	-0.028	-0.020
-729.952	-125.331	-0.191	0.029
-728.937	-125.558	-0.225	-0.034
-727.923	-36.066	-0.081	0.044
-726.908	-200.000	-0.025	0.218
-725.894	207.011	0.132	-0.207
-724.879	202.456	0.018	0.029
-723.864	715.992	-0.024	-0.063
-722.850	278.606	-0.097	-0.174
-721.835	-117.801	0.220	-0.040
-720.821	-200.000	-0.048	-0.219
-719.806	-61.401	-0.210	0.089
-718.791	-200.000	-0.024	-0.255
-717.777	257.842	-0.034	-0.060
-716.762	37.896	-0.106	0.094
-715.748	800.000	0.095	0.420
-714.733	-200.000	0.012	-0.146
-713.718	-158.136	-0.318	-0.019
-712.704	-104.356	-0.339	-0.079
-711.689	-200.000	0.049	-0.360
-710.675	-18.220	-0.169	-0.107
-709.660	277.788	0.005	0.008
-708.645	256.629	0.055	0.094
-707.631	-48.010	-0.125	-0.061
-706.616	800.000	-0.088	0.291
-705.602	-200.000	0.041	-0.249
-704.587	-200.000	-0.053	-0.286
-703.572	-200.000	-0.036	-0.225
-702.558	20.918	-0.333	-0.271
-701.543	62.816	-0.172	-0.173
-700.529	30.189	0.145	0.124
-699.514	172.088	0.200	0.289
-698.499	63.884	0.272	-0.275
-697.485	-36.861	-0.262	0.141
-696.470	-105.273	-0.448	0.103
-695.456	-200.000	-0.019	0.193
-694.441	59.292	0.056	-0.055
-693.426	-11.042	-0.061	-0.041
-692.412	-70.115	-0.157	0.060
-691.397	-200.000	-0.062	-0.306
-690.383	-76.989	-0.236	-0.083
-689.368	-20.357	0.172	-0.106
-688.354	800.000	-0.096	0.349
-687.339	11.730	0.117	0.090
-686.324	-54.604	0.229	0.104
-685.310	576.933	-0.061	0.149
-684.295	-124.480	0.378	-0.059
-683.281	-200.000	-0.076	-0.414
-682.266	800.000	-0.076	-0.257
-681.251	-200.000	-0.011	0.053
-680.237	207.122	-0.079	-0.124
-679.222	800.000	0.157	-0.469
-678.208	74.850	0.156	0.165
-677.193	800.000	-0.007	-0.025
-676.178	-127.885	-0.125	0.018
-675.164	-200.000	0.063	0.360
-674.149	44.254	0.212	-0.195
-673.135	-200.000	0.013	-0.127
-672.120	-96.328	0.270	0.072
-671.105	-63.730	-0.277	-0.114
-670.091	3.677	0.287	-0.211
-669.076	-169.907	-0.367	0.013
-668.062	-40.694	-0.097	-0.050
-667.047	-53.342	0.233	-0.107
-666.032	17.101	0.139	0.111
-665.018	176.141	0.091	-0.132
-664.003	-58.869	0.348	0.151
-662.989	117.270	-0.147	-0.182
-661.974	-187.620	0.243	0.003
-660.959	293.305	-0.244	0.447
-659.945	265.004	-0.167	-0.292
-658.930	-200.000	-0.004	-0.289
-657.916	524.502	-0.113	-0.268
-656.901	100.059	-0.228	-0.265
-655.886	-200.000	-0.017	-0.180
-654.872	800.000	-0.048	-0.162
-653.857	100.380	-0.138	0.160
-652.843	180.091	-0.224	0.330
-651.828	-116.712	0.289	0.053
-650.814	18.215	-0.156	0.125
-649.799	800.000	-0.028	0.087
-648.784	-46.291	-0.336	-0.166
-647.770	-157.155	-0.426	0.026
-646.755	-148.642	0.071	0.006
-645.741	-200.000	0.030	-0.176
-644.726	-71.916	-0.112	0.042
-643.711	90.107	-0.193	-0.216
-642.697	211.991	-0.193	0.305
-641.682	640.676	-0.010	-0.024
-640.668	-99.489	-0.110	-0.028
-639.653	67.778	0.257	0.263
-638.638	-200.000	-0.005	0.026
-637.624	800.000	-0.079	-0.257
-636.609	-136.178	-0.162	0.019
-635.595	176.454	0.107	-0.156
-634.580	-41.902	-0.371	-0.191
-633.565	382.314	-0.069	-0.143
-632.551	66.804	0.288	0.294
-631.536	-200.000	0.021	-0.653
-630.522	-104.897	0.106	0.025
-629.507	184.114	0.125	-0.185
-628.492	-51.253	-0.334	0.157
-627.478	-91.487	-0.193	-0.055
-626.463	-50.409	-0.355	0.168
-625.449	-200.000	-0.023	-0.247
-624.434	60.934	0.133	0.132
-623.419	-169.717	0.325	-0.012
-622.405	18.048	0.263	-0.210
-621.390	-200.000	-0.029	0.306
-620.376	168.169	0.193	-0.275
-619.361	440.339	0.073	-0.161
-618.346	49.549	-0.151	0.142
-617.332	800.000	0.081	-0.284
-616.317	-200.000	-0.017	-0.149
-615.303	206.430	-0.061	0.095
-614.288	157.659	-0.034	-0.047
-613.273	70.764	0.192	-0.200
-612.259	217.210	-0.237	0.379
-611.244	-118.419	0.197	-0.035
-610.230	118.753	-0.205	-0.254
-609.215	800.000	-0.037	-0.120
-608.201	-200.000	0.042	-0.209
-607.186	-32.832	0.227	-0.126
-606.171	-97.193	-0.070	-0.018
-605.157	20.290	0.070	0.057
-604.142	383.746	0.054	-0.111
-603.128	-8.122	-0.212	-0.143
-602.113	-63.696	0.275	0.113
-601.098	-100.667	-0.074	-0.018
-600.084	580.484	0.105	0.257
-599.069	-200.000	0.002	-0.281
-598.055	15.507	0.253	0.199
-597.040	179.654	0.130	0.191
-596.025	148.114	0.232	0.313
-595.011	130.012	0.027	0.034
-593.996	-172.060	-0.202	0.007
-592.982	260.200	-0.125	-0.216
-591.967	764.051	-0.076	0.208
-590.952	541.639	-0.077	0.184
-589.938	169.870	-0.096	-0.138
-588.923	-65.888	0.163	-0.065
-587.909	-123.509	-0.154	0.025
-586.894	793.240	0.085	0.234
-585.879	-200.000	0.002	0.222
-584.865	-109.816	0.156	-0.033
-583.850	-151.252	0.483	-0.036
-582.836	-200.000	-0.069	0.311
-581.821	-166.090	-0.248	-0.011
-580.806	-121.219	-0.168	0.028
-579.792	800.000	-0.068	-0.202
-578.777	104.893	-0.068	0.081
-577.763	223.690	-0.138	0.223
-576.748	-200.000	-0.075	0.359
-575.733	76.019	0.079	0.084
-574.719	-116.514	-0.281	0.052
-573.704	-75.713	-0.207	-0.074
-572.690	217.085	-0.158	-0.252
-571.675	1.258	0.183	0.131
-570.661	-200.000	-0.054	0.260
-569.646	160.983	-0.115	0.161
-568.631	-46.444	-0.304	0.149
-567.617	-137.345	0.272	0.031
-566.602	-200.000	0.016	-0.246
-565.588	-36.990	-0.295	-0.158
-564.573	-37.480	-0.169	0.090
-563.558	-100.419	0.248	0.062
-562.544	32.682	-0.101	0.088
-561.529	137.153	0.107	-0.140
-560.515	281.001	0.107	-0.192
-559.500	-88.831	-0.165	-0.049
-558.485	-157.313	-0.034	0.002
-557.471	59.690	-0.331	-0.327
-556.456	-7.664	0.135	-0.091
-555.442	-104.632	0.127	-0.029
-554.427	660.126	0.059	0.153
-553.412	176.884	-0.061	0.089
-552.398	-102.240	0.209	0.050
-551.383	-77.398	0.183	0.063
-550.369	-96.079	-0.184	0.049
-549.354	-35.943	0.329	0.178
-548.339	653.514	-0.094	0.242
-547.325	800.000	0.087	0.297
-546.310	69.086	0.279	-0.287
-545.296	75.682	0.062	-0.065
-544.281	396.420	-0.147	0.307
-543.266	0.130	0.155	-0.111
-542.252	-200.000	-0.018	0.199
-541.237	756.593	0.066	-0.178
-540.223	-107.755	0.409	-0.089
-539.208	-63.055	0.256	0.105
-538.193	163.736	0.071	-0.099
-537.179	485.154	0.067	0.153
-536.164	17.117	-0.173	-0.137
-535.150	322.519	0.048	-0.092
-534.135	-200.000	0.053	-0.281
-533.121	33.222	0.202	-0.175
-532.106	800.000	0.083	0.265
-531.091	602.367	-0.092	0.227
-530.077	364.214	0.086	-0.172
-529.062	-25.762	-0.366	-0.216
-528.048	-108.876	-0.201	-0.043
-527.033	-48.418	-0.332	-0.160
-526.018	-200.000	-0.011	-0.248
-525.004	-29.966	0.075	-0.043
-523.989	800.000	-0.014	0.052
-522.975	195.650	0.113	0.172
-521.960	82.229	-0.222	0.240
-520.945	199.135	-0.108	-0.166
-519.931	-136.225	-0.082	-0.010
-518.916	-92.479	0.230	-0.064
-517.902	800.000	-0.033	0.124
-516.887	548.064	0.120	-0.288
-515.872	800.000	-0.073	-0.293
-514.858	-122.160	0.106	-0.017
-513.843	-137.138	0.160	-0.018
-512.829	-200.000	-0.034	0.150
-511.814	33.370	0.247	0.214
-510.799	-18.851	-0.067	0.042
-509.785	45.081	0.100	0.092
-508.770	525.129	0.133	-0.313
-507.756	365.962	-0.062	0.125
-506.741	187.169	-0.124	-0.185
-505.726	-200.000	-0.081	0.354
-504.712	-200.000	0.007	-0.301
-503.697	-200.000	0.011	0.246
-502.683	-118.623	0.152	-0.027
-501.668	327.771	-0.056	0.107
-500.653	-200.000	0.065	-0.294
-499.639	-200.000	0.026	-0.129
-498.624	98.763	-0.217	0.250
-497.610	171.162	-0.176	0.252
-496.595	559.411	0.137	-0.331
-495.581	-122.364	-0.245	0.040
-494.566	-200.000	0.036	-0.374
-493.551	60.749	0.136	0.134
-492.537	179.962	0.212	0.310
-491.522	95.353	-0.091	-0.103
-490.508	119.030	-0.123	-0.152
-489.493	384.453	-0.073	0.150
-488.478	-200.000	-0.030	0.166
-487.464	800.000	0.029	0.117
-486.449	339.612	-0.033	0.064
-485.435	84.529	-0.080	0.087
-484.420	-200.000	0.010	-0.133
-483.405	-200.000	0.003	0.018
-482.391	14.565	-0.075	0.058
-481.376	-68.679	0.314	0.121
-480.362	-200.000	0.031	0.167
-479.347	-200.000	-0.019	-0.401
-478.332	800.000	-0.044	-0.151
-477.318	-200.000	-0.047	-0.374
-476.303	800.000	0.122	-0.448
-475.289	149.760	0.150	0.203
-474.274	-200.000	-0.030	-0.150
-473.259	-5.996	-0.137	-0.093
-472.245	-160.209	0.162	0.009
-471.230	15.761	0.272	0.213
-470.216	-32.568	-0.140	-0.078
-469.201	96.871	0.103	-0.117
-468.186	-200.000	0.063	0.291
-467.172	-200.000	-0.002	-0.067
-466.157	326.156	-0.198	-0.377
-465.143	-200.000	-0.054	-0.269
-464.128	-82.429	0.142	0.046
-463.113	-200.000	-0.032	0.247
-462.099	89.978	-0.269	0.300
-461.084	-118.303	-0.131	0.023
-460.070	-200.000	0.016	-0.312
-459.055	-200.000	-0.061	0.404
-458.040	222.674	-0.172	-0.276
-457.026	-200.000	-0.035	-0.236
-456.011	542.547	-0.033	-0.079
-454.997	-44.918	0.184	0.091
-453.982	614.856	0.078	-0.193
-452.968	-25.534	-0.313	0.184
-451.953	-93.463	0.114	0.031
-450.938	-200.000	-0.024	-0.174
-449.924	-80.426	0.188	0.063
-448.909	-132.367	0.429	-0.055
-447.895	-200.000	0.083	0.438
-446.880	80.290	0.178	0.191
-445.865	-100.697	-0.271	-0.067
-444.851	-200.000	-0.022	0.191
-443.836	800.000	-0.156	-0.478
-442.822	-100.537	0.152	-0.037
-441.807	561.956	0.183	0.440
-440.792	800.000	-0.006	0.021
-439.778	337.101	-0.057	0.110
-438.763	-200.000	-0.019	0.354
-437.749	-200.000	-0.009	0.172
-436.734	-95.923	-0.135	-0.036
-435.719	100.367	0.085	-0.098
-434.705	266.328	-0.085	0.147
-433.690	245.307	0.213	-0.357
-432.676	79.805	0.187	0.200
-431.661	-92.509	-0.167	0.047
-430.646	-57.487	-0.221	0.097
-429.632	-200.000	0.018	0.090
-428.617	-200.000	-0.177	0.001
-427.603	162.876	-0.127	-0.177
-426.588	10.284	0.179	-0.136
-425.573	800.000	0.059	0.232
-424.559	800.000	0.026	-0.083
-423.544	-200.000	0.033	-0.172
-422.530	-200.000	0.014	0.097
-421.515	-8.750	-0.180	0.120
-420.500	148.411	0.254	-0.341
-419.486	390.021	0.046	0.096
-418.471	-200.000	-0.004	0.077
-417.457	-89.059	-0.357	0.105
-416.442	800.000	0.076	0.311
-415.428	-89.987	0.361	-0.105
-414.413	-94.464	-0.249	-0.067
-413.398	-119.700	0.113	0.019
-412.384	-113.671	0.309	0.060
-411.369	124.803	0.167	-0.208
-410.355	31.359	-0.067	0.057
-409.340	301.597	0.117	0.215
-408.325	-65.945	0.152	0.060
-407.311	168.773	-0.193	-0.273
-406.296	301.999	0.037	0.068
-405.282	-200.000	0.022	-0.150
-404.267	421.063	0.021	-0.044
-403.252	-200.000	0.007	-0.030
-402.238	-18.735	-0.358	0.222
-401.223	4.997	0.090	-0.066
-400.209	-28.355	-0.186	0.107
-399.194	-72.348	0.326	-0.120
-398.179	-3.719	0.258	-0.178
-397.165	51.729	0.113	0.107
-396.150	167.159	-0.067	-0.095
-395.136	-200.000	0.014	0.134
-394.121	96.765	-0.151	0.172
-393.106	99.995	-0.146	-0.168
-392.092	-164.938	0.175	-0.008
-391.077	-22.950	-0.336	0.201
-390.063	-130.685	0.155	-0.021
-389.048	-62.101	-0.243	-0.101
-388.033	-73.664	0.530	-0.192
-387.019	-137.987	-0.248	-0.027
-386.004	120.949	-0.080	-0.099
-384.990	-123.542	0.164	-0.026
-383.975	19.929	-0.142	0.113
-382.960	-160.211	0.058	0.003
-381.946	65.499	-0.127	-0.127
-380.931	-200.000	-0.022	0.143
-379.917	0.056	-0.068	0.048
-378.902	18.996	0.073	-0.058
-377.888	-146.818	0.272	0.023
-376.873	383.536	-0.026	0.053
-375.858	-200.000	0.041	-0.228
-374.844	-24.602	-0.218	0.129
-373.829	241.087	0.179	-0.296
-372.815	-32.530	-0.156	0.086
-371.800	-101.811	0.218	0.052
-370.785	185.438	0.154	-0.227
-369.771	-33.151	0.201	-0.111
-368.756	800.000	0.062	0.187
-367.742	-200.000	-0.042	-0.246
-366.727	-200.000	-0.042	0.250
-365.712	437.572	-0.174	0.376
-364.698	-200.000	0.012	0.076
-363.683	-15.871	-0.269	-0.170
-362.669	-32.725	0.482	0.266
-361.654	-192.515	0.285	0.003
-360.639	-34.270	0.052	0.028
-359.625	-200.000	0.015	0.235
-358.610	223.312	0.082	-0.130
-357.596	-136.696	-0.139	-0.016
-356.581	-182.703	0.346	0.006
-355.566	-94.749	0.044	0.012
-354.552	3.496	-0.219	0.159
-353.537	9.850	0.066	0.049
-352.523	-154.740	0.124	-0.008
-351.508	197.434	-0.201	0.304
-350.493	800.000	0.054	-0.150
-349.479	-24.026	-0.089	-0.053
-348.464	134.136	0.098	0.125
-347.450	682.506	0.081	-0.208
-346.435	-200.000	-0.002	-0.211
-345.420	-3.572	-0.241	0.166
-344.406	-200.000	0.036	0.432
-343.391	-200.000	-0.005	-0.166
-342.377	145.343	-0.088	0.117
-341.362	-78.506	0.170	-0.058
-340.348	273.932	-0.079	-0.139
-339.333	-200.000	0.004	-0.034
-338.318	-142.383	0.105	-0.010
-337.304	-7.045	-0.311	0.209
-336.289	146.055	-0.273	-0.363
-335.275	800.000	0.093	-0.294
-334.260	-32.463	0.108	0.059
-333.245	-134.089	0.262	-0.032
-332.231	-94.444	0.209	0.056
-331.216	800.000	0.187	-0.577
-330.202	3.074	0.072	-0.052
-329.187	-100.098	-0.160	-0.040
-328.172	-139.565	0.159	0.017
-327.158	72.087	-0.253	-0.260
-326.143	6.720	-0.182	-0.134
-325.129	-136.633	-0.112	0.013
-324.114	274.035	-0.102	-0.178
-323.099	-133.436	0.156	0.019
-322.085	-200.000	0.037	0.207
-321.070	800.000	-0.036	0.153
-320.056	-57.191	-0.048	0.021
-319.041	-148.673	-0.281	-0.023
-318.026	781.107	0.076	-0.207
-317.012	-200.000	-0.035	0.236
-315.997	-148.008	-0.163	-0.013
-314.983	-50.854	-0.301	-0.140
-313.968	-200.000	-0.006	0.040
-312.953	24.415	-0.216	-0.177
-311.939	-23.872	0.300	-0.178
-310.924	11.355	-0.187	-0.142
-309.910	226.344	-0.202	-0.324
-308.895	-86.604	-0.139	0.042
-307.880	432.357	-0.049	0.105
-306.866	460.989	-0.124	-0.273
-305.851	-57.164	0.172	0.075
-304.837	-140.739	-0.374	-0.038
-303.822	-119.945	0.218	0.037
-302.807	800.000	-0.104	0.290
-301.793	-200.000	-0.033	-0.243
-300.778	307.645	-0.019	-0.035
-299.764	-40.722	0.100	-0.051
-298.749	71.929	0.117	-0.120
-297.735	85.292	0.228	0.247
-296.720	800.000	0.119	0.373
-295.705	40.803	-0.271	-0.242
-294.691	-4.042	0.090	0.062
-293.676	152.485	-0.168	0.227
-292.662	70.728	-0.119	-0.122
-291.647	-42.427	0.257	0.130
-290.632	167.476	-0.229	0.322
-289.618	800.000	0.091	0.254
-288.603	101.969	0.169	0.195
-287.589	-200.000	0.000	0.050
-286.574	228.513	-0.022	0.036
-285.559	501.913	-0.112	-0.256
-284.545	571.636	-0.091	-0.218
-283.530	-200.000	-0.056	0.271
-282.516	-36.866	0.190	-0.101
-281.501	81.440	-0.113	0.121
-280.486	-150.065	-0.180	-0.014
-279.472	800.000	-0.059	-0.201
-278.457	96.870	0.303	-0.344
-277.443	92.436	-0.056	0.063
-276.428	105.761	-0.027	-0.031
-275.413	-63.128	-0.226	-0.092
-274.399	800.000	0.055	-0.218
-273.384	-46.699	-0.138	0.067
-272.370	108.580	0.242	0.286
-271.355	-50.942	-0.155	0.072
-270.340	176.578	0.016	-0.023
-269.326	-200.000	0.012	-0.152
-268.311	234.427	0.082	0.133
-267.297	32.576	-0.121	-0.103
-266.282	92.272	0.140	-0.156
-265.267	106.191	-0.167	-0.195
-264.253	-62.673	-0.134	0.055
-263.238	114.383	0.121	-0.145
-262.224	-200.000	-0.031	0.184
-261.209	-52.969	0.103	-0.047
-260.195	-108.269	0.144	-0.031
-259.180	47.695	-0.273	0.252
-258.165	-159.743	0.346	0.019
-257.151	141.298	0.149	0.195
-256.136	-171.723	0.166	-0.005
-255.122	-200.000	0.023	0.207
-254.107	-106.138	-0.152	0.034
-253.092	61.244	-0.115	0.113
-252.078	589.492	0.140	-0.340
-251.063	72.426	0.151	-0.155
-250.049	-15.028	0.127	-0.080
-249.034	-48.808	-0.203	-0.096
-248.019	-200.000	0.008	0.057
-247.005	84.204	-0.248	-0.268
-245.990	-200.000	-0.003	-0.105
-244.976	-124.028	0.353	-0.055
-243.961	-62.636	-0.224	-0.092
-242.946	127.273	0.172	0.216
-241.932	44.215	0.144	-0.130
-240.917	-27.277	-0.056	-0.032
-239.903	15.892	-0.203	0.158
-238.888	-102.680	-0.187	-0.044
-237.873	-131.644	0.328	-0.043
-236.859	-57.470	-0.204	-0.089
-235.844	-69.495	-0.113	-0.043
-234.830	-116.178	-0.191	0.035
-233.815	165.937	0.125	0.174
-232.800	-200.000	0.007	0.243
-231.786	67.781	-0.193	0.195
-230.771	-21.381	-0.207	0.125
-229.757	-137.120	-0.254	-0.029
-228.742	136.988	0.090	0.116
-227.727	-200.000	0.029	0.232
-226.713	0.579	-0.208	-0.146
-225.698	800.000	-0.102	0.284
-224.684	21.581	-0.209	0.168
-223.669	108.497	-0.205	-0.241
-222.655	800.000	0.057	0.195
-221.640	-200.000	-0.008	-0.318
-220.625	-31.909	0.343	-0.189
-219.611	684.695	0.088	-0.227
-218.596	-76.927	-0.107	0.037
-217.582	-200.000	0.067	0.540
-216.567	36.426	0.047	0.041
-215.552	-0.681	-0.087	-0.061
-214.538	-113.950	0.252	-0.048
-213.523	-105.760	-0.164	0.037
-212.509	-68.818	-0.082	-0.031
-211.494	319.704	-0.098	-0.183
-210.479	259.609	-0.191	0.325
-209.465	-146.990	-0.131	0.011
-208.450	-162.546	-0.067	0.003
-207.436	-112.804	-0.163	-0.032
-206.421	-51.016	0.129	-0.060
-205.406	203.860	0.120	-0.184
-204.392	-63.792	0.082	-0.033
-203.377	-200.000	-0.043	-0.236
-202.363	21.748	-0.205	0.164
-201.348	-200.000	0.023	0.308
-200.333	-79.904	-0.083	0.028
-199.319	-200.000	-0.010	0.232
-198.304	-200.000	-0.013	-0.210
-197.290	800.000	0.017	0.056
-196.275	-100.952	0.246	-0.060
-195.260	800.000	0.024	-0.071
-194.246	-141.189	0.443	0.045
-193.231	157.174	-0.143	0.195
-192.217	106.230	-0.102	-0.119
-191.202	201.927	-0.071	-0.108
-190.187	553.169	0.020	0.047
-189.173	130.461	0.049	-0.062
-188.158	-65.030	0.548	-0.218
-187.144	49.667	0.030	0.028
-186.129	-101.344	0.114	-0.027
-185.114	107.136	-0.085	0.099
-184.100	45.790	-0.202	-0.184
-183.085	-85.582	-0.061	-0.019
-182.071	-111.991	0.190	0.038
-181.056	-195.842	0.015	0.000
-180.042	-26.849	0.251	-0.144
-179.027	62.060	-0.139	-0.137
-178.012	797.061	0.053	0.144
-176.998	69.732	-0.115	0.116
-175.983	-121.428	-0.222	0.036
-174.969	-168.579	0.239	-0.009
-173.954	-60.438	-0.155	-0.065
-172.939	-142.293	0.403	0.039
-171.925	-106.795	-0.390	0.085
-170.910	287.922	0.197	-0.352
-169.896	550.561	-0.202	0.478
-168.881	534.433	-0.115	0.268
-167.866	184.665	-0.143	0.208
-166.852	-107.046	-0.142	-0.031
-165.837	90.334	0.100	-0.110
-164.823	88.952	0.034	-0.038
-163.808	-184.804	0.228	-0.004
-162.793	210.625	0.010	0.015
-161.779	-177.193	-0.073	0.002
-160.764	4.068	0.154	-0.111
-159.750	-139.414	0.163	0.017
-158.735	-71.344	0.320	0.118
-157.720	-200.000	0.004	0.238
-156.706	-200.000	-0.022	0.355
-155.691	-128.830	-0.017	0.002
-154.677	-14.106	0.243	-0.154
-153.662	70.115	0.104	0.105
-152.647	489.801	-0.083	0.187
-151.633	200.607	-0.078	0.117
-150.618	800.000	0.111	-0.374
-149.604	-200.000	-0.012	0.115
-148.589	-200.000	-0.008	0.220
-147.574	777.223	0.104	-0.279
-146.560	-64.347	-0.286	0.115
-145.545	-37.581	-0.105	0.055
-144.531	-95.543	-0.162	0.043
-143.516	-32.847	0.289	-0.158
-142.502	128.140	-0.125	-0.156
-141.487	-53.859	0.139	-0.063
-140.472	-200.000	0.000	-0.225
-139.458	-200.000	0.025	0.123
-138.443	800.000	0.078	-0.295
-137.429	-177.175	0.146	-0.004
-136.414	-200.000	-0.072	-0.451
-135.399	-200.000	0.026	0.182
-134.385	345.254	0.054	-0.104
-133.370	-200.000	0.018	-0.433
-132.356	2.067	-0.229	-0.163
-131.341	604.777	-0.120	-0.294
-130.326	-64.467	0.252	0.101
-129.312	-109.752	0.384	0.079
-128.297	688.858	0.050	-0.128
-127.283	550.401	0.075	-0.177
-126.268	-159.392	0.117	-0.006
-125.253	800.000	0.028	-0.084
-124.239	-29.453	0.384	0.216
-123.224	-142.666	0.523	0.050
