DTS Sentinel unit serial number:	SN413079Multiplexer serial number:	ORYXHardware model number:	OX4-SRSoftware version number:	ORYX F/W v4.00 Oryx Data Collector v3.7.2.0data status	okinstallation	princeton_trtdifferential loss correction	single-endedforward channel	channel 1reverse channel	N/Adate	2019/09/18time	05:54:35forward acquisition time	60.00reverse acquisition time	0.00gamma	496.2192k internal	0.2340k external	0.2340temperature offset calibration	0.9976default loss term (dB/km)	0.3790temperature slope calibration	1.0000multiplexer offset coefficient	1.0000multiplexer slope coefficient	1.0000fibre end	0.00T internal ref (°C)	23.25T ext. ref 1 (°C)	0.19T ext. ref 2 (°C)	17.36length (m)	temperature (°C)	Stokes	anti-Stokes-747.200	346.466	-0.105	-0.208
-746.185	-200.000	0.040	0.518
-745.171	-77.686	0.138	-0.048
-744.156	-200.000	0.011	0.179
-743.142	86.458	0.416	0.459
-742.127	800.000	-0.061	-0.206
-741.112	-95.087	-0.275	-0.075
-740.098	-54.087	-0.299	0.136
-739.083	-200.000	0.026	-0.172
-738.069	20.987	-0.274	-0.223
-737.054	37.584	-0.043	0.038
-736.039	-121.517	-0.424	-0.071
-735.025	17.315	0.377	0.300
-734.010	-132.924	-0.151	-0.019
-732.996	-139.877	-0.286	-0.030
-731.981	-36.011	-0.163	-0.088
-730.966	-177.969	-0.099	0.002
-729.952	-184.313	-0.590	-0.010
-728.937	800.000	-0.072	-0.278
-727.923	311.598	0.058	-0.108
-726.908	-107.482	0.133	-0.029
-725.894	312.197	-0.127	0.239
-724.879	218.235	-0.133	-0.213
-723.864	-59.982	-0.162	-0.070
-722.850	-144.069	-0.190	-0.018
-721.835	-109.949	0.164	0.034
-720.821	691.302	0.097	-0.253
-719.806	48.395	-0.102	0.096
-718.791	-190.561	0.220	0.002
-717.777	-30.613	0.029	-0.016
-716.762	261.606	0.115	-0.200
-715.748	-200.000	0.039	0.236
-714.733	299.943	-0.088	0.163
-713.718	-129.484	-0.147	-0.020
-712.704	-87.370	-0.289	-0.088
-711.689	-200.000	-0.051	-0.414
-710.675	38.323	-0.193	-0.172
-709.660	-79.496	0.303	-0.102
-708.645	-23.305	0.178	0.107
-707.631	108.141	0.096	-0.114
-706.616	-150.182	0.368	-0.029
-705.602	5.719	0.152	-0.113
-704.587	123.871	0.392	0.493
-703.572	-87.299	-0.260	0.079
-702.558	-200.000	0.022	0.170
-701.543	186.782	0.056	0.083
-700.529	53.114	0.268	0.257
-699.514	81.826	-0.077	0.083
-698.499	-200.000	-0.039	-0.328
-697.485	-200.000	-0.050	0.297
-696.470	-200.000	-0.022	-0.224
-695.456	-22.659	-0.210	0.127
-694.441	-100.073	-0.147	-0.037
-693.426	-126.566	-0.133	-0.020
-692.412	17.788	-0.171	0.136
-691.397	520.740	-0.069	0.161
-690.383	-104.599	0.165	0.038
-689.368	800.000	0.072	0.228
-688.354	-64.079	-0.203	0.083
-687.339	-114.218	0.128	-0.025
-686.324	-200.000	-0.001	0.094
-685.310	94.235	0.274	-0.311
-684.295	420.519	-0.081	-0.174
-683.281	-45.586	-0.125	0.062
-682.266	-16.572	-0.183	0.116
-681.251	187.159	-0.058	0.087
-680.237	80.087	-0.294	0.316
-679.222	800.000	0.035	-0.139
-678.208	-77.212	0.139	0.048
-677.193	-132.166	0.253	-0.033
-676.178	458.432	-0.112	-0.249
-675.164	-40.147	0.248	0.129
-674.149	-200.000	0.006	-0.191
-673.135	27.739	0.055	-0.046
-672.120	-47.946	0.302	-0.146
-671.105	225.620	-0.126	-0.205
-670.091	-9.265	-0.225	-0.151
-669.076	108.014	0.157	0.187
-668.062	-50.386	-0.167	-0.079
-667.047	687.681	0.038	-0.099
-666.032	800.000	-0.027	-0.104
-665.018	800.000	0.028	-0.119
-664.003	-132.479	0.180	0.023
-662.989	-45.820	-0.376	0.185
-661.974	1.058	-0.174	-0.125
-660.959	15.192	-0.035	0.027
-659.945	-76.742	0.281	-0.098
-658.930	75.024	-0.382	-0.402
-657.916	177.793	-0.095	-0.138
-656.901	-163.352	-0.434	0.021
-655.886	-45.625	-0.091	0.045
-654.872	630.597	-0.038	0.096
-653.857	204.038	0.099	0.153
-652.843	-5.282	0.199	-0.136
-651.828	800.000	-0.034	-0.147
-650.814	800.000	-0.087	-0.293
-649.799	-35.244	0.299	0.162
-648.784	-145.882	-0.423	0.038
-647.770	74.488	-0.187	0.197
-646.755	73.582	-0.106	-0.111
-645.741	-25.589	-0.118	-0.069
-644.726	-200.000	-0.005	0.244
-643.711	-154.509	-0.418	0.028
-642.697	800.000	0.029	0.112
-641.682	102.401	-0.124	0.145
-640.668	-196.764	-0.238	0.002
-639.653	588.402	-0.031	-0.076
-638.638	189.572	0.205	-0.308
-637.624	-129.530	0.131	-0.018
-636.609	123.345	0.189	-0.237
-635.595	-33.488	-0.575	-0.317
-634.580	-158.919	0.283	-0.016
-633.565	-200.000	-0.005	-0.067
-632.551	-107.765	-0.167	-0.036
-631.536	-6.153	0.155	-0.106
-630.522	209.836	0.046	0.072
-629.507	-157.169	-0.345	0.021
-628.492	-200.000	-0.022	-0.241
-627.478	-102.252	0.352	-0.084
-626.463	-70.553	-0.181	0.069
-625.449	-125.585	-0.178	-0.027
-624.434	800.000	-0.095	-0.357
-623.419	-200.000	-0.030	-0.148
-622.405	800.000	0.043	-0.154
-621.390	-173.256	0.073	-0.002
-620.376	-47.573	0.160	0.078
-619.361	800.000	0.069	0.213
-618.346	800.000	0.032	-0.109
-617.332	-200.000	0.023	0.178
-616.317	800.000	-0.056	-0.228
-615.303	800.000	0.061	0.261
-614.288	360.487	0.094	0.188
-613.273	-49.270	0.249	-0.118
-612.259	-46.904	0.217	0.106
-611.244	12.259	0.112	-0.086
-610.230	-16.842	0.108	-0.068
-609.215	-200.000	0.023	0.135
-608.201	155.334	0.161	-0.221
-607.186	-35.281	-0.244	0.133
-606.171	-89.220	-0.125	0.037
-605.157	27.533	0.269	-0.226
-604.142	-153.679	-0.319	0.022
-603.128	-104.603	-0.211	-0.049
-602.113	-110.442	0.335	0.069
-601.098	800.000	-0.049	-0.151
-600.084	67.858	-0.168	-0.172
-599.069	800.000	-0.036	-0.142
-598.055	148.319	0.214	-0.288
-597.040	-200.000	0.010	-0.185
-596.025	800.000	-0.114	0.450
-595.011	800.000	0.077	0.230
-593.996	50.401	-0.100	-0.094
-592.982	162.349	-0.055	0.077
-591.967	164.603	-0.117	-0.165
-590.952	-8.147	0.240	-0.161
-589.938	43.732	-0.184	-0.168
-588.923	-83.658	0.133	0.042
-587.909	-200.000	-0.015	-0.458
-586.894	-200.000	-0.080	-0.448
-585.879	94.061	-0.061	0.069
-584.865	-92.856	-0.083	-0.023
-583.850	-200.000	0.014	-0.123
-582.836	-200.000	0.009	-0.305
-581.821	-34.517	-0.267	-0.146
-580.806	-73.926	0.421	-0.152
-579.792	800.000	-0.034	0.103
-578.777	158.065	0.078	0.107
-577.763	195.953	-0.133	-0.202
-576.748	-16.052	-0.147	0.093
-575.733	-200.000	0.001	-0.103
-574.719	-122.689	-0.147	0.024
-573.704	133.253	0.054	0.070
-572.690	-200.000	-0.024	0.117
-571.675	278.637	-0.118	0.210
-570.661	295.043	0.135	-0.247
-569.646	-200.000	-0.005	0.123
-568.631	-61.905	-0.258	0.107
-567.617	-200.000	0.047	-0.238
-566.602	-184.549	-0.110	0.002
-565.588	-33.418	0.378	0.208
-564.573	122.472	0.081	-0.100
-563.558	147.391	0.206	-0.276
-562.544	-200.000	-0.023	-0.170
-561.529	255.765	0.146	0.249
-560.515	-164.706	0.278	0.012
-559.500	-200.000	-0.013	-0.215
-558.485	-4.838	0.019	-0.013
-557.471	59.965	-0.265	-0.261
-556.456	-130.696	-0.089	-0.012
-555.442	-200.000	0.006	0.049
-554.427	-200.000	0.017	0.095
-553.412	704.004	-0.148	0.388
-552.398	86.783	-0.180	0.197
-551.383	137.111	0.166	-0.216
-550.369	-28.682	0.186	-0.106
-549.354	-48.600	-0.026	-0.012
-548.339	210.751	-0.141	0.220
-547.325	-57.932	0.105	-0.046
-546.310	375.319	-0.087	-0.177
-545.296	-45.954	0.228	0.112
-544.281	-47.522	0.295	0.143
-543.266	61.367	0.070	-0.069
-542.252	68.022	0.057	-0.058
-541.237	-32.041	-0.325	-0.181
-540.223	-87.506	0.272	0.082
-539.208	-67.513	0.386	-0.151
-538.193	186.171	-0.229	0.338
-537.179	303.343	-0.124	-0.228
-536.164	2.833	-0.155	-0.112
-535.150	174.596	0.046	-0.066
-534.135	-95.447	0.214	-0.057
-533.121	318.416	-0.198	0.374
-532.106	-32.936	-0.150	0.083
-531.091	-200.000	-0.008	0.152
-530.077	-103.328	-0.298	-0.070
-529.062	-200.000	0.032	-0.160
-528.048	158.286	0.040	-0.056
-527.033	323.594	-0.177	0.335
-526.018	189.480	0.149	0.222
-525.004	212.460	-0.022	0.035
-523.989	-190.632	-0.363	-0.004
-522.975	-47.200	0.085	-0.041
-521.960	-200.000	0.047	-0.259
-520.945	-200.000	0.043	0.362
-519.931	121.789	0.323	0.401
-518.916	-62.221	0.356	0.148
-517.902	-200.000	0.038	0.168
-516.887	722.402	0.091	-0.242
-515.872	-40.917	-0.081	0.041
-514.858	-148.199	0.241	-0.020
-513.843	381.992	-0.056	-0.114
-512.829	12.780	0.096	0.074
-511.814	-8.805	0.056	0.037
-510.799	268.957	-0.094	-0.163
-509.785	-200.000	-0.027	-0.131
-508.770	-200.000	0.024	0.153
-507.756	-200.000	0.078	0.380
-506.741	-200.000	0.022	0.255
-505.726	107.527	-0.214	0.253
-504.712	416.041	0.189	0.399
-503.697	-200.000	-0.035	0.294
-502.683	332.195	0.085	0.164
-501.668	-127.387	0.170	-0.025
-500.653	-200.000	0.004	0.060
-499.639	549.189	-0.071	-0.169
-498.624	800.000	-0.036	0.127
-497.610	-132.946	-0.125	0.016
-496.595	99.714	0.142	-0.163
-495.581	61.541	0.306	0.303
-494.566	384.671	0.100	-0.205
-493.551	-155.541	0.258	-0.016
-492.537	-40.195	-0.092	0.047
-491.522	-48.301	0.248	0.119
-490.508	34.395	0.089	-0.077
-489.493	800.000	-0.045	0.173
-488.478	632.622	0.025	0.063
-487.464	-200.000	0.003	-0.022
-486.449	25.599	-0.278	-0.230
-485.435	-83.429	-0.103	0.033
-484.420	-200.000	-0.001	-0.233
-483.405	267.653	0.086	0.150
-482.391	-30.372	-0.257	-0.145
-481.376	56.624	0.269	-0.259
-480.362	800.000	0.101	0.397
-479.347	97.512	0.075	-0.086
-478.332	339.134	0.046	0.089
-477.318	-12.633	0.240	0.155
-476.303	155.137	0.063	-0.085
-475.289	250.755	-0.175	-0.295
-474.274	26.723	-0.093	0.077
-473.259	608.798	-0.151	0.373
-472.245	-200.000	0.046	0.277
-471.230	79.459	0.204	-0.217
-470.216	-23.019	-0.255	-0.153
-469.201	-200.000	-0.030	-0.169
-468.186	-79.272	0.372	0.125
-467.172	-200.000	-0.097	0.473
-466.157	-138.290	-0.125	0.014
-465.143	-48.115	0.153	0.073
-464.128	-200.000	0.012	0.133
-463.113	-200.000	0.025	-0.201
-462.099	-200.000	0.022	0.119
-461.084	-168.358	0.078	0.003
-460.070	150.115	0.072	0.097
-459.055	408.712	-0.158	-0.331
-458.040	291.397	0.137	0.247
-457.026	-200.000	0.043	-0.321
-456.011	-200.000	0.006	0.340
-454.997	-22.586	0.165	0.099
-453.982	-200.000	0.044	-0.309
-452.968	238.470	-0.128	-0.211
-451.953	231.453	-0.213	-0.346
-450.938	-28.395	-0.079	0.045
-449.924	75.998	-0.117	0.123
-448.909	70.494	-0.133	0.136
-447.895	-200.000	-0.032	-0.167
-446.880	-200.000	-0.050	-0.229
-445.865	394.871	0.118	0.244
-444.851	-191.068	-0.360	0.004
-443.836	708.944	-0.044	0.116
-442.822	-13.617	0.153	0.098
-441.807	-180.856	0.041	0.001
-440.792	-135.421	-0.277	-0.033
-439.778	-88.551	0.193	-0.057
-438.763	-62.004	0.161	-0.067
-437.749	-38.696	0.212	-0.111
-436.734	-117.004	-0.232	-0.042
-435.719	800.000	0.036	-0.114
-434.705	-66.543	0.304	-0.120
-433.690	-200.000	-0.052	-0.352
-432.676	494.995	0.123	0.280
-431.661	-98.118	-0.233	-0.059
-430.646	-63.176	0.250	-0.102
-429.632	19.409	0.202	-0.160
-428.617	30.702	-0.188	0.159
-427.603	-200.000	0.028	-0.232
-426.588	-40.348	-0.257	-0.132
-425.573	199.495	0.078	0.118
-424.559	5.230	0.101	0.073
-423.544	-16.521	-0.148	-0.093
-422.530	24.362	-0.109	-0.089
-421.515	-127.251	0.063	-0.009
-420.500	-200.000	0.031	-0.580
-419.486	402.953	-0.084	-0.176
-418.471	87.624	-0.145	-0.159
-417.457	111.542	0.069	0.082
-416.442	-108.122	-0.134	0.029
-415.428	519.613	0.160	0.371
-414.413	693.094	0.022	-0.057
-413.398	562.557	-0.042	-0.101
-412.384	-200.000	-0.044	-0.337
-411.369	-200.000	0.047	-0.210
-410.355	49.056	0.142	0.132
-409.340	-20.398	-0.224	-0.136
-408.325	-57.320	-0.138	0.060
-407.311	736.112	-0.033	0.089
-406.296	1.821	0.196	-0.140
-405.282	-61.099	-0.139	-0.058
-404.267	190.506	0.037	0.056
-403.252	800.000	-0.067	0.196
-402.238	101.062	-0.280	-0.322
-401.223	3.302	0.399	-0.287
-400.209	353.684	-0.130	0.255
-399.194	251.758	-0.188	0.317
-398.179	232.740	0.085	0.138
-397.165	206.067	-0.114	-0.176
-396.150	-111.143	-0.222	-0.045
-395.136	800.000	0.037	0.147
-394.121	262.651	0.062	0.106
-393.106	-18.792	-0.644	-0.396
-392.092	189.457	0.061	-0.091
-391.077	218.669	0.090	0.142
-390.063	48.309	-0.227	0.210
-389.048	800.000	0.051	0.155
-388.033	-2.827	0.284	-0.196
-387.019	-1.288	0.356	-0.248
-386.004	-2.045	-0.353	-0.245
-384.990	800.000	0.060	-0.166
-383.975	-91.719	0.297	0.083
-382.960	-200.000	-0.008	0.331
-381.946	-200.000	-0.019	0.097
-380.931	-23.447	0.131	0.078
-379.917	-147.980	-0.058	-0.005
-378.902	-33.097	-0.126	0.069
-377.888	143.412	0.186	-0.245
-376.873	-98.379	-0.363	-0.092
-375.858	204.782	0.204	0.313
-374.844	205.704	0.111	0.171
-373.829	-200.000	0.006	0.055
-372.815	532.810	-0.061	0.142
-371.800	91.582	-0.042	0.046
-370.785	524.167	0.134	0.311
-369.771	303.150	-0.216	0.396
-368.756	-65.390	-0.205	-0.081
-367.742	717.127	0.065	0.171
-366.727	78.415	-0.068	0.072
-365.712	152.381	-0.125	0.169
-364.698	-26.600	-0.260	0.150
-363.683	-32.624	-0.125	-0.069
-362.669	274.357	0.205	0.358
-361.654	21.922	-0.191	0.154
-360.639	410.075	0.045	-0.094
-359.625	800.000	-0.126	-0.400
-358.610	-200.000	0.057	-0.254
-357.596	3.290	0.300	-0.215
-356.581	117.261	-0.111	0.134
-355.566	20.082	0.123	0.098
-354.552	-115.653	-0.011	0.002
-353.537	-102.119	-0.238	-0.057
-352.523	-200.000	0.002	-0.026
-351.508	800.000	0.060	0.206
-350.493	-18.809	-0.336	-0.206
-349.479	-200.000	-0.026	0.404
-348.464	436.114	-0.111	-0.239
-347.450	535.216	0.098	-0.230
-346.435	70.974	-0.132	0.135
-345.420	-78.260	0.285	0.097
-344.406	-200.000	-0.050	-0.218
-343.391	133.870	0.221	-0.283
-342.377	285.760	-0.015	-0.027
-341.362	-33.518	0.055	0.030
-340.348	715.187	-0.093	-0.243
-339.333	256.814	-0.063	-0.106
-338.318	140.906	0.142	-0.186
-337.304	-72.331	0.287	0.105
-336.289	57.973	0.084	-0.081
-335.275	524.956	0.096	0.223
-334.260	-200.000	-0.038	0.294
-333.245	-171.941	0.374	0.012
-332.231	-200.000	-0.055	-0.315
-331.216	23.414	0.308	-0.250
-330.202	-200.000	0.018	-0.343
-329.187	800.000	-0.087	0.350
-328.172	-40.366	-0.206	-0.106
-327.158	-10.957	-0.298	0.194
-326.143	21.949	0.109	-0.087
-325.129	104.588	-0.311	-0.362
-324.114	-127.177	-0.041	0.006
-323.099	273.441	-0.161	0.281
-322.085	66.687	0.175	0.176
-321.070	40.316	0.203	0.180
-320.056	267.019	0.227	0.391
-319.041	800.000	0.040	-0.120
-318.026	-143.554	0.266	-0.025
-317.012	-200.000	0.012	0.092
-315.997	19.907	-0.134	0.106
-314.983	45.196	0.137	-0.125
-313.968	-79.539	-0.075	0.025
-312.953	16.010	-0.170	0.132
-311.939	-50.284	-0.157	-0.073
-310.924	-200.000	-0.009	-0.090
-309.910	75.825	0.134	0.140
-308.895	-78.939	0.313	-0.105
-307.880	-200.000	-0.009	0.111
-306.866	368.367	-0.050	-0.100
-305.851	-117.474	-0.257	0.046
-304.837	4.197	-0.144	-0.104
-303.822	-32.852	0.099	0.054
-302.807	786.276	-0.071	-0.191
-301.793	800.000	0.189	-0.518
-300.778	800.000	0.061	0.204
-299.764	105.206	-0.267	0.310
-298.749	-200.000	0.009	0.266
-297.735	-200.000	-0.007	0.299
-296.720	-200.000	0.031	0.150
-295.705	-33.524	0.060	0.032
-294.691	305.021	-0.224	-0.409
-293.676	114.926	0.039	-0.047
-292.662	388.445	0.025	-0.052
-291.647	38.571	0.350	-0.307
-290.632	38.367	-0.152	-0.134
-289.618	-159.529	0.132	0.007
-288.603	181.571	0.127	0.183
-287.589	-200.000	-0.012	0.114
-286.574	127.379	0.018	-0.023
-285.559	800.000	0.006	-0.021
-284.545	-4.278	0.313	-0.214
-283.530	97.401	0.068	0.077
-282.516	263.680	-0.045	-0.077
-281.501	520.497	0.244	0.564
-280.486	-74.335	0.289	-0.103
-279.472	-15.561	-0.160	-0.100
-278.457	-5.975	0.094	-0.063
-277.443	-200.000	-0.014	0.223
-276.428	17.320	-0.217	0.169
-275.413	259.416	0.175	0.297
-274.399	-53.396	0.235	-0.106
-273.384	80.092	-0.287	-0.304
-272.370	-35.382	0.237	-0.127
-271.355	-137.850	0.090	0.010
-270.340	-108.422	-0.161	-0.034
-269.326	-115.313	-0.098	-0.018
-268.311	34.417	0.185	0.159
-267.297	187.699	-0.149	0.218
-266.282	800.000	-0.019	-0.068
-265.267	67.012	0.104	-0.105
-264.253	220.316	0.127	-0.201
-263.238	-139.520	-0.424	-0.045
-262.224	800.000	0.077	-0.330
-261.209	129.102	0.116	0.146
-260.195	5.685	0.094	-0.068
-259.180	800.000	-0.061	-0.176
-258.165	-22.465	0.205	-0.122
-257.151	-124.878	0.401	0.061
-256.136	32.601	-0.035	0.029
-255.122	-82.174	0.081	0.026
-254.107	33.659	-0.036	-0.030
-253.092	-15.145	0.134	-0.084
-252.078	800.000	0.029	0.114
-251.063	-200.000	0.009	-0.077
-250.049	-35.350	-0.265	0.142
-249.034	326.217	-0.008	0.015
-248.019	-53.528	-0.209	0.094
-247.005	-119.869	0.284	0.048
-245.990	327.938	-0.111	0.210
-244.976	800.000	-0.038	-0.126
-243.961	-31.979	0.150	-0.083
-242.946	18.305	-0.295	-0.231
-241.932	-134.848	0.052	0.006
-240.917	-103.923	0.201	-0.046
-239.903	-200.000	0.038	-0.307
-238.888	-113.158	0.150	-0.029
-237.873	89.869	-0.108	-0.119
-236.859	151.606	-0.090	0.120
-235.844	54.628	0.330	-0.312
-234.830	-1.908	-0.051	-0.036
-233.815	196.205	-0.080	-0.119
-232.800	411.228	0.110	0.230
-231.786	55.224	0.093	-0.088
-230.771	-200.000	0.001	0.234
-229.757	-50.866	0.384	-0.177
-228.742	2.175	-0.058	0.041
-227.727	-54.796	-0.051	0.023
-226.713	-61.269	-0.304	0.126
-225.698	588.212	-0.109	0.264
-224.684	-6.427	-0.336	-0.225
-223.669	184.508	-0.041	0.059
-222.655	-23.728	-0.234	-0.138
-221.640	800.000	0.059	-0.172
-220.625	172.417	-0.134	-0.189
-219.611	690.759	-0.093	0.239
-218.596	227.928	-0.021	0.034
-217.582	-200.000	0.014	0.195
-216.567	-200.000	-0.014	-0.300
-215.552	-38.773	0.181	-0.094
-214.538	172.416	-0.112	-0.158
-213.523	-110.875	-0.101	-0.020
-212.509	-142.687	-0.092	-0.009
-211.494	-200.000	-0.005	0.026
-210.479	494.326	-0.023	-0.052
-209.465	-141.227	-0.367	-0.037
-208.450	-200.000	0.021	-0.277
-207.436	-86.922	0.040	-0.012
-206.421	-196.438	-0.387	-0.003
-205.406	20.420	-0.183	0.145
-204.392	105.459	-0.130	0.151
-203.377	-94.995	0.421	-0.112
-202.363	24.262	-0.312	0.253
-201.348	247.352	0.188	-0.312
-200.333	-100.361	0.169	-0.041
-199.319	101.905	-0.336	0.385
-198.304	258.319	-0.143	0.243
-197.290	800.000	-0.071	0.248
-196.275	530.511	0.217	0.502
-195.260	-30.103	-0.474	0.264
-194.246	173.935	-0.169	0.240
-193.231	86.918	-0.091	0.098
-192.217	333.244	0.109	0.206
-191.202	-3.794	-0.308	-0.210
-190.187	155.203	0.147	-0.198
-189.173	59.726	0.136	0.132
-188.158	20.013	0.102	0.080
-187.144	284.553	-0.104	-0.184
-186.129	-30.343	0.071	-0.039
-185.114	-35.851	0.181	0.096
-184.100	52.605	0.125	0.117
-183.085	-162.014	0.201	0.010
-182.071	49.968	-0.164	0.152
-181.056	-200.000	-0.031	0.291
-180.042	424.330	0.060	-0.126
-179.027	-29.395	-0.133	0.074
-178.012	-123.421	-0.099	0.016
-176.998	-94.584	-0.181	0.048
-175.983	-143.010	0.153	0.014
-174.969	-14.801	-0.200	-0.126
-173.954	45.654	0.316	0.286
-172.939	-130.703	-0.294	0.039
-171.925	-149.422	-0.152	0.012
-170.910	-162.131	-0.293	-0.014
-169.896	-13.135	0.341	-0.217
-168.881	-200.000	-0.036	-0.182
-167.866	24.432	0.257	-0.209
-166.852	107.266	0.119	-0.139
-165.837	-62.249	-0.114	0.046
-164.823	-28.743	0.152	0.086
-163.808	116.133	0.097	0.116
-162.793	276.746	-0.084	0.146
-161.779	-67.156	-0.427	-0.165
-160.764	-25.975	-0.210	0.121
-159.750	-200.000	0.021	0.221
-158.735	-148.104	0.302	-0.025
-157.720	27.289	0.129	-0.106
-156.706	-200.000	-0.008	0.393
-155.691	-150.608	0.334	0.025
-154.677	358.230	-0.148	-0.289
-153.662	800.000	0.042	0.177
-152.647	800.000	-0.112	0.311
-151.633	-4.978	-0.068	0.046
-150.618	-14.049	0.201	-0.127
-149.604	-143.007	0.372	-0.035
-148.589	-188.364	-0.157	-0.002
-147.574	-200.000	0.028	-0.126
-146.560	-200.000	-0.047	0.392
-145.545	-75.767	-0.270	0.094
-144.531	532.971	0.036	0.084
-143.516	800.000	-0.074	0.236
-142.502	147.951	0.160	0.211
-141.487	75.276	-0.159	-0.164
-140.472	-64.426	-0.513	-0.204
-139.458	66.127	0.149	-0.148
-138.443	50.113	0.165	-0.153
-137.429	2.669	-0.102	0.073
-136.414	-200.000	-0.029	0.130
-135.399	-70.450	0.281	0.104
-134.385	-117.422	0.218	-0.039
-133.370	438.605	-0.108	-0.230
-132.356	-38.219	0.188	-0.098
-131.341	-140.205	-0.312	0.032
-130.326	-200.000	0.083	-0.374
-129.312	22.121	-0.063	-0.050
-128.297	-200.000	-0.039	0.343
-127.283	-64.820	0.118	0.047
-126.268	-6.141	-0.015	-0.010
-125.253	96.584	0.185	-0.207
-124.239	-78.452	-0.061	-0.020
-123.224	-98.332	-0.463	0.116
-122.210	-125.571	0.238	-0.035
-121.195	-128.508	-0.070	-0.010
