DTS Sentinel unit serial number:	SN413079Multiplexer serial number:	ORYXHardware model number:	OX4-SRSoftware version number:	ORYX F/W v4.00 Oryx Data Collector v3.7.2.0data status	okinstallation	princeton_trtdifferential loss correction	single-endedforward channel	channel 1reverse channel	N/Adate	2019/09/18time	22:10:35forward acquisition time	60.00reverse acquisition time	0.00gamma	496.2192k internal	0.2340k external	0.2340temperature offset calibration	1.0021default loss term (dB/km)	0.3790temperature slope calibration	1.0000multiplexer offset coefficient	1.0000multiplexer slope coefficient	1.0000fibre end	0.00T internal ref (°C)	24.44T ext. ref 1 (°C)	0.80T ext. ref 2 (°C)	18.17length (m)	temperature (°C)	Stokes	anti-Stokes-747.200	-10.310	-0.229	-0.152
-746.185	195.304	-0.187	0.285
-745.171	-67.900	-0.352	0.138
-744.156	401.425	-0.006	0.013
-743.142	-157.460	-0.266	0.016
-742.127	122.018	-0.105	-0.131
-741.112	-200.000	-0.029	-0.190
-740.098	800.000	0.119	0.417
-739.083	800.000	-0.095	-0.285
-738.069	94.645	-0.209	0.238
-737.054	800.000	0.047	0.192
-736.039	670.607	-0.139	-0.362
-735.025	-19.113	0.357	0.222
-734.010	-51.422	-0.304	-0.143
-732.996	-200.000	-0.022	0.272
-731.981	120.374	0.308	0.384
-730.966	314.554	-0.045	-0.085
-729.952	81.088	-0.280	-0.303
-728.937	-112.063	0.122	-0.025
-727.923	285.971	0.125	0.226
-726.908	-31.048	0.272	-0.154
-725.894	233.711	0.053	-0.087
-724.879	-22.765	0.080	0.048
-723.864	480.354	0.059	-0.135
-722.850	271.151	-0.055	-0.097
-721.835	118.109	-0.171	-0.211
-720.821	-55.512	-0.270	0.121
-719.806	80.931	-0.210	0.227
-718.791	-1.859	-0.296	0.209
-717.777	325.080	-0.168	0.322
-716.762	74.693	-0.290	0.306
-715.748	-200.000	-0.026	-0.165
-714.733	152.031	0.182	0.249
-713.718	189.953	-0.070	-0.105
-712.704	59.216	-0.295	-0.291
-711.689	-134.660	-0.170	0.021
-710.675	359.686	-0.153	0.307
-709.660	234.282	-0.090	0.148
-708.645	173.084	0.118	0.170
-707.631	162.232	-0.237	-0.332
-706.616	101.686	-0.134	-0.156
-705.602	-15.307	-0.144	-0.093
-704.587	-200.000	-0.062	0.274
-703.572	-200.000	0.043	-0.252
-702.558	-34.724	-0.237	-0.130
-701.543	57.722	0.090	-0.088
-700.529	-122.996	-0.148	0.024
-699.514	800.000	0.063	-0.212
-698.499	-200.000	0.028	0.128
-697.485	413.390	0.106	0.225
-696.470	800.000	0.109	-0.351
-695.456	-113.223	0.258	0.051
-694.441	-52.266	-0.215	0.100
-693.426	-4.154	0.053	0.037
-692.412	-117.539	0.164	0.030
-691.397	-200.000	-0.009	-0.293
-690.383	-87.011	0.301	-0.092
-689.368	-169.646	-0.146	-0.005
-688.354	225.115	-0.073	-0.119
-687.339	502.417	-0.148	-0.342
-686.324	375.055	0.209	0.427
-685.310	170.106	-0.184	-0.263
-684.295	151.977	0.014	0.018
-683.281	-128.672	-0.089	0.013
-682.266	-55.706	0.138	-0.062
-681.251	90.198	-0.221	0.247
-680.237	125.006	0.030	-0.038
-679.222	-200.000	0.044	-0.403
-678.208	-200.000	-0.000	0.185
-677.193	-71.204	-0.249	-0.093
-676.178	800.000	-0.066	0.226
-675.164	41.582	-0.204	0.185
-674.149	246.922	0.289	-0.488
-673.135	800.000	-0.023	-0.078
-672.120	-51.994	-0.367	-0.171
-671.105	-200.000	0.016	-0.110
-670.091	-200.000	-0.019	0.144
-669.076	75.601	-0.224	0.236
-668.062	-62.432	-0.094	-0.039
-667.047	314.393	-0.171	0.322
-666.032	-17.473	-0.135	0.085
-665.018	-54.740	-0.109	-0.049
-664.003	24.461	-0.155	-0.128
-662.989	12.235	-0.235	-0.181
-661.974	-28.783	-0.206	0.118
-660.959	-200.000	-0.094	-0.425
-659.945	-200.000	0.033	-0.328
-658.930	389.707	-0.087	0.179
-657.916	-46.705	-0.313	0.153
-656.901	-67.470	0.103	-0.040
-655.886	309.861	-0.084	-0.157
-654.872	163.442	0.084	-0.118
-653.857	36.613	-0.294	0.259
-652.843	-121.570	0.107	0.018
-651.828	-79.234	0.349	-0.118
-650.814	204.456	0.033	0.051
-649.799	-200.000	-0.003	0.123
-648.784	-200.000	-0.015	0.289
-647.770	59.817	-0.223	0.220
-646.755	406.806	0.105	0.222
-645.741	291.351	-0.126	-0.229
-644.726	-200.000	-0.067	0.356
-643.711	800.000	-0.077	-0.236
-642.697	-53.585	-0.206	0.094
-641.682	-121.247	0.270	-0.045
-640.668	-109.790	-0.235	-0.049
-639.653	-57.741	-0.322	-0.141
-638.638	100.445	-0.102	-0.118
-637.624	-200.000	0.007	-0.050
-636.609	-200.000	0.031	-0.354
-635.595	-200.000	-0.001	-0.012
-634.580	218.429	-0.136	-0.216
-633.565	-200.000	0.012	-0.080
-632.551	252.605	0.156	-0.266
-631.536	-48.733	0.096	0.046
-630.522	40.576	0.236	-0.212
-629.507	-22.786	-0.076	-0.046
-628.492	-80.675	-0.177	-0.059
-627.478	62.156	0.130	0.129
-626.463	410.676	-0.161	0.341
-625.449	-200.000	0.013	-0.146
-624.434	-200.000	-0.041	-0.279
-623.419	800.000	-0.112	0.321
-622.405	253.937	0.092	0.157
-621.390	-100.242	0.143	-0.036
-620.376	-77.855	-0.261	0.090
-619.361	-103.270	0.103	-0.024
-618.346	65.440	0.217	0.219
-617.332	-2.888	-0.263	0.183
-616.317	-27.969	-0.079	-0.046
-615.303	-200.000	0.049	0.217
-614.288	-112.119	-0.124	-0.025
-613.273	-16.292	0.046	-0.029
-612.259	37.154	-0.199	-0.176
-611.244	-67.850	0.087	-0.034
-610.230	45.732	0.048	0.044
-609.215	43.450	-0.056	-0.051
-608.201	25.367	-0.304	0.252
-607.186	70.702	-0.227	-0.234
-606.171	-200.000	0.025	0.146
-605.157	-200.000	-0.001	-0.151
-604.142	39.421	-0.284	0.253
-603.128	56.916	-0.141	0.137
-602.113	757.057	0.032	-0.088
-601.098	24.990	-0.216	-0.178
-600.084	-71.118	-0.407	-0.152
-599.069	-200.000	0.019	-0.140
-598.055	-129.256	0.210	0.029
-597.040	235.641	-0.124	0.204
-596.025	-187.334	0.259	0.003
-595.011	-133.856	-0.167	0.021
-593.996	595.600	-0.241	0.595
-592.982	83.710	0.220	-0.239
-591.967	-200.000	0.007	0.173
-590.952	671.444	-0.017	-0.043
-589.938	27.917	-0.110	0.092
-588.923	643.101	0.146	-0.370
-587.909	800.000	-0.052	-0.198
-586.894	-200.000	0.031	0.145
-585.879	310.749	-0.114	0.213
-584.865	-105.970	0.264	0.059
-583.850	-12.247	-0.173	-0.113
-582.836	188.282	-0.188	0.279
-581.821	46.086	-0.201	0.186
-580.806	-129.944	-0.168	-0.023
-579.792	-127.900	0.593	-0.085
-578.777	75.145	-0.184	0.193
-577.763	-200.000	-0.007	0.151
-576.748	-200.000	0.047	0.421
-575.733	-165.922	-0.190	0.008
-574.719	138.695	0.115	-0.150
-573.704	-67.469	-0.284	0.111
-572.690	-200.000	0.178	-0.001
-571.675	82.342	-0.030	-0.032
-570.661	-75.637	-0.140	-0.050
-569.646	555.657	0.066	0.159
-568.631	-200.000	0.027	-0.139
-567.617	-200.000	0.011	0.173
-566.602	800.000	-0.043	0.153
-565.588	-200.000	0.019	0.243
-564.573	227.684	-0.014	-0.023
-563.558	291.712	-0.094	-0.171
-562.544	-96.459	-0.436	-0.115
-561.529	97.855	0.065	-0.074
-560.515	-200.000	0.033	0.220
-559.500	419.487	0.104	-0.222
-558.485	-153.481	0.088	-0.006
-557.471	-94.011	-0.104	0.028
-556.456	-17.013	0.221	0.139
-555.442	-40.049	-0.235	-0.122
-554.427	-107.883	-0.043	0.009
-553.412	800.000	0.061	-0.232
-552.398	638.335	0.064	0.161
-551.383	-69.575	-0.237	-0.090
-550.369	800.000	-0.032	0.105
-549.354	800.000	0.047	-0.180
-548.339	48.468	0.044	-0.041
-547.325	-80.868	0.179	-0.059
-546.310	-76.193	0.169	-0.059
-545.296	-83.740	-0.077	-0.024
-544.281	49.498	0.191	-0.179
-543.266	-200.000	-0.183	0.000
-542.252	-200.000	0.051	-0.357
-541.237	-40.747	0.262	-0.135
-540.223	-200.000	-0.023	0.159
-539.208	-119.366	0.115	0.020
-538.193	-130.853	-0.307	-0.041
-537.179	-200.000	-0.064	-0.295
-536.164	-175.762	0.189	0.005
-535.150	-86.020	0.477	-0.147
-534.135	-99.014	-0.141	0.036
-533.121	526.360	0.011	0.026
-532.106	-200.000	-0.006	0.427
-531.091	-120.902	-0.285	-0.048
-530.077	89.659	0.096	-0.107
-529.062	-70.590	0.359	-0.135
-528.048	-200.000	0.009	0.107
-527.033	-200.000	0.058	0.265
-526.018	193.480	0.140	0.211
-525.004	-99.103	-0.294	0.074
-523.989	62.935	0.086	-0.086
-522.975	-200.000	-0.018	0.132
-521.960	-119.695	-0.253	-0.043
-520.945	90.764	-0.042	0.046
-519.931	33.149	0.085	-0.073
-518.916	107.677	-0.225	0.267
-517.902	-80.435	-0.004	-0.001
-516.887	31.097	0.224	0.191
-515.872	-131.226	0.089	0.012
-514.858	-82.806	-0.498	-0.160
-513.843	34.443	0.059	0.051
-512.829	800.000	-0.007	-0.020
-511.814	159.880	-0.212	0.293
-510.799	-96.912	0.383	0.100
-509.785	161.886	0.194	0.270
-508.770	-65.529	-0.249	0.099
-507.756	-107.984	-0.177	-0.038
-506.741	-179.631	-0.244	0.005
-505.726	-200.000	-0.009	-0.225
-504.712	-128.648	0.348	0.049
-503.697	131.495	-0.143	-0.182
-502.683	800.000	-0.034	-0.141
-501.668	281.137	0.092	-0.164
-500.653	597.683	-0.099	0.244
-499.639	132.639	-0.100	-0.129
-498.624	-200.000	-0.066	-0.344
-497.610	-58.077	0.322	-0.139
-496.595	350.567	-0.027	0.053
-495.581	60.906	0.245	0.242
-494.566	180.935	-0.089	0.130
-493.551	35.127	0.055	0.048
-492.537	-200.000	-0.025	-0.153
-491.522	-92.822	0.292	-0.081
-490.508	-35.852	0.092	0.050
-489.493	-76.936	0.129	-0.045
-488.478	800.000	0.006	0.024
-487.464	66.151	0.120	-0.121
-486.449	391.669	-0.071	0.146
-485.435	-73.062	-0.318	-0.116
-484.420	406.440	-0.043	0.090
-483.405	-200.000	0.056	-0.261
-482.391	-200.000	-0.052	-0.246
-481.376	-84.651	0.145	0.045
-480.362	173.365	0.109	0.156
-479.347	49.350	0.111	0.104
-478.332	-200.000	0.041	0.242
-477.318	-56.306	-0.264	0.116
-476.303	-90.473	-0.062	0.018
-475.289	41.230	-0.078	-0.070
-474.274	-54.135	0.179	-0.081
-473.259	354.741	-0.075	0.148
-472.245	-200.000	0.028	-0.174
-471.230	141.807	0.060	-0.079
-470.216	272.358	-0.036	0.063
-469.201	800.000	0.041	-0.141
-468.186	-125.114	0.165	0.025
-467.172	-88.413	-0.144	-0.043
-466.157	-200.000	0.056	-0.348
-465.143	511.202	-0.132	0.305
-464.128	-122.732	0.175	-0.028
-463.113	-10.750	0.067	-0.044
-462.099	19.342	-0.077	-0.062
-461.084	18.327	-0.227	0.180
-460.070	-157.855	0.136	-0.008
-459.055	-136.912	-0.415	0.047
-458.040	22.286	-0.206	-0.167
-457.026	-200.000	0.005	-0.057
-456.011	99.139	0.115	0.132
-454.997	92.109	-0.168	-0.188
-453.982	-32.300	-0.076	0.042
-452.968	512.472	-0.009	0.021
-451.953	-200.000	0.038	0.492
-450.938	800.000	-0.109	-0.299
-449.924	680.686	-0.076	-0.195
-448.909	-73.446	-0.083	-0.030
-447.895	-200.000	0.045	0.208
-446.880	168.525	0.108	0.152
-445.865	0.717	-0.120	0.085
-444.851	68.106	-0.103	-0.105
-443.836	-44.204	0.361	0.179
-442.822	-200.000	0.003	0.141
-441.807	-172.152	0.170	-0.005
-440.792	19.578	0.218	-0.174
-439.778	99.422	0.155	0.177
-438.763	439.860	0.034	-0.073
-437.749	83.078	-0.132	-0.142
-436.734	70.689	-0.059	0.060
-435.719	-200.000	-0.004	0.071
-434.705	-0.511	-0.266	-0.187
-433.690	-84.702	-0.254	0.079
-432.676	-200.000	0.003	-0.153
-431.661	13.864	-0.052	0.040
-430.646	800.000	-0.074	0.226
-429.632	125.488	0.118	-0.148
-428.617	-200.000	0.029	-0.136
-427.603	800.000	0.025	-0.090
-426.588	-51.308	0.296	-0.137
-425.573	-27.778	0.263	-0.151
-424.559	-200.000	-0.023	0.304
-423.544	411.148	0.184	-0.386
-422.530	68.277	0.242	-0.246
-421.515	-132.497	0.210	0.027
-420.500	77.900	0.170	0.179
-419.486	-120.463	-0.226	-0.038
-418.471	-71.332	-0.286	-0.106
-417.457	-44.741	0.020	0.010
-416.442	10.342	0.337	0.254
-415.428	-91.783	0.167	0.047
-414.413	-29.861	-0.311	-0.175
-413.398	-137.022	-0.095	0.011
-412.384	-108.105	0.160	-0.034
-411.369	68.234	-0.089	-0.090
-410.355	-74.259	0.088	0.031
-409.340	-101.731	0.044	-0.011
-408.325	-92.007	0.289	-0.081
-407.311	7.211	-0.187	0.138
-406.296	-133.555	0.311	0.038
-405.282	-200.000	0.035	-0.390
-404.267	-77.653	-0.075	-0.026
-403.252	-18.619	0.162	0.100
-402.238	-200.000	0.041	-0.220
-401.223	-87.888	0.151	0.045
-400.209	-200.000	-0.003	-0.128
-399.194	-200.000	-0.027	0.211
-398.179	170.638	0.104	-0.148
-397.165	-200.000	-0.031	-0.372
-396.150	-200.000	-0.008	0.047
-395.136	57.575	0.155	-0.150
-394.121	-23.857	-0.027	-0.016
-393.106	297.200	0.164	0.297
-392.092	78.870	0.087	0.092
-391.077	173.943	-0.125	0.178
-390.063	-21.062	0.211	0.127
-389.048	-72.212	0.053	0.020
-388.033	-200.000	-0.002	-0.421
-387.019	-22.533	-0.227	0.136
-386.004	-76.352	-0.266	-0.093
-384.990	800.000	0.053	-0.158
-383.975	-200.000	0.009	-0.221
-382.960	-109.747	-0.351	0.073
-381.946	-44.843	0.359	0.177
-380.931	-19.379	0.205	0.126
-379.917	-41.202	-0.173	-0.088
-378.902	10.002	-0.119	0.089
-377.888	-87.398	0.263	0.079
-376.873	-109.121	-0.412	0.087
-375.858	36.289	0.039	0.034
-374.844	235.014	0.088	0.144
-373.829	254.177	0.208	-0.352
-372.815	2.949	-0.015	-0.011
-371.800	-15.220	-0.145	0.092
-370.785	-200.000	0.002	-0.061
-369.771	-10.438	0.174	-0.114
-368.756	-45.015	0.524	-0.258
-367.742	-124.926	-0.402	0.061
-366.727	61.488	0.034	0.034
-365.712	321.011	0.041	-0.077
-364.698	58.256	-0.118	0.114
-363.683	107.511	-0.125	-0.146
-362.669	7.199	0.084	-0.062
-361.654	-200.000	0.002	0.179
-360.639	-74.348	-0.299	0.107
-359.625	399.064	0.070	-0.144
-358.610	800.000	0.086	-0.318
-357.596	-95.628	0.186	-0.049
-356.581	-137.586	-0.336	-0.037
-355.566	-200.000	0.014	-0.181
-354.552	-119.136	0.283	-0.049
-353.537	-94.607	0.246	0.066
-352.523	800.000	-0.022	-0.061
-351.508	-200.000	-0.105	0.511
-350.493	-167.463	-0.114	0.005
-349.479	717.719	0.094	-0.246
-348.464	-200.000	-0.028	-0.161
-347.450	-181.631	-0.389	0.007
-346.435	-112.285	0.115	0.023
-345.420	348.339	-0.155	0.302
-344.406	-200.000	-0.058	-0.430
-343.391	300.935	0.189	-0.344
-342.377	-183.866	0.210	-0.004
-341.362	119.353	-0.144	0.176
-340.348	133.391	0.178	-0.228
-339.333	34.515	-0.076	0.066
-338.318	-182.800	-0.230	-0.004
-337.304	-119.769	-0.258	0.044
-336.289	161.614	-0.111	0.153
-335.275	-91.359	0.370	0.104
-334.260	-200.000	0.054	0.000
-333.245	60.117	0.101	0.099
-332.231	-180.482	0.135	-0.003
-331.216	-130.928	-0.200	0.026
-330.202	277.867	-0.168	-0.295
-329.187	3.438	0.234	0.168
-328.172	800.000	-0.009	0.026
-327.158	-200.000	0.000	-0.019
-326.143	72.506	0.168	-0.173
-325.129	452.630	0.057	-0.125
-324.114	64.453	-0.168	0.167
-323.099	513.970	-0.106	0.243
-322.085	46.483	-0.330	0.302
-321.070	-33.654	-0.466	-0.253
-320.056	-200.000	0.009	-0.211
-319.041	-200.000	-0.040	0.406
-318.026	-200.000	0.017	0.078
-317.012	-200.000	-0.027	0.239
-315.997	48.379	0.301	-0.278
-314.983	87.363	-0.152	-0.166
-313.968	800.000	-0.028	0.087
-312.953	127.479	-0.126	0.158
-311.939	-150.080	-0.187	-0.014
-310.924	-200.000	0.038	0.208
-309.910	-200.000	-0.033	0.270
-308.895	-36.648	0.132	-0.070
-307.880	-127.202	-0.041	0.006
-306.866	431.268	-0.115	-0.246
-305.851	800.000	-0.044	-0.173
-304.837	207.651	-0.189	-0.291
-303.822	-181.920	0.170	0.003
-302.807	60.680	-0.070	-0.069
-301.793	104.125	0.091	-0.105
-300.778	38.565	0.317	0.279
-299.764	-48.723	0.227	-0.108
-298.749	270.402	-0.166	-0.287
-297.735	337.545	-0.166	-0.318
-296.720	50.244	-0.099	-0.092
-295.705	-200.000	-0.020	-0.088
-294.691	-33.629	-0.374	0.203
-293.676	-151.328	0.086	0.006
-292.662	111.247	0.074	0.088
-291.647	-164.693	0.142	-0.006
-290.632	152.084	0.104	0.140
-289.618	-98.271	0.092	-0.023
-288.603	146.990	-0.232	0.307
-287.589	-59.536	0.127	0.054
-286.574	-90.927	0.132	0.037
-285.559	68.363	0.048	0.049
-284.545	800.000	0.045	-0.138
-283.530	-85.995	0.133	-0.040
-282.516	308.592	0.090	-0.166
-281.501	-93.363	-0.316	0.086
-280.486	325.674	-0.009	0.017
-279.472	13.916	-0.288	-0.221
-278.457	-68.832	-0.141	0.054
-277.443	-123.299	0.311	0.049
-276.428	0.594	-0.119	0.084
-275.413	50.393	0.090	-0.083
-274.399	645.549	-0.067	0.169
-273.384	402.367	-0.066	-0.136
-272.370	-70.591	0.148	-0.055
-271.355	-81.082	0.248	-0.081
-270.340	800.000	-0.083	-0.287
-269.326	64.705	-0.121	-0.120
-268.311	-200.000	-0.006	0.204
-267.297	237.970	-0.050	-0.082
-266.282	800.000	0.019	-0.073
-265.267	-16.195	0.353	0.221
-264.253	52.896	0.204	0.192
-263.238	45.408	-0.155	-0.141
-262.224	122.325	-0.167	0.205
-261.209	-123.331	0.317	-0.050
-260.195	-86.786	0.228	-0.068
-259.180	-186.755	-0.478	0.007
-258.165	97.198	0.224	0.253
-257.151	-200.000	-0.018	-0.275
-256.136	2.700	-0.342	-0.244
-255.122	800.000	0.125	0.485
-254.107	-5.796	0.363	0.245
-253.092	-200.000	0.014	0.154
-252.078	-142.772	-0.188	0.018
-251.063	128.471	-0.174	-0.217
-250.049	-90.450	0.047	0.013
-249.034	26.850	-0.089	0.073
-248.019	127.885	0.098	-0.123
-247.005	68.725	-0.180	-0.182
-245.990	800.000	-0.030	-0.107
-244.976	-79.084	-0.086	-0.029
-243.961	-200.000	-0.078	-0.366
-242.946	800.000	0.115	0.346
-241.932	-149.723	-0.198	-0.015
-240.917	-200.000	-0.054	0.525
-239.903	154.372	0.126	0.169
-238.888	145.679	-0.029	-0.038
-237.873	93.077	-0.241	0.268
-236.859	-123.253	0.060	0.009
-235.844	-27.795	-0.060	-0.034
-234.830	119.008	-0.229	0.278
-233.815	-200.000	0.030	-0.201
-232.800	-200.000	0.046	-0.320
-231.786	-29.533	0.299	0.168
-230.771	-9.078	-0.410	-0.269
-229.757	-141.241	0.196	-0.020
-228.742	-200.000	0.001	0.032
-227.727	800.000	0.066	-0.214
-226.713	115.455	0.210	-0.253
-225.698	-148.112	-0.298	-0.024
-224.684	94.711	-0.110	-0.123
-223.669	-26.031	0.222	0.129
-222.655	646.792	0.134	0.336
-221.640	-79.014	-0.285	0.095
-220.625	-200.000	0.069	-0.393
-219.611	-11.767	0.018	0.011
-218.596	16.615	-0.126	-0.098
-217.582	122.653	-0.256	-0.315
-216.567	62.396	0.214	-0.210
-215.552	800.000	0.100	0.296
-214.538	-169.170	-0.324	0.012
-213.523	65.354	0.044	-0.043
-212.509	-200.000	0.018	0.164
-211.494	92.674	0.217	0.241
-210.479	-96.452	0.268	0.070
-209.465	185.581	0.135	0.197
-208.450	-50.895	-0.468	0.216
-207.436	27.474	0.172	-0.142
-206.421	644.002	-0.097	0.242
-205.406	309.905	0.101	-0.185
-204.392	-76.515	0.290	-0.100
-203.377	611.898	0.032	0.079
-202.363	-200.000	0.011	0.086
-201.348	68.948	0.164	0.165
-200.333	800.000	-0.019	0.070
-199.319	368.808	0.079	-0.156
-198.304	-151.777	-0.102	0.007
-197.290	-200.000	-0.052	0.319
-196.275	449.470	0.157	0.341
-195.260	800.000	-0.016	0.064
-194.246	-115.786	0.175	-0.032
-193.231	-18.634	0.036	0.022
-192.217	14.603	0.137	0.105
-191.202	20.752	-0.163	0.129
-190.187	800.000	0.067	-0.186
-189.173	-104.744	-0.124	-0.028
-188.158	800.000	0.052	0.189
-187.144	217.740	-0.263	0.411
-186.129	-200.000	0.010	0.104
-185.114	325.065	0.152	-0.285
-184.100	197.449	0.176	0.263
-183.085	-200.000	0.020	-0.285
-182.071	-200.000	0.047	-0.207
-181.056	-70.139	0.319	0.119
-180.042	-81.542	0.221	-0.071
-179.027	187.613	-0.178	-0.261
-178.012	-79.054	-0.286	0.095
-176.998	800.000	-0.054	-0.161
-175.983	300.491	-0.054	-0.098
-174.969	800.000	-0.047	-0.192
-173.954	800.000	0.033	-0.100
-172.939	800.000	-0.107	0.318
-171.925	-61.904	0.083	0.034
-170.910	-200.000	0.005	-0.181
-169.896	-200.000	0.037	-0.246
-168.881	-174.058	-0.171	0.005
-167.866	208.037	-0.018	-0.027
-166.852	-200.000	-0.040	-0.247
-165.837	47.386	0.236	-0.216
-164.823	46.892	0.118	0.108
-163.808	-88.424	0.213	0.062
-162.793	-87.702	0.079	-0.023
-161.779	-124.157	0.321	-0.049
-160.764	179.643	-0.062	-0.089
-159.750	-23.274	0.040	-0.024
-158.735	-200.000	-0.008	0.053
-157.720	800.000	-0.133	0.401
-156.706	23.587	0.054	0.043
-155.691	195.073	0.153	0.228
-154.677	-67.980	0.179	-0.068
-153.662	-33.464	0.366	-0.198
-152.647	-41.325	0.329	0.166
-151.633	765.314	0.040	-0.106
-150.618	800.000	0.025	-0.105
-149.604	-70.130	-0.127	-0.047
-148.589	44.474	0.296	-0.267
-147.574	-200.000	0.046	-0.355
-146.560	-61.424	-0.107	-0.044
-145.545	-52.047	0.251	-0.114
-144.531	3.013	0.143	0.101
-143.516	209.812	-0.068	-0.104
-142.502	186.149	-0.104	0.152
-141.487	800.000	0.043	-0.120
-140.472	117.274	-0.158	-0.190
-139.458	219.192	0.058	0.091
-138.443	103.375	-0.108	-0.124
-137.429	75.151	-0.227	-0.235
-136.414	-44.613	0.334	0.164
-135.399	176.307	0.025	-0.036
-134.385	-200.000	0.112	0.492
-133.370	-200.000	0.037	0.203
-132.356	-155.487	-0.292	0.018
-131.341	-200.000	-0.029	-0.351
-130.326	-21.636	0.199	0.119
-129.312	-56.090	-0.130	-0.057
-128.297	-139.573	0.178	0.019
-127.283	800.000	-0.033	-0.137
-126.268	582.982	-0.074	0.178
-125.253	-90.447	0.140	0.040
-124.239	-120.901	0.293	-0.048
-123.224	106.331	0.139	0.161
-122.210	-152.936	0.185	0.013
-121.195	258.117	-0.211	0.355
