DTS Sentinel unit serial number:	SN413079Multiplexer serial number:	ORYXHardware model number:	OX4-SRSoftware version number:	ORYX F/W v4.00 Oryx Data Collector v3.7.2.0data status	okinstallation	princeton_trtdifferential loss correction	single-endedforward channel	channel 1reverse channel	N/Adate	2019/09/17time	23:50:35forward acquisition time	60.00reverse acquisition time	0.00gamma	496.2192k internal	0.2340k external	0.2340temperature offset calibration	0.9976default loss term (dB/km)	0.3790temperature slope calibration	1.0000multiplexer offset coefficient	1.0000multiplexer slope coefficient	1.0000fibre end	0.00T internal ref (°C)	24.00T ext. ref 1 (°C)	0.17T ext. ref 2 (°C)	17.41length (m)	temperature (°C)	Stokes	anti-Stokes-747.200	-39.614	0.205	0.108
-746.185	14.617	-0.124	-0.097
-745.171	-69.814	-0.183	-0.070
-744.156	120.934	-0.055	-0.068
-743.142	195.419	-0.084	0.128
-742.127	-119.735	-0.469	0.081
-741.112	96.635	0.163	0.187
-740.098	800.000	0.065	0.181
-739.083	631.675	0.249	0.631
-738.069	-200.000	0.032	0.415
-737.054	-200.000	0.018	0.295
-736.039	-30.209	-0.124	0.071
-735.025	-178.199	-0.243	-0.006
-734.010	-200.000	-0.021	-0.108
-732.996	-200.000	-0.010	0.222
-731.981	-187.173	-0.300	-0.004
-730.966	738.206	-0.143	-0.383
-729.952	800.000	-0.010	0.039
-728.937	24.162	-0.156	-0.129
-727.923	40.421	0.236	-0.213
-726.908	-200.000	0.070	-0.403
-725.894	-150.894	-0.318	0.024
-724.879	-102.638	-0.280	-0.067
-723.864	102.994	-0.153	-0.180
-722.850	266.543	0.152	-0.267
-721.835	-1.091	0.098	0.069
-720.821	151.104	0.183	0.250
-719.806	5.527	0.287	-0.212
-718.791	-94.838	-0.183	0.050
-717.777	-200.000	0.020	-0.363
-716.762	-200.000	0.003	0.076
-715.748	159.640	0.192	0.267
-714.733	682.174	0.017	-0.045
-713.718	-42.400	-0.176	-0.090
-712.704	344.805	-0.060	-0.118
-711.689	-64.753	-0.182	-0.074
-710.675	388.731	0.080	-0.166
-709.660	-200.000	-0.035	0.336
-708.645	345.261	0.017	0.034
-707.631	-200.000	0.001	-0.105
-706.616	38.815	-0.125	0.112
-705.602	-200.000	0.028	0.234
-704.587	-77.301	-0.209	0.073
-703.572	115.314	-0.207	-0.253
-702.558	-151.105	0.141	-0.011
-701.543	-11.235	-0.256	-0.169
-700.529	-46.239	-0.039	0.019
-699.514	115.453	-0.289	0.353
-698.499	-1.078	0.144	-0.102
-697.485	-200.000	-0.036	0.191
-696.470	800.000	-0.063	-0.219
-695.456	-90.679	0.227	-0.066
-694.441	-200.000	0.100	0.482
-693.426	-115.645	0.085	-0.016
-692.412	-23.257	-0.058	0.035
-691.397	-200.000	0.052	0.254
-690.383	9.651	-0.205	0.155
-689.368	-200.000	0.001	-0.133
-688.354	-200.000	0.040	-0.187
-687.339	-29.520	0.414	-0.236
-686.324	-72.996	-0.463	-0.170
-685.310	628.140	-0.130	-0.328
-684.295	-166.418	0.076	0.003
-683.281	-79.951	-0.084	-0.028
-682.266	70.529	-0.067	0.070
-681.251	-104.591	-0.222	0.051
-680.237	-70.369	-0.191	-0.072
-679.222	800.000	0.086	0.347
-678.208	27.261	-0.380	0.319
-677.193	-79.897	-0.115	0.039
-676.178	64.104	0.056	0.056
-675.164	67.470	0.072	0.073
-674.149	-127.060	-0.041	-0.006
-673.135	-200.000	-0.029	0.329
-672.120	-63.709	-0.141	0.058
-671.105	-105.145	0.208	-0.047
-670.091	-115.186	-0.208	0.039
-669.076	-200.000	-0.009	-0.045
-668.062	-74.255	-0.205	0.074
-667.047	-135.007	-0.230	-0.028
-666.032	-169.058	0.065	0.002
-665.018	-200.000	0.018	0.394
-664.003	-20.284	-0.104	0.064
-662.989	800.000	0.049	0.155
-661.974	136.852	-0.015	-0.020
-660.959	-3.625	0.144	0.100
-659.945	80.014	-0.035	0.038
-658.930	128.942	0.126	-0.160
-657.916	-173.334	-0.277	-0.008
-656.901	-67.745	-0.188	0.073
-655.886	-101.253	-0.253	-0.062
-654.872	-200.000	-0.009	-0.085
-653.857	-200.000	0.029	0.217
-652.843	-200.000	-0.036	-0.368
-651.828	-78.289	-0.232	-0.079
-650.814	-55.921	-0.084	-0.037
-649.799	-33.852	-0.380	-0.209
-648.784	-200.000	-0.002	-0.022
-647.770	17.098	-0.232	-0.183
-646.755	800.000	0.012	0.043
-645.741	-93.222	0.300	0.083
-644.726	800.000	0.133	0.396
-643.711	157.276	-0.137	-0.190
-642.697	99.665	0.090	-0.104
-641.682	-200.000	0.049	-0.268
-640.668	800.000	-0.020	-0.084
-639.653	453.365	-0.114	0.251
-638.638	363.395	0.141	-0.282
-637.624	800.000	0.066	-0.186
-636.609	-101.156	0.076	-0.019
-635.595	-200.000	-0.049	-0.488
-634.580	-200.000	0.085	-0.548
-633.565	26.470	0.080	-0.067
-632.551	100.872	-0.057	0.066
-631.536	726.406	-0.082	-0.220
-630.522	-91.592	-0.131	-0.037
-629.507	316.631	-0.149	-0.280
-628.492	800.000	0.032	0.092
-627.478	-8.067	-0.478	0.322
-626.463	117.216	0.146	-0.179
-625.449	732.326	-0.024	-0.064
-624.434	6.732	0.255	-0.189
-623.419	800.000	-0.076	-0.310
-622.405	-114.815	0.030	0.006
-621.390	800.000	-0.074	-0.255
-620.376	150.827	-0.228	-0.310
-619.361	-170.625	0.342	-0.012
-618.346	28.490	0.106	-0.089
-617.332	-18.343	0.254	-0.158
-616.317	425.347	-0.040	-0.085
-615.303	62.828	0.201	0.200
-614.288	-47.809	-0.134	-0.065
-613.273	-18.250	-0.175	-0.109
-612.259	-200.000	0.003	-0.384
-611.244	167.722	0.107	0.152
-610.230	-36.738	0.264	-0.141
-609.215	473.103	-0.147	-0.330
-608.201	448.670	0.062	-0.135
-607.186	-10.476	0.051	0.033
-606.171	-92.707	0.196	0.055
-605.157	-90.259	0.291	0.084
-604.142	-200.000	0.002	-0.059
-603.128	-9.077	-0.341	0.228
-602.113	118.705	0.127	-0.157
-601.098	-163.616	-0.106	-0.005
-600.084	-200.000	0.032	0.163
-599.069	64.626	0.012	-0.012
-598.055	-146.678	-0.207	0.018
-597.040	31.759	0.201	-0.172
-596.025	-200.000	0.036	-0.203
-595.011	-185.939	0.145	0.002
-593.996	96.291	0.038	-0.044
-592.982	-148.295	-0.136	0.011
-591.967	57.004	-0.062	-0.060
-590.952	800.000	0.029	0.102
-589.938	-134.799	-0.294	0.036
-588.923	282.353	-0.157	-0.280
-587.909	-200.000	0.002	0.080
-586.894	800.000	-0.047	0.202
-585.879	-101.414	0.173	-0.042
-584.865	264.315	0.168	0.292
-583.850	298.012	0.194	0.354
-582.836	-200.000	0.064	0.303
-581.821	-98.250	-0.104	-0.027
-580.806	292.084	-0.121	-0.219
-579.792	-62.342	0.096	-0.040
-578.777	45.502	-0.191	0.176
-577.763	90.927	-0.116	-0.129
-576.748	-96.452	0.212	-0.056
-575.733	-11.615	0.124	-0.081
-574.719	-200.000	0.013	0.132
-573.704	684.573	-0.048	-0.125
-572.690	333.754	0.098	-0.189
-571.675	-41.108	-0.200	0.103
-570.661	-82.794	-0.158	0.051
-569.646	27.493	-0.157	0.132
-568.631	363.839	0.021	-0.042
-567.617	-200.000	0.010	-0.090
-566.602	45.160	0.162	0.148
-565.588	19.821	-0.046	-0.037
-564.573	-99.837	-0.053	-0.013
-563.558	271.706	-0.127	0.223
-562.544	-120.377	0.162	0.028
-561.529	94.498	0.144	0.163
-560.515	-43.058	0.026	0.013
-559.500	-171.838	-0.117	-0.004
-558.485	14.566	-0.069	-0.054
-557.471	67.022	0.084	0.086
-556.456	-120.365	0.254	-0.043
-555.442	-129.385	-0.083	0.011
-554.427	327.331	0.085	-0.163
-553.412	-98.780	-0.202	0.051
-552.398	157.473	0.076	0.105
-551.383	-31.617	0.093	-0.052
-550.369	-140.779	0.245	-0.025
-549.354	800.000	0.073	-0.227
-548.339	119.155	-0.181	0.223
-547.325	-112.721	0.106	-0.021
-546.310	-200.000	-0.038	-0.395
-545.296	49.728	-0.137	-0.129
-544.281	135.874	0.070	-0.091
-543.266	800.000	0.047	-0.167
-542.252	-156.836	-0.397	-0.024
-541.237	-23.652	0.045	0.027
-540.223	-96.224	0.073	-0.019
-539.208	800.000	0.096	0.310
-538.193	-13.530	0.250	-0.161
-537.179	800.000	-0.044	-0.160
-536.164	341.352	-0.113	0.219
-535.150	163.516	0.154	0.215
-534.135	-200.000	0.009	-0.188
-533.121	-200.000	0.008	-0.188
-532.106	147.054	-0.067	-0.090
-531.091	556.882	0.111	-0.266
-530.077	-29.506	-0.349	0.198
-529.062	-45.975	0.211	0.104
-528.048	30.275	-0.111	-0.094
-527.033	335.214	0.286	0.551
-526.018	-162.075	0.031	-0.002
-525.004	-200.000	0.006	-0.218
-523.989	334.145	-0.115	0.221
-522.975	295.448	-0.144	-0.263
-521.960	-200.000	0.016	0.162
-520.945	-51.628	0.126	0.058
-519.931	800.000	0.042	0.149
-518.916	111.535	0.151	-0.181
-517.902	-13.886	0.315	0.203
-516.887	-39.552	-0.203	-0.106
-515.872	-77.294	-0.263	-0.091
-514.858	717.930	-0.113	0.297
-513.843	131.430	0.179	0.229
-512.829	-115.649	-0.348	-0.065
-511.814	-134.531	-0.448	0.054
-510.799	45.125	0.119	-0.109
-509.785	327.319	-0.125	0.238
-508.770	46.053	0.105	0.097
-507.756	-73.026	-0.155	-0.056
-506.741	31.066	0.237	-0.202
-505.726	140.312	0.052	-0.068
-504.712	-200.000	0.011	-0.220
-503.697	-10.725	-0.123	0.080
-502.683	800.000	0.052	0.173
-501.668	2.975	-0.173	0.125
-500.653	-18.683	-0.361	-0.224
-499.639	62.554	-0.219	0.217
-498.624	405.551	-0.068	0.142
-497.610	800.000	0.013	0.044
-496.595	-19.358	0.089	-0.055
-495.581	-176.504	-0.281	-0.007
-494.566	-12.861	0.051	0.033
-493.551	-51.318	0.293	0.136
-492.537	800.000	0.047	-0.163
-491.522	-200.000	-0.052	0.362
-490.508	52.258	0.142	0.134
-489.493	800.000	-0.004	0.015
-488.478	-97.169	-0.159	0.041
-487.464	800.000	-0.090	-0.308
-486.449	98.224	-0.104	-0.119
-485.435	-103.888	-0.302	-0.070
-484.420	-97.213	0.193	-0.050
-483.405	-54.100	-0.044	-0.020
-482.391	-128.352	-0.196	-0.028
-481.376	-67.265	0.295	0.115
-480.362	800.000	-0.097	-0.393
-479.347	-200.000	0.056	-0.288
-478.332	48.363	-0.017	-0.015
-477.318	315.399	-0.183	-0.342
-476.303	304.401	0.198	0.365
-475.289	-12.809	0.136	0.088
-474.274	-200.000	-0.014	0.093
-473.259	14.954	-0.101	0.079
-472.245	76.090	0.203	0.213
-471.230	-200.000	0.062	0.274
-470.216	451.347	0.060	0.132
-469.201	-112.605	0.307	-0.061
-468.186	-141.377	-0.167	0.017
-467.172	102.518	0.195	-0.226
-466.157	800.000	-0.065	-0.208
-465.143	800.000	-0.135	-0.373
-464.128	-134.116	-0.152	0.019
-463.113	-162.641	0.318	0.015
-462.099	800.000	0.064	-0.185
-461.084	98.645	0.166	-0.190
-460.070	-56.147	0.227	0.100
-459.055	33.116	-0.292	0.251
-458.040	83.978	-0.115	-0.125
-457.026	133.069	0.141	0.181
-456.011	546.017	-0.099	0.236
-454.997	-200.000	0.025	-0.144
-453.982	800.000	-0.034	-0.107
-452.968	800.000	0.015	-0.059
-451.953	-200.000	-0.040	-0.217
-450.938	800.000	-0.105	-0.388
-449.924	-200.000	0.015	-0.093
-448.909	-200.000	-0.012	-0.059
-447.895	800.000	0.027	-0.100
-446.880	-70.871	0.181	-0.067
-445.865	60.158	0.210	-0.206
-444.851	-10.081	0.143	0.094
-443.836	-200.000	-0.016	0.105
-442.822	-200.000	0.023	-0.434
-441.807	-200.000	-0.062	0.320
-440.792	-151.009	-0.339	0.025
-439.778	70.551	0.187	0.192
-438.763	-200.000	-0.003	0.038
-437.749	-112.659	0.310	-0.061
-436.734	800.000	0.034	-0.117
-435.719	-200.000	-0.256	-0.000
-434.705	-151.899	0.208	-0.015
-433.690	800.000	-0.013	-0.051
-432.676	58.133	0.164	0.159
-431.661	-87.654	0.214	0.064
-430.646	800.000	0.101	0.294
-429.632	168.411	0.126	0.178
-428.617	-13.229	0.279	0.179
-427.603	-162.466	0.125	0.006
-426.588	-200.000	-0.002	-0.252
-425.573	-21.169	0.183	0.111
-424.559	-200.000	-0.034	-0.198
-423.544	248.651	0.043	0.072
-422.530	134.654	-0.244	0.314
-421.515	79.898	0.038	-0.040
-420.500	177.216	0.194	0.279
-419.486	728.812	-0.006	0.016
-418.471	269.092	0.075	0.130
-417.457	-28.333	-0.279	0.159
-416.442	-200.000	-0.041	0.294
-415.428	-200.000	0.036	0.232
-414.413	-135.440	-0.072	-0.009
-413.398	305.546	-0.177	0.326
-412.384	-200.000	-0.016	-0.081
-411.369	-77.946	0.260	0.089
-410.355	429.773	-0.005	0.011
-409.340	-37.503	-0.288	0.152
-408.325	-167.711	0.139	-0.005
-407.311	93.762	0.233	0.261
-406.296	-200.000	-0.029	-0.203
-405.282	-126.897	0.136	-0.020
-404.267	101.102	-0.235	-0.271
-403.252	11.524	-0.064	0.049
-402.238	-118.045	0.135	0.024
-401.223	596.956	-0.114	-0.280
-400.209	-93.510	-0.103	-0.028
-399.194	-63.421	-0.310	0.126
-398.179	-200.000	0.003	-0.316
-397.165	800.000	-0.010	-0.040
-396.150	89.068	-0.129	-0.142
-395.136	-200.000	0.062	-0.375
-394.121	277.868	0.126	-0.222
-393.106	-146.096	-0.151	-0.013
-392.092	-14.186	-0.172	-0.109
-391.077	-55.376	0.181	-0.080
-390.063	-105.021	0.366	0.083
-389.048	800.000	0.070	0.267
-388.033	92.238	-0.175	0.195
-387.019	328.429	0.069	-0.131
-386.004	-43.599	-0.147	-0.073
-384.990	182.204	-0.052	0.075
-383.975	732.949	0.048	0.127
-382.960	-196.353	0.051	0.000
-381.946	-200.000	0.012	-0.357
-380.931	-99.354	0.189	0.047
-379.917	-88.177	0.189	-0.056
-378.902	800.000	-0.084	-0.238
-377.888	-113.631	-0.211	0.041
-376.873	5.370	-0.198	-0.144
-375.858	-185.468	0.220	0.003
-374.844	-182.632	-0.360	-0.006
-373.829	-200.000	-0.002	-0.419
-372.815	9.093	0.093	-0.070
-371.800	-57.844	-0.160	-0.069
-370.785	434.007	0.032	-0.070
-369.771	-200.000	-0.367	0.000
-368.756	-158.357	-0.157	-0.009
-367.742	800.000	-0.026	-0.101
-366.727	-39.707	0.179	-0.092
-365.712	-200.000	0.027	-0.200
-364.698	-160.244	0.488	-0.026
-363.683	538.182	-0.139	0.327
-362.669	-142.108	0.405	-0.040
-361.654	92.024	-0.146	-0.162
-360.639	-1.523	0.119	0.083
-359.625	800.000	0.099	0.331
-358.610	13.693	0.137	-0.105
-357.596	53.924	-0.166	-0.158
-356.581	800.000	-0.014	0.045
-355.566	-88.228	0.049	-0.014
-354.552	554.311	0.073	-0.173
-353.537	-99.086	0.263	-0.066
-352.523	-182.134	-0.243	0.005
-351.508	81.922	-0.151	-0.162
-350.493	-146.565	0.068	0.006
-349.479	-200.000	0.075	-0.439
-348.464	-43.997	0.184	0.091
-347.450	-200.000	-0.026	0.191
-346.435	3.097	-0.250	0.179
-345.420	189.166	0.073	-0.108
-344.406	579.010	-0.044	0.107
-343.391	6.687	0.342	-0.251
-342.377	107.094	-0.167	0.195
-341.362	800.000	0.150	-0.438
-340.348	-200.000	-0.014	-0.203
-339.333	-169.472	-0.352	-0.013
-338.318	30.930	0.203	-0.172
-337.304	-105.437	0.151	-0.034
-336.289	-200.000	0.018	0.264
-335.275	26.535	-0.083	-0.068
-334.260	293.317	-0.032	0.057
-333.245	-161.890	0.105	0.005
-332.231	-200.000	-0.009	0.214
-331.216	-129.974	0.457	-0.062
-330.202	-66.430	-0.146	-0.057
-329.187	-102.401	-0.335	0.079
-328.172	-132.036	-0.108	-0.014
-327.158	12.244	-0.156	-0.119
-326.143	800.000	-0.065	-0.208
-325.129	-200.000	-0.027	-0.138
-324.114	-200.000	0.007	-0.235
-323.099	-200.000	-0.036	-0.179
-322.085	289.214	0.062	-0.110
-321.070	-116.783	-0.032	0.006
-320.056	-108.304	0.173	0.037
-319.041	120.779	0.131	0.160
-318.026	104.144	0.159	0.184
-317.012	134.949	-0.164	-0.210
-315.997	800.000	-0.023	0.097
-314.983	86.647	0.202	0.220
-313.968	-200.000	-0.006	-0.122
-312.953	-200.000	0.061	-0.460
-311.939	-78.022	0.076	0.026
-310.924	-141.484	0.286	0.029
-309.910	-117.559	-0.312	-0.056
-308.895	56.676	0.191	-0.184
-307.880	-67.281	-0.120	0.046
-306.866	-47.049	0.169	0.082
-305.851	60.238	-0.351	-0.342
-304.837	-200.000	0.012	-0.062
-303.822	-71.828	-0.460	0.169
-302.807	-13.068	0.010	0.006
-301.793	-200.000	0.000	0.191
-300.778	331.807	-0.142	-0.270
-299.764	235.714	-0.222	-0.361
-298.749	-200.000	-0.047	0.369
-297.735	93.877	0.128	0.143
-296.720	120.230	0.113	0.138
-295.705	84.782	-0.193	0.208
-294.691	800.000	-0.054	-0.187
-293.676	219.818	0.127	0.201
-292.662	-105.465	-0.227	-0.051
-291.647	-87.458	-0.167	0.050
-290.632	-200.000	0.026	0.344
-289.618	328.275	-0.079	0.149
-288.603	-200.000	0.011	0.339
-287.589	428.738	-0.136	0.289
-286.574	-200.000	0.214	-0.001
-285.559	84.435	-0.067	-0.073
-284.545	790.747	-0.135	0.365
-283.530	-6.630	0.124	0.083
-282.516	11.264	-0.286	-0.215
-281.501	248.184	-0.180	-0.299
-280.486	265.847	0.148	0.254
-279.472	-63.885	0.246	-0.099
-278.457	139.662	-0.197	-0.255
-277.443	-56.170	0.150	-0.066
-276.428	164.494	-0.014	-0.020
-275.413	-200.000	0.003	-0.265
-274.399	-132.509	0.135	-0.017
-273.384	661.620	0.105	-0.267
-272.370	-127.081	0.052	0.007
-271.355	-60.374	0.100	0.042
-270.340	800.000	-0.036	0.116
-269.326	197.908	0.191	0.287
-268.311	84.050	-0.295	-0.317
-267.297	92.769	0.221	0.245
-266.282	-32.558	0.196	-0.107
-265.267	-111.056	0.227	0.046
-264.253	-111.677	-0.170	0.034
-263.238	-200.000	-0.099	0.585
-262.224	-200.000	-0.098	0.487
-261.209	-74.185	-0.215	0.077
-260.195	-46.191	0.030	0.014
-259.180	21.915	-0.098	0.079
-258.165	-200.000	0.003	-0.025
-257.151	-26.939	0.145	0.083
-256.136	413.252	-0.095	0.199
-255.122	-148.232	-0.179	-0.014
-254.107	257.501	-0.291	0.492
-253.092	800.000	-0.058	0.191
-252.078	-104.575	-0.076	0.017
-251.063	-79.802	-0.239	0.079
-250.049	650.734	-0.110	0.276
-249.034	206.936	-0.166	0.254
-248.019	-162.685	0.291	-0.014
-247.005	118.675	0.351	0.426
-245.990	160.819	0.230	-0.315
-244.976	-104.172	0.184	-0.042
-243.961	444.381	0.181	0.391
-242.946	-200.000	0.042	-0.199
-241.932	69.946	0.300	-0.304
-240.917	74.676	0.105	-0.109
-239.903	-123.689	0.287	-0.045
-238.888	-97.835	-0.304	-0.077
-237.873	39.100	0.033	0.029
-236.859	-152.177	-0.285	-0.020
-235.844	-34.676	-0.081	0.044
-234.830	71.744	-0.139	-0.142
-233.815	19.596	0.214	0.169
-232.800	35.271	0.078	-0.067
-231.786	800.000	0.060	-0.174
-230.771	258.612	0.071	-0.120
-229.757	-154.758	-0.242	0.016
-228.742	-200.000	-0.005	-0.136
-227.727	-165.443	0.178	-0.008
-226.713	-53.313	0.089	0.040
-225.698	-200.000	-0.047	0.287
-224.684	-200.000	0.067	0.358
-223.669	-200.000	0.042	0.336
-222.655	727.667	-0.074	-0.194
-221.640	800.000	0.045	0.171
-220.625	-163.834	-0.143	0.007
-219.611	-79.401	-0.285	-0.095
-218.596	-200.000	0.058	-0.250
-217.582	-157.213	-0.282	0.017
-216.567	252.259	0.141	0.236
-215.552	-200.000	-0.016	0.149
-214.538	45.185	0.060	0.054
-213.523	800.000	-0.021	0.076
-212.509	99.038	-0.120	0.136
-211.494	-107.138	0.127	0.028
-210.479	-130.281	-0.186	-0.025
-209.465	433.230	0.121	0.259
-208.450	-96.989	0.259	-0.067
-207.436	-20.789	-0.324	-0.195
-206.421	13.622	0.225	0.171
-205.406	26.467	0.112	0.092
-204.392	106.298	-0.242	-0.282
-203.377	18.657	0.124	0.098
-202.363	83.231	-0.069	0.073
-201.348	800.000	0.004	0.013
-200.333	68.591	-0.083	0.084
-199.319	262.964	-0.197	0.336
-198.304	-88.244	0.165	0.049
-197.290	89.044	0.164	-0.179
-196.275	-59.770	-0.466	-0.196
-195.260	-43.253	-0.023	0.011
-194.246	-96.788	-0.281	0.072
-193.231	-200.000	0.006	0.118
-192.217	-200.000	0.014	0.077
-191.202	47.243	0.184	-0.168
-190.187	-9.679	-0.263	-0.172
-189.173	218.442	0.085	0.133
-188.158	-200.000	0.009	0.180
-187.144	451.150	0.261	0.566
-186.129	725.721	-0.005	-0.012
-185.114	800.000	-0.054	0.211
-184.100	34.570	-0.298	-0.256
-183.085	195.840	0.096	0.143
-182.071	800.000	0.080	-0.244
-181.056	159.236	-0.097	0.133
-180.042	247.637	0.061	0.101
-179.027	522.368	-0.120	0.276
-178.012	-13.797	0.246	0.156
-176.998	137.583	0.190	0.244
-175.983	703.926	0.070	-0.181
-174.969	790.879	0.053	0.142
-173.954	593.300	-0.080	0.194
-172.939	-80.620	-0.205	-0.067
-171.925	-200.000	0.023	0.214
-170.910	-200.000	-0.032	0.248
-169.896	-100.320	0.416	-0.101
-168.881	698.936	-0.184	-0.475
-167.866	90.617	0.308	0.338
-166.852	264.777	-0.123	0.210
-165.837	-142.315	-0.318	0.031
-164.823	800.000	0.129	-0.365
-163.808	156.850	-0.158	0.214
-162.793	79.456	0.157	0.165
-161.779	-95.553	-0.296	-0.078
-160.764	-200.000	0.020	0.437
-159.750	-53.713	0.114	0.051
-158.735	42.992	0.054	-0.048
-157.720	-107.264	-0.048	0.010
-156.706	-97.807	0.383	0.097
-155.691	-200.000	-0.034	-0.271
-154.677	-39.283	-0.259	0.133
-153.662	-200.000	0.006	0.233
-152.647	456.219	-0.161	-0.351
-151.633	-140.302	-0.248	0.025
-150.618	800.000	0.041	-0.141
-149.604	-111.059	0.185	-0.037
-148.589	-200.000	0.032	0.222
-147.574	-7.595	0.202	-0.133
-146.560	800.000	-0.049	0.172
-145.545	800.000	-0.046	0.150
-144.531	-200.000	0.013	0.170
-143.516	-200.000	-0.017	-0.656
-142.502	-185.789	-0.340	-0.005
-141.487	-50.950	0.126	-0.058
-140.472	-75.493	0.118	0.041
-139.458	-123.364	-0.127	0.020
-138.443	800.000	-0.014	0.042
-137.429	643.423	0.144	0.359
-136.414	606.994	0.079	0.193
-135.399	800.000	-0.013	0.043
-134.385	800.000	0.076	0.280
-133.370	-200.000	0.027	0.146
-132.356	800.000	0.062	-0.200
-131.341	28.861	-0.149	-0.124
-130.326	-39.800	-0.214	0.110
-129.312	800.000	0.079	0.260
-128.297	200.708	-0.136	-0.205
-127.283	-155.294	-0.270	-0.017
-126.268	147.790	0.207	-0.273
-125.253	157.006	-0.070	-0.095
-124.239	-104.612	-0.351	0.079
-123.224	-40.606	0.299	0.152
-122.210	-118.289	-0.124	-0.022
