DTS Sentinel unit serial number:	SN413079Multiplexer serial number:	ORYXHardware model number:	OX4-SRSoftware version number:	ORYX F/W v4.00 Oryx Data Collector v3.7.2.0data status	okinstallation	princeton_trtdifferential loss correction	single-endedforward channel	channel 1reverse channel	N/Adate	2019/09/16time	10:06:35forward acquisition time	60.00reverse acquisition time	0.00gamma	496.2192k internal	0.2315k external	0.2315temperature offset calibration	0.9968default loss term (dB/km)	0.3790temperature slope calibration	1.0000multiplexer offset coefficient	1.0000multiplexer slope coefficient	1.0000fibre end	0.00T internal ref (°C)	33.81T ext. ref 1 (°C)	12.43T ext. ref 2 (°C)	32.52length (m)	temperature (°C)	Stokes	anti-Stokes-747.200	536.404	-0.093	0.224
-746.185	800.000	0.118	0.418
-745.171	-126.333	0.331	-0.050
-744.156	-200.000	-0.078	0.375
-743.142	81.534	-0.063	0.069
-742.127	511.504	0.086	-0.203
-741.112	248.623	-0.065	0.112
-740.098	172.890	-0.037	0.054
-739.083	73.707	0.258	-0.274
-738.069	800.000	0.090	0.290
-737.054	-200.000	-0.008	-0.050
-736.039	156.404	-0.170	-0.237
-735.025	-19.066	0.340	0.214
-734.010	-200.000	0.035	0.253
-732.996	-37.117	-0.201	-0.109
-731.981	-200.000	0.083	-0.502
-730.966	71.823	0.035	-0.036
-729.952	-139.578	-0.062	-0.007
-728.937	800.000	-0.101	-0.299
-727.923	-200.000	0.000	-0.362
-726.908	373.119	0.085	0.175
-725.894	800.000	0.049	0.152
-724.879	800.000	-0.063	-0.192
-723.864	-83.869	0.154	0.050
-722.850	800.000	-0.087	-0.272
-721.835	98.952	-0.390	-0.456
-720.821	-76.724	0.071	0.025
-719.806	63.745	-0.110	0.112
-718.791	44.950	0.069	-0.065
-717.777	511.450	-0.028	0.066
-716.762	392.819	0.044	-0.092
-715.748	123.737	-0.062	-0.079
-714.733	-200.000	0.046	-0.388
-713.718	-200.000	-0.025	0.320
-712.704	56.618	0.124	-0.122
-711.689	-200.000	0.075	-0.389
-710.675	-33.314	0.253	-0.142
-709.660	-12.534	0.075	-0.050
-708.645	-68.562	0.188	0.074
-707.631	-103.682	0.115	0.027
-706.616	-166.475	-0.121	0.005
-705.602	-200.000	0.075	0.358
-704.587	18.803	-0.144	0.117
-703.572	46.434	-0.081	-0.076
-702.558	-84.338	0.452	-0.145
-701.543	-200.000	0.069	0.339
-700.529	-24.689	-0.217	-0.130
-699.514	237.484	-0.037	-0.062
-698.499	800.000	-0.025	0.105
-697.485	-80.976	0.065	0.022
-696.470	-181.208	0.190	-0.004
-695.456	800.000	-0.046	-0.156
-694.441	92.875	-0.213	-0.243
-693.426	409.197	0.175	0.375
-692.412	-69.597	0.075	0.029
-691.397	-111.553	0.280	0.057
-690.383	800.000	-0.006	0.027
-689.368	30.900	0.040	0.034
-688.354	-200.000	0.009	-0.091
-687.339	800.000	-0.037	0.119
-686.324	-200.000	-0.017	0.246
-685.310	800.000	0.058	-0.230
-684.295	-43.073	-0.139	-0.071
-683.281	-8.794	0.355	-0.241
-682.266	800.000	-0.032	0.108
-681.251	800.000	-0.017	0.057
-680.237	254.258	-0.150	-0.259
-679.222	411.292	-0.038	-0.082
-678.208	-131.373	-0.171	-0.023
-677.193	-38.971	0.218	0.116
-676.178	-129.513	0.325	0.046
-675.164	144.118	-0.223	-0.301
-674.149	-21.123	0.031	0.019
-673.135	-104.084	-0.109	-0.026
-672.120	582.703	-0.081	0.201
-671.105	-58.499	0.407	0.179
-670.091	12.602	-0.180	-0.140
-669.076	-115.892	0.235	-0.044
-668.062	23.750	0.098	0.082
-667.047	-7.133	-0.214	-0.146
-666.032	-127.316	-0.273	0.040
-665.018	18.422	0.288	-0.232
-664.003	507.711	-0.064	0.150
-662.989	180.921	0.116	-0.171
-661.974	332.447	0.033	0.065
-660.959	800.000	-0.020	0.081
-659.945	-46.847	-0.154	-0.076
-658.930	800.000	-0.023	0.083
-657.916	800.000	0.157	-0.629
-656.901	-94.784	0.196	-0.054
-655.886	-32.034	-0.164	-0.092
-654.872	51.115	0.175	0.168
-653.857	133.583	-0.095	0.125
-652.843	195.101	0.025	-0.038
-651.828	-1.319	0.027	-0.019
-650.814	0.108	0.046	-0.033
-649.799	800.000	0.028	-0.089
-648.784	-121.026	-0.189	-0.032
-647.770	135.115	-0.026	0.033
-646.755	455.540	0.119	-0.266
-645.741	695.935	0.084	-0.223
-644.726	74.149	0.133	0.141
-643.711	-200.000	0.026	-0.172
-642.697	-128.680	0.195	0.028
-641.682	-151.092	-0.132	0.010
-640.668	-177.993	0.241	-0.006
-639.653	-73.509	-0.319	-0.117
-638.638	121.199	-0.080	0.101
-637.624	47.228	-0.082	-0.077
-636.609	332.184	0.066	-0.129
-635.595	1.462	-0.158	-0.114
-634.580	14.789	0.186	-0.147
-633.565	800.000	-0.028	-0.104
-632.551	-12.054	0.407	-0.269
-631.536	-157.545	0.289	-0.017
-630.522	-126.902	-0.151	-0.022
-629.507	-128.265	-0.137	-0.020
-628.492	598.576	-0.044	-0.111
-627.478	-3.663	-0.169	0.119
-626.463	-18.382	-0.211	-0.133
-625.449	800.000	0.025	-0.091
-624.434	800.000	-0.033	0.115
-623.419	-72.388	-0.252	0.094
-622.405	-105.330	0.373	0.086
-621.390	168.731	0.092	0.132
-620.376	39.738	0.162	-0.146
-619.361	-48.663	0.235	-0.114
-618.346	267.519	0.102	0.180
-617.332	24.895	0.166	0.138
-616.317	-200.000	0.003	0.068
-615.303	-200.000	0.033	0.167
-614.288	209.080	-0.117	0.184
-613.273	49.608	-0.325	0.309
-612.259	-33.040	0.192	0.107
-611.244	-200.000	-0.059	0.493
-610.230	524.335	-0.145	0.344
-609.215	-200.000	0.024	-0.134
-608.201	172.281	-0.095	0.138
-607.186	54.830	0.207	0.201
-606.171	-38.835	0.053	-0.028
-605.157	253.793	0.058	-0.099
-604.142	-109.152	-0.126	-0.027
-603.128	368.700	-0.097	-0.198
-602.113	-91.707	-0.196	-0.056
-601.098	-6.400	-0.112	-0.077
-600.084	757.591	0.070	-0.191
-599.069	-40.308	0.279	0.146
-598.055	-200.000	-0.049	-0.243
-597.040	294.101	-0.261	-0.481
-596.025	-75.354	-0.244	-0.088
-595.011	-200.000	-0.046	-0.471
-593.996	-88.338	-0.216	-0.065
-592.982	141.131	0.053	0.070
-591.967	58.575	0.170	-0.168
-590.952	-101.379	0.125	0.031
-589.938	-200.000	0.002	0.472
-588.923	-106.172	-0.142	0.032
-587.909	492.759	0.100	0.231
-586.894	381.536	0.081	-0.168
-585.879	-143.615	-0.106	-0.010
-584.865	43.520	-0.177	0.163
-583.850	197.195	0.155	-0.238
-582.836	-200.000	-0.087	-0.401
-581.821	800.000	-0.078	-0.220
-580.806	-7.787	0.213	0.145
-579.792	-113.062	-0.112	0.022
-578.777	-66.042	0.149	0.060
-577.763	-78.622	-0.195	0.067
-576.748	1.065	-0.167	-0.121
-575.733	15.966	-0.152	0.120
-574.719	-167.296	-0.196	-0.008
-573.704	273.314	0.084	0.150
-572.690	166.149	-0.096	0.137
-571.675	273.779	-0.038	0.068
-570.661	38.084	-0.209	-0.187
-569.646	-78.276	-0.164	-0.057
-568.631	-200.000	0.065	-0.365
-567.617	276.062	0.054	-0.097
-566.602	800.000	-0.004	0.018
-565.588	-200.000	0.019	-0.156
-564.573	203.026	-0.054	-0.084
-563.558	-126.463	0.383	-0.057
-562.544	-200.000	0.015	-0.424
-561.529	25.066	-0.343	0.287
-560.515	-96.797	-0.218	-0.058
-559.500	800.000	0.060	-0.180
-558.485	-80.220	-0.166	0.056
-557.471	351.227	0.071	0.142
-556.456	241.869	-0.124	0.209
-555.442	329.410	0.103	-0.198
-554.427	-80.728	0.133	0.045
-553.412	35.290	-0.206	0.182
-552.398	11.009	-0.230	0.177
-551.383	29.620	0.232	-0.199
-550.369	48.904	-0.089	0.084
-549.354	-200.000	0.159	0.000
-548.339	800.000	0.042	-0.157
-547.325	-88.711	-0.207	-0.062
-546.310	77.585	-0.071	0.076
-545.296	-64.117	-0.246	-0.101
-544.281	100.516	0.142	0.166
-543.266	-159.276	-0.176	-0.010
-542.252	-65.917	0.298	-0.120
-541.237	-116.455	-0.344	-0.064
-540.223	-139.610	0.322	-0.035
-539.208	61.113	0.219	-0.219
-538.193	-200.000	0.013	0.227
-537.179	-200.000	-0.001	0.146
-536.164	432.313	0.024	-0.053
-535.150	216.469	0.144	0.230
-534.135	13.714	0.277	-0.216
-533.121	-68.132	-0.212	0.083
-532.106	-200.000	0.003	0.294
-531.091	26.453	0.125	-0.105
-530.077	49.453	0.111	-0.105
-529.062	448.340	0.135	-0.298
-528.048	119.344	-0.113	0.141
-527.033	521.646	-0.104	-0.245
-526.018	-91.209	0.291	0.084
-525.004	123.961	-0.084	0.106
-523.989	-200.000	-0.006	-0.029
-522.975	-200.000	-0.009	-0.139
-521.960	-200.000	0.048	0.338
-520.945	110.935	0.046	-0.055
-519.931	176.792	0.026	-0.037
-518.916	-134.545	-0.132	0.016
-517.902	-65.761	-0.184	-0.074
-516.887	446.673	0.117	0.259
-515.872	-82.281	0.304	0.099
-514.858	593.379	0.038	0.094
-513.843	-57.003	-0.246	-0.109
-512.829	-200.000	-0.018	-0.156
-511.814	54.977	-0.199	0.193
-510.799	126.218	0.061	0.077
-509.785	439.791	0.074	0.163
-508.770	-200.000	-0.002	-0.275
-507.756	88.957	0.148	0.165
-506.741	800.000	-0.040	0.138
-505.726	-200.000	0.032	-0.157
-504.712	43.969	-0.147	-0.136
-503.697	-200.000	-0.036	-0.195
-502.683	74.631	-0.102	-0.108
-501.668	800.000	-0.115	-0.456
-500.653	399.331	-0.080	-0.168
-499.639	-200.000	0.028	-0.183
-498.624	-38.928	0.099	0.053
-497.610	800.000	0.020	0.065
-496.595	54.858	-0.154	-0.149
-495.581	252.105	0.099	0.169
-494.566	-200.000	0.028	0.126
-493.551	-85.918	-0.239	-0.074
-492.537	72.958	-0.159	0.166
-491.522	151.801	0.028	0.038
-490.508	398.078	-0.099	-0.208
-489.493	-143.884	0.192	0.018
-488.478	27.608	0.128	-0.108
-487.464	800.000	-0.113	0.350
-486.449	278.107	-0.026	0.047
-485.435	102.723	-0.139	-0.163
-484.420	250.266	-0.272	0.463
-483.405	-117.284	-0.327	0.060
-482.391	-81.551	0.203	-0.067
-481.376	26.443	0.245	-0.205
-480.362	-113.853	0.219	-0.043
-479.347	195.194	0.158	-0.241
-478.332	800.000	-0.044	0.145
-477.318	62.184	-0.237	-0.237
-476.303	-30.194	0.153	-0.087
-475.289	-200.000	-0.039	-0.296
-474.274	-200.000	0.001	-0.059
-473.259	-63.918	0.342	-0.140
-472.245	-116.367	-0.064	-0.012
-471.230	-131.097	-0.254	-0.034
-470.216	800.000	0.063	0.262
-469.201	-153.476	-0.164	-0.011
-468.186	9.472	-0.032	0.025
-467.172	-106.564	0.075	-0.017
-466.157	90.682	0.155	0.174
-465.143	756.381	-0.024	0.064
-464.128	-200.000	-0.038	0.175
-463.113	167.151	-0.046	-0.066
-462.099	471.188	-0.011	0.025
-461.084	-200.000	-0.050	-0.259
-460.070	800.000	-0.073	0.228
-459.055	-66.328	0.183	-0.073
-458.040	-98.194	-0.265	0.068
-457.026	159.894	0.116	-0.162
-456.011	-75.565	-0.322	0.115
-454.997	-125.234	0.088	-0.013
-453.982	76.013	0.083	0.088
-452.968	-134.233	0.114	-0.014
-451.953	107.379	-0.189	-0.225
-450.938	188.335	0.118	-0.177
-449.924	157.828	0.209	-0.290
-448.909	-92.386	0.256	0.072
-447.895	-65.891	0.573	0.229
-446.880	180.978	0.038	-0.056
-445.865	550.680	0.131	-0.315
-444.851	91.377	0.117	-0.132
-443.836	192.583	0.092	0.140
-442.822	-64.593	-0.135	0.055
-441.807	-77.915	0.038	-0.013
-440.792	-85.728	0.418	-0.130
-439.778	150.947	0.060	0.082
-438.763	-121.455	-0.157	0.026
-437.749	-200.000	0.016	0.400
-436.734	800.000	-0.093	-0.288
-435.719	229.022	-0.081	-0.133
-434.705	-108.498	0.150	-0.032
-433.690	60.698	-0.065	-0.065
-432.676	26.133	0.031	0.026
-431.661	-200.000	0.026	0.282
-430.646	112.643	-0.120	-0.146
-429.632	253.454	0.137	-0.234
-428.617	86.962	0.117	-0.130
-427.603	-47.881	0.124	-0.060
-426.588	-3.403	0.094	-0.066
-425.573	-200.000	0.030	0.139
-424.559	-200.000	-0.002	-0.211
-423.544	267.724	0.068	-0.120
-422.530	800.000	-0.030	-0.095
-421.515	-2.195	0.281	0.197
-420.500	-94.142	-0.274	0.075
-419.486	-168.331	0.185	-0.007
-418.471	-127.721	0.265	0.038
-417.457	206.605	-0.199	0.311
-416.442	800.000	0.034	-0.132
-415.428	91.769	-0.126	0.142
-414.413	-134.504	0.065	0.008
-413.398	-76.836	0.325	0.114
-412.384	331.756	-0.068	-0.130
-411.369	677.903	-0.143	-0.372
-410.355	-85.201	0.135	-0.042
-409.340	131.019	0.040	-0.052
-408.325	-200.000	-0.007	-0.109
-407.311	800.000	-0.052	-0.201
-406.296	800.000	0.079	0.266
-405.282	-54.257	-0.208	-0.094
-404.267	-190.565	0.050	-0.001
-403.252	-200.000	0.061	-0.352
-402.238	136.962	-0.119	0.155
-401.223	226.142	0.200	0.324
-400.209	-82.998	0.091	-0.029
-399.194	-200.000	0.005	-0.211
-398.179	-200.000	-0.011	-0.195
-397.165	800.000	0.041	0.164
-396.150	44.467	0.020	0.018
-395.136	-101.644	0.356	0.086
-394.121	800.000	-0.074	0.226
-393.106	-200.000	-0.096	-0.434
-392.092	77.393	-0.300	-0.319
-391.077	800.000	-0.121	0.367
-390.063	-73.515	-0.102	0.037
-389.048	-110.331	0.344	0.072
-388.033	-140.168	-0.193	0.020
-387.019	15.177	-0.063	0.050
-386.004	-16.778	0.134	0.084
-384.990	5.836	-0.168	-0.124
-383.975	719.394	-0.087	-0.231
-382.960	-69.658	0.210	-0.080
-381.946	-86.587	-0.388	0.119
-380.931	65.103	0.084	-0.084
-379.917	-200.000	-0.080	-0.000
-378.902	800.000	0.047	-0.154
-377.888	-33.460	-0.304	0.168
-376.873	-200.000	-0.003	-0.347
-375.858	800.000	0.048	0.157
-374.844	9.685	0.161	0.122
-373.829	-200.000	-0.007	0.077
-372.815	124.660	0.098	-0.124
-371.800	-55.451	0.159	0.071
-370.785	187.253	-0.148	-0.220
-369.771	-90.041	0.226	0.066
-368.756	-141.953	0.112	0.011
-367.742	-82.301	0.156	-0.051
-366.727	13.253	0.182	-0.141
-365.712	-63.152	0.239	-0.099
-364.698	99.973	0.223	0.258
-363.683	800.000	-0.157	-0.437
-362.669	-200.000	-0.052	0.255
-361.654	57.195	0.078	-0.076
-360.639	556.010	0.038	0.092
-359.625	5.004	-0.080	-0.058
-358.610	-177.730	0.080	0.002
-357.596	112.231	0.192	0.231
-356.581	-93.435	-0.225	-0.062
-355.566	435.851	0.065	0.140
-354.552	698.204	-0.071	-0.186
-353.537	-200.000	0.034	0.289
-352.523	-30.093	0.134	0.076
-351.508	-92.540	0.148	0.041
-350.493	317.460	0.037	0.070
-349.479	132.734	0.164	0.212
-348.464	-22.901	-0.212	0.128
-347.450	-200.000	-0.016	0.097
-346.435	-11.227	0.309	0.203
-345.420	-200.000	0.033	0.203
-344.406	-200.000	0.015	-0.097
-343.391	95.534	-0.152	-0.173
-342.377	-86.728	0.072	0.022
-341.362	800.000	0.102	-0.307
-340.348	-16.444	-0.304	0.192
-339.333	548.155	0.108	0.257
-338.318	20.907	0.125	0.101
-337.304	-111.540	-0.154	-0.031
-336.289	11.071	0.125	-0.095
-335.275	76.211	0.118	-0.125
-334.260	-122.007	0.095	-0.016
-333.245	-16.578	-0.342	-0.216
-332.231	-148.107	-0.241	-0.020
-331.216	-144.743	0.162	-0.015
-330.202	800.000	-0.035	-0.116
-329.187	800.000	-0.073	0.282
-328.172	-56.976	0.173	0.076
-327.158	111.680	0.096	0.115
-326.143	-4.640	-0.161	0.111
-325.129	-114.478	-0.277	-0.053
-324.114	-64.705	-0.141	0.057
-323.099	-140.704	0.455	-0.047
-322.085	154.729	-0.177	-0.242
-321.070	-58.553	-0.361	0.156
-320.056	-7.829	-0.349	0.235
-319.041	-200.000	0.024	0.188
-318.026	-28.564	0.117	0.067
-317.012	-39.945	-0.157	-0.082
-315.997	-12.744	-0.152	0.099
-314.983	199.601	0.126	-0.193
-313.968	680.918	0.074	-0.191
-312.953	84.710	0.061	-0.066
-311.939	-92.750	0.166	-0.046
-310.924	591.924	-0.093	0.229
-309.910	800.000	-0.099	0.293
-308.895	259.620	0.184	0.316
-307.880	-36.808	0.014	0.007
-306.866	800.000	0.082	-0.243
-305.851	118.048	-0.102	-0.125
-304.837	-200.000	-0.083	-0.000
-303.822	-62.009	-0.098	-0.041
-302.807	800.000	0.029	-0.115
-301.793	35.067	-0.269	0.235
-300.778	-150.975	0.207	-0.016
-299.764	-105.818	0.473	0.106
-298.749	-55.287	-0.267	-0.120
-297.735	-134.031	-0.046	-0.006
-296.720	-38.049	0.175	0.092
-295.705	-105.945	0.053	-0.012
-294.691	154.717	0.182	0.250
-293.676	-18.759	-0.271	0.168
-292.662	75.806	-0.039	-0.041
-291.647	800.000	-0.056	-0.219
-290.632	-200.000	0.024	0.558
-289.618	78.026	-0.151	-0.160
-288.603	800.000	-0.011	-0.041
-287.589	800.000	0.084	-0.312
-286.574	-64.940	-0.318	0.128
-285.559	50.855	-0.272	0.257
-284.545	125.644	-0.076	-0.096
-283.530	800.000	-0.038	0.121
-282.516	-55.950	0.194	-0.086
-281.501	-65.270	0.188	-0.075
-280.486	-31.792	-0.378	-0.211
-279.472	267.191	-0.153	0.267
-278.457	-142.969	0.189	0.018
-277.443	-184.692	-0.326	0.005
-276.428	93.792	0.209	-0.235
-275.413	457.829	0.103	0.228
-274.399	-134.571	-0.359	0.044
-273.384	800.000	-0.129	-0.404
-272.370	-200.000	-0.049	0.391
-271.355	9.381	-0.203	0.153
-270.340	-200.000	-0.013	0.196
-269.326	27.360	-0.047	-0.039
-268.311	19.107	-0.184	-0.147
-267.297	711.868	0.076	0.201
-266.282	-43.862	-0.361	-0.181
-265.267	-135.139	-0.246	-0.029
-264.253	14.738	0.052	-0.041
-263.238	181.007	0.073	-0.106
-262.224	34.606	-0.136	0.119
-261.209	800.000	-0.102	0.411
-260.195	-200.000	0.008	-0.129
-259.180	-148.524	-0.309	-0.025
-258.165	-139.142	0.249	0.027
-257.151	-58.682	-0.270	-0.116
-256.136	-149.662	-0.442	0.035
-255.122	-152.958	0.197	-0.014
-254.107	101.595	0.078	0.090
-253.092	-22.980	-0.306	-0.183
-252.078	-95.263	0.063	0.017
-251.063	-155.399	0.242	-0.016
-250.049	800.000	0.041	-0.170
-249.034	136.830	-0.043	-0.056
-248.019	217.486	-0.164	-0.259
-247.005	800.000	-0.036	-0.141
-245.990	-14.116	-0.155	0.099
-244.976	-30.406	-0.343	-0.193
-243.961	45.516	-0.175	-0.161
-242.946	10.574	0.405	0.306
-241.932	220.111	-0.100	0.160
-240.917	171.068	0.168	-0.239
-239.903	-141.454	-0.203	0.020
-238.888	249.321	-0.185	-0.311
-237.873	-83.394	0.228	0.073
-236.859	-200.000	-0.036	0.210
-235.844	99.199	0.098	-0.112
-234.830	-78.234	0.027	-0.009
-233.815	438.671	0.095	0.205
-232.800	308.991	-0.102	0.189
-231.786	482.693	0.052	0.117
-230.771	125.357	0.062	0.078
-229.757	-99.652	0.267	-0.067
-228.742	-191.013	0.416	-0.004
-227.727	104.151	-0.187	0.218
-226.713	-61.594	-0.283	0.118
-225.698	3.510	0.091	0.066
-224.684	-40.111	-0.156	-0.081
-223.669	330.223	0.151	-0.289
-222.655	192.523	0.128	-0.192
-221.640	-200.000	0.025	-0.142
-220.625	-200.000	-0.017	-0.098
-219.611	-154.205	-0.083	0.006
-218.596	-142.184	0.051	-0.005
-217.582	166.607	0.086	-0.121
-216.567	800.000	0.109	0.309
-215.552	437.746	0.090	0.196
-214.538	-151.203	-0.112	-0.008
-213.523	7.010	0.111	-0.082
-212.509	73.263	-0.274	-0.285
-211.494	361.333	-0.199	0.395
-210.479	800.000	-0.016	-0.045
-209.465	-102.346	-0.255	0.061
-208.450	-200.000	-0.046	0.203
-207.436	341.685	-0.164	0.318
-206.421	-12.200	0.180	0.117
-205.406	381.667	-0.164	0.335
-204.392	194.794	-0.169	-0.255
-203.377	-137.720	0.158	0.018
-202.363	-112.374	0.092	-0.018
-201.348	-20.121	-0.109	-0.067
-200.333	15.517	0.055	0.043
-199.319	229.772	0.068	0.110
-198.304	-62.372	-0.112	0.046
-197.290	-169.986	-0.190	0.007
-196.275	183.063	-0.133	0.195
-195.260	345.334	0.156	0.303
-194.246	-16.941	0.168	-0.105
-193.231	87.927	-0.142	-0.156
-192.217	-131.423	-0.134	-0.018
-191.202	-24.892	-0.131	0.077
-190.187	-91.103	0.249	-0.071
-189.173	176.354	-0.038	0.055
-188.158	-92.111	0.227	-0.064
-187.144	-200.000	-0.002	-0.034
-186.129	454.995	-0.098	0.215
-185.114	60.338	0.123	-0.120
-184.100	341.629	-0.124	0.241
-183.085	108.470	-0.181	-0.214
-182.071	-14.331	-0.104	0.066
-181.056	3.154	-0.177	-0.128
-180.042	-104.003	0.184	0.042
-179.027	800.000	0.085	0.276
-178.012	603.787	-0.119	-0.294
-176.998	-100.839	0.168	0.041
-175.983	252.494	0.024	0.040
-174.969	79.203	0.228	0.242
-173.954	-42.140	-0.083	0.042
-172.939	-119.006	0.064	0.011
-171.925	-200.000	0.013	-0.171
-170.910	-158.136	0.073	-0.004
-169.896	123.123	-0.080	-0.099
-168.881	-149.573	0.593	0.046
-167.866	-24.192	0.070	0.041
-166.852	189.827	0.013	-0.020
-165.837	800.000	-0.058	-0.213
-164.823	-200.000	0.019	0.384
-163.808	-143.070	0.188	-0.018
-162.793	-200.000	0.001	0.183
-161.779	285.324	0.082	-0.147
-160.764	327.911	0.155	0.294
-159.750	-120.621	0.057	-0.010
-158.735	-200.000	-0.039	0.193
-157.720	-38.980	0.192	-0.100
-156.706	-181.214	-0.033	0.001
-155.691	630.483	0.076	0.191
-154.677	-1.532	0.337	0.235
-153.662	377.728	-0.111	0.224
-152.647	511.005	0.061	-0.141
-151.633	-78.439	0.345	-0.117
-150.618	-200.000	0.002	0.161
-149.604	-200.000	0.013	-0.167
-148.589	-109.435	-0.254	-0.053
-147.574	20.461	0.111	0.089
-146.560	105.485	0.146	0.171
-145.545	-139.448	-0.228	-0.024
-144.531	-63.200	0.255	-0.104
-143.516	-200.000	-0.004	-0.140
-142.502	-82.665	0.356	0.114
-141.487	154.182	0.086	-0.116
-140.472	-200.000	-0.008	0.179
-139.458	800.000	-0.091	-0.310
-138.443	371.420	0.180	0.362
-137.429	219.004	0.370	-0.586
-136.414	-124.643	0.175	-0.027
-135.399	-200.000	-0.250	0.001
-134.385	-112.280	0.116	0.023
-133.370	-106.099	-0.199	-0.044
-132.356	-57.578	0.063	0.028
-131.341	-96.869	0.368	-0.096
-130.326	91.415	0.108	0.120
-129.312	-158.720	0.550	0.031
-128.297	125.997	0.208	0.260
-127.283	800.000	-0.049	-0.206
-126.268	122.650	0.054	-0.067
-125.253	-200.000	0.015	-0.110
-124.239	-132.397	0.401	-0.051
-123.224	-70.113	0.198	-0.074
-122.210	-19.662	0.111	-0.068
-121.195	-75.666	-0.057	-0.020
