DTS Sentinel unit serial number:	SN413079Multiplexer serial number:	ORYXHardware model number:	OX4-SRSoftware version number:	ORYX F/W v4.00 Oryx Data Collector v3.7.2.0data status	okinstallation	princeton_trtdifferential loss correction	single-endedforward channel	channel 1reverse channel	N/Adate	2019/09/12time	21:26:35forward acquisition time	60.00reverse acquisition time	0.00gamma	496.2192k internal	0.2326k external	0.2326temperature offset calibration	1.0135default loss term (dB/km)	0.3790temperature slope calibration	1.0000multiplexer offset coefficient	1.0000multiplexer slope coefficient	1.0000fibre end	0.00T internal ref (°C)	30.50T ext. ref 1 (°C)	3.61T ext. ref 2 (°C)	25.10length (m)	temperature (°C)	Stokes	anti-Stokes-747.200	274.841	0.044	-0.079
-746.185	-57.989	-0.113	-0.050
-745.171	19.452	0.098	0.079
-744.156	-66.114	0.166	0.067
-743.142	-63.253	0.397	-0.165
-742.127	-29.795	0.229	0.132
-741.112	1.232	0.255	0.184
-740.098	-96.661	0.063	-0.017
-739.083	-200.000	-0.005	-0.062
-738.069	76.059	0.175	0.186
-737.054	800.000	0.030	0.107
-736.039	29.805	-0.092	0.079
-735.025	130.493	-0.094	0.122
-734.010	-200.000	-0.004	-0.154
-732.996	-32.765	0.247	-0.138
-731.981	-200.000	0.011	0.120
-730.966	94.873	0.045	-0.051
-729.952	330.082	-0.051	0.100
-728.937	-200.000	0.020	0.262
-727.923	-200.000	0.024	0.163
-726.908	154.859	-0.092	-0.128
-725.894	232.010	0.109	0.180
-724.879	-67.258	-0.101	0.040
-723.864	35.840	-0.090	0.080
-722.850	264.274	0.090	-0.158
-721.835	-200.000	0.021	-0.216
-720.821	20.627	-0.212	-0.172
-719.806	68.376	-0.115	-0.119
-718.791	-20.318	-0.222	-0.137
-717.777	800.000	0.039	-0.113
-716.762	342.234	0.117	0.230
-715.748	-200.000	0.030	0.196
-714.733	7.231	0.039	0.030
-713.718	-200.000	-0.015	0.076
-712.704	-82.803	0.017	-0.006
-711.689	-200.000	0.052	-0.439
-710.675	-97.991	-0.121	0.031
-709.660	-125.788	-0.364	-0.055
-708.645	-33.814	-0.216	-0.120
-707.631	67.304	0.131	-0.135
-706.616	-13.092	-0.138	0.090
-705.602	42.240	0.096	0.088
-704.587	-200.000	0.004	-0.124
-703.572	-200.000	0.021	0.169
-702.558	38.863	0.309	-0.278
-701.543	78.257	-0.202	0.217
-700.529	-99.294	-0.425	-0.108
-699.514	-118.563	-0.135	-0.024
-698.499	-200.000	-0.005	-0.253
-697.485	-200.000	0.097	-0.000
-696.470	298.455	-0.150	-0.278
-695.456	-200.000	-0.054	-0.300
-694.441	-93.662	0.144	0.040
-693.426	230.616	-0.145	0.239
-692.412	-132.732	-0.225	0.029
-691.397	384.352	-0.105	-0.217
-690.383	530.066	-0.110	0.260
-689.368	696.585	-0.026	0.068
-688.354	64.209	0.117	-0.118
-687.339	87.514	-0.158	-0.176
-686.324	432.498	-0.048	-0.104
-685.310	-112.389	-0.329	-0.066
-684.295	-133.482	-0.049	-0.006
-683.281	-200.000	0.037	-0.396
-682.266	-20.145	-0.403	-0.250
-681.251	-200.000	-0.029	-0.165
-680.237	273.511	0.041	0.074
-679.222	-80.269	0.194	0.065
-678.208	800.000	-0.029	-0.102
-677.193	-108.629	0.245	-0.053
-676.178	263.478	0.057	-0.100
-675.164	10.927	-0.398	-0.306
-674.149	800.000	-0.005	0.021
-673.135	-52.308	0.148	-0.069
-672.120	63.548	0.130	-0.131
-671.105	39.872	0.045	-0.041
-670.091	-80.730	0.049	0.016
-669.076	196.541	-0.151	0.232
-668.062	240.134	0.041	0.069
-667.047	37.951	-0.073	0.065
-666.032	-200.000	-0.069	-0.419
-665.018	262.762	0.052	-0.091
-664.003	-11.583	0.199	-0.131
-662.989	93.397	0.180	-0.205
-661.974	11.230	-0.126	-0.097
-660.959	-200.000	-0.071	0.376
-659.945	-200.000	0.028	-0.202
-658.930	598.189	-0.121	0.302
-657.916	653.873	-0.070	0.180
-656.901	5.304	-0.090	0.067
-655.886	555.224	0.101	0.243
-654.872	-142.728	0.374	-0.037
-653.857	-200.000	-0.024	0.188
-652.843	-133.625	0.209	0.026
-651.828	110.341	-0.092	-0.111
-650.814	-157.133	-0.212	0.013
-649.799	-200.000	-0.007	0.074
-648.784	121.828	0.091	0.114
-647.770	400.485	0.083	-0.175
-646.755	459.693	0.091	-0.204
-645.741	800.000	0.129	-0.407
-644.726	800.000	-0.066	0.188
-643.711	34.789	-0.152	-0.133
-642.697	7.024	0.052	0.039
-641.682	2.583	-0.127	0.092
-640.668	119.383	-0.113	0.140
-639.653	-54.677	-0.118	-0.054
-638.638	15.355	-0.063	-0.050
-637.624	800.000	-0.041	-0.160
-636.609	-110.838	-0.141	0.029
-635.595	800.000	0.057	-0.196
-634.580	-200.000	-0.040	-0.227
-633.565	75.908	0.245	0.260
-632.551	511.901	-0.085	-0.199
-631.536	800.000	0.046	0.190
-630.522	-194.375	0.243	0.002
-629.507	58.845	0.045	0.044
-628.492	800.000	-0.134	-0.389
-627.478	-200.000	-0.014	-0.202
-626.463	686.608	-0.085	0.223
-625.449	-32.506	-0.197	-0.110
-624.434	-99.458	0.339	0.086
-623.419	-121.625	-0.219	-0.036
-622.405	-200.000	0.066	-0.403
-621.390	-106.568	0.242	-0.054
-620.376	388.910	0.097	0.202
-619.361	-120.102	-0.078	-0.013
-618.346	47.373	0.163	0.152
-617.332	-58.068	-0.266	0.117
-616.317	-42.866	0.130	0.066
-615.303	105.073	-0.036	-0.043
-614.288	-69.531	-0.037	-0.014
-613.273	800.000	0.048	-0.191
-612.259	-35.877	-0.128	-0.069
-611.244	-115.534	-0.080	0.015
-610.230	-189.209	-0.171	-0.002
-609.215	88.117	-0.256	-0.285
-608.201	26.979	-0.240	-0.202
-607.186	96.859	0.104	-0.120
-606.171	-31.985	-0.121	0.068
-605.157	469.376	-0.134	0.301
-604.142	51.370	0.092	0.087
-603.128	-94.483	0.317	-0.087
-602.113	268.355	0.084	0.147
-601.098	-200.000	0.038	0.260
-600.084	-200.000	-0.014	-0.178
-599.069	-12.575	-0.220	0.144
-598.055	-173.612	-0.229	0.007
-597.040	-200.000	0.005	0.121
-596.025	-64.750	-0.525	0.213
-595.011	800.000	-0.132	-0.486
-593.996	-130.786	-0.103	-0.014
-592.982	95.632	-0.244	-0.280
-591.967	-157.835	-0.248	0.015
-590.952	-45.506	-0.244	-0.121
-589.938	-200.000	-0.041	-0.392
-588.923	10.132	-0.089	-0.068
-587.909	632.765	0.099	0.251
-586.894	-37.398	0.089	-0.048
-585.879	800.000	-0.035	0.146
-584.865	-114.531	0.344	0.066
-583.850	-177.403	-0.125	-0.003
-582.836	-40.217	0.258	-0.134
-581.821	-97.131	0.116	0.030
-580.806	-74.997	-0.151	-0.054
-579.792	-200.000	-0.013	-0.086
-578.777	-70.547	0.177	-0.067
-577.763	800.000	-0.029	0.126
-576.748	65.527	-0.122	0.124
-575.733	-200.000	0.059	0.371
-574.719	18.037	0.225	-0.180
-573.704	32.311	-0.019	0.016
-572.690	-58.503	0.033	0.014
-571.675	800.000	0.110	-0.320
-570.661	107.037	-0.149	0.177
-569.646	373.450	0.027	-0.054
-568.631	-128.632	-0.270	0.038
-567.617	128.527	0.121	0.154
-566.602	143.318	0.136	0.182
-565.588	48.555	0.069	-0.065
-564.573	-55.960	-0.181	-0.081
-563.558	-200.000	0.026	-0.163
-562.544	-161.445	-0.141	-0.007
-561.529	-104.003	-0.288	-0.067
-560.515	-81.094	-0.360	0.119
-559.500	-110.617	-0.153	0.032
-558.485	311.621	0.103	-0.193
-557.471	800.000	0.055	0.178
-556.456	800.000	-0.070	-0.249
-555.442	-200.000	-0.090	0.442
-554.427	-4.462	-0.382	-0.264
-553.412	264.912	-0.078	0.136
-552.398	-72.684	0.379	-0.140
-551.383	-121.161	0.223	0.037
-550.369	-200.000	0.046	-0.260
-549.354	-81.054	0.221	-0.073
-548.339	800.000	-0.025	0.088
-547.325	125.954	-0.112	-0.141
-546.310	471.261	0.206	-0.464
-545.296	32.337	-0.157	0.136
-544.281	-86.599	0.167	0.051
-543.266	-200.000	0.052	0.554
-542.252	-138.832	-0.200	-0.022
-541.237	-62.999	0.707	0.292
-540.223	-200.000	0.022	0.523
-539.208	-20.923	-0.231	0.141
-538.193	135.197	-0.202	-0.263
-537.179	418.823	0.063	0.135
-536.164	136.391	0.149	-0.194
-535.150	-49.914	0.073	-0.035
-534.135	121.320	0.129	0.161
-533.121	122.401	0.279	-0.349
-532.106	211.163	0.075	0.119
-531.091	800.000	-0.032	0.126
-530.077	150.196	-0.061	0.082
-529.062	-30.919	0.043	0.025
-528.048	176.222	-0.316	-0.458
-527.033	4.976	-0.214	-0.157
-526.018	-116.375	-0.214	-0.040
-525.004	138.518	-0.092	-0.121
-523.989	8.839	0.202	-0.152
-522.975	800.000	-0.055	-0.200
-521.960	129.131	-0.168	-0.214
-520.945	-97.653	0.322	0.083
-519.931	-63.891	-0.388	-0.159
-518.916	-122.632	0.308	0.050
-517.902	-71.011	-0.436	-0.164
-516.887	139.298	0.190	-0.250
-515.872	133.459	0.089	-0.115
-514.858	45.542	-0.067	-0.062
-513.843	-23.226	0.067	0.040
-512.829	-98.945	-0.205	-0.052
-511.814	-40.108	-0.093	-0.048
-510.799	-200.000	0.011	-0.104
-509.785	57.432	0.068	0.066
-508.770	374.449	0.103	0.209
-507.756	44.417	-0.110	-0.101
-506.741	66.798	-0.154	0.157
-505.726	-200.000	0.078	0.402
-504.712	39.978	-0.231	0.207
-503.697	59.149	-0.181	0.178
-502.683	101.005	-0.207	0.240
-501.668	119.130	-0.110	0.136
-500.653	291.595	0.225	0.409
-499.639	616.024	0.056	-0.141
-498.624	-200.000	0.101	-0.465
-497.610	101.678	0.132	-0.153
-496.595	-200.000	0.017	0.263
-495.581	405.107	0.180	0.379
-494.566	-70.187	0.229	-0.087
-493.551	209.982	0.143	-0.224
-492.537	290.404	0.053	-0.096
-491.522	504.442	0.152	-0.351
-490.508	-6.360	0.274	-0.186
-489.493	106.833	0.267	0.317
-488.478	197.234	-0.171	0.260
-487.464	-65.813	0.206	0.082
-486.449	126.272	-0.101	-0.128
-485.435	-157.296	-0.123	0.007
-484.420	63.610	-0.278	-0.279
-483.405	-49.234	-0.132	-0.063
-482.391	-192.485	-0.235	-0.002
-481.376	301.408	0.060	0.110
-480.362	3.213	0.258	0.188
-479.347	151.375	-0.109	0.148
-478.332	314.929	0.102	0.192
-477.318	800.000	0.055	-0.184
-476.303	501.681	0.011	-0.025
-475.289	196.264	0.201	-0.305
-474.274	-16.772	0.112	0.071
-473.259	8.162	-0.169	-0.127
-472.245	384.593	-0.113	-0.232
-471.230	-145.354	-0.190	-0.017
-470.216	-200.000	0.051	0.408
-469.201	231.878	-0.041	0.067
-468.186	-120.875	-0.414	-0.070
-467.172	-46.479	0.091	-0.045
-466.157	343.194	0.192	-0.375
-465.143	-86.295	0.258	-0.079
-464.128	391.112	0.045	-0.094
-463.113	81.998	0.111	-0.120
-462.099	178.530	-0.146	-0.213
-461.084	-123.923	0.433	0.068
-460.070	-184.815	-0.199	0.003
-459.055	166.401	-0.148	0.209
-458.040	690.018	0.064	0.166
-457.026	800.000	-0.113	-0.431
-456.011	131.502	0.100	0.129
-454.997	260.074	-0.225	0.388
-453.982	-200.000	-0.027	0.162
-452.968	800.000	-0.011	-0.030
-451.953	-142.438	0.165	-0.016
-450.938	-136.937	-0.067	0.008
-449.924	-25.207	-0.010	0.006
-448.909	-8.795	0.227	-0.152
-447.895	-200.000	-0.031	-0.275
-446.880	209.332	0.099	-0.155
-445.865	800.000	0.042	-0.143
-444.851	800.000	-0.021	0.091
-443.836	-32.404	-0.215	0.119
-442.822	-81.603	-0.196	0.064
-441.807	263.711	0.136	0.236
-440.792	22.581	0.145	-0.118
-439.778	161.276	-0.094	-0.131
-438.763	-200.000	-0.020	-0.113
-437.749	-60.367	0.262	0.111
-436.734	27.308	-0.074	-0.062
-435.719	-11.935	0.294	-0.192
-434.705	196.005	0.104	-0.158
-433.690	18.663	0.140	-0.112
-432.676	-38.660	0.035	-0.018
-431.661	-200.000	0.037	0.200
-430.646	53.957	0.311	0.298
-429.632	131.992	-0.204	0.261
-428.617	215.227	0.138	0.218
-427.603	800.000	0.033	-0.143
-426.588	-69.609	0.101	0.039
-425.573	42.501	0.143	0.129
-424.559	-10.243	-0.109	0.072
-423.544	-200.000	-0.040	0.287
-422.530	64.286	0.011	-0.011
-421.515	520.608	0.162	-0.378
-420.500	97.959	-0.243	0.278
-419.486	-30.049	-0.179	0.102
-418.471	383.412	0.100	0.206
-417.457	-82.185	0.275	0.089
-416.442	288.861	-0.085	0.154
-415.428	800.000	0.092	-0.272
-414.413	27.295	0.269	-0.225
-413.398	800.000	-0.019	0.061
-412.384	-200.000	-0.026	-0.143
-411.369	-70.535	0.120	-0.045
-410.355	292.394	-0.074	0.134
-409.340	-181.547	0.102	0.002
-408.325	-200.000	0.001	-0.183
-407.311	607.451	0.102	-0.253
-406.296	-37.734	0.134	0.071
-405.282	335.317	0.054	0.104
-404.267	-113.130	-0.149	-0.029
-403.252	659.676	-0.023	-0.059
-402.238	-200.000	0.002	0.043
-401.223	-156.806	-0.305	-0.019
-400.209	111.270	0.057	0.068
-399.194	98.197	-0.209	0.240
-398.179	184.154	0.156	0.230
-397.165	710.420	-0.116	-0.306
-396.150	9.495	-0.224	-0.169
-395.136	-145.643	0.096	0.008
-394.121	-80.842	-0.210	0.069
-393.106	-65.003	0.077	-0.031
-392.092	299.607	0.156	0.286
-391.077	104.621	0.272	0.319
-390.063	173.081	0.271	0.388
-389.048	-20.122	-0.210	-0.129
-388.033	-117.808	0.191	-0.034
-387.019	-73.239	0.264	0.096
-386.004	330.501	0.019	-0.036
-384.990	-106.479	-0.075	-0.017
-383.975	-200.000	0.015	0.087
-382.960	-46.624	-0.164	0.080
-381.946	-13.194	-0.273	0.176
-380.931	-179.008	-0.221	0.005
-379.917	-200.000	0.011	0.231
-378.902	5.841	-0.151	-0.111
-377.888	-200.000	-0.016	0.076
-376.873	-29.097	-0.086	-0.049
-375.858	-27.151	-0.150	0.087
-374.844	-84.936	0.122	0.038
-373.829	79.444	-0.378	0.403
-372.815	383.716	-0.096	-0.196
-371.800	-0.449	0.501	0.353
-370.785	-49.139	0.114	-0.054
-369.771	-162.362	0.093	-0.005
-368.756	-19.703	0.361	0.222
-367.742	-162.654	0.292	-0.014
-366.727	-36.808	0.191	-0.102
-365.712	-102.235	-0.365	0.087
-364.698	24.968	-0.406	0.335
-363.683	69.360	0.133	-0.136
-362.669	356.821	-0.074	0.146
-361.654	6.585	-0.235	0.173
-360.639	21.595	-0.106	0.086
-359.625	-78.618	-0.052	0.018
-358.610	-81.571	0.249	-0.081
-357.596	-24.742	-0.038	-0.022
-356.581	800.000	-0.137	0.453
-355.566	-72.762	-0.087	-0.032
-354.552	8.105	-0.306	-0.228
-353.537	-108.216	0.206	0.044
-352.523	-6.744	-0.106	-0.071
-351.508	20.769	-0.164	0.132
-350.493	190.015	0.213	-0.318
-349.479	-4.260	0.188	-0.129
-348.464	-66.730	0.407	-0.160
-347.450	-146.411	-0.199	-0.017
-346.435	-72.035	-0.060	0.022
-345.420	55.823	-0.088	-0.084
-344.406	-200.000	-0.016	-0.221
-343.391	-200.000	-0.053	-0.250
-342.377	375.282	-0.064	0.130
-341.362	-0.843	0.017	-0.012
-340.348	-200.000	0.027	0.224
-339.333	800.000	0.157	0.528
-338.318	68.819	0.153	0.156
-337.304	-150.795	-0.364	0.027
-336.289	45.793	-0.181	0.166
-335.275	-119.276	0.247	-0.043
-334.260	800.000	0.035	-0.140
-333.245	-200.000	0.005	-0.158
-332.231	-200.000	0.016	-0.108
-331.216	800.000	0.050	0.217
-330.202	-25.271	0.225	-0.132
-329.187	709.137	0.035	0.091
-328.172	-96.671	-0.136	0.036
-327.158	-200.000	-0.025	0.216
-326.143	800.000	-0.021	-0.058
-325.129	-78.114	0.070	-0.024
-324.114	-50.783	0.107	-0.050
-323.099	-117.407	0.354	0.064
-322.085	115.713	-0.216	-0.262
-321.070	-120.669	0.336	-0.056
-320.056	-124.779	-0.232	-0.036
-319.041	506.072	-0.107	0.246
-318.026	54.181	-0.246	-0.235
-317.012	72.563	-0.262	-0.272
-315.997	443.191	0.097	0.210
-314.983	-200.000	0.049	-0.259
-313.968	-105.911	-0.102	0.023
-312.953	800.000	-0.067	0.223
-311.939	800.000	-0.079	0.256
-310.924	-112.714	0.321	0.063
-309.910	117.776	-0.306	0.373
-308.895	400.793	0.135	-0.281
-307.880	-149.379	0.255	0.020
-306.866	-200.000	-0.060	0.288
-305.851	106.313	-0.070	0.083
-304.837	722.982	-0.097	-0.255
-303.822	185.894	-0.222	-0.328
-302.807	-75.063	0.200	-0.071
-301.793	56.973	-0.132	0.128
-300.778	-66.858	-0.153	-0.060
-299.764	-46.981	0.173	0.084
-298.749	37.170	0.103	-0.090
-297.735	-119.132	-0.368	0.064
-296.720	-94.565	-0.193	0.052
-295.705	-200.000	-0.252	-0.001
-294.691	800.000	0.134	-0.392
-293.676	-146.591	0.277	-0.024
-292.662	-151.519	0.329	0.024
-291.647	550.630	-0.087	-0.207
-290.632	-82.225	0.291	0.094
-289.618	-161.390	-0.201	0.010
-288.603	800.000	0.071	-0.225
-287.589	589.026	0.124	-0.303
-286.574	-9.759	-0.164	-0.109
-285.559	800.000	0.037	0.152
-284.545	305.420	-0.210	-0.387
-283.530	68.459	0.060	-0.061
-282.516	644.332	0.073	0.184
-281.501	86.638	-0.030	0.033
-280.486	5.903	0.122	-0.089
-279.472	-107.927	-0.324	-0.070
-278.457	800.000	-0.040	-0.168
-277.443	242.952	-0.059	-0.098
-276.428	-115.389	0.217	-0.041
-275.413	-125.615	0.239	-0.036
-274.399	-200.000	-0.000	-0.115
-273.384	444.958	0.130	0.283
-272.370	-24.295	-0.165	-0.098
-271.355	-159.515	-0.118	-0.006
-270.340	12.438	0.045	0.034
-269.326	83.705	0.102	0.110
-268.311	-112.159	-0.156	-0.031
-267.297	-42.025	-0.318	-0.161
-266.282	564.440	-0.187	0.448
-265.267	-21.786	-0.111	0.067
-264.253	-86.304	0.272	-0.083
-263.238	153.371	-0.177	-0.240
-262.224	800.000	0.061	0.168
-261.209	24.367	-0.130	-0.106
-260.195	116.890	-0.122	0.148
-259.180	-113.789	-0.193	-0.037
-258.165	-148.971	0.199	-0.016
-257.151	271.970	-0.087	0.152
-256.136	800.000	0.088	0.366
-255.122	-49.075	-0.140	-0.066
-254.107	-200.000	0.005	0.041
-253.092	-200.000	0.007	-0.102
-252.078	150.361	0.256	-0.344
-251.063	684.174	0.111	-0.287
-250.049	78.995	0.244	0.258
-249.034	96.713	-0.096	0.108
-248.019	-200.000	-0.048	-0.280
-247.005	570.214	0.038	0.092
-245.990	-16.228	-0.111	-0.069
-244.976	-200.000	0.005	0.239
-243.961	-19.038	0.212	-0.130
-242.946	439.451	0.200	0.432
-241.932	-200.000	-0.011	0.114
-240.917	-72.111	0.053	0.019
-239.903	-139.595	-0.377	0.040
-238.888	-164.113	0.121	0.006
-237.873	-109.828	0.480	0.100
-236.859	-98.263	-0.024	-0.006
-235.844	149.781	0.112	0.150
-234.830	200.043	-0.236	0.358
-233.815	-47.020	-0.113	0.054
-232.800	-58.252	0.075	0.032
-231.786	165.894	-0.113	0.159
-230.771	361.986	0.076	0.151
-229.757	-21.448	0.321	-0.194
-228.742	-111.906	-0.251	-0.050
-227.727	-200.000	-0.029	0.237
-226.713	-82.031	0.542	-0.175
-225.698	284.571	-0.233	0.415
-224.684	-79.291	0.121	-0.041
-223.669	17.766	-0.243	-0.191
-222.655	-126.552	0.418	-0.061
-221.640	-65.624	0.307	-0.122
-220.625	-19.487	-0.220	-0.135
-219.611	800.000	0.065	-0.265
-218.596	-63.633	-0.438	-0.177
-217.582	-66.201	0.135	0.053
-216.567	-200.000	-0.051	-0.315
-215.552	-15.913	-0.094	-0.059
-214.538	800.000	0.090	0.297
-213.523	-28.970	-0.212	-0.120
-212.509	-200.000	0.053	-0.265
-211.494	43.432	-0.192	-0.174
-210.479	-200.000	0.002	-0.067
-209.465	-200.000	0.018	0.082
-208.450	800.000	0.088	-0.342
-207.436	369.112	0.072	0.144
-206.421	-96.399	0.141	0.037
-205.406	-115.949	-0.215	0.040
-204.392	122.379	-0.179	0.221
-203.377	-200.000	-0.035	0.247
-202.363	129.963	0.190	-0.240
-201.348	-115.443	0.381	0.071
-200.333	-200.000	0.015	-0.123
-199.319	47.757	-0.178	0.164
-198.304	143.146	-0.095	0.124
-197.290	-108.284	0.354	0.075
-196.275	800.000	0.042	0.149
-195.260	278.317	-0.148	-0.261
-194.246	-104.807	-0.142	0.032
-193.231	800.000	-0.033	-0.129
-192.217	800.000	0.002	-0.010
-191.202	-39.542	-0.297	0.153
-190.187	320.306	0.075	-0.140
-189.173	-127.703	0.225	0.032
-188.158	215.467	0.066	-0.104
-187.144	-129.128	0.057	0.008
-186.129	8.616	-0.280	-0.208
-185.114	-75.260	0.098	-0.034
-184.100	-128.411	0.417	-0.058
-183.085	9.041	-0.100	0.075
-182.071	-200.000	0.016	-0.084
-181.056	-0.419	0.191	0.134
-180.042	-34.037	-0.169	-0.092
-179.027	38.418	-0.114	0.101
-178.012	-200.000	0.007	-0.062
-176.998	-96.244	-0.124	0.032
-175.983	-127.825	0.173	0.025
-174.969	-24.902	-0.380	-0.223
-173.954	-43.690	0.206	0.102
-172.939	800.000	-0.158	0.442
-171.925	800.000	0.052	0.142
-170.910	610.213	-0.041	0.101
-169.896	800.000	0.067	0.182
-168.881	-84.822	-0.232	-0.072
-167.866	800.000	0.026	0.087
-166.852	630.880	0.088	0.220
-165.837	0.548	0.163	-0.115
-164.823	-200.000	0.015	0.127
-163.808	-33.019	0.399	-0.218
-162.793	-89.715	-0.124	-0.036
-161.779	379.332	0.153	-0.310
-160.764	800.000	-0.093	-0.264
-159.750	75.133	-0.202	-0.210
-158.735	-200.000	0.006	0.045
-157.720	64.740	0.140	0.139
-156.706	672.025	0.070	0.179
-155.691	-130.054	0.491	-0.066
-154.677	-96.798	-0.060	0.016
-153.662	203.964	-0.311	-0.475
-152.647	-82.439	-0.076	0.024
-151.633	800.000	-0.173	0.520
-150.618	-81.498	0.081	0.026
-149.604	-200.000	-0.006	-0.124
-148.589	800.000	0.057	0.230
-147.574	67.382	0.061	-0.061
-146.560	-30.236	0.336	0.188
-145.545	28.139	-0.124	-0.103
-144.531	-200.000	-0.020	0.339
-143.516	800.000	-0.153	0.440
-142.502	574.829	-0.120	0.288
-141.487	-33.431	0.261	-0.142
-140.472	26.984	0.167	0.138
-139.458	-40.044	-0.071	-0.037
-138.443	800.000	-0.102	0.323
-137.429	-200.000	-0.012	-0.285
-136.414	37.528	0.104	-0.091
-135.399	13.994	0.024	0.018
-134.385	-200.000	0.023	-0.102
-133.370	56.375	-0.098	0.094
-132.356	-200.000	0.029	0.394
-131.341	-65.495	0.234	0.093
-130.326	-200.000	0.007	-0.134
-129.312	-89.579	0.223	0.064
-128.297	-15.473	-0.241	0.152
-127.283	66.458	-0.058	-0.058
-126.268	-200.000	-0.045	0.246
-125.253	-27.298	-0.085	0.049
-124.239	94.115	0.136	0.152
-123.224	-42.447	0.304	-0.152
-122.210	107.024	0.128	-0.150
-121.195	134.405	-0.191	-0.244
-120.180	202.323	0.064	0.098
