DTS Sentinel unit serial number:	SN413079Multiplexer serial number:	ORYXHardware model number:	OX4-SRSoftware version number:	ORYX F/W v4.00 Oryx Data Collector v3.7.2.0data status	okinstallation	princeton_trtdifferential loss correction	single-endedforward channel	channel 1reverse channel	N/Adate	2019/09/16time	18:02:35forward acquisition time	60.00reverse acquisition time	0.00gamma	496.2192k internal	0.2301k external	0.2301temperature offset calibration	0.9969default loss term (dB/km)	0.3790temperature slope calibration	1.0000multiplexer offset coefficient	1.0000multiplexer slope coefficient	1.0000fibre end	0.00T internal ref (°C)	37.56T ext. ref 1 (°C)	15.66T ext. ref 2 (°C)	31.28length (m)	temperature (°C)	Stokes	anti-Stokes-747.200	-51.979	-0.117	0.056
-746.185	554.911	0.103	0.252
-745.171	800.000	0.035	-0.125
-744.156	49.204	0.071	0.068
-743.142	169.905	-0.207	-0.301
-742.127	-56.255	0.056	-0.025
-741.112	80.355	0.256	0.281
-740.098	-39.476	0.275	0.147
-739.083	-70.777	-0.173	0.067
-738.069	66.511	-0.210	0.218
-737.054	30.284	0.140	0.121
-736.039	-99.016	-0.281	-0.073
-735.025	-200.000	-0.004	0.267
-734.010	-166.896	-0.290	0.012
-732.996	502.563	0.164	0.386
-731.981	45.536	-0.232	-0.218
-730.966	800.000	0.095	0.304
-729.952	90.499	-0.163	0.186
-728.937	444.076	-0.110	-0.246
-727.923	-85.551	-0.270	0.086
-726.908	46.642	-0.190	-0.180
-725.894	-24.348	-0.344	-0.209
-724.879	-15.074	0.269	-0.176
-723.864	-16.584	-0.143	-0.092
-722.850	-111.872	-0.190	0.039
-721.835	-200.000	-0.024	-0.251
-720.821	-98.001	-0.187	0.049
-719.806	-200.000	0.063	0.425
-718.791	7.677	-0.105	0.080
-717.777	97.011	-0.091	0.107
-716.762	-42.963	-0.149	0.077
-715.748	800.000	0.029	-0.106
-714.733	137.197	-0.260	0.346
-713.718	-137.608	0.132	0.015
-712.704	-16.535	-0.068	-0.044
-711.689	239.268	-0.119	-0.202
-710.675	300.543	-0.109	-0.204
-709.660	186.260	-0.231	0.350
-708.645	-66.058	-0.163	0.066
-707.631	-108.930	-0.221	0.048
-706.616	-70.538	-0.272	-0.105
-705.602	361.613	0.038	0.077
-704.587	-200.000	-0.020	0.272
-703.572	-17.046	0.151	-0.097
-702.558	441.261	-0.099	-0.220
-701.543	691.101	-0.050	0.133
-700.529	800.000	-0.092	-0.394
-699.514	-124.808	0.181	-0.028
-698.499	-6.870	-0.218	-0.151
-697.485	-122.733	0.133	-0.022
-696.470	-116.236	-0.322	-0.061
-695.456	104.957	-0.266	-0.320
-694.441	-144.551	0.319	0.030
-693.426	181.887	-0.065	-0.098
-692.412	-120.527	-0.198	0.034
-691.397	-165.512	0.038	-0.002
-690.383	-200.000	0.013	-0.156
-689.368	800.000	-0.112	0.321
-688.354	-77.717	-0.161	-0.057
-687.339	800.000	-0.110	-0.463
-686.324	218.604	-0.224	-0.364
-685.310	-40.324	-0.302	0.160
-684.295	-89.355	0.150	0.045
-683.281	-68.933	-0.287	-0.113
-682.266	122.627	-0.180	-0.228
-681.251	-71.324	-0.102	-0.039
-680.237	-200.000	0.006	-0.090
-679.222	-36.483	0.292	0.160
-678.208	-200.000	-0.017	-0.423
-677.193	-155.874	-0.098	0.006
-676.178	-200.000	0.035	-0.258
-675.164	-165.371	-0.261	-0.012
-674.149	-147.043	-0.118	-0.010
-673.135	70.412	-0.135	0.142
-672.120	36.253	-0.133	0.119
-671.105	-200.000	-0.008	0.257
-670.091	495.395	-0.092	-0.214
-669.076	-117.864	0.334	-0.061
-668.062	-200.000	-0.037	-0.167
-667.047	-82.782	-0.268	-0.088
-666.032	491.312	-0.205	0.477
-665.018	220.474	0.086	0.140
-664.003	131.600	0.165	0.215
-662.989	-133.681	0.058	0.007
-661.974	15.871	-0.173	-0.138
-660.959	33.448	-0.213	-0.188
-659.945	800.000	0.108	-0.369
-658.930	-18.152	0.303	-0.193
-657.916	126.259	0.218	-0.280
-656.901	16.640	0.290	0.233
-655.886	6.153	-0.219	-0.165
-654.872	-25.673	-0.442	-0.265
-653.857	-40.637	-0.249	0.131
-652.843	800.000	0.043	-0.145
-651.828	-200.000	0.016	0.132
-650.814	764.430	-0.094	-0.260
-649.799	-200.000	0.025	-0.210
-648.784	-72.243	0.230	0.087
-647.770	-200.000	-0.016	-0.104
-646.755	-200.000	0.010	-0.108
-645.741	-200.000	-0.028	-0.127
-644.726	-38.357	-0.140	-0.076
-643.711	800.000	-0.081	0.314
-642.697	-200.000	-0.049	0.249
-641.682	49.379	-0.177	-0.169
-640.668	-200.000	0.004	-0.091
-639.653	-134.547	0.266	-0.033
-638.638	-12.172	0.349	0.232
-637.624	45.295	0.247	0.232
-636.609	-200.000	-0.019	-0.227
-635.595	-42.206	-0.259	0.135
-634.580	-200.000	0.005	-0.329
-633.565	408.576	-0.089	0.191
-632.551	98.355	-0.136	0.159
-631.536	-78.883	0.138	0.048
-630.522	614.130	-0.246	0.626
-629.507	-197.099	-0.176	0.001
-628.492	800.000	0.103	-0.416
-627.478	21.816	-0.042	-0.035
-626.463	16.348	-0.117	0.094
-625.449	-87.681	-0.030	0.009
-624.434	103.174	-0.101	-0.120
-623.419	107.235	0.159	0.191
-622.405	-200.000	0.042	0.437
-621.390	800.000	-0.090	0.321
-620.376	-113.629	0.276	-0.055
-619.361	-89.553	-0.061	0.018
-618.346	-5.691	0.153	-0.107
-617.332	7.548	-0.052	0.039
-616.317	-200.000	-0.015	0.161
-615.303	418.761	0.069	-0.149
-614.288	-200.000	0.071	-0.512
-613.273	-96.845	0.547	0.146
-612.259	800.000	0.010	0.040
-611.244	-24.483	-0.164	0.099
-610.230	6.187	0.276	0.208
-609.215	800.000	0.030	-0.097
-608.201	366.759	0.083	-0.171
-607.186	800.000	0.029	0.099
-606.171	-45.492	0.210	-0.106
-605.157	-200.000	-0.034	-0.214
-604.142	-60.546	0.172	-0.074
-603.128	-49.722	-0.290	-0.140
-602.113	-5.707	-0.249	0.173
-601.098	800.000	0.060	-0.267
-600.084	87.486	0.119	-0.133
-599.069	800.000	-0.046	-0.137
-598.055	-55.613	0.263	0.119
-597.040	416.703	-0.060	0.129
-596.025	-200.000	-0.016	0.085
-595.011	-155.263	0.360	0.024
-593.996	152.240	-0.266	-0.368
-592.982	-200.000	0.006	0.221
-591.967	-127.137	0.104	-0.015
-590.952	-35.267	0.198	-0.109
-589.938	-70.443	-0.243	0.093
-588.923	73.358	-0.101	0.107
-587.909	7.935	-0.146	0.111
-586.894	140.249	0.153	-0.205
-585.879	62.025	0.088	0.089
-584.865	-54.402	0.194	0.089
-583.850	800.000	0.087	-0.253
-582.836	-200.000	0.032	-0.237
-581.821	800.000	-0.014	0.053
-580.806	-35.162	-0.192	0.106
-579.792	-112.238	0.146	0.030
-578.777	-7.708	0.303	0.207
-577.763	235.855	0.038	0.064
-576.748	800.000	-0.107	-0.373
-575.733	-47.141	-0.156	-0.077
-574.719	-54.237	0.304	-0.140
-573.704	-67.167	-0.178	0.071
-572.690	-16.771	-0.129	0.083
-571.675	-200.000	0.005	-0.087
-570.661	-84.667	0.102	-0.033
-569.646	145.052	0.057	0.078
-568.631	55.815	0.269	-0.264
-567.617	66.535	-0.138	0.142
-566.602	213.539	-0.078	-0.125
-565.588	-200.000	-0.005	-0.209
-564.573	-129.814	-0.278	0.039
-563.558	-56.740	0.171	0.077
-562.544	-4.916	0.111	-0.077
-561.529	-116.673	-0.233	-0.043
-560.515	-55.049	0.353	-0.161
-559.500	-156.748	-0.021	0.001
-558.485	-127.275	-0.166	-0.025
-557.471	-200.000	-0.009	0.066
-556.456	284.168	0.108	0.196
-555.442	-200.000	-0.029	-0.172
-554.427	-51.168	0.164	-0.078
-553.412	29.603	-0.088	-0.076
-552.398	-55.794	0.259	-0.117
-551.383	-49.447	0.326	-0.157
-550.369	-200.000	-0.056	-0.345
-549.354	602.539	0.016	-0.041
-548.339	214.767	0.101	-0.161
-547.325	-122.225	-0.345	0.057
-546.310	800.000	0.049	0.146
-545.296	-63.056	0.025	0.011
-544.281	-200.000	-0.040	-0.275
-543.266	-41.053	-0.083	-0.043
-542.252	390.233	0.088	0.184
-541.237	-132.990	-0.189	-0.024
-540.223	-112.699	-0.081	0.016
-539.208	800.000	-0.022	-0.069
-538.193	800.000	-0.067	0.190
-537.179	31.667	0.179	0.156
-536.164	-94.753	0.397	-0.109
-535.150	4.573	-0.262	-0.195
-534.135	100.383	0.040	-0.047
-533.121	9.993	-0.081	-0.062
-532.106	552.087	0.113	-0.274
-531.091	-2.926	0.061	0.043
-530.077	-119.134	-0.263	-0.046
-529.062	-37.135	0.332	0.180
-528.048	122.915	-0.202	0.255
-527.033	222.196	-0.051	-0.082
-526.018	-168.324	-0.377	0.015
-525.004	-72.342	0.183	-0.069
-523.989	-200.000	0.023	-0.396
-522.975	-200.000	-0.017	-0.184
-521.960	-200.000	0.057	-0.291
-520.945	-60.284	-0.151	-0.065
-519.931	115.927	-0.087	-0.108
-518.916	800.000	0.082	0.283
-517.902	-107.936	-0.036	-0.008
-516.887	-122.055	0.214	0.035
-515.872	-200.000	0.012	0.148
-514.858	-136.997	-0.057	0.007
-513.843	-200.000	-0.026	0.551
-512.829	-93.847	-0.259	-0.072
-511.814	-200.000	-0.002	0.093
-510.799	69.632	-0.354	0.368
-509.785	-82.966	-0.293	-0.096
-508.770	800.000	-0.023	-0.083
-507.756	-166.612	0.126	0.005
-506.741	-71.959	-0.268	0.101
-505.726	800.000	-0.161	0.569
-504.712	-200.000	0.027	0.163
-503.697	-68.884	0.407	-0.159
-502.683	56.735	-0.152	-0.149
-501.668	-98.622	0.085	-0.022
-500.653	701.039	-0.090	-0.238
-499.639	2.944	-0.277	-0.203
-498.624	-190.617	0.059	-0.001
-497.610	315.688	-0.076	0.144
-496.595	-200.000	0.108	0.512
-495.581	800.000	-0.050	-0.171
-494.566	-140.265	-0.101	0.011
-493.551	-200.000	0.036	-0.283
-492.537	-200.000	-0.007	-0.331
-491.522	308.285	-0.124	-0.234
-490.508	20.622	0.211	0.172
-489.493	115.610	-0.169	0.208
-488.478	93.241	0.126	0.144
-487.464	-60.218	-0.195	-0.084
-486.449	277.568	0.136	0.244
-485.435	-15.979	-0.211	-0.136
-484.420	-92.667	0.076	-0.022
-483.405	800.000	-0.042	-0.174
-482.391	84.117	0.086	-0.095
-481.376	-137.367	0.065	-0.007
-480.362	58.473	-0.229	-0.226
-479.347	800.000	-0.083	0.258
-478.332	-107.256	-0.220	-0.049
-477.318	197.241	-0.045	-0.069
-476.303	71.438	-0.116	-0.121
-475.289	-200.000	0.060	0.289
-474.274	-200.000	0.010	0.233
-473.259	-186.141	-0.189	0.003
-472.245	231.615	-0.100	-0.166
-471.230	8.342	-0.164	-0.124
-470.216	-3.230	0.158	0.111
-469.201	-116.701	0.136	-0.025
-468.186	-200.000	0.023	0.232
-467.172	-200.000	-0.029	-0.137
-466.157	-200.000	-0.001	-0.101
-465.143	-49.132	0.470	0.227
-464.128	-61.383	0.035	0.015
-463.113	-135.971	-0.114	0.013
-462.099	101.971	0.123	-0.145
-461.084	-200.000	0.001	0.130
-460.070	-200.000	-0.041	-0.206
-459.055	-28.500	0.358	-0.208
-458.040	-73.018	0.163	-0.060
-457.026	228.683	0.078	-0.128
-456.011	60.373	0.127	0.127
-454.997	-160.036	0.143	0.008
-453.982	-200.000	-0.012	0.151
-452.968	424.734	-0.018	-0.039
-451.953	-200.000	-0.029	-0.174
-450.938	566.118	-0.148	-0.361
-449.924	-52.844	0.257	0.119
-448.909	-109.555	-0.209	0.044
-447.895	34.259	0.210	0.184
-446.880	800.000	-0.051	0.212
-445.865	507.775	0.102	0.238
-444.851	-200.000	-0.004	-0.130
-443.836	-53.011	-0.398	-0.184
-442.822	124.660	-0.225	-0.285
-441.807	386.708	0.146	-0.304
-440.792	-37.404	0.352	0.189
-439.778	318.175	-0.163	-0.310
-438.763	16.004	-0.044	0.035
-437.749	287.181	-0.048	-0.087
-436.734	12.407	-0.133	0.104
-435.719	-97.757	0.283	-0.074
-434.705	-200.000	0.039	-0.397
-433.690	-155.626	0.067	-0.004
-432.676	-14.245	-0.174	-0.113
-431.661	197.716	0.125	0.192
-430.646	-14.190	-0.189	0.123
-429.632	-63.038	0.118	0.049
-428.617	206.110	0.243	0.381
-427.603	202.578	-0.009	-0.014
-426.588	59.652	0.219	0.217
-425.573	128.021	0.207	0.266
-424.559	800.000	0.026	0.077
-423.544	29.585	0.209	0.179
-422.530	-200.000	0.008	-0.082
-421.515	27.323	0.138	-0.117
-420.500	800.000	-0.007	-0.020
-419.486	-156.443	0.398	-0.025
-418.471	-135.698	-0.193	-0.023
-417.457	256.278	0.113	-0.196
-416.442	80.206	0.123	-0.133
-415.428	203.892	-0.068	0.105
-414.413	613.256	0.091	0.230
-413.398	-200.000	0.011	0.140
-412.384	-102.982	0.277	0.066
-411.369	-59.095	-0.118	-0.051
-410.355	145.014	-0.136	-0.184
-409.340	48.074	-0.228	-0.215
-408.325	32.537	-0.351	-0.306
-407.311	133.496	0.168	-0.219
-406.296	474.433	0.088	0.199
-405.282	-152.428	-0.151	0.011
-404.267	24.510	-0.144	-0.120
-403.252	-100.897	-0.035	0.009
-402.238	114.476	-0.205	-0.251
-401.223	690.750	-0.068	0.180
-400.209	143.146	0.143	0.192
-399.194	-57.144	0.296	-0.131
-398.179	-200.000	0.065	0.355
-397.165	800.000	0.100	-0.342
-396.150	-200.000	0.003	0.042
-395.136	105.528	-0.218	0.259
-394.121	28.059	0.184	-0.156
-393.106	-125.007	0.195	0.030
-392.092	178.930	0.072	-0.106
-391.077	215.526	-0.034	-0.054
-390.063	405.558	-0.028	0.059
-389.048	383.524	0.265	-0.549
-388.033	309.942	0.046	-0.086
-387.019	-119.461	-0.288	0.050
-386.004	456.998	-0.062	0.138
-384.990	518.726	-0.077	-0.182
-383.975	132.245	-0.092	0.119
-382.960	800.000	-0.083	0.251
-381.946	27.107	-0.162	0.137
-380.931	18.792	-0.351	0.282
-379.917	-129.262	-0.175	0.024
-378.902	800.000	-0.007	0.032
-377.888	-117.290	-0.278	-0.051
-376.873	377.955	0.109	0.224
-375.858	-200.000	0.005	0.345
-374.844	-200.000	-0.037	-0.173
-373.829	-114.382	-0.377	-0.073
-372.815	-44.509	0.166	0.084
-371.800	96.571	0.141	0.163
-370.785	11.840	-0.204	0.157
-369.771	32.195	0.218	-0.189
-368.756	176.483	0.155	-0.227
-367.742	437.487	-0.053	0.116
-366.727	-36.488	0.140	0.076
-365.712	800.000	0.056	-0.195
-364.698	158.424	-0.154	-0.214
-363.683	800.000	0.066	0.231
-362.669	-46.547	0.124	0.061
-361.654	-79.402	0.071	-0.024
-360.639	154.911	-0.100	0.138
-359.625	143.099	-0.240	-0.321
-358.610	-200.000	0.169	-0.000
-357.596	-200.000	0.024	0.329
-356.581	-66.195	0.069	-0.028
-355.566	7.582	-0.213	0.160
-354.552	800.000	-0.020	-0.077
-353.537	-22.323	-0.081	0.049
-352.523	-200.000	-0.021	0.114
-351.508	602.189	-0.139	-0.346
-350.493	-24.022	-0.288	-0.173
-349.479	-23.739	0.078	0.047
-348.464	-63.796	0.271	0.111
-347.450	-95.736	0.224	0.060
-346.435	-104.666	-0.270	0.062
-345.420	800.000	0.014	-0.048
-344.406	-118.454	0.288	0.051
-343.391	67.391	-0.111	0.114
-342.377	-200.000	0.063	0.471
-341.362	-200.000	-0.013	0.185
-340.348	-200.000	0.038	0.223
-339.333	104.971	0.070	0.083
-338.318	-140.477	-0.210	0.022
-337.304	-200.000	0.011	-0.139
-336.289	-28.430	-0.372	-0.215
-335.275	2.778	-0.220	0.160
-334.260	-138.395	0.237	-0.026
-333.245	-37.679	-0.108	0.058
-332.231	-200.000	0.005	-0.245
-331.216	485.452	-0.151	0.346
-330.202	-200.000	0.063	0.385
-329.187	90.319	-0.190	0.213
-328.172	-92.871	0.130	0.037
-327.158	-176.994	-0.122	0.003
-326.143	-200.000	0.001	-0.006
-325.129	271.319	-0.059	0.104
-324.114	800.000	0.066	-0.186
-323.099	-200.000	0.013	0.081
-322.085	206.477	-0.192	0.300
-321.070	472.821	-0.057	-0.130
-320.056	800.000	-0.057	-0.232
-319.041	-144.028	0.053	-0.005
-318.026	151.452	-0.168	0.229
-317.012	-200.000	-0.052	-0.279
-315.997	800.000	-0.092	0.296
-314.983	-18.824	0.208	0.130
-313.968	12.846	0.097	0.075
-312.953	-26.203	-0.097	-0.057
-311.939	23.820	0.272	-0.225
-310.924	800.000	-0.036	-0.138
-309.910	800.000	0.041	0.132
-308.895	8.896	-0.082	-0.062
-307.880	-150.289	0.235	-0.018
-306.866	800.000	0.042	0.133
-305.851	-181.400	-0.119	0.002
-304.837	207.969	0.124	0.193
-303.822	-136.107	0.139	0.016
-302.807	-200.000	0.084	-0.491
-301.793	-200.000	-0.031	0.159
-300.778	-200.000	0.047	0.282
-299.764	47.093	0.209	-0.195
-298.749	-8.525	0.037	-0.025
-297.735	-200.000	-0.027	-0.218
-296.720	-100.712	-0.352	-0.087
-295.705	59.760	-0.252	-0.250
-294.691	-200.000	0.070	-0.315
-293.676	-17.390	-0.261	-0.165
-292.662	305.250	0.077	0.144
-291.647	176.969	0.151	0.220
-290.632	150.947	0.123	0.167
-289.618	90.032	0.098	0.110
-288.603	-47.489	-0.056	-0.027
-287.589	-69.864	-0.502	-0.192
-286.574	-28.411	-0.080	-0.046
-285.559	567.121	0.120	0.293
-284.545	48.072	-0.108	-0.101
-283.530	-200.000	0.029	-0.175
-282.516	-163.555	-0.286	-0.014
-281.501	4.982	-0.220	-0.162
-280.486	348.104	0.123	-0.242
-279.472	54.114	-0.193	-0.186
-278.457	-28.933	-0.075	-0.043
-277.443	-54.817	-0.202	0.091
-276.428	-14.524	0.344	0.221
-275.413	-187.342	0.250	0.003
-274.399	308.923	-0.091	-0.170
-273.384	-95.302	0.251	-0.067
-272.370	139.521	0.158	0.208
-271.355	77.421	-0.255	0.272
-270.340	502.073	0.028	0.066
-269.326	800.000	0.032	-0.088
-268.311	-145.513	0.469	0.042
-267.297	9.287	0.090	-0.068
-266.282	55.313	-0.240	0.232
-265.267	-123.771	0.329	0.052
-264.253	800.000	-0.043	-0.178
-263.238	325.691	0.096	0.184
-262.224	-50.716	0.084	-0.040
-261.209	-78.741	0.082	0.028
-260.195	-96.761	0.093	-0.024
-259.180	-200.000	-0.005	-0.047
-258.165	-138.475	-0.376	0.041
-257.151	-154.409	-0.306	-0.021
-256.136	435.662	0.095	0.207
-255.122	24.448	-0.077	-0.063
-254.107	-26.925	-0.107	-0.062
-253.092	-97.875	0.134	0.035
-252.078	-200.000	-0.032	-0.227
-251.063	166.690	0.107	0.151
-250.049	-34.969	-0.095	-0.052
-249.034	684.099	-0.025	-0.065
-248.019	-20.308	0.406	0.250
-247.005	140.137	-0.011	0.015
-245.990	-63.308	0.448	0.184
-244.976	-13.411	0.207	0.134
-243.961	-200.000	0.034	0.569
-242.946	-200.000	-0.022	0.170
-241.932	-181.787	-0.161	0.003
-240.917	-6.608	0.164	-0.112
-239.903	-20.953	0.340	-0.208
-238.888	-151.299	0.188	-0.014
-237.873	100.348	0.086	0.099
-236.859	800.000	0.082	-0.270
-235.844	-200.000	0.049	-0.445
-234.830	-200.000	-0.007	0.071
-233.815	311.932	-0.160	0.300
-232.800	198.211	-0.185	0.283
-231.786	800.000	0.058	-0.204
-230.771	129.066	-0.158	0.202
-229.757	217.051	0.144	-0.230
-228.742	-9.547	-0.185	-0.123
-227.727	800.000	0.058	-0.171
-226.713	-50.742	-0.284	0.134
-225.698	-200.000	-0.045	0.226
-224.684	-44.806	0.223	0.111
-223.669	19.915	-0.223	0.180
-222.655	800.000	0.075	0.268
-221.640	95.127	0.068	0.078
-220.625	268.845	0.031	-0.055
-219.611	-200.000	0.011	0.061
-218.596	191.721	0.069	-0.104
-217.582	79.602	-0.141	0.151
-216.567	200.536	0.033	0.050
-215.552	-2.534	-0.243	-0.170
-214.538	-127.696	0.288	-0.042
-213.523	120.902	0.199	0.247
-212.509	33.186	-0.081	-0.070
-211.494	3.988	0.300	-0.219
-210.479	-200.000	-0.008	-0.066
-209.465	-100.642	0.370	-0.091
-208.450	-46.156	0.115	-0.056
-207.436	43.934	-0.117	-0.107
-206.421	43.026	-0.064	0.058
-205.406	-165.486	0.401	0.017
-204.392	77.833	-0.145	0.154
-203.377	46.360	-0.086	-0.080
-202.363	-63.981	0.155	-0.063
-201.348	531.696	-0.102	0.240
-200.333	17.423	0.235	0.186
-199.319	-200.000	-0.022	0.510
-198.304	-200.000	-0.033	0.211
-197.290	189.060	0.273	0.408
-196.275	55.941	-0.256	-0.248
-195.260	10.125	-0.124	-0.094
-194.246	-174.084	0.195	-0.006
-193.231	-82.897	0.072	0.023
-192.217	-110.452	-0.253	0.052
-191.202	-58.929	0.184	0.079
-190.187	-78.988	-0.185	0.063
-189.173	31.004	0.098	0.084
-188.158	800.000	-0.025	-0.079
-187.144	143.062	-0.053	0.070
-186.129	-120.314	-0.102	0.017
-185.114	-200.000	0.031	0.276
-184.100	-58.682	-0.336	0.145
-183.085	-54.854	-0.068	-0.031
-182.071	-83.050	0.166	0.053
-181.056	-200.000	-0.087	-0.427
-180.042	-161.226	-0.125	0.006
-179.027	5.317	-0.175	-0.129
-178.012	195.162	0.147	-0.223
-176.998	-192.010	0.204	-0.002
-175.983	125.910	-0.183	-0.231
-174.969	386.384	0.018	-0.038
-173.954	-132.390	-0.201	0.026
-172.939	-93.779	-0.226	-0.062
-171.925	32.715	0.104	-0.090
-170.910	-139.193	-0.143	0.015
-169.896	-200.000	0.046	-0.357
-168.881	-97.495	-0.146	-0.038
-167.866	71.684	-0.277	-0.287
-166.852	-200.000	-0.019	-0.111
-165.837	-116.442	-0.185	0.034
-164.823	-99.369	0.049	-0.012
-163.808	536.190	0.048	-0.114
-162.793	143.626	-0.064	-0.085
-161.779	-173.782	-0.172	-0.005
-160.764	800.000	-0.196	-0.541
-159.750	-174.248	-0.258	-0.007
-158.735	800.000	-0.044	-0.131
-157.720	-85.833	-0.289	0.089
-156.706	-200.000	-0.016	0.314
-155.691	800.000	0.083	-0.360
-154.677	-34.802	-0.233	-0.127
-153.662	-200.000	-0.035	0.311
-152.647	-200.000	0.005	-0.049
-151.633	142.883	0.064	-0.085
-150.618	-132.132	0.119	-0.015
-149.604	-200.000	0.015	-0.086
-148.589	-161.535	0.120	-0.006
-147.574	800.000	-0.029	-0.101
-146.560	721.248	-0.047	0.123
-145.545	-200.000	0.008	-0.083
-144.531	-97.339	-0.123	0.032
-143.516	-1.602	0.215	0.151
-142.502	74.960	-0.019	0.020
-141.487	-165.870	0.121	0.005
-140.472	-57.865	0.087	0.038
-139.458	601.255	-0.102	0.253
-138.443	-98.990	-0.426	0.108
-137.429	-38.386	0.156	0.082
-136.414	-10.394	0.046	-0.030
-135.399	-127.310	0.183	-0.027
-134.385	172.049	0.144	0.206
-133.370	84.183	0.085	0.092
-132.356	-95.994	-0.182	0.048
-131.341	-46.721	-0.388	-0.189
-130.326	101.989	0.112	-0.130
-129.312	-85.369	0.449	0.139
-128.297	800.000	0.072	0.267
-127.283	-128.247	0.216	-0.031
-126.268	-98.994	0.236	0.060
-125.253	-149.298	0.171	-0.014
-124.239	800.000	-0.048	0.158
-123.224	800.000	-0.024	-0.068
-122.210	666.228	0.167	-0.429
