DTS Sentinel unit serial number:	SN413079Multiplexer serial number:	ORYXHardware model number:	OX4-SRSoftware version number:	ORYX F/W v4.00 Oryx Data Collector v3.7.2.0data status	okinstallation	princeton_trtdifferential loss correction	single-endedforward channel	channel 1reverse channel	N/Adate	2019/09/16time	18:46:35forward acquisition time	60.00reverse acquisition time	0.00gamma	496.2192k internal	0.2308k external	0.2308temperature offset calibration	0.9946default loss term (dB/km)	0.3790temperature slope calibration	1.0000multiplexer offset coefficient	1.0000multiplexer slope coefficient	1.0000fibre end	0.00T internal ref (°C)	36.06T ext. ref 1 (°C)	0.07T ext. ref 2 (°C)	29.41length (m)	temperature (°C)	Stokes	anti-Stokes-747.200	-195.771	0.419	-0.003
-746.185	-200.000	-0.073	0.552
-745.171	230.351	-0.121	0.202
-744.156	409.634	-0.077	0.167
-743.142	113.657	-0.062	-0.077
-742.127	348.710	-0.082	0.164
-741.112	-181.299	0.256	-0.005
-740.098	-99.453	-0.054	0.014
-739.083	-80.376	0.297	-0.101
-738.069	28.635	-0.236	-0.203
-737.054	-145.576	-0.079	0.007
-736.039	48.329	0.240	0.228
-735.025	203.105	0.162	0.254
-734.010	-119.931	-0.518	0.091
-732.996	-200.000	0.044	-0.262
-731.981	800.000	0.077	-0.283
-730.966	-25.181	-0.030	0.018
-729.952	4.587	-0.213	0.159
-728.937	800.000	-0.112	-0.386
-727.923	-118.794	-0.372	-0.067
-726.908	-33.932	-0.156	0.087
-725.894	401.771	0.104	-0.222
-724.879	800.000	0.049	0.216
-723.864	-200.000	0.003	-0.253
-722.850	119.497	-0.204	0.257
-721.835	-87.725	-0.282	0.087
-720.821	3.486	0.193	-0.143
-719.806	107.239	0.247	-0.298
-718.791	-200.000	-0.091	0.538
-717.777	245.400	0.043	0.073
-716.762	800.000	0.100	0.324
-715.748	-133.731	0.243	0.031
-714.733	-14.862	-0.164	-0.107
-713.718	-200.000	-0.008	-0.201
-712.704	58.581	0.316	0.315
-711.689	-59.229	-0.137	0.060
-710.675	-15.372	-0.162	0.105
-709.660	100.062	0.131	-0.154
-708.645	-120.946	0.255	-0.043
-707.631	597.049	0.117	-0.295
-706.616	-124.048	0.101	-0.016
-705.602	292.057	0.087	0.161
-704.587	-76.225	-0.179	-0.064
-703.572	-28.601	-0.293	0.171
-702.558	13.273	0.317	-0.249
-701.543	-167.251	-0.059	-0.002
-700.529	38.973	-0.291	-0.264
-699.514	239.421	-0.049	0.082
-698.499	-149.154	0.198	0.016
-697.485	-22.424	-0.203	0.125
-696.470	-200.000	-0.032	0.337
-695.456	-103.486	-0.244	0.058
-694.441	-200.000	-0.008	0.048
-693.426	-23.945	0.099	0.060
-692.412	-41.494	-0.251	-0.131
-691.397	-200.000	-0.018	0.305
-690.383	-121.997	-0.044	0.007
-689.368	-99.447	0.166	0.042
-688.354	-161.241	-0.209	0.011
-687.339	52.883	-0.246	-0.239
-686.324	48.957	-0.185	-0.176
-685.310	800.000	0.091	0.267
-684.295	5.137	-0.172	-0.129
-683.281	-101.778	-0.424	-0.104
-682.266	-129.727	-0.258	-0.036
-681.251	-200.000	0.017	-0.243
-680.237	338.386	0.038	0.075
-679.222	-19.107	0.148	0.094
-678.208	-200.000	-0.009	-0.287
-677.193	736.285	-0.054	0.147
-676.178	-200.000	-0.007	-0.045
-675.164	112.370	-0.322	0.395
-674.149	-200.000	-0.027	0.125
-673.135	512.227	0.041	-0.098
-672.120	800.000	-0.044	0.180
-671.105	-15.312	0.085	0.055
-670.091	-94.588	-0.300	-0.083
-669.076	-200.000	0.033	-0.217
-668.062	-200.000	0.015	-0.199
-667.047	192.065	-0.079	-0.121
-666.032	-99.365	0.239	0.061
-665.018	800.000	-0.016	-0.067
-664.003	55.438	-0.167	0.164
-662.989	50.973	-0.091	0.088
-661.974	63.473	-0.207	0.211
-660.959	-160.938	-0.124	-0.007
-659.945	23.238	-0.283	-0.235
-658.930	241.914	0.058	-0.098
-657.916	370.272	0.046	-0.095
-656.901	-200.000	0.015	-0.229
-655.886	-55.703	0.204	-0.092
-654.872	52.449	-0.194	0.188
-653.857	-88.452	0.112	0.034
-652.843	-101.749	-0.148	-0.036
-651.828	31.715	0.101	-0.088
-650.814	425.393	0.018	0.040
-649.799	-65.373	-0.289	0.118
-648.784	122.966	-0.114	0.145
-647.770	-200.000	0.015	0.254
-646.755	713.601	-0.091	0.244
-645.741	-200.000	0.014	-0.412
-644.726	69.318	0.025	-0.026
-643.711	-200.000	-0.040	-0.222
-642.697	-200.000	-0.022	-0.282
-641.682	-124.634	0.231	0.036
-640.668	360.800	-0.184	-0.372
-639.653	36.935	0.157	-0.140
-638.638	800.000	0.012	-0.051
-637.624	120.519	0.103	0.129
-636.609	377.423	0.115	0.237
-635.595	71.460	-0.145	-0.152
-634.580	12.702	0.109	0.085
-633.565	-108.520	-0.127	0.028
-632.551	276.725	0.129	0.232
-631.536	-200.000	0.038	0.179
-630.522	-200.000	-0.021	0.149
-629.507	141.472	0.073	-0.098
-628.492	68.547	-0.466	0.483
-627.478	139.771	0.058	0.077
-626.463	30.775	-0.136	0.118
-625.449	405.315	-0.138	0.295
-624.434	108.656	0.074	0.089
-623.419	266.399	-0.104	0.183
-622.405	-108.021	-0.526	-0.115
-621.390	-42.549	-0.117	-0.060
-620.376	-61.111	-0.175	-0.075
-619.361	-200.000	0.043	-0.276
-618.346	-88.695	-0.294	0.088
-617.332	-200.000	-0.055	0.336
-616.317	528.727	-0.158	0.378
-615.303	-65.102	-0.307	0.125
-614.288	-150.871	0.311	-0.024
-613.273	-136.644	0.252	-0.030
-612.259	13.998	0.183	0.144
-611.244	-32.925	-0.176	-0.099
-610.230	-2.831	-0.110	0.078
-609.215	-200.000	0.010	0.235
-608.201	321.763	-0.098	-0.189
-607.186	-200.000	0.008	-0.316
-606.171	-79.668	-0.519	-0.177
-605.157	423.740	0.155	-0.337
-604.142	-42.038	-0.107	0.056
-603.128	345.627	0.139	-0.276
-602.113	-35.727	0.083	-0.046
-601.098	203.532	-0.021	0.032
-600.084	676.174	-0.095	-0.248
-599.069	-200.000	-0.022	-0.270
-598.055	232.856	-0.147	0.244
-597.040	-50.910	-0.448	0.213
-596.025	-83.511	-0.235	-0.076
-595.011	29.776	0.203	-0.175
-593.996	-5.659	-0.100	-0.069
-592.982	-200.000	0.019	-0.216
-591.967	788.467	-0.054	-0.150
-590.952	60.701	-0.156	-0.156
-589.938	-156.117	0.053	0.003
-588.923	-200.000	-0.069	0.371
-587.909	-42.231	0.337	0.174
-586.894	-200.000	-0.017	-0.102
-585.879	-22.283	-0.154	0.094
-584.865	-200.000	0.041	-0.300
-583.850	-200.000	-0.004	0.038
-582.836	18.919	-0.192	-0.155
-581.821	241.515	-0.073	-0.124
-580.806	-200.000	-0.025	-0.503
-579.792	367.444	-0.074	-0.151
-578.777	-28.084	0.197	0.115
-577.763	-49.515	0.375	0.181
-576.748	-71.803	-0.282	-0.106
-575.733	292.871	0.036	-0.066
-574.719	495.562	-0.235	-0.545
-573.704	-135.229	-0.085	-0.010
-572.690	-200.000	0.016	0.079
-571.675	-7.594	0.276	0.188
-570.661	223.905	-0.067	0.108
-569.646	-80.843	0.331	-0.111
-568.631	-170.435	-0.217	-0.008
-567.617	-139.126	-0.579	0.063
-566.602	-83.609	-0.176	0.057
-565.588	276.211	0.077	0.137
-564.573	120.104	0.173	0.216
-563.558	278.890	-0.081	-0.146
-562.544	-57.702	0.256	-0.113
-561.529	272.311	-0.132	-0.234
-560.515	405.988	0.220	-0.469
-559.500	50.105	0.226	-0.215
-558.485	-93.837	-0.074	-0.021
-557.471	91.834	-0.091	-0.103
-556.456	-200.000	0.015	-0.423
-555.442	800.000	0.126	0.484
-554.427	151.630	0.145	-0.200
-553.412	-198.165	-0.216	0.001
-552.398	311.590	-0.061	0.116
-551.383	26.259	-0.123	-0.104
-550.369	-93.638	-0.213	0.059
-549.354	51.370	-0.250	-0.239
-548.339	-98.575	-0.183	-0.047
-547.325	111.379	0.144	0.175
-546.310	-69.550	0.246	-0.095
-545.296	-200.000	0.018	0.102
-544.281	31.298	0.283	-0.245
-543.266	-8.145	-0.178	0.121
-542.252	800.000	-0.036	0.129
-541.237	-200.000	-0.035	-0.285
-540.223	-200.000	-0.009	0.404
-539.208	51.417	0.222	-0.213
-538.193	260.927	-0.143	-0.249
-537.179	-33.645	0.143	-0.079
-536.164	-96.456	-0.204	0.054
-535.150	95.998	0.026	-0.029
-534.135	9.586	0.226	0.172
-533.121	800.000	-0.060	0.262
-532.106	-96.237	0.301	-0.080
-531.091	-200.000	-0.031	-0.238
-530.077	122.029	-0.179	-0.225
-529.062	509.754	-0.093	0.218
-528.048	54.667	0.020	0.019
-527.033	800.000	-0.033	0.102
-526.018	-29.083	-0.111	0.064
-525.004	-65.323	0.493	-0.200
-523.989	-36.252	0.335	-0.182
-522.975	492.777	-0.050	-0.116
-521.960	-81.721	-0.213	0.070
-520.945	-130.130	0.222	-0.031
-519.931	-200.000	-0.015	0.213
-518.916	165.413	-0.128	-0.182
-517.902	88.345	0.302	-0.338
-516.887	-145.905	0.390	0.035
-515.872	340.679	-0.146	-0.287
-514.858	146.405	-0.015	-0.021
-513.843	-136.577	-0.265	0.031
-512.829	-154.613	0.193	-0.013
-511.814	-200.000	-0.060	0.332
-510.799	121.775	-0.079	-0.099
-509.785	150.820	0.163	0.224
-508.770	-84.613	0.078	-0.025
-507.756	800.000	0.034	0.135
-506.741	-162.806	0.092	0.005
-505.726	-139.460	0.112	-0.012
-504.712	-69.333	0.178	0.069
-503.697	711.017	-0.023	0.061
-502.683	-162.658	0.239	0.012
-501.668	-53.072	0.274	-0.127
-500.653	800.000	0.032	0.090
-499.639	-145.315	0.259	0.024
-498.624	86.279	0.171	-0.190
-497.610	-200.000	-0.012	-0.205
-496.595	235.208	0.036	0.061
-495.581	-179.249	0.409	-0.009
-494.566	498.836	0.080	-0.186
-493.551	50.677	-0.200	-0.190
-492.537	94.224	-0.277	-0.316
-491.522	800.000	0.072	0.205
-490.508	-109.918	-0.055	0.012
-489.493	200.982	0.162	-0.251
-488.478	132.421	-0.142	-0.184
-487.464	-200.000	-0.003	-0.088
-486.449	77.927	-0.178	-0.191
-485.435	-200.000	-0.011	-0.381
-484.420	-54.604	0.062	0.028
-483.405	-100.669	-0.116	-0.029
-482.391	-140.061	-0.145	0.015
-481.376	384.757	0.047	-0.098
-480.362	-21.751	0.182	0.111
-479.347	-200.000	0.043	-0.212
-478.332	-23.788	0.206	-0.124
-477.318	452.603	0.050	0.112
-476.303	292.240	-0.126	-0.231
-475.289	-115.917	-0.354	-0.066
-474.274	-78.961	0.306	0.105
-473.259	143.731	0.048	0.065
-472.245	-51.338	0.316	-0.149
-471.230	-101.987	0.161	0.039
-470.216	225.473	-0.091	-0.148
-469.201	-70.954	-0.130	0.049
-468.186	-200.000	0.015	-0.075
-467.172	-31.473	0.258	-0.146
-466.157	-200.000	-0.000	0.171
-465.143	-27.754	-0.084	0.049
-464.128	-200.000	0.115	0.000
-463.113	-200.000	-0.010	0.137
-462.099	451.601	-0.156	-0.347
-461.084	-100.285	-0.254	-0.064
-460.070	100.464	-0.089	0.103
-459.055	-4.916	-0.090	0.062
-458.040	238.056	-0.152	-0.254
-457.026	800.000	-0.053	-0.201
-456.011	18.842	0.244	-0.197
-454.997	573.216	-0.058	-0.142
-453.982	800.000	0.074	-0.218
-452.968	-162.257	0.134	0.007
-451.953	-200.000	0.001	-0.036
-450.938	131.410	-0.150	0.194
-449.924	534.969	0.062	-0.149
-448.909	-141.642	-0.233	-0.024
-447.895	-97.269	-0.079	0.021
-446.880	-200.000	-0.020	-0.105
-445.865	800.000	0.021	0.079
-444.851	49.798	-0.190	0.180
-443.836	-200.000	0.004	-0.159
-442.822	99.354	-0.252	-0.293
-441.807	-91.634	0.092	-0.026
-440.792	56.209	0.100	-0.098
-439.778	-160.587	0.239	-0.013
-438.763	800.000	-0.040	0.111
-437.749	-55.323	-0.259	0.117
-436.734	446.700	0.130	-0.288
-435.719	800.000	0.084	-0.262
-434.705	-36.162	-0.264	-0.143
-433.690	221.409	0.253	0.408
-432.676	-90.838	0.183	-0.053
-431.661	-0.159	0.109	-0.078
-430.646	25.361	-0.095	0.079
-429.632	800.000	0.054	0.207
-428.617	-161.726	-0.094	0.005
-427.603	800.000	-0.071	-0.221
-426.588	-47.166	-0.260	-0.127
-425.573	426.351	0.116	0.251
-424.559	-200.000	0.008	0.241
-423.544	137.191	0.245	0.322
-422.530	150.982	0.100	-0.137
-421.515	318.069	-0.119	0.226
-420.500	93.260	0.170	0.193
-419.486	57.000	-0.140	-0.137
-418.471	-179.832	-0.576	-0.012
-417.457	-51.734	-0.152	-0.071
-416.442	206.368	0.164	0.256
-415.428	-135.738	0.240	-0.029
-414.413	-50.372	0.150	0.071
-413.398	-200.000	-0.054	-0.240
-412.384	-144.759	-0.265	0.024
-411.369	800.000	0.069	0.201
-410.355	-75.594	0.117	0.042
-409.340	148.460	-0.032	-0.043
-408.325	41.426	0.253	0.229
-407.311	-119.253	-0.117	0.020
-406.296	-200.000	-0.006	-0.048
-405.282	800.000	-0.056	0.206
-404.267	-200.000	-0.019	0.108
-403.252	-160.116	-0.394	0.021
-402.238	-1.517	0.329	0.232
-401.223	24.389	-0.008	0.007
-400.209	-200.000	0.007	-0.126
-399.194	-73.442	-0.270	0.099
-398.179	62.951	-0.210	-0.211
-397.165	800.000	0.076	-0.250
-396.150	205.505	0.120	-0.187
-395.136	448.878	-0.019	-0.042
-394.121	-46.668	0.147	0.072
-393.106	-184.032	-0.101	-0.002
-392.092	800.000	0.038	-0.108
-391.077	-96.963	0.485	-0.127
-390.063	-23.641	0.049	-0.029
-389.048	659.744	0.020	-0.051
-388.033	-2.707	0.143	0.100
-387.019	18.714	0.090	0.072
-386.004	258.301	-0.079	0.136
-384.990	231.340	-0.103	0.169
-383.975	-200.000	-0.096	0.613
-382.960	736.814	0.099	0.267
-381.946	-47.790	-0.258	-0.125
-380.931	800.000	-0.061	0.203
-379.917	16.500	0.220	-0.174
-378.902	-171.588	-0.262	0.009
-377.888	294.262	-0.018	0.033
-376.873	487.355	-0.008	-0.018
-375.858	-200.000	-0.026	-0.134
-374.844	235.136	0.176	-0.291
-373.829	303.948	-0.061	-0.113
-372.815	143.181	0.149	-0.199
-371.800	-32.364	-0.384	-0.215
-370.785	-200.000	0.023	0.172
-369.771	32.294	0.109	0.095
-368.756	109.061	-0.158	-0.189
-367.742	-105.086	-0.295	-0.068
-366.727	-200.000	-0.019	-0.104
-365.712	-39.837	0.336	-0.176
-364.698	140.143	0.238	0.315
-363.683	-200.000	0.024	-0.112
-362.669	800.000	0.020	0.083
-361.654	-25.875	-0.180	0.106
-360.639	-104.553	0.500	-0.116
-359.625	-98.060	0.101	-0.026
-358.610	-200.000	-0.015	-0.094
-357.596	31.068	-0.118	0.102
-356.581	-112.003	-0.186	0.038
-355.566	800.000	-0.088	0.285
-354.552	103.994	-0.105	-0.124
-353.537	-200.000	-0.018	-0.122
-352.523	191.836	0.087	0.131
-351.508	-200.000	0.011	0.175
-350.493	193.500	-0.175	-0.265
-349.479	90.681	-0.086	-0.097
-348.464	-8.131	-0.142	0.096
-347.450	-156.433	0.258	-0.016
-346.435	800.000	-0.029	-0.108
-345.420	-109.619	-0.341	0.072
-344.406	-200.000	0.032	0.297
-343.391	515.713	-0.125	0.292
-342.377	-110.180	0.054	-0.011
-341.362	-125.748	0.056	0.009
-340.348	800.000	0.003	0.011
-339.333	-105.130	0.292	0.067
-338.318	800.000	-0.063	-0.181
-337.304	167.714	0.074	-0.105
-336.289	-200.000	-0.009	-0.172
-335.275	-64.527	0.535	0.217
-334.260	-10.462	-0.057	-0.038
-333.245	167.883	-0.136	0.194
-332.231	-124.564	0.157	0.024
-331.216	800.000	0.001	-0.004
-330.202	-139.191	0.116	-0.013
-329.187	800.000	-0.037	-0.110
-328.172	23.185	-0.176	0.144
-327.158	-41.315	0.023	0.012
-326.143	-200.000	0.035	-0.176
-325.129	-73.939	-0.371	0.135
-324.114	2.264	0.104	0.075
-323.099	711.688	-0.084	0.223
-322.085	-21.588	0.054	0.033
-321.070	-73.971	-0.125	0.045
-320.056	26.423	-0.326	-0.272
-319.041	-27.633	-0.022	-0.013
-318.026	51.711	-0.176	0.168
-317.012	-116.840	0.460	-0.084
-315.997	33.437	-0.201	0.174
-314.983	7.557	0.265	0.198
-313.968	-113.669	-0.228	-0.044
-312.953	-160.249	0.106	-0.006
-311.939	377.817	-0.075	0.153
-310.924	-1.220	0.036	-0.025
-309.910	800.000	-0.136	0.447
-308.895	338.655	0.046	0.090
-307.880	-169.706	-0.134	0.005
-306.866	-41.029	0.053	0.027
-305.851	-200.000	0.009	0.093
-304.837	57.882	-0.103	-0.101
-303.822	403.375	0.107	-0.225
-302.807	-71.102	-0.199	-0.075
-301.793	-117.490	0.369	-0.067
-300.778	-154.813	0.131	0.009
-299.764	22.856	-0.285	-0.233
-298.749	44.144	0.230	-0.210
-297.735	-169.379	-0.104	0.004
-296.720	34.304	-0.141	-0.123
-295.705	-200.000	0.005	-0.176
-294.691	370.907	-0.078	0.158
-293.676	800.000	0.072	0.249
-292.662	-66.068	-0.136	-0.054
-291.647	-46.481	0.265	0.130
-290.632	245.647	-0.203	-0.342
-289.618	-126.211	0.034	-0.005
-288.603	-97.740	0.369	-0.095
-287.589	-115.696	0.070	0.013
-286.574	318.872	-0.023	0.043
-285.559	-200.000	-0.021	-0.160
-284.545	-94.941	0.205	-0.055
-283.530	138.252	0.242	0.317
-282.516	-162.068	0.357	-0.018
-281.501	-200.000	0.004	-0.056
-280.486	35.629	0.156	-0.137
-279.472	44.409	0.035	-0.032
-278.457	319.553	-0.060	-0.114
-277.443	-200.000	0.082	0.475
-276.428	-107.225	0.071	-0.016
-275.413	-200.000	0.002	-0.081
-274.399	207.376	-0.123	-0.191
-273.384	-14.095	-0.095	-0.061
-272.370	542.695	0.074	-0.177
-271.355	-168.196	-0.286	0.011
-270.340	195.874	0.097	0.148
-269.326	222.390	-0.190	0.305
-268.311	-132.654	0.437	-0.056
-267.297	-91.990	0.179	-0.051
-266.282	-44.035	-0.133	-0.067
-265.267	-152.434	-0.188	0.013
-264.253	20.518	-0.273	-0.220
-263.238	-113.576	0.199	0.039
-262.224	139.561	0.115	0.151
-261.209	800.000	-0.107	-0.348
-260.195	-200.000	-0.002	-0.092
-259.180	178.821	-0.047	-0.068
-258.165	702.207	-0.111	-0.291
-257.151	-87.965	-0.224	0.067
-256.136	13.188	0.399	0.308
-255.122	430.709	-0.036	-0.078
-254.107	-164.484	-0.224	0.010
-253.092	-148.547	-0.083	0.007
-252.078	-73.794	-0.155	-0.056
-251.063	-124.156	0.179	-0.028
-250.049	-38.009	0.146	-0.077
-249.034	800.000	0.094	-0.313
-248.019	-37.752	0.091	0.048
-247.005	-200.000	-0.022	0.199
-245.990	800.000	-0.116	0.397
-244.976	159.714	-0.092	-0.128
-243.961	-54.837	0.015	0.007
-242.946	-39.505	0.126	0.066
-241.932	-16.674	-0.398	-0.251
-240.917	800.000	0.024	-0.088
-239.903	182.342	-0.144	-0.212
-238.888	66.135	0.104	-0.105
-237.873	-153.483	-0.027	-0.002
-236.859	-88.150	0.338	-0.101
-235.844	-136.905	0.235	-0.027
-234.830	17.899	-0.211	0.168
-233.815	-200.000	-0.000	-0.008
-232.800	-122.738	-0.118	0.019
-231.786	143.245	-0.140	0.186
-230.771	-160.643	0.175	0.009
-229.757	-153.162	0.080	-0.006
-228.742	80.373	-0.122	-0.131
-227.727	-49.942	-0.140	-0.066
-226.713	-79.288	0.275	0.093
-225.698	800.000	-0.092	-0.348
-224.684	22.959	0.211	0.172
-223.669	-155.788	-0.524	-0.033
-222.655	-200.000	-0.057	-0.316
-221.640	252.583	0.139	0.236
-220.625	49.988	-0.099	-0.093
-219.611	-200.000	-0.024	0.346
-218.596	-161.438	-0.557	0.029
-217.582	-200.000	0.003	0.115
-216.567	0.631	-0.239	0.170
-215.552	106.232	0.184	0.217
-214.538	-200.000	-0.017	-0.176
-213.523	97.824	0.167	0.191
-212.509	-200.000	0.001	-0.046
-211.494	262.222	0.186	0.322
-210.479	800.000	0.083	0.263
-209.465	67.502	-0.112	0.114
-208.450	800.000	0.112	0.314
-207.436	-15.279	0.127	0.081
-206.421	-99.040	0.261	0.066
-205.406	-200.000	-0.081	0.423
-204.392	277.970	0.155	-0.274
-203.377	-36.626	0.327	0.175
-202.363	51.295	-0.068	0.064
-201.348	78.495	-0.196	-0.208
-200.333	800.000	-0.058	0.160
-199.319	-200.000	-0.021	0.139
-198.304	-136.195	0.378	-0.044
-197.290	699.307	-0.139	0.363
-196.275	364.782	-0.052	0.103
-195.260	95.829	0.131	0.149
-194.246	-170.240	0.251	-0.009
-193.231	85.359	-0.164	-0.179
-192.217	212.111	0.058	-0.091
-191.202	454.105	-0.085	-0.188
-190.187	186.502	-0.026	-0.038
-189.173	155.794	0.266	0.364
-188.158	-74.807	-0.267	-0.095
-187.144	21.337	-0.137	0.111
-186.129	-87.087	0.142	-0.043
-185.114	-200.000	-0.015	0.174
-184.100	-160.265	0.231	-0.012
-183.085	-200.000	0.021	-0.131
-182.071	-39.268	0.117	0.061
-181.056	-200.000	-0.040	0.449
-180.042	-200.000	-0.027	-0.187
-179.027	800.000	0.022	0.083
-178.012	-168.552	-0.351	0.013
-176.998	83.033	0.085	-0.092
-175.983	171.848	-0.115	0.165
-174.969	94.911	-0.128	0.145
-173.954	466.216	0.026	0.059
-172.939	-140.895	0.083	0.009
-171.925	800.000	0.128	0.438
-170.910	77.176	0.284	0.300
-169.896	-200.000	0.001	0.163
-168.881	-200.000	-0.078	0.408
-167.866	-39.843	-0.153	0.079
-166.852	-33.323	0.102	0.056
-165.837	59.879	0.199	-0.195
-164.823	-114.292	0.276	0.053
-163.808	-63.761	0.211	-0.086
-162.793	91.400	0.265	0.296
-161.779	-191.249	-0.125	0.001
-160.764	-200.000	0.011	0.083
-159.750	-200.000	-0.009	0.320
-158.735	235.458	-0.246	0.403
-157.720	-134.971	-0.289	-0.035
-156.706	71.864	0.231	-0.238
-155.691	-28.347	-0.071	-0.041
-154.677	-20.999	-0.391	-0.238
-153.662	-194.786	0.123	-0.001
-152.647	106.025	-0.091	0.108
-151.633	159.972	0.212	0.294
-150.618	-17.488	-0.270	0.169
-149.604	272.592	-0.025	-0.044
-148.589	306.646	-0.150	0.278
-147.574	383.636	0.147	-0.301
-146.560	-67.200	-0.328	-0.128
-145.545	21.663	-0.140	0.114
-144.531	221.231	0.086	-0.138
-143.516	540.722	-0.034	-0.081
-142.502	-96.685	-0.158	0.041
-141.487	119.746	0.113	-0.139
-140.472	-200.000	-0.048	-0.301
-139.458	27.947	0.074	-0.062
-138.443	-43.484	0.120	-0.060
-137.429	40.851	-0.111	0.100
-136.414	753.458	-0.094	0.253
-135.399	-200.000	-0.020	-0.157
-134.385	2.713	-0.205	0.148
-133.370	-55.346	-0.281	0.125
-132.356	-11.208	0.108	-0.070
-131.341	-64.598	-0.091	0.036
-130.326	-7.840	0.145	-0.097
-129.312	44.357	-0.209	0.191
-128.297	488.208	0.090	0.204
-127.283	-108.452	-0.074	0.016
-126.268	239.184	-0.067	0.111
-125.253	-130.882	0.168	0.022
-124.239	-159.730	-0.283	0.015
-123.224	-121.850	-0.362	0.059
-122.210	455.407	-0.076	0.167
