DTS Sentinel unit serial number:	SN413079Multiplexer serial number:	ORYXHardware model number:	OX4-SRSoftware version number:	ORYX F/W v4.00 Oryx Data Collector v3.7.2.0data status	okinstallation	princeton_trtdifferential loss correction	single-endedforward channel	channel 1reverse channel	N/Adate	2019/09/12time	19:58:34forward acquisition time	15.00reverse acquisition time	0.00gamma	496.2192k internal	0.2324k external	0.2324temperature offset calibration	1.0140default loss term (dB/km)	0.3790temperature slope calibration	1.0000multiplexer offset coefficient	1.0000multiplexer slope coefficient	1.0000fibre end	0.00T internal ref (°C)	31.81T ext. ref 1 (°C)	3.48T ext. ref 2 (°C)	26.34length (m)	temperature (°C)	Stokes	anti-Stokes-747.200	-47.485	0.334	0.164
-746.185	75.948	0.374	-0.399
-745.171	-68.283	-0.351	0.138
-744.156	-31.690	0.385	0.218
-743.142	436.685	-0.045	-0.098
-742.127	-176.521	0.188	0.005
-741.112	222.445	-0.127	0.207
-740.098	-200.000	-0.052	-0.306
-739.083	147.003	0.089	0.120
-738.069	202.151	0.162	0.253
-737.054	126.044	-0.649	-0.828
-736.039	-54.172	0.426	-0.196
-735.025	-56.827	0.996	0.444
-734.010	169.337	0.071	0.102
-732.996	-68.698	-0.670	0.261
-731.981	426.413	-0.291	-0.632
-730.966	116.935	-0.395	-0.489
-729.952	-148.045	-0.479	0.040
-728.937	-140.007	-0.931	-0.099
-727.923	22.803	-0.178	0.147
-726.908	-56.830	-0.407	0.181
-725.894	20.791	-0.433	-0.353
-724.879	-200.000	-0.022	0.151
-723.864	-200.000	0.083	-0.422
-722.850	-111.516	-0.281	0.058
-721.835	-120.048	-0.125	0.022
-720.821	661.872	-0.072	-0.188
-719.806	800.000	0.099	-0.372
-718.791	800.000	0.165	-0.645
-717.777	-32.221	-0.892	-0.503
-716.762	-99.078	-0.662	0.169
-715.748	-4.296	-0.440	-0.307
-714.733	-11.157	0.572	0.380
-713.718	-41.941	0.629	-0.325
-712.704	274.688	0.256	0.457
-711.689	-138.226	-0.635	-0.071
-710.675	70.639	-0.145	-0.152
-709.660	793.055	-0.153	-0.424
-708.645	800.000	-0.349	-1.213
-707.631	-94.177	0.909	0.251
-706.616	-66.206	0.337	0.135
-705.602	-200.000	0.049	0.423
-704.587	60.359	-0.623	0.622
-703.572	800.000	-0.149	-0.556
-702.558	354.349	-0.189	-0.378
-701.543	16.293	-0.077	0.061
-700.529	157.177	0.368	0.513
-699.514	104.380	0.416	0.493
-698.499	-3.188	0.821	0.576
-697.485	800.000	-0.153	0.426
-696.470	-200.000	0.125	-0.686
-695.456	-95.348	-0.367	-0.100
-694.441	-116.863	-0.399	0.074
-693.426	219.030	-0.121	-0.195
-692.412	800.000	0.220	0.881
-691.397	800.000	0.155	-0.510
-690.383	-110.229	-0.554	-0.116
-689.368	-86.785	0.346	0.107
-688.354	800.000	0.159	0.464
-687.339	800.000	0.247	-0.895
-686.324	-85.853	0.638	-0.199
-685.310	209.809	-0.223	-0.352
-684.295	675.379	0.034	-0.088
-683.281	160.249	-0.318	-0.447
-682.266	-200.000	-0.011	-0.258
-681.251	-27.879	0.484	-0.282
-680.237	-175.954	-0.349	0.009
-679.222	-200.000	-0.053	0.346
-678.208	468.815	0.527	1.191
-677.193	14.239	0.375	0.294
-676.178	-11.236	0.580	0.385
-675.164	213.343	-0.355	-0.565
-674.149	-200.000	-0.074	0.535
-673.135	-9.329	0.771	-0.518
-672.120	800.000	-0.162	0.545
-671.105	-190.897	-0.393	-0.004
-670.091	68.796	-0.449	-0.464
-669.076	-200.000	0.022	-0.139
-668.062	325.355	-0.225	-0.434
-667.047	24.329	0.226	-0.188
-666.032	800.000	0.106	0.297
-665.018	5.510	-0.830	0.617
-664.003	-77.324	0.241	0.084
-662.989	248.530	0.345	-0.588
-661.974	311.514	0.477	-0.901
-660.959	800.000	0.290	1.067
-659.945	-172.857	0.713	-0.022
-658.930	800.000	0.192	-0.668
-657.916	800.000	-0.191	-0.548
-656.901	28.115	0.655	-0.556
-655.886	-156.428	-0.539	-0.034
-654.872	60.661	0.302	-0.301
-653.857	-101.174	0.755	-0.186
-652.843	-200.000	-0.007	0.083
-651.828	-160.953	-0.572	0.030
-650.814	124.709	-0.715	0.905
-649.799	-181.781	0.919	-0.018
-648.784	-200.000	-0.020	-0.119
-647.770	-182.169	-0.561	-0.011
-646.755	224.530	0.413	-0.672
-645.741	-200.000	-0.051	-0.232
-644.726	-83.654	-0.794	-0.255
-643.711	26.977	-0.474	0.400
-642.697	-170.591	-0.378	0.013
-641.682	-133.111	-1.058	0.135
-640.668	-149.007	-0.219	-0.018
-639.653	-84.519	0.337	-0.107
-638.638	-200.000	-0.073	0.828
-637.624	-200.000	0.028	0.141
-636.609	29.829	0.243	0.208
-635.595	-51.253	-0.245	-0.115
-634.580	-119.957	-0.043	0.007
-633.565	117.070	-0.445	0.550
-632.551	-108.212	0.196	-0.043
-631.536	129.856	0.293	-0.377
-630.522	800.000	0.299	1.069
-629.507	-200.000	0.034	0.285
-628.492	678.912	-0.308	-0.806
-627.478	184.258	0.092	0.136
-626.463	-136.954	-0.374	-0.043
-625.449	-55.127	-0.375	0.169
-624.434	800.000	0.156	0.451
-623.419	-44.417	-0.257	-0.129
-622.405	6.480	-0.763	-0.569
-621.390	-191.581	-0.863	0.009
-620.376	-56.839	-0.824	0.366
-619.361	51.279	-0.121	0.115
-618.346	-60.324	-0.605	0.259
-617.332	-126.827	0.747	0.111
-616.317	50.831	-0.543	0.517
-615.303	428.443	-0.269	-0.584
-614.288	800.000	-0.232	0.661
-613.273	-10.081	-0.539	0.360
-612.259	-200.000	-0.066	-0.614
-611.244	106.091	-0.245	0.291
-610.230	-200.000	-0.025	0.242
-609.215	16.277	-0.380	-0.301
-608.201	-200.000	-0.026	-0.663
-607.186	-163.539	-0.281	0.013
-606.171	-144.275	-0.444	0.042
-605.157	251.603	-0.326	-0.557
-604.142	32.125	0.628	-0.544
-603.128	-30.499	-0.346	-0.197
-602.113	273.152	0.130	0.230
-601.098	-31.117	-0.309	-0.175
-600.084	-200.000	-0.007	0.461
-599.069	97.974	-0.550	-0.635
-598.055	800.000	0.224	-0.769
-597.040	65.305	0.347	0.353
-596.025	-43.187	-0.303	-0.154
-595.011	-105.519	-0.460	-0.105
-593.996	48.569	0.834	0.784
-592.982	800.000	-0.247	-0.761
-591.967	-118.068	-0.748	0.134
-590.952	281.814	-0.087	0.156
-589.938	48.448	0.190	-0.179
-588.923	800.000	-0.061	0.193
-587.909	573.383	-0.205	-0.502
-586.894	-200.000	-0.076	-0.516
-585.879	-200.000	-0.005	0.047
-584.865	87.440	0.722	-0.801
-583.850	128.034	0.163	-0.208
-582.836	-200.000	-0.033	-0.242
-581.821	-125.474	0.481	-0.073
-580.806	77.697	-0.392	0.419
-579.792	-96.976	1.286	0.338
-578.777	800.000	0.216	0.627
-577.763	-165.966	0.615	0.026
-576.748	-200.000	-0.083	-0.434
-575.733	219.519	-0.139	0.223
-574.719	79.786	0.355	0.383
-573.704	621.955	0.094	-0.238
-572.690	102.894	0.252	0.296
-571.675	-136.498	1.021	-0.119
-570.661	54.532	-0.090	0.087
-569.646	164.716	0.116	0.164
-568.631	17.439	0.455	-0.362
-567.617	-67.946	-1.250	-0.489
-566.602	-125.028	-0.953	-0.147
-565.588	327.094	0.417	-0.802
-564.573	-200.000	0.109	-0.877
-563.558	296.455	0.376	0.692
-562.544	-149.587	-0.480	-0.038
-561.529	14.683	-0.145	-0.113
-560.515	31.861	0.288	0.249
-559.500	800.000	-0.023	-0.097
-558.485	-34.080	0.510	0.281
-557.471	-200.000	0.113	0.658
-556.456	-180.550	0.322	0.007
-555.442	-186.217	-0.244	0.004
-554.427	800.000	-0.026	0.084
-553.412	-78.907	0.142	0.048
-552.398	-32.167	0.349	0.195
-551.383	125.785	0.264	0.334
-550.369	204.540	-0.094	-0.145
-549.354	-200.000	0.125	1.022
-548.339	14.321	0.280	-0.219
-547.325	50.244	-0.112	0.106
-546.310	-107.444	-0.744	-0.164
-545.296	-60.559	-0.751	-0.319
-544.281	492.169	-0.193	0.443
-543.266	306.310	-0.206	0.383
-542.252	294.657	-0.093	0.171
-541.237	510.798	0.274	-0.638
-540.223	-94.245	1.081	-0.296
-539.208	32.389	-0.442	0.383
-538.193	-45.791	0.102	0.050
-537.179	-200.000	-0.049	-0.396
-536.164	-200.000	-0.073	-0.442
-535.150	-28.961	0.133	-0.077
-534.135	-106.653	-0.529	-0.118
-533.121	-102.296	0.402	-0.097
-532.106	257.650	-0.132	0.227
-531.091	-32.049	-0.648	0.363
-530.077	45.589	-0.463	-0.428
-529.062	-200.000	0.038	-0.795
-528.048	405.236	0.258	-0.545
-527.033	234.250	0.258	0.426
-526.018	256.790	0.142	-0.244
-525.004	2.126	-0.520	0.376
-523.989	-77.885	0.302	0.104
-522.975	53.401	0.433	0.415
-521.960	613.974	0.319	0.799
-520.945	800.000	0.129	-0.566
-519.931	-94.575	0.445	0.121
-518.916	-87.650	-0.292	0.088
-517.902	800.000	-0.234	-0.777
-516.887	11.938	0.091	-0.070
-515.872	10.384	0.185	-0.141
-514.858	-131.322	0.359	-0.048
-513.843	-44.442	0.535	-0.268
-512.829	678.229	0.141	-0.366
-511.814	115.554	-0.317	0.388
-510.799	357.740	-0.175	0.350
-509.785	-94.552	1.103	-0.300
-508.770	33.490	-0.317	-0.275
-507.756	61.907	0.669	0.667
-506.741	-29.801	-0.041	0.023
-505.726	-162.357	-0.575	0.029
-504.712	6.861	-0.225	-0.168
-503.697	217.642	-0.664	-1.059
-502.683	-12.862	0.370	0.241
-501.668	-200.000	0.044	-0.276
-500.653	-57.945	-0.334	-0.146
-499.639	37.219	0.122	-0.108
-498.624	-94.378	-0.659	-0.180
-497.610	357.572	0.285	-0.569
-496.595	45.591	0.234	-0.217
-495.581	-196.457	0.222	0.002
-494.566	-75.230	0.534	0.191
-493.551	60.331	-0.361	0.357
-492.537	-200.000	-0.004	0.440
-491.522	344.939	0.296	-0.581
-490.508	-91.745	0.602	-0.171
-489.493	-80.897	-0.525	-0.174
-488.478	-174.933	-0.263	0.007
-487.464	-48.981	0.791	0.378
-486.449	-119.395	-0.195	-0.034
-485.435	-40.575	-0.606	0.314
-484.420	800.000	-0.245	1.032
-483.405	125.415	0.518	0.653
-482.391	79.478	-0.174	-0.186
-481.376	101.210	-0.180	-0.210
-480.362	683.199	0.127	-0.330
-479.347	-121.068	0.219	-0.037
-478.332	109.571	0.401	0.480
-477.318	117.734	0.823	-1.013
-476.303	-114.219	-0.267	0.051
-475.289	31.052	0.100	0.086
-474.274	-62.365	-0.813	0.338
-473.259	137.785	0.562	-0.735
-472.245	22.237	-0.581	0.474
-471.230	187.772	-0.036	0.053
-470.216	-40.526	0.527	-0.273
-469.201	-200.000	0.022	0.517
-468.186	-200.000	-0.044	-0.361
-467.172	58.459	0.545	0.534
-466.157	7.780	-0.732	0.548
-465.143	-39.963	-1.179	-0.614
-464.128	-115.201	-0.243	-0.046
-463.113	110.130	0.405	0.486
-462.099	-5.165	0.510	-0.350
-461.084	-200.000	0.032	-0.209
-460.070	-32.832	-0.307	0.170
-459.055	-5.487	-0.041	0.028
-458.040	-65.589	0.750	0.301
-457.026	800.000	0.194	-0.541
-456.011	-101.327	-0.673	-0.164
-454.997	-200.000	-0.044	1.050
-453.982	-34.350	-0.030	-0.017
-452.968	-200.000	0.060	-0.482
-451.953	650.751	0.169	0.432
-450.938	-200.000	-0.066	0.327
-449.924	29.242	-0.726	-0.616
-448.909	-200.000	0.070	0.524
-447.895	-200.000	-0.032	-0.167
-446.880	-136.078	-0.560	-0.066
-445.865	800.000	0.139	-0.596
-444.851	-117.985	-0.619	-0.110
-443.836	800.000	0.157	-0.616
-442.822	225.884	0.047	-0.077
-441.807	-200.000	0.069	-1.065
-440.792	800.000	0.193	0.545
-439.778	-152.362	0.996	0.072
-438.763	-34.590	0.161	-0.088
-437.749	-113.304	-0.766	-0.150
-436.734	-6.446	0.141	0.096
-435.719	86.602	-0.043	0.047
-434.705	-29.640	-0.651	-0.370
-433.690	800.000	0.183	-0.649
-432.676	12.281	0.371	-0.285
-431.661	142.041	-0.382	0.505
-430.646	-200.000	-0.040	-0.344
-429.632	800.000	-0.224	0.722
-428.617	-78.928	-0.201	-0.068
-427.603	47.709	-1.160	1.079
-426.588	80.968	-0.442	0.475
-425.573	-200.000	-0.015	-0.863
-424.559	184.727	-0.602	0.890
-423.544	-46.461	-0.546	0.267
-422.530	10.845	0.102	0.077
-421.515	-200.000	0.068	0.462
-420.500	800.000	-0.047	0.201
-419.486	523.323	0.249	-0.583
-418.471	34.500	-0.416	-0.362
-417.457	157.992	0.564	0.780
-416.442	78.790	0.081	0.086
-415.428	381.687	-0.226	-0.462
-414.413	-16.171	0.387	-0.245
-413.398	-9.555	0.718	0.477
-412.384	-200.000	0.022	0.182
-411.369	-200.000	-0.083	0.419
-410.355	565.663	-0.099	-0.240
-409.340	123.850	-0.069	0.086
-408.325	-118.632	-0.300	0.053
-407.311	-61.894	-0.763	-0.318
-406.296	296.346	0.125	0.229
-405.282	231.807	-0.240	0.393
-404.267	158.940	0.303	0.420
-403.252	-33.479	0.405	-0.223
-402.238	800.000	0.148	0.484
-401.223	81.100	0.247	-0.266
-400.209	229.348	-0.167	0.271
-399.194	-12.591	0.743	0.483
-398.179	-139.916	0.470	0.049
-397.165	378.953	0.296	0.603
-396.150	-35.992	-0.543	0.293
-395.136	-200.000	0.374	-0.001
-394.121	-23.376	-0.524	0.313
-393.106	-88.764	-0.336	-0.099
-392.092	-166.279	0.470	0.020
-391.077	-159.331	-0.537	0.030
-390.063	-129.892	0.875	0.120
-389.048	-200.000	0.017	0.263
-388.033	-81.624	-0.311	0.102
-387.019	-125.771	0.694	0.104
-386.004	-200.000	-0.052	0.735
-384.990	-119.886	0.740	0.127
-383.975	137.282	-0.152	0.198
-382.960	-200.000	-0.118	-0.548
-381.946	-91.690	-0.486	0.138
-380.931	-118.824	-0.313	0.055
-379.917	45.005	0.891	-0.817
-378.902	-47.610	0.678	0.327
-377.888	534.386	0.190	0.448
-376.873	-90.565	0.390	0.112
-375.858	426.765	-0.329	0.707
-374.844	-200.000	-0.076	0.799
-373.829	216.746	0.182	-0.289
-372.815	800.000	-0.115	-0.357
-371.800	157.241	-0.058	0.079
-370.785	800.000	-0.125	0.408
-369.771	105.314	0.585	-0.688
-368.756	-113.152	0.168	0.033
-367.742	-200.000	-0.001	1.331
-366.727	-43.673	-0.383	-0.192
-365.712	201.763	0.428	-0.656
-364.698	-200.000	-0.024	-0.206
-363.683	215.378	-0.341	0.538
-362.669	-128.475	0.633	0.089
-361.654	-158.468	-0.174	-0.010
-360.639	27.388	-0.028	0.024
-359.625	800.000	0.048	0.182
-358.610	407.319	-0.128	-0.270
-357.596	-70.080	0.866	0.328
-356.581	-102.503	-0.577	0.137
-355.566	-71.294	-0.598	-0.223
-354.552	-62.559	-0.269	0.111
-353.537	453.423	0.167	-0.367
-352.523	-95.080	0.469	0.126
-351.508	-103.419	-0.335	-0.078
-350.493	84.358	-0.145	-0.157
-349.479	20.497	0.274	-0.220
-348.464	800.000	0.215	-0.615
-347.450	-100.271	-0.599	-0.148
-346.435	5.483	1.037	0.761
-345.420	176.246	-0.295	0.426
-344.406	-116.116	0.651	-0.120
-343.391	403.892	0.181	0.379
-342.377	-139.715	0.625	0.066
-341.362	-166.908	-0.906	0.037
-340.348	-10.117	0.826	0.545
-339.333	-200.000	-0.008	0.648
-338.318	-139.420	0.588	-0.063
-337.304	-45.510	-0.169	0.083
-336.289	2.393	0.277	0.199
-335.275	-111.383	0.399	-0.081
-334.260	-159.748	-0.029	-0.002
-333.245	-195.258	-0.247	0.002
-332.231	330.780	-0.333	-0.638
-331.216	32.596	-0.178	0.153
-330.202	401.141	-0.263	-0.549
-329.187	-31.437	0.175	-0.098
-328.172	-200.000	-0.131	-0.644
-327.158	77.246	0.430	-0.454
-326.143	393.525	0.200	-0.413
-325.129	62.070	0.379	-0.375
-324.114	-183.565	-0.221	0.004
-323.099	80.413	-0.276	-0.295
-322.085	-200.000	-0.238	-0.000
-321.070	-35.042	1.120	0.606
-320.056	-90.219	-0.086	-0.025
-319.041	-200.000	0.040	0.333
-318.026	-166.760	0.532	-0.022
-317.012	-76.238	-0.215	-0.075
-315.997	-133.450	-0.285	-0.036
-314.983	104.246	-0.343	-0.401
-313.968	128.902	0.234	-0.296
-312.953	-200.000	0.141	0.742
-311.939	-122.680	-0.662	-0.106
-310.924	-47.218	-0.939	0.454
-309.910	-20.370	-0.554	0.338
-308.895	-22.733	-0.259	0.156
-307.880	8.783	0.559	0.418
-306.866	266.202	0.471	-0.816
-305.851	-118.936	-0.827	0.144
-304.837	158.496	0.285	0.392
-303.822	45.683	0.579	0.531
-302.807	566.683	-0.207	-0.499
-301.793	-79.723	-0.440	-0.147
-300.778	-200.000	-0.081	-0.457
-299.764	256.923	-0.472	0.805
-298.749	68.347	-0.521	0.529
-297.735	-200.000	-0.061	-0.698
-296.720	199.100	0.260	0.395
-295.705	99.351	-0.683	-0.784
-294.691	268.893	0.315	0.549
-293.676	150.695	0.160	-0.215
-292.662	-98.880	0.568	0.143
-291.647	-162.844	0.766	-0.037
-290.632	-200.000	-0.069	-0.545
-289.618	-41.211	-0.150	-0.077
-288.603	61.872	-0.475	0.469
-287.589	0.752	-0.412	0.292
-286.574	-42.958	0.577	0.291
-285.559	263.386	-0.660	-1.137
-284.545	800.000	-0.148	-0.504
-283.530	-109.053	0.813	-0.172
-282.516	-200.000	-0.256	1.240
-281.501	582.978	-0.191	-0.466
-280.486	-74.845	0.240	-0.085
-279.472	102.399	0.313	0.363
-278.457	-44.358	-0.901	0.447
-277.443	-102.995	0.810	0.191
-276.428	800.000	-0.045	-0.180
-275.413	426.391	0.047	0.101
-274.399	29.301	0.376	-0.316
-273.384	800.000	-0.192	-0.694
-272.370	-200.000	-0.094	1.001
-271.355	356.550	-0.418	0.826
-270.340	-40.394	0.255	0.131
-269.326	-200.000	0.145	-0.882
-268.311	86.394	0.494	-0.540
-267.297	-175.269	0.208	0.006
-266.282	-200.000	0.010	-0.137
-265.267	342.043	0.164	-0.317
-264.253	349.008	-0.066	0.130
-263.238	196.527	0.177	0.267
-262.224	41.382	-0.498	0.446
-261.209	482.465	0.184	0.413
-260.195	-54.760	0.563	-0.252
-259.180	525.199	-0.282	-0.658
-258.165	-30.965	-0.592	0.331
-257.151	460.537	-0.187	-0.412
-256.136	234.428	-0.346	0.565
-255.122	-163.766	0.713	-0.033
-254.107	-117.340	0.721	0.130
-253.092	-46.787	0.348	0.169
-252.078	-200.000	-0.004	-0.272
-251.063	545.737	-0.116	-0.274
-250.049	-200.000	-0.039	-0.468
-249.034	43.310	-0.664	0.600
-248.019	30.093	0.031	-0.026
-247.005	180.905	-0.076	-0.111
-245.990	800.000	0.215	-0.797
-244.976	-200.000	-0.099	-0.431
-243.961	-86.869	0.493	0.149
-242.946	-12.787	0.245	-0.158
-241.932	-21.561	-0.207	0.125
-240.917	48.729	-0.386	-0.358
-239.903	-129.574	0.247	0.034
-238.888	-123.269	0.700	0.111
-237.873	18.338	0.098	-0.078
-236.859	-155.780	-0.216	-0.014
-235.844	35.542	0.101	0.088
-234.830	446.169	0.296	-0.644
-233.815	-52.751	-0.223	-0.102
-232.800	-59.114	0.939	0.401
-231.786	-4.055	-0.233	-0.160
-230.771	-200.000	-0.050	-0.357
-229.757	-161.192	-0.363	0.019
-228.742	-200.000	-0.239	-1.276
-227.727	-18.689	-0.139	0.086
-226.713	-200.000	0.179	0.000
-225.698	-200.000	0.123	-0.586
-224.684	119.625	-0.685	-0.839
-223.669	-142.046	-0.462	0.045
-222.655	800.000	0.222	0.722
-221.640	-78.202	0.551	0.187
-220.625	800.000	0.246	0.696
-219.611	97.330	0.336	-0.382
-218.596	-200.000	-0.049	0.548
-217.582	-1.888	0.207	0.144
-216.567	-25.209	-0.089	-0.052
-215.552	38.856	-0.394	-0.348
-214.538	-165.105	1.219	-0.053
-213.523	-200.000	0.034	0.282
-212.509	487.619	-0.028	0.063
-211.494	25.807	-0.235	0.194
-210.479	59.907	0.710	0.693
-209.465	-200.000	-0.175	0.821
-208.450	115.148	-0.390	-0.471
-207.436	-194.203	0.311	0.003
-206.421	522.085	0.526	1.220
-205.406	-159.312	0.441	0.024
-204.392	800.000	-0.104	0.446
-203.377	302.607	0.060	-0.110
-202.363	-142.827	0.441	-0.042
-201.348	-200.000	0.024	-0.586
-200.333	-45.824	-0.807	0.394
-199.319	144.140	-0.336	-0.443
-198.304	-58.068	-0.799	-0.344
-197.290	-85.493	0.868	-0.267
-196.275	800.000	0.155	-0.613
-195.260	-64.350	0.449	-0.180
-194.246	8.089	-0.287	0.213
-193.231	800.000	0.165	-0.545
-192.217	-82.501	-0.528	-0.169
-191.202	800.000	-0.036	0.124
-190.187	46.935	-0.125	-0.115
-189.173	90.852	-0.536	-0.593
-188.158	800.000	0.115	-0.355
-187.144	-46.440	-0.437	-0.212
-186.129	574.595	0.203	-0.490
-185.114	-200.000	0.084	0.423
-184.100	11.637	0.528	0.400
-183.085	-157.589	0.577	-0.034
-182.071	-200.000	-0.017	-0.863
-181.056	-200.000	0.048	-0.345
-180.042	238.040	-0.200	0.329
-179.027	-10.548	0.753	-0.492
-178.012	46.159	0.317	-0.290
-176.998	15.770	-0.224	-0.174
-175.983	-40.553	-0.610	-0.313
-174.969	761.682	0.083	0.222
-173.954	103.439	0.306	0.354
-172.939	-21.362	-0.567	0.342
-171.925	404.247	-0.379	0.787
-170.910	40.483	-0.387	0.344
-169.896	-200.000	0.101	0.470
-168.881	-200.000	0.057	-0.780
-167.866	-81.455	-0.800	0.260
-166.852	482.794	-0.043	0.097
-165.837	800.000	-0.096	-0.405
-164.823	-43.729	0.433	-0.215
-163.808	149.416	0.205	-0.274
-162.793	-47.731	-0.157	-0.075
-161.779	767.872	-0.091	0.244
-160.764	-200.000	0.002	0.044
-159.750	-64.961	0.332	0.133
-158.735	-80.356	0.572	0.188
-157.720	-97.499	-0.464	0.119
-156.706	670.693	-0.220	-0.562
-155.691	-200.000	-0.033	0.457
-154.677	60.052	0.178	-0.174
-153.662	800.000	-0.359	-1.258
-152.647	64.975	-0.148	0.147
-151.633	-200.000	0.002	0.925
-150.618	-52.730	0.299	0.136
-149.604	-33.098	-0.118	0.065
-148.589	156.766	-0.196	-0.267
-147.574	-200.000	-0.009	0.455
-146.560	96.186	-0.727	-0.819
-145.545	-137.278	0.819	0.092
-144.531	-60.232	0.399	0.168
-143.516	-162.437	0.412	-0.020
-142.502	316.443	-0.163	0.303
-141.487	800.000	-0.173	-0.530
-140.472	-41.402	0.331	0.168
-139.458	-97.205	0.264	-0.068
-138.443	153.135	0.217	-0.293
-137.429	-179.439	-1.068	0.023
-136.414	-4.288	-0.232	0.158
-135.399	-129.510	0.410	0.056
-134.385	66.882	0.604	-0.606
-133.370	800.000	0.107	0.457
-132.356	-200.000	-0.044	-0.516
-131.341	85.284	-0.480	-0.520
-130.326	190.780	-0.521	-0.773
-129.312	-46.360	0.067	0.032
-128.297	-200.000	0.027	-0.281
-127.283	-200.000	-0.051	-0.346
-126.268	219.276	-0.494	-0.778
-125.253	59.419	0.752	0.730
-124.239	-91.002	-0.694	0.197
-123.224	-200.000	-0.086	-0.514
-122.210	-148.887	-0.070	0.006
