DTS Sentinel unit serial number:	SN413079Multiplexer serial number:	ORYXHardware model number:	OX4-SRSoftware version number:	ORYX F/W v4.00 Oryx Data Collector v3.7.2.0data status	okinstallation	princeton_trtdifferential loss correction	single-endedforward channel	channel 1reverse channel	N/Adate	2019/09/16time	21:38:35forward acquisition time	60.00reverse acquisition time	0.00gamma	496.2192k internal	0.2325k external	0.2325temperature offset calibration	0.9956default loss term (dB/km)	0.3790temperature slope calibration	1.0000multiplexer offset coefficient	1.0000multiplexer slope coefficient	1.0000fibre end	0.00T internal ref (°C)	31.37T ext. ref 1 (°C)	0.05T ext. ref 2 (°C)	25.61length (m)	temperature (°C)	Stokes	anti-Stokes-747.200	165.840	-0.181	-0.259
-746.185	-200.000	-0.022	0.178
-745.171	-143.460	0.256	0.025
-744.156	246.235	-0.167	0.284
-743.142	30.678	0.192	0.166
-742.127	272.859	0.204	0.364
-741.112	158.863	0.133	0.186
-740.098	-41.726	-0.212	0.110
-739.083	-200.000	-0.019	0.082
-738.069	-200.000	-0.018	0.200
-737.054	237.420	0.128	0.215
-736.039	800.000	-0.013	0.043
-735.025	-25.596	-0.223	-0.133
-734.010	800.000	-0.081	-0.304
-732.996	-173.745	-0.409	-0.012
-731.981	-42.429	-0.115	0.059
-730.966	-166.914	-0.230	0.010
-729.952	-119.173	0.231	0.041
-728.937	-33.613	-0.307	0.171
-727.923	-83.634	-0.069	0.022
-726.908	2.707	-0.322	-0.235
-725.894	-200.000	-0.072	-0.323
-724.879	-145.474	0.374	-0.034
-723.864	-127.156	-0.353	0.052
-722.850	490.698	-0.025	-0.057
-721.835	-62.596	-0.211	-0.088
-720.821	-30.802	0.150	0.086
-719.806	46.408	-0.133	0.125
-718.791	50.264	-0.338	0.322
-717.777	-125.840	-0.263	0.040
-716.762	-80.629	0.088	-0.030
-715.748	-183.123	-0.049	0.001
-714.733	-5.522	-0.433	-0.300
-713.718	74.838	-0.312	-0.331
-712.704	276.775	0.090	0.161
-711.689	269.832	-0.024	-0.042
-710.675	-200.000	-0.017	0.176
-709.660	377.245	-0.109	-0.223
-708.645	-69.068	0.145	-0.056
-707.631	183.125	0.067	-0.100
-706.616	-145.728	-0.153	-0.014
-705.602	-200.000	0.037	0.176
-704.587	22.407	-0.170	0.140
-703.572	253.480	0.028	0.049
-702.558	-133.261	-0.182	-0.023
-701.543	-29.267	-0.246	-0.142
-700.529	-200.000	-0.042	-0.220
-699.514	-34.713	-0.128	-0.070
-698.499	-200.000	0.062	-0.362
-697.485	226.367	-0.123	-0.201
-696.470	242.109	0.152	-0.257
-695.456	-200.000	0.020	0.231
-694.441	69.984	-0.170	-0.177
-693.426	-200.000	-0.016	0.191
-692.412	467.953	0.027	-0.061
-691.397	-104.321	-0.196	-0.046
-690.383	19.663	0.032	0.026
-689.368	-200.000	-0.118	-0.000
-688.354	-134.366	-0.341	0.042
-687.339	-67.734	-0.271	-0.107
-686.324	-64.547	0.128	-0.052
-685.310	341.249	0.033	0.064
-684.295	-41.516	-0.157	0.081
-683.281	800.000	0.039	-0.149
-682.266	70.779	-0.102	-0.106
-681.251	-200.000	-0.040	-0.395
-680.237	261.186	0.115	-0.201
-679.222	-15.293	-0.192	-0.123
-678.208	-200.000	0.001	0.273
-677.193	35.121	0.082	0.073
-676.178	-162.147	-0.245	0.012
-675.164	14.132	0.220	-0.173
-674.149	-43.226	0.315	0.160
-673.135	3.845	0.095	0.070
-672.120	800.000	-0.020	0.057
-671.105	-125.231	-0.248	-0.038
-670.091	269.127	0.022	0.038
-669.076	137.828	-0.129	-0.169
-668.062	19.756	-0.268	-0.217
-667.047	-180.265	0.105	0.002
-666.032	-104.589	0.179	-0.042
-665.018	-139.785	0.057	0.006
-664.003	-19.864	-0.328	0.204
-662.989	296.448	0.111	0.205
-661.974	86.338	0.163	-0.181
-660.959	66.118	-0.323	0.330
-659.945	-6.904	0.165	0.113
-658.930	-0.599	-0.179	-0.128
-657.916	7.486	-0.234	-0.176
-656.901	394.917	-0.065	0.135
-655.886	-73.655	0.155	0.057
-654.872	-79.925	0.382	0.129
-653.857	-200.000	-0.036	-0.295
-652.843	-71.368	0.232	0.087
-651.828	-18.702	0.094	0.059
-650.814	-200.000	-0.072	-0.442
-649.799	41.166	-0.238	0.216
-648.784	-52.578	0.051	-0.024
-647.770	-31.203	-0.315	0.179
-646.755	800.000	-0.090	0.259
-645.741	13.870	-0.164	0.128
-644.726	525.325	-0.117	-0.276
-643.711	744.461	-0.114	0.308
-642.697	7.616	-0.128	0.097
-641.682	482.464	0.048	0.110
-640.668	560.774	0.227	0.551
-639.653	530.747	-0.028	-0.067
-638.638	31.247	-0.122	-0.106
-637.624	-153.155	0.211	0.015
-636.609	800.000	0.098	0.348
-635.595	-38.126	-0.089	0.048
-634.580	-200.000	0.019	-0.239
-633.565	25.902	-0.201	-0.168
-632.551	174.677	-0.202	-0.294
-631.536	81.861	-0.124	0.135
-630.522	-48.561	-0.020	0.010
-629.507	-10.609	-0.244	-0.162
-628.492	-104.092	0.300	0.070
-627.478	61.452	0.076	-0.076
-626.463	264.024	-0.100	-0.175
-625.449	-200.000	-0.015	-0.216
-624.434	-200.000	0.025	-0.358
-623.419	-200.000	0.008	-0.074
-622.405	11.863	-0.100	0.077
-621.390	-19.817	0.240	-0.149
-620.376	-21.474	0.135	-0.082
-619.361	-33.934	0.229	-0.127
-618.346	-200.000	-0.020	0.157
-617.332	269.311	-0.070	0.123
-616.317	3.557	-0.306	-0.224
-615.303	127.997	0.089	0.114
-614.288	26.695	-0.115	0.097
-613.273	-115.295	-0.671	-0.127
-612.259	-200.000	-0.016	-0.137
-611.244	3.769	0.091	-0.067
-610.230	-159.516	-0.141	0.008
-609.215	-200.000	0.052	0.461
-608.201	18.867	-0.062	-0.050
-607.186	-58.040	0.337	-0.148
-606.171	-199.621	-0.289	-0.001
-605.157	-11.922	0.073	0.048
-604.142	476.647	-0.080	-0.181
-603.128	-17.983	0.263	-0.165
-602.113	800.000	-0.104	0.336
-601.098	-200.000	-0.028	0.148
-600.084	800.000	0.051	0.185
-599.069	-59.177	-0.270	-0.117
-598.055	133.744	-0.262	-0.340
-597.040	300.374	-0.103	0.190
-596.025	-3.538	0.081	-0.056
-595.011	-200.000	0.018	0.232
-593.996	244.730	-0.022	0.037
-592.982	68.894	-0.088	-0.091
-591.967	96.893	0.026	-0.030
-590.952	19.853	0.155	-0.125
-589.938	108.736	-0.163	0.195
-588.923	44.933	0.135	-0.125
-587.909	292.268	-0.095	-0.174
-586.894	557.902	0.068	-0.166
-585.879	244.434	0.080	-0.134
-584.865	800.000	-0.108	-0.429
-583.850	36.983	0.385	-0.341
-582.836	800.000	-0.070	-0.305
-581.821	-107.679	0.091	0.020
-580.806	-3.125	0.031	0.021
-579.792	800.000	0.062	0.237
-578.777	800.000	-0.132	0.393
-577.763	-4.046	0.246	0.171
-576.748	-200.000	0.008	-0.072
-575.733	-73.844	0.226	-0.082
-574.719	-75.420	-0.427	-0.152
-573.704	-69.226	0.356	-0.137
-572.690	97.477	0.101	0.116
-571.675	53.547	0.188	-0.181
-570.661	53.894	0.129	0.124
-569.646	-29.100	-0.199	-0.114
-568.631	-43.524	-0.084	-0.042
-567.617	800.000	0.095	-0.273
-566.602	-84.602	-0.269	-0.085
-565.588	-2.874	0.404	-0.283
-564.573	-76.993	0.125	-0.044
-563.558	676.315	-0.083	-0.216
-562.544	-200.000	0.042	-0.209
-561.529	-200.000	-0.066	-0.461
-560.515	-100.141	0.018	-0.004
-559.500	359.873	-0.040	-0.079
-558.485	91.481	0.149	0.167
-557.471	-4.266	-0.130	-0.090
-556.456	14.216	-0.147	0.115
-555.442	800.000	-0.048	0.154
-554.427	-48.316	-0.444	0.214
-553.412	476.478	0.076	-0.173
-552.398	-200.000	-0.053	-0.475
-551.383	-18.452	-0.409	0.256
-550.369	-144.188	0.296	-0.028
-549.354	-104.197	-0.239	0.056
-548.339	-29.584	-0.128	-0.073
-547.325	625.968	-0.019	0.048
-546.310	-43.204	0.108	-0.055
-545.296	-64.155	0.140	0.057
-544.281	-200.000	-0.026	0.196
-543.266	-58.441	0.131	-0.057
-542.252	-74.831	0.227	0.082
-541.237	-93.063	-0.244	0.068
-540.223	73.949	0.151	0.158
-539.208	150.200	0.341	-0.463
-538.193	-200.000	0.002	-0.145
-537.179	128.712	-0.282	-0.360
-536.164	-184.941	-0.120	-0.002
-535.150	97.291	0.104	0.119
-534.135	-117.096	-0.389	0.071
-533.121	176.370	0.168	-0.244
-532.106	800.000	0.199	0.591
-531.091	-200.000	-0.019	-0.319
-530.077	-132.151	-0.073	-0.009
-529.062	294.987	0.127	-0.233
-528.048	800.000	-0.063	-0.193
-527.033	-92.843	0.316	0.088
-526.018	-146.348	-0.068	0.006
-525.004	247.373	-0.083	-0.140
-523.989	75.495	0.070	-0.074
-522.975	800.000	-0.043	0.143
-521.960	58.071	0.277	-0.272
-520.945	114.584	-0.092	0.113
-519.931	-44.764	0.145	0.072
-518.916	800.000	0.032	-0.137
-517.902	-43.881	-0.153	-0.077
-516.887	59.482	0.143	-0.141
-515.872	-140.587	-0.102	0.011
-514.858	800.000	0.073	0.208
-513.843	119.788	0.029	-0.036
-512.829	-181.583	-0.283	-0.005
-511.814	193.902	-0.089	0.135
-510.799	800.000	0.080	0.249
-509.785	695.457	-0.132	-0.345
-508.770	313.485	-0.104	-0.195
-507.756	-200.000	-0.010	-0.079
-506.741	-200.000	-0.005	-0.069
-505.726	-136.330	-0.313	-0.036
-504.712	-162.364	0.161	0.008
-503.697	-200.000	0.033	0.194
-502.683	-92.471	-0.210	-0.059
-501.668	85.950	0.040	0.044
-500.653	-200.000	0.006	-0.097
-499.639	-97.235	-0.233	-0.061
-498.624	-102.769	-0.095	0.023
-497.610	199.887	-0.120	0.185
-496.595	-120.625	-0.060	0.010
-495.581	-200.000	0.002	0.258
-494.566	595.070	0.141	0.348
-493.551	-10.061	0.204	0.136
-492.537	800.000	0.139	-0.401
-491.522	-124.557	0.211	0.033
-490.508	97.408	-0.279	0.320
-489.493	373.287	-0.069	0.139
-488.478	1.370	0.057	-0.041
-487.464	589.600	-0.063	-0.154
-486.449	-94.352	-0.127	0.035
-485.435	800.000	-0.069	-0.201
-484.420	-200.000	-0.015	-0.172
-483.405	22.108	-0.071	-0.058
-482.391	185.108	-0.125	-0.185
-481.376	-185.346	0.263	0.004
-480.362	-200.000	-0.049	-0.325
-479.347	87.710	-0.356	-0.393
-478.332	-126.622	0.082	0.012
-477.318	-200.000	-0.002	-0.065
-476.303	-57.595	0.258	-0.113
-475.289	800.000	0.088	0.346
-474.274	334.512	-0.190	-0.366
-473.259	800.000	-0.032	0.101
-472.245	-160.696	-0.126	0.007
-471.230	364.026	-0.127	0.254
-470.216	-200.000	0.012	0.172
-469.201	-200.000	-0.017	-0.206
-468.186	-70.791	0.176	0.066
-467.172	800.000	0.107	-0.387
-466.157	212.309	0.159	0.250
-465.143	77.172	-0.029	-0.031
-464.128	-200.000	-0.022	-0.215
-463.113	-200.000	0.048	-0.324
-462.099	-76.097	0.212	0.075
-461.084	19.524	-0.179	0.144
-460.070	800.000	0.025	-0.086
-459.055	305.773	0.037	0.069
-458.040	359.035	0.144	0.287
-457.026	-200.000	0.032	0.159
-456.011	-99.119	-0.256	-0.065
-454.997	197.281	0.153	0.233
-453.982	-47.119	0.131	-0.064
-452.968	-64.115	-0.221	0.090
-451.953	101.674	0.168	-0.195
-450.938	365.292	0.082	-0.165
-449.924	-200.000	0.002	0.014
-448.909	201.506	0.153	0.236
-447.895	56.026	0.091	0.088
-446.880	-200.000	-0.001	-0.297
-445.865	284.029	-0.033	0.059
-444.851	-179.049	0.240	0.005
-443.836	-135.041	-0.141	-0.017
-442.822	800.000	-0.064	0.191
-441.807	-200.000	0.077	0.341
-440.792	358.684	0.161	0.320
-439.778	800.000	-0.088	-0.249
-438.763	536.652	-0.030	-0.072
-437.749	-14.522	0.110	0.071
-436.734	116.395	-0.264	-0.323
-435.719	-200.000	0.000	-0.016
-434.705	-39.241	0.092	-0.048
-433.690	-15.710	-0.312	-0.198
-432.676	-88.120	-0.268	-0.080
-431.661	-126.365	-0.382	0.057
-430.646	-137.469	-0.298	-0.034
-429.632	31.657	-0.239	0.205
-428.617	-45.939	-0.246	-0.121
-427.603	-80.242	-0.131	0.044
-426.588	-200.000	0.015	0.091
-425.573	-86.360	-0.198	0.061
-424.559	202.130	-0.196	0.301
-423.544	-181.461	-0.358	-0.007
-422.530	129.960	0.116	0.149
-421.515	235.669	0.123	-0.202
-420.500	149.077	0.145	-0.196
-419.486	-122.121	0.217	0.035
-418.471	-22.495	-0.144	-0.087
-417.457	-200.000	-0.044	0.231
-416.442	-200.000	-0.036	-0.209
-415.428	-200.000	-0.004	-0.102
-414.413	56.725	-0.263	0.255
-413.398	45.918	-0.109	0.100
-412.384	-200.000	-0.001	-0.188
-411.369	80.936	-0.148	0.159
-410.355	-132.741	0.139	0.018
-409.340	800.000	0.043	0.143
-408.325	-44.963	-0.116	-0.058
-407.311	133.044	0.077	-0.099
-406.296	304.060	0.180	0.332
-405.282	485.350	-0.107	0.242
-404.267	-200.000	-0.013	0.105
-403.252	-26.869	-0.285	-0.166
-402.238	39.336	0.082	0.073
-401.223	728.531	0.112	-0.299
-400.209	800.000	0.077	-0.332
-399.194	-99.621	-0.426	0.106
-398.179	-113.398	0.364	-0.071
-397.165	-200.000	0.068	0.302
-396.150	90.095	0.157	-0.175
-395.136	-13.399	-0.143	-0.092
-394.121	-95.317	0.070	-0.019
-393.106	-28.019	0.177	-0.102
-392.092	143.744	0.107	-0.141
-391.077	-200.000	0.057	-0.273
-390.063	-200.000	0.007	-0.149
-389.048	154.745	0.124	0.169
-388.033	349.637	-0.051	-0.100
-387.019	603.315	0.027	0.068
-386.004	652.827	0.029	-0.074
-384.990	800.000	-0.043	-0.162
-383.975	82.950	-0.204	-0.221
-382.960	2.379	0.080	-0.057
-381.946	-200.000	-0.012	-0.228
-380.931	39.858	-0.070	-0.062
-379.917	43.211	0.078	0.071
-378.902	472.709	-0.023	-0.051
-377.888	-19.033	-0.116	0.072
-376.873	800.000	0.040	-0.173
-375.858	218.565	-0.287	-0.457
-374.844	-200.000	-0.002	-0.089
-373.829	-59.075	0.353	0.151
-372.815	27.920	-0.380	-0.318
-371.800	-200.000	0.045	-0.251
-370.785	-163.853	0.354	0.016
-369.771	129.379	0.115	0.146
-368.756	-200.000	0.001	-0.151
-367.742	-64.259	0.194	-0.078
-366.727	320.142	0.176	-0.332
-365.712	81.913	-0.241	-0.259
-364.698	33.086	-0.067	-0.058
-363.683	-22.695	-0.083	0.050
-362.669	666.846	0.103	0.266
-361.654	-10.562	-0.167	-0.110
-360.639	-152.127	-0.175	-0.013
-359.625	-200.000	0.008	-0.123
-358.610	-200.000	0.033	0.197
-357.596	-25.647	-0.351	0.206
-356.581	-71.036	0.173	0.065
-355.566	-167.816	-0.147	-0.006
-354.552	58.859	0.171	-0.167
-353.537	-189.139	0.279	0.003
-352.523	-32.909	0.044	-0.024
-351.508	-16.488	0.142	-0.089
-350.493	57.803	-0.205	-0.199
-349.479	800.000	-0.028	-0.112
-348.464	116.663	-0.127	-0.155
-347.450	294.698	-0.100	-0.181
-346.435	354.984	-0.153	0.302
-345.420	-54.394	0.230	-0.104
-344.406	-200.000	-0.021	0.174
-343.391	54.389	0.144	0.138
-342.377	-99.665	-0.123	0.031
-341.362	317.569	-0.176	-0.331
-340.348	-54.199	0.257	0.116
-339.333	-84.407	0.120	-0.038
-338.318	-162.857	0.252	-0.012
-337.304	190.443	0.022	-0.033
-336.289	-64.658	0.184	-0.074
-335.275	-200.000	-0.009	-0.075
-334.260	-152.550	-0.271	0.019
-333.245	-33.805	-0.193	0.105
-332.231	-187.341	-0.453	0.006
-331.216	-112.516	0.378	-0.075
-330.202	250.929	-0.099	0.168
-329.187	-200.000	-0.023	-0.117
-328.172	800.000	-0.048	-0.165
-327.158	-126.566	0.165	-0.024
-326.143	259.946	0.073	-0.125
-325.129	-200.000	0.002	0.112
-324.114	712.941	-0.073	0.192
-323.099	-48.525	-0.107	-0.051
-322.085	-146.917	0.129	-0.011
-321.070	126.575	0.134	0.168
-320.056	405.832	0.116	0.243
-319.041	381.930	0.094	0.192
-318.026	159.449	0.077	0.107
-317.012	-131.814	-0.062	0.008
-315.997	115.699	-0.136	-0.165
-314.983	-64.117	-0.134	-0.054
-313.968	296.679	-0.043	0.078
-312.953	-49.273	-0.441	-0.209
-311.939	-34.121	0.144	0.079
-310.924	10.060	-0.140	-0.106
-309.910	10.171	-0.220	-0.166
-308.895	-87.023	-0.121	0.037
-307.880	-77.940	-0.122	-0.042
-306.866	171.654	0.120	0.171
-305.851	104.315	0.039	-0.045
-304.837	-200.000	0.004	0.311
-303.822	-174.507	-0.109	0.003
-302.807	-146.760	0.530	0.045
-301.793	-74.933	-0.343	-0.122
-300.778	-200.000	-0.001	0.060
-299.764	-37.656	0.278	0.147
-298.749	-72.685	0.268	-0.098
-297.735	-200.000	0.227	0.001
-296.720	-200.000	-0.016	-0.178
-295.705	-200.000	-0.064	0.450
-294.691	55.361	-0.160	-0.154
-293.676	-16.615	0.068	0.043
-292.662	-200.000	-0.014	0.442
-291.647	-200.000	-0.034	-0.180
-290.632	-12.386	-0.138	0.090
-289.618	800.000	-0.058	0.235
-288.603	468.972	0.048	0.106
-287.589	800.000	-0.109	-0.349
-286.574	-18.409	-0.108	0.067
-285.559	25.536	0.056	-0.046
-284.545	42.769	0.154	-0.139
-283.530	34.745	-0.196	0.170
-282.516	188.792	-0.074	0.110
-281.501	127.742	-0.219	0.275
-280.486	-68.596	0.168	0.064
-279.472	102.718	0.017	-0.020
-278.457	50.438	-0.359	0.336
-277.443	800.000	0.125	0.380
-276.428	234.738	0.065	0.106
-275.413	-200.000	0.018	0.284
-274.399	-200.000	0.014	0.178
-273.384	11.666	0.164	-0.125
-272.370	69.567	0.243	-0.248
-271.355	-127.630	-0.119	0.017
-270.340	-200.000	-0.010	-0.091
-269.326	-200.000	0.127	0.001
-268.311	81.751	0.098	-0.105
-267.297	-200.000	-0.008	0.040
-266.282	-87.331	-0.225	0.068
-265.267	73.011	0.112	0.116
-264.253	-90.123	0.113	0.033
-263.238	49.218	-0.102	0.095
-262.224	-82.516	0.243	-0.078
-261.209	-129.519	0.290	0.040
-260.195	-200.000	-0.034	0.194
-259.180	-20.695	0.298	0.181
-258.165	-83.590	-0.075	-0.024
-257.151	179.523	-0.099	-0.143
-256.136	800.000	-0.082	-0.226
-255.122	-200.000	-0.040	0.191
-254.107	343.309	0.153	0.296
-253.092	-94.884	-0.249	-0.067
-252.078	0.318	-0.155	0.110
-251.063	-126.982	0.191	-0.028
-250.049	13.936	-0.131	0.101
-249.034	164.301	-0.083	0.116
-248.019	35.305	0.058	-0.050
-247.005	-51.966	0.260	0.119
-245.990	-27.095	-0.014	0.008
-244.976	26.720	0.080	-0.066
-243.961	77.449	0.125	-0.131
-242.946	-185.376	0.087	0.001
-241.932	-139.129	0.317	-0.034
-240.917	800.000	-0.105	-0.346
-239.903	-12.182	0.090	0.058
-238.888	0.438	-0.084	0.059
-237.873	-89.250	0.217	-0.063
-236.859	800.000	-0.024	-0.088
-235.844	800.000	-0.064	0.266
-234.830	-35.303	-0.108	-0.058
-233.815	301.965	-0.107	-0.196
-232.800	134.551	0.050	0.064
-231.786	-38.571	0.197	0.103
-230.771	-36.539	-0.142	0.075
-229.757	-117.412	0.344	-0.062
-228.742	-200.000	-0.015	-0.134
-227.727	-23.629	0.454	-0.269
-226.713	800.000	-0.029	-0.112
-225.698	-121.330	-0.133	-0.022
-224.684	-97.793	-0.234	0.060
-223.669	140.245	0.147	-0.192
-222.655	-123.388	0.347	-0.055
-221.640	800.000	-0.022	0.075
-220.625	-109.225	0.030	0.006
-219.611	91.461	0.102	-0.114
-218.596	-200.000	0.009	0.269
-217.582	-200.000	0.043	0.326
-216.567	64.234	-0.167	0.166
-215.552	-81.797	0.537	0.174
-214.538	-19.222	0.226	0.139
-213.523	800.000	0.056	0.210
-212.509	-200.000	-0.024	0.206
-211.494	-200.000	0.038	0.246
-210.479	800.000	0.024	0.066
-209.465	28.055	-0.106	0.088
-208.450	-69.617	-0.219	0.083
-207.436	-132.316	0.059	-0.008
-206.421	234.436	0.027	-0.044
-205.406	800.000	0.026	0.111
-204.392	800.000	-0.069	0.255
-203.377	800.000	0.036	-0.121
-202.363	-200.000	0.014	0.197
-201.348	-86.388	-0.168	-0.051
-200.333	-30.556	0.189	0.106
-199.319	-121.129	0.119	0.020
-198.304	-200.000	-0.177	0.000
-197.290	-54.555	-0.132	-0.059
-196.275	-200.000	0.032	0.254
-195.260	-139.915	0.377	0.039
-194.246	-200.000	0.063	0.473
-193.231	-200.000	-0.044	0.412
-192.217	-58.625	-0.051	-0.022
-191.202	-97.764	-0.068	-0.017
-190.187	-156.332	0.309	0.019
-189.173	-135.736	0.301	0.035
-188.158	-38.968	0.214	0.111
-187.144	-33.957	0.364	0.198
-186.129	-87.569	-0.112	-0.034
-185.114	171.372	-0.154	0.218
-184.100	6.997	-0.201	0.148
-183.085	-200.000	0.033	-0.142
-182.071	-113.858	-0.210	-0.040
-181.056	598.188	0.077	-0.189
-180.042	-95.344	0.075	0.020
-179.027	-93.535	-0.170	0.046
-178.012	-36.032	0.149	0.080
-176.998	129.504	-0.088	0.111
-175.983	-2.350	0.229	0.159
-174.969	-50.446	0.243	-0.113
-173.954	552.276	-0.136	0.322
-172.939	800.000	-0.074	0.260
-171.925	-140.938	0.163	-0.016
-170.910	-24.396	-0.284	0.167
-169.896	418.100	0.077	0.163
-168.881	37.831	-0.339	0.297
-167.866	-49.616	0.263	0.123
-166.852	384.202	-0.087	0.176
-165.837	9.960	-0.176	-0.132
-164.823	800.000	-0.044	0.134
-163.808	42.111	0.248	0.223
-162.793	243.931	0.051	0.085
-161.779	-166.935	-0.440	0.018
-160.764	800.000	-0.133	-0.505
-159.750	21.138	0.381	-0.305
-158.735	116.920	-0.229	0.278
-157.720	115.992	0.093	0.113
-156.706	68.178	0.143	-0.144
-155.691	-186.436	0.346	0.005
-154.677	800.000	-0.039	-0.160
-153.662	-14.162	0.176	-0.112
-152.647	-200.000	0.048	-0.335
-151.633	-90.432	0.424	-0.121
-150.618	-28.398	-0.156	-0.089
-149.604	92.135	-0.254	-0.283
-148.589	8.271	-0.368	0.273
-147.574	-173.103	-0.161	0.005
-146.560	-94.964	-0.349	0.093
-145.545	753.619	0.017	0.044
-144.531	800.000	0.119	0.415
-143.516	93.252	0.330	0.368
-142.502	-127.853	-0.164	0.023
-141.487	-200.000	-0.098	-0.482
-140.472	66.638	0.143	-0.144
-139.458	-200.000	-0.037	0.302
-138.443	635.665	-0.092	-0.231
-137.429	0.806	0.220	-0.155
-136.414	-147.267	-0.342	0.029
-135.399	-50.653	-0.390	-0.181
-134.385	-158.783	-0.078	-0.004
-133.370	-200.000	0.018	0.234
-132.356	8.537	0.104	0.077
-131.341	800.000	-0.029	0.122
-130.326	800.000	0.052	-0.153
-129.312	53.485	-0.254	-0.240
-128.297	165.601	0.022	-0.030
-127.283	356.082	0.078	-0.153
-126.268	-73.385	0.183	0.066
-125.253	426.140	-0.149	-0.316
-124.239	-175.429	-0.170	-0.005
-123.224	45.288	0.152	-0.138
-122.210	110.500	0.129	-0.152
-121.195	176.108	-0.174	0.249
