DTS Sentinel unit serial number:	SN413079Multiplexer serial number:	ORYXHardware model number:	OX4-SRSoftware version number:	ORYX F/W v4.00 Oryx Data Collector v3.7.2.0data status	okinstallation	princeton_trtdifferential loss correction	single-endedforward channel	channel 1reverse channel	N/Adate	2019/09/14time	03:50:35forward acquisition time	60.00reverse acquisition time	0.00gamma	496.2192k internal	0.2336k external	0.2336temperature offset calibration	1.0075default loss term (dB/km)	0.3790temperature slope calibration	1.0000multiplexer offset coefficient	1.0000multiplexer slope coefficient	1.0000fibre end	0.00T internal ref (°C)	26.67T ext. ref 1 (°C)	3.30T ext. ref 2 (°C)	21.66length (m)	temperature (°C)	Stokes	anti-Stokes-747.200	112.881	0.178	0.216
-746.185	638.057	-0.163	0.415
-745.171	-36.177	0.312	-0.169
-744.156	-43.997	-0.202	-0.102
-743.142	-200.000	-0.023	-0.176
-742.127	-94.432	0.117	-0.032
-741.112	-120.240	0.402	0.069
-740.098	201.057	-0.099	0.153
-739.083	800.000	-0.080	0.294
-738.069	-155.767	-0.275	0.018
-737.054	-200.000	0.018	-0.093
-736.039	488.124	-0.131	-0.299
-735.025	-113.514	0.295	0.058
-734.010	165.414	-0.094	-0.133
-732.996	-200.000	0.006	0.074
-731.981	800.000	-0.047	0.208
-730.966	-200.000	0.020	0.359
-729.952	443.250	-0.143	-0.316
-728.937	-200.000	0.001	0.078
-727.923	84.517	-0.165	-0.181
-726.908	26.675	-0.132	0.111
-725.894	-17.954	-0.559	-0.352
-724.879	218.169	0.177	0.283
-723.864	252.874	-0.051	-0.087
-722.850	299.700	-0.054	-0.100
-721.835	127.757	-0.050	-0.064
-720.821	-100.731	0.420	-0.104
-719.806	203.102	-0.139	-0.216
-718.791	14.818	-0.035	0.027
-717.777	740.410	-0.105	0.282
-716.762	-114.747	-0.379	0.073
-715.748	18.371	-0.148	-0.118
-714.733	-200.000	-0.015	-0.256
-713.718	-53.561	-0.184	-0.084
-712.704	27.573	0.180	-0.152
-711.689	800.000	0.036	-0.119
-710.675	800.000	0.123	-0.446
-709.660	-96.919	0.522	0.137
-708.645	-200.000	-0.031	-0.225
-707.631	-82.765	0.263	-0.085
-706.616	-200.000	-0.017	0.150
-705.602	-200.000	-0.003	-0.115
-704.587	55.031	-0.186	-0.180
-703.572	162.567	-0.276	-0.388
-702.558	273.305	-0.091	0.162
-701.543	-111.840	0.227	-0.046
-700.529	113.403	-0.227	0.277
-699.514	800.000	0.048	0.193
-698.499	-132.771	0.240	0.031
-697.485	-200.000	0.010	0.058
-696.470	-131.323	-0.115	0.015
-695.456	-200.000	0.002	0.107
-694.441	-19.924	-0.131	0.081
-693.426	-34.454	-0.182	-0.100
-692.412	-118.199	-0.081	0.014
-691.397	47.114	-0.066	-0.061
-690.383	-200.000	-0.000	-0.219
-689.368	28.996	0.158	0.135
-688.354	-200.000	0.003	0.188
-687.339	-64.300	0.156	-0.063
-686.324	165.680	-0.162	-0.229
-685.310	-67.845	-0.167	0.065
-684.295	-200.000	0.006	-0.118
-683.281	102.259	0.111	0.130
-682.266	398.980	-0.076	0.160
-681.251	-200.000	0.018	0.138
-680.237	-166.833	-0.438	-0.018
-679.222	-112.346	-0.331	0.066
-678.208	-52.536	-0.288	-0.133
-677.193	359.233	-0.089	-0.177
-676.178	247.522	0.168	-0.284
-675.164	-44.098	0.226	0.114
-674.149	143.916	-0.219	0.292
-673.135	-115.236	0.372	-0.070
-672.120	8.871	-0.273	0.206
-671.105	-200.000	0.015	-0.220
-670.091	21.541	0.178	0.145
-669.076	-200.000	0.028	0.152
-668.062	-187.853	-0.435	0.006
-667.047	-122.380	-0.353	-0.058
-666.032	-18.266	-0.189	-0.118
-665.018	-37.241	0.170	-0.091
-664.003	44.321	-0.075	-0.069
-662.989	-149.664	-0.489	-0.039
-661.974	-200.000	-0.020	0.296
-660.959	457.776	-0.089	0.198
-659.945	-140.716	-0.248	0.026
-658.930	-169.783	-0.205	-0.007
-657.916	-200.000	0.019	0.129
-656.901	62.733	-0.032	-0.032
-655.886	-200.000	0.019	0.096
-654.872	800.000	-0.071	-0.205
-653.857	490.384	0.014	-0.031
-652.843	74.793	-0.034	-0.036
-651.828	81.219	0.111	-0.120
-650.814	-85.171	-0.117	0.037
-649.799	45.241	0.132	0.122
-648.784	81.434	-0.261	-0.283
-647.770	50.131	-0.476	0.450
-646.755	-148.956	0.013	-0.001
-645.741	313.626	0.164	-0.309
-644.726	-48.264	-0.311	-0.150
-643.711	800.000	0.088	-0.248
-642.697	-200.000	0.003	-0.087
-641.682	-76.643	0.164	-0.057
-640.668	-200.000	0.034	0.223
-639.653	-192.137	0.305	-0.003
-638.638	-200.000	0.016	-0.188
-637.624	165.515	0.189	-0.267
-636.609	235.259	-0.121	-0.200
-635.595	-43.727	-0.180	-0.091
-634.580	89.025	0.202	-0.225
-633.565	70.711	-0.159	0.164
-632.551	800.000	-0.050	0.203
-631.536	-50.177	0.265	0.126
-630.522	44.001	-0.363	0.333
-629.507	-29.363	0.230	-0.132
-628.492	230.494	-0.143	-0.233
-627.478	800.000	0.083	-0.341
-626.463	-17.304	0.270	-0.170
-625.449	-32.170	-0.169	-0.094
-624.434	592.801	0.136	-0.335
-623.419	-162.162	0.238	0.012
-622.405	-200.000	-0.012	0.128
-621.390	-200.000	0.011	-0.313
-620.376	86.632	0.201	-0.222
-619.361	-40.002	-0.096	-0.050
-618.346	-200.000	0.003	-0.061
-617.332	601.450	-0.113	-0.281
-616.317	800.000	-0.099	0.423
-615.303	-129.297	0.198	-0.028
-614.288	182.675	0.135	0.199
-613.273	-41.516	-0.349	0.179
-612.259	281.909	0.125	-0.224
-611.244	357.037	-0.158	0.315
-610.230	214.876	-0.109	-0.172
-609.215	28.954	-0.085	-0.072
-608.201	-200.000	0.001	0.209
-607.186	-162.881	0.115	-0.006
-606.171	-85.184	0.082	0.026
-605.157	-62.455	0.387	0.161
-604.142	32.695	0.021	0.018
-603.128	-139.313	-0.105	-0.011
-602.113	-16.611	-0.265	-0.167
-601.098	-172.928	0.198	0.006
-600.084	-76.150	0.114	-0.040
-599.069	583.108	0.102	0.251
-598.055	-133.207	-0.075	0.010
-597.040	-75.374	-0.158	-0.056
-596.025	1.705	-0.157	-0.113
-595.011	-94.526	-0.288	-0.078
-593.996	11.608	0.262	0.201
-592.982	-67.807	-0.152	-0.059
-591.967	-90.326	0.314	0.091
-590.952	9.816	-0.332	0.252
-589.938	-200.000	0.038	0.198
-588.923	800.000	0.047	0.190
-587.909	-111.027	0.136	0.028
-586.894	-148.073	0.320	0.026
-585.879	-17.692	0.191	-0.120
-584.865	-62.581	0.256	-0.106
-583.850	312.333	0.094	0.176
-582.836	-200.000	0.047	0.298
-581.821	101.845	-0.043	0.050
-580.806	46.890	-0.089	-0.082
-579.792	95.665	0.097	-0.110
-578.777	-91.476	-0.058	0.017
-577.763	179.924	0.061	0.089
-576.748	-26.109	0.093	0.054
-575.733	-72.025	-0.282	-0.105
-574.719	35.803	-0.306	0.269
-573.704	-200.000	-0.039	0.344
-572.690	-33.785	-0.065	-0.036
-571.675	-200.000	0.007	-0.051
-570.661	122.548	0.083	-0.103
-569.646	132.900	-0.103	0.133
-568.631	17.260	-0.316	0.250
-567.617	-200.000	-0.047	0.213
-566.602	-200.000	0.039	0.456
-565.588	-164.493	0.094	-0.004
-564.573	269.400	-0.121	0.212
-563.558	800.000	-0.074	-0.247
-562.544	-47.747	0.093	-0.045
-561.529	209.933	0.118	0.184
-560.515	377.238	0.085	-0.173
-559.500	-200.000	0.019	-0.108
-558.485	-130.766	0.377	0.050
-557.471	800.000	0.043	-0.166
-556.456	-200.000	-0.013	-0.079
-555.442	-200.000	0.054	-0.266
-554.427	-45.639	0.339	-0.167
-553.412	-135.591	0.270	-0.032
-552.398	444.308	0.169	0.369
-551.383	-63.030	0.200	-0.082
-550.369	117.045	0.267	-0.327
-549.354	-137.894	0.323	-0.036
-548.339	-32.254	-0.057	-0.032
-547.325	800.000	0.063	0.221
-546.310	-33.028	0.233	-0.129
-545.296	-77.103	-0.094	0.033
-544.281	-2.182	-0.344	0.241
-543.266	205.101	-0.173	0.267
-542.252	43.129	-0.102	-0.093
-541.237	333.319	0.069	-0.132
-540.223	-122.476	0.168	-0.027
-539.208	422.892	-0.032	-0.069
-538.193	21.217	0.161	0.131
-537.179	96.052	0.187	-0.213
-536.164	20.248	-0.054	0.044
-535.150	104.729	0.103	-0.121
-534.135	-200.000	-0.017	-0.133
-533.121	525.164	0.192	-0.451
-532.106	-87.668	0.285	0.086
-531.091	395.669	-0.081	-0.168
-530.077	-7.712	0.091	0.061
-529.062	-42.710	-0.190	-0.096
-528.048	474.224	-0.103	0.231
-527.033	-200.000	-0.007	0.231
-526.018	-200.000	-0.025	0.299
-525.004	26.214	0.146	0.122
-523.989	92.088	-0.130	0.146
-522.975	461.058	0.118	-0.261
-521.960	-73.656	-0.251	0.091
-520.945	-200.000	0.038	-0.184
-519.931	105.891	0.128	-0.151
-518.916	-34.131	0.069	0.038
-517.902	84.011	-0.287	-0.312
-516.887	-13.120	0.351	-0.227
-515.872	162.407	-0.167	-0.233
-514.858	-68.420	-0.249	0.096
-513.843	-23.971	0.108	-0.064
-512.829	388.444	-0.130	-0.268
-511.814	800.000	-0.124	-0.345
-510.799	200.609	-0.217	0.331
-509.785	-120.827	-0.088	0.015
-508.770	800.000	0.059	0.193
-507.756	-200.000	-0.015	0.072
-506.741	-200.000	0.025	0.131
-505.726	-200.000	-0.001	-0.331
-504.712	-73.459	-0.178	0.065
-503.697	734.659	-0.134	-0.358
-502.683	-46.023	0.444	0.218
-501.668	-102.608	0.122	0.029
-500.653	-78.133	0.023	0.008
-499.639	-51.872	-0.100	0.046
-498.624	800.000	-0.068	0.210
-497.610	20.342	0.226	-0.181
-496.595	348.751	-0.160	-0.313
-495.581	63.149	-0.050	-0.050
-494.566	-56.903	0.084	-0.037
-493.551	-71.346	0.081	0.030
-492.537	89.418	0.125	-0.138
-491.522	-111.629	-0.171	0.035
-490.508	274.301	-0.042	0.074
-489.493	-59.013	-0.221	-0.095
-488.478	-200.000	0.051	-0.278
-487.464	716.631	-0.107	0.283
-486.449	800.000	-0.141	-0.422
-485.435	187.729	0.024	-0.036
-484.420	30.008	-0.151	0.128
-483.405	-113.300	-0.138	0.027
-482.391	-200.000	-0.025	0.222
-481.376	-28.760	0.118	-0.067
-480.362	19.764	-0.311	-0.249
-479.347	800.000	-0.106	0.302
-478.332	-87.880	-0.231	0.069
-477.318	-62.220	0.372	0.154
-476.303	232.170	-0.107	0.174
-475.289	532.582	-0.047	0.110
-474.274	-34.867	0.139	-0.076
-473.259	112.626	-0.345	0.415
-472.245	-173.088	0.171	0.005
-471.230	-189.881	-0.167	-0.002
-470.216	800.000	0.034	-0.096
-469.201	565.780	0.035	0.085
-468.186	800.000	0.089	0.273
-467.172	-56.190	-0.072	-0.032
-466.157	-122.826	0.448	-0.072
-465.143	-33.799	-0.093	-0.051
-464.128	551.519	0.029	0.070
-463.113	39.771	-0.006	0.006
-462.099	800.000	0.020	-0.079
-461.084	44.776	-0.209	-0.191
-460.070	-63.956	0.050	-0.020
-459.055	-51.983	0.247	-0.114
-458.040	346.006	0.056	-0.110
-457.026	-200.000	-0.002	0.191
-456.011	-90.768	0.219	0.063
-454.997	-200.000	-0.012	-0.410
-453.982	-2.607	0.105	-0.073
-452.968	-152.294	0.375	0.027
-451.953	-132.158	0.150	0.019
-450.938	213.853	0.082	0.129
-449.924	17.145	-0.102	-0.080
-448.909	26.991	0.080	0.066
-447.895	-200.000	0.003	-0.236
-446.880	-110.109	-0.043	0.009
-445.865	-167.380	-0.168	0.007
-444.851	61.336	0.150	-0.148
-443.836	800.000	-0.072	-0.300
-442.822	7.832	-0.289	0.215
-441.807	179.957	0.221	0.322
-440.792	-72.821	-0.263	-0.096
-439.778	-97.299	0.158	0.041
-438.763	-200.000	0.003	-0.035
-437.749	-71.195	0.199	-0.074
-436.734	151.700	0.035	-0.048
-435.719	8.958	0.402	0.301
-434.705	-61.362	0.144	-0.060
-433.690	420.811	-0.129	-0.275
-432.676	-200.000	-0.023	-0.125
-431.661	-200.000	-0.002	0.230
-430.646	-133.599	0.102	0.013
-429.632	-132.813	-0.067	-0.008
-428.617	-200.000	0.062	-0.420
-427.603	-75.333	0.167	-0.059
-426.588	800.000	-0.059	-0.223
-425.573	-125.109	0.148	-0.023
-424.559	-96.530	-0.104	-0.027
-423.544	137.872	0.136	0.177
-422.530	-131.770	0.406	0.053
-421.515	222.086	-0.058	0.092
-420.500	688.641	-0.063	0.162
-419.486	-137.953	-0.086	-0.009
-418.471	-186.684	0.067	0.001
-417.457	800.000	0.046	-0.161
-416.442	425.335	-0.091	0.194
-415.428	800.000	0.015	0.050
-414.413	1.990	-0.252	0.180
-413.398	800.000	-0.036	0.115
-412.384	-116.364	0.232	0.042
-411.369	-169.284	-0.179	0.007
-410.355	-176.721	0.559	0.014
-409.340	85.985	0.210	-0.229
-408.325	-121.131	0.170	0.028
-407.311	61.246	-0.229	0.225
-406.296	162.051	0.209	0.291
-405.282	208.861	0.151	0.234
-404.267	119.469	0.231	0.283
-403.252	-93.424	-0.197	-0.054
-402.238	-44.349	-0.237	-0.118
-401.223	-200.000	0.031	-0.239
-400.209	-82.960	-0.162	0.052
-399.194	-200.000	0.024	-0.180
-398.179	261.558	0.099	-0.169
-397.165	226.408	0.111	0.179
-396.150	42.688	-0.049	-0.044
-395.136	-130.936	0.129	-0.017
-394.121	13.244	0.079	-0.060
-393.106	-78.206	-0.173	0.059
-392.092	-0.339	0.338	-0.238
-391.077	-200.000	0.042	-0.196
-390.063	76.026	0.171	0.179
-389.048	-119.960	-0.083	0.014
-388.033	800.000	0.097	0.371
-387.019	41.750	-0.117	0.105
-386.004	-114.170	0.271	-0.052
-384.990	-6.013	-0.203	-0.137
-383.975	211.786	0.089	-0.140
-382.960	157.157	0.113	0.155
-381.946	-109.950	0.105	-0.022
-380.931	-162.768	-0.083	0.004
-379.917	110.737	0.099	0.118
-378.902	-69.794	0.260	0.098
-377.888	26.456	-0.386	0.320
-376.873	-8.414	-0.080	0.053
-375.858	-53.381	-0.314	-0.143
-374.844	-200.000	-0.004	-0.067
-373.829	-89.694	-0.223	-0.065
-372.815	628.193	-0.158	0.395
-371.800	-200.000	-0.036	-0.188
-370.785	-170.707	-0.129	-0.004
-369.771	79.944	0.157	-0.167
-368.756	238.827	-0.184	-0.302
-367.742	-200.000	-0.017	-0.234
-366.727	48.302	-0.241	-0.223
-365.712	15.866	0.185	-0.144
-364.698	-61.965	-0.167	0.069
-363.683	-21.620	0.060	-0.036
-362.669	22.961	-0.296	-0.241
-361.654	-73.463	0.393	-0.142
-360.639	245.616	0.035	-0.058
-359.625	-200.000	0.048	-0.315
-358.610	302.201	-0.017	0.030
-357.596	-200.000	-0.032	0.423
-356.581	-104.606	-0.269	0.061
-355.566	94.305	-0.064	-0.071
-354.552	-102.997	-0.067	0.016
-353.537	-122.735	0.049	0.008
-352.523	269.821	0.160	-0.277
-351.508	-92.094	0.078	-0.022
-350.493	-5.955	0.144	0.097
-349.479	800.000	-0.018	-0.070
-348.464	66.286	0.059	0.060
-347.450	-200.000	-0.010	-0.155
-346.435	221.737	-0.146	-0.232
-345.420	611.670	0.100	-0.246
-344.406	-200.000	-0.002	-0.134
-343.391	448.860	-0.110	0.239
-342.377	227.645	-0.192	0.309
-341.362	-150.223	-0.180	-0.014
-340.348	-82.880	-0.312	-0.100
-339.333	800.000	0.039	0.163
-338.318	154.984	0.055	0.075
-337.304	-200.000	0.061	-0.391
-336.289	800.000	0.045	0.179
-335.275	-76.853	-0.308	-0.106
-334.260	-145.196	0.262	0.023
-333.245	265.112	-0.083	-0.143
-332.231	75.301	0.141	-0.147
-331.216	-200.000	-0.022	-0.220
-330.202	-149.810	-0.358	0.028
-329.187	800.000	0.106	0.301
-328.172	134.874	-0.116	-0.149
-327.158	533.394	0.065	-0.151
-326.143	197.147	0.176	-0.265
-325.129	90.692	0.151	-0.167
-324.114	-44.856	-0.081	0.040
-323.099	-20.457	-0.320	0.194
-322.085	800.000	-0.087	0.275
-321.070	35.659	-0.141	-0.122
-320.056	213.628	-0.033	0.052
-319.041	554.821	-0.057	0.134
-318.026	-56.454	-0.267	-0.117
-317.012	-88.430	-0.244	0.072
-315.997	-140.004	0.117	-0.012
-314.983	-113.798	-0.128	-0.025
-313.968	20.978	-0.167	-0.134
-312.953	112.883	-0.093	0.111
-311.939	790.403	0.089	-0.243
-310.924	173.819	0.146	-0.208
-309.910	-64.011	-0.121	0.049
-308.895	652.380	-0.122	-0.309
-307.880	-22.149	0.331	0.198
-306.866	-113.594	-0.254	0.049
-305.851	-67.693	-0.307	0.119
-304.837	51.743	-0.319	0.299
-303.822	-7.455	0.267	0.178
-302.807	32.897	0.191	0.163
-301.793	-79.737	-0.249	-0.083
-300.778	-200.000	-0.003	0.084
-299.764	-146.227	-0.230	0.020
-298.749	148.162	-0.187	0.249
-297.735	800.000	0.018	-0.074
-296.720	-1.360	0.289	0.202
-295.705	-46.962	0.154	0.074
-294.691	133.362	0.139	0.177
-293.676	-119.856	-0.196	-0.033
-292.662	81.716	0.053	0.056
-291.647	67.235	-0.226	0.227
-290.632	-133.193	0.046	-0.006
-289.618	-136.212	-0.256	0.030
-288.603	800.000	-0.046	-0.136
-287.589	35.988	-0.240	-0.208
-286.574	-69.559	-0.193	-0.073
-285.559	-200.000	-0.017	0.269
-284.545	132.048	0.133	0.169
-283.530	-200.000	0.003	-0.319
-282.516	50.527	0.185	-0.172
-281.501	-200.000	0.020	0.181
-280.486	800.000	0.045	-0.183
-279.472	800.000	-0.064	-0.203
-278.457	-200.000	-0.005	-0.129
-277.443	-40.449	0.211	0.108
-276.428	475.445	-0.138	0.307
-275.413	-37.305	-0.244	0.129
-274.399	-53.438	0.281	0.127
-273.384	51.301	0.014	0.014
-272.370	-47.998	-0.392	-0.187
-271.355	-2.211	0.009	0.006
-270.340	-4.306	0.251	-0.171
-269.326	248.252	0.105	0.175
-268.311	-17.941	-0.133	0.082
-267.297	-53.865	0.437	-0.196
-266.282	-85.876	-0.218	-0.067
-265.267	-18.655	-0.153	-0.094
-264.253	-200.000	-0.011	0.400
-263.238	-200.000	-0.019	0.246
-262.224	-110.427	-0.247	-0.051
-261.209	-71.879	-0.185	-0.068
-260.195	-116.587	0.354	-0.064
-259.180	-36.498	0.136	0.072
-258.165	53.527	0.180	-0.171
-257.151	-72.723	0.350	-0.127
-256.136	-200.000	-0.013	0.075
-255.122	159.411	0.156	0.214
-254.107	-6.573	-0.236	0.158
-253.092	113.802	0.065	0.078
-252.078	19.343	-0.110	0.087
-251.063	-139.265	0.136	0.014
-250.049	170.484	-0.185	-0.261
-249.034	800.000	0.102	0.303
-248.019	-65.179	0.223	-0.088
-247.005	72.023	0.082	0.084
-245.990	125.626	-0.241	0.300
-244.976	-35.313	-0.158	-0.085
-243.961	245.952	-0.048	0.080
-242.946	-200.000	0.036	-0.389
-241.932	301.938	-0.072	0.132
-240.917	-57.819	-0.036	0.015
-239.903	-200.000	0.032	0.140
-238.888	-200.000	-0.029	0.425
-237.873	131.361	0.093	0.118
-236.859	-127.399	-0.394	0.056
-235.844	800.000	0.044	-0.141
-234.830	-200.000	0.000	0.051
-233.815	-114.623	0.232	0.044
-232.800	-93.005	0.201	-0.055
-231.786	-50.199	-0.326	0.152
-230.771	204.182	0.166	-0.253
-229.757	-83.662	0.142	0.045
-228.742	62.755	0.063	-0.062
-227.727	-130.102	0.088	-0.012
-226.713	46.128	0.368	-0.336
-225.698	-105.147	-0.145	-0.033
-224.684	-81.615	0.270	-0.087
-223.669	-59.506	0.291	0.123
-222.655	-200.000	0.004	-0.056
-221.640	-200.000	-0.032	-0.140
-220.625	491.277	0.085	-0.192
-219.611	-35.765	0.183	0.097
-218.596	70.223	0.204	-0.208
-217.582	88.901	0.074	0.081
-216.567	800.000	-0.122	0.457
-215.552	-42.155	0.127	-0.064
-214.538	-200.000	0.007	-0.174
-213.523	34.321	-0.373	0.320
-212.509	175.639	0.196	0.280
-211.494	800.000	-0.053	0.158
-210.479	-200.000	-0.045	0.241
-209.465	35.522	-0.195	0.169
-208.450	-58.822	0.146	0.062
-207.436	-57.370	-0.202	0.087
-206.421	-134.499	-0.172	-0.021
-205.406	-27.727	-0.150	0.086
-204.392	273.521	-0.120	0.208
-203.377	-167.286	-0.335	-0.013
-202.363	-200.000	-0.068	0.292
-201.348	261.442	0.179	-0.305
-200.333	-39.424	-0.067	-0.035
-199.319	19.272	-0.196	0.155
-198.304	-200.000	0.031	-0.379
-197.290	-200.000	0.004	-0.295
-196.275	75.676	-0.068	0.070
-195.260	9.755	0.130	-0.097
-194.246	498.167	-0.026	0.059
-193.231	-139.557	-0.275	-0.029
-192.217	35.161	-0.226	0.195
-191.202	204.798	0.068	-0.104
-190.187	474.248	-0.152	0.336
-189.173	22.338	0.198	0.159
-188.158	-13.254	-0.299	-0.191
-187.144	165.304	-0.149	-0.207
-186.129	-107.652	0.200	0.043
-185.114	-127.159	-0.323	-0.046
-184.100	469.846	-0.036	-0.080
-183.085	-200.000	-0.016	-0.086
-182.071	20.529	-0.168	-0.134
-181.056	-101.866	-0.051	-0.012
-180.042	30.158	0.157	0.132
-179.027	71.358	-0.227	-0.231
-178.012	-200.000	-0.025	0.153
-176.998	406.350	-0.050	-0.104
-175.983	73.980	0.084	-0.087
-174.969	-105.604	-0.251	-0.056
-173.954	-115.168	0.411	0.076
-172.939	-183.615	0.170	0.003
-171.925	70.590	-0.154	0.157
-170.910	199.928	-0.208	0.313
-169.896	130.073	-0.079	0.099
-168.881	-99.391	0.160	0.040
-167.866	28.157	-0.201	0.166
-166.852	-71.584	0.340	0.125
-165.837	-200.000	-0.025	0.224
-164.823	-47.531	0.277	-0.132
-163.808	55.189	0.208	0.197
-162.793	69.481	0.267	-0.270
-161.779	-114.846	-0.488	-0.091
-160.764	-12.207	-0.107	0.069
-159.750	-29.787	-0.279	0.156
-158.735	-198.427	0.150	-0.001
-157.720	44.872	0.175	-0.158
-156.706	-38.999	-0.230	-0.119
-155.691	59.945	-0.124	0.120
-154.677	-200.000	0.020	-0.087
-153.662	-140.233	-0.280	-0.029
-152.647	-200.000	0.011	-0.156
-151.633	800.000	0.048	-0.132
-150.618	10.961	-0.296	-0.222
-149.604	198.918	0.267	-0.401
-148.589	-47.145	-0.073	0.035
-147.574	800.000	0.086	0.245
-146.560	-123.782	0.225	0.035
-145.545	-70.831	-0.112	0.041
-144.531	-143.553	0.147	-0.014
-143.516	159.744	-0.112	-0.152
-142.502	-200.000	0.051	-0.497
-141.487	606.237	-0.171	-0.418
-140.472	-9.804	0.197	0.129
-139.458	42.444	0.005	-0.004
-138.443	157.569	0.129	-0.175
-137.429	59.280	0.160	-0.154
-136.414	-13.291	-0.067	0.043
-135.399	205.634	0.150	0.228
-134.385	-200.000	-0.010	0.094
-133.370	-19.852	0.171	0.104
-132.356	-31.458	0.200	0.110
-131.341	8.121	-0.116	-0.086
-130.326	-21.289	-0.158	-0.095
-129.312	186.803	0.260	0.380
-128.297	140.026	-0.031	-0.040
-127.283	-6.671	0.191	-0.128
-126.268	800.000	0.088	0.314
-125.253	785.642	0.110	-0.295
-124.239	113.640	-0.086	0.102
-123.224	-82.979	0.203	0.064
-122.210	-31.258	-0.123	0.068
-121.195	-200.000	-0.040	0.274
