DTS Sentinel unit serial number:	SN413079Multiplexer serial number:	ORYXHardware model number:	OX4-SRSoftware version number:	ORYX F/W v4.00 Oryx Data Collector v3.7.2.0data status	okinstallation	princeton_trtdifferential loss correction	single-endedforward channel	channel 1reverse channel	N/Adate	2019/09/11time	22:20:11forward acquisition time	60.00reverse acquisition time	0.00gamma	496.2192k internal	0.2314k external	0.2314temperature offset calibration	1.0053default loss term (dB/km)	0.3790temperature slope calibration	1.0000multiplexer offset coefficient	1.0000multiplexer slope coefficient	1.0000fibre end	0.00T internal ref (°C)	35.25T ext. ref 1 (°C)	1.74T ext. ref 2 (°C)	29.22length (m)	temperature (°C)	Stokes	anti-Stokes-747.200	487.802	-0.049	0.114
-746.185	-118.954	0.347	0.062
-745.171	-48.912	0.095	0.046
-744.156	86.842	-0.384	0.429
-743.142	-200.000	-0.022	-0.362
-742.127	-200.000	-0.036	0.202
-741.112	-24.937	0.115	0.069
-740.098	720.199	0.143	0.386
-739.083	-100.686	0.134	0.033
-738.069	540.128	0.166	0.401
-737.054	-21.374	-0.274	0.170
-736.039	-200.000	-0.007	-0.165
-735.025	-5.135	0.208	0.145
-734.010	-138.317	-0.534	-0.060
-732.996	-68.310	-0.171	0.067
-731.981	-31.438	0.361	0.206
-730.966	-31.373	-0.298	-0.170
-729.952	-149.624	0.141	-0.011
-728.937	430.636	0.167	-0.367
-727.923	23.052	-0.109	-0.090
-726.908	276.963	-0.048	-0.087
-725.894	800.000	-0.020	-0.069
-724.879	-200.000	-0.007	-0.082
-723.864	521.133	-0.086	0.203
-722.850	-57.509	0.534	-0.237
-721.835	-91.656	-0.202	0.058
-720.821	-36.155	-0.043	-0.023
-719.806	700.689	0.099	-0.263
-718.791	-87.170	0.171	-0.053
-717.777	-14.359	-0.324	0.211
-716.762	10.570	-0.091	-0.071
-715.748	800.000	0.063	0.206
-714.733	-107.653	-0.207	-0.046
-713.718	-41.467	0.280	-0.146
-712.704	-110.665	-0.250	-0.052
-711.689	-79.770	0.118	0.040
-710.675	800.000	0.016	0.047
-709.660	-200.000	0.013	-0.151
-708.645	480.765	0.025	0.057
-707.631	-2.196	0.213	-0.151
-706.616	684.570	-0.036	-0.096
-705.602	800.000	0.028	-0.122
-704.587	15.321	0.122	-0.097
-703.572	-200.000	0.081	-0.395
-702.558	-200.000	-0.013	-0.114
-701.543	89.543	0.077	0.087
-700.529	800.000	0.096	0.327
-699.514	170.540	-0.068	0.098
-698.499	-69.416	0.302	-0.117
-697.485	394.876	0.108	-0.228
-696.470	101.420	0.238	-0.281
-695.456	348.566	0.042	-0.084
-694.441	-200.000	-0.037	-0.233
-693.426	49.162	0.289	-0.275
-692.412	800.000	-0.058	-0.180
-691.397	-200.000	0.015	0.159
-690.383	-88.189	-0.066	0.020
-689.368	67.802	0.301	-0.311
-688.354	-5.332	0.172	0.119
-687.339	93.511	0.024	0.027
-686.324	32.315	0.302	-0.264
-685.310	52.913	-0.094	0.091
-684.295	-153.735	0.097	-0.007
-683.281	58.006	0.101	-0.100
-682.266	-89.851	0.214	-0.063
-681.251	26.430	-0.300	0.253
-680.237	400.889	0.023	0.050
-679.222	434.362	-0.106	0.233
-678.208	-200.000	0.017	0.369
-677.193	-140.027	-0.188	-0.020
-676.178	-62.528	-0.198	-0.083
-675.164	-200.000	0.038	-0.183
-674.149	-200.000	0.003	-0.408
-673.135	-200.000	-0.017	-0.116
-672.120	-200.000	0.007	-0.456
-671.105	-200.000	0.059	0.368
-670.091	-54.760	0.099	0.045
-669.076	-115.537	0.120	0.023
-668.062	800.000	0.152	-0.566
-667.047	-61.761	0.264	-0.112
-666.032	-176.842	0.287	-0.007
-665.018	800.000	-0.067	-0.214
-664.003	-114.911	0.195	0.037
-662.989	800.000	-0.026	-0.087
-661.974	115.051	0.098	-0.120
-660.959	254.591	0.221	0.382
-659.945	106.311	-0.032	0.038
-658.930	-3.960	0.073	0.051
-657.916	-81.479	0.348	-0.116
-656.901	-44.938	0.260	-0.131
-655.886	800.000	0.064	-0.179
-654.872	-151.401	-0.302	-0.023
-653.857	-103.069	-0.226	0.054
-652.843	-157.061	0.197	0.012
-651.828	0.039	-0.087	-0.063
-650.814	147.319	-0.116	0.157
-649.799	-15.114	-0.209	-0.135
-648.784	-173.704	-0.251	0.008
-647.770	-123.351	-0.286	-0.046
-646.755	-60.744	-0.227	-0.097
-645.741	-12.065	0.159	0.105
-644.726	800.000	0.087	-0.375
-643.711	77.685	0.154	-0.165
-642.697	-36.910	0.225	0.122
-641.682	54.301	-0.136	-0.132
-640.668	27.374	-0.262	-0.223
-639.653	125.789	-0.166	0.211
-638.638	-200.000	0.056	0.262
-637.624	-69.535	0.083	-0.032
-636.609	-83.961	0.176	-0.057
-635.595	-38.384	-0.190	-0.102
-634.580	-6.469	0.304	-0.209
-633.565	-153.881	0.134	-0.009
-632.551	-86.041	-0.269	0.084
-631.536	330.067	0.124	0.241
-630.522	-200.000	-0.020	-0.116
-629.507	-69.972	0.414	0.159
-628.492	65.683	-0.195	0.200
-627.478	-87.762	-0.200	-0.061
-626.463	-134.574	-0.152	0.019
-625.449	-19.305	0.081	0.051
-624.434	-53.315	-0.074	-0.034
-623.419	-128.601	-0.235	-0.034
-622.405	800.000	-0.026	-0.097
-621.390	-200.000	-0.358	-0.000
-620.376	27.208	-0.056	0.047
-619.361	-200.000	0.009	0.067
-618.346	-107.703	-0.060	-0.013
-617.332	-2.596	-0.048	-0.034
-616.317	21.420	-0.137	0.113
-615.303	-157.449	0.180	-0.011
-614.288	-115.147	-0.368	-0.070
-613.273	-200.000	0.010	-0.079
-612.259	-125.330	0.221	0.034
-611.244	3.554	0.095	0.070
-610.230	-85.272	0.179	-0.056
-609.215	62.067	-0.121	0.122
-608.201	-200.000	0.024	-0.144
-607.186	5.783	0.293	0.219
-606.171	-29.782	-0.045	0.026
-605.157	-200.000	0.084	-0.421
-604.142	-65.662	-0.194	-0.078
-603.128	-78.853	-0.050	-0.017
-602.113	29.464	-0.026	0.023
-601.098	-58.725	0.311	-0.136
-600.084	-200.000	-0.002	0.279
-599.069	-129.935	0.119	0.016
-598.055	-25.456	-0.211	-0.126
-597.040	800.000	0.087	-0.381
-596.025	650.970	0.057	0.147
-595.011	5.029	-0.032	-0.024
-593.996	115.351	0.177	0.218
-592.982	454.746	0.017	0.039
-591.967	90.185	-0.140	-0.158
-590.952	298.658	0.110	0.203
-589.938	757.082	0.050	0.137
-588.923	753.444	0.062	0.169
-587.909	-4.610	-0.146	0.102
-586.894	128.835	-0.033	0.042
-585.879	92.400	-0.290	-0.329
-584.865	1.016	-0.162	0.117
-583.850	405.677	-0.206	0.438
-582.836	47.163	-0.213	0.200
-581.821	-117.952	0.255	-0.046
-580.806	-171.467	0.056	0.002
-579.792	-162.508	0.104	0.005
-578.777	126.436	0.160	0.204
-577.763	-0.869	-0.225	0.160
-576.748	-19.642	-0.176	0.110
-575.733	164.148	0.082	0.117
-574.719	800.000	-0.095	-0.303
-573.704	427.767	0.146	0.318
-572.690	657.791	0.088	-0.228
-571.675	-200.000	0.041	-0.218
-570.661	-200.000	0.037	-0.175
-569.646	-36.081	0.188	-0.102
-568.631	502.889	0.099	0.231
-567.617	440.684	0.077	0.170
-566.602	80.600	-0.242	0.263
-565.588	-122.748	-0.026	-0.004
-564.573	-33.865	0.229	0.127
-563.558	-66.362	-0.353	0.141
-562.544	-114.789	-0.574	0.110
-561.529	100.242	0.095	0.111
-560.515	-11.938	0.094	-0.062
-559.500	-162.149	-0.303	0.015
-558.485	39.901	0.209	-0.189
-557.471	-200.000	-0.010	-0.095
-556.456	-200.000	0.054	-0.309
-555.442	-18.543	0.070	-0.044
-554.427	800.000	-0.121	-0.372
-553.412	80.628	0.075	-0.081
-552.398	-62.893	-0.105	-0.044
-551.383	-130.015	-0.418	0.058
-550.369	64.973	0.050	0.051
-549.354	-101.855	-0.333	0.081
-548.339	-35.459	-0.250	-0.137
-547.325	316.871	0.113	-0.215
-546.310	11.606	0.233	-0.180
-545.296	-71.831	0.280	-0.105
-544.281	43.512	-0.090	-0.082
-543.266	221.949	-0.103	-0.167
-542.252	-57.802	0.181	0.080
-541.237	25.323	-0.340	-0.285
-540.223	-200.000	0.041	-0.230
-539.208	-88.399	-0.057	-0.017
-538.193	-146.783	-0.302	0.026
-537.179	800.000	0.049	0.182
-536.164	92.797	0.101	0.115
-535.150	334.525	0.094	0.183
-534.135	-200.000	-0.049	-0.263
-533.121	-200.000	0.023	-0.199
-532.106	246.943	0.122	-0.208
-531.091	-161.299	-0.193	0.010
-530.077	24.116	0.277	0.230
-529.062	66.166	0.191	-0.195
-528.048	800.000	0.019	-0.066
-527.033	266.736	-0.145	-0.255
-526.018	800.000	-0.079	0.315
-525.004	-200.000	-0.037	0.387
-523.989	-78.951	-0.166	-0.057
-522.975	-200.000	-0.024	-0.273
-521.960	-200.000	-0.017	0.142
-520.945	-200.000	-0.037	0.234
-519.931	-13.483	0.155	0.101
-518.916	187.718	0.074	-0.111
-517.902	800.000	0.090	-0.345
-516.887	-200.000	0.001	0.130
-515.872	-1.497	-0.197	-0.140
-514.858	-200.000	-0.020	-0.466
-513.843	-35.633	-0.277	0.151
-512.829	397.951	-0.015	0.031
-511.814	-200.000	0.046	0.204
-510.799	71.311	-0.247	-0.258
-509.785	-37.307	0.338	0.182
-508.770	356.971	-0.006	0.012
-507.756	800.000	-0.104	0.330
-506.741	75.454	0.127	-0.135
-505.726	-200.000	0.020	-0.125
-504.712	91.501	-0.110	-0.125
-503.697	-200.000	0.010	0.291
-502.683	-90.627	-0.254	0.074
-501.668	-74.207	-0.103	-0.037
-500.653	29.214	-0.296	-0.252
-499.639	800.000	-0.032	-0.139
-498.624	-38.411	0.327	0.174
-497.610	-179.410	-0.319	0.007
-496.595	-28.722	0.311	0.180
-495.581	-169.872	0.257	-0.009
-494.566	-200.000	0.502	0.001
-493.551	-200.000	-0.025	0.316
-492.537	-156.574	0.100	0.006
-491.522	215.240	-0.073	0.117
-490.508	137.406	0.210	0.276
-489.493	-200.000	0.014	-0.346
-488.478	800.000	-0.034	-0.144
-487.464	-149.126	0.405	0.033
-486.449	-55.824	-0.150	0.067
-485.435	291.035	-0.272	0.496
-484.420	12.052	0.084	-0.065
-483.405	-63.037	-0.201	-0.084
-482.391	488.983	-0.156	-0.357
-481.376	-200.000	-0.062	-0.305
-480.362	192.884	-0.049	0.074
-479.347	427.783	0.153	-0.332
-478.332	-54.754	0.019	0.008
-477.318	749.272	-0.033	-0.089
-476.303	800.000	0.064	-0.219
-475.289	-33.423	0.301	0.167
-474.274	-200.000	0.063	-0.000
-473.259	-200.000	-0.037	0.288
-472.245	-152.378	-0.224	0.016
-471.230	-19.582	0.102	-0.063
-470.216	144.071	0.217	0.291
-469.201	-18.013	0.059	-0.037
-468.186	-200.000	0.015	0.279
-467.172	-190.896	0.163	0.002
-466.157	-200.000	-0.025	-0.280
-465.143	699.038	-0.122	0.322
-464.128	557.852	-0.119	0.287
-463.113	85.114	-0.127	-0.140
-462.099	-19.203	-0.213	-0.133
-461.084	-41.358	-0.104	0.054
-460.070	-3.914	0.168	-0.117
-459.055	-200.000	0.095	0.542
-458.040	239.374	-0.138	0.231
-457.026	191.307	0.198	-0.298
-456.011	-129.173	0.182	0.026
-454.997	11.307	-0.295	0.226
-453.982	453.496	0.027	0.060
-452.968	405.396	-0.152	0.322
-451.953	-122.596	0.266	-0.043
-450.938	43.321	-0.150	-0.138
-449.924	-140.519	-0.369	0.038
-448.909	800.000	-0.014	-0.053
-447.895	273.930	-0.124	-0.220
-446.880	203.688	-0.146	-0.226
-445.865	-200.000	0.000	0.003
-444.851	800.000	-0.066	-0.264
-443.836	-32.319	0.297	0.166
-442.822	-84.482	-0.089	-0.028
-441.807	-123.878	0.084	-0.013
-440.792	-11.540	-0.134	-0.088
-439.778	-44.112	-0.061	0.031
-438.763	-200.000	0.058	-0.266
-437.749	166.003	0.098	0.139
-436.734	-55.966	0.067	-0.030
-435.719	-18.745	0.318	-0.198
-434.705	127.659	0.168	-0.214
-433.690	800.000	-0.026	0.091
-432.676	-200.000	-0.002	0.215
-431.661	800.000	0.047	-0.181
-430.646	225.870	0.182	0.296
-429.632	-132.520	0.157	-0.020
-428.617	-165.762	-0.332	0.014
-427.603	-62.881	0.073	0.030
-426.588	99.257	-0.157	-0.182
-425.573	-182.681	-0.211	0.004
-424.559	-135.458	0.357	-0.043
-423.544	111.237	0.123	0.149
-422.530	800.000	-0.038	-0.159
-421.515	-33.580	0.295	0.163
-420.500	44.680	0.186	0.171
-419.486	-104.946	-0.126	-0.029
-418.471	-41.533	0.355	0.183
-417.457	107.200	0.341	0.406
-416.442	-200.000	-0.022	0.101
-415.428	-200.000	0.080	-0.392
-414.413	-150.289	-0.443	0.034
-413.398	262.477	-0.065	-0.112
-412.384	585.311	0.066	-0.163
-411.369	-200.000	0.034	0.170
-410.355	-101.307	-0.318	-0.078
-409.340	342.258	0.050	0.098
-408.325	-41.160	0.189	-0.098
-407.311	-82.602	-0.277	0.090
-406.296	-100.264	-0.144	0.036
-405.282	-200.000	0.073	0.386
-404.267	168.797	0.107	0.153
-403.252	186.083	0.146	0.218
-402.238	800.000	0.076	-0.277
-401.223	-116.797	0.100	0.018
-400.209	-181.053	0.055	-0.001
-399.194	-54.574	0.192	-0.087
-398.179	72.692	0.120	-0.125
-397.165	-200.000	0.024	0.168
-396.150	-41.273	0.218	-0.112
-395.136	71.445	-0.034	-0.035
-394.121	260.375	-0.162	0.279
-393.106	-44.143	-0.173	0.087
-392.092	88.843	-0.196	-0.218
-391.077	-120.441	-0.277	0.047
-390.063	-55.434	0.088	-0.040
-389.048	-120.310	0.536	0.091
-388.033	281.372	0.122	-0.219
-387.019	-70.820	-0.305	-0.115
-386.004	-30.563	0.155	-0.088
-384.990	-200.000	0.021	-0.348
-383.975	-200.000	-0.016	-0.127
-382.960	191.366	-0.068	0.102
-381.946	-200.000	0.006	0.242
-380.931	472.809	0.082	0.185
-379.917	108.675	-0.231	-0.276
-378.902	282.336	0.027	0.048
-377.888	85.009	0.117	0.128
-376.873	-200.000	0.016	0.106
-375.858	-113.201	-0.243	0.048
-374.844	151.648	0.090	0.123
-373.829	20.800	0.314	0.255
-372.815	86.392	0.165	-0.181
-371.800	-23.272	0.164	0.099
-370.785	92.526	-0.125	-0.140
-369.771	-12.571	-0.039	-0.025
-368.756	295.204	-0.105	0.193
-367.742	-112.237	0.249	0.050
-366.727	-200.000	-0.021	-0.118
-365.712	-56.675	0.057	0.025
-364.698	156.492	0.218	-0.301
-363.683	800.000	0.018	0.052
-362.669	-118.564	0.134	-0.024
-361.654	-23.771	-0.262	-0.157
-360.639	-200.000	-0.028	-0.556
-359.625	800.000	-0.052	0.179
-358.610	175.160	0.196	0.284
-357.596	800.000	0.128	-0.380
-356.581	-132.440	-0.259	-0.033
-355.566	327.277	-0.129	0.248
-354.552	25.658	0.322	-0.268
-353.537	800.000	0.032	-0.104
-352.523	-200.000	-0.031	-0.334
-351.508	-78.370	0.301	-0.103
-350.493	-2.490	-0.076	-0.053
-349.479	-30.090	0.177	-0.100
-348.464	-138.754	-0.312	0.034
-347.450	-21.994	-0.231	-0.140
-346.435	-124.938	0.292	-0.045
-345.420	44.829	-0.055	0.051
-344.406	-33.388	-0.121	-0.067
-343.391	281.263	0.062	0.110
-342.377	-13.082	0.112	0.073
-341.362	11.160	0.135	0.103
-340.348	-200.000	-0.006	-0.117
-339.333	792.713	-0.120	0.330
-338.318	-104.992	-0.179	-0.041
-337.304	227.328	-0.070	0.114
-336.289	-200.000	-0.065	0.336
-335.275	92.453	-0.047	-0.053
-334.260	-191.552	-0.179	-0.002
-333.245	-3.281	0.391	-0.272
-332.231	800.000	0.032	0.101
-331.216	-200.000	-0.003	0.095
-330.202	800.000	-0.025	-0.085
-329.187	800.000	-0.090	-0.373
-328.172	800.000	0.042	-0.145
-327.158	85.422	0.233	0.255
-326.143	800.000	-0.042	0.167
-325.129	-200.000	0.041	0.199
-324.114	-200.000	0.020	0.125
-323.099	300.040	0.150	0.275
-322.085	-30.611	-0.145	-0.082
-321.070	-120.852	-0.151	0.025
-320.056	97.746	-0.209	-0.240
-319.041	-200.000	0.035	-0.210
-318.026	545.519	-0.091	-0.216
-317.012	-71.980	-0.063	0.023
-315.997	800.000	0.020	0.063
-314.983	-52.107	-0.169	0.078
-313.968	489.374	-0.156	-0.355
-312.953	-200.000	-0.043	-0.315
-311.939	-118.299	0.173	-0.031
-310.924	-143.233	-0.033	-0.003
-309.910	79.544	0.157	-0.168
-308.895	-166.063	0.159	0.007
-307.880	64.354	-0.134	0.134
-306.866	-118.885	0.056	0.010
-305.851	265.762	-0.081	0.141
-304.837	-122.260	0.266	-0.043
-303.822	-81.670	0.197	0.064
-302.807	-61.415	-0.036	0.015
-301.793	57.527	-0.245	0.239
-300.778	-200.000	-0.117	0.573
-299.764	800.000	0.074	-0.211
-298.749	128.794	0.341	-0.433
-297.735	-66.524	0.213	-0.084
-296.720	-118.173	0.084	0.015
-295.705	240.181	-0.088	0.146
-294.691	-200.000	0.018	0.148
-293.676	187.397	0.089	-0.132
-292.662	-31.170	-0.046	-0.026
-291.647	-200.000	0.029	-0.237
-290.632	-200.000	0.050	0.250
-289.618	-200.000	0.003	0.109
-288.603	573.528	0.071	0.173
-287.589	-200.000	0.013	0.208
-286.574	800.000	0.025	-0.099
-285.559	-62.446	0.577	-0.239
-284.545	-176.706	-0.324	-0.008
-283.530	-104.663	-0.347	-0.080
-282.516	507.091	0.095	-0.221
-281.501	40.273	0.269	0.241
-280.486	355.048	-0.077	0.152
-279.472	-131.685	0.304	0.040
-278.457	42.846	0.132	-0.120
-277.443	436.285	-0.118	0.256
-276.428	-21.125	-0.219	0.133
-275.413	-200.000	-0.014	-0.084
-274.399	-200.000	-0.013	0.326
-273.384	586.338	-0.162	0.396
-272.370	800.000	-0.088	-0.272
-271.355	180.182	0.082	-0.120
-270.340	-59.469	0.112	-0.048
-269.326	-89.839	-0.326	0.095
-268.311	-7.295	-0.139	0.094
-267.297	-68.457	0.207	-0.080
-266.282	-92.329	0.063	-0.018
-265.267	478.395	-0.103	0.232
-264.253	-158.689	-0.220	-0.013
-263.238	-10.189	-0.179	0.118
-262.224	335.919	-0.273	0.527
-261.209	14.732	-0.084	-0.066
-260.195	-155.422	0.213	0.014
-259.180	-69.931	0.217	-0.082
-258.165	-104.301	-0.135	-0.031
-257.151	384.009	-0.175	0.359
-256.136	-75.650	-0.088	0.031
-255.122	-79.561	0.401	0.135
-254.107	-7.879	-0.212	0.143
-253.092	-24.240	0.178	-0.106
-252.078	207.166	0.102	0.158
-251.063	-14.961	0.096	0.061
-250.049	-138.367	-0.323	0.035
-249.034	-200.000	-0.059	-0.348
-248.019	461.882	-0.095	-0.211
-247.005	-29.790	-0.040	-0.022
-245.990	170.973	-0.074	0.106
-244.976	99.267	0.041	-0.047
-243.961	-179.030	-0.256	0.006
-242.946	247.864	0.086	-0.144
-241.932	-62.290	0.057	-0.024
-240.917	26.681	0.141	0.117
-239.903	-63.117	0.247	-0.101
-238.888	-31.104	-0.209	-0.117
-237.873	-200.000	-0.019	-0.104
-236.859	96.922	-0.263	0.299
-235.844	127.710	-0.085	0.107
-234.830	187.436	0.047	0.070
-233.815	5.240	0.179	0.131
-232.800	-200.000	-0.028	-0.186
-231.786	35.957	-0.262	-0.229
-230.771	248.600	-0.074	-0.125
-229.757	-200.000	0.056	-0.248
-228.742	188.545	0.227	0.337
-227.727	281.646	-0.065	-0.116
-226.713	299.450	0.085	-0.155
-225.698	-148.193	-0.160	0.013
-224.684	800.000	-0.069	0.239
-223.669	-14.352	0.145	0.093
-222.655	-42.068	-0.273	-0.139
-221.640	463.872	-0.125	-0.278
-220.625	-62.816	0.219	-0.090
-219.611	-44.279	0.210	0.104
-218.596	-200.000	-0.029	-0.386
-217.582	-113.520	0.284	-0.055
-216.567	27.657	0.222	0.186
-215.552	-43.515	0.265	0.133
-214.538	79.266	-0.238	0.254
-213.523	-172.825	0.281	0.009
-212.509	800.000	-0.028	0.113
-211.494	-181.153	-0.041	-0.001
-210.479	169.589	0.085	0.120
-209.465	220.722	0.176	0.280
-208.450	-200.000	-0.023	-0.130
-207.436	-200.000	-0.047	-0.259
-206.421	-200.000	-0.017	-0.171
-205.406	228.334	-0.132	-0.213
-204.392	253.759	0.084	0.142
-203.377	463.112	0.055	-0.122
-202.363	-200.000	0.008	-0.132
-201.348	-200.000	0.013	0.057
-200.333	271.976	0.256	0.448
-199.319	57.687	-0.077	0.075
-198.304	67.533	0.059	0.060
-197.290	97.640	-0.310	-0.354
-196.275	-67.101	-0.079	-0.031
-195.260	800.000	0.088	0.346
-194.246	521.742	-0.099	-0.230
-193.231	-200.000	-0.016	0.153
-192.217	20.812	-0.115	-0.093
-191.202	27.706	-0.235	-0.196
-190.187	-167.049	-0.124	0.005
-189.173	-130.280	0.389	0.052
-188.158	23.256	-0.334	0.272
-187.144	800.000	-0.081	-0.237
-186.129	-200.000	0.055	-0.392
-185.114	-64.390	0.112	-0.045
-184.100	800.000	-0.087	-0.343
-183.085	365.887	-0.050	0.099
-182.071	-200.000	0.006	0.240
-181.056	54.218	0.100	-0.095
-180.042	-45.559	0.314	0.154
-179.027	-156.311	0.218	-0.014
-178.012	-29.997	-0.155	-0.087
-176.998	-83.863	-0.253	0.080
-175.983	-146.223	-0.194	-0.017
-174.969	36.416	-0.121	-0.106
-173.954	112.528	-0.075	-0.091
-172.939	-200.000	0.020	0.150
-171.925	800.000	0.119	0.330
-170.910	207.731	-0.031	-0.048
-169.896	-116.809	0.064	-0.012
-168.881	-85.673	0.048	0.015
-167.866	-200.000	0.028	0.177
-166.852	89.127	-0.088	0.097
-165.837	-135.566	0.373	-0.044
-164.823	800.000	-0.028	-0.100
-163.808	-64.795	0.126	0.051
-162.793	800.000	0.044	0.126
-161.779	-131.451	-0.205	0.027
-160.764	-68.071	-0.421	0.163
-159.750	110.397	0.264	-0.315
-158.735	-200.000	0.054	-0.237
-157.720	-87.925	0.412	-0.123
-156.706	800.000	-0.083	-0.265
-155.691	299.616	-0.019	0.034
-154.677	84.819	-0.071	0.077
-153.662	-174.118	-0.221	-0.006
-152.647	-140.709	0.247	0.025
-151.633	37.089	-0.228	0.200
-150.618	-89.204	0.291	0.085
-149.604	64.630	0.090	0.090
-148.589	-200.000	-0.027	0.328
-147.574	-26.452	0.243	-0.141
-146.560	-200.000	0.010	-0.239
-145.545	-33.694	0.167	-0.091
-144.531	-95.816	-0.385	-0.102
-143.516	135.992	-0.151	-0.195
-142.502	0.210	-0.295	0.208
-141.487	800.000	-0.025	-0.097
-140.472	-142.858	0.326	0.031
-139.458	-86.199	-0.470	-0.144
-138.443	-60.613	-0.007	0.003
-137.429	296.360	-0.033	-0.059
-136.414	-169.028	-0.275	-0.010
-135.399	-54.130	0.248	-0.112
-134.385	420.471	-0.085	-0.181
-133.370	-33.456	-0.056	-0.031
-132.356	86.070	0.035	-0.039
-131.341	13.722	-0.100	0.077
-130.326	-26.524	-0.218	-0.127
-129.312	800.000	0.047	0.178
-128.297	146.573	-0.013	0.017
-127.283	237.671	-0.087	0.143
-126.268	-82.969	0.222	-0.071
-125.253	800.000	-0.129	-0.359
-124.239	-22.340	-0.251	-0.151
-123.224	800.000	-0.014	-0.041
-122.210	-135.445	0.375	-0.044
