DTS Sentinel unit serial number:	SN413079Multiplexer serial number:	ORYXHardware model number:	OX4-SRSoftware version number:	ORYX F/W v4.00 Oryx Data Collector v3.7.2.0data status	okinstallation	princeton_trtdifferential loss correction	single-endedforward channel	channel 1reverse channel	N/Adate	2019/09/15time	15:02:35forward acquisition time	60.00reverse acquisition time	0.00gamma	496.2192k internal	0.2292k external	0.2292temperature offset calibration	0.9950default loss term (dB/km)	0.3790temperature slope calibration	1.0000multiplexer offset coefficient	1.0000multiplexer slope coefficient	1.0000fibre end	0.00T internal ref (°C)	40.25T ext. ref 1 (°C)	4.93T ext. ref 2 (°C)	37.31length (m)	temperature (°C)	Stokes	anti-Stokes-747.200	-107.432	0.279	0.063
-746.185	800.000	0.009	-0.038
-745.171	800.000	0.095	0.280
-744.156	-200.000	0.029	0.155
-743.142	176.885	-0.148	-0.221
-742.127	110.041	0.141	0.173
-741.112	-20.230	0.227	-0.143
-740.098	800.000	-0.058	0.244
-739.083	800.000	-0.055	0.188
-738.069	144.756	0.274	0.375
-737.054	479.951	-0.052	-0.120
-736.039	23.513	-0.431	-0.363
-735.025	-50.262	-0.166	0.080
-734.010	-38.123	-0.169	-0.092
-732.996	-193.677	-0.441	-0.004
-731.981	-89.122	-0.078	0.023
-730.966	-200.000	0.062	0.398
-729.952	-22.625	-0.439	0.271
-728.937	-9.428	0.353	-0.241
-727.923	79.394	0.271	-0.297
-726.908	-48.919	-0.502	0.246
-725.894	229.661	-0.089	-0.149
-724.879	-200.000	0.039	-0.247
-723.864	-133.648	0.300	-0.038
-722.850	-73.938	0.243	-0.090
-721.835	-200.000	0.000	-0.057
-720.821	103.644	-0.126	-0.151
-719.806	-135.594	0.125	0.015
-718.791	89.318	0.025	0.028
-717.777	-200.000	-0.027	-0.170
-716.762	-200.000	0.019	-0.277
-715.748	-200.000	0.006	-0.511
-714.733	-176.472	0.325	-0.009
-713.718	-176.055	-0.377	-0.010
-712.704	3.490	-0.154	-0.115
-711.689	-119.261	-0.261	0.046
-710.675	-19.459	0.270	0.171
-709.660	117.349	-0.030	0.038
-708.645	-77.598	0.096	0.034
-707.631	186.594	0.074	0.113
-706.616	-186.258	-0.299	-0.004
-705.602	-88.516	0.174	-0.053
-704.587	138.753	0.046	-0.061
-703.572	45.071	0.188	0.177
-702.558	-200.000	-0.032	0.324
-701.543	204.058	-0.026	0.042
-700.529	800.000	0.045	0.147
-699.514	800.000	0.063	0.186
-698.499	-15.441	-0.249	-0.162
-697.485	8.861	0.093	0.072
-696.470	154.190	-0.261	-0.366
-695.456	-118.988	0.057	-0.010
-694.441	51.330	0.099	-0.096
-693.426	116.630	-0.111	-0.139
-692.412	-85.958	-0.631	-0.200
-691.397	-59.392	-0.250	0.110
-690.383	-53.983	0.312	0.145
-689.368	-200.000	0.019	-0.399
-688.354	-37.807	0.186	-0.101
-687.339	-49.225	-0.124	0.060
-686.324	-30.658	-0.308	0.178
-685.310	162.444	0.156	0.223
-684.295	800.000	-0.054	0.155
-683.281	-200.000	-0.000	-0.221
-682.266	-200.000	-0.029	-0.146
-681.251	-200.000	0.012	0.501
-680.237	-200.000	-0.090	0.429
-679.222	100.005	0.109	0.129
-678.208	-8.133	-0.116	0.080
-677.193	360.097	-0.113	-0.232
-676.178	-82.404	-0.344	0.114
-675.164	-2.610	-0.340	-0.243
-674.149	-136.129	0.434	0.052
-673.135	-200.000	-0.025	-0.156
-672.120	212.167	-0.143	0.231
-671.105	712.690	-0.087	0.235
-670.091	200.851	0.166	-0.260
-669.076	-200.000	0.001	-0.101
-668.062	-23.075	-0.180	-0.111
-667.047	331.621	-0.048	0.094
-666.032	101.504	0.185	-0.220
-665.018	-200.000	0.031	-0.204
-664.003	-110.088	-0.259	-0.055
-662.989	-57.385	0.197	-0.088
-661.974	54.926	0.258	0.254
-660.959	721.530	0.125	-0.340
-659.945	-200.000	-0.019	-0.144
-658.930	-32.624	0.172	-0.098
-657.916	87.084	0.203	0.229
-656.901	-82.707	-0.215	-0.071
-655.886	31.332	-0.188	0.165
-654.872	695.466	-0.120	0.320
-653.857	91.418	-0.240	0.275
-652.843	-83.685	-0.172	0.056
-651.828	-60.793	-0.181	-0.078
-650.814	-5.277	-0.123	-0.086
-649.799	-135.041	-0.183	-0.023
-648.784	-200.000	0.028	-0.298
-647.770	-200.000	0.026	-0.141
-646.755	-47.777	0.071	0.035
-645.741	64.283	-0.154	-0.158
-644.726	-200.000	0.029	-0.142
-643.711	350.596	0.093	-0.187
-642.697	-97.059	0.146	-0.039
-641.682	-56.549	0.188	0.085
-640.668	130.690	0.215	-0.282
-639.653	614.180	0.028	0.072
-638.638	-200.000	-0.044	-0.271
-637.624	-147.977	0.149	0.013
-636.609	350.509	-0.131	0.265
-635.595	134.249	0.063	-0.084
-634.580	101.873	-0.107	0.127
-633.565	-200.000	-0.017	-0.198
-632.551	-35.068	-0.322	-0.179
-631.536	279.923	-0.220	-0.401
-630.522	-76.350	0.155	0.056
-629.507	-107.802	-0.160	-0.036
-628.492	-200.000	0.022	0.155
-627.478	-200.000	0.093	0.606
-626.463	738.121	0.036	-0.099
-625.449	800.000	0.046	0.179
-624.434	-200.000	0.030	0.244
-623.419	-65.403	0.252	-0.103
-622.405	-122.445	0.106	-0.018
-621.390	-67.606	-0.153	0.061
-620.376	-115.386	-0.136	0.026
-619.361	-75.812	-0.310	0.112
-618.346	800.000	0.108	-0.429
-617.332	41.711	0.273	0.252
-616.317	0.283	-0.218	0.158
-615.303	-37.121	-0.185	-0.101
-614.288	-7.750	-0.298	-0.205
-613.273	412.159	-0.051	0.110
-612.259	641.749	-0.091	0.237
-611.244	17.569	0.122	0.099
-610.230	-200.000	-0.039	0.269
-609.215	-200.000	-0.036	-0.278
-608.201	212.353	0.223	-0.357
-607.186	-200.000	0.026	0.262
-606.171	-92.714	-0.386	-0.110
-605.157	-80.024	0.051	0.017
-604.142	319.343	-0.119	-0.230
-603.128	32.700	0.055	-0.048
-602.113	59.913	0.030	0.031
-601.098	-11.504	-0.076	-0.051
-600.084	41.285	-0.345	0.318
-599.069	-91.209	-0.278	-0.081
-598.055	193.769	0.181	-0.278
-597.040	-141.797	-0.323	-0.033
-596.025	800.000	0.038	0.108
-595.011	-20.526	0.087	-0.055
-593.996	-108.845	-0.262	-0.057
-592.982	800.000	0.053	-0.209
-591.967	-200.000	-0.006	-0.083
-590.952	381.968	-0.139	-0.290
-589.938	203.492	0.084	0.132
-588.923	291.375	0.012	0.023
-587.909	-77.654	0.380	0.134
-586.894	800.000	0.022	0.069
-585.879	-8.125	-0.370	-0.254
-584.865	794.165	0.076	-0.213
-583.850	-23.921	0.306	-0.186
-582.836	-200.000	0.023	-0.206
-581.821	-200.000	-0.059	0.000
-580.806	-13.361	-0.161	0.107
-579.792	800.000	-0.038	0.124
-578.777	-200.000	-0.024	0.334
-577.763	800.000	-0.081	-0.352
-576.748	-86.831	-0.067	0.021
-575.733	-93.460	-0.350	-0.098
-574.719	-13.044	-0.175	0.116
-573.704	8.450	0.253	0.194
-572.690	94.689	0.270	0.312
-571.675	-91.695	-0.285	0.083
-570.661	140.628	0.172	0.231
-569.646	-200.000	-0.018	0.089
-568.631	18.627	0.287	-0.234
-567.617	-5.420	-0.138	0.096
-566.602	273.340	-0.063	-0.113
-565.588	-53.578	0.194	-0.090
-564.573	-167.171	-0.339	0.014
-563.558	77.803	0.145	-0.157
-562.544	800.000	-0.066	-0.250
-561.529	800.000	-0.060	0.213
-560.515	65.211	-0.085	-0.087
-559.500	544.993	-0.121	-0.294
-558.485	-96.015	0.143	-0.039
-557.471	-88.762	0.122	-0.037
-556.456	-94.666	0.175	0.048
-555.442	-46.947	-0.147	0.073
-554.427	-85.231	-0.143	0.046
-553.412	800.000	-0.037	-0.149
-552.398	-200.000	-0.000	0.253
-551.383	256.276	-0.051	-0.089
-550.369	90.921	0.145	0.166
-549.354	539.771	-0.103	0.248
-548.339	-31.929	0.294	0.167
-547.325	164.198	-0.244	0.349
-546.310	-45.348	-0.354	0.178
-545.296	67.041	-0.075	0.077
-544.281	94.987	0.298	-0.345
-543.266	-27.380	-0.327	-0.193
-542.252	194.365	-0.096	-0.148
-541.237	233.468	0.030	-0.050
-540.223	-132.495	-0.162	0.021
-539.208	-108.056	0.075	-0.016
-538.193	291.967	-0.112	0.208
-537.179	1.945	-0.110	-0.081
-536.164	-8.045	-0.098	-0.067
-535.150	800.000	0.111	-0.471
-534.135	266.691	-0.162	-0.287
-533.121	279.842	-0.065	-0.118
-532.106	570.661	0.162	-0.400
-531.091	85.077	-0.146	0.163
-530.077	-200.000	-0.017	0.143
-529.062	501.966	-0.111	0.261
-528.048	12.489	-0.221	0.173
-527.033	186.206	0.127	0.191
-526.018	177.127	-0.088	-0.130
-525.004	191.210	0.102	0.156
-523.989	265.077	0.129	0.227
-522.975	522.235	0.081	-0.193
-521.960	187.274	0.121	0.182
-520.945	-108.999	0.134	-0.029
-519.931	333.404	0.056	0.111
-518.916	106.549	-0.209	-0.251
-517.902	-24.558	-0.169	-0.102
-516.887	468.888	-0.108	-0.246
-515.872	-200.000	0.029	0.365
-514.858	148.537	-0.102	0.139
-513.843	800.000	-0.031	0.121
-512.829	-200.000	-0.001	0.026
-511.814	-20.884	-0.145	-0.090
-510.799	75.423	-0.147	0.157
-509.785	-20.769	0.351	0.218
-508.770	800.000	0.101	-0.365
-507.756	-85.895	-0.092	0.029
-506.741	-136.115	-0.178	-0.021
-505.726	800.000	0.028	0.078
-504.712	-2.333	0.086	0.061
-503.697	123.583	0.028	-0.035
-502.683	203.950	-0.051	0.080
-501.668	-200.000	0.022	-0.190
-500.653	108.921	0.163	-0.198
-499.639	-200.000	-0.006	0.359
-498.624	129.503	-0.126	0.164
-497.610	-133.859	-0.085	0.011
-496.595	-200.000	0.017	-0.104
-495.581	24.283	-0.124	-0.104
-494.566	-65.820	-0.352	-0.143
-493.551	250.397	0.078	-0.135
-492.537	-26.181	0.071	-0.042
-491.522	16.324	-0.070	0.056
-490.508	240.276	0.099	0.168
-489.493	-105.355	-0.502	-0.116
-488.478	405.185	0.105	0.225
-487.464	-52.299	-0.076	-0.036
-486.449	234.335	0.121	-0.203
-485.435	299.716	0.065	-0.120
-484.420	22.825	0.191	0.159
-483.405	121.477	0.169	0.213
-482.391	16.878	0.211	0.169
-481.376	-200.000	-0.018	-0.101
-480.362	-200.000	0.003	-0.264
-479.347	800.000	-0.040	-0.142
-478.332	113.225	-0.190	0.234
-477.318	84.950	0.237	0.263
-476.303	-108.503	-0.078	0.017
-475.289	253.576	-0.198	0.343
-474.274	800.000	-0.113	-0.373
-473.259	-7.859	0.197	0.135
-472.245	-145.746	0.358	-0.032
-471.230	-57.349	0.312	0.139
-470.216	575.196	-0.094	0.232
-469.201	-97.500	0.185	0.049
-468.186	-200.000	0.001	-0.251
-467.172	485.752	0.090	0.208
-466.157	-117.238	-0.181	-0.033
-465.143	-121.924	-0.058	-0.010
-464.128	-83.569	-0.330	0.107
-463.113	800.000	0.019	0.078
-462.099	448.483	0.081	-0.180
-461.084	-13.276	-0.152	0.100
-460.070	-43.331	-0.043	0.022
-459.055	657.950	0.058	0.152
-458.040	-57.695	0.178	-0.079
-457.026	-200.000	-0.281	-0.000
-456.011	-81.481	0.218	0.073
-454.997	800.000	0.052	0.154
-453.982	-153.442	0.120	-0.008
-452.968	45.430	-0.356	-0.333
-451.953	-101.351	-0.426	-0.105
-450.938	-108.436	-0.154	-0.034
-449.924	-157.772	-0.132	0.008
-448.909	265.417	-0.120	0.212
-447.895	-133.952	0.374	0.047
-446.880	24.318	0.068	0.057
-445.865	17.418	0.251	0.202
-444.851	-7.049	-0.096	-0.066
-443.836	-55.732	0.262	-0.118
-442.822	-200.000	0.007	0.066
-441.807	-29.103	-0.095	0.055
-440.792	278.756	0.066	-0.120
-439.778	114.184	-0.082	-0.101
-438.763	-107.817	-0.083	-0.018
-437.749	95.079	-0.159	-0.183
-436.734	301.669	0.166	-0.311
-435.719	800.000	-0.049	0.195
-434.705	-141.412	0.246	0.025
-433.690	-25.052	-0.115	0.069
-432.676	-44.380	-0.174	0.088
-431.661	-64.307	-0.138	0.057
-430.646	-33.047	0.270	0.151
-429.632	-9.545	0.343	0.231
-428.617	313.063	0.046	-0.087
-427.603	393.365	-0.064	0.134
-426.588	-84.838	-0.202	0.064
-425.573	-124.632	0.391	0.061
-424.559	-78.333	-0.265	-0.092
-423.544	339.756	-0.164	-0.324
-422.530	800.000	0.034	-0.145
-421.515	39.300	-0.145	-0.131
-420.500	-38.187	0.127	0.068
-419.486	27.111	0.101	0.085
-418.471	188.830	-0.096	0.146
-417.457	564.049	0.111	0.271
-416.442	101.010	-0.150	0.177
-415.428	0.156	-0.204	0.147
-414.413	-17.533	-0.134	-0.085
-413.398	-140.283	-0.242	-0.026
-412.384	16.883	0.188	0.151
-411.369	199.446	0.177	0.275
-410.355	-126.351	-0.391	0.059
-409.340	800.000	-0.074	-0.212
-408.325	234.277	0.092	-0.154
-407.311	206.591	0.131	-0.206
-406.296	582.679	0.116	-0.288
-405.282	-149.283	0.106	-0.009
-404.267	311.673	0.122	-0.231
-403.252	-134.753	0.317	0.039
-402.238	22.808	-0.088	0.073
-401.223	800.000	0.054	-0.169
-400.209	2.779	0.197	-0.144
-399.194	800.000	0.044	0.126
-398.179	800.000	0.073	-0.238
-397.165	-36.737	-0.344	0.187
-396.150	187.701	-0.174	0.263
-395.136	-7.476	0.196	0.134
-394.121	658.748	0.116	-0.301
-393.106	47.271	0.107	0.100
-392.092	-140.159	0.016	0.002
-391.077	86.180	-0.136	-0.152
-390.063	-47.740	-0.338	0.165
-389.048	800.000	0.060	0.240
-388.033	543.892	0.051	-0.123
-387.019	285.922	0.161	0.293
-386.004	-200.000	0.014	0.285
-384.990	-118.706	-0.488	-0.087
-383.975	-80.766	-0.233	-0.078
-382.960	800.000	0.110	-0.382
-381.946	241.787	-0.048	-0.080
-380.931	696.390	-0.095	0.252
-379.917	800.000	-0.047	-0.197
-378.902	-161.081	0.179	-0.009
-377.888	-19.762	-0.094	-0.059
-376.873	-143.008	-0.185	-0.018
-375.858	-200.000	0.021	-0.271
-374.844	-200.000	-0.015	0.241
-373.829	-5.333	0.222	-0.154
-372.815	557.124	0.053	-0.130
-371.800	-102.648	-0.099	-0.024
-370.785	800.000	0.073	0.220
-369.771	181.387	0.084	-0.125
-368.756	-129.634	-0.137	-0.019
-367.742	302.846	0.147	-0.275
-366.727	-200.000	0.015	0.381
-365.712	-62.182	0.210	-0.088
-364.698	-200.000	0.046	0.281
-363.683	656.182	-0.159	0.411
-362.669	396.004	-0.150	-0.316
-361.654	-94.735	0.266	0.073
-360.639	-56.600	0.206	0.092
-359.625	280.150	0.020	0.036
-358.610	316.064	0.118	0.225
-357.596	-47.833	-0.217	0.106
-356.581	60.482	-0.122	0.122
-355.566	615.727	0.066	-0.167
-354.552	404.650	-0.077	0.164
-353.537	800.000	0.092	-0.368
-352.523	-26.272	-0.073	-0.043
-351.508	241.434	0.041	0.069
-350.493	-120.952	0.210	0.036
-349.479	-200.000	-0.019	0.263
-348.464	-200.000	-0.015	0.136
-347.450	509.809	0.094	0.220
-346.435	-84.252	-0.115	0.037
-345.420	800.000	-0.053	0.184
-344.406	-176.714	-0.373	-0.010
-343.391	-132.698	0.144	0.019
-342.377	67.370	-0.020	-0.021
-341.362	-13.395	0.446	-0.291
-340.348	-155.076	-0.237	-0.016
-339.333	-99.329	-0.305	0.078
-338.318	800.000	0.042	-0.177
-337.304	178.502	0.117	0.172
-336.289	255.507	-0.216	-0.373
-335.275	-162.750	-0.120	-0.006
-334.260	-2.932	-0.210	0.148
-333.245	-160.920	0.232	-0.012
-332.231	241.723	0.002	-0.003
-331.216	-149.539	-0.134	-0.011
-330.202	-155.050	-0.136	-0.009
-329.187	44.588	-0.098	0.091
-328.172	800.000	0.099	0.320
-327.158	-131.893	0.216	0.028
-326.143	800.000	-0.048	-0.156
-325.129	482.446	0.142	-0.324
-324.114	276.148	-0.106	-0.190
-323.099	-75.941	-0.323	-0.115
-322.085	-129.514	-0.173	0.024
-321.070	-183.480	-0.033	-0.001
-320.056	-168.482	0.234	-0.009
-319.041	166.333	-0.189	0.269
-318.026	-161.871	0.498	0.025
-317.012	-127.623	0.429	0.062
-315.997	169.788	-0.165	-0.237
-314.983	-57.430	0.224	-0.099
-313.968	-37.292	-0.194	-0.105
-312.953	83.503	-0.102	-0.112
-311.939	-200.000	-0.041	-0.264
-310.924	146.514	-0.042	-0.057
-309.910	-200.000	-0.074	0.501
-308.895	800.000	0.039	0.162
-307.880	-140.810	-0.162	0.017
-306.866	-200.000	-0.090	-0.441
-305.851	120.949	0.133	-0.166
-304.837	16.707	-0.217	0.173
-303.822	189.181	-0.128	0.193
-302.807	88.214	0.039	0.043
-301.793	800.000	0.009	-0.036
-300.778	-130.973	0.223	-0.030
-299.764	355.147	0.169	-0.339
-298.749	196.750	-0.095	0.146
-297.735	21.881	0.147	0.121
-296.720	-200.000	0.014	-0.399
-295.705	8.460	0.137	0.104
-294.691	-200.000	-0.005	0.212
-293.676	-82.127	0.088	-0.029
-292.662	-69.323	-0.140	-0.054
-291.647	-126.361	0.275	0.041
-290.632	800.000	0.048	-0.191
-289.618	-200.000	0.008	-0.206
-288.603	-200.000	-0.021	0.185
-287.589	-6.400	-0.256	0.176
-286.574	-145.845	0.005	0.000
-285.559	800.000	0.079	0.258
-284.545	-200.000	0.046	-0.206
-283.530	47.977	-0.221	0.208
-282.516	139.581	-0.152	0.201
-281.501	49.631	-0.082	0.078
-280.486	71.509	0.257	-0.269
-279.472	296.824	0.057	-0.105
-278.457	-68.167	-0.133	-0.052
-277.443	251.207	0.087	-0.149
-276.428	-200.000	-0.007	-0.362
-275.413	87.437	-0.136	0.151
-274.399	-83.803	-0.064	0.021
-273.384	800.000	-0.035	0.123
-272.370	433.432	0.134	0.293
-271.355	-28.485	0.389	-0.225
-270.340	173.027	-0.159	-0.231
-269.326	-41.726	0.187	-0.097
-268.311	259.963	-0.192	0.332
-267.297	107.362	-0.161	0.192
-266.282	800.000	0.058	0.181
-265.267	-158.212	-0.295	-0.017
-264.253	360.461	-0.019	-0.039
-263.238	-200.000	0.014	-0.140
-262.224	-23.781	-0.323	-0.194
-261.209	1.686	-0.181	0.131
-260.195	21.775	0.028	0.023
-259.180	-148.375	-0.240	0.020
-258.165	800.000	-0.023	-0.094
-257.151	103.831	-0.184	-0.217
-256.136	-70.023	0.118	0.045
-255.122	14.703	0.114	0.090
-254.107	39.016	-0.164	-0.147
-253.092	53.083	0.218	0.210
-252.078	2.136	-0.171	0.124
-251.063	487.433	-0.159	-0.364
-250.049	49.614	-0.061	-0.058
-249.034	481.647	-0.075	-0.171
-248.019	12.674	-0.028	0.022
-247.005	50.625	-0.089	-0.085
-245.990	668.407	-0.067	0.173
-244.976	-137.168	0.286	-0.033
-243.961	-62.959	-0.143	0.059
-242.946	-140.971	-0.230	-0.024
-241.932	-164.449	-0.250	0.011
-240.917	-196.035	0.476	-0.003
-239.903	-150.060	0.287	0.022
-238.888	-200.000	-0.011	0.078
-237.873	-143.257	0.077	0.007
-236.859	212.952	-0.029	0.045
-235.844	-71.345	-0.113	-0.042
-234.830	200.002	0.048	0.073
-233.815	-200.000	-0.054	0.353
-232.800	-29.170	0.189	0.109
-231.786	135.944	0.018	-0.023
-230.771	-200.000	0.018	-0.130
-229.757	-184.062	0.258	0.004
-228.742	107.422	0.118	-0.140
-227.727	83.300	0.228	-0.249
-226.713	228.182	0.119	-0.194
-225.698	99.686	-0.019	-0.022
-224.684	39.772	0.263	0.236
-223.669	64.537	-0.170	-0.172
-222.655	32.618	-0.067	0.059
-221.640	61.525	-0.148	-0.148
-220.625	-200.000	0.026	-0.173
-219.611	-200.000	0.014	0.260
-218.596	-101.301	0.334	0.082
-217.582	370.225	-0.002	-0.005
-216.567	-84.762	0.031	-0.010
-215.552	204.274	-0.088	0.136
-214.538	-67.611	0.116	0.046
-213.523	335.066	-0.157	0.304
-212.509	11.102	0.126	-0.097
-211.494	-133.102	0.321	-0.041
-210.479	47.532	-0.035	0.033
-209.465	-200.000	-0.015	0.108
-208.450	-38.171	0.076	0.041
-207.436	507.307	0.047	0.109
-206.421	233.220	-0.154	-0.254
-205.406	-113.242	0.110	-0.022
-204.392	-200.000	-0.058	-0.342
-203.377	525.324	0.135	0.318
-202.363	800.000	0.082	0.347
-201.348	75.180	-0.151	-0.160
-200.333	800.000	-0.069	0.299
-199.319	800.000	0.044	-0.132
-198.304	-92.804	0.047	-0.013
-197.290	-38.552	0.282	0.150
-196.275	443.812	-0.023	-0.050
-195.260	186.006	0.120	-0.179
-194.246	-18.726	-0.078	0.048
-193.231	-82.053	0.144	-0.047
-192.217	-200.000	0.002	-0.035
-191.202	-42.106	-0.075	-0.038
-190.187	-115.484	0.272	0.051
-189.173	440.004	0.228	-0.500
-188.158	-130.195	-0.122	0.017
-187.144	66.508	0.019	0.019
-186.129	-178.226	0.204	0.005
-185.114	90.231	0.173	0.194
-184.100	31.293	0.182	0.156
-183.085	10.118	0.146	0.111
-182.071	-141.153	0.233	-0.024
-181.056	-97.909	0.221	0.057
-180.042	-178.866	0.290	0.007
-179.027	105.806	-0.083	-0.099
-178.012	-9.507	0.204	-0.136
-176.998	-200.000	0.005	-0.284
-175.983	308.984	-0.086	0.161
-174.969	-68.338	0.258	0.100
-173.954	77.539	0.250	-0.266
-172.939	-129.992	0.140	-0.019
-171.925	-200.000	-0.004	0.141
-170.910	-115.660	0.217	-0.041
-169.896	67.257	-0.070	-0.072
-168.881	-145.420	-0.161	-0.015
-167.866	296.630	-0.132	0.242
-166.852	-188.836	-0.072	-0.001
-165.837	422.838	-0.085	-0.182
-164.823	-200.000	0.016	-0.072
-163.808	-158.151	-0.323	-0.019
-162.793	256.964	-0.096	0.165
-161.779	-89.782	0.089	0.026
-160.764	582.446	-0.023	-0.057
-159.750	642.979	0.090	0.230
-158.735	11.518	0.203	-0.156
-157.720	800.000	0.046	0.193
-156.706	-200.000	0.017	-0.120
-155.691	800.000	-0.040	0.116
-154.677	217.015	0.084	0.134
-153.662	15.350	0.238	-0.187
-152.647	28.373	-0.107	0.090
-151.633	-181.437	0.480	0.009
-150.618	206.813	-0.220	0.343
-149.604	101.966	0.154	-0.179
-148.589	261.860	-0.104	0.181
-147.574	103.363	-0.133	0.157
-146.560	687.819	0.142	0.371
-145.545	-21.729	0.118	0.072
-144.531	-100.237	-0.307	-0.076
-143.516	214.056	-0.038	-0.060
-142.502	20.121	-0.184	0.148
-141.487	-73.425	0.128	-0.047
-140.472	-10.125	0.188	-0.125
-139.458	101.483	-0.164	0.191
-138.443	90.312	0.287	-0.321
-137.429	142.600	-0.061	0.082
-136.414	-200.000	-0.034	0.324
-135.399	-94.010	0.128	0.035
-134.385	-53.017	-0.158	0.073
-133.370	-30.499	-0.341	0.193
-132.356	800.000	0.064	0.182
-131.341	800.000	0.112	0.400
-130.326	143.640	0.089	-0.119
-129.312	-81.753	0.184	0.060
-128.297	221.921	0.241	0.387
-127.283	-104.553	0.119	-0.027
-126.268	-117.947	-0.138	0.025
-125.253	-52.894	0.191	-0.088
-124.239	-156.339	0.197	-0.012
-123.224	800.000	-0.059	-0.175
-122.210	-27.063	-0.024	0.014
-121.195	139.423	-0.021	0.028
