DTS Sentinel unit serial number:	SN413079Multiplexer serial number:	ORYXHardware model number:	OX4-SRSoftware version number:	ORYX F/W v4.00 Oryx Data Collector v3.7.2.0data status	okinstallation	princeton_trtdifferential loss correction	single-endedforward channel	channel 1reverse channel	N/Adate	2019/09/12time	00:12:11forward acquisition time	60.00reverse acquisition time	0.00gamma	496.2192k internal	0.2318k external	0.2318temperature offset calibration	1.0075default loss term (dB/km)	0.3790temperature slope calibration	1.0000multiplexer offset coefficient	1.0000multiplexer slope coefficient	1.0000fibre end	0.00T internal ref (°C)	33.62T ext. ref 1 (°C)	2.02T ext. ref 2 (°C)	28.26length (m)	temperature (°C)	Stokes	anti-Stokes-747.200	38.435	0.218	0.197
-746.185	-200.000	-0.089	0.498
-745.171	-70.964	-0.224	0.085
-744.156	296.547	-0.034	-0.063
-743.142	-54.048	-0.147	0.068
-742.127	-200.000	0.089	0.602
-741.112	-112.159	-0.277	0.056
-740.098	-200.000	0.036	0.309
-739.083	800.000	-0.025	0.086
-738.069	80.705	-0.163	0.178
-737.054	212.031	-0.018	0.029
-736.039	0.459	-0.375	0.271
-735.025	14.695	0.108	-0.086
-734.010	544.194	0.094	-0.226
-732.996	-81.205	-0.147	-0.049
-731.981	-91.064	-0.137	0.040
-730.966	-61.635	-0.326	-0.139
-729.952	279.550	-0.102	0.184
-728.937	-200.000	0.001	0.087
-727.923	-200.000	-0.028	-0.393
-726.908	162.373	-0.167	-0.237
-725.894	59.735	-0.178	0.177
-724.879	221.706	0.194	0.316
-723.864	-90.086	0.059	-0.017
-722.850	114.825	0.024	0.030
-721.835	-187.449	0.277	-0.004
-720.821	-7.780	0.175	0.119
-719.806	-105.040	-0.129	0.030
-718.791	80.114	-0.111	-0.120
-717.777	86.357	-0.391	-0.435
-716.762	92.208	-0.062	-0.071
-715.748	202.960	-0.153	-0.239
-714.733	14.583	-0.310	-0.245
-713.718	15.315	-0.292	-0.232
-712.704	-200.000	0.001	-0.022
-711.689	476.311	0.101	0.231
-710.675	716.299	-0.020	-0.053
-709.660	322.893	-0.036	0.069
-708.645	-200.000	0.015	-0.174
-707.631	-21.323	0.136	-0.084
-706.616	-28.202	0.069	-0.040
-705.602	-149.955	-0.272	0.021
-704.587	800.000	0.085	-0.374
-703.572	-97.807	-0.052	-0.014
-702.558	-63.878	-0.144	0.060
-701.543	-70.094	0.222	-0.085
-700.529	125.099	0.180	-0.229
-699.514	29.805	0.343	-0.295
-698.499	-136.865	-0.217	0.025
-697.485	31.864	0.068	-0.059
-696.470	9.038	0.165	0.126
-695.456	193.406	-0.090	0.138
-694.441	86.213	0.094	-0.105
-693.426	327.167	0.081	0.156
-692.412	-126.189	0.162	0.024
-691.397	233.990	-0.246	-0.409
-690.383	672.217	-0.150	-0.393
-689.368	-46.482	-0.312	-0.154
-688.354	-200.000	0.027	0.202
-687.339	-70.457	-0.186	0.071
-686.324	-58.049	0.226	0.099
-685.310	-150.420	0.315	0.024
-684.295	-200.000	-0.035	-0.214
-683.281	-35.525	-0.252	-0.138
-682.266	-200.000	-0.003	-0.285
-681.251	249.675	0.008	-0.013
-680.237	-37.248	-0.071	-0.038
-679.222	-132.659	-0.049	0.006
-678.208	-200.000	0.022	-0.137
-677.193	20.919	0.096	0.079
-676.178	800.000	0.063	0.210
-675.164	241.933	-0.040	-0.067
-674.149	782.922	0.131	0.363
-673.135	-101.123	0.176	0.043
-672.120	-185.474	-0.222	-0.003
-671.105	38.363	-0.188	-0.169
-670.091	49.250	-0.121	-0.115
-669.076	-57.432	0.212	0.094
-668.062	-95.477	-0.189	0.051
-667.047	-52.489	-0.331	-0.155
-666.032	-142.678	-0.235	0.023
-665.018	0.407	-0.190	0.137
-664.003	-85.269	0.244	0.077
-662.989	-200.000	0.002	0.052
-661.974	-125.725	-0.112	-0.017
-660.959	-38.573	0.051	0.027
-659.945	79.473	0.127	-0.137
-658.930	13.464	-0.185	0.144
-657.916	-15.890	-0.176	0.113
-656.901	800.000	0.047	-0.196
-655.886	800.000	0.073	-0.214
-654.872	103.864	-0.221	-0.262
-653.857	-200.000	-0.015	-0.243
-652.843	800.000	0.044	-0.173
-651.828	-67.327	0.445	-0.176
-650.814	102.899	-0.040	0.047
-649.799	-200.000	0.017	-0.088
-648.784	-200.000	0.021	0.142
-647.770	387.900	0.075	-0.157
-646.755	800.000	0.096	-0.386
-645.741	800.000	0.058	0.190
-644.726	-15.016	0.113	0.073
-643.711	251.221	-0.123	0.211
-642.697	22.323	-0.210	0.173
-641.682	0.115	-0.393	0.283
-640.668	-82.974	-0.314	0.102
-639.653	-76.300	-0.100	0.035
-638.638	800.000	0.023	-0.081
-637.624	-22.566	0.360	0.219
-636.609	-119.026	-0.115	-0.020
-635.595	144.396	0.056	-0.075
-634.580	-55.959	0.144	-0.065
-633.565	575.720	0.127	-0.313
-632.551	53.995	0.146	0.142
-631.536	-200.000	-0.009	0.139
-630.522	-103.589	-0.249	0.059
-629.507	-200.000	0.004	-0.062
-628.492	290.935	0.229	0.420
-627.478	18.051	0.182	-0.146
-626.463	-136.256	-0.352	-0.041
-625.449	-70.982	0.187	0.071
-624.434	-200.000	-0.060	0.280
-623.419	511.092	-0.104	-0.243
-622.405	39.949	-0.052	0.047
-621.390	-200.000	-0.010	0.112
-620.376	800.000	-0.090	-0.308
-619.361	197.248	-0.185	-0.285
-618.346	-200.000	-0.050	-0.253
-617.332	11.829	0.122	0.094
-616.317	-63.975	0.117	0.048
-615.303	-200.000	0.033	0.224
-614.288	158.525	-0.167	-0.234
-613.273	63.196	0.117	0.118
-612.259	-200.000	0.282	0.001
-611.244	-21.765	0.325	0.199
-610.230	-200.000	-0.052	-0.234
-609.215	-36.261	-0.104	-0.056
-608.201	-139.991	0.288	-0.031
-607.186	-200.000	0.038	-0.187
-606.171	-184.542	-0.343	0.006
-605.157	-172.833	-0.326	0.010
-604.142	-136.751	-0.187	0.022
-603.128	-106.398	-0.131	0.029
-602.113	39.178	-0.108	0.097
-601.098	91.379	0.089	-0.101
-600.084	-200.000	0.011	0.165
-599.069	95.982	-0.084	0.097
-598.055	-51.253	-0.215	0.101
-597.040	315.246	0.197	0.374
-596.025	-109.397	-0.363	-0.077
-595.011	139.315	-0.058	0.076
-593.996	-177.640	0.300	-0.007
-592.982	64.568	0.231	0.235
-591.967	-200.000	0.006	0.181
-590.952	281.742	0.188	-0.339
-589.938	144.035	-0.419	-0.562
-588.923	79.530	-0.197	-0.213
-587.909	9.156	-0.098	0.074
-586.894	-200.000	-0.098	0.477
-585.879	-76.999	0.435	-0.153
-584.865	20.474	-0.046	-0.037
-583.850	223.907	-0.136	-0.221
-582.836	31.533	0.151	-0.131
-581.821	55.491	-0.098	0.095
-580.806	800.000	-0.062	0.198
-579.792	-200.000	0.016	-0.226
-578.777	-55.898	-0.342	0.153
-577.763	28.964	-0.224	0.191
-576.748	589.139	-0.077	0.190
-575.733	276.833	-0.316	0.565
-574.719	-96.825	0.154	-0.041
-573.704	64.924	-0.249	-0.253
-572.690	162.416	-0.060	0.085
-571.675	-162.847	-0.190	0.009
-570.661	-156.764	0.283	0.018
-569.646	-200.000	-0.090	-0.441
-568.631	-107.859	-0.222	-0.049
-567.617	131.807	-0.037	0.047
-566.602	373.928	-0.036	-0.074
-565.588	-200.000	-0.013	-0.208
-564.573	14.014	0.046	-0.036
-563.558	-200.000	-0.004	0.038
-562.544	284.783	0.075	-0.136
-561.529	-200.000	0.231	0.000
-560.515	214.497	-0.057	-0.091
-559.500	800.000	-0.054	-0.226
-558.485	30.351	0.102	0.087
-557.471	-53.205	-0.234	0.108
-556.456	57.074	0.173	-0.169
-555.442	11.916	0.219	0.169
-554.427	-31.580	-0.355	0.200
-553.412	-182.612	0.229	-0.004
-552.398	89.336	0.170	0.191
-551.383	800.000	-0.099	0.342
-550.369	-1.427	-0.202	-0.143
-549.354	-200.000	0.004	-0.199
-548.339	27.461	0.160	0.135
-547.325	56.041	0.151	0.148
-546.310	172.696	0.127	0.183
-545.296	-10.396	0.214	-0.142
-544.281	60.724	0.063	0.062
-543.266	581.269	-0.047	-0.116
-542.252	194.478	-0.122	0.186
-541.237	119.255	-0.275	-0.342
-540.223	-200.000	-0.053	-0.377
-539.208	-61.473	0.051	-0.022
-538.193	-122.027	0.134	-0.022
-537.179	-10.252	0.027	0.018
-536.164	-70.803	-0.160	0.061
-535.150	-16.843	-0.185	0.117
-534.135	-79.711	0.095	-0.032
-533.121	94.432	-0.142	-0.162
-532.106	14.279	-0.156	0.122
-531.091	150.817	-0.237	0.323
-530.077	334.288	-0.142	-0.276
-529.062	-85.894	0.185	-0.057
-528.048	-178.241	-0.045	-0.001
-527.033	128.010	-0.183	-0.234
-526.018	800.000	-0.024	-0.091
-525.004	86.073	0.235	-0.260
-523.989	-133.869	-0.081	-0.010
-522.975	35.203	-0.054	-0.048
-521.960	-52.546	0.312	0.145
-520.945	-75.887	-0.173	-0.062
-519.931	192.530	0.127	-0.192
-518.916	-200.000	-0.023	-0.137
-517.902	-200.000	0.010	-0.177
-516.887	-7.283	0.180	-0.122
-515.872	26.059	0.209	-0.175
-514.858	-119.226	0.173	0.030
-513.843	121.661	0.113	0.142
-512.829	800.000	0.088	0.253
-511.814	-57.768	-0.489	0.215
-510.799	-28.119	0.189	0.110
-509.785	59.485	-0.191	-0.189
-508.770	-200.000	-0.020	-0.457
-507.756	142.086	0.282	-0.375
-506.741	-200.000	0.023	-0.153
-505.726	800.000	0.044	-0.133
-504.712	-122.448	-0.203	-0.033
-503.697	97.657	0.123	0.142
-502.683	800.000	0.125	-0.392
-501.668	-15.925	0.252	-0.161
-500.653	-77.777	0.270	0.094
-499.639	77.299	0.097	0.103
-498.624	191.007	0.041	0.062
-497.610	-200.000	-0.001	0.040
-496.595	-107.895	-0.126	0.027
-495.581	142.042	0.102	0.135
-494.566	135.869	0.080	0.105
-493.551	52.997	0.151	-0.145
-492.537	-129.444	0.390	0.054
-491.522	-51.518	0.184	-0.086
-490.508	800.000	0.031	-0.087
-489.493	24.073	0.039	0.032
-488.478	208.833	0.172	0.270
-487.464	-59.718	0.147	0.063
-486.449	-22.183	0.298	-0.181
-485.435	-83.833	-0.270	0.086
-484.420	208.055	-0.168	-0.262
-483.405	800.000	0.102	-0.411
-482.391	-164.208	-0.136	-0.006
-481.376	388.446	0.067	0.139
-480.362	209.188	-0.051	0.079
-479.347	-57.074	0.275	0.122
-478.332	-149.945	0.214	0.017
-477.318	-200.000	-0.034	-0.345
-476.303	5.838	0.098	-0.073
-475.289	551.012	-0.055	0.133
-474.274	129.638	0.189	0.242
-473.259	233.541	0.038	-0.062
-472.245	292.794	0.070	-0.128
-471.230	-200.000	0.009	-0.147
-470.216	-200.000	-0.006	-0.121
-469.201	-42.452	0.191	0.098
-468.186	22.636	-0.094	0.077
-467.172	-200.000	-0.005	-0.182
-466.157	184.496	-0.207	0.307
-465.143	800.000	-0.033	0.126
-464.128	-103.154	-0.482	-0.114
-463.113	-200.000	0.064	-0.409
-462.099	800.000	0.046	0.144
-461.084	-154.765	0.141	0.009
-460.070	-99.103	-0.164	-0.042
-459.055	94.775	-0.093	0.106
-458.040	443.192	0.080	0.176
-457.026	-96.704	0.202	0.053
-456.011	-129.101	-0.289	-0.040
-454.997	-184.662	-0.139	-0.002
-453.982	-85.539	0.055	0.017
-452.968	41.923	-0.046	-0.042
-451.953	101.647	-0.106	0.123
-450.938	96.442	-0.220	-0.251
-449.924	-51.628	0.223	-0.104
-448.909	-117.439	-0.056	-0.010
-447.895	120.358	-0.037	-0.047
-446.880	-20.777	0.070	0.043
-445.865	-37.335	0.179	-0.096
-444.851	-32.902	-0.188	0.105
-443.836	45.451	0.151	0.139
-442.822	-200.000	0.039	0.347
-441.807	329.663	-0.013	0.025
-440.792	23.402	0.254	-0.208
-439.778	-76.226	0.433	-0.153
-438.763	2.268	0.266	-0.192
-437.749	36.185	0.228	0.201
-436.734	800.000	-0.087	-0.255
-435.719	-76.081	0.295	-0.104
-434.705	-155.952	-0.349	-0.022
-433.690	-200.000	-0.013	-0.183
-432.676	391.881	0.031	0.064
-431.661	617.209	-0.079	0.199
-430.646	507.582	0.039	0.092
-429.632	47.394	-0.155	0.144
-428.617	83.239	0.044	-0.048
-427.603	-200.000	-0.072	0.388
-426.588	172.718	-0.132	0.189
-425.573	253.210	0.057	-0.097
-424.559	144.815	-0.306	-0.409
-423.544	-200.000	0.031	-0.150
-422.530	167.787	0.078	-0.110
-421.515	-150.715	-0.105	0.008
-420.500	-119.386	0.221	-0.038
-419.486	220.371	0.134	0.214
-418.471	-178.832	-0.275	-0.006
-417.457	-143.154	-0.052	0.005
-416.442	100.506	0.312	0.362
-415.428	-200.000	0.004	0.112
-414.413	-132.004	-0.139	0.018
-413.398	18.479	0.166	0.132
-412.384	-154.338	-0.433	0.029
-411.369	800.000	-0.111	0.332
-410.355	-84.432	-0.215	-0.068
-409.340	800.000	0.069	-0.249
-408.325	-62.947	0.078	0.032
-407.311	97.271	0.153	-0.175
-406.296	-196.163	-0.215	-0.001
-405.282	233.149	-0.213	-0.350
-404.267	800.000	0.131	0.406
-403.252	85.122	0.115	0.126
-402.238	-200.000	0.009	0.072
-401.223	-31.266	0.123	0.069
-400.209	543.907	0.156	-0.372
-399.194	-32.790	-0.149	-0.083
-398.179	214.556	0.172	0.271
-397.165	-200.000	0.070	0.576
-396.150	-84.643	0.210	-0.066
-395.136	800.000	-0.062	0.180
-394.121	23.849	-0.249	-0.205
-393.106	-200.000	0.021	0.237
-392.092	-101.470	0.059	0.014
-391.077	-71.353	0.153	0.057
-390.063	56.594	0.021	0.020
-389.048	-200.000	-0.062	-0.344
-388.033	547.445	0.102	0.243
-387.019	26.019	-0.100	-0.083
-386.004	800.000	0.062	-0.189
-384.990	-200.000	0.024	0.108
-383.975	800.000	0.024	-0.084
-382.960	585.728	0.084	0.207
-381.946	4.470	-0.237	-0.174
-380.931	-44.980	0.139	-0.069
-379.917	87.467	0.098	0.109
-378.902	505.970	-0.090	-0.208
-377.888	-172.772	0.119	0.004
-376.873	-38.665	0.030	-0.016
-375.858	23.968	0.135	-0.111
-374.844	800.000	-0.085	-0.235
-373.829	-200.000	0.046	-0.290
-372.815	-200.000	0.016	0.186
-371.800	800.000	-0.047	0.145
-370.785	-163.371	-0.191	-0.009
-369.771	-62.908	0.064	0.026
-368.756	-50.511	0.144	0.068
-367.742	-87.848	0.202	0.061
-366.727	800.000	0.047	-0.168
-365.712	-27.923	-0.180	0.104
-364.698	-67.971	0.163	-0.063
-363.683	-79.637	-0.173	-0.058
-362.669	54.199	0.038	-0.037
-361.654	-137.745	0.313	0.035
-360.639	-200.000	0.014	-0.216
-359.625	-200.000	0.009	0.361
-358.610	800.000	0.047	0.176
-357.596	-111.125	0.194	0.040
-356.581	-131.538	0.239	-0.031
-355.566	532.450	-0.013	0.030
-354.552	-5.235	-0.053	0.036
-353.537	800.000	0.058	-0.237
-352.523	763.186	-0.078	0.210
-351.508	-200.000	0.006	0.158
-350.493	-152.895	0.108	-0.008
-349.479	86.412	-0.146	0.161
-348.464	96.996	-0.153	-0.175
-347.450	62.002	-0.151	-0.150
-346.435	127.094	0.361	-0.457
-345.420	800.000	-0.111	-0.317
-344.406	-117.315	0.272	0.049
-343.391	-171.893	0.059	0.002
-342.377	-200.000	-0.004	-0.095
-341.362	-65.859	-0.215	-0.086
-340.348	586.659	-0.172	-0.422
-339.333	131.668	-0.102	-0.131
-338.318	38.329	0.042	0.037
-337.304	-62.762	0.167	0.069
-336.289	80.653	0.152	0.163
-335.275	563.478	-0.111	-0.268
-334.260	93.191	-0.081	0.091
-333.245	35.614	0.167	0.146
-332.231	-200.000	-0.004	0.082
-331.216	-26.708	-0.093	-0.054
-330.202	-200.000	0.001	-0.150
-329.187	-50.567	-0.076	0.035
-328.172	800.000	-0.079	-0.238
-327.158	728.922	0.090	0.238
-326.143	436.097	-0.060	-0.131
-325.129	-200.000	-0.002	0.120
-324.114	398.554	0.069	-0.144
-323.099	-135.645	-0.121	0.014
-322.085	321.587	0.146	-0.277
-321.070	-200.000	-0.014	0.094
-320.056	-31.942	0.146	0.081
-319.041	35.601	-0.179	0.157
-318.026	56.480	0.161	0.156
-317.012	-184.563	0.277	-0.004
-315.997	-200.000	0.029	-0.215
-314.983	-92.119	-0.149	-0.042
-313.968	-116.372	-0.364	0.067
-312.953	96.717	0.296	-0.337
-311.939	98.110	-0.259	0.296
-310.924	-200.000	0.024	-0.124
-309.910	-200.000	-0.027	-0.165
-308.895	800.000	0.038	0.136
-307.880	-145.865	-0.262	0.023
-306.866	-200.000	0.036	0.388
-305.851	-200.000	0.030	-0.133
-304.837	35.790	-0.200	0.175
-303.822	46.623	-0.163	-0.150
-302.807	-107.081	-0.096	-0.021
-301.793	52.011	-0.238	0.226
-300.778	249.783	-0.037	-0.062
-299.764	-200.000	0.096	0.487
-298.749	-175.439	-0.147	0.004
-297.735	800.000	0.103	0.422
-296.720	-115.280	0.342	-0.064
-295.705	-200.000	-0.021	-0.225
-294.691	800.000	0.087	0.244
-293.676	547.765	-0.101	0.240
-292.662	-125.328	0.177	-0.027
-291.647	800.000	-0.061	0.244
-290.632	7.732	-0.116	0.086
-289.618	89.169	0.055	0.061
-288.603	-61.397	0.535	-0.224
-287.589	80.720	0.167	-0.179
-286.574	39.221	-0.134	0.119
-285.559	705.261	-0.032	-0.083
-284.545	-134.821	-0.197	0.024
-283.530	-200.000	-0.100	-0.553
-282.516	-77.610	-0.101	-0.035
-281.501	-182.545	-0.116	-0.002
-280.486	-200.000	0.008	0.162
-279.472	800.000	-0.094	0.322
-278.457	-122.237	0.364	0.059
-277.443	-28.826	0.467	-0.267
-276.428	34.458	0.160	0.139
-275.413	-123.932	0.277	0.043
-274.399	45.570	0.247	0.226
-273.384	800.000	-0.037	0.125
-272.370	-200.000	-0.040	-0.204
-271.355	800.000	0.119	0.363
-270.340	-44.358	-0.412	-0.205
-269.326	-4.938	0.201	-0.138
-268.311	601.096	-0.097	-0.239
-267.297	471.397	-0.042	0.095
-266.282	-200.000	-0.019	-0.256
-265.267	-166.921	0.019	-0.001
-264.253	602.386	-0.086	-0.211
-263.238	-57.645	-0.036	0.016
-262.224	-167.852	-0.361	0.014
-261.209	-200.000	0.059	0.436
-260.195	-8.423	-0.266	0.177
-259.180	2.829	0.086	0.062
-258.165	-110.710	0.151	0.031
-257.151	800.000	-0.025	-0.095
-256.136	-82.963	0.205	-0.066
-255.122	344.703	0.182	-0.354
-254.107	576.818	-0.059	-0.144
-253.092	800.000	0.046	0.164
-252.078	-82.800	-0.201	-0.064
-251.063	-146.323	-0.255	-0.022
-250.049	-200.000	-0.050	0.295
-249.034	10.283	0.142	0.108
-248.019	237.125	0.248	-0.408
-247.005	-17.179	-0.205	0.128
-245.990	8.212	0.101	-0.075
-244.976	-135.256	-0.202	0.024
-243.961	317.200	0.100	-0.188
-242.946	30.257	-0.088	-0.075
-241.932	-76.150	0.111	0.039
-240.917	171.590	0.183	0.260
-239.903	76.897	0.095	-0.100
-238.888	-12.125	-0.335	0.218
-237.873	293.683	0.137	-0.248
-236.859	-17.159	-0.183	-0.114
-235.844	31.345	0.118	-0.101
-234.830	-92.468	0.246	0.069
-233.815	800.000	-0.031	0.115
-232.800	-200.000	-0.033	0.405
-231.786	178.894	-0.138	-0.200
-230.771	-79.812	-0.075	-0.025
-229.757	-3.436	-0.214	-0.148
-228.742	30.588	-0.110	-0.094
-227.727	-154.586	0.366	0.024
-226.713	386.935	-0.218	-0.447
-225.698	49.967	-0.170	-0.159
-224.684	-154.507	0.256	-0.017
-223.669	24.954	0.077	-0.063
-222.655	-110.725	-0.274	0.056
-221.640	123.937	-0.118	-0.147
-220.625	-200.000	0.012	0.089
-219.611	93.680	-0.099	-0.111
-218.596	129.440	0.062	0.078
-217.582	-67.513	-0.074	-0.029
-216.567	800.000	-0.036	-0.146
-215.552	-200.000	-0.026	0.118
-214.538	205.505	0.219	0.337
-213.523	-200.000	-0.030	-0.142
-212.509	181.004	0.243	-0.354
-211.494	-12.265	0.230	0.149
-210.479	-60.718	-0.318	0.134
-209.465	218.082	0.157	-0.248
-208.450	-200.000	0.013	-0.112
-207.436	-162.179	-0.185	0.009
-206.421	541.378	0.081	0.192
-205.406	-77.346	-0.197	0.068
-204.392	-200.000	-0.034	0.296
-203.377	152.316	0.031	0.042
-202.363	-161.752	0.380	-0.019
-201.348	-200.000	0.018	0.136
-200.333	800.000	-0.145	-0.416
-199.319	800.000	-0.038	-0.137
-198.304	-55.239	0.217	-0.097
-197.290	-59.122	-0.335	0.143
-196.275	-200.000	-0.003	0.188
-195.260	-71.435	0.168	0.062
-194.246	-82.758	-0.125	0.040
-193.231	234.005	-0.153	-0.249
-192.217	-200.000	-0.010	-0.219
-191.202	800.000	0.033	0.091
-190.187	-161.932	-0.223	-0.011
-189.173	-178.012	-0.226	0.005
-188.158	-11.612	-0.371	0.242
-187.144	88.432	-0.068	0.075
-186.129	-200.000	-0.071	0.323
-185.114	91.753	-0.159	0.178
-184.100	-82.260	-0.198	0.064
-183.085	301.624	-0.222	0.406
-182.071	-37.118	0.454	0.240
-181.056	-38.160	0.012	0.006
-180.042	-200.000	-0.008	0.169
-179.027	800.000	-0.059	0.214
-178.012	-115.261	-0.314	-0.059
-176.998	66.713	0.042	0.042
-175.983	-79.074	0.192	0.065
-174.969	31.933	-0.330	0.282
-173.954	-21.978	0.051	-0.031
-172.939	37.739	-0.268	-0.236
-171.925	-77.624	0.404	-0.138
-170.910	-200.000	-0.051	0.340
-169.896	-22.220	0.141	-0.085
-168.881	484.961	-0.045	0.100
-167.866	-200.000	-0.026	-0.203
-166.852	16.661	0.149	0.117
-165.837	-40.047	0.168	0.087
-164.823	14.815	-0.136	0.105
-163.808	-200.000	-0.032	-0.178
-162.793	116.099	0.150	0.181
-161.779	-74.034	-0.582	0.209
-160.764	16.736	-0.033	-0.026
-159.750	-109.542	0.267	-0.056
-158.735	124.648	-0.067	0.083
-157.720	-98.995	0.153	-0.038
-156.706	800.000	-0.052	0.175
-155.691	163.722	0.037	-0.052
-154.677	800.000	0.034	-0.097
-153.662	200.808	-0.078	-0.119
-152.647	-33.319	-0.193	0.106
-151.633	-22.491	-0.128	0.077
-150.618	108.407	-0.093	-0.110
-149.604	-61.673	0.405	0.168
-148.589	800.000	-0.050	-0.151
-147.574	-141.088	-0.209	-0.021
-146.560	-184.480	-0.250	-0.004
-145.545	-109.699	0.261	-0.054
-144.531	0.715	0.226	-0.160
-143.516	68.161	-0.199	-0.202
-142.502	-125.866	0.152	0.023
-141.487	-200.000	-0.007	-0.370
-140.472	321.101	0.071	-0.133
-139.458	-87.031	-0.238	0.072
-138.443	134.330	-0.055	-0.070
-137.429	11.492	-0.106	-0.081
-136.414	172.309	-0.031	0.045
-135.399	230.500	0.152	0.246
-134.385	55.030	0.202	0.193
-133.370	-68.980	-0.215	0.082
-132.356	121.778	-0.121	-0.149
-131.341	-40.130	-0.208	0.107
-130.326	210.277	0.159	0.247
-129.312	800.000	-0.136	-0.373
-128.297	42.059	-0.152	-0.136
-127.283	-61.383	-0.244	-0.101
-126.268	-122.445	0.171	-0.027
-125.253	441.544	-0.063	-0.137
-124.239	78.341	-0.356	-0.375
-123.224	800.000	-0.099	-0.321
-122.210	-30.708	0.132	0.074
-121.195	-63.593	-0.111	-0.045
-120.180	524.249	-0.085	-0.197
