DTS Sentinel unit serial number:	SN413079Multiplexer serial number:	ORYXHardware model number:	OX4-SRSoftware version number:	ORYX F/W v4.00 Oryx Data Collector v3.7.2.0data status	okinstallation	princeton_trtdifferential loss correction	single-endedforward channel	channel 1reverse channel	N/Adate	2019/09/19time	00:50:35forward acquisition time	60.00reverse acquisition time	0.00gamma	496.2192k internal	0.2343k external	0.2343temperature offset calibration	1.0021default loss term (dB/km)	0.3790temperature slope calibration	1.0000multiplexer offset coefficient	1.0000multiplexer slope coefficient	1.0000fibre end	0.00T internal ref (°C)	22.09T ext. ref 1 (°C)	0.73T ext. ref 2 (°C)	15.36length (m)	temperature (°C)	Stokes	anti-Stokes-747.200	-87.955	0.174	0.052
-746.185	-131.105	-0.217	-0.029
-745.171	-105.697	-0.169	0.038
-744.156	231.386	-0.191	0.313
-743.142	-121.601	-0.210	0.035
-742.127	32.159	0.032	-0.028
-741.112	331.646	-0.058	0.112
-740.098	-67.804	-0.118	-0.046
-739.083	-79.564	0.158	-0.054
-738.069	-200.000	-0.010	0.487
-737.054	-153.006	-0.296	-0.021
-736.039	800.000	-0.033	-0.099
-735.025	359.167	0.144	-0.289
-734.010	-200.000	-0.006	-0.201
-732.996	-200.000	-0.011	-0.092
-731.981	329.268	0.054	-0.104
-730.966	109.133	-0.108	0.129
-729.952	18.211	-0.174	-0.139
-728.937	293.574	0.123	0.224
-727.923	-51.344	-0.216	0.101
-726.908	-34.140	0.088	0.048
-725.894	-31.673	-0.264	0.148
-724.879	-51.688	-0.159	-0.074
-723.864	418.839	0.043	-0.092
-722.850	34.258	-0.221	-0.193
-721.835	-200.000	0.004	-0.361
-720.821	800.000	0.046	-0.169
-719.806	-57.402	-0.227	-0.100
-718.791	-118.041	-0.360	0.064
-717.777	149.792	-0.194	0.263
-716.762	-128.359	0.240	0.034
-715.748	-200.000	-0.032	-0.420
-714.733	-112.723	0.050	-0.010
-713.718	-89.757	0.336	0.098
-712.704	185.038	0.157	0.233
-711.689	-39.267	-0.440	-0.231
-710.675	71.546	0.111	-0.115
-709.660	-134.713	-0.258	0.031
-708.645	800.000	-0.063	-0.227
-707.631	-142.984	-0.090	-0.009
-706.616	800.000	-0.061	0.185
-705.602	-75.130	-0.074	0.026
-704.587	79.088	-0.127	-0.136
-703.572	-115.398	-0.344	-0.065
-702.558	-165.269	-0.194	0.009
-701.543	196.304	0.135	0.206
-700.529	150.606	-0.076	0.103
-699.514	-56.134	-0.140	-0.062
-698.499	29.682	0.271	-0.230
-697.485	22.832	-0.219	-0.180
-696.470	-200.000	0.010	-0.086
-695.456	-84.171	0.179	0.057
-694.441	-200.000	0.009	-0.074
-693.426	135.824	0.207	-0.270
-692.412	-200.000	-0.006	-0.269
-691.397	-121.795	-0.323	-0.053
-690.383	72.134	0.153	0.159
-689.368	556.722	-0.148	0.356
-688.354	137.068	-0.027	0.036
-687.339	562.354	-0.067	-0.161
-686.324	-166.720	-0.142	-0.006
-685.310	36.005	-0.137	-0.120
-684.295	-10.794	0.148	-0.098
-683.281	-17.827	-0.273	-0.171
-682.266	-135.798	0.303	0.036
-681.251	784.920	-0.141	0.386
-680.237	26.047	-0.028	0.024
-679.222	23.912	0.122	0.101
-678.208	7.178	0.226	0.168
-677.193	-190.446	-0.026	-0.000
-676.178	800.000	0.049	0.213
-675.164	-200.000	-0.009	-0.136
-674.149	127.730	-0.159	-0.201
-673.135	42.724	0.155	0.141
-672.120	319.741	0.123	-0.232
-671.105	171.766	-0.164	-0.236
-670.091	122.788	-0.157	-0.196
-669.076	2.699	-0.113	-0.081
-668.062	688.076	0.025	0.066
-667.047	-37.047	0.099	0.053
-666.032	77.562	-0.153	-0.162
-665.018	-200.000	-0.057	0.413
-664.003	-147.619	-0.289	-0.024
-662.989	-130.364	-0.219	0.030
-661.974	134.544	0.138	-0.179
-660.959	-200.000	-0.004	0.319
-659.945	255.321	-0.127	-0.218
-658.930	800.000	0.116	-0.369
-657.916	-22.016	0.092	-0.056
-656.901	-74.887	0.128	0.046
-655.886	172.688	-0.178	-0.256
-654.872	-97.365	0.407	-0.106
-653.857	11.475	-0.202	-0.154
-652.843	57.095	-0.210	-0.204
-651.828	85.459	0.419	-0.459
-650.814	-162.161	-0.075	0.004
-649.799	-200.000	0.008	-0.114
-648.784	-114.050	-0.270	-0.052
-647.770	-36.402	0.207	-0.111
-646.755	269.629	-0.158	-0.276
-645.741	-51.316	-0.181	0.085
-644.726	800.000	-0.052	-0.214
-643.711	-49.811	0.153	0.072
-642.697	11.107	-0.014	-0.011
-641.682	33.563	-0.268	-0.232
-640.668	-64.125	-0.299	-0.122
-639.653	-72.537	-0.334	-0.123
-638.638	-200.000	-0.024	-0.127
-637.624	211.387	0.160	-0.251
-636.609	40.957	0.133	0.120
-635.595	25.300	-0.101	0.084
-634.580	-135.204	-0.245	-0.029
-633.565	-151.047	-0.090	-0.007
-632.551	91.879	-0.099	-0.112
-631.536	97.103	0.138	-0.158
-630.522	83.060	-0.063	-0.068
-629.507	772.188	-0.070	0.191
-628.492	-194.432	0.054	-0.000
-627.478	800.000	0.014	0.048
-626.463	-200.000	-0.037	0.307
-625.449	-70.161	0.133	0.050
-624.434	83.226	0.153	0.165
-623.419	800.000	-0.017	0.057
-622.405	34.563	0.219	-0.190
-621.390	271.518	0.086	-0.152
-620.376	-67.045	-0.150	-0.059
-619.361	267.286	0.098	0.170
-618.346	-70.720	-0.242	0.091
-617.332	411.397	0.073	0.155
-616.317	205.834	-0.069	0.106
-615.303	-200.000	-0.028	0.328
-614.288	800.000	-0.110	-0.448
-613.273	-82.186	0.395	-0.128
-612.259	87.211	-0.190	-0.209
-611.244	28.890	-0.132	-0.111
-610.230	800.000	-0.063	-0.245
-609.215	191.618	-0.142	-0.214
-608.201	-25.548	0.029	-0.017
-607.186	324.633	0.102	-0.195
-606.171	-200.000	0.033	0.284
-605.157	-39.109	0.251	0.132
-604.142	-200.000	-0.021	0.161
-603.128	-200.000	0.028	0.226
-602.113	183.889	-0.062	0.092
-601.098	-184.299	0.230	0.004
-600.084	117.607	-0.120	0.147
-599.069	-200.000	-0.023	-0.330
-598.055	-200.000	-0.017	0.134
-597.040	0.499	-0.170	0.121
-596.025	67.968	0.260	-0.265
-595.011	-177.492	-0.284	-0.007
-593.996	800.000	0.046	-0.195
-592.982	-200.000	-0.054	0.261
-591.967	-135.182	0.176	-0.021
-590.952	72.464	-0.207	-0.215
-589.938	657.063	0.181	-0.462
-588.923	155.139	-0.176	-0.240
-587.909	278.471	0.054	-0.096
-586.894	800.000	0.123	-0.388
-585.879	38.263	-0.200	-0.177
-584.865	800.000	0.027	0.095
-583.850	155.541	0.045	-0.062
-582.836	68.628	0.147	0.150
-581.821	81.738	-0.162	0.174
-580.806	-116.268	0.053	0.010
-579.792	800.000	0.024	0.067
-578.777	-96.664	-0.099	-0.026
-577.763	-90.938	-0.261	-0.075
-576.748	-93.541	0.029	0.008
-575.733	44.122	0.170	0.155
-574.719	-101.243	-0.250	-0.061
-573.704	800.000	-0.095	0.338
-572.690	-109.892	-0.049	0.010
-571.675	-200.000	-0.012	0.077
-570.661	-20.955	0.054	0.033
-569.646	-4.611	-0.028	-0.019
-568.631	800.000	0.047	-0.200
-567.617	466.412	0.049	-0.110
-566.602	143.082	0.281	0.372
-565.588	-51.726	-0.057	0.026
-564.573	-200.000	0.028	-0.249
-563.558	-36.148	-0.175	0.094
-562.544	-77.214	-0.411	0.142
-561.529	174.816	0.101	-0.146
-560.515	363.696	0.207	0.413
-559.500	128.032	-0.277	-0.350
-558.485	-27.844	0.070	0.040
-557.471	-26.443	-0.415	0.242
-556.456	11.165	-0.355	-0.270
-555.442	9.265	-0.097	-0.073
-554.427	-200.000	0.041	0.186
-553.412	777.936	-0.209	0.568
-552.398	276.304	0.126	0.223
-551.383	247.392	-0.182	-0.306
-550.369	112.095	-0.084	0.101
-549.354	107.513	0.069	0.081
-548.339	23.027	0.276	0.225
-547.325	22.510	0.111	-0.090
-546.310	39.903	-0.231	-0.206
-545.296	-200.000	0.031	0.252
-544.281	800.000	0.070	-0.207
-543.266	-47.751	-0.326	0.157
-542.252	-61.663	0.229	-0.095
-541.237	800.000	0.059	-0.190
-540.223	-200.000	-0.045	-0.320
-539.208	-95.557	0.357	-0.095
-538.193	181.200	0.125	-0.183
-537.179	121.531	0.040	0.050
-536.164	800.000	-0.056	0.218
-535.150	588.479	0.094	-0.230
-534.135	37.745	-0.152	-0.134
-533.121	-200.000	0.031	-0.167
-532.106	88.046	-0.248	0.273
-531.091	-113.605	0.244	-0.047
-530.077	800.000	-0.112	-0.353
-529.062	307.128	-0.129	-0.239
-528.048	783.316	-0.045	-0.124
-527.033	-7.701	0.296	-0.199
-526.018	184.740	-0.049	0.071
-525.004	-27.551	-0.299	-0.173
-523.989	-59.760	-0.175	-0.075
-522.975	666.095	-0.174	0.446
-521.960	-200.000	-0.064	0.282
-520.945	800.000	0.061	-0.180
-519.931	198.614	-0.186	-0.283
-518.916	44.717	0.056	-0.051
-517.902	800.000	0.092	-0.269
-516.887	-133.874	-0.366	0.045
-515.872	-200.000	0.031	-0.145
-514.858	103.593	-0.169	-0.197
-513.843	-77.280	0.182	0.063
-512.829	-200.000	0.056	0.289
-511.814	63.369	-0.320	0.318
-510.799	103.164	-0.047	0.055
-509.785	-142.063	-0.229	-0.023
-508.770	247.060	0.166	0.278
-507.756	242.524	-0.048	-0.080
-506.741	3.125	0.076	0.055
-505.726	-26.063	0.320	0.187
-504.712	800.000	-0.065	0.246
-503.697	-18.082	0.270	0.168
-502.683	-56.477	-0.116	-0.051
-501.668	-118.496	-0.269	0.047
-500.653	323.494	0.050	-0.095
-499.639	-12.565	-0.321	-0.208
-498.624	800.000	0.089	0.281
-497.610	181.214	-0.166	0.242
-496.595	-87.300	-0.072	0.022
-495.581	-19.076	0.140	0.086
-494.566	163.840	0.134	0.188
-493.551	475.321	0.019	-0.041
-492.537	800.000	0.054	0.227
-491.522	-149.477	0.163	0.013
-490.508	569.089	0.119	0.287
-489.493	742.240	0.016	0.044
-488.478	-199.631	0.230	-0.001
-487.464	19.265	0.203	0.162
-486.449	-200.000	-0.033	-0.396
-485.435	-141.615	0.237	-0.024
-484.420	458.699	-0.097	-0.213
-483.405	127.591	-0.209	0.264
-482.391	-76.242	0.295	0.103
-481.376	274.205	-0.110	-0.192
-480.362	-153.303	0.097	0.007
-479.347	800.000	-0.132	-0.384
-478.332	36.591	0.181	-0.158
-477.318	-21.025	0.325	-0.197
-476.303	-120.000	-0.062	0.011
-475.289	48.946	-0.152	-0.141
-474.274	-124.755	-0.204	-0.031
-473.259	102.418	0.118	0.136
-472.245	57.004	0.176	0.170
-471.230	179.021	-0.038	-0.055
-470.216	-44.770	0.102	-0.050
-469.201	-200.000	-0.031	0.205
-468.186	31.421	-0.058	0.049
-467.172	-200.000	0.022	0.153
-466.157	-200.000	-0.047	0.281
-465.143	165.424	-0.294	-0.412
-464.128	134.050	-0.016	-0.021
-463.113	81.369	0.138	0.148
-462.099	99.095	-0.054	-0.062
-461.084	319.436	0.100	-0.188
-460.070	-200.000	-0.059	0.270
-459.055	20.933	-0.149	-0.119
-458.040	800.000	0.006	-0.020
-457.026	800.000	-0.024	-0.081
-456.011	-183.934	0.204	-0.003
-454.997	-176.000	-0.297	0.008
-453.982	762.997	0.123	0.330
-452.968	-200.000	-0.018	-0.100
-451.953	-36.541	-0.252	0.134
-450.938	86.840	-0.103	-0.113
-449.924	-200.000	0.033	0.338
-448.909	20.873	0.033	-0.027
-447.895	-96.567	0.251	0.065
-446.880	5.156	-0.135	-0.098
-445.865	-200.000	0.001	0.100
-444.851	137.681	-0.149	0.193
-443.836	-13.225	-0.197	-0.127
-442.822	108.414	0.214	-0.252
-441.807	-84.931	-0.201	-0.062
-440.792	-135.624	-0.276	0.032
-439.778	494.578	-0.047	0.106
-438.763	-109.536	-0.059	-0.012
-437.749	27.822	0.202	0.168
-436.734	4.115	0.179	0.130
-435.719	95.636	-0.083	0.094
-434.705	426.275	-0.043	0.091
-433.690	-183.934	-0.358	0.006
-432.676	-107.725	-0.229	0.049
-431.661	-149.801	0.361	-0.028
-430.646	-41.054	-0.306	-0.157
-429.632	-200.000	0.030	-0.207
-428.617	-97.357	0.095	-0.024
-427.603	-1.020	-0.041	-0.028
-426.588	-2.994	0.244	-0.169
-425.573	133.027	-0.121	0.155
-424.559	571.934	0.086	0.208
-423.544	-70.552	-0.036	-0.013
-422.530	-36.475	-0.333	-0.177
-421.515	800.000	0.069	-0.282
-420.500	-50.554	-0.145	-0.067
-419.486	46.500	-0.196	-0.180
-418.471	176.493	-0.138	0.198
-417.457	800.000	-0.017	-0.050
-416.442	-34.474	0.109	-0.059
-415.428	-28.108	-0.253	0.144
-414.413	155.660	-0.107	0.146
-413.398	25.812	-0.175	-0.144
-412.384	-200.000	0.000	-0.275
-411.369	-200.000	-0.027	0.137
-410.355	-200.000	0.011	-0.473
-409.340	109.755	-0.191	-0.226
-408.325	-111.225	-0.306	-0.062
-407.311	126.075	-0.186	-0.232
-406.296	146.701	-0.079	-0.105
-405.282	56.224	0.098	0.094
-404.267	67.312	-0.212	0.214
-403.252	-149.382	0.200	0.016
-402.238	-74.744	0.104	0.037
-401.223	585.833	-0.055	-0.134
-400.209	-200.000	0.020	0.212
-399.194	800.000	-0.052	-0.211
-398.179	800.000	0.119	0.408
-397.165	113.887	0.110	-0.132
-396.150	551.458	-0.082	0.195
-395.136	-200.000	0.004	-0.323
-394.121	-73.055	-0.081	-0.029
-393.106	-82.876	-0.212	0.068
-392.092	-71.174	-0.183	0.068
-391.077	-39.876	-0.237	0.122
-390.063	82.015	0.152	-0.163
-389.048	800.000	0.089	0.314
-388.033	-200.000	-0.002	0.185
-387.019	-89.868	0.215	0.062
-386.004	471.185	-0.081	0.181
-384.990	-107.400	-0.046	-0.010
-383.975	-73.406	0.252	0.091
-382.960	-72.460	-0.271	0.099
-381.946	-200.000	-0.035	0.297
-380.931	-70.395	0.174	0.065
-379.917	-8.452	-0.249	0.165
-378.902	-62.399	0.359	-0.147
-377.888	393.744	-0.122	-0.251
-376.873	-97.545	0.394	0.101
-375.858	-200.000	0.033	-0.184
-374.844	64.315	-0.105	-0.104
-373.829	103.814	0.153	0.178
-372.815	485.108	-0.162	-0.365
-371.800	-67.128	-0.241	0.094
-370.785	-37.432	0.200	-0.105
-369.771	569.310	-0.072	-0.173
-368.756	192.889	0.119	0.178
-367.742	-200.000	-0.008	0.085
-366.727	216.315	0.280	-0.439
-365.712	50.796	-0.087	-0.081
-364.698	-200.000	0.034	0.218
-363.683	800.000	-0.071	0.197
-362.669	-84.598	-0.268	0.083
-361.654	158.943	-0.077	0.105
-360.639	-200.000	0.011	0.094
-359.625	-128.686	-0.368	0.051
-358.610	-3.713	-0.227	0.155
-357.596	41.510	-0.159	-0.142
-356.581	-200.000	-0.045	-0.241
-355.566	-7.526	0.086	-0.057
-354.552	32.498	-0.022	-0.019
-353.537	-200.000	-0.014	0.125
-352.523	-107.643	-0.251	-0.054
-351.508	4.882	0.250	0.181
-350.493	233.989	0.141	0.230
-349.479	-200.000	0.020	-0.443
-348.464	800.000	0.043	0.129
-347.450	61.420	0.227	-0.223
-346.435	-1.327	0.126	0.088
-345.420	-50.351	-0.345	0.161
-344.406	448.856	-0.142	-0.308
-343.391	800.000	-0.117	0.342
-342.377	-34.762	0.110	0.059
-341.362	800.000	0.045	0.164
-340.348	318.831	-0.133	0.248
-339.333	73.702	-0.314	0.325
-338.318	800.000	0.032	-0.095
-337.304	-117.162	0.208	0.037
-336.289	748.712	-0.087	-0.232
-335.275	73.997	-0.094	-0.097
-334.260	-152.443	0.132	0.009
-333.245	-200.000	-0.043	0.225
-332.231	113.966	0.091	0.109
-331.216	266.181	0.212	0.365
-330.202	313.033	0.086	-0.160
-329.187	407.564	0.110	-0.228
-328.172	-156.408	0.034	-0.002
-327.158	97.222	0.184	-0.208
-326.143	-48.140	-0.236	-0.112
-325.129	-200.000	-0.027	0.381
-324.114	49.410	0.248	0.230
-323.099	-61.647	-0.054	0.022
-322.085	164.162	0.013	-0.019
-321.070	120.582	-0.055	-0.068
-320.056	-200.000	0.013	0.380
-319.041	-200.000	0.044	-0.224
-318.026	-200.000	0.001	-0.161
-317.012	800.000	0.101	0.310
-315.997	-200.000	-0.002	0.120
-314.983	-200.000	-0.086	0.553
-313.968	-200.000	0.044	-0.272
-312.953	67.861	0.104	-0.105
-311.939	800.000	-0.045	-0.178
-310.924	194.078	0.150	-0.224
-309.910	-84.818	0.205	-0.063
-308.895	359.551	-0.036	-0.072
-307.880	-131.112	0.254	0.033
-306.866	7.578	0.160	0.118
-305.851	-128.323	-0.215	-0.030
-304.837	-74.485	0.220	0.078
-303.822	431.022	0.100	0.213
-302.807	-77.585	0.038	-0.013
-301.793	-91.181	0.173	0.049
-300.778	617.402	0.112	0.276
-299.764	140.711	0.101	-0.131
-298.749	-52.262	0.291	-0.133
-297.735	-18.590	0.209	-0.129
-296.720	-47.183	0.200	0.096
-295.705	-96.608	0.572	-0.148
-294.691	231.727	0.112	-0.180
-293.676	800.000	0.095	0.305
-292.662	63.769	0.017	-0.016
-291.647	109.438	0.149	0.176
-290.632	-178.308	0.228	0.005
-289.618	-54.022	0.213	-0.095
-288.603	-24.779	-0.259	-0.151
-287.589	-200.000	0.000	-0.051
-286.574	-28.902	0.168	-0.095
-285.559	124.273	0.201	-0.249
-284.545	-140.563	-0.309	-0.032
-283.530	800.000	-0.105	-0.303
-282.516	-67.433	0.223	-0.086
-281.501	-200.000	-0.018	0.159
-280.486	-200.000	0.030	0.315
-279.472	-69.831	-0.159	-0.059
-278.457	-99.902	0.220	-0.054
-277.443	-90.495	0.352	0.100
-276.428	-49.081	0.145	-0.068
-275.413	-10.318	0.233	-0.152
-274.399	800.000	-0.055	0.167
-273.384	151.727	-0.185	0.248
-272.370	-200.000	-0.054	0.507
-271.355	-160.504	-0.104	-0.005
-270.340	-34.007	-0.210	-0.113
-269.326	-162.613	0.353	-0.017
-268.311	348.445	0.051	-0.099
-267.297	-72.131	0.075	0.027
-266.282	-186.667	-0.240	0.003
-265.267	100.513	0.184	-0.210
-264.253	-71.845	-0.241	0.088
-263.238	15.891	-0.030	-0.023
-262.224	296.150	0.202	-0.364
-261.209	42.599	0.164	0.146
-260.195	800.000	0.039	0.107
-259.180	513.249	0.060	0.137
-258.165	-120.930	-0.079	0.013
-257.151	-200.000	0.054	0.397
-256.136	-50.570	-0.209	-0.097
-255.122	-101.506	-0.117	-0.028
-254.107	-134.271	0.413	-0.050
-253.092	800.000	-0.054	0.167
-252.078	-162.877	0.377	0.018
-251.063	-99.353	-0.123	0.030
-250.049	-10.991	0.255	-0.166
-249.034	152.318	0.169	0.227
-248.019	244.276	-0.088	0.146
-247.005	29.310	0.285	0.238
-245.990	358.899	0.048	-0.094
-244.976	122.210	0.140	-0.171
-243.961	-98.472	-0.228	-0.057
-242.946	-110.235	0.128	0.026
-241.932	100.437	-0.067	-0.077
-240.917	243.522	0.123	0.202
-239.903	-182.080	-0.277	-0.005
-238.888	-15.920	-0.075	0.047
-237.873	-11.797	0.228	0.147
-236.859	474.833	0.124	-0.275
-235.844	-141.452	0.074	-0.007
-234.830	39.869	0.123	-0.109
-233.815	-20.383	0.120	0.072
-232.800	-200.000	0.068	0.294
-231.786	201.387	0.135	-0.204
-230.771	-200.000	-0.024	-0.129
-229.757	699.373	0.077	-0.200
-228.742	-101.874	0.152	0.036
-227.727	-200.000	-0.030	0.152
-226.713	800.000	0.064	-0.223
-225.698	135.138	0.207	0.265
-224.684	-125.871	-0.085	0.013
-223.669	800.000	-0.063	-0.262
-222.655	-142.366	0.342	0.033
-221.640	800.000	0.096	-0.264
-220.625	169.160	-0.169	0.237
-219.611	-31.880	0.037	0.021
-218.596	-54.554	-0.340	-0.151
-217.582	-39.207	-0.087	-0.045
-216.567	-128.639	-0.111	-0.015
-215.552	69.131	0.209	-0.211
-214.538	-200.000	0.053	-0.248
-213.523	800.000	0.130	-0.450
-212.509	226.808	-0.126	0.201
-211.494	-32.826	-0.209	0.114
-210.479	-22.871	0.318	-0.188
-209.465	-108.422	-0.097	-0.020
-208.450	-200.000	-0.023	-0.101
-207.436	-137.691	-0.144	-0.016
-206.421	-144.010	-0.164	-0.015
-205.406	-200.000	-0.011	-0.106
-204.392	-200.000	0.021	0.092
-203.377	-34.296	-0.072	0.039
-202.363	-200.000	-0.029	-0.196
-201.348	-120.031	0.205	0.034
-200.333	800.000	-0.105	0.284
-199.319	267.029	-0.068	0.116
-198.304	-200.000	-0.006	0.076
-197.290	75.585	0.054	-0.056
-196.275	-14.978	0.134	-0.084
-195.260	-121.001	0.315	0.052
-194.246	-193.373	-0.280	0.002
-193.231	-95.430	0.138	0.036
-192.217	400.362	-0.066	0.136
-191.202	-23.662	0.131	0.077
-190.187	40.996	-0.221	0.196
-189.173	-113.804	0.021	0.004
-188.158	-30.492	0.222	-0.123
-187.144	162.976	-0.151	0.208
-186.129	-200.000	0.019	-0.226
-185.114	-61.451	0.227	0.094
-184.100	800.000	0.117	0.338
-183.085	-158.797	0.293	-0.016
-182.071	-165.806	0.179	-0.008
-181.056	147.895	-0.133	0.176
-180.042	371.575	0.112	0.223
-179.027	800.000	-0.105	0.348
-178.012	-113.765	-0.243	0.046
-176.998	480.793	-0.060	0.133
-175.983	-18.226	-0.023	0.014
-174.969	-143.180	-0.279	0.026
-173.954	-33.373	-0.278	0.151
-172.939	-88.497	0.173	-0.050
-171.925	800.000	-0.057	-0.167
-170.910	-200.000	0.025	-0.236
-169.896	-88.328	-0.156	0.046
-168.881	122.177	-0.225	-0.275
-167.866	248.646	-0.150	-0.249
-166.852	-200.000	0.015	-0.355
-165.837	-181.166	-0.191	0.004
-164.823	800.000	-0.073	-0.203
-163.808	33.563	0.074	-0.063
-162.793	653.779	0.114	0.285
-161.779	317.548	0.099	0.183
-160.764	800.000	-0.080	-0.281
-159.750	30.445	0.281	-0.235
-158.735	-200.000	0.036	0.194
-157.720	-200.000	-0.000	-0.067
-156.706	-167.153	0.499	0.020
-155.691	-200.000	-0.481	0.002
-154.677	-135.082	0.307	-0.036
-153.662	23.070	-0.068	0.054
-152.647	-92.013	0.272	0.075
-151.633	-30.788	-0.353	-0.195
-150.618	-44.285	0.182	-0.089
-149.604	266.705	-0.103	-0.176
-148.589	280.455	-0.113	0.197
-147.574	482.709	0.165	0.366
-146.560	-176.329	-0.359	-0.009
-145.545	-93.741	0.107	-0.029
-144.531	800.000	0.029	-0.113
-143.516	-95.464	0.483	0.127
-142.502	-200.000	-0.007	0.167
-141.487	800.000	0.039	-0.110
-140.472	-157.123	0.086	-0.005
-139.458	800.000	0.036	-0.100
-138.443	-174.889	-0.148	0.004
-137.429	393.414	-0.117	0.238
-136.414	-200.000	0.060	0.291
-135.399	-47.118	-0.464	-0.221
-134.385	-32.064	0.276	-0.151
-133.370	800.000	-0.038	-0.112
-132.356	-14.747	0.457	0.287
-131.341	-2.344	-0.168	0.115
-130.326	284.672	0.103	0.181
-129.312	800.000	-0.039	-0.119
-128.297	-200.000	-0.083	0.403
-127.283	-109.185	0.262	-0.054
-126.268	389.036	-0.057	0.114
-125.253	2.125	-0.155	0.109
-124.239	382.947	-0.122	0.246
-123.224	-64.027	0.031	0.012
-122.210	58.681	-0.264	0.254
