DTS Sentinel unit serial number:	SN413079Multiplexer serial number:	ORYXHardware model number:	OX4-SRSoftware version number:	ORYX F/W v4.00 Oryx Data Collector v3.7.2.0data status	okinstallation	princeton_trtdifferential loss correction	single-endedforward channel	channel 1reverse channel	N/Adate	2019/09/13time	00:34:35forward acquisition time	60.00reverse acquisition time	0.00gamma	496.2192k internal	0.2329k external	0.2329temperature offset calibration	1.0143default loss term (dB/km)	0.3790temperature slope calibration	1.0000multiplexer offset coefficient	1.0000multiplexer slope coefficient	1.0000fibre end	0.00T internal ref (°C)	28.31T ext. ref 1 (°C)	3.70T ext. ref 2 (°C)	22.87length (m)	temperature (°C)	Stokes	anti-Stokes-747.200	800.000	-0.105	-0.401
-746.185	82.616	-0.082	0.090
-745.171	800.000	-0.027	0.112
-744.156	-129.023	-0.304	0.043
-743.142	800.000	-0.068	0.206
-742.127	264.667	-0.239	0.419
-741.112	-27.113	0.144	-0.084
-740.098	-117.453	-0.237	-0.043
-739.083	11.384	0.187	0.144
-738.069	-200.000	-0.047	0.214
-737.054	326.395	-0.084	-0.161
-736.039	9.620	-0.155	-0.118
-735.025	-182.532	-0.372	0.007
-734.010	-79.661	0.123	0.042
-732.996	800.000	0.046	0.183
-731.981	-86.552	-0.197	0.061
-730.966	14.321	0.279	0.219
-729.952	-32.192	-0.404	-0.227
-728.937	-108.970	-0.044	0.009
-727.923	800.000	-0.185	-0.554
-726.908	240.604	-0.212	0.356
-725.894	-200.000	0.018	0.216
-724.879	186.492	0.168	-0.251
-723.864	-1.499	0.097	0.069
-722.850	-200.000	0.012	-0.237
-721.835	-35.526	-0.337	-0.184
-720.821	800.000	-0.064	-0.186
-719.806	-39.752	0.278	-0.146
-718.791	-150.754	-0.087	-0.007
-717.777	117.161	-0.177	-0.219
-716.762	-200.000	0.004	0.020
-715.748	-153.134	0.304	0.021
-714.733	-32.218	-0.148	0.083
-713.718	97.683	0.325	-0.376
-712.704	-9.160	-0.167	-0.112
-711.689	-85.224	0.091	0.028
-710.675	-47.235	-0.267	0.131
-709.660	369.844	-0.132	-0.268
-708.645	-33.675	-0.117	0.065
-707.631	189.010	-0.104	0.156
-706.616	419.988	0.107	0.230
-705.602	800.000	0.029	-0.107
-704.587	238.908	-0.075	0.126
-703.572	671.174	-0.107	-0.280
-702.558	167.705	-0.197	-0.282
-701.543	-40.995	0.153	0.079
-700.529	144.447	0.079	0.106
-699.514	-140.633	0.273	0.028
-698.499	166.286	0.137	-0.195
-697.485	33.192	-0.142	-0.124
-696.470	570.941	0.096	-0.234
-695.456	-200.000	-0.002	-0.238
-694.441	256.409	-0.153	-0.264
-693.426	800.000	-0.025	0.091
-692.412	-126.269	-0.217	0.033
-691.397	800.000	0.113	0.378
-690.383	78.721	0.192	-0.207
-689.368	-200.000	0.029	0.136
-688.354	-125.117	-0.340	-0.052
-687.339	-200.000	0.002	0.015
-686.324	152.511	-0.194	-0.266
-685.310	-108.889	0.020	-0.004
-684.295	48.258	0.241	-0.226
-683.281	-200.000	0.018	0.097
-682.266	43.290	0.356	0.327
-681.251	76.254	-0.093	0.099
-680.237	199.005	-0.103	-0.159
-679.222	-136.047	-0.112	0.013
-678.208	72.305	-0.069	-0.072
-677.193	427.315	0.050	-0.108
-676.178	-20.747	-0.169	-0.104
-675.164	-200.000	-0.012	-0.353
-674.149	-36.132	0.221	0.120
-673.135	-31.896	0.163	-0.092
-672.120	-127.777	-0.160	-0.023
-671.105	29.286	0.315	-0.269
-670.091	184.835	-0.087	-0.130
-669.076	-179.473	0.211	-0.005
-668.062	-115.020	-0.277	0.053
-667.047	401.324	-0.099	0.209
-666.032	156.354	-0.092	0.128
-665.018	-200.000	0.014	-0.085
-664.003	-96.667	0.188	-0.050
-662.989	69.901	-0.115	-0.120
-661.974	45.774	0.103	0.096
-660.959	-121.483	-0.057	0.009
-659.945	-22.056	0.216	0.132
-658.930	339.567	-0.046	0.091
-657.916	-5.226	0.102	-0.070
-656.901	-53.746	-0.090	-0.041
-655.886	-56.571	-0.239	-0.107
-654.872	-38.990	0.274	-0.145
-653.857	51.098	0.285	0.271
-652.843	109.650	0.093	0.112
-651.828	39.417	0.178	0.160
-650.814	800.000	0.070	0.215
-649.799	-26.409	0.163	-0.096
-648.784	775.062	-0.080	-0.219
-647.770	-174.447	-0.223	0.006
-646.755	-200.000	-0.019	-0.186
-645.741	-3.179	0.143	-0.100
-644.726	-200.000	0.060	0.296
-643.711	71.240	-0.130	-0.135
-642.697	-23.382	-0.249	-0.150
-641.682	-200.000	0.015	0.144
-640.668	-175.788	-0.201	-0.005
-639.653	94.454	0.205	0.234
-638.638	203.184	-0.047	-0.073
-637.624	117.883	0.095	0.118
-636.609	-85.133	-0.096	-0.030
-635.595	-200.000	-0.001	-0.046
-634.580	-67.628	-0.087	-0.034
-633.565	56.537	-0.258	-0.252
-632.551	16.484	0.076	-0.060
-631.536	41.316	0.094	0.085
-630.522	-200.000	-0.020	0.457
-629.507	-200.000	0.052	-0.310
-628.492	-44.219	-0.278	-0.140
-627.478	-200.000	-0.011	0.252
-626.463	-200.000	-0.001	0.065
-625.449	1.573	-0.114	-0.083
-624.434	105.232	0.176	-0.208
-623.419	-107.278	0.288	0.063
-622.405	-135.231	0.146	0.018
-621.390	-200.000	0.007	0.323
-620.376	22.927	-0.165	0.136
-619.361	144.403	-0.129	-0.172
-618.346	70.733	0.251	-0.261
-617.332	800.000	0.026	0.074
-616.317	24.262	-0.173	-0.143
-615.303	800.000	0.091	-0.287
-614.288	380.498	0.087	0.178
-613.273	738.028	0.070	-0.187
-612.259	-48.469	-0.287	-0.139
-611.244	-72.975	-0.138	0.051
-610.230	-62.417	-0.125	-0.052
-609.215	-13.338	0.110	-0.071
-608.201	-131.507	0.210	0.028
-607.186	-200.000	0.009	-0.103
-606.171	250.770	-0.144	-0.246
-605.157	-7.963	0.031	0.021
-604.142	76.428	-0.069	-0.074
-603.128	178.003	-0.155	-0.226
-602.113	-200.000	0.005	-0.445
-601.098	800.000	-0.086	-0.266
-600.084	-116.764	0.070	0.013
-599.069	-200.000	0.018	0.085
-598.055	345.282	0.095	-0.187
-597.040	-78.489	-0.272	-0.093
-596.025	-200.000	0.054	0.379
-595.011	212.017	-0.266	-0.419
-593.996	-125.069	0.338	-0.052
-592.982	-40.206	0.306	-0.160
-591.967	255.289	0.120	-0.206
-590.952	437.140	0.158	-0.344
-589.938	-129.198	-0.347	0.049
-588.923	278.153	0.087	0.156
-587.909	329.190	-0.086	-0.166
-586.894	800.000	0.019	-0.056
-585.879	800.000	0.056	-0.215
-584.865	-86.858	0.257	-0.078
-583.850	85.701	-0.130	0.143
-582.836	316.679	0.023	0.044
-581.821	-75.303	-0.138	0.049
-580.806	800.000	-0.057	-0.165
-579.792	-200.000	0.001	-0.026
-578.777	-91.968	-0.424	0.120
-577.763	-109.067	-0.174	0.037
-576.748	133.665	0.215	0.279
-575.733	122.519	0.192	-0.240
-574.719	-200.000	0.053	-0.308
-573.704	107.309	-0.131	0.156
-572.690	32.094	-0.141	0.122
-571.675	344.750	-0.146	0.287
-570.661	-133.237	0.155	0.020
-569.646	409.949	-0.160	-0.338
-568.631	-82.132	0.399	0.130
-567.617	-86.287	0.357	0.110
-566.602	393.680	0.090	0.187
-565.588	800.000	-0.047	0.188
-564.573	-200.000	0.002	-0.030
-563.558	-106.020	-0.310	-0.070
-562.544	373.779	-0.151	-0.306
-561.529	171.218	-0.053	-0.076
-560.515	-137.547	-0.257	-0.029
-559.500	-14.054	-0.051	0.033
-558.485	-65.902	-0.184	0.074
-557.471	-200.000	0.018	0.186
-556.456	-200.000	-0.031	0.214
-555.442	-96.095	-0.128	0.034
-554.427	612.183	-0.048	-0.121
-553.412	318.526	-0.068	0.128
-552.398	442.849	-0.108	-0.237
-551.383	-200.000	0.054	-0.273
-550.369	-67.113	0.049	0.019
-549.354	-67.414	0.223	0.088
-548.339	-119.293	-0.123	-0.021
-547.325	-83.998	-0.318	0.101
-546.310	800.000	0.047	-0.148
-545.296	-200.000	-0.052	-0.282
-544.281	314.428	0.174	-0.327
-543.266	800.000	0.071	0.206
-542.252	26.936	-0.268	0.225
-541.237	-200.000	0.006	-0.226
-540.223	800.000	0.031	-0.112
-539.208	-15.190	0.149	0.095
-538.193	-141.616	-0.356	0.036
-537.179	595.800	0.074	0.184
-536.164	-65.133	-0.293	0.118
-535.150	4.093	0.185	0.135
-534.135	-34.198	-0.199	0.109
-533.121	632.323	0.170	-0.430
-532.106	-57.054	0.134	0.059
-531.091	-143.832	0.039	0.004
-530.077	-145.764	-0.446	-0.040
-529.062	-133.453	0.113	0.014
-528.048	130.941	-0.248	0.318
-527.033	214.857	-0.206	0.326
-526.018	-64.728	0.159	0.064
-525.004	279.238	0.075	-0.134
-523.989	-86.401	-0.161	-0.050
-522.975	-55.868	-0.187	-0.083
-521.960	111.754	-0.072	0.087
-520.945	-200.000	0.048	0.337
-519.931	-67.049	-0.144	-0.057
-518.916	800.000	-0.020	-0.080
-517.902	-27.960	0.308	0.178
-516.887	-200.000	-0.012	0.264
-515.872	-49.971	0.263	0.124
-514.858	373.863	0.184	0.375
-513.843	-200.000	0.018	0.184
-512.829	-200.000	0.006	0.149
-511.814	-33.093	-0.239	0.132
-510.799	-200.000	-0.039	-0.445
-509.785	-9.836	-0.083	0.055
-508.770	-200.000	0.037	-0.243
-507.756	-143.792	0.301	0.028
-506.741	-29.502	0.168	0.096
-505.726	202.766	0.068	0.105
-504.712	389.572	0.118	-0.244
-503.697	-156.885	-0.099	-0.006
-502.683	-200.000	-0.015	-0.082
-501.668	95.654	0.295	-0.336
-500.653	-200.000	0.012	-0.130
-499.639	-16.219	0.223	0.142
-498.624	-200.000	0.008	0.068
-497.610	44.755	0.074	0.068
-496.595	623.149	-0.029	0.072
-495.581	-200.000	-0.046	-0.218
-494.566	-8.146	-0.339	-0.228
-493.551	-200.000	0.010	0.073
-492.537	52.192	0.194	0.184
-491.522	3.676	-0.138	0.101
-490.508	223.092	0.193	0.310
-489.493	618.827	-0.031	0.078
-488.478	86.493	-0.196	-0.216
-487.464	800.000	0.023	0.092
-486.449	625.752	0.071	0.180
-485.435	-200.000	0.049	-0.409
-484.420	-42.412	0.120	-0.061
-483.405	-44.815	-0.346	-0.172
-482.391	715.633	-0.059	0.157
-481.376	-165.428	-0.399	0.017
-480.362	-200.000	0.002	0.222
-479.347	4.976	0.189	0.139
-478.332	-4.007	0.052	-0.036
-477.318	-200.000	-0.024	0.207
-476.303	-200.000	-0.023	-0.377
-475.289	-16.724	-0.069	0.043
-474.274	423.112	-0.021	0.044
-473.259	43.707	-0.185	-0.169
-472.245	800.000	0.084	0.252
-471.230	39.593	0.090	-0.080
-470.216	565.306	0.057	0.138
-469.201	-110.830	0.196	0.040
-468.186	-3.179	0.166	0.116
-467.172	10.470	0.340	0.258
-466.157	-16.823	-0.066	0.042
-465.143	7.024	0.095	0.071
-464.128	20.383	0.131	0.106
-463.113	-183.459	-0.269	0.005
-462.099	700.591	-0.033	-0.088
-461.084	-117.447	0.132	-0.024
-460.070	-145.618	-0.148	0.013
-459.055	-131.801	0.206	-0.027
-458.040	147.330	-0.184	0.247
-457.026	-128.593	-0.325	0.046
-456.011	-132.572	-0.039	-0.005
-454.997	-32.064	-0.267	0.149
-453.982	-134.468	0.101	-0.012
-452.968	-200.000	0.019	0.253
-451.953	-170.068	0.467	-0.017
-450.938	174.667	-0.114	0.165
-449.924	116.509	-0.258	0.315
-448.909	-200.000	-0.055	0.307
-447.895	-86.683	0.296	0.090
-446.880	71.804	-0.078	0.080
-445.865	800.000	-0.087	0.271
-444.851	1.357	-0.415	-0.297
-443.836	-200.000	0.005	-0.264
-442.822	800.000	0.101	-0.322
-441.807	47.431	0.325	0.302
-440.792	-133.187	0.094	0.012
-439.778	43.344	0.112	-0.102
-438.763	-200.000	0.025	0.177
-437.749	178.572	-0.113	0.165
-436.734	-200.000	0.021	-0.139
-435.719	800.000	0.067	0.198
-434.705	171.151	0.043	0.061
-433.690	800.000	0.076	0.290
-432.676	-200.000	0.003	0.136
-431.661	-184.415	0.240	-0.004
-430.646	205.483	-0.239	-0.369
-429.632	-81.820	-0.043	0.014
-428.617	230.351	-0.095	-0.154
-427.603	88.343	-0.109	-0.120
-426.588	-176.075	-0.032	-0.001
-425.573	-119.290	0.292	-0.051
-424.559	-117.182	0.062	0.011
-423.544	-1.430	0.334	0.234
-422.530	372.174	0.068	-0.137
-421.515	348.156	-0.075	-0.147
-420.500	54.209	-0.119	-0.114
-419.486	-135.266	-0.416	0.050
-418.471	222.109	-0.154	-0.246
-417.457	-50.086	0.173	0.082
-416.442	94.849	-0.298	0.338
-415.428	-126.110	-0.176	0.026
-414.413	40.167	0.129	0.115
-413.398	-3.469	-0.176	-0.122
-412.384	-55.112	0.283	-0.127
-411.369	-145.549	0.213	0.019
-410.355	115.235	0.060	0.073
-409.340	-14.295	0.174	-0.111
-408.325	800.000	-0.087	-0.376
-407.311	800.000	0.039	-0.168
-406.296	193.550	0.138	0.208
-405.282	-102.952	0.202	-0.048
-404.267	13.147	0.194	-0.149
-403.252	498.230	0.059	0.136
-402.238	-169.490	-0.206	0.007
-401.223	-29.345	0.083	0.047
-400.209	-139.110	0.146	0.016
-399.194	-75.998	-0.249	-0.088
-398.179	576.838	0.152	-0.370
-397.165	504.211	-0.042	0.096
-396.150	-154.954	-0.038	-0.002
-395.136	-200.000	-0.056	-0.361
-394.121	-143.725	-0.161	0.015
-393.106	412.616	0.109	-0.231
-392.092	2.636	0.136	-0.098
-391.077	-200.000	-0.015	0.095
-390.063	-63.426	-0.114	0.047
-389.048	-200.000	0.067	0.333
-388.033	-168.776	-0.050	-0.002
-387.019	800.000	-0.099	-0.309
-386.004	-31.648	-0.141	0.079
-384.990	-200.000	-0.060	-0.264
-383.975	800.000	-0.010	-0.040
-382.960	-88.819	-0.311	0.092
-381.946	-200.000	0.005	0.250
-380.931	-168.136	-0.209	-0.008
-379.917	527.004	0.040	0.093
-378.902	-82.445	0.145	0.047
-377.888	54.206	0.015	-0.014
-376.873	327.594	-0.163	0.310
-375.858	93.294	0.087	0.098
-374.844	83.854	0.074	-0.080
-373.829	800.000	-0.123	-0.359
-372.815	139.678	-0.118	0.154
-371.800	-48.289	0.047	0.023
-370.785	-180.899	-0.338	0.007
-369.771	-200.000	0.019	0.193
-368.756	-29.610	-0.323	0.183
-367.742	38.548	-0.256	0.226
-366.727	66.979	0.142	-0.144
-365.712	-200.000	0.027	0.354
-364.698	433.155	-0.126	0.271
-363.683	103.399	-0.021	0.025
-362.669	-89.517	0.306	-0.089
-361.654	58.499	0.033	0.032
-360.639	-200.000	0.042	-0.187
-359.625	-168.612	-0.313	-0.012
-358.610	105.277	-0.362	-0.424
-357.596	-112.972	0.190	-0.037
-356.581	-108.371	0.239	0.051
-355.566	800.000	0.103	-0.281
-354.552	-200.000	-0.041	0.189
-353.537	-95.857	0.142	0.038
-352.523	-20.825	-0.158	-0.096
-351.508	47.999	-0.208	-0.193
-350.493	387.853	0.118	-0.242
-349.479	59.202	0.043	0.042
-348.464	6.601	0.231	-0.170
-347.450	-183.889	-0.112	-0.002
-346.435	61.437	0.198	-0.195
-345.420	-108.748	-0.416	-0.088
-344.406	206.486	-0.294	0.454
-343.391	-186.828	-0.121	0.002
-342.377	-63.810	0.267	-0.108
-341.362	-200.000	0.013	0.137
-340.348	29.154	-0.353	0.297
-339.333	-200.000	0.061	0.313
-338.318	800.000	-0.105	0.398
-337.304	45.574	-0.311	0.285
-336.289	-60.554	0.026	-0.011
-335.275	-81.472	-0.259	-0.085
-334.260	-110.684	-0.099	-0.020
-333.245	-131.063	0.295	-0.039
-332.231	44.088	-0.127	-0.116
-331.216	-62.105	-0.153	-0.063
-330.202	800.000	0.010	0.037
-329.187	-134.027	-0.218	0.027
-328.172	-200.000	-0.004	0.139
-327.158	-62.611	0.234	0.096
-326.143	-34.773	-0.221	0.120
-325.129	226.146	-0.138	-0.222
-324.114	84.070	0.126	0.137
-323.099	136.350	-0.047	-0.060
-322.085	-101.631	-0.086	0.021
-321.070	800.000	-0.027	0.104
-320.056	-158.283	-0.374	-0.022
-319.041	-133.584	0.130	-0.016
-318.026	-122.391	0.031	0.005
-317.012	-153.121	-0.107	0.007
-315.997	-148.994	-0.099	-0.008
-314.983	111.609	-0.167	0.199
-313.968	189.709	0.179	0.267
-312.953	396.152	0.124	0.257
-311.939	97.937	0.145	0.165
-310.924	4.225	-0.122	0.089
-309.910	263.499	-0.156	0.268
-308.895	-63.175	-0.315	-0.129
-307.880	-200.000	-0.005	0.121
-306.866	-11.876	0.122	0.079
-305.851	98.540	-0.327	0.373
-304.837	-50.706	0.340	-0.159
-303.822	-200.000	0.043	-0.256
-302.807	-26.866	0.378	-0.219
-301.793	-142.672	0.201	0.019
-300.778	-200.000	0.049	-0.214
-299.764	-200.000	0.113	0.498
-298.749	98.918	0.326	0.373
-297.735	-1.434	0.089	0.062
-296.720	95.047	0.125	0.141
-295.705	238.192	-0.084	0.138
-294.691	-99.072	-0.237	-0.059
-293.676	79.339	0.239	-0.254
-292.662	-67.326	0.161	0.063
-291.647	-200.000	-0.016	-0.182
-290.632	-175.617	-0.170	-0.005
-289.618	55.619	-0.057	0.054
-288.603	800.000	-0.031	0.113
-287.589	83.442	-0.030	-0.032
-286.574	-148.978	-0.167	-0.013
-285.559	800.000	0.052	-0.173
-284.545	-200.000	-0.026	-0.186
-283.530	-163.885	0.102	0.005
-282.516	4.144	0.130	0.094
-281.501	-51.038	-0.149	-0.069
-280.486	-118.905	0.259	0.045
-279.472	46.601	-0.016	0.015
-278.457	94.276	0.097	0.109
-277.443	-200.000	0.186	0.001
-276.428	53.692	0.184	-0.175
-275.413	334.598	0.099	0.190
-274.399	800.000	-0.095	0.281
-273.384	-198.115	0.043	0.000
-272.370	32.026	-0.230	-0.196
-271.355	-79.060	0.150	0.051
-270.340	94.516	0.131	0.147
-269.326	-38.113	-0.190	-0.100
-268.311	-91.224	0.383	0.108
-267.297	-93.385	-0.097	0.027
-266.282	-59.886	0.205	-0.087
-265.267	-42.157	0.211	0.107
-264.253	-18.324	0.120	0.074
-263.238	67.998	0.177	-0.179
-262.224	-200.000	0.004	-0.298
-261.209	434.720	-0.084	0.179
-260.195	115.869	0.134	0.162
-259.180	-11.049	0.114	-0.074
-258.165	-130.657	-0.209	-0.028
-257.151	121.113	0.078	-0.096
-256.136	295.098	0.043	0.077
-255.122	35.581	0.189	-0.164
-254.107	103.182	0.128	0.148
-253.092	62.619	0.096	0.095
-252.078	-49.594	0.188	-0.088
-251.063	-29.846	0.137	0.077
-250.049	-137.098	0.150	0.017
-249.034	-200.000	0.004	-0.193
-248.019	104.538	0.076	0.089
-247.005	-200.000	0.023	-0.135
-245.990	30.441	0.045	-0.038
-244.976	-200.000	0.015	-0.448
-243.961	298.134	-0.219	-0.397
-242.946	-14.228	-0.397	0.253
-241.932	226.695	0.071	0.114
-240.917	-72.868	-0.149	-0.054
-239.903	2.737	0.155	0.111
-238.888	-71.336	0.360	-0.133
-237.873	573.966	-0.092	0.222
-236.859	-24.580	0.113	0.066
-235.844	-111.753	-0.276	0.055
-234.830	152.403	0.168	0.226
-233.815	-200.000	0.012	0.180
-232.800	-200.000	0.027	0.157
-231.786	353.907	-0.160	-0.314
-230.771	-50.639	0.087	-0.041
-229.757	328.787	0.122	-0.232
-228.742	80.027	0.097	0.103
-227.727	800.000	0.048	-0.169
-226.713	800.000	-0.018	0.063
-225.698	-91.451	-0.219	-0.062
-224.684	-101.479	-0.114	0.027
-223.669	-99.507	0.161	-0.040
-222.655	-89.671	-0.318	0.092
-221.640	-123.543	-0.207	0.032
-220.625	-200.000	0.019	-0.206
-219.611	-68.505	-0.399	0.153
-218.596	-187.419	0.317	-0.004
-217.582	77.085	0.135	0.142
-216.567	-139.597	0.270	-0.028
-215.552	-200.000	0.011	0.320
-214.538	94.779	-0.219	0.245
-213.523	5.246	0.327	0.238
-212.509	-88.904	-0.203	-0.059
-211.494	-92.218	0.153	-0.043
-210.479	-48.755	-0.020	0.009
-209.465	800.000	0.080	0.233
-208.450	4.323	-0.190	0.137
-207.436	-200.000	0.028	-0.174
-206.421	-107.062	-0.166	0.036
-205.406	-200.000	-0.023	-0.137
-204.392	-127.222	0.163	0.024
-203.377	-200.000	0.002	-0.086
-202.363	-200.000	0.073	-0.336
-201.348	-200.000	0.280	0.001
-200.333	177.482	-0.154	-0.221
-199.319	217.661	-0.098	0.154
-198.304	-200.000	-0.015	0.136
-197.290	348.584	-0.106	-0.206
-196.275	-7.080	0.093	-0.062
-195.260	65.477	-0.113	0.113
-194.246	401.714	0.068	0.141
-193.231	-106.134	0.247	-0.055
-192.217	519.521	-0.071	-0.163
-191.202	800.000	0.052	0.225
-190.187	-200.000	0.012	-0.209
-189.173	-49.645	0.227	0.106
-188.158	237.539	0.227	-0.371
-187.144	800.000	-0.148	-0.523
-186.129	-59.947	-0.365	-0.154
-185.114	-110.178	-0.275	0.056
-184.100	624.773	0.107	0.265
-183.085	478.123	0.072	0.161
-182.071	-70.810	-0.142	0.053
-181.056	17.407	0.411	0.321
-180.042	327.022	-0.101	-0.191
-179.027	312.242	0.047	-0.087
-178.012	370.453	0.144	-0.287
-176.998	459.824	-0.054	-0.118
-175.983	-0.648	-0.140	-0.098
-174.969	228.441	-0.078	0.125
-173.954	-79.909	0.033	0.011
-172.939	16.349	0.186	-0.145
-171.925	631.579	0.148	0.369
-170.910	-200.000	0.001	-0.094
-169.896	91.627	0.224	-0.248
-168.881	-91.230	0.387	0.109
-167.866	-200.000	0.105	-0.570
-166.852	-23.916	0.201	0.118
-165.837	-100.359	-0.201	-0.049
-164.823	-200.000	0.046	-0.322
-163.808	209.924	0.112	-0.174
-162.793	227.264	0.043	-0.068
-161.779	800.000	-0.034	-0.145
-160.764	-47.305	0.092	0.044
-159.750	63.098	0.111	-0.110
-158.735	263.746	0.157	-0.269
-157.720	55.497	0.111	0.105
-156.706	543.857	-0.044	-0.104
-155.691	-147.969	-0.274	-0.022
-154.677	96.347	-0.202	0.227
-153.662	285.593	-0.101	-0.179
-152.647	-161.451	0.268	-0.014
-151.633	114.972	0.091	0.109
-150.618	-200.000	0.022	0.215
-149.604	-200.000	-0.026	0.239
-148.589	-17.504	0.108	0.067
-147.574	-200.000	0.012	0.146
-146.560	-119.659	0.310	-0.053
-145.545	-200.000	-0.046	-0.328
-144.531	-200.000	0.041	0.375
-143.516	-147.869	-0.229	0.019
-142.502	-37.133	-0.152	-0.080
-141.487	-200.000	-0.013	0.173
-140.472	-137.953	0.593	-0.065
-139.458	0.798	0.235	-0.165
-138.443	-200.000	0.018	-0.402
-137.429	-151.986	0.030	-0.002
-136.414	-200.000	0.026	-0.192
-135.399	294.444	0.189	-0.340
-134.385	47.558	0.060	-0.055
-133.370	118.466	0.203	0.246
-132.356	-23.000	0.238	-0.141
-131.341	-80.966	-0.203	0.066
-130.326	-200.000	-0.050	0.218
-129.312	-35.928	0.409	0.218
-128.297	800.000	-0.097	0.376
-127.283	-200.000	-0.043	0.269
-126.268	207.602	-0.129	-0.198
-125.253	-200.000	-0.132	0.001
-124.239	429.594	0.058	-0.123
-123.224	800.000	0.042	-0.150
-122.210	800.000	-0.030	0.120
-121.195	57.235	-0.069	0.066
-120.180	-22.026	0.282	0.169
