DTS Sentinel unit serial number:	SN413079Multiplexer serial number:	ORYXHardware model number:	OX4-SRSoftware version number:	ORYX F/W v4.00 Oryx Data Collector v3.7.2.0data status	okinstallation	princeton_trtdifferential loss correction	single-endedforward channel	channel 1reverse channel	N/Adate	2019/09/11time	11:44:11forward acquisition time	60.00reverse acquisition time	0.00gamma	496.2192k internal	0.2293k external	0.2293temperature offset calibration	0.9947default loss term (dB/km)	0.3790temperature slope calibration	1.0000multiplexer offset coefficient	1.0000multiplexer slope coefficient	1.0000fibre end	0.00T internal ref (°C)	38.58T ext. ref 1 (°C)	0.17T ext. ref 2 (°C)	36.30length (m)	temperature (°C)	Stokes	anti-Stokes-747.200	-182.476	0.256	0.005
-746.185	146.954	-0.115	0.159
-745.171	6.727	-0.326	0.248
-744.156	96.776	0.190	0.223
-743.142	-67.713	-0.195	-0.078
-742.127	-200.000	0.066	0.353
-741.112	-200.000	0.017	0.260
-740.098	26.275	0.137	-0.117
-739.083	87.587	-0.042	0.048
-738.069	398.263	0.111	0.238
-737.054	694.062	0.010	0.027
-736.039	800.000	0.068	-0.238
-735.025	99.824	0.191	0.227
-734.010	-141.658	0.236	0.024
-732.996	217.509	-0.151	0.246
-731.981	-98.645	-0.468	-0.122
-730.966	114.185	-0.307	-0.382
-729.952	331.407	-0.112	-0.221
-728.937	-55.433	-0.246	-0.113
-727.923	435.109	0.065	-0.145
-726.908	-162.734	-0.079	0.004
-725.894	-96.835	-0.261	-0.070
-724.879	-95.148	0.261	0.072
-723.864	40.747	0.092	0.084
-722.850	-22.797	0.287	-0.177
-721.835	-0.449	-0.143	-0.104
-720.821	-55.549	0.243	0.111
-719.806	800.000	-0.070	0.244
-718.791	-200.000	0.059	0.337
-717.777	-82.883	-0.180	-0.059
-716.762	-162.330	0.121	-0.006
-715.748	506.510	0.119	-0.282
-714.733	-165.289	0.200	-0.009
-713.718	-58.052	0.296	-0.132
-712.704	222.673	-0.066	-0.109
-711.689	412.178	-0.122	-0.264
-710.675	-106.874	0.322	-0.073
-709.660	-107.869	-0.185	0.041
-708.645	-100.667	-0.096	0.024
-707.631	23.834	0.336	-0.283
-706.616	-64.118	0.348	-0.145
-705.602	10.269	0.255	0.198
-704.587	-67.073	0.337	0.136
-703.572	71.696	-0.116	0.124
-702.558	256.538	0.067	0.117
-701.543	-20.249	-0.347	-0.219
-700.529	-200.000	-0.009	-0.196
-699.514	520.058	-0.114	-0.273
-698.499	81.552	-0.306	-0.338
-697.485	-104.847	-0.342	-0.080
-696.470	-200.000	-0.024	-0.129
-695.456	243.105	0.148	-0.253
-694.441	29.958	0.244	-0.213
-693.426	276.963	0.029	-0.053
-692.412	10.887	0.212	-0.166
-691.397	-200.000	0.020	-0.399
-690.383	800.000	0.101	-0.286
-689.368	800.000	0.063	0.266
-688.354	338.775	-0.137	-0.272
-687.339	-200.000	0.012	0.235
-686.324	-41.233	0.431	0.227
-685.310	-129.886	-0.403	0.057
-684.295	-167.689	0.196	0.008
-683.281	800.000	0.042	-0.187
-682.266	-200.000	-0.014	0.212
-681.251	-114.065	-0.242	0.048
-680.237	-200.000	0.046	0.271
-679.222	116.566	0.245	0.307
-678.208	24.089	0.237	-0.200
-677.193	351.869	0.151	-0.305
-676.178	165.784	0.236	0.341
-675.164	-176.375	0.069	-0.002
-674.149	-90.913	-0.204	0.060
-673.135	-81.732	-0.300	-0.100
-672.120	-19.961	-0.346	0.218
-671.105	29.884	-0.135	0.117
-670.091	-10.028	0.197	0.134
-669.076	113.426	0.062	0.076
-668.062	33.774	-0.066	-0.059
-667.047	76.136	0.100	-0.108
-666.032	-200.000	0.004	0.325
-665.018	181.491	0.133	0.200
-664.003	-200.000	-0.041	-0.231
-662.989	-21.830	-0.149	-0.093
-661.974	-111.674	-0.295	0.061
-660.959	-35.030	0.194	-0.108
-659.945	8.317	-0.274	-0.210
-658.930	-200.000	0.031	0.230
-657.916	-92.606	-0.235	-0.067
-656.901	-58.729	-0.186	-0.082
-655.886	585.598	0.127	-0.318
-654.872	-74.023	-0.150	-0.055
-653.857	59.778	0.235	0.236
-652.843	-200.000	0.024	-0.158
-651.828	-182.720	-0.237	-0.004
-650.814	-103.928	0.319	0.076
-649.799	200.010	0.131	-0.205
-648.784	-90.910	0.282	-0.083
-647.770	800.000	0.054	0.204
-646.755	-173.776	0.105	-0.003
-645.741	233.120	0.067	0.112
-644.726	-87.070	0.100	-0.031
-643.711	-200.000	-0.054	-0.466
-642.697	170.326	0.063	0.092
-641.682	-22.153	-0.228	-0.141
-640.668	303.792	-0.172	0.324
-639.653	-130.490	0.167	0.023
-638.638	49.451	-0.173	-0.166
-637.624	-200.000	0.040	-0.390
-636.609	-200.000	-0.021	-0.162
-635.595	129.564	0.149	-0.194
-634.580	-22.003	0.134	0.083
-633.565	247.526	0.254	0.437
-632.551	-35.808	-0.370	-0.204
-631.536	-200.000	0.158	0.000
-630.522	-27.864	0.397	-0.234
-629.507	13.576	0.194	-0.153
-628.492	-200.000	-0.006	0.178
-627.478	1.009	-0.256	-0.187
-626.463	0.938	0.063	0.046
-625.449	-109.899	-0.131	-0.028
-624.434	-200.000	-0.002	0.091
-623.419	102.847	-0.078	0.093
-622.405	-190.425	0.089	0.001
-621.390	-33.142	0.051	0.029
-620.376	-54.352	-0.078	0.036
-619.361	-200.000	-0.008	-0.220
-618.346	800.000	0.066	-0.269
-617.332	-43.653	0.115	0.059
-616.317	202.971	-0.221	0.348
-615.303	589.083	-0.091	-0.229
-614.288	-200.000	0.012	-0.082
-613.273	800.000	-0.026	-0.097
-612.259	-50.533	0.037	-0.018
-611.244	546.511	-0.126	-0.307
-610.230	377.585	0.208	-0.433
-609.215	-101.257	-0.126	0.031
-608.201	-134.940	0.216	0.027
-607.186	-200.000	0.066	-0.389
-606.171	-200.000	0.017	-0.096
-605.157	-75.273	0.250	0.091
-604.142	-107.401	0.073	0.016
-603.128	455.107	0.055	0.124
-602.113	241.773	0.184	-0.313
-601.098	-200.000	0.019	-0.131
-600.084	-200.000	-0.018	-0.126
-599.069	44.964	0.073	0.068
-598.055	800.000	0.069	0.294
-597.040	72.890	-0.225	-0.239
-596.025	-26.713	-0.260	0.155
-595.011	-200.000	-0.009	-0.346
-593.996	140.833	-0.153	0.205
-592.982	465.814	0.027	0.061
-591.967	62.771	0.116	-0.118
-590.952	-200.000	-0.022	0.115
-589.938	580.883	-0.111	0.276
-588.923	-200.000	0.050	0.378
-587.909	-200.000	-0.004	-0.040
-586.894	-200.000	-0.019	-0.175
-585.879	800.000	0.057	0.160
-584.865	-200.000	-0.003	-0.078
-583.850	165.011	0.036	0.051
-582.836	-103.674	0.218	0.052
-581.821	233.698	-0.091	-0.152
-580.806	242.840	-0.113	0.192
-579.792	63.486	-0.053	-0.054
-578.777	476.253	0.050	0.114
-577.763	-102.150	0.272	0.066
-576.748	244.868	-0.104	-0.179
-575.733	-92.414	-0.155	-0.044
-574.719	367.243	-0.049	0.101
-573.704	800.000	-0.124	0.396
-572.690	-61.555	0.066	0.028
-571.675	-90.188	-0.468	0.138
-570.661	-200.000	-0.004	0.434
-569.646	188.048	0.057	0.086
-568.631	513.675	-0.025	-0.058
-567.617	-200.000	0.004	0.037
-566.602	18.906	0.063	0.051
-565.588	-42.198	-0.207	0.108
-564.573	394.638	0.155	-0.328
-563.558	174.867	-0.086	-0.127
-562.544	800.000	-0.066	-0.238
-561.529	-114.496	-0.091	0.018
-560.515	23.661	0.242	0.203
-559.500	800.000	-0.153	-0.449
-558.485	85.502	0.101	0.113
-557.471	800.000	0.075	-0.217
-556.456	76.698	-0.080	0.086
-555.442	128.778	-0.162	0.210
-554.427	302.615	0.047	-0.089
-553.412	398.966	-0.047	0.100
-552.398	129.149	-0.268	0.347
-551.383	401.991	0.103	-0.220
-550.369	205.314	0.121	0.191
-549.354	-200.000	0.039	0.182
-548.339	-38.491	0.148	0.080
-547.325	-106.784	-0.336	0.076
-546.310	-38.800	0.356	0.191
-545.296	-62.516	0.219	0.092
-544.281	48.167	-0.139	0.132
-543.266	45.512	-0.218	-0.204
-542.252	-12.675	-0.280	0.185
-541.237	12.335	-0.199	0.156
-540.223	-12.528	0.161	0.107
-539.208	-57.558	-0.121	-0.054
-538.193	800.000	-0.019	-0.084
-537.179	-24.908	0.282	0.170
-536.164	-165.673	-0.309	-0.014
-535.150	-156.749	-0.222	0.014
-534.135	313.317	-0.224	0.427
-533.121	-40.671	0.131	-0.069
-532.106	-82.402	-0.043	0.014
-531.091	141.912	-0.134	-0.181
-530.077	655.038	0.105	-0.273
-529.062	-97.176	0.320	0.085
-528.048	800.000	-0.059	-0.243
-527.033	496.559	-0.156	-0.365
-526.018	137.480	0.202	-0.268
-525.004	-47.452	0.016	0.008
-523.989	-79.252	0.132	0.045
-522.975	800.000	0.015	0.056
-521.960	130.257	-0.027	0.035
-520.945	-25.366	-0.293	-0.176
-519.931	3.084	0.176	0.130
-518.916	31.294	0.067	-0.058
-517.902	19.804	-0.143	-0.117
-516.887	65.266	0.091	-0.093
-515.872	-200.000	0.043	0.283
-514.858	749.400	-0.048	-0.131
-513.843	-67.377	-0.152	-0.061
-512.829	-15.848	0.155	-0.100
-511.814	-85.656	0.296	-0.093
-510.799	-8.336	-0.252	-0.172
-509.785	800.000	-0.094	-0.266
-508.770	98.366	-0.085	-0.099
-507.756	115.240	-0.170	0.211
-506.741	437.829	0.054	-0.118
-505.726	122.944	0.117	0.149
-504.712	-163.266	-0.372	0.018
-503.697	-76.108	0.332	0.119
-502.683	-178.601	-0.231	-0.005
-501.668	-200.000	0.004	0.280
-500.653	-200.000	-0.049	-0.224
-499.639	-127.997	-0.112	-0.016
-498.624	55.453	-0.147	-0.144
-497.610	-57.154	-0.411	-0.183
-496.595	-125.705	-0.343	-0.053
-495.581	-20.518	-0.202	0.126
-494.566	-200.000	-0.014	0.194
-493.551	526.007	0.033	-0.078
-492.537	107.045	-0.238	-0.286
-491.522	800.000	-0.101	-0.448
-490.508	65.924	-0.186	0.191
-489.493	-17.172	-0.127	0.081
-488.478	-63.269	-0.118	0.049
-487.464	38.438	0.186	0.168
-486.449	122.180	-0.107	0.135
-485.435	-83.289	-0.256	-0.083
-484.420	-46.300	-0.165	-0.082
-483.405	-185.879	-0.183	0.003
-482.391	-200.000	-0.040	0.269
-481.376	171.617	0.156	0.226
-480.362	373.921	0.066	0.136
-479.347	-200.000	-0.009	-0.171
-478.332	640.939	-0.154	0.396
-477.318	379.721	0.051	-0.106
-476.303	-23.840	-0.201	0.122
-475.289	-98.203	-0.111	-0.029
-474.274	137.576	-0.185	-0.246
-473.259	-167.589	-0.212	0.009
-472.245	125.709	0.094	-0.120
-471.230	132.577	-0.069	0.091
-470.216	195.214	0.088	-0.135
-469.201	25.735	0.280	0.236
-468.186	-119.934	0.133	0.023
-467.172	-200.000	0.020	0.130
-466.157	-148.897	-0.435	-0.036
-465.143	800.000	-0.023	0.072
-464.128	-200.000	-0.018	0.266
-463.113	-200.000	0.021	0.111
-462.099	-200.000	-0.016	-0.081
-461.084	-200.000	0.001	-0.168
-460.070	800.000	-0.069	0.209
-459.055	-44.296	0.341	-0.173
-458.040	-14.996	-0.155	0.100
-457.026	-3.510	0.174	0.122
-456.011	-134.662	0.285	0.035
-454.997	-6.617	0.198	-0.136
-453.982	429.667	0.072	0.157
-452.968	-22.889	-0.317	0.193
-451.953	288.214	0.089	0.163
-450.938	33.620	0.178	-0.157
-449.924	458.620	0.021	0.047
-448.909	-77.019	-0.057	-0.020
-447.895	800.000	-0.038	0.126
-446.880	-20.181	0.327	-0.204
-445.865	800.000	0.073	-0.226
-444.851	-40.008	-0.220	0.116
-443.836	-200.000	-0.064	0.324
-442.822	222.103	-0.122	0.199
-441.807	-140.264	0.139	-0.015
-440.792	800.000	-0.071	0.225
-439.778	682.899	-0.046	0.122
-438.763	-17.623	-0.050	0.032
-437.749	-73.819	0.357	-0.131
-436.734	-168.809	0.158	-0.006
-435.719	-200.000	-0.168	0.001
-434.705	3.076	-0.383	0.281
-433.690	-119.804	-0.255	0.044
-432.676	-200.000	0.010	-0.063
-431.661	-151.534	0.287	0.021
-430.646	-69.254	-0.115	0.045
-429.632	-87.491	0.118	-0.036
-428.617	207.994	-0.048	0.076
-427.603	219.077	0.122	0.197
-426.588	-155.445	-0.378	0.025
-425.573	38.699	0.057	-0.051
-424.559	317.649	-0.087	-0.166
-423.544	800.000	0.049	-0.166
-422.530	465.936	0.107	0.242
-421.515	17.051	0.335	-0.268
-420.500	-119.656	0.213	-0.037
-419.486	-194.750	0.421	-0.003
-418.471	136.743	-0.168	0.221
-417.457	-200.000	-0.006	0.077
-416.442	-200.000	0.003	-0.208
-415.428	28.263	-0.117	-0.100
-414.413	-72.488	-0.108	-0.040
-413.398	-71.195	-0.049	-0.019
-412.384	-113.326	0.071	0.014
-411.369	800.000	0.053	-0.231
-410.355	374.709	0.082	-0.169
-409.340	86.662	0.200	-0.222
-408.325	638.513	-0.003	-0.008
-407.311	-200.000	-0.036	0.198
-406.296	800.000	0.049	0.203
-405.282	385.435	0.118	-0.246
-404.267	-62.240	0.054	-0.023
-403.252	-63.308	-0.131	-0.054
-402.238	-60.407	-0.183	0.079
-401.223	2.597	-0.029	-0.021
-400.209	800.000	-0.109	-0.398
-399.194	86.080	0.157	-0.174
-398.179	-103.936	0.019	-0.005
-397.165	-38.610	-0.045	0.024
-396.150	-15.476	0.129	-0.083
-395.136	271.085	-0.061	-0.109
-394.121	106.651	0.273	0.327
-393.106	207.528	-0.101	0.160
-392.092	-162.123	0.060	-0.003
-391.077	-200.000	0.015	0.328
-390.063	-200.000	-0.027	-0.284
-389.048	-23.873	-0.355	-0.214
-388.033	139.669	0.093	-0.123
-387.019	800.000	0.055	0.162
-386.004	-200.000	0.011	-0.102
-384.990	318.513	0.092	0.175
-383.975	174.534	-0.176	-0.257
-382.960	-130.493	-0.161	0.022
-381.946	-111.634	0.195	-0.040
-380.931	-152.508	-0.184	-0.013
-379.917	297.209	0.207	-0.383
-378.902	-126.632	0.417	-0.062
-377.888	-200.000	-0.019	-0.111
-376.873	-41.093	-0.123	-0.064
-375.858	-17.509	-0.188	0.119
-374.844	19.707	-0.100	-0.081
-373.829	82.480	0.115	0.125
-372.815	-174.553	-0.229	-0.007
-371.800	-116.151	0.199	-0.037
-370.785	-16.203	0.158	-0.101
-369.771	90.116	0.115	0.129
-368.756	-200.000	-0.047	0.240
-367.742	-200.000	-0.009	0.074
-366.727	-200.000	0.082	-0.403
-365.712	73.035	0.125	0.132
-364.698	-71.129	-0.231	-0.087
-363.683	531.166	-0.055	-0.132
-362.669	176.772	-0.171	-0.250
-361.654	800.000	-0.040	-0.147
-360.639	-26.269	0.203	0.120
-359.625	800.000	-0.115	-0.343
-358.610	-29.037	-0.338	-0.196
-357.596	-176.675	-0.210	0.005
-356.581	-151.316	-0.041	0.003
-355.566	14.851	-0.140	-0.111
-354.552	-45.575	-0.171	-0.085
-353.537	-137.343	-0.077	0.009
-352.523	245.767	-0.242	-0.411
-351.508	-47.619	0.364	-0.178
-350.493	800.000	0.034	0.123
-349.479	-145.785	0.148	-0.013
-348.464	-0.483	-0.199	0.142
-347.450	153.043	-0.125	0.172
-346.435	-81.925	0.138	-0.045
-345.420	-46.841	0.247	0.122
-344.406	15.331	-0.129	-0.102
-343.391	-115.802	-0.201	0.038
-342.377	-35.946	-0.209	0.114
-341.362	-113.500	-0.256	-0.051
-340.348	77.390	0.161	-0.173
-339.333	69.301	-0.082	-0.085
-338.318	152.673	-0.076	0.105
-337.304	-49.189	-0.038	0.018
-336.289	645.098	-0.138	0.355
-335.275	108.411	0.177	0.213
-334.260	26.195	0.054	-0.046
-333.245	-200.000	-0.016	-0.230
-332.231	800.000	0.089	-0.288
-331.216	111.416	-0.053	-0.064
-330.202	93.459	-0.127	0.145
-329.187	-200.000	-0.018	0.096
-328.172	-70.580	0.086	-0.033
-327.158	-10.582	-0.389	-0.259
-326.143	800.000	0.059	-0.238
-325.129	-31.115	-0.300	-0.170
-324.114	-158.131	0.243	0.014
-323.099	196.093	-0.321	-0.491
-322.085	-24.091	0.163	-0.098
-321.070	96.484	0.070	0.080
-320.056	345.476	-0.201	0.397
-319.041	44.594	0.047	0.044
-318.026	266.217	-0.128	0.224
-317.012	251.543	0.013	0.021
-315.997	679.587	0.163	0.427
-314.983	-132.789	-0.133	-0.017
-313.968	-109.579	0.442	-0.094
-312.953	800.000	-0.063	-0.199
-311.939	104.314	0.210	0.248
-310.924	11.718	-0.207	-0.160
-309.910	135.099	0.237	0.310
-308.895	290.483	-0.343	0.627
-307.880	-31.738	-0.189	0.107
-306.866	800.000	-0.089	0.364
-305.851	49.219	0.238	-0.225
-304.837	61.730	0.118	0.119
-303.822	-65.718	-0.106	-0.043
-302.807	-200.000	0.034	-0.363
-301.793	-72.063	0.437	0.163
-300.778	-200.000	0.075	-0.398
-299.764	115.655	0.090	0.110
-298.749	283.480	0.155	-0.281
-297.735	-200.000	0.339	0.002
-296.720	-102.288	0.092	0.022
-295.705	-64.199	0.291	-0.119
-294.691	-200.000	0.032	-0.294
-293.676	320.688	0.153	0.293
-292.662	67.401	0.447	0.459
-291.647	-132.778	-0.074	-0.010
-290.632	-26.804	0.306	-0.180
-289.618	119.955	-0.102	-0.127
-288.603	800.000	-0.079	0.344
-287.589	171.367	0.084	0.121
-286.574	800.000	-0.008	0.024
-285.559	-114.231	0.093	-0.018
-284.545	140.799	0.065	0.086
-283.530	270.270	-0.151	-0.267
-282.516	-46.020	-0.381	-0.189
-281.501	-43.932	-0.195	0.099
-280.486	-200.000	0.016	0.108
-279.472	-200.000	0.089	0.460
-278.457	45.708	-0.110	0.103
-277.443	119.027	-0.108	0.134
-276.428	800.000	-0.097	0.394
-275.413	-186.709	-0.056	-0.001
-274.399	516.540	-0.038	0.088
-273.384	800.000	-0.003	-0.009
-272.370	243.571	-0.081	0.136
-271.355	-96.375	0.188	-0.050
-270.340	-200.000	0.009	0.290
-269.326	-117.940	0.201	-0.036
-268.311	-83.337	-0.192	-0.062
-267.297	-44.433	-0.126	-0.063
-266.282	138.203	0.173	-0.228
-265.267	414.715	-0.069	-0.148
-264.253	-94.551	-0.248	-0.068
-263.238	-117.337	0.388	0.071
-262.224	-123.635	0.168	-0.027
-261.209	66.545	0.113	0.115
-260.195	-51.718	0.073	0.034
-259.180	98.198	0.063	0.072
-258.165	-123.014	-0.074	-0.012
-257.151	127.675	-0.104	0.132
-256.136	-73.537	-0.187	0.068
-255.122	-39.413	0.046	0.024
-254.107	-1.736	0.185	-0.131
-253.092	590.814	0.126	-0.312
-252.078	69.942	0.143	-0.148
-251.063	-15.800	0.245	0.157
-250.049	-200.000	-0.063	0.307
-249.034	59.351	-0.156	-0.154
-248.019	-200.000	-0.039	-0.310
-247.005	-200.000	-0.038	-0.195
-245.990	227.273	0.036	-0.058
-244.976	440.112	0.046	-0.101
-243.961	49.853	0.203	0.192
-242.946	11.838	-0.155	-0.120
-241.932	-159.182	0.085	0.005
-240.917	329.244	0.169	-0.327
-239.903	457.430	0.130	-0.290
-238.888	381.281	0.080	-0.164
-237.873	800.000	0.143	-0.401
-236.859	-23.338	-0.150	-0.090
-235.844	-200.000	-0.060	0.412
-234.830	-33.501	0.228	0.126
-233.815	-188.825	0.055	0.001
-232.800	-200.000	0.264	0.000
-231.786	24.609	0.037	0.031
-230.771	434.385	-0.115	0.251
-229.757	-184.498	-0.287	0.005
-228.742	71.237	0.247	-0.256
-227.727	-34.216	0.268	0.147
-226.713	52.246	0.143	0.136
-225.698	116.558	0.141	-0.173
-224.684	-200.000	0.048	-0.302
-223.669	800.000	-0.099	0.309
-222.655	800.000	-0.066	-0.196
-221.640	-200.000	-0.013	0.235
-220.625	-200.000	-0.019	-0.109
-219.611	-200.000	0.009	0.297
-218.596	-149.043	-0.174	0.014
-217.582	112.899	0.183	-0.223
-216.567	37.316	0.104	0.092
-215.552	195.211	0.153	0.232
-214.538	-25.191	-0.151	0.090
-213.523	48.848	-0.045	0.042
-212.509	88.488	0.144	0.160
-211.494	78.319	-0.114	0.122
-210.479	800.000	0.056	0.196
-209.465	215.489	-0.238	0.378
-208.450	-200.000	-0.003	-0.167
-207.436	-52.768	0.130	-0.060
-206.421	223.549	-0.111	-0.179
-205.406	-43.659	0.096	0.049
-204.392	-50.378	0.308	-0.146
-203.377	150.243	0.152	0.207
-202.363	594.338	0.054	0.133
-201.348	460.571	-0.042	0.093
-200.333	-200.000	-0.045	-0.261
-199.319	-98.165	0.181	-0.047
-198.304	171.560	0.041	0.058
-197.290	-26.241	-0.455	0.268
-196.275	-87.595	-0.239	-0.072
-195.260	-200.000	-0.001	-0.036
-194.246	-110.934	0.062	0.013
-193.231	-200.000	0.020	-0.155
-192.217	-178.378	0.182	0.004
-191.202	432.843	-0.093	-0.202
-190.187	97.942	-0.068	-0.079
-189.173	-35.102	0.182	-0.099
-188.158	284.764	0.132	0.238
-187.144	-108.531	0.296	0.064
-186.129	800.000	-0.112	0.315
-185.114	229.485	-0.091	0.149
-184.100	38.681	-0.073	0.065
-183.085	800.000	0.062	-0.183
-182.071	-200.000	-0.008	-0.108
-181.056	742.141	-0.064	-0.173
-180.042	-45.267	-0.246	0.122
-179.027	39.948	0.125	0.112
-178.012	427.926	0.045	0.098
-176.998	112.946	0.158	0.191
-175.983	-124.393	0.175	0.027
-174.969	-200.000	0.026	-0.287
-173.954	800.000	-0.029	0.123
-172.939	-42.901	-0.114	0.058
-171.925	-96.891	-0.234	-0.062
-170.910	-66.092	-0.053	0.021
-169.896	283.742	-0.093	0.167
-168.881	-0.486	-0.325	0.231
-167.866	0.769	0.136	0.097
-166.852	-65.282	-0.326	0.131
-165.837	-192.410	-0.069	-0.001
-164.823	800.000	0.041	0.120
-163.808	45.641	0.118	-0.109
-162.793	227.245	-0.119	-0.194
-161.779	-200.000	-0.038	0.179
-160.764	345.248	0.043	0.084
-159.750	404.290	-0.070	-0.146
-158.735	-102.319	0.075	0.018
-157.720	-200.000	-0.006	-0.248
-156.706	61.607	-0.184	0.183
-155.691	200.285	0.053	-0.081
-154.677	-45.272	0.156	-0.077
-153.662	165.880	0.130	0.184
-152.647	41.174	0.368	-0.332
-151.633	206.692	0.225	0.350
-150.618	106.319	-0.097	0.115
-149.604	291.474	-0.047	0.085
-148.589	316.177	0.190	0.358
-147.574	-200.000	-0.023	0.259
-146.560	128.290	-0.157	0.200
-145.545	570.133	-0.081	-0.197
-144.531	-200.000	-0.003	-0.084
-143.516	-200.000	0.106	0.478
-142.502	-16.566	0.179	0.113
-141.487	-33.891	-0.368	-0.202
-140.472	-200.000	-0.020	0.229
-139.458	-200.000	0.013	0.294
-138.443	-67.336	-0.177	0.070
-137.429	223.440	-0.140	0.226
-136.414	-121.512	0.239	-0.040
-135.399	-148.911	-0.332	-0.027
-134.385	-200.000	-0.020	0.216
-133.370	116.905	0.061	0.075
-132.356	-24.353	0.129	-0.077
-131.341	-57.512	0.263	0.115
-130.326	-42.695	-0.202	-0.103
-129.312	-152.064	-0.310	0.023
-128.297	800.000	-0.074	0.251
-127.283	438.660	-0.107	-0.234
-126.268	132.852	0.160	0.207
-125.253	29.951	-0.058	-0.049
-124.239	130.366	-0.289	-0.370
-123.224	-200.000	-0.063	-0.371
-122.210	691.601	0.061	-0.161
-121.195	-148.627	-0.298	-0.024
