DTS Sentinel unit serial number:	SN413079Multiplexer serial number:	ORYXHardware model number:	OX4-SRSoftware version number:	ORYX F/W v4.00 Oryx Data Collector v3.7.2.0data status	okinstallation	princeton_trtdifferential loss correction	single-endedforward channel	channel 1reverse channel	N/Adate	2019/09/13time	03:54:35forward acquisition time	60.00reverse acquisition time	0.00gamma	496.2192k internal	0.2333k external	0.2333temperature offset calibration	1.0161default loss term (dB/km)	0.3790temperature slope calibration	1.0000multiplexer offset coefficient	1.0000multiplexer slope coefficient	1.0000fibre end	0.00T internal ref (°C)	27.06T ext. ref 1 (°C)	4.09T ext. ref 2 (°C)	21.36length (m)	temperature (°C)	Stokes	anti-Stokes-747.200	105.703	-0.047	0.056
-746.185	504.121	-0.059	-0.137
-745.171	-184.221	0.479	-0.008
-744.156	593.327	0.070	-0.173
-743.142	-27.769	-0.254	-0.148
-742.127	800.000	0.105	0.438
-741.112	-200.000	0.009	-0.077
-740.098	-200.000	0.016	0.288
-739.083	800.000	-0.056	0.167
-738.069	254.620	-0.063	0.109
-737.054	-104.959	0.139	0.032
-736.039	-200.000	-0.014	0.165
-735.025	23.305	0.291	0.241
-734.010	-131.000	-0.360	0.048
-732.996	0.149	0.249	-0.178
-731.981	-200.000	0.012	-0.065
-730.966	-45.398	0.189	0.094
-729.952	-70.624	-0.453	0.172
-728.937	96.274	0.146	0.168
-727.923	-30.757	0.364	-0.207
-726.908	-200.000	-0.007	0.044
-725.894	-200.000	0.022	-0.158
-724.879	93.745	-0.170	0.194
-723.864	32.031	0.280	-0.242
-722.850	-200.000	0.046	-0.254
-721.835	-68.036	-0.149	0.059
-720.821	-199.451	-0.179	0.001
-719.806	117.701	-0.088	-0.109
-718.791	-67.682	0.272	-0.107
-717.777	59.493	0.297	-0.295
-716.762	-137.854	-0.325	-0.036
-715.748	-182.518	-0.232	-0.004
-714.733	-200.000	0.011	-0.348
-713.718	-65.297	0.055	-0.022
-712.704	163.077	0.099	-0.140
-711.689	184.004	0.077	0.114
-710.675	-142.033	0.246	0.025
-709.660	-55.233	0.104	0.047
-708.645	-58.315	0.112	0.049
-707.631	-89.106	0.302	0.090
-706.616	140.017	-0.298	0.395
-705.602	800.000	0.045	-0.134
-704.587	246.271	-0.149	-0.253
-703.572	-200.000	-0.011	0.419
-702.558	-200.000	0.057	0.300
-701.543	-200.000	-0.007	-0.095
-700.529	0.796	-0.166	0.119
-699.514	162.857	-0.099	-0.139
-698.499	-55.384	0.228	0.103
-697.485	376.306	0.052	0.106
-696.470	800.000	-0.050	0.150
-695.456	-128.591	0.220	0.031
-694.441	296.109	0.120	0.221
-693.426	800.000	-0.096	-0.373
-692.412	-200.000	0.004	0.188
-691.397	-107.501	0.228	0.050
-690.383	39.096	-0.172	-0.155
-689.368	262.947	0.166	0.289
-688.354	-200.000	-0.010	-0.235
-687.339	-42.775	0.126	0.064
-686.324	-84.320	0.495	0.157
-685.310	97.274	-0.148	-0.170
-684.295	285.527	-0.080	-0.145
-683.281	-138.269	-0.264	0.029
-682.266	-68.046	-0.422	-0.165
-681.251	18.617	0.137	0.110
-680.237	540.892	-0.104	0.249
-679.222	-200.000	-0.019	0.175
-678.208	-135.641	-0.144	0.017
-677.193	187.965	0.069	-0.103
-676.178	57.206	-0.043	0.042
-675.164	135.128	0.101	-0.131
-674.149	-115.058	-0.320	0.061
-673.135	116.736	-0.054	0.067
-672.120	-76.320	-0.181	-0.064
-671.105	-200.000	-0.026	0.422
-670.091	172.928	-0.177	0.256
-669.076	-73.434	0.120	-0.044
-668.062	-17.201	-0.098	0.062
-667.047	800.000	-0.062	-0.237
-666.032	70.546	-0.067	0.070
-665.018	-200.000	0.044	-0.269
-664.003	-200.000	-0.019	-0.286
-662.989	317.073	-0.134	-0.255
-661.974	-140.645	-0.094	-0.010
-660.959	483.564	-0.134	-0.306
-659.945	15.977	-0.044	0.035
-658.930	-38.674	0.044	0.023
-657.916	-29.040	-0.042	-0.024
-656.901	-29.722	-0.225	-0.129
-655.886	-189.415	-0.131	0.002
-654.872	-84.641	0.109	-0.034
-653.857	-195.696	-0.075	-0.001
-652.843	293.340	0.073	-0.134
-651.828	548.565	-0.056	-0.135
-650.814	-176.199	-0.334	0.009
-649.799	422.152	0.024	-0.053
-648.784	88.797	0.159	-0.177
-647.770	800.000	-0.076	-0.297
-646.755	-116.594	0.348	-0.064
-645.741	-200.000	0.010	0.193
-644.726	-31.722	-0.338	0.190
-643.711	136.460	0.209	-0.273
-642.697	-44.748	-0.121	-0.061
-641.682	-81.185	0.176	0.058
-640.668	105.186	-0.213	-0.251
-639.653	-2.468	0.127	0.089
-638.638	-167.721	-0.074	-0.003
-637.624	-29.815	-0.310	-0.177
-636.609	3.125	0.289	0.210
-635.595	-35.569	0.304	0.165
-634.580	41.887	0.285	-0.259
-633.565	84.278	-0.116	-0.127
-632.551	113.565	-0.092	-0.112
-631.536	74.522	-0.089	0.094
-630.522	-170.890	-0.135	0.005
-629.507	800.000	0.048	-0.198
-628.492	-45.209	0.338	0.168
-627.478	105.281	0.113	0.134
-626.463	-94.102	0.087	-0.024
-625.449	32.050	0.266	-0.230
-624.434	-65.803	-0.278	0.111
-623.419	48.757	0.252	-0.237
-622.405	-131.640	-0.381	-0.050
-621.390	79.698	0.163	0.175
-620.376	60.240	0.413	0.408
-619.361	307.502	-0.148	0.276
-618.346	-200.000	0.032	0.184
-617.332	-200.000	-0.010	-0.199
-616.317	515.348	-0.127	-0.297
-615.303	28.231	-0.316	-0.267
-614.288	800.000	0.046	-0.195
-613.273	800.000	0.032	0.138
-612.259	-123.408	-0.162	0.026
-611.244	-200.000	-0.040	-0.183
-610.230	128.332	-0.324	-0.413
-609.215	-200.000	-0.042	-0.217
-608.201	196.253	0.082	-0.125
-607.186	-190.652	-0.079	-0.001
-606.171	-200.000	0.017	-0.102
-605.157	523.702	0.019	-0.045
-604.142	-124.072	0.337	0.053
-603.128	-200.000	0.092	-0.441
-602.113	55.805	0.157	-0.152
-601.098	-75.731	0.504	0.179
-600.084	-200.000	-0.001	0.027
-599.069	-130.458	0.378	0.051
-598.055	-6.173	0.292	-0.199
-597.040	-88.545	0.263	0.078
-596.025	-200.000	0.023	0.126
-595.011	478.608	0.085	-0.193
-593.996	-22.971	0.080	0.048
-592.982	-166.607	-0.288	-0.012
-591.967	123.395	0.189	-0.236
-590.952	800.000	-0.080	0.325
-589.938	737.629	0.034	0.091
-588.923	-172.061	-0.288	-0.009
-587.909	283.615	-0.120	0.216
-586.894	-31.130	-0.219	-0.124
-585.879	-121.349	-0.086	0.014
-584.865	800.000	-0.044	0.168
-583.850	-65.354	-0.150	-0.060
-582.836	-200.000	0.015	-0.074
-581.821	-102.863	-0.204	0.049
-580.806	322.555	-0.106	0.202
-579.792	-151.186	0.117	-0.009
-578.777	230.652	-0.037	-0.061
-577.763	-200.000	0.000	-0.102
-576.748	800.000	0.069	-0.200
-575.733	26.308	-0.107	-0.089
-574.719	113.237	0.111	0.135
-573.704	-26.775	-0.369	0.216
-572.690	90.523	0.326	-0.365
-571.675	-200.000	-0.066	-0.315
-570.661	-24.341	-0.160	-0.096
-569.646	-73.070	-0.316	-0.116
-568.631	52.608	0.269	0.257
-567.617	-50.543	-0.084	0.039
-566.602	-200.000	0.015	0.314
-565.588	142.470	0.047	0.062
-564.573	485.498	0.069	-0.157
-563.558	124.969	0.187	0.235
-562.544	111.805	-0.165	0.199
-561.529	-138.120	0.165	0.018
-560.515	33.693	-0.195	-0.169
-559.500	800.000	-0.080	-0.257
-558.485	-144.824	0.043	-0.004
-557.471	393.898	0.278	0.578
-556.456	-200.000	0.021	-0.348
-555.442	-200.000	0.012	-0.161
-554.427	-37.437	0.291	-0.155
-553.412	-88.626	-0.063	-0.019
-552.398	-76.202	0.406	-0.143
-551.383	-200.000	0.002	0.018
-550.369	-135.757	-0.194	0.023
-549.354	-67.913	0.242	0.094
-548.339	-105.806	-0.196	-0.044
-547.325	305.521	-0.143	-0.266
-546.310	800.000	0.044	-0.131
-545.296	376.320	0.027	-0.055
-544.281	800.000	0.026	-0.111
-543.266	800.000	0.070	-0.201
-542.252	137.549	0.094	0.123
-541.237	195.026	0.128	-0.193
-540.223	180.244	0.047	-0.068
-539.208	-60.355	0.263	-0.112
-538.193	-60.557	0.157	0.067
-537.179	-200.000	-0.029	0.145
-536.164	-200.000	0.046	0.237
-535.150	29.873	-0.313	0.266
-534.135	35.284	-0.078	-0.068
-533.121	-68.363	-0.305	0.118
-532.106	800.000	0.032	0.127
-531.091	800.000	-0.055	-0.188
-530.077	18.230	0.237	-0.189
-529.062	53.545	-0.213	-0.204
-528.048	-200.000	0.014	0.171
-527.033	230.850	-0.149	-0.243
-526.018	-15.407	0.321	-0.204
-525.004	253.649	-0.201	0.342
-523.989	474.677	-0.122	0.274
-522.975	-200.000	-0.022	0.393
-521.960	-31.684	-0.358	0.200
-520.945	-200.000	0.013	-0.159
-519.931	-184.416	-0.088	-0.001
-518.916	628.392	-0.123	0.309
-517.902	-115.215	-0.289	-0.055
-516.887	15.369	0.232	-0.181
-515.872	-123.775	-0.244	0.039
-514.858	-112.309	-0.155	-0.031
-513.843	677.963	-0.051	-0.131
-512.829	117.736	0.152	0.186
-511.814	-20.568	0.343	-0.210
-510.799	-107.403	-0.155	0.034
-509.785	239.768	0.015	-0.025
-508.770	-128.406	0.126	0.018
-507.756	4.110	-0.100	-0.073
-506.741	225.708	0.022	-0.035
-505.726	206.992	0.297	-0.462
-504.712	-72.191	0.389	-0.144
-503.697	-97.603	0.122	0.032
-502.683	-94.465	-0.441	-0.120
-501.668	-200.000	0.008	-0.189
-500.653	-182.432	0.074	0.001
-499.639	114.357	-0.038	0.045
-498.624	365.874	-0.121	0.242
-497.610	-64.741	0.216	0.087
-496.595	800.000	0.173	0.493
-495.581	180.448	0.077	0.112
-494.566	-20.794	-0.073	-0.045
-493.551	94.048	-0.006	-0.007
-492.537	800.000	-0.019	-0.073
-491.522	-200.000	0.040	-0.322
-490.508	742.849	0.032	0.085
-489.493	-8.641	-0.308	-0.206
-488.478	-114.942	-0.332	0.063
-487.464	-200.000	0.038	-0.179
-486.449	800.000	0.040	-0.157
-485.435	-180.209	-0.608	-0.013
-484.420	-101.394	0.331	0.080
-483.405	-104.402	-0.130	0.030
-482.391	800.000	-0.017	0.054
-481.376	-41.215	-0.126	-0.065
-480.362	132.422	0.220	-0.282
-479.347	-124.095	-0.032	-0.005
-478.332	46.094	-0.183	0.169
-477.318	-200.000	-0.007	-0.216
-476.303	69.224	-0.182	-0.187
-475.289	112.100	-0.232	-0.279
-474.274	-200.000	0.001	-0.185
-473.259	16.497	0.172	-0.135
-472.245	800.000	0.028	0.121
-471.230	608.109	0.043	-0.106
-470.216	-200.000	-0.017	0.518
-469.201	-200.000	0.055	0.345
-468.186	-62.272	0.169	-0.070
-467.172	273.636	0.031	-0.054
-466.157	-82.146	-0.258	-0.084
-465.143	-112.188	-0.145	-0.029
-464.128	180.163	-0.094	-0.136
-463.113	114.349	-0.155	0.188
-462.099	-88.308	0.175	0.052
-461.084	-23.120	0.197	-0.118
-460.070	-75.633	-0.105	-0.037
-459.055	60.158	0.215	0.212
-458.040	-24.259	-0.232	0.138
-457.026	25.270	-0.238	-0.197
-456.011	23.309	-0.140	-0.114
-454.997	-200.000	-0.060	0.333
-453.982	800.000	0.044	-0.177
-452.968	-200.000	0.009	-0.120
-451.953	-65.966	-0.097	0.038
-450.938	-111.329	0.201	-0.041
-449.924	-200.000	-0.004	-0.164
-448.909	-200.000	-0.030	0.169
-447.895	-53.246	-0.059	0.027
-446.880	-200.000	-0.035	-0.389
-445.865	-56.661	-0.094	0.041
-444.851	84.569	0.076	0.082
-443.836	14.622	-0.267	-0.207
-442.822	-200.000	0.036	-0.436
-441.807	-118.842	-0.371	0.065
-440.792	-8.278	0.136	0.091
-439.778	-31.370	-0.109	0.061
-438.763	620.480	-0.106	-0.266
-437.749	-78.183	-0.200	0.068
-436.734	-23.549	0.282	0.168
-435.719	45.523	0.438	-0.402
-434.705	345.486	0.190	-0.371
-433.690	402.506	-0.136	0.284
-432.676	-173.426	-0.511	0.015
-431.661	223.857	-0.178	-0.285
-430.646	800.000	-0.042	-0.163
-429.632	800.000	0.088	-0.277
-428.617	-156.282	-0.326	-0.020
-427.603	-200.000	0.006	-0.163
-426.588	-17.665	0.301	0.188
-425.573	-200.000	0.029	-0.242
-424.559	-53.062	0.115	-0.052
-423.544	-95.498	0.362	-0.097
-422.530	-50.856	-0.199	0.093
-421.515	-200.000	-0.022	-0.259
-420.500	310.595	-0.088	-0.164
-419.486	-44.473	-0.122	-0.060
-418.471	-9.751	-0.260	-0.172
-417.457	17.332	-0.073	0.058
-416.442	-36.469	0.136	0.073
-415.428	22.751	0.258	0.210
-414.413	136.399	0.048	0.062
-413.398	152.408	0.302	0.409
-412.384	203.688	0.145	0.223
-411.369	264.452	-0.084	-0.144
-410.355	-145.977	0.329	-0.029
-409.340	-200.000	0.036	-0.385
-408.325	-200.000	0.001	0.015
-407.311	-200.000	-0.001	-0.011
-406.296	800.000	0.055	-0.212
-405.282	-117.497	0.183	-0.033
-404.267	5.480	0.243	-0.178
-403.252	-14.322	0.363	0.232
-402.238	-90.323	-0.191	-0.055
-401.223	135.233	0.061	-0.079
-400.209	55.799	0.198	-0.190
-399.194	800.000	0.022	0.079
-398.179	-200.000	0.038	-0.208
-397.165	-200.000	-0.042	-0.343
-396.150	-200.000	-0.006	-0.166
-395.136	-200.000	0.055	-0.323
-394.121	109.480	-0.147	0.175
-393.106	800.000	-0.013	0.042
-392.092	98.693	-0.143	-0.164
-391.077	-99.360	0.213	0.053
-390.063	-76.541	0.203	0.071
-389.048	-31.956	-0.226	0.125
-388.033	-200.000	0.016	0.277
-387.019	-154.482	0.074	-0.005
-386.004	-85.374	-0.069	-0.021
-384.990	2.339	0.306	0.219
-383.975	322.167	0.123	0.232
-382.960	-58.665	-0.093	0.040
-381.946	438.115	-0.056	0.121
-380.931	-131.164	-0.290	0.038
-379.917	-48.340	-0.091	-0.044
-378.902	244.577	0.053	-0.088
-377.888	34.483	-0.280	0.242
-376.873	73.226	0.319	0.331
-375.858	272.131	-0.083	0.144
-374.844	-30.176	-0.203	0.114
-373.829	-82.922	-0.296	-0.095
-372.815	-200.000	-0.016	0.144
-371.800	78.221	0.185	-0.196
-370.785	-13.415	-0.175	-0.112
-369.771	-80.740	-0.309	-0.102
-368.756	-94.334	-0.185	0.050
-367.742	-108.476	0.319	0.068
-366.727	-100.836	0.370	-0.090
-365.712	-49.799	0.226	0.106
-364.698	-34.455	-0.251	0.136
-363.683	195.816	0.151	0.228
-362.669	116.654	0.088	0.107
-361.654	171.424	0.025	-0.035
-360.639	68.017	0.152	0.154
-359.625	-179.179	-0.334	-0.007
-358.610	47.691	0.259	0.240
-357.596	800.000	0.012	0.049
-356.581	-19.652	-0.179	0.110
-355.566	366.550	-0.143	0.286
-354.552	800.000	0.032	0.112
-353.537	52.357	0.173	0.164
-352.523	136.744	0.079	0.102
-351.508	-97.046	0.294	-0.076
-350.493	-12.901	0.193	-0.124
-349.479	230.549	-0.118	0.191
-348.464	800.000	-0.024	-0.096
-347.450	-175.103	-0.047	-0.001
-346.435	-200.000	0.237	-0.001
-345.420	212.557	-0.144	0.225
-344.406	800.000	-0.124	0.398
-343.391	-200.000	0.032	-0.319
-342.377	-99.777	-0.077	0.019
-341.362	74.362	0.126	-0.131
-340.348	53.249	0.253	0.240
-339.333	-2.188	0.214	0.149
-338.318	-200.000	-0.004	0.040
-337.304	-36.037	0.134	0.072
-336.289	-76.077	-0.395	0.138
-335.275	85.387	-0.054	0.059
-334.260	113.158	0.083	-0.099
-333.245	800.000	-0.053	-0.181
-332.231	-8.918	-0.017	-0.011
-331.216	792.701	0.129	0.351
-330.202	-126.593	-0.288	-0.042
-329.187	-200.000	0.058	-0.275
-328.172	-171.772	-0.164	-0.005
-327.158	-83.455	-0.156	0.049
-326.143	-12.776	-0.237	0.153
-325.129	-123.798	-0.028	0.004
-324.114	73.373	0.226	-0.234
-323.099	368.039	-0.080	-0.159
-322.085	-75.239	0.123	0.043
-321.070	-123.220	-0.207	0.033
-320.056	-167.367	-0.202	0.008
-319.041	-153.115	-0.223	0.015
-318.026	-89.941	-0.475	0.137
-317.012	-135.402	-0.260	-0.031
-315.997	169.446	0.062	-0.088
-314.983	800.000	0.088	0.378
-313.968	-80.868	-0.089	-0.029
-312.953	-1.122	0.245	0.172
-311.939	-98.396	0.210	0.053
-310.924	88.210	0.097	0.107
-309.910	-20.465	-0.201	0.122
-308.895	491.138	-0.091	-0.206
-307.880	78.875	0.043	-0.045
-306.866	-150.454	-0.498	0.038
-305.851	-43.189	0.420	-0.210
-304.837	-200.000	0.010	0.206
-303.822	-78.818	-0.354	0.119
-302.807	-200.000	-0.008	-0.067
-301.793	500.815	-0.013	0.030
-300.778	-200.000	0.023	-0.456
-299.764	5.155	0.091	-0.067
-298.749	29.672	-0.083	0.069
-297.735	-116.083	-0.330	0.061
-296.720	-200.000	-0.029	0.209
-295.705	-56.838	-0.242	-0.106
-294.691	800.000	0.080	0.335
-293.676	441.495	-0.085	0.185
-292.662	205.338	0.163	0.250
-291.647	-136.323	-0.297	0.034
-290.632	-200.000	-0.030	-0.145
-289.618	-200.000	-0.010	-0.206
-288.603	116.882	-0.197	-0.239
-287.589	32.361	-0.086	0.073
-286.574	-200.000	-0.037	-0.233
-285.559	-148.789	-0.165	-0.013
-284.545	-200.000	-0.034	-0.197
-283.530	-200.000	-0.020	-0.137
-282.516	98.507	-0.160	0.183
-281.501	332.819	0.222	0.423
-280.486	248.327	0.042	0.071
-279.472	-200.000	-0.014	0.099
-278.457	74.951	0.343	0.357
-277.443	800.000	-0.054	0.165
-276.428	-200.000	-0.003	-0.066
-275.413	-71.850	0.147	-0.054
-274.399	41.939	0.064	-0.057
-273.384	95.496	0.023	-0.026
-272.370	-114.387	0.311	0.059
-271.355	-200.000	0.022	0.124
-270.340	-162.189	-0.386	0.019
-269.326	-62.656	0.108	0.044
-268.311	800.000	0.060	0.187
-267.297	46.569	-0.230	0.211
-266.282	-200.000	-0.061	0.362
-265.267	26.889	-0.125	0.103
-264.253	61.160	-0.280	0.274
-263.238	-119.044	-0.181	0.031
-262.224	-200.000	0.018	0.218
-261.209	-10.927	0.373	-0.243
-260.195	-83.687	0.178	-0.056
-259.180	105.974	0.104	-0.122
-258.165	-200.000	-0.028	-0.286
-257.151	53.120	-0.043	-0.041
-256.136	800.000	-0.055	0.188
-255.122	54.299	-0.260	0.247
-254.107	-8.622	0.231	0.153
-253.092	-200.000	0.019	0.116
-252.078	78.318	-0.172	0.181
-251.063	-94.296	0.025	-0.007
-250.049	66.322	-0.127	0.128
-249.034	439.132	-0.074	0.159
-248.019	-18.622	-0.066	0.041
-247.005	-48.110	0.129	0.061
-245.990	-58.212	0.172	0.074
-244.976	95.447	-0.097	-0.109
-243.961	-127.574	0.055	-0.008
-242.946	-200.000	0.019	-0.101
-241.932	-200.000	0.150	0.001
-240.917	800.000	-0.108	-0.320
-239.903	183.664	0.183	-0.266
-238.888	723.700	-0.049	-0.128
-237.873	-66.205	-0.069	-0.027
-236.859	-50.254	0.143	0.067
-235.844	-131.463	-0.072	-0.009
-234.830	45.997	0.128	-0.116
-233.815	-200.000	0.023	0.222
-232.800	-61.542	0.381	0.158
-231.786	-146.426	-0.287	0.025
-230.771	62.108	-0.097	-0.095
-229.757	-18.547	-0.360	0.221
-228.742	32.496	0.161	0.137
-227.727	-40.651	0.269	-0.137
-226.713	-200.000	0.087	-0.422
-225.698	241.413	-0.084	-0.139
-224.684	-200.000	-0.046	-0.383
-223.669	800.000	-0.025	0.090
-222.655	-15.980	0.183	0.115
-221.640	-140.740	-0.272	0.028
-220.625	42.992	0.209	0.188
-219.611	38.480	-0.254	-0.223
-218.596	-1.152	-0.167	0.116
-217.582	800.000	-0.069	0.239
-216.567	-200.000	0.016	0.094
-215.552	203.931	-0.148	-0.225
-214.538	182.108	0.036	-0.052
-213.523	-89.380	-0.198	0.058
-212.509	-200.000	0.010	0.371
-211.494	-200.000	0.016	0.286
-210.479	45.822	0.353	-0.322
-209.465	151.924	0.120	-0.161
-208.450	8.216	0.358	-0.265
-207.436	-200.000	0.014	0.086
-206.421	-109.111	-0.274	0.057
-205.406	-75.896	0.105	-0.037
-204.392	-147.106	0.210	-0.018
-203.377	145.249	-0.262	-0.346
-202.363	-200.000	0.074	0.363
-201.348	-200.000	-0.008	0.162
-200.333	42.919	0.122	0.109
-199.319	-200.000	-0.040	0.336
-198.304	-22.107	-0.141	-0.084
-197.290	139.842	-0.098	-0.126
-196.275	5.200	0.058	0.042
-195.260	-200.000	-0.014	0.072
-194.246	-88.857	0.137	0.040
-193.231	-137.698	0.147	0.016
-192.217	99.105	-0.050	0.057
-191.202	128.463	-0.070	0.087
-190.187	800.000	-0.063	-0.175
-189.173	-200.000	-0.021	-0.190
-188.158	-200.000	0.005	-0.218
-187.144	387.106	-0.020	-0.041
-186.129	-50.574	-0.314	0.146
-185.114	-200.000	-0.005	-0.057
-184.100	-21.725	-0.234	-0.140
-183.085	-44.505	0.224	0.110
-182.071	150.293	-0.277	-0.370
-181.056	381.726	0.169	0.342
-180.042	-143.673	-0.280	-0.026
-179.027	93.829	-0.092	-0.102
-178.012	-88.596	0.296	-0.087
-176.998	43.642	0.358	0.322
-175.983	-139.396	0.247	0.026
-174.969	-71.284	0.412	0.152
-173.954	482.675	0.175	0.391
-172.939	800.000	-0.095	0.361
-171.925	428.246	0.163	-0.345
-170.910	-141.640	0.325	-0.032
-169.896	161.542	0.168	0.231
-168.881	-52.286	0.166	-0.076
-167.866	800.000	0.088	-0.354
-166.852	-198.917	-0.239	-0.001
-165.837	800.000	-0.134	0.368
-164.823	-200.000	-0.058	0.331
-163.808	800.000	0.066	-0.241
-162.793	-72.912	0.123	0.044
-161.779	-112.670	0.099	-0.019
-160.764	-130.862	-0.434	-0.057
-159.750	-200.000	0.054	-0.289
-158.735	381.228	-0.148	-0.299
-157.720	-200.000	-0.000	0.325
-156.706	-42.944	0.072	-0.036
-155.691	-172.709	0.231	-0.007
-154.677	174.080	-0.081	0.114
-153.662	800.000	0.028	0.111
-152.647	-200.000	-0.006	0.296
-151.633	59.850	0.139	0.135
-150.618	397.457	0.121	0.249
-149.604	-200.000	-0.006	0.091
-148.589	109.672	0.071	-0.084
-147.574	-200.000	-0.009	-0.357
-146.560	800.000	-0.032	-0.121
-145.545	800.000	0.116	-0.390
-144.531	-86.776	0.166	0.050
-143.516	-200.000	-0.022	-0.139
-142.502	66.608	-0.199	0.199
-141.487	349.019	0.085	-0.166
-140.472	-157.198	0.213	-0.013
-139.458	-10.074	0.144	0.094
-138.443	-200.000	0.011	-0.181
-137.429	58.662	-0.298	-0.287
-136.414	-96.431	0.403	-0.105
-135.399	329.390	0.059	-0.111
-134.385	800.000	-0.035	-0.139
-133.370	112.780	0.191	-0.227
-132.356	224.135	0.196	0.311
-131.341	-200.000	0.006	-0.076
-130.326	331.625	0.144	-0.273
-129.312	747.256	-0.104	-0.275
-128.297	-200.000	-0.031	-0.294
-127.283	285.663	0.169	0.298
-126.268	-83.783	-0.282	-0.088
-125.253	-200.000	0.004	0.077
-124.239	-90.738	-0.158	-0.045
-123.224	17.842	-0.073	0.057
-122.210	-160.551	0.253	0.013
