DTS Sentinel unit serial number:	SN413079Multiplexer serial number:	ORYXHardware model number:	OX4-SRSoftware version number:	ORYX F/W v4.00 Oryx Data Collector v3.7.2.0data status	okinstallation	princeton_trtdifferential loss correction	single-endedforward channel	channel 1reverse channel	N/Adate	2019/09/12time	18:23:34forward acquisition time	15.00reverse acquisition time	0.00gamma	496.2192k internal	0.2318k external	0.2318temperature offset calibration	1.0105default loss term (dB/km)	0.3790temperature slope calibration	1.0000multiplexer offset coefficient	1.0000multiplexer slope coefficient	1.0000fibre end	0.00T internal ref (°C)	33.37T ext. ref 1 (°C)	2.93T ext. ref 2 (°C)	27.95length (m)	temperature (°C)	Stokes	anti-Stokes-747.200	-44.944	-0.689	-0.347
-746.185	49.103	-0.675	0.642
-745.171	-200.000	-0.169	1.079
-744.156	9.932	-0.739	-0.568
-743.142	581.251	0.078	-0.194
-742.127	-200.000	-0.044	-0.388
-741.112	48.798	0.201	0.191
-740.098	-36.089	0.253	-0.138
-739.083	-200.000	0.088	-0.518
-738.069	-87.565	0.711	0.217
-737.054	193.651	0.183	0.280
-736.039	-200.000	-0.120	0.581
-735.025	241.615	-0.190	-0.321
-734.010	-9.275	0.419	0.283
-732.996	38.580	-0.432	-0.389
-731.981	-54.499	0.453	0.208
-730.966	546.731	-0.103	0.250
-729.952	-200.000	0.019	0.302
-728.937	-119.529	-0.315	-0.055
-727.923	181.502	0.325	0.483
-726.908	67.833	0.677	0.700
-725.894	-3.348	-0.558	-0.393
-724.879	-57.028	-0.904	-0.403
-723.864	-200.000	-0.017	-0.871
-722.850	-138.874	-0.262	0.029
-721.835	-39.379	-0.746	-0.396
-720.821	192.988	0.176	-0.269
-719.806	-200.000	-0.040	0.297
-718.791	408.774	0.057	-0.122
-717.777	558.848	0.191	0.467
-716.762	286.416	-0.292	0.533
-715.748	645.230	0.137	-0.355
-714.733	-200.000	0.101	-0.518
-713.718	763.246	0.107	0.295
-712.704	225.775	0.134	0.220
-711.689	-161.970	-1.061	0.054
-710.675	483.612	0.086	-0.198
-709.660	418.769	-0.133	-0.288
-708.645	-100.531	-0.717	0.179
-707.631	98.911	-0.187	-0.218
-706.616	800.000	-0.044	-0.184
-705.602	24.541	-0.361	0.301
-704.587	-59.611	-0.069	0.030
-703.572	800.000	0.063	-0.222
-702.558	-200.000	-0.025	-0.601
-701.543	598.302	0.188	0.472
-700.529	-3.479	-0.162	0.114
-699.514	73.616	-0.309	-0.327
-698.499	319.421	0.466	0.893
-697.485	17.660	-0.467	0.375
-696.470	-16.395	0.621	-0.398
-695.456	743.987	-0.216	-0.588
-694.441	-200.000	0.016	-0.521
-693.426	-100.899	-0.444	-0.110
-692.412	19.572	-0.667	0.542
-691.397	-102.438	-0.898	-0.217
-690.383	81.671	-0.222	0.243
-689.368	800.000	-0.151	-0.582
-688.354	23.963	-0.456	0.380
-687.339	-0.790	1.139	0.815
-686.324	-171.720	0.810	-0.027
-685.310	-125.936	-0.373	-0.057
-684.295	238.274	0.165	0.277
-683.281	-80.739	-0.071	0.024
-682.266	121.099	0.218	0.273
-681.251	-113.215	-0.284	0.056
-680.237	-200.000	0.032	-0.518
-679.222	-70.921	-0.401	0.153
-678.208	37.497	-0.674	0.603
-677.193	169.194	-0.303	0.436
-676.178	-36.657	-0.647	-0.351
-675.164	38.525	0.726	-0.653
-674.149	-1.094	0.409	-0.292
-673.135	800.000	-0.037	-0.133
-672.120	309.210	0.105	0.197
-671.105	57.159	-0.557	-0.548
-670.091	-200.000	-0.189	0.996
-669.076	-116.199	-0.775	-0.145
-668.062	-17.989	-0.332	-0.210
-667.047	-60.546	0.610	-0.262
-666.032	-122.284	-0.059	-0.010
-665.018	192.175	-0.153	-0.233
-664.003	261.966	-0.069	0.120
-662.989	800.000	-0.176	-0.552
-661.974	800.000	-0.153	-0.669
-660.959	-95.409	1.279	0.347
-659.945	-31.513	-0.377	-0.214
-658.930	4.934	-0.111	0.083
-657.916	800.000	-0.168	-0.631
-656.901	-51.809	0.193	-0.091
-655.886	5.080	-0.683	-0.507
-654.872	47.085	-0.216	-0.203
-653.857	-200.000	-1.290	-0.001
-652.843	-200.000	-0.027	-0.577
-651.828	-59.590	-0.444	-0.192
-650.814	-73.496	0.587	0.216
-649.799	-117.075	-0.450	0.083
-648.784	-200.000	0.635	-0.003
-647.770	-200.000	0.086	-0.576
-646.755	-112.403	-0.698	0.141
-645.741	-104.055	-0.502	-0.118
-644.726	257.776	0.056	-0.098
-643.711	-200.000	0.064	-0.498
-642.697	-177.510	0.171	-0.004
-641.682	706.838	-0.201	0.535
-640.668	-200.000	-0.061	0.693
-639.653	589.872	-0.057	0.141
-638.638	-200.000	0.150	-0.817
-637.624	-44.656	0.725	-0.365
-636.609	-149.778	0.998	0.079
-635.595	98.162	-0.434	0.503
-634.580	800.000	0.118	-0.362
-633.565	-36.680	-0.570	0.309
-632.551	191.368	-0.624	-0.947
-631.536	204.598	0.125	0.195
-630.522	-28.841	0.508	0.294
-629.507	520.092	0.098	-0.232
-628.492	528.949	-0.288	0.686
-627.478	-52.981	-0.214	-0.099
-626.463	32.815	-0.525	-0.457
-625.449	-200.000	-0.099	1.115
-624.434	30.600	-0.380	-0.327
-623.419	15.586	-0.542	-0.429
-622.405	402.426	0.118	0.249
-621.390	-36.412	0.328	0.178
-620.376	-78.041	-0.504	-0.175
-619.361	800.000	0.247	-0.924
-618.346	-200.000	0.035	-0.692
-617.332	-101.671	0.551	0.135
-616.317	101.761	-0.214	-0.251
-615.303	5.189	-0.286	0.212
-614.288	98.989	-0.642	0.747
-613.273	-78.939	0.576	0.197
-612.259	-200.000	-0.006	-0.177
-611.244	-200.000	0.014	-0.781
-610.230	800.000	0.204	-0.873
-609.215	-135.691	0.076	0.009
-608.201	-63.080	0.781	-0.325
-607.186	299.201	0.312	0.579
-606.171	130.731	0.317	0.410
-605.157	203.831	-0.527	-0.822
-604.142	86.151	0.206	-0.228
-603.128	680.971	0.153	0.400
-602.113	213.260	-0.062	0.099
-601.098	-65.372	0.486	0.197
-600.084	40.227	0.505	-0.457
-599.069	-200.000	0.176	-0.788
-598.055	-182.519	-0.319	-0.006
-597.040	155.981	-0.308	0.427
-596.025	133.458	-0.327	-0.425
-595.011	-16.726	-0.060	0.038
-593.996	5.784	0.377	-0.280
-592.982	800.000	-0.197	0.563
-591.967	33.687	0.313	0.274
-590.952	62.346	0.997	-1.001
-589.938	66.017	-0.900	-0.919
-588.923	92.998	0.419	-0.477
-587.909	-17.782	-0.313	0.198
-586.894	180.163	0.054	-0.080
-585.879	532.595	0.143	-0.341
-584.865	-145.129	-0.293	0.027
-583.850	474.183	0.173	-0.391
-582.836	25.140	-0.394	-0.329
-581.821	305.635	-0.204	0.381
-580.806	138.580	0.523	0.691
-579.792	178.950	-0.262	-0.385
-578.777	16.115	-0.337	0.267
-577.763	38.311	-0.620	-0.556
-576.748	151.216	-0.392	0.536
-575.733	21.672	-0.237	-0.194
-574.719	-200.000	0.120	-0.652
-573.704	324.121	-0.062	0.120
-572.690	145.435	-0.405	-0.545
-571.675	41.460	-0.103	-0.093
-570.661	-114.950	0.303	-0.058
-569.646	-200.000	0.267	0.001
-568.631	-200.000	-0.038	-0.447
-567.617	-200.000	-0.011	-0.270
-566.602	41.228	-0.186	-0.169
-565.588	-200.000	0.069	0.450
-564.573	800.000	-0.255	-0.806
-563.558	-170.183	0.475	-0.017
-562.544	-89.227	-0.349	0.104
-561.529	-200.000	0.066	0.375
-560.515	63.047	-0.443	0.446
-559.500	800.000	0.040	-0.167
-558.485	-42.479	0.274	0.140
-557.471	-200.000	0.076	-0.741
-556.456	800.000	-0.256	-0.783
-555.442	566.077	-0.418	-1.019
-554.427	410.639	-0.065	-0.138
-553.412	254.804	-0.124	0.214
-552.398	800.000	-0.215	-0.847
-551.383	487.874	-0.495	1.134
-550.369	150.313	-0.862	1.176
-549.354	800.000	-0.280	0.815
-548.339	-41.865	-0.391	0.201
-547.325	-61.350	-0.090	0.038
-546.310	-70.504	-0.028	0.011
-545.296	64.850	0.179	-0.182
-544.281	599.054	0.146	-0.365
-543.266	113.295	0.482	0.587
-542.252	-110.051	0.757	-0.159
-541.237	45.841	-0.269	-0.250
-540.223	-54.323	-0.723	-0.329
-539.208	-13.640	0.981	0.638
-538.193	-200.000	0.158	1.014
-537.179	800.000	0.330	0.961
-536.164	401.265	0.052	0.110
-535.150	146.478	0.102	0.137
-534.135	-62.626	-0.683	0.284
-533.121	187.639	0.137	0.206
-532.106	134.437	0.553	0.720
-531.091	-1.518	0.276	0.195
-530.077	470.260	0.346	-0.781
-529.062	269.688	-0.280	0.494
-528.048	264.050	0.434	0.758
-527.033	-16.310	-0.474	0.302
-526.018	142.577	0.358	0.477
-525.004	-39.239	-0.624	0.329
-523.989	-200.000	-0.055	0.480
-522.975	-15.539	-0.237	0.152
-521.960	212.775	-0.626	-0.991
-520.945	800.000	-0.089	0.283
-519.931	-200.000	-0.054	0.257
-518.916	-200.000	0.044	-0.310
-517.902	-19.519	-0.661	-0.411
-516.887	112.794	0.116	0.141
-515.872	-200.000	-0.005	-0.396
-514.858	-98.593	-0.420	0.107
-513.843	5.887	0.410	-0.304
-512.829	-122.089	-0.691	0.114
-511.814	-171.004	-0.834	-0.028
-510.799	82.058	0.928	1.008
-509.785	136.133	-0.534	0.698
-508.770	800.000	0.343	1.234
-507.756	800.000	-0.073	-0.321
-506.741	-120.379	-0.131	-0.022
-505.726	16.890	0.206	0.164
-504.712	-116.435	0.661	-0.122
-503.697	-89.937	-1.273	-0.373
-502.683	-200.000	0.005	-0.363
-501.668	-121.839	0.680	-0.113
-500.653	-50.150	-0.300	-0.142
-499.639	800.000	-0.270	-1.159
-498.624	434.910	0.262	0.570
-497.610	150.741	0.323	0.440
-496.595	-200.000	0.083	-0.684
-495.581	-17.028	-0.561	0.355
-494.566	212.473	-0.185	0.292
-493.551	-36.004	0.340	0.184
-492.537	800.000	-0.217	-0.831
-491.522	321.592	-0.407	0.776
-490.508	-200.000	-0.067	-0.427
-489.493	338.438	0.323	-0.630
-488.478	73.536	-0.117	0.123
-487.464	-76.602	0.172	0.060
-486.449	-200.000	0.021	-1.132
-485.435	-72.919	-0.833	0.307
-484.420	-146.870	0.213	0.018
-483.405	800.000	0.190	0.690
-482.391	133.062	-0.521	-0.674
-481.376	-200.000	0.103	0.568
-480.362	800.000	-0.108	-0.391
-479.347	-35.863	0.346	-0.188
-478.332	22.063	-0.374	0.305
-477.318	128.879	-0.298	-0.381
-476.303	-200.000	0.019	1.088
-475.289	800.000	0.240	0.751
-474.274	41.252	0.819	0.742
-473.259	-169.370	0.582	-0.021
-472.245	-200.000	0.085	-0.618
-471.230	-136.260	0.234	0.027
-470.216	-88.043	0.356	0.107
-469.201	150.343	0.233	0.317
-468.186	-66.954	-0.496	-0.196
-467.172	589.606	-0.268	-0.662
-466.157	87.611	0.083	-0.093
-465.143	-200.000	0.123	-0.700
-464.128	-200.000	0.023	0.460
-463.113	-175.560	0.325	-0.009
-462.099	-33.473	-0.604	-0.334
-461.084	197.054	-0.379	-0.579
-460.070	34.359	0.425	0.371
-459.055	-90.118	0.439	0.128
-458.040	314.084	-0.108	-0.203
-457.026	-184.284	0.990	0.016
-456.011	473.140	0.357	0.804
-454.997	4.541	0.190	0.139
-453.982	649.678	0.190	0.487
-452.968	27.958	-0.506	0.427
-451.953	-19.540	-0.214	-0.133
-450.938	-130.834	0.789	-0.106
-449.924	-88.504	-0.658	0.196
-448.909	-40.737	0.434	0.225
-447.895	84.914	-0.371	-0.407
-446.880	25.212	0.583	0.485
-445.865	16.770	-0.499	-0.395
-444.851	-133.693	0.692	-0.086
-443.836	-38.409	0.409	0.216
-442.822	800.000	0.167	0.725
-441.807	-101.710	1.143	0.277
-440.792	-200.000	-0.114	-0.747
-439.778	-121.050	0.652	-0.109
-438.763	297.505	-0.330	0.605
-437.749	-200.000	0.084	0.864
-436.734	144.074	-0.347	0.462
-435.719	-55.883	-0.302	0.135
-434.705	-200.000	0.088	0.512
-433.690	-200.000	-0.042	0.639
-432.676	-87.806	-0.310	0.093
-431.661	-43.715	-0.489	0.246
-430.646	-200.000	-0.058	0.679
-429.632	-142.111	0.838	0.083
-428.617	340.091	0.336	-0.656
-427.603	59.471	-0.355	0.350
-426.588	213.978	0.267	-0.422
-425.573	-151.656	-0.224	0.017
-424.559	33.308	0.813	0.705
-423.544	64.896	0.598	-0.603
-422.530	-0.388	0.439	-0.311
-421.515	101.168	0.662	-0.770
-420.500	-89.829	0.544	0.159
-419.486	-128.674	0.399	0.056
-418.471	-200.000	-0.005	-0.206
-417.457	-130.193	-0.506	0.069
-416.442	-7.417	0.268	0.181
-415.428	-102.299	0.705	0.169
-414.413	-31.719	0.553	0.310
-413.398	-122.624	1.019	0.165
-412.384	-34.417	-0.404	-0.221
-411.369	800.000	0.096	0.409
-410.355	-16.927	-0.367	-0.232
-409.340	-200.000	-0.037	-0.466
-408.325	791.824	0.162	-0.446
-407.311	155.351	0.365	-0.501
-406.296	-92.627	-0.644	-0.180
-405.282	-155.858	0.103	-0.007
-404.267	8.495	-0.344	-0.259
-403.252	27.011	-0.515	0.431
-402.238	120.618	0.291	0.361
-401.223	-119.058	-1.146	-0.200
-400.209	204.063	-0.306	-0.473
-399.194	-200.000	0.031	0.279
-398.179	48.636	0.556	-0.520
-397.165	-131.610	-0.158	-0.021
-396.150	-142.198	-0.269	-0.027
-395.136	-11.254	0.122	0.080
-394.121	-88.619	-0.743	-0.221
-393.106	-91.155	0.430	-0.123
-392.092	-82.765	-0.360	-0.116
-391.077	-41.971	0.175	0.090
-390.063	44.393	-0.337	0.309
-389.048	-200.000	-0.053	0.569
-388.033	-3.425	0.421	0.293
-387.019	247.299	-0.042	-0.070
-386.004	479.530	-0.308	-0.698
-384.990	-90.557	0.586	0.169
-383.975	-103.640	-0.431	0.101
-382.960	-9.662	0.679	-0.452
-381.946	-104.683	0.429	0.099
-380.931	-200.000	0.201	0.885
-379.917	-200.000	0.009	-0.166
-378.902	-9.792	0.926	0.615
-377.888	-200.000	-0.101	0.767
-376.873	-124.208	-0.410	0.064
-375.858	8.805	0.123	-0.092
-374.844	-75.964	-0.308	0.109
-373.829	800.000	-0.092	-0.384
-372.815	-17.388	-0.910	-0.572
-371.800	572.839	-0.453	1.101
-370.785	677.999	-0.214	0.555
-369.771	-63.856	-0.343	0.140
-368.756	-98.878	0.200	-0.051
-367.742	34.953	-0.481	0.420
-366.727	-200.000	0.031	-0.186
-365.712	-52.948	0.396	-0.182
-364.698	47.146	-0.574	-0.533
-363.683	-75.592	0.566	0.200
-362.669	-90.734	-0.116	-0.033
-361.654	-94.768	0.213	0.058
-360.639	-70.975	-0.757	-0.284
-359.625	-200.000	-0.110	-0.943
-358.610	-200.000	0.070	-1.027
-357.596	-200.000	0.016	0.586
-356.581	254.637	-0.159	-0.271
-355.566	655.895	-0.037	0.095
-354.552	305.210	0.160	0.296
-353.537	415.271	-0.242	0.513
-352.523	219.873	0.103	-0.165
-351.508	-137.977	-0.603	-0.067
-350.493	121.924	0.247	-0.307
-349.479	-103.969	0.599	0.139
-348.464	53.065	-0.347	-0.331
-347.450	-29.975	-0.256	0.145
-346.435	-200.000	0.023	-0.715
-345.420	-200.000	0.710	0.002
-344.406	-200.000	0.140	-1.007
-343.391	-43.049	-0.606	0.306
-342.377	103.874	0.459	0.537
-341.362	-200.000	-0.015	0.450
-340.348	59.864	0.331	-0.325
-339.333	-91.162	-0.179	0.051
-338.318	-111.155	-0.374	-0.076
-337.304	-200.000	-0.198	-1.092
-336.289	31.095	0.561	0.480
-335.275	154.344	-0.222	-0.304
-334.260	160.569	-0.106	0.148
-333.245	65.197	-0.466	-0.470
-332.231	42.298	0.883	-0.799
-331.216	133.846	-0.302	-0.390
-330.202	-71.006	0.632	-0.237
-329.187	-95.355	-0.256	-0.069
-328.172	-132.703	0.020	-0.003
-327.158	-200.000	-0.063	-0.298
-326.143	-89.873	0.798	0.232
-325.129	-200.000	-0.075	0.895
-324.114	-158.653	-0.177	0.010
-323.099	38.340	-0.710	-0.629
-322.085	364.020	-0.134	-0.268
-321.070	217.262	-0.499	-0.791
-320.056	352.488	-0.271	0.535
-319.041	-107.824	0.481	-0.104
-318.026	218.230	-0.212	0.337
-317.012	-78.202	-0.322	0.110
-315.997	-200.000	0.005	-0.494
-314.983	-22.712	-0.244	-0.147
-313.968	800.000	0.115	0.316
-312.953	29.790	-0.334	-0.283
-311.939	357.479	-0.096	0.190
-310.924	192.906	0.144	-0.217
-309.910	-75.591	-0.412	0.146
-308.895	-75.566	0.898	0.318
-307.880	310.483	-0.088	0.164
-306.866	-200.000	0.047	-0.321
-305.851	159.589	-0.308	-0.427
-304.837	39.260	-0.333	0.296
-303.822	-119.316	-0.352	-0.061
-302.807	-19.275	-0.318	-0.196
-301.793	-200.000	-0.022	-0.424
-300.778	800.000	0.130	0.423
-299.764	-0.087	0.331	0.234
-298.749	-53.350	0.509	0.232
-297.735	-200.000	0.110	-0.625
-296.720	-164.003	0.808	-0.037
-295.705	-73.032	0.324	0.118
-294.691	-44.828	-0.752	0.373
-293.676	-53.916	-0.139	-0.063
-292.662	-70.812	0.352	0.132
-291.647	-189.835	-0.990	-0.011
-290.632	76.023	-0.236	-0.248
-289.618	504.087	0.138	0.319
-288.603	800.000	-0.313	1.149
-287.589	171.132	0.617	0.880
-286.574	-200.000	0.082	-0.458
-285.559	-200.000	0.080	-1.072
-284.545	-161.594	0.827	-0.042
-283.530	-200.000	0.091	-0.504
-282.516	213.451	0.414	0.650
-281.501	73.894	-0.126	-0.131
-280.486	-44.680	0.833	-0.414
-279.472	149.042	0.203	-0.273
-278.457	800.000	-0.383	1.112
-277.443	-200.000	-0.131	-0.584
-276.428	-43.110	-0.497	-0.250
-275.413	-66.601	-0.537	-0.212
-274.399	62.386	-0.305	0.303
-273.384	-47.569	0.506	-0.244
-272.370	-200.000	-0.081	0.899
-271.355	112.095	-0.259	-0.311
-270.340	210.991	0.171	0.268
-269.326	154.314	-0.122	0.166
-268.311	-190.165	0.309	0.003
-267.297	800.000	-0.108	-0.351
-266.282	-200.000	-0.079	-0.728
-265.267	38.049	-0.331	0.292
-264.253	-112.378	-0.602	-0.120
-263.238	85.474	0.204	-0.222
-262.224	-82.206	0.147	-0.048
-261.209	-56.516	-1.060	0.467
-260.195	-142.492	-0.792	-0.077
-259.180	-15.666	0.384	-0.243
-258.165	800.000	-0.178	-0.626
-257.151	148.408	0.239	0.320
-256.136	-200.000	-0.032	0.648
-255.122	-84.984	0.699	-0.218
-254.107	800.000	-0.059	0.220
-253.092	-200.000	0.040	0.363
-252.078	-125.935	-0.365	-0.055
-251.063	-96.646	0.205	0.054
-250.049	-68.007	0.408	-0.158
-249.034	-42.281	0.196	-0.099
-248.019	-37.710	-0.589	-0.311
-247.005	-88.393	-0.196	0.058
-245.990	165.585	0.411	0.577
-244.976	-30.101	0.493	0.278
-243.961	18.166	-0.521	-0.412
-242.946	-200.000	0.006	-0.582
-241.932	-200.000	0.076	0.354
-240.917	800.000	0.088	-0.339
-239.903	136.645	0.387	-0.502
-238.888	120.194	-0.445	0.548
-237.873	-144.199	0.501	-0.046
-236.859	158.479	0.083	0.115
-235.844	60.846	-0.470	0.462
-234.830	-200.000	-0.003	0.037
-233.815	584.885	0.170	0.414
-232.800	-6.441	-0.426	-0.288
-231.786	-200.000	-0.118	-0.676
-230.771	25.796	-0.542	-0.448
-229.757	-107.170	-0.376	0.082
-228.742	522.249	-0.136	-0.316
-227.727	-81.064	-0.464	0.152
-226.713	-200.000	-0.173	0.798
-225.698	59.967	0.329	-0.322
-224.684	266.039	0.416	0.720
-223.669	-27.759	0.214	0.123
-222.655	800.000	0.050	0.143
-221.640	-139.825	1.518	0.160
-220.625	16.128	-0.630	0.492
-219.611	74.168	-0.416	0.433
-218.596	-35.460	-0.572	-0.308
-217.582	-200.000	0.131	-0.787
-216.567	-200.000	0.030	-1.123
-215.552	800.000	0.213	0.586
-214.538	-200.000	0.025	0.110
-213.523	556.587	0.389	-0.928
-212.509	-200.000	0.002	-0.640
-211.494	685.052	-0.113	-0.293
-210.479	240.372	-0.390	0.644
-209.465	-184.337	-0.501	-0.008
-208.450	-200.000	0.025	-0.210
-207.436	151.097	-0.109	-0.146
-206.421	734.211	-0.190	0.505
-205.406	-69.508	-0.411	-0.156
-204.392	-126.607	1.236	0.182
-203.377	278.537	-0.019	0.034
-202.363	444.464	0.206	-0.448
-201.348	-200.000	0.864	-0.003
-200.333	1.428	-0.564	0.402
-199.319	-40.165	0.655	-0.338
-198.304	-200.000	-0.061	0.811
-197.290	-200.000	0.006	-0.892
-196.275	16.556	0.051	0.040
-195.260	-116.915	0.336	0.061
-194.246	-34.237	0.759	0.413
-193.231	-66.649	-0.221	0.087
-192.217	674.326	-0.278	0.716
-191.202	-62.575	0.734	0.302
-190.187	-28.825	0.613	0.349
-189.173	27.084	-0.375	0.311
-188.158	43.766	-0.298	-0.271
-187.144	41.155	0.639	0.571
-186.129	122.761	0.266	-0.330
-185.114	-166.031	-0.773	-0.033
-184.100	-60.508	0.386	-0.162
-183.085	-72.735	-0.511	0.186
-182.071	-89.317	-1.601	0.467
-181.056	45.668	0.369	-0.338
-180.042	-127.096	-0.686	-0.099
-179.027	54.562	0.528	-0.503
-178.012	-200.000	-0.132	-0.727
-176.998	-57.138	-0.196	-0.085
-175.983	32.436	-0.561	-0.479
-174.969	800.000	-0.125	-0.390
-173.954	-200.000	-0.052	0.630
-172.939	151.621	-0.336	0.453
-171.925	800.000	-0.246	0.676
-170.910	-150.795	0.498	0.037
-169.896	-8.555	-0.254	-0.169
-168.881	93.371	0.205	0.229
-167.866	181.254	0.621	0.904
-166.852	147.137	0.587	0.781
-165.837	-200.000	0.001	0.858
-164.823	-66.142	-0.441	-0.174
-163.808	-162.736	-0.344	0.017
-162.793	15.104	0.426	-0.330
-161.779	-25.202	0.849	-0.497
-160.764	258.772	0.197	-0.336
-159.750	-200.000	0.109	0.001
-158.735	-200.000	0.062	0.352
-157.720	-150.131	0.042	-0.003
-156.706	-78.440	0.322	-0.109
-155.691	189.551	0.093	0.138
-154.677	-21.718	0.178	0.107
-153.662	800.000	-0.194	-0.622
-152.647	274.904	-0.235	-0.411
-151.633	-178.078	-0.318	0.007
-150.618	139.359	-0.219	0.285
-149.604	8.839	-0.770	0.574
-148.589	3.587	-0.329	-0.237
-147.574	-100.239	0.595	0.146
-146.560	628.402	-0.223	0.558
-145.545	-146.184	0.312	0.027
-144.531	238.722	-0.201	-0.331
-143.516	323.543	-0.416	0.784
-142.502	-200.000	-0.137	-0.667
-141.487	-200.000	-0.044	0.231
-140.472	-200.000	0.057	0.381
-139.458	257.983	0.176	0.299
-138.443	29.957	-0.423	-0.356
-137.429	-194.524	0.435	0.003
-136.414	58.396	-0.555	0.538
-135.399	-200.000	-0.138	-0.769
-134.385	-178.215	0.784	0.018
-133.370	-200.000	-0.014	-0.872
-132.356	149.212	0.390	-0.522
-131.341	-200.000	0.104	0.895
-130.326	-200.000	0.003	-0.156
-129.312	37.203	0.366	0.320
-128.297	-109.845	0.353	0.073
-127.283	-200.000	-0.100	-0.552
-126.268	-200.000	-0.084	0.464
-125.253	-200.000	0.063	-0.538
-124.239	-200.000	-0.086	0.599
-123.224	-19.239	0.376	-0.230
-122.210	-90.321	-0.505	-0.145
