DTS Sentinel unit serial number:	SN413079Multiplexer serial number:	ORYXHardware model number:	OX4-SRSoftware version number:	ORYX F/W v4.00 Oryx Data Collector v3.7.2.0data status	okinstallation	princeton_trtdifferential loss correction	single-endedforward channel	channel 1reverse channel	N/Adate	2019/09/14time	05:06:35forward acquisition time	60.00reverse acquisition time	0.00gamma	496.2192k internal	0.2334k external	0.2334temperature offset calibration	1.0079default loss term (dB/km)	0.3790temperature slope calibration	1.0000multiplexer offset coefficient	1.0000multiplexer slope coefficient	1.0000fibre end	0.00T internal ref (°C)	26.87T ext. ref 1 (°C)	3.38T ext. ref 2 (°C)	21.99length (m)	temperature (°C)	Stokes	anti-Stokes-747.200	-121.782	0.222	0.037
-746.185	-200.000	-0.024	0.120
-745.171	-200.000	-0.018	0.152
-744.156	13.421	0.207	0.162
-743.142	174.657	-0.260	0.378
-742.127	97.267	-0.270	0.311
-741.112	727.916	0.070	-0.188
-740.098	-173.836	-0.157	-0.005
-739.083	-200.000	0.018	-0.104
-738.069	-200.000	0.035	0.161
-737.054	-135.281	-0.137	-0.017
-736.039	-135.200	-0.275	-0.033
-735.025	-84.281	0.230	0.073
-734.010	331.747	-0.013	0.025
-732.996	-200.000	-0.003	0.123
-731.981	-20.874	-0.249	-0.154
-730.966	-53.679	-0.166	0.076
-729.952	-80.191	-0.087	0.029
-728.937	72.608	-0.060	-0.063
-727.923	-127.758	-0.169	-0.025
-726.908	-134.533	-0.245	-0.030
-725.894	-69.611	0.339	0.130
-724.879	26.331	-0.318	0.267
-723.864	789.466	0.173	-0.478
-722.850	-80.394	-0.139	0.047
-721.835	164.268	-0.137	0.193
-720.821	800.000	0.046	-0.147
-719.806	657.506	-0.123	0.316
-718.791	800.000	0.023	-0.066
-717.777	-142.349	-0.251	0.025
-716.762	564.037	0.035	-0.086
-715.748	137.657	-0.043	0.057
-714.733	44.399	-0.035	-0.033
-713.718	292.169	0.071	-0.130
-712.704	-132.978	-0.406	0.052
-711.689	159.404	-0.037	0.052
-710.675	133.436	-0.159	-0.206
-709.660	-200.000	0.014	0.126
-708.645	-95.803	0.058	0.016
-707.631	104.478	0.360	0.425
-706.616	-13.092	-0.078	0.051
-705.602	124.071	0.065	-0.082
-704.587	-131.884	0.063	0.008
-703.572	35.120	-0.090	0.079
-702.558	-152.284	0.206	0.015
-701.543	-200.000	0.038	-0.358
-700.529	46.067	-0.383	-0.356
-699.514	263.752	-0.123	-0.215
-698.499	-200.000	0.037	-0.170
-697.485	106.480	-0.026	-0.031
-696.470	219.835	-0.133	0.213
-695.456	-193.036	0.255	0.002
-694.441	-22.454	0.100	-0.061
-693.426	85.917	-0.065	0.072
-692.412	-80.983	0.061	0.020
-691.397	278.043	-0.096	0.171
-690.383	24.605	-0.062	0.051
-689.368	72.248	0.193	-0.202
-688.354	800.000	0.087	0.250
-687.339	-161.078	0.431	-0.023
-686.324	-97.677	-0.162	0.042
-685.310	-200.000	0.007	0.218
-684.295	-200.000	0.044	0.290
-683.281	254.164	-0.077	-0.131
-682.266	800.000	0.101	-0.300
-681.251	-200.000	-0.033	-0.272
-680.237	310.370	-0.205	-0.385
-679.222	-68.761	0.080	0.031
-678.208	-66.210	-0.262	-0.105
-677.193	-200.000	0.036	-0.202
-676.178	-100.237	-0.069	0.017
-675.164	218.080	-0.128	-0.205
-674.149	106.270	-0.054	-0.064
-673.135	-8.357	0.112	-0.076
-672.120	-100.649	-0.310	0.077
-671.105	145.462	-0.097	0.130
-670.091	-89.114	0.223	0.066
-669.076	331.273	-0.152	0.294
-668.062	-154.727	0.120	0.008
-667.047	308.355	0.104	0.195
-666.032	564.663	-0.018	0.043
-665.018	-122.818	0.223	-0.036
-664.003	-87.484	0.247	0.075
-662.989	-32.461	-0.101	0.056
-661.974	-60.041	-0.159	-0.068
-660.959	-200.000	0.001	-0.098
-659.945	103.794	0.096	-0.113
-658.930	381.169	-0.052	0.106
-657.916	-18.830	0.103	0.064
-656.901	236.906	0.130	-0.216
-655.886	-124.511	0.216	-0.034
-654.872	-200.000	-0.014	0.332
-653.857	307.596	0.052	0.097
-652.843	632.426	-0.146	-0.370
-651.828	422.508	0.242	-0.521
-650.814	62.451	0.070	0.070
-649.799	113.771	0.207	-0.251
-648.784	-126.016	-0.243	0.037
-647.770	-102.605	0.324	0.077
-646.755	179.995	-0.147	-0.215
-645.741	616.839	-0.147	0.371
-644.726	-200.000	-0.005	-0.090
-643.711	800.000	-0.047	0.167
-642.697	-200.000	-0.006	0.191
-641.682	38.108	-0.085	-0.076
-640.668	56.714	-0.142	-0.139
-639.653	31.286	-0.400	0.344
-638.638	-200.000	0.027	-0.172
-637.624	-163.244	-0.085	0.004
-636.609	-13.526	-0.162	-0.105
-635.595	-92.089	-0.086	0.024
-634.580	-1.786	0.210	0.148
-633.565	-15.365	-0.292	0.187
-632.551	-133.361	0.029	-0.004
-631.536	-100.621	0.163	0.040
-630.522	214.185	-0.118	-0.187
-629.507	-175.012	0.428	0.012
-628.492	-200.000	-0.012	-0.135
-627.478	297.857	-0.130	-0.240
-626.463	800.000	0.066	-0.265
-625.449	81.919	-0.100	-0.108
-624.434	-103.470	0.302	-0.071
-623.419	-27.450	-0.199	-0.116
-622.405	-39.426	0.458	-0.240
-621.390	-200.000	-0.011	-0.227
-620.376	-105.334	-0.134	0.031
-619.361	-51.037	0.203	0.096
-618.346	-65.689	0.286	0.114
-617.332	800.000	0.083	-0.243
-616.317	800.000	-0.033	-0.107
-615.303	177.371	-0.241	-0.351
-614.288	62.062	0.145	-0.145
-613.273	800.000	0.054	-0.168
-612.259	34.881	-0.269	0.236
-611.244	-82.393	0.053	-0.017
-610.230	53.912	-0.146	-0.140
-609.215	-114.459	-0.045	0.009
-608.201	565.633	0.070	-0.170
-607.186	175.286	0.042	0.061
-606.171	-114.758	-0.111	0.021
-605.157	800.000	0.083	-0.246
-604.142	18.889	-0.135	-0.108
-603.128	800.000	-0.019	-0.071
-602.113	82.904	-0.148	-0.161
-601.098	-180.435	0.282	-0.006
-600.084	-38.945	0.163	-0.086
-599.069	-89.933	-0.062	0.018
-598.055	800.000	0.048	-0.199
-597.040	651.362	-0.044	-0.112
-596.025	-200.000	0.031	0.273
-595.011	335.684	0.153	0.296
-593.996	-119.240	0.242	-0.042
-592.982	-148.384	0.462	0.038
-591.967	285.678	0.055	0.100
-590.952	-62.697	-0.186	-0.077
-589.938	-98.353	0.086	-0.022
-588.923	-92.789	-0.051	0.014
-587.909	-64.257	-0.094	-0.038
-586.894	-88.766	-0.182	0.054
-585.879	219.023	-0.074	0.118
-584.865	189.471	-0.007	-0.010
-583.850	-95.812	-0.243	-0.065
-582.836	-160.342	0.382	0.021
-581.821	22.659	-0.232	-0.190
-580.806	800.000	-0.105	-0.411
-579.792	-54.475	-0.119	0.054
-578.777	29.305	0.105	-0.089
-577.763	739.576	-0.111	0.297
-576.748	83.501	0.158	0.173
-575.733	-64.056	-0.276	-0.112
-574.719	-200.000	-0.005	-0.155
-573.704	45.025	-0.134	-0.123
-572.690	133.133	-0.128	0.165
-571.675	267.096	0.046	0.080
-570.661	18.556	-0.038	-0.030
-569.646	-200.000	-0.000	0.146
-568.631	-200.000	-0.027	0.211
-567.617	800.000	0.108	0.332
-566.602	14.859	-0.235	-0.183
-565.588	-98.259	0.250	-0.064
-564.573	26.164	-0.208	-0.174
-563.558	74.612	-0.302	-0.317
-562.544	-200.000	-0.010	-0.084
-561.529	-167.645	0.294	-0.012
-560.515	-200.000	-0.014	-0.064
-559.500	-7.524	0.234	0.158
-558.485	-200.000	0.005	0.142
-557.471	800.000	-0.038	0.118
-556.456	306.787	-0.137	-0.255
-555.442	-108.648	0.161	-0.035
-554.427	41.963	-0.061	-0.055
-553.412	75.657	0.179	0.189
-552.398	-200.000	0.021	0.294
-551.383	40.906	-0.262	0.236
-550.369	22.474	0.216	0.176
-549.354	-7.447	-0.162	0.109
-548.339	89.992	0.228	0.255
-547.325	-109.434	-0.481	-0.101
-546.310	-200.000	0.050	0.240
-545.296	751.998	-0.084	-0.227
-544.281	-110.919	-0.314	0.064
-543.266	-94.626	0.111	0.030
-542.252	-54.344	-0.179	0.081
-541.237	747.057	0.106	-0.284
-540.223	-72.673	0.286	0.105
-539.208	-111.718	0.155	-0.031
-538.193	385.911	-0.068	0.140
-537.179	-67.482	-0.068	0.026
-536.164	315.192	0.080	0.150
-535.150	800.000	-0.069	0.264
-534.135	64.556	-0.161	0.162
-533.121	66.567	0.099	0.100
-532.106	-80.996	-0.348	-0.115
-531.091	80.163	-0.261	0.280
-530.077	800.000	0.040	0.112
-529.062	-9.554	-0.272	-0.181
-528.048	-143.852	-0.281	-0.026
-527.033	-122.854	-0.112	0.018
-526.018	206.256	0.113	0.175
-525.004	12.224	0.242	0.186
-523.989	-200.000	-0.038	0.365
-522.975	81.429	-0.120	-0.129
-521.960	-16.670	-0.082	0.052
-520.945	-170.693	0.265	0.009
-519.931	103.483	-0.134	0.156
-518.916	161.983	0.045	0.062
-517.902	9.662	-0.088	0.066
-516.887	1.965	0.246	-0.177
-515.872	-200.000	0.023	-0.250
-514.858	-70.519	0.303	-0.114
-513.843	3.373	0.159	-0.115
-512.829	-200.000	0.016	0.226
-511.814	800.000	0.092	0.261
-510.799	-10.560	0.243	-0.160
-509.785	800.000	-0.118	0.366
-508.770	-73.631	-0.458	-0.166
-507.756	-200.000	0.017	-0.169
-506.741	91.634	-0.097	0.109
-505.726	-135.760	0.158	-0.019
-504.712	-59.476	0.222	-0.095
-503.697	151.291	-0.174	-0.236
-502.683	-159.678	-0.246	0.014
-501.668	17.475	-0.139	-0.110
-500.653	-16.324	0.064	-0.040
-499.639	-21.098	-0.456	-0.278
-498.624	-59.258	-0.465	-0.200
-497.610	-200.000	0.051	0.311
-496.595	244.577	-0.020	-0.034
-495.581	-112.109	0.257	-0.052
-494.566	800.000	0.037	0.145
-493.551	-75.808	-0.369	0.130
-492.537	-200.000	0.002	0.046
-491.522	742.224	0.104	0.280
-490.508	-200.000	0.011	0.128
-489.493	303.911	0.192	-0.354
-488.478	-200.000	-0.018	0.100
-487.464	40.871	0.146	0.131
-486.449	-62.837	-0.127	-0.052
-485.435	12.148	0.155	-0.119
-484.420	78.597	-0.143	0.152
-483.405	-200.000	-0.076	-0.337
-482.391	-82.124	0.042	-0.014
-481.376	11.467	0.316	-0.241
-480.362	43.733	-0.174	0.158
-479.347	-141.022	-0.266	0.027
-478.332	800.000	0.075	0.256
-477.318	311.909	0.056	0.105
-476.303	-186.244	0.220	0.003
-475.289	-170.900	-0.138	0.005
-474.274	800.000	-0.087	0.278
-473.259	-73.713	-0.271	-0.098
-472.245	4.111	-0.084	-0.061
-471.230	-3.422	0.022	-0.015
-470.216	-143.777	0.103	-0.010
-469.201	-25.268	0.137	0.080
-468.186	-63.112	0.210	0.086
-467.172	-44.002	-0.272	0.136
-466.157	289.249	-0.135	-0.243
-465.143	64.087	0.501	-0.501
-464.128	-47.412	0.444	-0.215
-463.113	-200.000	-0.019	-0.209
-462.099	800.000	0.077	-0.233
-461.084	21.442	0.156	-0.126
-460.070	-78.737	0.239	0.081
-459.055	-200.000	-0.028	0.139
-458.040	800.000	-0.025	-0.095
-457.026	-79.833	0.099	-0.033
-456.011	-89.357	0.339	-0.099
-454.997	-200.000	-0.010	-0.112
-453.982	-78.899	0.272	-0.092
-452.968	-150.773	-0.355	-0.027
-451.953	-63.114	0.066	0.027
-450.938	379.493	0.114	0.232
-449.924	-200.000	-0.008	0.051
-448.909	25.828	0.191	-0.158
-447.895	-121.426	-0.142	-0.024
-446.880	-116.451	-0.255	0.047
-445.865	92.392	-0.056	0.063
-444.851	46.183	-0.245	0.226
-443.836	-57.299	-0.233	0.102
-442.822	-58.454	0.195	-0.084
-441.807	-63.057	-0.264	-0.108
-440.792	198.072	0.059	-0.089
-439.778	598.661	0.100	0.247
-438.763	-200.000	0.015	-0.278
-437.749	-200.000	0.016	-0.213
-436.734	-200.000	0.009	0.042
-435.719	745.816	0.074	-0.197
-434.705	-95.768	-0.359	0.095
-433.690	-169.811	-0.545	0.019
-432.676	-100.582	-0.141	0.035
-431.661	-200.000	-0.023	-0.178
-430.646	230.559	-0.088	0.142
-429.632	-34.997	-0.115	-0.062
-428.617	-163.453	-0.074	0.004
-427.603	-18.124	-0.345	-0.214
-426.588	800.000	0.102	-0.287
-425.573	313.058	-0.111	-0.207
-424.559	-200.000	-0.036	0.315
-423.544	-200.000	-0.043	0.216
-422.530	260.966	0.100	0.172
-421.515	15.203	0.055	0.043
-420.500	800.000	0.061	-0.240
-419.486	-200.000	-0.014	0.063
-418.471	-98.701	0.118	0.030
-417.457	54.516	0.262	0.251
-416.442	27.403	0.225	-0.188
-415.428	-112.738	0.183	-0.036
-414.413	-25.216	-0.545	-0.320
-413.398	108.624	0.120	-0.142
-412.384	-138.049	0.339	0.037
-411.369	-57.858	-0.147	0.064
-410.355	-200.000	0.053	-0.235
-409.340	800.000	-0.104	0.361
-408.325	-200.000	-0.041	-0.331
-407.311	423.264	-0.176	0.376
-406.296	451.624	0.185	0.406
-405.282	64.415	-0.126	0.126
-404.267	800.000	0.034	-0.112
-403.252	13.563	-0.139	0.107
-402.238	167.644	-0.032	-0.046
-401.223	-28.609	-0.232	0.133
-400.209	-104.801	-0.183	-0.042
-399.194	-200.000	0.010	-0.130
-398.179	-200.000	0.062	0.306
-397.165	-100.172	-0.276	-0.068
-396.150	-200.000	0.018	0.151
-395.136	-200.000	0.030	0.164
-394.121	-36.502	-0.326	0.174
-393.106	800.000	-0.044	0.138
-392.092	-200.000	0.030	0.335
-391.077	800.000	-0.065	-0.203
-390.063	-200.000	0.029	-0.273
-389.048	-57.398	-0.074	0.032
-388.033	-80.805	0.395	-0.130
-387.019	6.778	0.219	-0.162
-386.004	-117.181	-0.145	-0.026
-384.990	-131.509	0.175	0.023
-383.975	115.898	-0.186	0.225
-382.960	-52.616	0.151	-0.069
-381.946	289.212	-0.011	-0.019
-380.931	-85.865	-0.286	0.088
-379.917	-152.351	0.325	0.023
-378.902	-183.809	0.111	-0.002
-377.888	-39.403	-0.342	-0.178
-376.873	-200.000	0.064	-0.337
-375.858	800.000	-0.060	-0.167
-374.844	-52.682	0.225	0.103
-373.829	-124.772	0.037	0.006
-372.815	-159.727	0.245	0.013
-371.800	-30.551	0.094	-0.053
-370.785	800.000	0.033	0.095
-369.771	-109.444	-0.269	0.056
-368.756	-200.000	-0.014	-0.078
-367.742	132.817	-0.045	-0.057
-366.727	-107.576	0.308	-0.067
-365.712	-129.150	0.206	0.028
-364.698	-52.204	0.154	0.071
-363.683	800.000	-0.064	-0.272
-362.669	273.588	-0.131	0.230
-361.654	-45.374	0.245	0.120
-360.639	-200.000	0.044	0.416
-359.625	137.230	-0.107	0.139
-358.610	24.926	0.169	0.139
-357.596	-11.456	-0.394	0.257
-356.581	-53.735	0.223	0.101
-355.566	-21.511	-0.146	-0.088
-354.552	-119.238	-0.181	-0.031
-353.537	-200.000	0.056	0.582
-352.523	298.865	0.036	0.065
-351.508	224.371	0.145	0.232
-350.493	800.000	-0.100	-0.293
-349.479	-200.000	-0.000	0.006
-348.464	-8.894	0.229	-0.152
-347.450	-66.911	0.093	0.036
-346.435	-85.379	-0.234	0.072
-345.420	92.026	-0.184	0.205
-344.406	154.568	-0.062	-0.084
-343.391	62.584	-0.155	0.154
-342.377	-135.308	-0.149	-0.018
-341.362	81.473	-0.219	-0.234
-340.348	-26.562	-0.030	0.017
-339.333	-200.000	-0.033	0.327
-338.318	65.486	0.041	-0.041
-337.304	-126.916	-0.422	-0.061
-336.289	120.556	-0.300	-0.369
-335.275	749.163	0.166	0.444
-334.260	-200.000	-0.003	0.191
-333.245	800.000	-0.077	-0.227
-332.231	-9.439	-0.284	0.187
-331.216	-172.008	0.299	0.010
-330.202	-116.075	-0.223	-0.041
-329.187	-123.337	-0.303	0.048
-328.172	-191.800	-0.327	0.003
-327.158	-48.836	0.205	0.097
-326.143	-200.000	0.009	-0.094
-325.129	175.999	0.042	-0.060
-324.114	-200.000	-0.023	0.136
-323.099	-113.526	0.032	0.006
-322.085	-200.000	-0.011	0.210
-321.070	219.364	-0.125	0.198
-320.056	-200.000	0.011	-0.250
-319.041	98.929	0.075	-0.085
-318.026	-87.484	0.219	0.066
-317.012	-100.627	-0.073	0.018
-315.997	383.229	0.123	-0.251
-314.983	-12.937	-0.170	0.110
-313.968	30.020	-0.281	0.237
-312.953	455.629	-0.094	-0.205
-311.939	-67.770	-0.206	-0.080
-310.924	-24.306	-0.494	-0.291
-309.910	-4.425	-0.269	0.184
-308.895	104.808	-0.086	0.100
-307.880	-32.083	0.135	-0.075
-306.866	28.434	0.302	-0.252
-305.851	-163.579	0.198	0.009
-304.837	470.621	0.170	0.378
-303.822	113.639	-0.085	-0.102
-302.807	4.343	-0.106	0.077
-301.793	163.554	0.155	0.215
-300.778	467.898	0.070	0.155
-299.764	-119.161	-0.061	0.011
-298.749	-107.441	0.313	-0.068
-297.735	-34.922	0.460	-0.248
-296.720	-200.000	0.024	-0.218
-295.705	-200.000	-0.022	-0.110
-294.691	-158.356	0.076	-0.004
-293.676	-121.507	-0.178	0.029
-292.662	85.263	0.088	0.095
-291.647	-200.000	0.067	-0.335
-290.632	240.178	0.083	-0.137
-289.618	-67.952	0.152	0.059
-288.603	427.733	0.075	-0.159
-287.589	657.625	-0.083	0.211
-286.574	299.234	0.159	0.289
-285.559	-148.550	0.198	-0.016
-284.545	-86.772	0.218	-0.066
-283.530	-84.288	0.235	-0.074
-282.516	-8.630	-0.209	0.138
-281.501	-189.767	-0.427	0.005
-280.486	800.000	0.065	0.242
-279.472	-169.104	0.188	-0.007
-278.457	82.224	-0.131	-0.140
-277.443	800.000	0.088	0.326
-276.428	237.970	0.092	0.151
-275.413	106.913	-0.049	-0.057
-274.399	31.274	0.047	0.040
-273.384	29.306	0.264	-0.221
-272.370	-37.725	-0.198	-0.104
-271.355	-61.255	0.255	0.106
-270.340	46.834	0.168	-0.154
-269.326	624.221	0.076	0.189
-268.311	156.680	0.173	0.236
-267.297	37.212	-0.106	-0.093
-266.282	-159.601	0.123	-0.007
-265.267	-59.492	-0.292	0.124
-264.253	-71.493	-0.361	0.133
-263.238	-122.740	0.285	-0.045
-262.224	259.723	0.191	-0.325
-261.209	86.322	0.234	-0.255
-260.195	43.945	-0.254	0.229
-259.180	439.729	0.139	0.300
-258.165	800.000	0.096	-0.334
-257.151	-112.161	0.132	0.026
-256.136	158.024	-0.010	0.014
-255.122	-156.021	0.303	0.019
-254.107	-79.595	-0.274	-0.091
-253.092	-200.000	0.009	-0.451
-252.078	138.414	0.088	-0.114
-251.063	227.446	0.140	-0.225
-250.049	-48.257	-0.116	-0.055
-249.034	-10.107	0.211	-0.138
-248.019	30.578	-0.204	-0.172
-247.005	132.757	0.145	0.184
-245.990	-200.000	0.021	-0.342
-244.976	10.542	-0.222	-0.167
-243.961	800.000	-0.110	0.382
-242.946	-200.000	-0.013	-0.249
-241.932	-200.000	-0.043	-0.540
-240.917	-144.859	-0.349	-0.032
-239.903	-107.698	-0.213	-0.046
-238.888	-79.630	0.112	0.037
-237.873	800.000	-0.098	-0.355
-236.859	-200.000	0.004	-0.020
-235.844	-200.000	-0.019	-0.083
-234.830	-5.997	-0.106	0.071
-233.815	54.082	0.104	-0.099
-232.800	-140.752	0.211	0.021
-231.786	106.175	-0.183	-0.214
-230.771	-35.564	-0.381	-0.204
-229.757	72.369	-0.147	0.151
-228.742	-83.767	-0.119	-0.037
-227.727	23.216	0.182	0.147
-226.713	-63.091	0.123	-0.050
-225.698	-69.796	0.203	0.076
-224.684	56.272	0.161	-0.154
-223.669	-149.506	0.621	-0.048
-222.655	185.695	-0.014	0.020
-221.640	-9.798	-0.317	-0.208
-220.625	86.060	-0.114	0.123
-219.611	-147.508	0.237	0.020
-218.596	-200.000	-0.008	0.083
-217.582	282.559	-0.164	0.289
-216.567	-1.031	-0.178	-0.124
-215.552	-11.040	-0.247	0.160
-214.538	188.050	0.283	0.416
-213.523	242.741	0.184	0.304
-212.509	-88.933	-0.192	0.056
-211.494	107.074	0.082	-0.095
-210.479	-42.827	-0.257	0.128
-209.465	800.000	0.089	0.244
-208.450	-200.000	0.048	0.428
-207.436	-80.662	-0.143	-0.047
-206.421	-28.636	0.030	-0.017
-205.406	8.887	0.328	-0.244
-204.392	-200.000	-0.066	0.336
-203.377	-116.898	0.282	-0.051
-202.363	236.244	0.084	0.137
-201.348	-63.704	0.215	0.087
-200.333	-25.332	-0.188	-0.109
-199.319	-98.582	0.590	-0.148
-198.304	-76.370	-0.260	0.090
-197.290	-138.544	0.284	0.031
-196.275	-102.544	0.197	0.046
-195.260	14.626	-0.284	0.219
-194.246	162.017	0.143	0.197
-193.231	-200.000	0.015	-0.133
-192.217	-153.865	0.206	0.014
-191.202	680.071	0.044	0.112
-190.187	250.700	0.053	0.089
-189.173	-187.716	-0.236	0.003
-188.158	123.119	-0.118	-0.146
-187.144	110.740	0.050	0.059
-186.129	549.919	-0.061	-0.143
-185.114	0.307	0.021	-0.015
-184.100	-85.553	0.049	0.015
-183.085	4.603	-0.101	-0.073
-182.071	-200.000	0.022	0.310
-181.056	-54.295	-0.202	-0.090
-180.042	1.284	0.073	0.052
-179.027	232.383	0.137	-0.220
-178.012	-74.139	0.172	-0.061
-176.998	155.188	-0.075	-0.101
-175.983	-69.765	-0.265	-0.099
-174.969	121.221	0.143	0.175
-173.954	180.873	0.093	-0.135
-172.939	-93.961	0.272	0.073
-171.925	-200.000	-0.004	-0.124
-170.910	117.742	0.190	-0.230
-169.896	-23.780	-0.299	0.176
-168.881	86.186	-0.082	-0.088
-167.866	-103.163	-0.252	0.059
-166.852	22.324	0.227	-0.183
-165.837	314.887	-0.089	-0.165
-164.823	152.693	0.206	0.277
-163.808	61.863	0.075	-0.073
-162.793	800.000	-0.091	0.247
-161.779	362.053	0.087	-0.171
-160.764	-33.403	0.169	0.092
-159.750	264.875	0.080	0.137
-158.735	128.479	0.165	-0.206
-157.720	-82.224	0.203	-0.065
-156.706	-87.221	-0.136	-0.041
-155.691	1.884	0.316	0.224
-154.677	800.000	0.051	-0.180
-153.662	-32.845	-0.046	-0.025
-152.647	42.266	0.104	0.093
-151.633	-42.788	0.431	-0.215
-150.618	39.079	-0.094	0.083
-149.604	271.084	-0.132	-0.228
-148.589	9.909	-0.180	0.135
-147.574	-126.519	-0.257	0.037
-146.560	143.969	-0.017	0.022
-145.545	89.605	0.217	0.238
-144.531	-200.000	0.191	0.001
-143.516	-175.612	0.036	0.001
-142.502	26.649	-0.250	0.206
-141.487	6.645	-0.085	-0.062
-140.472	-68.365	0.046	0.018
-139.458	-200.000	0.012	0.309
-138.443	256.267	0.126	0.213
-137.429	229.658	0.111	0.179
-136.414	-132.891	0.230	0.029
-135.399	17.050	0.206	-0.160
-134.385	-33.926	-0.162	0.087
-133.370	127.287	0.072	-0.090
-132.356	175.411	0.035	0.050
-131.341	-200.000	0.020	0.180
-130.326	-159.680	-0.256	-0.014
-129.312	-200.000	0.003	0.359
-128.297	800.000	-0.049	0.159
-127.283	-33.660	-0.238	-0.129
-126.268	-84.360	0.041	0.013
-125.253	-130.178	0.433	0.058
-124.239	26.399	-0.210	-0.172
-123.224	800.000	-0.091	0.351
-122.210	-111.763	0.346	0.069
-121.195	293.435	-0.033	-0.060
-120.180	478.209	0.229	0.508
