DTS Sentinel unit serial number:	SN413079Multiplexer serial number:	ORYXHardware model number:	OX4-SRSoftware version number:	ORYX F/W v4.00 Oryx Data Collector v3.7.2.0data status	okinstallation	princeton_trtdifferential loss correction	single-endedforward channel	channel 1reverse channel	N/Adate	2019/09/15time	22:50:35forward acquisition time	60.00reverse acquisition time	0.00gamma	496.2192k internal	0.2331k external	0.2331temperature offset calibration	0.9972default loss term (dB/km)	0.3790temperature slope calibration	1.0000multiplexer offset coefficient	1.0000multiplexer slope coefficient	1.0000fibre end	0.00T internal ref (°C)	28.75T ext. ref 1 (°C)	8.90T ext. ref 2 (°C)	22.29length (m)	temperature (°C)	Stokes	anti-Stokes-747.200	192.703	0.097	-0.147
-746.185	-75.830	-0.134	0.048
-745.171	-19.030	0.218	0.137
-744.156	-53.077	-0.373	0.172
-743.142	-200.000	0.020	-0.316
-742.127	-200.000	-0.022	0.412
-741.112	-131.629	-0.194	-0.026
-740.098	-75.012	-0.215	-0.077
-739.083	-86.161	0.160	0.050
-738.069	-51.353	-0.136	-0.064
-737.054	86.626	-0.035	-0.039
-736.039	81.576	-0.172	-0.187
-735.025	31.353	0.209	0.180
-734.010	543.364	0.149	0.357
-732.996	-200.000	0.006	0.030
-731.981	1.479	-0.251	-0.181
-730.966	602.252	0.025	0.063
-729.952	-200.000	-0.049	-0.428
-728.937	-6.263	-0.215	0.147
-727.923	-118.097	0.036	-0.007
-726.908	-23.075	-0.141	-0.086
-725.894	-144.839	-0.114	0.011
-724.879	-153.958	-0.468	0.032
-723.864	-200.000	-0.031	-0.179
-722.850	-97.812	-0.455	-0.118
-721.835	630.134	0.114	-0.290
-720.821	91.763	-0.386	-0.437
-719.806	30.654	-0.212	0.183
-718.791	-154.263	-0.257	-0.017
-717.777	-140.946	-0.259	0.027
-716.762	18.633	0.028	-0.022
-715.748	383.415	0.167	-0.345
-714.733	800.000	-0.092	-0.278
-713.718	800.000	-0.016	-0.069
-712.704	43.192	-0.135	-0.124
-711.689	-157.705	0.290	-0.017
-710.675	-76.730	-0.211	0.074
-709.660	-105.211	0.252	0.058
-708.645	254.908	0.212	0.365
-707.631	-97.860	-0.089	0.023
-706.616	-13.063	0.043	0.028
-705.602	-3.905	0.221	-0.154
-704.587	-36.232	-0.242	-0.131
-703.572	-200.000	0.011	-0.206
-702.558	-24.759	-0.369	0.221
-701.543	35.473	0.153	0.135
-700.529	632.359	0.014	-0.037
-699.514	-72.093	-0.055	-0.021
-698.499	-93.982	-0.087	-0.024
-697.485	800.000	-0.007	0.026
-696.470	469.969	-0.206	-0.465
-695.456	1.527	0.116	-0.084
-694.441	-92.299	-0.288	-0.081
-693.426	107.009	0.151	-0.180
-692.412	-200.000	-0.016	0.149
-691.397	-200.000	-0.016	0.143
-690.383	166.996	0.162	-0.230
-689.368	306.984	0.169	0.315
-688.354	-93.786	0.038	-0.010
-687.339	-48.494	0.175	0.085
-686.324	774.484	-0.061	-0.167
-685.310	40.421	0.123	0.111
-684.295	-23.444	-0.115	-0.069
-683.281	257.307	-0.146	-0.252
-682.266	-200.000	-0.028	-0.217
-681.251	65.527	-0.111	0.112
-680.237	-69.266	0.393	0.152
-679.222	192.465	-0.096	0.145
-678.208	-42.854	-0.030	0.015
-677.193	-115.051	-0.216	0.041
-676.178	-13.345	-0.373	0.243
-675.164	-200.000	0.008	-0.341
-674.149	13.103	0.240	-0.186
-673.135	-126.649	0.252	0.038
-672.120	614.757	-0.024	-0.060
-671.105	-122.102	0.278	-0.046
-670.091	-125.143	0.335	-0.052
-669.076	-116.240	0.120	-0.022
-668.062	63.350	-0.039	0.039
-667.047	-190.139	-0.573	-0.006
-666.032	-74.771	0.277	0.100
-665.018	17.761	-0.136	-0.109
-664.003	72.587	0.221	-0.231
-662.989	289.760	-0.072	0.132
-661.974	-18.221	-0.291	0.182
-660.959	328.102	0.095	-0.183
-659.945	-102.471	0.190	-0.046
-658.930	800.000	0.104	-0.449
-657.916	-69.244	-0.188	-0.072
-656.901	-81.831	-0.317	0.104
-655.886	242.489	0.067	0.113
-654.872	800.000	0.072	0.314
-653.857	-200.000	0.050	0.287
-652.843	-200.000	-0.017	-0.292
-651.828	40.712	0.130	-0.117
-650.814	-82.711	-0.269	0.087
-649.799	24.595	0.401	0.332
-648.784	236.697	-0.302	0.501
-647.770	62.008	-0.023	-0.023
-646.755	279.983	-0.135	-0.241
-645.741	-161.817	-0.331	-0.017
-644.726	-151.092	0.165	-0.012
-643.711	-40.940	0.219	0.114
-642.697	-95.519	-0.142	0.038
-641.682	-192.737	-0.119	0.001
-640.668	165.228	0.185	0.262
-639.653	633.375	-0.088	0.223
-638.638	13.238	-0.085	-0.066
-637.624	234.879	0.002	-0.004
-636.609	250.706	0.143	-0.244
-635.595	-25.673	-0.134	0.079
-634.580	-57.141	-0.158	0.070
-633.565	-144.012	0.220	0.021
-632.551	-17.386	0.078	-0.049
-631.536	-44.780	-0.297	-0.148
-630.522	-166.215	0.157	0.007
-629.507	-173.466	-0.218	0.007
-628.492	-200.000	-0.003	0.031
-627.478	-94.520	-0.132	-0.036
-626.463	-174.712	-0.324	-0.009
-625.449	-111.888	0.197	0.040
-624.434	11.999	0.156	-0.120
-623.419	552.283	-0.045	0.108
-622.405	6.675	0.116	0.087
-621.390	501.730	-0.129	-0.299
-620.376	-75.566	0.320	0.114
-619.361	-34.388	0.058	0.032
-618.346	-44.029	-0.213	0.107
-617.332	-20.280	0.052	-0.032
-616.317	-200.000	-0.019	-0.108
-615.303	-6.221	-0.091	-0.062
-614.288	-200.000	0.069	0.324
-613.273	59.930	0.366	0.362
-612.259	-69.879	0.323	-0.123
-611.244	800.000	-0.053	0.157
-610.230	800.000	0.020	0.064
-609.215	-77.221	0.468	0.163
-608.201	-13.467	0.130	-0.085
-607.186	321.630	-0.120	0.228
-606.171	-69.725	-0.131	0.050
-605.157	-200.000	-0.026	-0.258
-604.142	423.339	0.092	-0.197
-603.128	800.000	-0.049	0.171
-602.113	-200.000	-0.052	0.356
-601.098	800.000	0.084	0.285
-600.084	-200.000	0.048	0.252
-599.069	-200.000	-0.037	-0.258
-598.055	-200.000	-0.001	-0.163
-597.040	-200.000	0.001	-0.037
-596.025	-200.000	-0.026	-0.263
-595.011	-42.814	0.152	0.077
-593.996	245.477	0.111	0.187
-592.982	-200.000	-0.005	-0.213
-591.967	-200.000	-0.029	0.165
-590.952	294.911	-0.098	0.179
-589.938	64.202	-0.114	-0.115
-588.923	17.653	0.058	0.046
-587.909	426.312	-0.094	0.202
-586.894	95.689	0.148	0.169
-585.879	78.936	-0.104	-0.111
-584.865	800.000	0.009	0.028
-583.850	-128.370	0.344	-0.049
-582.836	-200.000	0.050	0.353
-581.821	-140.099	0.295	0.031
-580.806	-200.000	0.060	-0.571
-579.792	-200.000	0.004	-0.047
-578.777	-162.612	0.245	0.012
-577.763	33.679	-0.251	-0.218
-576.748	800.000	0.045	-0.172
-575.733	-200.000	0.006	-0.152
-574.719	-200.000	0.009	0.043
-573.704	705.532	0.077	0.203
-572.690	389.975	-0.126	0.262
-571.675	-200.000	-0.026	0.143
-570.661	-200.000	-0.017	0.335
-569.646	-200.000	0.035	0.251
-568.631	38.124	-0.113	-0.100
-567.617	800.000	-0.074	-0.270
-566.602	-200.000	0.000	-0.216
-565.588	-200.000	0.011	-0.108
-564.573	-117.718	-0.304	-0.055
-563.558	800.000	-0.052	0.214
-562.544	-50.024	-0.635	0.301
-561.529	-200.000	-0.032	0.330
-560.515	92.289	0.159	-0.179
-559.500	-137.503	0.235	0.027
-558.485	-200.000	0.007	0.102
-557.471	9.464	-0.198	-0.150
-556.456	-16.174	0.149	-0.094
-555.442	569.159	-0.047	-0.115
-554.427	-101.855	-0.072	0.017
-553.412	27.782	-0.132	-0.111
-552.398	389.381	-0.132	0.273
-551.383	-200.000	0.072	0.321
-550.369	-200.000	0.015	0.137
-549.354	16.227	-0.315	0.248
-548.339	21.864	-0.125	0.102
-547.325	-39.892	0.103	-0.054
-546.310	-45.451	-0.345	0.171
-545.296	-35.676	-0.190	0.103
-544.281	-110.533	-0.022	0.005
-543.266	218.850	0.109	0.174
-542.252	-50.372	0.114	0.054
-541.237	-35.265	0.010	0.005
-540.223	-80.929	-0.210	-0.069
-539.208	-15.442	0.233	0.149
-538.193	394.577	0.127	-0.264
-537.179	-131.757	-0.025	0.003
-536.164	679.814	-0.129	-0.335
-535.150	242.355	0.042	0.070
-534.135	92.021	-0.095	0.107
-533.121	-141.102	-0.121	0.012
-532.106	-30.690	-0.063	-0.036
-531.091	-63.769	0.079	-0.032
-530.077	-57.652	0.380	-0.166
-529.062	-44.110	-0.029	-0.015
-528.048	-76.415	-0.196	-0.069
-527.033	-200.000	0.029	0.219
-526.018	800.000	0.104	-0.440
-525.004	176.790	-0.006	-0.009
-523.989	800.000	-0.090	-0.368
-522.975	-49.466	-0.139	0.066
-521.960	-83.868	-0.187	-0.059
-520.945	79.493	-0.201	0.215
-519.931	800.000	-0.051	0.220
-518.916	-153.318	-0.222	0.015
-517.902	136.569	-0.103	-0.134
-516.887	800.000	-0.004	-0.011
-515.872	-134.089	0.198	0.024
-514.858	-116.846	0.573	0.105
-513.843	416.973	0.087	-0.186
-512.829	-200.000	0.035	-0.248
-511.814	10.926	0.139	0.106
-510.799	188.610	-0.131	-0.195
-509.785	-51.721	0.324	-0.151
-508.770	404.022	-0.109	0.229
-507.756	-58.689	0.353	-0.152
-506.741	468.836	0.155	-0.347
-505.726	800.000	-0.032	0.129
-504.712	-20.731	-0.142	0.087
-503.697	-139.551	-0.203	-0.022
-502.683	-7.949	0.289	-0.194
-501.668	115.900	-0.262	-0.320
-500.653	800.000	-0.118	-0.434
-499.639	-200.000	-0.009	0.065
-498.624	-94.633	-0.349	0.095
-497.610	346.188	0.083	0.163
-496.595	-86.337	-0.284	0.087
-495.581	470.256	0.098	-0.220
-494.566	95.213	0.251	-0.284
-493.551	800.000	-0.141	-0.435
-492.537	800.000	0.049	0.157
-491.522	-200.000	-0.078	0.444
-490.508	142.290	0.115	-0.152
-489.493	116.652	-0.192	-0.235
-488.478	459.838	0.041	-0.091
-487.464	29.480	-0.021	0.018
-486.449	-106.062	0.126	0.028
-485.435	-117.578	-0.130	-0.023
-484.420	800.000	-0.068	0.194
-483.405	53.199	0.028	-0.027
-482.391	244.186	-0.084	0.140
-481.376	-138.488	-0.112	0.012
-480.362	253.272	-0.168	0.286
-479.347	528.390	0.059	0.138
-478.332	104.628	-0.032	0.037
-477.318	-69.575	0.164	0.062
-476.303	-50.785	-0.028	0.013
-475.289	-62.285	0.331	-0.137
-474.274	-200.000	0.036	-0.214
-473.259	-157.550	-0.257	0.015
-472.245	-75.507	0.214	-0.076
-471.230	238.388	-0.057	-0.094
-470.216	-44.634	-0.255	0.127
-469.201	-114.438	-0.127	0.024
-468.186	-132.700	-0.270	0.034
-467.172	800.000	-0.031	-0.089
-466.157	475.729	-0.114	0.256
-465.143	64.089	0.099	0.099
-464.128	-29.880	-0.338	-0.192
-463.113	-131.313	-0.103	-0.014
-462.099	23.844	-0.044	-0.036
-461.084	457.445	-0.048	-0.106
-460.070	-147.192	-0.129	-0.011
-459.055	-96.585	0.263	-0.069
-458.040	-55.084	-0.258	0.116
-457.026	-200.000	-0.021	0.206
-456.011	-26.455	-0.176	0.103
-454.997	218.573	0.144	0.229
-453.982	-200.000	-0.020	0.130
-452.968	-63.796	-0.112	0.046
-451.953	44.854	0.143	-0.131
-450.938	613.548	-0.075	0.188
-449.924	289.466	0.016	-0.028
-448.909	-186.475	0.223	0.003
-447.895	-200.000	0.039	-0.245
-446.880	-70.231	-0.311	0.118
-445.865	88.847	0.109	0.121
-444.851	800.000	0.041	0.126
-443.836	710.353	0.041	-0.109
-442.822	113.500	-0.146	-0.176
-441.807	-17.437	-0.038	-0.024
-440.792	136.691	0.205	0.267
-439.778	-200.000	0.050	0.424
-438.763	220.219	-0.180	0.287
-437.749	800.000	0.045	0.128
-436.734	-200.000	-0.021	0.145
-435.719	-78.425	-0.405	0.138
-434.705	19.136	0.121	-0.096
-433.690	800.000	-0.022	0.094
-432.676	800.000	0.119	-0.364
-431.661	-164.085	-0.245	-0.011
-430.646	10.607	0.064	-0.048
-429.632	253.377	0.149	0.254
-428.617	660.262	-0.050	0.128
-427.603	54.302	-0.175	0.168
-426.588	-200.000	0.027	0.276
-425.573	-141.955	0.106	0.011
-424.559	784.140	0.166	-0.453
-423.544	800.000	0.106	-0.406
-422.530	439.098	-0.060	-0.131
-421.515	489.332	-0.011	0.026
-420.500	323.000	0.117	-0.221
-419.486	-149.202	0.301	-0.024
-418.471	167.842	-0.158	0.223
-417.457	271.168	0.075	0.131
-416.442	800.000	-0.132	0.372
-415.428	25.218	-0.208	0.172
-414.413	21.535	0.137	-0.110
-413.398	219.259	-0.092	-0.145
-412.384	-3.202	0.176	0.122
-411.369	489.935	-0.097	0.221
-410.355	-112.765	-0.389	-0.077
-409.340	-21.285	-0.174	0.106
-408.325	443.294	0.044	0.096
-407.311	0.212	0.193	0.137
-406.296	432.539	0.115	-0.248
-405.282	41.199	-0.142	0.127
-404.267	-66.201	0.312	-0.123
-403.252	-188.165	0.282	-0.004
-402.238	350.659	-0.087	0.171
-401.223	800.000	0.087	0.253
-400.209	-200.000	0.007	0.141
-399.194	128.590	0.124	-0.156
-398.179	-200.000	-0.035	-0.166
-397.165	-58.723	0.149	-0.064
-396.150	-105.358	0.368	-0.083
-395.136	-26.860	0.164	-0.095
-394.121	397.367	0.128	-0.266
-393.106	-72.586	-0.211	-0.077
-392.092	175.805	-0.086	-0.123
-391.077	22.023	0.113	-0.091
-390.063	-200.000	-0.013	-0.363
-389.048	-8.920	0.113	0.075
-388.033	217.049	0.083	0.131
-387.019	800.000	-0.169	-0.528
-386.004	184.188	-0.128	-0.189
-384.990	-69.131	-0.144	0.055
-383.975	-96.971	-0.223	0.058
-382.960	209.789	-0.134	0.209
-381.946	-200.000	-0.038	-0.263
-380.931	94.508	-0.075	-0.084
-379.917	-23.934	0.356	0.211
-378.902	-60.752	0.344	0.145
-377.888	-200.000	0.030	-0.208
-376.873	800.000	0.073	-0.283
-375.858	-200.000	-0.018	0.218
-374.844	6.462	-0.310	-0.229
-373.829	-118.234	-0.323	-0.057
-372.815	-39.115	-0.066	0.034
-371.800	-73.350	-0.236	-0.086
-370.785	235.517	-0.083	-0.136
-369.771	-200.000	0.012	-0.078
-368.756	-64.997	-0.272	-0.109
-367.742	608.106	-0.197	-0.488
-366.727	-200.000	0.010	0.275
-365.712	-200.000	0.060	-0.300
-364.698	800.000	0.049	0.150
-363.683	-136.963	0.198	-0.023
-362.669	119.652	-0.117	-0.144
-361.654	95.332	-0.206	0.233
-360.639	81.674	0.022	-0.023
-359.625	-194.219	0.190	0.002
-358.610	-200.000	0.013	0.106
-357.596	800.000	0.052	-0.160
-356.581	28.038	-0.102	0.085
-355.566	118.844	-0.171	0.210
-354.552	121.947	0.067	-0.083
-353.537	74.670	-0.183	-0.191
-352.523	-173.662	0.441	-0.013
-351.508	143.862	0.124	0.164
-350.493	-57.788	-0.112	0.048
-349.479	-155.098	-0.280	-0.018
-348.464	221.521	-0.146	0.232
-347.450	90.138	0.311	-0.345
-346.435	798.188	-0.176	-0.480
-345.420	-62.360	0.219	-0.090
-344.406	800.000	-0.083	-0.254
-343.391	641.237	0.217	0.549
-342.377	-47.435	0.165	0.079
-341.362	10.907	0.119	-0.090
-340.348	133.821	-0.211	-0.270
-339.333	-187.348	-0.204	0.003
-338.318	-200.000	0.033	0.169
-337.304	-142.113	0.301	0.030
-336.289	445.937	0.117	-0.255
-335.275	106.279	0.167	0.196
-334.260	38.406	-0.079	0.070
-333.245	-160.550	0.080	-0.004
-332.231	-82.590	0.097	-0.031
-331.216	282.786	0.178	0.316
-330.202	-13.860	-0.234	-0.150
-329.187	181.493	-0.064	0.094
-328.172	-200.000	0.034	0.162
-327.158	-166.965	0.174	-0.007
-326.143	-200.000	0.011	0.221
-325.129	47.129	0.149	-0.137
-324.114	-200.000	-0.006	0.333
-323.099	32.362	-0.186	-0.159
-322.085	-200.000	0.008	-0.260
-321.070	-200.000	-0.030	0.155
-320.056	12.021	0.248	-0.188
-319.041	-122.163	-0.229	-0.037
-318.026	168.835	0.134	-0.189
-317.012	-200.000	-0.005	-0.101
-315.997	-56.082	0.404	0.178
-314.983	-146.647	0.412	0.035
-313.968	-200.000	-0.089	-0.509
-312.953	-88.284	-0.240	0.071
-311.939	210.676	0.068	-0.106
-310.924	-194.476	0.082	0.001
-309.910	8.172	0.172	0.128
-308.895	-135.301	-0.159	-0.019
-307.880	-162.423	0.136	-0.007
-306.866	-120.588	0.186	-0.031
-305.851	-120.903	-0.196	0.033
-304.837	-13.520	-0.125	-0.080
-303.822	800.000	0.092	0.307
-302.807	198.340	0.016	0.024
-301.793	-37.642	0.317	-0.167
-300.778	-200.000	-0.054	-0.246
-299.764	-45.779	0.161	0.079
-298.749	-72.600	0.262	-0.096
-297.735	-200.000	-0.123	0.598
-296.720	-9.243	-0.163	0.107
-295.705	11.030	-0.098	0.074
-294.691	88.207	0.308	-0.338
-293.676	7.027	-0.167	0.123
-292.662	-200.000	0.015	0.205
-291.647	800.000	-0.097	-0.327
-290.632	-200.000	0.011	-0.196
-289.618	-153.570	-0.157	-0.011
-288.603	-200.000	0.062	-0.384
-287.589	-113.234	0.448	-0.087
-286.574	-91.546	-0.361	0.102
-285.559	426.244	0.110	0.235
-284.545	389.862	-0.151	-0.310
-283.530	-145.957	-0.227	0.020
-282.516	45.439	-0.176	-0.161
-281.501	-14.953	-0.133	0.084
-280.486	3.837	0.134	0.097
-279.472	278.056	-0.037	-0.066
-278.457	366.451	-0.063	-0.125
-277.443	724.030	-0.017	-0.044
-276.428	4.727	-0.117	-0.085
-275.413	13.673	-0.177	-0.136
-274.399	25.249	0.092	0.075
-273.384	95.631	0.089	-0.101
-272.370	534.912	0.088	0.207
-271.355	45.931	-0.200	0.183
-270.340	-200.000	-0.012	0.085
-269.326	-200.000	-0.023	-0.748
-268.311	313.431	-0.050	0.093
-267.297	-200.000	-0.022	-0.284
-266.282	7.934	0.600	0.445
-265.267	227.548	0.185	0.297
-264.253	-71.585	-0.240	0.088
-263.238	103.872	-0.209	0.243
-262.224	-87.683	0.094	0.028
-261.209	-200.000	0.019	-0.219
-260.195	-37.278	-0.203	-0.107
-259.180	-71.845	0.307	0.113
-258.165	34.997	0.174	0.151
-257.151	206.813	0.264	-0.407
-256.136	646.463	-0.082	-0.207
-255.122	327.492	0.021	0.039
-254.107	-42.819	0.126	-0.063
-253.092	-102.644	0.159	0.037
-252.078	22.521	-0.085	0.069
-251.063	-3.127	-0.392	-0.270
-250.049	800.000	-0.032	0.095
-249.034	-63.481	0.087	-0.035
-248.019	219.095	-0.181	-0.285
-247.005	-91.859	0.234	-0.066
-245.990	586.568	0.074	0.181
-244.976	-200.000	0.027	0.199
-243.961	-200.000	0.007	-0.306
-242.946	-200.000	-0.052	-0.333
-241.932	-168.478	0.245	0.009
-240.917	-8.845	0.190	0.126
-239.903	182.773	0.085	0.124
-238.888	800.000	-0.082	-0.255
-237.873	-17.250	-0.407	-0.253
-236.859	32.411	-0.081	-0.069
-235.844	800.000	-0.049	-0.172
-234.830	-200.000	0.018	-0.222
-233.815	143.208	-0.168	0.220
-232.800	-159.203	-0.185	-0.010
-231.786	6.908	-0.164	0.121
-230.771	-27.094	0.166	0.096
-229.757	-3.805	-0.273	-0.187
-228.742	58.623	0.115	-0.111
-227.727	2.118	0.274	-0.196
-226.713	-45.288	0.375	-0.183
-225.698	-67.148	0.138	0.053
-224.684	556.384	-0.181	0.430
-223.669	-132.749	0.095	0.012
-222.655	49.002	0.151	0.140
-221.640	-104.999	-0.213	0.048
-220.625	61.700	0.060	0.059
-219.611	-103.809	-0.418	-0.096
-218.596	800.000	0.036	-0.120
-217.582	-47.314	0.184	0.088
-216.567	-0.472	-0.241	-0.169
-215.552	-200.000	0.053	0.273
-214.538	108.333	0.276	0.325
-213.523	9.921	-0.359	-0.268
-212.509	800.000	0.042	0.150
-211.494	248.625	0.087	0.144
-210.479	-104.795	-0.086	-0.020
-209.465	-118.856	-0.265	0.046
-208.450	139.649	-0.141	-0.183
-207.436	100.279	-0.126	-0.144
-206.421	-200.000	0.026	-0.146
-205.406	112.257	-0.110	-0.131
-204.392	675.021	0.111	-0.284
-203.377	800.000	0.092	0.263
-202.363	-200.000	-0.034	-0.222
-201.348	-35.205	0.096	-0.051
-200.333	182.071	0.142	-0.206
-199.319	-41.222	-0.091	0.046
-198.304	-200.000	0.004	-0.115
-197.290	-77.280	-0.191	-0.066
-196.275	800.000	-0.056	0.178
-195.260	-142.339	0.136	0.013
-194.246	-200.000	-0.022	0.161
-193.231	-200.000	0.067	0.310
-192.217	-70.837	0.007	0.003
-191.202	25.736	0.098	0.081
-190.187	-142.527	-0.272	0.026
-189.173	-200.000	-0.013	0.112
-188.158	443.451	-0.194	0.420
-187.144	-154.944	0.063	-0.004
-186.129	353.704	0.085	-0.165
-185.114	10.156	-0.316	-0.237
-184.100	187.060	0.108	0.159
-183.085	55.734	0.256	0.244
-182.071	-200.000	0.015	0.254
-181.056	-200.000	-0.007	-0.032
-180.042	88.776	-0.135	-0.148
-179.027	-88.338	-0.324	-0.095
-178.012	-33.140	-0.090	-0.049
-176.998	-200.000	-0.029	0.455
-175.983	-130.619	0.220	0.029
-174.969	-85.927	0.135	0.041
-173.954	85.668	-0.162	-0.175
-172.939	-54.428	0.163	-0.073
-171.925	698.275	0.123	-0.319
-170.910	465.932	0.066	-0.145
-169.896	-49.172	0.313	0.147
-168.881	-137.524	0.115	0.013
-167.866	-200.000	-0.005	-0.206
-166.852	116.335	-0.246	0.297
-165.837	-74.069	-0.149	0.053
-164.823	-164.517	0.463	-0.021
-163.808	-158.896	0.116	0.007
-162.793	800.000	0.140	0.437
-161.779	-200.000	-0.040	-0.217
-160.764	-130.931	0.269	0.035
-159.750	-35.244	0.228	0.122
-158.735	-79.855	-0.252	-0.083
-157.720	-23.789	-0.092	0.054
-156.706	548.527	0.082	-0.193
-155.691	199.313	0.021	-0.032
-154.677	272.568	0.255	0.443
-153.662	-107.625	-0.132	0.028
-152.647	97.827	-0.130	0.147
-151.633	800.000	0.046	-0.145
-150.618	-52.041	0.232	-0.106
-149.604	-68.810	0.081	0.031
-148.589	-82.547	-0.075	-0.024
-147.574	800.000	0.051	-0.205
-146.560	77.012	-0.107	-0.112
-145.545	-107.378	0.204	0.044
-144.531	-143.658	-0.140	0.013
-143.516	800.000	0.081	0.264
-142.502	800.000	0.056	0.196
-141.487	-200.000	0.061	-0.377
-140.472	269.967	-0.044	0.075
-139.458	54.329	0.206	0.195
-138.443	782.198	-0.127	-0.342
-137.429	53.899	-0.146	0.138
-136.414	128.553	-0.068	0.085
-135.399	-109.757	-0.274	0.057
-134.385	83.613	0.262	-0.281
-133.370	-181.192	0.152	-0.003
-132.356	217.919	-0.077	-0.121
-131.341	238.338	-0.092	-0.150
-130.326	-45.411	0.262	-0.128
-129.312	-76.171	0.122	-0.042
-128.297	-143.880	-0.411	-0.038
-127.283	-54.397	0.133	0.059
-126.268	350.411	0.191	0.372
-125.253	15.915	0.112	0.087
-124.239	24.317	-0.079	-0.064
-123.224	27.528	0.441	-0.365
-122.210	-47.811	-0.217	-0.103
-121.195	-100.820	0.095	-0.023
