DTS Sentinel unit serial number:	SN413079Multiplexer serial number:	ORYXHardware model number:	OX4-SRSoftware version number:	ORYX F/W v4.00 Oryx Data Collector v3.7.2.0data status	okinstallation	princeton_trtdifferential loss correction	single-endedforward channel	channel 1reverse channel	N/Adate	2019/09/18time	07:14:35forward acquisition time	60.00reverse acquisition time	0.00gamma	496.2192k internal	0.2340k external	0.2340temperature offset calibration	0.9975default loss term (dB/km)	0.3790temperature slope calibration	1.0000multiplexer offset coefficient	1.0000multiplexer slope coefficient	1.0000fibre end	0.00T internal ref (°C)	23.19T ext. ref 1 (°C)	0.19T ext. ref 2 (°C)	17.32length (m)	temperature (°C)	Stokes	anti-Stokes-747.200	730.735	-0.075	-0.202
-746.185	-200.000	-0.063	0.475
-745.171	126.478	0.068	-0.087
-744.156	125.030	-0.127	0.160
-743.142	800.000	-0.165	0.461
-742.127	-200.000	-0.001	0.157
-741.112	-200.000	-0.048	-0.308
-740.098	-35.611	-0.261	0.142
-739.083	-200.000	0.058	0.276
-738.069	-35.164	0.315	0.172
-737.054	383.714	-0.131	0.271
-736.039	-138.972	-0.370	-0.040
-735.025	-200.000	-0.041	0.257
-734.010	5.776	0.096	-0.071
-732.996	186.877	-0.188	-0.281
-731.981	83.041	0.191	0.208
-730.966	480.735	0.073	0.166
-729.952	589.800	-0.102	-0.251
-728.937	-111.921	-0.026	0.005
-727.923	-61.143	-0.234	-0.099
-726.908	-20.168	-0.310	-0.191
-725.894	800.000	-0.113	0.336
-724.879	28.311	-0.102	0.087
-723.864	136.304	-0.070	-0.091
-722.850	373.417	0.117	0.238
-721.835	28.485	-0.105	-0.089
-720.821	-200.000	0.056	-0.394
-719.806	-200.000	0.004	-0.052
-718.791	-19.442	-0.198	0.123
-717.777	-139.208	0.446	0.048
-716.762	-142.583	-0.203	-0.020
-715.748	-200.000	0.006	0.070
-714.733	-200.000	-0.018	-0.222
-713.718	-130.822	0.141	-0.019
-712.704	107.013	-0.235	-0.280
-711.689	-94.747	0.381	-0.103
-710.675	141.201	-0.028	-0.037
-709.660	-57.393	-0.265	-0.117
-708.645	-200.000	-0.081	-0.423
-707.631	221.221	0.066	-0.106
-706.616	-126.031	-0.209	-0.031
-705.602	-56.753	-0.012	-0.005
-704.587	-58.228	-0.069	0.030
-703.572	144.618	-0.076	0.102
-702.558	-90.404	-0.292	-0.085
-701.543	-113.244	0.044	0.009
-700.529	-48.622	-0.213	0.102
-699.514	-200.000	0.009	0.090
-698.499	-33.376	-0.038	-0.021
-697.485	-40.138	-0.209	0.109
-696.470	547.853	0.117	-0.280
-695.456	-69.756	0.115	-0.044
-694.441	-134.720	0.183	0.022
-693.426	-65.088	-0.235	0.095
-692.412	78.708	0.144	-0.154
-691.397	86.264	-0.284	0.313
-690.383	-184.916	-0.317	0.005
-689.368	-41.214	-0.348	0.179
-688.354	-52.839	-0.401	0.185
-687.339	110.242	0.036	0.044
-686.324	800.000	0.061	0.207
-685.310	-11.365	0.320	-0.211
-684.295	800.000	-0.030	0.107
-683.281	800.000	-0.042	0.117
-682.266	193.664	-0.117	0.178
-681.251	-36.979	-0.150	-0.081
-680.237	204.950	0.268	-0.415
-679.222	-149.402	0.059	-0.005
-678.208	31.294	-0.147	0.126
-677.193	-118.326	0.465	-0.083
-676.178	302.638	-0.139	-0.257
-675.164	715.689	-0.044	-0.116
-674.149	173.074	-0.096	-0.138
-673.135	419.793	-0.043	0.092
-672.120	-47.512	0.227	0.110
-671.105	83.650	-0.141	0.153
-670.091	536.073	0.074	-0.177
-669.076	339.323	0.054	0.105
-668.062	168.010	0.176	-0.251
-667.047	-26.054	0.041	0.024
-666.032	-200.000	0.013	-0.170
-665.018	56.436	-0.286	-0.278
-664.003	225.616	0.177	0.286
-662.989	-63.953	-0.274	0.112
-661.974	47.236	0.074	-0.069
-660.959	-95.843	-0.214	0.057
-659.945	-74.353	0.191	0.069
-658.930	614.135	-0.119	-0.299
-657.916	139.246	-0.133	-0.175
-656.901	-98.235	-0.080	0.021
-655.886	-200.000	0.042	-0.390
-654.872	616.409	0.053	0.133
-653.857	-200.000	0.015	0.720
-652.843	233.355	-0.153	-0.251
-651.828	-52.191	-0.405	-0.188
-650.814	336.709	0.163	0.316
-649.799	3.875	0.316	-0.230
-648.784	-80.726	-0.170	-0.057
-647.770	182.427	-0.014	-0.021
-646.755	58.010	-0.131	0.128
-645.741	800.000	-0.058	0.193
-644.726	562.450	-0.042	0.101
-643.711	-187.774	-0.025	-0.000
-642.697	153.251	-0.152	-0.207
-641.682	-170.300	0.121	0.004
-640.668	17.657	-0.015	0.012
-639.653	-200.000	0.002	-0.043
-638.638	-94.758	0.047	-0.013
-637.624	-108.636	-0.264	0.056
-636.609	800.000	0.060	-0.253
-635.595	176.607	-0.319	-0.463
-634.580	-140.914	0.236	-0.024
-633.565	-200.000	-0.061	0.000
-632.551	800.000	0.027	0.091
-631.536	98.465	0.173	-0.200
-630.522	800.000	-0.069	-0.199
-629.507	-200.000	0.007	-0.345
-628.492	429.492	0.079	-0.170
-627.478	-8.576	-0.090	0.060
-626.463	-200.000	0.036	-0.261
-625.449	118.886	-0.100	0.124
-624.434	-41.444	0.135	-0.069
-623.419	-124.713	-0.130	0.020
-622.405	-104.666	0.154	-0.035
-621.390	800.000	-0.098	-0.287
-620.376	800.000	0.064	-0.259
-619.361	800.000	-0.040	0.158
-618.346	115.955	-0.115	-0.141
-617.332	144.506	0.056	0.075
-616.317	-200.000	-0.058	0.327
-615.303	17.607	-0.164	-0.130
-614.288	800.000	-0.100	0.354
-613.273	16.981	-0.206	0.163
-612.259	800.000	-0.040	0.142
-611.244	800.000	-0.111	-0.362
-610.230	800.000	0.045	-0.138
-609.215	624.801	-0.162	-0.406
-608.201	37.227	-0.091	-0.080
-607.186	800.000	-0.141	-0.403
-606.171	-200.000	-0.002	-0.377
-605.157	-99.871	0.212	0.053
-604.142	112.103	-0.142	-0.171
-603.128	-57.498	-0.277	-0.121
-602.113	181.350	-0.003	0.005
-601.098	180.214	0.096	0.140
-600.084	117.641	-0.115	-0.142
-599.069	-200.000	-0.240	-0.001
-598.055	-38.422	-0.084	0.044
-597.040	-69.629	-0.023	-0.009
-596.025	-176.294	0.168	-0.004
-595.011	-102.551	-0.161	-0.038
-593.996	-156.151	-0.174	0.011
-592.982	-156.054	0.057	-0.004
-591.967	-200.000	-0.030	0.248
-590.952	-200.000	0.007	0.152
-589.938	-200.000	0.021	0.147
-588.923	11.600	0.123	-0.094
-587.909	61.423	0.075	0.074
-586.894	-38.455	0.081	0.043
-585.879	-37.090	-0.151	0.080
-584.865	-95.061	0.164	-0.044
-583.850	-200.000	0.015	0.129
-582.836	-200.000	0.045	-0.209
-581.821	-175.493	-0.260	-0.007
-580.806	240.958	0.102	0.169
-579.792	179.197	0.171	0.249
-578.777	285.983	-0.157	0.282
-577.763	800.000	-0.092	-0.267
-576.748	-57.626	-0.314	0.137
-575.733	195.317	-0.093	0.140
-574.719	139.595	-0.096	0.125
-573.704	-200.000	0.010	0.165
-572.690	165.301	0.196	0.275
-571.675	51.658	-0.166	0.157
-570.661	43.839	0.332	0.303
-569.646	-68.384	-0.203	-0.079
-568.631	-15.971	0.218	-0.138
-567.617	800.000	-0.125	-0.456
-566.602	-5.993	-0.338	0.230
-565.588	-78.417	-0.111	0.038
-564.573	-145.901	-0.207	-0.018
-563.558	-44.017	0.256	-0.128
-562.544	-200.000	-0.017	0.168
-561.529	-12.975	-0.118	0.076
-560.515	128.465	0.038	-0.049
-559.500	-200.000	-0.005	-0.203
-558.485	505.958	0.117	-0.271
-557.471	382.571	-0.015	0.032
-556.456	-9.376	0.110	-0.073
-555.442	800.000	0.091	-0.388
-554.427	-129.902	0.132	-0.018
-553.412	-200.000	-0.020	0.101
-552.398	-99.972	-0.177	0.044
-551.383	-200.000	-0.009	0.142
-550.369	800.000	0.043	0.141
-549.354	111.343	-0.180	0.216
-548.339	48.371	0.054	-0.050
-547.325	-200.000	-0.016	0.095
-546.310	-200.000	-0.037	-0.276
-545.296	-200.000	-0.020	-0.267
-544.281	48.801	0.142	-0.132
-543.266	193.844	0.114	-0.172
-542.252	669.199	0.141	-0.362
-541.237	133.861	-0.078	-0.101
-540.223	800.000	-0.022	0.069
-539.208	-4.482	0.154	-0.106
-538.193	137.432	-0.281	-0.366
-537.179	292.785	0.119	-0.216
-536.164	102.920	0.175	-0.204
-535.150	-200.000	-0.012	-0.128
-534.135	-41.475	0.371	-0.190
-533.121	-52.061	-0.186	-0.086
-532.106	35.878	-0.201	-0.176
-531.091	-82.997	0.130	-0.042
-530.077	-90.187	0.218	-0.063
-529.062	199.777	-0.106	0.161
-528.048	153.166	-0.101	0.137
-527.033	-62.990	-0.293	-0.120
-526.018	-102.166	0.578	0.138
-525.004	-0.429	-0.087	-0.062
-523.989	-9.736	0.167	-0.111
-522.975	-37.620	-0.303	0.160
-521.960	-22.029	0.095	-0.057
-520.945	-111.495	0.308	-0.062
-519.931	213.848	-0.225	-0.354
-518.916	-150.540	-0.069	0.005
-517.902	-164.828	0.192	0.009
-516.887	163.906	0.254	0.356
-515.872	729.678	0.104	0.276
-514.858	678.865	0.012	0.032
-513.843	-105.142	-0.144	0.033
-512.829	-200.000	0.012	0.244
-511.814	-199.174	0.341	-0.002
-510.799	-19.653	0.160	0.098
-509.785	800.000	0.182	0.498
-508.770	-200.000	0.029	-0.271
-507.756	800.000	-0.049	0.140
-506.741	-152.350	-0.136	-0.010
-505.726	-72.055	0.180	0.067
-504.712	-200.000	0.038	0.225
-503.697	66.168	0.200	-0.201
-502.683	800.000	0.077	-0.289
-501.668	-200.000	-0.043	-0.201
-500.653	211.283	-0.047	-0.073
-499.639	-200.000	-0.058	-0.470
-498.624	-120.756	0.337	-0.056
-497.610	340.750	-0.046	0.089
-496.595	14.870	-0.136	-0.106
-495.581	-104.027	-0.062	-0.014
-494.566	-31.891	-0.360	0.200
-493.551	-159.445	0.003	-0.000
-492.537	-46.171	-0.341	-0.166
-491.522	-94.736	-0.211	-0.057
-490.508	-18.229	0.201	0.125
-489.493	6.533	0.158	0.117
-488.478	-141.245	0.126	0.013
-487.464	113.805	0.207	-0.250
-486.449	249.870	0.068	0.114
-485.435	10.301	-0.152	0.114
-484.420	-135.343	0.202	-0.024
-483.405	646.509	0.078	-0.197
-482.391	738.284	0.040	0.106
-481.376	-48.406	0.214	0.102
-480.362	100.316	-0.044	0.050
-479.347	800.000	-0.103	0.302
-478.332	-112.817	0.252	-0.050
-477.318	-78.472	0.131	0.045
-476.303	800.000	-0.079	0.253
-475.289	-73.865	-0.286	0.103
-474.274	519.575	0.053	0.122
-473.259	180.928	-0.020	-0.029
-472.245	-28.066	0.247	-0.142
-471.230	-200.000	-0.003	-0.180
-470.216	-124.068	-0.237	-0.037
-469.201	-200.000	0.008	-0.121
-468.186	-43.848	-0.163	0.081
-467.172	331.792	-0.054	-0.104
-466.157	-11.268	0.121	0.079
-465.143	-183.902	0.100	-0.002
-464.128	197.182	-0.077	-0.116
-463.113	800.000	-0.076	0.210
-462.099	-200.000	0.019	-0.146
-461.084	-200.000	-0.034	0.199
-460.070	304.000	0.033	-0.061
-459.055	95.768	0.072	0.081
-458.040	359.310	-0.027	0.053
-457.026	2.170	0.132	-0.094
-456.011	-23.578	-0.092	-0.055
-454.997	-133.024	-0.241	0.030
-453.982	702.752	0.072	0.189
-452.968	365.000	-0.071	0.143
-451.953	-200.000	0.025	-0.281
-450.938	-6.796	0.175	0.118
-449.924	-200.000	0.013	0.123
-448.909	272.662	0.140	-0.246
-447.895	91.564	-0.087	-0.097
-446.880	231.103	0.112	-0.182
-445.865	79.770	0.215	0.229
-444.851	-200.000	-0.039	0.597
-443.836	82.718	-0.139	-0.149
-442.822	800.000	0.028	-0.085
-441.807	155.052	0.047	-0.064
-440.792	-84.858	0.228	0.071
-439.778	37.304	0.179	-0.157
-438.763	-200.000	0.010	-0.370
-437.749	-187.345	-0.317	0.004
-436.734	208.358	0.224	0.347
-435.719	197.922	0.197	-0.299
-434.705	78.176	-0.217	-0.229
-433.690	-68.643	0.211	-0.081
-432.676	-41.954	0.205	0.104
-431.661	104.503	-0.222	-0.259
-430.646	-31.075	-0.200	-0.112
-429.632	129.985	-0.176	-0.223
-428.617	-200.000	0.055	0.242
-427.603	-200.000	-0.043	0.301
-426.588	-8.289	0.259	-0.172
-425.573	-87.357	0.190	0.057
-424.559	800.000	0.151	0.499
-423.544	-134.382	-0.404	0.049
-422.530	-76.787	0.103	-0.036
-421.515	272.830	0.097	0.170
-420.500	432.950	0.076	0.163
-419.486	-200.000	0.003	0.073
-418.471	289.004	-0.067	-0.120
-417.457	-200.000	0.070	0.350
-416.442	-200.000	0.003	0.182
-415.428	-65.138	0.203	0.081
-414.413	508.594	-0.101	-0.232
-413.398	800.000	0.039	-0.110
-412.384	-200.000	-0.031	-0.151
-411.369	432.994	-0.025	-0.053
-410.355	-108.033	0.036	0.008
-409.340	-200.000	0.030	0.404
-408.325	800.000	-0.054	-0.159
-407.311	-84.813	0.323	0.100
-406.296	186.754	-0.227	0.334
-405.282	-200.000	-0.003	0.186
-404.267	312.110	0.061	0.112
-403.252	331.565	-0.107	-0.204
-402.238	218.284	-0.277	0.438
-401.223	-98.594	0.174	0.044
-400.209	93.996	0.112	0.125
-399.194	101.302	-0.320	-0.369
-398.179	-76.036	0.271	0.095
-397.165	-200.000	0.043	-0.222
-396.150	-148.107	-0.233	0.019
-395.136	-166.706	-0.245	0.010
-394.121	6.962	0.429	-0.316
-393.106	35.856	-0.177	-0.154
-392.092	69.475	-0.215	-0.219
-391.077	-3.415	0.062	0.043
-390.063	-140.171	0.093	0.010
-389.048	800.000	-0.062	-0.173
-388.033	-13.091	-0.216	0.139
-387.019	800.000	0.043	0.185
-386.004	-200.000	-0.006	0.146
-384.990	-200.000	-0.020	0.238
-383.975	32.557	0.201	0.172
-382.960	-76.274	0.199	-0.069
-381.946	-72.530	-0.311	-0.114
-380.931	-170.057	-0.521	0.018
-379.917	-200.000	-0.042	-0.205
-378.902	-14.310	-0.056	0.036
-377.888	134.179	0.152	0.195
-376.873	267.943	-0.093	0.160
-375.858	-21.316	-0.151	-0.091
-374.844	-116.171	0.314	0.058
-373.829	800.000	0.041	-0.156
-372.815	-200.000	-0.011	-0.242
-371.800	-35.881	0.114	-0.061
-370.785	-85.685	-0.142	-0.044
-369.771	68.937	0.046	0.047
-368.756	-51.432	-0.108	-0.050
-367.742	-200.000	-0.043	0.198
-366.727	577.388	-0.035	0.085
-365.712	-96.801	0.151	0.039
-364.698	800.000	-0.046	0.137
-363.683	-1.706	-0.223	0.155
-362.669	-200.000	0.019	-0.093
-361.654	102.105	0.190	0.219
-360.639	-52.946	-0.351	0.159
-359.625	800.000	-0.021	0.072
-358.610	46.793	-0.132	0.121
-357.596	134.246	0.259	0.331
-356.581	-139.488	-0.408	0.043
-355.566	-200.000	0.036	-0.232
-354.552	3.343	-0.303	0.218
-353.537	-61.075	0.139	0.058
-352.523	6.833	-0.134	0.099
-351.508	800.000	-0.043	0.141
-350.493	-200.000	-0.057	-0.445
-349.479	-55.796	0.295	0.130
-348.464	488.471	0.093	0.210
-347.450	-200.000	0.022	0.211
-346.435	-99.345	0.280	0.070
-345.420	-88.655	0.184	-0.054
-344.406	-115.011	-0.400	-0.075
-343.391	18.222	-0.278	0.219
-342.377	-47.897	0.217	0.104
-341.362	-200.000	0.004	0.209
-340.348	-80.452	0.056	0.018
-339.333	394.453	-0.053	0.108
-338.318	218.648	-0.288	-0.453
-337.304	-48.846	0.312	-0.148
-336.289	800.000	0.032	-0.094
-335.275	357.259	-0.092	0.181
-334.260	-52.819	0.201	0.092
-333.245	56.933	-0.135	0.130
-332.231	93.627	-0.075	-0.084
-331.216	-200.000	-0.021	0.140
-330.202	202.705	0.115	-0.175
-329.187	152.826	-0.158	-0.213
-328.172	-118.087	-0.105	0.018
-327.158	-200.000	0.045	0.392
-326.143	344.173	0.108	0.209
-325.129	282.145	0.079	-0.140
-324.114	65.350	0.103	0.102
-323.099	-102.018	0.186	0.044
-322.085	-45.695	0.115	-0.056
-321.070	105.864	0.150	-0.176
-320.056	-14.395	0.242	0.154
-319.041	800.000	0.028	-0.092
-318.026	0.933	0.188	0.133
-317.012	592.085	-0.136	0.331
-315.997	181.033	0.051	-0.074
-314.983	-200.000	-0.072	-0.406
-313.968	-200.000	-0.068	-0.434
-312.953	-117.579	-0.256	-0.046
-311.939	156.441	0.092	-0.125
-310.924	66.705	0.182	0.183
-309.910	-97.955	0.085	-0.022
-308.895	800.000	-0.071	-0.289
-307.880	800.000	-0.051	-0.171
-306.866	-200.000	-0.020	-0.229
-305.851	116.202	0.254	0.307
-304.837	-92.360	0.234	-0.065
-303.822	-200.000	-0.011	0.311
-302.807	-31.298	0.483	-0.268
-301.793	-159.074	0.244	0.014
-300.778	65.510	0.051	-0.051
-299.764	-165.532	-0.185	-0.008
-298.749	800.000	-0.017	0.054
-297.735	17.695	0.310	0.243
-296.720	474.711	0.089	0.197
-295.705	-85.545	-0.093	0.028
-294.691	-138.923	0.122	-0.013
-293.676	-61.610	0.140	-0.058
-292.662	182.978	-0.199	0.290
-291.647	-163.225	0.309	0.015
-290.632	-51.098	-0.400	-0.185
-289.618	253.736	0.156	0.263
-288.603	84.625	0.165	0.177
-287.589	487.687	0.190	0.428
-286.574	-118.211	-0.041	-0.007
-285.559	34.675	0.108	-0.093
-284.545	76.472	0.080	0.084
-283.530	-24.073	0.200	0.118
-282.516	800.000	-0.033	0.115
-281.501	-43.629	-0.255	0.127
-280.486	160.227	-0.057	0.079
-279.472	-25.350	-0.068	-0.039
-278.457	134.932	0.206	0.264
-277.443	232.682	0.146	0.237
-276.428	726.639	-0.173	-0.453
-275.413	-159.059	-0.244	0.014
-274.399	2.186	0.065	-0.046
-273.384	207.417	0.275	-0.422
-272.370	115.748	0.115	0.138
-271.355	-111.234	-0.322	0.065
-270.340	112.277	0.098	0.117
-269.326	-52.385	-0.203	-0.093
-268.311	-22.601	-0.107	0.063
-267.297	155.685	0.091	0.123
-266.282	-162.430	-0.173	0.008
-265.267	3.689	-0.135	0.097
-264.253	293.632	0.073	0.131
-263.238	-170.148	-0.300	0.010
-262.224	-135.208	-0.283	-0.033
-261.209	-200.000	-0.011	0.165
-260.195	83.065	0.134	0.144
-259.180	-44.487	0.151	0.075
-258.165	-34.218	0.401	-0.217
-257.151	624.939	-0.096	-0.239
-256.136	233.910	-0.075	-0.121
-255.122	55.863	0.362	-0.345
-254.107	540.102	-0.090	-0.210
-253.092	10.948	-0.254	0.191
-252.078	734.867	0.020	-0.052
-251.063	-66.902	-0.183	-0.071
-250.049	800.000	-0.096	0.326
-249.034	37.023	-0.268	0.233
-248.019	-200.000	0.011	0.163
-247.005	-35.523	0.291	-0.155
-245.990	-82.776	-0.005	0.002
-244.976	71.551	0.031	0.031
-243.961	160.766	-0.129	-0.177
-242.946	-200.000	0.081	0.572
-241.932	-200.000	-0.015	0.285
-240.917	632.137	-0.133	0.331
-239.903	-144.980	0.186	-0.017
-238.888	-200.000	0.059	0.358
-237.873	-200.000	-0.004	0.076
-236.859	323.073	-0.011	0.020
-235.844	-200.000	-0.133	-0.603
-234.830	-78.834	0.303	-0.101
-233.815	-53.757	-0.234	-0.105
-232.800	-45.186	0.205	-0.100
-231.786	-200.000	0.020	-0.115
-230.771	-35.976	-0.107	0.057
-229.757	256.456	-0.210	-0.354
-228.742	800.000	-0.011	0.048
-227.727	-200.000	0.035	0.158
-226.713	451.501	0.065	0.140
-225.698	-59.402	-0.187	0.079
-224.684	28.832	0.196	-0.163
-223.669	-115.315	-0.379	0.070
-222.655	201.555	-0.214	-0.323
-221.640	43.295	-0.229	-0.205
-220.625	-54.146	0.230	0.103
-219.611	36.951	-0.202	0.176
-218.596	9.299	0.351	-0.261
-217.582	200.921	0.076	-0.115
-216.567	-60.323	0.221	0.092
-215.552	-200.000	0.002	-0.033
-214.538	800.000	-0.087	-0.264
-213.523	-89.165	-0.097	0.028
-212.509	-67.030	0.049	0.019
-211.494	-40.272	-0.338	0.173
-210.479	-140.356	-0.237	0.024
-209.465	-162.191	-0.143	-0.007
-208.450	-200.000	0.001	0.277
-207.436	53.599	0.169	-0.159
-206.421	-83.667	-0.341	-0.107
-205.406	-80.182	-0.463	-0.152
-204.392	-104.470	0.190	-0.043
-203.377	119.914	0.188	0.229
-202.363	-41.211	0.140	0.071
-201.348	154.558	-0.054	-0.073
-200.333	-181.457	0.521	-0.010
-199.319	-83.773	0.169	-0.053
-198.304	-60.069	-0.356	-0.149
-197.290	-200.000	-0.072	0.383
-196.275	-200.000	0.039	-0.193
-195.260	800.000	0.107	0.310
-194.246	2.389	-0.124	0.088
-193.231	-87.475	-0.180	-0.053
-192.217	-51.970	0.534	0.243
-191.202	-200.000	0.031	-0.153
-190.187	-113.467	0.071	-0.014
-189.173	-15.647	-0.086	0.054
-188.158	-179.134	-0.470	-0.010
-187.144	182.578	0.135	0.195
-186.129	-24.533	-0.079	-0.046
-185.114	245.816	0.101	-0.166
-184.100	11.069	-0.232	0.174
-183.085	101.533	-0.239	0.274
-182.071	37.541	-0.214	-0.186
-181.056	-128.751	-0.173	-0.024
-180.042	-114.828	0.123	-0.023
-179.027	-0.652	-0.219	-0.152
-178.012	800.000	-0.050	-0.160
-176.998	291.527	0.061	0.109
-175.983	32.085	0.172	0.146
-174.969	32.900	-0.318	0.270
-173.954	31.593	0.220	0.185
-172.939	-200.000	0.093	-0.423
-171.925	800.000	-0.077	-0.267
-170.910	-62.393	-0.164	-0.067
-169.896	-14.315	-0.086	-0.055
-168.881	202.401	-0.131	0.198
-167.866	56.257	0.219	0.209
-166.852	-200.000	-0.033	-0.238
-165.837	174.961	-0.164	0.232
-164.823	62.036	-0.241	0.236
-163.808	151.737	0.211	0.282
-162.793	-68.777	0.270	-0.102
-161.779	172.649	-0.131	0.185
-160.764	-83.263	0.265	0.083
-159.750	281.143	0.155	-0.272
-158.735	661.064	-0.119	-0.300
-157.720	100.942	0.273	-0.311
-156.706	-70.059	0.182	0.068
-155.691	-71.468	-0.287	-0.105
-154.677	236.846	0.041	-0.067
-153.662	54.774	0.183	-0.173
-152.647	-200.000	0.001	-0.322
-151.633	361.096	0.135	-0.266
-150.618	-200.000	-0.061	-0.271
-149.604	-140.002	0.229	0.024
-148.589	267.264	0.067	-0.114
-147.574	761.986	-0.139	0.369
-146.560	732.446	0.072	-0.189
-145.545	-104.864	0.209	-0.047
-144.531	-128.753	-0.170	-0.023
-143.516	37.880	-0.182	0.159
-142.502	800.000	-0.122	0.467
-141.487	800.000	-0.073	0.259
-140.472	-200.000	0.079	-0.344
-139.458	27.969	0.167	-0.138
-138.443	-41.229	-0.277	-0.140
-137.429	222.030	0.245	0.386
-136.414	417.494	-0.232	-0.484
-135.399	800.000	-0.055	-0.172
-134.385	-200.000	-0.021	0.142
-133.370	-200.000	0.015	-0.352
-132.356	223.499	-0.083	-0.131
-131.341	-200.000	0.035	-0.360
-130.326	800.000	0.091	-0.289
-129.312	-200.000	0.010	-0.399
-128.297	-153.105	-0.090	0.006
-127.283	-5.593	-0.217	-0.145
-126.268	-158.697	0.081	0.005
-125.253	-28.758	0.162	-0.091
-124.239	-128.109	0.166	0.023
-123.224	800.000	0.064	0.238
-122.210	-155.902	0.284	-0.018
