DTS Sentinel unit serial number:	SN413079Multiplexer serial number:	ORYXHardware model number:	OX4-SRSoftware version number:	ORYX F/W v4.00 Oryx Data Collector v3.7.2.0data status	okinstallation	princeton_trtdifferential loss correction	single-endedforward channel	channel 1reverse channel	N/Adate	2019/09/16time	14:42:35forward acquisition time	60.00reverse acquisition time	0.00gamma	496.2192k internal	0.2294k external	0.2294temperature offset calibration	0.9953default loss term (dB/km)	0.3790temperature slope calibration	1.0000multiplexer offset coefficient	1.0000multiplexer slope coefficient	1.0000fibre end	0.00T internal ref (°C)	41.62T ext. ref 1 (°C)	14.32T ext. ref 2 (°C)	35.79length (m)	temperature (°C)	Stokes	anti-Stokes-747.200	34.584	0.136	-0.121
-746.185	45.743	-0.202	0.191
-745.171	-100.862	-0.223	0.056
-744.156	-93.657	0.199	-0.056
-743.142	512.349	-0.066	-0.158
-742.127	-200.000	-0.041	0.257
-741.112	446.528	0.076	0.170
-740.098	800.000	0.030	0.088
-739.083	-9.203	-0.174	-0.119
-738.069	-200.000	0.014	-0.066
-737.054	13.239	-0.189	0.149
-736.039	800.000	0.058	-0.234
-735.025	15.454	-0.086	-0.069
-734.010	-139.042	0.209	-0.023
-732.996	-200.000	-0.023	-0.316
-731.981	-11.323	-0.276	0.186
-730.966	800.000	0.069	-0.279
-729.952	-184.349	-0.058	-0.001
-728.937	123.208	0.134	-0.172
-727.923	800.000	-0.070	-0.270
-726.908	-108.921	-0.114	-0.025
-725.894	-107.356	-0.492	-0.110
-724.879	14.008	0.265	0.211
-723.864	171.649	-0.057	-0.084
-722.850	-200.000	-0.014	-0.073
-721.835	-200.000	0.002	0.288
-720.821	-127.390	-0.077	0.011
-719.806	362.725	-0.022	-0.046
-718.791	800.000	0.022	-0.071
-717.777	-29.904	-0.232	-0.135
-716.762	-99.119	-0.150	-0.039
-715.748	23.045	-0.273	-0.229
-714.733	-75.844	-0.045	-0.016
-713.718	632.764	0.135	0.349
-712.704	-146.683	0.082	-0.007
-711.689	5.977	0.195	-0.147
-710.675	-124.306	0.219	-0.035
-709.660	-121.770	0.225	0.038
-708.645	-200.000	0.005	0.188
-707.631	-200.000	0.005	0.272
-706.616	-200.000	-0.055	0.323
-705.602	-127.204	0.172	0.026
-704.587	22.729	-0.256	-0.214
-703.572	364.764	0.057	0.116
-702.558	-200.000	-0.015	0.247
-701.543	639.648	-0.037	0.097
-700.529	-140.915	0.101	0.011
-699.514	800.000	0.082	-0.341
-698.499	29.940	-0.341	-0.297
-697.485	37.243	0.047	-0.042
-696.470	-72.600	-0.480	0.181
-695.456	95.593	0.059	0.069
-694.441	-159.647	0.542	0.031
-693.426	-200.000	0.021	-0.182
-692.412	800.000	-0.029	-0.090
-691.397	-200.000	0.006	0.026
-690.383	42.287	-0.201	-0.186
-689.368	-116.368	-0.417	-0.079
-688.354	-200.000	0.005	-0.232
-687.339	-50.542	0.094	0.045
-686.324	722.846	-0.036	0.098
-685.310	-8.829	-0.036	0.024
-684.295	-128.228	0.191	0.028
-683.281	603.302	-0.014	0.035
-682.266	-176.069	-0.243	0.007
-681.251	-200.000	-0.039	-0.209
-680.237	58.117	0.047	-0.047
-679.222	-53.696	-0.097	0.045
-678.208	-129.811	0.369	-0.052
-677.193	-200.000	0.009	0.252
-676.178	172.002	0.112	0.164
-675.164	63.479	-0.184	-0.189
-674.149	-200.000	-0.009	-0.085
-673.135	-78.632	0.136	-0.047
-672.120	-38.013	0.210	-0.114
-671.105	-37.591	-0.018	0.010
-670.091	-137.951	0.399	0.045
-669.076	-139.685	0.220	-0.024
-668.062	-56.709	0.096	-0.044
-667.047	-200.000	-0.011	-0.382
-666.032	49.604	0.248	-0.238
-665.018	619.229	-0.026	0.068
-664.003	-200.000	0.011	0.218
-662.989	-54.685	0.195	-0.090
-661.974	-108.413	0.083	0.018
-660.959	800.000	0.042	0.173
-659.945	800.000	-0.018	-0.076
-658.930	-200.000	0.024	-0.384
-657.916	-200.000	-0.035	0.258
-656.901	-40.277	-0.144	-0.076
-655.886	800.000	0.045	0.186
-654.872	-61.873	0.152	0.065
-653.857	800.000	-0.058	0.244
-652.843	166.923	-0.212	-0.307
-651.828	-46.291	0.204	0.102
-650.814	-200.000	-0.007	-0.073
-649.799	-200.000	0.008	-0.237
-648.784	-56.510	-0.050	-0.023
-647.770	800.000	-0.093	-0.326
-646.755	800.000	-0.011	0.042
-645.741	-152.350	-0.231	-0.017
-644.726	800.000	-0.096	0.303
-643.711	-127.997	-0.335	0.049
-642.697	800.000	0.071	0.220
-641.682	-200.000	0.038	-0.332
-640.668	-151.888	0.459	0.034
-639.653	-55.813	-0.235	-0.107
-638.638	-87.478	-0.294	-0.091
-637.624	-117.905	-0.206	0.038
-636.609	-131.521	-0.439	0.059
-635.595	261.533	0.040	-0.070
-634.580	177.890	0.025	0.038
-633.565	-49.649	-0.124	0.060
-632.551	-108.426	-0.252	-0.055
-631.536	-182.095	-0.325	-0.006
-630.522	800.000	0.040	-0.136
-629.507	-89.328	0.327	0.098
-628.492	-70.801	0.207	-0.079
-627.478	52.861	0.170	0.165
-626.463	160.371	-0.235	0.333
-625.449	-166.580	0.158	0.007
-624.434	800.000	0.019	-0.068
-623.419	441.682	0.077	0.171
-622.405	-68.090	0.333	0.132
-621.390	-200.000	0.008	-0.063
-620.376	-200.000	0.001	0.175
-619.361	-108.544	0.086	-0.019
-618.346	-103.271	-0.140	0.034
-617.332	-200.000	0.016	-0.273
-616.317	91.390	-0.204	-0.233
-615.303	-112.040	-0.104	0.021
-614.288	800.000	-0.106	-0.459
-613.273	-115.297	0.141	-0.027
-612.259	-200.000	0.013	-0.096
-611.244	794.949	-0.079	-0.220
-610.230	246.404	-0.133	-0.228
-609.215	358.338	-0.019	-0.039
-608.201	-59.029	-0.084	0.037
-607.186	229.098	-0.042	-0.070
-606.171	126.367	-0.076	0.097
-605.157	198.543	0.062	-0.097
-604.142	-98.647	-0.350	0.091
-603.128	800.000	-0.067	-0.284
-602.113	391.560	-0.043	0.091
-601.098	-200.000	0.007	-0.151
-600.084	800.000	0.067	0.231
-599.069	79.150	0.185	-0.202
-598.055	395.500	0.102	0.215
-597.040	-94.851	-0.291	0.080
-596.025	306.501	-0.107	0.203
-595.011	-37.274	-0.024	-0.013
-593.996	-125.962	-0.166	0.025
-592.982	-200.000	-0.029	0.145
-591.967	-99.969	0.530	0.134
-590.952	-200.000	0.003	-0.217
-589.938	800.000	0.032	-0.123
-588.923	-85.188	0.113	-0.036
-587.909	-200.000	-0.024	0.139
-586.894	411.237	-0.046	0.100
-585.879	26.803	-0.067	0.057
-584.865	590.391	-0.118	0.297
-583.850	24.094	-0.283	0.237
-582.836	738.855	-0.024	-0.065
-581.821	-200.000	0.006	0.072
-580.806	-29.010	0.332	-0.194
-579.792	-18.884	-0.127	0.080
-578.777	-31.022	-0.097	-0.056
-577.763	6.265	0.040	-0.031
-576.748	6.817	0.122	-0.092
-575.733	-39.072	-0.279	-0.149
-574.719	-200.000	-0.014	0.098
-573.704	-61.900	0.485	-0.206
-572.690	-12.075	0.116	0.077
-571.675	272.459	0.069	0.123
-570.661	244.507	-0.116	-0.198
-569.646	-59.515	-0.234	-0.102
-568.631	151.574	-0.153	0.211
-567.617	468.179	0.115	0.262
-566.602	48.336	0.136	0.129
-565.588	-58.059	0.104	-0.046
-564.573	-137.106	0.131	-0.015
-563.558	226.898	-0.050	-0.083
-562.544	800.000	0.129	0.370
-561.529	800.000	0.106	-0.330
-560.515	-110.313	-0.194	-0.041
-559.500	-122.422	-0.059	-0.010
-558.485	53.097	0.118	-0.115
-557.471	206.775	-0.063	-0.100
-556.456	31.474	-0.155	-0.135
-555.442	-200.000	-0.015	-0.183
-554.427	-32.162	-0.288	0.164
-553.412	167.872	-0.173	0.249
-552.398	-55.231	0.281	-0.128
-551.383	-38.611	-0.095	0.051
-550.369	232.780	0.126	-0.211
-549.354	800.000	-0.072	0.234
-548.339	-200.000	-0.002	0.117
-547.325	66.241	-0.058	0.060
-546.310	-152.888	0.174	-0.012
-545.296	241.326	-0.069	0.117
-544.281	800.000	-0.099	0.309
-543.266	-20.871	-0.401	0.249
-542.252	-200.000	-0.016	-0.082
-541.237	800.000	-0.041	-0.156
-540.223	-42.410	0.156	0.081
-539.208	44.647	0.135	-0.126
-538.193	-146.533	0.141	0.012
-537.179	-51.049	-0.150	0.072
-536.164	-200.000	-0.029	-0.183
-535.150	-31.629	-0.101	0.057
-534.135	-31.522	-0.156	0.089
-533.121	-141.223	-0.333	-0.034
-532.106	800.000	-0.054	-0.153
-531.091	266.550	-0.128	-0.227
-530.077	-7.744	0.223	-0.153
-529.062	800.000	0.059	-0.213
-528.048	156.330	-0.015	0.021
-527.033	-192.714	-0.073	-0.001
-526.018	-62.416	0.090	0.038
-525.004	-200.000	-0.040	0.346
-523.989	-116.267	0.305	0.057
-522.975	90.775	0.112	-0.127
-521.960	111.902	-0.146	-0.179
-520.945	-142.516	-0.190	0.019
-519.931	102.887	0.133	0.158
-518.916	800.000	-0.090	0.319
-517.902	-78.284	-0.318	-0.111
-516.887	-18.681	0.184	0.116
-515.872	800.000	0.025	-0.099
-514.858	26.220	0.149	-0.126
-513.843	-132.088	-0.353	-0.046
-512.829	-15.676	0.259	0.168
-511.814	-121.624	-0.182	-0.031
-510.799	-81.794	0.161	-0.053
-509.785	-60.715	0.331	-0.142
-508.770	477.385	-0.137	-0.314
-507.756	-200.000	-0.015	-0.200
-506.741	-200.000	0.032	0.295
-505.726	318.362	-0.090	-0.172
-504.712	96.872	-0.088	0.103
-503.697	-109.292	0.066	0.014
-502.683	71.469	0.234	0.246
-501.668	-121.074	0.187	-0.032
-500.653	-104.635	0.175	-0.041
-499.639	-107.933	0.190	-0.042
-498.624	-143.746	-0.171	0.016
-497.610	-200.000	0.071	0.359
-496.595	206.025	0.106	-0.167
-495.581	-149.204	-0.057	-0.005
-494.566	-116.211	-0.207	0.039
-493.551	-200.000	0.017	0.272
-492.537	250.453	-0.141	0.242
-491.522	-66.246	0.256	0.103
-490.508	-200.000	-0.002	0.287
-489.493	-200.000	-0.192	0.000
-488.478	184.127	-0.079	-0.119
-487.464	-15.000	0.132	0.086
-486.449	-200.000	0.013	-0.080
-485.435	-29.479	0.066	-0.038
-484.420	-200.000	-0.042	-0.305
-483.405	110.952	-0.023	0.028
-482.391	-200.000	0.045	0.304
-481.376	12.934	0.146	0.114
-480.362	-26.545	-0.038	0.022
-479.347	600.663	0.042	0.105
-478.332	-110.270	0.263	0.055
-477.318	457.425	-0.048	-0.108
-476.303	-200.000	0.009	0.221
-475.289	-200.000	-0.030	-0.224
-474.274	-200.000	-0.039	-0.210
-473.259	-157.996	-0.045	0.003
-472.245	-55.042	-0.174	0.079
-471.230	17.133	-0.056	0.045
-470.216	-200.000	0.033	-0.321
-469.201	-122.736	-0.188	0.031
-468.186	317.492	-0.067	-0.129
-467.172	788.750	0.090	-0.250
-466.157	-124.299	0.130	0.021
-465.143	-152.341	0.377	-0.027
-464.128	114.789	0.140	-0.173
-463.113	-81.114	-0.091	0.031
-462.099	-178.602	-0.061	-0.001
-461.084	-138.696	-0.281	0.031
-460.070	800.000	0.028	-0.107
-459.055	322.249	-0.150	0.289
-458.040	10.410	0.268	0.207
-457.026	-2.509	-0.174	-0.123
-456.011	-200.000	0.091	-0.405
-454.997	-1.483	0.103	-0.073
-453.982	1.106	0.138	0.100
-452.968	-134.381	0.049	-0.006
-451.953	79.277	0.230	0.249
-450.938	26.478	-0.171	0.145
-449.924	800.000	-0.054	-0.205
-448.909	-157.416	0.120	0.007
-447.895	-103.280	0.185	-0.044
-446.880	-122.283	0.273	-0.045
-445.865	-200.000	0.022	0.209
-444.851	237.621	-0.225	0.378
-443.836	-200.000	-0.024	-0.280
-442.822	404.724	0.108	0.231
-441.807	-200.000	0.032	-0.211
-440.792	-200.000	0.001	-0.032
-439.778	-200.000	0.005	-0.258
-438.763	668.420	-0.069	-0.180
-437.749	-125.484	0.127	-0.020
-436.734	58.643	-0.175	0.173
-435.719	-44.367	0.234	0.118
-434.705	800.000	0.061	-0.232
-433.690	-41.721	-0.023	-0.012
-432.676	5.634	-0.101	-0.076
-431.661	800.000	-0.040	0.112
-430.646	-200.000	-0.057	-0.296
-429.632	-83.532	-0.196	-0.063
-428.617	182.544	0.054	-0.081
-427.603	-130.911	-0.206	0.028
-426.588	89.844	-0.189	-0.213
-425.573	-62.963	0.089	-0.037
-424.559	-91.563	-0.309	-0.089
-423.544	-13.664	0.308	-0.202
-422.530	800.000	0.063	0.215
-421.515	-180.010	0.134	0.003
-420.500	-103.325	-0.097	0.023
-419.486	-126.048	-0.423	0.064
-418.471	277.695	0.115	0.207
-417.457	800.000	0.062	0.259
-416.442	258.303	0.276	0.480
-415.428	-200.000	-0.013	-0.170
-414.413	800.000	-0.078	0.306
-413.398	-65.658	-0.084	0.034
-412.384	176.878	0.093	-0.137
-411.369	-64.623	-0.256	0.105
-410.355	-22.941	-0.191	0.116
-409.340	-151.531	0.277	0.021
-408.325	63.534	0.249	0.252
-407.311	552.329	0.032	0.077
-406.296	-200.000	0.008	0.122
-405.282	-168.249	0.314	-0.012
-404.267	-29.395	-0.215	0.124
-403.252	-1.725	0.243	0.173
-402.238	-86.367	0.162	-0.050
-401.223	331.121	0.121	-0.236
-400.209	-129.306	-0.196	0.027
-399.194	-63.045	0.331	-0.138
-398.179	286.190	-0.157	-0.285
-397.165	-56.739	0.339	-0.151
-396.150	-90.017	0.189	0.056
-395.136	800.000	0.053	-0.151
-394.121	297.054	-0.026	0.048
-393.106	-200.000	-0.055	-0.286
-392.092	349.753	0.110	-0.219
-391.077	800.000	0.058	0.184
-390.063	-148.639	-0.421	0.035
-389.048	41.049	0.136	0.124
-388.033	-78.776	-0.167	0.057
-387.019	-101.607	-0.267	-0.065
-386.004	-200.000	0.003	-0.062
-384.990	-181.112	0.416	0.008
-383.975	541.341	0.069	-0.166
-382.960	800.000	0.026	0.091
-381.946	502.990	-0.100	-0.233
-380.931	-171.071	-0.328	0.011
-379.917	210.687	-0.145	0.229
-378.902	277.405	-0.148	0.266
-377.888	800.000	-0.102	-0.376
-376.873	89.160	-0.246	-0.277
-375.858	37.195	-0.344	-0.307
-374.844	800.000	0.053	-0.174
-373.829	-200.000	0.037	-0.242
-372.815	-87.049	0.113	0.035
-371.800	800.000	0.085	-0.295
-370.785	-200.000	-0.027	-0.184
-369.771	14.575	-0.110	0.087
-368.756	-200.000	0.010	-0.129
-367.742	30.880	-0.273	0.236
-366.727	-184.977	-0.331	0.005
-365.712	-80.270	-0.242	0.082
-364.698	339.201	-0.095	0.187
-363.683	108.281	0.236	0.283
-362.669	361.777	-0.112	-0.227
-361.654	800.000	-0.111	-0.432
-360.639	-57.268	-0.092	0.041
-359.625	521.008	0.047	-0.110
-358.610	-200.000	-0.014	-0.198
-357.596	21.527	-0.192	-0.157
-356.581	-76.423	0.023	0.008
-355.566	-155.018	0.155	-0.010
-354.552	-198.001	0.135	0.001
-353.537	-139.260	0.127	0.014
-352.523	46.548	0.244	0.228
-351.508	-31.033	0.334	0.190
-350.493	-9.274	0.324	0.218
-349.479	200.808	-0.102	0.158
-348.464	298.263	-0.137	0.253
-347.450	100.754	0.203	0.238
-346.435	-18.607	-0.093	-0.058
-345.420	125.347	0.099	0.126
-344.406	490.098	-0.113	-0.259
-343.391	-5.240	-0.223	0.155
-342.377	-82.894	0.228	0.074
-341.362	800.000	-0.101	0.422
-340.348	16.984	0.118	0.094
-339.333	-61.967	-0.116	0.049
-338.318	9.167	-0.231	0.176
-337.304	-8.427	0.297	-0.201
-336.289	62.566	0.169	0.170
-335.275	-20.139	-0.215	0.134
-334.260	800.000	0.007	-0.025
-333.245	-23.792	0.300	0.181
-332.231	-57.479	0.221	-0.098
-331.216	253.950	0.013	-0.023
-330.202	10.535	0.060	-0.046
-329.187	-141.351	0.265	0.027
-328.172	-200.000	-0.008	-0.295
-327.158	-78.844	-0.284	0.097
-326.143	-200.000	0.071	0.335
-325.129	73.085	0.206	-0.217
-324.114	800.000	0.001	0.003
-323.099	-81.468	-0.161	-0.053
-322.085	-200.000	0.013	-0.290
-321.070	800.000	-0.087	-0.270
-320.056	357.671	0.084	0.169
-319.041	138.944	0.073	-0.096
-318.026	-13.727	-0.383	-0.249
-317.012	8.217	0.107	0.081
-315.997	-30.577	0.264	-0.151
-314.983	89.035	0.108	0.121
-313.968	341.295	0.098	0.192
-312.953	-108.851	-0.074	0.016
-311.939	-90.923	-0.324	-0.094
-310.924	46.915	0.076	-0.071
-309.910	211.999	-0.147	-0.233
-308.895	131.884	0.092	0.120
-307.880	-200.000	0.008	0.177
-306.866	-68.177	-0.246	-0.096
-305.851	-66.854	-0.150	0.060
-304.837	-18.360	0.102	0.064
-303.822	-200.000	-0.071	-0.326
-302.807	-84.978	0.239	-0.075
-301.793	2.577	0.407	0.296
-300.778	-82.399	-0.038	-0.012
-299.764	203.892	-0.068	0.106
-298.749	-200.000	-0.003	-0.057
-297.735	-131.948	-0.122	-0.016
-296.720	327.255	0.135	0.260
-295.705	183.557	0.136	0.203
-294.691	91.788	-0.077	-0.087
-293.676	-148.779	-0.347	0.028
-292.662	-200.000	0.053	-0.284
-291.647	361.502	0.084	-0.169
-290.632	9.533	0.125	0.095
-289.618	-130.739	-0.370	0.050
-288.603	241.903	-0.080	0.135
-287.589	800.000	-0.098	-0.403
-286.574	-51.506	0.297	0.139
-285.559	-125.658	0.388	0.059
-284.545	387.798	-0.172	-0.358
-283.530	-200.000	0.003	-0.217
-282.516	-178.611	0.065	0.001
-281.501	-88.104	-0.259	-0.078
-280.486	-129.107	0.066	-0.009
-279.472	22.250	0.168	-0.138
-278.457	800.000	-0.040	0.111
-277.443	-17.730	-0.212	0.134
-276.428	36.573	0.135	-0.120
-275.413	-200.000	0.023	-0.216
-274.399	800.000	-0.131	0.432
-273.384	-51.461	0.228	-0.107
-272.370	37.314	-0.216	-0.192
-271.355	259.281	-0.133	0.230
-270.340	-50.581	0.159	-0.075
-269.326	90.592	-0.235	0.265
-268.311	206.487	0.156	-0.243
-267.297	800.000	0.066	-0.192
-266.282	549.604	0.079	0.190
-265.267	242.690	0.075	-0.126
-264.253	-50.600	-0.110	0.052
-263.238	-145.961	0.191	-0.017
-262.224	-56.768	0.311	0.138
-261.209	-61.257	-0.090	-0.038
-260.195	-118.617	-0.216	-0.038
-259.180	-88.500	-0.202	-0.060
-258.165	28.158	0.263	0.223
-257.151	123.836	0.132	-0.166
-256.136	-200.000	0.005	-0.185
-255.122	215.266	-0.172	-0.274
-254.107	800.000	0.129	-0.461
-253.092	346.926	-0.150	0.296
-252.078	536.995	-0.078	-0.187
-251.063	270.315	-0.022	0.038
-250.049	64.585	0.400	0.405
-249.034	203.543	0.154	0.238
-248.019	-107.183	-0.091	0.020
-247.005	780.132	-0.068	-0.186
-245.990	6.148	0.179	-0.133
-244.976	50.152	0.110	-0.104
-243.961	376.667	-0.087	-0.178
-242.946	-109.853	-0.154	-0.032
-241.932	44.668	0.096	0.088
-240.917	145.500	-0.205	0.276
-239.903	-106.374	0.257	-0.058
-238.888	68.216	-0.089	-0.092
-237.873	187.447	0.121	-0.181
-236.859	-200.000	0.042	-0.311
-235.844	-70.039	-0.090	-0.034
-234.830	585.400	-0.027	-0.066
-233.815	-109.309	-0.261	0.056
-232.800	7.029	-0.122	0.091
-231.786	20.277	0.130	-0.106
-230.771	30.170	0.065	-0.055
-229.757	800.000	-0.080	-0.225
-228.742	-21.858	0.150	-0.091
-227.727	-93.443	0.256	-0.071
-226.713	297.666	0.105	0.193
-225.698	-200.000	-0.036	0.262
-224.684	-200.000	-0.026	-0.313
-223.669	274.927	-0.064	-0.113
-222.655	-123.121	0.184	0.030
-221.640	-200.000	0.023	-0.260
-220.625	-56.619	-0.261	0.116
-219.611	-49.606	0.229	0.109
-218.596	313.330	0.083	0.156
-217.582	-149.952	-0.177	0.014
-216.567	-68.167	-0.149	-0.058
-215.552	-107.154	0.323	-0.071
-214.538	161.584	-0.186	-0.261
-213.523	-97.300	0.190	0.050
-212.509	-200.000	-0.009	-0.221
-211.494	95.872	0.036	0.041
-210.479	-200.000	-0.027	0.270
-209.465	64.654	0.291	0.294
-208.450	-200.000	0.007	0.092
-207.436	462.146	-0.196	0.439
-206.421	359.134	-0.051	0.103
-205.406	-200.000	-0.037	-0.206
-204.392	-149.821	0.116	0.009
-203.377	-52.779	-0.130	-0.060
-202.363	-79.683	0.153	-0.052
-201.348	66.850	-0.207	0.211
-200.333	67.090	0.217	-0.221
-199.319	-88.767	-0.153	-0.046
-198.304	-200.000	0.022	0.267
-197.290	800.000	-0.087	0.252
-196.275	-200.000	-0.009	0.139
-195.260	800.000	0.036	-0.121
-194.246	-48.573	-0.288	-0.139
-193.231	-71.332	0.116	0.044
-192.217	-78.924	0.133	-0.045
-191.202	-85.989	-0.403	-0.125
-190.187	-200.000	-0.021	0.229
-189.173	800.000	-0.081	0.269
-188.158	106.783	0.088	0.104
-187.144	211.318	-0.178	0.280
-186.129	67.077	-0.150	0.153
-185.114	-52.849	-0.150	0.069
-184.100	-100.119	-0.289	0.072
-183.085	99.071	-0.091	0.105
-182.071	72.380	0.187	0.195
-181.056	-200.000	0.012	0.198
-180.042	-124.958	0.435	0.067
-179.027	-200.000	0.013	0.194
-178.012	-200.000	0.025	-0.263
-176.998	-30.548	-0.329	-0.186
-175.983	-45.711	-0.117	0.058
-174.969	-93.084	0.109	0.030
-173.954	99.889	-0.093	0.107
-172.939	-200.000	-0.061	-0.385
-171.925	-100.420	0.141	-0.035
-170.910	-200.000	0.010	0.401
-169.896	173.300	0.106	0.154
-168.881	-200.000	-0.036	-0.250
-167.866	-85.916	0.314	-0.097
-166.852	-200.000	0.006	0.163
-165.837	45.695	-0.276	0.255
-164.823	542.838	-0.033	-0.078
-163.808	800.000	0.041	-0.141
-162.793	-58.435	0.343	0.149
-161.779	-129.145	0.249	-0.035
-160.764	-58.775	0.117	0.051
-159.750	-116.500	0.153	0.028
-158.735	800.000	-0.087	0.254
-157.720	-104.481	0.165	0.038
-156.706	-200.000	-0.059	-0.272
-155.691	-200.000	0.028	-0.300
-154.677	-200.000	0.031	0.149
-153.662	800.000	0.018	-0.066
-152.647	726.409	-0.108	0.289
-151.633	183.756	0.038	0.055
-150.618	800.000	-0.033	0.138
-149.604	10.507	-0.124	-0.095
-148.589	-101.163	0.124	-0.030
-147.574	-32.220	-0.148	-0.082
-146.560	800.000	-0.068	-0.275
-145.545	-200.000	0.011	-0.112
-144.531	-129.968	-0.244	0.033
-143.516	158.025	0.061	-0.084
-142.502	-184.835	-0.318	0.005
-141.487	-200.000	0.080	0.435
-140.472	-98.095	0.249	-0.064
-139.458	180.466	0.106	-0.156
-138.443	-200.000	-0.003	-0.015
-137.429	189.730	0.074	-0.110
-136.414	161.554	0.320	0.447
-135.399	-199.297	0.237	0.001
-134.385	-56.700	0.046	0.020
-133.370	-200.000	-0.001	0.078
-132.356	-98.831	0.301	0.076
-131.341	-96.039	-0.104	-0.028
-130.326	-87.927	-0.251	0.075
-129.312	245.226	0.197	-0.331
-128.297	-125.581	0.213	0.032
-127.283	155.091	-0.129	0.177
-126.268	-97.469	0.245	0.064
-125.253	-200.000	-0.057	-0.290
-124.239	-66.599	-0.322	0.127
-123.224	6.243	-0.393	-0.291
-122.210	800.000	-0.119	0.328
