DTS Sentinel unit serial number:	SN413079Multiplexer serial number:	ORYXHardware model number:	OX4-SRSoftware version number:	ORYX F/W v4.00 Oryx Data Collector v3.7.2.0data status	okinstallation	princeton_trtdifferential loss correction	single-endedforward channel	channel 1reverse channel	N/Adate	2019/09/12time	18:24:34forward acquisition time	15.00reverse acquisition time	0.00gamma	496.2192k internal	0.2318k external	0.2318temperature offset calibration	1.0107default loss term (dB/km)	0.3790temperature slope calibration	1.0000multiplexer offset coefficient	1.0000multiplexer slope coefficient	1.0000fibre end	0.00T internal ref (°C)	33.37T ext. ref 1 (°C)	2.99T ext. ref 2 (°C)	28.04length (m)	temperature (°C)	Stokes	anti-Stokes-747.200	-176.496	-0.662	0.017
-746.185	176.131	-0.380	0.558
-745.171	-43.564	0.487	0.249
-744.156	-97.793	-0.294	0.077
-743.142	-95.947	0.781	0.210
-742.127	-89.245	0.433	-0.129
-741.112	-37.019	-0.613	-0.333
-740.098	-200.000	0.027	0.204
-739.083	-46.215	-0.154	-0.077
-738.069	-200.000	-0.058	0.745
-737.054	428.141	-0.209	0.458
-736.039	68.155	-0.499	0.517
-735.025	148.069	0.568	0.776
-734.010	-200.000	0.107	-0.795
-732.996	-200.000	0.099	-0.494
-731.981	-87.615	-0.395	-0.121
-730.966	-20.822	0.738	0.458
-729.952	-200.000	0.051	0.582
-728.937	0.935	-0.239	0.173
-727.923	-105.968	0.615	-0.140
-726.908	-200.000	0.014	0.378
-725.894	-200.000	-0.222	1.011
-724.879	15.624	-0.686	0.545
-723.864	-42.768	0.255	-0.131
-722.850	183.603	0.139	0.208
-721.835	-114.737	0.317	0.061
-720.821	-127.529	0.705	0.103
-719.806	386.624	-0.321	-0.670
-718.791	-131.567	0.664	-0.088
-717.777	554.124	-0.360	-0.876
-716.762	106.610	-0.579	0.694
-715.748	-200.000	0.013	0.221
-714.733	-57.672	-0.425	0.188
-713.718	800.000	-0.105	-0.355
-712.704	684.692	-0.109	-0.288
-711.689	7.423	0.489	0.369
-710.675	-111.021	-1.380	-0.286
-709.660	-39.240	0.287	-0.152
-708.645	-29.570	-0.734	0.424
-707.631	-200.000	0.085	-0.579
-706.616	-47.947	-0.095	-0.047
-705.602	185.329	0.262	0.392
-704.587	42.891	-0.513	0.473
-703.572	61.341	0.400	-0.402
-702.558	-200.000	-0.668	0.003
-701.543	-32.938	0.470	-0.264
-700.529	-143.559	-0.265	-0.026
-699.514	-72.305	0.146	-0.055
-698.499	-146.877	-0.457	0.040
-697.485	277.590	-0.241	-0.433
-696.470	420.912	-0.334	0.723
-695.456	94.927	-0.239	-0.275
-694.441	69.743	-0.360	0.375
-693.426	-39.725	0.366	-0.193
-692.412	-200.000	0.058	-0.283
-691.397	97.615	-0.248	-0.288
-690.383	48.267	0.420	-0.396
-689.368	523.454	-0.284	0.673
-688.354	800.000	0.134	-0.425
-687.339	119.486	-0.471	0.589
-686.324	-92.541	-0.566	-0.161
-685.310	-49.655	-0.541	-0.260
-684.295	651.451	-0.269	-0.696
-683.281	-42.063	-0.243	-0.126
-682.266	-32.489	-0.837	-0.471
-681.251	-70.942	-0.415	-0.158
-680.237	192.810	-0.424	0.647
-679.222	800.000	0.092	-0.269
-678.208	-13.349	-0.545	0.357
-677.193	-191.995	-0.192	0.002
-676.178	-109.175	0.154	0.033
-675.164	-200.000	-0.015	-0.485
-674.149	197.554	0.401	0.619
-673.135	-57.561	-0.552	-0.244
-672.120	800.000	0.122	-0.421
-671.105	800.000	0.101	0.363
-670.091	-200.000	-0.173	-1.013
-669.076	685.968	0.278	0.732
-668.062	473.594	-0.108	0.247
-667.047	259.268	-0.424	-0.738
-666.032	800.000	0.213	0.772
-665.018	800.000	0.088	-0.360
-664.003	800.000	0.190	-0.800
-662.989	800.000	-0.325	-1.135
-661.974	-16.632	-0.225	0.144
-660.959	256.681	-0.401	0.695
-659.945	125.732	-0.363	0.462
-658.930	9.992	-0.714	-0.547
-657.916	-200.000	0.035	0.536
-656.901	-57.566	-0.403	0.178
-655.886	418.649	0.310	-0.669
-654.872	307.803	0.208	0.392
-653.857	250.546	-0.333	-0.571
-652.843	83.869	0.192	-0.212
-651.828	-59.767	0.761	0.329
-650.814	-200.000	-0.048	-0.429
-649.799	97.743	-0.517	-0.599
-648.784	84.941	0.214	-0.236
-647.770	-200.000	0.104	-1.018
-646.755	-11.565	-0.383	-0.254
-645.741	-171.639	0.088	0.003
-644.726	-78.117	0.384	-0.133
-643.711	-200.000	-0.048	0.536
-642.697	-89.515	-0.719	-0.213
-641.682	800.000	0.033	-0.100
-640.668	599.670	-0.085	-0.214
-639.653	-62.484	0.316	0.132
-638.638	-83.392	0.226	0.073
-637.624	60.724	-0.638	-0.637
-636.609	-200.000	-0.120	-0.876
-635.595	-200.000	-0.071	-0.923
-634.580	-66.975	0.177	0.070
-633.565	290.377	-0.446	-0.816
-632.551	-23.586	-0.390	-0.236
-631.536	800.000	-0.122	0.478
-630.522	227.226	-0.278	0.455
-629.507	232.805	-0.241	0.399
-628.492	-158.733	0.215	-0.012
-627.478	-120.296	0.619	0.106
-626.463	-98.691	0.623	0.160
-625.449	-5.642	-0.432	-0.299
-624.434	-163.665	-0.878	0.042
-623.419	-200.000	0.078	-0.391
-622.405	-164.817	-0.607	-0.027
-621.390	130.332	0.298	0.384
-620.376	-200.000	-0.042	-0.217
-619.361	-34.902	0.643	-0.353
-618.346	215.811	-0.376	0.601
-617.332	2.379	0.101	-0.074
-616.317	800.000	0.255	1.040
-615.303	-101.820	0.952	0.232
-614.288	142.460	-0.337	0.451
-613.273	137.514	-0.110	0.146
-612.259	-192.191	0.733	-0.007
-611.244	277.393	0.181	-0.324
-610.230	178.769	-0.507	0.745
-609.215	23.343	-0.305	-0.252
-608.201	351.554	-0.095	-0.189
-607.186	-72.776	-0.526	0.195
-606.171	-66.492	0.193	0.077
-605.157	105.211	0.329	-0.391
-604.142	-200.000	0.120	0.732
-603.128	-40.538	-0.805	-0.420
-602.113	-200.000	-0.008	-0.376
-601.098	-200.000	-0.023	0.387
-600.084	-170.909	-0.610	-0.021
-599.069	-59.582	0.586	0.253
-598.055	36.247	0.294	-0.261
-597.040	-53.304	-0.097	-0.045
-596.025	-18.151	-0.203	-0.128
-595.011	74.823	0.268	0.284
-593.996	-149.275	0.988	-0.079
-592.982	-76.148	-0.633	-0.225
-591.967	52.252	0.414	0.397
-590.952	71.054	0.183	-0.191
-589.938	-39.741	-0.176	-0.093
-588.923	-38.421	-0.247	0.132
-587.909	80.483	-0.169	-0.184
-586.894	-200.000	0.104	0.488
-585.879	-112.227	-0.395	-0.080
-584.865	-146.493	0.454	-0.040
-583.850	89.175	0.212	0.238
-582.836	-98.193	-0.167	0.043
-581.821	800.000	0.102	0.366
-580.806	36.757	-0.738	0.655
-579.792	-57.509	-0.831	-0.367
-578.777	28.961	-0.418	-0.356
-577.763	-34.314	0.924	0.510
-576.748	6.977	0.154	-0.116
-575.733	-116.288	-0.496	-0.092
-574.719	248.904	0.334	-0.568
-573.704	-200.000	-0.010	-1.063
-572.690	-149.052	-0.464	0.037
-571.675	9.749	0.417	0.318
-570.661	-188.842	0.612	0.007
-569.646	170.812	0.403	0.580
-568.631	-29.862	-0.260	0.149
-567.617	70.316	0.931	-0.967
-566.602	-165.592	-0.085	0.004
-565.588	-16.260	0.564	-0.360
-564.573	273.466	0.263	-0.467
-563.558	88.920	0.308	-0.344
-562.544	-200.000	-0.024	-0.243
-561.529	19.601	0.114	0.093
-560.515	-200.000	-0.004	-0.602
-559.500	-200.000	-0.030	0.282
-558.485	268.603	-0.304	-0.535
-557.471	377.118	-0.081	0.166
-556.456	800.000	0.227	0.631
-555.442	-138.036	0.912	-0.102
-554.427	197.017	0.494	0.757
-553.412	-67.629	-0.031	-0.012
-552.398	-168.387	-0.392	-0.015
-551.383	318.070	0.267	0.508
-550.369	-19.027	0.918	0.574
-549.354	73.705	0.311	-0.328
-548.339	-145.527	0.121	0.011
-547.325	-5.425	0.765	0.527
-546.310	-28.235	-0.681	0.395
-545.296	116.236	0.295	0.363
-544.281	182.334	0.417	-0.617
-543.266	-200.000	0.080	-0.625
-542.252	-106.444	0.679	-0.152
-541.237	63.575	-0.247	0.249
-540.223	-92.051	0.840	-0.239
-539.208	-111.985	0.160	-0.032
-538.193	412.945	0.266	-0.568
-537.179	-39.778	0.736	-0.386
-536.164	-29.569	-0.709	0.406
-535.150	-33.244	-0.498	0.277
-534.135	-23.148	-0.546	0.330
-533.121	274.212	-0.315	0.559
-532.106	113.383	-0.177	-0.216
-531.091	80.921	0.209	0.226
-530.077	800.000	0.131	-0.573
-529.062	-200.000	-0.023	0.627
-528.048	-200.000	0.064	0.521
-527.033	36.625	-0.544	0.482
-526.018	-27.951	0.586	-0.340
-525.004	-81.992	0.864	0.283
-523.989	-200.000	-0.069	-0.473
-522.975	-137.063	0.371	-0.042
-521.960	109.133	-0.222	0.267
-520.945	570.567	0.145	0.353
-519.931	-85.420	-0.257	0.080
-518.916	-183.012	0.448	0.008
-517.902	-200.000	-0.140	0.693
-516.887	53.870	0.048	0.047
-515.872	-173.998	0.788	0.023
-514.858	80.970	-0.283	0.307
-513.843	209.038	0.344	0.540
-512.829	-2.432	0.732	-0.514
-511.814	-200.000	-0.135	-0.758
-510.799	800.000	0.253	-0.746
-509.785	-200.000	-0.121	-0.901
-508.770	-71.873	-0.937	0.350
-507.756	-88.949	-0.319	0.095
-506.741	201.967	0.376	-0.581
-505.726	-200.000	-0.069	0.339
-504.712	-111.947	-0.663	-0.134
-503.697	-19.466	-0.929	0.577
-502.683	-200.000	-0.022	-0.260
-501.668	210.413	-0.397	-0.625
-500.653	-200.000	-0.036	-0.271
-499.639	-65.571	-0.730	-0.294
-498.624	-200.000	-0.049	-1.016
-497.610	-23.779	0.481	0.289
-496.595	55.081	0.296	0.287
-495.581	-20.316	-0.546	0.337
-494.566	-200.000	-0.096	-0.891
-493.551	-200.000	0.076	-0.409
-492.537	-33.318	0.234	-0.130
-491.522	112.476	0.466	0.565
-490.508	-200.000	-0.056	-0.446
-489.493	79.144	-0.383	-0.411
-488.478	148.704	-0.778	-1.053
-487.464	-200.000	-0.369	-0.001
-486.449	33.781	-0.305	0.265
-485.435	-43.239	-0.203	0.103
-484.420	260.540	-0.206	0.357
-483.405	-200.000	-0.072	0.518
-482.391	-23.041	-0.726	-0.438
-481.376	18.589	0.338	0.271
-480.362	387.480	-0.642	-1.330
-479.347	-141.059	0.544	0.056
-478.332	190.621	-0.465	-0.700
-477.318	-200.000	0.010	-0.397
-476.303	-108.349	-1.039	-0.224
-475.289	-174.987	-0.618	0.017
-474.274	57.303	-0.251	0.245
-473.259	-97.155	0.491	-0.129
-472.245	-159.190	0.116	0.007
-471.230	-116.218	-0.124	0.023
-470.216	-200.000	0.101	-0.634
-469.201	-138.568	0.556	0.061
-468.186	-127.235	-0.446	0.065
-467.172	-12.076	-1.121	-0.735
-466.157	40.481	-0.255	-0.230
-465.143	-200.000	-0.000	0.209
-464.128	-49.893	0.145	0.069
-463.113	275.209	-0.052	-0.093
-462.099	98.895	-0.294	0.340
-461.084	-49.909	0.645	0.306
-460.070	-53.218	-0.697	-0.320
-459.055	-141.378	-0.245	-0.025
-458.040	86.604	-0.476	-0.525
-457.026	797.535	-0.136	0.375
-456.011	530.800	0.154	-0.364
-454.997	79.790	0.328	-0.353
-453.982	230.041	-0.371	-0.607
-452.968	-120.949	0.340	-0.057
-451.953	-200.000	-0.042	-0.312
-450.938	-22.943	0.444	0.268
-449.924	-140.337	0.423	0.044
-448.909	263.581	-0.117	-0.204
-447.895	-77.953	0.527	0.182
-446.880	-103.241	-0.486	-0.115
-445.865	81.271	-0.310	-0.335
-444.851	391.789	0.228	-0.474
-443.836	-70.273	-0.432	0.164
-442.822	-28.638	0.647	-0.373
-441.807	-73.304	0.483	-0.177
-440.792	-200.000	-0.027	-0.159
-439.778	-18.155	0.431	-0.270
-438.763	147.800	-0.232	0.313
-437.749	17.083	-0.897	-0.711
-436.734	800.000	0.219	0.610
-435.719	-131.314	0.476	0.063
-434.705	198.701	-0.164	0.251
-433.690	407.352	-0.361	0.763
-432.676	99.531	-0.296	-0.342
-431.661	112.016	0.398	0.481
-430.646	-65.269	0.234	0.094
-429.632	-200.000	0.004	0.145
-428.617	-200.000	0.106	-0.676
-427.603	355.252	0.107	-0.212
-426.588	169.924	-0.091	0.130
-425.573	-184.419	-0.614	0.010
-424.559	393.028	0.314	-0.654
-423.544	177.334	-0.482	-0.702
-422.530	172.746	0.191	0.275
-421.515	38.719	0.461	-0.411
-420.500	-200.000	-0.077	-0.432
-419.486	121.407	0.189	0.235
-418.471	-200.000	-0.041	0.552
-417.457	82.339	0.401	0.434
-416.442	-107.902	0.683	-0.148
-415.428	22.616	0.531	0.434
-414.413	-85.228	0.657	-0.205
-413.398	131.115	-0.216	0.277
-412.384	-200.000	-0.068	1.226
-411.369	-8.395	0.346	-0.232
-410.355	-200.000	0.008	-0.257
-409.340	-200.000	0.113	-0.562
-408.325	-76.000	-0.625	0.221
-407.311	47.091	-0.156	0.145
-406.296	19.191	0.153	-0.122
-405.282	-43.769	0.205	0.103
-404.267	-118.275	0.043	-0.008
-403.252	537.785	-0.114	-0.270
-402.238	78.209	0.507	0.541
-401.223	-200.000	0.064	0.989
-400.209	207.856	-0.716	1.117
-399.194	198.389	0.076	-0.117
-398.179	-88.490	0.135	0.040
-397.165	-88.537	0.570	0.170
-396.150	89.607	0.200	-0.223
-395.136	181.771	-0.472	0.694
-394.121	132.900	0.297	-0.383
-393.106	-71.000	-0.235	0.088
-392.092	538.913	0.086	0.203
-391.077	13.202	-0.354	0.274
-390.063	-75.063	-0.307	0.110
-389.048	-200.000	0.017	0.418
-388.033	89.933	-0.218	0.243
-387.019	-19.990	-0.514	0.317
-386.004	284.924	-0.458	0.823
-384.990	-200.000	0.055	-0.715
-383.975	25.301	0.358	-0.297
-382.960	-200.000	0.044	0.565
-381.946	295.016	-0.256	-0.467
-380.931	-54.104	1.064	-0.483
-379.917	-55.163	-0.277	-0.125
-378.902	800.000	-0.113	-0.406
-377.888	227.707	0.230	-0.373
-376.873	-200.000	-0.233	1.264
-375.858	528.979	-0.151	-0.355
-374.844	46.069	-0.657	-0.607
-373.829	-200.000	-0.102	0.605
-372.815	-200.000	0.110	0.496
-371.800	-130.082	0.561	0.076
-370.785	-43.343	0.398	0.201
-369.771	524.653	0.157	-0.369
-368.756	800.000	0.015	0.065
-367.742	101.733	-0.237	-0.275
-366.727	800.000	0.277	1.093
-365.712	382.093	0.091	0.187
-364.698	32.677	-0.604	-0.521
-363.683	160.707	0.306	0.427
-362.669	-200.000	-0.010	0.131
-361.654	28.222	0.308	0.260
-360.639	-120.864	-0.541	-0.091
-359.625	-200.000	0.079	-0.699
-358.610	-200.000	0.018	-0.559
-357.596	800.000	-0.116	0.484
-356.581	-200.000	-0.050	-0.340
-355.566	84.818	0.531	-0.580
-354.552	97.780	0.074	0.085
-353.537	800.000	0.083	-0.286
-352.523	-97.351	-0.806	0.209
-351.508	-49.880	-0.290	0.137
-350.493	135.028	-0.349	-0.452
-349.479	-200.000	-0.040	0.206
-348.464	4.046	0.832	0.606
-347.450	-112.486	0.506	-0.101
-346.435	140.263	0.640	-0.841
-345.420	462.006	-0.141	-0.313
-344.406	-56.208	0.882	-0.391
-343.391	800.000	-0.300	-0.966
-342.377	5.284	-0.356	0.261
-341.362	658.481	0.160	-0.410
-340.348	313.989	0.379	0.711
-339.333	301.999	0.265	-0.488
-338.318	-200.000	-0.006	-0.417
-337.304	251.781	0.453	0.768
-336.289	-122.930	-0.670	0.107
-335.275	-9.659	-0.631	0.419
-334.260	-66.989	0.330	-0.130
-333.245	129.775	-0.511	0.651
-332.231	220.290	0.106	-0.170
-331.216	-200.000	-0.108	0.874
-330.202	-135.467	-0.333	0.040
-329.187	439.800	0.539	1.172
-328.172	153.736	-0.410	0.559
-327.158	-20.860	0.799	0.488
-326.143	800.000	0.044	-0.188
-325.129	-77.878	0.727	-0.250
-324.114	-200.000	0.022	-0.192
-323.099	445.063	-0.264	-0.578
-322.085	-177.194	0.415	-0.010
-321.070	-99.376	0.356	-0.089
-320.056	610.252	-0.266	0.660
-319.041	-200.000	0.026	-0.558
-318.026	41.544	0.478	0.431
-317.012	-143.091	-0.772	-0.074
-315.997	141.304	-0.217	-0.286
-314.983	105.026	-0.499	0.586
-313.968	-107.241	-0.423	0.093
-312.953	-164.722	0.385	-0.017
-311.939	-3.643	-0.342	0.236
-310.924	-9.192	0.275	-0.183
-309.910	163.463	0.147	-0.206
-308.895	800.000	0.149	0.539
-307.880	-200.000	0.009	-0.163
-306.866	230.092	-0.357	-0.580
-305.851	444.591	0.223	-0.487
-304.837	521.457	-0.292	-0.683
-303.822	-102.194	0.205	0.049
-302.807	-60.130	0.423	-0.179
-301.793	-112.023	0.216	0.043
-300.778	60.010	-0.782	-0.768
-299.764	567.250	-0.434	1.047
-298.749	106.678	0.130	-0.154
-297.735	-58.618	0.801	-0.345
-296.720	-63.908	0.158	-0.064
-295.705	-69.168	-0.475	-0.182
-294.691	270.445	-0.252	-0.441
-293.676	319.718	-0.027	0.050
-292.662	301.122	-0.125	-0.229
-291.647	67.669	0.524	-0.532
-290.632	-58.077	-0.431	0.187
-289.618	-35.145	-0.173	0.094
-288.603	800.000	-0.091	-0.383
-287.589	-200.000	0.014	-0.441
-286.574	162.869	-0.259	-0.362
-285.559	200.362	-0.135	0.207
-284.545	313.161	-0.306	-0.572
-283.530	-123.710	-0.577	-0.091
-282.516	800.000	-0.184	-0.541
-281.501	-7.047	-0.127	-0.086
-280.486	-200.000	0.112	-0.641
-279.472	-139.618	-0.364	-0.039
-278.457	-160.179	0.306	-0.016
-277.443	-44.475	-0.962	0.478
-276.428	-51.225	-0.446	0.208
-275.413	-174.963	-0.400	0.011
-274.399	312.140	0.295	-0.550
-273.384	91.377	-0.161	0.180
-272.370	35.333	-0.230	-0.200
-271.355	-55.189	0.199	0.089
-270.340	706.934	-0.169	-0.443
-269.326	-37.109	0.532	0.283
-268.311	91.795	0.363	0.406
-267.297	-146.179	-0.881	-0.077
-266.282	-200.000	-0.007	-0.332
-265.267	72.048	-0.355	0.367
-264.253	356.316	0.222	0.440
-263.238	800.000	-0.059	0.209
-262.224	194.101	0.069	0.103
-261.209	-72.872	0.223	0.082
-260.195	301.677	0.544	0.999
-259.180	-27.391	-0.781	0.451
-258.165	225.870	-0.355	-0.571
-257.151	58.418	0.641	0.624
-256.136	31.486	0.177	0.151
-255.122	-136.375	-0.512	0.059
-254.107	-200.000	-0.010	0.061
-253.092	-200.000	0.064	0.376
-252.078	60.930	-0.283	0.279
-251.063	-124.909	0.257	-0.039
-250.049	763.484	-0.049	0.131
-249.034	800.000	-0.011	-0.046
-248.019	-37.376	-0.379	0.201
-247.005	2.157	-0.664	-0.476
-245.990	-99.108	0.737	-0.185
-244.976	158.794	-0.564	-0.777
-243.961	-4.247	-0.791	0.543
-242.946	638.427	0.179	0.451
-241.932	-64.154	-0.331	0.134
-240.917	-62.194	0.355	0.147
-239.903	-168.084	-0.116	0.004
-238.888	176.512	-0.081	-0.117
-237.873	-200.000	-0.033	0.306
-236.859	800.000	0.125	-0.495
-235.844	-200.000	0.048	-0.910
-234.830	-52.380	0.621	0.285
-233.815	524.083	0.091	-0.213
-232.800	534.272	-0.115	0.270
-231.786	-25.120	0.422	-0.248
-230.771	-93.369	0.465	0.128
-229.757	-200.000	-0.108	-0.489
-228.742	-30.948	0.136	-0.076
-227.727	302.687	-0.150	-0.276
-226.713	484.709	-0.102	-0.231
-225.698	800.000	-0.155	-0.575
-224.684	92.056	0.454	-0.506
-223.669	-200.000	-0.288	1.364
-222.655	800.000	-0.224	0.660
-221.640	800.000	0.551	1.532
-220.625	-83.658	0.206	-0.065
-219.611	-200.000	0.087	-0.598
-218.596	-86.656	-0.203	0.062
-217.582	-172.166	1.212	-0.039
-216.567	-47.357	0.600	0.289
-215.552	4.720	0.759	-0.553
-214.538	319.029	-0.217	0.407
-213.523	443.084	-0.406	0.881
-212.509	320.428	-0.196	0.368
-211.494	-62.758	0.397	0.163
-210.479	255.358	-0.256	0.436
-209.465	64.555	-0.406	0.406
-208.450	149.319	0.019	-0.025
-207.436	-73.123	-0.281	0.102
-206.421	716.459	0.456	1.199
-205.406	-200.000	0.083	-0.519
-204.392	-200.000	-0.110	-0.767
-203.377	800.000	0.169	0.655
-202.363	-11.958	-0.658	0.427
-201.348	-91.396	0.198	0.056
-200.333	-28.890	0.649	0.369
-199.319	-200.000	0.083	0.513
-198.304	-200.000	0.160	0.717
-197.290	-97.986	-0.234	0.060
-196.275	257.862	0.385	-0.656
-195.260	-171.154	-0.419	-0.014
-194.246	360.108	0.241	-0.477
-193.231	258.559	-0.312	0.532
-192.217	-41.989	0.578	-0.293
-191.202	-91.182	0.372	0.106
-190.187	207.550	0.555	-0.858
-189.173	-17.521	-0.423	0.263
-188.158	-51.907	-0.393	0.181
-187.144	-105.617	-1.142	-0.256
-186.129	412.204	0.294	-0.619
-185.114	-200.000	0.028	0.478
-184.100	-33.524	-0.312	0.171
-183.085	652.174	0.149	0.379
-182.071	800.000	-0.227	0.797
-181.056	-40.410	1.220	0.628
-180.042	129.568	0.358	0.453
-179.027	52.195	0.801	0.756
-178.012	-200.000	0.022	-0.510
-176.998	-5.261	0.560	0.381
-175.983	800.000	-0.096	-0.356
-174.969	22.924	-0.549	0.445
-173.954	164.900	0.346	0.484
-172.939	-76.702	-0.721	0.250
-171.925	387.528	-0.075	0.153
-170.910	52.131	-0.210	0.198
-169.896	-26.467	-0.253	0.147
-168.881	-116.214	-0.655	-0.120
-167.866	137.971	0.249	0.323
-166.852	-30.742	-0.586	0.328
-165.837	299.561	-0.163	0.297
-164.823	197.308	-0.392	0.592
-163.808	-39.692	0.552	0.286
-162.793	-50.104	0.850	-0.398
-161.779	7.052	0.801	0.591
-160.764	61.162	-0.703	-0.691
-159.750	13.405	0.270	-0.207
-158.735	93.482	0.281	-0.314
-157.720	-200.000	-0.118	-1.078
-156.706	-69.151	-0.543	-0.207
-155.691	245.722	-0.308	-0.514
-154.677	-69.306	0.642	0.244
-153.662	19.872	-0.328	-0.262
-152.647	-14.478	-0.829	0.528
-151.633	-110.223	0.301	-0.062
-150.618	-94.267	-0.667	0.180
-149.604	-166.438	1.418	0.059
-148.589	-200.000	0.057	0.924
-147.574	-86.969	0.254	-0.077
-146.560	-21.144	0.510	-0.308
-145.545	-20.562	-0.355	0.215
-144.531	204.094	-0.094	-0.145
-143.516	-74.375	0.319	0.114
-142.502	800.000	0.134	-0.475
-141.487	-200.000	0.030	-0.524
-140.472	125.318	0.251	0.313
-139.458	-136.239	-0.468	0.054
-138.443	-44.008	0.404	0.201
-137.429	11.949	-0.751	0.570
-136.414	78.728	0.754	0.797
-135.399	-12.945	0.438	-0.282
-134.385	-200.000	-0.079	-0.547
-133.370	-13.623	-0.264	0.169
-132.356	154.993	-0.175	0.237
-131.341	-150.314	0.623	0.047
-130.326	-33.948	0.703	0.382
-129.312	-55.953	0.900	0.397
-128.297	800.000	0.261	0.847
-127.283	-103.360	0.160	0.037
-126.268	-58.532	-0.183	0.079
-125.253	723.167	-0.193	-0.507
-124.239	-200.000	0.004	-0.040
-123.224	-200.000	-0.116	-0.976
-122.210	-112.268	0.393	0.078
-121.195	141.921	0.345	0.452
