DTS Sentinel unit serial number:	SN413079Multiplexer serial number:	ORYXHardware model number:	OX4-SRSoftware version number:	ORYX F/W v4.00 Oryx Data Collector v3.7.2.0data status	okinstallation	princeton_trtdifferential loss correction	single-endedforward channel	channel 1reverse channel	N/Adate	2019/09/12time	23:10:35forward acquisition time	60.00reverse acquisition time	0.00gamma	496.2192k internal	0.2327k external	0.2327temperature offset calibration	1.0146default loss term (dB/km)	0.3790temperature slope calibration	1.0000multiplexer offset coefficient	1.0000multiplexer slope coefficient	1.0000fibre end	0.00T internal ref (°C)	29.19T ext. ref 1 (°C)	3.73T ext. ref 2 (°C)	23.74length (m)	temperature (°C)	Stokes	anti-Stokes-747.200	-108.255	0.085	0.018
-746.185	101.762	-0.293	0.345
-745.171	6.220	0.225	-0.168
-744.156	-116.934	-0.077	0.014
-743.142	-25.266	0.212	0.127
-742.127	-200.000	-0.076	0.380
-741.112	-200.000	0.006	-0.351
-740.098	-22.278	0.050	-0.031
-739.083	800.000	0.035	-0.151
-738.069	-49.812	-0.387	-0.185
-737.054	-200.000	-0.010	0.171
-736.039	-63.864	-0.019	-0.008
-735.025	662.662	0.078	0.203
-734.010	-62.895	0.058	0.024
-732.996	-7.639	0.165	0.113
-731.981	-158.581	0.149	-0.009
-730.966	800.000	-0.048	0.160
-729.952	153.919	-0.040	-0.055
-728.937	46.556	0.224	0.209
-727.923	220.933	0.205	-0.331
-726.908	-153.920	-0.390	-0.027
-725.894	-112.010	-0.463	-0.094
-724.879	18.854	0.317	0.256
-723.864	40.500	-0.157	0.142
-722.850	132.986	0.107	0.139
-721.835	29.471	-0.358	0.306
-720.821	12.249	0.185	-0.143
-719.806	280.935	-0.071	0.129
-718.791	165.916	-0.160	-0.228
-717.777	156.995	-0.140	-0.195
-716.762	376.260	0.074	0.152
-715.748	-200.000	-0.029	-0.305
-714.733	-200.000	-0.038	0.324
-713.718	119.104	-0.220	-0.274
-712.704	10.955	-0.073	-0.056
-711.689	201.149	-0.013	-0.021
-710.675	9.499	-0.221	0.169
-709.660	-200.000	0.004	0.023
-708.645	-95.065	-0.259	-0.070
-707.631	800.000	0.050	-0.158
-706.616	-157.027	-0.393	0.024
-705.602	-200.000	-0.001	0.071
-704.587	-140.814	0.218	-0.023
-703.572	-50.245	0.151	-0.072
-702.558	-113.758	-0.264	-0.052
-701.543	54.979	0.142	-0.138
-700.529	105.299	0.159	0.189
-699.514	304.012	-0.125	0.233
-698.499	800.000	0.021	-0.088
-697.485	-57.216	0.268	0.119
-696.470	-200.000	-0.007	-0.067
-695.456	0.663	0.199	0.143
-694.441	-200.000	0.054	-0.308
-693.426	143.445	0.154	0.206
-692.412	-171.097	-0.346	-0.012
-691.397	-41.556	0.389	-0.201
-690.383	-200.000	-0.048	-0.270
-689.368	-135.378	0.184	-0.022
-688.354	406.782	-0.141	-0.299
-687.339	49.344	0.088	-0.083
-686.324	-19.250	0.295	-0.184
-685.310	-200.000	-0.016	-0.363
-684.295	-12.198	0.194	-0.128
-683.281	-122.155	0.055	0.009
-682.266	51.909	-0.070	-0.067
-681.251	-182.038	-0.188	-0.004
-680.237	22.160	-0.072	-0.059
-679.222	117.153	0.142	-0.175
-678.208	-200.000	0.014	-0.080
-677.193	-200.000	-0.019	-0.144
-676.178	625.003	0.042	-0.107
-675.164	-117.988	-0.236	-0.042
-674.149	-172.023	0.267	-0.009
-673.135	-133.497	-0.058	0.007
-672.120	138.008	-0.119	0.157
-671.105	-200.000	0.003	-0.246
-670.091	-200.000	0.033	-0.372
-669.076	484.924	0.136	-0.311
-668.062	575.241	-0.062	0.153
-667.047	-108.329	0.296	0.064
-666.032	-58.173	-0.205	0.090
-665.018	6.367	-0.274	-0.204
-664.003	-112.927	0.192	0.038
-662.989	-86.464	0.216	0.067
-661.974	34.435	-0.135	-0.119
-660.959	800.000	0.087	-0.269
-659.945	282.223	-0.126	-0.227
-658.930	-92.045	0.064	-0.018
-657.916	41.580	-0.291	-0.265
-656.901	37.612	0.107	-0.095
-655.886	-200.000	0.005	-0.392
-654.872	800.000	0.031	0.094
-653.857	-66.018	-0.427	-0.171
-652.843	-200.000	-0.508	-0.001
-651.828	416.506	0.169	-0.363
-650.814	-45.921	0.249	-0.123
-649.799	-200.000	-0.039	0.000
-648.784	-135.929	0.095	-0.011
-647.770	13.968	-0.159	-0.124
-646.755	-200.000	-0.028	-0.193
-645.741	-162.699	0.261	0.013
-644.726	308.440	0.102	0.190
-643.711	-200.000	0.014	-0.165
-642.697	39.276	0.120	0.108
-641.682	308.473	0.164	-0.307
-640.668	29.311	-0.527	0.449
-639.653	-200.000	0.006	0.195
-638.638	800.000	-0.085	-0.320
-637.624	800.000	0.102	0.357
-636.609	716.960	0.126	0.336
-635.595	-116.345	-0.200	-0.037
-634.580	594.152	0.083	-0.207
-633.565	20.366	-0.103	0.083
-632.551	230.918	0.140	-0.230
-631.536	-100.451	-0.106	0.026
-630.522	3.979	0.289	-0.212
-629.507	17.812	-0.092	-0.074
-628.492	800.000	0.145	-0.443
-627.478	-62.352	-0.478	0.200
-626.463	156.278	0.086	-0.119
-625.449	-35.473	-0.126	-0.069
-624.434	-147.195	-0.052	0.004
-623.419	-60.549	0.243	-0.103
-622.405	138.123	0.045	-0.060
-621.390	674.375	0.116	0.301
-620.376	-200.000	0.015	-0.276
-619.361	-75.251	-0.461	-0.165
-618.346	-65.162	-0.115	-0.047
-617.332	-200.000	0.009	0.141
-616.317	-70.920	0.281	-0.106
-615.303	145.223	-0.289	-0.387
-614.288	3.298	0.250	-0.183
-613.273	8.680	-0.282	-0.213
-612.259	-200.000	0.048	-0.292
-611.244	-15.336	-0.139	-0.089
-610.230	-62.723	0.085	0.035
-609.215	-200.000	0.003	0.317
-608.201	-0.949	-0.125	0.089
-607.186	149.789	0.064	0.087
-606.171	-56.097	-0.334	0.149
-605.157	24.940	-0.074	0.061
-604.142	-33.016	0.091	-0.051
-603.128	-200.000	0.014	-0.139
-602.113	-106.863	-0.300	-0.067
-601.098	173.180	-0.130	-0.188
-600.084	326.859	0.037	0.072
-599.069	-16.775	0.022	-0.014
-598.055	-149.138	-0.059	-0.005
-597.040	17.328	0.156	-0.124
-596.025	57.642	-0.221	0.217
-595.011	-113.208	0.280	-0.055
-593.996	-200.000	-0.000	-0.243
-592.982	148.928	0.033	0.044
-591.967	370.936	-0.064	0.130
-590.952	278.480	0.109	-0.194
-589.938	-144.706	0.248	0.023
-588.923	542.903	0.116	0.277
-587.909	-100.129	-0.333	0.083
-586.894	644.146	-0.072	-0.184
-585.879	-117.833	-0.033	0.006
-584.865	800.000	-0.049	0.167
-583.850	111.999	0.125	-0.152
-582.836	456.515	0.046	0.103
-581.821	68.192	0.203	-0.209
-580.806	-200.000	0.022	0.175
-579.792	-103.059	-0.336	-0.080
-578.777	-200.000	-0.063	-0.361
-577.763	-87.117	-0.172	0.052
-576.748	-30.856	0.316	0.179
-575.733	502.803	0.063	0.145
-574.719	-200.000	-0.065	0.326
-573.704	-168.262	-0.361	0.014
-572.690	425.331	0.087	0.188
-571.675	221.939	0.097	0.156
-570.661	258.218	0.106	0.184
-569.646	-57.613	-0.226	-0.099
-568.631	46.761	-0.318	-0.296
-567.617	-12.321	0.067	-0.044
-566.602	222.303	0.086	0.138
-565.588	800.000	0.061	-0.193
-564.573	-114.306	0.230	0.044
-563.558	-54.891	0.545	-0.246
-562.544	56.923	-0.156	-0.152
-561.529	16.245	0.266	-0.210
-560.515	-53.083	-0.119	0.055
-559.500	-111.655	0.156	0.032
-558.485	175.656	0.175	-0.255
-557.471	-200.000	-0.003	0.140
-556.456	14.904	0.158	-0.123
-555.442	334.068	-0.101	0.196
-554.427	-48.080	-0.118	0.057
-553.412	137.973	-0.126	-0.165
-552.398	800.000	-0.019	-0.055
-551.383	-158.693	-0.267	-0.015
-550.369	-59.867	0.360	-0.154
-549.354	-117.381	-0.452	-0.082
-548.339	-113.000	0.242	-0.048
-547.325	17.562	0.098	0.078
-546.310	800.000	0.127	0.382
-545.296	-66.295	-0.224	-0.089
-544.281	800.000	-0.029	0.102
-543.266	-87.305	-0.104	-0.032
-542.252	-7.801	0.230	-0.155
-541.237	345.704	-0.074	0.145
-540.223	800.000	0.047	0.167
-539.208	47.774	-0.293	0.273
-538.193	-200.000	0.025	-0.229
-537.179	-93.621	0.054	-0.015
-536.164	200.152	0.068	0.104
-535.150	-200.000	-0.003	-0.079
-534.135	177.817	-0.143	-0.208
-533.121	-55.026	-0.166	-0.075
-532.106	-200.000	-0.018	-0.106
-531.091	-72.674	0.246	-0.091
-530.077	-176.015	-0.637	-0.017
-529.062	-145.238	0.274	-0.025
-528.048	60.025	0.061	0.060
-527.033	310.942	-0.055	0.103
-526.018	111.336	0.249	-0.300
-525.004	-117.305	0.284	0.052
-523.989	287.219	-0.155	0.280
-522.975	-47.084	0.132	0.064
-521.960	-200.000	0.040	0.198
-520.945	-19.515	-0.202	-0.125
-519.931	-19.910	0.232	0.143
-518.916	-22.784	-0.245	-0.148
-517.902	177.714	-0.191	-0.279
-516.887	-200.000	0.001	-0.022
-515.872	-145.789	0.108	0.010
-514.858	6.261	-0.093	-0.069
-513.843	-111.274	-0.093	-0.019
-512.829	85.108	-0.062	-0.068
-511.814	-200.000	-0.033	0.240
-510.799	192.747	0.210	-0.317
-509.785	-200.000	-0.005	-0.098
-508.770	-114.787	-0.348	0.066
-507.756	206.430	0.065	0.102
-506.741	499.365	-0.023	0.054
-505.726	120.210	0.154	-0.191
-504.712	200.577	0.253	-0.388
-503.697	-116.076	-0.487	0.090
-502.683	-131.554	-0.200	-0.026
-501.668	143.865	-0.095	-0.127
-500.653	-200.000	-0.057	0.598
-499.639	-200.000	0.043	-0.373
-498.624	-200.000	-0.030	-0.225
-497.610	800.000	-0.072	0.278
-496.595	-200.000	-0.006	-0.039
-495.581	-11.649	0.240	0.157
-494.566	26.470	0.101	0.084
-493.551	215.845	0.165	0.261
-492.537	800.000	0.038	-0.159
-491.522	3.559	-0.283	-0.206
-490.508	105.811	-0.092	0.109
-489.493	-200.000	-0.016	0.187
-488.478	45.083	0.286	0.263
-487.464	-200.000	0.017	0.194
-486.449	800.000	0.060	-0.202
-485.435	800.000	0.029	-0.085
-484.420	-140.997	0.433	-0.044
-483.405	250.739	-0.201	-0.340
-482.391	288.512	-0.079	0.144
-481.376	-200.000	-0.024	0.275
-480.362	-200.000	0.135	0.000
-479.347	-105.110	0.235	-0.054
-478.332	425.951	0.093	-0.199
-477.318	-67.751	-0.246	-0.096
-476.303	321.500	0.100	0.189
-475.289	-41.529	0.093	-0.048
-474.274	181.691	-0.089	-0.130
-473.259	16.917	-0.038	0.030
-472.245	120.118	-0.151	-0.187
-471.230	-200.000	0.046	-0.254
-470.216	30.760	0.188	0.160
-469.201	319.640	-0.120	0.227
-468.186	432.068	0.116	-0.250
-467.172	-125.577	0.191	-0.029
-466.157	272.306	0.087	0.154
-465.143	-200.000	-0.025	0.368
-464.128	-61.421	0.108	0.045
-463.113	-105.837	0.150	0.034
-462.099	-31.061	-0.107	-0.060
-461.084	117.577	-0.118	0.145
-460.070	-70.414	0.255	0.096
-459.055	314.080	0.104	0.195
-458.040	734.930	-0.049	0.131
-457.026	22.333	-0.179	-0.146
-456.011	-78.602	-0.231	0.079
-454.997	147.117	0.145	0.195
-453.982	-200.000	-0.001	-0.113
-452.968	-28.338	-0.064	-0.037
-451.953	566.247	0.172	-0.415
-450.938	243.796	-0.196	-0.328
-449.924	-57.548	-0.148	-0.064
-448.909	-122.530	0.041	-0.007
-447.895	-82.408	0.175	-0.057
-446.880	-71.276	-0.009	-0.003
-445.865	-97.746	0.155	0.040
-444.851	159.033	0.190	0.263
-443.836	-108.809	-0.247	-0.053
-442.822	85.550	0.280	-0.306
-441.807	-36.172	0.242	0.130
-440.792	-174.667	0.087	0.002
-439.778	-200.000	0.006	-0.211
-438.763	126.934	0.122	0.154
-437.749	-18.450	-0.136	0.084
-436.734	800.000	0.016	0.068
-435.719	-154.871	0.140	-0.009
-434.705	581.292	-0.125	0.306
-433.690	-195.943	0.317	-0.002
-432.676	-15.642	0.225	-0.143
-431.661	-79.113	-0.205	-0.069
-430.646	-55.644	-0.186	-0.083
-429.632	800.000	0.099	-0.279
-428.617	800.000	-0.041	-0.179
-427.603	292.036	0.176	0.318
-426.588	56.968	0.110	0.107
-425.573	-83.023	0.153	-0.049
-424.559	-120.722	-0.213	-0.036
-423.544	250.006	-0.081	0.138
-422.530	-28.738	0.110	0.063
-421.515	209.841	-0.226	-0.352
-420.500	800.000	-0.144	0.539
-419.486	87.992	0.090	-0.100
-418.471	-89.372	-0.121	0.036
-417.457	-70.111	0.304	-0.115
-416.442	-60.995	-0.235	0.099
-415.428	51.926	0.150	0.142
-414.413	-137.371	-0.134	-0.015
-413.398	-99.563	0.334	-0.084
-412.384	57.463	0.122	-0.119
-411.369	-84.934	0.220	-0.069
-410.355	-18.705	-0.125	0.077
-409.340	-16.120	-0.352	-0.223
-408.325	-150.945	-0.183	0.014
-407.311	-200.000	0.000	-0.132
-406.296	-200.000	0.012	0.304
-405.282	-200.000	-0.048	-0.251
-404.267	-55.847	0.109	0.048
-403.252	800.000	0.104	-0.285
-402.238	41.460	0.269	-0.242
-401.223	401.140	-0.017	0.034
-400.209	57.561	0.328	-0.319
-399.194	-200.000	0.012	-0.119
-398.179	513.849	-0.074	-0.171
-397.165	800.000	-0.107	0.300
-396.150	-59.586	-0.248	-0.106
-395.136	55.922	0.058	0.056
-394.121	-46.548	0.503	0.245
-393.106	-200.000	0.000	0.270
-392.092	-200.000	0.038	-0.212
-391.077	243.522	0.191	0.319
-390.063	-65.045	0.442	-0.177
-389.048	-8.203	-0.302	0.202
-388.033	-99.467	-0.083	-0.021
-387.019	-106.720	-0.231	0.051
-386.004	-46.933	-0.132	0.064
-384.990	-166.570	-0.057	0.002
-383.975	181.599	0.148	0.216
-382.960	109.121	0.167	-0.198
-381.946	265.956	-0.068	-0.118
-380.931	282.492	-0.140	0.249
-379.917	573.612	-0.143	0.348
-378.902	31.013	0.278	0.237
-377.888	800.000	0.034	-0.123
-376.873	-65.235	-0.226	-0.091
-375.858	767.461	0.127	0.344
-374.844	91.897	-0.022	0.025
-373.829	800.000	0.104	0.386
-372.815	800.000	-0.010	-0.027
-371.800	-55.908	-0.102	-0.045
-370.785	-27.984	-0.053	0.031
-369.771	-87.286	0.187	0.056
-368.756	555.015	-0.158	-0.377
-367.742	155.441	0.182	-0.249
-366.727	-74.857	-0.389	-0.139
-365.712	-138.792	0.127	-0.014
-364.698	-200.000	-0.009	0.311
-363.683	130.686	-0.089	0.113
-362.669	151.349	0.111	-0.150
-361.654	-61.243	0.215	-0.090
-360.639	69.339	0.157	0.161
-359.625	422.119	-0.116	-0.248
-358.610	800.000	0.045	0.192
-357.596	0.856	0.082	-0.059
-356.581	-106.266	0.554	0.123
-355.566	-108.990	-0.303	0.064
-354.552	74.493	0.045	-0.047
-353.537	-200.000	-0.013	0.123
-352.523	37.748	-0.244	0.215
-351.508	106.316	0.170	0.200
-350.493	13.821	-0.158	0.122
-349.479	-98.997	-0.243	-0.061
-348.464	-200.000	-0.017	-0.426
-347.450	214.400	-0.122	0.192
-346.435	-200.000	0.074	-0.365
-345.420	-22.426	0.284	-0.171
-344.406	-50.170	-0.258	0.121
-343.391	-131.178	0.073	-0.010
-342.377	-20.500	-0.022	0.014
-341.362	-200.000	0.012	0.069
-340.348	-14.659	0.155	0.099
-339.333	-47.922	0.295	-0.141
-338.318	800.000	-0.085	0.303
-337.304	423.787	0.057	0.122
-336.289	800.000	-0.045	0.167
-335.275	-135.822	0.064	-0.007
-334.260	-200.000	0.046	0.328
-333.245	-138.978	0.070	0.008
-332.231	-200.000	0.052	-0.363
-331.216	67.059	0.081	-0.082
-330.202	72.388	0.168	0.173
-329.187	-71.873	0.011	0.004
-328.172	-200.000	0.017	0.282
-327.158	-109.011	0.158	-0.033
-326.143	800.000	0.113	0.410
-325.129	174.589	0.206	-0.295
-324.114	545.105	0.117	0.277
-323.099	-196.957	0.195	-0.001
-322.085	-200.000	0.009	0.279
-321.070	-200.000	0.115	0.000
-320.056	121.191	0.058	0.072
-319.041	17.329	0.131	-0.103
-318.026	522.050	0.062	0.144
-317.012	199.037	-0.223	0.338
-315.997	188.026	0.128	0.189
-314.983	-67.908	-0.180	0.070
-313.968	-200.000	-0.046	-0.235
-312.953	608.681	-0.129	-0.319
-311.939	-200.000	0.026	-0.279
-310.924	23.599	-0.254	0.207
-309.910	-115.333	0.154	-0.029
-308.895	22.347	-0.092	-0.075
-307.880	-25.993	-0.174	-0.102
-306.866	-115.963	0.304	0.056
-305.851	-12.099	0.168	-0.109
-304.837	55.827	0.061	-0.058
-303.822	-200.000	0.024	-0.263
-302.807	41.892	-0.201	-0.180
-301.793	158.941	0.072	0.099
-300.778	-200.000	-0.028	-0.366
-299.764	-95.847	-0.354	-0.093
-298.749	12.206	0.300	-0.229
-297.735	10.067	0.216	-0.163
-296.720	-200.000	-0.017	0.182
-295.705	-51.237	0.248	0.115
-294.691	-99.896	-0.338	-0.084
-293.676	-89.748	0.241	0.070
-292.662	-200.000	0.048	0.302
-291.647	-68.249	-0.320	0.123
-290.632	-133.551	-0.214	-0.027
-289.618	-115.867	-0.293	-0.054
-288.603	-105.751	-0.083	-0.019
-287.589	-97.027	0.124	0.032
-286.574	109.007	-0.135	0.160
-285.559	-111.054	0.154	-0.031
-284.545	-89.112	-0.187	0.055
-283.530	-31.081	-0.090	-0.050
-282.516	800.000	-0.078	-0.268
-281.501	-49.115	0.093	0.044
-280.486	233.430	0.155	-0.253
-279.472	24.275	-0.361	0.295
-278.457	-17.106	-0.124	-0.077
-277.443	-88.949	0.245	0.072
-276.428	-113.948	-0.031	-0.006
-275.413	-85.663	-0.258	-0.079
-274.399	6.699	-0.326	-0.240
-273.384	5.362	-0.254	0.185
-272.370	-41.552	-0.148	0.076
-271.355	800.000	-0.134	0.368
-270.340	-200.000	0.007	0.225
-269.326	597.568	-0.100	0.246
-268.311	126.353	0.094	-0.118
-267.297	800.000	-0.071	-0.294
-266.282	-200.000	0.045	0.424
-265.267	-200.000	-0.010	0.154
-264.253	-200.000	-0.009	0.164
-263.238	702.280	-0.079	0.207
-262.224	-200.000	0.039	-0.245
-261.209	-36.655	-0.066	-0.035
-260.195	-35.228	-0.173	-0.093
-259.180	-60.424	0.185	0.078
-258.165	-200.000	-0.032	0.140
-257.151	-38.582	-0.154	0.081
-256.136	-65.494	-0.325	-0.129
-255.122	2.115	0.050	0.036
-254.107	-160.756	0.237	-0.012
-253.092	8.500	-0.297	0.221
-252.078	165.218	-0.021	0.029
-251.063	-96.108	0.390	-0.102
-250.049	-200.000	0.064	-0.329
-249.034	2.135	0.065	-0.046
-248.019	-200.000	-0.024	-0.509
-247.005	800.000	0.100	-0.331
-245.990	-150.130	-0.396	0.030
-244.976	-63.716	-0.276	-0.112
-243.961	-80.061	0.218	0.072
-242.946	451.770	0.071	-0.155
-241.932	151.255	-0.216	0.291
-240.917	247.223	0.165	0.276
-239.903	-38.106	0.254	-0.133
-238.888	493.670	0.049	0.111
-237.873	-200.000	0.050	0.253
-236.859	100.857	-0.122	-0.140
-235.844	-85.969	-0.386	-0.118
-234.830	-34.193	0.224	0.122
-233.815	-64.824	0.315	-0.126
-232.800	-65.352	-0.153	-0.061
-231.786	-17.132	-0.081	0.051
-230.771	-200.000	0.002	-0.066
-229.757	-200.000	-0.034	0.150
-228.742	27.437	0.272	0.226
-227.727	-43.371	-0.290	0.145
-226.713	-79.884	0.147	-0.049
-225.698	800.000	-0.071	-0.263
-224.684	-47.750	-0.186	-0.089
-223.669	-200.000	0.020	0.178
-222.655	212.340	-0.209	-0.325
-221.640	-101.979	-0.336	0.080
-220.625	-200.000	-0.003	0.363
-219.611	-33.951	0.224	-0.122
-218.596	76.707	-0.118	0.124
-217.582	-8.127	0.197	0.131
-216.567	800.000	-0.118	0.349
-215.552	800.000	0.095	-0.270
-214.538	90.592	0.212	0.235
-213.523	800.000	-0.028	0.115
-212.509	-33.955	-0.431	-0.234
-211.494	112.050	0.092	-0.110
-210.479	-51.139	-0.144	-0.066
-209.465	-200.000	-0.021	0.166
-208.450	18.020	0.178	0.140
-207.436	-200.000	-0.001	0.330
-206.421	-66.726	-0.215	0.084
-205.406	727.765	0.090	-0.238
-204.392	-200.000	0.011	0.272
-203.377	58.509	-0.123	-0.119
-202.363	-114.112	0.259	0.049
-201.348	-90.947	0.274	-0.078
-200.333	234.108	0.142	0.231
-199.319	665.384	-0.026	-0.066
-198.304	192.692	-0.046	-0.069
-197.290	20.735	-0.095	-0.076
-196.275	-87.599	0.190	0.057
-195.260	-200.000	0.002	0.083
-194.246	-200.000	0.001	-0.222
-193.231	-187.579	0.051	0.001
-192.217	-78.807	0.264	-0.089
-191.202	466.441	0.086	-0.190
-190.187	-166.867	-0.432	-0.018
-189.173	34.407	0.035	0.030
-188.158	-115.103	-0.268	0.050
-187.144	-154.063	0.325	0.022
-186.129	-87.050	0.343	-0.103
-185.114	-140.059	-0.248	-0.026
-184.100	59.171	-0.132	-0.128
-183.085	21.847	-0.025	0.020
-182.071	258.768	0.161	-0.273
-181.056	391.634	-0.055	0.112
-180.042	47.052	-0.131	0.120
-179.027	196.083	0.053	0.080
-178.012	-200.000	0.004	0.117
-176.998	800.000	0.108	-0.307
-175.983	-200.000	0.046	0.275
-174.969	74.225	0.105	-0.109
-173.954	530.090	0.048	0.113
-172.939	-99.925	-0.074	-0.018
-171.925	-73.884	-0.429	0.154
-170.910	-119.889	0.248	0.042
-169.896	271.127	-0.131	-0.227
-168.881	321.142	-0.184	-0.345
-167.866	303.923	0.144	-0.262
-166.852	524.177	0.089	0.205
-165.837	22.924	0.287	0.232
-164.823	28.256	0.269	0.224
-163.808	541.940	0.117	0.274
-162.793	198.346	0.170	0.256
-161.779	93.468	-0.148	-0.165
-160.764	68.044	-0.145	-0.146
-159.750	800.000	0.040	0.128
-158.735	-123.226	-0.491	-0.077
-157.720	800.000	-0.032	-0.123
-156.706	155.560	0.062	0.085
-155.691	-43.732	-0.140	-0.070
-154.677	-200.000	-0.022	0.263
-153.662	-7.225	-0.589	-0.393
-152.647	98.945	-0.227	-0.258
-151.633	-200.000	0.006	-0.058
-150.618	243.612	0.142	0.234
-149.604	-82.486	-0.298	0.095
-148.589	800.000	-0.097	0.321
-147.574	-162.957	-0.308	-0.015
-146.560	-200.000	-0.025	-0.266
-145.545	800.000	0.033	-0.103
-144.531	-107.182	-0.154	-0.033
-143.516	-200.000	0.002	0.313
-142.502	41.137	0.221	0.196
-141.487	-200.000	0.007	-0.271
-140.472	-40.043	-0.193	-0.099
-139.458	-200.000	-0.035	-0.224
-138.443	-200.000	0.007	-0.051
-137.429	-58.452	0.203	-0.087
-136.414	355.946	-0.072	-0.140
-135.399	164.436	0.187	-0.260
-134.385	6.275	0.024	-0.018
-133.370	22.067	-0.106	-0.085
-132.356	-56.596	0.164	0.072
-131.341	157.871	-0.111	-0.151
-130.326	-181.142	-0.200	-0.004
-129.312	24.928	-0.258	-0.211
-128.297	800.000	0.040	0.156
-127.283	-200.000	-0.009	-0.308
-126.268	-200.000	0.066	-0.309
-125.253	-53.237	-0.282	0.127
-124.239	-54.307	0.253	0.113
-123.224	800.000	-0.083	-0.239
-122.210	-200.000	-0.020	-0.191
