DTS Sentinel unit serial number:	SN413079Multiplexer serial number:	ORYXHardware model number:	OX4-SRSoftware version number:	ORYX F/W v4.00 Oryx Data Collector v3.7.2.0data status	okinstallation	princeton_trtdifferential loss correction	single-endedforward channel	channel 1reverse channel	N/Adate	2019/09/11time	05:36:11forward acquisition time	60.00reverse acquisition time	0.00gamma	496.2192k internal	0.2330k external	0.2330temperature offset calibration	0.9924default loss term (dB/km)	0.3790temperature slope calibration	1.0000multiplexer offset coefficient	1.0000multiplexer slope coefficient	1.0000fibre end	0.00T internal ref (°C)	29.41T ext. ref 1 (°C)	-0.25T ext. ref 2 (°C)	23.39length (m)	temperature (°C)	Stokes	anti-Stokes-747.200	-145.872	-0.227	0.020
-746.185	-177.319	-0.199	-0.005
-745.171	-133.120	-0.054	-0.007
-744.156	-200.000	0.017	-0.107
-743.142	-190.482	-0.104	0.001
-742.127	-200.000	-0.038	0.339
-741.112	-72.523	-0.132	-0.049
-740.098	-27.298	0.069	0.040
-739.083	-40.383	0.280	0.146
-738.069	-200.000	0.041	0.232
-737.054	157.951	-0.244	0.341
-736.039	227.180	-0.131	0.214
-735.025	61.998	-0.137	-0.137
-734.010	123.619	-0.323	-0.408
-732.996	48.875	-0.302	-0.285
-731.981	-200.000	0.016	-0.233
-730.966	-91.475	-0.174	0.050
-729.952	81.425	-0.253	-0.276
-728.937	55.416	-0.079	-0.077
-727.923	208.439	-0.120	0.189
-726.908	16.591	-0.154	-0.123
-725.894	800.000	-0.116	0.368
-724.879	800.000	-0.031	0.130
-723.864	54.586	-0.278	0.270
-722.850	538.846	-0.029	-0.070
-721.835	36.629	-0.133	0.118
-720.821	768.168	-0.032	0.087
-719.806	76.037	0.099	0.105
-718.791	-194.555	-0.155	-0.001
-717.777	59.038	-0.210	-0.208
-716.762	171.490	0.105	-0.151
-715.748	800.000	0.049	-0.216
-714.733	-66.864	-0.195	-0.077
-713.718	152.169	-0.274	0.377
-712.704	-73.839	-0.166	0.061
-711.689	48.232	-0.300	-0.283
-710.675	-8.217	-0.255	-0.173
-709.660	310.060	-0.123	-0.231
-708.645	800.000	0.014	0.057
-707.631	-50.353	-0.382	0.182
-706.616	-200.000	0.031	0.189
-705.602	-80.274	0.359	-0.121
-704.587	14.622	0.197	-0.155
-703.572	5.965	-0.115	-0.085
-702.558	800.000	-0.009	-0.029
-701.543	-33.052	0.325	-0.181
-700.529	106.477	0.061	-0.072
-699.514	39.942	-0.191	0.173
-698.499	-200.000	-0.011	0.275
-697.485	-75.494	0.166	-0.060
-696.470	15.775	-0.250	0.197
-695.456	342.422	0.031	0.061
-694.441	-200.000	-0.037	0.420
-693.426	96.521	-0.123	0.141
-692.412	-148.666	-0.206	0.017
-691.397	87.345	0.109	0.121
-690.383	-50.455	-0.172	-0.081
-689.368	-200.000	0.028	0.129
-688.354	-129.632	-0.309	0.043
-687.339	287.664	0.119	0.217
-686.324	319.085	0.206	0.392
-685.310	10.251	-0.077	0.059
-684.295	282.052	-0.014	-0.026
-683.281	-43.522	-0.317	0.161
-682.266	-200.000	0.018	-0.226
-681.251	-94.417	-0.534	-0.146
-680.237	-200.000	-0.015	0.077
-679.222	-142.262	0.086	-0.008
-678.208	-200.000	-0.018	-0.121
-677.193	-42.924	-0.221	0.113
-676.178	-28.281	0.230	-0.133
-675.164	-26.653	0.215	0.127
-674.149	800.000	0.066	0.268
-673.135	-150.551	0.523	0.040
-672.120	156.490	-0.215	0.297
-671.105	-62.444	0.051	-0.021
-670.091	-200.000	0.026	-0.150
-669.076	-200.000	-0.033	0.287
-668.062	-200.000	-0.016	0.104
-667.047	1.617	-0.181	-0.131
-666.032	-200.000	0.004	0.253
-665.018	6.842	0.123	-0.092
-664.003	276.013	-0.063	0.112
-662.989	248.942	-0.154	-0.262
-661.974	117.130	-0.101	0.124
-660.959	-137.303	-0.507	0.058
-659.945	-200.000	0.004	-0.167
-658.930	-200.000	-0.059	-0.418
-657.916	800.000	-0.095	-0.350
-656.901	44.542	0.138	-0.127
-655.886	-81.366	0.108	0.036
-654.872	-179.231	-0.301	-0.007
-653.857	506.976	0.074	0.173
-652.843	-200.000	-0.002	0.058
-651.828	113.457	0.031	0.038
-650.814	17.720	0.201	0.160
-649.799	-15.025	-0.203	-0.130
-648.784	-71.787	0.304	0.114
-647.770	434.837	-0.102	0.222
-646.755	-57.875	-0.158	-0.069
-645.741	-61.960	0.176	-0.074
-644.726	-64.640	-0.363	0.148
-643.711	69.661	-0.142	-0.147
-642.697	408.476	-0.084	-0.178
-641.682	780.562	-0.057	-0.156
-640.668	173.898	-0.058	-0.084
-639.653	243.954	-0.078	-0.131
-638.638	800.000	-0.037	-0.147
-637.624	-81.396	-0.284	-0.094
-636.609	-196.881	-0.310	0.002
-635.595	-89.529	-0.342	0.101
-634.580	44.738	-0.123	0.113
-633.565	800.000	0.083	-0.243
-632.551	-200.000	-0.023	0.239
-631.536	-22.233	0.137	-0.083
-630.522	-200.000	0.063	-0.283
-629.507	303.644	-0.034	0.064
-628.492	40.234	0.283	-0.255
-627.478	-135.467	-0.243	0.029
-626.463	-71.504	0.186	-0.070
-625.449	53.324	-0.160	0.154
-624.434	-113.518	-0.305	-0.060
-623.419	-200.000	-0.017	-0.135
-622.405	-29.712	-0.217	0.124
-621.390	-200.000	-0.052	0.451
-620.376	-38.382	-0.045	0.024
-619.361	611.461	0.077	0.193
-618.346	-53.105	0.196	0.090
-617.332	-29.880	0.160	-0.091
-616.317	55.400	0.051	-0.050
-615.303	64.333	0.193	-0.194
-614.288	89.291	-0.094	0.105
-613.273	-43.201	-0.227	0.115
-612.259	-97.673	0.032	-0.008
-611.244	-200.000	0.038	-0.207
-610.230	-119.107	-0.462	0.081
-609.215	800.000	-0.010	-0.037
-608.201	800.000	0.057	0.226
-607.186	-76.714	0.108	-0.038
-606.171	390.706	-0.076	-0.158
-605.157	-200.000	0.163	0.000
-604.142	-128.260	-0.156	-0.022
-603.128	682.450	-0.166	0.433
-602.113	-65.158	0.054	0.022
-601.098	69.874	-0.014	-0.014
-600.084	43.515	-0.089	-0.082
-599.069	-94.485	-0.274	-0.075
-598.055	-6.477	0.121	0.083
-597.040	800.000	0.059	-0.251
-596.025	39.813	0.067	-0.060
-595.011	-200.000	0.028	0.253
-593.996	-101.652	0.234	-0.057
-592.982	-200.000	0.004	-0.188
-591.967	69.170	-0.067	-0.069
-590.952	68.311	-0.035	-0.036
-589.938	-10.024	0.064	-0.043
-588.923	432.930	-0.044	0.096
-587.909	169.577	0.117	0.167
-586.894	595.535	-0.092	0.228
-585.879	-31.745	-0.385	0.216
-584.865	640.488	-0.081	-0.206
-583.850	800.000	-0.043	0.155
-582.836	-200.000	0.045	0.245
-581.821	-84.565	-0.125	0.040
-580.806	-150.817	-0.122	-0.009
-579.792	21.663	0.159	-0.129
-578.777	-53.858	-0.138	0.063
-577.763	121.690	-0.068	0.084
-576.748	-200.000	-0.036	-0.263
-575.733	-85.959	-0.137	-0.042
-574.719	-200.000	0.011	0.141
-573.704	-84.926	-0.153	-0.048
-572.690	-165.836	0.223	0.010
-571.675	8.085	-0.111	-0.083
-570.661	104.097	0.306	-0.360
-569.646	9.923	-0.124	-0.094
-568.631	108.958	-0.113	0.135
-567.617	-28.406	0.045	-0.026
-566.602	-74.582	0.362	0.130
-565.588	-85.126	-0.194	0.061
-564.573	-74.200	0.276	0.100
-563.558	137.003	-0.212	-0.276
-562.544	8.300	0.291	0.218
-561.529	415.863	0.164	0.350
-560.515	14.574	0.089	0.069
-559.500	-174.527	-0.334	-0.010
-558.485	377.562	0.052	0.107
-557.471	-74.540	0.187	0.067
-556.456	97.793	-0.216	-0.248
-555.442	800.000	0.036	0.154
-554.427	-100.550	0.165	0.041
-553.412	14.998	-0.192	-0.150
-552.398	-200.000	0.010	-0.209
-551.383	92.964	-0.075	0.085
-550.369	-194.640	0.163	0.001
-549.354	-200.000	-0.062	0.303
-548.339	97.243	-0.089	-0.102
-547.325	97.844	-0.047	-0.054
-546.310	800.000	0.071	0.201
-545.296	-200.000	-0.023	-0.156
-544.281	-189.331	-0.463	0.005
-543.266	-113.845	0.582	0.113
-542.252	800.000	0.020	-0.077
-541.237	-108.804	-0.260	0.056
-540.223	37.821	-0.138	-0.123
-539.208	79.243	0.069	0.074
-538.193	-161.937	-0.239	-0.012
-537.179	800.000	0.030	-0.099
-536.164	16.709	-0.114	0.090
-535.150	-114.499	-0.200	-0.038
-534.135	386.156	0.090	0.185
-533.121	-35.529	0.117	-0.064
-532.106	-34.522	-0.157	0.086
-531.091	89.171	0.169	0.188
-530.077	214.530	0.160	-0.252
-529.062	-200.000	-0.026	-0.173
-528.048	-22.190	0.085	0.051
-527.033	800.000	-0.056	0.207
-526.018	-97.554	0.208	-0.054
-525.004	-76.875	0.242	-0.084
-523.989	20.180	-0.230	0.185
-522.975	120.661	0.069	0.086
-521.960	-65.249	0.231	0.093
-520.945	800.000	-0.111	0.437
-519.931	98.584	0.004	-0.004
-518.916	-137.441	-0.093	0.010
-517.902	52.931	0.100	-0.095
-516.887	32.659	0.060	-0.052
-515.872	147.868	-0.151	-0.203
-514.858	294.362	-0.054	-0.098
-513.843	186.936	0.261	0.388
-512.829	-43.910	-0.334	-0.168
-511.814	-83.643	0.223	0.071
-510.799	179.290	0.080	0.117
-509.785	301.839	-0.102	0.188
-508.770	577.512	-0.027	-0.066
-507.756	-98.432	-0.256	-0.065
-506.741	800.000	0.146	0.441
-505.726	72.294	0.393	0.408
-504.712	-200.000	0.041	-0.191
-503.697	800.000	0.033	-0.097
-502.683	-200.000	0.045	-0.207
-501.668	59.502	-0.106	-0.104
-500.653	-182.456	0.111	0.002
-499.639	-95.308	0.196	0.053
-498.624	-34.997	-0.208	-0.113
-497.610	-4.596	-0.335	-0.231
-496.595	-49.980	-0.182	0.086
-495.581	262.994	0.057	0.099
-494.566	-200.000	-0.007	0.099
-493.551	-158.973	-0.390	0.022
-492.537	800.000	0.071	-0.224
-491.522	-133.932	-0.283	0.035
-490.508	-127.764	-0.659	-0.095
-489.493	360.461	0.193	-0.384
-488.478	46.584	0.281	-0.260
-487.464	-200.000	-0.004	-0.215
-486.449	85.404	-0.242	-0.265
-485.435	129.321	-0.131	0.166
-484.420	113.933	0.188	-0.228
-483.405	89.116	0.049	-0.055
-482.391	-74.645	-0.217	-0.078
-481.376	-148.119	0.343	0.028
-480.362	-120.892	0.353	-0.059
-479.347	111.699	0.121	0.146
-478.332	93.805	0.240	0.271
-477.318	800.000	-0.102	0.340
-476.303	-76.674	-0.473	-0.165
-475.289	3.421	-0.127	-0.092
-474.274	119.364	-0.062	-0.077
-473.259	-7.058	-0.090	0.061
-472.245	-200.000	0.009	0.043
-471.230	-119.216	-0.218	0.038
-470.216	22.692	0.290	0.236
-469.201	-200.000	0.036	0.465
-468.186	171.759	-0.156	0.224
-467.172	-69.734	-0.346	0.132
-466.157	431.548	-0.094	0.203
-465.143	800.000	0.038	-0.161
-464.128	22.123	-0.162	-0.131
-463.113	539.320	0.062	-0.146
-462.099	-200.000	-0.012	-0.157
-461.084	-121.328	-0.224	0.037
-460.070	-200.000	0.037	-0.286
-459.055	-49.057	-0.072	0.035
-458.040	-200.000	0.035	0.240
-457.026	68.629	0.094	-0.096
-456.011	-127.821	-0.130	-0.019
-454.997	-200.000	-0.002	0.036
-453.982	27.914	-0.099	0.083
-452.968	-95.259	0.372	0.100
-451.953	-82.087	0.092	0.030
-450.938	13.458	0.116	-0.089
-449.924	173.420	0.052	0.075
-448.909	-78.010	-0.107	0.037
-447.895	-13.175	0.182	-0.118
-446.880	110.029	-0.015	-0.018
-445.865	567.734	0.067	0.162
-444.851	-86.823	0.101	0.031
-443.836	277.049	-0.048	-0.085
-442.822	-158.955	0.112	0.006
-441.807	-124.168	-0.239	0.037
-440.792	29.721	-0.268	-0.227
-439.778	-200.000	-0.002	-0.221
-438.763	-147.325	-0.215	-0.018
-437.749	-86.576	0.148	-0.045
-436.734	-25.366	0.068	-0.040
-435.719	-200.000	-0.022	-0.335
-434.705	-195.606	0.464	0.003
-433.690	578.944	0.061	-0.148
-432.676	167.260	0.252	-0.356
-431.661	800.000	0.030	-0.119
-430.646	-200.000	-0.041	-0.247
-429.632	14.102	0.144	-0.112
-428.617	-46.197	-0.027	0.013
-427.603	-69.660	0.108	0.041
-426.588	223.306	0.114	0.184
-425.573	-200.000	0.002	0.385
-424.559	18.870	-0.251	-0.200
-423.544	83.156	0.102	-0.110
-422.530	298.955	0.031	0.057
-421.515	56.274	-0.072	0.069
-420.500	-97.139	0.369	0.096
-419.486	-23.267	-0.276	-0.165
-418.471	-125.643	-0.231	0.035
-417.457	-42.363	0.016	0.008
-416.442	-87.055	0.116	-0.035
-415.428	176.287	0.054	0.079
-414.413	126.653	-0.240	0.302
-413.398	-51.817	0.160	-0.074
-412.384	-32.810	-0.338	0.187
-411.369	800.000	-0.012	0.037
-410.355	224.968	-0.102	-0.163
-409.340	-200.000	-0.042	-0.252
-408.325	-200.000	0.031	-0.221
-407.311	-104.032	0.124	-0.029
-406.296	800.000	-0.093	-0.258
-405.282	72.265	-0.125	0.130
-404.267	393.048	0.022	-0.045
-403.252	-41.772	-0.191	0.097
-402.238	53.716	-0.083	-0.080
-401.223	-200.000	-0.001	0.131
-400.209	-148.331	0.051	-0.004
-399.194	-70.814	-0.181	-0.068
-398.179	-24.011	-0.246	0.146
-397.165	79.586	0.157	0.167
-396.150	-74.600	-0.120	-0.043
-395.136	411.684	0.081	0.170
-394.121	-184.775	0.246	-0.004
-393.106	334.804	0.133	-0.257
-392.092	-144.974	0.217	0.020
-391.077	555.163	-0.122	0.291
-390.063	-200.000	-0.000	-0.253
-389.048	-101.152	0.080	0.019
-388.033	10.932	0.224	0.170
-387.019	-200.000	-0.024	0.154
-386.004	-115.333	-0.109	0.020
-384.990	155.292	0.331	0.452
-383.975	-130.553	0.192	0.026
-382.960	-184.639	-0.137	0.002
-381.946	-200.000	0.058	-0.325
-380.931	800.000	-0.049	0.181
-379.917	-139.842	0.160	-0.017
-378.902	369.628	-0.098	0.197
-377.888	99.945	0.155	0.178
-376.873	234.144	-0.036	-0.058
-375.858	800.000	0.045	0.156
-374.844	-109.652	-0.132	0.028
-373.829	-50.638	0.239	0.112
-372.815	104.386	-0.125	0.146
-371.800	78.315	0.181	-0.192
-370.785	101.872	0.102	0.118
-369.771	60.653	-0.138	0.135
-368.756	297.132	0.043	0.079
-367.742	-200.000	0.022	-0.149
-366.727	-92.845	0.189	0.052
-365.712	-66.926	0.213	0.083
-364.698	-200.000	0.009	-0.356
-363.683	142.519	0.074	-0.098
-362.669	-67.681	-0.260	0.101
-361.654	462.628	0.072	-0.159
-360.639	-47.856	-0.311	-0.150
-359.625	-26.539	0.234	-0.136
-358.610	-200.000	0.044	-0.215
-357.596	21.987	-0.086	-0.070
-356.581	161.637	0.056	-0.077
-355.566	-131.750	0.481	0.063
-354.552	-49.662	-0.277	-0.131
-353.537	143.274	-0.224	0.296
-352.523	-148.181	-0.289	0.024
-351.508	-51.520	-0.228	0.106
-350.493	242.630	0.025	-0.042
-349.479	208.533	-0.149	-0.231
-348.464	-100.626	0.289	-0.071
-347.450	547.521	0.101	-0.240
-346.435	190.756	0.039	-0.058
-345.420	-200.000	0.007	0.061
-344.406	68.241	0.063	-0.064
-343.391	194.410	-0.131	-0.197
-342.377	213.631	0.123	0.192
-341.362	93.231	0.242	0.271
-340.348	330.160	0.022	-0.041
-339.333	-200.000	0.054	-0.245
-338.318	800.000	-0.057	0.184
-337.304	-166.135	0.220	-0.009
-336.289	135.314	-0.090	-0.116
-335.275	-13.409	0.106	-0.068
-334.260	800.000	-0.157	0.432
-333.245	800.000	-0.094	-0.376
-332.231	800.000	0.102	-0.280
-331.216	-164.698	0.128	0.006
-330.202	51.071	0.206	0.194
-329.187	-28.106	0.131	-0.075
-328.172	-86.235	0.349	0.107
-327.158	-83.783	-0.128	0.040
-326.143	-200.000	-0.019	-0.157
-325.129	-200.000	-0.015	-0.253
-324.114	-156.346	0.211	-0.013
-323.099	-145.325	-0.439	0.039
-322.085	70.317	0.124	-0.127
-321.070	-34.975	-0.218	-0.118
-320.056	38.990	-0.041	-0.036
-319.041	-64.323	-0.468	0.189
-318.026	-39.680	-0.051	-0.027
-317.012	258.012	0.098	-0.167
-315.997	96.083	0.075	-0.085
-314.983	-142.675	-0.467	0.045
-313.968	252.214	0.079	-0.134
-312.953	-200.000	-0.042	0.304
-311.939	-144.656	0.272	-0.025
-310.924	-200.000	-0.008	-0.256
-309.910	-200.000	0.040	-0.276
-308.895	-139.712	0.283	0.030
-307.880	114.541	0.201	-0.242
-306.866	800.000	-0.040	-0.126
-305.851	60.050	0.123	0.120
-304.837	-6.776	-0.110	-0.074
-303.822	170.282	-0.081	0.115
-302.807	-7.366	0.250	-0.168
-301.793	-170.438	0.220	-0.008
-300.778	636.105	-0.051	-0.127
-299.764	-38.122	0.151	-0.079
-298.749	40.820	-0.115	0.103
-297.735	-200.000	0.020	-0.154
-296.720	800.000	-0.022	-0.072
-295.705	-200.000	-0.001	-0.251
-294.691	149.784	-0.090	0.121
-293.676	89.137	0.174	-0.192
-292.662	-31.013	-0.168	0.094
-291.647	-113.720	-0.446	-0.086
-290.632	120.834	0.103	-0.127
-289.618	-200.000	0.007	-0.272
-288.603	-89.136	0.378	0.110
-287.589	800.000	0.121	0.479
-286.574	-36.424	-0.173	-0.092
-285.559	5.034	-0.159	0.116
-284.545	-200.000	0.019	-0.561
-283.530	-17.321	0.207	0.129
-282.516	-84.401	0.121	-0.038
-281.501	-200.000	-0.029	0.133
-280.486	-147.496	-0.213	0.018
-279.472	-76.587	0.037	0.013
-278.457	-137.248	0.188	0.021
-277.443	-78.945	-0.322	-0.108
-276.428	237.717	-0.139	0.228
-275.413	-200.000	-0.050	0.248
-274.399	86.764	0.121	-0.133
-273.384	-124.039	0.287	-0.045
-272.370	68.722	0.318	0.322
-271.355	-200.000	0.010	0.136
-270.340	21.558	-0.169	0.136
-269.326	227.431	0.057	-0.091
-268.311	193.703	-0.057	-0.085
-267.297	-200.000	-0.023	0.313
-266.282	-150.400	0.018	-0.001
-265.267	-200.000	0.010	-0.196
-264.253	17.041	-0.038	-0.029
-263.238	436.125	-0.040	0.086
-262.224	-31.485	-0.285	0.158
-261.209	-176.768	0.149	-0.004
-260.195	-93.905	-0.094	-0.026
-259.180	-200.000	0.069	0.326
-258.165	-75.819	0.357	0.125
-257.151	-46.735	-0.061	-0.030
-256.136	-65.544	-0.392	-0.155
-255.122	257.204	0.067	0.114
-254.107	165.593	-0.156	0.218
-253.092	800.000	-0.066	0.189
-252.078	-104.000	-0.231	-0.053
-251.063	22.729	-0.211	0.170
-250.049	397.766	0.182	0.376
-249.034	237.997	0.205	-0.336
-248.019	-200.000	-0.007	-0.330
-247.005	83.357	-0.042	0.046
-245.990	-200.000	0.007	-0.207
-244.976	-7.853	0.210	0.140
-243.961	-94.376	0.178	0.048
-242.946	-142.078	0.136	-0.013
-241.932	77.650	0.498	-0.524
-240.917	-96.422	-0.265	0.069
-239.903	-200.000	-0.015	-0.191
-238.888	26.971	0.152	-0.126
-237.873	-200.000	0.021	-0.121
-236.859	-185.446	0.204	0.003
-235.844	-78.591	0.297	0.100
-234.830	679.821	0.036	-0.091
-233.815	-153.710	0.125	-0.009
-232.800	-200.000	-0.225	0.000
-231.786	800.000	-0.064	-0.187
-230.771	10.442	-0.229	-0.172
-229.757	261.603	-0.113	0.193
-228.742	399.032	0.148	-0.307
-227.727	10.237	0.210	-0.158
-226.713	306.404	-0.186	-0.341
-225.698	494.659	0.133	0.302
-224.684	-200.000	0.023	0.144
-223.669	-92.800	-0.236	0.065
-222.655	-200.000	-0.038	0.223
-221.640	189.609	0.213	-0.315
-220.625	454.596	0.137	-0.300
-219.611	156.049	-0.149	0.203
-218.596	-98.494	-0.145	0.036
-217.582	49.300	0.166	0.154
-216.567	-200.000	-0.030	0.152
-215.552	358.252	-0.019	0.037
-214.538	163.701	0.146	0.203
-213.523	-200.000	-0.005	0.369
-212.509	-2.016	0.149	0.103
-211.494	800.000	-0.082	-0.298
-210.479	30.089	-0.102	-0.085
-209.465	184.777	0.146	0.213
-208.450	800.000	0.065	-0.180
-207.436	-109.786	-0.245	0.051
-206.421	-189.667	0.358	-0.004
-205.406	-10.360	0.094	-0.061
-204.392	-4.070	0.159	-0.109
-203.377	-123.657	-0.495	-0.077
-202.363	332.389	-0.082	0.156
-201.348	-0.108	-0.207	0.145
-200.333	-128.776	0.106	0.015
-199.319	800.000	0.067	0.193
-198.304	270.033	0.104	-0.180
-197.290	-24.346	0.243	-0.143
-196.275	-145.708	0.122	-0.011
-195.260	22.186	-0.240	0.193
-194.246	174.683	0.081	0.116
-193.231	-200.000	0.118	0.000
-192.217	-86.306	0.273	-0.083
-191.202	-103.491	0.307	-0.071
-190.187	-200.000	0.069	0.327
-189.173	-150.735	0.199	-0.015
-188.158	266.241	0.050	0.087
-187.144	-200.000	-0.026	0.255
-186.129	-13.761	0.381	-0.243
-185.114	-53.589	-0.194	0.087
-184.100	0.829	0.035	0.025
-183.085	347.725	-0.047	0.092
-182.071	-200.000	0.038	-0.210
-181.056	-46.929	-0.214	0.103
-180.042	82.336	0.081	-0.087
-179.027	138.880	0.035	0.046
-178.012	-72.821	0.116	-0.042
-176.998	678.122	0.127	0.325
-175.983	794.123	0.041	-0.110
-174.969	-52.255	-0.264	0.120
-173.954	-13.487	-0.143	0.091
-172.939	-43.656	0.196	0.097
-171.925	-200.000	-0.015	0.204
-170.910	221.248	-0.079	-0.126
-169.896	112.223	0.182	-0.217
-168.881	4.491	0.086	0.062
-167.866	-101.881	-0.232	0.055
-166.852	800.000	0.095	0.273
-165.837	-23.723	0.288	0.170
-164.823	-200.000	-0.023	0.366
-163.808	57.821	-0.126	0.121
-162.793	-200.000	-0.043	-0.320
-161.779	-6.263	-0.150	-0.101
-160.764	83.335	0.051	-0.054
-159.750	-116.706	-0.248	-0.045
-158.735	-200.000	0.030	-0.203
-157.720	-200.000	-0.031	-0.195
-156.706	-200.000	0.033	0.000
-155.691	-10.731	-0.202	0.131
-154.677	-200.000	-0.084	0.396
-153.662	800.000	-0.033	0.092
-152.647	800.000	-0.050	-0.162
-151.633	131.011	0.046	-0.058
-150.618	-200.000	0.030	0.210
-149.604	-200.000	0.082	-0.682
-148.589	-125.452	-0.129	-0.019
-147.574	113.763	-0.212	-0.253
-146.560	-78.677	-0.350	-0.118
-145.545	90.378	0.190	0.209
-144.531	-17.412	0.370	0.229
-143.516	800.000	-0.120	0.502
-142.502	27.198	0.170	0.140
-141.487	-20.732	-0.097	0.059
-140.472	800.000	-0.051	0.164
-139.458	273.965	-0.157	0.273
-138.443	-75.221	-0.290	-0.102
-137.429	-11.012	0.063	0.041
-136.414	-200.000	0.013	0.289
-135.399	-200.000	0.057	0.255
-134.385	-25.820	0.124	-0.072
-133.370	-200.000	0.039	-0.372
-132.356	230.369	-0.246	0.396
-131.341	120.246	0.123	-0.150
-130.326	-164.846	-0.265	0.012
-129.312	-69.342	0.365	-0.138
-128.297	-200.000	0.006	-0.171
-127.283	-200.000	-0.016	0.277
-126.268	-1.953	-0.298	0.206
-125.253	-200.000	-0.072	-0.413
-124.239	-63.161	-0.479	-0.194
-123.224	-118.729	0.375	-0.065
-122.210	172.596	0.042	0.059
-121.195	-75.850	0.160	-0.056
