DTS Sentinel unit serial number:	SN413079Multiplexer serial number:	ORYXHardware model number:	OX4-SRSoftware version number:	ORYX F/W v4.00 Oryx Data Collector v3.7.2.0data status	okinstallation	princeton_trtdifferential loss correction	single-endedforward channel	channel 1reverse channel	N/Adate	2019/09/16time	23:46:35forward acquisition time	60.00reverse acquisition time	0.00gamma	496.2192k internal	0.2325k external	0.2325temperature offset calibration	0.9957default loss term (dB/km)	0.3790temperature slope calibration	1.0000multiplexer offset coefficient	1.0000multiplexer slope coefficient	1.0000fibre end	0.00T internal ref (°C)	29.69T ext. ref 1 (°C)	0.09T ext. ref 2 (°C)	23.80length (m)	temperature (°C)	Stokes	anti-Stokes-747.200	-79.616	-0.248	-0.084
-746.185	-200.000	-0.045	0.272
-745.171	20.593	0.092	0.075
-744.156	265.057	0.025	0.045
-743.142	13.586	0.272	-0.213
-742.127	511.899	0.104	0.243
-741.112	-160.425	-0.079	-0.004
-740.098	800.000	-0.076	0.293
-739.083	-53.620	-0.125	0.057
-738.069	-200.000	0.059	0.586
-737.054	-90.293	-0.184	-0.054
-736.039	188.476	-0.271	0.408
-735.025	149.297	-0.143	0.196
-734.010	-76.866	-0.275	0.097
-732.996	36.367	-0.077	0.068
-731.981	-200.000	0.061	0.348
-730.966	127.717	-0.164	0.211
-729.952	159.702	0.078	-0.110
-728.937	-104.005	0.086	0.020
-727.923	2.766	-0.272	-0.199
-726.908	-117.695	-0.083	-0.015
-725.894	-200.000	0.031	-0.358
-724.879	-86.862	-0.397	0.122
-723.864	-125.611	0.051	-0.008
-722.850	-157.529	-0.177	-0.011
-721.835	445.292	-0.183	-0.404
-720.821	46.295	-0.089	0.083
-719.806	-102.796	0.190	0.046
-718.791	-180.944	-0.438	0.009
-717.777	517.792	0.128	0.303
-716.762	-88.869	0.267	0.080
-715.748	-200.000	-0.017	0.082
-714.733	800.000	-0.090	-0.321
-713.718	-177.745	-0.104	0.003
-712.704	-10.148	-0.412	0.276
-711.689	-43.430	0.076	0.039
-710.675	-84.946	-0.082	-0.026
-709.660	267.307	-0.167	0.295
-708.645	155.037	0.076	0.106
-707.631	-6.239	-0.185	0.127
-706.616	81.745	-0.126	-0.137
-705.602	-75.989	0.212	-0.076
-704.587	800.000	0.047	-0.158
-703.572	17.863	0.371	0.298
-702.558	-65.807	0.388	0.156
-701.543	-91.732	0.091	0.026
-700.529	44.953	-0.173	-0.160
-699.514	-70.275	-0.306	0.117
-698.499	12.555	0.229	-0.178
-697.485	-181.736	-0.375	-0.007
-696.470	800.000	0.055	-0.167
-695.456	-200.000	-0.019	0.171
-694.441	82.696	0.147	0.161
-693.426	-200.000	-0.043	-0.196
-692.412	-200.000	0.013	-0.416
-691.397	800.000	-0.040	-0.150
-690.383	-200.000	-0.027	-0.211
-689.368	203.250	-0.065	-0.102
-688.354	-0.452	-0.188	-0.134
-687.339	600.471	-0.151	-0.377
-686.324	-174.472	0.113	-0.003
-685.310	-106.746	-0.269	0.060
-684.295	-7.357	0.139	-0.095
-683.281	-99.227	-0.220	-0.056
-682.266	-200.000	-0.007	-0.087
-681.251	18.989	0.256	-0.207
-680.237	174.504	0.045	0.065
-679.222	49.603	-0.018	0.017
-678.208	-6.723	-0.261	0.179
-677.193	-137.460	0.230	-0.026
-676.178	14.656	-0.228	-0.179
-675.164	773.109	0.040	-0.111
-674.149	-137.288	0.182	-0.021
-673.135	-27.809	0.235	-0.137
-672.120	800.000	0.083	-0.274
-671.105	-160.082	-0.144	-0.008
-670.091	-200.000	-0.015	-0.160
-669.076	-200.000	-0.057	-0.352
-668.062	-11.755	-0.288	0.190
-667.047	800.000	-0.087	0.302
-666.032	185.945	0.127	0.191
-665.018	244.081	-0.120	0.203
-664.003	-83.318	-0.442	-0.143
-662.989	800.000	-0.186	-0.563
-661.974	-130.973	0.457	-0.061
-660.959	-200.000	0.049	-0.290
-659.945	54.073	-0.042	0.041
-658.930	-53.885	-0.368	0.169
-657.916	461.728	-0.023	0.051
-656.901	-140.688	-0.068	0.007
-655.886	-160.602	0.252	0.014
-654.872	321.736	-0.105	-0.202
-653.857	353.471	-0.091	0.183
-652.843	800.000	0.064	-0.223
-651.828	43.996	-0.103	0.095
-650.814	-200.000	-0.072	0.336
-649.799	-200.000	0.017	-0.281
-648.784	50.473	-0.184	0.175
-647.770	800.000	0.044	0.171
-646.755	-200.000	-0.028	0.283
-645.741	-44.959	-0.088	0.044
-644.726	-200.000	0.022	0.141
-643.711	255.703	0.144	0.248
-642.697	81.609	-0.039	-0.042
-641.682	-110.590	-0.147	0.031
-640.668	637.047	0.023	-0.057
-639.653	-200.000	0.021	-0.102
-638.638	-35.904	-0.101	-0.055
-637.624	158.638	0.105	-0.146
-636.609	-200.000	0.047	0.373
-635.595	800.000	0.075	-0.212
-634.580	-0.989	0.201	-0.143
-633.565	800.000	0.069	-0.272
-632.551	-51.442	0.176	0.083
-631.536	69.655	0.142	-0.146
-630.522	117.941	-0.119	0.147
-629.507	800.000	0.023	-0.066
-628.492	114.682	-0.102	0.125
-627.478	264.610	-0.130	0.227
-626.463	-200.000	0.009	-0.259
-625.449	-90.144	0.159	-0.046
-624.434	-51.228	-0.293	0.138
-623.419	-200.000	0.007	0.151
-622.405	25.605	0.120	0.100
-621.390	378.303	0.065	0.134
-620.376	177.868	-0.156	0.228
-619.361	-95.076	-0.280	0.076
-618.346	800.000	0.051	-0.224
-617.332	-21.590	-0.092	-0.056
-616.317	-41.872	-0.074	0.038
-615.303	-135.508	0.207	-0.025
-614.288	-81.984	0.119	-0.039
-613.273	-200.000	0.029	0.138
-612.259	-147.590	-0.133	-0.011
-611.244	200.371	-0.047	0.073
-610.230	-1.147	-0.030	-0.022
-609.215	412.050	0.094	-0.201
-608.201	229.984	-0.080	-0.131
-607.186	-109.360	-0.091	0.019
-606.171	326.087	0.046	-0.087
-605.157	-200.000	-0.027	0.201
-604.142	-200.000	0.034	-0.246
-603.128	-145.745	-0.347	0.031
-602.113	101.457	-0.344	0.402
-601.098	145.360	-0.088	0.118
-600.084	-200.000	-0.015	0.144
-599.069	279.855	0.162	-0.291
-598.055	-200.000	0.001	0.056
-597.040	-200.000	-0.003	0.205
-596.025	-98.135	0.229	-0.059
-595.011	-125.688	0.083	0.013
-593.996	-53.617	0.069	-0.032
-592.982	1.966	0.031	-0.022
-591.967	-103.965	-0.068	-0.016
-590.952	-116.777	0.123	-0.023
-589.938	405.708	-0.131	-0.278
-588.923	-140.504	0.455	-0.047
-587.909	-38.242	0.183	0.097
-586.894	718.333	-0.099	0.265
-585.879	-200.000	0.016	0.145
-584.865	148.623	0.043	-0.058
-583.850	800.000	-0.070	-0.260
-582.836	-124.043	-0.148	-0.023
-581.821	-45.163	-0.412	0.205
-580.806	2.797	-0.232	0.168
-579.792	-104.341	-0.213	-0.049
-578.777	-194.688	0.075	-0.001
-577.763	800.000	0.020	-0.085
-576.748	3.487	-0.054	0.039
-575.733	639.304	-0.079	0.203
-574.719	-184.232	0.143	0.002
-573.704	-111.027	-0.132	0.027
-572.690	-45.253	0.052	0.026
-571.675	-35.961	0.167	0.090
-570.661	642.891	0.079	0.202
-569.646	-60.359	-0.184	-0.078
-568.631	5.309	0.237	0.175
-567.617	290.799	-0.076	-0.139
-566.602	-117.277	-0.364	-0.066
-565.588	-99.493	-0.120	-0.030
-564.573	24.120	-0.187	-0.155
-563.558	143.777	0.067	0.089
-562.544	-200.000	0.061	-0.579
-561.529	-87.805	-0.284	-0.086
-560.515	265.784	0.111	0.194
-559.500	-188.254	-0.210	0.003
-558.485	135.215	-0.088	0.114
-557.471	67.140	0.123	0.125
-556.456	-101.152	0.194	0.048
-555.442	-200.000	0.012	-0.070
-554.427	132.924	0.183	-0.237
-553.412	-200.000	0.045	-0.232
-552.398	-55.252	-0.283	0.127
-551.383	-20.989	-0.114	-0.070
-550.369	-33.147	-0.261	-0.145
-549.354	-86.450	-0.287	0.088
-548.339	374.732	-0.068	0.139
-547.325	76.333	-0.102	0.108
-546.310	15.763	-0.115	0.090
-545.296	-118.128	0.098	-0.018
-544.281	-98.425	-0.175	-0.045
-543.266	800.000	0.037	0.106
-542.252	186.427	0.116	-0.174
-541.237	-60.729	-0.227	0.096
-540.223	-106.434	-0.299	0.067
-539.208	134.582	-0.172	0.223
-538.193	265.694	0.050	0.088
-537.179	-200.000	-0.058	-0.316
-536.164	36.805	-0.180	-0.160
-535.150	172.813	0.106	-0.152
-534.135	9.171	0.309	-0.234
-533.121	-200.000	-0.070	0.000
-532.106	18.172	-0.147	0.117
-531.091	426.768	0.036	-0.077
-530.077	743.447	0.119	-0.320
-529.062	319.733	0.085	0.161
-528.048	-66.841	-0.228	0.090
-527.033	-14.014	0.170	0.110
-526.018	800.000	-0.110	0.314
-525.004	522.631	0.073	0.170
-523.989	52.240	-0.197	-0.188
-522.975	-173.222	0.335	0.010
-521.960	392.654	-0.104	0.217
-520.945	-200.000	-0.011	-0.222
-519.931	88.343	0.215	0.239
-518.916	-100.100	-0.176	-0.044
-517.902	629.821	-0.102	0.257
-516.887	71.263	-0.138	0.143
-515.872	-123.426	-0.163	-0.026
-514.858	800.000	0.055	-0.205
-513.843	174.699	0.143	0.207
-512.829	187.838	-0.066	-0.099
-511.814	-101.998	0.239	-0.058
-510.799	126.254	-0.031	-0.039
-509.785	-58.101	-0.256	-0.112
-508.770	800.000	0.089	-0.256
-507.756	-191.958	-0.199	-0.002
-506.741	-49.041	-0.353	-0.169
-505.726	63.405	-0.321	0.322
-504.712	1.436	0.146	-0.105
-503.697	351.617	0.087	-0.173
-502.683	96.194	0.212	-0.242
-501.668	-4.799	0.136	-0.094
-500.653	155.677	-0.054	-0.075
-499.639	721.408	0.117	0.312
-498.624	-41.675	0.126	-0.064
-497.610	619.965	0.086	0.216
-496.595	277.859	-0.087	0.155
-495.581	54.007	0.142	0.136
-494.566	149.459	-0.059	0.079
-493.551	226.878	0.261	-0.423
-492.537	-75.537	-0.102	0.036
-491.522	-85.754	0.039	0.012
-490.508	-200.000	0.039	-0.278
-489.493	302.563	0.125	-0.231
-488.478	-200.000	-0.036	0.180
-487.464	800.000	0.078	-0.326
-486.449	-200.000	-0.001	0.119
-485.435	-87.244	0.153	-0.046
-484.420	-115.610	0.004	0.001
-483.405	22.037	0.104	-0.085
-482.391	-0.293	0.232	-0.164
-481.376	682.873	0.023	0.059
-480.362	607.188	-0.090	0.224
-479.347	-200.000	-0.005	0.031
-478.332	66.217	0.251	0.254
-477.318	-200.000	-0.004	-0.332
-476.303	-103.870	-0.194	0.045
-475.289	50.401	-0.083	-0.078
-474.274	-124.249	-0.138	0.022
-473.259	-200.000	0.007	0.043
-472.245	25.755	-0.252	-0.210
-471.230	-200.000	-0.006	-0.172
-470.216	120.277	0.200	0.248
-469.201	17.911	0.112	-0.089
-468.186	499.677	0.178	-0.409
-467.172	800.000	-0.049	-0.173
-466.157	-26.434	0.078	0.046
-465.143	97.009	-0.167	0.191
-464.128	137.542	0.050	0.065
-463.113	-120.518	-0.226	-0.038
-462.099	236.878	0.152	-0.251
-461.084	-173.204	0.413	-0.013
-460.070	-1.781	-0.046	0.032
-459.055	638.745	0.094	0.238
-458.040	-200.000	0.001	-0.096
-457.026	17.190	0.218	0.173
-456.011	492.388	-0.095	-0.217
-454.997	-200.000	-0.013	0.338
-453.982	9.654	-0.214	0.162
-452.968	800.000	0.078	-0.319
-451.953	743.420	0.137	-0.369
-450.938	201.605	-0.030	0.046
-449.924	-150.226	-0.273	0.021
-448.909	800.000	0.085	-0.261
-447.895	-171.435	0.107	0.004
-446.880	4.552	-0.262	0.192
-445.865	-34.406	0.066	0.036
-444.851	-123.620	-0.331	0.052
-443.836	253.342	0.076	-0.129
-442.822	70.600	0.351	-0.362
-441.807	231.475	0.089	0.145
-440.792	23.987	0.097	-0.080
-439.778	-155.736	-0.279	0.018
-438.763	-200.000	-0.002	0.051
-437.749	-130.077	0.195	0.027
-436.734	-154.446	-0.264	0.018
-435.719	-105.193	0.140	0.032
-434.705	4.202	0.261	-0.191
-433.690	-200.000	-0.079	-0.366
-432.676	-6.608	-0.104	0.070
-431.661	17.572	0.068	-0.054
-430.646	142.831	0.117	-0.155
-429.632	60.806	-0.244	-0.241
-428.617	-200.000	0.009	0.074
-427.603	-102.957	0.321	0.076
-426.588	-172.688	-0.290	-0.009
-425.573	-200.000	-0.023	-0.155
-424.559	42.365	-0.223	0.202
-423.544	-53.375	-0.149	-0.068
-422.530	-1.708	0.034	0.024
-421.515	36.902	-0.265	0.233
-420.500	25.202	0.166	0.137
-419.486	-140.175	0.575	-0.060
-418.471	-123.827	0.197	0.031
-417.457	-154.388	-0.122	-0.008
-416.442	435.845	-0.161	0.350
-415.428	-200.000	-0.012	-0.110
-414.413	-108.303	0.282	-0.061
-413.398	291.948	-0.089	-0.161
-412.384	-74.810	0.209	-0.075
-411.369	167.429	0.119	0.169
-410.355	-92.002	0.356	0.100
-409.340	-113.983	0.098	-0.019
-408.325	-113.378	0.172	0.034
-407.311	42.408	-0.253	0.229
-406.296	-200.000	0.118	0.616
-405.282	38.321	-0.057	-0.050
-404.267	-147.481	-0.168	-0.014
-403.252	-49.567	-0.095	-0.045
-402.238	-200.000	0.011	-0.124
-401.223	-149.096	-0.160	0.013
-400.209	166.555	0.224	-0.317
-399.194	391.565	-0.064	-0.133
-398.179	55.747	0.158	-0.153
-397.165	800.000	0.081	-0.317
-396.150	-39.427	0.107	0.056
-395.136	-4.912	0.194	-0.133
-394.121	-200.000	-0.007	0.139
-393.106	318.048	-0.069	-0.129
-392.092	342.637	-0.093	-0.182
-391.077	-164.339	-0.176	-0.008
-390.063	535.194	0.061	0.144
-389.048	-151.129	0.127	0.009
-388.033	-169.488	-0.123	0.004
-387.019	-26.635	0.086	0.050
-386.004	382.585	-0.024	-0.048
-384.990	-200.000	0.009	0.106
-383.975	127.142	0.169	0.213
-382.960	-200.000	-0.043	0.415
-381.946	200.875	0.111	-0.170
-380.931	-15.381	-0.241	0.153
-379.917	-109.865	-0.173	-0.036
-378.902	-136.088	0.389	0.045
-377.888	800.000	-0.044	0.148
-376.873	-2.808	0.066	-0.046
-375.858	-134.652	0.271	0.033
-374.844	-15.046	0.269	0.171
-373.829	-106.122	0.100	0.022
-372.815	108.993	0.079	-0.094
-371.800	-40.146	-0.156	-0.081
-370.785	-35.498	0.237	-0.128
-369.771	125.190	0.062	0.078
-368.756	230.806	-0.222	0.361
-367.742	-200.000	0.007	0.368
-366.727	-200.000	-0.043	0.337
-365.712	292.948	-0.159	0.289
-364.698	-29.420	0.119	0.068
-363.683	-35.280	0.066	0.036
-362.669	157.798	-0.080	-0.110
-361.654	-200.000	-0.028	0.188
-360.639	237.502	-0.178	0.293
-359.625	-89.601	0.263	-0.077
-358.610	-78.684	0.457	0.155
-357.596	362.386	-0.048	-0.096
-356.581	650.741	-0.020	0.051
-355.566	-109.731	-0.236	-0.049
-354.552	2.133	-0.244	0.175
-353.537	-161.043	-0.117	-0.006
-352.523	118.163	0.211	0.258
-351.508	-200.000	-0.009	0.291
-350.493	-79.889	-0.276	0.092
-349.479	-32.540	-0.121	-0.067
-348.464	120.121	-0.140	0.173
-347.450	-200.000	0.017	0.283
-346.435	105.521	0.275	0.323
-345.420	167.689	-0.091	0.129
-344.406	-144.848	0.072	-0.007
-343.391	-177.153	-0.180	-0.004
-342.377	29.503	0.205	0.173
-341.362	475.144	-0.172	-0.387
-340.348	104.744	0.031	-0.036
-339.333	800.000	-0.036	-0.103
-338.318	110.264	-0.108	0.128
-337.304	-120.630	0.177	0.030
-336.289	-200.000	0.087	-0.494
-335.275	198.716	0.134	-0.204
-334.260	20.141	0.062	-0.050
-333.245	118.715	0.362	0.444
-332.231	-200.000	0.030	0.193
-331.216	153.392	0.066	-0.090
-330.202	-145.974	-0.243	0.021
-329.187	662.303	0.060	-0.154
-328.172	-88.125	-0.166	0.049
-327.158	-97.602	0.140	-0.036
-326.143	756.980	-0.005	-0.013
-325.129	-58.954	0.188	0.081
-324.114	-8.872	0.073	0.049
-323.099	-11.593	0.142	0.092
-322.085	-113.503	0.331	0.064
-321.070	-102.396	0.029	-0.007
-320.056	47.831	-0.159	0.147
-319.041	-86.218	-0.051	0.016
-318.026	35.277	0.331	0.288
-317.012	266.946	-0.233	-0.404
-315.997	259.816	0.113	-0.194
-314.983	33.058	0.119	-0.103
-313.968	107.465	-0.026	-0.031
-312.953	-79.568	0.231	-0.077
-311.939	-64.407	-0.166	0.067
-310.924	-200.000	-0.016	0.251
-309.910	130.915	0.146	-0.186
-308.895	-94.881	0.293	-0.079
-307.880	-86.263	-0.043	-0.013
-306.866	306.417	-0.103	-0.190
-305.851	-200.000	0.010	0.122
-304.837	-118.045	-0.230	0.041
-303.822	-189.614	0.026	-0.000
-302.807	8.608	-0.114	0.085
-301.793	-89.803	-0.510	0.148
-300.778	167.146	0.149	-0.209
-299.764	1.807	0.084	-0.060
-298.749	79.859	0.069	0.074
-297.735	-200.000	0.007	-0.044
-296.720	390.647	0.067	0.138
-295.705	13.492	-0.198	0.153
-294.691	-131.259	0.095	0.012
-293.676	-123.693	0.212	0.033
-292.662	65.582	0.134	0.135
-291.647	-15.695	0.308	-0.194
-290.632	27.472	-0.343	-0.286
-289.618	-156.098	0.344	0.022
-288.603	171.398	-0.124	0.177
-287.589	1.880	-0.048	-0.034
-286.574	7.180	0.156	-0.115
-285.559	212.710	-0.078	0.122
-284.545	-78.912	-0.260	-0.088
-283.530	800.000	-0.020	0.057
-282.516	-142.817	-0.325	0.031
-281.501	800.000	0.038	-0.122
-280.486	61.022	0.113	-0.111
-279.472	-200.000	-0.064	0.300
-278.457	23.565	0.186	0.152
-277.443	72.403	-0.135	-0.139
-276.428	285.999	-0.185	0.330
-275.413	-81.036	-0.397	0.130
-274.399	47.802	-0.184	0.171
-273.384	-53.356	0.119	0.054
-272.370	5.754	0.256	-0.188
-271.355	47.518	-0.338	-0.312
-270.340	380.485	0.023	-0.046
-269.326	326.544	0.098	-0.187
-268.311	-138.093	0.220	0.024
-267.297	730.754	0.037	0.099
-266.282	58.698	-0.013	-0.013
-265.267	283.082	-0.146	-0.260
-264.253	30.032	0.089	-0.075
-263.238	-162.125	-0.197	-0.010
-262.224	-56.606	0.306	0.134
-261.209	-90.598	0.253	0.072
-260.195	171.097	-0.085	-0.121
-259.180	-54.772	0.140	-0.062
-258.165	-107.532	0.183	-0.040
-257.151	29.546	0.397	0.334
-256.136	60.297	0.162	0.159
-255.122	-138.392	-0.121	0.013
-254.107	-8.149	-0.175	0.117
-253.092	-69.139	-0.144	-0.055
-252.078	-171.045	0.216	-0.007
-251.063	800.000	0.015	0.064
-250.049	-137.995	-0.069	0.008
-249.034	-151.590	0.138	-0.010
-248.019	800.000	-0.116	-0.447
-247.005	-79.546	-0.283	-0.095
-245.990	-189.183	0.189	0.002
-244.976	-200.000	0.005	-0.177
-243.961	94.419	0.154	-0.173
-242.946	-6.125	-0.219	0.148
-241.932	185.395	0.055	-0.080
-240.917	175.940	-0.139	0.199
-239.903	-71.021	-0.370	0.138
-238.888	30.295	-0.221	0.187
-237.873	276.222	-0.135	0.237
-236.859	-70.298	0.139	0.052
-235.844	438.622	0.138	-0.297
-234.830	800.000	0.045	0.186
-233.815	515.030	0.106	0.245
-232.800	-57.449	0.098	0.042
-231.786	13.348	-0.198	-0.152
-230.771	152.127	0.209	0.282
-229.757	-200.000	-0.007	0.176
-228.742	92.255	0.127	-0.141
-227.727	-108.233	0.253	-0.054
-226.713	-200.000	-0.019	-0.353
-225.698	-200.000	-0.090	0.426
-224.684	231.136	-0.055	-0.090
-223.669	-49.930	-0.217	-0.102
-222.655	431.088	-0.139	-0.298
-221.640	-136.365	-0.279	-0.032
-220.625	-1.395	-0.452	-0.315
-219.611	183.116	-0.289	-0.423
-218.596	22.439	-0.180	-0.145
-217.582	144.619	-0.224	0.296
-216.567	45.116	0.079	-0.072
-215.552	330.740	0.061	-0.115
-214.538	-200.000	0.024	-0.171
-213.523	135.075	0.197	0.253
-212.509	-200.000	0.033	-0.206
-211.494	-194.122	-0.201	-0.002
-210.479	-39.893	0.184	0.095
-209.465	-39.134	0.112	0.058
-208.450	283.849	-0.140	0.250
-207.436	121.927	0.281	-0.347
-206.421	211.473	-0.142	-0.221
-205.406	279.282	-0.124	-0.218
-204.392	3.902	0.108	0.078
-203.377	-1.944	-0.146	-0.101
-202.363	127.028	-0.075	0.094
-201.348	-121.909	0.371	-0.060
-200.333	-98.547	0.212	-0.053
-199.319	219.405	-0.161	-0.254
-198.304	-65.240	0.127	0.050
-197.290	-171.010	-0.163	0.005
-196.275	-200.000	-0.015	-0.097
-195.260	-129.389	-0.468	0.064
-194.246	800.000	0.108	0.326
-193.231	104.735	0.053	0.062
-192.217	339.225	0.241	-0.463
-191.202	535.620	-0.068	-0.159
-190.187	-159.066	-0.157	-0.009
-189.173	135.717	0.076	-0.097
-188.158	-170.433	-0.215	0.007
-187.144	-200.000	-0.044	0.248
-186.129	-89.361	0.097	-0.028
-185.114	-127.781	0.219	-0.031
-184.100	-107.655	0.046	0.010
-183.085	-200.000	-0.031	-0.190
-182.071	406.148	-0.075	-0.157
-181.056	-126.519	-0.133	-0.019
-180.042	-81.734	0.259	0.084
-179.027	66.204	-0.122	0.122
-178.012	-200.000	0.026	-0.221
-176.998	-200.000	-0.036	-0.303
-175.983	-114.116	0.341	0.065
-174.969	-200.000	-0.002	-0.242
-173.954	22.939	-0.041	0.033
-172.939	496.338	-0.071	0.162
-171.925	365.008	-0.129	-0.256
-170.910	6.094	-0.038	-0.028
-169.896	-200.000	-0.018	-0.247
-168.881	-200.000	0.019	-0.155
-167.866	27.602	0.032	0.027
-166.852	59.391	-0.066	-0.064
-165.837	-20.873	0.425	-0.257
-164.823	201.769	0.056	-0.085
-163.808	728.475	0.201	0.529
-162.793	437.987	-0.057	-0.123
-161.779	-200.000	0.008	-0.156
-160.764	-47.264	-0.398	0.191
-159.750	-123.093	0.326	0.052
-158.735	-36.249	-0.387	-0.206
-157.720	-200.000	0.003	0.195
-156.706	-8.934	-0.135	-0.089
-155.691	-136.043	0.185	-0.021
-154.677	129.817	-0.109	0.137
-153.662	91.219	0.071	0.079
-152.647	646.012	-0.169	0.425
-151.633	227.754	0.194	-0.312
-150.618	-56.167	-0.370	0.162
-149.604	87.474	-0.107	-0.117
-148.589	-119.815	0.351	-0.060
-147.574	-200.000	-0.154	-0.000
-146.560	-82.164	0.089	0.029
-145.545	-200.000	-0.008	-0.050
-144.531	-200.000	-0.012	0.066
-143.516	800.000	0.055	-0.160
-142.502	-26.273	0.201	0.116
-141.487	44.048	-0.179	0.161
-140.472	20.110	0.212	0.168
-139.458	76.153	0.188	0.196
-138.443	800.000	-0.039	0.167
-137.429	-48.459	-0.163	0.077
-136.414	-80.497	0.078	0.026
-135.399	-41.063	-0.382	0.194
-134.385	-120.185	-0.095	-0.016
-133.370	800.000	0.044	0.179
-132.356	536.194	-0.175	0.409
-131.341	-5.737	0.144	-0.097
-130.326	-10.987	-0.110	-0.072
-129.312	24.201	-0.112	0.091
-128.297	-48.346	0.316	-0.150
-127.283	-132.815	-0.201	-0.025
-126.268	-200.000	-0.005	0.380
-125.253	16.443	0.058	-0.045
-124.239	800.000	0.043	-0.123
-123.224	-26.888	-0.075	0.043
-122.210	197.229	0.253	0.380
-121.195	729.397	0.100	0.263
