DTS Sentinel unit serial number:	SN413079Multiplexer serial number:	ORYXHardware model number:	OX4-SRSoftware version number:	ORYX F/W v4.00 Oryx Data Collector v3.7.2.0data status	okinstallation	princeton_trtdifferential loss correction	single-endedforward channel	channel 1reverse channel	N/Adate	2019/09/13time	21:14:35forward acquisition time	60.00reverse acquisition time	0.00gamma	496.2192k internal	0.2330k external	0.2330temperature offset calibration	1.0086default loss term (dB/km)	0.3790temperature slope calibration	1.0000multiplexer offset coefficient	1.0000multiplexer slope coefficient	1.0000fibre end	0.00T internal ref (°C)	28.44T ext. ref 1 (°C)	3.23T ext. ref 2 (°C)	23.07length (m)	temperature (°C)	Stokes	anti-Stokes-747.200	40.708	0.107	0.097
-746.185	-123.856	0.416	0.066
-745.171	-144.096	-0.384	-0.036
-744.156	-57.559	-0.226	0.100
-743.142	-165.974	-0.362	-0.016
-742.127	-97.510	0.281	-0.073
-741.112	800.000	0.016	-0.046
-740.098	-200.000	-0.029	0.348
-739.083	-200.000	0.022	-0.411
-738.069	25.796	0.192	0.161
-737.054	75.676	-0.187	-0.199
-736.039	-123.296	-0.291	-0.047
-735.025	800.000	-0.116	-0.326
-734.010	-200.000	-0.030	-0.246
-732.996	-200.000	0.019	0.235
-731.981	-151.973	-0.302	-0.022
-730.966	123.076	0.140	-0.177
-729.952	-63.402	0.175	-0.073
-728.937	-200.000	0.025	-0.128
-727.923	-200.000	0.002	-0.296
-726.908	-69.989	-0.444	0.170
-725.894	-63.118	-0.287	0.119
-724.879	-67.952	0.178	-0.070
-723.864	-172.569	-0.185	-0.006
-722.850	-106.854	-0.345	0.077
-721.835	-46.654	0.091	-0.045
-720.821	-107.620	0.141	-0.031
-719.806	576.053	-0.053	-0.129
-718.791	-15.196	-0.082	0.053
-717.777	3.692	-0.160	0.118
-716.762	-100.989	-0.227	-0.056
-715.748	60.791	0.068	0.068
-714.733	-200.000	0.005	0.106
-713.718	368.645	-0.116	-0.236
-712.704	-71.069	-0.215	0.081
-711.689	-200.000	-0.003	0.129
-710.675	-94.764	-0.145	-0.040
-709.660	-200.000	0.031	-0.203
-708.645	-154.908	-0.306	-0.020
-707.631	136.858	-0.230	0.303
-706.616	800.000	-0.044	-0.124
-705.602	-200.000	-0.002	-0.152
-704.587	193.978	0.061	-0.092
-703.572	-164.080	0.126	-0.006
-702.558	111.055	-0.119	0.144
-701.543	60.884	0.065	0.065
-700.529	327.776	-0.180	0.348
-699.514	-97.504	-0.279	0.073
-698.499	-153.908	0.021	-0.001
-697.485	-200.000	-0.010	0.270
-696.470	229.698	0.145	-0.237
-695.456	54.429	0.219	0.212
-694.441	-200.000	0.008	-0.215
-693.426	-144.274	-0.427	-0.040
-692.412	-200.000	-0.013	0.284
-691.397	800.000	0.068	-0.224
-690.383	-83.820	-0.051	-0.016
-689.368	25.742	0.114	0.095
-688.354	250.884	-0.083	-0.142
-687.339	37.480	-0.054	-0.048
-686.324	180.155	-0.038	-0.055
-685.310	-98.161	0.132	-0.034
-684.295	800.000	-0.073	-0.234
-683.281	275.402	0.163	0.291
-682.266	800.000	-0.101	-0.350
-681.251	72.319	-0.132	0.139
-680.237	621.430	0.127	-0.320
-679.222	165.154	-0.121	-0.172
-678.208	250.158	-0.180	-0.307
-677.193	-200.000	0.032	0.177
-676.178	-170.409	0.279	0.010
-675.164	-150.892	0.163	0.012
-674.149	-67.093	-0.248	-0.098
-673.135	63.038	-0.148	0.149
-672.120	-200.000	0.006	-0.118
-671.105	-36.103	0.234	-0.127
-670.091	-200.000	-0.004	0.172
-669.076	245.936	-0.110	0.186
-668.062	-57.911	-0.293	-0.128
-667.047	221.987	-0.096	0.155
-666.032	-53.239	-0.130	-0.060
-665.018	243.910	0.136	0.229
-664.003	-200.000	-0.041	-0.353
-662.989	-76.929	0.439	0.154
-661.974	-69.833	0.182	-0.070
-660.959	800.000	-0.092	-0.275
-659.945	295.709	0.075	-0.137
-658.930	184.528	0.053	0.079
-657.916	177.820	0.205	-0.300
-656.901	87.717	-0.183	-0.203
-655.886	149.847	-0.155	-0.211
-654.872	-200.000	0.017	-0.077
-653.857	679.756	-0.022	0.058
-652.843	-78.380	0.128	0.044
-651.828	-200.000	0.031	0.316
-650.814	-137.859	-0.232	-0.026
-649.799	-200.000	-0.064	0.384
-648.784	228.054	-0.220	0.359
-647.770	376.620	-0.059	0.120
-646.755	63.836	0.146	-0.147
-645.741	-6.421	0.162	-0.111
-644.726	800.000	0.073	-0.274
-643.711	800.000	0.112	0.358
-642.697	89.240	0.094	0.106
-641.682	39.028	-0.072	-0.065
-640.668	-200.000	-0.025	-0.121
-639.653	-45.220	-0.321	-0.160
-638.638	-99.945	-0.211	-0.053
-637.624	8.645	-0.221	0.167
-636.609	-26.991	0.233	-0.136
-635.595	43.140	-0.150	-0.138
-634.580	246.145	0.066	0.112
-633.565	138.036	-0.084	-0.110
-632.551	-108.564	-0.399	0.086
-631.536	-72.408	0.473	0.175
-630.522	31.105	-0.307	-0.264
-629.507	-67.330	0.300	-0.118
-628.492	467.306	-0.115	0.258
-627.478	11.092	-0.059	-0.045
-626.463	-38.395	0.186	-0.099
-625.449	541.422	0.058	0.138
-624.434	-53.195	-0.074	-0.034
-623.419	-14.050	0.094	-0.061
-622.405	-200.000	0.030	-0.276
-621.390	-62.696	-0.070	0.029
-620.376	-200.000	0.047	-0.258
-619.361	-178.138	0.212	-0.005
-618.346	276.646	-0.096	-0.171
-617.332	-200.000	0.027	-0.187
-616.317	800.000	0.032	0.108
-615.303	77.752	-0.099	0.106
-614.288	392.973	0.152	0.317
-613.273	460.491	0.026	-0.058
-612.259	188.224	-0.228	-0.341
-611.244	-56.393	-0.102	0.045
-610.230	35.860	0.233	-0.205
-609.215	-86.471	0.111	-0.034
-608.201	412.985	-0.148	-0.314
-607.186	-95.803	-0.125	-0.033
-606.171	175.145	0.047	-0.068
-605.157	108.011	0.111	-0.132
-604.142	27.595	-0.194	0.163
-603.128	-123.187	0.133	0.021
-602.113	135.149	0.189	0.245
-601.098	275.183	0.062	0.109
-600.084	134.703	-0.240	-0.311
-599.069	800.000	0.033	0.098
-598.055	-200.000	0.008	0.196
-597.040	-117.481	0.150	0.027
-596.025	800.000	-0.093	-0.277
-595.011	29.658	0.236	0.201
-593.996	26.853	0.272	0.228
-592.982	27.829	0.187	-0.158
-591.967	30.490	-0.161	0.138
-590.952	289.453	0.239	-0.434
-589.938	161.810	0.156	0.219
-588.923	-105.281	0.226	0.052
-587.909	39.908	0.204	-0.183
-586.894	-43.781	0.201	0.101
-585.879	-62.165	-0.387	0.161
-584.865	-129.483	-0.170	-0.024
-583.850	83.701	-0.157	0.171
-582.836	-60.446	-0.225	-0.096
-581.821	10.430	-0.213	-0.162
-580.806	-53.793	-0.491	0.224
-579.792	326.969	0.108	0.206
-578.777	-177.867	-0.223	0.005
-577.763	347.914	-0.056	-0.109
-576.748	651.259	0.138	0.353
-575.733	-200.000	0.070	0.515
-574.719	247.231	-0.121	-0.205
-573.704	115.369	0.135	-0.165
-572.690	800.000	0.002	-0.008
-571.675	-127.705	0.250	0.036
-570.661	800.000	0.094	0.294
-569.646	570.383	-0.075	0.182
-568.631	-8.203	0.126	0.085
-567.617	-200.000	0.031	0.258
-566.602	-147.773	0.236	0.020
-565.588	-200.000	0.007	0.214
-564.573	479.399	-0.083	0.187
-563.558	-200.000	0.019	0.183
-562.544	-36.473	0.272	-0.146
-561.529	-133.215	0.344	0.043
-560.515	-200.000	-0.032	0.165
-559.500	-200.000	0.017	0.000
-558.485	671.534	-0.074	0.191
-557.471	800.000	-0.049	-0.146
-556.456	87.047	0.197	-0.217
-555.442	451.877	-0.041	-0.091
-554.427	90.211	-0.249	0.278
-553.412	-140.465	-0.329	-0.034
-552.398	141.952	0.061	-0.081
-551.383	-138.921	0.288	-0.031
-550.369	-200.000	0.031	-0.215
-549.354	87.871	-0.151	0.167
-548.339	-166.327	-0.223	0.009
-547.325	-200.000	-0.015	-0.155
-546.310	102.490	-0.106	-0.123
-545.296	-200.000	-0.037	-0.166
-544.281	266.461	-0.107	-0.186
-543.266	56.492	0.069	0.067
-542.252	-200.000	-0.091	-0.581
-541.237	-200.000	-0.042	-0.192
-540.223	-38.181	-0.207	-0.110
-539.208	-55.486	0.180	-0.080
-538.193	-163.017	-0.297	-0.014
-537.179	132.086	0.182	0.235
-536.164	115.824	-0.065	-0.079
-535.150	800.000	0.042	0.162
-534.135	30.975	-0.342	0.292
-533.121	800.000	-0.071	-0.245
-532.106	-102.626	-0.094	0.022
-531.091	29.867	0.273	0.233
-530.077	48.419	-0.217	-0.203
-529.062	140.272	-0.049	0.065
-528.048	-185.084	0.179	-0.003
-527.033	-59.977	0.052	0.022
-526.018	717.345	0.066	-0.174
-525.004	498.709	-0.012	-0.029
-523.989	-35.587	-0.227	0.123
-522.975	566.261	-0.053	-0.127
-521.960	-200.000	0.059	-0.319
-520.945	-59.765	0.144	0.061
-519.931	-141.988	-0.108	0.011
-518.916	-166.259	-0.125	0.005
-517.902	63.222	0.178	-0.178
-516.887	129.472	0.135	-0.172
-515.872	-131.186	-0.158	-0.021
-514.858	-200.000	0.036	-0.273
-513.843	721.649	-0.023	-0.062
-512.829	13.080	-0.209	-0.161
-511.814	800.000	0.042	-0.150
-510.799	450.705	-0.052	-0.115
-509.785	522.022	0.058	-0.135
-508.770	-15.642	-0.065	-0.041
-507.756	-200.000	-0.035	-0.208
-506.741	340.019	0.063	0.123
-505.726	-178.720	-0.077	-0.002
-504.712	-200.000	0.029	0.148
-503.697	353.355	0.025	0.050
-502.683	-100.491	0.284	-0.070
-501.668	-42.393	-0.213	0.108
-500.653	800.000	-0.044	-0.164
-499.639	-57.679	-0.222	-0.097
-498.624	34.605	0.076	-0.067
-497.610	800.000	-0.035	-0.140
-496.595	337.130	0.173	0.336
-495.581	800.000	-0.106	0.457
-494.566	-179.897	0.073	-0.002
-493.551	800.000	-0.044	0.138
-492.537	800.000	-0.020	0.075
-491.522	371.772	-0.106	0.215
-490.508	-149.560	0.344	0.027
-489.493	243.674	-0.136	0.227
-488.478	-82.430	-0.397	0.128
-487.464	-130.492	0.170	0.023
-486.449	800.000	0.003	0.010
-485.435	-165.816	-0.297	-0.013
-484.420	-122.995	-0.172	0.028
-483.405	108.653	-0.111	0.133
-482.391	164.975	-0.143	-0.202
-481.376	-86.163	0.103	0.032
-480.362	-4.151	-0.055	-0.038
-479.347	377.748	-0.193	0.393
-478.332	-106.768	-0.080	0.018
-477.318	-5.062	0.249	0.170
-476.303	188.000	-0.041	-0.060
-475.289	800.000	-0.089	0.337
-474.274	-163.568	-0.234	0.011
-473.259	-163.214	-0.363	0.017
-472.245	264.589	0.188	0.326
-471.230	-200.000	0.007	0.106
-470.216	-200.000	0.010	0.320
-469.201	-52.436	-0.062	0.029
-468.186	-200.000	0.011	-0.256
-467.172	-87.612	-0.176	0.053
-466.157	185.558	0.133	0.197
-465.143	563.625	0.070	0.169
-464.128	-52.571	-0.186	0.086
-463.113	-8.123	-0.110	-0.074
-462.099	24.707	-0.169	0.139
-461.084	153.557	0.250	0.341
-460.070	-119.715	0.205	0.035
-459.055	800.000	0.101	-0.305
-458.040	800.000	-0.079	-0.233
-457.026	-200.000	-0.011	-0.095
-456.011	68.107	0.178	0.181
-454.997	800.000	0.116	0.477
-453.982	-101.818	0.218	-0.053
-452.968	54.998	0.121	0.117
-451.953	16.478	0.090	0.071
-450.938	-89.680	-0.147	0.043
-449.924	-166.713	0.265	0.011
-448.909	137.370	-0.269	-0.350
-447.895	-116.713	-0.161	-0.029
-446.880	90.318	-0.136	-0.151
-445.865	-2.781	0.380	-0.265
-444.851	101.975	0.218	0.253
-443.836	-43.650	0.184	0.093
-442.822	41.625	-0.015	-0.014
-441.807	-15.740	-0.240	-0.152
-440.792	34.693	0.051	-0.044
-439.778	-92.764	-0.380	0.106
-438.763	231.034	0.090	0.147
-437.749	194.658	-0.038	-0.057
-436.734	-32.979	0.438	0.242
-435.719	-200.000	-0.005	-0.400
-434.705	-200.000	-0.024	-0.226
-433.690	-141.254	0.370	0.037
-432.676	-37.654	-0.367	-0.194
-431.661	269.107	-0.112	-0.196
-430.646	-14.297	-0.091	-0.058
-429.632	-200.000	-0.041	-0.279
-428.617	-78.037	-0.137	-0.047
-427.603	128.758	-0.115	-0.146
-426.588	-58.140	-0.340	-0.147
-425.573	-7.505	-0.099	-0.067
-424.559	66.278	-0.244	0.246
-423.544	791.141	-0.148	-0.403
-422.530	274.131	-0.286	-0.503
-421.515	800.000	-0.045	0.162
-420.500	200.956	-0.073	0.111
-419.486	-52.320	-0.251	-0.116
-418.471	-89.069	-0.172	-0.050
-417.457	-38.030	0.303	-0.160
-416.442	25.019	0.102	0.084
-415.428	11.137	-0.171	-0.130
-414.413	-70.588	-0.074	-0.028
-413.398	-75.784	0.111	-0.039
-412.384	103.260	-0.159	-0.185
-411.369	493.075	0.216	0.493
-410.355	187.138	0.085	0.125
-409.340	-104.592	0.402	0.092
-408.325	-200.000	-0.027	0.283
-407.311	-138.659	-0.194	0.021
-406.296	-157.195	-0.182	-0.011
-405.282	-87.409	-0.178	-0.054
-404.267	-19.339	0.116	-0.071
-403.252	-85.690	0.086	-0.026
-402.238	733.475	0.067	-0.177
-401.223	60.593	0.142	-0.140
-400.209	28.827	0.170	-0.143
-399.194	-63.644	-0.156	0.064
-398.179	-113.429	0.197	0.038
-397.165	-33.483	0.100	0.055
-396.150	-100.999	0.219	-0.053
-395.136	-146.533	0.162	-0.014
-394.121	21.238	-0.084	0.067
-393.106	800.000	0.028	-0.101
-392.092	-130.584	-0.141	-0.019
-391.077	800.000	0.033	-0.138
-390.063	-175.078	-0.087	0.002
-389.048	87.328	0.108	0.119
-388.033	134.032	0.152	-0.196
-387.019	-152.413	0.419	0.030
-386.004	-106.041	-0.227	-0.051
-384.990	-200.000	-0.036	0.242
-383.975	-193.355	-0.203	-0.002
-382.960	800.000	-0.044	-0.191
-381.946	-52.948	0.268	-0.122
-380.931	-200.000	-0.032	-0.207
-379.917	-2.154	-0.086	-0.060
-378.902	-14.168	0.275	-0.176
-377.888	245.176	0.042	0.070
-376.873	562.439	-0.138	0.332
-375.858	-72.396	0.109	0.040
-374.844	508.498	-0.134	-0.309
-373.829	-149.937	0.153	-0.012
-372.815	7.514	0.145	-0.108
-371.800	-66.133	0.127	0.050
-370.785	800.000	-0.055	-0.228
-369.771	-90.216	0.241	-0.069
-368.756	-121.563	-0.085	-0.014
-367.742	324.144	0.053	-0.100
-366.727	-70.918	-0.121	0.045
-365.712	800.000	-0.018	0.052
-364.698	-200.000	0.036	-0.341
-363.683	127.686	0.184	0.232
-362.669	-90.454	-0.267	0.077
-361.654	-200.000	0.045	0.275
-360.639	-93.333	0.083	0.023
-359.625	-185.057	-0.075	-0.001
-358.610	-147.269	0.036	0.003
-357.596	-119.831	-0.091	-0.016
-356.581	440.080	-0.051	-0.110
-355.566	404.648	0.170	-0.355
-354.552	11.956	0.106	-0.080
-353.537	13.313	0.163	0.125
-352.523	298.579	-0.219	0.400
-351.508	-38.699	0.097	0.051
-350.493	-53.926	-0.103	-0.047
-349.479	-200.000	0.007	-0.273
-348.464	-88.841	-0.171	0.050
-347.450	-200.000	0.137	0.000
-346.435	207.136	-0.118	0.183
-345.420	-84.087	0.075	-0.024
-344.406	-167.779	0.218	0.009
-343.391	206.137	0.155	0.239
-342.377	-75.747	0.083	-0.029
-341.362	800.000	0.052	-0.165
-340.348	237.355	-0.081	0.133
-339.333	48.788	0.046	0.042
-338.318	-187.505	-0.129	-0.002
-337.304	-57.037	0.082	-0.036
-336.289	-77.265	0.051	-0.018
-335.275	10.233	-0.084	0.063
-334.260	-113.021	-0.095	-0.019
-333.245	327.338	0.057	0.108
-332.231	192.916	-0.146	-0.218
-331.216	-91.367	-0.119	0.034
-330.202	800.000	-0.039	-0.109
-329.187	-116.028	0.422	0.078
-328.172	-200.000	0.021	0.105
-327.158	-45.734	-0.298	0.146
-326.143	476.546	0.083	0.186
-325.129	-54.533	-0.128	0.057
-324.114	-56.155	0.230	-0.102
-323.099	800.000	0.039	0.135
-322.085	-200.000	-0.018	-0.089
-321.070	143.849	0.195	0.257
-320.056	-174.626	-0.113	0.003
-319.041	-89.071	0.216	-0.063
-318.026	-6.504	-0.056	0.038
-317.012	123.231	0.104	0.129
-315.997	168.177	-0.135	-0.190
-314.983	-200.000	0.029	0.179
-313.968	132.335	-0.306	-0.391
-312.953	-54.922	-0.501	-0.224
-311.939	662.383	-0.088	0.224
-310.924	643.327	-0.052	0.130
-309.910	209.215	0.055	-0.086
-308.895	479.579	0.133	-0.299
-307.880	37.894	0.020	0.018
-306.866	-96.918	0.154	0.040
-305.851	-200.000	-0.030	0.223
-304.837	66.892	0.181	0.182
-303.822	54.446	0.195	-0.186
-302.807	-200.000	-0.092	0.406
-301.793	800.000	-0.072	0.240
-300.778	-200.000	0.013	-0.059
-299.764	-47.650	0.167	0.080
-298.749	-88.964	-0.361	0.106
-297.735	-78.543	-0.156	0.053
-296.720	359.836	0.062	-0.124
-295.705	-162.622	0.212	-0.010
-294.691	339.231	-0.060	-0.116
-293.676	13.083	-0.121	-0.092
-292.662	800.000	-0.058	-0.236
-291.647	-42.834	-0.233	-0.117
-290.632	-48.012	0.232	-0.111
-289.618	-57.950	0.234	0.101
-288.603	-9.377	-0.272	-0.180
-287.589	96.613	0.057	0.064
-286.574	-96.899	-0.099	-0.026
-285.559	-72.781	0.149	0.054
-284.545	-101.833	0.342	-0.082
-283.530	800.000	-0.052	0.148
-282.516	-62.982	0.154	-0.063
-281.501	-158.443	0.354	-0.020
-280.486	-200.000	-0.042	-0.194
-279.472	113.629	-0.181	-0.217
-278.457	-94.852	-0.281	-0.075
-277.443	145.659	0.138	-0.183
-276.428	-133.679	-0.451	0.056
-275.413	795.701	0.104	0.282
-274.399	234.965	0.070	0.114
-273.384	166.590	-0.069	-0.096
-272.370	-200.000	0.006	-0.310
-271.355	1.638	-0.088	-0.063
-270.340	83.106	-0.027	0.030
-269.326	190.242	-0.081	0.120
-268.311	-200.000	0.065	-0.305
-267.297	54.482	-0.157	0.149
-266.282	-71.934	-0.270	0.099
-265.267	-200.000	0.026	0.188
-264.253	209.984	-0.170	-0.263
-263.238	-96.810	0.144	-0.037
-262.224	800.000	-0.018	-0.065
-261.209	-200.000	0.013	0.137
-260.195	-175.853	0.286	-0.008
-259.180	337.747	-0.110	-0.212
-258.165	26.082	0.128	-0.106
-257.151	744.661	0.141	0.375
-256.136	-200.000	0.011	0.152
-255.122	132.044	0.137	-0.174
-254.107	800.000	-0.139	-0.421
-253.092	-92.166	-0.205	0.057
-252.078	134.721	0.094	0.120
-251.063	376.554	-0.030	0.060
-250.049	253.006	-0.026	0.044
-249.034	186.502	0.164	0.241
-248.019	-48.538	0.173	0.082
-247.005	-200.000	-0.033	-0.430
-245.990	-103.011	0.089	0.021
-244.976	674.086	0.038	-0.098
-243.961	70.601	0.154	-0.158
-242.946	-83.401	-0.233	0.074
-241.932	2.488	0.217	0.155
-240.917	728.504	-0.044	0.116
-239.903	-141.354	0.225	-0.023
-238.888	-25.518	-0.152	-0.089
-237.873	-80.089	0.271	0.090
-236.859	-40.150	0.143	0.074
-235.844	800.000	-0.080	0.238
-234.830	800.000	-0.125	-0.387
-233.815	452.432	0.057	-0.125
-232.800	-200.000	0.057	-0.424
-231.786	-51.965	0.145	0.066
-230.771	800.000	-0.115	0.420
-229.757	-200.000	0.067	-0.408
-228.742	486.278	0.024	0.055
-227.727	-200.000	-0.004	-0.036
-226.713	142.996	-0.178	0.233
-225.698	-86.344	0.171	0.052
-224.684	-200.000	0.007	0.156
-223.669	199.306	-0.069	-0.105
-222.655	300.414	-0.107	0.194
-221.640	136.198	-0.054	0.070
-220.625	-110.630	-0.210	0.043
-219.611	-200.000	0.021	-0.141
-218.596	-87.656	0.171	-0.051
-217.582	-200.000	0.021	0.479
-216.567	25.169	0.071	-0.059
-215.552	-143.613	-0.188	-0.018
-214.538	-35.860	0.167	-0.089
-213.523	-88.012	0.276	-0.082
-212.509	-51.218	-0.183	0.084
-211.494	-200.000	0.019	-0.123
-210.479	-49.804	-0.239	-0.112
-209.465	-200.000	-0.001	-0.015
-208.450	-12.716	0.011	-0.007
-207.436	-42.330	-0.278	0.140
-206.421	-54.557	-0.199	-0.089
-205.406	-200.000	-0.012	-0.125
-204.392	-129.191	0.116	-0.016
-203.377	11.961	-0.102	0.077
-202.363	466.493	0.081	-0.179
-201.348	102.587	-0.134	-0.154
-200.333	228.278	-0.047	0.075
-199.319	270.291	0.114	0.198
-198.304	-200.000	0.046	-0.279
-197.290	-123.308	0.175	-0.028
-196.275	-75.170	0.309	0.109
-195.260	-69.897	0.349	0.131
-194.246	800.000	0.024	-0.091
-193.231	-200.000	-0.006	-0.148
-192.217	333.347	0.058	-0.110
-191.202	26.403	-0.195	-0.160
-190.187	-76.617	0.272	0.094
-189.173	-62.973	0.266	0.108
-188.158	238.276	-0.235	0.385
-187.144	-109.368	-0.181	-0.038
-186.129	-185.118	-0.294	-0.005
-185.114	-200.000	0.014	0.183
-184.100	-137.338	0.221	0.025
-183.085	-112.207	0.234	0.046
-182.071	-49.026	0.184	-0.087
-181.056	166.427	-0.181	-0.252
-180.042	-200.000	0.007	0.113
-179.027	-34.418	-0.182	-0.098
-178.012	-91.783	-0.334	0.094
-176.998	204.639	-0.050	-0.076
-175.983	-179.901	0.180	-0.004
-174.969	-31.998	-0.225	-0.124
-173.954	-92.511	-0.353	0.098
-172.939	-97.891	-0.020	-0.005
-171.925	-61.753	0.152	-0.063
-170.910	17.666	0.137	0.107
-169.896	-107.520	-0.179	0.039
-168.881	571.731	0.067	-0.161
-167.866	-197.567	-0.110	-0.001
-166.852	-200.000	0.041	0.186
-165.837	-200.000	-0.003	0.148
-164.823	-116.799	0.227	-0.041
-163.808	-122.345	0.177	-0.028
-162.793	-168.477	-0.083	0.003
-161.779	-131.680	-0.172	-0.022
-160.764	800.000	0.100	0.283
-159.750	800.000	0.080	0.296
-158.735	332.986	-0.012	0.023
-157.720	320.073	0.122	0.229
-156.706	800.000	0.110	-0.305
-155.691	684.874	0.051	-0.131
-154.677	-116.240	0.377	-0.069
-153.662	760.820	0.135	0.360
-152.647	47.347	-0.220	0.202
-151.633	-200.000	0.040	0.187
-150.618	-200.000	0.053	-0.420
-149.604	-86.836	0.214	0.064
-148.589	496.581	0.022	-0.050
-147.574	82.426	-0.113	-0.121
-146.560	-200.000	-0.004	0.170
-145.545	19.812	-0.154	0.122
-144.531	-200.000	-0.025	-0.365
-143.516	800.000	-0.045	0.172
-142.502	140.906	-0.042	0.054
-141.487	182.558	0.145	0.210
-140.472	217.341	0.178	0.280
-139.458	17.693	-0.069	0.054
-138.443	338.323	0.123	-0.235
-137.429	345.034	0.051	0.099
-136.414	12.139	0.086	0.065
-135.399	201.598	0.023	-0.035
-134.385	-200.000	-0.066	0.350
-133.370	44.962	0.126	0.114
-132.356	66.158	-0.067	0.067
-131.341	-27.482	0.173	-0.099
-130.326	-200.000	0.001	0.209
-129.312	80.634	-0.069	0.073
-128.297	-200.000	-0.002	-0.192
-127.283	307.328	-0.091	0.166
-126.268	-139.505	0.090	-0.009
-125.253	-200.000	-0.001	-0.095
-124.239	-111.249	0.131	0.026
-123.224	-91.267	-0.219	0.062
-122.210	-95.653	-0.113	0.030
