DTS Sentinel unit serial number:	SN413079Multiplexer serial number:	ORYXHardware model number:	OX4-SRSoftware version number:	ORYX F/W v4.00 Oryx Data Collector v3.7.2.0data status	okinstallation	princeton_trtdifferential loss correction	single-endedforward channel	channel 1reverse channel	N/Adate	2019/09/17time	17:38:35forward acquisition time	60.00reverse acquisition time	0.00gamma	496.2192k internal	0.2291k external	0.2291temperature offset calibration	0.9956default loss term (dB/km)	0.3790temperature slope calibration	1.0000multiplexer offset coefficient	1.0000multiplexer slope coefficient	1.0000fibre end	0.00T internal ref (°C)	43.33T ext. ref 1 (°C)	0.35T ext. ref 2 (°C)	39.00length (m)	temperature (°C)	Stokes	anti-Stokes-747.200	-19.698	0.153	0.097
-746.185	71.287	0.234	0.248
-745.171	42.169	-0.072	-0.067
-744.156	275.089	-0.117	0.212
-743.142	268.307	0.102	0.183
-742.127	11.614	-0.246	0.193
-741.112	-200.000	-0.034	-0.164
-740.098	589.465	-0.045	-0.114
-739.083	-90.039	0.107	-0.032
-738.069	-59.519	-0.184	0.081
-737.054	43.620	-0.110	0.103
-736.039	-79.938	-0.132	-0.045
-735.025	114.955	0.054	0.068
-734.010	46.577	0.157	0.149
-732.996	-200.000	0.031	-0.209
-731.981	52.372	-0.241	-0.235
-730.966	26.359	-0.098	-0.084
-729.952	-200.000	-0.025	0.117
-728.937	-88.350	0.273	0.084
-727.923	800.000	-0.039	-0.118
-726.908	-83.452	-0.170	-0.056
-725.894	99.380	0.269	0.318
-724.879	-131.902	-0.112	-0.015
-723.864	-200.000	-0.049	-0.323
-722.850	66.623	-0.081	-0.085
-721.835	-97.485	-0.232	-0.062
-720.821	571.055	-0.051	0.128
-719.806	85.129	-0.194	0.218
-718.791	800.000	-0.044	-0.134
-717.777	152.997	0.108	-0.151
-716.762	-200.000	-0.093	0.000
-715.748	199.516	-0.181	-0.284
-714.733	-81.627	-0.099	0.033
-713.718	11.097	0.143	-0.112
-712.704	-64.793	0.208	0.086
-711.689	240.763	-0.143	0.245
-710.675	49.013	-0.264	-0.254
-709.660	96.655	-0.223	0.261
-708.645	271.345	0.033	0.059
-707.631	115.101	0.270	-0.336
-706.616	800.000	-0.025	0.104
-705.602	-3.732	0.063	0.045
-704.587	-66.324	-0.184	0.075
-703.572	124.146	0.064	0.082
-702.558	-112.373	0.056	0.012
-701.543	800.000	-0.057	0.213
-700.529	11.934	-0.194	-0.152
-699.514	315.008	-0.101	-0.194
-698.499	800.000	0.154	0.471
-697.485	-141.957	-0.137	0.014
-696.470	-99.781	-0.385	-0.099
-695.456	-200.000	-0.006	-0.127
-694.441	-178.638	-0.055	0.001
-693.426	-164.535	-0.222	-0.010
-692.412	-200.000	-0.022	-0.102
-691.397	119.403	-0.024	-0.030
-690.383	-36.391	0.180	0.099
-689.368	-200.000	0.014	0.241
-688.354	110.667	-0.177	-0.217
-687.339	-200.000	0.031	0.193
-686.324	-200.000	0.000	0.013
-685.310	-18.982	-0.353	-0.224
-684.295	145.098	-0.061	0.083
-683.281	24.980	0.141	-0.120
-682.266	-177.211	-0.341	-0.009
-681.251	-69.018	-0.278	0.110
-680.237	132.455	-0.173	0.227
-679.222	-200.000	0.027	-0.189
-678.208	-94.308	-0.161	-0.045
-677.193	-85.409	0.195	0.062
-676.178	-200.000	0.019	0.095
-675.164	-200.000	-0.021	0.248
-674.149	-87.464	-0.314	0.097
-673.135	-57.224	0.248	-0.111
-672.120	118.485	0.115	0.144
-671.105	-123.544	-0.241	-0.039
-670.091	24.320	-0.142	-0.120
-669.076	96.991	-0.109	-0.128
-668.062	800.000	-0.060	0.265
-667.047	-15.921	-0.444	0.289
-666.032	2.693	0.431	-0.319
-665.018	120.107	-0.076	-0.097
-664.003	-19.871	0.347	-0.219
-662.989	90.150	-0.205	-0.234
-661.974	-21.267	-0.404	-0.252
-660.959	49.151	0.170	0.163
-659.945	-200.000	0.003	-0.066
-658.930	-200.000	-0.070	0.466
-657.916	-120.603	0.298	-0.052
-656.901	116.638	-0.139	0.174
-655.886	800.000	0.082	-0.288
-654.872	-200.000	-0.024	-0.149
-653.857	-107.733	-0.098	0.022
-652.843	251.495	0.182	0.315
-651.828	800.000	0.072	0.207
-650.814	162.969	0.237	0.340
-649.799	-200.000	-0.035	0.189
-648.784	800.000	0.076	-0.259
-647.770	-200.000	-0.050	-0.288
-646.755	-115.811	-0.141	0.027
-645.741	-200.000	-0.003	-0.022
-644.726	-200.000	0.000	-0.016
-643.711	-200.000	0.012	-0.165
-642.697	-200.000	0.034	0.163
-641.682	-21.965	-0.223	0.138
-640.668	47.342	0.073	-0.069
-639.653	-185.194	0.096	-0.002
-638.638	-200.000	0.014	-0.175
-637.624	51.737	0.364	-0.353
-636.609	88.701	0.085	-0.096
-635.595	-143.075	0.040	-0.004
-634.580	-65.535	-0.222	-0.091
-633.565	-55.140	0.141	0.065
-632.551	76.778	0.106	0.114
-631.536	-33.335	0.256	0.145
-630.522	-87.824	-0.161	0.049
-629.507	800.000	0.056	-0.184
-628.492	-130.697	0.237	-0.032
-627.478	-118.072	-0.092	0.017
-626.463	-200.000	-0.012	-0.348
-625.449	36.220	-0.259	-0.232
-624.434	-200.000	0.010	-0.186
-623.419	71.975	-0.122	0.130
-622.405	97.484	-0.182	-0.213
-621.390	-200.000	0.012	0.118
-620.376	-61.820	0.064	0.027
-619.361	503.250	-0.104	0.244
-618.346	800.000	-0.088	0.270
-617.332	800.000	-0.090	0.296
-616.317	-200.000	0.023	-0.352
-615.303	-99.439	-0.245	-0.063
-614.288	564.618	0.075	-0.186
-613.273	-200.000	0.030	-0.250
-612.259	-200.000	-0.005	-0.086
-611.244	-85.145	-0.233	0.074
-610.230	-84.369	-0.354	-0.114
-609.215	800.000	-0.083	-0.331
-608.201	-40.217	0.196	0.104
-607.186	11.096	0.420	-0.327
-606.171	228.736	0.091	0.152
-605.157	100.534	-0.093	0.110
-604.142	293.729	-0.119	-0.221
-603.128	-26.659	0.318	-0.189
-602.113	193.944	0.154	0.237
-601.098	781.824	-0.092	-0.256
-600.084	-200.000	0.035	-0.271
-599.069	-200.000	-0.013	-0.155
-598.055	541.453	0.028	-0.068
-597.040	-32.577	0.220	0.125
-596.025	-200.000	0.026	-0.351
-595.011	-130.050	-0.244	0.034
-593.996	-138.623	-0.184	-0.021
-592.982	-53.723	0.419	-0.195
-591.967	-63.181	-0.414	-0.174
-590.952	448.815	0.110	-0.247
-589.938	-59.091	0.148	0.065
-588.923	-16.260	-0.295	-0.191
-587.909	-200.000	-0.051	0.350
-586.894	223.433	-0.246	0.404
-585.879	1.366	0.184	0.134
-584.865	-200.000	-0.062	0.285
-583.850	270.804	-0.220	0.393
-582.836	7.163	-0.096	0.073
-581.821	-0.386	0.118	0.085
-580.806	-22.789	-0.167	-0.103
-579.792	503.800	0.045	-0.105
-578.777	-97.885	0.233	0.061
-577.763	345.993	-0.139	0.277
-576.748	-200.000	-0.011	-0.118
-575.733	701.420	0.091	-0.245
-574.719	208.570	0.131	-0.209
-573.704	-97.313	-0.289	-0.077
-572.690	-46.948	0.320	-0.159
-571.675	114.557	0.204	-0.252
-570.661	262.203	-0.042	0.075
-569.646	-155.343	0.412	0.027
-568.631	16.760	-0.198	0.159
-567.617	-111.501	-0.027	-0.006
-566.602	-87.779	0.090	-0.028
-565.588	118.287	-0.098	0.124
-564.573	53.470	0.245	0.239
-563.558	-200.000	-0.060	0.378
-562.544	107.456	-0.123	-0.148
-561.529	154.087	-0.223	-0.311
-560.515	292.716	-0.080	-0.148
-559.500	-152.684	0.497	-0.036
-558.485	57.139	-0.196	0.195
-557.471	45.776	-0.154	0.144
-556.456	-200.000	0.015	-0.172
-555.442	97.359	-0.096	0.112
-554.427	48.279	-0.198	0.188
-553.412	800.000	0.084	0.256
-552.398	-143.141	0.312	-0.031
-551.383	-13.759	-0.135	0.089
-550.369	800.000	-0.048	0.143
-549.354	211.076	-0.057	-0.091
-548.339	-1.910	-0.053	-0.038
-547.325	211.376	-0.119	-0.191
-546.310	-94.223	0.237	-0.066
-545.296	-117.594	-0.145	0.027
-544.281	800.000	-0.081	0.231
-543.266	15.404	0.287	-0.229
-542.252	552.953	0.101	-0.247
-541.237	-35.633	-0.173	0.095
-540.223	-200.000	0.002	0.100
-539.208	-200.000	0.006	0.192
-538.193	800.000	0.075	-0.332
-537.179	-200.000	0.030	0.375
-536.164	-167.130	-0.098	-0.004
-535.150	-200.000	-0.008	0.219
-534.135	161.367	-0.169	0.240
-533.121	-39.270	0.057	0.030
-532.106	366.854	0.001	-0.002
-531.091	-200.000	0.003	0.052
-530.077	113.628	0.158	0.194
-529.062	37.219	0.120	-0.108
-528.048	58.604	0.031	-0.031
-527.033	-87.588	-0.113	0.035
-526.018	-73.204	-0.285	0.106
-525.004	376.362	0.149	-0.308
-523.989	800.000	-0.120	-0.386
-522.975	177.082	-0.072	-0.107
-521.960	-117.626	0.380	-0.069
-520.945	60.024	0.109	0.110
-519.931	-142.050	-0.193	-0.019
-518.916	-200.000	0.007	-0.130
-517.902	367.710	-0.097	0.198
-516.887	19.628	0.070	0.057
-515.872	-153.785	0.283	0.020
-514.858	58.925	0.174	-0.174
-513.843	84.169	0.094	0.104
-512.829	46.868	-0.006	0.006
-511.814	-169.111	-0.357	0.013
-510.799	74.596	0.164	0.175
-509.785	68.412	-0.049	-0.051
-508.770	57.341	0.121	0.120
-507.756	-151.338	0.227	0.017
-506.741	45.997	0.205	-0.193
-505.726	-41.051	0.203	-0.106
-504.712	94.499	0.317	-0.365
-503.697	-149.894	0.130	0.010
-502.683	-56.820	0.219	0.098
-501.668	191.366	-0.161	-0.245
-500.653	163.304	-0.124	-0.176
-499.639	-64.921	-0.167	-0.068
-498.624	800.000	0.163	-0.503
-497.610	24.442	0.373	-0.313
-496.595	800.000	-0.029	0.120
-495.581	800.000	-0.046	-0.139
-494.566	695.747	-0.113	-0.300
-493.551	23.402	-0.282	-0.235
-492.537	-129.415	0.132	0.019
-491.522	-76.734	0.190	-0.068
-490.508	24.200	-0.285	0.238
-489.493	-48.458	-0.177	0.087
-488.478	70.634	0.181	-0.189
-487.464	-3.969	-0.274	0.193
-486.449	98.020	0.195	-0.228
-485.435	590.815	-0.033	-0.083
-484.420	-200.000	0.022	-0.111
-483.405	33.325	-0.094	0.083
-482.391	800.000	-0.017	0.074
-481.376	-200.000	0.008	0.115
-480.362	-101.917	-0.067	-0.016
-479.347	-100.117	-0.302	0.076
-478.332	-200.000	0.006	-0.099
-477.318	-200.000	0.001	0.100
-476.303	-114.552	-0.155	-0.030
-475.289	-200.000	-0.023	-0.147
-474.274	-139.461	0.129	0.014
-473.259	-200.000	-0.015	0.420
-472.245	-78.186	0.179	0.062
-471.230	341.680	0.080	-0.159
-470.216	-174.679	0.277	-0.008
-469.201	238.461	0.109	-0.183
-468.186	151.213	-0.185	0.254
-467.172	-178.633	-0.129	-0.003
-466.157	800.000	0.006	-0.023
-465.143	258.624	-0.165	0.288
-464.128	22.017	0.156	0.129
-463.113	800.000	0.059	-0.227
-462.099	-88.092	-0.096	0.029
-461.084	-124.617	0.143	-0.022
-460.070	26.033	-0.230	0.194
-459.055	-200.000	-0.017	-0.200
-458.040	-81.996	-0.179	-0.059
-457.026	176.737	-0.028	-0.042
-456.011	316.839	0.138	0.265
-454.997	31.683	0.196	-0.171
-453.982	534.821	0.050	0.120
-452.968	-78.764	-0.243	0.084
-451.953	83.488	0.252	-0.278
-450.938	-200.000	-0.010	-0.464
-449.924	91.755	0.258	-0.293
-448.909	21.419	-0.260	0.214
-447.895	800.000	0.058	0.196
-446.880	119.911	-0.067	0.084
-445.865	800.000	0.048	-0.160
-444.851	186.864	0.101	0.153
-443.836	49.495	-0.166	-0.158
-442.822	745.074	0.097	-0.264
-441.807	249.424	-0.173	-0.296
-440.792	437.551	0.066	0.145
-439.778	-7.335	0.097	0.066
-438.763	-200.000	0.006	-0.193
-437.749	-48.726	-0.352	-0.171
-436.734	275.935	-0.085	0.153
-435.719	-114.751	-0.307	-0.059
-434.705	344.444	0.122	-0.242
-433.690	-200.000	-0.005	0.070
-432.676	-9.243	-0.158	0.107
-431.661	-178.147	-0.526	-0.013
-430.646	30.364	-0.131	0.113
-429.632	-200.000	-0.007	0.215
-428.617	-200.000	-0.007	-0.053
-427.603	103.438	-0.021	0.025
-426.588	0.204	0.022	0.016
-425.573	-200.000	0.012	-0.100
-424.559	124.823	-0.066	0.084
-423.544	-33.711	-0.036	0.020
-422.530	800.000	0.077	0.249
-421.515	139.611	0.205	-0.273
-420.500	-200.000	0.005	-0.128
-419.486	-118.289	-0.161	0.029
-418.471	11.956	-0.093	-0.072
-417.457	800.000	0.101	0.384
-416.442	48.776	0.174	-0.165
-415.428	21.947	-0.053	0.043
-414.413	-200.000	0.009	-0.076
-413.398	-19.969	-0.270	0.168
-412.384	-200.000	-0.041	-0.239
-411.369	19.046	0.160	-0.130
-410.355	37.288	0.237	0.212
-409.340	-121.097	0.255	0.043
-408.325	56.364	-0.164	-0.161
-407.311	397.467	-0.154	-0.326
-406.296	-59.056	-0.330	-0.144
-405.282	-200.000	-0.002	-0.059
-404.267	800.000	-0.074	0.266
-403.252	-200.000	-0.024	-0.225
-402.238	-200.000	-0.005	0.205
-401.223	26.661	0.144	-0.122
-400.209	503.118	-0.077	0.179
-399.194	121.338	0.088	-0.110
-398.179	800.000	0.035	0.111
-397.165	578.417	0.033	-0.083
-396.150	-200.000	0.005	0.237
-395.136	-200.000	0.009	-0.199
-394.121	247.469	-0.108	0.184
-393.106	285.465	0.203	0.370
-392.092	-200.000	0.057	0.320
-391.077	-21.089	0.201	0.124
-390.063	230.754	-0.087	-0.143
-389.048	-103.363	-0.412	-0.098
-388.033	-73.941	0.148	0.054
-387.019	800.000	0.040	-0.168
-386.004	-200.000	-0.025	-0.201
-384.990	219.197	-0.129	-0.209
-383.975	-84.833	-0.286	0.091
-382.960	-132.754	0.471	0.061
-381.946	427.115	-0.157	0.341
-380.931	121.088	0.127	0.159
-379.917	-24.580	-0.166	0.100
-378.902	-200.000	-0.029	0.252
-377.888	-200.000	0.017	-0.299
-376.873	800.000	0.070	-0.196
-375.858	-139.020	0.261	-0.029
-374.844	31.232	-0.204	0.177
-373.829	-52.492	-0.332	-0.155
-372.815	31.539	-0.204	0.177
-371.800	-200.000	-0.015	-0.273
-370.785	189.734	-0.203	-0.307
-369.771	287.122	0.015	0.028
-368.756	-116.723	-0.362	-0.067
-367.742	7.987	0.205	-0.155
-366.727	146.988	-0.163	-0.222
-365.712	113.141	-0.055	-0.067
-364.698	219.357	-0.102	-0.165
-363.683	-200.000	0.004	0.113
-362.669	195.231	-0.131	-0.201
-361.654	6.460	0.144	-0.108
-360.639	-49.653	-0.170	0.081
-359.625	0.477	0.245	0.176
-358.610	317.975	-0.049	0.094
-357.596	-200.000	0.025	0.169
-356.581	800.000	0.025	-0.072
-355.566	-200.000	-0.016	0.130
-354.552	800.000	-0.029	0.101
-353.537	759.730	-0.120	0.328
-352.523	-61.088	0.142	0.060
-351.508	800.000	-0.074	0.234
-350.493	-200.000	-0.025	-0.195
-349.479	22.566	-0.099	-0.082
-348.464	-69.626	0.240	-0.093
-347.450	-200.000	0.045	0.227
-346.435	579.275	0.039	-0.096
-345.420	-200.000	-0.031	-0.248
-344.406	-65.478	0.563	0.228
-343.391	158.639	0.067	0.093
-342.377	-200.000	0.001	-0.259
-341.362	81.134	-0.291	-0.317
-340.348	-200.000	-0.019	-0.148
-339.333	154.985	-0.070	0.097
-338.318	-200.000	-0.064	0.338
-337.304	-23.776	-0.117	0.071
-336.289	800.000	0.063	0.209
-335.275	22.114	0.230	-0.189
-334.260	-63.749	-0.297	0.123
-333.245	114.617	-0.234	0.287
-332.231	-137.965	-0.009	-0.001
-331.216	-49.635	-0.168	-0.080
-330.202	133.566	0.218	-0.284
-329.187	-152.934	-0.117	-0.008
-328.172	-200.000	-0.032	-0.284
-327.158	389.456	-0.230	-0.480
-326.143	149.932	0.091	-0.124
-325.129	66.330	-0.100	0.102
-324.114	-200.000	-0.106	0.474
-323.099	-91.401	0.095	0.027
-322.085	-200.000	-0.006	-0.046
-321.070	-117.249	-0.269	-0.049
-320.056	45.927	-0.126	-0.118
-319.041	-189.712	-0.292	0.003
-318.026	31.306	-0.106	0.091
-317.012	-113.789	-0.063	0.012
-315.997	185.847	-0.229	0.342
-314.983	-200.000	-0.018	-0.098
-313.968	112.188	-0.138	-0.168
-312.953	59.493	-0.035	-0.034
-311.939	-200.000	0.015	-0.300
-310.924	240.830	-0.070	-0.118
-309.910	-200.000	-0.023	0.295
-308.895	27.984	0.204	0.174
-307.880	256.198	0.023	0.040
-306.866	45.873	0.139	-0.129
-305.851	-4.517	-0.299	0.208
-304.837	178.579	0.068	0.100
-303.822	-125.866	0.184	0.028
-302.807	276.949	-0.087	0.155
-301.793	-117.545	-0.440	-0.080
-300.778	134.539	-0.059	0.077
-299.764	-200.000	-0.002	-0.297
-298.749	-57.789	-0.127	0.056
-297.735	109.174	0.182	-0.219
-296.720	21.271	0.241	0.197
-295.705	43.608	-0.168	0.155
-294.691	362.170	-0.121	-0.245
-293.676	36.750	0.165	0.147
-292.662	-200.000	-0.003	-0.092
-291.647	-118.517	0.011	0.002
-290.632	-200.000	0.052	0.253
-289.618	391.509	0.074	-0.154
-288.603	-106.123	0.411	0.093
-287.589	295.029	0.084	0.154
-286.574	-200.000	-0.013	0.061
-285.559	-27.090	-0.056	0.033
-284.545	-74.378	-0.154	0.056
-283.530	800.000	0.021	0.070
-282.516	-179.938	0.361	-0.008
-281.501	-127.858	0.229	-0.033
-280.486	-3.045	0.057	0.040
-279.472	26.305	0.333	0.280
-278.457	46.376	0.144	-0.134
-277.443	-22.915	0.034	0.021
-276.428	-200.000	0.002	0.177
-275.413	63.681	-0.134	0.135
-274.399	-165.400	0.442	-0.019
-273.384	569.824	-0.121	0.296
-272.370	-200.000	-0.012	-0.163
-271.355	-200.000	-0.046	0.215
-270.340	340.824	-0.035	-0.069
-269.326	112.004	-0.078	0.095
-268.311	-27.330	-0.275	0.161
-267.297	-57.876	0.369	0.162
-266.282	-91.424	0.150	-0.043
-265.267	15.017	-0.192	0.151
-264.253	-194.423	-0.105	0.001
-263.238	123.468	-0.096	0.121
-262.224	48.068	0.043	-0.041
-261.209	506.265	0.126	-0.293
-260.195	-126.154	0.078	0.012
-259.180	800.000	-0.048	-0.141
-258.165	-57.454	0.246	-0.109
-257.151	-169.117	-0.165	0.006
-256.136	171.465	0.097	-0.140
-255.122	39.477	0.151	-0.136
-254.107	111.666	0.171	-0.207
-253.092	147.842	-0.129	0.175
-252.078	15.367	-0.351	-0.277
-251.063	-82.688	-0.274	0.089
-250.049	-161.146	0.544	-0.029
-249.034	-200.000	0.077	0.360
-248.019	-123.096	0.327	0.053
-247.005	218.107	0.040	-0.064
-245.990	-200.000	-0.073	-0.373
-244.976	800.000	-0.040	-0.167
-243.961	-200.000	-0.050	0.383
-242.946	463.648	-0.046	0.104
-241.932	215.781	-0.063	-0.101
-240.917	10.573	-0.206	0.157
-239.903	-21.463	0.218	-0.134
-238.888	-56.142	-0.150	0.067
-237.873	33.242	-0.215	0.187
-236.859	-200.000	-0.009	-0.142
-235.844	-151.144	0.343	-0.026
-234.830	72.877	0.155	0.162
-233.815	219.582	-0.163	0.262
-232.800	226.125	0.155	0.252
-231.786	-130.881	0.105	-0.014
-230.771	-68.566	0.331	0.129
-229.757	607.702	0.226	0.565
-228.742	314.520	-0.096	0.181
-227.727	-58.875	0.164	-0.071
-226.713	-200.000	0.046	-0.254
-225.698	800.000	0.057	0.225
-224.684	390.032	0.037	-0.078
-223.669	352.698	0.050	-0.100
-222.655	-163.019	0.243	0.012
-221.640	-50.672	0.095	-0.045
-220.625	144.293	-0.170	0.228
-219.611	-173.098	0.056	0.002
-218.596	-55.248	-0.097	-0.044
-217.582	-20.885	0.187	0.115
-216.567	-19.734	-0.147	-0.091
-215.552	-123.875	0.264	-0.042
-214.538	-116.079	0.337	0.063
-213.523	92.236	-0.126	-0.142
-212.509	-78.483	-0.138	-0.047
-211.494	559.140	-0.100	0.241
-210.479	5.681	0.106	-0.079
-209.465	800.000	0.123	-0.414
-208.450	-51.333	-0.097	-0.046
-207.436	-48.148	0.157	0.076
-206.421	208.904	0.081	-0.127
-205.406	-200.000	0.030	0.284
-204.392	114.214	0.183	-0.223
-203.377	-100.560	0.400	0.099
-202.363	-197.748	-0.131	0.001
-201.348	-59.123	0.196	0.085
-200.333	-35.774	-0.158	-0.086
-199.319	-100.987	-0.241	0.059
-198.304	42.001	0.036	0.033
-197.290	-200.000	-0.034	-0.185
-196.275	615.246	0.044	-0.111
-195.260	-3.281	-0.323	0.225
-194.246	-200.000	-0.006	-0.153
-193.231	-107.696	-0.223	-0.049
-192.217	-145.194	0.185	0.017
-191.202	-200.000	0.018	0.171
-190.187	-121.556	0.241	-0.040
-189.173	-61.831	-0.086	-0.036
-188.158	-200.000	-0.009	0.200
-187.144	313.347	0.107	0.202
-186.129	800.000	0.126	0.432
-185.114	-100.809	-0.237	-0.058
-184.100	-117.092	-0.287	-0.052
-183.085	123.074	-0.099	-0.124
-182.071	-38.879	0.055	0.029
-181.056	-38.680	-0.174	0.092
-180.042	-177.827	0.126	0.003
-179.027	-7.498	-0.151	-0.102
-178.012	-200.000	0.009	0.242
-176.998	-46.307	-0.112	0.055
-175.983	147.837	0.197	0.266
-174.969	800.000	-0.087	0.350
-173.954	6.369	-0.167	0.124
-172.939	800.000	0.023	-0.077
-171.925	49.192	-0.222	0.209
-170.910	800.000	0.093	0.267
-169.896	93.285	-0.179	-0.203
-168.881	-200.000	-0.025	-0.298
-167.866	800.000	0.047	0.161
-166.852	-71.592	0.160	-0.060
-165.837	-10.671	-0.064	-0.043
-164.823	-200.000	0.055	-0.332
-163.808	-200.000	-0.005	0.133
-162.793	-34.216	0.479	0.263
-161.779	800.000	0.083	0.320
-160.764	-74.116	-0.202	-0.073
-159.750	8.117	-0.191	0.144
-158.735	-200.000	-0.058	0.377
-157.720	-53.541	-0.277	0.127
-156.706	-21.692	0.192	0.117
-155.691	-103.040	0.311	-0.074
-154.677	800.000	-0.024	-0.073
-153.662	-18.448	-0.069	0.043
-152.647	-73.810	-0.197	-0.072
-151.633	45.354	0.136	-0.126
-150.618	253.154	0.137	0.233
-149.604	16.255	0.319	0.251
-148.589	-36.893	0.190	-0.102
-147.574	58.537	0.252	0.247
-146.560	800.000	0.075	0.322
-145.545	196.862	-0.116	-0.178
-144.531	-136.984	0.280	-0.032
-143.516	-128.554	-0.117	-0.017
-142.502	534.760	-0.047	0.112
-141.487	-200.000	0.012	0.107
-140.472	-7.808	-0.116	0.078
-139.458	107.076	0.041	-0.048
-138.443	-70.020	-0.183	-0.070
-137.429	-57.002	-0.087	0.038
-136.414	-170.760	0.221	-0.008
-135.399	-99.494	0.103	-0.026
-134.385	-74.115	-0.325	-0.118
-133.370	-42.070	0.132	0.067
-132.356	-200.000	-0.012	0.327
-131.341	529.923	-0.013	-0.031
-130.326	-80.051	-0.129	0.043
-129.312	625.404	-0.056	0.141
-128.297	205.785	0.050	-0.078
-127.283	-131.020	-0.350	0.047
-126.268	159.362	0.087	-0.121
-125.253	140.255	-0.156	0.206
-124.239	-123.464	0.135	-0.021
-123.224	-152.864	0.152	0.011
-122.210	-3.043	0.195	0.136
-121.195	-84.868	-0.185	-0.058
