DTS Sentinel unit serial number:	SN413079Multiplexer serial number:	ORYXHardware model number:	OX4-SRSoftware version number:	ORYX F/W v4.00 Oryx Data Collector v3.7.2.0data status	okinstallation	princeton_trtdifferential loss correction	single-endedforward channel	channel 1reverse channel	N/Adate	2019/09/16time	15:10:35forward acquisition time	60.00reverse acquisition time	0.00gamma	496.2192k internal	0.2292k external	0.2292temperature offset calibration	0.9954default loss term (dB/km)	0.3790temperature slope calibration	1.0000multiplexer offset coefficient	1.0000multiplexer slope coefficient	1.0000fibre end	0.00T internal ref (°C)	41.06T ext. ref 1 (°C)	14.55T ext. ref 2 (°C)	36.52length (m)	temperature (°C)	Stokes	anti-Stokes-747.200	179.586	-0.072	-0.108
-746.185	-200.000	-0.026	-0.161
-745.171	-35.821	-0.152	0.084
-744.156	-160.909	0.569	-0.031
-743.142	-19.528	-0.241	0.153
-742.127	800.000	-0.075	0.331
-741.112	185.200	-0.191	0.290
-740.098	188.805	-0.388	0.594
-739.083	-27.617	-0.479	0.285
-738.069	75.956	-0.154	0.167
-737.054	-53.290	0.083	-0.039
-736.039	268.120	0.071	0.128
-735.025	26.787	0.183	0.157
-734.010	79.718	-0.093	-0.102
-732.996	692.380	-0.056	-0.150
-731.981	-165.569	-0.292	-0.013
-730.966	-106.932	-0.166	-0.038
-729.952	129.683	-0.184	0.240
-728.937	97.393	-0.138	0.162
-727.923	501.899	0.080	0.189
-726.908	-200.000	0.006	0.083
-725.894	-91.113	-0.229	-0.067
-724.879	-200.000	0.001	-0.057
-723.864	73.858	0.120	-0.129
-722.850	21.768	0.165	0.137
-721.835	-200.000	-0.019	0.301
-720.821	800.000	-0.078	-0.231
-719.806	-109.536	-0.411	-0.089
-718.791	800.000	0.054	-0.219
-717.777	4.476	-0.017	-0.013
-716.762	-200.000	-0.010	-0.097
-715.748	3.726	-0.040	-0.030
-714.733	214.594	-0.052	0.085
-713.718	800.000	0.024	-0.105
-712.704	-73.116	-0.304	-0.114
-711.689	-48.253	-0.495	0.244
-710.675	40.802	-0.368	0.339
-709.660	133.079	0.085	-0.112
-708.645	-33.765	-0.285	-0.161
-707.631	42.461	0.146	-0.136
-706.616	-0.637	0.460	0.334
-705.602	154.374	0.037	-0.051
-704.587	268.700	0.148	0.265
-703.572	-51.426	-0.204	-0.097
-702.558	-200.000	0.073	0.340
-701.543	277.441	0.192	-0.349
-700.529	57.470	-0.027	0.026
-699.514	-200.000	0.005	0.105
-698.499	44.874	-0.128	-0.121
-697.485	207.117	0.083	-0.132
-696.470	-200.000	-0.034	-0.162
-695.456	800.000	-0.038	0.164
-694.441	-200.000	-0.032	0.214
-693.426	574.604	-0.116	0.290
-692.412	24.478	-0.115	-0.097
-691.397	-173.497	-0.233	0.007
-690.383	155.422	-0.248	0.349
-689.368	-67.130	0.060	-0.024
-688.354	-200.000	0.025	0.137
-687.339	-121.816	-0.317	-0.053
-686.324	191.726	-0.130	-0.200
-685.310	-133.027	-0.199	0.026
-684.295	-31.189	0.567	-0.326
-683.281	211.034	-0.042	0.068
-682.266	628.047	-0.097	0.251
-681.251	365.086	-0.145	0.298
-680.237	594.776	-0.125	-0.317
-679.222	-200.000	0.014	-0.401
-678.208	267.621	-0.179	0.320
-677.193	133.190	0.208	-0.274
-676.178	-9.422	0.150	0.102
-675.164	157.311	0.211	0.298
-674.149	57.296	-0.141	-0.140
-673.135	-106.793	-0.260	0.059
-672.120	239.684	0.180	-0.307
-671.105	-35.582	0.221	-0.122
-670.091	67.212	-0.122	-0.127
-669.076	-128.501	0.061	-0.009
-668.062	-9.638	-0.161	0.110
-667.047	-20.833	-0.074	0.046
-666.032	-200.000	0.045	-0.485
-665.018	182.709	0.181	-0.272
-664.003	11.581	0.095	-0.075
-662.989	109.458	-0.067	-0.082
-661.974	800.000	-0.049	-0.209
-660.959	-165.567	-0.001	0.000
-659.945	-148.196	0.048	-0.004
-658.930	-53.804	0.203	-0.094
-657.916	-14.361	-0.208	0.137
-656.901	248.140	0.016	0.027
-655.886	138.114	0.089	-0.119
-654.872	262.606	-0.040	0.070
-653.857	-99.972	0.257	-0.065
-652.843	-107.151	-0.139	0.031
-651.828	288.883	-0.134	-0.248
-650.814	27.359	-0.130	-0.111
-649.799	-200.000	-0.051	0.262
-648.784	-200.000	-0.019	-0.083
-647.770	800.000	-0.069	0.195
-646.755	-200.000	0.007	0.057
-645.741	-33.839	-0.093	0.052
-644.726	-200.000	0.037	-0.179
-643.711	-200.000	-0.003	-0.299
-642.697	45.668	0.188	-0.177
-641.682	-200.000	-0.027	0.347
-640.668	382.680	0.036	0.075
-639.653	-31.471	-0.250	-0.143
-638.638	-75.873	-0.366	-0.132
-637.624	151.741	-0.142	-0.198
-636.609	-18.036	-0.126	0.080
-635.595	-200.000	0.002	-0.226
-634.580	82.230	-0.111	0.122
-633.565	-200.000	0.039	0.294
-632.551	-114.627	-0.389	-0.076
-631.536	268.288	0.106	-0.189
-630.522	1.087	0.115	-0.084
-629.507	-82.660	0.295	0.097
-628.492	787.370	0.093	-0.260
-627.478	-122.039	-0.137	0.023
-626.463	129.012	0.107	0.138
-625.449	4.105	0.176	0.131
-624.434	271.966	-0.036	-0.064
-623.419	-200.000	0.030	0.236
-622.405	-106.238	-0.163	-0.037
-621.390	-191.880	-0.289	-0.003
-620.376	-85.251	0.275	-0.087
-619.361	-37.299	-0.090	-0.049
-618.346	800.000	0.023	-0.093
-617.332	-45.740	-0.312	0.157
-616.317	139.876	-0.297	-0.399
-615.303	120.152	-0.131	-0.165
-614.288	195.477	0.111	-0.171
-613.273	-101.963	-0.234	-0.057
-612.259	-17.029	0.362	0.233
-611.244	308.275	0.163	0.309
-610.230	-200.000	-0.016	-0.085
-609.215	-200.000	0.344	-0.001
-608.201	-200.000	-0.068	0.323
-607.186	156.666	-0.208	0.293
-606.171	-43.401	0.170	-0.087
-605.157	-200.000	-0.008	0.072
-604.142	5.749	0.099	-0.074
-603.128	125.844	-0.148	-0.190
-602.113	17.900	0.128	0.104
-601.098	-200.000	-0.342	0.001
-600.084	499.746	0.138	-0.325
-599.069	27.210	-0.029	0.025
-598.055	380.142	0.083	0.173
-597.040	181.144	-0.122	-0.183
-596.025	-29.090	0.078	0.045
-595.011	43.966	-0.102	-0.095
-593.996	163.999	-0.275	-0.394
-592.982	-4.568	0.423	-0.297
-591.967	-200.000	0.077	0.448
-590.952	800.000	0.062	-0.263
-589.938	687.673	0.075	0.200
-588.923	-116.391	0.174	0.033
-587.909	-200.000	-0.019	-0.212
-586.894	-19.484	-0.118	0.074
-585.879	116.493	0.056	0.070
-584.865	-200.000	0.032	-0.209
-583.850	133.834	-0.070	0.092
-582.836	-200.000	-0.041	0.381
-581.821	-200.000	-0.001	-0.170
-580.806	-200.000	0.037	0.218
-579.792	4.711	-0.202	0.151
-578.777	-14.133	-0.272	-0.178
-577.763	800.000	0.040	0.126
-576.748	-74.245	0.088	-0.032
-575.733	207.747	-0.155	0.246
-574.719	248.043	-0.106	-0.183
-573.704	-169.343	-0.239	0.009
-572.690	-105.513	0.254	-0.059
-571.675	31.112	-0.160	0.140
-570.661	237.091	-0.125	-0.210
-569.646	-105.450	-0.167	0.039
-568.631	800.000	-0.054	-0.232
-567.617	-104.892	-0.094	0.022
-566.602	676.670	-0.091	0.241
-565.588	-80.308	0.053	0.018
-564.573	800.000	0.068	0.232
-563.558	284.850	-0.178	0.326
-562.544	-200.000	-0.004	-0.354
-561.529	-200.000	0.010	0.058
-560.515	-43.065	-0.361	-0.186
-559.500	8.537	-0.273	0.209
-558.485	800.000	0.048	0.159
-557.471	-200.000	0.016	0.098
-556.456	-91.876	-0.195	-0.056
-555.442	-94.338	-0.120	-0.033
-554.427	-52.542	0.204	0.096
-553.412	-73.979	0.299	0.110
-552.398	800.000	-0.122	0.394
-551.383	87.944	0.138	-0.156
-550.369	800.000	-0.088	0.358
-549.354	33.051	-0.075	-0.066
-548.339	-200.000	0.022	-0.336
-547.325	-200.000	0.018	-0.091
-546.310	-29.453	-0.164	0.095
-545.296	-30.189	-0.132	-0.076
-544.281	-73.108	-0.243	0.090
-543.266	-97.540	-0.256	-0.068
-542.252	687.817	-0.028	0.076
-541.237	85.765	-0.162	0.181
-540.223	46.005	-0.249	0.234
-539.208	-200.000	0.000	-0.017
-538.193	-200.000	-0.037	0.278
-537.179	52.543	-0.190	-0.184
-536.164	7.966	0.266	0.203
-535.150	-91.617	0.115	-0.033
-534.135	13.567	-0.197	0.155
-533.121	800.000	0.034	-0.131
-532.106	-81.769	-0.402	0.134
-531.091	50.809	0.130	0.125
-530.077	29.911	0.197	-0.171
-529.062	-97.152	-0.194	-0.052
-528.048	287.826	-0.080	-0.147
-527.033	-26.276	0.106	-0.063
-526.018	130.528	-0.080	-0.104
-525.004	393.355	0.157	-0.332
-523.989	383.299	-0.133	-0.277
-522.975	-90.084	-0.113	0.033
-521.960	-63.532	-0.176	-0.073
-520.945	-13.565	-0.082	0.054
-519.931	-139.974	-0.333	-0.036
-518.916	-200.000	0.058	-0.379
-517.902	413.031	-0.109	0.236
-516.887	800.000	-0.030	0.122
-515.872	-1.851	0.183	-0.131
-514.858	467.727	0.146	-0.332
-513.843	773.520	-0.034	-0.094
-512.829	-49.909	0.307	0.148
-511.814	205.868	-0.036	0.057
-510.799	-7.054	-0.311	-0.214
-509.785	-72.033	-0.141	-0.053
-508.770	3.545	-0.172	0.127
-507.756	-200.000	0.022	0.199
-506.741	-63.880	0.281	0.116
-505.726	43.120	0.259	-0.240
-504.712	-143.164	0.099	0.010
-503.697	-180.762	-0.198	0.004
-502.683	-79.014	0.034	-0.012
-501.668	800.000	-0.065	0.210
-500.653	-123.028	0.140	0.023
-499.639	-200.000	0.001	-0.189
-498.624	93.022	-0.154	0.177
-497.610	-200.000	0.007	0.108
-496.595	800.000	-0.085	0.267
-495.581	245.183	0.161	-0.275
-494.566	-78.274	0.356	-0.124
-493.551	302.574	-0.119	-0.223
-492.537	12.391	-0.188	0.147
-491.522	-200.000	0.006	-0.356
-490.508	303.108	0.090	0.169
-489.493	-149.199	-0.279	0.023
-488.478	267.542	-0.120	-0.213
-487.464	8.408	0.369	0.281
-486.449	-200.000	-0.036	0.170
-485.435	180.865	-0.136	0.202
-484.420	36.898	-0.026	0.024
-483.405	313.767	-0.097	-0.185
-482.391	800.000	0.157	0.563
-481.376	106.251	0.179	0.215
-480.362	-200.000	-0.003	-0.024
-479.347	-45.754	-0.152	0.076
-478.332	-67.045	-0.204	0.081
-477.318	633.220	0.053	0.137
-476.303	58.462	0.154	-0.153
-475.289	188.751	0.086	0.131
-474.274	-182.949	-0.216	0.004
-473.259	-142.963	-0.245	-0.024
-472.245	-123.669	-0.191	0.031
-471.230	-94.710	-0.259	0.071
-470.216	-200.000	-0.079	-0.394
-469.201	3.397	0.162	-0.119
-468.186	-200.000	-0.042	-0.288
-467.172	-200.000	0.041	-0.278
-466.157	64.863	-0.228	-0.233
-465.143	177.298	-0.135	-0.199
-464.128	-142.895	-0.288	-0.028
-463.113	-18.195	0.177	-0.112
-462.099	-44.533	-0.094	0.048
-461.084	-114.304	-0.326	-0.064
-460.070	-111.960	-0.243	0.050
-459.055	800.000	0.066	-0.265
-458.040	-63.972	-0.041	0.017
-457.026	23.565	0.244	0.203
-456.011	702.983	-0.103	-0.276
-454.997	546.849	0.159	0.386
-453.982	-200.000	-0.045	-0.222
-452.968	-200.000	-0.008	-0.253
-451.953	171.747	-0.096	-0.139
-450.938	-200.000	0.068	0.351
-449.924	26.214	-0.201	0.170
-448.909	215.466	0.225	-0.362
-447.895	147.181	0.105	-0.143
-446.880	-100.747	0.330	0.082
-445.865	476.315	-0.128	0.292
-444.851	-130.904	-0.275	0.037
-443.836	800.000	-0.050	0.197
-442.822	-200.000	0.001	0.201
-441.807	-4.537	0.276	-0.193
-440.792	703.880	-0.067	0.178
-439.778	168.015	-0.173	-0.249
-438.763	149.018	-0.166	0.227
-437.749	107.870	0.078	-0.094
-436.734	-43.502	0.313	-0.160
-435.719	-11.994	0.247	0.164
-434.705	-15.671	-0.216	0.139
-433.690	-200.000	0.000	0.262
-432.676	-39.031	0.091	0.048
-431.661	800.000	-0.105	0.346
-430.646	-200.000	-0.004	0.036
-429.632	-43.917	-0.135	-0.069
-428.617	-43.489	-0.084	-0.043
-427.603	-63.604	0.224	-0.093
-426.588	359.563	-0.174	-0.352
-425.573	-43.660	0.275	0.140
-424.559	-22.770	0.175	-0.107
-423.544	-200.000	0.066	0.446
-422.530	717.473	0.090	0.241
-421.515	-87.068	-0.166	-0.051
-420.500	-148.608	0.226	-0.019
-419.486	47.421	-0.120	-0.113
-418.471	-200.000	-0.009	-0.347
-417.457	-102.399	0.272	0.066
-416.442	-1.288	0.104	-0.075
-415.428	-18.030	0.131	-0.083
-414.413	-59.295	0.309	0.134
-413.398	-125.807	0.419	0.064
-412.384	175.919	-0.222	-0.325
-411.369	800.000	0.035	-0.136
-410.355	800.000	-0.082	-0.331
-409.340	-2.384	-0.223	-0.158
-408.325	-48.313	-0.101	0.049
-407.311	139.735	0.169	0.225
-406.296	-60.058	0.299	-0.129
-405.282	800.000	-0.075	0.232
-404.267	800.000	-0.037	0.108
-403.252	800.000	-0.036	0.129
-402.238	87.086	-0.164	0.184
-401.223	800.000	0.108	0.404
-400.209	166.465	0.089	-0.127
-399.194	626.421	-0.103	0.262
-398.179	-200.000	0.036	0.249
-397.165	682.225	0.059	-0.157
-396.150	-134.524	0.261	-0.032
-395.136	453.661	0.125	-0.279
-394.121	800.000	-0.023	0.082
-393.106	9.033	0.333	0.254
-392.092	-113.173	0.164	-0.033
-391.077	-200.000	0.011	0.299
-390.063	800.000	0.082	0.346
-389.048	-12.712	0.120	0.079
-388.033	221.484	-0.155	-0.251
-387.019	-40.589	-0.303	-0.159
-386.004	800.000	0.062	-0.185
-384.990	0.002	-0.268	0.193
-383.975	-200.000	0.011	-0.191
-382.960	17.196	0.212	0.170
-381.946	800.000	-0.053	0.182
-380.931	46.853	0.135	0.127
-379.917	-7.015	-0.209	0.143
-378.902	17.704	-0.019	-0.015
-377.888	489.499	0.146	-0.338
-376.873	256.710	-0.057	-0.099
-375.858	346.463	-0.053	-0.105
-374.844	-27.068	0.173	0.102
-373.829	31.945	-0.097	0.084
-372.815	-200.000	-0.065	-0.664
-371.800	-115.704	0.087	0.016
-370.785	-13.363	-0.176	-0.115
-369.771	-35.075	-0.052	-0.029
-368.756	195.615	-0.161	0.247
-367.742	-59.560	-0.106	0.046
-366.727	462.234	0.034	0.076
-365.712	-40.362	-0.289	0.151
-364.698	446.211	-0.054	0.119
-363.683	-98.427	-0.171	0.044
-362.669	-62.970	-0.101	0.042
-361.654	-140.492	-0.107	0.011
-360.639	566.937	0.205	-0.503
-359.625	10.146	0.111	0.085
-358.610	130.284	-0.119	-0.154
-357.596	24.551	0.276	-0.230
-356.581	-84.261	0.247	-0.079
-355.566	45.818	0.310	-0.289
-354.552	-47.542	-0.297	-0.146
-353.537	322.834	-0.224	-0.430
-352.523	-200.000	-0.027	0.261
-351.508	-200.000	-0.003	0.055
-350.493	-12.864	-0.312	0.205
-349.479	-200.000	0.039	-0.176
-348.464	-185.399	0.272	0.004
-347.450	16.900	0.175	0.140
-346.435	81.891	0.173	-0.189
-345.420	74.886	0.181	-0.192
-344.406	134.434	-0.075	-0.098
-343.391	80.890	0.148	0.161
-342.377	-200.000	0.024	0.162
-341.362	-99.331	-0.175	0.045
-340.348	-136.976	0.119	0.014
-339.333	-20.354	-0.156	-0.097
-338.318	800.000	0.073	-0.295
-337.304	-49.354	0.304	-0.146
-336.289	-83.120	-0.134	-0.043
-335.275	800.000	-0.077	-0.300
-334.260	-200.000	0.047	0.277
-333.245	697.938	-0.069	0.182
-332.231	-91.301	0.228	-0.066
-331.216	134.528	-0.101	0.132
-330.202	-200.000	-0.005	-0.319
-329.187	-125.082	0.210	-0.033
-328.172	-71.414	-0.160	-0.060
-327.158	-200.000	-0.013	-0.212
-326.143	800.000	0.039	-0.116
-325.129	206.952	0.179	-0.281
-324.114	800.000	0.035	-0.121
-323.099	800.000	-0.084	0.271
-322.085	800.000	0.028	0.122
-321.070	200.870	0.201	0.311
-320.056	-200.000	-0.016	0.079
-319.041	-44.753	0.188	-0.094
-318.026	120.638	-0.096	-0.120
-317.012	-68.304	0.166	0.065
-315.997	-200.000	0.006	0.157
-314.983	188.786	0.055	-0.084
-313.968	-32.062	0.209	0.118
-312.953	-136.847	0.146	0.017
-311.939	-119.516	-0.153	0.027
-310.924	800.000	0.101	-0.299
-309.910	-90.334	0.054	-0.016
-308.895	281.160	-0.066	0.119
-307.880	245.633	-0.179	0.303
-306.866	565.037	-0.046	0.111
-305.851	-200.000	-0.011	0.073
-304.837	136.531	-0.105	-0.138
-303.822	-200.000	0.004	0.131
-302.807	-117.289	0.249	0.045
-301.793	800.000	-0.154	-0.504
-300.778	-31.902	-0.199	0.112
-299.764	800.000	0.019	0.058
-298.749	-168.407	0.075	0.003
-297.735	-18.394	0.345	0.217
-296.720	-200.000	-0.083	0.436
-295.705	-72.457	0.251	0.093
-294.691	-200.000	-0.072	-0.446
-293.676	-53.418	0.260	0.120
-292.662	131.586	0.352	0.455
-291.647	800.000	-0.051	0.156
-290.632	104.422	-0.038	0.045
-289.618	21.836	-0.326	-0.267
-288.603	-12.747	0.230	0.151
-287.589	-2.218	0.279	0.197
-286.574	126.768	0.102	0.130
-285.559	-163.334	0.561	-0.027
-284.545	210.703	-0.089	0.141
-283.530	-200.000	0.014	0.156
-282.516	-97.284	0.240	0.063
-281.501	147.930	-0.057	-0.077
-280.486	-200.000	0.007	-0.083
-279.472	-200.000	0.003	0.141
-278.457	-159.137	0.093	-0.005
-277.443	-200.000	0.001	-0.061
-276.428	-62.562	-0.162	-0.067
-275.413	-86.539	0.304	-0.094
-274.399	-23.480	-0.266	-0.161
-273.384	159.701	0.067	0.093
-272.370	32.534	-0.194	-0.169
-271.355	-138.957	-0.503	-0.055
-270.340	31.248	-0.331	0.286
-269.326	301.899	0.116	0.216
-268.311	141.904	-0.121	0.161
-267.297	62.232	-0.091	0.091
-266.282	-79.572	0.070	-0.024
-265.267	52.798	0.134	0.128
-264.253	-200.000	-0.072	0.418
-263.238	21.857	0.229	0.188
-262.224	416.624	-0.054	-0.116
-261.209	113.277	0.010	0.012
-260.195	800.000	0.079	0.266
-259.180	254.592	0.047	-0.081
-258.165	79.795	-0.201	-0.217
-257.151	800.000	0.098	0.288
-256.136	-163.512	0.176	-0.008
-255.122	130.759	-0.249	-0.321
-254.107	57.537	-0.059	-0.058
-253.092	-24.564	-0.036	0.022
-252.078	-200.000	0.047	-0.360
-251.063	-200.000	-0.017	-0.262
-250.049	592.239	0.111	-0.276
-249.034	441.270	0.167	-0.366
-248.019	-154.095	-0.243	0.017
-247.005	-2.117	-0.040	-0.028
-245.990	-2.851	-0.303	0.213
-244.976	-200.000	0.178	-0.001
-243.961	-183.674	0.325	0.006
-242.946	224.845	-0.093	0.151
-241.932	-200.000	0.012	-0.303
-240.917	217.017	0.049	-0.078
-239.903	-82.686	0.069	-0.022
-238.888	-70.294	0.104	-0.040
-237.873	-38.989	0.315	-0.166
-236.859	47.656	0.256	-0.240
-235.844	800.000	0.039	-0.160
-234.830	58.552	0.184	0.181
-233.815	-123.734	-0.116	0.018
-232.800	-200.000	0.005	0.065
-231.786	-52.643	0.238	-0.110
-230.771	800.000	-0.102	0.377
-229.757	305.291	0.069	0.129
-228.742	26.643	-0.327	0.275
-227.727	224.231	0.076	-0.123
-226.713	90.506	-0.168	-0.188
-225.698	-55.875	0.210	-0.094
-224.684	-138.591	-0.205	-0.022
-223.669	-96.090	0.300	-0.080
-222.655	-200.000	0.007	-0.201
-221.640	-114.774	0.118	0.023
-220.625	-69.091	0.037	0.014
-219.611	-47.505	-0.204	-0.100
-218.596	436.289	-0.108	0.237
-217.582	-59.868	-0.055	-0.024
-216.567	169.090	-0.164	-0.235
-215.552	-168.550	-0.098	-0.004
-214.538	10.062	0.239	-0.182
-213.523	-91.455	0.153	0.044
-212.509	-180.365	-0.095	0.002
-211.494	-200.000	-0.046	0.245
-210.479	-200.000	-0.051	0.480
-209.465	37.672	-0.181	0.161
-208.450	-35.101	-0.309	-0.169
-207.436	-22.349	0.140	-0.085
-206.421	-128.820	-0.134	-0.019
-205.406	800.000	-0.105	0.313
-204.392	-200.000	0.004	-0.095
-203.377	-79.081	0.117	0.040
-202.363	310.083	-0.120	-0.225
-201.348	-52.895	0.217	-0.100
-200.333	235.942	0.070	0.116
-199.319	2.139	-0.258	-0.187
-198.304	224.493	0.146	-0.237
-197.290	228.454	-0.185	0.302
-196.275	109.187	0.185	-0.222
-195.260	-200.000	0.055	0.260
-194.246	-21.740	-0.252	0.154
-193.231	-60.755	0.112	-0.048
-192.217	47.238	-0.201	0.188
-191.202	-200.000	0.008	0.234
-190.187	155.694	0.093	0.129
-189.173	34.171	0.144	-0.126
-188.158	-64.849	0.256	-0.104
-187.144	142.794	-0.254	-0.338
-186.129	89.170	0.119	0.132
-185.114	800.000	0.058	-0.195
-184.100	147.297	-0.145	-0.195
-183.085	48.742	-0.138	-0.129
-182.071	-200.000	-0.043	-0.329
-181.056	-121.049	0.236	0.040
-180.042	16.474	0.195	0.154
-179.027	227.705	0.108	0.177
-178.012	-154.194	0.280	-0.019
-176.998	27.987	-0.061	0.052
-175.983	235.796	-0.014	-0.023
-174.969	-200.000	0.040	0.318
-173.954	28.568	-0.357	0.302
-172.939	-72.995	0.294	-0.108
-171.925	773.973	0.083	-0.228
-170.910	-17.701	-0.111	-0.070
-169.896	-54.980	0.165	-0.074
-168.881	231.089	0.110	-0.181
-167.866	-75.342	0.057	0.020
-166.852	-87.717	0.140	0.042
-165.837	-138.461	0.220	-0.024
-164.823	78.251	-0.082	-0.087
-163.808	-17.507	0.352	-0.222
-162.793	-90.791	0.327	0.094
-161.779	51.856	-0.119	-0.113
-160.764	-200.000	-0.020	0.171
-159.750	269.529	0.043	0.075
-158.735	-185.095	0.376	0.006
-157.720	-200.000	0.026	-0.374
-156.706	800.000	-0.085	0.283
-155.691	-191.324	-0.224	0.002
-154.677	-124.972	-0.151	-0.023
-153.662	450.847	0.148	0.328
-152.647	482.336	0.093	0.211
-151.633	217.897	-0.172	-0.275
-150.618	-200.000	-0.017	0.090
-149.604	-161.360	-0.294	-0.015
-148.589	-91.525	-0.060	0.017
-147.574	581.469	0.115	-0.281
-146.560	-76.381	0.399	-0.140
-145.545	-86.231	0.362	-0.111
-144.531	89.157	0.245	0.273
-143.516	-200.000	-0.031	0.142
-142.502	27.738	-0.111	-0.094
-141.487	-62.545	-0.278	0.115
-140.472	800.000	0.029	0.116
-139.458	-11.878	-0.199	0.130
-138.443	-20.425	0.147	0.090
-137.429	-74.193	0.220	-0.080
-136.414	-31.413	-0.153	0.086
-135.399	35.292	0.096	0.084
-134.385	-5.983	-0.012	-0.009
-133.370	-200.000	-0.004	0.046
-132.356	41.639	0.065	-0.059
-131.341	-88.107	0.282	0.085
-130.326	204.063	-0.176	0.273
-129.312	104.796	-0.358	0.422
-128.297	-66.801	0.250	0.099
-127.283	243.652	0.040	-0.066
-126.268	800.000	-0.062	0.175
-125.253	115.422	-0.070	-0.086
-124.239	475.845	0.137	-0.308
-123.224	560.378	-0.119	0.286
-122.210	-4.307	-0.251	0.173
-121.195	33.343	-0.243	0.210
