DTS Sentinel unit serial number:	SN413079Multiplexer serial number:	ORYXHardware model number:	OX4-SRSoftware version number:	ORYX F/W v4.00 Oryx Data Collector v3.7.2.0data status	okinstallation	princeton_trtdifferential loss correction	single-endedforward channel	channel 1reverse channel	N/Adate	2019/09/11time	06:48:11forward acquisition time	60.00reverse acquisition time	0.00gamma	496.2192k internal	0.2330k external	0.2330temperature offset calibration	0.9916default loss term (dB/km)	0.3790temperature slope calibration	1.0000multiplexer offset coefficient	1.0000multiplexer slope coefficient	1.0000fibre end	0.00T internal ref (°C)	29.87T ext. ref 1 (°C)	-0.18T ext. ref 2 (°C)	25.13length (m)	temperature (°C)	Stokes	anti-Stokes-747.200	112.386	-0.187	0.228
-746.185	800.000	-0.043	0.126
-745.171	-153.525	0.211	0.015
-744.156	-125.186	0.114	0.018
-743.142	800.000	-0.025	0.082
-742.127	800.000	-0.075	0.284
-741.112	-161.530	0.107	-0.006
-740.098	363.808	-0.089	0.179
-739.083	157.553	0.106	0.148
-738.069	-84.829	-0.375	0.118
-737.054	161.900	0.093	0.132
-736.039	-162.231	0.081	-0.004
-735.025	-85.561	-0.154	0.048
-734.010	19.945	-0.243	-0.197
-732.996	-13.582	-0.536	-0.349
-731.981	441.474	-0.038	-0.084
-730.966	548.924	0.107	0.258
-729.952	-200.000	-0.018	-0.233
-728.937	-61.982	-0.120	-0.051
-727.923	-28.515	0.068	0.039
-726.908	-200.000	0.013	0.257
-725.894	73.740	-0.107	-0.113
-724.879	-185.369	-0.363	0.006
-723.864	-70.949	-0.261	0.099
-722.850	7.209	0.121	0.091
-721.835	-200.000	-0.026	-0.144
-720.821	-102.664	-0.312	-0.075
-719.806	-73.356	0.234	0.086
-718.791	456.619	0.041	0.092
-717.777	771.789	0.092	0.252
-716.762	306.281	-0.100	0.187
-715.748	-112.256	-0.101	0.020
-714.733	-118.635	-0.472	0.084
-713.718	800.000	0.064	-0.192
-712.704	-97.794	-0.401	-0.104
-711.689	-76.628	-0.135	-0.048
-710.675	-24.630	-0.171	-0.102
-709.660	-0.917	-0.102	0.073
-708.645	-170.936	0.153	-0.005
-707.631	-67.800	0.081	-0.032
-706.616	-10.758	-0.314	0.209
-705.602	-37.735	-0.196	0.105
-704.587	-97.283	-0.208	-0.054
-703.572	-14.327	0.237	0.153
-702.558	-59.265	-0.082	-0.036
-701.543	800.000	-0.091	-0.268
-700.529	-76.225	-0.286	-0.101
-699.514	512.655	0.088	-0.207
-698.499	-107.600	0.259	0.057
-697.485	-200.000	0.060	-0.292
-696.470	50.148	-0.033	0.031
-695.456	-200.000	0.007	-0.130
-694.441	224.544	0.057	0.093
-693.426	800.000	-0.042	-0.157
-692.412	-12.191	-0.124	0.082
-691.397	458.008	-0.091	-0.203
-690.383	-200.000	-0.012	-0.266
-689.368	507.921	-0.131	-0.305
-688.354	-200.000	-0.024	0.115
-687.339	79.221	-0.202	-0.218
-686.324	289.608	0.094	-0.171
-685.310	115.572	-0.017	0.021
-684.295	137.367	0.161	-0.211
-683.281	-3.815	-0.134	-0.093
-682.266	-33.801	-0.114	0.063
-681.251	122.410	0.161	-0.202
-680.237	-43.229	-0.233	-0.118
-679.222	-200.000	0.051	0.267
-678.208	360.179	0.229	0.461
-677.193	-125.456	0.085	0.013
-676.178	800.000	0.127	0.389
-675.164	-40.901	-0.441	-0.229
-674.149	-49.416	-0.308	0.147
-673.135	800.000	0.059	0.208
-672.120	800.000	-0.052	0.215
-671.105	522.098	0.089	-0.209
-670.091	-112.491	-0.216	-0.043
-669.076	35.425	-0.296	-0.260
-668.062	-200.000	0.014	-0.267
-667.047	-144.185	0.207	0.019
-666.032	333.970	0.015	-0.029
-665.018	281.380	-0.046	-0.083
-664.003	-23.613	-0.117	-0.070
-662.989	192.053	0.150	0.227
-661.974	-145.639	0.200	0.018
-660.959	-17.703	-0.342	-0.216
-659.945	20.746	0.177	0.144
-658.930	19.607	0.196	-0.158
-657.916	523.658	-0.129	-0.304
-656.901	-106.877	0.335	-0.074
-655.886	281.490	-0.253	-0.454
-654.872	42.235	-0.258	-0.236
-653.857	352.992	0.096	0.190
-652.843	-200.000	-0.029	0.193
-651.828	-61.191	-0.352	-0.149
-650.814	-60.021	-0.261	-0.112
-649.799	-200.000	-0.006	0.209
-648.784	86.888	-0.158	0.175
-647.770	-134.386	-0.477	-0.059
-646.755	203.648	-0.124	-0.193
-645.741	181.734	-0.049	-0.072
-644.726	-128.022	0.082	-0.012
-643.711	717.848	-0.032	0.085
-642.697	-200.000	-0.080	-0.407
-641.682	800.000	-0.011	-0.045
-640.668	-144.782	0.219	-0.020
-639.653	359.214	0.071	-0.143
-638.638	-9.202	-0.182	-0.122
-637.624	133.800	-0.095	0.123
-636.609	-85.890	0.262	0.081
-635.595	-200.000	-0.005	-0.376
-634.580	103.542	-0.194	-0.228
-633.565	649.061	-0.038	-0.098
-632.551	-200.000	-0.030	-0.182
-631.536	158.053	-0.073	-0.101
-630.522	-69.426	-0.280	-0.108
-629.507	-31.360	-0.099	0.056
-628.492	356.191	-0.115	-0.230
-627.478	-66.791	0.124	0.049
-626.463	-83.544	0.108	-0.035
-625.449	-114.218	0.248	0.048
-624.434	412.785	-0.049	0.105
-623.419	-161.832	-0.059	-0.003
-622.405	-110.389	-0.227	0.047
-621.390	-98.808	0.143	0.036
-620.376	141.741	-0.249	-0.331
-619.361	94.840	0.144	0.164
-618.346	-32.675	-0.134	0.075
-617.332	-153.737	-0.100	-0.007
-616.317	99.263	0.138	-0.159
-615.303	-69.329	0.101	0.039
-614.288	-200.000	0.026	-0.263
-613.273	-4.795	0.186	-0.129
-612.259	-96.418	0.084	-0.022
-611.244	-95.298	0.215	-0.058
-610.230	800.000	0.060	0.183
-609.215	-200.000	0.031	-0.211
-608.201	72.532	0.119	-0.124
-607.186	-107.546	0.354	0.078
-606.171	-143.211	-0.208	0.020
-605.157	47.115	-0.216	-0.201
-604.142	146.088	0.153	0.205
-603.128	-125.705	-0.428	-0.065
-602.113	-120.470	0.227	-0.039
-601.098	-113.470	-0.145	-0.028
-600.084	-113.303	-0.353	0.069
-599.069	-200.000	0.002	0.079
-598.055	-50.712	-0.179	0.084
-597.040	10.141	0.067	0.051
-596.025	73.087	0.213	0.223
-595.011	26.723	0.145	0.121
-593.996	79.805	0.013	0.014
-592.982	800.000	0.064	0.220
-591.967	-200.000	0.011	-0.085
-590.952	800.000	-0.005	-0.015
-589.938	-42.953	0.064	-0.033
-588.923	800.000	0.047	0.137
-587.909	566.198	-0.052	0.126
-586.894	30.885	0.209	-0.179
-585.879	-71.603	0.087	-0.033
-584.865	-84.728	-0.072	0.023
-583.850	182.309	0.138	0.203
-582.836	-50.520	0.375	0.177
-581.821	-76.659	-0.198	-0.070
-580.806	15.105	-0.172	0.135
-579.792	-96.034	0.045	-0.012
-578.777	-162.374	-0.029	0.001
-577.763	800.000	0.135	0.421
-576.748	25.297	0.214	-0.178
-575.733	-50.551	0.263	-0.124
-574.719	-107.312	-0.056	-0.012
-573.704	147.783	0.112	-0.150
-572.690	-200.000	-0.031	0.141
-571.675	800.000	0.065	0.248
-570.661	119.978	0.190	0.236
-569.646	-134.966	-0.123	-0.015
-568.631	-200.000	-0.020	-0.239
-567.617	-102.045	-0.161	0.039
-566.602	-23.719	-0.033	-0.020
-565.588	-81.466	-0.045	-0.015
-564.573	-76.049	-0.198	0.070
-563.558	-37.126	-0.091	0.049
-562.544	-200.000	0.051	0.243
-561.529	13.319	0.150	0.116
-560.515	-88.338	0.287	-0.086
-559.500	115.588	-0.144	-0.176
-558.485	-150.778	0.157	-0.012
-557.471	133.136	0.154	-0.199
-556.456	-122.834	-0.389	-0.063
-555.442	-26.803	0.126	0.074
-554.427	45.644	-0.062	-0.057
-553.412	95.931	0.269	-0.307
-552.398	-54.601	0.206	-0.093
-551.383	-200.000	-0.070	-0.471
-550.369	800.000	-0.059	-0.237
-549.354	800.000	-0.138	0.427
-548.339	800.000	-0.116	0.392
-547.325	-47.022	-0.203	-0.099
-546.310	53.736	0.133	0.127
-545.296	6.975	-0.088	-0.065
-544.281	800.000	-0.038	0.112
-543.266	-118.797	0.115	-0.020
-542.252	85.991	-0.066	-0.073
-541.237	-125.269	-0.026	0.004
-540.223	800.000	-0.102	0.283
-539.208	-13.549	-0.380	0.246
-538.193	225.333	-0.157	-0.254
-537.179	254.790	-0.107	0.183
-536.164	-171.362	-0.166	-0.006
-535.150	278.166	-0.109	0.195
-534.135	205.065	0.057	0.088
-533.121	-65.580	0.259	0.104
-532.106	-53.377	0.064	0.029
-531.091	606.042	-0.129	0.321
-530.077	-80.936	-0.154	-0.051
-529.062	516.186	0.046	-0.108
-528.048	-95.792	0.340	0.091
-527.033	32.344	-0.071	-0.061
-526.018	800.000	-0.099	-0.278
-525.004	168.780	-0.036	-0.052
-523.989	-148.374	-0.231	0.019
-522.975	800.000	-0.036	-0.139
-521.960	22.151	-0.278	-0.227
-520.945	-41.348	0.193	-0.099
-519.931	-103.466	-0.034	-0.008
-518.916	89.588	-0.185	0.206
-517.902	-200.000	-0.034	0.208
-516.887	120.241	0.083	0.102
-515.872	-137.712	-0.155	-0.017
-514.858	-200.000	0.008	0.379
-513.843	287.575	-0.169	0.305
-512.829	298.092	0.239	0.439
-511.814	22.880	-0.205	0.168
-510.799	-200.000	0.015	-0.123
-509.785	417.206	-0.089	-0.190
-508.770	-87.022	0.276	-0.084
-507.756	136.643	-0.252	-0.328
-506.741	800.000	0.075	-0.214
-505.726	97.399	-0.088	0.100
-504.712	-139.250	0.256	-0.028
-503.697	85.369	0.058	-0.064
-502.683	800.000	0.083	0.237
-501.668	6.460	0.070	0.052
-500.653	-103.558	0.235	-0.055
-499.639	-165.803	-0.233	-0.010
-498.624	-78.053	-0.201	-0.069
-497.610	603.525	0.099	0.247
-496.595	-29.520	0.215	0.122
-495.581	-96.087	-0.212	0.056
-494.566	72.453	0.254	-0.264
-493.551	-168.196	0.212	-0.008
-492.537	-26.947	0.344	-0.200
-491.522	-200.000	0.035	0.158
-490.508	91.951	0.244	-0.274
-489.493	-94.044	-0.202	-0.055
-488.478	-155.756	0.204	-0.013
-487.464	-200.000	-0.003	-0.438
-486.449	-200.000	-0.004	-0.237
-485.435	-94.224	-0.029	0.008
-484.420	248.321	-0.114	0.191
-483.405	648.113	0.154	0.393
-482.391	-122.421	0.208	0.034
-481.376	-123.928	0.143	0.022
-480.362	-59.381	0.250	-0.107
-479.347	-93.689	-0.403	0.111
-478.332	100.712	0.119	-0.138
-477.318	-96.502	-0.207	-0.054
-476.303	-200.000	-0.022	-0.137
-475.289	-200.000	0.009	-0.102
-474.274	58.552	-0.147	-0.144
-473.259	57.515	0.222	-0.216
-472.245	22.392	-0.251	-0.204
-471.230	-88.325	-0.282	0.084
-470.216	-115.684	-0.212	-0.040
-469.201	-108.462	-0.398	-0.085
-468.186	-200.000	0.004	-0.111
-467.172	147.993	0.102	-0.137
-466.157	133.708	-0.033	-0.042
-465.143	-101.014	0.190	0.046
-464.128	84.072	0.033	-0.036
-463.113	-92.537	0.448	-0.125
-462.099	5.756	0.254	0.187
-461.084	752.379	0.070	0.188
-460.070	-200.000	-0.021	-0.468
-459.055	-200.000	0.031	-0.186
-458.040	-190.791	-0.372	-0.004
-457.026	-67.461	0.510	-0.199
-456.011	-80.845	-0.194	0.064
-454.997	357.963	0.131	0.260
-453.982	13.528	-0.210	0.162
-452.968	0.442	-0.172	0.123
-451.953	-95.794	-0.297	0.079
-450.938	-200.000	-0.045	-0.277
-449.924	-76.552	0.116	0.040
-448.909	167.361	0.043	0.060
-447.895	-6.818	0.206	0.139
-446.880	22.479	0.082	0.067
-445.865	7.439	-0.279	-0.207
-444.851	-69.553	-0.091	-0.035
-443.836	-99.081	-0.131	0.033
-442.822	-200.000	0.082	-0.429
-441.807	-200.000	-0.010	0.291
-440.792	507.304	0.220	0.508
-439.778	-166.053	-0.500	0.021
-438.763	72.819	-0.010	0.011
-437.749	-200.000	0.009	0.075
-436.734	-55.638	0.086	-0.038
-435.719	-51.840	0.022	-0.010
-434.705	-24.832	-0.181	0.107
-433.690	-151.649	0.121	0.009
-432.676	49.792	0.170	0.159
-431.661	-200.000	-0.013	0.163
-430.646	479.020	-0.113	-0.255
-429.632	185.185	-0.138	-0.204
-428.617	-90.475	-0.249	0.072
-427.603	800.000	0.149	-0.452
-426.588	-124.593	-0.207	0.032
-425.573	278.437	-0.057	-0.100
-424.559	-11.035	0.025	-0.016
-423.544	63.812	-0.092	0.092
-422.530	306.601	-0.131	-0.242
-421.515	-135.476	-0.602	-0.071
-420.500	800.000	0.060	0.168
-419.486	29.329	0.160	-0.135
-418.471	800.000	-0.047	-0.164
-417.457	-113.317	0.382	0.075
-416.442	-79.688	0.366	-0.123
-415.428	329.373	0.086	-0.165
-414.413	-200.000	-0.010	-0.162
-413.398	800.000	0.076	-0.260
-412.384	-42.346	0.086	0.044
-411.369	-200.000	0.063	0.380
-410.355	177.461	0.073	0.106
-409.340	-74.195	-0.168	-0.061
-408.325	-120.705	-0.122	-0.021
-407.311	161.271	-0.089	0.124
-406.296	-200.000	-0.003	-0.029
-405.282	-2.410	-0.167	0.116
-404.267	-126.169	0.314	0.047
-403.252	-51.212	-0.114	-0.053
-402.238	800.000	0.089	-0.303
-401.223	800.000	-0.103	-0.348
-400.209	-73.819	0.036	0.013
-399.194	-74.018	0.190	0.068
-398.179	636.122	0.070	-0.175
-397.165	800.000	-0.107	-0.426
-396.150	-57.267	-0.152	0.066
-395.136	492.744	-0.102	0.231
-394.121	675.790	-0.052	0.135
-393.106	782.829	0.007	-0.018
-392.092	-69.923	-0.380	0.144
-391.077	-200.000	0.031	-0.170
-390.063	40.664	0.087	0.078
-389.048	-70.067	0.098	-0.037
-388.033	-78.394	0.057	0.020
-387.019	-53.606	-0.402	-0.182
-386.004	-113.393	-0.088	0.017
-384.990	-28.260	0.129	0.074
-383.975	-123.601	0.189	0.030
-382.960	-44.958	-0.164	-0.081
-381.946	-200.000	0.027	0.280
-380.931	-3.163	-0.116	-0.080
-379.917	291.460	-0.044	-0.079
-378.902	-36.002	0.276	0.148
-377.888	-76.700	-0.248	-0.086
-376.873	101.439	-0.113	-0.131
-375.858	-200.000	0.002	0.192
-374.844	578.547	0.034	0.082
-373.829	305.116	0.139	0.256
-372.815	-200.000	-0.000	-0.075
-371.800	186.479	0.044	0.065
-370.785	159.955	0.098	-0.136
-369.771	-87.149	-0.469	0.141
-368.756	-200.000	0.001	0.038
-367.742	318.725	-0.120	-0.225
-366.727	-25.205	0.317	-0.186
-365.712	-200.000	0.011	0.309
-364.698	-147.145	0.190	-0.016
-363.683	-75.370	-0.535	0.189
-362.669	-89.360	0.206	0.060
-361.654	-16.442	-0.004	-0.003
-360.639	-32.475	0.158	-0.088
-359.625	23.233	-0.185	0.151
-358.610	-66.471	-0.088	-0.035
-357.596	-200.000	-0.024	-0.181
-356.581	14.961	-0.040	0.031
-355.566	24.795	-0.057	0.047
-354.552	8.341	0.068	0.051
-353.537	643.899	0.126	0.318
-352.523	-30.437	0.269	-0.151
-351.508	-50.740	0.017	-0.008
-350.493	508.543	0.170	0.391
-349.479	94.288	-0.177	0.199
-348.464	-61.622	-0.298	-0.124
-347.450	-151.627	-0.272	-0.020
-346.435	-70.022	0.103	0.039
-345.420	-50.428	0.127	0.059
-344.406	-47.264	0.155	0.075
-343.391	-119.686	0.161	-0.028
-342.377	37.424	0.154	-0.135
-341.362	-6.220	0.222	0.150
-340.348	-92.810	-0.227	-0.063
-339.333	-26.189	-0.142	-0.083
-338.318	-200.000	0.008	0.167
-337.304	265.740	-0.064	0.111
-336.289	-89.624	-0.096	-0.028
-335.275	-13.283	0.266	0.171
-334.260	-131.954	0.282	-0.036
-333.245	176.300	0.138	-0.198
-332.231	-20.074	-0.122	0.075
-331.216	1.290	-0.111	0.079
-330.202	-126.030	-0.467	0.069
-329.187	344.114	0.037	0.072
-328.172	-200.000	-0.010	-0.259
-327.158	-105.747	0.078	-0.018
-326.143	-25.466	-0.133	-0.078
-325.129	300.014	-0.023	0.043
-324.114	-126.057	0.202	-0.030
-323.099	55.056	-0.123	-0.118
-322.085	-123.638	-0.133	0.021
-321.070	412.162	0.036	-0.076
-320.056	288.930	-0.017	0.031
-319.041	-200.000	0.048	-0.220
-318.026	-75.661	-0.110	0.039
-317.012	-97.323	0.369	0.095
-315.997	-153.423	-0.159	0.011
-314.983	160.153	0.095	-0.131
-313.968	800.000	0.028	0.094
-312.953	159.952	-0.085	-0.118
-311.939	-138.052	0.307	-0.034
-310.924	337.626	0.060	0.115
-309.910	-47.168	-0.108	-0.052
-308.895	-200.000	0.004	-0.171
-307.880	351.385	-0.087	0.170
-306.866	166.970	-0.065	-0.091
-305.851	-61.640	0.266	-0.110
-304.837	-154.087	-0.293	-0.020
-303.822	-200.000	-0.029	0.140
-302.807	-200.000	0.007	0.322
-301.793	800.000	-0.102	0.294
-300.778	-147.238	0.338	0.028
-299.764	-36.456	0.152	0.081
-298.749	156.348	0.088	0.120
-297.735	466.548	0.091	-0.202
-296.720	800.000	0.030	0.081
-295.705	23.543	0.176	0.143
-294.691	-86.209	0.191	0.058
-293.676	631.016	-0.105	0.262
-292.662	-40.067	0.145	0.075
-291.647	-107.088	0.105	0.023
-290.632	107.011	0.032	-0.037
-289.618	148.015	0.289	0.386
-288.603	-105.018	0.225	0.051
-287.589	279.281	-0.183	0.323
-286.574	-42.492	0.350	-0.176
-285.559	473.562	-0.121	-0.270
-284.545	-37.635	0.415	-0.218
-283.530	1.996	0.027	-0.019
-282.516	533.644	0.037	-0.088
-281.501	800.000	0.023	0.089
-280.486	27.891	-0.071	-0.059
-279.472	557.321	-0.102	0.244
-278.457	-8.880	-0.259	-0.172
-277.443	-77.786	0.356	0.121
-276.428	-83.418	-0.237	0.075
-275.413	18.935	-0.121	0.095
-274.399	3.303	0.084	0.061
-273.384	182.337	0.104	-0.151
-272.370	-200.000	0.039	-0.436
-271.355	-35.448	0.110	-0.059
-270.340	440.679	-0.022	0.047
-269.326	708.199	0.070	0.183
-268.311	-14.106	0.083	0.053
-267.297	-200.000	-0.052	0.291
-266.282	-200.000	0.027	-0.179
-265.267	83.559	-0.143	0.154
-264.253	-4.218	0.185	0.127
-263.238	-16.646	-0.463	0.289
-262.224	-63.382	0.106	-0.043
-261.209	-93.073	0.220	-0.061
-260.195	-127.729	-0.123	0.017
-259.180	20.667	0.369	0.295
-258.165	-147.453	0.297	0.025
-257.151	31.072	0.246	-0.209
-256.136	-83.321	-0.189	-0.060
-255.122	50.704	0.196	0.183
-254.107	-200.000	0.013	0.131
-253.092	-59.784	0.240	-0.102
-252.078	-16.959	-0.312	0.195
-251.063	-106.904	-0.252	0.055
-250.049	-200.000	-0.094	0.518
-249.034	800.000	-0.014	-0.045
-248.019	89.677	-0.193	0.213
-247.005	-10.801	-0.245	-0.160
-245.990	13.299	0.153	-0.117
-244.976	246.060	-0.013	0.021
-243.961	-190.766	-0.337	0.004
-242.946	800.000	-0.115	0.330
-241.932	150.147	-0.056	0.075
-240.917	-116.905	-0.180	0.032
-239.903	164.532	-0.075	-0.105
-238.888	54.954	-0.126	-0.120
-237.873	-18.861	-0.299	-0.184
-236.859	-200.000	-0.011	-0.257
-235.844	107.068	-0.099	-0.116
-234.830	-58.903	0.368	0.157
-233.815	-85.216	0.218	-0.067
-232.800	258.213	-0.045	0.077
-231.786	-87.311	0.088	-0.026
-230.771	800.000	-0.048	0.158
-229.757	-134.125	0.428	-0.052
-228.742	-200.000	0.013	-0.228
-227.727	800.000	-0.037	-0.125
-226.713	-99.268	0.156	0.039
-225.698	800.000	0.056	0.182
-224.684	-122.181	-0.138	0.022
-223.669	-152.913	0.103	-0.007
-222.655	-78.085	-0.250	0.085
-221.640	270.285	-0.049	-0.084
-220.625	137.376	0.039	0.051
-219.611	800.000	-0.004	0.018
-218.596	-52.737	0.293	0.133
-217.582	-200.000	-0.010	0.108
-216.567	-200.000	-0.010	-0.168
-215.552	-120.609	0.216	0.036
-214.538	111.963	0.101	0.121
-213.523	800.000	-0.048	-0.140
-212.509	-200.000	-0.007	0.286
-211.494	-85.442	-0.073	-0.022
-210.479	48.867	0.047	-0.043
-209.465	-162.982	-0.330	-0.016
-208.450	100.644	0.221	-0.253
-207.436	-52.318	-0.160	-0.073
-206.421	-200.000	-0.043	0.353
-205.406	-36.583	0.207	0.110
-204.392	800.000	-0.038	0.112
-203.377	-62.865	0.141	0.057
-202.363	364.174	0.142	-0.282
-201.348	-42.170	0.365	-0.184
-200.333	84.101	-0.022	-0.024
-199.319	-74.975	-0.242	-0.085
-198.304	47.073	0.246	-0.226
-197.290	27.339	0.192	0.159
-196.275	14.004	0.119	0.091
-195.260	-200.000	0.005	0.157
-194.246	-111.685	-0.159	-0.032
-193.231	-42.868	-0.198	0.099
-192.217	42.822	0.098	-0.088
-191.202	500.086	0.053	0.120
-190.187	800.000	0.150	0.463
-189.173	-121.595	-0.323	0.053
-188.158	-144.449	-0.285	-0.026
-187.144	-200.000	0.047	-0.235
-186.129	-200.000	-0.015	0.351
-185.114	148.463	0.088	-0.117
-184.100	-62.604	-0.315	0.129
-183.085	159.798	0.334	-0.459
-182.071	800.000	-0.048	-0.206
-181.056	-200.000	0.023	-0.325
-180.042	27.329	-0.357	-0.296
-179.027	-200.000	0.175	-0.000
-178.012	508.066	0.051	0.117
-176.998	258.266	-0.039	0.066
-175.983	-68.564	-0.020	-0.007
-174.969	27.344	0.135	0.111
-173.954	71.448	-0.309	-0.316
-172.939	3.345	-0.178	-0.128
-171.925	-27.698	0.179	0.102
-170.910	19.507	0.121	0.096
-169.896	-36.393	0.101	0.053
-168.881	-104.396	-0.217	-0.050
-167.866	216.746	-0.066	-0.104
-166.852	-200.000	0.016	-0.152
-165.837	-109.746	-0.068	-0.014
-164.823	-113.442	-0.104	-0.020
-163.808	-58.874	-0.155	-0.066
-162.793	-30.183	0.014	-0.008
-161.779	-112.414	0.222	0.044
-160.764	6.609	-0.061	-0.045
-159.750	257.000	-0.140	-0.237
-158.735	-65.765	0.086	0.034
-157.720	447.300	-0.036	0.079
-156.706	190.184	-0.266	-0.394
-155.691	-40.419	-0.205	0.105
-154.677	-71.150	0.162	-0.060
-153.662	118.312	-0.132	-0.160
-152.647	-38.989	0.197	0.102
-151.633	156.379	0.095	0.129
-150.618	800.000	-0.031	0.117
-149.604	-200.000	0.010	0.064
-148.589	800.000	-0.037	0.106
-147.574	-200.000	0.005	0.165
-146.560	-200.000	-0.030	0.219
-145.545	-108.545	0.135	-0.029
-144.531	-100.533	-0.104	-0.025
-143.516	730.607	-0.166	0.435
-142.502	-85.523	0.150	0.046
-141.487	202.545	-0.121	0.184
-140.472	29.202	0.059	-0.049
-139.458	5.709	0.094	-0.068
-138.443	257.779	-0.072	0.122
-137.429	250.141	0.094	-0.156
-136.414	16.009	-0.217	-0.168
-135.399	-200.000	0.002	0.244
-134.385	514.801	0.109	0.251
-133.370	-200.000	0.011	-0.281
-132.356	-200.000	0.019	-0.103
-131.341	-28.388	0.160	-0.091
-130.326	-54.818	0.273	0.121
-129.312	729.999	0.032	-0.084
-128.297	-24.145	0.422	0.248
-127.283	-200.000	-0.025	0.154
-126.268	-97.677	0.088	-0.022
-125.253	-200.000	0.007	-0.063
-124.239	234.133	-0.150	0.243
-123.224	696.414	-0.092	0.238
-122.210	201.314	0.123	-0.185
-121.195	117.681	-0.140	0.169
