DTS Sentinel unit serial number:	SN413079Multiplexer serial number:	ORYXHardware model number:	OX4-SRSoftware version number:	ORYX F/W v4.00 Oryx Data Collector v3.7.2.0data status	okinstallation	princeton_trtdifferential loss correction	single-endedforward channel	channel 1reverse channel	N/Adate	2019/09/14time	18:50:35forward acquisition time	60.00reverse acquisition time	0.00gamma	496.2192k internal	0.2306k external	0.2306temperature offset calibration	1.0031default loss term (dB/km)	0.3790temperature slope calibration	1.0000multiplexer offset coefficient	1.0000multiplexer slope coefficient	1.0000fibre end	0.00T internal ref (°C)	35.94T ext. ref 1 (°C)	4.91T ext. ref 2 (°C)	29.70length (m)	temperature (°C)	Stokes	anti-Stokes-747.200	-145.379	0.358	-0.033
-746.185	-61.764	0.259	0.110
-745.171	-132.992	0.323	-0.042
-744.156	-146.687	-0.116	-0.010
-743.142	778.918	0.167	-0.463
-742.127	21.416	0.070	0.058
-741.112	74.163	-0.110	-0.117
-740.098	-15.780	-0.084	0.054
-739.083	-200.000	-0.041	0.376
-738.069	73.857	-0.337	0.359
-737.054	70.534	-0.121	-0.127
-736.039	44.429	-0.039	0.036
-735.025	-72.221	0.107	0.040
-734.010	-55.536	-0.243	0.111
-732.996	228.193	-0.149	-0.246
-731.981	-62.610	-0.212	0.090
-730.966	-100.126	-0.033	0.008
-729.952	-200.000	-0.016	-0.431
-728.937	-9.450	-0.185	-0.125
-727.923	59.612	-0.205	0.206
-726.908	140.768	0.254	0.341
-725.894	-200.000	0.022	-0.303
-724.879	-31.746	-0.287	0.164
-723.864	-91.992	0.215	-0.062
-722.850	60.300	0.050	-0.051
-721.835	-52.899	-0.256	0.120
-720.821	-85.784	-0.119	-0.037
-719.806	-200.000	0.028	-0.208
-718.791	191.481	0.042	0.065
-717.777	158.433	0.149	-0.210
-716.762	286.637	0.080	0.148
-715.748	-13.966	-0.228	0.149
-714.733	-200.000	0.008	-0.151
-713.718	-75.864	-0.436	0.157
-712.704	-51.709	-0.281	0.133
-711.689	73.188	0.112	0.119
-710.675	-183.882	0.293	0.005
-709.660	800.000	-0.095	0.276
-708.645	17.318	-0.198	-0.159
-707.631	98.494	0.142	-0.167
-706.616	-91.209	-0.102	0.030
-705.602	480.851	-0.052	0.119
-704.587	-109.742	0.213	0.045
-703.572	-61.304	0.080	-0.034
-702.558	84.254	-0.271	-0.301
-701.543	290.646	-0.078	0.144
-700.529	167.966	-0.068	-0.098
-699.514	-59.231	0.207	0.090
-698.499	-36.303	0.236	-0.129
-697.485	-8.997	0.275	0.187
-696.470	194.154	-0.135	0.208
-695.456	-70.394	-0.090	0.035
-694.441	66.091	0.053	0.054
-693.426	-40.724	-0.170	0.089
-692.412	186.916	-0.036	0.055
-691.397	398.233	0.104	0.221
-690.383	160.318	-0.087	0.123
-689.368	-200.000	0.024	-0.316
-688.354	-124.105	0.204	-0.033
-687.339	256.745	-0.243	0.423
-686.324	-125.120	0.071	0.011
-685.310	-21.846	-0.156	0.096
-684.295	118.439	-0.244	-0.306
-683.281	-9.540	0.127	-0.086
-682.266	175.717	-0.057	-0.084
-681.251	425.629	0.126	0.276
-680.237	-57.317	-0.157	0.070
-679.222	-136.512	-0.358	0.042
-678.208	800.000	-0.092	0.277
-677.193	-39.448	-0.224	-0.119
-676.178	24.559	0.216	0.181
-675.164	25.879	-0.169	-0.143
-674.149	167.131	0.013	-0.018
-673.135	114.977	0.071	-0.088
-672.120	5.533	0.096	-0.072
-671.105	-54.298	0.295	0.136
-670.091	364.991	-0.085	-0.174
-669.076	154.914	-0.090	0.125
-668.062	-139.043	-0.253	-0.028
-667.047	-28.232	-0.128	0.075
-666.032	-125.687	0.279	-0.043
-665.018	37.754	-0.200	-0.180
-664.003	-174.180	0.040	0.001
-662.989	-58.113	0.225	0.099
-661.974	-177.415	-0.382	-0.010
-660.959	33.595	0.201	0.177
-659.945	-7.808	0.232	0.159
-658.930	-200.000	0.065	0.000
-657.916	-121.317	0.431	-0.073
-656.901	-41.770	0.103	-0.054
-655.886	-2.710	0.191	-0.135
-654.872	-117.609	0.412	0.075
-653.857	42.784	0.177	0.164
-652.843	262.082	0.043	-0.075
-651.828	-200.000	0.001	0.125
-650.814	-23.799	0.267	0.162
-649.799	-18.953	0.040	-0.025
-648.784	21.086	0.021	-0.017
-647.770	-109.632	-0.095	-0.020
-646.755	-40.705	0.268	0.141
-645.741	-183.973	-0.228	-0.004
-644.726	-200.000	-0.011	-0.143
-643.711	6.818	0.423	0.319
-642.697	-95.741	0.293	-0.079
-641.682	239.237	0.204	-0.344
-640.668	-34.903	0.225	0.124
-639.653	275.896	-0.033	0.059
-638.638	-200.000	-0.045	0.281
-637.624	31.868	-0.136	-0.119
-636.609	-200.000	0.035	-0.419
-635.595	175.991	0.084	-0.123
-634.580	-102.286	-0.193	0.047
-633.565	-14.939	-0.126	-0.082
-632.551	800.000	0.038	0.113
-631.536	-54.675	0.220	-0.101
-630.522	55.530	-0.208	0.204
-629.507	-200.000	0.035	-0.382
-628.492	212.467	0.151	-0.242
-627.478	-200.000	-0.001	-0.014
-626.463	-48.572	0.115	0.056
-625.449	15.265	0.106	0.084
-624.434	-109.479	-0.290	0.062
-623.419	-200.000	0.054	-0.251
-622.405	-30.201	0.093	0.054
-621.390	-41.053	0.132	-0.069
-620.376	-78.696	0.298	0.103
-619.361	179.145	-0.126	-0.186
-618.346	81.097	0.198	0.216
-617.332	-3.546	-0.176	0.124
-616.317	-31.157	0.038	0.022
-615.303	271.376	-0.145	-0.259
-614.288	141.088	-0.084	-0.113
-613.273	800.000	0.095	0.269
-612.259	-49.412	0.196	-0.095
-611.244	66.786	0.181	0.187
-610.230	-177.274	0.131	-0.003
-609.215	-66.067	-0.305	0.123
-608.201	-200.000	-0.006	0.116
-607.186	-26.132	-0.136	0.081
-606.171	-159.818	-0.061	0.003
-605.157	157.752	0.122	0.171
-604.142	-200.000	-0.008	-0.105
-603.128	-44.986	-0.498	0.251
-602.113	314.822	0.139	0.265
-601.098	-200.000	0.001	0.090
-600.084	200.256	0.143	0.222
-599.069	-200.000	-0.072	-0.477
-598.055	59.789	0.298	0.297
-597.040	23.542	-0.198	0.165
-596.025	56.310	-0.148	0.146
-595.011	76.750	-0.237	0.255
-593.996	74.379	-0.238	0.253
-592.982	800.000	-0.043	-0.192
-591.967	49.020	-0.080	0.076
-590.952	-30.965	-0.491	0.280
-589.938	43.152	-0.191	-0.176
-588.923	196.792	0.156	-0.240
-587.909	50.280	-0.017	0.016
-586.894	307.622	-0.058	-0.109
-585.879	-52.605	0.127	-0.060
-584.865	800.000	-0.089	0.279
-583.850	-158.429	0.175	-0.010
-582.836	-177.927	0.331	0.008
-581.821	800.000	-0.083	0.267
-580.806	-66.573	-0.119	0.048
-579.792	800.000	-0.051	0.144
-578.777	-200.000	-0.019	-0.209
-577.763	37.700	-0.114	-0.103
-576.748	-132.441	0.196	0.026
-575.733	-85.076	0.096	-0.030
-574.719	-70.601	-0.352	-0.134
-573.704	9.977	0.124	-0.095
-572.690	-200.000	0.044	0.194
-571.675	37.180	-0.126	-0.112
-570.661	-200.000	0.025	-0.356
-569.646	-31.389	-0.217	0.124
-568.631	99.838	-0.194	0.227
-567.617	-55.543	-0.210	-0.095
-566.602	-136.517	-0.247	-0.029
-565.588	-73.323	-0.087	0.032
-564.573	-200.000	0.018	-0.228
-563.558	61.407	0.379	-0.381
-562.544	-182.102	0.328	-0.006
-561.529	4.666	0.233	-0.173
-560.515	-200.000	0.016	0.182
-559.500	-200.000	-0.042	-0.230
-558.485	226.581	0.062	0.102
-557.471	35.409	-0.201	0.178
-556.456	800.000	-0.053	-0.160
-555.442	644.028	0.035	0.091
-554.427	-110.582	0.313	0.065
-553.412	-200.000	0.027	-0.170
-552.398	-106.279	0.033	0.008
-551.383	-113.326	0.277	0.055
-550.369	139.203	0.207	-0.275
-549.354	-200.000	0.019	-0.114
-548.339	-200.000	-0.046	0.445
-547.325	-200.000	-0.003	0.193
-546.310	-54.547	0.506	-0.231
-545.296	126.997	-0.130	-0.167
-544.281	-200.000	-0.020	-0.100
-543.266	-4.885	0.334	-0.232
-542.252	800.000	0.038	-0.140
-541.237	-78.095	-0.113	-0.039
-540.223	637.434	-0.045	0.114
-539.208	-200.000	-0.031	-0.247
-538.193	-20.946	-0.249	-0.154
-537.179	-54.235	0.134	0.061
-536.164	115.743	0.040	0.050
-535.150	-23.940	-0.195	-0.118
-534.135	4.623	-0.210	0.155
-533.121	-200.000	-0.042	0.340
-532.106	-29.052	-0.240	0.139
-531.091	599.404	0.056	-0.140
-530.077	-87.114	0.422	-0.129
-529.062	-81.770	-0.247	0.082
-528.048	-200.000	-0.005	0.083
-527.033	75.137	-0.389	-0.414
-526.018	121.818	-0.032	-0.040
-525.004	-75.377	0.278	-0.100
-523.989	-32.196	0.185	0.104
-522.975	800.000	0.098	0.298
-521.960	145.850	0.163	-0.220
-520.945	73.752	0.099	0.104
-519.931	-116.916	-0.272	0.050
-518.916	178.290	0.110	-0.163
-517.902	16.534	-0.099	0.079
-516.887	37.523	0.111	0.099
-515.872	-69.075	-0.250	0.097
-514.858	630.613	0.142	-0.363
-513.843	-124.615	0.144	0.023
-512.829	51.213	-0.185	-0.177
-511.814	-174.511	-0.308	0.009
-510.799	-86.942	-0.328	0.101
-509.785	-37.612	-0.339	-0.182
-508.770	255.721	-0.060	-0.104
-507.756	800.000	-0.054	-0.231
-506.741	-15.812	0.124	-0.080
-505.726	-15.438	-0.245	-0.157
-504.712	-120.004	-0.061	-0.011
-503.697	279.862	-0.119	0.214
-502.683	192.588	0.070	-0.107
-501.668	135.410	-0.190	0.249
-500.653	-55.144	-0.229	0.104
-499.639	569.155	-0.041	-0.101
-498.624	-1.154	-0.236	-0.168
-497.610	800.000	-0.118	-0.422
-496.595	38.546	-0.095	-0.085
-495.581	187.859	-0.058	-0.088
-494.566	74.819	-0.161	0.171
-493.551	-50.217	-0.197	0.094
-492.537	-137.684	-0.304	0.034
-491.522	136.849	-0.089	0.118
-490.508	-90.114	0.420	-0.123
-489.493	53.005	0.222	-0.214
-488.478	800.000	0.028	0.084
-487.464	39.047	0.093	0.084
-486.449	189.651	-0.055	0.083
-485.435	-7.141	0.052	0.036
-484.420	463.079	0.098	0.221
-483.405	23.725	-0.237	0.197
-482.391	-5.973	-0.213	-0.147
-481.376	-46.262	0.301	0.149
-480.362	-87.682	0.151	0.046
-479.347	336.254	-0.038	-0.074
-478.332	-200.000	0.026	-0.126
-477.318	31.202	0.204	-0.176
-476.303	250.000	0.183	-0.312
-475.289	-70.069	-0.048	-0.018
-474.274	-81.859	0.055	0.018
-473.259	393.037	0.163	0.342
-472.245	2.676	-0.047	0.034
-471.230	-200.000	-0.002	-0.216
-470.216	182.087	-0.258	-0.382
-469.201	8.450	-0.241	0.183
-468.186	-200.000	-0.006	-0.085
-467.172	-107.432	0.190	-0.042
-466.157	-18.901	-0.217	0.136
-465.143	-80.181	-0.053	0.018
-464.128	120.635	-0.075	-0.094
-463.113	-23.706	0.126	0.076
-462.099	7.793	-0.021	-0.016
-461.084	77.620	0.143	0.153
-460.070	-19.100	0.101	-0.063
-459.055	451.217	-0.128	-0.284
-458.040	-104.470	-0.159	0.037
-457.026	-200.000	0.037	0.199
-456.011	186.314	-0.126	0.188
-454.997	-153.912	-0.365	-0.025
-453.982	-200.000	-0.003	-0.067
-452.968	645.026	-0.074	0.189
-451.953	62.478	-0.189	-0.190
-450.938	8.194	-0.124	-0.093
-449.924	-31.724	0.054	0.031
-448.909	-89.213	0.159	0.047
-447.895	12.104	-0.113	-0.087
-446.880	-65.122	-0.062	-0.025
-445.865	-46.131	0.094	0.046
-444.851	-185.112	-0.245	0.004
-443.836	315.721	0.060	0.115
-442.822	54.514	0.049	0.047
-441.807	-87.589	-0.242	0.073
-440.792	317.811	0.108	-0.206
-439.778	-33.296	-0.266	0.148
-438.763	5.052	0.319	-0.236
-437.749	800.000	-0.018	-0.073
-436.734	800.000	-0.089	-0.313
-435.719	171.697	-0.238	0.344
-434.705	-200.000	-0.045	0.224
-433.690	-108.036	0.142	0.031
-432.676	-18.119	-0.075	0.047
-431.661	-200.000	-0.017	0.102
-430.646	-200.000	0.027	0.281
-429.632	-78.368	0.281	-0.097
-428.617	676.604	-0.049	-0.127
-427.603	-5.025	0.303	0.210
-426.588	-116.959	-0.381	0.070
-425.573	-94.973	-0.116	-0.032
-424.559	119.348	-0.135	-0.168
-423.544	271.691	0.136	-0.241
-422.530	317.498	0.041	0.077
-421.515	-200.000	0.017	0.305
-420.500	4.561	0.189	-0.140
-419.486	100.535	0.013	-0.016
-418.471	32.969	-0.185	0.161
-417.457	88.228	-0.104	0.116
-416.442	-66.256	0.202	-0.081
-415.428	250.814	-0.160	0.273
-414.413	-200.000	0.015	-0.353
-413.398	34.517	0.215	-0.188
-412.384	-106.406	0.098	0.022
-411.369	27.711	0.066	-0.056
-410.355	150.275	0.125	-0.170
-409.340	361.348	0.047	0.095
-408.325	-200.000	0.038	-0.350
-407.311	307.015	-0.073	-0.137
-406.296	322.120	-0.066	-0.127
-405.282	-0.205	0.187	-0.133
-404.267	175.501	-0.232	-0.338
-403.252	143.263	0.256	-0.342
-402.238	-3.961	0.202	0.141
-401.223	-147.528	-0.119	0.010
-400.209	-200.000	0.068	0.584
-399.194	261.185	0.062	0.108
-398.179	142.139	-0.067	0.089
-397.165	528.136	0.034	-0.081
-396.150	-200.000	-0.010	-0.303
-395.136	73.011	-0.235	-0.247
-394.121	270.217	0.156	0.275
-393.106	416.497	-0.068	-0.146
-392.092	-200.000	0.047	0.298
-391.077	20.173	0.114	0.092
-390.063	585.732	-0.124	-0.306
-389.048	27.204	-0.208	0.176
-388.033	-53.079	-0.057	0.026
-387.019	54.635	-0.064	-0.061
-386.004	-200.000	0.012	0.187
-384.990	-91.310	-0.124	-0.035
-383.975	-200.000	0.010	-0.087
-382.960	-200.000	-0.015	0.343
-381.946	-79.918	-0.079	0.027
-380.931	138.386	-0.231	0.303
-379.917	278.552	-0.042	-0.075
-378.902	-94.749	0.131	-0.036
-377.888	800.000	0.122	0.437
-376.873	57.849	-0.049	0.048
-375.858	0.213	0.262	-0.188
-374.844	57.295	0.153	-0.149
-373.829	800.000	0.129	-0.365
-372.815	-23.557	0.169	-0.102
-371.800	-121.279	0.344	-0.058
-370.785	-50.305	-0.373	0.177
-369.771	513.904	-0.065	0.153
-368.756	-200.000	0.036	0.258
-367.742	-200.000	-0.004	-0.184
-366.727	251.231	0.223	0.381
-365.712	346.801	-0.162	0.319
-364.698	73.948	-0.214	-0.225
-363.683	-105.721	-0.128	-0.029
-362.669	800.000	0.033	0.122
-361.654	593.758	-0.040	-0.099
-360.639	-25.045	-0.216	0.128
-359.625	-77.511	0.458	0.159
-358.610	-112.177	-0.055	-0.011
-357.596	-181.838	0.263	0.005
-356.581	-200.000	-0.011	0.061
-355.566	30.127	-0.035	0.030
-354.552	800.000	-0.036	0.102
-353.537	-30.767	0.216	-0.122
-352.523	-70.806	0.126	-0.048
-351.508	284.967	-0.157	-0.284
-350.493	206.309	0.188	0.293
-349.479	161.475	-0.184	0.258
-348.464	800.000	-0.071	0.226
-347.450	296.058	0.122	-0.224
-346.435	800.000	0.055	0.158
-345.420	189.621	-0.165	0.248
-344.406	-173.129	0.440	-0.014
-343.391	-36.958	-0.239	0.129
-342.377	232.900	0.168	-0.277
-341.362	-200.000	0.038	0.258
-340.348	151.940	-0.082	0.112
-339.333	-127.354	0.376	0.055
-338.318	-200.000	-0.062	-0.280
-337.304	-125.273	-0.419	0.064
-336.289	140.975	0.013	-0.017
-335.275	-156.238	0.250	0.016
-334.260	83.148	0.157	-0.172
-333.245	-200.000	-0.011	-0.079
-332.231	722.005	0.064	-0.169
-331.216	800.000	-0.043	0.186
-330.202	197.797	0.100	-0.153
-329.187	-36.087	-0.195	-0.106
-328.172	196.644	0.296	-0.451
-327.158	559.492	-0.087	0.209
-326.143	116.643	-0.019	0.024
-325.129	51.496	-0.072	-0.068
-324.114	-74.082	-0.043	-0.015
-323.099	-103.288	0.303	-0.072
-322.085	-100.992	-0.153	0.038
-321.070	-56.029	0.179	-0.080
-320.056	-20.901	0.110	0.068
-319.041	15.987	-0.240	0.189
-318.026	-69.872	0.179	0.068
-317.012	-39.646	0.368	0.193
-315.997	-187.398	-0.222	-0.003
-314.983	-51.976	-0.237	0.110
-313.968	-125.352	-0.125	-0.019
-312.953	240.232	0.041	-0.068
-311.939	800.000	0.005	-0.021
-310.924	662.351	-0.048	0.123
-309.910	-68.259	-0.193	0.075
-308.895	-162.624	-0.085	-0.004
-307.880	-74.648	0.118	-0.043
-306.866	-200.000	0.038	-0.232
-305.851	-1.708	-0.217	-0.153
-304.837	-200.000	-0.043	0.206
-303.822	-23.956	-0.219	0.131
-302.807	475.077	0.154	0.348
-301.793	-157.098	0.175	0.011
-300.778	180.611	-0.127	-0.187
-299.764	11.435	0.317	-0.243
-298.749	-163.544	0.103	0.005
-297.735	-200.000	-0.001	-0.155
-296.720	91.638	-0.155	-0.174
-295.705	-200.000	-0.035	0.248
-294.691	62.191	0.068	0.068
-293.676	556.753	0.025	0.060
-292.662	800.000	-0.034	-0.136
-291.647	800.000	0.045	0.171
-290.632	-140.621	0.344	0.036
-289.618	197.992	0.116	0.177
-288.603	800.000	0.057	0.203
-287.589	-175.946	0.156	0.004
-286.574	-200.000	0.008	-0.065
-285.559	-119.189	0.238	0.042
-284.545	-46.456	-0.209	-0.102
-283.530	174.514	0.070	-0.101
-282.516	73.900	-0.320	0.335
-281.501	-200.000	0.022	0.210
-280.486	479.333	-0.099	-0.223
-279.472	-165.860	0.363	0.016
-278.457	-197.268	0.119	-0.001
-277.443	34.619	0.107	0.094
-276.428	-11.250	-0.084	-0.055
-275.413	800.000	-0.035	0.150
-274.399	76.612	0.225	-0.239
-273.384	-39.182	-0.185	0.097
-272.370	-200.000	0.030	0.207
-271.355	-200.000	-0.011	-0.339
-270.340	103.290	0.155	0.182
-269.326	144.531	-0.112	-0.149
-268.311	-102.358	-0.153	-0.037
-267.297	800.000	-0.032	0.126
-266.282	-130.968	-0.195	0.026
-265.267	800.000	-0.036	-0.137
-264.253	-18.642	0.118	0.074
-263.238	-35.958	0.208	0.112
-262.224	503.007	-0.066	-0.153
-261.209	-200.000	0.010	-0.057
-260.195	99.994	-0.065	0.076
-259.180	-17.067	-0.098	-0.062
-258.165	374.197	0.058	0.119
-257.151	315.068	-0.064	-0.120
-256.136	-89.203	0.174	0.051
-255.122	-200.000	-0.045	0.321
-254.107	-200.000	0.006	0.270
-253.092	-128.990	-0.437	0.061
-252.078	-200.000	-0.000	0.176
-251.063	800.000	-0.041	-0.173
-250.049	800.000	-0.064	0.236
-249.034	800.000	0.058	0.173
-248.019	11.215	0.129	0.099
-247.005	-200.000	-0.015	-0.259
-245.990	-5.692	0.072	-0.049
-244.976	473.269	-0.161	-0.362
-243.961	17.968	0.213	-0.169
-242.946	17.363	0.129	-0.102
-241.932	-25.121	0.117	0.069
-240.917	659.013	-0.056	0.144
-239.903	433.340	-0.043	0.094
-238.888	653.972	-0.061	0.156
-237.873	-186.733	0.126	0.002
-236.859	-151.937	0.417	0.030
-235.844	-200.000	0.021	-0.265
-234.830	800.000	0.044	0.182
-233.815	-200.000	-0.056	-0.476
-232.800	800.000	-0.096	0.368
-231.786	55.870	-0.197	-0.190
-230.771	-93.497	0.248	-0.068
-229.757	800.000	0.054	-0.216
-228.742	-37.778	0.156	-0.083
-227.727	552.192	0.094	0.224
-226.713	49.611	-0.075	-0.071
-225.698	-200.000	-0.069	-0.333
-224.684	537.885	0.127	-0.301
-223.669	-149.951	-0.351	-0.027
-222.655	-86.067	-0.214	0.066
-221.640	551.848	0.096	-0.229
-220.625	-80.898	-0.176	-0.058
-219.611	-124.680	-0.085	0.013
-218.596	800.000	-0.065	0.267
-217.582	59.371	0.199	0.195
-216.567	800.000	0.094	0.389
-215.552	377.931	0.140	0.286
-214.538	202.646	0.087	-0.134
-213.523	-33.144	0.038	0.021
-212.509	101.419	0.088	-0.102
-211.494	-20.628	-0.057	-0.035
-210.479	-200.000	0.019	0.216
-209.465	145.171	-0.030	-0.039
-208.450	4.910	-0.312	-0.229
-207.436	-200.000	0.019	-0.138
-206.421	-59.746	0.173	-0.074
-205.406	591.576	-0.103	-0.253
-204.392	800.000	0.096	-0.306
-203.377	46.864	0.244	0.226
-202.363	-10.962	0.159	0.104
-201.348	262.888	0.099	0.171
-200.333	27.469	-0.427	0.357
-199.319	-59.052	-0.357	0.154
-198.304	484.648	-0.067	-0.152
-197.290	-127.782	0.117	-0.017
-196.275	800.000	-0.038	-0.143
-195.260	-89.800	-0.267	-0.078
-194.246	-112.469	0.349	0.069
-193.231	455.028	-0.022	0.049
-192.217	275.120	-0.054	0.095
-191.202	360.518	0.054	0.109
-190.187	558.173	-0.057	-0.138
-189.173	-8.547	0.194	-0.129
-188.158	142.279	-0.177	-0.233
-187.144	-127.639	0.232	-0.033
-186.129	364.934	0.077	0.154
-185.114	423.012	-0.160	0.343
-184.100	-129.617	0.151	0.021
-183.085	-36.408	0.452	-0.242
-182.071	-35.955	0.213	0.115
-181.056	163.091	-0.068	0.094
-180.042	800.000	0.096	-0.336
-179.027	-73.321	0.053	-0.019
-178.012	-151.534	-0.372	0.027
-176.998	-130.815	0.273	-0.036
-175.983	-20.350	-0.285	-0.174
-174.969	-200.000	0.030	0.374
-173.954	-81.459	0.217	-0.071
-172.939	312.023	0.121	-0.225
-171.925	154.016	-0.214	0.292
-170.910	800.000	-0.075	0.216
-169.896	-61.473	-0.110	-0.046
-168.881	132.549	-0.093	-0.119
-167.866	-123.194	0.099	0.016
-166.852	56.307	-0.092	-0.089
-165.837	2.273	-0.257	0.185
-164.823	800.000	0.044	-0.131
-163.808	439.053	-0.033	0.071
-162.793	-200.000	-0.001	-0.025
-161.779	220.796	-0.026	0.042
-160.764	676.076	-0.038	-0.099
-159.750	-200.000	0.016	-0.289
-158.735	-200.000	0.020	-0.183
-157.720	-146.888	-0.503	0.043
-156.706	754.050	-0.055	0.148
-155.691	-200.000	0.001	-0.307
-154.677	28.520	0.062	0.052
-153.662	-200.000	0.001	-0.013
-152.647	-109.204	0.342	0.072
-151.633	-200.000	0.039	0.187
-150.618	111.591	0.270	0.324
-149.604	-170.552	0.168	-0.006
-148.589	800.000	0.103	0.353
-147.574	543.363	-0.116	-0.276
-146.560	800.000	-0.054	0.201
-145.545	-200.000	0.058	0.364
-144.531	7.974	0.117	0.087
-143.516	585.408	-0.184	0.449
-142.502	-200.000	-0.036	0.225
-141.487	-200.000	0.020	-0.113
-140.472	467.007	0.024	-0.054
-139.458	-95.890	0.111	0.030
-138.443	800.000	-0.093	0.264
-137.429	-200.000	0.001	-0.204
-136.414	800.000	0.126	-0.350
-135.399	612.223	-0.066	-0.163
-134.385	-100.379	0.193	0.048
-133.370	-106.848	-0.086	-0.019
-132.356	-47.282	0.206	0.100
-131.341	27.881	-0.209	0.175
-130.326	-26.526	0.174	0.101
-129.312	-122.624	-0.342	0.055
-128.297	123.294	-0.034	-0.042
-127.283	57.677	-0.159	0.155
-126.268	-46.623	-0.182	-0.089
-125.253	-133.876	-0.188	-0.023
-124.239	-52.667	-0.053	0.024
-123.224	285.243	-0.046	0.082
-122.210	23.642	0.323	0.264
-121.195	-80.449	-0.139	-0.046
-120.180	-200.000	-0.012	0.109
