DTS Sentinel unit serial number:	SN413079Multiplexer serial number:	ORYXHardware model number:	OX4-SRSoftware version number:	ORYX F/W v4.00 Oryx Data Collector v3.7.2.0data status	okinstallation	princeton_trtdifferential loss correction	single-endedforward channel	channel 1reverse channel	N/Adate	2019/09/17time	14:46:35forward acquisition time	60.00reverse acquisition time	0.00gamma	496.2192k internal	0.2296k external	0.2296temperature offset calibration	0.9971default loss term (dB/km)	0.3790temperature slope calibration	1.0000multiplexer offset coefficient	1.0000multiplexer slope coefficient	1.0000fibre end	0.00T internal ref (°C)	36.97T ext. ref 1 (°C)	0.39T ext. ref 2 (°C)	34.04length (m)	temperature (°C)	Stokes	anti-Stokes-747.200	-200.000	0.046	0.229
-746.185	90.402	-0.305	0.349
-745.171	313.919	-0.104	-0.201
-744.156	152.785	0.078	-0.108
-743.142	-134.894	0.296	-0.037
-742.127	800.000	0.034	0.128
-741.112	-88.163	-0.234	0.072
-740.098	800.000	0.071	0.242
-739.083	306.449	0.273	0.519
-738.069	-200.000	0.001	0.136
-737.054	-200.000	-0.033	-0.160
-736.039	-144.046	0.084	-0.008
-735.025	-97.268	-0.151	0.040
-734.010	-0.042	-0.091	-0.066
-732.996	-44.796	-0.198	0.101
-731.981	165.719	-0.052	-0.076
-730.966	44.670	0.216	-0.203
-729.952	686.436	0.068	-0.182
-728.937	284.843	0.027	-0.049
-727.923	624.284	-0.055	0.143
-726.908	770.953	0.106	-0.294
-725.894	-4.069	-0.231	-0.164
-724.879	86.344	-0.115	0.129
-723.864	-39.644	-0.296	-0.158
-722.850	42.404	0.141	0.131
-721.835	35.163	0.099	-0.088
-720.821	-200.000	-0.002	-0.063
-719.806	206.807	0.024	0.038
-718.791	18.136	0.152	-0.123
-717.777	800.000	0.056	0.226
-716.762	397.747	-0.223	0.477
-715.748	-200.000	-0.025	-0.179
-714.733	-4.823	-0.182	0.128
-713.718	156.766	0.080	-0.113
-712.704	87.421	0.383	-0.433
-711.689	-51.434	0.129	0.061
-710.675	-200.000	-0.050	-0.241
-709.660	141.450	0.141	-0.191
-708.645	35.941	-0.176	0.158
-707.631	1.143	-0.041	-0.030
-706.616	525.012	0.027	-0.064
-705.602	-161.271	-0.209	0.011
-704.587	81.972	0.077	0.086
-703.572	-104.567	0.406	-0.096
-702.558	-102.775	-0.325	0.079
-701.543	-200.000	0.028	-0.157
-700.529	800.000	-0.045	-0.187
-699.514	-17.620	-0.075	-0.048
-698.499	800.000	-0.072	0.241
-697.485	25.777	-0.226	-0.192
-696.470	27.502	0.194	0.167
-695.456	418.115	-0.118	0.257
-694.441	295.525	-0.150	-0.280
-693.426	-200.000	0.053	-0.283
-692.412	-200.000	-0.019	0.143
-691.397	-5.155	-0.217	-0.152
-690.383	800.000	-0.055	-0.188
-689.368	440.628	-0.036	0.080
-688.354	80.001	-0.112	-0.122
-687.339	139.606	-0.003	-0.004
-686.324	-200.000	0.009	-0.161
-685.310	-200.000	-0.063	0.293
-684.295	484.553	-0.121	0.280
-683.281	800.000	0.047	-0.181
-682.266	240.525	0.044	-0.074
-681.251	48.553	-0.221	0.211
-680.237	-180.936	0.204	0.004
-679.222	135.884	-0.177	-0.235
-678.208	-200.000	0.028	-0.402
-677.193	-75.274	-0.072	0.026
-676.178	-200.000	0.010	0.243
-675.164	470.863	-0.074	-0.169
-674.149	20.621	-0.246	0.203
-673.135	-7.529	-0.255	-0.176
-672.120	-200.000	-0.056	-0.280
-671.105	-143.853	0.187	-0.018
-670.091	-157.550	0.167	-0.010
-669.076	-74.496	0.263	0.096
-668.062	-200.000	0.007	0.047
-667.047	800.000	-0.064	-0.186
-666.032	42.222	-0.265	0.245
-665.018	800.000	0.108	0.401
-664.003	-200.000	0.001	0.058
-662.989	-200.000	-0.020	-0.264
-661.974	89.193	0.075	0.085
-660.959	-69.054	0.277	0.108
-659.945	-159.955	0.230	0.013
-658.930	134.135	0.137	0.181
-657.916	-120.005	0.324	0.057
-656.901	245.086	0.068	0.117
-655.886	-88.300	-0.222	-0.068
-654.872	184.235	-0.097	-0.146
-653.857	-18.228	0.305	-0.194
-652.843	-200.000	-0.040	0.236
-651.828	-119.285	0.381	0.068
-650.814	-200.000	-0.012	0.243
-649.799	-114.011	0.097	-0.019
-648.784	-200.000	-0.024	-0.135
-647.770	-70.056	-0.035	0.014
-646.755	-200.000	-0.059	-0.324
-645.741	130.789	0.174	0.227
-644.726	-112.506	0.283	0.058
-643.711	30.910	-0.277	0.242
-642.697	-162.997	-0.212	-0.010
-641.682	69.837	0.055	-0.058
-640.668	32.090	-0.233	0.204
-639.653	-55.555	-0.239	-0.109
-638.638	-200.000	0.001	0.140
-637.624	186.824	-0.174	0.263
-636.609	190.976	-0.079	0.121
-635.595	800.000	0.032	0.122
-634.580	105.481	0.172	-0.207
-633.565	-156.429	0.139	0.009
-632.551	35.266	0.136	-0.121
-631.536	46.005	0.301	-0.283
-630.522	217.703	0.082	-0.133
-629.507	-39.105	-0.036	0.019
-628.492	-143.141	-0.308	-0.030
-627.478	-200.000	-0.157	0.001
-626.463	800.000	0.045	-0.143
-625.449	236.729	0.254	0.428
-624.434	61.581	-0.201	0.203
-623.419	800.000	0.060	0.226
-622.405	-200.000	0.008	0.042
-621.390	567.670	0.093	-0.230
-620.376	-200.000	-0.021	-0.167
-619.361	-11.194	-0.101	-0.068
-618.346	-200.000	0.033	0.231
-617.332	209.589	-0.120	-0.191
-616.317	734.419	0.076	0.207
-615.303	-200.000	-0.048	-0.450
-614.288	162.112	-0.097	0.138
-613.273	6.929	-0.504	0.382
-612.259	422.260	0.080	-0.174
-611.244	-42.048	-0.378	0.197
-610.230	-78.619	0.368	-0.128
-609.215	-24.997	-0.193	0.117
-608.201	267.905	-0.265	-0.472
-607.186	-122.929	-0.125	0.020
-606.171	19.603	-0.259	-0.212
-605.157	-92.539	-0.353	-0.101
-604.142	458.768	0.042	0.094
-603.128	-167.334	-0.282	-0.012
-602.113	-200.000	-0.055	-0.341
-601.098	16.907	-0.186	-0.150
-600.084	475.379	-0.146	0.334
-599.069	-200.000	-0.008	-0.159
-598.055	31.421	0.104	0.090
-597.040	-110.652	0.178	0.037
-596.025	-45.932	-0.102	0.051
-595.011	-200.000	-0.006	-0.260
-593.996	-1.041	-0.169	-0.121
-592.982	175.162	-0.088	0.130
-591.967	392.813	0.078	-0.164
-590.952	-192.167	-0.065	0.001
-589.938	-200.000	0.039	0.207
-588.923	-200.000	-0.016	-0.113
-587.909	-104.421	0.173	0.041
-586.894	498.401	0.026	0.061
-585.879	724.697	0.036	0.096
-584.865	159.172	-0.074	0.105
-583.850	-83.423	0.152	0.049
-582.836	-200.000	0.021	0.182
-581.821	676.124	0.091	0.240
-580.806	-80.386	0.222	0.075
-579.792	215.218	-0.078	0.126
-578.777	-175.046	0.217	0.006
-577.763	800.000	0.112	0.322
-576.748	131.232	0.111	-0.145
-575.733	-100.970	0.387	0.096
-574.719	-7.429	0.288	-0.198
-573.704	-140.420	-0.158	0.017
-572.690	-72.122	-0.077	-0.029
-571.675	-69.089	-0.081	0.032
-570.661	-43.500	0.330	-0.169
-569.646	629.060	0.071	0.183
-568.631	-54.627	-0.190	-0.087
-567.617	-143.216	-0.150	0.015
-566.602	-200.000	0.058	0.541
-565.588	-104.869	-0.454	0.106
-564.573	-127.323	0.248	0.037
-563.558	43.859	-0.055	-0.051
-562.544	140.478	-0.173	0.231
-561.529	-200.000	0.013	-0.065
-560.515	297.748	-0.038	0.071
-559.500	72.379	-0.072	-0.076
-558.485	773.847	0.032	-0.087
-557.471	-66.826	0.249	0.100
-556.456	-5.402	0.115	-0.080
-555.442	308.769	0.147	0.279
-554.427	233.162	0.056	-0.094
-553.412	-35.094	0.115	-0.063
-552.398	800.000	0.069	-0.206
-551.383	-34.229	-0.154	0.086
-550.369	109.924	0.066	0.081
-549.354	-58.895	0.151	0.066
-548.339	13.165	0.230	0.181
-547.325	250.805	-0.026	-0.045
-546.310	-5.922	0.167	0.116
-545.296	92.137	-0.243	-0.277
-544.281	-67.509	0.281	0.112
-543.266	-200.000	-0.011	-0.051
-542.252	226.625	0.033	-0.054
-541.237	-200.000	-0.034	-0.150
-540.223	74.368	-0.024	0.026
-539.208	404.065	0.016	-0.035
-538.193	193.017	-0.018	-0.028
-537.179	73.609	-0.140	0.148
-536.164	162.378	-0.064	0.091
-535.150	13.105	-0.251	0.197
-534.135	-65.419	0.196	0.080
-533.121	800.000	0.060	-0.242
-532.106	427.028	-0.143	-0.312
-531.091	-10.831	0.243	0.162
-530.077	55.124	0.225	-0.221
-529.062	-139.863	-0.074	-0.008
-528.048	120.143	0.138	0.173
-527.033	148.843	-0.072	-0.098
-526.018	22.457	-0.151	-0.125
-525.004	-200.000	0.000	0.096
-523.989	60.381	0.018	-0.018
-522.975	-47.200	0.188	0.093
-521.960	15.162	-0.119	0.094
-520.945	800.000	0.073	-0.297
-519.931	-200.000	-0.018	0.233
-518.916	-6.101	-0.041	-0.028
-517.902	50.899	0.125	0.120
-516.887	273.461	-0.140	0.251
-515.872	800.000	0.098	0.309
-514.858	-35.468	0.386	0.212
-513.843	-27.788	0.193	-0.113
-512.829	-97.596	-0.207	0.054
-511.814	-12.480	0.139	-0.092
-510.799	-67.508	-0.300	0.119
-509.785	-11.025	-0.392	-0.262
-508.770	60.850	-0.177	-0.177
-507.756	-51.378	-0.101	-0.048
-506.741	-109.273	0.104	-0.022
-505.726	-200.000	-0.033	-0.199
-504.712	122.552	-0.214	0.270
-503.697	95.800	-0.134	-0.155
-502.683	283.637	0.107	-0.194
-501.668	-126.124	-0.262	-0.040
-500.653	219.255	-0.124	0.201
-499.639	-61.127	0.159	-0.068
-498.624	-65.627	0.201	-0.081
-497.610	723.000	-0.066	-0.178
-496.595	31.674	0.125	-0.109
-495.581	-3.983	-0.162	-0.113
-494.566	-159.853	-0.202	0.011
-493.551	351.091	0.030	0.061
-492.537	-54.880	0.171	-0.078
-491.522	160.928	-0.081	-0.114
-490.508	-200.000	0.052	-0.248
-489.493	-72.681	0.091	0.034
-488.478	-39.093	-0.054	-0.029
-487.464	-200.000	0.041	0.426
-486.449	191.034	0.171	-0.260
-485.435	-108.581	-0.300	0.065
-484.420	-46.902	0.067	0.033
-483.405	-200.000	0.001	0.006
-482.391	-200.000	0.009	-0.159
-481.376	512.015	-0.031	0.074
-480.362	-200.000	-0.018	-0.190
-479.347	22.965	0.318	-0.264
-478.332	42.504	-0.119	-0.110
-477.318	-200.000	0.103	-0.481
-476.303	-200.000	-0.009	-0.078
-475.289	800.000	-0.106	0.340
-474.274	87.088	-0.054	0.061
-473.259	173.403	0.095	0.138
-472.245	-141.834	0.085	0.009
-471.230	83.397	-0.261	-0.288
-470.216	475.972	0.079	-0.180
-469.201	800.000	-0.078	-0.263
-468.186	-65.168	-0.067	0.027
-467.172	139.792	0.127	-0.169
-466.157	-187.595	0.082	-0.001
-465.143	92.533	0.062	0.071
-464.128	714.168	-0.124	-0.331
-463.113	-63.013	-0.230	-0.096
-462.099	237.236	0.177	-0.296
-461.084	-89.692	-0.112	-0.033
-460.070	-140.157	0.099	-0.010
-459.055	-69.263	-0.159	0.062
-458.040	388.429	-0.082	-0.171
-457.026	168.047	0.220	0.316
-456.011	800.000	-0.041	0.159
-454.997	38.998	-0.172	0.155
-453.982	325.265	-0.099	0.191
-452.968	156.914	0.103	0.143
-451.953	-7.933	-0.372	-0.253
-450.938	-44.900	-0.088	-0.045
-449.924	-177.816	0.210	-0.005
-448.909	-168.162	-0.243	0.010
-447.895	-74.048	-0.132	-0.048
-446.880	800.000	0.059	-0.174
-445.865	-169.614	-0.229	0.008
-444.851	541.992	0.019	-0.046
-443.836	378.974	0.074	-0.154
-442.822	-66.405	0.265	0.106
-441.807	-78.769	0.297	-0.102
-440.792	107.565	-0.120	-0.144
-439.778	6.658	-0.104	0.078
-438.763	800.000	0.063	-0.208
-437.749	-94.688	-0.219	0.060
-436.734	231.293	0.159	-0.263
-435.719	-82.453	0.040	0.013
-434.705	-130.904	0.029	0.004
-433.690	123.928	-0.209	-0.264
-432.676	380.802	0.130	-0.269
-431.661	-127.624	0.330	0.048
-430.646	-38.563	-0.120	-0.064
-429.632	46.313	-0.306	0.286
-428.617	-66.031	0.082	-0.033
-427.603	-76.988	0.111	-0.039
-426.588	181.287	-0.078	0.116
-425.573	-31.647	-0.117	0.066
-424.559	353.337	-0.138	0.277
-423.544	1.571	-0.426	0.310
-422.530	-120.892	0.287	-0.049
-421.515	-62.630	0.108	0.045
-420.500	103.499	-0.132	0.157
-419.486	-200.000	0.014	0.188
-418.471	-200.000	-0.008	0.224
-417.457	-50.809	0.250	0.118
-416.442	-200.000	0.008	-0.075
-415.428	26.552	-0.133	-0.113
-414.413	-118.960	-0.145	0.026
-413.398	35.449	0.201	0.178
-412.384	109.450	-0.139	-0.168
-411.369	32.085	-0.106	-0.092
-410.355	97.912	0.108	-0.125
-409.340	143.858	0.031	-0.041
-408.325	198.839	0.125	0.193
-407.311	-13.034	-0.043	0.028
-406.296	386.356	-0.113	0.235
-405.282	-114.122	0.103	0.020
-404.267	77.620	0.413	-0.443
-403.252	21.420	-0.073	-0.060
-402.238	-71.291	0.317	0.120
-401.223	114.752	-0.067	0.082
-400.209	-63.504	-0.116	0.048
-399.194	-98.786	0.041	-0.010
-398.179	16.575	0.117	0.093
-397.165	800.000	-0.070	-0.218
-396.150	-83.873	0.349	-0.112
-395.136	299.030	0.041	-0.077
-394.121	-10.383	-0.036	-0.024
-393.106	-64.117	-0.175	0.072
-392.092	-68.346	-0.292	0.114
-391.077	-113.234	0.092	0.018
-390.063	-19.082	-0.139	-0.087
-389.048	13.191	-0.152	-0.119
-388.033	38.372	-0.329	-0.295
-387.019	-69.515	0.142	-0.055
-386.004	500.282	-0.031	-0.071
-384.990	-24.391	-0.067	0.040
-383.975	-200.000	-0.004	-0.153
-382.960	-131.209	-0.209	-0.028
-381.946	185.010	-0.092	0.138
-380.931	291.873	-0.170	0.311
-379.917	-170.434	-0.054	-0.002
-378.902	-200.000	0.015	0.087
-377.888	-73.291	0.317	0.117
-376.873	-99.908	-0.134	-0.034
-375.858	-100.153	-0.280	0.070
-374.844	334.592	0.081	0.157
-373.829	189.885	-0.012	-0.018
-372.815	367.278	0.057	-0.116
-371.800	-178.907	0.129	-0.003
-370.785	800.000	-0.123	0.467
-369.771	5.408	0.085	0.063
-368.756	-72.195	0.277	0.104
-367.742	-66.602	0.241	0.096
-366.727	294.654	-0.045	0.084
-365.712	168.360	-0.116	0.167
-364.698	-20.121	0.012	0.007
-363.683	-58.615	-0.250	0.109
-362.669	-72.079	0.256	0.096
-361.654	124.422	0.205	-0.260
-360.639	65.973	0.095	0.097
-359.625	-150.658	-0.201	-0.015
-358.610	514.770	0.081	-0.191
-357.596	178.683	0.044	0.065
-356.581	-17.413	-0.094	0.060
-355.566	147.417	-0.144	-0.195
-354.552	-17.868	-0.087	-0.055
-353.537	-18.008	0.211	0.133
-352.523	362.230	-0.026	0.053
-351.508	0.919	-0.293	-0.211
-350.493	50.641	0.077	0.073
-349.479	207.958	0.077	0.121
-348.464	-56.142	-0.404	-0.181
-347.450	-200.000	-0.020	-0.355
-346.435	800.000	-0.043	0.157
-345.420	720.079	0.070	-0.188
-344.406	-200.000	0.045	-0.287
-343.391	-17.422	-0.227	-0.143
-342.377	-87.447	-0.129	0.039
-341.362	-134.086	0.171	-0.021
-340.348	504.967	0.047	-0.109
-339.333	-17.596	-0.319	-0.202
-338.318	-200.000	-0.033	0.261
-337.304	-13.055	0.180	-0.118
-336.289	89.115	-0.099	0.111
-335.275	-84.079	0.200	0.064
-334.260	-200.000	-0.014	-0.088
-333.245	301.511	-0.034	-0.063
-332.231	333.023	0.166	0.323
-331.216	118.443	-0.163	0.203
-330.202	-92.777	0.131	0.037
-329.187	-200.000	-0.053	-0.236
-328.172	51.307	0.026	-0.025
-327.158	-37.017	-0.079	-0.042
-326.143	152.156	-0.243	0.333
-325.129	-121.598	0.306	-0.051
-324.114	-0.502	0.065	0.046
-323.099	-91.926	0.191	-0.054
-322.085	-79.208	-0.095	-0.032
-321.070	-121.388	0.040	0.007
-320.056	22.832	-0.167	0.137
-319.041	-42.509	0.246	0.126
-318.026	-116.713	-0.157	-0.029
-317.012	-12.153	0.398	-0.262
-315.997	-71.190	0.108	0.041
-314.983	-172.505	-0.034	0.001
-313.968	-196.165	-0.141	0.001
-312.953	268.340	0.167	0.293
-311.939	409.451	-0.121	-0.258
-310.924	800.000	0.074	0.290
-309.910	183.861	-0.062	0.092
-308.895	-68.308	-0.100	-0.039
-307.880	61.020	0.283	-0.282
-306.866	459.070	0.099	-0.220
-305.851	26.401	-0.047	-0.040
-304.837	30.650	-0.106	0.091
-303.822	-200.000	0.009	-0.256
-302.807	-200.000	-0.044	-0.384
-301.793	-173.825	-0.211	-0.006
-300.778	143.612	0.134	-0.179
-299.764	-124.155	0.114	0.018
-298.749	139.318	-0.201	-0.265
-297.735	354.033	-0.099	-0.198
-296.720	-200.000	0.052	-0.305
-295.705	-2.307	0.082	0.058
-294.691	215.049	0.118	-0.188
-293.676	-200.000	0.092	-0.617
-292.662	800.000	-0.060	-0.250
-291.647	761.023	-0.054	-0.146
-290.632	-200.000	0.001	0.217
-289.618	-140.385	0.327	0.034
-288.603	-135.369	0.138	0.017
-287.589	-116.282	0.036	0.007
-286.574	-56.695	-0.105	-0.047
-285.559	-90.200	0.329	0.096
-284.545	392.036	-0.167	0.349
-283.530	223.773	0.118	0.191
-282.516	-116.404	-0.152	0.028
-281.501	-200.000	0.002	0.127
-280.486	-99.706	0.236	0.059
-279.472	-141.589	0.404	-0.041
-278.457	42.783	-0.126	0.116
-277.443	800.000	-0.056	0.190
-276.428	-200.000	0.020	0.161
-275.413	-35.584	0.062	0.034
-274.399	-114.656	0.160	0.031
-273.384	193.206	0.017	-0.025
-272.370	-200.000	0.026	-0.190
-271.355	800.000	-0.073	-0.241
-270.340	42.499	-0.259	-0.236
-269.326	-200.000	0.028	0.178
-268.311	-62.514	-0.179	0.075
-267.297	-29.076	-0.136	0.078
-266.282	41.855	0.354	0.322
-265.267	180.897	0.036	-0.054
-264.253	83.029	-0.093	-0.102
-263.238	227.166	-0.095	-0.154
-262.224	-129.316	0.154	0.021
-261.209	249.884	0.091	0.155
-260.195	-125.431	0.063	0.010
-259.180	597.329	-0.104	-0.258
-258.165	774.128	-0.170	0.466
-257.151	-200.000	-0.010	-0.081
-256.136	118.838	0.048	0.060
-255.122	-155.666	-0.048	0.003
-254.107	800.000	0.085	0.287
-253.092	-63.158	0.250	0.103
-252.078	-200.000	-0.039	0.279
-251.063	-47.127	0.341	-0.167
-250.049	83.571	0.269	0.294
-249.034	-165.187	-0.287	0.013
-248.019	-119.215	-0.179	-0.031
-247.005	31.172	0.060	0.052
-245.990	145.480	-0.120	0.161
-244.976	13.518	-0.130	-0.101
-243.961	81.676	0.250	0.271
-242.946	67.151	0.420	0.429
-241.932	-166.172	-0.242	0.010
-240.917	307.177	0.045	0.083
-239.903	-200.000	-0.001	0.015
-238.888	34.609	0.126	0.110
-237.873	-130.488	0.198	-0.027
-236.859	56.220	-0.186	0.181
-235.844	359.496	-0.081	-0.161
-234.830	126.838	-0.113	-0.143
-233.815	-132.268	-0.114	-0.015
-232.800	-42.380	0.124	-0.064
-231.786	36.289	0.274	0.242
-230.771	93.714	0.133	0.151
-229.757	42.095	0.114	-0.103
-228.742	-200.000	-0.132	0.000
-227.727	-89.052	-0.226	0.067
-226.713	-66.620	0.410	0.163
-225.698	445.360	-0.158	0.347
-224.684	464.190	0.060	-0.135
-223.669	310.099	0.161	-0.301
-222.655	156.000	-0.177	-0.245
-221.640	-140.222	-0.296	0.031
-220.625	-150.975	0.028	-0.002
-219.611	333.981	-0.080	0.154
-218.596	-75.778	-0.139	-0.049
-217.582	307.234	-0.204	-0.380
-216.567	800.000	-0.084	-0.284
-215.552	-200.000	0.022	0.146
-214.538	-83.125	0.142	0.046
-213.523	-200.000	-0.040	0.233
-212.509	-200.000	0.025	-0.235
-211.494	-145.717	0.294	-0.026
-210.479	-200.000	0.058	0.297
-209.465	-121.134	-0.164	0.028
-208.450	192.610	0.170	0.256
-207.436	215.116	-0.182	0.288
-206.421	-200.000	-0.011	0.147
-205.406	-200.000	-0.016	0.238
-204.392	-56.947	0.218	-0.096
-203.377	-200.000	0.017	-0.180
-202.363	-177.832	-0.114	-0.003
-201.348	-200.000	-0.044	-0.310
-200.333	395.171	-0.139	-0.289
-199.319	800.000	-0.101	0.438
-198.304	800.000	0.023	0.064
-197.290	489.435	-0.125	-0.286
-196.275	443.686	-0.042	-0.093
-195.260	256.246	0.079	0.135
-194.246	47.869	0.182	-0.170
-193.231	678.701	0.074	-0.193
-192.217	110.117	-0.129	0.155
-191.202	-105.631	-0.178	0.040
-190.187	-63.839	0.211	0.086
-189.173	-52.536	0.207	0.096
-188.158	-48.427	0.140	0.068
-187.144	510.665	-0.084	0.196
-186.129	240.019	0.072	0.121
-185.114	-200.000	0.029	-0.279
-184.100	-67.428	-0.268	-0.105
-183.085	-190.370	-0.200	-0.002
-182.071	-85.523	-0.090	-0.028
-181.056	81.742	0.133	-0.144
-180.042	-119.518	0.171	0.030
-179.027	800.000	-0.020	0.085
-178.012	800.000	-0.063	0.194
-176.998	-115.683	-0.114	0.021
-175.983	-174.903	0.220	0.006
-174.969	190.737	0.182	0.274
-173.954	-121.691	0.161	0.027
-172.939	800.000	0.017	0.071
-171.925	-113.374	-0.286	-0.056
-170.910	441.133	0.185	-0.404
-169.896	27.420	-0.122	-0.102
-168.881	794.420	-0.039	0.108
-167.866	-200.000	-0.026	-0.327
-166.852	-114.691	-0.364	-0.070
-165.837	-200.000	-0.021	-0.092
-164.823	798.358	-0.053	0.145
-163.808	-200.000	-0.003	0.199
-162.793	-181.630	0.179	0.003
-161.779	198.747	-0.056	-0.086
-160.764	-150.186	-0.241	-0.019
-159.750	79.341	0.099	0.106
-158.735	-200.000	0.343	-0.001
-157.720	121.508	0.171	-0.213
-156.706	287.717	0.091	0.164
-155.691	124.881	-0.090	0.113
-154.677	101.587	0.206	-0.240
-153.662	122.506	-0.072	0.090
-152.647	-43.252	-0.055	-0.028
-151.633	-44.960	0.209	0.104
-150.618	8.984	-0.103	0.077
-149.604	-200.000	0.010	0.055
-148.589	237.833	-0.220	0.364
-147.574	-200.000	0.337	0.001
-146.560	-121.283	-0.119	-0.020
-145.545	-42.724	0.053	-0.027
-144.531	-37.293	0.278	0.148
-143.516	-87.119	0.222	-0.067
-142.502	-7.647	0.106	0.071
-141.487	-200.000	-0.050	0.292
-140.472	98.712	-0.113	-0.130
-139.458	-200.000	-0.002	0.123
-138.443	800.000	0.037	-0.139
-137.429	-39.049	-0.306	0.161
-136.414	-200.000	-0.007	0.228
-135.399	22.782	0.080	0.066
-134.385	-113.618	0.103	-0.020
-133.370	800.000	0.038	0.137
-132.356	131.919	0.172	-0.220
-131.341	251.050	-0.208	-0.352
-130.326	-114.447	0.149	-0.029
-129.312	385.272	0.085	-0.176
-128.297	-91.058	0.154	0.044
-127.283	-177.705	0.207	0.005
-126.268	15.268	0.144	-0.113
-125.253	13.937	0.126	0.098
-124.239	25.098	0.137	0.113
-123.224	-115.034	0.130	0.025
-122.210	-82.852	-0.262	0.084
-121.195	-200.000	-0.032	-0.374
