DTS Sentinel unit serial number:	SN413079Multiplexer serial number:	ORYXHardware model number:	OX4-SRSoftware version number:	ORYX F/W v4.00 Oryx Data Collector v3.7.2.0data status	okinstallation	princeton_trtdifferential loss correction	single-endedforward channel	channel 1reverse channel	N/Adate	2019/09/14time	05:30:35forward acquisition time	60.00reverse acquisition time	0.00gamma	496.2192k internal	0.2334k external	0.2334temperature offset calibration	1.0085default loss term (dB/km)	0.3790temperature slope calibration	1.0000multiplexer offset coefficient	1.0000multiplexer slope coefficient	1.0000fibre end	0.00T internal ref (°C)	26.94T ext. ref 1 (°C)	3.40T ext. ref 2 (°C)	21.83length (m)	temperature (°C)	Stokes	anti-Stokes-747.200	-200.000	0.017	0.251
-746.185	-200.000	0.007	-0.105
-745.171	800.000	0.023	-0.074
-744.156	800.000	-0.036	0.111
-743.142	180.539	0.158	-0.234
-742.127	-200.000	0.026	0.159
-741.112	4.681	0.172	-0.127
-740.098	-98.860	-0.263	0.067
-739.083	-91.700	0.256	-0.073
-738.069	-7.305	-0.347	-0.236
-737.054	-3.726	-0.119	-0.083
-736.039	201.959	-0.287	-0.445
-735.025	428.815	0.042	-0.090
-734.010	-160.854	-0.305	-0.016
-732.996	-18.923	-0.347	0.217
-731.981	12.600	-0.151	-0.117
-730.966	-120.866	0.468	0.079
-729.952	-200.000	0.064	-0.293
-728.937	-1.230	-0.323	-0.229
-727.923	-22.827	0.097	-0.059
-726.908	-39.151	0.254	-0.134
-725.894	438.812	0.063	0.138
-724.879	162.046	-0.145	-0.204
-723.864	-200.000	-0.010	0.154
-722.850	-143.979	-0.235	0.022
-721.835	0.682	-0.084	0.060
-720.821	168.447	-0.057	0.082
-719.806	-200.000	-0.006	0.040
-718.791	586.337	-0.105	0.259
-717.777	-141.226	-0.252	0.026
-716.762	800.000	-0.064	0.251
-715.748	361.962	0.112	-0.225
-714.733	165.994	-0.118	0.168
-713.718	14.262	-0.331	0.259
-712.704	-51.923	-0.266	-0.124
-711.689	297.170	0.212	-0.390
-710.675	770.748	0.035	0.095
-709.660	-200.000	-0.067	-0.438
-708.645	105.222	0.169	-0.200
-707.631	800.000	0.028	-0.090
-706.616	209.549	-0.146	-0.229
-705.602	800.000	-0.086	-0.242
-704.587	184.855	0.307	0.457
-703.572	5.555	0.335	0.248
-702.558	-91.128	-0.268	-0.077
-701.543	91.397	0.203	0.229
-700.529	77.715	0.119	-0.127
-699.514	193.318	-0.180	0.274
-698.499	16.502	0.197	0.156
-697.485	-62.703	0.108	-0.045
-696.470	-147.789	-0.059	0.005
-695.456	-200.000	-0.031	0.193
-694.441	178.929	0.015	-0.022
-693.426	-200.000	0.006	-0.174
-692.412	212.582	0.217	-0.343
-691.397	208.593	-0.134	-0.210
-690.383	-119.275	-0.262	-0.046
-689.368	-200.000	-0.018	-0.261
-688.354	41.658	0.146	0.133
-687.339	800.000	-0.042	0.118
-686.324	-138.921	0.303	-0.033
-685.310	800.000	-0.056	-0.162
-684.295	156.934	-0.170	-0.236
-683.281	-48.577	-0.295	-0.142
-682.266	-97.941	-0.169	0.044
-681.251	800.000	-0.052	0.228
-680.237	-75.534	-0.174	-0.062
-679.222	-200.000	0.028	-0.157
-678.208	800.000	-0.016	-0.052
-677.193	800.000	-0.038	-0.124
-676.178	-106.167	0.397	-0.089
-675.164	-49.230	-0.228	-0.109
-674.149	26.754	-0.161	0.135
-673.135	423.459	0.057	-0.124
-672.120	-18.282	-0.178	0.111
-671.105	103.832	-0.271	0.319
-670.091	-32.360	-0.187	-0.105
-669.076	800.000	0.040	-0.120
-668.062	-23.531	-0.185	-0.111
-667.047	-179.946	-0.207	-0.004
-666.032	397.075	0.086	0.181
-665.018	386.620	-0.174	-0.361
-664.003	503.076	0.029	0.068
-662.989	558.360	0.057	-0.137
-661.974	101.598	-0.063	-0.074
-660.959	800.000	0.121	0.433
-659.945	-125.004	-0.117	0.018
-658.930	-200.000	-0.063	-0.438
-657.916	-200.000	-0.052	-0.248
-656.901	-24.249	-0.110	0.066
-655.886	113.371	-0.159	0.193
-654.872	-184.798	-0.205	0.003
-653.857	778.101	0.059	-0.161
-652.843	800.000	-0.078	0.341
-651.828	-150.775	-0.463	-0.035
-650.814	-7.144	-0.059	0.040
-649.799	800.000	-0.036	0.145
-648.784	-200.000	-0.022	-0.213
-647.770	-96.954	-0.165	0.043
-646.755	191.391	0.133	-0.201
-645.741	6.923	0.079	-0.059
-644.726	71.483	-0.100	0.104
-643.711	-200.000	-0.004	0.075
-642.697	180.394	-0.082	-0.121
-641.682	236.882	-0.146	-0.242
-640.668	-18.255	-0.290	-0.181
-639.653	-4.259	-0.210	-0.145
-638.638	800.000	0.070	-0.286
-637.624	-126.650	-0.354	-0.052
-636.609	93.222	0.327	-0.370
-635.595	-65.399	-0.256	0.103
-634.580	-30.304	-0.196	0.111
-633.565	157.230	-0.046	-0.064
-632.551	-86.126	-0.142	0.044
-631.536	25.242	0.350	0.291
-630.522	32.793	0.223	0.193
-629.507	-160.919	-0.328	0.017
-628.492	-200.000	0.033	-0.508
-627.478	-109.675	0.069	-0.014
-626.463	101.490	-0.264	0.308
-625.449	140.236	0.126	0.167
-624.434	-119.603	-0.008	0.001
-623.419	-63.097	0.374	-0.155
-622.405	97.453	-0.178	-0.204
-621.390	-19.491	-0.313	-0.194
-620.376	247.248	-0.249	-0.420
-619.361	524.148	0.125	0.295
-618.346	-40.840	-0.098	-0.051
-617.332	46.248	0.109	-0.101
-616.317	401.058	-0.050	0.104
-615.303	-89.883	0.377	0.110
-614.288	67.342	-0.230	0.234
-613.273	-200.000	0.009	0.107
-612.259	537.940	-0.020	0.047
-611.244	37.275	0.072	-0.064
-610.230	43.215	-0.101	-0.093
-609.215	55.572	-0.114	0.111
-608.201	-163.059	-0.092	-0.004
-607.186	-112.989	-0.335	0.066
-606.171	800.000	0.010	0.033
-605.157	800.000	0.100	-0.310
-604.142	43.419	-0.135	0.123
-603.128	-200.000	0.011	0.175
-602.113	103.383	-0.110	-0.130
-601.098	264.096	-0.096	-0.166
-600.084	75.565	-0.293	0.309
-599.069	-76.929	0.141	-0.049
-598.055	-43.910	-0.155	0.078
-597.040	665.032	0.112	-0.290
-596.025	479.512	0.143	0.323
-595.011	800.000	0.043	0.124
-593.996	-85.611	0.282	0.088
-592.982	800.000	0.044	0.140
-591.967	17.309	-0.218	-0.173
-590.952	-23.365	0.166	0.100
-589.938	-200.000	-0.013	0.171
-588.923	-76.285	-0.144	0.051
-587.909	45.850	-0.083	-0.077
-586.894	-197.216	-0.313	0.002
-585.879	60.835	-0.185	-0.183
-584.865	62.883	-0.074	-0.074
-583.850	-200.000	-0.013	0.126
-582.836	-114.121	0.141	-0.027
-581.821	-200.000	-0.049	0.275
-580.806	421.662	0.118	0.253
-579.792	800.000	0.017	-0.057
-578.777	453.270	-0.064	-0.141
-577.763	13.234	-0.352	-0.273
-576.748	-200.000	-0.017	0.139
-575.733	22.562	-0.083	-0.068
-574.719	192.362	0.192	0.289
-573.704	-146.066	0.071	-0.006
-572.690	-116.215	-0.126	-0.023
-571.675	-56.074	0.235	-0.105
-570.661	-82.077	-0.190	0.062
-569.646	-200.000	-0.037	0.258
-568.631	-200.000	0.025	0.198
-567.617	-49.330	0.235	0.112
-566.602	800.000	-0.092	0.270
-565.588	-122.118	-0.322	-0.053
-564.573	800.000	-0.012	-0.053
-563.558	-200.000	-0.016	-0.162
-562.544	4.899	0.073	0.054
-561.529	74.009	-0.162	-0.169
-560.515	-138.771	0.141	0.015
-559.500	-50.116	0.294	0.139
-558.485	216.399	-0.127	0.201
-557.471	-200.000	-0.044	-0.324
-556.456	800.000	-0.027	0.094
-555.442	44.752	0.074	-0.067
-554.427	66.902	-0.181	0.184
-553.412	800.000	0.057	-0.221
-552.398	78.243	0.167	-0.178
-551.383	3.868	0.177	0.129
-550.369	-200.000	0.030	-0.208
-549.354	800.000	-0.026	0.111
-548.339	33.000	0.161	-0.140
-547.325	-149.672	0.383	-0.030
-546.310	-11.985	0.075	-0.049
-545.296	24.708	-0.108	0.089
-544.281	12.920	-0.168	0.130
-543.266	-13.676	0.064	-0.042
-542.252	-200.000	0.058	0.298
-541.237	-53.849	-0.073	-0.033
-540.223	179.486	-0.211	-0.308
-539.208	196.485	0.164	-0.249
-538.193	-200.000	0.053	-0.240
-537.179	-132.682	0.329	0.042
-536.164	107.260	0.127	-0.151
-535.150	269.042	-0.103	0.181
-534.135	795.193	-0.088	0.241
-533.121	-200.000	0.264	0.001
-532.106	-145.903	-0.209	-0.018
-531.091	-37.328	-0.360	-0.192
-530.077	729.911	0.065	-0.174
-529.062	-129.868	-0.091	0.012
-528.048	260.879	0.107	0.185
-527.033	20.326	0.058	-0.047
-526.018	43.127	0.229	-0.208
-525.004	800.000	0.020	-0.071
-523.989	800.000	0.087	-0.266
-522.975	276.010	0.156	0.276
-521.960	625.024	-0.043	-0.108
-520.945	-78.039	-0.139	0.048
-519.931	268.757	0.174	-0.304
-518.916	-200.000	-0.012	0.123
-517.902	-30.079	-0.143	-0.081
-516.887	-25.952	-0.208	-0.122
-515.872	-200.000	-0.015	-0.179
-514.858	-9.811	-0.145	-0.096
-513.843	-136.372	0.126	0.015
-512.829	225.302	-0.094	-0.152
-511.814	-200.000	0.035	-0.412
-510.799	-30.552	0.054	-0.031
-509.785	632.867	-0.078	0.197
-508.770	-100.977	0.257	0.063
-507.756	-200.000	-0.032	-0.233
-506.741	-19.211	-0.111	-0.068
-505.726	-99.566	0.026	-0.006
-504.712	800.000	-0.108	0.466
-503.697	-74.890	0.135	0.048
-502.683	-200.000	0.024	0.173
-501.668	63.828	0.079	-0.079
-500.653	-21.569	0.275	-0.167
-499.639	-97.576	-0.070	0.018
-498.624	-200.000	-0.044	-0.200
-497.610	2.685	0.122	0.088
-496.595	332.047	0.151	0.291
-495.581	467.453	0.114	-0.254
-494.566	-200.000	0.035	-0.188
-493.551	-153.859	-0.306	0.021
-492.537	-199.976	0.452	0.002
-491.522	57.609	-0.254	0.247
-490.508	-200.000	0.040	-0.238
-489.493	-200.000	-0.014	-0.211
-488.478	-72.764	-0.225	-0.083
-487.464	-163.356	0.067	0.003
-486.449	43.908	-0.197	0.180
-485.435	-97.636	-0.244	0.063
-484.420	13.072	-0.148	-0.114
-483.405	55.973	-0.116	-0.112
-482.391	23.883	-0.362	-0.297
-481.376	-69.825	0.372	0.141
-480.362	204.489	0.133	0.205
-479.347	46.432	0.188	-0.173
-478.332	800.000	-0.083	0.231
-477.318	-200.000	-0.002	-0.118
-476.303	-103.740	-0.087	0.020
-475.289	47.430	0.170	-0.158
-474.274	5.985	-0.110	-0.081
-473.259	104.551	0.223	-0.262
-472.245	800.000	0.117	0.485
-471.230	-34.734	-0.009	0.005
-470.216	-200.000	-0.007	-0.116
-469.201	-200.000	-0.037	-0.168
-468.186	73.928	-0.247	0.257
-467.172	310.508	-0.160	-0.298
-466.157	-53.192	-0.422	-0.193
-465.143	-1.780	-0.037	0.026
-464.128	99.772	-0.164	0.189
-463.113	-130.262	0.328	0.044
-462.099	-200.000	-0.013	-0.267
-461.084	182.445	-0.304	-0.446
-460.070	-39.525	0.191	0.100
-459.055	-96.399	0.127	0.033
-458.040	-200.000	-0.038	0.188
-457.026	75.621	-0.038	0.040
-456.011	110.929	0.191	0.228
-454.997	-200.000	0.032	0.138
-453.982	-12.823	-0.153	0.099
-452.968	295.036	0.127	0.230
-451.953	153.769	0.202	0.275
-450.938	-200.000	-0.020	0.150
-449.924	266.174	0.046	-0.080
-448.909	-123.628	-0.108	0.017
-447.895	-135.455	0.381	0.045
-446.880	158.092	-0.125	-0.172
-445.865	76.127	-0.284	0.298
-444.851	-200.000	0.042	-0.268
-443.836	800.000	-0.068	0.211
-442.822	800.000	-0.053	-0.155
-441.807	-200.000	-0.011	-0.172
-440.792	-12.805	0.268	-0.173
-439.778	-200.000	-0.007	0.118
-438.763	-70.362	-0.118	0.044
-437.749	-151.546	-0.194	0.014
-436.734	27.304	0.070	-0.058
-435.719	47.567	0.251	-0.232
-434.705	-131.349	-0.293	0.038
-433.690	-200.000	0.059	-0.490
-432.676	-65.832	-0.082	-0.033
-431.661	-22.561	0.305	0.183
-430.646	127.232	0.094	0.119
-429.632	140.144	0.172	-0.226
-428.617	664.386	-0.161	0.413
-427.603	101.117	0.081	0.093
-426.588	504.967	0.071	-0.163
-425.573	-104.306	0.143	0.033
-424.559	47.585	-0.213	0.197
-423.544	-58.684	0.143	-0.062
-422.530	90.974	-0.115	0.128
-421.515	199.507	0.094	0.144
-420.500	-27.925	-0.184	-0.106
-419.486	-98.369	0.323	0.082
-418.471	135.675	-0.019	-0.025
-417.457	-110.410	0.165	-0.034
-416.442	-80.625	0.074	-0.024
-415.428	-200.000	-0.016	-0.193
-414.413	-183.367	0.192	0.003
-413.398	291.601	0.135	0.243
-412.384	-190.945	0.366	-0.004
-411.369	244.183	-0.069	0.115
-410.355	270.001	-0.081	-0.141
-409.340	28.791	-0.218	-0.183
-408.325	-200.000	0.023	0.224
-407.311	-90.059	0.265	-0.077
-406.296	270.175	-0.152	-0.265
-405.282	-200.000	0.068	-0.482
-404.267	79.227	-0.218	0.232
-403.252	18.431	-0.148	-0.117
-402.238	800.000	0.017	0.067
-401.223	184.131	0.217	0.318
-400.209	800.000	-0.023	0.086
-399.194	-62.501	-0.217	0.089
-398.179	46.949	0.222	-0.205
-397.165	16.085	0.049	-0.039
-396.150	-59.682	-0.372	0.158
-395.136	-200.000	0.009	-0.096
-394.121	-79.056	0.508	0.171
-393.106	125.429	-0.167	-0.209
-392.092	-93.658	-0.220	0.060
-391.077	-178.325	-0.013	0.000
-390.063	130.270	0.058	-0.074
-389.048	-200.000	-0.021	0.127
-388.033	16.900	-0.099	0.078
-387.019	-103.611	0.007	0.002
-386.004	-36.718	0.148	-0.079
-384.990	-15.660	-0.227	-0.143
-383.975	800.000	-0.031	0.124
-382.960	-27.050	0.381	-0.220
-381.946	-200.000	0.022	0.146
-380.931	-81.131	-0.202	0.066
-379.917	740.354	-0.083	-0.222
-378.902	-7.886	0.153	-0.102
-377.888	301.860	-0.007	-0.013
-376.873	30.365	0.162	-0.137
-375.858	84.413	0.174	-0.189
-374.844	800.000	0.038	0.108
-373.829	-200.000	0.048	-0.350
-372.815	44.606	0.185	0.169
-371.800	226.512	0.018	-0.029
-370.785	800.000	0.132	-0.458
-369.771	-200.000	0.025	0.164
-368.756	546.771	-0.100	0.236
-367.742	24.467	-0.222	0.182
-366.727	-51.559	0.035	-0.016
-365.712	201.895	-0.175	0.267
-364.698	-200.000	0.032	0.143
-363.683	-81.823	0.229	-0.074
-362.669	-200.000	-0.102	0.550
-361.654	-47.793	-0.079	-0.038
-360.639	40.294	0.213	0.190
-359.625	-134.863	-0.223	-0.027
-358.610	800.000	0.039	-0.147
-357.596	-26.788	-0.072	-0.042
-356.581	-87.724	0.145	-0.043
-355.566	431.047	-0.077	-0.166
-354.552	800.000	0.074	0.236
-353.537	-67.956	-0.195	0.075
-352.523	-73.672	0.126	-0.045
-351.508	800.000	0.041	0.116
-350.493	800.000	-0.092	0.297
-349.479	-97.851	0.098	0.025
-348.464	-131.821	-0.152	0.020
-347.450	129.719	0.149	-0.188
-346.435	157.124	-0.230	-0.314
-345.420	-59.138	-0.098	0.042
-344.406	-0.198	-0.121	0.085
-343.391	800.000	0.137	0.448
-342.377	197.447	0.079	0.120
-341.362	-8.229	-0.138	0.092
-340.348	-200.000	0.031	-0.361
-339.333	-117.767	-0.264	0.047
-338.318	-200.000	0.288	-0.001
-337.304	163.663	0.022	-0.030
-336.289	-132.104	-0.293	0.038
-335.275	40.315	-0.097	-0.087
-334.260	136.442	0.159	-0.206
-333.245	-120.283	0.533	-0.090
-332.231	-41.315	-0.293	-0.149
-331.216	-74.924	0.095	0.034
-330.202	800.000	0.077	0.310
-329.187	42.270	0.124	0.112
-328.172	-139.416	0.312	-0.033
-327.158	80.116	-0.205	-0.218
-326.143	213.236	0.055	0.086
-325.129	800.000	-0.024	0.097
-324.114	-48.878	-0.144	0.068
-323.099	497.825	-0.082	0.186
-322.085	-132.507	0.313	0.040
-321.070	-159.356	-0.025	0.001
-320.056	24.726	-0.193	-0.158
-319.041	60.261	0.314	-0.308
-318.026	-172.773	0.092	0.003
-317.012	146.319	0.192	-0.255
-315.997	-157.230	-0.166	0.010
-314.983	119.770	-0.049	0.060
-313.968	-139.505	-0.258	0.027
-312.953	-20.457	0.278	0.169
-311.939	-1.148	-0.142	-0.099
-310.924	800.000	0.031	0.100
-309.910	-16.553	-0.103	-0.064
-308.895	49.652	0.189	0.176
-307.880	-20.487	0.255	-0.155
-306.866	-103.034	-0.071	-0.017
-305.851	-133.950	-0.188	0.023
-304.837	101.034	0.116	0.134
-303.822	-95.275	0.125	-0.033
-302.807	-24.052	-0.202	0.119
-301.793	-144.606	-0.121	0.011
-300.778	64.073	0.142	0.141
-299.764	-159.290	-0.364	0.020
-298.749	397.328	0.089	0.183
-297.735	-67.120	-0.238	0.093
-296.720	115.594	0.183	-0.221
-295.705	53.388	0.043	0.041
-294.691	242.908	0.018	-0.031
-293.676	771.665	0.088	0.238
-292.662	-56.408	-0.322	0.141
-291.647	373.605	-0.099	-0.198
-290.632	215.367	-0.071	-0.111
-289.618	640.708	0.015	-0.038
-288.603	800.000	0.086	0.242
-287.589	-77.980	0.004	0.001
-286.574	800.000	0.169	-0.465
-285.559	581.026	-0.074	-0.178
-284.545	-149.064	-0.063	-0.005
-283.530	-124.513	-0.361	-0.055
-282.516	-200.000	0.058	0.259
-281.501	-15.413	0.297	-0.188
-280.486	-57.838	-0.131	-0.056
-279.472	-68.933	0.281	-0.107
-278.457	124.483	-0.068	0.084
-277.443	800.000	0.049	0.168
-276.428	-200.000	-0.021	0.120
-275.413	-62.504	0.081	-0.033
-274.399	-89.039	0.117	-0.034
-273.384	800.000	0.113	-0.321
-272.370	-91.234	0.221	0.062
-271.355	-119.419	0.724	-0.124
-270.340	-200.000	0.018	-0.156
-269.326	723.888	-0.091	0.238
-268.311	368.183	-0.028	0.056
-267.297	-118.226	0.268	0.047
-266.282	85.345	-0.107	-0.116
-265.267	-180.139	-0.243	0.005
-264.253	-200.000	0.057	0.329
-263.238	264.045	0.080	-0.137
-262.224	694.626	0.050	-0.130
-261.209	-200.000	-0.004	-0.183
-260.195	-200.000	-0.020	-0.089
-259.180	0.127	-0.173	-0.122
-258.165	492.998	-0.085	0.191
-257.151	-67.066	0.366	0.142
-256.136	-139.229	-0.202	-0.021
-255.122	-200.000	-0.022	0.279
-254.107	45.719	0.172	0.157
-253.092	-126.495	-0.443	-0.065
-252.078	147.904	-0.162	-0.215
-251.063	88.343	0.212	-0.232
-250.049	800.000	-0.101	-0.324
-249.034	-169.999	-0.114	-0.004
-248.019	-60.515	-0.205	0.086
-247.005	-200.000	0.014	-0.102
-245.990	67.211	0.262	-0.264
-244.976	21.905	0.133	-0.107
-243.961	44.774	0.282	0.256
-242.946	-136.719	-0.185	0.021
-241.932	-6.905	-0.152	0.102
-240.917	-66.422	-0.343	0.134
-239.903	-73.571	-0.118	-0.042
-238.888	-200.000	0.030	-0.224
-237.873	-46.226	-0.152	0.074
-236.859	324.667	-0.131	0.247
-235.844	17.983	-0.263	-0.206
-234.830	-6.384	-0.055	-0.037
-233.815	60.974	0.193	0.189
-232.800	707.855	-0.121	0.314
-231.786	343.899	-0.157	0.303
-230.771	-200.000	-0.002	0.394
-229.757	249.514	-0.079	-0.132
-228.742	322.696	0.103	-0.193
-227.727	-17.944	0.081	-0.050
-226.713	-48.360	0.208	-0.099
-225.698	-200.000	0.048	-0.254
-224.684	-200.000	0.004	-0.416
-223.669	-35.449	0.126	0.067
-222.655	312.446	0.133	0.246
-221.640	25.454	-0.070	0.057
-220.625	-200.000	0.038	-0.362
-219.611	-115.288	0.343	-0.064
-218.596	130.190	-0.252	0.318
-217.582	88.752	-0.105	0.115
-216.567	-56.234	0.405	0.177
-215.552	-200.000	0.012	0.411
-214.538	450.482	-0.155	-0.337
-213.523	-200.000	0.004	0.081
-212.509	800.000	0.113	0.361
-211.494	-200.000	0.011	0.061
-210.479	555.213	-0.033	-0.077
-209.465	285.457	0.115	-0.204
-208.450	-104.374	-0.125	0.028
-207.436	52.942	-0.089	-0.084
-206.421	-200.000	-0.054	-0.293
-205.406	-200.000	-0.169	-0.001
-204.392	-200.000	-0.068	0.329
-203.377	-61.893	0.074	0.031
-202.363	-55.827	0.228	0.100
-201.348	129.115	0.201	-0.252
-200.333	702.413	0.055	0.143
-199.319	299.258	-0.031	-0.056
-198.304	77.345	0.158	0.165
-197.290	800.000	0.045	0.128
-196.275	-80.218	0.386	0.127
-195.260	-123.575	-0.279	0.044
-194.246	-153.394	0.156	-0.011
-193.231	147.133	-0.102	0.134
-192.217	-105.288	0.246	-0.055
-191.202	-72.619	-0.270	0.098
-190.187	800.000	0.018	-0.072
-189.173	800.000	-0.051	0.211
-188.158	596.085	-0.053	0.128
-187.144	91.557	0.165	0.182
-186.129	-103.024	-0.122	0.028
-185.114	-3.866	-0.099	0.067
-184.100	-82.704	0.328	-0.104
-183.085	800.000	0.124	0.422
-182.071	-180.310	0.346	-0.007
-181.056	-144.141	-0.157	-0.014
-180.042	74.342	0.110	0.113
-179.027	749.919	0.026	-0.068
-178.012	-32.811	-0.251	0.137
-176.998	69.925	-0.090	0.092
-175.983	800.000	0.089	-0.244
-174.969	282.253	0.114	0.201
-173.954	-115.637	-0.266	-0.049
-172.939	-75.614	-0.112	-0.039
-171.925	-200.000	0.002	0.245
-170.910	300.608	0.060	-0.108
-169.896	541.446	0.091	0.212
-168.881	128.266	0.108	-0.135
-167.866	-200.000	0.018	-0.240
-166.852	-200.000	-0.027	-0.131
-165.837	-133.322	-0.350	0.043
-164.823	361.386	-0.109	0.214
-163.808	-141.410	0.121	-0.012
-162.793	798.614	0.038	-0.104
-161.779	83.292	-0.143	0.153
-160.764	601.526	-0.166	-0.406
-159.750	-46.207	-0.073	0.035
-158.735	-146.377	0.077	-0.007
-157.720	110.458	-0.292	0.345
-156.706	-131.099	0.166	-0.022
-155.691	-107.014	-0.062	0.014
-154.677	155.572	0.172	-0.233
-153.662	-90.756	-0.039	0.011
-152.647	800.000	0.029	0.119
-151.633	-123.027	-0.281	-0.044
-150.618	-88.162	0.086	0.025
-149.604	612.557	0.143	0.351
-148.589	-52.019	0.173	-0.079
-147.574	386.999	0.060	-0.121
-146.560	-66.819	-0.142	0.055
-145.545	-51.401	-0.156	0.072
-144.531	-94.369	-0.061	0.016
-143.516	321.707	-0.098	-0.183
-142.502	262.169	-0.150	-0.256
-141.487	61.059	0.202	0.197
-140.472	9.431	-0.207	-0.154
-139.458	212.861	-0.121	-0.187
-138.443	-14.463	-0.158	0.100
-137.429	-123.156	0.088	-0.014
-136.414	125.769	0.080	-0.099
-135.399	49.636	0.224	-0.207
-134.385	-75.490	0.286	-0.100
-133.370	22.080	-0.196	-0.157
-132.356	-169.374	0.299	-0.011
-131.341	-88.612	-0.107	-0.031
-130.326	35.704	0.104	0.090
-129.312	800.000	-0.049	0.143
-128.297	-59.092	0.345	0.146
-127.283	-118.432	0.023	0.004
-126.268	384.870	0.092	-0.187
-125.253	-113.250	-0.187	-0.036
-124.239	204.690	-0.058	-0.088
-123.224	-103.077	-0.215	0.050
-122.210	-56.290	0.225	0.098
-121.195	139.079	-0.050	-0.064
