DTS Sentinel unit serial number:	SN413079Multiplexer serial number:	ORYXHardware model number:	OX4-SRSoftware version number:	ORYX F/W v4.00 Oryx Data Collector v3.7.2.0data status	okinstallation	princeton_trtdifferential loss correction	single-endedforward channel	channel 1reverse channel	N/Adate	2019/09/17time	08:22:35forward acquisition time	60.00reverse acquisition time	0.00gamma	496.2192k internal	0.2329k external	0.2329temperature offset calibration	0.9965default loss term (dB/km)	0.3790temperature slope calibration	1.0000multiplexer offset coefficient	1.0000multiplexer slope coefficient	1.0000fibre end	0.00T internal ref (°C)	27.48T ext. ref 1 (°C)	0.13T ext. ref 2 (°C)	22.90length (m)	temperature (°C)	Stokes	anti-Stokes-747.200	11.957	-0.162	0.125
-746.185	-94.145	-0.136	-0.037
-745.171	119.124	-0.051	-0.064
-744.156	-24.315	0.313	0.188
-743.142	-63.703	0.192	-0.079
-742.127	21.651	0.186	0.153
-741.112	51.524	-0.121	0.116
-740.098	3.265	-0.188	0.138
-739.083	60.024	-0.275	-0.273
-738.069	-200.000	0.041	0.182
-737.054	-56.165	-0.141	0.063
-736.039	-200.000	-0.020	-0.176
-735.025	-83.039	-0.193	-0.063
-734.010	296.073	-0.237	-0.438
-732.996	148.452	-0.271	0.368
-731.981	-115.955	0.149	0.028
-730.966	26.572	0.161	0.135
-729.952	-86.247	0.192	0.060
-728.937	157.127	-0.172	-0.240
-727.923	385.200	0.025	-0.051
-726.908	-24.894	-0.214	0.128
-725.894	-107.833	0.291	0.064
-724.879	-200.000	-0.125	-0.642
-723.864	622.747	0.111	-0.281
-722.850	-18.546	0.069	0.043
-721.835	-26.820	-0.277	-0.163
-720.821	800.000	0.021	-0.074
-719.806	99.242	0.133	-0.154
-718.791	-189.781	-0.227	-0.003
-717.777	800.000	-0.054	0.197
-716.762	198.115	0.114	0.176
-715.748	234.510	-0.027	0.045
-714.733	441.894	0.050	0.110
-713.718	88.306	-0.162	-0.181
-712.704	-57.835	-0.253	-0.111
-711.689	-90.500	0.169	-0.049
-710.675	436.441	0.071	0.156
-709.660	24.237	-0.144	0.120
-708.645	-100.760	0.370	0.092
-707.631	-200.000	-0.017	0.202
-706.616	239.393	0.099	-0.166
-705.602	-134.506	0.494	0.061
-704.587	-113.798	-0.033	-0.006
-703.572	800.000	-0.108	-0.414
-702.558	163.115	-0.182	0.257
-701.543	-122.533	0.088	0.014
-700.529	800.000	-0.123	-0.353
-699.514	-76.454	-0.164	-0.058
-698.499	136.547	-0.132	0.174
-697.485	321.428	0.018	0.035
-696.470	-200.000	0.029	-0.258
-695.456	489.633	-0.094	0.215
-694.441	64.562	-0.067	-0.068
-693.426	-123.585	-0.017	0.003
-692.412	328.814	0.069	0.134
-691.397	510.157	0.095	-0.222
-690.383	800.000	0.031	-0.115
-689.368	-124.034	-0.332	0.052
-688.354	-149.686	-0.313	-0.025
-687.339	-77.980	0.122	-0.042
-686.324	27.363	0.015	-0.013
-685.310	-105.027	-0.134	-0.031
-684.295	82.394	-0.133	-0.145
-683.281	-200.000	-0.032	-0.335
-682.266	-200.000	-0.076	-0.480
-681.251	-200.000	0.001	0.113
-680.237	41.467	-0.169	-0.153
-679.222	-74.068	0.263	-0.096
-678.208	-49.557	-0.226	-0.108
-677.193	-43.661	0.409	-0.207
-676.178	24.529	-0.220	-0.183
-675.164	-129.397	-0.146	-0.020
-674.149	-83.088	0.150	-0.049
-673.135	5.998	-0.102	-0.076
-672.120	383.487	-0.097	-0.200
-671.105	64.773	0.174	-0.177
-670.091	800.000	-0.086	0.242
-669.076	-87.838	-0.031	-0.009
-668.062	315.764	-0.190	0.360
-667.047	800.000	0.024	0.091
-666.032	-200.000	0.010	-0.264
-665.018	10.711	-0.175	0.134
-664.003	259.822	0.204	0.355
-662.989	-200.000	-0.008	0.370
-661.974	118.176	0.140	0.174
-660.959	-30.011	0.206	0.118
-659.945	-200.000	-0.046	-0.258
-658.930	-0.507	-0.224	0.160
-657.916	624.705	0.062	-0.156
-656.901	45.081	0.187	0.173
-655.886	-25.547	0.186	0.110
-654.872	382.326	0.093	-0.192
-653.857	147.394	-0.206	-0.279
-652.843	-178.599	0.166	0.004
-651.828	-122.113	-0.127	0.021
-650.814	78.631	-0.106	0.114
-649.799	189.419	0.021	-0.031
-648.784	35.746	0.089	0.078
-647.770	90.074	-0.241	0.270
-646.755	800.000	-0.095	-0.376
-645.741	209.246	0.042	-0.065
-644.726	18.458	-0.285	0.228
-643.711	40.105	0.147	0.133
-642.697	789.133	0.065	0.178
-641.682	409.076	0.047	0.100
-640.668	-29.724	-0.152	-0.087
-639.653	72.089	-0.088	-0.092
-638.638	-200.000	0.052	0.295
-637.624	-57.741	0.116	0.051
-636.609	239.569	0.091	0.152
-635.595	-178.102	0.303	0.007
-634.580	282.575	0.051	0.092
-633.565	800.000	0.065	0.282
-632.551	8.180	-0.194	-0.146
-631.536	-90.434	-0.210	0.061
-630.522	18.538	-0.181	0.145
-629.507	23.404	-0.100	-0.082
-628.492	-84.244	-0.261	0.083
-627.478	800.000	-0.051	0.146
-626.463	-79.144	0.203	0.069
-625.449	-113.430	-0.313	0.062
-624.434	-93.071	0.460	0.128
-623.419	157.953	-0.095	0.132
-622.405	-200.000	0.006	-0.094
-621.390	73.088	0.269	0.282
-620.376	1.328	-0.146	0.105
-619.361	751.810	0.082	-0.223
-618.346	-200.000	0.020	0.301
-617.332	323.748	-0.123	0.235
-616.317	92.243	-0.147	-0.167
-615.303	-97.131	0.128	-0.034
-614.288	607.299	0.157	-0.391
-613.273	800.000	0.074	-0.210
-612.259	-111.367	0.200	-0.041
-611.244	-107.070	-0.123	-0.027
-610.230	-200.000	-0.011	-0.133
-609.215	484.541	-0.045	-0.103
-608.201	-200.000	-0.012	-0.278
-607.186	-200.000	-0.009	-0.172
-606.171	4.548	0.070	0.051
-605.157	258.655	-0.138	-0.239
-604.142	29.399	-0.196	0.167
-603.128	18.884	0.083	-0.066
-602.113	-135.119	0.082	-0.010
-601.098	-172.306	-0.397	0.013
-600.084	45.737	-0.145	-0.135
-599.069	-153.790	-0.131	-0.009
-598.055	-33.595	0.374	-0.207
-597.040	800.000	-0.111	0.361
-596.025	-200.000	-0.010	0.043
-595.011	-200.000	0.042	-0.369
-593.996	39.446	-0.174	-0.156
-592.982	-42.491	0.152	-0.078
-591.967	-102.340	0.165	-0.040
-590.952	-145.430	-0.162	0.015
-589.938	-200.000	0.101	0.452
-588.923	82.138	0.106	0.115
-587.909	-36.619	0.031	-0.017
-586.894	353.059	-0.142	-0.282
-585.879	-200.000	0.010	-0.268
-584.865	-53.839	-0.170	-0.077
-583.850	356.642	-0.180	-0.360
-582.836	-108.382	0.296	0.064
-581.821	337.097	-0.171	-0.332
-580.806	-200.000	0.009	-0.069
-579.792	-200.000	0.065	-0.342
-578.777	-200.000	-0.068	-0.490
-577.763	37.028	-0.182	0.161
-576.748	107.279	-0.216	-0.257
-575.733	535.841	0.115	-0.273
-574.719	-200.000	-0.007	0.246
-573.704	56.777	-0.107	-0.105
-572.690	34.009	0.145	0.126
-571.675	800.000	-0.106	0.360
-570.661	124.669	0.166	-0.209
-569.646	-83.991	-0.060	0.019
-568.631	-200.000	-0.108	0.494
-567.617	800.000	0.067	-0.240
-566.602	-59.004	-0.194	0.084
-565.588	-19.626	0.097	-0.060
-564.573	-59.169	0.284	-0.123
-563.558	-110.823	-0.461	-0.095
-562.544	-200.000	0.016	0.163
-561.529	-20.093	0.103	-0.064
-560.515	101.983	-0.182	-0.212
-559.500	21.128	0.114	-0.093
-558.485	-0.340	-0.151	-0.108
-557.471	0.479	0.128	-0.092
-556.456	-2.054	-0.190	0.133
-555.442	183.337	0.035	-0.051
-554.427	-19.206	0.118	0.073
-553.412	10.349	-0.040	0.031
-552.398	-53.108	-0.290	-0.133
-551.383	800.000	0.044	-0.167
-550.369	-178.482	-0.241	-0.006
-549.354	208.546	-0.058	0.090
-548.339	-200.000	-0.010	0.288
-547.325	723.589	0.023	0.061
-546.310	-200.000	-0.017	-0.407
-545.296	-14.405	-0.410	-0.264
-544.281	800.000	0.084	-0.295
-543.266	-139.248	-0.127	0.014
-542.252	52.283	0.118	-0.112
-541.237	-85.879	0.055	-0.017
-540.223	376.865	0.056	-0.113
-539.208	800.000	0.129	-0.443
-538.193	57.848	-0.240	-0.234
-537.179	416.268	0.055	-0.117
-536.164	-24.215	0.080	0.048
-535.150	-200.000	-0.036	0.648
-534.135	800.000	0.025	-0.079
-533.121	643.494	0.069	-0.175
-532.106	-200.000	0.008	-0.146
-531.091	-45.758	-0.394	-0.194
-530.077	-200.000	-0.017	0.240
-529.062	-146.190	0.148	0.013
-528.048	-56.277	0.196	0.087
-527.033	-123.689	0.196	-0.031
-526.018	-113.012	-0.100	-0.020
-525.004	-200.000	0.072	0.511
-523.989	319.862	0.045	0.085
-522.975	-138.504	-0.333	-0.037
-521.960	405.376	-0.202	-0.425
-520.945	-4.182	-0.096	-0.066
-519.931	569.047	0.164	0.398
-518.916	-53.507	0.439	0.201
-517.902	800.000	-0.108	-0.408
-516.887	187.702	-0.185	0.275
-515.872	-25.902	-0.201	0.118
-514.858	59.755	-0.056	-0.055
-513.843	-4.008	0.199	-0.138
-512.829	-125.759	0.080	0.012
-511.814	-200.000	0.023	-0.183
-510.799	188.003	0.113	0.168
-509.785	-86.651	0.142	-0.043
-508.770	-200.000	0.023	0.229
-507.756	176.089	-0.079	0.115
-506.741	735.089	-0.057	0.154
-505.726	172.960	-0.086	0.124
-504.712	129.188	-0.170	-0.217
-503.697	800.000	-0.046	0.162
-502.683	112.886	0.245	0.296
-501.668	122.822	-0.145	0.181
-500.653	391.107	0.112	-0.231
-499.639	-200.000	0.004	-0.356
-498.624	-200.000	-0.004	-0.254
-497.610	-84.992	-0.222	-0.069
-496.595	-200.000	0.014	-0.157
-495.581	54.847	0.048	-0.047
-494.566	-28.567	0.348	0.200
-493.551	-175.238	-0.424	-0.012
-492.537	18.609	0.113	0.090
-491.522	131.242	-0.076	0.098
-490.508	19.533	0.141	0.113
-489.493	451.433	0.093	0.205
-488.478	555.338	-0.121	0.291
-487.464	800.000	0.077	-0.269
-486.449	-181.442	0.173	0.003
-485.435	-67.832	0.046	0.018
-484.420	-155.850	0.116	0.007
-483.405	473.564	-0.065	0.145
-482.391	331.584	-0.143	-0.276
-481.376	-200.000	-0.015	-0.147
-480.362	-4.597	0.050	-0.034
-479.347	-95.343	-0.257	0.069
-478.332	79.997	-0.058	0.062
-477.318	-64.268	-0.113	-0.046
-476.303	-200.000	-0.000	-0.152
-475.289	722.679	0.009	-0.024
-474.274	-18.168	0.091	-0.057
-473.259	-29.974	-0.407	0.231
-472.245	-143.822	-0.314	-0.030
-471.230	393.446	0.023	-0.047
-470.216	800.000	-0.073	0.208
-469.201	-200.000	0.007	-0.059
-468.186	32.088	-0.245	-0.211
-467.172	-12.451	0.072	0.047
-466.157	-94.836	-0.285	0.077
-465.143	800.000	0.051	0.218
-464.128	204.912	-0.147	0.227
-463.113	-105.512	-0.274	-0.062
-462.099	82.492	-0.228	-0.247
-461.084	65.916	0.099	0.100
-460.070	-200.000	-0.007	0.042
-459.055	315.943	0.018	-0.034
-458.040	800.000	0.073	0.296
-457.026	-200.000	0.016	0.141
-456.011	10.262	-0.292	0.221
-454.997	-200.000	-0.006	-0.088
-453.982	65.983	0.007	0.007
-452.968	-118.340	0.244	0.043
-451.953	-35.151	-0.239	-0.130
-450.938	-13.767	0.112	-0.072
-449.924	245.782	-0.252	0.423
-448.909	-101.825	-0.206	-0.050
-447.895	-178.295	0.282	-0.007
-446.880	-36.004	0.249	0.134
-445.865	557.712	-0.080	-0.193
-444.851	-200.000	-0.032	-0.171
-443.836	369.239	-0.068	-0.137
-442.822	45.715	-0.033	-0.031
-441.807	57.114	-0.127	0.123
-440.792	-21.585	0.270	0.164
-439.778	-27.670	0.335	-0.194
-438.763	-138.558	0.236	0.026
-437.749	800.000	-0.019	-0.068
-436.734	-200.000	-0.017	0.088
-435.719	-85.729	-0.084	0.026
-434.705	-200.000	-0.025	0.230
-433.690	72.458	-0.101	-0.105
-432.676	68.772	-0.221	0.226
-431.661	256.198	0.138	-0.235
-430.646	800.000	-0.054	-0.194
-429.632	28.955	-0.150	0.127
-428.617	132.693	-0.059	-0.075
-427.603	-200.000	-0.014	0.227
-426.588	-118.635	-0.164	-0.029
-425.573	189.645	0.106	-0.158
-424.559	-12.870	-0.292	0.189
-423.544	-180.857	0.178	-0.004
-422.530	-35.719	0.143	-0.077
-421.515	-93.917	0.268	-0.073
-420.500	55.489	-0.312	-0.300
-419.486	746.292	0.071	-0.192
-418.471	211.248	0.084	-0.132
-417.457	800.000	0.108	0.314
-416.442	148.094	-0.100	0.134
-415.428	-43.288	-0.280	0.141
-414.413	800.000	0.084	0.305
-413.398	-124.010	0.364	-0.057
-412.384	-11.041	-0.226	-0.148
-411.369	-200.000	0.019	0.112
-410.355	-130.994	0.059	-0.008
-409.340	-55.910	0.095	0.042
-408.325	-130.065	0.209	0.028
-407.311	103.692	-0.301	-0.352
-406.296	800.000	0.098	-0.289
-405.282	-200.000	0.014	-0.080
-404.267	-70.745	-0.185	0.070
-403.252	115.921	-0.204	-0.248
-402.238	156.457	-0.120	-0.165
-401.223	-191.740	0.185	-0.002
-400.209	4.214	0.289	0.211
-399.194	29.916	0.258	0.218
-398.179	-175.798	0.304	0.008
-397.165	-200.000	-0.011	0.514
-396.150	-162.654	0.370	-0.018
-395.136	-200.000	-0.007	0.172
-394.121	-200.000	-0.031	-0.216
-393.106	-81.579	0.160	0.052
-392.092	-200.000	-0.008	0.065
-391.077	265.429	0.036	0.062
-390.063	-86.233	-0.133	0.041
-389.048	90.495	-0.032	0.035
-388.033	-69.957	0.291	-0.110
-387.019	385.314	-0.060	-0.124
-386.004	-81.585	0.200	-0.065
-384.990	800.000	-0.045	0.132
-383.975	319.708	0.116	0.218
-382.960	-200.000	0.037	-0.293
-381.946	-47.368	0.087	0.042
-380.931	26.246	-0.111	0.092
-379.917	-62.799	0.135	0.055
-378.902	294.969	0.104	0.188
-377.888	-55.035	0.308	0.138
-376.873	244.478	-0.067	-0.111
-375.858	-58.305	-0.180	0.078
-374.844	-47.037	0.164	0.079
-373.829	800.000	-0.035	-0.098
-372.815	-180.614	0.253	0.005
-371.800	-65.858	-0.255	-0.101
-370.785	333.575	-0.069	-0.133
-369.771	-110.673	0.248	-0.051
-368.756	191.766	0.337	-0.504
-367.742	-38.706	0.353	-0.185
-366.727	-31.779	-0.188	-0.105
-365.712	800.000	0.092	0.317
-364.698	-17.853	0.365	0.227
-363.683	800.000	0.059	-0.206
-362.669	-200.000	0.007	-0.055
-361.654	800.000	-0.021	0.087
-360.639	754.622	-0.181	-0.487
-359.625	724.648	0.039	0.103
-358.610	-15.438	-0.213	0.135
-357.596	-73.237	0.254	0.092
-356.581	800.000	0.140	0.479
-355.566	-200.000	0.033	-0.550
-354.552	-125.584	0.423	0.064
-353.537	134.166	0.242	0.311
-352.523	-152.257	-0.276	-0.020
-351.508	800.000	0.105	0.438
-350.493	78.434	-0.167	0.177
-349.479	-92.055	-0.077	0.022
-348.464	-200.000	0.020	0.093
-347.450	-200.000	-0.015	0.092
-346.435	-117.176	-0.346	0.063
-345.420	140.872	-0.072	-0.095
-344.406	-61.932	-0.145	-0.060
-343.391	-88.587	-0.253	-0.075
-342.377	82.782	-0.131	-0.141
-341.362	492.440	0.036	-0.081
-340.348	589.401	0.073	-0.179
-339.333	131.550	-0.102	-0.130
-338.318	523.478	-0.058	0.136
-337.304	-102.926	-0.075	0.018
-336.289	-200.000	0.000	-0.329
-335.275	-8.315	0.049	-0.032
-334.260	-169.344	-0.172	-0.006
-333.245	242.800	0.113	0.187
-332.231	-200.000	0.022	0.180
-331.216	-42.620	-0.169	0.085
-330.202	-200.000	0.047	0.240
-329.187	277.101	-0.096	0.169
-328.172	800.000	0.048	-0.191
-327.158	48.998	0.157	-0.146
-326.143	-200.000	-0.023	-0.339
-325.129	800.000	-0.120	0.341
-324.114	-86.949	0.498	0.150
-323.099	-26.478	-0.117	0.068
-322.085	209.860	0.057	0.089
-321.070	-107.432	0.147	0.032
-320.056	800.000	0.122	-0.377
-319.041	-88.035	0.370	0.110
-318.026	800.000	-0.153	-0.484
-317.012	-140.488	0.112	0.012
-315.997	-164.820	-0.091	-0.004
-314.983	-116.771	0.344	0.062
-313.968	-65.752	-0.110	-0.044
-312.953	76.394	0.123	0.129
-311.939	38.057	-0.182	0.161
-310.924	-191.717	0.068	0.001
-309.910	67.916	0.120	0.122
-308.895	-200.000	0.015	0.403
-307.880	-166.995	-0.093	-0.004
-306.866	-167.629	0.047	0.002
-305.851	-74.225	-0.157	0.056
-304.837	149.808	-0.171	0.230
-303.822	106.774	-0.211	0.248
-302.807	-47.074	0.232	-0.112
-301.793	54.137	0.058	0.055
-300.778	-9.581	0.226	-0.149
-299.764	-145.807	0.473	0.042
-298.749	-144.623	-0.159	0.014
-297.735	-200.000	0.010	0.160
-296.720	448.821	-0.055	0.121
-295.705	-71.978	-0.236	0.087
-294.691	412.253	-0.143	-0.301
-293.676	122.618	0.071	0.088
-292.662	5.808	0.369	0.270
-291.647	50.352	0.212	-0.198
-290.632	-96.898	-0.149	-0.039
-289.618	-200.000	-0.024	0.361
-288.603	-23.821	-0.139	0.083
-287.589	94.434	-0.320	0.359
-286.574	111.648	-0.198	0.236
-285.559	-144.325	-0.341	-0.031
-284.545	21.224	0.199	0.160
-283.530	68.967	0.090	-0.091
-282.516	46.887	0.263	-0.241
-281.501	67.111	0.070	-0.070
-280.486	-200.000	0.043	0.325
-279.472	-20.009	0.069	0.042
-278.457	4.291	-0.220	-0.159
-277.443	-38.527	0.264	-0.138
-276.428	-66.364	-0.133	-0.052
-275.413	-69.668	0.271	0.103
-274.399	-200.000	0.024	0.114
-273.384	-85.071	0.279	0.086
-272.370	800.000	0.037	0.103
-271.355	4.024	0.325	-0.235
-270.340	-200.000	-0.030	-0.178
-269.326	284.855	-0.053	0.094
-268.311	174.833	-0.140	-0.201
-267.297	13.006	0.112	-0.086
-266.282	-164.738	0.058	-0.003
-265.267	-0.565	-0.194	0.136
-264.253	223.036	-0.033	-0.053
-263.238	-22.229	0.232	-0.139
-262.224	-66.754	0.155	-0.061
-261.209	-52.055	-0.255	-0.117
-260.195	-8.142	-0.135	-0.090
-259.180	800.000	-0.132	0.432
-258.165	-33.846	-0.383	-0.209
-257.151	45.001	0.289	0.263
-256.136	-90.234	-0.132	-0.038
-255.122	316.112	-0.059	0.110
-254.107	165.689	0.170	0.237
-253.092	555.895	0.086	-0.204
-252.078	400.871	-0.133	0.275
-251.063	-34.559	-0.228	-0.123
-250.049	131.769	0.210	-0.267
-249.034	-58.273	0.259	0.111
-248.019	800.000	-0.057	-0.204
-247.005	-115.148	0.210	-0.039
-245.990	253.664	-0.178	0.300
-244.976	165.441	-0.056	-0.078
-243.961	-200.000	-0.044	-0.415
-242.946	-4.049	0.090	0.062
-241.932	-191.488	0.127	0.001
-240.917	111.928	-0.124	-0.147
-239.903	-76.455	0.139	-0.048
-238.888	-121.150	0.106	0.017
-237.873	276.127	-0.003	0.005
-236.859	-55.633	0.152	-0.067
-235.844	-110.836	0.315	0.064
-234.830	-200.000	0.050	0.262
-233.815	85.827	0.128	-0.139
-232.800	167.191	0.121	0.169
-231.786	174.783	-0.151	0.215
-230.771	309.518	0.029	-0.054
-229.757	-200.000	0.066	-0.588
-228.742	73.767	0.092	0.095
-227.727	92.447	-0.032	-0.035
-226.713	-200.000	-0.013	-0.248
-225.698	-108.608	-0.214	-0.045
-224.684	-200.000	-0.043	-0.266
-223.669	378.306	-0.022	-0.044
-222.655	-39.971	-0.108	-0.056
-221.640	-200.000	0.016	0.459
-220.625	399.249	0.067	-0.140
-219.611	33.283	0.144	0.123
-218.596	434.556	0.057	0.121
-217.582	-190.404	-0.450	-0.005
-216.567	800.000	-0.018	-0.070
-215.552	800.000	-0.091	-0.281
-214.538	-200.000	-0.031	0.183
-213.523	269.570	-0.107	0.185
-212.509	129.603	-0.249	0.314
-211.494	-102.928	-0.376	-0.088
-210.479	800.000	-0.057	0.180
-209.465	-153.687	-0.087	-0.006
-208.450	98.546	0.266	0.303
-207.436	-200.000	-0.004	-0.078
-206.421	2.120	-0.133	0.095
-205.406	-89.966	0.253	0.073
-204.392	-200.000	0.035	-0.323
-203.377	-102.790	-0.143	0.033
-202.363	-200.000	-0.023	-0.300
-201.348	752.398	0.167	-0.444
-200.333	46.386	0.087	-0.080
-199.319	95.496	-0.154	0.173
-198.304	-148.553	-0.094	0.008
-197.290	-102.584	0.058	-0.014
-196.275	-136.376	-0.158	-0.018
-195.260	1.106	0.149	0.106
-194.246	-200.000	0.035	-0.198
-193.231	-19.068	0.179	-0.110
-192.217	47.473	-0.219	-0.201
-191.202	800.000	-0.080	-0.226
-190.187	193.242	0.192	-0.286
-189.173	314.369	0.114	0.212
-188.158	-155.588	-0.087	-0.006
-187.144	800.000	0.070	0.197
-186.129	286.149	-0.073	0.131
-185.114	-60.524	0.235	0.098
-184.100	60.094	0.210	0.204
-183.085	0.595	0.112	-0.079
-182.071	91.436	-0.069	0.077
-181.056	-92.527	0.181	0.050
-180.042	800.000	0.030	-0.119
-179.027	74.641	-0.228	0.236
-178.012	-135.904	-0.267	0.031
-176.998	626.883	-0.065	0.160
-175.983	-67.613	0.229	-0.089
-174.969	-70.482	-0.532	-0.199
-173.954	-133.727	-0.256	0.031
-172.939	89.530	0.340	-0.373
-171.925	-200.000	0.001	0.069
-170.910	67.257	0.091	0.092
-169.896	149.571	-0.190	-0.253
-168.881	-200.000	0.023	0.154
-167.866	-84.540	-0.042	0.013
-166.852	37.848	0.139	-0.122
-165.837	89.312	-0.127	-0.140
-164.823	-115.036	-0.189	0.035
-163.808	794.848	-0.135	0.366
-162.793	311.463	0.105	-0.194
-161.779	-80.711	-0.292	-0.096
-160.764	-1.982	0.102	-0.070
-159.750	53.364	0.377	0.355
-158.735	-53.463	0.202	0.091
-157.720	-12.932	0.285	0.183
-156.706	-42.199	-0.387	0.195
-155.691	800.000	-0.060	-0.246
-154.677	-200.000	0.019	-0.192
-153.662	800.000	-0.078	-0.235
-152.647	-108.936	0.394	-0.083
-151.633	-200.000	0.005	0.333
-150.618	24.400	-0.074	-0.060
-149.604	222.675	-0.140	0.222
-148.589	-7.367	-0.122	-0.082
-147.574	800.000	0.029	0.099
-146.560	-92.679	-0.249	0.069
-145.545	-200.000	0.019	-0.368
-144.531	779.275	0.028	-0.075
-143.516	104.728	0.152	0.176
-142.502	37.131	0.175	-0.153
-141.487	800.000	0.064	0.223
-140.472	-200.000	-0.016	-0.206
-139.458	6.043	-0.322	-0.235
-138.443	-121.951	0.355	-0.057
-137.429	485.799	-0.019	0.042
-136.414	-26.036	0.308	0.178
-135.399	117.024	-0.144	-0.174
-134.385	-100.046	-0.303	-0.074
-133.370	-200.000	-0.030	0.152
-132.356	-6.308	0.267	0.179
-131.341	-200.000	-0.034	0.198
-130.326	70.764	-0.092	-0.094
-129.312	-199.321	-0.206	-0.001
-128.297	242.320	-0.171	0.282
-127.283	-119.745	-0.208	0.035
-126.268	93.294	0.008	-0.009
-125.253	800.000	0.100	-0.403
-124.239	-65.657	-0.357	-0.141
-123.224	179.035	0.031	0.045
-122.210	-51.638	-0.275	0.126
-121.195	48.955	-0.025	0.023
-120.180	-100.388	-0.343	0.084
