DTS Sentinel unit serial number:	SN413079Multiplexer serial number:	ORYXHardware model number:	OX4-SRSoftware version number:	ORYX F/W v4.00 Oryx Data Collector v3.7.2.0data status	okinstallation	princeton_trtdifferential loss correction	single-endedforward channel	channel 1reverse channel	N/Adate	2019/09/16time	10:42:35forward acquisition time	60.00reverse acquisition time	0.00gamma	496.2192k internal	0.2302k external	0.2302temperature offset calibration	0.9965default loss term (dB/km)	0.3790temperature slope calibration	1.0000multiplexer offset coefficient	1.0000multiplexer slope coefficient	1.0000fibre end	0.00T internal ref (°C)	35.95T ext. ref 1 (°C)	12.65T ext. ref 2 (°C)	34.13length (m)	temperature (°C)	Stokes	anti-Stokes-747.200	-145.093	-0.192	-0.018
-746.185	-200.000	0.003	0.320
-745.171	99.366	-0.359	0.423
-744.156	800.000	0.093	-0.280
-743.142	362.099	0.113	-0.230
-742.127	437.357	0.144	0.320
-741.112	72.946	0.142	-0.152
-740.098	90.814	-0.351	-0.400
-739.083	-103.592	0.326	-0.078
-738.069	-200.000	0.003	-0.055
-737.054	-200.000	-0.021	-0.262
-736.039	-118.237	-0.312	-0.057
-735.025	9.053	0.327	0.252
-734.010	-200.000	0.009	-0.058
-732.996	691.051	-0.062	0.164
-731.981	116.517	0.119	0.149
-730.966	45.634	-0.187	-0.176
-729.952	41.595	-0.235	-0.217
-728.937	-200.000	-0.004	0.023
-727.923	800.000	-0.058	0.198
-726.908	142.926	-0.061	-0.083
-725.894	800.000	-0.075	-0.243
-724.879	-183.428	-0.242	-0.004
-723.864	800.000	-0.007	-0.031
-722.850	72.800	-0.155	-0.165
-721.835	259.983	0.085	0.149
-720.821	129.943	-0.191	-0.249
-719.806	-116.611	-0.117	0.022
-718.791	65.378	-0.118	-0.122
-717.777	-143.487	-0.168	-0.016
-716.762	-200.000	0.024	0.121
-715.748	44.270	-0.282	0.263
-714.733	214.692	0.126	0.203
-713.718	103.800	0.043	0.051
-712.704	-144.029	-0.219	0.021
-711.689	10.716	0.245	-0.191
-710.675	-57.727	0.126	-0.056
-709.660	-137.207	-0.247	-0.029
-708.645	-200.000	0.032	0.267
-707.631	-50.064	-0.169	-0.082
-706.616	-94.029	-0.192	0.054
-705.602	-120.782	0.032	0.005
-704.587	376.095	0.063	0.130
-703.572	-22.755	-0.109	0.067
-702.558	-124.461	-0.138	-0.022
-701.543	204.947	0.281	-0.444
-700.529	-53.761	-0.209	-0.097
-699.514	-200.000	0.008	-0.049
-698.499	-200.000	-0.045	0.219
-697.485	-200.000	-0.003	0.037
-696.470	800.000	0.033	-0.100
-695.456	-200.000	-0.238	0.001
-694.441	-139.952	-0.217	0.023
-693.426	735.899	-0.047	-0.128
-692.412	-200.000	0.022	-0.429
-691.397	-3.765	-0.279	0.197
-690.383	227.403	-0.108	0.178
-689.368	-7.755	0.255	-0.175
-688.354	70.684	-0.264	-0.277
-687.339	-169.637	-0.241	0.009
-686.324	50.683	0.154	0.148
-685.310	161.883	0.268	0.381
-684.295	234.085	-0.052	-0.087
-683.281	518.606	-0.054	-0.129
-682.266	-200.000	0.005	-0.181
-681.251	800.000	-0.077	-0.241
-680.237	213.957	-0.078	0.126
-679.222	-131.585	-0.262	0.035
-678.208	162.883	-0.175	0.250
-677.193	-9.938	0.340	-0.230
-676.178	283.651	-0.041	0.075
-675.164	-126.353	-0.096	-0.015
-674.149	504.472	0.045	-0.106
-673.135	-40.999	0.131	-0.069
-672.120	-166.910	0.293	0.012
-671.105	-31.486	0.208	-0.119
-670.091	-200.000	-0.004	0.383
-669.076	800.000	0.144	-0.409
-668.062	6.482	-0.209	0.158
-667.047	387.033	0.062	-0.130
-666.032	800.000	-0.138	-0.403
-665.018	-106.779	0.418	-0.094
-664.003	-19.461	-0.225	-0.141
-662.989	2.226	-0.180	0.132
-661.974	60.006	0.154	-0.154
-660.959	-200.000	-0.023	-0.421
-659.945	264.765	-0.028	-0.049
-658.930	-54.411	-0.215	0.099
-657.916	-47.381	0.263	0.130
-656.901	20.782	-0.063	0.052
-655.886	317.028	0.142	0.273
-654.872	-148.518	0.145	0.012
-653.857	279.313	-0.094	-0.171
-652.843	-60.172	-0.120	0.052
-651.828	-92.415	0.182	-0.052
-650.814	-200.000	0.034	-0.237
-649.799	-200.000	0.035	-0.562
-648.784	98.682	0.105	-0.124
-647.770	19.772	0.168	-0.137
-646.755	75.643	-0.060	-0.065
-645.741	800.000	-0.102	0.290
-644.726	242.627	-0.112	-0.191
-643.711	-122.940	-0.094	0.015
-642.697	-200.000	0.011	0.356
-641.682	-56.117	-0.213	-0.096
-640.668	296.923	0.211	0.393
-639.653	-56.058	0.275	0.124
-638.638	-200.000	0.016	0.129
-637.624	-77.143	-0.177	-0.063
-636.609	21.798	0.153	-0.126
-635.595	707.669	0.119	0.318
-634.580	-200.000	0.004	0.060
-633.565	696.002	0.151	-0.402
-632.551	-200.000	-0.035	-0.187
-631.536	174.095	-0.095	0.139
-630.522	-130.127	0.111	-0.015
-629.507	-51.814	-0.332	0.157
-628.492	129.217	0.149	-0.193
-627.478	800.000	-0.026	-0.085
-626.463	35.912	-0.074	-0.066
-625.449	-22.652	-0.281	-0.173
-624.434	114.213	-0.082	-0.101
-623.419	-121.841	0.111	0.019
-622.405	172.227	0.154	-0.225
-621.390	-132.640	0.169	-0.022
-620.376	-8.523	-0.174	0.118
-619.361	-200.000	0.019	0.133
-618.346	800.000	-0.053	0.213
-617.332	-119.463	-0.173	-0.030
-616.317	230.433	-0.088	-0.145
-615.303	-148.276	-0.112	0.009
-614.288	26.783	-0.050	0.042
-613.273	127.771	0.169	-0.217
-612.259	42.457	-0.087	0.080
-611.244	-79.057	-0.191	0.066
-610.230	800.000	0.004	-0.013
-609.215	-80.317	-0.176	-0.060
-608.201	-167.373	0.135	0.005
-607.186	69.797	-0.235	0.245
-606.171	800.000	-0.207	0.618
-605.157	243.670	-0.141	-0.239
-604.142	-99.402	0.073	0.019
-603.128	281.772	0.049	-0.088
-602.113	-111.796	0.222	-0.046
-601.098	-47.783	-0.173	0.085
-600.084	96.126	0.132	0.153
-599.069	800.000	-0.040	0.112
-598.055	-51.630	0.093	0.044
-597.040	-51.340	0.188	0.089
-596.025	-26.206	0.032	0.019
-595.011	-65.091	-0.162	-0.066
-593.996	-73.367	0.295	-0.109
-592.982	-111.497	0.071	0.015
-591.967	800.000	0.056	-0.187
-590.952	800.000	-0.052	-0.151
-589.938	333.274	0.341	0.667
-588.923	800.000	-0.094	0.320
-587.909	-174.278	0.137	0.004
-586.894	453.872	-0.063	0.140
-585.879	-99.730	-0.110	0.028
-584.865	-84.304	0.142	0.046
-583.850	-31.889	-0.242	0.137
-582.836	-119.631	-0.199	-0.035
-581.821	-41.500	-0.473	-0.246
-580.806	76.947	0.240	-0.258
-579.792	20.891	-0.045	-0.037
-578.777	-200.000	0.029	-0.208
-577.763	284.357	0.142	-0.259
-576.748	195.874	0.140	-0.216
-575.733	-52.773	-0.156	-0.073
-574.719	-200.000	-0.007	-0.208
-573.704	561.075	0.056	-0.136
-572.690	-200.000	-0.013	0.227
-571.675	220.655	-0.055	0.089
-570.661	603.475	-0.126	-0.317
-569.646	789.235	0.086	-0.238
-568.631	375.987	0.044	0.090
-567.617	-47.427	-0.263	-0.129
-566.602	5.986	0.053	-0.040
-565.588	332.691	-0.090	0.176
-564.573	-38.497	-0.179	0.096
-563.558	12.194	-0.207	-0.162
-562.544	-13.451	-0.101	0.066
-561.529	378.117	-0.031	-0.065
-560.515	-60.583	0.049	0.021
-559.500	-56.808	-0.157	0.070
-558.485	-200.000	0.054	0.274
-557.471	-3.991	0.113	0.079
-556.456	137.659	0.105	0.139
-555.442	-28.422	0.177	-0.103
-554.427	-36.081	-0.119	-0.065
-553.412	124.324	0.062	0.078
-552.398	-104.499	-0.099	0.023
-551.383	800.000	0.110	-0.323
-550.369	-42.829	-0.281	-0.144
-549.354	-109.017	0.469	-0.101
-548.339	-200.000	0.016	-0.199
-547.325	-56.595	-0.281	0.126
-546.310	139.872	-0.108	-0.144
-545.296	382.945	-0.074	-0.154
-544.281	166.767	-0.072	-0.104
-543.266	39.691	0.064	-0.058
-542.252	-200.000	-0.034	0.281
-541.237	-12.994	-0.190	0.125
-540.223	-139.347	-0.298	0.032
-539.208	-6.023	0.228	0.158
-538.193	-200.000	-0.002	-0.041
-537.179	-64.069	-0.067	0.028
-536.164	-200.000	0.016	0.148
-535.150	800.000	-0.070	0.300
-534.135	-119.207	-0.102	0.018
-533.121	-179.412	0.234	0.005
-532.106	-30.892	-0.180	-0.103
-531.091	-109.692	-0.050	0.011
-530.077	-72.963	-0.156	-0.058
-529.062	-116.810	-0.098	-0.018
-528.048	-200.000	-0.002	0.149
-527.033	-122.111	0.109	-0.018
-526.018	800.000	0.067	-0.261
-525.004	254.674	0.040	-0.069
-523.989	-4.909	-0.390	0.272
-522.975	-115.087	-0.156	-0.030
-521.960	-50.096	0.186	0.089
-520.945	112.931	0.203	-0.249
-519.931	-198.413	0.253	-0.001
-518.916	-200.000	0.042	0.423
-517.902	787.058	-0.047	-0.130
-516.887	-20.096	-0.113	-0.071
-515.872	-130.108	0.094	-0.013
-514.858	138.831	0.160	0.212
-513.843	-12.196	0.089	-0.059
-512.829	-200.000	0.026	-0.141
-511.814	55.768	0.111	0.109
-510.799	84.557	0.076	-0.084
-509.785	-56.554	0.319	-0.143
-508.770	443.602	0.068	-0.151
-507.756	-28.697	-0.339	-0.197
-506.741	-200.000	0.017	0.099
-505.726	800.000	0.072	0.227
-504.712	-3.849	0.298	-0.209
-503.697	-49.619	0.143	0.069
-502.683	-163.028	0.389	0.019
-501.668	-165.106	-0.097	0.004
-500.653	-24.386	0.150	0.090
-499.639	-77.890	-0.081	0.028
-498.624	-173.366	-0.272	-0.008
-497.610	-200.000	0.020	-0.387
-496.595	-134.373	0.222	-0.027
-495.581	800.000	0.070	0.231
-494.566	-89.059	-0.349	-0.104
-493.551	-136.791	-0.255	0.030
-492.537	198.901	-0.074	-0.114
-491.522	50.560	-0.045	0.043
-490.508	-17.815	-0.452	0.286
-489.493	292.334	-0.123	-0.227
-488.478	800.000	0.061	0.190
-487.464	151.441	-0.035	-0.048
-486.449	8.342	-0.309	0.234
-485.435	-200.000	-0.003	-0.082
-484.420	214.564	-0.215	0.344
-483.405	-200.000	-0.009	0.051
-482.391	800.000	-0.046	0.181
-481.376	486.313	0.206	0.473
-480.362	-200.000	0.018	0.322
-479.347	-47.421	-0.112	-0.055
-478.332	37.113	0.099	-0.088
-477.318	-39.584	0.374	0.198
-476.303	66.329	-0.099	-0.102
-475.289	109.526	-0.120	-0.146
-474.274	-45.933	0.250	-0.124
-473.259	11.003	-0.400	-0.308
-472.245	-191.650	0.237	-0.002
-471.230	127.493	-0.213	-0.273
-470.216	-200.000	0.045	-0.346
-469.201	-200.000	-0.042	0.222
-468.186	-67.661	0.212	0.084
-467.172	83.068	-0.035	0.039
-466.157	-200.000	0.042	-0.241
-465.143	800.000	-0.030	0.105
-464.128	2.239	0.244	0.178
-463.113	75.870	0.260	0.277
-462.099	-105.418	0.013	-0.003
-461.084	555.916	-0.061	0.148
-460.070	30.173	-0.237	-0.204
-459.055	-125.902	0.116	0.018
-458.040	663.359	0.087	0.226
-457.026	-200.000	-0.026	0.268
-456.011	39.151	-0.057	-0.051
-454.997	169.618	-0.126	-0.181
-453.982	-200.000	-0.004	0.096
-452.968	183.462	0.238	0.355
-451.953	-200.000	-0.014	0.345
-450.938	406.122	0.045	0.095
-449.924	213.113	0.151	-0.240
-448.909	373.095	0.096	0.197
-447.895	-58.948	0.137	-0.060
-446.880	-38.374	0.057	0.030
-445.865	144.899	-0.351	0.473
-444.851	-81.430	-0.404	0.134
-443.836	-89.835	0.181	0.053
-442.822	653.697	-0.093	0.239
-441.807	-24.465	-0.252	0.151
-440.792	-200.000	0.000	-0.078
-439.778	-59.353	-0.338	0.146
-438.763	800.000	0.163	-0.535
-437.749	-200.000	-0.074	-0.403
-436.734	-81.643	0.284	0.094
-435.719	-146.257	-0.252	-0.022
-434.705	800.000	-0.119	-0.360
-433.690	125.702	0.070	0.089
-432.676	-65.981	-0.224	0.090
-431.661	-200.000	0.012	0.190
-430.646	800.000	-0.016	0.057
-429.632	-8.883	0.084	-0.056
-428.617	800.000	-0.080	0.290
-427.603	370.575	-0.168	-0.343
-426.588	-115.122	-0.032	-0.006
-425.573	104.539	0.096	0.114
-424.559	-200.000	0.016	-0.480
-423.544	-200.000	0.024	0.278
-422.530	234.878	-0.160	0.266
-421.515	5.179	0.200	-0.148
-420.500	-133.429	0.162	-0.020
-419.486	-193.908	0.230	-0.002
-418.471	-8.458	0.207	0.140
-417.457	-46.169	-0.264	0.131
-416.442	45.025	0.219	0.203
-415.428	2.603	0.170	-0.124
-414.413	-92.694	-0.358	-0.101
-413.398	9.290	-0.180	0.137
-412.384	-45.987	0.146	0.072
-411.369	183.279	-0.043	0.064
-410.355	-179.142	0.166	0.004
-409.340	63.275	0.083	0.083
-408.325	62.845	0.190	0.191
-407.311	507.043	0.208	-0.485
-406.296	-65.862	-0.349	-0.140
-405.282	-200.000	-0.033	0.293
-404.267	478.315	0.055	-0.124
-403.252	-200.000	0.177	-0.001
-402.238	-8.952	-0.148	0.100
-401.223	-158.530	-0.141	-0.008
-400.209	-20.710	-0.150	-0.093
-399.194	-200.000	-0.006	0.067
-398.179	30.103	0.184	-0.158
-397.165	-144.792	0.238	-0.022
-396.150	-111.775	0.275	-0.056
-395.136	-122.916	-0.494	-0.080
-394.121	-49.796	0.170	-0.081
-393.106	-200.000	-0.036	-0.190
-392.092	28.297	-0.111	-0.095
-391.077	800.000	-0.095	0.264
-390.063	-19.133	0.176	0.110
-389.048	800.000	0.080	0.350
-388.033	13.688	-0.131	0.103
-387.019	636.856	-0.115	-0.295
-386.004	447.619	-0.044	0.098
-384.990	-130.894	0.017	0.002
-383.975	272.860	0.042	-0.074
-382.960	-97.574	0.144	-0.037
-381.946	-87.985	-0.146	0.044
-380.931	-145.125	-0.221	0.020
-379.917	800.000	0.019	0.080
-378.902	150.062	0.283	-0.386
-377.888	76.051	0.120	-0.128
-376.873	-123.315	-0.209	-0.034
-375.858	368.567	0.037	-0.075
-374.844	-23.206	0.199	0.120
-373.829	-66.116	-0.152	0.061
-372.815	-80.732	-0.120	0.040
-371.800	67.944	0.184	-0.189
-370.785	-173.695	-0.134	-0.004
-369.771	-34.746	0.202	0.111
-368.756	133.069	-0.213	0.276
-367.742	-48.784	-0.265	0.128
-366.727	113.143	-0.102	0.124
-365.712	800.000	0.031	0.120
-364.698	-119.864	-0.304	0.053
-363.683	-200.000	-0.050	0.283
-362.669	422.557	0.021	-0.046
-361.654	66.298	0.285	-0.290
-360.639	77.295	0.228	-0.243
-359.625	-200.000	0.006	0.066
-358.610	-52.581	0.162	-0.075
-357.596	35.613	0.365	0.322
-356.581	-200.000	0.002	-0.203
-355.566	-164.406	0.239	-0.011
-354.552	-131.142	-0.232	0.031
-353.537	-200.000	0.031	-0.230
-352.523	-200.000	-0.020	-0.331
-351.508	-200.000	-0.062	-0.291
-350.493	587.402	0.019	0.048
-349.479	557.150	0.107	0.258
-348.464	17.274	-0.045	-0.036
-347.450	-21.386	0.133	-0.082
-346.435	800.000	0.048	0.144
-345.420	129.328	-0.066	0.085
-344.406	53.985	-0.019	-0.019
-343.391	-107.301	0.097	-0.021
-342.377	-51.184	-0.225	-0.106
-341.362	200.476	0.045	0.069
-340.348	166.711	-0.019	-0.027
-339.333	-117.955	0.214	-0.038
-338.318	-107.171	-0.295	-0.065
-337.304	-200.000	0.026	-0.234
-336.289	-200.000	-0.036	-0.186
-335.275	-186.995	-0.181	-0.003
-334.260	-200.000	0.013	0.138
-333.245	-65.402	0.201	0.081
-332.231	10.945	0.191	-0.147
-331.216	114.258	-0.246	-0.300
-330.202	-129.806	-0.211	0.029
-329.187	106.733	-0.191	-0.227
-328.172	565.777	-0.047	-0.114
-327.158	443.776	0.080	0.176
-326.143	-86.416	-0.133	-0.041
-325.129	43.967	-0.143	-0.131
-324.114	115.799	0.173	-0.212
-323.099	99.229	-0.078	-0.090
-322.085	-90.570	-0.169	-0.049
-321.070	-172.836	0.272	0.008
-320.056	-91.159	0.152	0.044
-319.041	-13.444	0.075	-0.049
-318.026	17.477	-0.094	-0.075
-317.012	-200.000	0.034	-0.199
-315.997	-15.305	0.132	0.085
-314.983	18.237	-0.183	0.146
-313.968	-42.481	0.073	-0.037
-312.953	-0.387	-0.099	0.070
-311.939	-40.077	-0.118	0.061
-310.924	4.910	0.138	0.102
-309.910	-74.051	-0.148	-0.054
-308.895	-162.438	0.126	0.006
-307.880	92.433	-0.147	-0.166
-306.866	216.908	-0.116	-0.185
-305.851	-51.917	0.219	0.102
-304.837	-200.000	-0.451	-0.000
-303.822	8.694	0.080	-0.060
-302.807	642.055	-0.095	-0.243
-301.793	-151.084	0.057	-0.004
-300.778	31.050	0.307	0.264
-299.764	11.638	-0.149	0.115
-298.749	800.000	0.046	0.188
-297.735	-138.500	-0.128	0.014
-296.720	-200.000	-0.033	-0.149
-295.705	800.000	0.064	-0.215
-294.691	-57.028	-0.151	0.067
-293.676	-22.226	-0.189	-0.115
-292.662	336.850	-0.018	0.036
-291.647	-40.546	-0.156	0.081
-290.632	-107.739	-0.228	-0.050
-289.618	724.527	0.110	0.293
-288.603	-192.496	0.337	0.003
-287.589	-14.954	0.057	0.037
-286.574	-200.000	-0.001	-0.206
-285.559	32.774	-0.152	0.131
-284.545	800.000	-0.066	0.273
-283.530	-136.122	0.206	0.024
-282.516	-200.000	0.034	-0.305
-281.501	-118.226	-0.057	-0.010
-280.486	-200.000	-0.008	0.081
-279.472	87.680	0.202	0.224
-278.457	-66.553	-0.198	-0.079
-277.443	-148.576	0.211	0.017
-276.428	-200.000	-0.027	-0.146
-275.413	800.000	-0.050	-0.159
-274.399	800.000	-0.053	-0.206
-273.384	182.122	0.203	0.300
-272.370	-20.108	-0.178	-0.110
-271.355	22.522	-0.248	0.203
-270.340	57.083	0.146	-0.143
-269.326	-138.181	-0.274	0.030
-268.311	197.996	-0.258	0.395
-267.297	-54.352	0.159	-0.072
-266.282	44.466	-0.185	-0.170
-265.267	-200.000	-0.006	0.338
-264.253	17.037	0.060	-0.047
-263.238	109.507	-0.113	0.135
-262.224	-41.682	0.086	-0.044
-261.209	-82.636	-0.210	0.068
-260.195	800.000	-0.117	-0.354
-259.180	-112.914	0.392	-0.078
-258.165	800.000	-0.045	-0.129
-257.151	800.000	0.043	-0.163
-256.136	-77.391	-0.151	0.052
-255.122	-5.674	-0.388	-0.266
-254.107	800.000	0.037	-0.134
-253.092	-200.000	-0.015	-0.503
-252.078	2.143	0.090	-0.065
-251.063	-140.498	-0.143	0.015
-250.049	-115.278	0.154	0.029
-249.034	-96.246	0.024	-0.006
-248.019	329.012	-0.079	0.151
-247.005	67.956	-0.128	-0.131
-245.990	-158.837	0.385	-0.022
-244.976	800.000	-0.132	-0.373
-243.961	-34.767	-0.194	-0.106
-242.946	-153.052	0.235	-0.016
-241.932	-5.989	0.194	-0.132
-240.917	104.722	0.221	-0.261
-239.903	38.612	0.251	0.224
-238.888	599.718	0.144	-0.358
-237.873	-95.890	0.196	0.052
-236.859	67.023	0.113	-0.115
-235.844	249.438	0.144	-0.243
-234.830	-40.409	0.100	-0.052
-233.815	800.000	0.109	-0.359
-232.800	257.108	-0.072	0.123
-231.786	800.000	0.081	-0.273
-230.771	20.786	-0.225	0.182
-229.757	-100.448	-0.047	0.012
-228.742	126.038	0.095	0.120
-227.727	50.128	0.018	0.017
-226.713	800.000	0.118	-0.383
-225.698	-130.089	-0.215	-0.029
-224.684	-6.919	-0.128	0.087
-223.669	800.000	-0.060	0.214
-222.655	800.000	0.046	0.177
-221.640	451.075	0.228	0.503
-220.625	100.278	0.238	-0.276
-219.611	-62.739	0.183	0.076
-218.596	-147.387	-0.153	-0.013
-217.582	-200.000	-0.000	0.287
-216.567	-125.069	0.383	0.059
-215.552	95.492	0.152	-0.173
-214.538	-56.720	-0.419	-0.185
-213.523	-34.257	0.171	0.094
-212.509	-200.000	-0.026	0.509
-211.494	182.104	0.120	0.176
-210.479	-81.765	-0.117	-0.038
-209.465	174.894	0.137	0.197
-208.450	432.506	-0.146	0.316
-207.436	12.877	0.290	0.224
-206.421	-12.286	0.097	0.063
-205.406	-32.605	0.101	-0.056
-204.392	6.488	0.297	0.220
-203.377	-200.000	0.019	-0.291
-202.363	395.120	0.054	-0.113
-201.348	-63.677	-0.531	0.217
-200.333	307.220	-0.234	0.436
-199.319	-119.167	0.233	0.041
-198.304	173.481	0.166	-0.238
-197.290	212.595	0.046	-0.072
-196.275	167.861	-0.113	0.161
-195.260	-200.000	-0.058	0.373
-194.246	-24.913	-0.179	-0.106
-193.231	-102.566	0.148	-0.035
-192.217	-82.896	0.089	0.029
-191.202	318.225	0.110	-0.209
-190.187	-16.884	0.096	0.061
-189.173	-176.403	-0.162	0.004
-188.158	581.012	0.144	-0.353
-187.144	94.853	0.205	0.232
-186.129	13.209	-0.236	0.182
-185.114	-102.662	-0.050	0.012
-184.100	-36.376	0.095	-0.051
-183.085	-200.000	-0.052	0.392
-182.071	62.106	0.113	0.112
-181.056	171.786	0.198	0.284
-180.042	475.523	0.089	-0.200
-179.027	772.775	-0.026	0.070
-178.012	-124.499	0.156	-0.024
-176.998	50.382	-0.085	-0.080
-175.983	78.429	0.355	-0.378
-174.969	80.909	-0.075	0.081
-173.954	-80.626	-0.205	-0.068
-172.939	-67.300	-0.123	0.048
-171.925	177.573	0.149	0.216
-170.910	-100.482	-0.191	0.047
-169.896	-200.000	0.019	0.302
-168.881	-155.989	-0.113	0.007
-167.866	-27.947	-0.237	0.136
-166.852	13.214	-0.202	-0.156
-165.837	2.100	0.069	0.049
-164.823	-182.397	0.106	0.002
-163.808	513.377	-0.083	0.192
-162.793	-200.000	0.018	0.296
-161.779	168.745	0.129	-0.183
-160.764	-200.000	0.022	-0.186
-159.750	-200.000	0.078	-0.418
-158.735	-187.498	0.277	-0.004
-157.720	-200.000	-0.001	-0.133
-156.706	-200.000	0.092	-0.465
-155.691	5.507	0.345	0.254
-154.677	-73.441	0.340	0.124
-153.662	-200.000	-0.024	-0.240
-152.647	-92.800	-0.101	-0.028
-151.633	-174.250	-0.226	-0.007
-150.618	-72.102	-0.176	-0.065
-149.604	-200.000	-0.060	0.330
-148.589	184.622	-0.151	0.223
-147.574	-176.838	0.312	-0.008
-146.560	-98.071	-0.577	-0.148
-145.545	-136.792	-0.227	0.026
-144.531	31.265	0.049	0.042
-143.516	180.562	-0.152	-0.223
-142.502	54.069	0.274	0.262
-141.487	-32.378	0.273	-0.152
-140.472	-163.685	0.054	0.003
-139.458	-20.684	-0.123	-0.075
-138.443	90.118	0.130	-0.145
-137.429	53.882	0.100	0.095
-136.414	-33.610	0.145	-0.080
-135.399	-73.599	0.178	-0.065
-134.385	-43.108	0.202	-0.102
-133.370	258.529	-0.075	0.129
-132.356	-200.000	0.031	-0.154
-131.341	-53.801	0.287	-0.130
-130.326	166.830	0.146	0.206
-129.312	-90.160	0.307	-0.089
-128.297	-31.336	-0.325	-0.182
-127.283	-40.268	0.205	0.106
-126.268	80.813	-0.091	-0.098
-125.253	17.528	0.162	-0.128
-124.239	24.242	-0.154	-0.127
-123.224	-200.000	0.033	-0.196
-122.210	800.000	0.041	0.116
-121.195	800.000	0.037	0.122
