DTS Sentinel unit serial number:	SN413079Multiplexer serial number:	ORYXHardware model number:	OX4-SRSoftware version number:	ORYX F/W v4.00 Oryx Data Collector v3.7.2.0data status	okinstallation	princeton_trtdifferential loss correction	single-endedforward channel	channel 1reverse channel	N/Adate	2019/09/11time	16:16:11forward acquisition time	60.00reverse acquisition time	0.00gamma	496.2192k internal	0.2290k external	0.2290temperature offset calibration	0.9994default loss term (dB/km)	0.3790temperature slope calibration	1.0000multiplexer offset coefficient	1.0000multiplexer slope coefficient	1.0000fibre end	0.00T internal ref (°C)	43.37T ext. ref 1 (°C)	1.07T ext. ref 2 (°C)	39.17length (m)	temperature (°C)	Stokes	anti-Stokes-747.200	-35.630	-0.161	-0.089
-746.185	800.000	-0.094	0.342
-745.171	-138.049	0.081	-0.009
-744.156	335.213	-0.028	0.056
-743.142	232.283	-0.063	-0.105
-742.127	-132.190	0.114	0.015
-741.112	-95.734	-0.183	0.050
-740.098	-200.000	0.026	0.215
-739.083	-96.087	0.317	-0.086
-738.069	-117.456	-0.112	0.021
-737.054	-57.526	0.136	-0.061
-736.039	197.922	-0.079	-0.124
-735.025	-148.140	-0.482	0.041
-734.010	800.000	0.058	-0.244
-732.996	-50.579	-0.107	0.051
-731.981	-200.000	-0.591	0.001
-730.966	261.124	-0.180	0.319
-729.952	21.835	-0.209	-0.175
-728.937	-200.000	0.002	-0.231
-727.923	-50.028	-0.119	0.058
-726.908	490.444	0.053	-0.123
-725.894	-44.138	-0.073	-0.037
-724.879	26.970	0.051	0.044
-723.864	132.604	0.165	0.218
-722.850	-68.824	0.097	-0.038
-721.835	196.985	-0.121	0.189
-720.821	-143.122	-0.319	0.031
-719.806	137.389	-0.074	-0.099
-718.791	399.143	-0.040	0.086
-717.777	241.006	0.086	-0.147
-716.762	800.000	-0.025	0.077
-715.748	26.463	-0.197	0.168
-714.733	221.796	-0.136	0.224
-713.718	-26.275	0.167	-0.100
-712.704	-200.000	-0.036	-0.237
-711.689	-182.102	0.413	-0.008
-710.675	22.239	-0.303	-0.253
-709.660	142.756	-0.044	-0.060
-708.645	800.000	-0.083	0.272
-707.631	800.000	-0.138	-0.400
-706.616	-200.000	0.023	-0.326
-705.602	123.992	0.084	0.109
-704.587	-110.275	0.148	0.032
-703.572	-200.000	-0.056	0.254
-702.558	18.285	-0.166	-0.135
-701.543	133.552	-0.136	0.179
-700.529	635.915	0.063	-0.164
-699.514	-67.769	-0.301	-0.121
-698.499	800.000	0.046	0.141
-697.485	-200.000	0.002	-0.035
-696.470	-8.686	0.119	0.082
-695.456	37.351	0.180	-0.163
-694.441	326.939	0.028	-0.055
-693.426	-31.793	-0.195	-0.112
-692.412	5.918	0.302	-0.229
-691.397	97.750	0.169	-0.198
-690.383	-14.760	0.253	-0.166
-689.368	-200.000	0.058	0.312
-688.354	-22.998	-0.151	-0.093
-687.339	189.114	0.036	-0.055
-686.324	323.091	0.056	0.109
-685.310	-200.000	-0.021	-0.476
-684.295	251.850	0.072	0.125
-683.281	-27.767	-0.129	-0.077
-682.266	-200.000	-0.013	-0.084
-681.251	-145.240	-0.224	-0.021
-680.237	-200.000	0.036	0.324
-679.222	-200.000	0.038	0.213
-678.208	238.743	0.121	-0.205
-677.193	166.599	-0.030	-0.043
-676.178	800.000	0.046	0.162
-675.164	-104.366	0.292	-0.069
-674.149	-126.849	0.332	-0.050
-673.135	57.264	-0.144	-0.144
-672.120	-160.935	-0.193	-0.010
-671.105	-103.805	-0.195	-0.047
-670.091	-11.244	-0.428	-0.288
-669.076	-26.987	-0.120	0.071
-668.062	-200.000	-0.060	0.300
-667.047	-152.843	0.520	-0.038
-666.032	251.043	0.125	-0.217
-665.018	376.476	-0.088	0.184
-664.003	-80.613	-0.098	0.033
-662.989	-118.348	-0.220	0.040
-661.974	-119.796	-0.160	-0.028
-660.959	282.212	-0.094	0.173
-659.945	800.000	-0.065	0.218
-658.930	-42.406	0.045	-0.024
-657.916	70.530	0.128	-0.135
-656.901	-71.560	0.060	0.023
-655.886	37.566	-0.229	-0.207
-654.872	-200.000	0.005	-0.230
-653.857	-59.810	-0.303	0.133
-652.843	-20.348	0.282	0.177
-651.828	-186.350	-0.594	-0.009
-650.814	317.748	-0.144	0.277
-649.799	-32.037	-0.222	0.127
-648.784	103.115	-0.076	0.091
-647.770	-200.000	-0.046	0.248
-646.755	-104.870	-0.106	0.025
-645.741	616.961	0.051	0.130
-644.726	-44.217	0.054	0.028
-643.711	800.000	0.051	0.191
-642.697	250.484	-0.044	-0.076
-641.682	227.946	-0.095	0.157
-640.668	-138.780	-0.213	-0.024
-639.653	-152.381	-0.224	-0.016
-638.638	42.907	-0.195	-0.181
-637.624	800.000	0.030	-0.109
-636.609	505.375	-0.113	-0.267
-635.595	76.182	-0.048	-0.052
-634.580	160.005	0.066	0.094
-633.565	-48.317	0.041	0.020
-632.551	60.103	-0.180	0.182
-631.536	-58.953	-0.059	-0.026
-630.522	27.964	0.214	0.184
-629.507	-181.443	0.164	0.003
-628.492	-132.119	-0.418	0.055
-627.478	40.580	-0.125	-0.115
-626.463	800.000	0.083	0.348
-625.449	800.000	-0.146	-0.451
-624.434	-43.001	0.197	-0.102
-623.419	-200.000	0.045	-0.229
-622.405	-113.661	-0.109	-0.022
-621.390	-85.782	0.104	-0.033
-620.376	29.428	-0.110	-0.095
-619.361	127.288	-0.121	-0.156
-618.346	800.000	-0.029	0.116
-617.332	-110.193	-0.372	-0.079
-616.317	-21.103	-0.188	-0.117
-615.303	-106.562	-0.103	-0.023
-614.288	6.420	0.176	0.133
-613.273	589.026	-0.091	-0.228
-612.259	-73.765	-0.220	0.081
-611.244	-200.000	-0.026	0.169
-610.230	800.000	0.053	-0.170
-609.215	-200.000	-0.026	0.432
-608.201	448.933	-0.159	-0.356
-607.186	-142.205	-0.144	0.015
-606.171	93.229	-0.223	0.257
-605.157	26.727	-0.162	-0.138
-604.142	485.632	-0.043	-0.099
-603.128	-63.948	-0.345	0.144
-602.113	-74.556	-0.204	-0.075
-601.098	-200.000	0.087	0.442
-600.084	13.779	0.336	0.266
-599.069	81.839	-0.098	0.108
-598.055	-196.035	-0.343	-0.002
-597.040	-175.963	-0.307	-0.008
-596.025	221.216	-0.118	0.194
-595.011	567.487	-0.105	0.261
-593.996	77.818	-0.162	-0.176
-592.982	-50.811	0.302	-0.145
-591.967	-187.984	-0.140	0.002
-590.952	334.336	0.065	-0.129
-589.938	-96.223	0.179	-0.048
-588.923	800.000	0.039	0.174
-587.909	800.000	-0.044	0.158
-586.894	-200.000	-0.061	-0.386
-585.879	800.000	-0.075	-0.327
-584.865	-76.422	0.271	0.097
-583.850	-108.515	-0.238	-0.052
-582.836	-56.147	0.189	0.086
-581.821	800.000	0.066	0.232
-580.806	30.368	0.164	-0.142
-579.792	146.902	0.149	-0.205
-578.777	-93.088	-0.364	0.103
-577.763	-10.227	0.242	-0.163
-576.748	83.908	0.283	0.314
-575.733	-175.950	0.194	0.005
-574.719	645.046	0.122	-0.317
-573.704	-160.494	-0.227	0.012
-572.690	-72.164	-0.285	0.107
-571.675	9.101	0.183	-0.141
-570.661	-200.000	0.005	-0.206
-569.646	251.255	0.045	0.078
-568.631	-176.281	0.245	-0.007
-567.617	-114.317	-0.263	0.052
-566.602	-59.931	-0.075	0.033
-565.588	-2.506	0.454	-0.324
-564.573	83.358	-0.094	-0.105
-563.558	83.466	0.078	0.087
-562.544	-200.000	0.010	-0.090
-561.529	-41.460	-0.093	0.049
-560.515	-16.975	-0.020	0.013
-559.500	-4.973	0.113	-0.079
-558.485	-36.315	0.208	-0.114
-557.471	533.124	-0.113	-0.271
-556.456	-3.510	0.202	-0.143
-555.442	-200.000	0.039	0.257
-554.427	376.456	-0.160	-0.333
-553.412	-200.000	-0.014	0.155
-552.398	-71.501	0.156	0.060
-551.383	-0.748	-0.172	-0.124
-550.369	761.518	-0.098	0.269
-549.354	105.374	0.170	0.204
-548.339	-200.000	-0.005	-0.044
-547.325	800.000	0.045	0.165
-546.310	-161.596	0.088	-0.005
-545.296	-200.000	-0.001	-0.093
-544.281	-37.750	-0.217	0.118
-543.266	130.133	0.095	0.124
-542.252	497.135	0.062	-0.146
-541.237	59.889	0.175	-0.176
-540.223	-5.792	-0.161	-0.112
-539.208	224.463	0.150	-0.246
-538.193	3.193	-0.242	-0.179
-537.179	-47.190	-0.168	0.083
-536.164	95.603	-0.143	0.165
-535.150	-74.080	-0.334	0.123
-534.135	123.452	-0.203	-0.259
-533.121	766.018	-0.031	-0.086
-532.106	-200.000	-0.024	-0.154
-531.091	800.000	0.085	-0.359
-530.077	71.316	0.158	0.166
-529.062	-34.390	0.203	0.113
-528.048	-15.171	0.394	0.256
-527.033	-90.996	-0.166	0.049
-526.018	800.000	-0.096	-0.355
-525.004	-5.225	0.318	-0.222
-523.989	-200.000	-0.016	0.244
-522.975	-58.059	-0.411	0.182
-521.960	-14.739	0.181	0.118
-520.945	-92.827	0.302	-0.086
-519.931	180.040	0.152	-0.226
-518.916	-200.000	-0.071	-0.452
-517.902	-200.000	-0.052	-0.261
-516.887	-10.252	-0.197	0.133
-515.872	-143.740	-0.174	-0.017
-514.858	-4.874	-0.326	0.228
-513.843	-61.459	0.162	-0.069
-512.829	-4.761	0.199	0.139
-511.814	-142.603	-0.177	-0.018
-510.799	-200.000	0.021	0.199
-509.785	-23.222	0.325	-0.198
-508.770	-141.593	0.398	-0.041
-507.756	-136.262	0.096	-0.011
-506.741	-200.000	0.070	0.474
-505.726	-200.000	-0.011	-0.379
-504.712	800.000	-0.056	-0.189
-503.697	-70.162	-0.215	-0.083
-502.683	-54.625	-0.124	0.057
-501.668	41.259	0.048	0.044
-500.653	-135.809	0.119	-0.014
-499.639	44.845	-0.171	-0.159
-498.624	-141.232	0.463	-0.048
-497.610	-200.000	-0.002	0.250
-496.595	54.164	0.141	-0.138
-495.581	-5.746	-0.258	-0.179
-494.566	384.205	0.021	-0.044
-493.551	-200.000	-0.008	0.147
-492.537	237.696	-0.202	0.339
-491.522	800.000	0.049	0.144
-490.508	-4.047	-0.358	-0.251
-489.493	101.086	-0.039	0.047
-488.478	-200.000	0.044	0.387
-487.464	800.000	0.012	0.053
-486.449	-200.000	0.078	-0.355
-485.435	343.391	-0.081	0.161
-484.420	-139.978	0.150	0.016
-483.405	66.132	-0.121	-0.124
-482.391	-52.279	-0.449	0.211
-481.376	-132.200	0.203	-0.027
-480.362	-87.890	0.341	0.104
-479.347	216.149	-0.136	0.219
-478.332	-200.000	0.030	-0.190
-477.318	-100.561	-0.432	0.108
-476.303	460.195	-0.050	0.112
-475.289	-200.000	0.009	-0.066
-474.274	174.025	-0.171	-0.250
-473.259	209.016	0.034	-0.053
-472.245	800.000	-0.048	0.192
-471.230	800.000	0.053	-0.190
-470.216	-107.108	0.167	0.037
-469.201	-200.000	0.026	-0.210
-468.186	259.036	0.022	-0.038
-467.172	12.448	-0.160	0.125
-466.157	-21.569	0.137	-0.085
-465.143	-200.000	0.065	-0.371
-464.128	-26.925	-0.041	0.025
-463.113	-147.383	-0.192	0.016
-462.099	-82.506	-0.118	-0.039
-461.084	800.000	0.221	-0.666
-460.070	-1.825	0.069	0.049
-459.055	800.000	0.044	0.167
-458.040	43.684	-0.189	-0.175
-457.026	-49.735	-0.162	-0.078
-456.011	294.619	0.096	-0.178
-454.997	415.368	-0.115	0.248
-453.982	800.000	-0.135	-0.440
-452.968	-142.028	0.288	-0.029
-451.953	155.888	-0.080	-0.112
-450.938	-91.957	-0.169	0.049
-449.924	-43.395	0.300	-0.154
-448.909	-69.122	0.278	0.108
-447.895	89.737	0.160	0.180
-446.880	-61.948	-0.206	-0.087
-445.865	120.987	-0.198	-0.250
-444.851	-200.000	-0.042	0.218
-443.836	102.805	-0.030	-0.035
-442.822	254.399	-0.127	0.219
-441.807	-96.840	0.191	0.051
-440.792	-14.378	-0.160	0.104
-439.778	800.000	-0.047	-0.149
-438.763	-134.439	-0.285	-0.035
-437.749	800.000	-0.011	-0.045
-436.734	31.350	-0.205	0.178
-435.719	-100.180	0.083	-0.021
-434.705	376.669	-0.049	0.101
-433.690	-27.103	-0.072	-0.043
-432.676	26.990	-0.046	0.039
-431.661	135.092	0.206	0.271
-430.646	112.629	0.140	-0.171
-429.632	256.724	-0.196	-0.340
-428.617	72.368	0.050	0.053
-427.603	-139.787	-0.291	-0.031
-426.588	115.714	0.156	-0.193
-425.573	-56.641	-0.132	-0.059
-424.559	-200.000	-0.092	-0.414
-423.544	-144.356	0.167	-0.016
-422.530	-46.884	0.116	0.057
-421.515	168.854	0.196	-0.283
-420.500	-6.142	-0.189	0.131
-419.486	198.037	0.129	0.199
-418.471	16.418	-0.048	-0.038
-417.457	7.702	0.174	0.132
-416.442	-102.963	-0.214	-0.051
-415.428	-200.000	-0.006	-0.057
-414.413	-200.000	0.009	-0.101
-413.398	-186.010	-0.115	-0.002
-412.384	-32.752	-0.244	0.137
-411.369	24.267	-0.212	0.177
-410.355	-200.000	-0.029	0.181
-409.340	-97.660	0.203	-0.053
-408.325	-108.553	-0.196	-0.043
-407.311	55.709	0.297	0.291
-406.296	-96.363	0.324	-0.087
-405.282	173.373	-0.136	-0.199
-404.267	-74.155	0.145	0.053
-403.252	-33.461	-0.247	-0.138
-402.238	-200.000	0.078	0.361
-401.223	-105.968	-0.210	0.048
-400.209	800.000	-0.035	-0.101
-399.194	239.287	0.035	0.059
-398.179	-138.617	-0.097	0.011
-397.165	-0.647	-0.095	-0.068
-396.150	-90.299	0.151	0.044
-395.136	169.146	0.129	-0.186
-394.121	-70.376	-0.378	0.145
-393.106	-66.425	0.070	0.028
-392.092	-39.328	0.294	0.156
-391.077	-166.463	0.093	0.004
-390.063	146.290	0.173	0.234
-389.048	385.027	-0.070	0.147
-388.033	-133.582	0.333	0.042
-387.019	154.362	0.083	-0.115
-386.004	-46.862	-0.284	-0.140
-384.990	200.879	-0.073	0.114
-383.975	216.114	-0.129	-0.208
-382.960	-128.452	-0.318	-0.046
-381.946	-182.574	-0.137	0.003
-380.931	-143.273	0.063	0.006
-379.917	80.744	-0.215	-0.234
-378.902	326.242	0.052	-0.100
-377.888	774.381	-0.017	0.047
-376.873	140.851	-0.133	0.178
-375.858	-97.849	0.217	0.057
-374.844	180.856	-0.230	0.341
-373.829	-196.940	0.183	0.001
-372.815	222.800	0.033	-0.054
-371.800	-97.412	-0.132	0.035
-370.785	-200.000	-0.075	-0.436
-369.771	-200.000	0.036	-0.192
-368.756	800.000	-0.046	-0.173
-367.742	385.054	0.136	-0.283
-366.727	119.485	0.221	0.276
-365.712	0.941	-0.045	-0.032
-364.698	-149.383	0.200	0.016
-363.683	72.180	-0.114	0.119
-362.669	-86.831	0.140	0.043
-361.654	-114.262	0.406	0.079
-360.639	134.301	0.192	-0.251
-359.625	160.829	0.081	0.114
-358.610	-200.000	0.017	-0.183
-357.596	-79.022	-0.094	-0.032
-356.581	31.290	0.250	0.217
-355.566	56.414	-0.185	0.182
-354.552	224.169	-0.041	0.067
-353.537	-136.691	-0.391	-0.046
-352.523	35.036	0.093	-0.082
-351.508	-67.688	0.339	0.134
-350.493	-44.712	0.329	0.166
-349.479	107.698	0.086	-0.104
-348.464	-200.000	0.041	0.186
-347.450	128.950	-0.155	0.200
-346.435	427.529	-0.067	0.147
-345.420	-72.440	0.004	0.002
-344.406	-0.203	-0.096	-0.069
-343.391	800.000	-0.077	0.246
-342.377	69.953	0.026	0.027
-341.362	379.947	-0.070	-0.145
-340.348	-148.808	0.090	0.007
-339.333	66.866	0.186	0.191
-338.318	180.251	0.188	0.279
-337.304	-77.267	0.011	-0.004
-336.289	-76.638	0.413	0.146
-335.275	-0.608	-0.045	0.032
-334.260	198.903	0.013	0.020
-333.245	386.337	0.083	-0.172
-332.231	-200.000	-0.037	0.249
-331.216	280.729	0.106	0.192
-330.202	800.000	-0.072	-0.283
-329.187	299.879	0.152	-0.282
-328.172	-158.525	0.083	0.005
-327.158	-55.238	-0.189	0.086
-326.143	800.000	-0.043	-0.172
-325.129	-37.127	-0.282	-0.152
-324.114	546.698	-0.118	0.283
-323.099	-98.776	0.096	0.024
-322.085	-200.000	0.019	-0.087
-321.070	-200.000	-0.009	0.075
-320.056	-200.000	-0.023	-0.104
-319.041	155.649	-0.134	-0.186
-318.026	-200.000	0.006	0.058
-317.012	117.512	0.154	-0.191
-315.997	-89.582	-0.221	0.065
-314.983	104.735	-0.167	-0.198
-313.968	302.130	0.076	-0.141
-312.953	-141.259	0.203	0.021
-311.939	598.213	0.115	-0.287
-310.924	-93.325	0.079	-0.022
-309.910	-14.846	-0.190	-0.123
-308.895	-200.000	0.009	-0.160
-307.880	800.000	0.068	0.236
-306.866	800.000	0.013	0.043
-305.851	-20.332	0.044	0.027
-304.837	-200.000	-0.026	-0.161
-303.822	49.995	-0.045	-0.042
-302.807	-200.000	0.004	0.032
-301.793	-160.738	0.123	0.007
-300.778	800.000	-0.040	-0.147
-299.764	149.410	-0.120	-0.164
-298.749	800.000	0.141	0.401
-297.735	800.000	0.035	0.105
-296.720	35.056	0.182	0.161
-295.705	-144.844	0.231	0.021
-294.691	-93.858	-0.319	0.088
-293.676	422.113	-0.102	-0.221
-292.662	-200.000	-0.032	0.164
-291.647	-46.823	0.426	0.210
-290.632	-89.491	-0.311	-0.092
-289.618	-200.000	-0.034	0.330
-288.603	112.645	-0.157	0.191
-287.589	-200.000	0.036	-0.456
-286.574	348.961	-0.147	0.291
-285.559	349.159	-0.104	0.206
-284.545	-111.084	0.534	-0.110
-283.530	27.325	0.164	-0.139
-282.516	420.469	-0.074	0.160
-281.501	240.802	0.189	-0.317
-280.486	-200.000	0.012	0.184
-279.472	-122.133	-0.206	0.034
-278.457	-143.236	0.289	0.028
-277.443	35.147	0.100	-0.088
-276.428	-63.365	-0.182	-0.075
-275.413	-200.000	0.039	-0.235
-274.399	-173.496	-0.053	-0.002
-273.384	-81.694	0.362	-0.119
-272.370	800.000	0.098	0.364
-271.355	336.416	-0.123	-0.240
-270.340	-96.242	-0.135	0.036
-269.326	336.486	0.035	0.068
-268.311	365.462	-0.080	0.162
-267.297	-4.307	0.271	0.188
-266.282	10.115	0.037	0.028
-265.267	5.295	0.420	-0.311
-264.253	-29.423	0.451	-0.259
-263.238	0.123	-0.209	0.150
-262.224	-5.390	0.214	-0.147
-261.209	-63.836	0.203	-0.083
-260.195	368.692	0.097	0.198
-259.180	-200.000	0.037	0.188
-258.165	727.578	0.036	-0.097
-257.151	-200.000	0.012	-0.141
-256.136	760.723	-0.138	0.375
-255.122	800.000	-0.044	0.159
-254.107	-116.781	0.176	0.033
-253.092	-86.939	0.159	0.049
-252.078	800.000	0.032	-0.107
-251.063	-59.568	-0.106	0.046
-250.049	-108.327	0.331	0.072
-249.034	-100.400	-0.122	-0.030
-248.019	113.837	0.251	-0.307
-247.005	202.583	-0.093	-0.145
-245.990	201.683	0.233	0.361
-244.976	69.549	0.134	-0.139
-243.961	164.134	0.008	-0.011
-242.946	37.480	-0.337	-0.300
-241.932	537.793	0.093	0.223
-240.917	-60.392	0.350	0.149
-239.903	-35.814	0.131	0.071
-238.888	689.210	-0.033	-0.087
-237.873	50.503	0.179	0.170
-236.859	157.114	-0.045	0.062
-235.844	3.071	-0.241	-0.176
-234.830	154.181	-0.194	0.268
-233.815	800.000	-0.044	0.142
-232.800	110.832	-0.110	0.133
-231.786	-24.817	0.108	-0.064
-230.771	800.000	-0.016	0.050
-229.757	119.387	0.247	0.307
-228.742	-200.000	-0.024	-0.239
-227.727	383.111	-0.113	-0.234
-226.713	135.026	0.013	-0.017
-225.698	12.612	0.083	-0.064
-224.684	800.000	-0.051	0.217
-223.669	521.278	-0.148	0.347
-222.655	-106.850	0.077	-0.017
-221.640	-179.611	-0.081	-0.002
-220.625	174.016	0.055	0.079
-219.611	-172.212	-0.083	0.003
-218.596	-7.609	-0.155	0.105
-217.582	-110.521	0.129	-0.027
-216.567	49.530	-0.378	0.357
-215.552	-133.836	-0.187	-0.023
-214.538	111.296	-0.087	-0.105
-213.523	-94.077	0.035	-0.010
-212.509	-200.000	0.023	0.225
-211.494	-151.043	0.175	-0.013
-210.479	-22.953	-0.374	0.226
-209.465	68.145	0.226	-0.232
-208.450	800.000	0.114	0.356
-207.436	-100.742	0.240	0.059
-206.421	112.597	0.143	0.173
-205.406	723.415	-0.032	0.086
-204.392	-200.000	-0.022	-0.219
-203.377	-200.000	0.002	0.267
-202.363	131.956	-0.178	0.230
-201.348	204.479	0.119	0.185
-200.333	-111.875	-0.233	-0.047
-199.319	-50.071	0.161	-0.076
-198.304	-68.482	0.238	-0.093
-197.290	-118.490	-0.291	-0.052
-196.275	-30.409	0.166	-0.094
-195.260	-90.358	0.177	-0.052
-194.246	-91.004	0.081	-0.023
-193.231	-200.000	0.086	-0.390
-192.217	-107.491	-0.358	0.079
-191.202	113.473	-0.197	-0.239
-190.187	-56.097	-0.160	-0.071
-189.173	-66.326	0.116	0.046
-188.158	205.217	0.154	-0.240
-187.144	-87.006	0.312	-0.095
-186.129	-137.521	-0.164	0.019
-185.114	800.000	-0.080	0.255
-184.100	-40.033	-0.139	0.073
-183.085	-79.601	0.266	-0.090
-182.071	19.280	0.128	0.103
-181.056	-200.000	-0.031	-0.141
-180.042	14.419	0.113	0.088
-179.027	195.276	-0.109	-0.166
-178.012	-83.755	0.299	0.095
-176.998	41.172	0.383	0.347
-175.983	-200.000	0.026	-0.274
-174.969	-65.813	0.337	-0.135
-173.954	346.677	-0.158	0.311
-172.939	800.000	0.069	-0.271
-171.925	800.000	-0.047	0.159
-170.910	-124.643	0.085	0.013
-169.896	200.200	-0.095	0.146
-168.881	-142.703	0.091	0.009
-167.866	-27.288	-0.299	-0.174
-166.852	-200.000	0.002	-0.032
-165.837	-130.332	0.527	0.072
-164.823	800.000	-0.045	0.126
-163.808	3.501	-0.436	0.318
-162.793	-142.673	-0.346	-0.034
-161.779	8.361	0.158	0.119
-160.764	-112.770	0.230	0.046
-159.750	-95.685	-0.416	-0.112
-158.735	91.375	-0.151	0.170
-157.720	392.257	0.060	0.125
-156.706	-3.950	0.082	0.057
-155.691	-146.053	-0.209	0.018
-154.677	234.615	-0.191	-0.316
-153.662	-124.134	0.038	-0.006
-152.647	85.724	-0.236	-0.260
-151.633	-6.618	0.180	-0.123
-150.618	-200.000	0.000	-0.231
-149.604	11.944	0.285	0.219
-148.589	-63.517	-0.134	0.055
-147.574	-37.935	-0.103	0.055
-146.560	-134.280	-0.420	0.052
-145.545	-20.636	0.202	0.124
-144.531	455.543	-0.098	0.218
-143.516	-155.551	-0.238	0.015
-142.502	-91.397	-0.283	-0.081
-141.487	-23.949	-0.109	0.065
-140.472	800.000	-0.015	-0.044
-139.458	-200.000	-0.009	0.210
-138.443	-200.000	0.012	0.135
-137.429	800.000	0.013	-0.047
-136.414	-23.395	0.064	0.039
-135.399	-81.054	-0.392	0.130
-134.385	206.699	-0.086	0.135
-133.370	70.532	-0.082	-0.085
-132.356	-76.099	-0.366	0.129
-131.341	-16.293	-0.299	0.190
-130.326	800.000	-0.102	-0.294
-129.312	262.635	-0.128	0.223
-128.297	-64.489	0.118	0.048
-127.283	-160.047	0.301	0.016
-126.268	-2.898	0.162	-0.113
-125.253	-165.233	0.331	0.015
-124.239	-50.496	0.206	0.097
-123.224	800.000	0.027	-0.091
-122.210	42.434	0.102	0.093
-121.195	295.446	0.133	0.243
