DTS Sentinel unit serial number:	SN413079Multiplexer serial number:	ORYXHardware model number:	OX4-SRSoftware version number:	ORYX F/W v4.00 Oryx Data Collector v3.7.2.0data status	okinstallation	princeton_trtdifferential loss correction	single-endedforward channel	channel 1reverse channel	N/Adate	2019/09/19time	12:46:35forward acquisition time	60.00reverse acquisition time	0.00gamma	496.2192k internal	0.2330k external	0.2330temperature offset calibration	1.0010default loss term (dB/km)	0.3790temperature slope calibration	1.0000multiplexer offset coefficient	1.0000multiplexer slope coefficient	1.0000fibre end	0.00T internal ref (°C)	27.87T ext. ref 1 (°C)	0.89T ext. ref 2 (°C)	26.09length (m)	temperature (°C)	Stokes	anti-Stokes-747.200	-31.922	0.155	-0.087
-746.185	-7.591	-0.399	0.272
-745.171	61.559	-0.109	0.109
-744.156	-136.559	-0.099	0.012
-743.142	800.000	0.025	0.076
-742.127	390.316	-0.049	-0.103
-741.112	-11.823	-0.187	-0.124
-740.098	-200.000	-0.023	0.251
-739.083	800.000	0.070	-0.207
-738.069	3.321	0.204	0.149
-737.054	6.068	-0.340	0.253
-736.039	-73.168	0.137	0.050
-735.025	1.539	-0.066	0.048
-734.010	350.263	-0.039	-0.077
-732.996	-200.000	0.068	-0.424
-731.981	800.000	-0.037	0.149
-730.966	-200.000	-0.013	0.366
-729.952	64.476	-0.024	-0.024
-728.937	-200.000	0.030	-0.164
-727.923	97.579	0.136	-0.158
-726.908	-200.000	0.014	-0.354
-725.894	-66.578	0.265	-0.106
-724.879	34.128	-0.395	-0.346
-723.864	334.958	-0.104	0.202
-722.850	800.000	0.106	-0.332
-721.835	-89.591	-0.328	-0.097
-720.821	-110.414	-0.056	0.012
-719.806	371.119	-0.067	-0.137
-718.791	-37.997	0.116	-0.062
-717.777	62.987	0.292	0.294
-716.762	-200.000	0.017	-0.202
-715.748	800.000	0.134	0.446
-714.733	800.000	-0.034	-0.127
-713.718	450.628	0.052	-0.116
-712.704	205.968	0.210	-0.329
-711.689	-160.395	-0.281	-0.015
-710.675	-200.000	-0.012	-0.441
-709.660	7.058	0.247	-0.185
-708.645	331.657	-0.082	-0.159
-707.631	-150.952	0.127	0.010
-706.616	108.386	-0.126	0.151
-705.602	-13.906	-0.140	-0.091
-704.587	-200.000	-0.029	-0.243
-703.572	-200.000	0.028	0.508
-702.558	454.453	-0.094	0.209
-701.543	84.000	-0.054	0.060
-700.529	171.774	0.098	-0.142
-699.514	800.000	0.142	-0.395
-698.499	-21.477	0.235	-0.144
-697.485	-23.333	-0.304	-0.183
-696.470	800.000	-0.058	0.227
-695.456	-127.016	0.062	0.009
-694.441	-3.671	-0.200	0.140
-693.426	-200.000	0.010	0.061
-692.412	72.789	0.138	0.145
-691.397	-196.420	0.189	0.001
-690.383	95.629	-0.024	-0.027
-689.368	-200.000	0.022	0.217
-688.354	-148.802	0.240	0.020
-687.339	-200.000	0.078	0.399
-686.324	1.931	0.087	-0.063
-685.310	146.849	0.058	0.079
-684.295	406.547	-0.092	0.196
-683.281	595.415	-0.015	0.036
-682.266	10.519	0.072	-0.055
-681.251	-200.000	-0.010	-0.071
-680.237	315.628	-0.132	-0.249
-679.222	-128.634	0.413	-0.059
-678.208	172.982	-0.184	-0.267
-677.193	-151.864	-0.452	0.033
-676.178	-117.733	0.386	-0.070
-675.164	50.997	-0.162	0.154
-674.149	433.429	0.111	-0.243
-673.135	-114.299	-0.186	0.036
-672.120	67.518	0.253	-0.259
-671.105	112.837	-0.068	-0.083
-670.091	-10.766	-0.103	0.069
-669.076	-200.000	0.010	0.294
-668.062	45.567	0.204	-0.190
-667.047	-200.000	-0.006	0.135
-666.032	-96.413	0.260	-0.069
-665.018	-200.000	0.036	-0.348
-664.003	-200.000	-0.050	0.241
-662.989	-45.509	0.360	0.179
-661.974	68.521	-0.052	0.054
-660.959	800.000	-0.078	-0.248
-659.945	41.104	-0.351	-0.318
-658.930	129.226	-0.057	0.073
-657.916	19.602	0.161	0.130
-656.901	-17.832	0.080	0.050
-655.886	-79.161	0.022	0.007
-654.872	-200.000	0.017	0.087
-653.857	724.363	-0.064	-0.171
-652.843	204.488	0.097	-0.152
-651.828	-85.027	-0.222	0.070
-650.814	139.387	-0.245	-0.323
-649.799	800.000	-0.076	0.334
-648.784	-143.674	-0.192	0.018
-647.770	430.964	0.067	-0.146
-646.755	800.000	0.125	0.401
-645.741	-135.208	-0.266	-0.032
-644.726	721.721	-0.092	-0.245
-643.711	-200.000	-0.009	-0.234
-642.697	-136.706	-0.318	-0.037
-641.682	-150.363	0.141	0.011
-640.668	-200.000	0.029	-0.153
-639.653	-2.683	-0.295	-0.207
-638.638	800.000	-0.058	0.228
-637.624	-89.570	0.156	-0.046
-636.609	800.000	0.024	-0.067
-635.595	-200.000	-0.039	0.172
-634.580	70.382	0.135	0.139
-633.565	181.760	0.015	0.023
-632.551	135.229	0.187	0.243
-631.536	79.723	0.174	0.187
-630.522	-52.058	-0.094	0.044
-629.507	236.244	-0.059	0.098
-628.492	91.430	0.132	0.148
-627.478	47.742	0.222	-0.207
-626.463	111.875	0.150	-0.182
-625.449	-80.012	0.101	0.034
-624.434	166.721	-0.118	0.168
-623.419	-90.829	0.270	-0.078
-622.405	269.526	0.165	-0.290
-621.390	-65.265	0.076	0.031
-620.376	-200.000	0.035	-0.239
-619.361	-200.000	-0.009	-0.243
-618.346	603.227	-0.026	0.065
-617.332	1.436	0.175	0.126
-616.317	-100.266	-0.262	0.065
-615.303	-42.381	0.169	-0.086
-614.288	-11.152	0.206	0.136
-613.273	-121.310	0.103	-0.017
-612.259	-70.158	0.203	-0.077
-611.244	-200.000	0.005	-0.094
-610.230	-181.754	-0.365	-0.007
-609.215	-200.000	-0.015	-0.357
-608.201	-79.582	-0.106	0.036
-607.186	-149.632	-0.336	0.027
-606.171	-79.515	0.180	0.061
-605.157	-77.042	0.191	-0.067
-604.142	-149.078	0.092	0.007
-603.128	187.581	0.111	-0.167
-602.113	-28.394	0.214	0.123
-601.098	800.000	0.073	-0.258
-600.084	193.094	-0.092	-0.139
-599.069	471.752	-0.066	-0.149
-598.055	217.248	-0.137	-0.218
-597.040	317.085	-0.088	0.166
-596.025	-200.000	0.046	0.304
-595.011	-25.486	-0.233	-0.138
-593.996	-113.453	-0.235	-0.046
-592.982	-116.368	0.389	-0.072
-591.967	-200.000	0.015	0.243
-590.952	-81.315	-0.213	0.070
-589.938	-51.032	0.238	-0.112
-588.923	800.000	0.062	0.245
-587.909	-72.217	0.372	0.138
-586.894	-168.522	-0.316	0.012
-585.879	399.987	-0.070	-0.147
-584.865	-62.732	0.146	0.060
-583.850	-200.000	-0.006	-0.061
-582.836	800.000	0.060	0.246
-581.821	22.080	-0.317	-0.259
-580.806	29.743	0.206	0.176
-579.792	-200.000	-0.019	-0.332
-578.777	-57.256	-0.239	-0.105
-577.763	282.046	-0.030	0.053
-576.748	-200.000	-0.004	-0.105
-575.733	107.620	0.291	-0.347
-574.719	153.597	0.038	0.053
-573.704	31.979	-0.190	-0.164
-572.690	800.000	-0.091	0.273
-571.675	274.324	0.055	0.098
-570.661	80.200	0.048	-0.052
-569.646	-64.903	0.467	-0.189
-568.631	-80.806	-0.346	0.115
-567.617	642.408	0.116	-0.295
-566.602	53.886	0.024	-0.023
-565.588	350.927	0.106	-0.209
-564.573	104.724	0.072	0.085
-563.558	-200.000	-0.001	0.225
-562.544	53.351	0.091	0.087
-561.529	-74.518	0.394	-0.142
-560.515	208.731	-0.197	-0.308
-559.500	-22.230	0.124	-0.075
-558.485	-54.915	-0.051	-0.023
-557.471	-16.746	0.241	0.152
-556.456	-200.000	-0.041	0.184
-555.442	-97.234	0.200	-0.052
-554.427	145.438	-0.077	-0.103
-553.412	115.358	0.068	-0.083
-552.398	-80.875	0.133	0.044
-551.383	-99.568	-0.422	-0.106
-550.369	-200.000	-0.029	-0.346
-549.354	-81.119	0.220	-0.073
-548.339	199.090	-0.157	-0.240
-547.325	-200.000	0.052	-0.320
-546.310	-84.634	-0.236	-0.074
-545.296	-200.000	-0.013	-0.312
-544.281	-40.365	0.094	-0.049
-543.266	234.828	-0.093	-0.154
-542.252	-38.366	-0.190	0.100
-541.237	136.775	-0.175	0.228
-540.223	-200.000	0.011	0.134
-539.208	114.368	0.086	0.104
-538.193	38.059	0.195	-0.173
-537.179	800.000	0.047	0.185
-536.164	93.014	-0.176	-0.199
-535.150	346.892	0.148	0.290
-534.135	800.000	0.065	-0.183
-533.121	-78.392	0.242	0.083
-532.106	-200.000	-0.015	-0.088
-531.091	161.595	-0.136	-0.190
-530.077	-116.506	-0.144	-0.027
-529.062	-92.077	-0.109	0.031
-528.048	-137.996	-0.309	0.034
-527.033	-102.571	0.112	-0.027
-526.018	-109.755	0.180	0.038
-525.004	-45.315	-0.478	-0.237
-523.989	-200.000	-0.050	-0.431
-522.975	-200.000	0.064	-0.315
-521.960	89.752	-0.060	0.067
-520.945	800.000	-0.076	-0.221
-519.931	-142.928	0.225	0.022
-518.916	177.432	-0.067	0.097
-517.902	146.775	0.131	-0.176
-516.887	-59.223	-0.243	-0.105
-515.872	620.681	-0.087	0.219
-514.858	209.941	-0.033	0.052
-513.843	-158.153	-0.181	0.011
-512.829	-200.000	-0.030	-0.180
-511.814	655.364	-0.062	0.158
-510.799	-35.957	-0.098	0.053
-509.785	-71.027	0.235	0.088
-508.770	221.081	-0.133	0.213
-507.756	-200.000	-0.030	0.254
-506.741	334.977	-0.032	0.061
-505.726	14.453	-0.190	0.148
-504.712	85.999	-0.060	-0.066
-503.697	-200.000	-0.020	0.138
-502.683	387.541	-0.143	0.294
-501.668	-200.000	0.013	0.228
-500.653	-91.849	0.162	-0.046
-499.639	-200.000	0.025	0.214
-498.624	-65.465	0.160	0.064
-497.610	-151.546	-0.217	-0.016
-496.595	165.822	-0.136	-0.192
-495.581	25.535	-0.115	-0.096
-494.566	800.000	-0.048	-0.180
-493.551	506.923	0.148	-0.343
-492.537	-46.232	0.042	-0.020
-491.522	8.183	-0.046	-0.034
-490.508	-200.000	0.018	0.380
-489.493	-49.163	0.227	-0.108
-488.478	72.110	0.301	-0.312
-487.464	544.908	-0.020	-0.048
-486.449	800.000	-0.074	-0.230
-485.435	192.384	-0.110	-0.165
-484.420	-126.782	-0.094	-0.014
-483.405	-66.771	-0.055	0.022
-482.391	-200.000	-0.044	0.265
-481.376	-200.000	0.041	0.492
-480.362	307.974	-0.090	-0.168
-479.347	784.947	0.082	-0.224
-478.332	-171.264	0.336	0.011
-477.318	-154.670	-0.336	-0.022
-476.303	54.171	0.173	0.166
-475.289	-162.511	0.354	0.017
-474.274	-79.911	0.135	-0.045
-473.259	-186.921	0.358	0.005
-472.245	-172.824	0.310	0.010
-471.230	-75.353	-0.195	-0.069
-470.216	347.947	0.128	-0.251
-469.201	-60.406	0.244	-0.103
-468.186	-200.000	0.001	-0.040
-467.172	123.976	-0.214	-0.267
-466.157	272.054	-0.100	-0.176
-465.143	203.475	-0.057	-0.087
-464.128	-169.512	0.297	0.011
-463.113	-17.594	0.207	-0.129
-462.099	-200.000	-0.067	0.325
-461.084	-65.735	0.103	0.041
-460.070	43.193	0.096	-0.087
-459.055	-45.580	-0.140	0.069
-458.040	-200.000	-0.001	0.123
-457.026	61.066	0.156	-0.155
-456.011	-200.000	0.020	-0.124
-454.997	9.593	0.220	-0.166
-453.982	-200.000	0.042	-0.313
-452.968	-158.866	0.185	-0.010
-451.953	72.474	0.184	0.191
-450.938	473.975	-0.058	0.131
-449.924	-82.037	-0.197	0.064
-448.909	-171.704	0.088	0.003
-447.895	-200.000	-0.043	0.205
-446.880	-71.609	0.112	-0.042
-445.865	-200.000	-0.001	0.137
-444.851	-95.213	0.267	-0.072
-443.836	-135.500	-0.462	0.055
-442.822	800.000	-0.056	0.156
-441.807	18.951	0.188	0.150
-440.792	-121.849	0.325	0.053
-439.778	302.679	-0.130	0.239
-438.763	-99.850	-0.207	0.052
-437.749	800.000	0.140	0.407
-436.734	-200.000	-0.014	-0.220
-435.719	-17.297	0.194	0.122
-434.705	-66.079	0.132	0.052
-433.690	800.000	-0.053	0.191
-432.676	785.239	0.038	0.105
-431.661	12.234	-0.075	-0.058
-430.646	121.613	-0.134	-0.166
-429.632	-200.000	-0.033	0.166
-428.617	29.946	0.125	0.106
-427.603	29.010	0.100	0.084
-426.588	-151.754	-0.158	-0.012
-425.573	-200.000	-0.008	-0.461
-424.559	9.983	0.193	0.146
-423.544	182.095	-0.147	0.215
-422.530	144.903	-0.054	-0.072
-421.515	5.848	0.257	0.189
-420.500	50.779	0.418	0.393
-419.486	-150.030	-0.191	0.015
-418.471	-45.448	0.222	-0.109
-417.457	86.197	0.226	-0.248
-416.442	-61.624	-0.118	0.049
-415.428	54.553	-0.070	-0.067
-414.413	800.000	0.170	-0.592
-413.398	-200.000	0.000	0.456
-412.384	-130.271	0.160	0.022
-411.369	-200.000	-0.004	0.059
-410.355	17.587	-0.051	-0.041
-409.340	-9.412	0.242	0.160
-408.325	277.313	-0.038	-0.067
-407.311	-200.000	-0.023	-0.115
-406.296	51.118	0.104	-0.098
-405.282	-200.000	-0.002	0.038
-404.267	800.000	-0.058	-0.208
-403.252	64.334	-0.178	0.179
-402.238	-161.707	-0.074	0.004
-401.223	321.701	0.075	-0.142
-400.209	-200.000	-0.011	0.055
-399.194	164.801	-0.058	-0.081
-398.179	800.000	-0.011	0.047
-397.165	-200.000	0.009	0.076
-396.150	-44.974	0.385	0.190
-395.136	281.321	-0.112	-0.199
-394.121	224.022	0.188	-0.302
-393.106	-200.000	-0.019	0.146
-392.092	84.431	0.111	0.121
-391.077	800.000	0.089	0.266
-390.063	-24.837	0.128	0.076
-389.048	116.898	-0.216	-0.264
-388.033	-200.000	-0.000	-0.214
-387.019	-31.885	-0.251	0.140
-386.004	-5.460	-0.237	-0.161
-384.990	-89.643	-0.344	-0.100
-383.975	-200.000	0.011	-0.048
-382.960	-96.123	0.135	0.036
-381.946	420.082	-0.191	0.407
-380.931	-200.000	0.012	0.114
-379.917	-124.664	0.231	0.036
-378.902	-111.078	-0.146	-0.030
-377.888	-200.000	-0.013	-0.076
-376.873	666.785	-0.075	0.191
-375.858	800.000	-0.098	0.334
-374.844	800.000	0.046	-0.144
-373.829	-104.585	-0.348	-0.080
-372.815	252.904	-0.194	-0.329
-371.800	-51.534	0.106	0.049
-370.785	-170.297	0.250	0.009
-369.771	-200.000	0.053	-0.284
-368.756	-44.143	0.084	-0.042
-367.742	-66.360	-0.227	-0.089
-366.727	800.000	-0.106	-0.344
-365.712	368.702	0.105	0.212
-364.698	245.513	-0.177	0.295
-363.683	-68.264	-0.378	0.146
-362.669	19.549	0.185	-0.147
-361.654	-200.000	0.002	-0.252
-360.639	375.660	-0.135	0.273
-359.625	302.510	-0.091	-0.166
-358.610	34.610	-0.218	0.189
-357.596	-128.001	-0.225	-0.032
-356.581	-69.823	-0.301	-0.114
-355.566	-200.000	-0.010	-0.098
-354.552	-30.039	-0.356	0.201
-353.537	-200.000	-0.002	0.429
-352.523	170.359	-0.090	-0.128
-351.508	-76.554	-0.184	0.064
-350.493	800.000	-0.022	0.087
-349.479	-200.000	-0.003	0.145
-348.464	56.359	-0.172	0.166
-347.450	230.605	0.098	-0.160
-346.435	-11.472	-0.146	0.095
-345.420	589.202	-0.152	-0.372
-344.406	-20.887	0.366	-0.222
-343.391	-33.634	0.470	-0.257
-342.377	123.457	0.023	-0.029
-341.362	800.000	-0.026	-0.087
-340.348	-162.220	0.208	-0.010
-339.333	22.208	0.076	-0.061
-338.318	28.948	0.033	-0.028
-337.304	-200.000	0.001	0.302
-336.289	181.747	-0.193	0.282
-335.275	390.766	0.111	-0.228
-334.260	-44.580	0.040	0.020
-333.245	188.788	0.247	0.366
-332.231	-89.327	-0.164	0.048
-331.216	-200.000	-0.038	-0.520
-330.202	314.262	-0.099	-0.184
-329.187	-77.166	-0.299	0.103
-328.172	800.000	-0.079	0.280
-327.158	-49.003	0.093	0.044
-326.143	6.701	0.255	-0.188
-325.129	-200.000	-0.021	0.224
-324.114	102.931	0.352	-0.408
-323.099	-200.000	-0.022	0.170
-322.085	-21.715	-0.152	0.091
-321.070	61.810	-0.225	0.222
-320.056	466.758	0.031	-0.070
-319.041	16.321	0.250	-0.196
-318.026	-52.551	0.317	-0.145
-317.012	-96.267	-0.216	0.057
-315.997	-14.056	0.213	0.136
-314.983	266.693	-0.141	-0.243
-313.968	641.247	0.087	-0.220
-312.953	153.081	-0.223	-0.302
-311.939	-200.000	0.012	0.072
-310.924	36.240	-0.256	0.223
-309.910	-1.858	-0.383	0.267
-308.895	-177.423	0.328	-0.008
-307.880	405.861	0.097	0.203
-306.866	-86.290	-0.156	-0.047
-305.851	65.304	-0.043	-0.043
-304.837	10.801	-0.139	0.105
-303.822	-200.000	0.017	-0.198
-302.807	26.936	-0.285	0.237
-301.793	-78.719	0.233	0.079
-300.778	63.830	0.191	-0.190
-299.764	638.011	-0.052	-0.131
-298.749	-200.000	-0.003	-0.092
-297.735	-86.955	0.095	0.029
-296.720	10.346	-0.139	-0.104
-295.705	-147.007	-0.101	0.009
-294.691	270.125	-0.232	0.403
-293.676	10.624	-0.154	0.116
-292.662	121.211	-0.195	0.240
-291.647	151.513	0.129	-0.174
-290.632	-200.000	0.007	0.138
-289.618	-86.720	0.194	-0.059
-288.603	-30.542	0.146	0.082
-287.589	-162.916	0.055	0.003
-286.574	69.150	0.210	-0.213
-285.559	-2.521	-0.330	0.229
-284.545	555.015	-0.139	-0.330
-283.530	-200.000	-0.010	0.285
-282.516	800.000	0.040	-0.149
-281.501	800.000	0.036	-0.133
-280.486	-200.000	0.028	-0.233
-279.472	-72.597	0.182	0.067
-278.457	40.870	-0.304	0.271
-277.443	135.230	-0.095	0.122
-276.428	46.220	-0.153	-0.140
-275.413	429.151	-0.132	-0.281
-274.399	16.417	0.190	-0.148
-273.384	108.754	-0.040	-0.048
-272.370	-122.248	-0.221	-0.036
-271.355	800.000	-0.066	0.206
-270.340	17.024	0.118	0.093
-269.326	-151.904	-0.237	-0.017
-268.311	-91.150	0.104	-0.030
-267.297	-200.000	-0.011	-0.126
-266.282	-42.625	0.358	0.180
-265.267	315.519	0.223	0.415
-264.253	-48.520	0.239	0.114
-263.238	-56.897	-0.212	-0.092
-262.224	800.000	0.068	-0.227
-261.209	-58.706	-0.232	0.099
-260.195	308.301	-0.092	0.170
-259.180	-200.000	-0.018	-0.317
-258.165	207.816	0.129	0.199
-257.151	66.672	-0.079	0.080
-256.136	473.551	0.016	-0.035
-255.122	94.436	0.058	-0.065
-254.107	-15.351	0.195	-0.123
-253.092	-200.000	0.002	-0.338
-252.078	-40.413	-0.173	0.089
-251.063	-41.985	-0.082	0.041
-250.049	-82.170	-0.118	-0.038
-249.034	-117.057	-0.466	-0.084
-248.019	-80.836	-0.223	0.073
-247.005	-62.672	0.155	0.063
-245.990	561.352	-0.022	-0.054
-244.976	118.353	0.029	0.035
-243.961	-138.897	-0.110	0.012
-242.946	800.000	0.055	0.218
-241.932	231.584	-0.112	-0.182
-240.917	-41.663	-0.352	-0.179
-239.903	-200.000	-0.030	-0.337
-238.888	-200.000	0.009	-0.085
-237.873	-200.000	0.013	-0.206
-236.859	-200.000	-0.020	0.372
-235.844	-123.343	-0.301	0.047
-234.830	-63.666	-0.278	-0.113
-233.815	-153.052	0.328	0.023
-232.800	-200.000	0.003	0.144
-231.786	-52.142	-0.138	0.063
-230.771	122.711	0.129	0.159
-229.757	-59.102	-0.230	-0.098
-228.742	-104.690	0.183	0.042
-227.727	-51.231	-0.236	0.109
-226.713	384.174	-0.095	0.194
-225.698	59.524	0.159	-0.155
-224.684	800.000	0.117	-0.358
-223.669	800.000	-0.085	0.253
-222.655	294.235	-0.069	0.124
-221.640	209.911	0.158	0.245
-220.625	87.755	0.227	0.248
-219.611	162.116	-0.202	-0.280
-218.596	127.637	-0.149	-0.186
-217.582	-57.391	-0.492	0.213
-216.567	106.650	-0.194	-0.227
-215.552	184.027	-0.129	-0.188
-214.538	800.000	-0.024	-0.093
-213.523	443.104	0.046	-0.099
-212.509	270.788	-0.055	-0.096
-211.494	-200.000	0.009	-0.235
-210.479	-93.381	-0.199	-0.054
-209.465	800.000	0.107	-0.297
-208.450	183.245	0.163	-0.237
-207.436	-61.608	0.091	0.037
-206.421	-200.000	0.029	0.182
-205.406	-78.390	0.171	0.058
-204.392	-118.036	0.241	-0.042
-203.377	-94.369	-0.156	0.042
-202.363	800.000	-0.074	0.247
-201.348	-27.943	0.145	-0.083
-200.333	-33.733	-0.040	0.022
-199.319	-200.000	-0.007	0.088
-198.304	76.993	0.110	0.116
-197.290	-200.000	0.009	0.110
-196.275	172.011	0.190	-0.270
-195.260	399.412	0.089	0.183
-194.246	132.981	0.387	0.492
-193.231	360.504	0.168	0.331
-192.217	-19.180	-0.171	0.105
-191.202	-80.215	0.194	-0.064
-190.187	53.225	0.073	-0.069
-189.173	295.514	0.171	-0.308
-188.158	-97.161	0.140	0.036
-187.144	371.489	-0.079	-0.158
-186.129	50.666	0.385	0.359
-185.114	557.757	0.168	0.399
-184.100	63.819	-0.156	-0.154
-183.085	290.644	-0.190	0.340
-182.071	99.590	0.047	-0.054
-181.056	-100.903	-0.142	-0.034
-180.042	49.301	-0.070	-0.065
-179.027	291.936	0.181	0.324
-178.012	-200.000	-0.005	0.104
-176.998	119.380	-0.231	0.282
-175.983	800.000	-0.067	0.224
-174.969	-200.000	0.028	0.166
-173.954	-94.312	0.105	0.028
-172.939	389.217	-0.200	0.408
-171.925	-39.854	-0.401	-0.206
-170.910	-111.790	-0.049	0.010
-169.896	78.111	0.075	-0.079
-168.881	-72.723	0.322	-0.117
-167.866	8.292	-0.260	-0.192
-166.852	540.934	0.037	-0.088
-165.837	-180.375	-0.133	-0.003
-164.823	65.589	0.248	0.247
-163.808	398.777	0.104	-0.214
-162.793	-148.443	0.149	-0.012
-161.779	-39.422	0.248	0.128
-160.764	19.917	-0.442	0.351
-159.750	-166.055	0.162	0.007
-158.735	-66.080	0.076	0.030
-157.720	-78.394	0.258	-0.087
-156.706	-200.000	0.008	0.476
-155.691	-95.737	-0.204	-0.054
-154.677	-101.140	0.217	0.052
-153.662	-33.964	-0.087	0.047
-152.647	800.000	-0.170	0.465
-151.633	765.495	-0.080	-0.215
-150.618	6.760	0.140	0.103
-149.604	-36.148	0.261	0.139
-148.589	219.515	0.105	-0.165
-147.574	123.488	-0.083	-0.102
-146.560	-173.579	-0.284	0.008
-145.545	-128.106	0.281	0.040
-144.531	97.076	0.034	0.039
-143.516	-112.419	-0.119	0.023
-142.502	16.200	0.199	-0.155
-141.487	197.655	0.154	-0.231
-140.472	-200.000	0.016	-0.103
-139.458	-136.057	0.203	0.023
-138.443	53.432	-0.215	0.203
-137.429	-123.686	-0.150	-0.023
-136.414	-117.467	0.098	0.017
-135.399	105.285	-0.159	0.184
-134.385	-168.041	0.591	-0.023
-133.370	234.343	0.147	0.238
-132.356	-66.808	-0.229	-0.089
-131.341	-200.000	-0.037	0.316
-130.326	-22.385	0.297	-0.177
-129.312	-200.000	-0.019	0.204
-128.297	-103.466	-0.174	0.040
-127.283	-200.000	0.033	0.378
-126.268	-59.734	0.254	-0.107
-125.253	8.371	-0.222	0.164
-124.239	-60.735	-0.491	-0.205
-123.224	800.000	0.006	0.019
-122.210	194.509	0.090	0.134
-121.195	30.030	0.190	-0.159
