DTS Sentinel unit serial number:	SN413079Multiplexer serial number:	ORYXHardware model number:	OX4-SRSoftware version number:	ORYX F/W v4.00 Oryx Data Collector v3.7.2.0data status	okinstallation	princeton_trtdifferential loss correction	single-endedforward channel	channel 1reverse channel	N/Adate	2019/09/14time	12:22:35forward acquisition time	60.00reverse acquisition time	0.00gamma	496.2192k internal	0.2295k external	0.2295temperature offset calibration	1.0083default loss term (dB/km)	0.3790temperature slope calibration	1.0000multiplexer offset coefficient	1.0000multiplexer slope coefficient	1.0000fibre end	0.00T internal ref (°C)	37.77T ext. ref 1 (°C)	4.75T ext. ref 2 (°C)	34.83length (m)	temperature (°C)	Stokes	anti-Stokes-747.200	31.538	-0.129	-0.113
-746.185	488.211	-0.078	0.181
-745.171	-200.000	0.001	-0.240
-744.156	15.206	0.123	0.098
-743.142	-200.000	-0.017	-0.136
-742.127	-59.866	0.112	-0.049
-741.112	121.231	-0.154	0.197
-740.098	610.497	-0.075	-0.192
-739.083	426.251	0.098	0.216
-738.069	-24.310	-0.166	0.101
-737.054	-174.028	-0.230	-0.007
-736.039	-200.000	-0.069	-0.350
-735.025	-155.956	-0.232	-0.015
-734.010	155.295	0.120	-0.169
-732.996	-50.980	-0.186	0.089
-731.981	-200.000	-0.032	0.368
-730.966	-200.000	0.012	-0.185
-729.952	800.000	-0.035	-0.127
-728.937	-167.456	-0.241	-0.010
-727.923	189.267	0.116	0.177
-726.908	2.082	0.052	0.038
-725.894	800.000	-0.071	-0.265
-724.879	5.461	-0.091	0.068
-723.864	544.278	-0.093	-0.226
-722.850	-150.132	-0.085	0.007
-721.835	-3.081	-0.145	0.103
-720.821	-77.897	0.215	0.076
-719.806	-200.000	-0.016	0.181
-718.791	-32.435	0.101	0.057
-717.777	-90.750	-0.266	0.078
-716.762	-136.294	-0.296	-0.035
-715.748	-82.980	0.156	-0.051
-714.733	-200.000	0.001	-0.265
-713.718	-57.999	0.134	-0.060
-712.704	-92.058	0.147	0.042
-711.689	-61.740	-0.172	-0.073
-710.675	800.000	-0.051	0.179
-709.660	188.566	0.071	-0.109
-708.645	186.856	-0.028	-0.043
-707.631	-200.000	-0.011	0.228
-706.616	-151.218	0.277	-0.021
-705.602	13.533	0.110	-0.087
-704.587	-65.520	0.165	0.068
-703.572	226.292	-0.097	0.161
-702.558	-157.260	-0.107	-0.007
-701.543	406.994	0.062	-0.133
-700.529	-200.000	-0.042	-0.321
-699.514	-159.072	-0.139	0.008
-698.499	-200.000	0.059	0.278
-697.485	80.607	0.174	-0.192
-696.470	-37.956	-0.230	-0.124
-695.456	151.977	-0.174	0.243
-694.441	-157.125	-0.336	-0.021
-693.426	220.467	-0.092	-0.150
-692.412	36.075	-0.258	-0.232
-691.397	800.000	-0.089	-0.324
-690.383	-121.010	-0.144	0.025
-689.368	554.766	0.057	-0.140
-688.354	67.090	-0.157	0.163
-687.339	49.296	0.171	-0.164
-686.324	-5.039	-0.127	-0.089
-685.310	-121.794	-0.144	-0.024
-684.295	424.716	-0.118	-0.259
-683.281	120.530	0.083	0.105
-682.266	-200.000	-0.262	0.000
-681.251	64.575	-0.295	0.304
-680.237	-98.246	0.162	0.042
-679.222	-24.145	0.233	-0.142
-678.208	-68.209	0.286	-0.113
-677.193	55.207	0.198	0.195
-676.178	156.851	-0.351	0.495
-675.164	-93.523	-0.053	0.015
-674.149	-28.726	-0.313	-0.184
-673.135	-137.668	-0.164	-0.019
-672.120	-62.008	-0.094	0.040
-671.105	240.690	0.294	0.500
-670.091	-87.706	-0.223	0.068
-669.076	-168.539	-0.313	-0.012
-668.062	-84.161	-0.124	-0.040
-667.047	-92.794	0.113	0.032
-666.032	-108.241	-0.083	-0.018
-665.018	337.654	-0.041	-0.080
-664.003	30.281	0.219	0.191
-662.989	-116.780	0.170	-0.032
-661.974	-6.786	0.142	0.098
-660.959	56.625	-0.228	-0.226
-659.945	-145.104	-0.137	0.013
-658.930	-200.000	-0.023	-0.368
-657.916	-6.633	-0.142	-0.098
-656.901	665.014	-0.052	-0.136
-655.886	-145.266	-0.465	-0.043
-654.872	281.499	0.091	0.165
-653.857	800.000	-0.136	-0.389
-652.843	-49.351	0.154	-0.075
-651.828	-24.317	-0.394	0.239
-650.814	-16.466	0.175	0.113
-649.799	394.756	-0.152	-0.323
-648.784	139.139	-0.139	0.186
-647.770	-200.000	-0.033	0.361
-646.755	464.389	0.124	-0.282
-645.741	-43.418	0.197	-0.101
-644.726	-135.937	0.200	-0.024
-643.711	575.739	-0.097	-0.242
-642.697	-200.000	0.066	-0.318
-641.682	91.538	0.213	0.244
-640.668	279.371	0.201	-0.366
-639.653	-77.698	-0.175	-0.062
-638.638	-163.251	0.109	0.005
-637.624	409.005	-0.019	0.041
-636.609	16.189	-0.259	0.208
-635.595	264.413	-0.131	0.233
-634.580	-105.544	0.294	-0.068
-633.565	146.196	0.118	0.162
-632.551	323.011	-0.089	0.173
-631.536	-10.326	-0.442	0.298
-630.522	-9.770	0.080	0.054
-629.507	285.299	0.099	0.182
-628.492	5.822	0.151	0.114
-627.478	-73.239	0.206	-0.077
-626.463	-118.369	0.196	-0.035
-625.449	-64.500	-0.288	0.119
-624.434	50.864	-0.338	0.326
-623.419	-95.420	0.147	0.040
-622.405	-50.744	0.350	-0.168
-621.390	800.000	-0.048	-0.150
-620.376	-85.368	-0.043	0.014
-619.361	-200.000	-0.052	-0.280
-618.346	182.948	0.047	-0.070
-617.332	176.505	0.024	0.036
-616.317	-171.925	0.350	-0.012
-615.303	-104.305	0.266	0.063
-614.288	151.132	-0.082	-0.114
-613.273	-10.445	0.080	-0.054
-612.259	-81.683	-0.224	0.075
-611.244	-41.071	0.178	-0.094
-610.230	131.842	-0.112	-0.147
-609.215	267.266	0.127	-0.226
-608.201	-83.256	0.368	-0.120
-607.186	-64.855	0.132	0.054
-606.171	71.218	0.103	-0.109
-605.157	-144.492	-0.173	0.016
-604.142	18.673	-0.022	-0.018
-603.128	-200.000	-0.004	0.118
-602.113	569.840	0.084	-0.207
-601.098	-200.000	-0.002	-0.117
-600.084	800.000	0.123	0.348
-599.069	282.508	-0.213	0.389
-598.055	-18.792	-0.277	-0.175
-597.040	-77.667	-0.077	0.027
-596.025	-200.000	0.091	-0.492
-595.011	-126.896	-0.253	0.038
-593.996	773.439	-0.061	0.169
-592.982	-200.000	-0.057	-0.333
-591.967	-155.193	0.242	0.016
-590.952	-66.886	-0.300	-0.120
-589.938	58.243	-0.153	0.152
-588.923	190.806	-0.109	-0.167
-587.909	74.449	-0.207	-0.221
-586.894	-5.273	0.097	-0.068
-585.879	-143.404	-0.253	0.025
-584.865	-129.385	0.115	-0.016
-583.850	211.934	-0.061	0.097
-582.836	-38.915	-0.261	0.139
-581.821	133.038	-0.120	-0.157
-580.806	-200.000	0.012	0.061
-579.792	-40.814	-0.095	0.050
-578.777	-10.672	0.425	0.285
-577.763	-13.660	-0.345	-0.227
-576.748	269.690	0.016	0.028
-575.733	125.757	-0.023	0.029
-574.719	-80.772	0.052	-0.018
-573.704	-200.000	-0.005	-0.154
-572.690	92.196	-0.179	0.205
-571.675	53.383	-0.017	-0.016
-570.661	15.113	0.234	0.186
-569.646	259.354	-0.177	0.310
-568.631	124.325	-0.061	-0.078
-567.617	800.000	-0.036	0.158
-566.602	53.139	-0.177	0.172
-565.588	-70.371	0.304	-0.117
-564.573	58.038	-0.080	-0.079
-563.558	-200.000	0.031	0.000
-562.544	-110.077	-0.298	0.063
-561.529	513.763	-0.004	-0.011
-560.515	578.570	-0.092	0.229
-559.500	-82.639	-0.196	0.064
-558.485	547.943	-0.035	-0.086
-557.471	-19.598	0.057	0.036
-556.456	30.266	-0.097	-0.084
-555.442	-89.910	0.194	-0.058
-554.427	-160.582	0.251	0.014
-553.412	37.828	0.292	-0.264
-552.398	-200.000	-0.003	0.197
-551.383	-143.935	-0.253	0.024
-550.369	-166.006	0.098	0.004
-549.354	-200.000	0.024	0.150
-548.339	-61.357	-0.204	0.087
-547.325	154.624	0.108	-0.150
-546.310	-200.000	-0.002	0.090
-545.296	800.000	-0.018	-0.060
-544.281	800.000	0.061	-0.177
-543.266	237.622	-0.105	0.176
-542.252	-200.000	-0.018	-0.190
-541.237	-61.535	-0.132	0.056
-540.223	-105.442	0.353	-0.081
-539.208	331.945	-0.007	-0.013
-538.193	405.046	-0.084	-0.180
-537.179	-65.440	0.177	0.072
-536.164	-20.430	-0.248	-0.155
-535.150	-200.000	-0.016	-0.132
-534.135	-71.347	-0.126	0.048
-533.121	-152.738	0.121	0.009
-532.106	83.907	0.116	-0.128
-531.091	-200.000	-0.106	0.000
-530.077	72.948	-0.037	0.039
-529.062	-129.134	0.315	0.045
-528.048	-200.000	0.016	0.202
-527.033	-73.992	-0.150	0.055
-526.018	173.989	0.247	-0.362
-525.004	800.000	-0.073	-0.216
-523.989	-31.548	0.072	-0.041
-522.975	-122.247	-0.108	0.018
-521.960	800.000	-0.090	-0.359
-520.945	-200.000	0.030	-0.267
-519.931	-141.836	-0.058	-0.006
-518.916	259.502	0.227	-0.397
-517.902	-200.000	0.006	0.082
-516.887	-160.793	0.257	-0.014
-515.872	155.977	0.215	0.300
-514.858	-17.813	-0.327	-0.208
-513.843	32.957	0.122	-0.107
-512.829	552.688	-0.026	0.063
-511.814	227.997	0.192	0.317
-510.799	-200.000	-0.064	-0.457
-509.785	-50.311	-0.041	0.020
-508.770	-13.305	-0.112	-0.074
-507.756	94.295	-0.105	-0.120
-506.741	-101.032	0.294	-0.073
-505.726	-200.000	0.012	0.149
-504.712	-76.371	0.039	-0.014
-503.697	64.377	0.097	0.099
-502.683	-19.491	-0.064	-0.040
-501.668	-71.710	0.345	-0.130
-500.653	367.512	0.023	0.047
-499.639	-68.039	0.265	0.105
-498.624	275.280	-0.072	-0.130
-497.610	-200.000	-0.034	-0.337
-496.595	-200.000	-0.032	0.244
-495.581	24.646	0.165	0.138
-494.566	31.938	-0.150	-0.131
-493.551	45.840	0.397	0.372
-492.537	-200.000	-0.000	0.157
-491.522	-46.735	0.390	-0.193
-490.508	800.000	-0.012	0.047
-489.493	800.000	0.113	0.490
-488.478	-66.080	-0.172	0.069
-487.464	158.191	-0.072	0.101
-486.449	445.673	-0.054	-0.121
-485.435	-65.240	-0.250	-0.102
-484.420	-138.362	-0.299	-0.033
-483.405	-106.048	-0.075	-0.017
-482.391	80.997	-0.182	0.199
-481.376	-174.839	0.409	0.012
-480.362	-130.695	-0.349	-0.047
-479.347	-200.000	0.016	-0.261
-478.332	-28.760	0.212	-0.123
-477.318	-22.830	-0.144	-0.088
-476.303	595.261	0.070	-0.176
-475.289	800.000	0.044	-0.163
-474.274	163.889	0.168	-0.239
-473.259	-60.654	-0.086	-0.037
-472.245	9.850	-0.264	0.203
-471.230	-120.835	-0.285	0.049
-470.216	-42.335	0.405	0.209
-469.201	301.443	-0.083	0.156
-468.186	-11.801	-0.261	-0.173
-467.172	-200.000	-0.007	-0.112
-466.157	-4.214	-0.166	-0.116
-465.143	-36.796	-0.193	-0.105
-464.128	-63.485	0.126	-0.053
-463.113	136.685	-0.191	-0.252
-462.099	-200.000	-0.010	0.340
-461.084	-43.752	-0.106	0.054
-460.070	-136.688	-0.487	0.057
-459.055	-46.818	0.182	0.090
-458.040	-200.000	0.046	0.230
-457.026	-42.404	-0.101	0.052
-456.011	-200.000	0.019	0.253
-454.997	38.079	0.082	0.074
-453.982	-50.588	0.050	-0.024
-452.968	89.267	0.263	0.297
-451.953	-200.000	-0.040	0.215
-450.938	800.000	-0.080	-0.330
-449.924	-97.173	-0.154	-0.041
-448.909	-200.000	-0.065	-0.429
-447.895	-144.716	0.190	0.018
-446.880	197.314	0.027	-0.041
-445.865	45.620	0.207	0.194
-444.851	-200.000	-0.004	-0.041
-443.836	213.437	-0.064	0.103
-442.822	-13.112	0.120	0.079
-441.807	388.830	-0.145	-0.304
-440.792	-86.656	-0.279	0.086
-439.778	-200.000	0.014	0.212
-438.763	-86.201	-0.212	-0.066
-437.749	31.736	0.129	-0.112
-436.734	30.401	0.248	0.214
-435.719	-200.000	0.016	-0.168
-434.705	-84.691	-0.120	-0.038
-433.690	-56.495	-0.287	-0.128
-432.676	-84.112	-0.067	0.021
-431.661	-108.969	-0.096	-0.021
-430.646	11.548	0.189	-0.147
-429.632	-200.000	-0.050	0.378
-428.617	-83.341	0.441	-0.143
-427.603	-200.000	-0.020	-0.199
-426.588	-200.000	0.027	0.157
-425.573	-114.470	0.300	0.058
-424.559	-18.591	0.188	-0.118
-423.544	800.000	0.020	0.068
-422.530	654.424	-0.051	-0.133
-421.515	-200.000	0.021	-0.342
-420.500	-80.825	-0.165	-0.055
-419.486	-34.048	-0.067	-0.037
-418.471	-82.726	-0.220	-0.072
-417.457	800.000	0.088	0.281
-416.442	-35.983	-0.197	0.107
-415.428	-76.412	-0.002	0.001
-414.413	536.218	0.122	0.293
-413.398	-14.529	-0.079	0.051
-412.384	-123.606	-0.112	-0.018
-411.369	-12.040	0.158	0.105
-410.355	-200.000	0.017	-0.196
-409.340	-200.000	0.021	-0.283
-408.325	232.461	-0.175	-0.290
-407.311	800.000	0.062	-0.199
-406.296	-126.819	0.157	-0.023
-405.282	486.581	-0.105	0.242
-404.267	640.686	0.036	0.093
-403.252	120.639	-0.060	0.076
-402.238	-67.900	-0.358	0.141
-401.223	-153.070	-0.253	0.018
-400.209	164.354	0.133	-0.190
-399.194	-80.348	0.055	-0.019
-398.179	-120.103	-0.177	0.031
-397.165	323.977	0.047	0.091
-396.150	-105.138	0.394	-0.091
-395.136	55.991	0.117	-0.114
-394.121	-62.543	-0.262	0.110
-393.106	-58.926	0.294	0.128
-392.092	480.579	0.089	-0.203
-391.077	800.000	0.055	0.172
-390.063	-95.062	-0.268	0.073
-389.048	800.000	-0.069	-0.203
-388.033	131.081	-0.145	-0.187
-387.019	13.116	-0.120	-0.093
-386.004	-8.607	0.072	0.048
-384.990	-200.000	0.028	-0.423
-383.975	-71.709	-0.185	0.070
-382.960	-200.000	0.094	-0.000
-381.946	-200.000	0.025	-0.278
-380.931	-40.941	0.161	-0.084
-379.917	128.725	0.072	0.093
-378.902	-69.660	0.281	-0.108
-377.888	-96.471	0.029	0.008
-376.873	198.076	-0.176	0.271
-375.858	-200.000	0.034	0.324
-374.844	-67.800	-0.078	-0.031
-373.829	-196.325	0.162	-0.001
-372.815	232.086	0.108	0.178
-371.800	-112.670	0.198	0.040
-370.785	221.532	-0.044	0.071
-369.771	50.061	0.259	0.246
-368.756	-200.000	0.012	-0.462
-367.742	58.533	0.235	-0.232
-366.727	800.000	-0.077	-0.305
-365.712	-166.964	-0.027	-0.001
-364.698	276.976	-0.052	0.093
-363.683	247.250	0.197	-0.336
-362.669	237.838	-0.157	0.262
-361.654	86.499	-0.090	0.100
-360.639	-66.900	0.113	-0.045
-359.625	-121.308	-0.399	0.067
-358.610	800.000	-0.030	0.109
-357.596	64.375	0.137	-0.139
-356.581	-105.094	-0.130	0.030
-355.566	194.380	-0.135	0.206
-354.552	-181.897	-0.225	-0.004
-353.537	418.425	-0.107	0.231
-352.523	1.634	0.139	0.101
-351.508	32.548	0.036	0.032
-350.493	-91.583	0.541	-0.155
-349.479	-132.721	-0.103	0.013
-348.464	-159.688	-0.238	-0.013
-347.450	190.195	0.197	-0.297
-346.435	-47.189	0.047	-0.023
-345.420	-111.911	-0.177	-0.036
-344.406	800.000	-0.097	0.345
-343.391	2.812	-0.166	0.121
-342.377	272.930	0.083	-0.148
-341.362	-75.612	-0.252	0.090
-340.348	-124.710	0.143	-0.022
-339.333	-2.284	0.397	-0.281
-338.318	-12.914	-0.355	0.232
-337.304	-97.454	0.143	-0.037
-336.289	-149.996	-0.089	0.007
-335.275	476.890	-0.105	-0.239
-334.260	-137.047	-0.129	0.015
-333.245	-47.793	0.091	0.044
-332.231	-149.363	-0.046	0.004
-331.216	-80.851	0.007	0.002
-330.202	-126.101	0.072	-0.011
-329.187	-200.000	-0.009	0.165
-328.172	29.949	0.222	0.190
-327.158	342.933	-0.101	-0.199
-326.143	800.000	-0.035	0.128
-325.129	797.885	-0.071	0.198
-324.114	12.683	0.066	0.051
-323.099	144.079	-0.128	0.171
-322.085	-200.000	-0.036	0.592
-321.070	-200.000	-0.042	0.188
-320.056	-90.242	0.429	0.125
-319.041	19.959	0.291	0.236
-318.026	-123.087	-0.348	0.056
-317.012	-200.000	0.001	-0.093
-315.997	602.910	-0.076	-0.189
-314.983	200.710	-0.130	0.200
-313.968	6.002	-0.042	0.031
-312.953	363.597	0.166	-0.336
-311.939	17.546	0.139	-0.111
-310.924	-62.944	-0.053	0.022
-309.910	141.452	0.110	0.146
-308.895	-134.803	0.227	0.028
-307.880	242.665	0.167	-0.281
-306.866	-65.016	-0.301	-0.122
-305.851	-74.794	0.254	-0.092
-304.837	106.951	-0.190	-0.227
-303.822	800.000	-0.024	0.095
-302.807	-27.966	0.175	-0.102
-301.793	143.297	-0.203	-0.271
-300.778	18.608	-0.066	-0.053
-299.764	-76.955	-0.177	-0.062
-298.749	-45.180	0.226	-0.113
-297.735	-116.897	0.257	-0.047
-296.720	423.441	0.174	0.377
-295.705	-200.000	-0.021	0.155
-294.691	40.950	-0.054	0.049
-293.676	62.066	0.188	0.188
-292.662	142.024	0.204	0.272
-291.647	-38.268	-0.268	0.142
-290.632	46.392	0.071	0.066
-289.618	-54.940	-0.263	0.119
-288.603	-21.872	0.229	-0.140
-287.589	46.975	0.110	-0.103
-286.574	203.809	-0.076	-0.118
-285.559	800.000	-0.076	-0.288
-284.545	-200.000	-0.058	-0.355
-283.530	108.082	0.151	0.180
-282.516	-74.223	-0.064	0.023
-281.501	370.256	-0.026	0.053
-280.486	-70.354	0.112	0.043
-279.472	244.016	0.153	0.258
-278.457	143.880	0.081	0.109
-277.443	-101.959	0.315	0.076
-276.428	572.431	0.046	-0.112
-275.413	-21.209	-0.162	-0.099
-274.399	473.696	0.043	-0.098
-273.384	258.417	0.049	-0.085
-272.370	85.743	-0.153	-0.169
-271.355	-156.152	0.138	0.009
-270.340	-200.000	0.048	0.339
-269.326	54.483	-0.336	0.325
-268.311	-24.175	0.242	0.145
-267.297	41.290	-0.168	0.153
-266.282	311.556	-0.154	0.290
-265.267	113.751	-0.176	0.215
-264.253	104.023	0.216	-0.255
-263.238	139.134	0.179	-0.236
-262.224	-60.355	-0.146	0.062
-261.209	334.767	-0.172	0.335
-260.195	-200.000	-0.011	0.131
-259.180	-145.407	0.163	-0.015
-258.165	-117.463	0.207	-0.038
-257.151	-47.713	0.087	-0.042
-256.136	-86.673	0.101	-0.031
-255.122	-92.079	0.231	-0.065
-254.107	-132.258	0.401	-0.052
-253.092	-89.952	-0.216	0.063
-252.078	-78.765	-0.122	0.042
-251.063	247.078	0.069	-0.116
-250.049	227.114	0.059	-0.095
-249.034	-131.641	-0.125	0.016
-248.019	-200.000	0.006	0.055
-247.005	-191.611	0.357	-0.004
-245.990	-13.940	-0.206	0.133
-244.976	800.000	-0.079	-0.316
-243.961	360.779	0.090	-0.182
-242.946	-143.691	-0.017	-0.002
-241.932	-63.985	0.329	0.135
-240.917	-200.000	-0.216	0.001
-239.903	216.038	-0.225	0.358
-238.888	541.749	-0.109	0.260
-237.873	316.899	0.147	0.279
-236.859	330.518	0.140	-0.271
-235.844	-105.281	-0.380	0.087
-234.830	-54.418	-0.261	0.119
-233.815	-200.000	0.023	0.153
-232.800	-32.489	0.198	0.110
-231.786	-200.000	-0.017	0.109
-230.771	-29.027	0.162	0.093
-229.757	-0.637	-0.086	-0.061
-228.742	-30.662	-0.216	0.123
-227.727	377.015	-0.116	0.237
-226.713	667.692	-0.074	-0.191
-225.698	800.000	0.067	-0.245
-224.684	-103.553	-0.471	0.111
-223.669	111.047	-0.173	-0.209
-222.655	-200.000	0.008	-0.143
-221.640	-200.000	-0.002	-0.172
-220.625	-91.595	0.168	0.048
-219.611	-86.363	0.322	0.099
-218.596	-70.731	-0.111	0.042
-217.582	790.054	-0.067	-0.185
-216.567	476.191	0.112	0.254
-215.552	-127.831	-0.348	0.050
-214.538	-38.062	0.177	-0.094
-213.523	333.475	0.033	-0.064
-212.509	239.363	0.171	0.285
-211.494	-200.000	-0.083	-0.479
-210.479	-107.568	0.160	0.035
-209.465	750.399	-0.050	0.135
-208.450	-104.004	-0.134	-0.031
-207.436	-52.750	0.126	0.058
-206.421	-200.000	0.010	0.185
-205.406	-60.585	-0.374	0.159
-204.392	113.105	0.273	0.331
-203.377	-168.809	-0.309	-0.012
-202.363	-200.000	0.049	0.239
-201.348	107.359	-0.159	-0.189
-200.333	-74.558	-0.250	-0.090
-199.319	-0.529	0.075	-0.053
-198.304	324.303	-0.148	0.283
-197.290	98.734	0.201	-0.232
-196.275	-95.041	-0.226	-0.061
-195.260	-110.211	-0.259	-0.054
-194.246	-18.203	-0.208	-0.130
-193.231	-91.250	-0.148	-0.042
-192.217	-200.000	-0.032	0.146
-191.202	-32.050	0.309	-0.173
-190.187	65.875	0.073	-0.074
-189.173	-200.000	-0.003	0.081
-188.158	201.590	0.085	-0.131
-187.144	309.066	0.081	0.151
-186.129	49.681	-0.419	-0.395
-185.114	69.972	-0.013	-0.014
-184.100	800.000	-0.055	-0.158
-183.085	800.000	0.029	0.122
-182.071	-161.379	0.410	-0.021
-181.056	115.136	-0.085	-0.104
-180.042	-19.522	0.195	0.120
-179.027	476.794	0.042	-0.095
-178.012	110.788	0.115	0.138
-176.998	105.233	-0.150	0.177
-175.983	29.593	-0.235	-0.200
-174.969	132.323	-0.215	0.277
-173.954	-179.324	0.235	-0.005
-172.939	58.681	-0.247	-0.243
-171.925	-79.568	-0.061	-0.020
-170.910	-168.729	0.410	-0.016
-169.896	-97.205	0.440	-0.115
-168.881	-156.311	0.245	0.015
-167.866	-5.656	0.080	0.055
-166.852	-156.062	-0.332	-0.021
-165.837	716.875	0.025	0.067
-164.823	-54.290	-0.400	0.181
-163.808	87.298	0.371	0.410
-162.793	-109.469	-0.085	-0.018
-161.779	-100.971	-0.125	-0.031
-160.764	183.358	0.098	-0.144
-159.750	271.694	-0.115	-0.203
-158.735	-28.332	-0.070	0.040
-157.720	-141.533	-0.203	-0.020
-156.706	44.236	-0.066	0.061
-155.691	389.429	-0.121	-0.250
-154.677	217.086	0.097	0.155
-153.662	105.594	0.084	0.099
-152.647	800.000	0.048	-0.150
-151.633	-0.452	-0.176	-0.125
-150.618	-134.596	0.418	0.051
-149.604	-39.522	-0.221	-0.115
-148.589	-111.996	0.069	0.014
-147.574	-25.252	0.186	0.110
-146.560	-200.000	0.063	-0.287
-145.545	-200.000	0.013	0.059
-144.531	63.349	0.240	-0.240
-143.516	361.534	0.078	-0.155
-142.502	67.939	-0.075	0.077
-141.487	9.264	-0.173	0.131
-140.472	-200.000	-0.026	0.140
-139.458	-200.000	0.018	-0.314
-138.443	-40.421	0.217	-0.113
-137.429	-49.877	0.122	0.058
-136.414	800.000	-0.011	0.035
-135.399	-200.000	-0.034	0.280
-134.385	-143.780	0.133	-0.013
-133.370	-48.432	0.207	-0.099
-132.356	179.241	0.133	0.194
-131.341	653.907	-0.187	-0.480
-130.326	180.971	-0.051	-0.074
-129.312	-95.164	0.190	-0.051
-128.297	-43.307	0.073	-0.037
-127.283	-94.967	-0.207	-0.056
-126.268	-182.365	0.293	0.005
-125.253	-200.000	-0.041	-0.183
-124.239	92.239	0.152	-0.171
-123.224	429.535	0.123	0.266
-122.210	-54.239	0.089	0.040
