DTS Sentinel unit serial number:	SN413079Multiplexer serial number:	ORYXHardware model number:	OX4-SRSoftware version number:	ORYX F/W v4.00 Oryx Data Collector v3.7.2.0data status	okinstallation	princeton_trtdifferential loss correction	single-endedforward channel	channel 1reverse channel	N/Adate	2019/09/10time	21:48:11forward acquisition time	60.00reverse acquisition time	0.00gamma	496.2192k internal	0.2331k external	0.2331temperature offset calibration	0.9939default loss term (dB/km)	0.3790temperature slope calibration	1.0000multiplexer offset coefficient	1.0000multiplexer slope coefficient	1.0000fibre end	0.00T internal ref (°C)	30.87T ext. ref 1 (°C)	-0.31T ext. ref 2 (°C)	23.99length (m)	temperature (°C)	Stokes	anti-Stokes-747.200	-200.000	-0.009	0.154
-746.185	-200.000	0.005	-0.404
-745.171	59.525	0.022	-0.022
-744.156	800.000	0.024	0.071
-743.142	-36.372	0.069	0.037
-742.127	230.462	-0.072	0.118
-741.112	-200.000	0.023	-0.124
-740.098	-76.948	-0.479	0.169
-739.083	-148.933	-0.226	0.018
-738.069	-40.213	-0.308	-0.161
-737.054	-109.351	-0.195	-0.042
-736.039	10.612	-0.267	-0.205
-735.025	-116.549	0.221	0.041
-734.010	15.860	-0.245	-0.194
-732.996	37.730	-0.167	0.149
-731.981	800.000	-0.086	-0.269
-730.966	-61.466	0.105	0.044
-729.952	35.281	0.136	0.120
-728.937	-59.696	-0.299	-0.129
-727.923	567.816	0.170	-0.415
-726.908	-0.536	-0.228	-0.163
-725.894	-200.000	0.048	0.236
-724.879	342.664	-0.076	-0.150
-723.864	-200.000	-0.038	-0.234
-722.850	-200.000	-0.035	-0.156
-721.835	104.211	-0.158	0.187
-720.821	209.480	-0.114	0.180
-719.806	-92.707	-0.336	0.095
-718.791	-51.454	-0.153	-0.072
-717.777	208.561	0.109	-0.172
-716.762	-127.664	-0.144	-0.021
-715.748	28.722	0.316	0.269
-714.733	800.000	-0.029	-0.088
-713.718	-4.171	0.046	-0.032
-712.704	-111.793	-0.405	-0.082
-711.689	193.600	0.072	0.110
-710.675	-81.399	0.114	-0.038
-709.660	-178.888	0.191	0.004
-708.645	-96.236	-0.199	0.053
-707.631	-61.560	-0.108	0.046
-706.616	-16.225	0.324	0.207
-705.602	-101.569	0.085	0.021
-704.587	-195.984	0.242	-0.002
-703.572	572.418	-0.099	-0.242
-702.558	31.527	0.141	-0.122
-701.543	-69.908	0.414	-0.159
-700.529	-98.175	-0.219	-0.057
-699.514	-54.231	-0.174	0.080
-698.499	-116.764	-0.120	-0.022
-697.485	-158.064	-0.212	0.013
-696.470	340.009	-0.022	-0.043
-695.456	48.259	0.097	-0.091
-694.441	-7.736	-0.295	0.200
-693.426	-200.000	0.029	0.506
-692.412	-51.566	-0.187	0.088
-691.397	-30.319	0.046	-0.026
-690.383	-200.000	-0.052	0.326
-689.368	112.203	0.031	0.038
-688.354	49.509	0.088	0.083
-687.339	44.402	0.134	0.124
-686.324	-200.000	-0.009	0.218
-685.310	-105.710	0.202	-0.046
-684.295	0.139	-0.157	-0.112
-683.281	-12.802	-0.391	-0.256
-682.266	63.549	-0.138	-0.139
-681.251	88.720	0.075	0.083
-680.237	-184.975	-0.202	-0.003
-679.222	-66.001	-0.243	-0.097
-678.208	-100.837	0.173	0.043
-677.193	-200.000	0.040	-0.219
-676.178	643.452	-0.165	0.423
-675.164	800.000	-0.058	0.169
-674.149	-35.074	-0.316	-0.173
-673.135	-100.558	-0.252	-0.063
-672.120	-78.889	0.344	0.118
-671.105	-58.203	-0.376	-0.164
-670.091	29.751	-0.139	-0.118
-669.076	107.978	-0.221	0.264
-668.062	-42.801	0.134	0.068
-667.047	547.560	-0.073	-0.176
-666.032	130.080	0.221	-0.283
-665.018	-109.650	0.170	0.036
-664.003	-82.295	0.066	-0.021
-662.989	79.630	0.056	-0.060
-661.974	212.434	0.110	0.174
-660.959	-35.201	-0.140	0.077
-659.945	489.420	-0.080	0.183
-658.930	-200.000	-0.017	0.079
-657.916	41.038	-0.080	-0.073
-656.901	-127.983	-0.151	0.022
-655.886	-25.019	0.223	0.133
-654.872	24.885	0.106	-0.088
-653.857	-63.390	-0.163	0.067
-652.843	-78.026	0.245	0.085
-651.828	365.241	0.068	-0.138
-650.814	-200.000	-0.031	0.306
-649.799	-114.204	0.082	0.016
-648.784	800.000	-0.044	0.152
-647.770	-94.588	0.149	0.041
-646.755	74.989	0.239	0.252
-645.741	-135.758	0.094	0.011
-644.726	237.347	-0.070	0.116
-643.711	66.194	-0.183	0.187
-642.697	17.439	-0.110	-0.088
-641.682	-29.625	0.041	0.024
-640.668	94.478	-0.334	0.381
-639.653	169.180	-0.065	0.093
-638.638	429.118	-0.076	-0.166
-637.624	481.578	-0.036	-0.081
-636.609	-49.447	0.183	-0.087
-635.595	214.289	-0.259	0.411
-634.580	-200.000	0.000	-0.177
-633.565	740.965	0.033	-0.089
-632.551	-13.599	-0.230	-0.149
-631.536	312.041	0.138	-0.259
-630.522	259.629	0.092	-0.159
-629.507	78.894	0.116	-0.125
-628.492	142.306	0.097	-0.129
-627.478	293.360	-0.085	0.155
-626.463	142.396	-0.154	0.205
-625.449	214.348	0.215	0.340
-624.434	285.192	-0.215	-0.388
-623.419	-172.559	-0.087	-0.003
-622.405	-200.000	-0.012	-0.206
-621.390	241.525	-0.175	0.292
-620.376	-13.937	-0.093	-0.060
-619.361	385.978	0.053	-0.110
-618.346	-200.000	-0.007	0.282
-617.332	67.622	-0.059	0.060
-616.317	-120.299	-0.253	0.043
-615.303	-147.669	0.162	-0.014
-614.288	-81.880	0.245	0.080
-613.273	446.571	0.090	0.199
-612.259	-77.596	0.391	-0.135
-611.244	186.854	-0.165	0.246
-610.230	139.422	-0.138	0.182
-609.215	-132.824	0.073	-0.009
-608.201	258.899	-0.064	-0.111
-607.186	547.768	0.091	-0.218
-606.171	-57.539	-0.109	-0.048
-605.157	-169.459	-0.184	0.007
-604.142	800.000	-0.045	-0.146
-603.128	20.399	-0.217	-0.175
-602.113	-97.978	0.141	-0.036
-601.098	-149.348	-0.428	-0.034
-600.084	42.799	-0.130	0.118
-599.069	-200.000	0.005	-0.158
-598.055	555.295	-0.094	0.226
-597.040	-165.726	-0.228	0.010
-596.025	361.717	-0.215	-0.432
-595.011	160.185	0.149	-0.207
-593.996	42.113	-0.287	0.261
-592.982	100.832	0.221	-0.257
-591.967	141.976	-0.100	-0.133
-590.952	-100.003	0.316	-0.079
-589.938	-188.248	0.098	0.001
-588.923	-133.673	0.446	-0.056
-587.909	178.903	0.083	-0.121
-586.894	-200.000	0.002	-0.164
-585.879	-200.000	0.019	0.268
-584.865	158.731	0.034	-0.047
-583.850	132.799	0.050	-0.065
-582.836	10.666	0.247	0.189
-581.821	-200.000	0.007	-0.126
-580.806	-95.079	-0.405	-0.109
-579.792	800.000	0.011	-0.046
-578.777	-200.000	-0.000	-0.077
-577.763	149.267	0.177	0.240
-576.748	800.000	0.023	0.067
-575.733	800.000	-0.003	-0.015
-574.719	43.572	-0.034	0.032
-573.704	-91.336	-0.282	0.081
-572.690	-122.816	0.234	-0.038
-571.675	177.679	-0.078	-0.113
-570.661	800.000	-0.091	0.270
-569.646	-67.879	0.136	0.053
-568.631	800.000	-0.035	-0.100
-567.617	475.994	-0.107	-0.242
-566.602	246.089	0.156	0.263
-565.588	-200.000	0.189	-0.001
-564.573	264.982	-0.024	0.041
-563.558	229.007	-0.176	0.287
-562.544	800.000	-0.080	-0.241
-561.529	-79.918	-0.249	-0.084
-560.515	-200.000	0.000	0.161
-559.500	800.000	-0.064	-0.188
-558.485	-136.821	-0.162	-0.019
-557.471	649.989	-0.089	0.227
-556.456	-200.000	-0.021	0.355
-555.442	-200.000	0.017	0.103
-554.427	162.780	-0.200	-0.280
-553.412	-103.732	0.177	-0.041
-552.398	-20.503	-0.202	-0.124
-551.383	800.000	-0.057	-0.160
-550.369	-28.130	0.165	0.095
-549.354	-88.327	-0.354	0.106
-548.339	-134.592	0.420	0.051
-547.325	120.031	0.050	0.061
-546.310	30.051	0.265	0.226
-545.296	-200.000	-0.038	-0.172
-544.281	285.802	0.176	-0.317
-543.266	-65.931	0.373	-0.149
-542.252	61.411	0.194	0.193
-541.237	146.639	-0.068	-0.091
-540.223	-61.436	0.215	0.090
-539.208	-164.328	0.206	0.009
-538.193	-200.000	-0.006	0.073
-537.179	367.668	-0.042	0.084
-536.164	-49.187	0.179	0.085
-535.150	753.955	-0.066	0.179
-534.135	-21.097	0.288	0.176
-533.121	-106.889	-0.298	0.066
-532.106	197.728	0.215	-0.329
-531.091	-81.480	-0.104	0.034
-530.077	59.293	-0.050	-0.049
-529.062	-126.505	0.395	0.059
-528.048	-200.000	0.006	-0.032
-527.033	204.446	-0.084	-0.129
-526.018	-6.391	0.274	-0.186
-525.004	-116.959	0.080	-0.015
-523.989	-82.681	0.376	-0.122
-522.975	-175.335	0.387	0.011
-521.960	192.621	-0.036	-0.055
-520.945	236.486	-0.124	0.205
-519.931	-200.000	-0.005	0.283
-518.916	242.013	-0.041	0.068
-517.902	156.357	-0.092	0.127
-516.887	69.746	-0.220	0.227
-515.872	667.037	-0.105	-0.272
-514.858	-28.272	-0.081	-0.047
-513.843	-26.230	-0.260	0.152
-512.829	580.443	0.133	-0.324
-511.814	-20.497	0.226	0.138
-510.799	-200.000	0.027	-0.287
-509.785	37.460	-0.240	-0.212
-508.770	289.414	0.127	-0.230
-507.756	-53.720	0.179	-0.081
-506.741	-89.170	-0.265	0.078
-505.726	-20.403	0.373	0.229
-504.712	-14.425	0.018	0.012
-503.697	137.113	0.146	-0.191
-502.683	-200.000	-0.030	-0.236
-501.668	800.000	0.064	-0.272
-500.653	-200.000	-0.001	-0.054
-499.639	800.000	0.051	0.219
-498.624	-104.465	0.357	-0.082
-497.610	65.413	-0.158	-0.160
-496.595	-11.061	0.234	-0.154
-495.581	-67.957	0.069	-0.027
-494.566	800.000	0.012	-0.034
-493.551	-151.910	0.088	0.006
-492.537	107.159	-0.179	0.212
-491.522	77.697	0.122	0.130
-490.508	-61.696	0.171	0.071
-489.493	181.802	0.020	-0.030
-488.478	800.000	0.032	-0.129
-487.464	22.428	-0.076	-0.062
-486.449	110.289	0.058	-0.069
-485.435	38.396	-0.068	-0.061
-484.420	96.136	0.044	-0.050
-483.405	-89.455	0.121	0.035
-482.391	-29.098	0.359	0.205
-481.376	54.732	-0.113	-0.109
-480.362	16.010	0.170	-0.134
-479.347	-71.075	-0.391	-0.146
-478.332	-128.032	0.072	0.010
-477.318	-79.056	-0.137	-0.046
-476.303	-49.965	-0.245	-0.116
-475.289	-200.000	0.024	-0.210
-474.274	-200.000	-0.011	-0.203
-473.259	-200.000	-0.000	-0.027
-472.245	-12.433	-0.165	-0.107
-471.230	-56.670	0.167	-0.073
-470.216	-64.987	0.241	-0.097
-469.201	406.302	-0.105	0.220
-468.186	31.399	-0.142	-0.122
-467.172	543.665	0.097	0.230
-466.157	-200.000	-0.011	0.099
-465.143	-200.000	-0.025	0.302
-464.128	-200.000	0.019	0.250
-463.113	159.416	0.198	0.274
-462.099	146.942	0.093	-0.124
-461.084	800.000	0.044	0.184
-460.070	310.915	0.004	-0.008
-459.055	-59.863	-0.162	0.069
-458.040	398.730	-0.125	0.261
-457.026	-171.271	-0.068	0.002
-456.011	214.874	-0.072	0.114
-454.997	53.651	0.153	-0.146
-453.982	-113.999	0.446	0.086
-452.968	-195.083	0.168	-0.001
-451.953	-110.766	-0.408	-0.084
-450.938	49.134	-0.114	0.106
-449.924	-68.423	-0.109	0.042
-448.909	76.548	0.089	-0.094
-447.895	-200.000	-0.003	-0.133
-446.880	-21.615	-0.195	0.118
-445.865	619.424	-0.058	0.146
-444.851	-61.498	0.143	0.060
-443.836	126.140	0.239	-0.300
-442.822	73.227	0.142	0.148
-441.807	-108.238	-0.419	-0.090
-440.792	123.274	-0.077	-0.096
-439.778	280.974	-0.080	-0.142
-438.763	-200.000	0.047	-0.286
-437.749	-47.746	-0.213	-0.103
-436.734	375.538	-0.052	0.106
-435.719	800.000	0.044	-0.126
-434.705	455.588	-0.118	-0.260
-433.690	-183.502	-0.098	0.002
-432.676	-184.799	-0.229	0.004
-431.661	-67.901	-0.256	0.100
-430.646	-34.051	-0.259	0.142
-429.632	-200.000	-0.012	-0.140
-428.617	48.176	-0.222	-0.206
-427.603	-109.506	0.260	-0.055
-426.588	-157.042	-0.280	-0.017
-425.573	800.000	0.034	0.109
-424.559	177.511	-0.138	0.200
-423.544	219.959	-0.166	-0.264
-422.530	800.000	-0.078	-0.285
-421.515	-50.642	0.226	0.106
-420.500	-67.157	-0.054	0.021
-419.486	485.692	-0.114	-0.258
-418.471	372.639	-0.129	-0.261
-417.457	711.476	0.150	-0.396
-416.442	-84.020	0.329	0.104
-415.428	520.824	-0.093	0.217
-414.413	-200.000	0.023	0.290
-413.398	-134.853	-0.271	0.033
-412.384	-200.000	-0.030	-0.205
-411.369	354.244	0.165	0.326
-410.355	-41.658	-0.429	-0.219
-409.340	237.170	-0.128	-0.211
-408.325	-116.492	0.177	0.032
-407.311	-200.000	0.001	-0.127
-406.296	-139.624	-0.337	-0.036
-405.282	77.628	-0.134	0.142
-404.267	153.607	0.289	-0.393
-403.252	-9.525	0.211	-0.140
-402.238	338.607	0.047	-0.090
-401.223	-200.000	0.095	0.449
-400.209	-126.218	-0.303	0.045
-399.194	800.000	0.059	-0.174
-398.179	-148.922	0.081	-0.006
-397.165	180.300	0.117	0.170
-396.150	358.299	-0.114	0.225
-395.136	-102.074	-0.352	-0.084
-394.121	-75.134	0.126	-0.045
-393.106	800.000	0.102	0.345
-392.092	-200.000	0.005	0.245
-391.077	77.783	0.031	-0.032
-390.063	58.729	-0.112	-0.109
-389.048	41.683	0.118	-0.106
-388.033	-126.508	0.202	0.030
-387.019	130.751	-0.182	0.231
-386.004	-194.119	-0.229	-0.002
-384.990	-200.000	0.016	0.110
-383.975	-53.665	-0.224	0.101
-382.960	82.444	-0.175	0.189
-381.946	391.366	-0.146	0.301
-380.931	185.826	-0.109	-0.161
-379.917	-47.038	-0.177	-0.086
-378.902	232.907	-0.027	-0.045
-377.888	-92.279	-0.233	-0.065
-376.873	-120.620	-0.189	-0.032
-375.858	25.286	0.110	0.091
-374.844	800.000	0.069	0.253
-373.829	-200.000	-0.049	0.263
-372.815	-200.000	0.023	0.164
-371.800	800.000	-0.042	0.127
-370.785	322.586	-0.142	0.268
-369.771	-168.348	-0.266	0.010
-368.756	-43.189	-0.143	0.072
-367.742	125.730	0.139	-0.174
-366.727	29.769	0.192	-0.162
-365.712	800.000	0.066	0.269
-364.698	-98.612	-0.289	0.073
-363.683	800.000	-0.079	0.238
-362.669	-95.161	0.091	0.024
-361.654	83.293	0.113	-0.122
-360.639	-185.587	-0.211	0.003
-359.625	800.000	-0.049	0.145
-358.610	75.962	0.271	-0.285
-357.596	-127.319	-0.155	0.022
-356.581	-200.000	0.001	-0.182
-355.566	15.880	0.025	0.020
-354.552	-5.038	0.184	0.126
-353.537	-52.712	-0.315	-0.144
-352.523	103.187	-0.204	0.238
-351.508	-200.000	0.034	-0.147
-350.493	115.387	-0.265	-0.321
-349.479	206.724	-0.188	0.291
-348.464	-144.987	0.164	-0.015
-347.450	-41.823	0.057	-0.029
-346.435	-161.080	0.111	-0.006
-345.420	-123.469	-0.152	-0.024
-344.406	-38.437	0.192	-0.100
-343.391	78.180	0.059	-0.062
-342.377	200.107	-0.225	-0.342
-341.362	-54.979	-0.139	0.062
-340.348	-89.332	0.079	-0.023
-339.333	233.754	-0.159	-0.260
-338.318	-62.721	-0.076	-0.031
-337.304	-72.299	0.128	-0.047
-336.289	-137.598	0.323	-0.036
-335.275	348.668	0.142	-0.278
-334.260	184.299	-0.093	0.136
-333.245	96.600	0.092	0.104
-332.231	-59.690	0.117	0.050
-331.216	612.443	-0.011	-0.028
-330.202	-49.477	-0.072	-0.034
-329.187	800.000	-0.047	-0.171
-328.172	-11.424	-0.196	0.128
-327.158	-89.687	-0.044	-0.013
-326.143	477.820	0.091	0.204
-325.129	92.469	0.127	-0.142
-324.114	-46.829	0.146	0.071
-323.099	54.657	-0.094	-0.090
-322.085	267.285	-0.146	0.253
-321.070	78.225	0.146	0.154
-320.056	-2.976	-0.456	-0.315
-319.041	800.000	-0.051	-0.177
-318.026	-100.193	-0.105	-0.026
-317.012	-200.000	-0.026	0.119
-315.997	93.134	0.303	0.339
-314.983	77.319	-0.141	0.149
-313.968	409.287	-0.054	-0.113
-312.953	67.595	0.053	-0.053
-311.939	-19.273	-0.415	-0.255
-310.924	-162.616	-0.163	0.008
-309.910	48.956	0.080	-0.074
-308.895	-119.730	0.529	-0.090
-307.880	-168.950	-0.319	-0.012
-306.866	80.074	-0.160	0.171
-305.851	-105.204	-0.135	0.030
-304.837	-200.000	0.021	-0.155
-303.822	-200.000	0.043	0.304
-302.807	-11.041	-0.137	0.089
-301.793	-110.289	-0.078	0.016
-300.778	60.894	-0.220	-0.216
-299.764	-41.593	-0.250	0.127
-298.749	-36.399	0.262	0.140
-297.735	-200.000	0.010	0.081
-296.720	42.862	0.035	-0.031
-295.705	753.853	0.052	0.138
-294.691	410.778	0.056	0.118
-293.676	800.000	0.099	0.424
-292.662	-200.000	0.007	-0.128
-291.647	7.583	0.141	-0.104
-290.632	-136.614	-0.195	-0.022
-289.618	4.947	0.233	0.170
-288.603	-29.002	0.099	-0.056
-287.589	-57.621	-0.172	0.075
-286.574	800.000	-0.013	0.040
-285.559	-200.000	-0.006	-0.087
-284.545	-81.991	0.140	-0.045
-283.530	-146.399	0.332	0.029
-282.516	141.927	-0.128	0.167
-281.501	-117.908	0.201	0.036
-280.486	-200.000	0.017	0.230
-279.472	800.000	0.058	0.210
-278.457	-0.767	0.282	-0.197
-277.443	254.473	-0.095	0.161
-276.428	800.000	0.085	0.319
-275.413	180.253	-0.066	0.096
-274.399	-54.770	0.261	0.117
-273.384	-142.167	0.346	0.034
-272.370	800.000	0.024	0.070
-271.355	222.361	0.133	0.211
-270.340	-200.000	0.007	-0.422
-269.326	134.541	0.137	0.175
-268.311	-66.687	0.208	0.081
-267.297	800.000	0.072	-0.198
-266.282	59.748	-0.129	-0.126
-265.267	64.901	-0.334	0.333
-264.253	697.764	0.118	-0.305
-263.238	-200.000	0.031	-0.163
-262.224	-200.000	-0.003	0.137
-261.209	296.881	-0.131	-0.238
-260.195	-65.070	0.202	0.081
-259.180	-27.191	-0.064	0.037
-258.165	-200.000	0.016	-0.131
-257.151	-156.483	-0.298	-0.018
-256.136	800.000	0.009	-0.027
-255.122	659.910	-0.090	0.229
-254.107	585.062	-0.086	0.208
-253.092	-89.262	0.716	0.208
-252.078	242.808	0.129	-0.213
-251.063	-152.167	-0.223	-0.016
-250.049	800.000	0.095	0.288
-249.034	98.086	0.216	-0.246
-248.019	629.774	-0.053	-0.131
-247.005	47.022	0.066	0.060
-245.990	21.889	-0.165	-0.133
-244.976	68.872	0.227	-0.230
-243.961	16.332	-0.084	-0.065
-242.946	54.448	0.046	-0.043
-241.932	94.739	0.036	0.040
-240.917	113.884	-0.174	0.209
-239.903	74.245	-0.167	0.173
-238.888	-145.940	-0.276	-0.024
-237.873	800.000	-0.072	-0.281
-236.859	215.454	0.087	-0.136
-235.844	63.141	-0.089	0.088
-234.830	-85.924	0.217	-0.066
-233.815	515.151	-0.046	0.107
-232.800	-200.000	0.060	0.345
-231.786	26.498	0.285	-0.235
-230.771	161.536	0.089	-0.122
-229.757	482.979	-0.115	-0.258
-228.742	800.000	0.180	-0.493
-227.727	-200.000	0.036	0.232
-226.713	-94.899	0.123	-0.033
-225.698	-110.055	-0.189	-0.039
-224.684	25.918	0.149	0.123
-223.669	470.039	0.159	0.353
-222.655	45.999	0.102	-0.093
-221.640	-81.144	-0.202	0.066
-220.625	800.000	-0.015	0.044
-219.611	565.376	-0.110	-0.262
-218.596	-24.539	0.110	-0.065
-217.582	673.661	-0.110	0.282
-216.567	-50.779	0.240	0.111
-215.552	5.697	-0.373	0.272
-214.538	43.870	-0.211	0.191
-213.523	-72.162	0.316	-0.115
-212.509	-200.000	-0.021	0.118
-211.494	45.210	0.243	-0.221
-210.479	337.266	0.158	-0.303
-209.465	286.408	0.141	0.251
-208.450	48.218	0.145	0.134
-207.436	58.532	-0.063	-0.061
-206.421	-120.576	0.228	0.038
-205.406	-21.719	-0.095	0.057
-204.392	-7.258	0.136	0.091
-203.377	800.000	0.072	-0.263
-202.363	-48.866	0.023	-0.011
-201.348	57.387	-0.250	-0.241
-200.333	132.973	-0.113	0.144
-199.319	384.503	0.065	-0.131
-198.304	800.000	0.081	-0.319
-197.290	-200.000	-0.078	-0.420
-196.275	800.000	0.112	-0.306
-195.260	-200.000	0.032	0.164
-194.246	-96.023	-0.022	-0.006
-193.231	-65.498	-0.304	-0.120
-192.217	-200.000	0.024	-0.255
-191.202	-85.038	-0.075	-0.023
-190.187	-93.759	0.210	-0.057
-189.173	800.000	-0.078	0.239
-188.158	-60.687	-0.070	0.029
-187.144	-5.040	-0.132	-0.089
-186.129	800.000	-0.100	-0.368
-185.114	800.000	-0.027	-0.097
-184.100	-43.631	0.173	0.086
-183.085	57.776	0.021	0.021
-182.071	-173.430	-0.311	0.009
-181.056	-44.484	0.215	-0.106
-180.042	26.604	-0.017	0.014
-179.027	-200.000	0.031	-0.192
-178.012	-90.880	0.148	0.042
-176.998	-178.722	0.148	0.003
-175.983	121.007	-0.075	-0.092
-174.969	65.543	0.188	0.187
-173.954	137.081	0.072	-0.093
-172.939	-200.000	0.010	-0.105
-171.925	-22.325	0.175	-0.104
-170.910	-200.000	0.018	-0.167
-169.896	-200.000	-0.003	0.042
-168.881	-26.338	0.074	0.043
-167.866	57.049	0.063	0.061
-166.852	-159.291	0.163	0.009
-165.837	-136.542	-0.253	0.029
-164.823	-200.000	-0.009	0.152
-163.808	18.488	0.072	0.056
-162.793	-12.321	-0.151	0.097
-161.779	19.138	0.136	0.108
-160.764	84.194	-0.190	0.204
-159.750	-200.000	0.015	0.151
-158.735	621.536	0.172	0.425
-157.720	-200.000	-0.006	-0.031
-156.706	388.984	-0.024	-0.049
-155.691	800.000	0.048	0.180
-154.677	316.729	0.066	0.123
-153.662	0.811	-0.073	0.051
-152.647	-200.000	-0.035	-0.274
-151.633	378.531	0.048	0.097
-150.618	-25.837	0.159	-0.092
-149.604	-94.271	-0.153	-0.041
-148.589	-137.682	-0.237	-0.026
-147.574	532.028	0.114	-0.266
-146.560	26.816	0.103	-0.085
-145.545	-146.002	-0.079	0.007
-144.531	90.416	-0.166	0.182
-143.516	751.426	0.037	0.098
-142.502	-122.519	-0.201	-0.032
-141.487	19.780	-0.190	-0.150
-140.472	721.774	-0.038	-0.098
-139.458	800.000	-0.076	0.296
-138.443	690.400	0.112	0.289
-137.429	-200.000	0.017	0.138
-136.414	778.777	-0.006	-0.016
-135.399	-58.366	0.092	0.039
-134.385	96.866	-0.155	0.175
-133.370	462.469	-0.053	0.117
-132.356	-200.000	-0.004	-0.104
-131.341	-180.460	-0.194	-0.004
-130.326	-161.260	0.133	-0.007
-129.312	89.942	0.215	0.236
-128.297	208.978	0.203	0.313
-127.283	-4.210	-0.067	0.046
-126.268	-89.299	0.188	0.055
-125.253	-54.309	-0.326	-0.146
-124.239	221.323	-0.041	-0.065
-123.224	800.000	0.084	-0.282
-122.210	-172.734	0.258	0.008
-121.195	-114.236	0.327	0.062
