DTS Sentinel unit serial number:	SN413079Multiplexer serial number:	ORYXHardware model number:	OX4-SRSoftware version number:	ORYX F/W v4.00 Oryx Data Collector v3.7.2.0data status	okinstallation	princeton_trtdifferential loss correction	single-endedforward channel	channel 1reverse channel	N/Adate	2019/09/15time	01:38:35forward acquisition time	60.00reverse acquisition time	0.00gamma	496.2192k internal	0.2321k external	0.2321temperature offset calibration	0.9980default loss term (dB/km)	0.3790temperature slope calibration	1.0000multiplexer offset coefficient	1.0000multiplexer slope coefficient	1.0000fibre end	0.00T internal ref (°C)	31.81T ext. ref 1 (°C)	4.51T ext. ref 2 (°C)	26.74length (m)	temperature (°C)	Stokes	anti-Stokes-747.200	37.820	-0.160	0.143
-746.185	53.191	-0.174	0.168
-745.171	-43.111	-0.127	0.065
-744.156	76.634	-0.121	0.130
-743.142	800.000	0.090	-0.318
-742.127	459.167	-0.093	0.210
-741.112	54.249	0.265	0.258
-740.098	-136.506	0.465	-0.055
-739.083	61.145	-0.034	-0.034
-738.069	-85.467	0.261	0.082
-737.054	797.106	0.143	0.398
-736.039	-200.000	-0.054	0.356
-735.025	-115.164	-0.484	-0.093
-734.010	-200.000	-0.007	0.036
-732.996	-64.429	0.200	-0.082
-731.981	663.265	-0.077	-0.202
-730.966	104.565	0.192	0.228
-729.952	-200.000	0.051	0.277
-728.937	-28.375	0.301	0.175
-727.923	264.616	-0.075	-0.131
-726.908	6.305	-0.078	-0.059
-725.894	-200.000	0.024	-0.114
-724.879	-200.000	0.025	-0.125
-723.864	-181.356	-0.210	0.004
-722.850	-24.025	-0.193	0.117
-721.835	-73.105	0.240	0.089
-720.821	-200.000	0.013	-0.229
-719.806	-200.000	0.006	-0.109
-718.791	66.622	-0.275	-0.282
-717.777	-200.000	0.009	0.159
-716.762	126.027	0.128	-0.163
-715.748	-87.234	-0.262	0.080
-714.733	249.309	0.189	-0.323
-713.718	-53.614	-0.135	0.062
-712.704	-23.617	0.095	0.057
-711.689	526.035	-0.173	-0.412
-710.675	53.690	0.165	-0.160
-709.660	-130.733	-0.119	-0.016
-708.645	-45.170	0.194	-0.097
-707.631	22.335	-0.080	0.066
-706.616	603.430	-0.095	0.238
-705.602	626.612	0.041	0.104
-704.587	-116.097	-0.167	0.031
-703.572	-88.116	0.145	-0.044
-702.558	259.370	0.043	-0.076
-701.543	800.000	-0.047	-0.186
-700.529	-1.606	0.233	-0.166
-699.514	61.181	-0.096	-0.097
-698.499	271.621	-0.128	-0.227
-697.485	216.737	0.062	0.100
-696.470	-58.902	0.088	-0.038
-695.456	-140.310	-0.089	0.009
-694.441	-171.928	0.196	0.006
-693.426	-134.043	0.128	-0.016
-692.412	-135.948	0.179	0.021
-691.397	42.837	0.320	0.294
-690.383	-82.184	0.324	-0.106
-689.368	135.546	-0.077	0.101
-688.354	-126.944	-0.238	0.035
-687.339	124.287	-0.217	-0.275
-686.324	366.054	0.015	-0.031
-685.310	690.218	-0.054	-0.143
-684.295	-46.039	0.133	0.066
-683.281	94.833	0.067	0.077
-682.266	110.745	0.199	-0.242
-681.251	-36.919	-0.229	-0.124
-680.237	116.758	-0.099	0.122
-679.222	-37.162	0.108	-0.058
-678.208	-142.053	0.325	0.033
-677.193	340.065	-0.178	-0.349
-676.178	-91.879	0.131	0.037
-675.164	-200.000	0.088	-0.418
-674.149	34.922	-0.289	0.255
-673.135	800.000	-0.008	-0.030
-672.120	702.220	-0.038	-0.102
-671.105	-200.000	-0.056	-0.256
-670.091	-10.291	-0.164	-0.109
-669.076	-200.000	-0.049	-0.353
-668.062	5.880	-0.220	-0.164
-667.047	-200.000	-0.013	0.078
-666.032	645.799	-0.140	0.361
-665.018	-52.996	-0.227	-0.105
-664.003	-27.523	0.267	0.156
-662.989	141.812	-0.117	0.156
-661.974	174.068	0.064	0.094
-660.959	9.898	-0.099	0.075
-659.945	-117.396	0.144	-0.026
-658.930	-3.222	0.088	-0.061
-657.916	-7.401	-0.132	-0.090
-656.901	-40.812	0.292	-0.152
-655.886	-200.000	-0.075	0.429
-654.872	-50.479	-0.125	-0.060
-653.857	42.070	0.293	-0.268
-652.843	94.669	0.103	0.118
-651.828	-41.972	0.095	-0.049
-650.814	-65.069	-0.191	-0.078
-649.799	227.321	-0.075	0.124
-648.784	80.860	-0.115	0.125
-647.770	-123.392	0.296	-0.047
-646.755	372.819	-0.061	0.125
-645.741	7.459	-0.195	0.147
-644.726	75.465	0.094	0.100
-643.711	-94.542	0.159	0.044
-642.697	-200.000	0.001	-0.087
-641.682	-103.209	-0.314	0.075
-640.668	-200.000	-0.037	-0.379
-639.653	-10.657	-0.131	-0.087
-638.638	-200.000	-0.009	0.323
-637.624	-185.859	-0.443	-0.007
-636.609	-12.879	0.375	0.246
-635.595	-120.763	0.168	0.029
-634.580	-200.000	0.093	0.414
-633.565	-96.598	-0.261	0.069
-632.551	18.683	0.204	-0.164
-631.536	34.436	-0.055	-0.049
-630.522	614.400	0.132	-0.332
-629.507	800.000	0.009	-0.030
-628.492	-61.775	-0.184	0.077
-627.478	94.370	0.115	0.131
-626.463	-146.953	0.069	-0.006
-625.449	-200.000	0.004	-0.144
-624.434	-60.459	0.195	0.083
-623.419	568.314	0.079	0.194
-622.405	-200.000	0.012	0.055
-621.390	305.046	0.076	-0.142
-620.376	112.449	-0.102	-0.124
-619.361	-126.023	-0.363	0.055
-618.346	333.863	-0.085	-0.166
-617.332	-199.345	-0.122	0.001
-616.317	-22.935	0.130	0.079
-615.303	23.391	-0.098	-0.081
-614.288	52.684	0.088	0.085
-613.273	141.021	-0.149	-0.198
-612.259	-200.000	-0.042	0.223
-611.244	17.922	-0.104	0.083
-610.230	-193.201	0.182	-0.002
-609.215	-162.773	-0.400	0.020
-608.201	-45.903	0.014	-0.007
-607.186	263.255	0.097	-0.169
-606.171	155.379	0.054	-0.075
-605.157	131.226	0.057	0.073
-604.142	206.790	0.029	0.045
-603.128	-44.582	0.387	-0.195
-602.113	-56.732	0.216	-0.096
-601.098	501.331	-0.050	-0.116
-600.084	-200.000	-0.034	-0.317
-599.069	505.360	-0.037	0.085
-598.055	192.538	0.045	-0.069
-597.040	800.000	0.015	-0.054
-596.025	-137.473	0.217	0.025
-595.011	159.215	0.174	0.243
-593.996	800.000	-0.025	-0.087
-592.982	800.000	0.014	0.061
-591.967	319.161	-0.130	-0.247
-590.952	-107.394	-0.065	0.014
-589.938	25.400	0.039	-0.033
-588.923	-72.711	-0.226	-0.084
-587.909	133.711	0.172	-0.224
-586.894	101.663	0.096	0.112
-585.879	-164.274	0.206	0.010
-584.865	-192.503	-0.323	0.003
-583.850	-112.664	0.158	0.032
-582.836	149.333	-0.033	-0.045
-581.821	-90.117	-0.267	0.078
-580.806	418.525	-0.097	0.209
-579.792	-12.243	0.199	0.131
-578.777	-153.170	0.069	-0.005
-577.763	-39.953	-0.154	0.081
-576.748	119.695	-0.128	-0.160
-575.733	42.529	-0.041	-0.037
-574.719	307.374	0.070	0.132
-573.704	355.542	0.072	-0.144
-572.690	-200.000	0.038	0.240
-571.675	60.943	0.013	0.012
-570.661	713.248	0.063	0.167
-569.646	-97.104	0.202	0.053
-568.631	313.020	-0.074	0.139
-567.617	-200.000	-0.013	-0.100
-566.602	-133.309	-0.060	0.008
-565.588	21.230	0.305	-0.248
-564.573	-107.830	-0.036	-0.008
-563.558	405.207	0.186	0.394
-562.544	-2.357	0.052	0.037
-561.529	-116.516	-0.252	0.047
-560.515	800.000	-0.015	-0.042
-559.500	251.709	-0.093	-0.159
-558.485	-200.000	-0.042	-0.653
-557.471	-70.285	-0.287	-0.109
-556.456	671.386	0.026	-0.067
-555.442	-146.999	0.453	0.039
-554.427	800.000	-0.032	0.142
-553.412	-67.866	-0.179	-0.070
-552.398	74.283	-0.060	-0.064
-551.383	-67.386	0.124	-0.049
-550.369	-4.900	-0.132	-0.091
-549.354	224.657	-0.053	0.087
-548.339	-141.727	0.213	-0.021
-547.325	-97.892	0.108	-0.028
-546.310	-148.221	-0.320	0.026
-545.296	-200.000	-0.020	-0.252
-544.281	263.628	0.108	0.188
-543.266	800.000	0.022	-0.087
-542.252	54.501	-0.143	0.138
-541.237	-29.445	-0.196	0.112
-540.223	101.809	-0.077	0.090
-539.208	-162.129	-0.505	0.025
-538.193	-45.496	-0.072	0.036
-537.179	-200.000	-0.009	-0.174
-536.164	-135.414	-0.095	0.011
-535.150	800.000	0.045	-0.163
-534.135	9.525	0.278	0.211
-533.121	-19.197	-0.210	-0.130
-532.106	-200.000	-0.012	-0.388
-531.091	54.715	-0.167	0.162
-530.077	-8.581	-0.180	-0.121
-529.062	-25.434	-0.090	0.053
-528.048	800.000	-0.080	-0.303
-527.033	281.823	0.040	-0.072
-526.018	-90.494	-0.368	0.107
-525.004	-28.455	-0.257	0.149
-523.989	-72.589	0.205	-0.076
-522.975	7.003	-0.250	-0.187
-521.960	384.653	-0.179	-0.370
-520.945	102.500	-0.129	-0.152
-519.931	-190.107	0.218	0.002
-518.916	-200.000	0.028	-0.252
-517.902	579.752	-0.022	-0.055
-516.887	-200.000	0.010	-0.100
-515.872	-17.446	-0.219	-0.138
-514.858	-180.630	0.073	0.002
-513.843	-45.985	0.469	0.232
-512.829	-148.307	0.110	-0.009
-511.814	-92.910	-0.243	-0.068
-510.799	-36.656	-0.305	-0.164
-509.785	90.609	-0.113	0.127
-508.770	800.000	0.011	0.049
-507.756	174.856	-0.053	0.076
-506.741	-34.515	0.184	0.101
-505.726	-4.910	0.240	-0.166
-504.712	564.831	-0.086	-0.209
-503.697	103.807	0.141	-0.166
-502.683	-49.473	-0.212	0.101
-501.668	3.386	-0.107	0.078
-500.653	14.143	0.180	0.140
-499.639	800.000	-0.034	-0.149
-498.624	-200.000	0.015	-0.077
-497.610	-81.583	-0.369	-0.121
-496.595	-50.497	-0.176	-0.083
-495.581	-115.659	0.267	-0.050
-494.566	301.392	0.116	0.214
-493.551	-17.418	0.239	0.150
-492.537	-200.000	-0.052	0.296
-491.522	-105.973	0.242	0.055
-490.508	196.534	-0.171	-0.261
-489.493	800.000	-0.032	0.116
-488.478	61.271	0.144	-0.143
-487.464	800.000	-0.117	0.453
-486.449	-200.000	-0.049	0.264
-485.435	800.000	-0.076	-0.286
-484.420	-112.612	0.155	0.031
-483.405	208.678	-0.127	-0.199
-482.391	-85.420	-0.111	0.034
-481.376	408.535	0.146	-0.309
-480.362	-96.032	-0.192	0.051
-479.347	37.836	0.185	0.165
-478.332	800.000	-0.072	-0.237
-477.318	800.000	0.125	-0.419
-476.303	-63.170	0.173	-0.071
-475.289	-152.927	0.069	-0.005
-474.274	-200.000	0.028	-0.199
-473.259	52.769	-0.260	-0.249
-472.245	-77.892	-0.139	-0.048
-471.230	325.969	0.096	-0.183
-470.216	-101.962	0.207	-0.050
-469.201	800.000	0.073	0.319
-468.186	17.232	0.064	-0.050
-467.172	-121.278	0.183	0.031
-466.157	24.938	-0.060	-0.049
-465.143	-158.622	-0.079	-0.005
-464.128	-200.000	-0.051	0.417
-463.113	454.526	-0.112	0.248
-462.099	-200.000	-0.113	0.510
-461.084	256.453	-0.140	-0.241
-460.070	38.330	0.145	0.129
-459.055	-200.000	0.002	0.060
-458.040	-200.000	0.082	0.445
-457.026	800.000	-0.033	-0.115
-456.011	-200.000	0.027	-0.327
-454.997	800.000	-0.085	0.278
-453.982	47.185	0.095	-0.088
-452.968	-102.532	-0.242	-0.058
-451.953	-9.959	0.190	0.126
-450.938	275.599	0.144	0.255
-449.924	-200.000	0.003	0.178
-448.909	211.307	0.143	-0.224
-447.895	68.264	-0.238	-0.244
-446.880	21.046	-0.294	0.238
-445.865	59.244	0.175	0.172
-444.851	-84.847	-0.401	0.126
-443.836	2.318	-0.188	0.136
-442.822	107.546	0.059	-0.070
-441.807	83.310	-0.209	-0.227
-440.792	-56.601	0.290	0.128
-439.778	795.373	-0.074	0.204
-438.763	37.484	-0.289	0.256
-437.749	-96.761	0.204	0.053
-436.734	163.072	0.132	-0.185
-435.719	-126.409	-0.240	0.036
-434.705	-186.680	-0.141	0.002
-433.690	-200.000	0.025	-0.222
-432.676	623.857	-0.067	0.169
-431.661	-200.000	0.016	0.087
-430.646	157.581	-0.073	-0.101
-429.632	354.703	0.113	0.224
-428.617	-180.682	-0.170	0.003
-427.603	-54.821	-0.206	-0.093
-426.588	3.522	0.387	0.282
-425.573	456.244	0.132	0.293
-424.559	-80.090	-0.157	-0.053
-423.544	350.048	-0.012	-0.023
-422.530	446.624	0.026	0.057
-421.515	385.341	0.087	-0.178
-420.500	800.000	-0.071	0.228
-419.486	6.904	0.151	0.112
-418.471	-109.712	0.094	0.020
-417.457	17.843	0.153	0.121
-416.442	-200.000	0.049	0.397
-415.428	-131.139	-0.307	0.041
-414.413	14.848	-0.350	-0.273
-413.398	-50.077	-0.185	0.088
-412.384	-112.510	-0.037	0.007
-411.369	-200.000	-0.015	-0.067
-410.355	800.000	0.189	0.535
-409.340	287.621	-0.077	-0.140
-408.325	16.676	0.202	-0.159
-407.311	45.276	-0.396	0.364
-406.296	130.320	0.232	-0.296
-405.282	47.805	0.299	-0.279
-404.267	397.465	0.100	-0.209
-403.252	-200.000	-0.013	-0.208
-402.238	800.000	0.014	0.042
-401.223	27.592	0.168	0.141
-400.209	800.000	-0.083	0.276
-399.194	20.511	-0.110	0.089
-398.179	20.079	0.143	-0.115
-397.165	360.466	-0.038	0.075
-396.150	-83.964	0.189	0.060
-395.136	800.000	-0.014	0.055
-394.121	-143.124	0.079	0.008
-393.106	800.000	0.034	-0.109
-392.092	123.935	0.303	0.380
-391.077	-200.000	0.007	0.194
-390.063	-200.000	0.026	0.298
-389.048	-95.934	0.203	0.054
-388.033	-76.235	0.565	-0.198
-387.019	253.573	-0.320	-0.545
-386.004	-200.000	-0.015	-0.123
-384.990	104.438	-0.143	0.168
-383.975	415.218	0.074	-0.157
-382.960	604.060	0.026	0.065
-381.946	-60.623	-0.142	0.060
-380.931	354.284	-0.146	0.289
-379.917	-157.824	0.099	0.006
-378.902	-200.000	-0.038	-0.242
-377.888	-200.000	-0.065	0.366
-376.873	-190.336	-0.601	0.007
-375.858	-75.265	-0.212	-0.075
-374.844	576.924	-0.110	0.267
-373.829	-16.439	-0.162	-0.102
-372.815	52.187	0.190	-0.181
-371.800	-114.721	-0.067	-0.013
-370.785	800.000	-0.073	0.273
-369.771	-200.000	-0.024	0.209
-368.756	176.349	0.179	0.259
-367.742	-133.990	-0.373	-0.046
-366.727	-46.179	0.247	-0.121
-365.712	177.895	0.107	-0.156
-364.698	-75.148	-0.548	-0.195
-363.683	-2.136	-0.247	0.173
-362.669	-78.569	-0.212	-0.072
-361.654	116.979	0.135	-0.165
-360.639	15.956	0.188	-0.147
-359.625	-200.000	-0.019	0.123
-358.610	-200.000	0.015	0.481
-357.596	-120.642	-0.287	0.048
-356.581	-200.000	-0.001	0.069
-355.566	-107.848	0.085	-0.019
-354.552	-53.616	0.141	-0.064
-353.537	-58.800	0.159	-0.068
-352.523	393.013	0.061	-0.126
-351.508	137.403	0.104	0.135
-350.493	-150.824	0.254	-0.019
-349.479	411.744	0.087	-0.185
-348.464	-194.120	-0.402	0.003
-347.450	595.760	-0.131	-0.322
-346.435	-53.346	0.151	0.069
-345.420	653.668	0.068	-0.173
-344.406	22.217	-0.108	0.088
-343.391	694.032	-0.103	-0.268
-342.377	599.680	-0.045	-0.112
-341.362	800.000	0.080	-0.338
-340.348	366.074	-0.101	-0.203
-339.333	-183.041	-0.039	-0.001
-338.318	-200.000	-0.080	-0.380
-337.304	-146.249	0.174	0.015
-336.289	-134.956	0.141	-0.017
-335.275	368.682	0.070	-0.140
-334.260	-41.192	-0.356	0.182
-333.245	336.899	-0.146	-0.283
-332.231	-76.360	0.174	0.061
-331.216	-166.084	0.111	-0.005
-330.202	-115.882	-0.256	0.048
-329.187	-200.000	-0.063	0.299
-328.172	-101.044	0.143	-0.035
-327.158	-200.000	-0.005	0.267
-326.143	800.000	0.091	0.282
-325.129	419.630	-0.089	0.189
-324.114	128.265	-0.130	0.164
-323.099	381.543	0.090	0.184
-322.085	579.147	0.032	-0.078
-321.070	252.192	0.013	-0.023
-320.056	-38.265	-0.333	0.176
-319.041	392.412	0.072	0.148
-318.026	-57.917	0.197	-0.086
-317.012	-127.707	0.311	-0.045
-315.997	-200.000	0.016	-0.293
-314.983	-120.484	-0.225	0.038
-313.968	251.089	-0.030	-0.050
-312.953	-35.517	0.143	-0.077
-311.939	95.581	0.102	-0.115
-310.924	145.878	0.070	-0.093
-309.910	-36.011	-0.236	-0.127
-308.895	-200.000	0.067	0.322
-307.880	179.112	0.087	-0.126
-306.866	-91.315	0.110	0.031
-305.851	-98.300	-0.322	-0.082
-304.837	-84.704	0.186	-0.058
-303.822	98.685	-0.126	0.144
-302.807	800.000	-0.026	-0.070
-301.793	417.698	-0.092	-0.196
-300.778	-200.000	-0.075	-0.462
-299.764	-200.000	-0.045	0.242
-298.749	-200.000	-0.033	0.366
-297.735	545.567	-0.032	-0.075
-296.720	59.004	0.131	-0.128
-295.705	-200.000	-0.006	-0.097
-294.691	528.493	0.052	0.122
-293.676	-40.596	0.235	0.121
-292.662	34.783	0.115	-0.099
-291.647	-200.000	-0.064	0.386
-290.632	-200.000	0.000	0.110
-289.618	61.859	0.168	0.166
-288.603	-113.054	-0.152	0.030
-287.589	-61.568	0.192	-0.080
-286.574	-70.833	0.216	0.081
-285.559	112.432	-0.035	-0.042
-284.545	-200.000	0.039	0.340
-283.530	-51.485	-0.029	0.014
-282.516	533.161	0.132	-0.309
-281.501	439.535	-0.107	-0.232
-280.486	171.070	-0.197	-0.281
-279.472	14.955	0.266	0.207
-278.457	-200.000	0.032	-0.300
-277.443	-113.862	0.311	-0.060
-276.428	-200.000	0.309	-0.001
-275.413	-200.000	-0.042	0.221
-274.399	-87.867	0.140	-0.042
-273.384	3.707	-0.199	-0.144
-272.370	-129.728	0.207	-0.028
-271.355	123.095	0.095	-0.117
-270.340	-200.000	0.020	0.244
-269.326	-134.152	0.238	0.029
-268.311	49.166	-0.169	-0.158
-267.297	-29.754	0.186	-0.105
-266.282	800.000	0.031	0.115
-265.267	410.929	0.108	-0.228
-264.253	97.336	0.110	0.125
-263.238	557.222	0.054	0.130
-262.224	-200.000	0.006	-0.172
-261.209	-56.711	-0.392	-0.172
-260.195	449.459	-0.086	0.189
-259.180	-96.342	0.175	-0.046
-258.165	800.000	-0.115	0.322
-257.151	-33.370	0.069	0.038
-256.136	-110.069	0.341	-0.071
-255.122	522.039	-0.151	0.352
-254.107	84.285	0.157	-0.170
-253.092	69.862	0.115	-0.118
-252.078	-200.000	0.005	-0.255
-251.063	-17.802	0.067	-0.042
-250.049	-96.841	-0.243	-0.063
-249.034	800.000	0.030	0.099
-248.019	79.188	-0.100	-0.106
-247.005	-200.000	0.002	0.701
-245.990	-29.311	0.232	-0.132
-244.976	216.824	0.288	-0.454
-243.961	-101.642	-0.320	0.077
-242.946	-148.757	-0.338	-0.027
-241.932	-200.000	-0.008	-0.062
-240.917	-200.000	-0.012	0.279
-239.903	132.410	-0.124	-0.159
-238.888	-200.000	-0.016	-0.226
-237.873	-0.814	0.035	0.024
-236.859	-75.456	-0.122	0.043
-235.844	-200.000	-0.011	0.217
-234.830	800.000	-0.055	-0.164
-233.815	-82.797	0.152	-0.049
-232.800	-200.000	0.026	-0.179
-231.786	95.077	-0.248	0.280
-230.771	55.001	0.314	-0.301
-229.757	-155.857	0.187	0.012
-228.742	-200.000	-0.028	-0.217
-227.727	373.369	0.180	-0.363
-226.713	-163.504	-0.155	0.007
-225.698	-74.606	0.150	0.053
-224.684	55.150	-0.185	0.177
-223.669	-8.726	-0.185	0.123
-222.655	38.708	0.141	-0.125
-221.640	-200.000	-0.007	-0.302
-220.625	274.426	0.053	-0.093
-219.611	800.000	0.066	-0.186
-218.596	436.758	-0.073	0.158
-217.582	63.681	0.252	0.250
-216.567	-125.184	0.385	0.058
-215.552	234.565	0.153	0.251
-214.538	146.344	-0.074	-0.098
-213.523	-31.557	-0.122	-0.068
-212.509	440.710	-0.054	0.118
-211.494	56.759	-0.349	-0.336
-210.479	-47.866	0.277	0.133
-209.465	53.275	0.218	0.207
-208.450	-66.221	0.130	-0.051
-207.436	-200.000	-0.029	-0.147
-206.421	-155.375	-0.410	0.026
-205.406	-166.935	-0.226	-0.009
-204.392	-200.000	-0.038	0.510
-203.377	-200.000	-0.004	-0.371
-202.363	115.165	-0.177	0.214
-201.348	-80.517	0.382	0.126
-200.333	-31.068	0.179	-0.100
-199.319	-88.974	0.201	0.059
-198.304	800.000	-0.107	0.349
-197.290	-200.000	0.034	0.174
-196.275	147.886	0.173	0.231
-195.260	111.595	0.020	-0.024
-194.246	-200.000	-0.039	-0.190
-193.231	-136.955	-0.053	0.006
-192.217	-112.522	0.593	-0.117
-191.202	-66.200	0.198	-0.078
-190.187	-112.618	-0.400	0.079
-189.173	-67.102	-0.423	-0.165
-188.158	-200.000	0.014	0.165
-187.144	-36.526	0.263	0.140
-186.129	-87.222	-0.122	-0.037
-185.114	-49.636	0.334	0.157
-184.100	326.114	0.081	0.154
-183.085	-56.713	-0.154	0.067
-182.071	-200.000	-0.013	-0.081
-181.056	104.584	0.067	0.078
-180.042	800.000	-0.048	0.194
-179.027	415.096	0.035	0.074
-178.012	-40.874	0.183	-0.094
-176.998	-136.875	-0.149	-0.017
-175.983	112.063	-0.184	-0.219
-174.969	-27.018	0.315	-0.181
-173.954	302.617	-0.165	-0.301
-172.939	541.717	0.049	-0.117
-171.925	376.897	0.113	-0.228
-170.910	-200.000	-0.005	0.184
-169.896	126.975	0.161	0.202
-168.881	-200.000	-0.006	0.047
-167.866	18.842	0.109	-0.086
-166.852	223.822	0.090	-0.143
-165.837	49.993	0.341	-0.318
-164.823	800.000	-0.052	0.204
-163.808	101.491	0.220	0.253
-162.793	133.900	-0.121	0.155
-161.779	764.519	-0.046	-0.123
-160.764	800.000	0.078	-0.235
-159.750	221.881	0.060	-0.095
-158.735	-200.000	-0.016	-0.085
-157.720	-200.000	-0.046	-0.281
-156.706	-27.132	-0.242	-0.140
-155.691	-40.319	0.225	-0.116
-154.677	-132.601	-0.298	0.038
-153.662	-200.000	0.025	-0.151
-152.647	-200.000	-0.074	0.447
-151.633	28.692	-0.215	0.180
-150.618	-164.032	0.225	0.010
-149.604	-43.433	-0.385	-0.192
-148.589	-17.069	0.230	-0.143
-147.574	160.794	0.244	0.336
-146.560	-82.994	-0.118	-0.038
-145.545	-179.751	0.368	-0.008
-144.531	65.912	-0.210	0.210
-143.516	-57.503	-0.153	0.066
-142.502	-131.754	-0.158	-0.020
-141.487	688.520	-0.075	0.194
-140.472	-29.129	-0.133	-0.075
-139.458	-51.552	-0.384	-0.177
-138.443	-56.091	0.136	-0.060
-137.429	115.820	-0.033	0.040
-136.414	-200.000	0.009	0.048
-135.399	-74.096	0.285	-0.102
-134.385	-200.000	0.037	0.246
-133.370	59.082	0.048	0.046
-132.356	-155.110	-0.163	-0.010
-131.341	170.891	-0.136	-0.192
-130.326	-200.000	-0.018	-0.176
-129.312	-109.549	-0.091	0.019
-128.297	81.599	0.098	0.104
-127.283	35.428	0.174	-0.151
-126.268	81.409	0.148	0.158
-125.253	18.757	-0.163	0.129
-124.239	31.643	-0.146	-0.124
-123.224	379.202	0.141	-0.286
-122.210	-200.000	0.028	-0.137
