DTS Sentinel unit serial number:	SN413079Multiplexer serial number:	ORYXHardware model number:	OX4-SRSoftware version number:	ORYX F/W v4.00 Oryx Data Collector v3.7.2.0data status	okinstallation	princeton_trtdifferential loss correction	single-endedforward channel	channel 1reverse channel	N/Adate	2019/09/18time	08:02:35forward acquisition time	60.00reverse acquisition time	0.00gamma	496.2192k internal	0.2338k external	0.2338temperature offset calibration	0.9975default loss term (dB/km)	0.3790temperature slope calibration	1.0000multiplexer offset coefficient	1.0000multiplexer slope coefficient	1.0000fibre end	0.00T internal ref (°C)	23.64T ext. ref 1 (°C)	0.21T ext. ref 2 (°C)	19.34length (m)	temperature (°C)	Stokes	anti-Stokes-747.200	504.551	-0.077	-0.179
-746.185	344.285	-0.223	0.439
-745.171	98.793	-0.026	-0.030
-744.156	20.582	-0.065	0.052
-743.142	-60.715	-0.107	0.045
-742.127	-50.031	0.152	0.072
-741.112	76.409	0.176	0.187
-740.098	-61.173	-0.040	0.017
-739.083	-141.113	0.245	-0.025
-738.069	-99.326	-0.564	0.143
-737.054	-200.000	-0.070	-0.376
-736.039	102.220	-0.051	0.060
-735.025	800.000	0.053	-0.165
-734.010	-200.000	-0.022	-0.307
-732.996	-200.000	0.081	-0.389
-731.981	492.876	-0.197	-0.452
-730.966	481.675	-0.063	-0.142
-729.952	101.396	-0.176	0.206
-728.937	-200.000	0.001	-0.143
-727.923	673.138	-0.022	0.057
-726.908	-200.000	-0.013	-0.189
-725.894	-200.000	-0.084	-0.564
-724.879	220.568	-0.151	-0.242
-723.864	-133.914	-0.149	0.019
-722.850	189.071	0.092	0.139
-721.835	371.367	-0.112	0.227
-720.821	71.716	-0.065	-0.068
-719.806	-200.000	-0.021	-0.116
-718.791	-111.238	-0.208	-0.043
-717.777	351.814	0.068	-0.135
-716.762	-5.595	-0.254	-0.175
-715.748	258.010	0.153	0.264
-714.733	-200.000	-0.010	-0.181
-713.718	-41.412	-0.408	0.211
-712.704	-117.610	0.100	-0.018
-711.689	-200.000	-0.005	-0.140
-710.675	-200.000	-0.033	0.194
-709.660	-89.693	-0.095	-0.028
-708.645	-133.011	0.223	-0.028
-707.631	-105.213	-0.362	0.083
-706.616	47.236	0.139	-0.130
-705.602	-27.029	-0.096	-0.056
-704.587	143.443	-0.122	-0.163
-703.572	800.000	-0.007	-0.029
-702.558	112.919	-0.124	0.151
-701.543	74.900	-0.128	0.135
-700.529	182.169	0.059	0.087
-699.514	29.324	0.048	-0.041
-698.499	-31.164	-0.398	-0.225
-697.485	-41.045	-0.515	-0.267
-696.470	-50.538	-0.272	0.129
-695.456	-200.000	0.023	-0.248
-694.441	395.759	-0.157	-0.327
-693.426	-7.486	-0.148	0.101
-692.412	-73.662	0.172	-0.063
-691.397	-200.000	0.008	0.208
-690.383	72.553	-0.147	0.154
-689.368	-22.439	0.397	-0.240
-688.354	-200.000	0.024	0.195
-687.339	210.896	-0.129	0.203
-686.324	-200.000	-0.042	0.234
-685.310	79.990	-0.204	-0.220
-684.295	34.154	0.241	-0.211
-683.281	258.313	-0.281	-0.485
-682.266	800.000	-0.026	0.093
-681.251	108.085	0.066	0.079
-680.237	67.957	-0.202	-0.207
-679.222	-200.000	-0.032	0.268
-678.208	742.844	0.104	0.279
-677.193	-113.954	0.203	0.039
-676.178	-5.519	-0.286	0.196
-675.164	800.000	0.017	0.053
-674.149	-138.229	0.410	0.045
-673.135	324.204	-0.120	0.230
-672.120	22.478	-0.179	-0.146
-671.105	131.946	-0.233	-0.300
-670.091	-20.541	0.191	-0.117
-669.076	-136.259	-0.096	0.011
-668.062	-24.097	-0.120	0.072
-667.047	-98.248	-0.339	-0.087
-666.032	-30.317	-0.040	0.023
-665.018	-28.044	0.206	0.119
-664.003	-200.000	0.015	-0.281
-662.989	74.479	-0.175	-0.184
-661.974	140.348	0.036	0.047
-660.959	198.298	0.053	0.081
-659.945	800.000	0.051	0.141
-658.930	-35.396	0.281	-0.153
-657.916	5.619	0.190	0.141
-656.901	-11.036	-0.244	-0.161
-655.886	-200.000	0.034	0.185
-654.872	-119.145	-0.166	-0.029
-653.857	-5.885	-0.158	-0.108
-652.843	5.466	0.116	-0.086
-651.828	-2.577	0.060	-0.042
-650.814	-41.791	-0.154	-0.079
-649.799	-105.231	0.315	-0.072
-648.784	-70.081	-0.057	0.022
-647.770	800.000	0.044	-0.170
-646.755	28.851	-0.040	0.034
-645.741	-144.893	-0.238	-0.022
-644.726	54.826	0.114	-0.110
-643.711	61.889	0.268	0.267
-642.697	800.000	-0.066	0.228
-641.682	-157.182	-0.265	-0.016
-640.668	5.139	0.202	0.149
-639.653	168.218	-0.093	-0.132
-638.638	-66.394	0.213	0.085
-637.624	-9.420	0.213	0.142
-636.609	800.000	-0.050	0.201
-635.595	27.873	0.319	0.269
-634.580	-118.629	0.132	-0.023
-633.565	213.105	-0.026	0.041
-632.551	17.934	-0.110	-0.088
-631.536	-14.533	0.434	-0.279
-630.522	-43.359	-0.263	0.133
-629.507	-200.000	-0.038	-0.305
-628.492	-101.353	0.148	0.036
-627.478	-186.832	-0.348	0.005
-626.463	-106.037	-0.262	0.059
-625.449	-138.713	0.215	-0.024
-624.434	308.078	0.111	-0.206
-623.419	206.519	-0.198	-0.308
-622.405	194.194	0.029	-0.043
-621.390	-60.623	-0.512	-0.217
-620.376	-200.000	-0.067	0.383
-619.361	800.000	0.090	0.325
-618.346	800.000	0.127	0.545
-617.332	34.236	0.259	0.226
-616.317	503.991	0.044	0.103
-615.303	310.910	-0.182	-0.340
-614.288	-57.828	-0.148	0.064
-613.273	-6.767	-0.213	-0.145
-612.259	293.137	-0.086	0.156
-611.244	-35.986	-0.259	0.140
-610.230	800.000	0.054	0.232
-609.215	467.730	-0.222	0.497
-608.201	800.000	0.044	-0.141
-607.186	-20.184	-0.050	-0.031
-606.171	-200.000	0.039	-0.275
-605.157	-200.000	-0.042	-0.499
-604.142	334.440	0.085	-0.164
-603.128	-23.564	0.100	0.060
-602.113	-120.661	-0.115	0.019
-601.098	19.631	0.154	0.124
-600.084	-200.000	0.046	-0.306
-599.069	147.547	0.067	0.090
-598.055	119.273	-0.038	0.046
-597.040	29.931	0.295	-0.251
-596.025	22.306	-0.050	0.041
-595.011	-200.000	-0.023	0.323
-593.996	800.000	0.037	0.116
-592.982	-200.000	0.014	-0.116
-591.967	-175.362	-0.414	-0.011
-590.952	35.442	-0.148	-0.130
-589.938	149.364	-0.214	-0.288
-588.923	29.962	0.253	-0.215
-587.909	-14.945	0.148	-0.095
-586.894	40.468	-0.321	-0.289
-585.879	-112.127	-0.341	-0.068
-584.865	23.924	-0.110	-0.090
-583.850	-108.188	-0.413	0.089
-582.836	-195.899	-0.216	-0.002
-581.821	-200.000	0.025	-0.145
-580.806	494.926	-0.112	-0.257
-579.792	-108.115	-0.195	0.042
-578.777	-82.199	-0.256	0.083
-577.763	59.446	0.129	-0.127
-576.748	197.659	0.052	0.080
-575.733	399.747	0.148	0.309
-574.719	-23.447	0.137	0.082
-573.704	688.079	0.132	0.343
-572.690	-87.835	-0.174	0.052
-571.675	800.000	0.029	-0.117
-570.661	25.714	-0.220	-0.183
-569.646	38.059	0.247	0.219
-568.631	-200.000	-0.023	0.185
-567.617	1.740	0.199	-0.143
-566.602	-120.024	-0.217	-0.037
-565.588	-65.507	-0.146	0.058
-564.573	-200.000	0.068	0.322
-563.558	-76.715	-0.054	-0.019
-562.544	92.936	0.233	-0.263
-561.529	-56.845	-0.321	-0.141
-560.515	800.000	0.051	0.184
-559.500	-76.573	-0.034	-0.012
-558.485	67.653	0.135	-0.138
-557.471	59.867	0.192	-0.189
-556.456	489.800	0.184	-0.419
-555.442	800.000	0.049	0.180
-554.427	-200.000	0.026	0.214
-553.412	-68.234	0.383	0.149
-552.398	80.041	0.233	-0.250
-551.383	699.494	0.040	0.106
-550.369	-200.000	-0.019	-0.123
-549.354	212.523	0.037	-0.058
-548.339	-200.000	-0.002	-0.010
-547.325	62.149	-0.183	-0.182
-546.310	-200.000	-0.013	-0.101
-545.296	-200.000	0.018	0.105
-544.281	-6.968	0.111	-0.075
-543.266	46.156	0.199	-0.183
-542.252	275.157	0.129	-0.228
-541.237	-97.533	0.163	-0.042
-540.223	-179.815	0.169	-0.004
-539.208	-200.000	0.003	-0.273
-538.193	13.122	0.111	-0.086
-537.179	-200.000	0.004	-0.048
-536.164	-200.000	-0.010	-0.086
-535.150	-157.055	-0.391	0.024
-534.135	38.590	0.406	-0.360
-533.121	-132.100	-0.229	-0.030
-532.106	-112.841	0.064	0.013
-531.091	-143.629	0.201	0.019
-530.077	-200.000	-0.040	0.176
-529.062	-83.479	-0.189	0.060
-528.048	-46.161	0.092	-0.045
-527.033	154.632	0.035	0.048
-526.018	-38.688	0.057	0.030
-525.004	422.358	-0.122	-0.260
-523.989	-93.985	0.518	-0.141
-522.975	-50.566	0.134	0.063
-521.960	225.224	0.143	-0.231
-520.945	-59.625	0.087	0.037
-519.931	185.934	-0.172	0.254
-518.916	-48.041	0.271	-0.130
-517.902	2.077	-0.138	0.099
-516.887	-200.000	-0.019	-0.130
-515.872	723.820	-0.044	-0.117
-514.858	-46.085	-0.118	0.058
-513.843	80.555	0.173	-0.185
-512.829	1.066	-0.143	0.102
-511.814	-61.093	0.195	0.082
-510.799	-9.246	-0.091	0.060
-509.785	25.932	0.371	-0.308
-508.770	-24.485	0.032	0.019
-507.756	800.000	0.084	-0.340
-506.741	-151.543	0.250	0.018
-505.726	-130.206	0.237	-0.032
-504.712	-200.000	0.102	0.446
-503.697	-130.286	-0.250	-0.034
-502.683	-143.490	0.279	-0.026
-501.668	286.753	0.062	0.112
-500.653	-200.000	-0.062	0.278
-499.639	-200.000	0.007	0.284
-498.624	67.677	0.042	0.042
-497.610	263.100	-0.036	0.062
-496.595	-8.307	0.168	-0.113
-495.581	11.260	0.085	0.064
-494.566	220.330	-0.219	0.349
-493.551	-72.261	-0.115	-0.042
-492.537	-0.128	-0.316	-0.224
-491.522	-200.000	0.045	-0.274
-490.508	-96.372	-0.368	-0.097
-489.493	168.977	0.104	-0.147
-488.478	800.000	-0.023	-0.100
-487.464	476.534	0.023	0.051
-486.449	28.776	-0.141	-0.118
-485.435	618.201	0.056	-0.139
-484.420	800.000	-0.020	0.065
-483.405	22.377	-0.081	0.065
-482.391	-48.492	0.266	0.127
-481.376	-95.893	-0.367	0.097
-480.362	40.275	0.205	-0.183
-479.347	-200.000	0.044	0.280
-478.332	320.561	0.056	0.106
-477.318	-43.862	0.134	-0.067
-476.303	434.250	0.076	-0.164
-475.289	-41.077	0.286	0.146
-474.274	-31.471	-0.306	0.171
-473.259	-61.231	0.049	-0.020
-472.245	373.189	0.055	0.110
-471.230	41.672	0.191	0.172
-470.216	-117.408	0.248	0.045
-469.201	674.009	0.101	-0.259
-468.186	-200.000	-0.028	-0.314
-467.172	800.000	-0.093	0.385
-466.157	800.000	0.036	-0.151
-465.143	161.796	-0.018	0.025
-464.128	30.661	-0.029	0.025
-463.113	-152.186	0.488	-0.035
-462.099	268.870	0.024	0.042
-461.084	-8.867	-0.333	0.222
-460.070	-200.000	-0.048	-0.257
-459.055	125.211	-0.153	0.191
-458.040	543.123	0.129	-0.306
-457.026	-12.459	-0.196	-0.127
-456.011	-200.000	0.044	0.351
-454.997	-124.714	0.152	0.023
-453.982	-76.507	-0.007	-0.002
-452.968	-99.434	0.081	0.020
-451.953	-119.829	-0.238	0.041
-450.938	-84.003	0.180	-0.057
-449.924	800.000	-0.035	-0.148
-448.909	-100.602	-0.127	0.031
-447.895	-20.889	-0.142	-0.086
-446.880	28.830	-0.057	0.048
-445.865	800.000	-0.018	0.073
-444.851	-79.497	-0.419	-0.140
-443.836	-112.164	-0.366	-0.073
-442.822	-68.774	-0.351	0.135
-441.807	-84.375	0.169	0.053
-440.792	-156.686	-0.280	0.017
-439.778	-85.519	-0.351	0.108
-438.763	800.000	-0.029	0.094
-437.749	-103.074	-0.163	0.038
-436.734	112.526	-0.088	-0.106
-435.719	129.278	0.199	-0.252
-434.705	-7.721	-0.526	0.352
-433.690	13.641	-0.171	0.132
-432.676	-189.294	-0.098	0.001
-431.661	100.812	0.061	0.070
-430.646	-130.949	0.184	0.024
-429.632	-200.000	-0.027	0.162
-428.617	-200.000	0.024	0.191
-427.603	-200.000	0.028	-0.129
-426.588	-32.502	-0.254	-0.140
-425.573	54.339	0.252	0.241
-424.559	-49.118	-0.098	0.047
-423.544	-200.000	0.010	-0.170
-422.530	91.852	-0.072	-0.080
-421.515	-200.000	0.008	-0.044
-420.500	-18.136	0.157	-0.098
-419.486	-124.441	-0.187	-0.029
-418.471	800.000	0.060	0.225
-417.457	36.748	-0.190	0.167
-416.442	-3.313	-0.147	0.101
-415.428	-200.000	-0.050	0.262
-414.413	800.000	-0.111	0.331
-413.398	-141.645	0.243	0.024
-412.384	25.766	-0.330	0.272
-411.369	446.438	-0.032	-0.069
-410.355	-200.000	-0.004	0.624
-409.340	22.192	-0.254	-0.206
-408.325	-200.000	-0.357	-0.002
-407.311	-200.000	-0.121	0.543
-406.296	-200.000	-0.015	-0.315
-405.282	-200.000	0.028	-0.123
-404.267	72.300	0.275	0.284
-403.252	-94.073	0.461	0.125
-402.238	-70.010	0.071	0.027
-401.223	93.365	-0.196	-0.220
-400.209	-94.059	0.378	-0.103
-399.194	-53.551	0.145	0.065
-398.179	673.763	0.071	0.183
-397.165	-98.208	0.273	0.069
-396.150	800.000	-0.078	-0.315
-395.136	-200.000	0.017	-0.288
-394.121	29.179	0.156	-0.131
-393.106	77.092	0.112	-0.117
-392.092	-65.541	-0.375	0.149
-391.077	123.863	-0.068	0.085
-390.063	112.500	-0.152	-0.181
-389.048	507.784	-0.026	-0.060
-388.033	424.623	0.007	-0.015
-387.019	-200.000	0.048	0.264
-386.004	-6.208	-0.041	0.028
-384.990	-80.100	0.231	-0.077
-383.975	-61.947	-0.250	0.103
-382.960	-91.728	0.207	0.058
-381.946	-200.000	-0.024	0.232
-380.931	-74.022	-0.231	-0.083
-379.917	-79.593	-0.107	-0.036
-378.902	56.269	-0.030	0.028
-377.888	443.884	-0.125	-0.271
-376.873	-88.666	-0.250	-0.073
-375.858	795.755	0.052	0.142
-374.844	-200.000	0.031	-0.437
-373.829	105.508	0.060	0.071
-372.815	-200.000	0.288	-0.000
-371.800	800.000	0.055	0.229
-370.785	78.960	-0.179	-0.190
-369.771	-17.665	0.430	-0.267
-368.756	425.309	0.133	0.284
-367.742	-104.940	-0.038	0.009
-366.727	191.851	0.036	0.054
-365.712	-187.298	-0.303	-0.004
-364.698	-107.047	0.099	0.022
-363.683	756.677	-0.064	-0.170
-362.669	-21.616	0.181	0.109
-361.654	-200.000	0.095	0.451
-360.639	34.751	0.147	-0.127
-359.625	-200.000	0.014	-0.186
-358.610	456.176	0.113	-0.248
-357.596	-200.000	-0.008	0.038
-356.581	-122.701	-0.264	0.042
-355.566	-89.503	0.038	0.011
-354.552	-161.583	0.153	-0.008
-353.537	-81.068	0.118	0.039
-352.523	-60.170	-0.261	-0.110
-351.508	57.808	0.035	-0.034
-350.493	76.640	0.165	0.173
-349.479	249.291	0.349	0.585
-348.464	254.875	-0.142	-0.239
-347.450	-200.000	-0.055	0.364
-346.435	413.879	0.042	0.088
-345.420	-66.762	-0.344	-0.134
-344.406	-53.498	0.332	-0.150
-343.391	74.814	-0.063	0.065
-342.377	81.472	0.074	-0.079
-341.362	108.988	-0.234	0.276
-340.348	236.963	0.150	-0.245
-339.333	-128.907	0.242	-0.034
-338.318	-200.000	0.009	0.134
-337.304	558.976	-0.019	0.045
-336.289	-200.000	0.061	0.365
-335.275	-200.000	0.037	-0.206
-334.260	800.000	-0.016	-0.048
-333.245	-96.359	-0.233	0.061
-332.231	-137.189	0.068	-0.008
-331.216	-128.361	-0.063	0.009
-330.202	385.663	-0.103	0.210
-329.187	59.111	0.201	0.195
-328.172	-32.573	0.021	-0.011
-327.158	-143.937	-0.364	0.034
-326.143	-45.232	-0.108	-0.053
-325.129	-60.368	0.146	-0.061
-324.114	68.482	-0.145	-0.146
-323.099	599.726	-0.042	0.104
-322.085	87.682	0.042	0.046
-321.070	-94.406	0.302	-0.081
-320.056	3.272	-0.269	0.193
-319.041	-57.038	0.180	0.078
-318.026	24.987	-0.092	0.076
-317.012	8.670	-0.224	-0.166
-315.997	-85.782	-0.161	-0.049
-314.983	-200.000	0.081	0.435
-313.968	-134.250	0.251	0.030
-312.953	162.886	0.139	-0.193
-311.939	508.066	0.055	0.126
-310.924	222.523	-0.075	0.120
-309.910	-99.998	-0.110	0.027
-308.895	364.091	-0.143	-0.283
-307.880	-53.581	0.246	0.111
-306.866	-95.010	0.195	0.052
-305.851	-104.780	-0.139	0.031
-304.837	3.545	-0.411	0.296
-303.822	-133.028	0.320	0.040
-302.807	379.084	0.110	0.222
-301.793	-100.149	-0.272	0.067
-300.778	-200.000	-0.031	-0.154
-299.764	-194.916	-0.269	0.002
-298.749	18.818	-0.149	0.118
-297.735	-200.000	-0.057	0.282
-296.720	391.529	0.100	0.206
-295.705	-200.000	0.027	0.189
-294.691	65.464	0.237	0.237
-293.676	800.000	-0.049	0.163
-292.662	416.396	0.042	-0.088
-291.647	44.636	0.157	0.142
-290.632	-54.985	-0.275	-0.122
-289.618	-158.720	-0.549	0.031
-288.603	-86.594	0.378	0.114
-287.589	72.760	-0.307	-0.316
-286.574	-33.277	-0.149	-0.081
-285.559	-30.580	-0.160	0.090
-284.545	-99.970	-0.362	0.089
-283.530	-113.967	0.201	0.038
-282.516	-22.493	0.205	0.122
-281.501	-79.501	-0.117	-0.039
-280.486	800.000	0.031	0.132
-279.472	68.182	-0.227	-0.229
-278.457	-118.536	-0.146	0.026
-277.443	80.446	0.171	0.182
-276.428	70.211	0.233	0.238
-275.413	-25.163	-0.075	-0.044
-274.399	212.950	0.068	0.106
-273.384	-11.345	0.366	0.237
-272.370	-200.000	-0.049	-0.216
-271.355	2.140	-0.354	-0.252
-270.340	-200.000	-0.016	0.227
-269.326	-31.506	-0.264	-0.146
-268.311	-64.474	0.155	-0.062
-267.297	114.291	0.098	-0.117
-266.282	541.239	0.110	-0.258
-265.267	-161.182	0.321	0.016
-264.253	-38.163	0.115	-0.060
-263.238	730.403	-0.033	0.086
-262.224	216.809	-0.171	-0.267
-261.209	-23.311	-0.253	0.150
-260.195	111.236	0.172	-0.204
-259.180	800.000	0.061	-0.242
-258.165	-92.622	0.087	-0.024
-257.151	-200.000	-0.044	-0.276
-256.136	-72.541	-0.130	0.047
-255.122	-139.309	-0.111	-0.012
-254.107	-200.000	-0.031	-0.147
-253.092	89.270	0.230	-0.252
-252.078	221.001	0.214	0.337
-251.063	74.702	-0.153	-0.158
-250.049	800.000	-0.068	0.226
-249.034	794.855	0.065	-0.175
-248.019	800.000	0.019	0.056
-247.005	-127.759	0.262	0.037
-245.990	800.000	0.042	-0.123
-244.976	-129.433	0.134	0.018
-243.961	74.250	-0.162	-0.167
-242.946	-63.492	0.016	-0.006
-241.932	-0.192	-0.307	0.215
-240.917	-79.530	0.230	-0.076
-239.903	19.885	-0.142	-0.113
-238.888	59.211	0.230	0.223
-237.873	49.527	0.406	-0.376
-236.859	-34.220	0.039	-0.021
-235.844	-123.171	0.369	0.058
-234.830	594.871	-0.094	0.228
-233.815	-74.739	-0.195	0.069
-232.800	-113.435	0.328	-0.063
-231.786	800.000	-0.068	0.234
-230.771	288.027	-0.049	0.087
-229.757	141.362	0.146	-0.191
-228.742	146.024	-0.106	-0.139
-227.727	-6.639	0.187	-0.125
-226.713	800.000	0.129	0.433
-225.698	-157.209	0.091	0.005
-224.684	-106.862	0.150	0.033
-223.669	181.453	0.109	-0.158
-222.655	30.839	0.203	0.171
-221.640	-200.000	-0.033	-0.340
-220.625	37.672	-0.237	0.207
-219.611	-200.000	0.006	-0.344
-218.596	-200.000	-0.003	-0.208
-217.582	-200.000	-0.034	-0.232
-216.567	-200.000	-0.023	-0.363
-215.552	40.473	-0.163	0.144
-214.538	91.155	0.143	0.158
-213.523	141.653	0.118	-0.153
-212.509	-200.000	0.077	-0.442
-211.494	294.171	0.101	-0.181
-210.479	-23.629	0.260	-0.153
-209.465	-30.134	-0.249	-0.139
-208.450	70.622	-0.065	0.066
-207.436	800.000	0.060	-0.212
-206.421	-62.113	-0.180	0.074
-205.406	692.921	0.054	0.138
-204.392	64.906	0.041	-0.040
-203.377	-59.952	0.067	0.028
-202.363	75.409	-0.240	0.249
-201.348	557.792	-0.013	0.031
-200.333	-35.017	0.181	-0.097
-199.319	-80.090	0.077	-0.025
-198.304	-200.000	0.027	-0.200
-197.290	-115.531	0.069	-0.013
-196.275	91.820	0.341	-0.377
-195.260	-38.865	-0.108	0.056
-194.246	315.727	0.089	0.165
-193.231	-58.952	-0.122	0.052
-192.217	-200.000	0.024	-0.189
-191.202	394.410	0.116	-0.238
-190.187	-173.550	-0.074	0.002
-189.173	-200.000	-0.008	-0.173
-188.158	17.426	0.266	0.207
-187.144	256.253	-0.194	-0.328
-186.129	104.295	-0.158	-0.182
-185.114	641.004	0.103	0.258
-184.100	-78.562	-0.393	0.132
-183.085	322.396	-0.064	-0.120
-182.071	143.323	-0.181	0.236
-181.056	324.072	-0.175	0.328
-180.042	-175.833	-0.180	0.005
-179.027	-149.008	-0.172	0.014
-178.012	416.157	0.145	-0.304
-176.998	-118.665	0.297	0.051
-175.983	13.354	-0.234	-0.178
-174.969	-158.311	-0.261	-0.015
-173.954	698.551	-0.103	0.265
-172.939	-200.000	0.053	-0.376
-171.925	292.783	-0.118	-0.211
-170.910	532.151	0.173	0.401
-169.896	800.000	0.065	0.276
-168.881	78.686	-0.183	-0.192
-167.866	-200.000	-0.061	-0.292
-166.852	207.887	-0.194	-0.298
-165.837	-105.782	0.145	0.032
-164.823	124.603	-0.208	-0.256
-163.808	800.000	0.072	-0.249
-162.793	540.851	-0.182	0.425
-161.779	332.272	0.066	0.124
-160.764	363.431	0.111	0.218
-159.750	-12.498	0.213	-0.136
-158.735	638.592	-0.086	-0.214
-157.720	-30.539	0.152	-0.084
-156.706	-200.000	0.079	0.349
-155.691	-32.466	0.218	0.119
-154.677	205.728	0.079	0.120
-153.662	-24.355	-0.187	-0.109
-152.647	-95.507	0.226	-0.059
-151.633	-97.581	-0.112	-0.028
-150.618	666.754	0.081	0.204
-149.604	-200.000	-0.030	-0.189
-148.589	800.000	-0.018	-0.075
-147.574	630.412	-0.181	0.448
-146.560	-67.854	0.245	0.094
-145.545	74.030	0.246	0.253
-144.531	-200.000	-0.071	0.335
-143.516	42.453	-0.277	0.247
-142.502	-15.604	-0.323	0.202
-141.487	133.452	-0.100	0.126
-140.472	-88.676	0.024	0.007
-139.458	183.278	-0.094	-0.136
-138.443	78.534	-0.396	0.414
-137.429	33.833	0.049	0.042
-136.414	-200.000	0.015	0.231
-135.399	-120.621	-0.205	-0.034
-134.385	800.000	-0.022	0.085
-133.370	-102.807	0.263	-0.061
-132.356	800.000	0.117	-0.347
-131.341	72.819	0.217	0.222
-130.326	-200.000	0.034	-0.165
-129.312	-130.850	-0.600	-0.079
-128.297	-26.469	0.242	0.139
-127.283	584.489	0.096	0.230
-126.268	-77.461	-0.205	0.070
-125.253	-49.840	0.353	0.164
-124.239	-141.517	-0.251	-0.025
-123.224	158.053	-0.145	0.196
-122.210	7.114	0.130	-0.095
-121.195	-110.418	0.290	-0.059
-120.180	-184.253	-0.122	-0.002
