DTS Sentinel unit serial number:	SN413079Multiplexer serial number:	ORYXHardware model number:	OX4-SRSoftware version number:	ORYX F/W v4.00 Oryx Data Collector v3.7.2.0data status	okinstallation	princeton_trtdifferential loss correction	single-endedforward channel	channel 1reverse channel	N/Adate	2019/09/16time	18:14:35forward acquisition time	60.00reverse acquisition time	0.00gamma	496.2192k internal	0.2302k external	0.2302temperature offset calibration	0.9970default loss term (dB/km)	0.3790temperature slope calibration	1.0000multiplexer offset coefficient	1.0000multiplexer slope coefficient	1.0000fibre end	0.00T internal ref (°C)	37.16T ext. ref 1 (°C)	15.72T ext. ref 2 (°C)	30.74length (m)	temperature (°C)	Stokes	anti-Stokes-747.200	-30.045	0.069	0.040
-746.185	498.014	-0.141	0.330
-745.171	-54.373	-0.039	0.018
-744.156	-94.589	0.218	0.060
-743.142	-94.295	0.032	-0.009
-742.127	376.941	-0.161	0.336
-741.112	-105.822	-0.265	0.061
-740.098	414.050	0.147	0.318
-739.083	-200.000	0.050	0.282
-738.069	-117.489	-0.172	-0.032
-737.054	-42.409	-0.217	0.113
-736.039	764.818	0.046	0.126
-735.025	-200.000	0.037	0.200
-734.010	-200.000	-0.019	-0.261
-732.996	383.847	0.005	-0.011
-731.981	-56.078	-0.200	-0.091
-730.966	-200.000	0.019	-0.285
-729.952	50.412	-0.142	0.137
-728.937	-200.000	0.001	-0.195
-727.923	-200.000	-0.037	-0.319
-726.908	188.045	0.172	0.262
-725.894	800.000	0.076	0.271
-724.879	-8.161	0.113	0.078
-723.864	58.147	-0.290	0.290
-722.850	-164.105	-0.517	-0.024
-721.835	-41.206	-0.317	-0.166
-720.821	-45.122	0.214	0.109
-719.806	-11.642	-0.356	-0.238
-718.791	-200.000	-0.029	0.289
-717.777	233.815	0.056	0.094
-716.762	-39.267	-0.393	0.210
-715.748	337.846	0.108	0.213
-714.733	-39.458	0.221	-0.118
-713.718	-145.493	-0.254	0.023
-712.704	144.569	-0.146	-0.198
-711.689	101.817	0.193	-0.229
-710.675	210.709	0.071	0.113
-709.660	-200.000	-0.067	0.343
-708.645	-74.539	-0.270	-0.099
-707.631	159.782	0.156	-0.221
-706.616	-102.965	0.287	0.069
-705.602	50.764	-0.088	0.085
-704.587	139.915	-0.248	0.333
-703.572	-31.178	0.241	0.138
-702.558	150.602	0.213	-0.295
-701.543	242.801	0.156	-0.266
-700.529	-129.068	0.150	-0.021
-699.514	800.000	-0.023	0.082
-698.499	187.091	-0.012	-0.018
-697.485	-21.381	-0.161	0.100
-696.470	800.000	-0.110	-0.344
-695.456	-113.023	-0.306	0.061
-694.441	-200.000	-0.010	-0.074
-693.426	231.964	-0.042	-0.070
-692.412	-200.000	-0.066	0.442
-691.397	-200.000	0.051	0.300
-690.383	-30.132	0.168	-0.097
-689.368	315.811	0.069	-0.133
-688.354	528.079	-0.061	-0.145
-687.339	-45.639	0.244	-0.123
-686.324	-200.000	0.031	0.162
-685.310	-200.000	-0.044	0.253
-684.295	43.843	-0.232	0.216
-683.281	83.903	0.149	0.165
-682.266	-200.000	-0.002	0.246
-681.251	304.320	0.101	0.191
-680.237	-78.283	0.078	-0.027
-679.222	-125.913	-0.192	-0.029
-678.208	-25.934	0.053	-0.031
-677.193	-40.784	0.124	-0.065
-676.178	75.721	-0.143	0.154
-675.164	-200.000	0.052	-0.389
-674.149	-55.401	-0.084	0.038
-673.135	382.242	0.050	-0.105
-672.120	-29.293	0.050	0.029
-671.105	-54.895	0.102	-0.047
-670.091	498.634	0.023	-0.054
-669.076	163.031	0.136	-0.194
-668.062	-200.000	-0.016	0.246
-667.047	-10.518	0.101	-0.068
-666.032	-200.000	0.041	-0.371
-665.018	-200.000	-0.009	0.210
-664.003	-76.660	0.053	-0.019
-662.989	115.271	0.145	-0.180
-661.974	-24.152	0.111	0.067
-660.959	-200.000	0.010	-0.248
-659.945	737.983	-0.044	-0.121
-658.930	-75.238	0.214	-0.077
-657.916	-70.666	-0.253	-0.097
-656.901	-63.581	0.033	0.014
-655.886	-0.855	0.222	-0.159
-654.872	151.463	-0.198	0.274
-653.857	-35.845	0.106	0.058
-652.843	800.000	0.029	-0.081
-651.828	101.979	0.123	0.146
-650.814	73.806	-0.077	0.082
-649.799	800.000	0.077	0.232
-648.784	432.252	0.050	-0.110
-647.770	694.578	0.074	0.196
-646.755	280.111	0.177	0.321
-645.741	-27.183	-0.165	0.098
-644.726	-132.422	0.264	-0.035
-643.711	-49.234	-0.132	-0.064
-642.697	-167.834	-0.220	-0.009
-641.682	-200.000	0.059	0.321
-640.668	-200.000	-0.042	0.278
-639.653	-63.396	-0.085	-0.036
-638.638	-200.000	-0.006	0.109
-637.624	-55.160	-0.174	-0.079
-636.609	162.416	-0.117	-0.166
-635.595	372.191	-0.138	-0.284
-634.580	26.814	-0.020	-0.017
-633.565	229.625	0.070	0.116
-632.551	9.285	-0.183	0.141
-631.536	-123.077	0.180	-0.029
-630.522	-63.159	0.089	0.037
-629.507	502.064	0.031	-0.072
-628.492	-108.389	0.053	0.012
-627.478	-31.091	0.080	-0.046
-626.463	116.689	0.154	0.191
-625.449	-88.190	0.123	-0.037
-624.434	151.583	-0.159	-0.219
-623.419	-80.245	-0.194	0.066
-622.405	98.198	-0.262	-0.306
-621.390	-26.717	0.194	0.115
-620.376	85.810	0.143	0.160
-619.361	800.000	0.055	-0.215
-618.346	-8.056	-0.113	-0.077
-617.332	86.587	0.060	0.067
-616.317	114.407	-0.005	0.006
-615.303	66.850	-0.153	0.158
-614.288	749.241	0.135	0.369
-613.273	262.358	0.202	-0.355
-612.259	-180.772	-0.120	0.002
-611.244	175.123	0.039	0.057
-610.230	538.270	-0.196	-0.472
-609.215	-7.998	0.166	-0.113
-608.201	-41.589	-0.081	0.042
-607.186	-71.395	0.109	-0.041
-606.171	762.037	-0.109	-0.301
-605.157	18.390	0.166	0.135
-604.142	-200.000	0.031	0.151
-603.128	-96.589	-0.056	-0.015
-602.113	139.306	-0.092	0.122
-601.098	549.076	0.049	-0.118
-600.084	60.801	0.063	0.063
-599.069	800.000	0.062	0.264
-598.055	-152.755	0.056	-0.004
-597.040	74.184	0.202	-0.215
-596.025	126.231	0.096	0.123
-595.011	-46.811	0.339	0.168
-593.996	-200.000	0.038	-0.356
-592.982	-51.502	-0.170	0.080
-591.967	41.065	-0.085	-0.078
-590.952	-123.527	0.138	-0.022
-589.938	14.958	-0.128	0.102
-588.923	-101.202	-0.199	0.049
-587.909	340.024	0.091	-0.180
-586.894	-34.865	0.165	0.091
-585.879	475.104	0.087	0.199
-584.865	-26.875	-0.112	-0.066
-583.850	-168.681	0.273	0.010
-582.836	-130.985	-0.068	0.009
-581.821	179.218	0.141	-0.208
-580.806	314.645	-0.092	-0.176
-579.792	-48.696	-0.058	-0.028
-578.777	800.000	-0.143	-0.420
-577.763	395.821	-0.065	0.137
-576.748	138.560	0.080	-0.106
-575.733	521.590	-0.242	-0.576
-574.719	132.053	0.095	0.124
-573.704	-102.096	0.306	0.074
-572.690	-76.750	0.280	-0.099
-571.675	-152.764	-0.255	-0.018
-570.661	-200.000	-0.010	0.110
-569.646	-5.178	-0.245	0.171
-568.631	-200.000	0.006	-0.176
-567.617	-200.000	0.022	0.223
-566.602	-40.467	0.043	-0.022
-565.588	-125.482	0.225	-0.035
-564.573	102.192	-0.273	-0.322
-563.558	-164.177	-0.408	-0.019
-562.544	800.000	-0.064	-0.186
-561.529	-200.000	-0.010	0.143
-560.515	-143.895	-0.347	-0.033
-559.500	-123.672	-0.141	-0.023
-558.485	658.977	0.020	-0.052
-557.471	-52.896	0.402	-0.187
-556.456	17.389	-0.074	0.059
-555.442	54.381	-0.310	-0.302
-554.427	151.017	-0.227	-0.312
-553.412	208.298	-0.230	-0.363
-552.398	-68.185	-0.132	0.052
-551.383	456.465	0.180	-0.405
-550.369	-77.229	-0.127	-0.045
-549.354	-72.923	0.030	-0.011
-548.339	-57.803	0.290	0.128
-547.325	64.799	0.211	0.215
-546.310	355.953	-0.207	-0.418
-545.296	42.403	0.136	0.125
-544.281	27.950	0.249	0.212
-543.266	541.176	-0.035	-0.084
-542.252	142.775	0.141	-0.190
-541.237	-56.407	-0.324	-0.146
-540.223	116.519	0.189	0.234
-539.208	-97.147	0.264	-0.070
-538.193	92.862	-0.164	0.187
-537.179	-200.000	0.042	-0.219
-536.164	-64.298	-0.213	0.088
-535.150	607.883	-0.045	-0.115
-534.135	-36.126	-0.359	-0.196
-533.121	-123.049	-0.278	0.045
-532.106	145.977	-0.068	0.092
-531.091	-136.618	-0.274	-0.032
-530.077	800.000	0.089	-0.358
-529.062	800.000	-0.103	0.317
-528.048	207.579	-0.136	-0.215
-527.033	-112.832	-0.412	-0.083
-526.018	800.000	0.129	-0.383
-525.004	-125.386	-0.177	0.027
-523.989	-200.000	0.012	0.055
-522.975	-22.275	-0.087	0.053
-521.960	-12.001	0.117	0.078
-520.945	-141.795	-0.278	0.028
-519.931	137.976	-0.115	-0.153
-518.916	-200.000	0.003	0.032
-517.902	800.000	-0.090	0.252
-516.887	800.000	0.056	-0.186
-515.872	-200.000	0.049	0.261
-514.858	-30.661	-0.175	0.100
-513.843	293.709	0.202	-0.372
-512.829	-75.530	-0.208	0.075
-511.814	800.000	0.074	-0.286
-510.799	140.440	-0.026	0.034
-509.785	800.000	0.029	-0.109
-508.770	-84.159	0.162	0.052
-507.756	391.713	-0.097	-0.203
-506.741	800.000	0.088	-0.291
-505.726	428.353	0.093	0.202
-504.712	-200.000	-0.000	0.206
-503.697	757.011	-0.090	-0.245
-502.683	-50.645	0.144	0.068
-501.668	-117.103	-0.282	0.052
-500.653	16.362	0.192	0.153
-499.639	117.628	0.075	0.093
-498.624	800.000	-0.108	-0.320
-497.610	-144.212	-0.052	0.005
-496.595	215.387	0.097	-0.156
-495.581	48.795	0.204	0.193
-494.566	-16.510	-0.384	0.245
-493.551	431.254	-0.061	0.134
-492.537	-58.118	-0.217	0.096
-491.522	-61.414	0.246	0.105
-490.508	-49.340	-0.281	0.135
-489.493	-142.306	-0.338	0.034
-488.478	341.582	0.141	0.278
-487.464	746.786	-0.040	-0.108
-486.449	197.963	-0.249	-0.384
-485.435	135.369	0.101	-0.133
-484.420	146.714	-0.044	0.060
-483.405	-94.979	0.223	0.061
-482.391	800.000	0.077	0.280
-481.376	-37.955	0.271	0.145
-480.362	-14.284	0.455	0.295
-479.347	-179.290	-0.279	0.006
-478.332	-83.537	0.119	0.038
-477.318	-70.308	-0.240	-0.092
-476.303	786.735	0.176	-0.487
-475.289	-87.632	-0.202	0.061
-474.274	-16.076	0.119	0.076
-473.259	-22.507	-0.356	0.217
-472.245	-196.976	0.166	-0.001
-471.230	-27.026	-0.058	0.034
-470.216	-200.000	-0.425	-0.002
-469.201	233.509	-0.086	0.143
-468.186	-48.915	0.186	0.090
-467.172	24.212	-0.274	0.228
-466.157	308.088	-0.279	0.524
-465.143	-139.108	0.345	0.038
-464.128	115.108	-0.075	-0.093
-463.113	690.713	-0.060	-0.158
-462.099	-30.076	-0.137	0.078
-461.084	673.260	0.093	0.244
-460.070	496.626	0.062	-0.143
-459.055	48.282	0.397	-0.374
-458.040	-148.366	-0.117	-0.010
-457.026	-107.136	0.121	-0.027
-456.011	-165.915	-0.311	-0.013
-454.997	325.151	-0.120	0.230
-453.982	246.779	0.122	-0.208
-452.968	800.000	-0.072	-0.282
-451.953	-80.675	0.177	-0.059
-450.938	-200.000	-0.011	0.197
-449.924	239.149	-0.036	-0.061
-448.909	82.599	0.167	-0.183
-447.895	-25.812	0.266	0.158
-446.880	800.000	0.092	0.282
-445.865	800.000	0.109	0.359
-444.851	-97.508	-0.215	0.056
-443.836	-130.425	0.132	-0.018
-442.822	800.000	0.072	-0.218
-441.807	342.807	-0.177	0.348
-440.792	244.379	0.094	0.160
-439.778	-200.000	-0.003	-0.040
-438.763	-122.509	0.146	-0.024
-437.749	512.670	0.148	-0.347
-436.734	40.266	0.307	-0.278
-435.719	-106.142	0.016	0.004
-434.705	8.372	-0.430	0.325
-433.690	705.027	-0.099	-0.262
-432.676	-56.199	-0.289	-0.129
-431.661	34.283	0.194	0.170
-430.646	-200.000	0.045	0.261
-429.632	-200.000	0.007	0.207
-428.617	-0.171	-0.089	-0.064
-427.603	309.536	0.057	0.108
-426.588	30.965	-0.291	-0.251
-425.573	60.761	0.129	0.129
-424.559	164.663	0.090	-0.128
-423.544	87.214	-0.213	0.237
-422.530	29.930	-0.174	0.149
-421.515	-117.196	-0.468	-0.086
-420.500	800.000	-0.032	0.092
-419.486	-101.958	-0.063	-0.015
-418.471	566.743	0.112	-0.274
-417.457	260.550	-0.139	-0.241
-416.442	-14.456	-0.487	0.315
-415.428	-76.129	0.228	0.081
-414.413	92.910	-0.090	0.102
-413.398	206.983	0.080	-0.126
-412.384	-58.744	-0.207	0.090
-411.369	-22.670	0.382	-0.232
-410.355	-98.030	0.124	-0.032
-409.340	-194.656	-0.175	-0.001
-408.325	-61.993	0.143	-0.060
-407.311	105.397	0.250	0.297
-406.296	616.334	0.027	0.068
-405.282	323.701	0.168	-0.322
-404.267	800.000	-0.074	-0.209
-403.252	-200.000	0.031	-0.325
-402.238	-175.117	-0.394	-0.011
-401.223	-196.538	-0.183	-0.001
-400.209	138.172	0.076	-0.100
-399.194	-176.516	0.374	-0.010
-398.179	-200.000	-0.066	0.359
-397.165	230.298	-0.133	-0.219
-396.150	-200.000	0.022	-0.414
-395.136	-117.459	0.252	-0.046
-394.121	112.084	-0.293	-0.356
-393.106	55.454	-0.156	0.152
-392.092	-196.288	-0.345	0.002
-391.077	155.094	-0.085	0.117
-390.063	-106.747	0.103	0.023
-389.048	-200.000	0.020	-0.140
-388.033	-137.348	-0.113	-0.013
-387.019	163.726	-0.084	-0.119
-386.004	61.781	-0.293	0.293
-384.990	682.151	0.057	0.150
-383.975	-41.855	0.263	-0.135
-382.960	-189.665	0.176	0.002
-381.946	281.610	0.017	-0.030
-380.931	-200.000	0.005	0.183
-379.917	83.581	-0.186	0.204
-378.902	-200.000	0.036	-0.248
-377.888	-164.724	-0.226	0.010
-376.873	405.381	0.047	0.099
-375.858	-6.388	0.282	-0.193
-374.844	-171.697	-0.388	-0.013
-373.829	-161.538	0.380	0.020
-372.815	102.157	0.238	-0.279
-371.800	-178.064	0.087	-0.002
-370.785	-95.944	-0.081	-0.022
-369.771	416.368	0.077	0.165
-368.756	-4.828	0.272	0.188
-367.742	394.572	-0.067	0.139
-366.727	19.754	0.119	0.096
-365.712	39.700	-0.013	0.012
-364.698	-200.000	-0.039	-0.186
-363.683	-200.000	-0.033	0.159
-362.669	496.767	0.103	0.238
-361.654	-69.617	0.183	-0.070
-360.639	195.886	0.123	-0.188
-359.625	156.021	0.139	0.193
-358.610	-104.595	-0.193	0.045
-357.596	-200.000	0.018	0.084
-356.581	-45.126	0.328	0.164
-355.566	425.627	0.135	-0.291
-354.552	366.017	0.079	0.160
-353.537	12.735	0.189	0.146
-352.523	219.030	0.181	-0.291
-351.508	-194.872	-0.190	-0.001
-350.493	800.000	0.089	0.263
-349.479	800.000	0.032	-0.128
-348.464	258.497	0.091	-0.158
-347.450	60.787	0.202	0.201
-346.435	-200.000	-0.003	-0.067
-345.420	-62.072	-0.065	-0.027
-344.406	20.383	-0.441	0.358
-343.391	-30.346	-0.152	-0.087
-342.377	749.705	0.112	0.304
-341.362	29.144	0.266	0.226
-340.348	-76.032	0.064	-0.023
-339.333	490.075	0.150	-0.344
-338.318	-200.000	0.000	-0.182
-337.304	-145.008	-0.373	-0.034
-336.289	-111.778	-0.285	-0.058
-335.275	-1.100	-0.455	0.322
-334.260	-29.935	-0.130	0.074
-333.245	800.000	0.061	-0.196
-332.231	140.778	-0.025	-0.033
-331.216	777.506	-0.123	-0.336
-330.202	800.000	-0.049	-0.205
-329.187	166.589	0.130	0.184
-328.172	429.191	-0.049	-0.105
-327.158	22.651	-0.122	-0.100
-326.143	43.783	-0.305	-0.280
-325.129	800.000	0.088	-0.261
-324.114	-63.555	-0.045	0.019
-323.099	-92.230	-0.087	-0.025
-322.085	-60.134	0.271	-0.116
-321.070	90.735	-0.134	0.151
-320.056	-126.146	-0.262	0.039
-319.041	370.835	0.017	0.034
-318.026	-180.833	0.280	-0.006
-317.012	-200.000	-0.030	-0.193
-315.997	237.655	-0.122	-0.203
-314.983	-17.878	0.157	0.099
-313.968	-103.035	0.123	-0.029
-312.953	101.837	-0.293	-0.342
-311.939	-200.000	0.002	-0.142
-310.924	-104.429	-0.206	-0.048
-309.910	-200.000	-0.007	-0.154
-308.895	44.011	-0.147	-0.135
-307.880	97.335	-0.158	0.181
-306.866	-82.937	-0.280	0.090
-305.851	-30.426	0.112	0.064
-304.837	-200.000	0.049	0.268
-303.822	140.747	0.161	-0.213
-302.807	-60.800	0.208	-0.088
-301.793	-106.779	-0.262	0.058
-300.778	273.678	-0.243	0.430
-299.764	-53.795	0.269	-0.123
-298.749	-200.000	-0.016	0.087
-297.735	-107.385	-0.326	0.072
-296.720	167.082	0.179	0.254
-295.705	-66.369	0.484	0.193
-294.691	65.825	0.088	0.090
-293.676	300.665	0.080	0.147
-292.662	-86.584	0.191	0.059
-291.647	117.387	0.237	0.292
-290.632	271.913	0.083	-0.147
-289.618	79.618	0.237	0.255
-288.603	-200.000	-0.031	0.140
-287.589	211.986	0.008	0.013
-286.574	180.348	0.086	0.126
-285.559	217.047	-0.059	-0.094
-284.545	-54.388	-0.189	0.086
-283.530	-67.504	0.085	0.034
-282.516	687.358	-0.040	0.104
-281.501	256.015	-0.152	0.261
-280.486	-112.081	0.385	-0.078
-279.472	61.021	0.159	-0.158
-278.457	90.829	-0.136	0.153
-277.443	24.211	0.318	-0.263
-276.428	-5.354	0.047	-0.032
-275.413	165.240	-0.098	0.139
-274.399	155.710	0.147	-0.202
-273.384	-200.000	-0.009	-0.154
-272.370	410.695	-0.095	0.201
-271.355	32.566	0.241	-0.208
-270.340	-98.079	-0.339	0.087
-269.326	800.000	-0.032	0.125
-268.311	-66.636	0.356	-0.141
-267.297	269.090	0.095	-0.166
-266.282	-42.701	-0.102	-0.052
-265.267	271.656	0.134	-0.236
-264.253	174.930	0.089	0.129
-263.238	88.978	-0.084	-0.094
-262.224	432.537	-0.074	-0.161
-261.209	-80.969	-0.007	-0.002
-260.195	-61.652	-0.120	-0.050
-259.180	84.096	-0.132	-0.144
-258.165	21.114	0.209	0.169
-257.151	-200.000	-0.060	0.343
-256.136	124.608	-0.282	0.355
-255.122	-87.398	0.349	-0.106
-254.107	-129.499	0.268	0.037
-253.092	-81.960	-0.214	0.070
-252.078	-26.427	0.188	-0.110
-251.063	729.010	0.069	-0.185
-250.049	134.594	0.112	0.145
-249.034	-108.549	-0.234	0.050
-248.019	-173.303	0.542	-0.016
-247.005	800.000	0.037	-0.152
-245.990	305.682	-0.090	0.168
-244.976	-200.000	0.036	0.281
-243.961	239.380	-0.009	0.016
-242.946	236.066	0.080	-0.133
-241.932	-78.551	-0.140	-0.048
-240.917	-118.937	-0.372	0.065
-239.903	-49.754	0.317	-0.150
-238.888	800.000	-0.107	0.299
-237.873	-132.764	0.238	-0.030
-236.859	-172.371	-0.254	-0.008
-235.844	-27.066	0.163	0.095
-234.830	-200.000	-0.031	-0.146
-233.815	-200.000	-0.004	-0.133
-232.800	273.398	0.092	0.163
-231.786	-102.255	-0.219	0.053
-230.771	-75.253	-0.334	0.119
-229.757	-180.448	0.094	0.002
-228.742	296.089	0.116	0.212
-227.727	-51.008	-0.057	-0.027
-226.713	220.388	-0.134	0.214
-225.698	281.225	-0.115	-0.206
-224.684	49.810	0.071	0.067
-223.669	-75.227	0.033	-0.012
-222.655	183.085	-0.061	-0.090
-221.640	134.279	0.155	0.200
-220.625	88.499	-0.181	0.201
-219.611	-200.000	0.025	-0.156
-218.596	-200.000	0.011	-0.122
-217.582	-200.000	-0.014	-0.112
-216.567	744.852	-0.057	-0.153
-215.552	-133.477	0.082	0.010
-214.538	125.448	0.045	0.056
-213.523	-0.525	0.296	0.210
-212.509	-37.703	0.391	0.208
-211.494	-51.745	-0.059	-0.027
-210.479	-137.080	0.531	0.061
-209.465	-98.018	0.185	-0.048
-208.450	72.281	-0.077	0.080
-207.436	-200.000	-0.011	-0.382
-206.421	118.713	-0.050	0.062
-205.406	169.876	-0.013	0.019
-204.392	334.011	0.160	-0.310
-203.377	22.912	-0.312	0.255
-202.363	-50.773	-0.181	-0.085
-201.348	534.820	0.093	0.220
-200.333	-31.136	-0.087	-0.049
-199.319	-50.246	-0.175	0.083
-198.304	-200.000	-0.037	0.445
-197.290	20.526	0.082	0.066
-196.275	-200.000	0.036	-0.199
-195.260	7.282	-0.159	-0.118
-194.246	-8.203	-0.106	0.071
-193.231	68.400	-0.123	0.126
-192.217	-143.097	-0.327	0.031
-191.202	800.000	0.017	0.052
-190.187	-38.060	0.410	0.217
-189.173	137.581	0.059	0.077
-188.158	800.000	0.111	0.388
-187.144	457.334	0.133	0.295
-186.129	198.999	-0.119	0.181
-185.114	222.616	0.103	-0.165
-184.100	290.445	-0.115	0.209
-183.085	-191.496	0.534	0.005
-182.071	0.617	-0.083	-0.059
-181.056	206.914	-0.223	0.346
-180.042	-139.432	0.362	0.039
-179.027	-113.429	0.213	0.042
-178.012	-71.618	-0.288	0.107
-176.998	-36.250	0.320	0.172
-175.983	450.306	0.102	-0.225
-174.969	-125.148	0.234	-0.036
-173.954	800.000	0.024	-0.087
-172.939	3.265	-0.083	-0.060
-171.925	-200.000	0.001	-0.177
-170.910	-147.480	0.250	-0.021
-169.896	-103.000	0.556	0.131
-168.881	-200.000	0.047	-0.274
-167.866	368.160	0.164	-0.330
-166.852	-200.000	0.017	-0.208
-165.837	193.746	0.068	0.102
-164.823	420.224	0.070	0.148
-163.808	-8.926	0.050	-0.033
-162.793	-200.000	-0.033	0.175
-161.779	28.295	0.082	-0.069
-160.764	-57.378	-0.234	-0.103
-159.750	800.000	-0.082	-0.289
-158.735	48.349	-0.010	0.010
-157.720	-45.007	-0.155	0.077
-156.706	-83.209	0.078	0.025
-155.691	-56.400	-0.207	-0.092
-154.677	-142.715	-0.128	-0.012
-153.662	-111.210	0.273	-0.056
-152.647	-18.805	-0.311	-0.193
-151.633	150.117	-0.124	0.168
-150.618	558.381	0.018	-0.044
-149.604	-183.142	0.180	-0.003
-148.589	-78.690	-0.023	-0.008
-147.574	190.737	-0.114	-0.170
-146.560	-93.742	-0.200	0.055
-145.545	-132.527	0.291	0.037
-144.531	105.357	-0.222	0.261
-143.516	-200.000	-0.071	0.419
-142.502	299.647	-0.062	-0.114
-141.487	80.293	0.123	0.132
-140.472	-76.532	-0.099	0.035
-139.458	800.000	0.092	0.341
-138.443	-55.590	-0.076	-0.034
-137.429	800.000	-0.075	0.212
-136.414	-200.000	0.003	-0.060
-135.399	-60.071	0.260	-0.111
-134.385	623.204	0.082	-0.206
-133.370	-81.651	-0.047	-0.015
-132.356	-115.357	-0.156	-0.029
-131.341	-3.445	-0.303	0.210
-130.326	-61.857	-0.116	0.048
-129.312	128.111	-0.141	0.179
-128.297	800.000	0.024	-0.105
-127.283	710.744	-0.039	0.103
-126.268	-200.000	0.034	-0.193
-125.253	328.567	-0.103	-0.197
-124.239	-29.796	0.170	-0.096
-123.224	-62.982	-0.126	0.052
-122.210	-93.679	-0.276	-0.076
-121.195	20.655	0.208	-0.167
