DTS Sentinel unit serial number:	SN413079Multiplexer serial number:	ORYXHardware model number:	OX4-SRSoftware version number:	ORYX F/W v4.00 Oryx Data Collector v3.7.2.0data status	okinstallation	princeton_trtdifferential loss correction	single-endedforward channel	channel 1reverse channel	N/Adate	2019/09/19time	07:58:35forward acquisition time	60.00reverse acquisition time	0.00gamma	496.2192k internal	0.2341k external	0.2341temperature offset calibration	1.0013default loss term (dB/km)	0.3790temperature slope calibration	1.0000multiplexer offset coefficient	1.0000multiplexer slope coefficient	1.0000fibre end	0.00T internal ref (°C)	19.80T ext. ref 1 (°C)	0.55T ext. ref 2 (°C)	15.27length (m)	temperature (°C)	Stokes	anti-Stokes-747.200	102.741	-0.100	0.117
-746.185	87.215	-0.250	0.277
-745.171	-110.905	-0.071	0.015
-744.156	207.358	-0.126	0.197
-743.142	734.133	-0.047	0.127
-742.127	-176.030	0.397	0.011
-741.112	-105.745	0.345	0.078
-740.098	76.027	-0.169	0.179
-739.083	-175.385	0.234	-0.006
-738.069	-200.000	-0.031	0.181
-737.054	-167.306	-0.382	0.015
-736.039	0.813	-0.540	0.387
-735.025	141.914	0.109	-0.145
-734.010	-151.304	-0.151	-0.011
-732.996	299.625	-0.049	-0.091
-731.981	800.000	-0.074	-0.280
-730.966	-77.781	0.088	0.031
-729.952	-144.474	0.389	-0.036
-728.937	800.000	-0.013	-0.040
-727.923	405.989	0.104	-0.219
-726.908	-149.012	-0.310	-0.025
-725.894	-200.000	0.019	0.212
-724.879	800.000	0.067	-0.217
-723.864	-67.415	0.280	0.110
-722.850	629.975	0.127	0.322
-721.835	-149.054	-0.247	-0.020
-720.821	428.476	0.093	-0.201
-719.806	-95.983	-0.062	-0.016
-718.791	-3.145	-0.150	-0.104
-717.777	-125.318	0.264	-0.040
-716.762	478.543	-0.054	-0.123
-715.748	494.523	0.079	0.182
-714.733	241.761	-0.288	-0.482
-713.718	-200.000	0.016	-0.301
-712.704	109.316	-0.214	0.256
-711.689	-89.661	0.219	0.064
-710.675	-125.521	-0.186	-0.028
-709.660	345.742	0.111	-0.219
-708.645	800.000	-0.097	-0.378
-707.631	58.895	-0.218	0.214
-706.616	456.680	-0.055	0.121
-705.602	-129.618	-0.204	-0.028
-704.587	-127.660	0.063	-0.009
-703.572	800.000	-0.055	0.196
-702.558	-42.752	-0.189	-0.096
-701.543	-109.758	0.154	-0.032
-700.529	-200.000	0.039	-0.217
-699.514	-200.000	-0.039	-0.395
-698.499	-121.350	0.076	0.013
-697.485	-200.000	0.077	-0.506
-696.470	24.777	-0.133	0.110
-695.456	32.011	0.223	-0.192
-694.441	800.000	-0.057	-0.204
-693.426	68.861	0.276	-0.284
-692.412	37.390	0.233	-0.207
-691.397	671.496	0.046	0.119
-690.383	-26.211	-0.283	-0.166
-689.368	562.360	0.113	-0.273
-688.354	-78.887	-0.234	0.080
-687.339	-25.937	-0.021	-0.012
-686.324	800.000	0.057	-0.247
-685.310	-200.000	-0.036	0.253
-684.295	-33.293	-0.195	0.108
-683.281	-78.107	-0.025	-0.009
-682.266	272.652	-0.171	0.301
-681.251	90.689	-0.050	-0.056
-680.237	190.673	0.112	0.168
-679.222	-200.000	0.010	0.201
-678.208	71.088	0.290	0.300
-677.193	76.839	-0.117	0.125
-676.178	-116.143	0.174	-0.032
-675.164	-200.000	0.051	-0.268
-674.149	-200.000	-0.017	0.182
-673.135	-200.000	-0.048	-0.217
-672.120	209.565	0.081	-0.127
-671.105	-200.000	0.003	-0.064
-670.091	3.232	0.102	-0.074
-669.076	59.172	0.056	0.055
-668.062	-92.335	-0.250	0.070
-667.047	-114.540	0.322	-0.062
-666.032	30.495	0.202	0.173
-665.018	-168.275	-0.185	-0.007
-664.003	36.742	-0.239	-0.211
-662.989	-22.910	0.159	-0.096
-661.974	-2.492	0.026	0.018
-660.959	-18.774	-0.324	0.202
-659.945	72.917	0.031	0.033
-658.930	-128.149	-0.151	-0.022
-657.916	652.828	0.040	-0.104
-656.901	312.191	-0.103	0.192
-655.886	27.981	0.220	-0.186
-654.872	-45.553	0.372	-0.184
-653.857	173.371	0.066	-0.095
-652.843	-131.941	-0.197	-0.026
-651.828	-126.309	0.228	-0.034
-650.814	-200.000	-0.018	0.111
-649.799	-200.000	-0.008	-0.208
-648.784	29.994	-0.119	0.101
-647.770	-47.011	0.273	-0.133
-646.755	268.010	0.158	-0.276
-645.741	-200.000	0.078	0.396
-644.726	130.101	-0.108	0.138
-643.711	-100.885	-0.164	-0.040
-642.697	-200.000	-0.019	0.225
-641.682	38.977	-0.139	-0.124
-640.668	-78.856	0.082	-0.028
-639.653	-52.786	0.256	0.118
-638.638	341.797	0.158	0.309
-637.624	-154.429	-0.225	-0.015
-636.609	74.474	-0.173	0.182
-635.595	-200.000	0.005	0.025
-634.580	800.000	0.012	-0.049
-633.565	-59.445	-0.046	-0.020
-632.551	-200.000	0.039	-0.357
-631.536	-10.801	-0.123	-0.081
-630.522	-72.486	-0.220	0.081
-629.507	381.927	0.057	-0.116
-628.492	120.271	0.015	0.019
-627.478	-71.954	0.249	-0.093
-626.463	110.702	-0.155	0.186
-625.449	-89.036	-0.049	-0.014
-624.434	800.000	-0.088	-0.306
-623.419	800.000	-0.063	0.220
-622.405	198.683	-0.110	0.168
-621.390	169.956	-0.108	0.154
-620.376	-173.942	0.207	0.006
-619.361	101.529	-0.274	-0.318
-618.346	-200.000	-0.029	-0.247
-617.332	6.853	-0.292	-0.217
-616.317	-114.088	-0.141	-0.027
-615.303	-112.675	-0.344	-0.068
-614.288	-200.000	0.000	-0.194
-613.273	-75.086	0.040	-0.014
-612.259	231.909	0.100	0.164
-611.244	800.000	-0.082	0.349
-610.230	-85.695	0.309	0.096
-609.215	-97.177	-0.156	-0.041
-608.201	-178.104	0.019	-0.000
-607.186	-200.000	-0.007	-0.281
-606.171	609.304	0.054	-0.135
-605.157	177.238	-0.122	-0.177
-604.142	46.679	0.131	-0.121
-603.128	-117.976	-0.264	0.047
-602.113	800.000	0.111	0.374
-601.098	-31.989	0.054	-0.030
-600.084	-200.000	-0.267	0.001
-599.069	-65.137	-0.289	0.116
-598.055	800.000	0.028	-0.089
-597.040	-44.447	0.205	0.102
-596.025	22.565	0.171	0.140
-595.011	-200.000	-0.022	-0.226
-593.996	122.389	0.158	-0.197
-592.982	-141.433	-0.371	0.037
-591.967	93.414	-0.300	0.338
-590.952	-88.780	-0.153	-0.045
-589.938	-144.050	0.175	0.016
-588.923	-114.614	-0.159	-0.030
-587.909	-117.054	-0.140	-0.025
-586.894	30.547	0.129	-0.109
-585.879	182.374	-0.025	0.037
-584.865	-143.433	0.096	0.009
-583.850	-200.000	0.030	0.295
-582.836	-117.085	0.100	0.018
-581.821	23.520	-0.171	-0.140
-580.806	-75.933	0.197	0.069
-579.792	-187.851	-0.379	-0.005
-578.777	-71.163	-0.176	-0.066
-577.763	-52.108	0.173	0.080
-576.748	-1.532	-0.038	-0.027
-575.733	137.061	-0.037	-0.048
-574.719	33.912	-0.043	0.037
-573.704	77.930	0.036	-0.039
-572.690	74.868	0.076	-0.079
-571.675	288.918	-0.137	0.247
-570.661	5.607	0.080	0.059
-569.646	118.740	0.203	-0.250
-568.631	-39.221	0.231	-0.121
-567.617	-158.259	0.207	-0.012
-566.602	800.000	-0.038	-0.106
-565.588	-40.283	-0.347	-0.179
-564.573	91.245	-0.134	0.150
-563.558	-8.167	-0.123	-0.082
-562.544	382.873	-0.095	-0.195
-561.529	-34.613	-0.122	0.066
-560.515	-200.000	0.010	-0.153
-559.500	26.045	0.251	-0.208
-558.485	45.708	-0.091	0.084
-557.471	540.117	0.093	-0.220
-556.456	485.164	0.056	0.127
-555.442	-115.047	0.274	0.052
-554.427	-136.702	0.355	-0.041
-553.412	-200.000	-0.039	0.188
-552.398	745.130	0.114	0.304
-551.383	49.603	-0.016	-0.015
-550.369	-175.514	-0.523	-0.014
-549.354	-200.000	-0.003	0.042
-548.339	-40.915	0.165	-0.085
-547.325	-128.091	-0.071	0.010
-546.310	-33.290	-0.258	-0.142
-545.296	266.887	-0.018	-0.031
-544.281	281.761	-0.074	-0.132
-543.266	-144.138	-0.141	-0.013
-542.252	72.817	-0.144	-0.150
-541.237	-200.000	0.032	0.179
-540.223	267.256	-0.120	-0.209
-539.208	144.153	-0.063	-0.084
-538.193	-200.000	0.031	-0.268
-537.179	-200.000	-0.003	-0.050
-536.164	256.582	0.144	-0.245
-535.150	-200.000	0.026	0.393
-534.135	42.888	-0.045	0.041
-533.121	-141.724	0.320	-0.032
-532.106	-200.000	0.011	0.602
-531.091	-200.000	0.016	-0.342
-530.077	-154.623	0.119	-0.008
-529.062	-27.147	0.033	0.019
-528.048	-154.499	-0.306	-0.020
-527.033	99.993	-0.200	0.230
-526.018	-200.000	-0.051	-0.240
-525.004	-33.173	-0.273	0.151
-523.989	168.669	-0.043	0.061
-522.975	42.133	-0.338	0.305
-521.960	212.237	-0.098	-0.153
-520.945	-10.615	-0.147	-0.097
-519.931	-7.712	0.080	-0.053
-518.916	-200.000	-0.000	-0.104
-517.902	-111.072	-0.317	-0.065
-516.887	-132.573	-0.197	-0.025
-515.872	32.084	0.032	0.027
-514.858	-29.661	-0.325	0.184
-513.843	-162.335	-0.138	0.007
-512.829	-143.512	0.226	-0.021
-511.814	418.366	-0.064	-0.135
-510.799	-161.291	0.083	0.004
-509.785	461.443	0.130	-0.287
-508.770	-200.000	-0.041	-0.309
-507.756	-114.131	-0.090	0.017
-506.741	-18.242	0.237	0.147
-505.726	-109.338	0.154	0.032
-504.712	218.499	0.057	0.090
-503.697	99.710	0.077	0.088
-502.683	800.000	-0.106	0.328
-501.668	-155.523	-0.220	0.014
-500.653	-93.066	-0.182	-0.050
-499.639	800.000	-0.044	-0.182
-498.624	-107.172	0.218	0.048
-497.610	-64.919	-0.161	0.064
-496.595	-162.064	0.119	-0.006
-495.581	148.228	-0.122	-0.163
-494.566	800.000	-0.053	0.172
-493.551	-200.000	0.032	-0.607
-492.537	550.063	0.087	-0.207
-491.522	-19.155	-0.196	0.121
-490.508	642.678	0.043	-0.109
-489.493	-200.000	0.012	-0.194
-488.478	-200.000	-0.041	-0.236
-487.464	-141.359	0.112	-0.011
-486.449	229.693	-0.097	-0.157
-485.435	59.333	0.346	-0.338
-484.420	-113.746	0.434	0.084
-483.405	-200.000	0.032	0.216
-482.391	109.658	-0.242	-0.287
-481.376	143.475	-0.123	0.162
-480.362	50.917	-0.185	0.174
-479.347	-131.899	0.218	0.028
-478.332	67.040	-0.232	-0.234
-477.318	-60.086	0.387	-0.164
-476.303	-1.782	-0.086	-0.060
-475.289	-200.000	0.010	-0.179
-474.274	86.663	-0.171	0.187
-473.259	36.418	-0.187	0.164
-472.245	165.977	-0.106	-0.149
-471.230	209.345	0.184	0.286
-470.216	227.693	0.079	0.127
-469.201	-149.934	0.225	-0.017
-468.186	201.397	0.126	-0.192
-467.172	-28.819	-0.167	0.095
-466.157	-200.000	-0.009	-0.338
-465.143	800.000	0.107	0.320
-464.128	792.992	-0.038	-0.104
-463.113	161.854	0.082	0.113
-462.099	351.945	-0.036	0.070
-461.084	-200.000	-0.006	0.121
-460.070	699.073	-0.131	0.342
-459.055	-200.000	-0.083	-0.435
-458.040	175.285	-0.196	0.281
-457.026	-200.000	-0.043	0.337
-456.011	800.000	-0.073	-0.240
-454.997	-53.854	0.093	-0.042
-453.982	143.562	-0.087	-0.114
-452.968	453.330	0.044	0.097
-451.953	25.298	0.133	-0.109
-450.938	-200.000	0.000	0.349
-449.924	228.440	-0.038	-0.061
-448.909	-200.000	0.040	0.186
-447.895	-51.389	-0.273	-0.126
-446.880	113.907	0.195	-0.234
-445.865	-0.853	0.263	0.184
-444.851	89.772	-0.124	0.138
-443.836	-179.134	-0.241	0.005
-442.822	-200.000	0.033	-0.349
-441.807	142.529	-0.247	0.325
-440.792	406.993	-0.215	-0.449
-439.778	-138.410	0.107	0.012
-438.763	301.556	0.149	-0.273
-437.749	335.391	-0.163	-0.313
-436.734	52.232	-0.082	-0.078
-435.719	110.561	-0.072	-0.086
-434.705	30.243	-0.062	0.052
-433.690	50.493	0.124	0.116
-432.676	-85.073	-0.161	0.050
-431.661	37.836	-0.136	-0.120
-430.646	540.543	0.037	0.088
-429.632	628.424	-0.107	0.268
-428.617	-200.000	-0.019	0.163
-427.603	171.444	-0.132	0.188
-426.588	-46.482	-0.299	0.145
-425.573	-200.000	-0.010	-0.212
-424.559	-29.548	-0.165	0.093
-423.544	-38.835	-0.094	-0.049
-422.530	31.814	0.284	-0.242
-421.515	-98.915	0.366	0.092
-420.500	800.000	-0.026	-0.081
-419.486	31.467	0.125	-0.106
-418.471	800.000	-0.043	-0.131
-417.457	-85.116	-0.161	0.050
-416.442	255.043	-0.101	0.172
-415.428	-6.907	0.379	-0.255
-414.413	-200.000	0.015	0.130
-413.398	-67.552	0.065	-0.025
-412.384	370.644	0.133	0.266
-411.369	800.000	-0.105	0.322
-410.355	-118.983	0.115	0.020
-409.340	-167.612	0.094	0.004
-408.325	-2.746	-0.189	0.131
-407.311	-77.867	-0.209	0.071
-406.296	38.410	-0.336	-0.296
-405.282	-200.000	-0.049	0.211
-404.267	245.869	0.179	-0.299
-403.252	800.000	0.142	-0.421
-402.238	-125.874	0.172	-0.026
-401.223	-200.000	0.031	-0.179
-400.209	-126.997	0.337	0.049
-399.194	-95.737	-0.120	0.032
-398.179	-200.000	-0.001	-0.029
-397.165	-80.989	-0.127	0.042
-396.150	442.655	-0.119	-0.258
-395.136	-23.594	-0.173	-0.102
-394.121	56.704	0.178	-0.171
-393.106	364.184	-0.106	-0.211
-392.092	-43.312	0.205	-0.102
-391.077	44.666	0.134	0.121
-390.063	-96.627	-0.201	-0.052
-389.048	175.961	-0.131	0.187
-388.033	-133.104	-0.193	-0.024
-387.019	112.855	-0.271	0.325
-386.004	117.702	0.009	0.011
-384.990	-82.549	-0.108	0.035
-383.975	-56.277	0.278	0.122
-382.960	-170.686	-0.248	-0.008
-381.946	-116.589	-0.224	-0.041
-380.931	-17.484	-0.061	-0.038
-379.917	218.919	0.108	-0.170
-378.902	174.930	-0.210	-0.301
-377.888	-77.178	0.198	0.068
-376.873	-145.786	0.337	0.030
-375.858	382.146	-0.102	0.207
-374.844	-5.015	0.130	-0.089
-373.829	-200.000	-0.098	-0.458
-372.815	-114.584	-0.350	0.066
-371.800	197.674	-0.107	0.161
-370.785	800.000	-0.107	0.328
-369.771	87.360	-0.100	-0.109
-368.756	800.000	0.029	0.086
-367.742	-136.280	0.308	-0.036
-366.727	-129.003	-0.143	-0.020
-365.712	800.000	-0.038	0.156
-364.698	508.759	0.070	0.161
-363.683	-157.786	-0.220	0.013
-362.669	-26.504	0.303	-0.175
-361.654	-101.856	0.179	0.043
-360.639	111.654	-0.135	-0.161
-359.625	-83.570	0.141	0.044
-358.610	90.368	-0.087	0.096
-357.596	-74.928	0.261	-0.092
-356.581	516.538	0.040	-0.092
-355.566	261.782	0.149	0.255
-354.552	-137.115	-0.227	-0.026
-353.537	-94.208	0.082	0.022
-352.523	800.000	-0.051	0.213
-351.508	67.896	-0.172	0.174
-350.493	800.000	0.088	0.276
-349.479	-200.000	-0.060	0.432
-348.464	123.975	-0.353	-0.438
-347.450	-200.000	0.007	-0.064
-346.435	-144.587	0.365	0.033
-345.420	41.968	0.083	0.074
-344.406	-28.839	0.321	-0.182
-343.391	-102.039	0.105	0.025
-342.377	-32.609	0.342	-0.188
-341.362	294.905	-0.044	-0.080
-340.348	94.488	0.099	0.111
-339.333	-200.000	-0.022	-0.233
-338.318	-4.478	0.370	-0.252
-337.304	-200.000	0.048	-0.222
-336.289	46.362	-0.188	-0.172
-335.275	427.796	0.066	-0.140
-334.260	-200.000	0.024	-0.328
-333.245	-83.545	-0.328	0.104
-332.231	-140.119	0.118	-0.012
-331.216	-66.555	-0.026	-0.010
-330.202	-26.466	0.158	-0.091
-329.187	-200.000	-0.007	0.121
-328.172	-200.000	-0.011	-0.289
-327.158	-200.000	-0.033	0.173
-326.143	328.027	-0.118	-0.223
-325.129	89.089	-0.124	0.136
-324.114	-39.210	0.292	-0.151
-323.099	-200.000	0.031	0.196
-322.085	800.000	0.061	-0.213
-321.070	-200.000	0.006	-0.055
-320.056	-136.618	-0.103	-0.012
-319.041	96.210	0.178	-0.200
-318.026	15.818	0.058	0.045
-317.012	179.662	0.144	0.208
-315.997	381.910	0.055	-0.111
-314.983	278.515	0.246	0.432
-313.968	747.261	-0.131	0.349
-312.953	226.665	-0.203	0.324
-311.939	-134.816	0.226	-0.027
-310.924	121.183	0.131	-0.161
-309.910	279.807	-0.096	0.169
-308.895	-200.000	0.007	-0.132
-307.880	-135.612	0.269	0.031
-306.866	800.000	-0.028	0.085
-305.851	-51.248	-0.189	-0.087
-304.837	-200.000	-0.129	-0.001
-303.822	-200.000	-0.015	-0.089
-302.807	-200.000	0.003	0.030
-301.793	-97.002	0.454	-0.117
-300.778	-162.340	0.090	0.004
-299.764	-200.000	-0.015	-0.101
-298.749	241.421	-0.129	-0.212
-297.735	-161.182	0.159	0.008
-296.720	-73.948	-0.194	0.069
-295.705	-55.332	0.378	-0.167
-294.691	800.000	0.136	0.411
-293.676	-188.056	0.374	0.005
-292.662	-63.169	0.454	-0.184
-291.647	-118.645	-0.218	0.038
-290.632	-200.000	0.004	-0.037
-289.618	67.186	-0.167	0.168
-288.603	234.721	-0.230	0.373
-287.589	-40.638	-0.028	0.014
-286.574	-200.000	0.043	0.225
-285.559	-200.000	-0.072	-0.343
-284.545	475.851	0.010	0.021
-283.530	-145.733	-0.248	0.022
-282.516	302.307	0.121	0.220
-281.501	-147.561	0.120	-0.010
-280.486	509.203	0.036	-0.083
-279.472	800.000	-0.089	-0.267
-278.457	139.166	-0.108	-0.139
-277.443	-200.000	0.009	-0.067
-276.428	-64.236	0.191	-0.077
-275.413	800.000	-0.053	0.151
-274.399	-43.751	-0.177	0.088
-273.384	6.025	-0.188	0.137
-272.370	-200.000	-0.014	0.290
-271.355	520.612	-0.187	0.431
-270.340	-200.000	0.093	-0.528
-269.326	-14.390	0.125	0.079
-268.311	-200.000	0.005	-0.060
-267.297	-200.000	-0.016	-0.169
-266.282	-46.820	0.306	0.147
-265.267	-101.899	-0.086	-0.020
-264.253	-101.889	0.308	0.073
-263.238	-116.279	-0.221	0.040
-262.224	-48.107	-0.204	0.097
-261.209	78.391	0.139	0.145
-260.195	-6.200	-0.145	0.098
-259.180	266.224	0.131	0.224
-258.165	191.642	0.107	0.159
-257.151	96.960	0.189	-0.213
-256.136	-148.893	0.138	0.011
-255.122	-78.694	-0.186	0.062
-254.107	-37.696	-0.412	-0.215
-253.092	-200.000	0.058	-0.423
-252.078	358.481	-0.055	0.109
-251.063	429.246	0.070	-0.149
-250.049	-4.700	0.195	-0.132
-249.034	10.650	-0.202	-0.152
-248.019	-36.256	0.219	-0.116
-247.005	-121.914	-0.417	0.068
-245.990	-128.484	-0.068	-0.010
-244.976	34.332	0.089	0.076
-243.961	-61.147	-0.198	0.082
-242.946	-179.722	0.189	-0.004
-241.932	-125.564	-0.040	-0.006
-240.917	1.550	-0.218	-0.154
-239.903	-17.422	0.308	-0.190
-238.888	-146.336	0.152	0.013
-237.873	800.000	-0.004	-0.015
-236.859	14.854	0.208	-0.160
-235.844	-42.413	-0.169	0.085
-234.830	-200.000	0.009	0.205
-233.815	-155.343	0.307	0.020
-232.800	-31.750	0.105	-0.058
-231.786	-22.248	0.112	-0.067
-230.771	-159.848	-0.097	-0.005
-229.757	120.807	-0.226	-0.276
-228.742	11.598	0.085	0.064
-227.727	-200.000	-0.014	0.298
-226.713	800.000	0.065	0.254
-225.698	307.512	-0.111	-0.203
-224.684	800.000	-0.045	0.154
-223.669	81.245	0.057	0.060
-222.655	181.712	-0.130	0.189
-221.640	-81.311	-0.227	-0.073
-220.625	-194.193	0.128	0.001
-219.611	-18.175	0.216	0.133
-218.596	-75.128	-0.030	0.011
-217.582	-106.274	0.188	0.041
-216.567	-189.516	0.298	0.003
-215.552	-200.000	-0.024	-0.150
-214.538	-123.961	0.323	-0.050
-213.523	-45.107	-0.184	0.090
-212.509	139.649	0.182	0.235
-211.494	-200.000	0.027	-0.227
-210.479	800.000	-0.132	0.438
-209.465	-137.274	-0.487	0.054
-208.450	157.548	0.289	0.393
-207.436	28.244	-0.159	-0.131
-206.421	78.600	-0.360	-0.377
-205.406	-38.071	0.365	0.190
-204.392	13.989	-0.090	-0.069
-203.377	198.849	-0.163	0.244
-202.363	-200.000	0.036	0.241
-201.348	-137.933	0.270	-0.030
-200.333	72.640	0.172	-0.176
-199.319	114.975	-0.364	0.436
-198.304	-110.132	0.240	0.049
-197.290	8.973	0.026	0.019
-196.275	570.871	-0.100	0.239
-195.260	188.986	0.076	0.112
-194.246	-200.000	0.008	-0.143
-193.231	320.362	-0.113	0.210
-192.217	-67.022	0.086	0.033
-191.202	24.803	0.284	-0.231
-190.187	117.815	-0.117	-0.141
-189.173	-90.207	0.042	-0.012
-188.158	-31.002	-0.258	0.143
-187.144	-149.081	0.253	-0.020
-186.129	161.072	-0.115	0.158
-185.114	-32.895	0.343	-0.187
-184.100	108.197	0.272	-0.318
-183.085	-200.000	-0.040	-0.228
-182.071	-132.516	0.161	0.020
-181.056	800.000	-0.042	0.159
-180.042	-200.000	0.006	0.327
-179.027	327.376	0.051	0.096
-178.012	-124.800	0.405	-0.061
-176.998	77.232	0.126	-0.131
-175.983	361.118	0.168	-0.330
-174.969	34.205	0.057	0.049
-173.954	-70.580	0.323	0.120
-172.939	6.573	0.288	0.210
-171.925	42.623	-0.149	-0.133
-170.910	50.856	-0.086	0.080
-169.896	71.471	-0.069	0.071
-168.881	243.743	0.069	0.113
-167.866	-200.000	-0.056	0.265
-166.852	-176.206	0.201	0.005
-165.837	-200.000	-0.062	0.300
-164.823	206.285	0.086	0.132
-163.808	-166.966	0.163	0.007
-162.793	206.537	0.137	0.209
-161.779	-54.283	-0.326	0.145
-160.764	17.869	0.121	-0.094
-159.750	45.383	-0.062	0.056
-158.735	-68.600	-0.214	0.081
-157.720	-88.122	0.129	0.038
-156.706	38.111	-0.195	0.170
-155.691	-81.531	-0.103	-0.033
-154.677	-144.329	-0.180	-0.016
-153.662	112.123	0.169	-0.200
-152.647	35.401	0.282	0.242
-151.633	-54.898	0.243	0.107
-150.618	96.325	0.024	-0.027
-149.604	97.234	-0.031	0.035
-148.589	-64.073	0.312	0.125
-147.574	39.481	-0.215	-0.188
-146.560	95.096	-0.102	0.113
-145.545	800.000	-0.046	0.147
-144.531	-189.204	0.386	-0.004
-143.516	800.000	-0.048	-0.143
-142.502	-97.451	-0.370	0.094
-141.487	-195.990	0.045	-0.000
-140.472	-97.620	0.074	0.019
-139.458	447.327	0.124	0.266
-138.443	-28.836	0.193	-0.109
-137.429	-30.583	-0.186	0.103
-136.414	-200.000	0.007	-0.380
-135.399	800.000	0.027	0.073
-134.385	800.000	-0.084	0.318
-133.370	493.718	-0.076	-0.170
-132.356	-200.000	0.054	-0.384
-131.341	-17.412	-0.189	0.116
-130.326	20.875	0.202	0.160
-129.312	-200.000	0.017	0.145
-128.297	800.000	-0.075	0.246
-127.283	-42.576	-0.362	0.181
-126.268	26.089	-0.267	-0.218
-125.253	336.397	0.185	-0.350
-124.239	-76.301	-0.125	0.043
-123.224	-200.000	-0.040	0.357
-122.210	-200.000	-0.002	-0.197
