DTS Sentinel unit serial number:	SN413079Multiplexer serial number:	ORYXHardware model number:	OX4-SRSoftware version number:	ORYX F/W v4.00 Oryx Data Collector v3.7.2.0data status	okinstallation	princeton_trtdifferential loss correction	single-endedforward channel	channel 1reverse channel	N/Adate	2019/09/15time	14:26:35forward acquisition time	60.00reverse acquisition time	0.00gamma	496.2192k internal	0.2291k external	0.2291temperature offset calibration	0.9962default loss term (dB/km)	0.3790temperature slope calibration	1.0000multiplexer offset coefficient	1.0000multiplexer slope coefficient	1.0000fibre end	0.00T internal ref (°C)	39.25T ext. ref 1 (°C)	4.94T ext. ref 2 (°C)	36.38length (m)	temperature (°C)	Stokes	anti-Stokes-747.200	-200.000	0.051	-0.345
-746.185	221.177	0.131	0.215
-745.171	382.673	-0.115	0.243
-744.156	800.000	0.081	0.316
-743.142	71.238	-0.068	0.072
-742.127	-140.366	0.208	0.022
-741.112	-82.604	-0.488	0.162
-740.098	46.224	-0.031	-0.030
-739.083	24.500	0.215	-0.182
-738.069	800.000	0.155	0.464
-737.054	639.837	0.101	-0.264
-736.039	-90.555	0.051	-0.015
-735.025	88.447	-0.161	0.183
-734.010	88.240	0.099	0.113
-732.996	-89.930	-0.239	-0.071
-731.981	-104.390	-0.127	-0.030
-730.966	219.408	0.039	-0.064
-729.952	800.000	-0.078	-0.265
-728.937	156.834	0.063	0.089
-727.923	-95.580	-0.090	-0.025
-726.908	706.197	-0.046	-0.124
-725.894	65.297	-0.124	-0.128
-724.879	462.618	-0.042	0.097
-723.864	-200.000	0.063	-0.319
-722.850	-57.111	-0.365	-0.165
-721.835	54.184	-0.107	0.105
-720.821	272.462	-0.113	-0.204
-719.806	141.777	0.131	-0.177
-718.791	-73.885	-0.232	-0.086
-717.777	-200.000	0.007	-0.161
-716.762	-132.463	-0.019	-0.002
-715.748	17.974	0.151	0.123
-714.733	221.006	0.181	-0.297
-713.718	-89.325	-0.203	-0.061
-712.704	88.233	0.131	-0.149
-711.689	714.691	0.074	0.201
-710.675	-79.736	-0.155	0.053
-709.660	-9.443	0.420	-0.287
-708.645	-141.186	-0.184	0.019
-707.631	-84.907	-0.174	0.056
-706.616	-200.000	0.021	0.304
-705.602	-200.000	0.007	0.292
-704.587	192.950	-0.054	-0.083
-703.572	-200.000	0.055	-0.306
-702.558	-200.000	-0.060	0.368
-701.543	-67.156	-0.159	-0.064
-700.529	583.179	0.131	-0.329
-699.514	-200.000	-0.010	0.280
-698.499	-64.426	0.077	-0.032
-697.485	-28.125	-0.107	-0.063
-696.470	-87.071	-0.283	0.088
-695.456	-0.036	-0.271	0.197
-694.441	-23.986	-0.378	-0.231
-693.426	-174.255	-0.101	-0.003
-692.412	-183.287	0.300	0.005
-691.397	52.865	-0.145	0.141
-690.383	179.716	0.119	-0.179
-689.368	-88.794	0.156	-0.047
-688.354	-49.221	0.345	0.168
-687.339	-88.542	-0.318	-0.097
-686.324	180.359	-0.040	0.060
-685.310	-171.107	0.305	-0.011
-684.295	1.498	-0.121	0.089
-683.281	-200.000	0.039	-0.335
-682.266	275.343	-0.128	-0.231
-681.251	-31.674	-0.099	-0.057
-680.237	103.691	0.330	0.396
-679.222	-124.086	-0.180	0.029
-678.208	-88.197	-0.161	-0.049
-677.193	-116.101	-0.024	-0.005
-676.178	-200.000	-0.040	0.186
-675.164	146.518	-0.109	0.149
-674.149	193.559	-0.021	-0.032
-673.135	800.000	0.082	-0.273
-672.120	38.323	-0.178	0.162
-671.105	52.834	0.069	0.068
-670.091	-49.501	-0.227	0.110
-669.076	77.675	0.090	0.098
-668.062	101.908	0.143	-0.171
-667.047	-3.842	-0.097	-0.069
-666.032	-90.757	0.110	0.033
-665.018	800.000	0.070	-0.222
-664.003	800.000	-0.082	-0.246
-662.989	-9.798	0.321	0.218
-661.974	61.274	-0.117	-0.118
-660.959	-35.229	0.261	-0.145
-659.945	384.096	-0.055	0.116
-658.930	83.511	0.098	0.109
-657.916	146.002	0.094	-0.129
-656.901	800.000	-0.091	-0.271
-655.886	499.826	-0.111	0.260
-654.872	-200.000	-0.025	0.582
-653.857	-200.000	0.002	0.119
-652.843	93.166	0.240	0.276
-651.828	119.674	-0.204	-0.258
-650.814	21.597	-0.136	-0.113
-649.799	-200.000	-0.047	-0.251
-648.784	37.424	0.136	-0.123
-647.770	-126.767	0.220	-0.033
-646.755	-200.000	0.003	-0.061
-645.741	-200.000	0.017	0.162
-644.726	-40.261	-0.281	-0.149
-643.711	6.307	-0.197	0.149
-642.697	-200.000	-0.008	0.040
-641.682	16.300	0.193	0.155
-640.668	-101.330	0.113	0.028
-639.653	90.585	-0.233	-0.266
-638.638	51.556	-0.175	0.169
-637.624	-200.000	0.028	-0.432
-636.609	6.974	-0.349	0.265
-635.595	304.771	0.015	-0.028
-634.580	-94.147	-0.256	-0.072
-633.565	-23.646	-0.224	0.137
-632.551	170.700	0.152	0.222
-631.536	221.123	0.068	0.111
-630.522	174.702	0.102	-0.151
-629.507	-128.071	0.122	-0.018
-628.492	-98.857	0.144	0.037
-627.478	-139.752	0.253	-0.027
-626.463	-112.714	0.321	0.065
-625.449	-200.000	0.036	0.236
-624.434	-3.079	-0.339	-0.241
-623.419	-200.000	-0.011	-0.266
-622.405	66.627	-0.118	-0.122
-621.390	-46.698	-0.186	0.093
-620.376	794.955	-0.103	-0.289
-619.361	-128.470	0.304	-0.044
-618.346	-115.431	-0.115	0.022
-617.332	-5.088	-0.244	0.171
-616.317	-172.263	0.269	-0.009
-615.303	-71.452	0.214	-0.081
-614.288	-85.535	-0.232	0.073
-613.273	-121.185	-0.101	0.017
-612.259	-200.000	-0.014	-0.209
-611.244	115.303	0.155	-0.192
-610.230	-200.000	0.004	-0.188
-609.215	-109.970	-0.365	0.078
-608.201	467.725	0.041	0.094
-607.186	800.000	0.024	0.092
-606.171	-44.493	-0.191	-0.097
-605.157	-140.147	0.086	0.009
-604.142	-16.023	0.064	0.041
-603.128	-117.805	-0.180	-0.033
-602.113	-200.000	0.013	0.149
-601.098	-81.792	-0.137	0.046
-600.084	-57.709	0.342	-0.152
-599.069	639.613	-0.173	-0.448
-598.055	800.000	-0.037	0.112
-597.040	-149.769	0.300	-0.024
-596.025	200.636	0.047	-0.074
-595.011	-30.474	0.037	0.021
-593.996	-200.000	0.009	0.073
-592.982	238.267	-0.103	0.174
-591.967	521.325	0.016	-0.039
-590.952	-200.000	0.005	-0.107
-589.938	-8.173	-0.038	0.026
-588.923	800.000	0.084	0.241
-587.909	-159.218	-0.102	-0.006
-586.894	77.331	-0.341	-0.369
-585.879	-200.000	-0.006	-0.146
-584.865	-65.123	0.115	-0.047
-583.850	-200.000	0.037	-0.244
-582.836	257.962	-0.149	0.262
-581.821	55.530	0.111	0.109
-580.806	800.000	-0.055	0.187
-579.792	-170.874	-0.269	-0.009
-578.777	-200.000	-0.022	-0.102
-577.763	-81.544	0.198	-0.066
-576.748	-22.954	0.047	0.029
-575.733	-65.794	-0.063	0.026
-574.719	-200.000	-0.002	0.189
-573.704	20.645	-0.164	0.135
-572.690	183.697	-0.029	-0.044
-571.675	-123.257	0.092	-0.015
-570.661	-107.952	0.371	0.082
-569.646	-200.000	0.001	0.027
-568.631	-139.587	0.372	-0.040
-567.617	-129.878	-0.136	0.019
-566.602	800.000	0.058	0.245
-565.588	-118.679	-0.253	0.045
-564.573	-31.422	0.018	-0.010
-563.558	-115.079	-0.270	0.052
-562.544	-8.296	-0.037	0.026
-561.529	-137.263	-0.230	-0.027
-560.515	800.000	-0.047	-0.143
-559.500	-200.000	-0.032	0.275
-558.485	-200.000	-0.028	0.308
-557.471	-18.066	0.057	-0.036
-556.456	87.874	-0.083	-0.094
-555.442	457.113	0.096	0.216
-554.427	-200.000	0.041	0.211
-553.412	-185.113	0.045	0.001
-552.398	-102.606	-0.303	0.074
-551.383	-183.849	0.171	0.003
-550.369	334.110	0.051	0.101
-549.354	-82.312	0.081	0.027
-548.339	124.528	-0.124	0.159
-547.325	800.000	0.096	0.288
-546.310	713.416	-0.029	0.079
-545.296	64.302	-0.020	-0.020
-544.281	-200.000	-0.006	-0.166
-543.266	513.976	0.239	0.566
-542.252	-200.000	-0.031	0.154
-541.237	-200.000	0.035	-0.261
-540.223	423.848	-0.159	0.347
-539.208	24.983	0.208	-0.175
-538.193	404.597	0.148	-0.318
-537.179	-31.790	-0.194	0.110
-536.164	303.253	-0.205	-0.385
-535.150	440.460	-0.036	0.080
-534.135	-200.000	0.034	-0.266
-533.121	188.339	0.056	0.086
-532.106	-70.134	-0.080	0.031
-531.091	-23.121	-0.316	0.193
-530.077	800.000	-0.162	0.602
-529.062	29.032	-0.104	-0.089
-528.048	128.963	-0.044	-0.057
-527.033	-12.647	0.201	0.133
-526.018	193.854	0.111	-0.171
-525.004	-105.437	0.069	0.016
-523.989	-200.000	-0.058	0.323
-522.975	-137.518	-0.308	0.035
-521.960	-173.931	-0.080	0.002
-520.945	-43.293	0.317	0.163
-519.931	-9.153	0.194	-0.132
-518.916	-134.527	-0.241	-0.030
-517.902	-200.000	-0.014	0.224
-516.887	247.512	-0.119	-0.204
-515.872	168.551	-0.216	0.313
-514.858	17.563	0.160	-0.129
-513.843	-200.000	-0.025	0.280
-512.829	-83.893	0.204	0.066
-511.814	461.778	0.256	-0.580
-510.799	326.097	-0.117	0.226
-509.785	-121.290	-0.149	-0.025
-508.770	-124.536	0.496	-0.078
-507.756	-74.986	0.412	0.150
-506.741	-90.989	-0.104	-0.030
-505.726	-138.871	-0.215	-0.024
-504.712	513.336	0.073	-0.173
-503.697	19.660	-0.170	0.139
-502.683	800.000	0.053	0.158
-501.668	-200.000	0.021	-0.099
-500.653	255.187	0.117	-0.203
-499.639	800.000	-0.036	-0.109
-498.624	132.647	-0.179	0.234
-497.610	609.629	-0.025	-0.065
-496.595	-200.000	0.055	-0.275
-495.581	-42.839	-0.049	-0.025
-494.566	39.488	0.236	0.214
-493.551	64.443	-0.063	-0.064
-492.537	0.746	-0.145	-0.105
-491.522	-90.264	0.218	0.064
-490.508	9.103	-0.189	0.145
-489.493	363.284	-0.048	0.097
-488.478	-200.000	0.046	0.213
-487.464	667.444	-0.069	-0.181
-486.449	-93.178	0.111	0.031
-485.435	-18.889	-0.228	0.144
-484.420	559.828	0.146	-0.356
-483.405	-13.822	-0.336	-0.220
-482.391	56.618	-0.228	0.225
-481.376	800.000	0.095	0.316
-480.362	618.657	-0.079	0.201
-479.347	800.000	0.042	-0.132
-478.332	-147.016	-0.178	-0.015
-477.318	-37.565	0.211	-0.114
-476.303	-94.551	-0.322	0.089
-475.289	-200.000	0.011	-0.101
-474.274	66.141	0.027	-0.028
-473.259	37.203	0.114	0.103
-472.245	201.259	0.094	0.147
-471.230	-153.255	0.495	-0.035
-470.216	-51.742	0.102	-0.048
-469.201	-200.000	-0.016	-0.090
-468.186	-21.591	0.113	-0.070
-467.172	-103.536	-0.026	-0.006
-466.157	314.725	-0.160	-0.305
-465.143	-45.250	-0.173	-0.087
-464.128	-45.517	-0.071	0.036
-463.113	800.000	-0.043	-0.154
-462.099	3.422	-0.332	-0.245
-461.084	-200.000	-0.016	-0.118
-460.070	63.268	-0.188	-0.191
-459.055	-81.248	-0.421	-0.141
-458.040	-130.812	0.271	-0.037
-457.026	450.821	0.035	-0.078
-456.011	-106.604	0.315	-0.071
-454.997	36.550	0.317	-0.284
-453.982	-79.960	0.405	-0.138
-452.968	-3.028	-0.112	-0.079
-451.953	-33.495	-0.164	0.092
-450.938	800.000	0.075	-0.252
-449.924	-11.352	0.255	0.170
-448.909	-10.332	0.202	0.136
-447.895	188.437	0.081	0.123
-446.880	737.466	0.080	0.218
-445.865	78.724	-0.077	0.083
-444.851	473.811	-0.086	-0.196
-443.836	800.000	0.070	0.279
-442.822	364.892	0.045	-0.091
-441.807	-107.685	0.230	0.051
-440.792	-36.837	0.204	-0.111
-439.778	8.710	-0.184	0.140
-438.763	-133.950	0.284	-0.036
-437.749	800.000	-0.072	0.214
-436.734	-119.177	0.230	0.041
-435.719	491.894	-0.074	0.171
-434.705	-176.606	0.230	0.006
-433.690	-97.621	-0.382	0.100
-432.676	-200.000	0.035	0.232
-431.661	138.315	-0.075	0.100
-430.646	96.322	-0.195	-0.226
-429.632	-200.000	0.056	-0.265
-428.617	-3.989	-0.175	0.122
-427.603	-200.000	-0.072	-0.494
-426.588	299.555	0.015	0.027
-425.573	-130.598	-0.203	0.028
-424.559	-200.000	-0.021	-0.245
-423.544	274.303	-0.170	0.305
-422.530	-176.825	0.227	0.006
-421.515	-200.000	-0.038	-0.173
-420.500	640.604	0.017	-0.044
-419.486	343.116	-0.032	0.064
-418.471	-200.000	-0.025	0.223
-417.457	-27.916	-0.185	0.108
-416.442	-22.157	0.115	0.071
-415.428	59.768	-0.123	-0.123
-414.413	-94.218	-0.214	-0.059
-413.398	-7.457	0.092	-0.063
-412.384	800.000	0.098	0.396
-411.369	19.122	-0.018	-0.015
-410.355	-142.431	0.285	0.028
-409.340	457.841	-0.074	-0.165
-408.325	-200.000	0.016	0.115
-407.311	256.471	0.093	-0.162
-406.296	-92.813	-0.062	0.017
-405.282	724.001	-0.103	-0.276
-404.267	314.865	-0.073	0.139
-403.252	-157.292	0.195	-0.012
-402.238	-130.168	-0.311	-0.043
-401.223	-143.259	-0.515	0.050
-400.209	-200.000	-0.001	-0.209
-399.194	10.798	0.147	0.114
-398.179	-59.288	-0.213	0.093
-397.165	15.222	0.275	0.218
-396.150	-174.857	-0.083	-0.002
-395.136	-30.608	-0.152	0.087
-394.121	586.474	-0.076	-0.189
-393.106	-64.253	0.241	-0.099
-392.092	-89.170	0.058	-0.017
-391.077	800.000	0.081	0.269
-390.063	-91.438	-0.016	0.004
-389.048	-36.448	0.201	-0.109
-388.033	-200.000	0.021	-0.114
-387.019	-187.679	0.269	-0.004
-386.004	382.235	-0.222	0.460
-384.990	148.987	0.084	-0.115
-383.975	503.963	0.022	-0.051
-382.960	525.359	0.053	-0.126
-381.946	-200.000	-0.014	0.092
-380.931	-129.307	-0.160	0.023
-379.917	-200.000	0.027	-0.182
-378.902	-70.517	-0.056	0.021
-377.888	88.975	-0.155	-0.174
-376.873	6.201	-0.047	0.035
-375.858	39.713	0.030	0.027
-374.844	800.000	0.041	0.133
-373.829	-200.000	0.033	-0.196
-372.815	-130.253	-0.079	-0.011
-371.800	800.000	0.086	-0.331
-370.785	-200.000	0.046	-0.213
-369.771	-22.582	-0.029	0.018
-368.756	-200.000	0.050	-0.350
-367.742	46.937	0.366	-0.343
-366.727	147.325	-0.144	0.195
-365.712	-200.000	0.015	-0.197
-364.698	-15.962	0.101	-0.065
-363.683	6.488	-0.137	-0.103
-362.669	-75.942	-0.338	-0.121
-361.654	-3.376	0.159	0.112
-360.639	167.834	0.189	-0.271
-359.625	-70.291	0.195	-0.075
-358.610	472.023	-0.035	0.081
-357.596	170.409	-0.172	-0.248
-356.581	-34.121	-0.166	0.092
-355.566	381.201	-0.080	0.166
-354.552	800.000	-0.031	-0.096
-353.537	50.095	0.093	0.088
-352.523	800.000	-0.017	-0.051
-351.508	172.605	-0.147	0.214
-350.493	235.302	-0.077	-0.129
-349.479	-200.000	0.013	-0.120
-348.464	-200.000	0.033	0.307
-347.450	7.042	-0.214	0.161
-346.435	-131.440	0.332	-0.044
-345.420	-163.322	-0.267	-0.013
-344.406	800.000	0.057	0.215
-343.391	80.782	-0.140	-0.152
-342.377	40.555	-0.077	-0.070
-341.362	34.601	-0.124	0.109
-340.348	-91.744	0.232	-0.066
-339.333	191.301	-0.124	-0.188
-338.318	18.949	-0.302	0.244
-337.304	73.480	-0.144	0.152
-336.289	-132.248	0.098	0.013
-335.275	-186.027	-0.278	-0.004
-334.260	122.896	-0.097	-0.122
-333.245	-56.778	-0.139	-0.062
-332.231	399.804	-0.091	0.192
-331.216	-200.000	0.030	-0.566
-330.202	35.967	0.256	-0.227
-329.187	562.392	0.138	0.336
-328.172	-131.272	0.025	0.003
-327.158	-73.940	-0.131	-0.048
-326.143	-167.248	0.401	-0.016
-325.129	-16.479	0.299	-0.191
-324.114	-46.960	-0.194	-0.095
-323.099	-200.000	-0.442	-0.000
-322.085	186.929	0.079	0.119
-321.070	274.814	-0.147	0.262
-320.056	25.773	0.237	-0.199
-319.041	67.818	-0.214	0.220
-318.026	-19.875	0.204	0.127
-317.012	591.053	0.122	-0.302
-315.997	-83.618	0.324	-0.104
-314.983	-152.832	0.149	-0.011
-313.968	-25.973	-0.141	-0.084
-312.953	11.468	0.102	-0.078
-311.939	26.875	-0.053	-0.045
-310.924	800.000	0.084	-0.282
-309.910	25.448	-0.224	-0.188
-308.895	-34.999	0.170	0.093
-307.880	710.717	-0.142	-0.380
-306.866	118.987	-0.111	-0.138
-305.851	800.000	0.115	-0.343
-304.837	-33.797	0.304	-0.169
-303.822	-200.000	0.004	-0.117
-302.807	-34.409	0.333	0.184
-301.793	255.578	-0.148	-0.256
-300.778	-34.281	0.341	0.188
-299.764	47.524	-0.068	0.064
-298.749	-176.291	0.108	0.003
-297.735	-115.115	0.135	0.026
-296.720	-82.896	0.247	0.080
-295.705	800.000	-0.106	-0.310
-294.691	118.297	0.160	-0.199
-293.676	-118.402	0.080	0.014
-292.662	-136.370	0.280	0.033
-291.647	622.660	0.076	0.193
-290.632	449.905	0.138	-0.307
-289.618	800.000	0.057	-0.157
-288.603	-95.753	-0.316	-0.085
-287.589	218.222	-0.203	0.326
-286.574	13.918	-0.086	0.067
-285.559	162.768	0.022	0.031
-284.545	-200.000	-0.057	0.334
-283.530	413.325	0.154	0.329
-282.516	-137.615	0.118	0.013
-281.501	-104.553	-0.161	-0.037
-280.486	-86.889	-0.163	-0.050
-279.472	140.077	0.101	0.133
-278.457	-200.000	-0.003	-0.078
-277.443	140.929	0.186	0.248
-276.428	378.197	-0.105	0.216
-275.413	-90.023	-0.324	-0.095
-274.399	-175.725	0.232	0.006
-273.384	-38.521	0.132	0.070
-272.370	49.413	-0.234	0.221
-271.355	256.409	0.124	-0.214
-270.340	-13.394	-0.265	-0.173
-269.326	289.156	-0.145	0.265
-268.311	-25.494	0.167	-0.099
-267.297	-164.888	-0.142	-0.006
-266.282	-73.519	-0.260	0.095
-265.267	-137.276	-0.045	0.005
-264.253	-41.523	0.238	0.123
-263.238	-125.943	0.151	0.023
-262.224	-8.361	0.016	0.011
-261.209	-138.184	0.239	-0.027
-260.195	-86.977	0.111	-0.034
-259.180	68.188	0.156	-0.160
-258.165	6.765	-0.285	0.213
-257.151	-86.483	0.380	-0.117
-256.136	-50.256	0.199	0.095
-255.122	-200.000	0.005	0.219
-254.107	-86.169	-0.130	0.040
-253.092	172.434	0.029	-0.042
-252.078	-76.431	0.244	-0.086
-251.063	-200.000	0.019	0.298
-250.049	212.908	-0.062	0.098
-249.034	-17.040	-0.184	0.116
-248.019	-107.349	0.209	0.046
-247.005	-124.195	0.163	-0.026
-245.990	800.000	-0.084	0.280
-244.976	-200.000	0.016	-0.084
-243.961	-200.000	-0.065	-0.330
-242.946	-144.928	0.147	0.013
-241.932	-117.028	-0.111	0.020
-240.917	-63.303	-0.157	0.065
-239.903	-73.412	0.175	0.064
-238.888	56.124	-0.048	0.047
-237.873	211.580	0.342	0.540
-236.859	-26.895	-0.125	-0.073
-235.844	-0.895	-0.280	-0.199
-234.830	307.463	0.098	-0.182
-233.815	800.000	0.068	0.237
-232.800	-43.757	0.045	-0.023
-231.786	-26.258	0.230	0.136
-230.771	-16.148	0.372	-0.237
-229.757	-200.000	0.063	0.462
-228.742	-110.770	0.221	0.046
-227.727	-14.031	-0.275	0.178
-226.713	424.319	-0.080	0.173
-225.698	144.126	-0.111	-0.149
-224.684	-21.866	-0.223	-0.136
-223.669	800.000	0.053	0.180
-222.655	1.473	0.172	-0.124
-221.640	501.099	0.115	-0.266
-220.625	60.102	-0.246	-0.244
-219.611	-200.000	-0.006	-0.330
-218.596	800.000	0.058	0.245
-217.582	800.000	0.053	-0.171
-216.567	68.206	0.191	0.196
-215.552	-200.000	0.047	0.348
-214.538	-152.853	-0.436	0.031
-213.523	-110.502	0.123	-0.026
-212.509	1.741	0.125	0.091
-211.494	800.000	-0.109	0.336
-210.479	40.897	0.036	0.033
-209.465	160.462	-0.236	0.330
-208.450	-147.742	0.216	-0.018
-207.436	800.000	0.021	0.086
-206.421	-200.000	0.002	0.017
-205.406	98.451	0.133	-0.154
-204.392	24.765	-0.101	-0.084
-203.377	-106.939	-0.135	0.030
-202.363	-200.000	0.024	0.239
-201.348	-69.222	-0.044	0.017
-200.333	561.733	0.070	0.171
-199.319	800.000	0.046	0.142
-198.304	395.641	-0.052	-0.109
-197.290	-101.465	-0.070	-0.017
-196.275	-200.000	0.029	0.300
-195.260	-99.823	0.146	-0.037
-194.246	-122.022	-0.419	0.069
-193.231	-200.000	0.089	0.458
-192.217	78.472	-0.183	-0.196
-191.202	19.115	-0.175	-0.140
-190.187	-110.891	-0.168	0.035
-189.173	-37.077	-0.447	-0.240
-188.158	-200.000	0.007	0.125
-187.144	-94.826	0.072	-0.020
-186.129	147.519	-0.127	-0.171
-185.114	-200.000	-0.020	-0.256
-184.100	247.865	0.046	-0.078
-183.085	-106.529	0.292	0.065
-182.071	192.546	-0.159	-0.241
-181.056	-200.000	0.013	-0.464
-180.042	193.999	0.128	-0.195
-179.027	-200.000	-0.025	-0.144
-178.012	-66.759	0.215	-0.085
-176.998	82.908	0.111	-0.121
-175.983	186.240	-0.240	-0.358
-174.969	-94.322	-0.137	0.037
-173.954	-81.029	0.120	0.040
-172.939	-197.984	0.419	-0.002
-171.925	-151.425	0.160	-0.012
-170.910	800.000	0.020	-0.077
-169.896	-66.725	0.363	0.144
-168.881	-184.750	-0.332	-0.005
-167.866	-151.916	-0.279	0.020
-166.852	42.267	-0.160	0.146
-165.837	-60.073	0.461	-0.197
-164.823	346.510	-0.051	-0.100
-163.808	-43.988	0.090	0.045
-162.793	-200.000	0.011	0.113
-161.779	-121.133	0.054	0.009
-160.764	214.243	-0.103	-0.163
-159.750	-200.000	0.001	0.199
-158.735	-153.641	0.302	0.021
-157.720	-145.875	-0.371	-0.033
-156.706	-60.719	-0.098	0.042
-155.691	-152.766	-0.223	0.016
-154.677	-200.000	-0.153	0.000
-153.662	-30.907	-0.211	0.119
-152.647	-8.370	0.197	0.133
-151.633	505.997	0.135	0.314
-150.618	800.000	0.066	-0.214
-149.604	29.199	-0.197	-0.167
-148.589	12.255	0.323	-0.249
-147.574	-200.000	-0.007	0.072
-146.560	-200.000	0.022	0.446
-145.545	461.129	-0.188	-0.419
-144.531	38.441	-0.343	-0.306
-143.516	-147.343	-0.128	-0.011
-142.502	-200.000	-0.045	0.287
-141.487	18.776	0.291	0.233
-140.472	48.068	-0.092	0.086
-139.458	65.738	0.249	-0.252
-138.443	-200.000	-0.017	0.134
-137.429	20.609	0.259	-0.209
-136.414	-59.471	-0.303	0.130
-135.399	20.443	-0.090	0.073
-134.385	207.933	-0.133	0.207
-133.370	15.736	-0.170	0.134
-132.356	-162.900	-0.333	0.016
-131.341	-16.916	-0.070	-0.044
-130.326	-2.020	-0.270	0.189
-129.312	-91.094	0.219	-0.063
-128.297	-200.000	0.048	-0.338
-127.283	-148.381	0.293	0.024
-126.268	183.361	0.188	0.278
-125.253	-48.564	0.301	-0.145
-124.239	-47.414	0.106	0.052
-123.224	-77.988	0.199	0.068
-122.210	-200.000	0.012	-0.261
-121.195	-83.798	-0.313	0.100
