DTS Sentinel unit serial number:	SN413079Multiplexer serial number:	ORYXHardware model number:	OX4-SRSoftware version number:	ORYX F/W v4.00 Oryx Data Collector v3.7.2.0data status	okinstallation	princeton_trtdifferential loss correction	single-endedforward channel	channel 1reverse channel	N/Adate	2019/09/16time	10:46:35forward acquisition time	60.00reverse acquisition time	0.00gamma	496.2192k internal	0.2301k external	0.2301temperature offset calibration	0.9961default loss term (dB/km)	0.3790temperature slope calibration	1.0000multiplexer offset coefficient	1.0000multiplexer slope coefficient	1.0000fibre end	0.00T internal ref (°C)	36.16T ext. ref 1 (°C)	12.67T ext. ref 2 (°C)	34.46length (m)	temperature (°C)	Stokes	anti-Stokes-747.200	800.000	-0.092	0.388
-746.185	-30.515	-0.387	-0.224
-745.171	800.000	0.043	-0.145
-744.156	-200.000	0.090	0.573
-743.142	-13.242	-0.497	0.329
-742.127	27.429	-0.071	0.060
-741.112	414.700	-0.104	0.225
-740.098	-0.611	-0.231	0.167
-739.083	-200.000	-0.005	-0.192
-738.069	85.183	0.067	0.075
-737.054	-200.000	0.085	0.435
-736.039	-108.392	0.175	0.038
-735.025	800.000	0.136	-0.422
-734.010	377.403	-0.031	-0.064
-732.996	101.207	0.187	0.222
-731.981	-101.458	-0.301	-0.075
-730.966	-78.035	0.246	0.087
-729.952	-132.424	0.122	0.016
-728.937	293.713	-0.085	0.157
-727.923	-172.711	-0.171	-0.005
-726.908	-131.962	-0.233	-0.031
-725.894	-200.000	0.023	-0.106
-724.879	-120.016	0.537	-0.094
-723.864	-3.569	-0.451	-0.319
-722.850	654.075	-0.161	-0.420
-721.835	421.277	-0.048	-0.104
-720.821	-56.327	0.227	-0.103
-719.806	800.000	-0.071	-0.239
-718.791	386.127	0.062	0.131
-717.777	-1.012	-0.233	-0.168
-716.762	800.000	-0.048	0.174
-715.748	-87.434	0.133	0.041
-714.733	90.441	0.220	0.250
-713.718	-71.478	-0.198	-0.076
-712.704	-200.000	0.003	0.059
-711.689	-130.442	-0.293	-0.040
-710.675	126.761	0.181	-0.234
-709.660	-200.000	-0.015	0.163
-708.645	11.605	-0.134	-0.105
-707.631	-62.676	0.223	-0.094
-706.616	292.357	-0.067	0.125
-705.602	-92.325	0.506	-0.145
-704.587	-179.632	-0.447	0.010
-703.572	-114.090	-0.303	0.060
-702.558	18.269	-0.071	-0.058
-701.543	110.425	-0.018	0.022
-700.529	42.462	0.049	0.045
-699.514	-200.000	-0.038	0.358
-698.499	-47.174	0.113	-0.056
-697.485	-200.000	-0.028	0.218
-696.470	402.434	-0.091	0.195
-695.456	-4.670	-0.180	-0.127
-694.441	301.432	-0.126	-0.236
-693.426	109.576	0.129	0.157
-692.412	-136.837	0.295	-0.035
-691.397	121.913	-0.139	-0.176
-690.383	-61.721	-0.092	0.039
-689.368	800.000	-0.054	-0.180
-688.354	-149.400	-0.227	-0.018
-687.339	-153.705	-0.049	0.003
-686.324	800.000	-0.029	0.124
-685.310	163.564	-0.158	-0.226
-684.295	-200.000	0.003	-0.524
-683.281	78.975	0.180	0.196
-682.266	-62.263	0.311	0.132
-681.251	219.774	-0.125	-0.204
-680.237	-122.794	0.293	-0.048
-679.222	-200.000	-0.007	-0.158
-678.208	-200.000	-0.005	-0.040
-677.193	-200.000	-0.029	0.233
-676.178	-200.000	0.012	-0.242
-675.164	22.602	-0.105	0.088
-674.149	-200.000	0.021	0.171
-673.135	-76.067	0.092	0.033
-672.120	-95.617	-0.209	0.057
-671.105	-100.699	-0.307	-0.077
-670.091	-61.514	-0.171	0.073
-669.076	181.340	-0.100	0.149
-668.062	-159.073	-0.285	-0.016
-667.047	-146.140	-0.329	0.029
-666.032	22.667	-0.155	-0.129
-665.018	-196.675	-0.234	-0.002
-664.003	612.243	-0.085	-0.215
-662.989	-164.581	-0.207	0.010
-661.974	26.724	-0.106	-0.090
-660.959	-18.835	0.123	-0.078
-659.945	328.034	-0.148	0.289
-658.930	-65.309	-0.163	0.067
-657.916	302.628	0.102	0.192
-656.901	234.420	0.102	-0.170
-655.886	142.184	-0.028	0.038
-654.872	-92.800	0.180	0.051
-653.857	122.361	-0.175	-0.222
-652.843	800.000	0.076	-0.271
-651.828	557.092	-0.040	-0.097
-650.814	103.281	-0.191	0.228
-649.799	-103.232	0.028	0.007
-648.784	321.169	-0.114	0.221
-647.770	313.506	0.083	0.158
-646.755	112.665	0.056	-0.069
-645.741	-200.000	0.010	0.063
-644.726	-106.949	-0.358	0.081
-643.711	-200.000	-0.014	-0.103
-642.697	-102.638	0.184	-0.045
-641.682	-27.401	-0.059	0.035
-640.668	-89.893	0.086	-0.025
-639.653	-119.008	-0.268	-0.048
-638.638	-200.000	0.093	0.421
-637.624	40.205	-0.100	-0.091
-636.609	216.425	-0.098	-0.159
-635.595	118.481	-0.102	0.128
-634.580	275.730	0.027	-0.048
-633.565	800.000	-0.015	0.059
-632.551	248.953	-0.063	-0.108
-631.536	167.370	-0.117	0.169
-630.522	175.605	-0.198	-0.292
-629.507	-185.502	-0.196	-0.003
-628.492	18.306	-0.146	-0.118
-627.478	330.621	0.070	-0.136
-626.463	63.298	-0.192	-0.196
-625.449	188.935	0.173	0.262
-624.434	-200.000	-0.019	0.086
-623.419	-146.876	-0.096	-0.008
-622.405	-76.698	0.170	-0.060
-621.390	-25.650	-0.234	0.140
-620.376	65.581	0.052	0.054
-619.361	-157.034	-0.164	-0.010
-618.346	-126.919	0.562	-0.084
-617.332	800.000	-0.077	0.314
-616.317	800.000	-0.047	0.150
-615.303	-200.000	-0.050	-0.339
-614.288	800.000	0.108	-0.369
-613.273	-146.994	0.501	-0.044
-612.259	-26.506	0.087	-0.052
-611.244	-162.860	-0.128	-0.006
-610.230	-200.000	0.028	0.279
-609.215	404.666	-0.045	-0.096
-608.201	-200.000	0.024	-0.431
-607.186	-98.614	0.391	0.101
-606.171	-94.213	-0.092	-0.026
-605.157	-104.593	0.264	-0.062
-604.142	76.402	0.085	0.092
-603.128	-50.540	-0.098	0.047
-602.113	-36.298	0.194	0.106
-601.098	800.000	0.075	-0.236
-600.084	800.000	0.075	-0.249
-599.069	276.042	-0.065	0.117
-598.055	-105.900	-0.231	-0.053
-597.040	-125.461	-0.105	0.016
-596.025	193.925	0.073	-0.112
-595.011	-59.467	0.100	0.043
-593.996	-80.093	0.581	-0.197
-592.982	58.608	0.043	-0.042
-591.967	-66.632	0.423	-0.170
-590.952	-127.695	0.246	0.036
-589.938	425.213	-0.066	-0.143
-588.923	-53.190	-0.180	-0.084
-587.909	-145.748	-0.315	-0.028
-586.894	800.000	0.066	0.283
-585.879	-88.388	0.241	-0.073
-584.865	662.211	-0.068	0.176
-583.850	-60.568	0.130	0.056
-582.836	-31.319	-0.295	0.168
-581.821	-94.171	0.311	-0.086
-580.806	-85.703	0.114	-0.036
-579.792	-10.028	0.148	-0.099
-578.777	-63.789	-0.247	-0.102
-577.763	-63.632	-0.356	-0.148
-576.748	-200.000	0.063	0.311
-575.733	-200.000	-0.002	0.100
-574.719	-94.546	-0.302	-0.083
-573.704	800.000	-0.067	0.220
-572.690	-143.138	-0.246	0.024
-571.675	-69.454	-0.040	0.016
-570.661	380.145	0.068	0.142
-569.646	-158.779	0.301	0.017
-568.631	75.539	-0.158	-0.169
-567.617	233.538	0.051	0.085
-566.602	-113.740	0.094	-0.019
-565.588	491.220	0.100	0.233
-564.573	-74.059	0.242	0.089
-563.558	-123.927	-0.050	0.008
-562.544	-91.324	0.024	-0.007
-561.529	-73.375	0.142	0.053
-560.515	-76.297	-0.229	0.082
-559.500	-86.164	0.191	0.060
-558.485	198.787	0.224	0.347
-557.471	34.310	-0.197	-0.174
-556.456	-200.000	-0.008	-0.380
-555.442	-200.000	-0.009	-0.284
-554.427	49.464	-0.099	-0.094
-553.412	800.000	0.046	0.147
-552.398	-156.133	-0.187	-0.012
-551.383	800.000	-0.046	0.177
-550.369	-111.835	-0.197	-0.040
-549.354	268.658	0.015	-0.027
-548.339	638.881	-0.120	0.309
-547.325	102.540	0.202	-0.239
-546.310	-26.488	-0.171	-0.101
-545.296	290.005	-0.050	0.092
-544.281	-200.000	-0.087	0.416
-543.266	-37.873	0.238	0.128
-542.252	-200.000	0.004	0.022
-541.237	-200.000	0.028	-0.160
-540.223	-200.000	-0.036	0.208
-539.208	-200.000	-0.002	-0.229
-538.193	-128.553	-0.525	0.075
-537.179	-200.000	-0.036	0.272
-536.164	-200.000	-0.000	-0.169
-535.150	800.000	0.046	-0.194
-534.135	-71.407	0.107	0.040
-533.121	-120.244	0.130	0.022
-532.106	160.830	-0.082	0.116
-531.091	-200.000	-0.042	0.250
-530.077	-93.876	-0.101	-0.028
-529.062	-99.411	0.300	0.076
-528.048	246.396	-0.110	-0.188
-527.033	-36.212	-0.199	-0.109
-526.018	-69.120	-0.303	0.118
-525.004	-42.497	0.199	-0.103
-523.989	-117.441	-0.185	0.034
-522.975	-148.869	-0.148	0.012
-521.960	12.393	0.071	-0.055
-520.945	-8.950	-0.235	0.159
-519.931	89.317	0.115	0.129
-518.916	-95.358	-0.131	-0.036
-517.902	346.539	0.051	0.102
-516.887	-41.333	-0.444	-0.231
-515.872	-200.000	-0.017	-0.122
-514.858	-200.000	-0.041	0.393
-513.843	-3.521	-0.014	0.010
-512.829	138.190	0.058	0.077
-511.814	-163.447	0.166	0.008
-510.799	800.000	-0.056	-0.238
-509.785	332.687	-0.230	-0.450
-508.770	-109.448	0.234	0.050
-507.756	-200.000	-0.060	0.292
-506.741	-121.291	0.028	0.005
-505.726	-72.239	-0.112	-0.042
-504.712	228.916	-0.104	0.171
-503.697	-36.544	0.110	0.060
-502.683	-200.000	0.020	-0.291
-501.668	-104.347	-0.161	-0.038
-500.653	21.038	-0.141	0.116
-499.639	359.391	0.138	-0.279
-498.624	291.842	0.092	-0.170
-497.610	-59.412	-0.370	0.161
-496.595	-200.000	0.011	0.191
-495.581	-200.000	0.035	0.259
-494.566	-86.435	0.234	0.073
-493.551	-200.000	-0.008	-0.072
-492.537	-128.298	-0.041	0.006
-491.522	-70.137	0.256	0.098
-490.508	-200.000	0.015	-0.091
-489.493	-49.353	-0.392	0.189
-488.478	283.649	-0.112	-0.202
-487.464	-127.675	-0.177	-0.026
-486.449	-200.000	-0.027	0.130
-485.435	1.574	-0.412	0.299
-484.420	-200.000	0.028	0.328
-483.405	-200.000	0.327	-0.001
-482.391	22.094	0.271	-0.223
-481.376	-51.770	-0.257	0.121
-480.362	-87.991	-0.135	0.041
-479.347	-104.029	-0.209	0.049
-478.332	34.314	-0.225	0.198
-477.318	-65.647	-0.169	0.069
-476.303	426.428	-0.070	0.151
-475.289	15.192	0.334	-0.264
-474.274	302.797	0.069	-0.129
-473.259	800.000	-0.035	-0.131
-472.245	-132.926	-0.182	-0.023
-471.230	237.746	0.148	0.247
-470.216	683.858	0.103	-0.271
-469.201	-148.748	0.326	0.027
-468.186	-40.471	-0.295	0.155
-467.172	800.000	0.072	0.312
-466.157	-98.908	0.227	0.058
-465.143	131.688	0.266	0.345
-464.128	-149.870	-0.097	0.008
-463.113	13.273	-0.076	0.059
-462.099	15.104	0.148	-0.117
-461.084	-200.000	0.008	0.326
-460.070	-200.000	0.022	0.333
-459.055	210.772	-0.054	-0.086
-458.040	-78.066	-0.132	0.046
-457.026	800.000	0.111	0.355
-456.011	-38.422	-0.268	0.143
-454.997	-103.450	-0.194	0.046
-453.982	342.285	0.031	-0.060
-452.968	-84.217	0.362	-0.116
-451.953	-76.487	-0.263	-0.093
-450.938	-200.000	0.011	-0.239
-449.924	127.213	-0.229	-0.293
-448.909	128.917	0.161	-0.206
-447.895	175.069	-0.026	0.038
-446.880	-200.000	0.315	0.001
-445.865	13.679	0.340	-0.266
-444.851	-18.690	0.215	-0.135
-443.836	-120.219	-0.082	-0.014
-442.822	-115.294	0.164	0.031
-441.807	-200.000	0.049	-0.271
-440.792	-200.000	-0.071	-0.338
-439.778	-35.289	-0.198	0.109
-438.763	-200.000	0.014	-0.215
-437.749	-0.948	0.120	0.086
-436.734	800.000	-0.077	0.313
-435.719	66.635	-0.106	-0.108
-434.705	-37.226	0.050	-0.027
-433.690	800.000	0.072	0.245
-432.676	-152.097	0.247	0.018
-431.661	68.162	-0.174	-0.180
-430.646	-200.000	-0.013	-0.113
-429.632	93.033	-0.205	-0.233
-428.617	500.566	-0.065	0.151
-427.603	-44.530	0.083	0.042
-426.588	-200.000	-0.001	-0.298
-425.573	-51.060	0.236	0.112
-424.559	606.098	0.090	-0.225
-423.544	319.176	0.025	0.047
-422.530	-26.174	-0.344	0.204
-421.515	-161.831	0.216	0.011
-420.500	-200.000	0.009	-0.048
-419.486	-200.000	-0.017	-0.157
-418.471	-50.147	0.217	0.104
-417.457	234.338	0.148	-0.245
-416.442	409.036	0.117	0.249
-415.428	-53.699	-0.081	-0.037
-414.413	66.365	0.177	0.181
-413.398	174.729	0.110	-0.160
-412.384	501.915	-0.056	0.131
-411.369	8.417	-0.165	-0.125
-410.355	-30.943	0.063	-0.036
-409.340	-37.764	0.104	0.056
-408.325	181.222	-0.242	0.358
-407.311	-105.519	-0.186	-0.043
-406.296	96.891	-0.224	0.258
-405.282	-200.000	0.010	0.604
-404.267	-31.951	-0.218	0.123
-403.252	-200.000	0.001	0.105
-402.238	11.782	-0.141	0.109
-401.223	258.799	-0.140	0.243
-400.209	-155.451	-0.179	-0.012
-399.194	187.801	0.144	0.216
-398.179	-60.614	0.202	0.086
-397.165	23.581	-0.096	-0.080
-396.150	351.984	-0.092	-0.183
-395.136	-200.000	0.003	0.305
-394.121	-179.914	-0.163	0.003
-393.106	63.480	-0.185	0.186
-392.092	-63.682	0.075	0.031
-391.077	150.008	0.189	0.258
-390.063	-165.746	0.327	0.014
-389.048	249.221	-0.236	-0.402
-388.033	-200.000	-0.002	-0.116
-387.019	-154.947	0.348	0.023
-386.004	-94.030	-0.193	-0.053
-384.990	-3.566	0.241	0.168
-383.975	88.482	-0.188	0.209
-382.960	527.294	-0.161	0.382
-381.946	800.000	-0.064	0.236
-380.931	-124.457	-0.304	-0.048
-379.917	-27.576	-0.154	-0.090
-378.902	84.198	0.208	-0.229
-377.888	-21.499	0.107	-0.066
-376.873	-42.348	-0.221	0.113
-375.858	-137.886	0.083	-0.009
-374.844	-141.308	0.233	0.024
-373.829	-200.000	-0.004	-0.070
-372.815	-200.000	-0.162	0.001
-371.800	207.424	0.125	0.196
-370.785	72.285	0.292	0.305
-369.771	346.940	0.173	-0.341
-368.756	-200.000	-0.030	0.134
-367.742	-69.139	0.130	-0.050
-366.727	-66.736	-0.127	0.051
-365.712	216.888	0.124	0.199
-364.698	-200.000	0.107	-0.549
-363.683	-34.811	0.183	0.101
-362.669	-200.000	-0.029	-0.145
-361.654	482.759	-0.033	0.076
-360.639	23.681	0.114	0.095
-359.625	501.363	0.029	-0.068
-358.610	-74.612	0.129	0.047
-357.596	800.000	0.163	-0.634
-356.581	107.529	-0.149	0.178
-355.566	-130.148	0.348	-0.048
-354.552	279.109	0.078	-0.140
-353.537	-61.069	-0.217	-0.092
-352.523	-86.188	0.411	-0.127
-351.508	-79.213	0.109	0.037
-350.493	-100.936	0.118	-0.029
-349.479	800.000	0.053	-0.222
-348.464	-115.789	-0.229	0.043
-347.450	800.000	0.048	-0.137
-346.435	-15.242	0.350	0.225
-345.420	-142.936	0.185	-0.018
-344.406	-43.898	-0.308	-0.156
-343.391	-73.612	-0.370	-0.135
-342.377	-72.789	-0.330	-0.122
-341.362	-200.000	-0.014	-0.289
-340.348	-172.343	0.117	0.004
-339.333	800.000	0.026	0.100
-338.318	800.000	0.040	-0.167
-337.304	-103.247	0.368	-0.087
-336.289	-100.805	-0.165	-0.041
-335.275	-92.931	0.104	-0.029
-334.260	800.000	0.062	-0.186
-333.245	-129.848	0.167	0.023
-332.231	96.739	0.140	0.161
-331.216	273.354	0.052	-0.092
-330.202	69.021	0.216	0.222
-329.187	-110.286	0.094	0.020
-328.172	-200.000	-0.013	0.081
-327.158	37.105	-0.292	0.259
-326.143	-77.677	-0.255	-0.089
-325.129	-200.000	0.010	-0.073
-324.114	-200.000	-0.016	-0.137
-323.099	-45.700	0.049	0.024
-322.085	-32.616	-0.107	-0.060
-321.070	-200.000	-0.018	0.121
-320.056	-93.966	-0.146	-0.040
-319.041	-171.473	-0.202	-0.007
-318.026	-200.000	-0.008	-0.282
-317.012	163.875	0.131	0.185
-315.997	5.461	-0.206	0.152
-314.983	154.608	0.109	-0.150
-313.968	-68.326	-0.374	-0.146
-312.953	-140.198	-0.111	-0.012
-311.939	89.072	0.092	0.102
-310.924	-145.671	0.417	0.037
-309.910	387.697	0.135	0.279
-308.895	-118.548	0.205	-0.036
-307.880	89.501	0.143	-0.159
-306.866	438.614	0.070	-0.153
-305.851	119.617	0.050	-0.063
-304.837	177.515	0.083	-0.121
-303.822	-171.034	0.269	-0.009
-302.807	406.151	-0.077	-0.162
-301.793	-108.585	-0.308	-0.066
-300.778	101.830	-0.132	0.155
-299.764	-118.648	0.166	0.029
-298.749	1.339	-0.282	-0.203
-297.735	-74.799	0.162	0.058
-296.720	113.278	0.105	-0.127
-295.705	800.000	0.055	-0.224
-294.691	87.793	0.216	-0.239
-293.676	-89.510	-0.044	0.013
-292.662	-18.986	0.184	-0.114
-291.647	259.692	0.108	-0.187
-290.632	-200.000	0.011	0.073
-289.618	47.030	0.068	0.063
-288.603	-110.853	0.082	-0.017
-287.589	-0.030	-0.283	0.202
-286.574	-109.971	-0.194	-0.041
-285.559	-82.325	-0.158	-0.051
-284.545	79.746	-0.092	0.099
-283.530	-31.621	-0.146	-0.082
-282.516	721.156	0.123	-0.328
-281.501	180.845	-0.118	0.174
-280.486	236.331	0.046	0.076
-279.472	222.334	-0.157	0.254
-278.457	14.685	0.146	-0.114
-277.443	300.633	0.047	0.086
-276.428	103.278	0.105	-0.123
-275.413	-200.000	0.054	-0.244
-274.399	202.574	-0.208	0.321
-273.384	678.926	0.112	-0.291
-272.370	-45.856	-0.066	-0.033
-271.355	23.390	-0.151	-0.124
-270.340	246.538	0.149	-0.252
-269.326	-200.000	-0.008	-0.134
-268.311	265.253	-0.027	-0.047
-267.297	-181.117	-0.079	-0.002
-266.282	-82.101	0.153	0.050
-265.267	229.185	0.144	0.236
-264.253	106.195	0.228	-0.271
-263.238	800.000	-0.037	0.139
-262.224	359.868	-0.128	0.256
-261.209	279.993	-0.070	-0.125
-260.195	-57.156	-0.271	0.119
-259.180	70.275	0.187	-0.193
-258.165	-37.472	-0.288	-0.154
-257.151	-200.000	0.023	0.153
-256.136	-150.314	0.072	0.006
-255.122	25.211	-0.164	-0.136
-254.107	-200.000	-0.055	0.300
-253.092	-109.911	-0.220	0.046
-252.078	-101.192	0.189	0.046
-251.063	8.166	0.047	0.035
-250.049	-200.000	-0.058	-0.327
-249.034	-82.289	-0.184	0.060
-248.019	-0.332	0.377	-0.268
-247.005	-20.875	0.122	-0.074
-245.990	236.362	0.122	-0.202
-244.976	-149.245	-0.464	-0.037
-243.961	800.000	-0.061	0.212
-242.946	164.355	-0.098	-0.138
-241.932	800.000	-0.101	0.288
-240.917	125.284	0.154	0.194
-239.903	-40.177	0.073	-0.038
-238.888	786.546	-0.123	-0.338
-237.873	20.686	-0.127	-0.103
-236.859	-200.000	-0.083	0.383
-235.844	435.535	-0.026	0.056
-234.830	-57.461	-0.161	-0.071
-233.815	-200.000	-0.012	-0.110
-232.800	316.709	-0.011	0.021
-231.786	-82.243	0.328	-0.107
-230.771	-49.558	0.219	-0.104
-229.757	51.396	-0.077	0.073
-228.742	595.800	0.039	0.095
-227.727	800.000	-0.015	-0.056
-226.713	0.067	-0.192	-0.137
-225.698	26.876	-0.211	-0.177
-224.684	-115.120	0.200	-0.038
-223.669	800.000	0.039	-0.157
-222.655	-44.306	-0.198	0.099
-221.640	-155.957	0.142	0.009
-220.625	-69.244	-0.382	0.146
-219.611	800.000	0.051	-0.159
-218.596	1.096	-0.224	0.160
-217.582	-109.608	0.170	-0.036
-216.567	24.321	0.240	0.198
-215.552	-28.142	0.092	-0.053
-214.538	37.098	0.093	-0.083
-213.523	62.804	0.168	0.168
-212.509	56.072	0.375	-0.363
-211.494	-90.845	-0.296	0.085
-210.479	-19.234	-0.010	-0.006
-209.465	-52.034	0.436	0.202
-208.450	59.588	-0.162	0.160
-207.436	-108.509	-0.009	0.002
-206.421	151.190	-0.052	-0.070
-205.406	-87.312	-0.174	0.053
-204.392	-33.693	-0.298	0.164
-203.377	96.055	0.208	0.237
-202.363	127.793	0.177	-0.224
-201.348	-9.006	0.128	0.085
-200.333	-96.087	0.080	-0.021
-199.319	-13.742	-0.343	-0.221
-198.304	141.300	0.100	-0.132
-197.290	418.231	-0.054	0.115
-196.275	-200.000	0.014	0.540
-195.260	30.381	-0.242	-0.206
-194.246	-6.293	-0.158	-0.108
-193.231	-122.325	0.235	-0.038
-192.217	179.547	0.052	0.076
-191.202	119.449	-0.128	-0.159
-190.187	-200.000	0.054	-0.262
-189.173	161.379	-0.174	-0.242
-188.158	507.561	0.149	-0.345
-187.144	161.637	-0.049	-0.068
-186.129	-43.201	0.043	0.022
-185.114	499.390	-0.093	-0.214
-184.100	584.445	-0.011	0.028
-183.085	337.896	0.067	-0.131
-182.071	-200.000	-0.057	0.000
-181.056	7.147	-0.279	0.208
-180.042	259.379	-0.045	-0.077
-179.027	-136.954	0.223	-0.025
-178.012	800.000	0.173	0.519
-176.998	800.000	0.062	-0.170
-175.983	249.896	-0.102	0.173
-174.969	-57.123	0.126	-0.055
-173.954	-200.000	0.000	-0.127
-172.939	-135.007	0.088	-0.011
-171.925	800.000	-0.091	0.270
-170.910	-200.000	-0.024	-0.115
-169.896	-188.494	0.104	-0.001
-168.881	-200.000	0.052	-0.368
-167.866	-50.730	0.114	-0.053
-166.852	-58.526	-0.225	0.097
-165.837	-93.778	0.318	0.087
-164.823	92.652	-0.335	-0.377
-163.808	-61.560	-0.221	0.092
-162.793	-200.000	-0.060	0.264
-161.779	409.910	-0.160	0.337
-160.764	800.000	0.034	0.139
-159.750	-200.000	-0.066	-0.290
-158.735	259.927	-0.046	-0.080
-157.720	-119.083	-0.136	-0.024
-156.706	-70.250	0.172	-0.065
-155.691	152.493	0.066	0.089
-154.677	-106.170	0.190	0.043
-153.662	-200.000	0.090	0.397
-152.647	-158.492	0.138	0.008
-151.633	37.069	0.069	0.061
-150.618	62.051	0.028	0.028
-149.604	-50.980	0.248	0.116
-148.589	-200.000	-0.001	0.130
-147.574	0.389	0.353	-0.251
-146.560	-33.473	0.139	0.076
-145.545	-200.000	0.003	-0.324
-144.531	-200.000	0.027	0.223
-143.516	-141.064	0.314	0.032
-142.502	-38.550	0.164	-0.086
-141.487	-116.020	0.078	0.014
-140.472	88.486	0.145	0.160
-139.458	482.896	0.141	-0.320
-138.443	18.130	0.078	0.062
-137.429	-91.414	-0.183	-0.052
-136.414	-95.286	-0.460	0.123
-135.399	512.449	0.042	-0.097
-134.385	191.195	-0.056	-0.085
-133.370	-109.783	-0.342	0.071
-132.356	267.853	-0.096	0.168
-131.341	800.000	-0.077	-0.274
-130.326	444.335	0.131	0.286
-129.312	-152.374	-0.211	-0.015
-128.297	-51.252	0.251	-0.117
-127.283	5.375	-0.123	0.090
-126.268	59.151	0.097	-0.095
-125.253	-81.098	-0.427	0.140
-124.239	-200.000	-0.011	0.095
-123.224	4.313	-0.250	0.183
-122.210	800.000	0.069	-0.249
