DTS Sentinel unit serial number:	SN413079Multiplexer serial number:	ORYXHardware model number:	OX4-SRSoftware version number:	ORYX F/W v4.00 Oryx Data Collector v3.7.2.0data status	okinstallation	princeton_trtdifferential loss correction	single-endedforward channel	channel 1reverse channel	N/Adate	2019/09/12time	18:55:34forward acquisition time	15.00reverse acquisition time	0.00gamma	496.2192k internal	0.2319k external	0.2319temperature offset calibration	1.0115default loss term (dB/km)	0.3790temperature slope calibration	1.0000multiplexer offset coefficient	1.0000multiplexer slope coefficient	1.0000fibre end	0.00T internal ref (°C)	32.81T ext. ref 1 (°C)	3.03T ext. ref 2 (°C)	27.41length (m)	temperature (°C)	Stokes	anti-Stokes-747.200	-135.813	-0.377	-0.045
-746.185	800.000	-0.276	-1.021
-745.171	96.011	0.238	-0.275
-744.156	-156.290	0.777	-0.049
-743.142	-34.889	-0.582	-0.322
-742.127	-200.000	-0.017	-0.916
-741.112	4.305	-0.253	0.187
-740.098	26.259	0.064	0.054
-739.083	800.000	-0.134	-0.377
-738.069	-200.000	-0.847	0.003
-737.054	-53.135	0.021	-0.010
-736.039	-21.073	-0.345	-0.214
-735.025	41.288	0.311	0.285
-734.010	-200.000	-0.041	0.813
-732.996	322.187	-0.144	-0.277
-731.981	-101.908	-0.446	0.109
-730.966	-200.000	-0.008	-1.070
-729.952	583.209	-0.294	-0.731
-728.937	-66.932	-0.426	-0.170
-727.923	-44.844	0.616	0.311
-726.908	800.000	0.179	-0.709
-725.894	-121.594	-0.343	-0.058
-724.879	-200.000	-0.024	-0.366
-723.864	-138.214	0.510	0.057
-722.850	105.506	-0.218	-0.261
-721.835	293.615	-0.226	0.417
-720.821	-200.000	-0.044	0.411
-719.806	-200.000	0.128	0.648
-718.791	728.769	0.250	0.674
-717.777	-158.876	0.461	-0.027
-716.762	-200.000	-0.042	0.498
-715.748	-175.333	-0.712	-0.020
-714.733	-200.000	-0.019	-0.676
-713.718	-39.499	-0.076	-0.040
-712.704	800.000	-0.324	-1.023
-711.689	-101.015	-0.448	0.111
-710.675	-48.284	0.554	0.270
-709.660	-37.015	0.351	-0.190
-708.645	74.666	0.282	0.300
-707.631	-50.778	0.699	0.332
-706.616	-9.864	-0.262	0.176
-705.602	-60.758	-0.436	-0.187
-704.587	800.000	0.212	-0.847
-703.572	-200.000	0.237	1.216
-702.558	84.378	0.277	0.306
-701.543	-53.695	0.096	0.044
-700.529	150.714	-0.352	-0.483
-699.514	800.000	0.127	0.380
-698.499	-129.267	-1.118	0.157
-697.485	483.793	0.063	-0.144
-696.470	-41.335	0.310	-0.161
-695.456	-140.249	0.469	-0.050
-694.441	46.871	-0.345	0.324
-693.426	34.418	-0.454	0.400
-692.412	-49.024	0.149	0.072
-691.397	0.897	-0.230	0.166
-690.383	498.323	-0.264	0.614
-689.368	344.704	-0.535	1.060
-688.354	-32.478	0.499	0.281
-687.339	30.288	0.354	0.305
-686.324	153.170	-0.234	-0.324
-685.310	278.207	-0.192	-0.345
-684.295	177.275	-0.628	-0.923
-683.281	120.014	0.533	-0.667
-682.266	-67.794	-0.797	0.315
-681.251	-91.046	-0.931	-0.270
-680.237	-129.519	0.908	-0.127
-679.222	-35.031	-0.238	-0.131
-678.208	-5.450	0.480	0.333
-677.193	-139.919	-0.965	0.103
-676.178	-82.540	-0.878	-0.287
-675.164	72.623	0.502	-0.528
-674.149	-152.623	-0.167	-0.012
-673.135	-82.553	-0.529	0.173
-672.120	800.000	0.070	-0.223
-671.105	-200.000	-0.005	-0.685
-670.091	-64.641	0.875	0.358
-669.076	-35.998	-0.256	0.139
-668.062	-6.820	0.126	-0.086
-667.047	-151.543	0.347	-0.026
-666.032	-200.000	-0.062	-0.283
-665.018	800.000	0.277	1.055
-664.003	117.472	0.079	0.098
-662.989	132.451	0.644	-0.837
-661.974	25.067	-0.046	-0.038
-660.959	800.000	0.186	-0.619
-659.945	-83.116	-0.629	0.204
-658.930	44.934	-1.106	-1.027
-657.916	-99.396	-0.781	0.198
-656.901	-191.690	-0.572	-0.006
-655.886	167.200	0.505	0.723
-654.872	127.823	-0.307	0.393
-653.857	-169.404	0.706	0.026
-652.843	7.605	0.350	0.264
-651.828	116.507	-0.520	-0.643
-650.814	-37.599	0.144	-0.078
-649.799	-200.000	0.022	-0.768
-648.784	-47.831	0.088	0.043
-647.770	-30.580	0.797	-0.455
-646.755	182.872	-0.162	0.241
-645.741	-32.256	-0.450	-0.253
-644.726	763.448	-0.257	0.702
-643.711	94.505	-0.266	0.304
-642.697	-200.000	0.017	-0.162
-641.682	-63.858	-0.752	-0.310
-640.668	-8.823	0.254	-0.172
-639.653	-107.581	1.180	0.260
-638.638	800.000	-0.116	-0.351
-637.624	85.978	-0.291	-0.323
-636.609	-60.191	-0.325	-0.140
-635.595	73.576	-0.313	0.330
-634.580	8.152	-0.510	-0.386
-633.565	-190.520	0.131	-0.001
-632.551	59.034	0.741	-0.735
-631.536	-174.427	-0.959	0.028
-630.522	1.648	-0.480	0.348
-629.507	-9.910	-0.486	-0.326
-628.492	-145.481	0.365	-0.033
-627.478	-106.272	-1.083	0.244
-626.463	-17.461	-1.012	-0.641
-625.449	-200.000	0.243	-1.079
-624.434	-200.000	0.017	0.970
-623.419	29.767	-0.533	-0.457
-622.405	675.580	0.265	0.693
-621.390	800.000	-0.167	0.494
-620.376	214.499	0.223	0.355
-619.361	-200.000	0.130	0.814
-618.346	-200.000	0.021	-0.684
-617.332	-88.553	-0.441	-0.132
-616.317	-200.000	0.063	0.775
-615.303	201.025	0.146	0.226
-614.288	-100.890	0.536	0.133
-613.273	-79.152	-0.516	0.176
-612.259	-41.869	-1.205	-0.622
-611.244	103.557	-0.088	0.104
-610.230	394.650	0.206	-0.432
-609.215	-56.208	-0.332	0.149
-608.201	-200.000	0.132	1.089
-607.186	-81.944	0.617	-0.203
-606.171	-200.000	-0.058	0.450
-605.157	462.720	-0.498	1.119
-604.142	-66.623	-1.165	0.465
-603.128	-95.288	-0.243	-0.066
-602.113	29.042	0.452	-0.386
-601.098	-115.586	-0.781	-0.148
-600.084	16.386	0.336	0.267
-599.069	-200.000	0.063	0.753
-598.055	-80.334	-0.287	0.097
-597.040	38.074	0.557	-0.498
-596.025	-55.935	0.515	0.231
-595.011	143.110	-0.415	0.556
-593.996	-70.964	-0.392	0.149
-592.982	-200.000	-0.035	0.217
-591.967	379.860	0.182	0.375
-590.952	-200.000	-0.117	-0.583
-589.938	456.109	-0.343	-0.766
-588.923	12.896	-0.445	-0.346
-587.909	-59.704	0.395	-0.170
-586.894	243.633	0.238	0.401
-585.879	23.803	-0.413	0.342
-584.865	-77.766	0.268	-0.093
-583.850	-200.000	0.047	-0.261
-582.836	-90.448	-0.512	0.149
-581.821	-118.424	-0.839	-0.150
-580.806	521.628	0.382	0.901
-579.792	602.850	0.119	-0.298
-578.777	-200.000	-0.012	0.458
-577.763	-175.090	0.891	-0.025
-576.748	117.618	-0.091	0.112
-575.733	244.592	0.479	-0.809
-574.719	800.000	0.181	-0.616
-573.704	43.872	-0.232	0.214
-572.690	220.565	0.181	0.291
-571.675	175.766	-0.159	0.232
-570.661	800.000	0.145	0.546
-569.646	800.000	0.072	-0.212
-568.631	-21.106	0.518	0.318
-567.617	-86.202	-0.120	-0.037
-566.602	-36.619	-0.396	-0.214
-565.588	16.267	0.237	0.188
-564.573	-44.944	0.255	-0.128
-563.558	286.277	0.289	-0.524
-562.544	70.483	-0.240	-0.249
-561.529	634.478	-0.136	0.347
-560.515	75.711	0.613	0.651
-559.500	29.527	0.159	0.136
-558.485	-200.000	0.044	-0.238
-557.471	-200.000	-0.091	0.477
-556.456	526.735	0.068	0.162
-555.442	-69.479	-0.373	-0.144
-554.427	-200.000	-0.112	0.499
-553.412	194.758	0.166	-0.253
-552.398	-129.772	0.534	0.074
-551.383	11.554	0.131	-0.101
-550.369	-46.158	0.505	-0.250
-549.354	-200.000	0.012	1.291
-548.339	49.837	0.226	0.214
-547.325	-43.697	-0.651	-0.330
-546.310	776.015	0.019	-0.051
-545.296	137.541	-0.182	-0.239
-544.281	-39.522	0.176	0.093
-543.266	187.461	0.162	0.242
-542.252	-139.091	0.738	-0.080
-541.237	738.912	0.199	0.535
-540.223	-200.000	0.055	0.472
-539.208	95.588	-0.283	0.324
-538.193	-88.977	-0.291	0.087
-537.179	800.000	0.138	0.393
-536.164	-127.436	0.271	-0.040
-535.150	-49.262	-1.570	0.753
-534.135	-200.000	-0.210	0.962
-533.121	-21.781	-0.113	-0.069
-532.106	800.000	-0.132	0.562
-531.091	-111.601	-0.387	-0.079
-530.077	800.000	-0.127	-0.476
-529.062	-90.477	0.282	-0.082
-528.048	-200.000	-0.090	0.479
-527.033	-26.504	-0.991	0.582
-526.018	37.986	-0.497	-0.444
-525.004	800.000	-0.164	-0.644
-523.989	-200.000	0.077	0.747
-522.975	124.937	0.754	0.953
-521.960	-117.497	-0.633	0.115
-520.945	-118.127	-0.253	-0.045
-519.931	-200.000	-0.052	0.519
-518.916	-200.000	-0.002	0.386
-517.902	-183.048	0.724	-0.013
-516.887	800.000	-0.128	0.442
-515.872	38.512	-0.827	-0.739
-514.858	-200.000	0.038	0.540
-513.843	-53.465	-1.039	-0.477
-512.829	-200.000	0.046	0.519
-511.814	-200.000	0.001	-0.005
-510.799	-34.578	0.085	-0.047
-509.785	221.354	0.155	-0.250
-508.770	-135.406	-1.656	0.198
-507.756	-16.742	-0.265	-0.168
-506.741	-58.328	0.798	-0.348
-505.726	-106.676	0.894	0.199
-504.712	-113.269	0.298	0.059
-503.697	-200.000	0.070	0.442
-502.683	-4.176	-0.343	0.238
-501.668	13.050	0.374	-0.290
-500.653	-200.000	-0.005	-0.053
-499.639	279.899	0.527	0.944
-498.624	800.000	0.179	0.682
-497.610	-36.428	-0.302	-0.163
-496.595	-200.000	-0.013	0.322
-495.581	5.414	0.812	-0.601
-494.566	-24.233	0.342	0.205
-493.551	126.746	0.686	-0.871
-492.537	6.909	-0.296	0.221
-491.522	-200.000	0.150	-0.689
-490.508	736.987	0.249	-0.668
-489.493	-200.000	0.024	-0.224
-488.478	174.691	-0.182	-0.264
-487.464	12.328	-0.398	-0.307
-486.449	-76.373	-0.660	0.233
-485.435	-200.000	0.105	-0.663
-484.420	-200.000	0.056	-0.495
-483.405	-200.000	-0.026	0.223
-482.391	800.000	-0.282	0.963
-481.376	-107.056	0.258	0.057
-480.362	800.000	-0.141	-0.488
-479.347	-200.000	0.072	0.848
-478.332	298.939	0.382	-0.705
-477.318	62.200	-0.473	0.473
-476.303	-9.017	-0.180	-0.121
-475.289	419.670	0.490	-1.050
-474.274	551.806	0.333	0.801
-473.259	-0.691	-0.249	-0.177
-472.245	166.170	0.342	-0.485
-471.230	-200.000	-0.112	-0.527
-470.216	-81.711	-0.983	-0.323
-469.201	-118.023	0.941	0.168
-468.186	-81.473	0.559	-0.184
-467.172	719.114	0.224	-0.597
-466.157	416.196	0.073	0.155
-465.143	163.729	-0.345	-0.486
-464.128	159.003	0.179	0.249
-463.113	-200.000	0.089	-0.924
-462.099	-200.000	0.009	0.119
-461.084	-5.517	-0.434	-0.298
-460.070	277.293	0.429	-0.764
-459.055	-84.628	-0.914	-0.288
-458.040	-200.000	0.056	0.420
-457.026	25.997	0.548	0.457
-456.011	39.780	0.289	-0.259
-454.997	800.000	0.431	-1.406
-453.982	-44.647	0.403	-0.201
-452.968	-111.922	-0.487	-0.098
-451.953	-43.794	-0.277	0.140
-450.938	-137.175	1.000	0.114
-449.924	-80.253	0.320	-0.107
-448.909	-92.841	0.174	0.049
-447.895	800.000	-0.129	0.398
-446.880	-81.268	-0.607	0.200
-445.865	-200.000	-0.051	-0.414
-444.851	-188.673	1.106	0.014
-443.836	567.094	-0.118	0.287
-442.822	575.674	0.174	-0.425
-441.807	-14.780	-0.286	-0.184
-440.792	-110.364	-0.628	0.130
-439.778	-200.000	-0.071	-0.332
-438.763	-65.096	-0.468	0.189
-437.749	-100.766	-0.188	0.046
-436.734	-45.572	0.232	-0.115
-435.719	-200.000	0.014	0.514
-434.705	800.000	0.122	-0.524
-433.690	10.110	0.272	0.207
-432.676	54.789	-0.509	0.491
-431.661	-200.000	0.013	-0.138
-430.646	-170.627	-0.798	-0.028
-429.632	-20.359	0.518	0.318
-428.617	606.594	0.201	0.501
-427.603	800.000	-0.198	-0.586
-426.588	55.137	0.071	-0.069
-425.573	-22.929	-0.617	-0.372
-424.559	-200.000	0.003	0.138
-423.544	32.778	-0.749	0.648
-422.530	-200.000	0.107	0.641
-421.515	83.643	-0.313	0.341
-420.500	-81.330	-0.635	0.209
-419.486	800.000	-0.246	-0.819
-418.471	800.000	0.046	0.153
-417.457	-60.343	0.257	0.109
-416.442	-200.000	-0.087	1.055
-415.428	559.307	0.378	-0.910
-414.413	261.570	-0.094	-0.162
-413.398	-46.035	-0.388	0.191
-412.384	-156.420	0.103	-0.006
-411.369	39.427	0.706	-0.632
-410.355	-132.007	-0.670	0.087
-409.340	-200.000	0.134	0.627
-408.325	-45.952	0.422	-0.208
-407.311	5.331	-0.566	-0.417
-406.296	-29.508	-0.426	0.243
-405.282	101.228	-0.139	0.162
-404.267	-162.181	0.317	0.016
-403.252	800.000	0.039	0.130
-402.238	-131.535	-0.866	0.114
-401.223	-76.235	-0.251	0.088
-400.209	-136.242	0.885	0.103
-399.194	228.565	0.179	-0.291
-398.179	85.084	0.516	-0.565
-397.165	135.637	0.403	0.523
-396.150	20.953	0.970	-0.785
-395.136	-1.061	-0.380	-0.268
-394.121	-96.988	-0.422	-0.110
-393.106	133.493	-0.427	-0.551
-392.092	-50.220	-0.562	0.265
-391.077	-200.000	-0.091	-0.957
-390.063	39.853	-0.683	0.612
-389.048	391.703	-0.257	-0.534
-388.033	800.000	0.185	0.703
-387.019	41.579	0.361	0.326
-386.004	-200.000	0.016	0.241
-384.990	638.528	-0.178	0.452
-383.975	-118.306	0.470	0.083
-382.960	-81.724	0.471	0.154
-381.946	-78.158	-0.256	-0.088
-380.931	-86.451	-0.753	-0.231
-379.917	-30.990	-0.186	0.105
-378.902	-22.133	0.663	0.401
-377.888	-2.093	-0.739	-0.518
-376.873	-200.000	-0.005	-0.879
-375.858	26.178	-0.654	0.545
-374.844	-33.670	-1.076	-0.592
-373.829	23.347	-0.413	0.339
-372.815	-45.603	0.445	-0.220
-371.800	-36.445	0.658	0.353
-370.785	404.706	0.301	0.631
-369.771	-113.832	0.603	0.117
-368.756	218.163	0.157	0.250
-367.742	69.517	0.740	-0.760
-366.727	-200.000	0.132	1.157
-365.712	-17.318	-0.286	0.180
-364.698	-130.129	0.148	0.020
-363.683	-200.000	-0.112	-0.961
-362.669	-74.407	-0.592	0.213
-361.654	-102.808	0.515	0.122
-360.639	-111.101	0.080	-0.016
-359.625	-200.000	-0.106	-0.758
-358.610	800.000	0.277	-0.835
-357.596	162.575	0.079	0.111
-356.581	-111.332	-0.480	-0.098
-355.566	144.676	0.267	0.355
-354.552	-175.801	0.398	-0.011
-353.537	115.608	0.354	0.431
-352.523	81.063	0.409	-0.440
-351.508	-56.571	0.792	0.350
-350.493	737.876	-0.199	-0.531
-349.479	18.099	0.229	-0.182
-348.464	316.168	-0.215	-0.404
-347.450	-132.740	0.207	-0.026
-346.435	172.316	0.278	0.398
-345.420	-80.330	0.704	-0.234
-344.406	-79.311	-0.101	0.034
-343.391	53.244	0.198	0.189
-342.377	-70.114	-0.418	-0.158
-341.362	131.504	0.140	-0.179
-340.348	800.000	-0.193	-0.684
-339.333	-200.000	-0.205	-0.981
-338.318	-58.556	-0.629	-0.272
-337.304	-105.106	-0.206	0.047
-336.289	-72.803	-0.189	0.069
-335.275	92.168	0.449	-0.504
-334.260	197.747	-0.184	0.280
-333.245	-30.754	-0.807	0.454
-332.231	-200.000	0.000	-0.644
-331.216	-96.777	0.466	0.122
-330.202	-98.198	1.116	-0.285
-329.187	-125.491	0.267	0.040
-328.172	-50.673	0.798	-0.374
-327.158	116.411	-0.182	-0.223
-326.143	800.000	-0.083	0.319
-325.129	540.559	0.123	0.293
-324.114	22.497	-0.355	-0.289
-323.099	60.024	0.333	0.327
-322.085	-200.000	0.025	0.356
-321.070	-12.518	0.791	-0.514
-320.056	-125.445	-0.841	0.127
-319.041	-106.715	-0.147	0.033
-318.026	-200.000	0.035	-0.405
-317.012	800.000	-0.173	0.710
-315.997	-30.061	-0.429	0.243
-314.983	-71.909	-0.296	-0.110
-313.968	458.074	0.379	0.839
-312.953	-200.000	-0.131	0.640
-311.939	-126.311	-0.341	0.051
-310.924	47.757	0.479	-0.445
-309.910	47.192	-0.109	0.101
-308.895	-87.546	0.535	-0.161
-307.880	289.130	0.104	-0.188
-306.866	-200.000	-0.024	0.165
-305.851	-200.000	-0.094	-0.582
-304.837	-72.393	-0.405	0.149
-303.822	-34.322	-0.202	-0.110
-302.807	30.702	0.336	0.286
-301.793	-76.963	-0.101	0.035
-300.778	800.000	0.170	0.638
-299.764	-104.296	-0.086	-0.020
-298.749	35.454	-0.341	-0.298
-297.735	49.238	0.237	-0.221
-296.720	528.820	0.077	0.181
-295.705	-200.000	0.022	-0.148
-294.691	-200.000	-0.007	0.137
-293.676	-79.020	0.126	-0.043
-292.662	141.397	-0.368	-0.484
-291.647	-95.404	-0.308	0.082
-290.632	-200.000	0.034	0.272
-289.618	348.765	-0.546	-1.072
-288.603	800.000	-0.147	-0.502
-287.589	165.753	-0.345	0.486
-286.574	-41.567	-0.270	0.138
-285.559	181.429	-0.317	0.464
-284.545	52.264	-0.227	-0.215
-283.530	-7.966	0.599	-0.402
-282.516	800.000	0.187	0.656
-281.501	800.000	0.112	0.351
-280.486	-133.954	-0.939	0.116
-279.472	29.649	-0.364	0.308
-278.457	3.201	-1.077	-0.779
-277.443	-117.011	0.661	-0.120
-276.428	-67.489	0.666	-0.259
-275.413	37.596	-0.313	-0.276
-274.399	168.872	0.059	-0.083
-273.384	-77.232	-0.149	-0.052
-272.370	-31.844	0.826	-0.460
-271.355	-37.580	0.700	-0.371
-270.340	286.949	-0.568	-1.019
-269.326	-200.000	-0.075	-0.478
-268.311	213.305	0.365	-0.572
-267.297	800.000	-0.093	-0.326
-266.282	101.968	-0.556	-0.644
-265.267	-103.430	0.435	0.102
-264.253	-51.721	-0.700	0.324
-263.238	26.373	-0.654	0.543
-262.224	82.881	-0.301	0.325
-261.209	567.399	-0.489	-1.179
-260.195	201.829	0.440	-0.673
-259.180	-200.000	0.032	-0.224
-258.165	-122.847	0.217	0.035
-257.151	-125.574	0.428	-0.064
-256.136	45.798	0.803	-0.737
-255.122	-200.000	-0.082	0.430
-254.107	-10.950	0.440	0.288
-253.092	-64.591	1.057	-0.426
-252.078	-19.031	-0.627	-0.387
-251.063	189.951	0.254	0.378
-250.049	155.822	0.262	0.359
-249.034	107.254	-0.005	0.006
-248.019	800.000	0.100	-0.374
-247.005	456.679	0.169	0.371
-245.990	-200.000	0.010	1.050
-244.976	-127.509	0.621	0.089
-243.961	174.304	0.462	-0.662
-242.946	190.134	0.273	0.407
-241.932	-21.821	-0.273	0.165
-240.917	141.677	0.479	-0.629
-239.903	92.510	-0.382	-0.427
-238.888	176.868	0.056	-0.081
-237.873	100.722	-0.253	0.292
-236.859	-200.000	-0.051	0.285
-235.844	93.358	-0.554	-0.621
-234.830	329.940	0.095	-0.181
-233.815	-33.498	-0.469	0.257
-232.800	-151.282	0.664	-0.049
-231.786	-166.817	0.501	-0.020
-230.771	-81.089	0.585	-0.192
-229.757	-87.119	0.614	-0.185
-228.742	800.000	-0.126	-0.437
-227.727	140.467	0.183	-0.240
-226.713	361.353	-0.066	0.131
-225.698	-200.000	0.009	0.259
-224.684	-200.000	0.212	0.942
-223.669	118.908	-0.235	0.288
-222.655	314.036	0.081	-0.151
-221.640	-200.000	0.001	0.076
-220.625	275.556	-0.065	0.115
-219.611	47.007	0.432	0.398
-218.596	-67.135	-0.638	-0.249
-217.582	-17.197	0.569	-0.356
-216.567	800.000	-0.100	0.318
-215.552	-113.661	0.379	-0.073
-214.538	-98.723	0.549	0.139
-213.523	173.810	0.274	0.392
-212.509	14.749	-0.452	-0.350
-211.494	-110.023	-0.686	-0.142
-210.479	-200.000	-0.103	-0.614
-209.465	565.502	-0.074	0.177
-208.450	-200.000	0.006	-0.158
-207.436	197.607	-0.392	0.594
-206.421	-123.023	0.265	0.042
-205.406	-23.401	0.725	0.432
-204.392	-200.000	0.018	-0.248
-203.377	178.982	-0.192	0.278
-202.363	-148.229	0.553	0.045
-201.348	800.000	-0.251	-0.758
-200.333	-48.082	-0.444	-0.213
-199.319	96.270	-0.695	0.788
-198.304	-112.858	0.435	0.085
-197.290	-144.860	-0.478	-0.043
-196.275	800.000	0.247	0.777
-195.260	-200.000	0.001	-0.165
-194.246	149.661	0.238	0.320
-193.231	-74.251	0.417	-0.149
-192.217	-200.000	0.066	0.381
-191.202	-200.000	0.198	0.896
-190.187	-126.267	0.225	0.033
-189.173	-128.369	-0.407	-0.057
-188.158	-39.296	-0.264	0.137
-187.144	800.000	0.083	-0.272
-186.129	-35.875	0.420	0.225
-185.114	45.642	-0.047	0.043
-184.100	0.800	-0.373	0.265
-183.085	-5.944	-0.328	-0.222
-182.071	28.609	0.606	-0.507
-181.056	7.604	-0.461	-0.342
-180.042	-200.000	0.049	-0.472
-179.027	-176.778	0.588	-0.015
-178.012	23.234	0.839	-0.682
-176.998	99.361	-0.295	-0.338
-175.983	67.588	0.520	0.525
-174.969	-44.972	-0.940	-0.463
-173.954	223.041	0.113	0.180
-172.939	596.968	-0.116	0.283
-171.925	-92.426	-0.619	-0.172
-170.910	-56.106	0.997	-0.439
-169.896	106.256	0.371	0.435
-168.881	74.784	0.246	-0.256
-167.866	800.000	-0.115	-0.379
-166.852	-138.485	-0.339	-0.037
-165.837	119.793	0.347	0.426
-164.823	-56.636	0.522	-0.229
-163.808	800.000	0.259	0.746
-162.793	761.843	0.336	0.902
-161.779	-200.000	-0.048	-0.225
-160.764	-200.000	0.008	-0.071
-159.750	800.000	0.220	-0.663
-158.735	-200.000	-0.112	0.664
-157.720	-200.000	-0.023	0.593
-156.706	26.330	-0.299	0.247
-155.691	418.899	0.182	-0.386
-154.677	45.780	-0.225	-0.206
-153.662	-95.303	0.491	0.131
-152.647	713.567	0.345	0.903
-151.633	-142.985	0.154	-0.015
-150.618	-200.000	-0.003	-0.479
-149.604	-200.000	-0.053	-0.306
-148.589	-200.000	0.004	-0.632
-147.574	-200.000	-0.008	-0.370
-146.560	-200.000	0.049	-0.736
-145.545	3.554	-0.199	0.143
-144.531	800.000	0.127	-0.448
-143.516	46.176	0.202	0.185
-142.502	800.000	-0.074	0.205
-141.487	-56.518	-0.742	-0.325
-140.472	251.163	0.414	0.695
-139.458	-53.618	0.474	-0.214
-138.443	-38.674	0.712	-0.371
-137.429	58.422	0.328	0.318
-136.414	233.713	-0.392	0.637
-135.399	-115.162	0.703	-0.132
-134.385	-200.000	-0.058	0.572
-133.370	800.000	0.179	-0.573
-132.356	-51.669	-0.755	-0.348
-131.341	359.440	0.582	-1.150
-130.326	-200.000	-0.069	-0.391
-129.312	-43.365	0.301	-0.150
-128.297	146.924	0.430	0.571
-127.283	-49.301	-0.454	0.214
-126.268	526.531	-0.349	0.811
-125.253	133.989	0.431	0.552
-124.239	67.561	0.512	-0.517
-123.224	-41.659	0.533	0.270
-122.210	-97.089	-0.955	0.247
-121.195	-157.145	0.590	0.035
