DTS Sentinel unit serial number:	SN413079Multiplexer serial number:	ORYXHardware model number:	OX4-SRSoftware version number:	ORYX F/W v4.00 Oryx Data Collector v3.7.2.0data status	okinstallation	princeton_trtdifferential loss correction	single-endedforward channel	channel 1reverse channel	N/Adate	2019/09/18time	23:22:35forward acquisition time	60.00reverse acquisition time	0.00gamma	496.2192k internal	0.2341k external	0.2341temperature offset calibration	1.0021default loss term (dB/km)	0.3790temperature slope calibration	1.0000multiplexer offset coefficient	1.0000multiplexer slope coefficient	1.0000fibre end	0.00T internal ref (°C)	23.81T ext. ref 1 (°C)	0.77T ext. ref 2 (°C)	16.96length (m)	temperature (°C)	Stokes	anti-Stokes-747.200	176.891	-0.202	0.295
-746.185	679.286	0.034	-0.088
-745.171	-83.688	-0.148	0.047
-744.156	13.046	-0.250	0.194
-743.142	678.692	-0.151	0.392
-742.127	19.913	-0.102	0.083
-741.112	281.799	-0.140	-0.251
-740.098	-77.529	-0.118	-0.041
-739.083	184.641	0.087	0.129
-738.069	89.121	-0.203	0.227
-737.054	800.000	0.062	0.191
-736.039	800.000	-0.025	0.090
-735.025	-200.000	-0.033	0.245
-734.010	150.693	0.214	-0.291
-732.996	-113.364	-0.216	-0.043
-731.981	5.512	-0.190	-0.141
-730.966	406.388	0.190	-0.402
-729.952	-50.832	-0.264	-0.124
-728.937	-115.626	-0.227	0.043
-727.923	-98.787	0.141	-0.036
-726.908	38.192	-0.160	-0.143
-725.894	212.103	-0.282	0.445
-724.879	171.332	-0.130	0.186
-723.864	259.573	0.127	-0.220
-722.850	-91.942	-0.390	0.111
-721.835	-81.537	-0.358	0.118
-720.821	-35.099	0.281	-0.153
-719.806	-200.000	0.007	-0.224
-718.791	-150.838	-0.122	-0.009
-717.777	-134.135	0.311	0.038
-716.762	800.000	0.076	0.234
-715.748	-200.000	0.022	-0.269
-714.733	47.533	-0.205	-0.192
-713.718	11.952	-0.080	-0.062
-712.704	51.058	0.008	0.008
-711.689	3.735	-0.240	-0.175
-710.675	21.869	-0.136	-0.111
-709.660	35.322	-0.124	-0.109
-708.645	594.902	-0.030	0.075
-707.631	-84.246	-0.260	-0.082
-706.616	231.405	-0.126	0.207
-705.602	303.676	-0.034	0.062
-704.587	-200.000	0.019	-0.166
-703.572	-200.000	0.012	-0.449
-702.558	-143.924	0.086	0.008
-701.543	-91.771	0.364	-0.103
-700.529	-105.945	-0.459	0.103
-699.514	36.301	-0.226	0.199
-698.499	-93.575	-0.353	0.098
-697.485	40.073	-0.214	0.192
-696.470	-65.422	-0.146	-0.059
-695.456	61.973	-0.117	-0.117
-694.441	-50.369	0.217	-0.103
-693.426	-200.000	-0.061	-0.280
-692.412	-200.000	-0.003	-0.030
-691.397	800.000	0.101	-0.324
-690.383	2.118	-0.123	0.089
-689.368	9.982	-0.108	0.082
-688.354	181.854	-0.087	0.128
-687.339	-19.230	0.046	-0.029
-686.324	-64.142	-0.164	0.067
-685.310	800.000	0.114	-0.372
-684.295	66.923	-0.029	0.029
-683.281	-200.000	0.011	0.587
-682.266	139.259	-0.269	0.354
-681.251	64.635	-0.121	-0.122
-680.237	-153.536	0.384	0.027
-679.222	-200.000	-0.033	-0.162
-678.208	282.031	-0.090	-0.162
-677.193	-49.374	-0.367	-0.175
-676.178	-3.434	-0.242	0.168
-675.164	476.352	-0.028	-0.063
-674.149	7.664	-0.210	0.157
-673.135	-200.000	0.019	-0.205
-672.120	-138.834	-0.130	-0.014
-671.105	129.630	-0.185	0.236
-670.091	-200.000	0.052	-0.281
-669.076	-75.582	-0.182	0.065
-668.062	211.136	0.029	0.045
-667.047	-37.614	-0.114	-0.060
-666.032	-38.711	-0.120	-0.063
-665.018	-148.084	-0.188	-0.016
-664.003	-200.000	-0.002	-0.078
-662.989	-156.888	-0.370	0.023
-661.974	87.415	0.061	-0.068
-660.959	-40.428	0.216	0.112
-659.945	-114.461	-0.218	-0.042
-658.930	160.730	-0.132	0.184
-657.916	-200.000	-0.022	-0.146
-656.901	76.458	0.186	-0.197
-655.886	800.000	-0.129	-0.423
-654.872	-200.000	-0.004	-0.074
-653.857	319.385	-0.030	0.058
-652.843	323.967	0.146	0.278
-651.828	800.000	-0.123	0.500
-650.814	-200.000	0.032	0.168
-649.799	41.473	-0.205	-0.186
-648.784	-62.441	-0.126	-0.052
-647.770	324.067	0.143	0.273
-646.755	55.947	-0.162	-0.157
-645.741	165.033	-0.201	0.283
-644.726	-12.240	0.030	0.020
-643.711	362.574	-0.083	0.166
-642.697	285.763	-0.103	0.186
-641.682	-200.000	0.003	0.053
-640.668	-200.000	0.069	-0.306
-639.653	96.822	0.236	-0.270
-638.638	36.793	0.093	-0.082
-637.624	55.657	0.208	-0.202
-636.609	-78.098	-0.134	0.046
-635.595	-200.000	0.012	-0.178
-634.580	-48.409	-0.213	0.102
-633.565	205.454	0.083	-0.129
-632.551	369.221	0.013	0.027
-631.536	-44.600	0.057	0.028
-630.522	-38.388	0.277	-0.146
-629.507	143.893	-0.074	0.098
-628.492	-200.000	-0.043	-0.223
-627.478	81.542	-0.123	0.133
-626.463	270.326	-0.091	0.159
-625.449	103.711	-0.030	0.035
-624.434	-200.000	0.018	-0.174
-623.419	268.023	0.175	0.305
-622.405	-38.147	0.086	-0.045
-621.390	-118.504	-0.162	-0.029
-620.376	800.000	-0.024	-0.083
-619.361	-69.127	0.091	0.035
-618.346	-57.013	-0.322	-0.142
-617.332	320.273	-0.009	-0.017
-616.317	-17.565	0.318	-0.199
-615.303	92.928	0.182	0.205
-614.288	-200.000	0.054	-0.283
-613.273	-140.621	0.085	-0.009
-612.259	361.639	-0.157	0.314
-611.244	-145.422	-0.051	0.005
-610.230	-160.383	-0.565	0.030
-609.215	-200.000	-0.032	0.188
-608.201	31.471	-0.128	0.110
-607.186	-125.072	0.045	-0.007
-606.171	15.851	0.192	0.151
-605.157	362.359	0.149	0.299
-604.142	-181.297	-0.256	0.005
-603.128	800.000	-0.120	-0.501
-602.113	-19.323	-0.270	0.167
-601.098	800.000	0.067	-0.239
-600.084	18.595	-0.043	-0.035
-599.069	439.453	0.098	-0.214
-598.055	-151.589	0.292	0.022
-597.040	-200.000	-0.026	-0.191
-596.025	216.125	0.167	0.265
-595.011	-43.983	-0.031	0.015
-593.996	-153.694	-0.128	-0.009
-592.982	-90.651	-0.116	-0.033
-591.967	800.000	-0.066	-0.183
-590.952	-94.951	-0.182	0.049
-589.938	361.434	-0.090	0.179
-588.923	295.268	0.084	0.154
-587.909	-108.175	0.061	0.013
-586.894	-18.202	0.268	0.167
-585.879	-49.292	0.114	-0.054
-584.865	-200.000	0.006	0.137
-583.850	800.000	-0.054	-0.181
-582.836	800.000	-0.066	0.202
-581.821	20.585	0.175	0.141
-580.806	-14.794	-0.051	0.033
-579.792	-18.103	-0.412	0.257
-578.777	189.569	0.113	-0.168
-577.763	-61.991	-0.286	0.119
-576.748	-99.389	0.084	-0.021
-575.733	49.048	-0.104	0.097
-574.719	-142.622	-0.101	-0.010
-573.704	-33.985	0.201	-0.110
-572.690	157.540	-0.147	-0.203
-571.675	800.000	0.105	-0.294
-570.661	378.964	0.108	0.219
-569.646	-20.930	-0.142	-0.087
-568.631	44.258	-0.283	-0.259
-567.617	-127.803	0.391	0.056
-566.602	-199.781	0.153	-0.001
-565.588	431.739	-0.103	-0.223
-564.573	-31.759	-0.234	-0.130
-563.558	95.252	0.242	0.275
-562.544	137.264	-0.152	0.197
-561.529	309.027	-0.128	-0.239
-560.515	-38.284	0.270	-0.142
-559.500	-200.000	-0.016	0.084
-558.485	-122.450	0.414	0.067
-557.471	-200.000	-0.019	-0.166
-556.456	-200.000	0.080	0.366
-555.442	-81.508	0.233	0.076
-554.427	316.914	0.105	-0.198
-553.412	800.000	0.072	0.271
-552.398	800.000	0.053	-0.208
-551.383	-47.540	0.153	0.074
-550.369	43.198	0.227	0.206
-549.354	-185.731	-0.269	-0.004
-548.339	800.000	0.051	0.144
-547.325	341.507	0.180	0.350
-546.310	-200.000	-0.004	-0.078
-545.296	-200.000	-0.026	-0.129
-544.281	156.609	0.116	-0.160
-543.266	6.802	-0.059	0.043
-542.252	58.367	-0.097	-0.094
-541.237	-36.029	-0.166	0.089
-540.223	401.066	0.037	0.076
-539.208	-22.149	0.411	-0.248
-538.193	33.036	-0.197	-0.170
-537.179	-147.694	0.255	0.021
-536.164	-131.361	-0.198	0.026
-535.150	-200.000	-0.029	-0.409
-534.135	-53.717	0.049	-0.022
-533.121	255.846	-0.116	0.198
-532.106	-98.088	-0.245	-0.063
-531.091	-176.682	-0.134	0.003
-530.077	-1.412	-0.280	0.196
-529.062	-84.336	0.091	0.029
-528.048	-200.000	-0.006	0.224
-527.033	-200.000	0.039	-0.246
-526.018	-71.265	-0.333	0.124
-525.004	337.482	0.068	0.131
-523.989	-83.308	0.103	-0.033
-522.975	222.660	-0.145	-0.232
-521.960	-117.504	0.572	0.103
-520.945	-100.671	-0.282	-0.069
-519.931	127.339	-0.054	0.068
-518.916	539.019	0.108	-0.254
-517.902	-190.455	0.177	0.002
-516.887	-115.723	-0.168	0.031
-515.872	-50.126	-0.129	0.061
-514.858	-141.771	-0.234	-0.023
-513.843	578.481	0.012	0.028
-512.829	-184.774	-0.028	0.000
-511.814	-160.149	0.179	0.010
-510.799	-200.000	-0.005	-0.071
-509.785	433.560	-0.016	0.035
-508.770	-200.000	-0.023	0.138
-507.756	277.875	0.040	0.071
-506.741	66.248	0.275	0.277
-505.726	-200.000	0.014	0.101
-504.712	113.267	-0.038	-0.046
-503.697	-161.775	-0.267	0.013
-502.683	-151.027	0.097	0.007
-501.668	-183.682	-0.054	-0.001
-500.653	92.536	-0.142	0.159
-499.639	-78.774	0.194	0.066
-498.624	106.486	-0.193	0.227
-497.610	189.449	-0.204	-0.303
-496.595	-15.464	0.338	-0.214
-495.581	-9.543	-0.433	-0.287
-494.566	-101.613	0.255	0.061
-493.551	-14.580	-0.070	0.044
-492.537	-200.000	0.007	0.371
-491.522	54.103	-0.253	0.241
-490.508	-200.000	0.032	0.348
-489.493	-94.267	-0.136	-0.037
-488.478	-200.000	-0.080	-0.363
-487.464	-37.765	-0.231	0.122
-486.449	503.719	0.132	-0.304
-485.435	627.922	-0.085	0.212
-484.420	-200.000	-0.020	0.118
-483.405	-127.352	-0.080	0.012
-482.391	220.929	0.167	-0.266
-481.376	709.899	0.030	-0.079
-480.362	498.741	-0.040	-0.091
-479.347	-200.000	0.001	0.007
-478.332	-200.000	0.035	0.278
-477.318	81.441	-0.259	-0.277
-476.303	-28.267	0.205	0.118
-475.289	-200.000	-0.033	-0.146
-474.274	317.336	-0.154	-0.289
-473.259	-103.241	-0.270	-0.063
-472.245	91.531	0.063	-0.070
-471.230	-200.000	-0.001	0.271
-470.216	-7.569	-0.191	-0.128
-469.201	641.403	-0.057	0.143
-468.186	-11.165	0.326	-0.213
-467.172	-52.970	0.206	-0.094
-466.157	800.000	0.034	0.093
-465.143	-42.093	0.030	0.015
-464.128	-151.463	-0.133	-0.010
-463.113	-200.000	0.009	-0.042
-462.099	-200.000	-0.011	0.107
-461.084	800.000	-0.140	0.413
-460.070	-86.881	0.289	0.087
-459.055	-126.016	-0.196	0.029
-458.040	115.833	-0.179	-0.217
-457.026	-38.242	-0.292	-0.153
-456.011	-200.000	0.033	0.315
-454.997	-94.956	-0.142	-0.038
-453.982	226.061	0.159	-0.255
-452.968	-65.679	0.407	-0.161
-451.953	33.005	-0.210	-0.180
-450.938	547.205	0.102	0.243
-449.924	67.134	-0.220	-0.222
-448.909	430.530	0.123	0.263
-447.895	-198.483	0.236	0.001
-446.880	-101.642	-0.119	-0.029
-445.865	-21.073	-0.253	0.153
-444.851	-200.000	0.039	0.214
-443.836	-200.000	-0.006	-0.451
-442.822	5.320	0.126	-0.092
-441.807	-200.000	0.021	0.231
-440.792	-200.000	-0.028	0.225
-439.778	-200.000	0.020	0.428
-438.763	800.000	-0.062	-0.195
-437.749	59.635	-0.092	-0.090
-436.734	800.000	-0.035	-0.114
-435.719	169.624	0.165	-0.233
-434.705	-98.790	-0.131	0.033
-433.690	-70.710	-0.494	-0.185
-432.676	430.030	0.157	-0.336
-431.661	317.281	0.128	0.239
-430.646	13.153	-0.241	0.185
-429.632	532.645	-0.072	-0.170
-428.617	-200.000	-0.044	-0.252
-427.603	-200.000	-0.010	-0.059
-426.588	-127.728	-0.533	-0.076
-425.573	337.867	-0.067	0.129
-424.559	800.000	0.077	0.325
-423.544	-10.795	0.286	-0.187
-422.530	-200.000	0.011	-0.060
-421.515	-200.000	-0.028	0.149
-420.500	-109.784	0.282	-0.059
-419.486	691.806	-0.060	-0.156
-418.471	-97.899	0.078	0.020
-417.457	-98.625	-0.177	-0.045
-416.442	-22.567	-0.335	0.200
-415.428	-169.162	-0.251	0.009
-414.413	-54.966	0.240	0.107
-413.398	-200.000	0.107	0.527
-412.384	-138.538	-0.321	0.035
-411.369	800.000	0.067	0.209
-410.355	107.178	0.119	-0.140
-409.340	443.105	-0.121	0.261
-408.325	27.989	-0.192	0.160
-407.311	-154.951	0.141	0.009
-406.296	800.000	-0.063	0.215
-405.282	-106.390	0.211	-0.047
-404.267	-45.739	-0.153	-0.075
-403.252	189.566	0.153	-0.227
-402.238	-120.935	0.045	-0.007
-401.223	-72.598	0.085	0.031
-400.209	-104.860	-0.160	-0.036
-399.194	-45.473	0.383	0.188
-398.179	-200.000	-0.011	-0.147
-397.165	-49.634	0.042	0.020
-396.150	-200.000	-0.031	-0.275
-395.136	-200.000	0.009	-0.295
-394.121	53.314	-0.206	-0.195
-393.106	-118.049	0.233	0.041
-392.092	18.056	0.316	-0.249
-391.077	-77.133	0.139	0.048
-390.063	501.875	-0.040	0.091
-389.048	251.706	0.087	0.147
-388.033	-200.000	0.008	-0.223
-387.019	-200.000	0.035	0.163
-386.004	-119.349	0.186	-0.032
-384.990	17.859	-0.104	0.082
-383.975	-200.000	0.050	-0.324
-382.960	-73.554	0.272	-0.098
-381.946	102.669	-0.195	-0.225
-380.931	-90.140	-0.120	0.034
-379.917	-37.056	0.053	0.028
-378.902	-164.749	-0.137	-0.006
-377.888	800.000	-0.098	-0.278
-376.873	-75.666	0.177	-0.062
-375.858	259.650	0.009	0.015
-374.844	-44.573	0.234	0.115
-373.829	-200.000	-0.028	-0.359
-372.815	187.757	-0.151	0.222
-371.800	266.142	0.188	0.325
-370.785	-60.353	-0.108	0.046
-369.771	800.000	0.105	-0.323
-368.756	-36.267	0.224	-0.119
-367.742	78.668	0.051	0.054
-366.727	66.154	-0.035	0.035
-365.712	-52.462	-0.408	-0.186
-364.698	513.989	0.057	0.131
-363.683	269.585	0.046	0.079
-362.669	-98.333	-0.163	-0.041
-361.654	430.030	-0.049	0.105
-360.639	46.942	0.273	0.250
-359.625	-54.936	-0.078	0.035
-358.610	-44.530	-0.146	0.072
-357.596	27.900	0.292	0.243
-356.581	-200.000	-0.072	0.376
-355.566	1.766	-0.107	0.076
-354.552	-13.934	-0.474	-0.302
-353.537	-129.995	-0.369	0.050
-352.523	736.364	0.037	0.097
-351.508	800.000	-0.051	0.191
-350.493	-200.000	-0.017	0.082
-349.479	98.158	0.117	-0.133
-348.464	-175.085	0.086	0.002
-347.450	-48.694	0.189	-0.090
-346.435	46.848	-0.079	-0.073
-345.420	17.498	-0.164	-0.129
-344.406	165.664	-0.070	0.098
-343.391	48.835	-0.113	0.105
-342.377	-179.774	-0.481	0.010
-341.362	-159.150	0.377	-0.021
-340.348	-25.394	-0.161	0.094
-339.333	-200.000	-0.023	0.195
-338.318	-56.645	-0.291	-0.127
-337.304	-13.052	0.057	0.036
-336.289	64.616	-0.173	-0.172
-335.275	133.471	-0.155	-0.198
-334.260	-44.155	0.343	-0.170
-333.245	-123.801	0.138	-0.022
-332.231	800.000	0.096	-0.314
-331.216	-20.271	0.102	0.062
-330.202	-58.328	-0.091	0.039
-329.187	-14.351	-0.179	-0.114
-328.172	76.599	0.145	-0.152
-327.158	64.231	0.216	0.215
-326.143	800.000	-0.069	0.205
-325.129	18.198	0.202	-0.159
-324.114	51.648	-0.041	-0.039
-323.099	59.622	-0.244	0.238
-322.085	128.594	0.283	0.356
-321.070	-200.000	0.011	-0.070
-320.056	-45.105	0.316	0.155
-319.041	42.986	-0.100	-0.090
-318.026	270.345	0.185	-0.320
-317.012	74.948	0.086	0.090
-315.997	-200.000	0.053	-0.295
-314.983	125.119	-0.085	-0.105
-313.968	-200.000	-0.047	-0.287
-312.953	-200.000	-0.030	0.218
-311.939	293.299	-0.117	0.210
-310.924	-186.155	0.374	-0.005
-309.910	327.159	0.129	0.243
-308.895	-200.000	-0.029	-0.146
-307.880	8.919	-0.207	0.154
-306.866	-76.176	-0.261	-0.091
-305.851	-200.000	-0.041	-0.233
-304.837	-75.225	0.117	0.041
-303.822	-142.938	0.146	-0.014
-302.807	-200.000	0.008	-0.071
-301.793	-24.293	0.276	0.162
-300.778	217.534	0.086	-0.136
-299.764	645.214	-0.080	-0.201
-298.749	-5.648	0.228	0.154
-297.735	-108.421	-0.197	-0.042
-296.720	-108.580	0.116	0.025
-295.705	522.175	0.173	0.400
-294.691	-145.056	-0.111	0.010
-293.676	181.347	-0.113	0.164
-292.662	81.805	-0.123	0.131
-291.647	-200.000	0.027	0.189
-290.632	90.586	-0.231	0.255
-289.618	22.568	-0.267	0.215
-288.603	-200.000	0.011	0.068
-287.589	-81.019	0.185	-0.060
-286.574	132.817	0.203	0.258
-285.559	-31.321	0.136	0.075
-284.545	202.958	0.139	-0.211
-283.530	-200.000	-0.014	-0.186
-282.516	-99.913	-0.168	-0.041
-281.501	-200.000	-0.017	0.084
-280.486	27.897	0.246	-0.204
-279.472	-52.572	0.174	-0.079
-278.457	612.987	0.022	-0.055
-277.443	-71.967	-0.189	-0.069
-276.428	107.905	0.108	-0.127
-275.413	-131.428	-0.281	-0.037
-274.399	270.046	-0.055	0.096
-273.384	-200.000	0.067	0.402
-272.370	800.000	0.035	-0.119
-271.355	-200.000	0.008	-0.062
-270.340	-83.041	-0.171	0.054
-269.326	-93.547	-0.208	0.057
-268.311	800.000	-0.064	-0.234
-267.297	-27.607	-0.141	-0.081
-266.282	-47.970	0.280	-0.133
-265.267	128.753	0.128	-0.160
-264.253	-76.072	0.220	0.076
-263.238	-200.000	-0.001	-0.017
-262.224	800.000	-0.029	0.091
-261.209	-137.949	0.498	0.055
-260.195	800.000	0.094	0.396
-259.180	97.431	-0.099	0.112
-258.165	283.438	-0.111	-0.196
-257.151	-200.000	0.037	-0.211
-256.136	800.000	-0.140	0.424
-255.122	-121.134	-0.319	0.053
-254.107	93.542	0.188	0.209
-253.092	59.290	-0.166	0.161
-252.078	367.143	-0.218	0.433
-251.063	-200.000	-0.056	0.290
-250.049	-200.000	0.015	0.175
-249.034	225.615	-0.144	-0.229
-248.019	257.592	0.078	0.131
-247.005	-200.000	0.011	-0.081
-245.990	-190.797	0.160	-0.002
-244.976	68.712	0.179	0.180
-243.961	-200.000	-0.000	-0.073
-242.946	144.686	0.255	-0.335
-241.932	-131.181	-0.353	-0.046
-240.917	12.684	0.308	-0.234
-239.903	31.816	-0.064	-0.054
-238.888	-12.372	-0.267	-0.172
-237.873	-145.556	-0.122	-0.011
-236.859	-26.520	0.042	0.024
-235.844	-200.000	-0.017	-0.147
-234.830	-80.046	0.124	-0.041
-233.815	-16.804	0.181	0.112
-232.800	-35.051	-0.302	0.162
-231.786	-13.419	-0.244	-0.155
-230.771	31.511	0.094	0.079
-229.757	305.516	-0.205	-0.374
-228.742	213.872	0.183	-0.285
-227.727	92.225	0.133	-0.147
-226.713	660.236	-0.093	0.235
-225.698	-200.000	0.035	-0.167
-224.684	-90.316	0.318	0.091
-223.669	513.155	0.097	0.222
-222.655	-79.742	0.128	0.042
-221.640	-44.988	0.215	-0.105
-220.625	800.000	0.060	0.184
-219.611	568.571	0.108	-0.258
-218.596	-200.000	-0.074	0.320
-217.582	-22.324	-0.157	0.093
-216.567	193.523	0.080	-0.118
-215.552	-200.000	0.004	0.145
-214.538	-17.186	-0.223	-0.138
-213.523	184.872	0.157	-0.228
-212.509	72.153	-0.261	-0.267
-211.494	-56.241	0.123	-0.054
-210.479	-137.891	0.118	0.013
-209.465	-72.677	0.201	-0.073
-208.450	800.000	0.069	-0.267
-207.436	-200.000	0.046	-0.454
-206.421	-103.060	0.214	0.050
-205.406	-200.000	0.000	0.139
-204.392	800.000	0.044	-0.130
-203.377	769.724	-0.042	0.111
-202.363	-200.000	-0.004	-0.137
-201.348	-157.578	0.043	-0.003
-200.333	178.305	-0.224	0.320
-199.319	-13.725	-0.027	0.017
-198.304	277.046	0.052	-0.091
-197.290	800.000	0.024	-0.070
-196.275	-89.445	0.016	-0.005
-195.260	-200.000	0.018	-0.243
-194.246	-200.000	0.016	-0.188
-193.231	-122.300	0.182	0.029
-192.217	558.482	0.075	-0.177
-191.202	-118.012	-0.290	0.051
-190.187	-142.712	0.379	0.036
-189.173	-91.623	0.137	0.038
-188.158	800.000	-0.189	-0.512
-187.144	51.450	0.243	0.226
-186.129	800.000	0.092	0.384
-185.114	428.787	-0.099	0.210
-184.100	-0.816	0.184	-0.128
-183.085	-200.000	-0.043	0.236
-182.071	-100.479	0.179	-0.043
-181.056	648.024	0.070	0.175
-180.042	99.604	0.153	0.173
-179.027	540.532	-0.200	0.466
-178.012	-200.000	-0.006	-0.097
-176.998	-151.722	0.115	0.008
-175.983	215.205	0.133	-0.208
-174.969	800.000	0.024	-0.093
-173.954	-200.000	0.020	0.160
-172.939	21.719	-0.202	-0.161
-171.925	209.467	-0.053	0.082
-170.910	-28.459	0.171	0.097
-169.896	195.358	-0.100	-0.150
-168.881	-200.000	-0.019	-0.307
-167.866	-200.000	-0.030	-0.137
-166.852	-5.238	0.080	-0.054
-165.837	-136.637	-0.231	0.026
-164.823	-152.715	0.138	0.010
-163.808	-124.298	-0.485	-0.074
-162.793	-186.082	-0.143	0.002
-161.779	352.889	-0.026	0.050
-160.764	-119.270	0.408	0.070
-159.750	-131.171	-0.113	-0.015
-158.735	19.760	0.451	-0.356
-157.720	-69.497	-0.301	0.113
-156.706	-103.075	0.061	0.014
-155.691	29.338	-0.062	0.052
-154.677	-136.354	0.089	-0.010
-153.662	70.917	0.231	0.234
-152.647	-200.000	0.053	-0.276
-151.633	-45.204	-0.184	0.090
-150.618	-145.577	0.199	0.017
-149.604	104.414	-0.005	0.006
-148.589	-169.259	0.427	0.015
-147.574	-200.000	0.027	-0.257
-146.560	-200.000	-0.030	-0.134
-145.545	25.391	0.081	-0.066
-144.531	-200.000	-0.013	0.176
-143.516	-200.000	0.035	-0.181
-142.502	218.285	0.190	-0.297
-141.487	3.190	-0.143	0.102
-140.472	-200.000	0.010	0.155
-139.458	-154.918	0.212	0.014
-138.443	74.864	-0.219	-0.225
-137.429	-29.433	0.193	0.108
-136.414	-52.304	-0.119	-0.054
-135.399	155.028	0.148	-0.199
-134.385	-62.699	0.112	-0.045
-133.370	-66.511	0.269	-0.105
-132.356	800.000	-0.181	0.648
-131.341	-152.570	-0.233	0.016
-130.326	800.000	0.095	-0.325
-129.312	-200.000	0.023	-0.221
-128.297	-147.441	-0.353	0.029
-127.283	800.000	0.034	-0.127
-126.268	-137.019	-0.297	0.033
-125.253	193.127	0.163	-0.241
-124.239	-200.000	-0.020	0.218
-123.224	41.397	0.092	0.082
-122.210	-133.044	0.005	-0.001
