DTS Sentinel unit serial number:	SN413079Multiplexer serial number:	ORYXHardware model number:	OX4-SRSoftware version number:	ORYX F/W v4.00 Oryx Data Collector v3.7.2.0data status	okinstallation	princeton_trtdifferential loss correction	single-endedforward channel	channel 1reverse channel	N/Adate	2019/09/17time	07:02:35forward acquisition time	60.00reverse acquisition time	0.00gamma	496.2192k internal	0.2331k external	0.2331temperature offset calibration	0.9970default loss term (dB/km)	0.3790temperature slope calibration	1.0000multiplexer offset coefficient	1.0000multiplexer slope coefficient	1.0000fibre end	0.00T internal ref (°C)	27.50T ext. ref 1 (°C)	0.12T ext. ref 2 (°C)	21.06length (m)	temperature (°C)	Stokes	anti-Stokes-747.200	800.000	-0.028	0.083
-746.185	-35.840	0.027	-0.014
-745.171	800.000	-0.048	-0.164
-744.156	534.779	-0.060	-0.144
-743.142	800.000	0.019	-0.059
-742.127	94.685	0.201	0.230
-741.112	-200.000	0.008	-0.058
-740.098	-54.287	-0.295	-0.135
-739.083	-200.000	0.016	-0.207
-738.069	177.281	-0.061	0.089
-737.054	158.618	0.079	-0.110
-736.039	31.483	-0.210	0.182
-735.025	800.000	0.061	0.226
-734.010	-68.865	-0.083	-0.032
-732.996	800.000	-0.045	0.140
-731.981	-200.000	-0.009	-0.393
-730.966	697.888	0.073	0.193
-729.952	360.853	-0.087	-0.176
-728.937	644.535	0.066	-0.171
-727.923	475.876	-0.093	0.212
-726.908	-73.789	-0.128	0.047
-725.894	519.785	-0.149	-0.352
-724.879	-85.720	0.536	-0.167
-723.864	257.665	-0.053	-0.091
-722.850	757.873	0.106	-0.288
-721.835	71.517	-0.084	-0.088
-720.821	-129.235	-0.071	0.010
-719.806	-46.331	0.149	0.074
-718.791	223.796	0.090	-0.147
-717.777	-200.000	-0.039	0.442
-716.762	505.114	-0.087	0.202
-715.748	13.049	-0.384	0.298
-714.733	-9.709	-0.135	0.090
-713.718	97.733	-0.133	-0.153
-712.704	-19.910	0.350	-0.217
-711.689	-32.064	0.007	-0.004
-710.675	-9.284	0.038	0.025
-709.660	-10.900	-0.131	-0.087
-708.645	-200.000	-0.027	0.171
-707.631	730.791	-0.043	-0.116
-706.616	800.000	0.051	0.176
-705.602	-61.818	0.262	0.110
-704.587	-133.245	-0.275	0.035
-703.572	-120.029	0.217	-0.037
-702.558	-64.245	-0.335	-0.137
-701.543	147.480	0.087	-0.118
-700.529	-87.605	-0.143	0.043
-699.514	-200.000	-0.011	-0.270
-698.499	-34.038	0.037	-0.020
-697.485	-0.382	-0.203	-0.145
-696.470	-200.000	-0.016	-0.417
-695.456	287.381	0.107	-0.194
-694.441	-200.000	-0.030	0.187
-693.426	-65.932	-0.321	0.129
-692.412	689.794	0.055	0.145
-691.397	-200.000	-0.011	0.055
-690.383	-193.047	0.115	-0.001
-689.368	-200.000	-0.035	-0.234
-688.354	-200.000	0.025	-0.435
-687.339	-95.895	0.146	0.039
-686.324	-200.000	0.028	-0.203
-685.310	41.474	0.010	0.009
-684.295	-200.000	-0.003	-0.176
-683.281	-93.933	-0.126	0.035
-682.266	800.000	0.117	0.331
-681.251	-200.000	0.014	0.098
-680.237	-99.457	0.225	0.057
-679.222	243.478	0.185	0.311
-678.208	267.643	-0.078	-0.137
-677.193	800.000	0.047	-0.182
-676.178	-118.063	-0.221	-0.040
-675.164	204.041	0.173	-0.269
-674.149	-165.716	0.390	-0.017
-673.135	85.243	0.238	0.262
-672.120	-65.187	0.280	0.113
-671.105	-112.077	-0.013	-0.003
-670.091	-180.907	0.175	-0.004
-669.076	0.550	-0.158	-0.113
-668.062	-200.000	-0.007	-0.147
-667.047	800.000	-0.055	-0.200
-666.032	800.000	-0.136	-0.480
-665.018	-200.000	0.008	-0.113
-664.003	-101.214	0.351	0.086
-662.989	-102.192	0.196	-0.047
-661.974	-200.000	0.008	0.241
-660.959	-200.000	-0.034	0.154
-659.945	-200.000	0.009	-0.203
-658.930	-0.257	-0.029	-0.021
-657.916	37.192	-0.197	0.175
-656.901	-200.000	-0.020	-0.170
-655.886	800.000	0.112	-0.325
-654.872	325.053	-0.067	-0.128
-653.857	90.699	0.113	-0.127
-652.843	217.463	0.172	-0.275
-651.828	87.439	0.175	-0.194
-650.814	-11.556	-0.225	0.149
-649.799	457.920	-0.016	0.035
-648.784	196.855	-0.117	0.180
-647.770	800.000	0.050	-0.188
-646.755	32.553	-0.110	-0.095
-645.741	521.977	0.120	0.283
-644.726	-62.237	-0.211	0.088
-643.711	128.915	-0.296	-0.379
-642.697	-41.257	-0.248	-0.128
-641.682	-200.000	-0.033	-0.157
-640.668	445.160	-0.098	-0.216
-639.653	68.210	-0.171	-0.176
-638.638	-27.133	-0.193	0.113
-637.624	15.546	-0.396	-0.312
-636.609	371.201	0.098	-0.199
-635.595	-55.218	-0.238	-0.107
-634.580	198.871	-0.146	0.224
-633.565	110.612	-0.178	-0.215
-632.551	-101.100	-0.237	0.058
-631.536	-143.374	0.190	0.018
-630.522	556.485	-0.065	-0.157
-629.507	800.000	-0.053	0.174
-628.492	556.275	0.089	-0.216
-627.478	-85.152	-0.108	0.034
-626.463	1.362	-0.050	0.036
-625.449	-200.000	0.032	-0.146
-624.434	11.653	-0.103	-0.079
-623.419	138.024	0.060	-0.079
-622.405	-200.000	0.004	-0.115
-621.390	152.913	-0.177	-0.242
-620.376	-90.262	0.141	0.041
-619.361	61.793	-0.024	-0.024
-618.346	63.418	0.313	0.314
-617.332	44.263	0.119	-0.109
-616.317	800.000	-0.058	0.231
-615.303	228.873	0.196	0.320
-614.288	336.373	0.069	-0.134
-613.273	-200.000	0.007	0.089
-612.259	-149.532	0.078	-0.006
-611.244	115.634	0.129	-0.158
-610.230	149.151	0.082	0.112
-609.215	-200.000	-0.099	-0.461
-608.201	-87.128	-0.118	0.036
-607.186	160.161	0.095	-0.132
-606.171	-46.604	0.296	-0.145
-605.157	-200.000	-0.006	0.099
-604.142	87.557	0.113	-0.126
-603.128	-94.593	-0.386	0.105
-602.113	-112.519	-0.340	-0.068
-601.098	-94.990	-0.264	0.071
-600.084	-38.584	-0.208	-0.110
-599.069	800.000	0.042	0.123
-598.055	-200.000	-0.035	-0.203
-597.040	800.000	0.057	0.173
-596.025	-132.447	-0.294	-0.038
-595.011	-99.694	0.555	0.139
-593.996	520.508	-0.180	0.423
-592.982	-200.000	-0.036	0.182
-591.967	-103.805	-0.069	-0.016
-590.952	-23.629	-0.107	0.064
-589.938	-46.444	-0.256	-0.126
-588.923	84.634	-0.165	-0.180
-587.909	146.909	-0.196	0.263
-586.894	608.232	0.159	0.398
-585.879	152.026	-0.141	-0.192
-584.865	-200.000	0.022	-0.109
-583.850	-121.345	0.180	-0.030
-582.836	-19.326	0.339	-0.210
-581.821	-19.136	0.236	0.147
-580.806	800.000	-0.016	0.066
-579.792	-94.976	0.276	0.075
-578.777	-184.724	0.324	-0.005
-577.763	-107.739	0.339	0.074
-576.748	-35.793	0.211	0.114
-575.733	40.935	-0.199	-0.180
-574.719	-26.311	0.102	-0.060
-573.704	595.773	0.056	-0.138
-572.690	-191.509	-0.280	-0.003
-571.675	-52.988	0.049	0.023
-570.661	76.034	0.235	-0.249
-569.646	57.428	0.071	-0.069
-568.631	-20.722	0.051	-0.031
-567.617	-200.000	0.019	-0.228
-566.602	-84.994	-0.144	0.045
-565.588	-200.000	-0.015	0.265
-564.573	-107.148	0.042	-0.009
-563.558	200.314	-0.084	-0.129
-562.544	800.000	0.047	0.167
-561.529	20.783	0.082	-0.066
-560.515	-18.622	0.146	0.091
-559.500	-12.532	0.226	0.147
-558.485	601.657	0.027	0.066
-557.471	-118.789	0.120	0.021
-556.456	86.293	0.080	-0.088
-555.442	359.069	0.046	0.093
-554.427	-65.284	0.311	-0.125
-553.412	552.865	-0.096	0.230
-552.398	53.518	-0.286	-0.274
-551.383	419.933	-0.044	0.094
-550.369	-200.000	-0.305	-0.001
-549.354	-200.000	-0.024	0.478
-548.339	-78.761	-0.204	0.069
-547.325	-9.471	-0.080	-0.053
-546.310	-61.722	0.110	0.046
-545.296	248.221	-0.107	-0.180
-544.281	-1.058	-0.357	-0.252
-543.266	-26.473	0.250	0.146
-542.252	13.091	0.153	-0.119
-541.237	-200.000	0.031	-0.138
-540.223	33.018	-0.269	0.233
-539.208	-143.410	0.253	0.024
-538.193	261.694	-0.039	0.068
-537.179	305.649	-0.154	-0.285
-536.164	800.000	0.017	0.075
-535.150	384.670	-0.137	-0.282
-534.135	468.141	0.113	0.254
-533.121	-200.000	-0.024	-0.109
-532.106	-200.000	-0.020	-0.095
-531.091	-5.415	-0.148	-0.101
-530.077	800.000	0.133	0.384
-529.062	62.450	-0.080	0.080
-528.048	-1.701	-0.237	0.167
-527.033	800.000	-0.067	-0.248
-526.018	-92.710	-0.257	-0.072
-525.004	32.992	0.130	-0.112
-523.989	137.565	0.051	-0.066
-522.975	-104.246	0.255	0.059
-521.960	-26.265	-0.398	0.233
-520.945	323.105	0.153	-0.292
-519.931	547.246	0.104	0.249
-518.916	-200.000	0.072	-0.448
-517.902	-47.729	0.140	-0.068
-516.887	67.123	0.023	-0.024
-515.872	-142.467	-0.291	0.029
-514.858	-200.000	-0.022	-0.318
-513.843	116.520	0.305	0.373
-512.829	122.874	0.119	-0.149
-511.814	419.203	0.181	0.386
-510.799	-200.000	-0.069	0.526
-509.785	-108.405	0.120	0.026
-508.770	110.351	-0.236	0.283
-507.756	-200.000	0.019	-0.104
-506.741	67.762	0.338	0.344
-505.726	162.153	-0.078	-0.109
-504.712	13.123	0.138	-0.106
-503.697	484.855	0.058	0.131
-502.683	-67.727	-0.208	0.081
-501.668	372.840	0.133	-0.269
-500.653	129.819	-0.324	0.414
-499.639	96.594	-0.167	-0.191
-498.624	584.112	0.072	0.175
-497.610	427.115	0.055	0.118
-496.595	-69.356	0.261	0.100
-495.581	-200.000	0.021	0.334
-494.566	-200.000	0.008	0.047
-493.551	-71.532	-0.242	-0.090
-492.537	-200.000	0.036	0.280
-491.522	-200.000	-0.004	0.150
-490.508	706.478	-0.030	-0.080
-489.493	-200.000	0.033	0.210
-488.478	320.103	-0.193	0.365
-487.464	32.960	-0.163	0.141
-486.449	-35.171	0.424	0.230
-485.435	800.000	-0.053	0.194
-484.420	-104.071	0.161	-0.037
-483.405	315.844	-0.045	0.085
-482.391	154.179	0.167	-0.229
-481.376	20.371	-0.187	-0.150
-480.362	800.000	0.130	0.420
-479.347	800.000	0.140	0.515
-478.332	-200.000	0.018	0.213
-477.318	68.931	0.163	0.167
-476.303	-10.336	-0.136	0.090
-475.289	116.687	-0.113	-0.138
-474.274	-133.124	-0.187	0.024
-473.259	70.129	-0.277	0.285
-472.245	-171.400	0.145	0.005
-471.230	800.000	0.030	0.084
-470.216	311.833	-0.117	-0.219
-469.201	349.622	0.014	0.029
-468.186	325.484	-0.224	-0.426
-467.172	-99.668	-0.335	0.084
-466.157	109.027	-0.014	-0.017
-465.143	-122.739	-0.099	-0.016
-464.128	-82.417	-0.258	0.084
-463.113	-123.619	0.246	-0.039
-462.099	91.178	-0.079	-0.088
-461.084	-32.984	-0.211	-0.117
-460.070	-54.982	0.152	0.068
-459.055	67.379	-0.214	-0.217
-458.040	800.000	-0.050	-0.187
-457.026	-93.733	-0.224	0.062
-456.011	-4.314	0.205	-0.141
-454.997	-47.663	0.090	-0.043
-453.982	171.984	0.083	-0.119
-452.968	-200.000	-0.000	0.094
-451.953	-153.405	-0.038	0.003
-450.938	94.237	0.159	0.179
-449.924	-200.000	0.028	-0.228
-448.909	-200.000	-0.031	0.333
-447.895	13.592	0.107	-0.082
-446.880	187.454	0.037	0.055
-445.865	-54.898	0.119	-0.053
-444.851	187.652	-0.089	-0.133
-443.836	169.281	-0.121	-0.172
-442.822	-54.921	0.252	0.113
-441.807	-200.000	-0.018	-0.268
-440.792	-142.687	-0.171	-0.017
-439.778	782.453	0.065	-0.178
-438.763	281.769	0.040	-0.071
-437.749	15.276	0.049	-0.038
-436.734	-1.779	0.074	-0.051
-435.719	-93.147	-0.156	-0.043
-434.705	-71.701	0.133	-0.049
-433.690	-200.000	-0.042	-0.188
-432.676	-112.205	0.106	0.021
-431.661	50.654	0.141	0.133
-430.646	-200.000	-0.023	-0.139
-429.632	79.901	0.176	0.188
-428.617	-200.000	-0.007	0.250
-427.603	-57.139	0.104	0.045
-426.588	-4.338	-0.296	0.203
-425.573	-200.000	0.026	0.160
-424.559	25.633	0.167	-0.138
-423.544	62.431	-0.095	0.094
-422.530	-15.663	-0.039	0.024
-421.515	-45.126	-0.196	-0.097
-420.500	-200.000	0.033	0.162
-419.486	390.013	0.086	-0.176
-418.471	117.521	-0.187	-0.229
-417.457	134.073	-0.063	0.081
-416.442	174.990	0.056	0.080
-415.428	-200.000	0.018	0.147
-414.413	-200.000	0.036	0.185
-413.398	-148.631	-0.172	0.014
-412.384	-92.848	-0.061	-0.017
-411.369	45.557	0.211	-0.194
-410.355	-149.604	0.144	0.011
-409.340	-58.076	0.197	-0.085
-408.325	738.705	-0.122	-0.325
-407.311	278.853	-0.081	-0.144
-406.296	-41.458	-0.116	-0.060
-405.282	371.656	-0.129	-0.261
-404.267	48.455	-0.197	-0.183
-403.252	-188.344	0.183	-0.002
-402.238	-200.000	-0.036	-0.272
-401.223	-9.345	-0.144	0.096
-400.209	37.304	0.206	0.181
-399.194	512.536	-0.025	0.058
-398.179	-28.342	0.185	-0.106
-397.165	800.000	-0.046	0.130
-396.150	7.445	-0.253	-0.188
-395.136	-53.047	-0.169	0.077
-394.121	4.157	0.593	-0.431
-393.106	26.776	0.201	0.167
-392.092	-88.848	0.118	-0.035
-391.077	-86.457	0.356	-0.108
-390.063	-55.475	0.082	-0.037
-389.048	-7.264	0.102	-0.069
-388.033	16.925	0.340	0.268
-387.019	-52.770	-0.242	-0.111
-386.004	14.687	-0.164	0.127
-384.990	468.143	0.102	0.228
-383.975	800.000	0.130	-0.409
-382.960	-72.710	-0.101	-0.037
-381.946	-34.211	0.208	-0.114
-380.931	-82.714	-0.443	0.142
-379.917	800.000	0.088	-0.271
-378.902	-17.843	0.153	-0.095
-377.888	-72.749	-0.205	-0.075
-376.873	123.819	0.215	-0.268
-375.858	170.983	-0.187	-0.266
-374.844	-108.692	0.068	0.014
-373.829	-104.992	0.433	-0.098
-372.815	7.053	-0.122	-0.091
-371.800	-200.000	0.026	0.381
-370.785	178.066	0.039	0.057
-369.771	-81.979	0.140	-0.045
-368.756	16.521	0.308	-0.242
-367.742	34.375	-0.096	0.083
-366.727	54.747	0.300	-0.287
-365.712	-11.232	0.091	0.059
-364.698	-142.326	0.365	0.036
-363.683	86.556	0.338	-0.370
-362.669	-80.055	-0.437	0.145
-361.654	59.273	0.162	0.158
-360.639	649.747	0.164	-0.415
-359.625	800.000	-0.075	-0.325
-358.610	-3.793	-0.267	0.184
-357.596	776.951	0.113	0.307
-356.581	315.546	0.046	0.085
-355.566	64.334	0.146	0.146
-354.552	-200.000	0.015	0.545
-353.537	800.000	-0.041	0.140
-352.523	-90.258	0.040	-0.011
-351.508	19.854	0.216	-0.173
-350.493	-121.118	-0.193	-0.032
-349.479	-74.799	0.120	0.043
-348.464	206.771	0.161	0.249
-347.450	119.833	-0.178	0.218
-346.435	274.394	0.054	-0.095
-345.420	-19.039	-0.098	-0.060
-344.406	490.226	0.071	0.160
-343.391	-88.410	-0.074	0.022
-342.377	-200.000	0.083	-0.372
-341.362	-152.701	-0.358	-0.025
-340.348	-200.000	-0.053	-0.243
-339.333	670.699	-0.026	-0.067
-338.318	121.913	-0.175	-0.217
-337.304	-45.734	-0.239	0.117
-336.289	248.329	0.202	0.338
-335.275	4.938	-0.250	-0.182
-334.260	-200.000	-0.034	0.233
-333.245	800.000	-0.094	0.342
-332.231	-200.000	-0.006	0.430
-331.216	-88.256	-0.208	-0.062
-330.202	134.054	0.029	-0.037
-329.187	-97.130	-0.217	0.056
-328.172	-110.381	-0.039	0.008
-327.158	-135.066	-0.071	-0.008
-326.143	-49.591	-0.293	0.138
-325.129	-98.163	-0.088	0.022
-324.114	-199.675	-0.193	0.001
-323.099	-150.292	0.050	-0.004
-322.085	367.906	-0.035	0.071
-321.070	48.564	0.133	-0.123
-320.056	49.523	-0.218	-0.203
-319.041	67.941	-0.162	0.164
-318.026	771.047	-0.044	0.119
-317.012	-57.967	-0.281	0.121
-315.997	179.777	0.152	0.220
-314.983	-171.120	0.031	-0.001
-313.968	531.258	-0.109	0.255
-312.953	-19.686	0.039	-0.024
-311.939	-200.000	0.002	-0.160
-310.924	43.617	-0.204	0.185
-309.910	218.467	0.069	0.109
-308.895	-82.284	-0.270	-0.087
-307.880	267.961	0.048	0.083
-306.866	166.827	-0.036	-0.051
-305.851	305.046	0.112	0.207
-304.837	-155.509	-0.214	-0.014
-303.822	9.858	-0.146	-0.109
-302.807	401.113	-0.128	-0.267
-301.793	-200.000	0.021	-0.328
-300.778	262.316	0.311	-0.533
-299.764	-41.664	-0.070	-0.035
-298.749	800.000	0.040	0.148
-297.735	-200.000	-0.018	0.270
-296.720	39.990	0.314	0.279
-295.705	-114.970	-0.083	0.016
-294.691	10.004	0.296	0.222
-293.676	51.073	-0.018	0.017
-292.662	-200.000	0.035	0.166
-291.647	330.254	0.062	-0.118
-290.632	800.000	0.099	0.293
-289.618	-12.655	0.016	-0.011
-288.603	590.280	0.146	-0.357
-287.589	800.000	-0.056	0.166
-286.574	426.131	0.088	-0.188
-285.559	447.968	0.112	-0.243
-284.545	800.000	-0.043	0.130
-283.530	-76.989	0.103	-0.035
-282.516	214.651	0.091	0.143
-281.501	-89.892	0.194	-0.056
-280.486	20.806	0.182	-0.146
-279.472	-21.646	0.233	-0.140
-278.457	159.535	0.107	0.148
-277.443	-3.182	0.061	-0.042
-276.428	165.912	0.212	0.297
-275.413	77.253	-0.168	0.176
-274.399	-85.296	0.219	-0.068
-273.384	800.000	0.115	-0.324
-272.370	-200.000	0.052	0.262
-271.355	314.067	0.053	0.098
-270.340	5.219	-0.160	0.116
-269.326	193.767	0.111	-0.166
-268.311	111.477	-0.218	0.260
-267.297	267.377	-0.045	-0.078
-266.282	-40.379	0.271	-0.139
-265.267	211.270	-0.165	-0.257
-264.253	370.485	0.126	0.252
-263.238	800.000	-0.063	0.213
-262.224	-112.222	0.306	0.061
-261.209	-27.580	-0.355	-0.204
-260.195	158.834	-0.039	-0.053
-259.180	308.306	0.098	-0.180
-258.165	-200.000	0.005	0.272
-257.151	-83.819	-0.150	0.047
-256.136	208.839	0.287	-0.444
-255.122	-200.000	-0.010	-0.116
-254.107	251.528	0.018	0.030
-253.092	-74.031	0.044	0.016
-252.078	-42.484	-0.440	-0.222
-251.063	-89.213	0.114	0.033
-250.049	59.469	0.196	0.191
-249.034	-57.976	0.247	-0.107
-248.019	218.105	-0.094	-0.147
-247.005	-74.960	0.166	-0.059
-245.990	799.929	-0.046	0.126
-244.976	455.006	0.077	0.168
-243.961	236.137	0.071	0.115
-242.946	-78.477	0.048	-0.016
-241.932	388.805	-0.192	0.393
-240.917	-118.199	0.140	-0.025
-239.903	2.912	-0.261	-0.187
-238.888	14.917	0.132	0.102
-237.873	160.681	-0.071	-0.098
-236.859	296.701	-0.045	-0.081
-235.844	-10.284	0.146	-0.095
-234.830	-200.000	-0.058	0.304
-233.815	-200.000	0.017	0.321
-232.800	15.916	0.092	0.071
-231.786	37.647	0.267	-0.234
-230.771	677.762	-0.115	0.295
-229.757	-200.000	-0.007	0.214
-228.742	-200.000	-0.012	-0.221
-227.727	278.271	-0.069	0.121
-226.713	-13.196	0.200	0.128
-225.698	-40.977	-0.253	-0.129
-224.684	666.697	0.123	-0.314
-223.669	101.693	-0.117	0.135
-222.655	-200.000	-0.008	-0.078
-221.640	152.209	-0.263	-0.353
-220.625	-200.000	0.006	-0.272
-219.611	192.401	0.093	0.138
-218.596	251.733	0.095	0.160
-217.582	-114.219	0.198	0.038
-216.567	-200.000	0.082	0.406
-215.552	325.808	-0.117	-0.222
-214.538	770.236	0.122	0.327
-213.523	12.756	-0.193	-0.147
-212.509	-66.562	0.182	0.071
-211.494	-78.408	-0.182	0.061
-210.479	71.796	-0.331	0.339
-209.465	43.604	0.182	-0.164
-208.450	-79.293	0.079	0.026
-207.436	-117.283	0.079	-0.014
-206.421	-200.000	-0.007	0.184
-205.406	-200.000	0.004	-0.332
-204.392	-200.000	-0.017	0.076
-203.377	-96.017	-0.202	-0.053
-202.363	78.403	0.016	-0.017
-201.348	-150.351	-0.358	0.027
-200.333	-200.000	-0.017	0.221
-199.319	390.813	0.132	-0.269
-198.304	-125.293	0.097	-0.015
-197.290	-10.076	-0.147	-0.096
-196.275	-64.521	-0.357	0.143
-195.260	-200.000	-0.015	0.214
-194.246	95.609	-0.089	0.100
-193.231	-83.744	-0.123	-0.039
-192.217	800.000	-0.107	-0.382
-191.202	3.476	0.349	0.251
-190.187	-101.975	-0.323	0.077
-189.173	644.935	0.081	0.204
-188.158	8.402	-0.154	-0.114
-187.144	800.000	-0.116	-0.358
-186.129	-200.000	-0.008	-0.210
-185.114	-124.436	0.332	-0.051
-184.100	800.000	-0.110	0.405
-183.085	-64.595	0.246	-0.098
-182.071	-200.000	-0.043	-0.232
-181.056	-99.647	-0.217	0.054
-180.042	-43.788	-0.072	0.036
-179.027	387.324	0.083	-0.170
-178.012	232.235	0.121	0.195
-176.998	-125.494	0.216	-0.032
-175.983	-104.518	0.132	0.030
-174.969	-61.505	0.294	-0.122
-173.954	-132.774	-0.348	0.044
-172.939	-200.000	0.027	-0.237
-171.925	-104.234	0.135	0.031
-170.910	260.469	0.042	-0.071
-169.896	800.000	-0.024	0.068
-168.881	-98.945	-0.293	-0.073
-167.866	-200.000	-0.036	-0.158
-166.852	772.719	0.052	0.139
-165.837	781.229	0.097	0.261
-164.823	800.000	0.156	-0.503
-163.808	-200.000	-0.024	-0.264
-162.793	47.606	0.063	-0.057
-161.779	-148.252	-0.202	-0.016
-160.764	-40.989	0.161	0.082
-159.750	800.000	-0.049	-0.156
-158.735	38.121	-0.122	-0.107
-157.720	118.316	0.132	0.160
-156.706	-23.223	0.077	-0.046
-155.691	-32.112	-0.171	-0.094
-154.677	-34.632	-0.122	-0.065
-153.662	91.066	-0.226	-0.249
-152.647	-44.225	0.172	-0.085
-151.633	138.052	0.254	-0.327
-150.618	185.522	-0.254	-0.372
-149.604	-200.000	-0.032	-0.234
-148.589	94.819	-0.187	-0.209
-147.574	127.524	-0.074	-0.092
-146.560	-166.796	-0.051	0.002
-145.545	191.434	-0.183	-0.270
-144.531	-23.142	0.286	0.169
-143.516	184.045	-0.168	-0.245
-142.502	276.385	-0.083	-0.145
-141.487	-64.804	-0.170	0.067
-140.472	162.615	0.135	0.186
-139.458	-45.707	0.099	0.048
-138.443	517.372	0.118	-0.271
-137.429	473.146	0.193	0.427
-136.414	-93.837	0.260	-0.070
-135.399	-137.360	-0.049	0.005
-134.385	-140.330	0.147	0.015
-133.370	380.775	0.054	-0.109
-132.356	-164.212	-0.197	-0.009
-131.341	800.000	0.091	0.277
-130.326	-30.321	0.200	-0.112
-129.312	430.284	-0.147	-0.312
-128.297	-139.881	0.081	0.008
-127.283	-200.000	-0.004	0.237
-126.268	-200.000	0.055	-0.330
-125.253	406.217	0.024	-0.050
-124.239	-200.000	-0.031	0.195
-123.224	602.332	0.013	-0.031
-122.210	306.389	0.050	-0.092
-121.195	50.634	0.139	0.130
