DTS Sentinel unit serial number:	SN413079Multiplexer serial number:	ORYXHardware model number:	OX4-SRSoftware version number:	ORYX F/W v4.00 Oryx Data Collector v3.7.2.0data status	okinstallation	princeton_trtdifferential loss correction	single-endedforward channel	channel 1reverse channel	N/Adate	2019/09/10time	19:32:11forward acquisition time	60.00reverse acquisition time	0.00gamma	496.2192k internal	0.2321k external	0.2321temperature offset calibration	0.9929default loss term (dB/km)	0.3790temperature slope calibration	1.0000multiplexer offset coefficient	1.0000multiplexer slope coefficient	1.0000fibre end	0.00T internal ref (°C)	33.42T ext. ref 1 (°C)	-0.35T ext. ref 2 (°C)	26.09length (m)	temperature (°C)	Stokes	anti-Stokes-747.200	800.000	0.093	-0.299
-746.185	-41.979	0.101	-0.052
-745.171	800.000	-0.073	-0.238
-744.156	337.570	0.119	0.234
-743.142	6.303	0.040	-0.030
-742.127	-72.063	-0.027	-0.010
-741.112	28.714	-0.215	-0.184
-740.098	-75.202	-0.176	0.063
-739.083	386.874	0.097	0.202
-738.069	800.000	-0.101	0.411
-737.054	23.381	-0.204	0.169
-736.039	-164.611	-0.241	-0.011
-735.025	800.000	0.082	0.340
-734.010	-94.304	-0.099	-0.027
-732.996	-200.000	0.010	-0.368
-731.981	60.181	-0.112	0.112
-730.966	-73.408	-0.369	-0.136
-729.952	65.542	-0.374	0.382
-728.937	143.119	0.201	-0.270
-727.923	-104.483	-0.357	-0.083
-726.908	-200.000	-0.010	-0.128
-725.894	154.144	-0.172	0.238
-724.879	-36.878	0.237	0.129
-723.864	-127.685	-0.326	-0.048
-722.850	412.889	0.101	-0.216
-721.835	-200.000	-0.004	-0.146
-720.821	325.034	0.061	-0.118
-719.806	800.000	0.033	-0.109
-718.791	-51.729	-0.161	0.076
-717.777	80.609	0.025	0.027
-716.762	-109.145	-0.350	-0.075
-715.748	800.000	0.077	-0.333
-714.733	63.602	-0.084	-0.085
-713.718	387.420	0.116	-0.242
-712.704	-200.000	0.005	-0.173
-711.689	41.745	-0.181	-0.166
-710.675	-67.531	-0.235	-0.093
-709.660	-42.973	0.215	0.110
-708.645	468.040	-0.022	0.049
-707.631	-200.000	-0.066	-0.321
-706.616	85.844	0.063	0.069
-705.602	339.226	0.057	0.112
-704.587	-37.873	-0.185	-0.099
-703.572	-50.779	0.197	-0.093
-702.558	-168.567	0.091	-0.004
-701.543	323.827	-0.112	-0.216
-700.529	-3.275	0.198	-0.139
-699.514	-73.428	-0.189	0.070
-698.499	-112.765	-0.315	-0.063
-697.485	217.172	-0.064	-0.103
-696.470	-9.040	-0.260	0.175
-695.456	-72.942	-0.424	0.157
-694.441	240.981	0.079	-0.133
-693.426	472.286	0.076	0.172
-692.412	98.730	-0.196	-0.228
-691.397	-200.000	-0.013	-0.159
-690.383	-200.000	0.061	-0.352
-689.368	96.178	0.039	-0.044
-688.354	-200.000	-0.021	-0.220
-687.339	-138.484	0.683	0.076
-686.324	76.690	-0.025	-0.027
-685.310	-200.000	0.014	-0.268
-684.295	-135.311	0.303	0.037
-683.281	-32.117	-0.208	-0.117
-682.266	-200.000	-0.008	0.179
-681.251	323.998	-0.040	-0.076
-680.237	47.315	0.148	-0.139
-679.222	-190.701	0.061	-0.001
-678.208	356.546	0.159	-0.320
-677.193	-49.912	0.075	-0.036
-676.178	-21.953	0.072	-0.044
-675.164	299.818	-0.253	0.470
-674.149	-200.000	-0.074	-0.344
-673.135	-130.442	0.390	0.053
-672.120	-3.477	-0.201	-0.141
-671.105	-117.624	0.317	0.058
-670.091	-128.884	0.161	0.023
-669.076	21.810	0.165	-0.136
-668.062	-200.000	0.073	-0.428
-667.047	128.299	0.083	0.107
-666.032	403.829	-0.079	-0.168
-665.018	197.473	-0.017	-0.027
-664.003	-200.000	-0.041	0.262
-662.989	246.180	-0.005	0.008
-661.974	-76.616	-0.219	0.078
-660.959	800.000	-0.055	-0.240
-659.945	-106.584	0.339	-0.076
-658.930	-200.000	0.044	-0.313
-657.916	-43.073	-0.328	-0.167
-656.901	-200.000	-0.069	-0.492
-655.886	-43.113	0.034	0.017
-654.872	-200.000	0.052	-0.373
-653.857	-17.448	0.165	-0.104
-652.843	150.374	-0.058	-0.080
-651.828	240.587	-0.076	-0.128
-650.814	85.150	-0.301	-0.332
-649.799	-200.000	0.009	0.054
-648.784	112.741	-0.121	0.148
-647.770	-99.419	-0.157	-0.040
-646.755	-39.830	-0.014	0.007
-645.741	-35.992	-0.140	0.076
-644.726	-153.685	0.104	0.007
-643.711	-52.159	0.179	0.084
-642.697	800.000	0.095	-0.322
-641.682	-174.594	0.101	-0.003
-640.668	496.669	-0.109	-0.252
-639.653	-200.000	-0.019	0.509
-638.638	431.798	-0.049	-0.107
-637.624	-200.000	0.001	-0.267
-636.609	-10.739	-0.059	-0.039
-635.595	-155.164	-0.288	0.019
-634.580	800.000	-0.068	-0.296
-633.565	171.850	0.129	-0.187
-632.551	-9.785	0.145	-0.097
-631.536	-64.105	0.281	-0.115
-630.522	-71.812	-0.325	0.122
-629.507	50.558	0.308	0.293
-628.492	221.567	-0.143	-0.231
-627.478	-119.838	-0.258	0.045
-626.463	62.698	0.070	0.071
-625.449	275.634	0.142	-0.253
-624.434	800.000	0.040	-0.143
-623.419	800.000	0.065	0.247
-622.405	194.931	-0.257	0.392
-621.390	-2.704	-0.107	-0.075
-620.376	539.394	-0.077	0.185
-619.361	800.000	0.091	-0.294
-618.346	-16.214	-0.292	0.186
-617.332	112.969	0.101	-0.123
-616.317	70.703	-0.044	-0.046
-615.303	-93.429	0.299	-0.083
-614.288	800.000	0.037	-0.121
-613.273	-200.000	0.024	0.210
-612.259	-155.125	0.224	-0.015
-611.244	-177.827	-0.353	0.009
-610.230	384.492	0.087	-0.180
-609.215	11.404	-0.078	-0.060
-608.201	115.289	-0.330	-0.405
-607.186	315.557	-0.141	0.267
-606.171	33.407	0.161	-0.141
-605.157	-37.112	-0.078	-0.042
-604.142	28.742	0.112	-0.095
-603.128	0.109	-0.209	0.150
-602.113	-200.000	-0.020	0.203
-601.098	-17.895	0.069	0.044
-600.084	-3.169	0.363	-0.255
-599.069	-200.000	0.042	-0.352
-598.055	-200.000	-0.021	-0.128
-597.040	-193.255	-0.228	-0.002
-596.025	374.476	0.240	-0.490
-595.011	90.722	0.219	0.246
-593.996	116.121	0.112	-0.138
-592.982	-200.000	0.083	-0.509
-591.967	800.000	0.030	-0.085
-590.952	75.529	-0.090	-0.095
-589.938	-128.646	-0.130	-0.018
-588.923	-76.562	-0.224	-0.079
-587.909	-69.526	0.163	-0.063
-586.894	46.071	-0.196	-0.182
-585.879	13.897	0.177	0.138
-584.865	800.000	0.003	-0.013
-583.850	-39.051	-0.163	-0.086
-582.836	18.100	0.207	0.166
-581.821	800.000	0.073	-0.244
-580.806	110.769	0.088	0.106
-579.792	-92.355	0.143	0.040
-578.777	148.637	0.021	0.028
-577.763	155.801	0.059	0.081
-576.748	-200.000	-0.029	0.149
-575.733	-120.217	0.065	0.011
-574.719	55.075	0.027	-0.027
-573.704	800.000	0.038	-0.108
-572.690	-19.986	0.121	0.075
-571.675	-200.000	0.035	-0.218
-570.661	800.000	0.036	-0.110
-569.646	-64.083	0.197	-0.081
-568.631	-200.000	0.015	-0.074
-567.617	-2.163	0.030	0.021
-566.602	-73.367	-0.118	-0.043
-565.588	425.150	-0.046	0.100
-564.573	-200.000	0.016	-0.102
-563.558	800.000	-0.097	0.281
-562.544	-200.000	0.058	-0.283
-561.529	-123.390	0.354	-0.057
-560.515	67.792	0.083	-0.085
-559.500	-84.925	-0.177	0.056
-558.485	-118.304	-0.183	0.033
-557.471	339.667	0.136	0.265
-556.456	800.000	-0.055	0.224
-555.442	121.780	0.034	-0.043
-554.427	50.863	-0.043	-0.041
-553.412	-27.766	-0.132	-0.077
-552.398	147.034	-0.151	-0.203
-551.383	-32.589	-0.150	-0.084
-550.369	98.182	-0.170	-0.196
-549.354	52.314	-0.264	-0.253
-548.339	27.412	0.060	0.051
-547.325	-115.060	-0.368	0.070
-546.310	-77.965	-0.230	-0.079
-545.296	800.000	-0.097	-0.380
-544.281	-16.184	0.339	-0.216
-543.266	-55.169	-0.393	0.177
-542.252	-200.000	-0.004	-0.097
-541.237	186.107	-0.137	0.204
-540.223	71.286	0.160	0.166
-539.208	-81.428	-0.094	-0.031
-538.193	385.515	0.101	-0.209
-537.179	-167.069	0.362	0.015
-536.164	544.113	-0.250	-0.599
-535.150	-106.850	0.281	-0.062
-534.135	-16.041	0.076	-0.048
-533.121	800.000	-0.078	-0.286
-532.106	800.000	-0.124	0.356
-531.091	-97.551	-0.256	0.067
-530.077	-152.039	-0.042	-0.003
-529.062	-15.166	0.210	-0.135
-528.048	-75.516	-0.173	0.062
-527.033	-145.966	-0.265	-0.024
-526.018	-200.000	-0.014	-0.069
-525.004	-200.000	0.049	-0.250
-523.989	9.705	-0.246	-0.187
-522.975	-17.589	-0.056	0.036
-521.960	2.255	0.091	0.066
-520.945	55.480	-0.053	0.051
-519.931	-200.000	-0.053	-0.342
-518.916	499.252	-0.077	0.177
-517.902	82.876	-0.122	-0.133
-516.887	-200.000	0.028	-0.199
-515.872	800.000	-0.066	-0.258
-514.858	533.561	-0.052	-0.123
-513.843	800.000	0.041	-0.138
-512.829	384.088	0.114	-0.234
-511.814	-47.478	-0.164	0.080
-510.799	-200.000	0.001	0.014
-509.785	179.824	-0.105	0.154
-508.770	-123.207	0.458	-0.073
-507.756	166.537	0.025	0.036
-506.741	800.000	0.043	0.133
-505.726	196.848	-0.157	0.239
-504.712	385.083	0.108	0.224
-503.697	-14.171	0.202	-0.131
-502.683	207.780	0.190	-0.298
-501.668	-77.918	-0.133	0.046
-500.653	31.741	-0.129	-0.111
-499.639	-64.702	0.303	0.123
-498.624	522.681	-0.151	-0.355
-497.610	-38.030	0.219	-0.116
-496.595	-79.210	-0.178	0.061
-495.581	-24.067	-0.150	-0.090
-494.566	-200.000	-0.065	0.289
-493.551	-56.714	-0.278	-0.123
-492.537	-161.745	0.025	0.001
-491.522	-1.127	0.147	0.104
-490.508	251.236	-0.055	-0.094
-489.493	-200.000	-0.021	0.208
-488.478	292.843	-0.126	0.230
-487.464	-200.000	-0.271	0.001
-486.449	-104.865	0.080	0.018
-485.435	-82.438	-0.025	-0.008
-484.420	-87.278	-0.215	0.065
-483.405	-80.215	0.135	0.045
-482.391	800.000	-0.079	-0.231
-481.376	-18.003	-0.174	0.109
-480.362	67.672	-0.284	0.290
-479.347	-38.868	0.123	-0.065
-478.332	-60.351	0.182	-0.077
-477.318	102.009	0.122	-0.142
-476.303	-96.792	0.199	-0.052
-475.289	-89.815	0.132	0.039
-474.274	-41.452	0.157	-0.081
-473.259	800.000	0.014	-0.056
-472.245	80.248	-0.121	-0.130
-471.230	-98.316	-0.088	-0.023
-470.216	-200.000	0.053	0.255
-469.201	800.000	-0.046	-0.175
-468.186	800.000	0.009	-0.032
-467.172	51.808	-0.163	-0.155
-466.157	533.411	-0.128	0.303
-465.143	408.483	-0.029	-0.062
-464.128	800.000	-0.063	0.173
-463.113	800.000	0.098	-0.326
-462.099	-161.466	0.036	0.002
-461.084	-200.000	-0.061	-0.390
-460.070	-200.000	0.382	-0.001
-459.055	-151.004	-0.295	-0.022
-458.040	-200.000	-0.000	-0.026
-457.026	123.396	0.127	0.159
-456.011	-71.797	-0.224	-0.083
-454.997	386.210	-0.063	-0.130
-453.982	-200.000	-0.040	0.224
-452.968	56.533	0.141	0.137
-451.953	367.516	0.042	0.085
-450.938	-51.102	-0.243	0.114
-449.924	-34.320	-0.240	-0.131
-448.909	-123.075	0.153	-0.025
-447.895	214.331	0.031	0.049
-446.880	-46.543	0.061	0.030
-445.865	-200.000	0.041	0.180
-444.851	-103.228	0.312	0.074
-443.836	84.071	-0.249	0.272
-442.822	-37.380	0.181	0.097
-441.807	27.571	0.152	0.128
-440.792	800.000	-0.055	0.207
-439.778	800.000	0.089	0.298
-438.763	-150.991	0.112	-0.008
-437.749	546.399	0.066	0.158
-436.734	800.000	-0.046	-0.167
-435.719	-53.447	0.212	-0.097
-434.705	-200.000	0.064	0.427
-433.690	800.000	0.039	0.148
-432.676	64.583	0.096	0.097
-431.661	-143.894	0.107	0.010
-430.646	57.023	0.075	-0.073
-429.632	800.000	0.072	0.241
-428.617	678.909	0.112	-0.292
-427.603	-97.831	-0.127	-0.033
-426.588	-178.819	-0.481	-0.011
-425.573	-62.135	0.262	0.109
-424.559	-29.834	0.083	-0.047
-423.544	-200.000	-0.025	0.262
-422.530	800.000	-0.059	0.219
-421.515	151.274	-0.036	-0.048
-420.500	800.000	-0.053	-0.199
-419.486	800.000	0.039	-0.168
-418.471	-200.000	-0.009	0.171
-417.457	366.179	0.014	0.029
-416.442	196.904	-0.046	-0.070
-415.428	291.675	-0.028	-0.052
-414.413	-112.131	-0.363	0.073
-413.398	570.614	-0.056	0.136
-412.384	-200.000	0.033	-0.324
-411.369	-97.009	-0.431	-0.113
-410.355	-47.655	0.312	-0.151
-409.340	77.460	-0.102	0.108
-408.325	-72.893	0.099	0.036
-407.311	-200.000	0.023	0.122
-406.296	429.464	0.166	0.358
-405.282	84.028	-0.181	0.198
-404.267	136.839	-0.117	0.153
-403.252	-200.000	0.036	0.275
-402.238	404.133	0.159	0.333
-401.223	-108.111	0.317	0.069
-400.209	203.615	-0.110	0.170
-399.194	-200.000	0.021	-0.278
-398.179	52.108	0.086	0.081
-397.165	800.000	0.105	0.333
-396.150	-13.961	0.118	0.076
-395.136	-73.676	-0.175	-0.063
-394.121	800.000	-0.053	0.165
-393.106	-200.000	-0.035	-0.335
-392.092	411.321	0.066	0.139
-391.077	-104.776	0.261	0.060
-390.063	-68.053	-0.333	0.130
-389.048	-1.044	0.231	0.163
-388.033	22.556	0.072	0.059
-387.019	-54.108	-0.390	0.177
-386.004	-71.816	-0.023	0.008
-384.990	-116.033	0.113	0.021
-383.975	243.742	-0.199	0.333
-382.960	-68.815	0.356	0.137
-381.946	-116.860	-0.188	-0.034
-380.931	-43.194	-0.154	-0.078
-379.917	309.414	0.131	-0.243
-378.902	118.781	-0.145	-0.179
-377.888	424.131	-0.027	0.057
-376.873	-176.858	0.274	0.007
-375.858	220.670	0.041	0.065
-374.844	-31.255	0.072	-0.040
-373.829	-112.732	0.555	0.110
-372.815	-200.000	0.016	-0.253
-371.800	75.808	-0.038	-0.040
-370.785	387.621	0.130	0.267
-369.771	78.761	-0.026	-0.028
-368.756	230.492	-0.028	-0.046
-367.742	68.128	0.086	0.088
-366.727	-84.789	0.079	-0.025
-365.712	-88.440	0.171	-0.051
-364.698	-101.064	-0.113	0.028
-363.683	-148.242	0.249	-0.020
-362.669	259.355	-0.158	0.272
-361.654	18.480	0.080	0.063
-360.639	-200.000	-0.006	0.205
-359.625	-200.000	0.002	-0.021
-358.610	2.043	-0.115	-0.082
-357.596	-71.047	0.236	0.088
-356.581	10.518	-0.272	-0.207
-355.566	27.433	0.095	0.080
-354.552	-5.633	-0.174	-0.119
-353.537	31.517	0.151	0.129
-352.523	572.975	-0.086	0.209
-351.508	-177.047	-0.169	0.004
-350.493	-57.629	-0.120	-0.052
-349.479	38.162	-0.350	0.310
-348.464	-129.833	0.533	0.073
-347.450	143.123	-0.070	0.093
-346.435	-23.028	0.181	-0.109
-345.420	75.155	-0.162	0.170
-344.406	800.000	0.069	0.250
-343.391	104.703	0.138	-0.162
-342.377	800.000	0.014	0.045
-341.362	-139.068	-0.097	0.010
-340.348	-111.342	-0.322	-0.065
-339.333	-48.075	-0.112	0.054
-338.318	-200.000	-0.031	-0.207
-337.304	663.592	0.039	-0.100
-336.289	-200.000	-0.076	0.401
-335.275	1.722	-0.172	-0.123
-334.260	-105.675	0.054	-0.012
-333.245	163.007	-0.144	0.201
-332.231	-110.740	-0.238	0.049
-331.216	181.606	-0.266	0.389
-330.202	153.271	-0.149	0.203
-329.187	-89.259	0.229	0.067
-328.172	-176.509	0.165	0.004
-327.158	-11.682	-0.156	0.102
-326.143	24.663	0.208	0.171
-325.129	-71.946	-0.103	-0.038
-324.114	-72.446	0.200	-0.074
-323.099	-85.958	0.054	-0.017
-322.085	-86.024	-0.246	0.076
-321.070	176.775	0.062	-0.089
-320.056	-200.000	-0.067	-0.513
-319.041	-149.163	0.249	0.020
-318.026	-36.384	-0.152	0.081
-317.012	49.472	0.137	0.128
-315.997	96.284	0.040	-0.045
-314.983	-39.938	-0.214	0.111
-313.968	-75.007	0.475	0.169
-312.953	800.000	-0.103	-0.326
-311.939	-200.000	-0.002	0.071
-310.924	-66.455	0.141	0.056
-309.910	-7.459	-0.223	0.150
-308.895	-56.540	0.290	0.128
-307.880	800.000	-0.042	0.167
-306.866	-200.000	0.026	-0.331
-305.851	-200.000	-0.054	-0.362
-304.837	209.303	-0.142	0.221
-303.822	-116.703	0.302	0.055
-302.807	-26.728	-0.159	-0.092
-301.793	-200.000	-0.082	0.455
-300.778	-83.145	-0.148	-0.047
-299.764	-200.000	-0.019	-0.491
-298.749	-94.280	-0.064	-0.017
-297.735	-131.061	-0.275	-0.036
-296.720	-101.610	0.113	-0.027
-295.705	800.000	-0.044	-0.168
-294.691	-147.383	0.386	-0.032
-293.676	-69.239	-0.186	-0.071
-292.662	82.435	0.018	-0.020
-291.647	800.000	-0.052	-0.225
-290.632	132.457	0.037	-0.047
-289.618	-192.233	-0.370	0.003
-288.603	-200.000	-0.008	-0.207
-287.589	1.046	-0.214	-0.152
-286.574	23.020	-0.079	0.064
-285.559	26.284	-0.046	0.038
-284.545	-171.567	-0.106	-0.004
-283.530	418.508	0.099	0.211
-282.516	18.182	-0.137	-0.108
-281.501	-22.908	0.091	-0.055
-280.486	-200.000	0.050	0.272
-279.472	-88.370	0.447	-0.133
-278.457	-76.328	0.166	0.058
-277.443	-200.000	0.026	-0.159
-276.428	56.451	0.248	-0.239
-275.413	320.725	0.139	-0.262
-274.399	-200.000	0.009	0.135
-273.384	49.576	-0.353	-0.330
-272.370	156.490	0.211	0.289
-271.355	132.018	-0.064	0.082
-270.340	-200.000	0.000	0.336
-269.326	-35.537	0.112	0.061
-268.311	3.178	0.204	-0.147
-267.297	-30.277	0.282	0.159
-266.282	51.171	-0.080	0.075
-265.267	800.000	0.087	-0.241
-264.253	176.622	0.019	-0.028
-263.238	800.000	-0.040	-0.116
-262.224	119.913	0.287	-0.352
-261.209	23.809	-0.147	0.120
-260.195	-145.726	-0.125	-0.011
-259.180	-38.363	0.268	-0.141
-258.165	-63.925	-0.125	0.051
-257.151	-200.000	-0.027	0.170
-256.136	-171.789	-0.396	-0.013
-255.122	181.292	-0.210	-0.307
-254.107	-52.564	-0.356	-0.163
-253.092	-53.701	0.198	0.089
-252.078	30.444	0.173	0.146
-251.063	37.770	0.171	-0.150
-250.049	127.737	0.147	-0.185
-249.034	800.000	-0.103	0.309
-248.019	68.462	-0.141	0.144
-247.005	-89.938	0.123	-0.036
-245.990	-200.000	-0.029	-0.348
-244.976	-200.000	0.025	-0.330
-243.961	-1.810	-0.387	0.270
-242.946	-200.000	0.009	-0.282
-241.932	-149.041	0.213	0.017
-240.917	800.000	0.050	0.175
-239.903	139.550	0.215	0.281
-238.888	-80.160	-0.244	-0.081
-237.873	5.855	0.040	-0.029
-236.859	192.408	-0.066	-0.098
-235.844	-12.382	0.290	-0.188
-234.830	299.945	0.082	-0.150
-233.815	-200.000	-0.009	-0.086
-232.800	-55.781	-0.042	0.018
-231.786	-106.607	-0.209	-0.046
-230.771	645.927	-0.006	0.016
-229.757	800.000	0.095	-0.319
-228.742	-200.000	-0.034	0.246
-227.727	-200.000	0.060	0.375
-226.713	-43.975	0.205	-0.102
-225.698	-195.500	0.114	-0.001
-224.684	235.836	-0.146	-0.239
-223.669	-26.217	-0.242	0.141
-222.655	-69.714	0.201	0.076
-221.640	-200.000	-0.018	-0.239
-220.625	686.770	0.026	-0.067
-219.611	65.144	-0.311	-0.312
-218.596	211.566	0.033	0.051
-217.582	-131.028	-0.109	-0.014
-216.567	291.168	0.108	0.194
-215.552	-66.297	-0.094	-0.037
-214.538	-107.134	0.477	0.104
-213.523	212.469	-0.284	0.444
-212.509	-109.606	-0.136	-0.028
-211.494	-200.000	0.018	0.268
-210.479	-200.000	0.023	0.327
-209.465	-200.000	-0.040	0.247
-208.450	609.868	0.098	0.243
-207.436	-112.112	0.223	-0.044
-206.421	41.707	0.222	0.199
-205.406	-24.318	0.095	0.056
-204.392	-85.026	0.163	-0.051
-203.377	800.000	-0.029	-0.100
-202.363	-136.616	-0.097	0.011
-201.348	-44.266	0.398	0.198
-200.333	-190.755	0.105	-0.001
-199.319	-200.000	-0.010	-0.112
-198.304	-200.000	-0.041	0.229
-197.290	-200.000	0.029	-0.151
-196.275	-122.805	-0.269	-0.043
-195.260	-200.000	0.016	0.254
-194.246	-145.822	-0.232	0.020
-193.231	592.273	-0.111	-0.272
-192.217	-119.320	-0.078	-0.013
-191.202	300.181	0.096	-0.175
-190.187	-193.756	-0.168	-0.001
-189.173	28.971	0.123	-0.103
-188.158	26.846	0.065	-0.054
-187.144	8.217	0.169	0.126
-186.129	108.476	-0.179	-0.211
-185.114	-200.000	0.011	-0.325
-184.100	800.000	0.076	0.286
-183.085	287.159	-0.244	0.435
-182.071	107.875	0.208	0.245
-181.056	-164.183	0.236	0.011
-180.042	-82.551	-0.342	0.110
-179.027	604.923	0.086	-0.212
-178.012	-69.594	-0.253	0.096
-176.998	0.174	0.200	-0.141
-175.983	286.591	0.071	-0.127
-174.969	-52.198	0.091	0.042
-173.954	-138.899	0.099	-0.011
-172.939	7.953	-0.175	-0.130
-171.925	224.386	0.159	0.254
-170.910	298.836	-0.136	0.247
-169.896	243.032	-0.208	-0.344
-168.881	-131.080	-0.099	-0.013
-167.866	701.815	0.150	0.392
-166.852	800.000	-0.024	0.075
-165.837	100.481	-0.016	0.019
-164.823	10.522	0.401	0.302
-163.808	-133.280	0.119	0.015
-162.793	217.610	0.060	0.094
-161.779	-92.676	0.224	-0.062
-160.764	172.138	-0.084	-0.119
-159.750	44.820	0.118	-0.107
-158.735	800.000	-0.022	-0.094
-157.720	22.504	0.159	0.129
-156.706	-200.000	-0.281	-0.001
-155.691	-183.190	-0.320	0.006
-154.677	-200.000	-0.017	-0.363
-153.662	146.958	-0.191	0.253
-152.647	-25.347	0.134	0.078
-151.633	-135.097	0.174	0.021
-150.618	-71.555	-0.391	0.145
-149.604	-24.784	0.344	-0.202
-148.589	241.636	0.072	0.120
-147.574	-19.580	0.091	0.056
-146.560	-164.973	0.288	0.013
-145.545	-79.727	0.234	-0.078
-144.531	-200.000	0.005	0.123
-143.516	8.270	-0.130	0.097
-142.502	-164.389	0.061	0.003
-141.487	-62.269	-0.048	0.020
-140.472	277.262	0.150	-0.263
-139.458	-200.000	-0.006	0.256
-138.443	165.942	0.076	-0.106
-137.429	143.752	-0.164	0.216
-136.414	-200.000	0.005	-0.124
-135.399	-122.146	0.072	0.012
-134.385	2.984	-0.170	-0.122
-133.370	-200.000	-0.014	-0.358
-132.356	584.019	0.205	-0.498
-131.341	-38.566	0.320	0.167
-130.326	-16.620	-0.133	-0.083
-129.312	-71.794	-0.293	-0.108
-128.297	-115.618	0.064	0.012
-127.283	800.000	0.051	0.216
-126.268	-59.071	0.203	0.086
-125.253	40.800	-0.319	-0.284
-124.239	693.172	-0.053	0.138
-123.224	376.431	-0.250	0.504
-122.210	-88.594	-0.116	0.034
-121.195	-200.000	-0.000	-0.135
