DTS Sentinel unit serial number:	SN413079Multiplexer serial number:	ORYXHardware model number:	OX4-SRSoftware version number:	ORYX F/W v4.00 Oryx Data Collector v3.7.2.0data status	okinstallation	princeton_trtdifferential loss correction	single-endedforward channel	channel 1reverse channel	N/Adate	2019/09/16time	12:14:35forward acquisition time	60.00reverse acquisition time	0.00gamma	496.2192k internal	0.2296k external	0.2296temperature offset calibration	0.9960default loss term (dB/km)	0.3790temperature slope calibration	1.0000multiplexer offset coefficient	1.0000multiplexer slope coefficient	1.0000fibre end	0.00T internal ref (°C)	39.12T ext. ref 1 (°C)	13.26T ext. ref 2 (°C)	36.52length (m)	temperature (°C)	Stokes	anti-Stokes-747.200	83.480	0.202	0.225
-746.185	-200.000	-0.126	0.582
-745.171	16.810	0.083	-0.067
-744.156	15.593	0.144	0.116
-743.142	508.258	-0.049	-0.116
-742.127	-51.251	-0.201	0.096
-741.112	-154.131	0.399	0.028
-740.098	2.037	0.131	0.097
-739.083	276.633	-0.146	-0.265
-738.069	67.689	0.182	0.190
-737.054	-77.618	-0.147	0.052
-736.039	-200.000	-0.009	0.173
-735.025	-200.000	-0.008	0.107
-734.010	205.858	0.045	-0.071
-732.996	708.828	-0.077	0.207
-731.981	-85.268	-0.169	0.054
-730.966	-200.000	0.035	-0.167
-729.952	-62.526	0.226	-0.096
-728.937	-26.103	-0.045	-0.027
-727.923	-200.000	-0.027	-0.143
-726.908	96.141	-0.024	-0.028
-725.894	37.288	-0.406	-0.368
-724.879	800.000	-0.067	-0.261
-723.864	203.305	0.162	0.255
-722.850	800.000	0.085	0.315
-721.835	800.000	-0.074	0.241
-720.821	252.652	0.145	0.253
-719.806	-129.992	-0.376	-0.053
-718.791	-139.246	-0.325	0.036
-717.777	180.930	0.120	-0.179
-716.762	800.000	-0.087	-0.374
-715.748	65.638	-0.218	-0.226
-714.733	107.988	0.184	-0.223
-713.718	216.628	-0.079	-0.128
-712.704	83.507	-0.077	-0.086
-711.689	800.000	0.029	0.095
-710.675	-4.564	-0.202	0.142
-709.660	111.929	0.243	0.300
-708.645	-42.251	0.237	0.123
-707.631	8.905	0.136	-0.104
-706.616	-80.085	0.225	0.077
-705.602	165.436	-0.153	0.220
-704.587	-139.388	-0.241	-0.026
-703.572	749.315	0.031	-0.084
-702.558	65.179	-0.007	-0.007
-701.543	-82.044	-0.025	0.008
-700.529	-97.438	-0.200	0.053
-699.514	800.000	0.039	0.113
-698.499	245.216	-0.078	-0.134
-697.485	-36.762	-0.194	-0.106
-696.470	-65.650	-0.161	0.066
-695.456	-51.542	-0.057	-0.027
-694.441	88.075	-0.034	-0.039
-693.426	415.178	0.061	-0.131
-692.412	-49.913	-0.044	0.021
-691.397	-200.000	0.072	-0.383
-690.383	-188.817	-0.275	0.003
-689.368	289.215	0.092	0.171
-688.354	-200.000	0.018	0.087
-687.339	800.000	-0.059	-0.225
-686.324	-200.000	-0.006	-0.396
-685.310	32.292	-0.174	0.153
-684.295	800.000	-0.076	-0.277
-683.281	-19.255	0.172	-0.109
-682.266	-95.481	-0.170	-0.046
-681.251	155.728	0.089	-0.125
-680.237	57.753	0.293	-0.292
-679.222	127.577	-0.267	0.346
-678.208	-200.000	0.065	0.429
-677.193	113.354	0.026	-0.032
-676.178	-96.701	-0.164	0.044
-675.164	82.701	0.174	-0.192
-674.149	-45.259	-0.319	-0.161
-673.135	353.554	-0.115	-0.233
-672.120	-98.683	0.117	-0.030
-671.105	-9.657	0.178	0.121
-670.091	28.047	0.271	-0.232
-669.076	-200.000	-0.013	0.163
-668.062	-200.000	-0.047	0.264
-667.047	32.899	0.096	0.085
-666.032	-105.825	0.117	0.027
-665.018	800.000	0.075	0.226
-664.003	32.379	0.040	-0.035
-662.989	78.552	0.172	0.187
-661.974	215.827	-0.053	-0.085
-660.959	155.258	0.080	-0.113
-659.945	16.290	-0.305	0.245
-658.930	155.071	-0.079	-0.111
-657.916	622.471	-0.162	-0.414
-656.901	241.631	0.107	-0.182
-655.886	-38.186	-0.053	-0.029
-654.872	65.728	0.087	-0.089
-653.857	521.941	-0.015	-0.036
-652.843	-124.191	0.230	0.037
-651.828	-143.567	-0.089	-0.009
-650.814	25.329	0.126	0.106
-649.799	136.217	0.086	0.113
-648.784	-74.336	0.182	-0.067
-647.770	481.564	-0.078	-0.180
-646.755	-74.350	-0.077	0.028
-645.741	-138.001	-0.476	0.054
-644.726	-86.985	0.265	-0.082
-643.711	-115.682	-0.141	0.027
-642.697	800.000	-0.069	-0.302
-641.682	-128.939	-0.295	0.042
-640.668	-97.737	-0.101	-0.027
-639.653	158.700	0.073	0.103
-638.638	223.823	-0.172	0.282
-637.624	800.000	0.059	-0.218
-636.609	328.130	0.140	-0.274
-635.595	800.000	-0.036	-0.146
-634.580	-81.182	-0.123	0.041
-633.565	400.601	0.155	-0.331
-632.551	105.818	-0.164	0.197
-631.536	114.271	0.207	0.256
-630.522	19.424	-0.279	0.228
-629.507	-200.000	0.025	-0.204
-628.492	160.746	-0.091	0.129
-627.478	-109.235	-0.104	0.022
-626.463	206.474	0.099	-0.156
-625.449	-152.579	0.129	-0.009
-624.434	-121.038	0.274	-0.047
-623.419	-132.668	0.139	-0.018
-622.405	-200.000	-0.009	-0.081
-621.390	-200.000	0.199	0.000
-620.376	583.297	-0.049	0.121
-619.361	-200.000	0.401	-0.002
-618.346	-25.628	-0.193	-0.116
-617.332	154.171	-0.201	0.280
-616.317	-84.069	0.013	-0.004
-615.303	-200.000	0.003	-0.252
-614.288	-200.000	-0.047	0.232
-613.273	800.000	0.089	-0.319
-612.259	-43.743	0.255	0.130
-611.244	-87.888	0.214	0.066
-610.230	576.854	0.097	-0.240
-609.215	-87.198	0.318	0.098
-608.201	69.913	0.106	-0.111
-607.186	-17.140	0.238	-0.153
-606.171	-112.344	0.198	-0.040
-605.157	141.351	0.109	0.146
-604.142	-34.499	0.141	0.078
-603.128	-8.962	-0.158	-0.107
-602.113	-133.173	-0.196	-0.025
-601.098	800.000	0.039	0.143
-600.084	303.699	-0.043	-0.080
-599.069	26.401	-0.142	0.121
-598.055	227.964	-0.019	0.032
-597.040	-108.590	-0.405	-0.088
-596.025	24.800	-0.144	-0.121
-595.011	-128.566	-0.336	0.048
-593.996	-119.119	0.022	0.004
-592.982	-200.000	-0.022	-0.180
-591.967	125.152	0.036	0.047
-590.952	92.572	-0.150	0.172
-589.938	0.147	-0.125	-0.091
-588.923	-28.461	-0.069	-0.040
-587.909	164.084	-0.060	-0.086
-586.894	-54.005	0.136	0.063
-585.879	-200.000	-0.027	0.417
-584.865	-122.823	0.058	0.009
-583.850	-200.000	0.016	-0.159
-582.836	-200.000	-0.068	-0.391
-581.821	-2.657	-0.243	-0.172
-580.806	198.569	-0.034	-0.053
-579.792	-200.000	-0.018	-0.120
-578.777	-75.068	-0.161	-0.059
-577.763	-63.798	-0.078	0.032
-576.748	221.816	0.113	-0.184
-575.733	-75.884	-0.243	-0.087
-574.719	-172.980	-0.151	-0.005
-573.704	86.464	0.293	0.328
-572.690	124.944	0.065	-0.083
-571.675	311.208	0.107	-0.203
-570.661	800.000	-0.047	-0.180
-569.646	-15.171	-0.231	-0.150
-568.631	-200.000	-0.012	0.417
-567.617	-1.036	0.102	0.073
-566.602	125.373	0.155	0.198
-565.588	22.856	0.234	-0.194
-564.573	226.414	-0.393	-0.647
-563.558	-7.530	0.116	0.079
-562.544	-180.827	-0.274	-0.006
-561.529	20.053	-0.254	0.208
-560.515	-165.255	-0.388	-0.017
-559.500	-46.467	0.421	-0.210
-558.485	-200.000	0.017	-0.252
-557.471	-123.549	-0.245	-0.040
-556.456	117.706	-0.038	-0.048
-555.442	-68.371	-0.188	0.074
-554.427	163.289	0.090	0.128
-553.412	126.746	-0.131	0.168
-552.398	119.229	0.081	-0.101
-551.383	-200.000	-0.045	-0.248
-550.369	-142.164	0.093	-0.009
-549.354	-71.376	-0.174	-0.066
-548.339	-101.920	-0.187	-0.046
-547.325	62.210	0.211	-0.214
-546.310	-200.000	-0.004	0.058
-545.296	-200.000	0.005	0.145
-544.281	59.818	-0.322	0.322
-543.266	-135.919	-0.070	-0.008
-542.252	-158.724	0.064	0.004
-541.237	129.578	-0.185	0.239
-540.223	38.044	-0.106	0.096
-539.208	-125.433	-0.248	0.038
-538.193	-129.347	0.176	-0.025
-537.179	618.814	0.103	0.262
-536.164	38.124	0.245	0.221
-535.150	-200.000	-0.056	-0.330
-534.135	50.824	0.134	-0.129
-533.121	124.028	0.073	0.093
-532.106	120.839	-0.061	-0.077
-531.091	474.055	0.062	-0.142
-530.077	-86.907	0.158	0.049
-529.062	261.516	0.029	0.050
-528.048	23.398	0.334	0.278
-527.033	-37.686	0.079	0.043
-526.018	524.032	0.038	-0.092
-525.004	37.309	0.180	-0.162
-523.989	89.769	-0.107	-0.121
-522.975	10.175	-0.064	-0.049
-521.960	-13.867	-0.304	-0.199
-520.945	391.057	-0.101	0.212
-519.931	-115.424	-0.207	0.039
-518.916	-93.025	-0.126	-0.036
-517.902	800.000	-0.105	-0.319
-516.887	-45.369	-0.056	-0.028
-515.872	-81.606	-0.314	-0.104
-514.858	800.000	0.060	0.234
-513.843	800.000	-0.032	-0.136
-512.829	-144.378	-0.188	-0.018
-511.814	214.176	-0.100	0.161
-510.799	-164.370	0.114	0.005
-509.785	-200.000	-0.016	-0.111
-508.770	601.212	0.184	-0.461
-507.756	800.000	0.071	-0.212
-506.741	-2.864	-0.164	0.116
-505.726	522.175	0.082	-0.196
-504.712	-200.000	-0.011	-0.201
-503.697	-117.994	0.272	0.049
-502.683	-36.090	-0.172	0.094
-501.668	-105.446	-0.068	0.016
-500.653	22.719	-0.208	-0.172
-499.639	729.830	0.116	0.314
-498.624	-200.000	-0.321	0.000
-497.610	-200.000	0.048	-0.258
-496.595	800.000	0.098	0.301
-495.581	45.553	0.311	0.290
-494.566	-200.000	0.020	-0.127
-493.551	67.278	-0.123	0.127
-492.537	800.000	0.103	0.384
-491.522	649.497	0.088	0.229
-490.508	256.104	0.050	0.086
-489.493	-145.135	-0.276	0.025
-488.478	-116.280	-0.422	-0.079
-487.464	-20.003	-0.260	-0.162
-486.449	-119.931	-0.181	-0.032
-485.435	387.066	0.269	0.563
-484.420	-200.000	0.046	0.273
-483.405	259.904	0.191	0.334
-482.391	-200.000	-0.021	0.152
-481.376	48.179	0.116	-0.110
-480.362	183.915	0.144	0.215
-479.347	-200.000	0.018	0.110
-478.332	-104.797	0.115	-0.027
-477.318	32.092	0.255	0.222
-476.303	-164.806	-0.174	-0.008
-475.289	-200.000	0.004	0.079
-474.274	-35.249	-0.340	-0.187
-473.259	800.000	-0.042	-0.127
-472.245	274.546	0.032	-0.058
-471.230	355.279	0.084	0.168
-470.216	-53.895	-0.080	-0.037
-469.201	-200.000	0.011	0.183
-468.186	-13.706	-0.117	-0.076
-467.172	-135.712	-0.494	-0.059
-466.157	133.145	0.155	0.202
-465.143	-200.000	0.000	-0.074
-464.128	159.407	-0.110	-0.154
-463.113	118.695	-0.046	-0.057
-462.099	71.578	-0.145	-0.152
-461.084	298.040	0.032	0.060
-460.070	-48.325	-0.164	0.080
-459.055	-67.583	0.291	-0.115
-458.040	-170.200	0.367	-0.013
-457.026	-70.069	0.023	0.009
-456.011	-139.814	0.371	0.040
-454.997	736.709	-0.067	0.182
-453.982	18.693	0.186	-0.150
-452.968	-169.341	0.204	-0.008
-451.953	11.199	-0.150	0.116
-450.938	-142.175	0.071	0.007
-449.924	800.000	0.069	0.212
-448.909	185.805	-0.122	0.184
-447.895	-200.000	0.051	0.348
-446.880	228.633	0.184	-0.303
-445.865	46.800	0.124	-0.116
-444.851	-200.000	0.066	0.362
-443.836	17.031	-0.015	0.012
-442.822	8.976	-0.308	0.235
-441.807	587.668	-0.020	0.049
-440.792	168.079	0.161	-0.231
-439.778	-200.000	-0.033	-0.275
-438.763	-50.292	0.164	-0.078
-437.749	800.000	-0.082	0.350
-436.734	-7.863	0.219	-0.150
-435.719	800.000	0.038	0.152
-434.705	461.190	-0.198	-0.446
-433.690	273.476	-0.072	0.129
-432.676	-101.927	-0.086	0.021
-431.661	800.000	0.075	-0.224
-430.646	-111.713	0.281	-0.057
-429.632	-73.208	0.285	-0.105
-428.617	-129.815	0.201	-0.028
-427.603	-200.000	-0.001	0.016
-426.588	113.002	-0.332	0.406
-425.573	23.656	0.159	0.132
-424.559	-142.394	0.087	-0.009
-423.544	-49.620	-0.169	-0.081
-422.530	167.514	0.091	0.130
-421.515	32.042	-0.216	-0.188
-420.500	-200.000	-0.030	0.240
-419.486	-200.000	0.060	-0.434
-418.471	134.495	-0.121	-0.158
-417.457	-200.000	0.101	-0.466
-416.442	210.809	0.111	-0.176
-415.428	-104.689	-0.326	0.076
-414.413	199.466	-0.196	0.302
-413.398	31.609	-0.101	-0.088
-412.384	-53.536	-0.298	0.138
-411.369	-154.213	0.422	0.029
-410.355	-29.778	-0.368	-0.212
-409.340	-77.078	-0.132	0.046
-408.325	217.049	-0.016	0.025
-407.311	-54.411	0.492	0.225
-406.296	-53.332	-0.105	-0.049
-405.282	-200.000	0.000	-0.491
-404.267	110.774	0.182	0.221
-403.252	17.632	0.034	-0.027
-402.238	-31.018	-0.446	0.254
-401.223	-130.793	-0.215	0.029
-400.209	-74.277	0.312	-0.114
-399.194	65.898	-0.267	0.273
-398.179	-64.653	-0.180	-0.074
-397.165	0.337	-0.059	-0.042
-396.150	-124.625	-0.345	0.054
-395.136	-200.000	0.007	-0.102
-394.121	-151.356	-0.184	-0.014
-393.106	147.159	-0.068	-0.092
-392.092	10.139	0.282	0.216
-391.077	-200.000	0.021	0.164
-390.063	-144.821	-0.198	0.018
-389.048	135.738	0.169	-0.221
-388.033	-68.001	0.076	0.030
-387.019	800.000	0.106	0.380
-386.004	-181.790	-0.353	0.007
-384.990	-8.395	-0.245	-0.166
-383.975	-200.000	0.032	0.321
-382.960	366.452	-0.133	-0.270
-381.946	224.922	-0.041	-0.067
-380.931	-122.897	0.165	-0.027
-379.917	800.000	-0.025	-0.084
-378.902	399.573	-0.108	0.229
-377.888	-64.672	0.122	0.050
-376.873	-85.552	0.170	0.053
-375.858	800.000	-0.065	-0.235
-374.844	-200.000	0.065	-0.288
-373.829	-20.445	-0.245	0.152
-372.815	-130.887	0.023	0.003
-371.800	-134.810	0.273	0.033
-370.785	-200.000	-0.005	-0.058
-369.771	64.979	0.235	-0.239
-368.756	-200.000	0.005	-0.047
-367.742	-200.000	0.041	-0.299
-366.727	12.820	-0.042	-0.033
-365.712	-123.780	-0.238	-0.038
-364.698	-200.000	0.033	0.236
-363.683	192.277	-0.110	-0.167
-362.669	-12.250	-0.177	-0.117
-361.654	-80.074	0.149	-0.050
-360.639	800.000	0.107	0.313
-359.625	721.558	-0.026	-0.071
-358.610	-75.903	-0.338	0.120
-357.596	122.615	-0.090	-0.113
-356.581	-65.895	-0.245	-0.099
-355.566	800.000	0.036	0.150
-354.552	7.884	0.174	0.131
-353.537	77.669	-0.051	0.054
-352.523	189.860	-0.127	0.192
-351.508	-113.909	-0.055	0.011
-350.493	51.112	-0.137	0.131
-349.479	396.092	0.022	-0.047
-348.464	-47.415	0.194	-0.095
-347.450	30.495	-0.122	0.105
-346.435	-135.049	-0.331	0.040
-345.420	800.000	0.068	-0.228
-344.406	52.025	-0.118	0.113
-343.391	-200.000	0.026	0.115
-342.377	72.488	-0.215	-0.225
-341.362	-178.059	0.075	-0.002
-340.348	800.000	0.142	0.420
-339.333	800.000	-0.032	-0.115
-338.318	-118.201	0.226	-0.041
-337.304	329.378	0.071	-0.138
-336.289	229.195	-0.235	-0.385
-335.275	-129.805	0.377	0.052
-334.260	107.098	0.282	0.337
-333.245	-158.312	-0.165	-0.010
-332.231	-68.711	0.272	-0.106
-331.216	-109.285	0.141	-0.030
-330.202	246.669	0.262	-0.445
-329.187	-200.000	-0.002	-0.190
-328.172	23.548	0.198	-0.164
-327.158	-130.157	0.353	-0.048
-326.143	-56.798	-0.254	0.113
-325.129	-33.187	-0.173	-0.096
-324.114	-13.163	-0.230	-0.150
-323.099	7.538	0.222	0.167
-322.085	47.578	-0.121	0.114
-321.070	-89.203	-0.111	0.033
-320.056	100.056	0.104	-0.121
-319.041	12.002	0.144	-0.111
-318.026	49.926	-0.209	-0.198
-317.012	-200.000	-0.002	-0.432
-315.997	-113.620	0.117	0.023
-314.983	-49.427	-0.136	-0.065
-313.968	23.656	-0.090	-0.074
-312.953	114.232	0.172	0.211
-311.939	156.093	0.258	0.358
-310.924	-72.799	0.390	0.144
-309.910	-50.274	0.110	-0.052
-308.895	-200.000	-0.033	0.384
-307.880	-26.687	0.125	-0.073
-306.866	-89.491	-0.423	0.125
-305.851	-200.000	-0.060	-0.371
-304.837	245.433	-0.136	-0.231
-303.822	-35.562	0.306	-0.167
-302.807	-200.000	0.033	-0.261
-301.793	211.743	0.268	0.424
-300.778	39.089	-0.073	-0.066
-299.764	-200.000	0.023	-0.126
-298.749	311.540	0.230	0.433
-297.735	13.494	-0.120	0.093
-296.720	660.191	-0.085	-0.220
-295.705	6.424	-0.146	-0.108
-294.691	218.723	-0.194	-0.311
-293.676	5.540	-0.160	-0.118
-292.662	33.374	0.148	0.129
-291.647	-154.257	0.337	0.023
-290.632	-94.839	0.282	-0.077
-289.618	123.297	-0.083	-0.104
-288.603	271.657	0.035	-0.062
-287.589	800.000	-0.019	0.053
-286.574	-28.441	-0.145	-0.084
-285.559	131.997	-0.167	0.216
-284.545	170.311	0.127	0.182
-283.530	635.549	0.060	0.152
-282.516	-200.000	0.055	0.397
-281.501	131.124	0.100	-0.128
-280.486	-64.936	-0.183	0.074
-279.472	230.666	-0.109	0.179
-278.457	31.446	0.119	-0.102
-277.443	-200.000	-0.011	0.276
-276.428	332.844	0.084	0.162
-275.413	800.000	-0.011	-0.034
-274.399	-95.069	0.260	-0.070
-273.384	-116.794	0.359	0.066
-272.370	-125.105	0.266	0.041
-271.355	416.753	0.012	0.026
-270.340	84.044	-0.082	-0.089
-269.326	-200.000	0.054	0.000
-268.311	-148.835	-0.468	-0.038
-267.297	-64.797	-0.100	0.041
-266.282	500.679	-0.085	0.196
-265.267	262.381	0.050	0.086
-264.253	800.000	-0.073	-0.239
-263.238	-200.000	0.058	0.303
-262.224	173.601	-0.087	0.126
-261.209	800.000	-0.042	0.120
-260.195	21.281	0.104	-0.085
-259.180	-104.465	0.451	-0.105
-258.165	800.000	0.054	-0.232
-257.151	800.000	-0.003	-0.010
-256.136	54.671	-0.255	-0.247
-255.122	800.000	-0.040	0.175
-254.107	-54.648	0.145	0.066
-253.092	-27.910	0.134	0.078
-252.078	480.562	-0.218	0.496
-251.063	-107.363	-0.224	-0.049
-250.049	6.584	0.356	0.265
-249.034	-50.746	0.062	0.029
-248.019	-74.338	-0.166	0.060
-247.005	505.476	0.088	-0.204
-245.990	354.723	0.071	-0.141
-244.976	121.257	0.050	0.063
-243.961	-150.754	0.232	-0.018
-242.946	151.258	0.105	0.143
-241.932	169.929	-0.151	-0.216
-240.917	-200.000	-0.027	0.168
-239.903	800.000	-0.017	0.062
-238.888	800.000	-0.048	-0.183
-237.873	41.825	0.167	0.152
-236.859	209.144	-0.020	0.031
-235.844	-97.803	-0.250	-0.065
-234.830	-200.000	0.036	0.234
-233.815	33.670	0.294	-0.256
-232.800	-200.000	0.028	0.214
-231.786	-134.732	0.132	0.016
-230.771	797.331	-0.171	-0.473
-229.757	567.802	0.067	0.162
-228.742	-151.246	0.233	0.017
-227.727	252.047	-0.084	-0.143
-226.713	443.782	-0.048	-0.106
-225.698	800.000	-0.065	-0.260
-224.684	157.442	0.080	-0.111
-223.669	-14.192	0.231	0.149
-222.655	-159.660	0.401	0.022
-221.640	-2.089	-0.109	0.076
-220.625	800.000	-0.045	0.193
-219.611	-112.856	-0.327	0.065
-218.596	196.251	-0.095	0.144
-217.582	-34.420	0.138	0.076
-216.567	6.876	0.051	0.038
-215.552	-177.216	-0.328	0.008
-214.538	647.124	-0.022	-0.055
-213.523	299.968	-0.134	0.246
-212.509	800.000	-0.065	0.215
-211.494	778.883	0.049	-0.134
-210.479	58.404	-0.139	0.136
-209.465	172.243	-0.077	0.111
-208.450	-15.636	-0.111	-0.071
-207.436	-61.476	-0.155	-0.065
-206.421	306.674	0.065	0.121
-205.406	-59.472	0.154	-0.066
-204.392	499.130	0.068	0.158
-203.377	19.323	0.108	0.087
-202.363	-149.262	0.048	0.004
-201.348	-122.463	-0.301	-0.049
-200.333	5.216	0.276	-0.204
-199.319	-200.000	0.017	-0.111
-198.304	-2.686	-0.122	-0.085
-197.290	-97.712	0.366	-0.095
-196.275	-200.000	-0.014	-0.342
-195.260	89.956	0.186	0.207
-194.246	44.169	-0.117	0.107
-193.231	221.803	-0.146	0.235
-192.217	506.337	0.054	0.125
-191.202	-82.919	-0.463	-0.149
-190.187	-108.294	-0.233	0.050
-189.173	-15.440	-0.120	-0.077
-188.158	-200.000	-0.005	-0.026
-187.144	-200.000	-0.001	-0.169
-186.129	800.000	0.093	-0.295
-185.114	-18.596	-0.227	-0.141
-184.100	-97.564	0.210	-0.054
-183.085	-64.177	0.356	0.145
-182.071	369.009	0.131	-0.265
-181.056	263.055	-0.081	-0.141
-180.042	541.609	-0.054	0.129
-179.027	-104.162	0.393	0.091
-178.012	-138.744	0.409	0.045
-176.998	32.654	0.162	0.140
-175.983	117.114	0.208	0.255
-174.969	270.653	-0.016	-0.028
-173.954	800.000	0.022	0.075
-172.939	-122.951	0.163	0.026
-171.925	81.953	0.147	-0.159
-170.910	-64.521	-0.151	0.061
-169.896	11.504	-0.043	-0.033
-168.881	268.709	0.063	0.111
-167.866	-44.139	-0.070	0.035
-166.852	-46.777	0.347	0.170
-165.837	-54.725	0.303	0.137
-164.823	-67.113	-0.080	-0.031
-163.808	-200.000	-0.026	-0.190
-162.793	-29.964	0.469	-0.267
-161.779	-51.760	-0.208	0.097
-160.764	150.426	0.154	0.208
-159.750	-56.150	-0.160	0.071
-158.735	-200.000	0.068	-0.338
-157.720	-200.000	-0.001	-0.084
-156.706	-200.000	0.027	0.165
-155.691	-45.980	-0.264	-0.130
-154.677	61.700	-0.229	0.227
-153.662	-200.000	0.018	-0.090
-152.647	-11.341	0.136	0.089
-151.633	-131.310	-0.295	-0.039
-150.618	312.769	-0.049	0.091
-149.604	-129.287	-0.198	0.028
-148.589	30.550	-0.082	0.070
-147.574	-156.565	0.432	0.027
-146.560	-114.958	-0.397	0.075
-145.545	800.000	0.122	0.368
-144.531	241.425	0.105	0.174
-143.516	17.334	0.205	-0.163
-142.502	366.501	0.035	-0.071
-141.487	-200.000	0.040	0.269
-140.472	-150.068	0.323	0.025
-139.458	800.000	-0.036	0.135
-138.443	-31.050	-0.248	-0.140
-137.429	133.754	-0.094	0.121
-136.414	-200.000	-0.068	0.562
-135.399	-200.000	0.008	0.401
-134.385	-124.196	-0.292	0.046
-133.370	775.378	0.040	-0.109
-132.356	34.630	0.111	0.097
-131.341	-13.562	-0.099	0.064
-130.326	-42.939	-0.101	0.051
-129.312	-99.036	0.260	0.066
-128.297	-200.000	0.026	-0.484
-127.283	-200.000	-0.026	-0.231
-126.268	207.738	0.157	0.244
-125.253	-62.045	0.299	-0.125
-124.239	319.297	0.080	0.151
-123.224	124.975	-0.044	-0.056
-122.210	-41.816	-0.126	-0.065
-121.195	-17.253	-0.072	0.045
