DTS Sentinel unit serial number:	SN413079Multiplexer serial number:	ORYXHardware model number:	OX4-SRSoftware version number:	ORYX F/W v4.00 Oryx Data Collector v3.7.2.0data status	okinstallation	princeton_trtdifferential loss correction	single-endedforward channel	channel 1reverse channel	N/Adate	2019/09/13time	08:38:35forward acquisition time	60.00reverse acquisition time	0.00gamma	496.2192k internal	0.2328k external	0.2328temperature offset calibration	1.0163default loss term (dB/km)	0.3790temperature slope calibration	1.0000multiplexer offset coefficient	1.0000multiplexer slope coefficient	1.0000fibre end	0.00T internal ref (°C)	27.72T ext. ref 1 (°C)	4.28T ext. ref 2 (°C)	24.69length (m)	temperature (°C)	Stokes	anti-Stokes-747.200	-200.000	0.025	-0.136
-746.185	-200.000	0.005	0.159
-745.171	-90.719	0.197	-0.057
-744.156	370.160	-0.052	0.106
-743.142	800.000	-0.014	0.049
-742.127	-0.227	0.164	0.118
-741.112	144.545	0.052	0.071
-740.098	-163.651	-0.094	-0.004
-739.083	-93.880	-0.178	-0.049
-738.069	74.120	-0.046	0.048
-737.054	410.331	-0.097	-0.207
-736.039	-8.852	-0.135	-0.091
-735.025	-200.000	0.022	0.449
-734.010	77.107	-0.046	0.049
-732.996	800.000	-0.028	0.097
-731.981	-200.000	0.008	0.258
-730.966	800.000	0.133	0.401
-729.952	-5.272	-0.060	0.042
-728.937	-77.310	0.130	-0.045
-727.923	-200.000	0.013	-0.387
-726.908	-57.269	0.075	0.033
-725.894	65.810	0.256	-0.261
-724.879	-100.594	0.093	0.023
-723.864	-99.507	-0.237	-0.060
-722.850	-200.000	-0.142	0.001
-721.835	305.695	0.171	0.320
-720.821	182.593	-0.072	0.106
-719.806	-52.927	0.297	-0.138
-718.791	-90.220	0.152	0.044
-717.777	222.524	0.021	0.034
-716.762	45.696	-0.085	0.079
-715.748	-93.567	0.185	-0.052
-714.733	101.878	-0.209	-0.246
-713.718	800.000	-0.093	-0.369
-712.704	-200.000	-0.002	-0.183
-711.689	-36.811	0.214	-0.115
-710.675	24.835	0.091	0.076
-709.660	244.056	-0.067	-0.114
-708.645	-119.673	0.567	-0.099
-707.631	327.376	-0.076	-0.147
-706.616	-105.045	-0.169	-0.039
-705.602	32.381	-0.065	0.056
-704.587	53.494	-0.186	0.180
-703.572	-116.166	-0.088	0.016
-702.558	195.743	0.090	0.137
-701.543	-102.001	0.274	-0.067
-700.529	-154.817	-0.050	-0.003
-699.514	-91.900	-0.090	-0.026
-698.499	-90.255	-0.201	0.059
-697.485	-83.456	-0.038	-0.012
-696.470	261.162	-0.232	0.405
-695.456	100.797	0.136	-0.159
-694.441	58.457	-0.046	-0.046
-693.426	-53.092	0.230	-0.106
-692.412	79.484	-0.068	0.073
-691.397	239.723	0.087	0.146
-690.383	-157.811	0.175	-0.010
-689.368	-96.485	-0.336	-0.089
-688.354	800.000	0.020	-0.061
-687.339	-200.000	-0.034	-0.299
-686.324	366.748	-0.106	-0.215
-685.310	-36.668	0.211	-0.114
-684.295	-200.000	0.010	-0.167
-683.281	-54.754	0.083	0.038
-682.266	-132.272	0.202	0.026
-681.251	184.719	-0.194	-0.289
-680.237	134.267	0.134	0.175
-679.222	486.212	-0.053	-0.123
-678.208	-3.073	0.217	-0.152
-677.193	71.807	0.027	0.028
-676.178	-200.000	0.029	-0.173
-675.164	62.780	0.155	-0.156
-674.149	266.772	0.092	0.161
-673.135	-15.329	-0.133	0.085
-672.120	-54.309	0.038	0.017
-671.105	-63.397	0.117	-0.048
-670.091	-0.893	-0.206	0.147
-669.076	215.999	-0.087	0.139
-668.062	-79.973	0.214	0.072
-667.047	257.310	0.081	-0.140
-666.032	781.432	0.093	-0.255
-665.018	417.290	0.020	-0.043
-664.003	-200.000	-0.009	-0.095
-662.989	-106.113	0.107	-0.024
-661.974	89.873	0.176	0.197
-660.959	-64.589	-0.155	-0.063
-659.945	514.069	0.155	-0.364
-658.930	4.375	-0.280	-0.206
-657.916	800.000	0.053	0.154
-656.901	-16.572	-0.115	-0.073
-655.886	-7.997	0.070	0.048
-654.872	161.565	0.177	0.249
-653.857	800.000	-0.048	-0.194
-652.843	-20.344	0.036	-0.022
-651.828	-97.239	0.461	0.121
-650.814	179.547	0.052	-0.076
-649.799	-200.000	0.047	0.324
-648.784	-98.811	-0.305	0.078
-647.770	-94.041	0.127	-0.035
-646.755	800.000	0.134	-0.429
-645.741	-200.000	0.017	-0.139
-644.726	114.947	0.190	0.232
-643.711	-115.062	0.195	-0.037
-642.697	60.359	-0.073	0.072
-641.682	150.850	-0.270	-0.369
-640.668	800.000	0.016	-0.057
-639.653	-200.000	-0.018	-0.417
-638.638	-170.176	0.146	0.005
-637.624	291.651	0.049	0.089
-636.609	-200.000	0.066	0.298
-635.595	584.508	-0.023	0.057
-634.580	160.279	-0.039	0.054
-633.565	-44.368	-0.224	-0.113
-632.551	142.387	0.112	0.150
-631.536	-200.000	0.012	0.075
-630.522	26.754	0.190	0.159
-629.507	-175.152	-0.307	-0.009
-628.492	-56.955	0.064	-0.028
-627.478	-200.000	-0.058	0.323
-626.463	-200.000	0.080	0.387
-625.449	485.324	-0.234	0.535
-624.434	112.672	0.225	0.273
-623.419	264.803	-0.194	-0.339
-622.405	-40.718	0.180	-0.094
-621.390	91.393	-0.251	0.283
-620.376	-200.000	0.026	-0.177
-619.361	-1.403	-0.073	0.052
-618.346	560.326	0.070	0.170
-617.332	800.000	-0.059	0.190
-616.317	-18.183	0.152	-0.096
-615.303	800.000	0.088	0.263
-614.288	800.000	0.026	-0.083
-613.273	-200.000	0.084	0.566
-612.259	-46.662	-0.404	0.199
-611.244	-14.133	0.062	0.040
-610.230	-200.000	-0.003	-0.019
-609.215	134.560	0.060	0.078
-608.201	124.311	0.102	-0.128
-607.186	74.806	0.195	0.206
-606.171	422.725	-0.049	-0.105
-605.157	108.243	-0.034	-0.041
-604.142	-3.677	0.147	0.102
-603.128	-200.000	-0.040	-0.184
-602.113	-123.481	0.256	-0.041
-601.098	265.201	0.039	0.068
-600.084	-93.130	-0.041	-0.011
-599.069	-36.280	-0.122	-0.066
-598.055	135.996	0.093	-0.121
-597.040	-110.588	0.076	-0.016
-596.025	32.092	0.236	-0.204
-595.011	-200.000	-0.009	-0.133
-593.996	489.384	0.083	0.189
-592.982	800.000	-0.009	0.036
-591.967	118.600	-0.048	-0.059
-590.952	31.571	0.231	-0.199
-589.938	165.703	0.157	-0.222
-588.923	-20.798	0.472	-0.290
-587.909	46.055	-0.159	-0.147
-586.894	-120.853	0.327	-0.055
-585.879	-200.000	0.034	0.345
-584.865	-36.203	-0.297	-0.160
-583.850	-200.000	0.035	-0.208
-582.836	786.687	0.061	0.169
-581.821	-126.079	-0.397	0.060
-580.806	604.762	0.041	-0.103
-579.792	800.000	0.114	-0.442
-578.777	-114.883	0.153	0.029
-577.763	-1.826	0.449	0.316
-576.748	-20.735	0.239	-0.147
-575.733	10.382	0.355	-0.271
-574.719	461.066	0.123	-0.275
-573.704	36.994	-0.297	-0.263
-572.690	-77.501	-0.078	-0.027
-571.675	353.488	-0.134	-0.266
-570.661	359.441	0.091	0.182
-569.646	-200.000	0.027	0.170
-568.631	-200.000	-0.020	-0.307
-567.617	113.884	0.222	-0.270
-566.602	-22.021	-0.312	0.190
-565.588	-60.937	0.146	-0.062
-564.573	202.567	0.197	-0.304
-563.558	-120.755	0.144	-0.024
-562.544	-200.000	0.011	0.310
-561.529	18.573	0.148	0.119
-560.515	-200.000	-0.007	-0.041
-559.500	800.000	-0.080	0.320
-558.485	447.397	-0.049	0.108
-557.471	313.140	0.101	0.190
-556.456	-36.685	0.033	-0.018
-555.442	-68.069	-0.253	-0.098
-554.427	-200.000	-0.022	-0.297
-553.412	-200.000	-0.025	-0.299
-552.398	386.607	-0.101	0.208
-551.383	348.329	0.092	-0.181
-550.369	-63.632	0.132	-0.054
-549.354	356.325	-0.058	-0.116
-548.339	21.356	-0.280	-0.227
-547.325	-5.478	0.304	-0.208
-546.310	166.070	-0.120	0.170
-545.296	-65.312	0.152	-0.061
-544.281	223.996	0.231	0.373
-543.266	117.887	0.053	0.066
-542.252	305.349	0.071	0.132
-541.237	-163.265	-0.235	0.011
-540.223	-23.341	-0.241	0.145
-539.208	-84.315	0.065	0.021
-538.193	-40.402	-0.189	0.098
-537.179	9.398	0.165	0.125
-536.164	100.429	-0.250	0.290
-535.150	-109.593	-0.254	0.054
-534.135	106.819	0.179	0.212
-533.121	11.907	0.283	0.218
-532.106	172.208	0.041	-0.060
-531.091	99.939	0.270	0.313
-530.077	-75.859	-0.108	0.038
-529.062	-200.000	-0.041	-0.599
-528.048	-78.595	-0.102	0.035
-527.033	148.639	0.136	-0.183
-526.018	-200.000	-0.018	0.220
-525.004	-24.587	0.188	-0.112
-523.989	-16.688	0.048	-0.030
-522.975	-102.381	0.194	-0.046
-521.960	-81.529	0.089	0.029
-520.945	57.206	-0.113	0.110
-519.931	-200.000	0.025	0.138
-518.916	-13.791	0.417	-0.270
-517.902	120.261	-0.032	0.039
-516.887	140.152	-0.120	-0.158
-515.872	-45.312	-0.298	0.148
-514.858	-200.000	-0.007	0.182
-513.843	378.480	-0.029	0.059
-512.829	800.000	0.100	0.283
-511.814	-200.000	0.035	0.315
-510.799	6.747	0.022	0.016
-509.785	-87.936	0.278	-0.083
-508.770	299.847	0.123	0.227
-507.756	244.849	0.045	0.076
-506.741	-2.422	0.111	-0.078
-505.726	-14.907	0.233	-0.149
-504.712	61.957	-0.058	-0.058
-503.697	35.267	-0.060	-0.052
-502.683	-68.238	-0.577	0.224
-501.668	460.575	0.132	0.293
-500.653	-43.797	0.231	0.116
-499.639	339.053	-0.095	-0.185
-498.624	-200.000	0.020	0.160
-497.610	-35.235	0.108	0.059
-496.595	-32.577	0.100	0.055
-495.581	18.386	0.083	-0.066
-494.566	-200.000	0.026	0.142
-493.551	-34.537	-0.078	0.042
-492.537	-37.533	0.145	0.077
-491.522	-103.552	-0.089	0.021
-490.508	29.756	0.292	-0.248
-489.493	-21.084	0.168	-0.103
-488.478	-200.000	0.037	-0.291
-487.464	-30.795	0.224	0.127
-486.449	-85.625	0.143	0.044
-485.435	-200.000	-0.059	0.448
-484.420	800.000	-0.037	-0.106
-483.405	-200.000	-0.016	0.330
-482.391	-200.000	0.491	-0.000
-481.376	-200.000	-0.001	-0.089
-480.362	55.259	-0.287	-0.277
-479.347	-200.000	-0.035	-0.259
-478.332	152.210	0.028	0.038
-477.318	800.000	-0.047	0.150
-476.303	800.000	-0.074	0.206
-475.289	-200.000	0.032	-0.338
-474.274	-200.000	0.003	-0.149
-473.259	1.703	0.032	0.023
-472.245	189.537	0.166	-0.248
-471.230	287.937	-0.147	-0.266
-470.216	-101.473	0.184	0.045
-469.201	271.150	0.131	-0.229
-468.186	-126.983	0.204	0.030
-467.172	-200.000	-0.213	-0.001
-466.157	530.619	-0.135	0.317
-465.143	-171.230	-0.299	-0.010
-464.128	-200.000	0.042	-0.365
-463.113	127.595	-0.157	0.199
-462.099	-67.376	-0.213	0.083
-461.084	308.371	-0.085	-0.157
-460.070	192.620	0.036	0.055
-459.055	-17.683	0.238	0.149
-458.040	41.042	0.189	-0.170
-457.026	-200.000	0.017	-0.158
-456.011	746.099	0.059	-0.157
-454.997	30.049	0.209	-0.178
-453.982	78.646	-0.194	-0.206
-452.968	800.000	-0.043	-0.128
-451.953	-188.900	-0.367	0.004
-450.938	403.958	0.032	-0.066
-449.924	-148.279	-0.252	-0.021
-448.909	-50.627	0.103	-0.048
-447.895	254.313	-0.123	0.210
-446.880	-198.388	0.040	0.000
-445.865	-200.000	-0.001	0.291
-444.851	787.705	0.038	0.104
-443.836	114.984	0.085	-0.104
-442.822	44.647	0.118	-0.108
-441.807	-50.821	0.176	-0.083
-440.792	-84.320	-0.525	0.165
-439.778	-9.768	0.137	0.091
-438.763	-200.000	-0.016	-0.493
-437.749	-143.157	-0.441	-0.042
-436.734	321.936	0.068	0.129
-435.719	-38.172	0.379	-0.200
-434.705	-200.000	0.020	-0.147
-433.690	280.185	-0.211	0.376
-432.676	424.217	0.062	-0.132
-431.661	99.583	0.184	-0.212
-430.646	9.312	-0.205	-0.155
-429.632	-77.001	-0.296	0.103
-428.617	800.000	-0.073	-0.221
-427.603	-148.586	-0.157	0.013
-426.588	106.085	0.265	0.312
-425.573	-40.010	0.183	0.095
-424.559	-200.000	0.065	-0.326
-423.544	86.819	-0.173	0.190
-422.530	398.877	0.160	0.333
-421.515	206.196	-0.066	0.103
-420.500	8.263	-0.218	0.163
-419.486	800.000	-0.045	-0.132
-418.471	-200.000	-0.011	-0.218
-417.457	120.729	-0.149	0.184
-416.442	37.743	-0.288	-0.254
-415.428	34.985	0.055	-0.048
-414.413	214.199	0.039	0.061
-413.398	-73.382	-0.073	0.026
-412.384	228.174	0.108	-0.175
-411.369	-170.042	0.364	0.013
-410.355	-200.000	-0.020	-0.116
-409.340	-182.073	0.410	0.008
-408.325	240.427	0.111	0.184
-407.311	66.535	0.113	-0.114
-406.296	-136.365	-0.312	-0.036
-405.282	-114.460	-0.124	-0.024
-404.267	800.000	-0.129	0.391
-403.252	461.090	-0.103	0.227
-402.238	-165.681	-0.119	0.005
-401.223	-20.282	-0.266	0.163
-400.209	8.898	0.116	-0.087
-399.194	-40.153	-0.270	0.140
-398.179	-35.979	-0.110	0.059
-397.165	74.078	0.201	-0.209
-396.150	-15.411	-0.067	-0.043
-395.136	800.000	-0.063	-0.185
-394.121	-187.335	-0.327	0.004
-393.106	-85.834	-0.376	0.116
-392.092	-51.147	-0.229	0.107
-391.077	-145.761	-0.172	0.015
-390.063	3.094	-0.248	0.179
-389.048	224.874	-0.088	-0.142
-388.033	800.000	0.071	-0.280
-387.019	-200.000	0.019	-0.092
-386.004	-200.000	-0.034	-0.264
-384.990	-25.160	0.433	-0.255
-383.975	-39.915	0.331	0.171
-382.960	-102.688	-0.249	0.059
-381.946	800.000	0.106	0.303
-380.931	-102.694	-0.301	0.071
-379.917	-25.001	-0.091	0.054
-378.902	77.595	0.210	-0.222
-377.888	68.072	0.172	0.175
-376.873	388.157	-0.080	0.164
-375.858	-0.332	-0.096	0.068
-374.844	95.791	-0.169	0.192
-373.829	800.000	-0.036	-0.123
-372.815	-33.215	0.360	0.198
-371.800	76.849	0.088	-0.093
-370.785	-164.014	0.286	0.013
-369.771	560.122	-0.028	0.068
-368.756	-125.856	-0.232	0.035
-367.742	409.093	0.103	0.216
-366.727	-112.459	0.300	-0.060
-365.712	800.000	-0.237	-0.730
-364.698	-134.635	0.125	0.015
-363.683	431.702	0.072	0.156
-362.669	-40.451	-0.143	-0.074
-361.654	384.068	-0.072	0.147
-360.639	144.219	0.178	0.236
-359.625	-89.148	-0.269	-0.079
-358.610	-200.000	-0.053	-0.249
-357.596	403.101	-0.075	0.157
-356.581	121.451	-0.160	-0.198
-355.566	119.995	0.055	0.068
-354.552	35.237	0.366	-0.318
-353.537	47.385	-0.211	-0.195
-352.523	230.889	-0.223	0.363
-351.508	-200.000	-0.028	0.144
-350.493	551.173	-0.105	-0.249
-349.479	-200.000	0.014	0.096
-348.464	-93.747	-0.114	0.031
-347.450	185.480	0.297	0.438
-346.435	-200.000	0.038	0.378
-345.420	-14.256	0.160	0.102
-344.406	24.401	-0.202	0.165
-343.391	542.785	0.140	0.331
-342.377	-96.152	0.053	-0.014
-341.362	36.775	-0.156	0.137
-340.348	800.000	-0.021	0.081
-339.333	-57.927	-0.148	-0.064
-338.318	-39.662	-0.317	0.164
-337.304	276.475	0.229	0.403
-336.289	482.523	-0.221	-0.498
-335.275	311.923	0.106	0.197
-334.260	5.081	-0.150	0.109
-333.245	367.027	-0.031	-0.062
-332.231	800.000	-0.057	-0.168
-331.216	-2.696	0.106	-0.074
-330.202	115.128	-0.172	0.208
-329.187	23.369	0.289	-0.236
-328.172	281.198	-0.079	-0.140
-327.158	-50.974	0.093	0.043
-326.143	-73.116	0.172	0.062
-325.129	-29.890	0.146	0.083
-324.114	10.681	0.086	0.065
-323.099	800.000	0.068	0.273
-322.085	-200.000	-0.000	-0.048
-321.070	6.149	0.090	0.066
-320.056	-138.695	-0.244	-0.026
-319.041	447.333	-0.082	-0.178
-318.026	139.271	-0.097	-0.126
-317.012	-33.728	0.159	-0.087
-315.997	800.000	-0.017	0.065
-314.983	-200.000	-0.027	-0.170
-313.968	-68.711	-0.268	0.103
-312.953	-88.758	-0.319	0.094
-311.939	-39.325	-0.158	0.082
-310.924	-14.392	-0.266	-0.169
-309.910	183.434	-0.084	0.124
-308.895	211.288	0.075	-0.116
-307.880	-182.128	0.334	0.006
-306.866	220.830	0.272	0.432
-305.851	81.745	-0.173	-0.185
-304.837	-137.642	-0.218	-0.024
-303.822	-94.374	0.118	-0.032
-302.807	-24.959	0.163	-0.096
-301.793	-200.000	0.009	-0.140
-300.778	230.642	-0.102	0.165
-299.764	-114.579	-0.170	-0.032
-298.749	21.475	0.182	-0.147
-297.735	-200.000	-0.049	0.249
-296.720	199.470	0.085	-0.128
-295.705	259.533	0.196	-0.335
-294.691	-200.000	0.075	-0.391
-293.676	-147.781	-0.181	-0.015
-292.662	-94.405	0.355	0.096
-291.647	-33.068	0.307	0.169
-290.632	-121.286	-0.198	0.033
-289.618	-200.000	-0.003	-0.211
-288.603	-200.000	0.003	0.061
-287.589	207.124	0.141	-0.217
-286.574	-30.852	0.068	0.038
-285.559	-138.457	-0.042	-0.005
-284.545	2.582	0.232	0.166
-283.530	-200.000	0.027	0.438
-282.516	99.084	-0.063	0.072
-281.501	-45.136	0.057	0.028
-280.486	246.126	-0.103	-0.171
-279.472	-71.882	-0.221	0.081
-278.457	-200.000	-0.019	-0.264
-277.443	791.275	-0.049	-0.135
-276.428	208.208	-0.034	-0.052
-275.413	323.881	-0.097	-0.183
-274.399	176.989	-0.155	-0.224
-273.384	44.943	-0.184	0.167
-272.370	41.336	0.479	-0.428
-271.355	-200.000	0.050	-0.310
-270.340	72.833	0.109	-0.113
-269.326	138.936	0.138	-0.180
-268.311	79.098	-0.177	-0.188
-267.297	800.000	0.035	0.098
-266.282	26.909	-0.094	-0.078
-265.267	66.657	-0.290	0.292
-264.253	-25.538	0.160	-0.093
-263.238	-74.802	-0.181	-0.064
-262.224	-10.370	0.228	0.150
-261.209	-37.715	0.154	0.081
-260.195	-102.390	0.294	0.070
-259.180	380.442	0.099	0.200
-258.165	-200.000	-0.014	-0.134
-257.151	-132.367	-0.407	-0.052
-256.136	-73.314	0.240	-0.087
-255.122	-200.000	-0.008	-0.195
-254.107	800.000	-0.016	-0.057
-253.092	4.216	0.275	0.199
-252.078	21.263	-0.173	-0.139
-251.063	759.143	-0.161	0.430
-250.049	-200.000	-0.043	0.187
-249.034	193.619	-0.182	0.273
-248.019	-51.241	0.272	0.126
-247.005	-171.708	-0.177	0.006
-245.990	213.268	0.084	-0.131
-244.976	800.000	-0.066	-0.266
-243.961	800.000	0.014	-0.049
-242.946	-200.000	0.042	-0.268
-241.932	239.494	-0.125	0.206
-240.917	-89.921	-0.374	-0.108
-239.903	-48.067	-0.229	-0.109
-238.888	104.493	0.236	0.274
-237.873	87.292	0.164	0.179
-236.859	-5.944	0.087	0.058
-235.844	-108.398	-0.135	-0.029
-234.830	-142.409	0.228	-0.022
-233.815	235.875	-0.156	0.254
-232.800	88.301	0.079	0.086
-231.786	-76.776	-0.108	0.037
-230.771	-48.768	0.113	-0.053
-229.757	-200.000	-0.009	-0.289
-228.742	132.430	0.192	0.244
-227.727	-200.000	0.001	0.270
-226.713	-45.593	-0.144	-0.070
-225.698	-73.977	0.137	-0.049
-224.684	84.120	-0.047	0.050
-223.669	-114.748	-0.413	-0.078
-222.655	800.000	0.067	0.251
-221.640	76.961	0.258	-0.271
-220.625	326.624	-0.033	-0.062
-219.611	-117.025	-0.067	0.012
-218.596	-44.732	-0.217	0.107
-217.582	581.800	0.072	-0.174
-216.567	27.484	-0.212	0.176
-215.552	-20.909	0.235	0.142
-214.538	-137.404	-0.130	0.015
-213.523	-148.638	-0.101	-0.008
-212.509	-79.761	0.110	0.037
-211.494	389.287	-0.068	-0.139
-210.479	195.078	-0.179	-0.269
-209.465	-102.043	-0.266	-0.063
-208.450	-200.000	0.017	-0.108
-207.436	-14.761	-0.214	0.136
-206.421	-88.285	-0.163	0.048
-205.406	-81.149	0.144	-0.047
-204.392	-106.259	-0.384	-0.085
-203.377	269.924	-0.083	0.144
-202.363	569.295	0.061	0.146
-201.348	517.856	0.067	-0.155
-200.333	-88.445	-0.294	0.087
-199.319	304.450	0.153	0.281
-198.304	103.678	-0.099	0.115
-197.290	64.340	-0.069	-0.069
-196.275	-50.694	-0.435	-0.202
-195.260	-200.000	-0.017	-0.179
-194.246	800.000	0.056	-0.187
-193.231	-200.000	-0.038	0.231
-192.217	-200.000	-0.015	0.280
-191.202	-200.000	0.038	-0.389
-190.187	464.807	0.028	-0.061
-189.173	-77.706	0.238	0.081
-188.158	-54.473	-0.215	-0.096
-187.144	-200.000	0.022	-0.125
-186.129	-21.106	-0.194	-0.117
-185.114	170.127	0.046	-0.064
-184.100	166.375	0.119	0.166
-183.085	304.015	0.078	-0.143
-182.071	-173.900	-0.292	-0.008
-181.056	635.009	-0.114	-0.286
-180.042	88.479	-0.142	-0.156
-179.027	-47.851	-0.041	0.020
-178.012	82.051	0.086	-0.092
-176.998	84.709	0.102	0.110
-175.983	-9.537	0.196	0.129
-174.969	-137.561	-0.216	0.024
-173.954	-72.372	0.117	-0.042
-172.939	156.610	-0.118	0.161
-171.925	-134.595	0.340	-0.041
-170.910	800.000	0.049	-0.177
-169.896	800.000	-0.101	-0.342
-168.881	14.133	-0.266	-0.204
-167.866	-200.000	-0.024	0.108
-166.852	220.069	0.239	0.377
-165.837	-139.005	0.346	0.037
-164.823	110.212	0.077	0.091
-163.808	-75.449	0.198	0.069
-162.793	-80.010	-0.217	-0.072
-161.779	557.802	0.033	-0.079
-160.764	800.000	-0.130	-0.368
-159.750	800.000	0.061	-0.180
-158.735	-146.273	-0.357	0.031
-157.720	-113.113	-0.300	0.058
-156.706	-200.000	0.006	0.170
-155.691	92.005	0.137	0.152
-154.677	335.425	0.212	-0.405
-153.662	-133.962	-0.409	-0.050
-152.647	-33.781	0.192	-0.104
-151.633	266.627	0.089	0.153
-150.618	-82.371	0.157	-0.050
-149.604	113.963	-0.141	0.168
-148.589	800.000	0.055	0.180
-147.574	501.926	-0.130	-0.296
-146.560	-112.391	-0.256	0.050
-145.545	74.441	-0.155	-0.160
-144.531	113.081	0.176	0.210
-143.516	131.904	0.384	0.486
-142.502	9.350	0.228	0.169
-141.487	-200.000	-0.017	0.135
-140.472	-156.006	-0.092	-0.006
-139.458	10.501	-0.150	0.113
-138.443	78.675	0.137	-0.144
-137.429	137.019	0.072	0.092
-136.414	3.644	0.161	0.116
-135.399	198.103	0.109	-0.163
-134.385	245.114	0.044	-0.073
-133.370	-43.943	0.141	0.070
-132.356	-200.000	0.021	0.185
-131.341	-185.202	0.134	0.002
-130.326	-200.000	0.020	-0.210
-129.312	800.000	-0.092	0.385
-128.297	-112.794	0.222	0.043
-127.283	-200.000	-0.039	0.257
-126.268	377.786	0.080	0.161
-125.253	1.368	-0.297	0.210
-124.239	-10.474	0.132	0.086
-123.224	114.277	0.332	-0.397
-122.210	-38.829	0.228	-0.118
-121.195	295.118	-0.222	0.400
-120.180	-97.754	0.198	0.050
