DTS Sentinel unit serial number:	SN413079Multiplexer serial number:	ORYXHardware model number:	OX4-SRSoftware version number:	ORYX F/W v4.00 Oryx Data Collector v3.7.2.0data status	okinstallation	princeton_trtdifferential loss correction	single-endedforward channel	channel 1reverse channel	N/Adate	2019/09/17time	13:02:35forward acquisition time	60.00reverse acquisition time	0.00gamma	496.2192k internal	0.2313k external	0.2313temperature offset calibration	0.9967default loss term (dB/km)	0.3790temperature slope calibration	1.0000multiplexer offset coefficient	1.0000multiplexer slope coefficient	1.0000fibre end	0.00T internal ref (°C)	33.44T ext. ref 1 (°C)	0.43T ext. ref 2 (°C)	31.51length (m)	temperature (°C)	Stokes	anti-Stokes-747.200	-200.000	0.009	-0.260
-746.185	-131.567	-0.422	0.056
-745.171	4.821	-0.450	0.335
-744.156	-200.000	-0.001	0.097
-743.142	-11.849	-0.207	-0.138
-742.127	105.644	0.074	0.089
-741.112	800.000	-0.098	0.359
-740.098	-33.955	-0.120	-0.067
-739.083	-22.617	0.102	0.063
-738.069	229.997	0.217	0.359
-737.054	-48.922	0.144	-0.070
-736.039	68.805	-0.279	-0.290
-735.025	161.149	0.185	-0.263
-734.010	800.000	0.062	0.258
-732.996	800.000	0.088	0.294
-731.981	10.536	-0.064	-0.049
-730.966	-37.312	-0.375	-0.203
-729.952	-109.883	-0.252	-0.054
-728.937	-12.067	0.221	0.147
-727.923	-200.000	-0.005	0.119
-726.908	280.568	-0.182	-0.330
-725.894	350.205	-0.020	0.039
-724.879	-23.920	-0.189	-0.115
-723.864	800.000	0.111	-0.336
-722.850	-200.000	0.033	0.229
-721.835	-83.250	-0.102	-0.033
-720.821	-78.867	0.090	0.031
-719.806	190.810	-0.077	-0.117
-718.791	-143.021	0.283	0.028
-717.777	251.991	-0.126	-0.218
-716.762	-43.110	0.269	-0.138
-715.748	169.598	-0.096	-0.140
-714.733	38.049	0.166	0.149
-713.718	35.946	-0.174	0.155
-712.704	800.000	0.046	-0.162
-711.689	800.000	-0.135	0.392
-710.675	-66.866	-0.341	0.136
-709.660	-171.990	0.435	0.014
-708.645	-192.720	0.271	-0.003
-707.631	-30.095	0.244	0.140
-706.616	-91.401	-0.136	0.039
-705.602	-54.491	0.104	-0.048
-704.587	-100.246	-0.487	0.122
-703.572	-200.000	0.026	0.169
-702.558	163.080	-0.129	-0.184
-701.543	-200.000	0.041	0.191
-700.529	61.142	-0.180	-0.181
-699.514	800.000	0.042	-0.155
-698.499	800.000	-0.076	-0.323
-697.485	-200.000	0.001	0.167
-696.470	-145.192	0.183	0.017
-695.456	-12.411	-0.135	0.089
-694.441	-89.920	0.268	0.079
-693.426	-200.000	0.003	-0.226
-692.412	-80.781	-0.166	0.056
-691.397	133.652	-0.165	0.216
-690.383	249.072	0.047	0.081
-689.368	751.125	-0.067	0.182
-688.354	-200.000	0.048	-0.309
-687.339	-116.812	0.282	-0.052
-686.324	75.038	-0.116	-0.123
-685.310	48.722	-0.045	-0.042
-684.295	62.635	-0.229	0.231
-683.281	-35.658	-0.187	-0.102
-682.266	404.424	0.145	-0.309
-681.251	351.227	0.029	0.058
-680.237	550.756	-0.102	0.248
-679.222	-200.000	0.036	0.313
-678.208	67.272	0.176	-0.181
-677.193	178.683	0.060	-0.088
-676.178	-85.798	-0.149	0.047
-675.164	-200.000	-0.025	0.297
-674.149	-200.000	0.007	0.169
-673.135	-200.000	0.017	0.204
-672.120	-87.070	0.154	0.047
-671.105	-175.023	0.181	0.005
-670.091	60.799	0.202	0.202
-669.076	490.667	-0.150	0.347
-668.062	-163.727	-0.303	-0.014
-667.047	66.798	-0.166	-0.171
-666.032	125.672	0.083	0.107
-665.018	17.900	0.295	0.237
-664.003	-10.401	-0.099	-0.066
-662.989	-159.643	-0.264	0.015
-661.974	108.581	0.071	0.086
-660.959	800.000	-0.032	-0.104
-659.945	105.380	-0.045	-0.053
-658.930	38.668	0.089	0.080
-657.916	1.253	-0.372	-0.270
-656.901	338.923	-0.125	-0.245
-655.886	-63.680	0.120	0.050
-654.872	-39.176	-0.251	-0.133
-653.857	-9.740	0.303	-0.204
-652.843	-200.000	-0.197	0.001
-651.828	-75.923	0.223	0.080
-650.814	-125.550	-0.337	0.052
-649.799	444.119	0.147	-0.327
-648.784	800.000	0.078	-0.324
-647.770	-63.217	0.161	0.067
-646.755	800.000	-0.079	0.317
-645.741	-19.411	0.221	-0.139
-644.726	11.043	0.098	0.076
-643.711	61.861	-0.105	-0.106
-642.697	73.375	0.238	0.251
-641.682	-200.000	0.001	-0.203
-640.668	-124.065	-0.298	0.047
-639.653	-80.300	0.074	-0.025
-638.638	56.934	0.032	-0.031
-637.624	-41.362	-0.156	0.081
-636.609	318.937	0.123	0.236
-635.595	-200.000	-0.003	-0.087
-634.580	800.000	0.061	-0.190
-633.565	633.184	-0.133	0.340
-632.551	323.590	-0.184	-0.354
-631.536	-40.085	-0.183	0.096
-630.522	41.729	-0.282	0.258
-629.507	800.000	0.051	-0.222
-628.492	-122.533	0.193	0.032
-627.478	-15.667	0.160	-0.103
-626.463	28.802	0.131	-0.112
-625.449	-200.000	0.118	-0.000
-624.434	8.238	-0.115	0.087
-623.419	523.926	0.074	-0.177
-622.405	-78.927	-0.203	0.070
-621.390	168.850	-0.138	0.199
-620.376	404.478	-0.131	-0.279
-619.361	-44.378	-0.229	0.116
-618.346	-200.000	0.055	-0.263
-617.332	254.411	0.135	0.234
-616.317	205.782	0.033	0.052
-615.303	115.963	-0.046	-0.057
-614.288	198.924	0.095	0.147
-613.273	-66.500	0.110	-0.044
-612.259	800.000	-0.021	-0.080
-611.244	-7.152	0.084	-0.057
-610.230	-38.963	0.166	0.088
-609.215	-200.000	-0.023	0.121
-608.201	-114.366	-0.305	0.059
-607.186	58.724	-0.237	-0.235
-606.171	-74.902	-0.341	0.123
-605.157	19.153	-0.119	0.096
-604.142	275.558	-0.192	0.344
-603.128	-48.998	0.111	-0.054
-602.113	-200.000	0.022	0.260
-601.098	800.000	0.133	-0.460
-600.084	-200.000	0.029	-0.352
-599.069	173.923	0.151	-0.221
-598.055	-87.097	0.249	-0.076
-597.040	15.026	-0.154	-0.122
-596.025	-176.431	0.133	0.003
-595.011	50.692	0.125	-0.119
-593.996	167.135	0.213	-0.305
-592.982	-25.254	0.188	-0.112
-591.967	-200.000	-0.012	-0.275
-590.952	32.059	-0.089	-0.077
-589.938	-4.837	0.220	0.153
-588.923	800.000	-0.064	0.199
-587.909	58.921	-0.159	0.157
-586.894	-130.122	-0.280	-0.038
-585.879	26.325	0.119	-0.100
-584.865	-87.551	-0.055	-0.017
-583.850	-200.000	-0.004	-0.235
-582.836	-28.789	0.127	0.073
-581.821	80.399	0.146	0.158
-580.806	12.347	-0.224	0.174
-579.792	247.091	-0.081	-0.137
-578.777	527.912	-0.114	0.270
-577.763	263.163	0.190	-0.333
-576.748	-155.023	-0.186	-0.012
-575.733	800.000	-0.038	-0.108
-574.719	-200.000	0.021	-0.255
-573.704	-200.000	0.022	0.182
-572.690	-200.000	0.001	-0.167
-571.675	-84.576	0.287	0.091
-570.661	-23.395	-0.225	-0.136
-569.646	346.013	0.079	0.156
-568.631	92.344	0.095	-0.108
-567.617	-200.000	0.013	-0.136
-566.602	-50.854	-0.348	-0.165
-565.588	-128.408	0.303	-0.043
-564.573	206.590	0.070	0.110
-563.558	159.379	0.104	0.146
-562.544	-95.707	-0.157	-0.042
-561.529	2.400	0.162	0.118
-560.515	11.933	-0.029	-0.022
-559.500	-200.000	0.003	0.137
-558.485	-29.153	0.213	-0.123
-557.471	282.152	0.109	-0.197
-556.456	239.480	-0.126	-0.211
-555.442	-64.329	-0.360	-0.147
-554.427	-105.825	0.409	0.093
-553.412	-172.862	-0.254	-0.008
-552.398	-200.000	-0.075	-0.397
-551.383	-94.927	0.248	0.067
-550.369	-200.000	0.019	0.089
-549.354	-34.103	0.072	0.040
-548.339	319.747	0.147	-0.282
-547.325	-118.912	-0.132	0.023
-546.310	-165.947	0.386	-0.017
-545.296	498.311	-0.087	-0.202
-544.281	-73.249	-0.412	-0.152
-543.266	10.752	0.305	0.234
-542.252	36.310	0.132	0.117
-541.237	800.000	-0.036	-0.146
-540.223	-200.000	-0.029	0.274
-539.208	-182.977	0.251	0.005
-538.193	-200.000	-0.013	-0.065
-537.179	-193.303	0.041	0.000
-536.164	102.456	-0.098	-0.115
-535.150	143.325	-0.192	0.258
-534.135	-198.924	-0.269	-0.001
-533.121	800.000	-0.039	-0.127
-532.106	108.406	-0.068	-0.082
-531.091	-200.000	-0.020	-0.251
-530.077	-200.000	0.004	-0.269
-529.062	32.535	0.290	-0.252
-528.048	800.000	-0.099	0.320
-527.033	-200.000	0.002	-0.169
-526.018	800.000	-0.038	-0.157
-525.004	800.000	-0.108	-0.303
-523.989	300.728	0.013	0.025
-522.975	-140.081	-0.438	0.046
-521.960	21.223	-0.273	-0.223
-520.945	-121.451	0.196	0.033
-519.931	602.673	0.045	0.113
-518.916	9.787	-0.341	-0.260
-517.902	30.611	0.184	0.158
-516.887	-120.876	-0.165	0.028
-515.872	314.536	-0.069	-0.131
-514.858	-200.000	-0.002	0.048
-513.843	306.454	-0.079	0.148
-512.829	61.981	0.124	0.124
-511.814	223.049	0.054	-0.088
-510.799	-152.596	-0.266	-0.019
-509.785	431.310	0.105	0.229
-508.770	77.899	0.099	0.106
-507.756	-71.216	0.126	-0.047
-506.741	-110.089	0.087	-0.018
-505.726	800.000	0.130	0.390
-504.712	-110.257	-0.154	0.032
-503.697	-27.341	-0.144	0.084
-502.683	-30.342	-0.198	0.113
-501.668	-77.847	-0.412	0.143
-500.653	-200.000	-0.057	-0.429
-499.639	-89.159	-0.194	0.057
-498.624	310.283	0.068	0.127
-497.610	-168.125	0.255	-0.010
-496.595	-200.000	-0.013	0.337
-495.581	-178.364	0.234	0.005
-494.566	388.148	0.026	-0.054
-493.551	106.391	-0.171	0.204
-492.537	56.696	0.109	0.107
-491.522	230.380	-0.038	-0.062
-490.508	-45.852	0.102	-0.051
-489.493	800.000	-0.110	-0.403
-488.478	355.063	0.200	-0.400
-487.464	-200.000	0.003	0.106
-486.449	108.472	0.095	0.114
-485.435	23.099	0.171	-0.141
-484.420	41.086	-0.090	0.082
-483.405	146.014	0.099	-0.134
-482.391	-200.000	-0.002	0.017
-481.376	-43.966	-0.284	0.143
-480.362	31.294	0.140	-0.121
-479.347	-200.000	0.052	-0.282
-478.332	232.678	-0.135	0.222
-477.318	800.000	-0.014	0.046
-476.303	-200.000	0.034	0.232
-475.289	82.063	-0.025	0.027
-474.274	-95.141	-0.376	0.102
-473.259	-160.779	-0.075	0.004
-472.245	-20.374	0.161	-0.099
-471.230	4.349	0.107	-0.079
-470.216	3.599	-0.346	0.253
-469.201	800.000	0.054	0.231
-468.186	800.000	-0.066	0.261
-467.172	-111.590	0.051	-0.010
-466.157	87.094	-0.152	0.169
-465.143	-124.595	0.067	-0.010
-464.128	-80.515	0.106	0.035
-463.113	800.000	0.058	0.211
-462.099	-200.000	0.008	0.147
-461.084	-111.557	-0.135	-0.027
-460.070	-17.324	0.108	-0.068
-459.055	-200.000	-0.008	0.111
-458.040	246.804	-0.171	0.289
-457.026	-67.070	-0.293	0.116
-456.011	-89.344	-0.378	0.112
-454.997	-152.780	0.238	0.017
-453.982	-152.533	0.270	-0.019
-452.968	-56.115	-0.396	0.177
-451.953	-13.184	0.075	-0.049
-450.938	35.897	0.016	0.014
-449.924	57.504	0.321	0.315
-448.909	71.492	-0.074	0.077
-447.895	187.170	-0.139	0.208
-446.880	416.099	0.034	0.074
-445.865	-70.103	-0.376	0.144
-444.851	-200.000	-0.020	0.221
-443.836	240.020	0.099	0.166
-442.822	726.874	-0.035	0.093
-441.807	0.754	0.102	-0.073
-440.792	-52.885	0.398	0.184
-439.778	163.448	-0.160	-0.225
-438.763	75.739	-0.115	-0.121
-437.749	-94.756	-0.026	0.007
-436.734	313.140	0.147	-0.278
-435.719	-2.552	0.295	0.207
-434.705	-2.918	0.155	0.109
-433.690	-93.911	0.282	-0.078
-432.676	-60.987	-0.183	0.078
-431.661	13.448	-0.272	-0.211
-430.646	618.677	0.053	0.135
-429.632	11.490	-0.203	-0.156
-428.617	800.000	0.048	-0.207
-427.603	-200.000	-0.036	-0.242
-426.588	-132.282	0.340	0.044
-425.573	416.543	0.045	0.096
-424.559	-95.743	0.081	-0.022
-423.544	531.240	-0.046	0.109
-422.530	-200.000	0.030	0.168
-421.515	62.022	-0.139	0.139
-420.500	285.542	0.087	-0.157
-419.486	112.271	0.102	0.124
-418.471	800.000	-0.080	-0.319
-417.457	-135.831	-0.220	-0.026
-416.442	143.056	0.109	-0.146
-415.428	-56.702	-0.129	-0.057
-414.413	93.794	0.198	-0.225
-413.398	-200.000	-0.048	0.280
-412.384	3.014	0.135	0.098
-411.369	4.182	0.242	0.178
-410.355	6.555	0.237	0.176
-409.340	-69.531	-0.331	-0.127
-408.325	345.477	0.070	0.138
-407.311	33.617	-0.131	0.114
-406.296	-200.000	0.065	-0.316
-405.282	-93.868	-0.238	0.066
-404.267	-48.713	0.185	-0.089
-403.252	-200.000	-0.010	0.176
-402.238	-24.681	0.339	0.202
-401.223	-200.000	-0.011	0.061
-400.209	-17.975	-0.109	-0.068
-399.194	156.383	-0.071	0.098
-398.179	-18.321	-0.266	0.166
-397.165	-85.673	-0.049	-0.015
-396.150	230.612	-0.192	0.314
-395.136	-73.393	-0.364	-0.133
-394.121	78.511	0.120	-0.128
-393.106	-170.356	-0.252	-0.009
-392.092	-123.983	-0.257	0.041
-391.077	156.414	-0.141	-0.195
-390.063	409.572	0.113	-0.239
-389.048	192.405	-0.126	0.190
-388.033	431.295	-0.173	-0.375
-387.019	123.440	0.148	-0.186
-386.004	21.355	-0.096	-0.078
-384.990	-129.336	0.078	0.011
-383.975	-200.000	-0.015	-0.096
-382.960	296.000	0.083	-0.151
-381.946	51.762	-0.245	0.233
-380.931	52.959	-0.128	0.123
-379.917	800.000	-0.029	0.099
-378.902	75.767	-0.064	0.068
-377.888	-200.000	0.052	0.260
-376.873	65.173	-0.020	0.020
-375.858	-200.000	-0.015	0.150
-374.844	-109.731	0.168	0.035
-373.829	6.418	-0.118	0.087
-372.815	-174.662	-0.442	-0.013
-371.800	-79.490	-0.106	-0.036
-370.785	-3.871	0.153	0.106
-369.771	-111.919	-0.322	0.065
-368.756	-62.380	0.124	-0.052
-367.742	47.439	-0.170	-0.158
-366.727	-59.276	0.102	0.044
-365.712	-148.387	-0.177	-0.015
-364.698	800.000	-0.081	-0.336
-363.683	-0.698	0.088	-0.062
-362.669	-73.512	-0.231	-0.084
-361.654	-110.387	-0.382	-0.079
-360.639	-9.479	-0.177	-0.118
-359.625	29.109	-0.150	-0.127
-358.610	-111.488	0.163	0.033
-357.596	410.806	-0.114	-0.241
-356.581	675.298	-0.047	-0.122
-355.566	32.021	0.166	-0.143
-354.552	242.892	0.275	-0.460
-353.537	-103.194	0.380	0.090
-352.523	69.989	0.134	0.138
-351.508	-200.000	0.043	0.496
-350.493	-76.113	0.205	-0.072
-349.479	282.549	0.097	0.175
-348.464	115.062	0.093	0.113
-347.450	-200.000	-0.040	0.242
-346.435	-75.016	-0.109	0.039
-345.420	-143.950	-0.556	0.052
-344.406	-200.000	0.032	0.227
-343.391	-125.634	-0.318	-0.048
-342.377	-51.900	0.346	0.161
-341.362	403.813	0.012	0.025
-340.348	368.729	0.099	-0.200
-339.333	-103.531	0.442	0.104
-338.318	800.000	0.069	-0.195
-337.304	54.697	0.049	0.048
-336.289	-39.916	-0.174	-0.091
-335.275	115.070	0.076	-0.092
-334.260	28.423	0.227	0.192
-333.245	800.000	0.014	0.048
-332.231	-200.000	0.068	0.298
-331.216	-40.043	0.035	-0.018
-330.202	-2.176	-0.134	0.094
-329.187	-200.000	-0.052	-0.299
-328.172	-151.064	-0.420	-0.032
-327.158	-53.793	-0.110	-0.050
-326.143	800.000	-0.004	-0.014
-325.129	800.000	-0.078	-0.222
-324.114	-200.000	-0.008	-0.074
-323.099	800.000	0.043	-0.166
-322.085	-138.511	0.248	0.027
-321.070	-200.000	-0.012	0.102
-320.056	-200.000	0.001	0.017
-319.041	410.942	0.068	0.144
-318.026	-108.439	0.282	-0.061
-317.012	294.262	-0.181	0.329
-315.997	38.579	0.233	0.207
-314.983	377.807	-0.191	-0.390
-313.968	469.719	-0.056	-0.125
-312.953	-12.177	0.151	-0.098
-311.939	261.459	0.046	-0.079
-310.924	-115.699	-0.108	-0.020
-309.910	-29.591	-0.422	-0.240
-308.895	-42.982	0.337	0.171
-307.880	800.000	-0.082	-0.266
-306.866	-169.783	0.174	0.006
-305.851	-89.735	0.160	-0.047
-304.837	-134.100	0.216	-0.027
-303.822	-200.000	0.029	-0.465
-302.807	-24.799	-0.181	0.107
-301.793	800.000	-0.057	-0.184
-300.778	-94.914	-0.115	-0.031
-299.764	-48.765	-0.311	-0.149
-298.749	-200.000	0.034	-0.221
-297.735	252.646	0.097	0.166
-296.720	-117.362	-0.157	0.028
-295.705	-145.346	0.130	-0.012
-294.691	800.000	-0.035	0.142
-293.676	372.552	0.070	-0.143
-292.662	52.127	-0.169	0.161
-291.647	-69.600	0.261	-0.099
-290.632	24.604	0.080	0.066
-289.618	334.543	-0.188	0.362
-288.603	547.432	0.099	0.236
-287.589	-94.286	0.255	-0.069
-286.574	105.863	0.143	0.169
-285.559	344.049	-0.088	0.171
-284.545	577.025	-0.046	-0.112
-283.530	800.000	-0.127	0.370
-282.516	800.000	-0.101	0.296
-281.501	-28.985	-0.069	-0.040
-280.486	5.202	-0.151	-0.111
-279.472	100.524	0.129	0.149
-278.457	-53.971	0.184	-0.084
-277.443	-9.070	0.131	0.087
-276.428	-200.000	0.008	-0.207
-275.413	240.758	-0.043	0.071
-274.399	-138.630	0.116	0.013
-273.384	800.000	-0.086	-0.345
-272.370	126.674	-0.303	0.383
-271.355	-28.150	0.201	0.116
-270.340	-52.869	0.119	0.054
-269.326	7.773	-0.334	-0.249
-268.311	-157.765	0.103	0.006
-267.297	111.846	-0.047	-0.057
-266.282	3.647	0.418	-0.303
-265.267	-200.000	0.000	0.148
-264.253	-200.000	-0.011	0.110
-263.238	800.000	0.055	-0.187
-262.224	-155.461	-0.388	-0.025
-261.209	8.586	-0.164	-0.123
-260.195	800.000	-0.066	0.273
-259.180	559.541	0.096	0.231
-258.165	-200.000	0.000	-0.058
-257.151	19.345	0.184	-0.147
-256.136	800.000	-0.007	0.030
-255.122	-200.000	-0.040	-0.247
-254.107	-48.229	-0.135	0.065
-253.092	-200.000	-0.030	0.205
-252.078	421.480	-0.134	-0.287
-251.063	-79.117	-0.340	-0.115
-250.049	-200.000	0.047	-0.264
-249.034	800.000	0.096	0.319
-248.019	-2.941	0.160	0.111
-247.005	43.411	-0.028	-0.026
-245.990	80.095	0.097	0.104
-244.976	7.664	0.115	0.085
-243.961	-200.000	0.020	-0.177
-242.946	42.238	-0.182	0.165
-241.932	-200.000	0.010	-0.204
-240.917	113.934	0.056	0.068
-239.903	6.551	0.282	0.208
-238.888	800.000	0.079	-0.265
-237.873	253.791	-0.033	0.056
-236.859	47.247	0.315	0.291
-235.844	207.565	0.127	-0.198
-234.830	-32.473	-0.400	-0.222
-233.815	118.048	0.029	0.035
-232.800	661.051	0.126	-0.324
-231.786	204.210	-0.123	0.189
-230.771	-68.249	-0.161	-0.062
-229.757	664.517	0.026	0.066
-228.742	21.887	0.127	0.103
-227.727	-107.622	0.264	-0.057
-226.713	-200.000	-0.053	-0.261
-225.698	101.201	-0.113	0.131
-224.684	800.000	0.029	-0.084
-223.669	90.027	0.243	0.269
-222.655	-200.000	0.062	0.398
-221.640	264.652	-0.037	0.064
-220.625	138.097	-0.217	-0.283
-219.611	800.000	0.098	-0.339
-218.596	156.156	-0.007	0.010
-217.582	-100.453	-0.225	0.055
-216.567	-73.908	0.034	-0.012
-215.552	378.754	0.009	0.019
-214.538	675.887	-0.073	0.188
-213.523	-200.000	-0.002	0.027
-212.509	-4.187	0.281	-0.193
-211.494	65.791	0.147	-0.148
-210.479	-9.022	0.185	0.123
-209.465	-200.000	-0.011	0.149
-208.450	577.770	0.054	0.132
-207.436	800.000	-0.022	-0.074
-206.421	-200.000	0.027	0.162
-205.406	-200.000	-0.014	-0.219
-204.392	100.174	0.194	-0.223
-203.377	-148.963	0.147	0.012
-202.363	-8.027	0.096	0.064
-201.348	-74.650	-0.224	0.080
-200.333	-133.751	0.084	0.010
-199.319	-112.537	0.125	0.025
-198.304	537.717	0.055	0.130
-197.290	43.273	0.323	-0.293
-196.275	-162.908	-0.171	-0.008
-195.260	-61.160	-0.148	-0.062
-194.246	538.431	0.051	-0.119
-193.231	349.996	0.149	0.292
-192.217	608.516	-0.078	0.192
-191.202	-200.000	0.016	0.259
-190.187	800.000	-0.025	-0.090
-189.173	33.736	0.319	0.275
-188.158	139.773	-0.020	0.027
-187.144	185.585	-0.158	-0.233
-186.129	-143.485	0.106	-0.010
-185.114	-31.242	0.237	-0.133
-184.100	-200.000	0.218	-0.001
-183.085	-118.401	-0.326	-0.057
-182.071	-200.000	-0.003	-0.115
-181.056	740.238	0.129	0.342
-180.042	-200.000	0.027	-0.343
-179.027	-58.241	-0.151	-0.065
-178.012	-140.783	-0.312	0.032
-176.998	35.085	0.150	0.130
-175.983	-200.000	-0.025	-0.193
-174.969	-147.377	0.233	0.020
-173.954	-200.000	0.016	-0.123
-172.939	-34.967	-0.243	0.132
-171.925	24.207	0.118	-0.096
-170.910	28.729	-0.139	0.117
-169.896	-101.284	0.218	0.053
-168.881	365.426	0.167	-0.333
-167.866	351.879	0.104	-0.205
-166.852	-40.089	0.154	0.079
-165.837	420.778	0.073	0.155
-164.823	0.409	0.356	0.252
-163.808	-42.958	-0.067	0.034
-162.793	-34.353	-0.093	0.050
-161.779	11.607	0.120	-0.091
-160.764	84.927	-0.307	-0.333
-159.750	-200.000	0.016	-0.101
-158.735	98.217	0.297	0.340
-157.720	-200.000	0.058	0.427
-156.706	115.131	-0.070	0.084
-155.691	-200.000	-0.021	0.120
-154.677	118.910	-0.056	0.069
-153.662	308.396	0.168	0.312
-152.647	66.960	0.040	-0.040
-151.633	800.000	0.013	-0.049
-150.618	800.000	0.039	-0.148
-149.604	-25.538	0.130	-0.076
-148.589	-130.051	-0.217	0.029
-147.574	-144.368	0.064	-0.006
-146.560	45.141	-0.153	-0.139
-145.545	-87.883	0.077	-0.023
-144.531	85.124	-0.188	0.204
-143.516	35.608	-0.204	0.177
-142.502	-200.000	0.039	-0.277
-141.487	218.364	0.129	0.203
-140.472	-18.073	-0.137	-0.085
-139.458	-137.005	0.468	-0.053
-138.443	72.116	0.266	0.274
-137.429	800.000	-0.004	0.017
-136.414	550.945	-0.030	-0.072
-135.399	-20.987	-0.224	0.136
-134.385	-64.796	-0.162	-0.065
-133.370	-129.732	-0.144	0.020
-132.356	-200.000	0.016	0.083
-131.341	-121.991	0.175	-0.028
-130.326	99.261	-0.338	-0.387
-129.312	800.000	0.014	-0.052
-128.297	-16.412	0.121	-0.076
-127.283	-120.574	0.056	-0.009
-126.268	-200.000	0.018	-0.087
-125.253	-54.290	-0.301	-0.135
-124.239	-200.000	-0.002	0.251
-123.224	-200.000	-0.296	-0.001
-122.210	140.505	-0.123	-0.160
-121.195	-56.735	0.173	0.076
-120.180	706.053	-0.087	0.229
-119.166	79.905	0.048	-0.051
