DTS Sentinel unit serial number:	SN413079Multiplexer serial number:	ORYXHardware model number:	OX4-SRSoftware version number:	ORYX F/W v4.00 Oryx Data Collector v3.7.2.0data status	okinstallation	princeton_trtdifferential loss correction	single-endedforward channel	channel 1reverse channel	N/Adate	2019/09/14time	14:10:36forward acquisition time	60.00reverse acquisition time	0.00gamma	496.2192k internal	0.2293k external	0.2293temperature offset calibration	1.0078default loss term (dB/km)	0.3790temperature slope calibration	1.0000multiplexer offset coefficient	1.0000multiplexer slope coefficient	1.0000fibre end	0.00T internal ref (°C)	38.44T ext. ref 1 (°C)	5.07T ext. ref 2 (°C)	37.15length (m)	temperature (°C)	Stokes	anti-Stokes-747.200	-32.463	0.165	0.094
-746.185	-24.687	0.228	0.139
-745.171	46.797	-0.095	0.091
-744.156	-67.850	-0.188	0.075
-743.142	-57.923	-0.146	-0.065
-742.127	381.560	0.113	0.237
-741.112	-200.000	0.045	0.281
-740.098	-111.292	-0.102	0.021
-739.083	-13.502	0.383	-0.254
-738.069	-127.748	-0.202	-0.030
-737.054	-120.640	-0.295	0.051
-736.039	800.000	-0.036	0.125
-735.025	-200.000	0.025	-0.136
-734.010	339.445	0.095	-0.190
-732.996	47.538	-0.096	-0.092
-731.981	-125.796	-0.107	0.016
-730.966	68.905	-0.233	-0.245
-729.952	800.000	-0.067	-0.250
-728.937	84.781	-0.096	-0.108
-727.923	-129.552	0.177	0.025
-726.908	327.688	-0.095	0.186
-725.894	-81.390	0.243	-0.082
-724.879	-41.953	0.168	-0.088
-723.864	75.531	-0.094	-0.102
-722.850	-200.000	0.012	-0.228
-721.835	-43.113	-0.084	-0.044
-720.821	-27.269	0.114	-0.068
-719.806	-133.557	0.255	-0.033
-718.791	-150.040	-0.535	-0.043
-717.777	-46.890	0.277	0.138
-716.762	-38.290	-0.156	-0.084
-715.748	13.906	-0.221	-0.176
-714.733	-200.000	-0.079	-0.553
-713.718	-111.728	-0.032	0.007
-712.704	202.454	-0.125	-0.197
-711.689	44.225	-0.151	-0.142
-710.675	167.804	-0.136	-0.197
-709.660	5.113	-0.031	0.023
-708.645	-82.282	-0.280	-0.093
-707.631	162.650	-0.048	-0.069
-706.616	-84.595	0.320	0.103
-705.602	-102.021	0.334	0.082
-704.587	-138.588	-0.208	-0.023
-703.572	197.408	0.209	0.325
-702.558	-200.000	-0.044	0.380
-701.543	-57.703	0.160	0.071
-700.529	179.088	0.069	-0.103
-699.514	-179.332	0.374	0.008
-698.499	-132.205	-0.320	-0.042
-697.485	-200.000	0.010	0.144
-696.470	-93.276	-0.088	-0.025
-695.456	-47.667	0.194	-0.096
-694.441	-21.153	0.195	0.121
-693.426	-8.749	0.328	-0.225
-692.412	781.308	0.112	-0.314
-691.397	-200.000	-0.043	-0.221
-690.383	406.714	0.154	-0.331
-689.368	-123.151	0.316	-0.052
-688.354	-36.128	-0.321	-0.177
-687.339	219.336	0.092	0.150
-686.324	-117.685	0.439	-0.081
-685.310	-24.276	0.233	0.142
-684.295	50.965	-0.228	-0.221
-683.281	37.821	-0.296	-0.268
-682.266	800.000	0.068	-0.215
-681.251	-43.596	-0.177	-0.091
-680.237	92.341	-0.091	0.105
-679.222	-159.127	-0.484	0.028
-678.208	800.000	0.093	-0.344
-677.193	643.495	-0.040	-0.104
-676.178	-81.313	0.222	-0.075
-675.164	-47.530	0.172	-0.085
-674.149	800.000	-0.005	0.016
-673.135	-55.414	0.106	0.049
-672.120	-200.000	-0.070	-0.417
-671.105	-79.724	0.041	0.014
-670.091	-26.092	-0.115	0.069
-669.076	-59.308	-0.099	0.043
-668.062	-136.605	0.249	-0.029
-667.047	-82.940	0.391	-0.129
-666.032	-200.000	0.006	-0.054
-665.018	147.333	-0.224	-0.308
-664.003	-13.610	0.358	-0.237
-662.989	305.439	-0.088	0.166
-661.974	19.915	0.291	-0.239
-660.959	30.211	0.145	-0.126
-659.945	-48.415	0.065	0.032
-658.930	-15.060	-0.115	0.075
-657.916	-200.000	-0.036	0.166
-656.901	-62.224	-0.244	0.103
-655.886	-200.000	0.010	-0.053
-654.872	425.666	0.216	-0.475
-653.857	11.696	0.139	-0.109
-652.843	620.200	0.074	0.190
-651.828	-22.157	0.366	-0.226
-650.814	-42.238	-0.194	-0.101
-649.799	34.584	0.073	0.065
-648.784	-135.040	0.206	-0.025
-647.770	-200.000	0.074	-0.391
-646.755	-200.000	-0.511	-0.001
-645.741	-27.491	0.187	0.111
-644.726	-66.430	0.164	0.066
-643.711	-200.000	0.001	-0.212
-642.697	-13.786	-0.228	0.150
-641.682	-110.027	-0.102	-0.022
-640.668	800.000	0.063	-0.195
-639.653	-200.000	0.005	-0.256
-638.638	-200.000	-0.006	-0.062
-637.624	579.465	0.100	0.250
-636.609	-75.941	-0.236	-0.085
-635.595	-104.799	0.157	-0.037
-634.580	40.500	0.155	-0.142
-633.565	-200.000	0.019	-0.297
-632.551	-55.851	0.130	-0.059
-631.536	800.000	0.034	-0.122
-630.522	-200.000	0.045	-0.245
-629.507	-81.834	-0.362	0.121
-628.492	-35.493	0.060	0.033
-627.478	-42.307	0.097	0.051
-626.463	90.954	0.118	-0.135
-625.449	-101.461	0.248	-0.061
-624.434	800.000	0.018	0.075
-623.419	720.780	0.073	-0.198
-622.405	-200.000	0.011	0.076
-621.390	144.432	-0.121	-0.165
-620.376	-171.961	0.381	0.013
-619.361	-140.222	-0.283	0.030
-618.346	-52.176	0.188	0.089
-617.332	142.982	0.056	-0.075
-616.317	20.793	0.213	-0.175
-615.303	-34.293	0.202	-0.113
-614.288	152.498	-0.115	0.160
-613.273	-153.117	0.158	0.011
-612.259	161.364	0.040	0.056
-611.244	-129.230	-0.145	0.021
-610.230	368.617	0.093	0.192
-609.215	-200.000	0.038	-0.178
-608.201	655.195	-0.145	0.379
-607.186	-155.262	-0.198	0.013
-606.171	800.000	-0.073	-0.240
-605.157	-117.577	-0.234	-0.043
-604.142	-135.623	-0.319	0.039
-603.128	-200.000	0.005	0.341
-602.113	163.024	-0.020	-0.029
-601.098	-200.000	0.007	0.163
-600.084	588.064	0.068	0.170
-599.069	60.732	-0.229	-0.231
-598.055	-158.856	0.154	-0.009
-597.040	89.288	0.115	0.130
-596.025	40.956	-0.107	0.098
-595.011	139.224	0.259	0.346
-593.996	-56.531	-0.075	-0.034
-592.982	-200.000	0.034	0.436
-591.967	-54.282	-0.215	0.099
-590.952	800.000	-0.007	-0.028
-589.938	112.615	0.062	0.076
-588.923	-43.568	-0.195	0.100
-587.909	800.000	-0.048	-0.185
-586.894	-126.600	0.304	-0.046
-585.879	198.155	-0.113	0.176
-584.865	88.560	-0.307	0.346
-583.850	-108.125	-0.115	0.025
-582.836	8.206	0.347	0.265
-581.821	124.769	0.162	0.207
-580.806	306.730	-0.101	0.191
-579.792	-200.000	-0.001	-0.147
-578.777	0.294	0.227	-0.165
-577.763	-65.285	0.229	-0.094
-576.748	-184.398	-0.091	0.002
-575.733	237.489	0.065	-0.110
-574.719	-130.658	0.085	0.012
-573.704	800.000	0.023	0.083
-572.690	-138.688	-0.257	0.029
-571.675	-75.635	-0.192	-0.069
-570.661	22.624	-0.130	-0.108
-569.646	61.265	-0.189	-0.191
-568.631	-200.000	-0.006	0.221
-567.617	-200.000	0.017	0.096
-566.602	-149.093	0.284	0.023
-565.588	-1.435	0.096	0.069
-564.573	132.271	-0.114	-0.149
-563.558	800.000	0.020	-0.064
-562.544	-168.557	-0.272	-0.011
-561.529	-140.603	-0.020	0.002
-560.515	4.910	-0.168	0.125
-559.500	-91.936	-0.435	-0.125
-558.485	281.912	0.071	-0.130
-557.471	57.940	-0.302	-0.300
-556.456	196.604	-0.133	0.205
-555.442	-6.781	0.482	0.333
-554.427	51.907	0.109	-0.105
-553.412	-40.167	-0.208	0.110
-552.398	-149.400	-0.243	0.020
-551.383	800.000	-0.060	-0.173
-550.369	-19.175	0.129	0.081
-549.354	-200.000	-0.010	0.238
-548.339	-200.000	0.040	-0.258
-547.325	-200.000	0.002	-0.080
-546.310	554.015	-0.115	-0.281
-545.296	53.555	0.087	0.085
-544.281	218.404	0.046	-0.074
-543.266	-100.925	-0.199	-0.050
-542.252	-15.142	-0.228	-0.148
-541.237	-97.468	0.191	0.050
-540.223	128.156	0.135	-0.174
-539.208	-46.137	0.302	-0.151
-538.193	313.084	0.050	0.095
-537.179	479.591	0.141	0.324
-536.164	707.670	0.015	0.040
-535.150	74.294	0.121	0.129
-534.135	293.734	-0.113	0.209
-533.121	64.533	-0.289	-0.295
-532.106	-133.610	0.111	-0.014
-531.091	77.576	-0.113	0.122
-530.077	260.772	-0.156	-0.274
-529.062	268.262	0.171	0.303
-528.048	-154.903	-0.202	-0.013
-527.033	-117.970	0.132	-0.024
-526.018	-89.344	0.275	-0.082
-525.004	285.387	0.128	-0.234
-523.989	-95.129	-0.172	0.047
-522.975	16.768	-0.153	0.123
-521.960	-200.000	-0.011	0.136
-520.945	800.000	0.081	-0.256
-519.931	799.243	0.123	-0.344
-518.916	80.067	0.113	-0.123
-517.902	-200.000	-0.080	-0.607
-516.887	-22.676	-0.207	0.127
-515.872	135.073	0.069	0.091
-514.858	-173.020	-0.175	0.005
-513.843	-156.623	0.232	0.015
-512.829	-17.425	-0.222	0.142
-511.814	44.493	0.029	-0.027
-510.799	-38.926	-0.232	0.124
-509.785	206.667	0.211	-0.333
-508.770	32.125	0.196	-0.171
-507.756	80.815	-0.032	0.035
-506.741	-87.755	-0.532	0.162
-505.726	-78.424	-0.224	-0.078
-504.712	-21.005	0.260	0.161
-503.697	661.123	0.046	0.120
-502.683	153.250	0.022	0.031
-501.668	307.908	0.100	-0.188
-500.653	-148.757	-0.224	0.018
-499.639	182.552	-0.205	0.307
-498.624	-64.625	0.314	0.129
-497.610	-150.873	0.075	-0.006
-496.595	143.258	0.163	-0.220
-495.581	-26.349	0.265	-0.158
-494.566	-82.482	-0.072	-0.024
-493.551	800.000	0.062	0.202
-492.537	-18.226	0.368	0.233
-491.522	-2.559	0.079	0.056
-490.508	-200.000	-0.022	0.281
-489.493	-143.108	-0.187	-0.018
-488.478	85.522	-0.260	-0.289
-487.464	-98.329	-0.266	-0.069
-486.449	-136.213	0.133	0.016
-485.435	-149.091	-0.235	-0.019
-484.420	-200.000	-0.026	-0.170
-483.405	-3.104	0.081	-0.057
-482.391	-45.166	0.202	-0.102
-481.376	136.312	-0.167	-0.221
-480.362	48.723	0.018	-0.017
-479.347	-29.812	-0.105	-0.061
-478.332	112.267	-0.157	0.192
-477.318	800.000	0.025	-0.098
-476.303	149.614	-0.190	0.261
-475.289	282.914	-0.084	0.153
-474.274	16.357	0.067	-0.054
-473.259	-181.781	0.200	0.004
-472.245	-16.481	-0.446	-0.286
-471.230	800.000	-0.101	0.445
-470.216	254.931	0.109	0.188
-469.201	800.000	0.073	-0.278
-468.186	137.525	0.154	0.205
-467.172	-8.716	0.137	-0.093
-466.157	284.655	-0.082	-0.150
-465.143	-200.000	0.057	0.278
-464.128	191.684	-0.071	-0.109
-463.113	52.690	0.274	0.265
-462.099	86.273	-0.162	-0.181
-461.084	-59.100	-0.060	-0.026
-460.070	-68.614	0.047	0.018
-459.055	-75.362	-0.090	0.032
-458.040	22.577	-0.085	0.071
-457.026	58.106	-0.200	-0.198
-456.011	9.562	0.167	0.128
-454.997	-200.000	-0.006	0.040
-453.982	-5.274	-0.180	-0.125
-452.968	228.474	-0.088	0.144
-451.953	313.525	0.031	0.059
-450.938	396.985	-0.172	-0.363
-449.924	207.228	-0.084	-0.133
-448.909	800.000	0.048	-0.196
-447.895	-14.141	0.065	0.042
-446.880	-6.358	0.088	0.061
-445.865	80.440	-0.122	-0.133
-444.851	538.313	0.048	0.116
-443.836	-74.354	-0.162	0.059
-442.822	800.000	-0.043	0.124
-441.807	-106.999	0.343	0.077
-440.792	177.547	-0.111	0.164
-439.778	309.117	0.064	0.120
-438.763	-200.000	0.065	0.374
-437.749	800.000	0.077	0.224
-436.734	-50.066	-0.150	0.072
-435.719	69.984	0.034	0.035
-434.705	78.176	0.066	0.071
-433.690	40.468	0.113	0.103
-432.676	-200.000	0.015	-0.199
-431.661	-54.581	0.081	0.037
-430.646	-200.000	0.008	0.094
-429.632	-127.394	-0.136	0.020
-428.617	800.000	0.058	-0.250
-427.603	227.518	0.190	-0.313
-426.588	-98.595	0.206	-0.053
-425.573	-67.877	0.360	0.142
-424.559	-200.000	-0.037	-0.270
-423.544	-49.223	0.251	0.121
-422.530	800.000	0.038	-0.145
-421.515	-110.628	-0.301	-0.063
-420.500	180.957	0.132	0.196
-419.486	-67.494	-0.143	0.057
-418.471	-29.486	0.160	-0.093
-417.457	-157.205	-0.385	0.024
-416.442	227.811	-0.146	0.239
-415.428	-200.000	0.109	0.000
-414.413	50.493	-0.166	-0.158
-413.398	800.000	0.035	-0.143
-412.384	-158.252	0.173	-0.010
-411.369	695.809	-0.157	0.415
-410.355	-123.516	0.224	0.036
-409.340	192.545	-0.239	-0.365
-408.325	-187.719	-0.091	0.001
-407.311	-106.523	-0.187	-0.042
-406.296	147.809	0.148	0.202
-405.282	-79.881	0.142	0.048
-404.267	370.723	-0.083	-0.170
-403.252	39.331	-0.286	0.258
-402.238	199.932	-0.120	-0.186
-401.223	209.595	-0.110	-0.174
-400.209	4.156	0.084	-0.062
-399.194	647.624	0.031	-0.080
-398.179	70.840	0.071	-0.075
-397.165	226.449	0.213	-0.349
-396.150	-148.045	-0.351	0.029
-395.136	144.372	-0.156	-0.210
-394.121	-126.796	-0.166	-0.025
-393.106	-104.299	0.115	0.027
-392.092	-200.000	0.128	-0.000
-391.077	34.186	0.179	-0.158
-390.063	-191.313	-0.128	-0.001
-389.048	191.361	0.186	-0.282
-388.033	158.560	0.156	-0.218
-387.019	-200.000	0.021	-0.196
-386.004	-144.932	-0.126	0.012
-384.990	-80.260	-0.187	-0.063
-383.975	-147.772	0.198	-0.017
-382.960	-200.000	0.035	-0.215
-381.946	132.690	0.249	-0.324
-380.931	800.000	-0.076	-0.244
-379.917	-37.455	-0.061	0.033
-378.902	-149.530	-0.236	0.019
-377.888	-200.000	0.009	0.122
-376.873	-187.459	0.285	0.004
-375.858	-200.000	0.028	0.154
-374.844	294.867	-0.100	0.185
-373.829	88.098	-0.041	-0.046
-372.815	-71.292	0.115	-0.044
-371.800	-66.873	0.174	0.069
-370.785	-157.588	-0.066	0.004
-369.771	-151.978	-0.469	0.034
-368.756	-38.988	-0.126	0.067
-367.742	-59.312	0.294	-0.127
-366.727	32.363	0.078	0.068
-365.712	0.787	-0.208	0.150
-364.698	35.254	0.152	0.135
-363.683	58.044	-0.278	-0.275
-362.669	800.000	0.063	0.186
-361.654	-39.095	0.146	0.078
-360.639	272.971	0.097	0.172
-359.625	-21.998	0.108	-0.066
-358.610	-38.032	-0.123	0.066
-357.596	16.251	0.073	-0.058
-356.581	1.440	-0.340	-0.247
-355.566	71.139	0.329	0.343
-354.552	800.000	0.063	-0.178
-353.537	-200.000	0.006	-0.201
-352.523	-189.914	0.181	0.002
-351.508	800.000	-0.024	-0.085
-350.493	483.759	0.066	0.151
-349.479	49.655	-0.200	0.190
-348.464	103.167	0.217	-0.256
-347.450	33.618	-0.263	-0.230
-346.435	-14.279	-0.200	0.130
-345.420	-29.073	-0.129	-0.075
-344.406	800.000	-0.042	0.150
-343.391	71.948	0.149	0.156
-342.377	-200.000	-0.024	-0.234
-341.362	-104.985	-0.212	-0.049
-340.348	-200.000	0.000	-0.126
-339.333	-187.728	0.222	-0.003
-338.318	216.211	0.061	-0.098
-337.304	270.012	0.103	-0.182
-336.289	-200.000	0.033	-0.300
-335.275	41.210	0.130	0.119
-334.260	-200.000	-0.022	0.306
-333.245	74.396	0.004	-0.005
-332.231	596.217	0.113	0.281
-331.216	52.920	0.152	0.147
-330.202	-60.377	0.269	0.115
-329.187	-21.035	-0.160	0.099
-328.172	-151.318	0.386	-0.029
-327.158	-200.000	0.050	-0.342
-326.143	-79.005	-0.071	0.024
-325.129	-63.990	-0.165	-0.068
-324.114	131.210	0.159	0.206
-323.099	-30.251	0.416	0.238
-322.085	800.000	0.094	0.353
-321.070	21.944	-0.288	0.236
-320.056	-200.000	-0.039	-0.324
-319.041	-91.995	-0.156	-0.044
-318.026	-117.965	-0.225	0.041
-317.012	408.533	0.115	-0.244
-315.997	-162.317	-0.249	-0.012
-314.983	67.381	0.212	0.218
-313.968	201.422	-0.147	-0.228
-312.953	-29.103	0.223	0.129
-311.939	-42.315	-0.147	0.076
-310.924	641.807	-0.138	0.353
-309.910	563.856	-0.024	-0.059
-308.895	31.198	0.079	0.068
-307.880	-132.238	0.145	0.019
-306.866	3.887	-0.057	-0.042
-305.851	49.058	-0.243	-0.230
-304.837	-200.000	0.022	-0.196
-303.822	122.743	0.263	-0.331
-302.807	161.506	0.199	0.279
-301.793	800.000	0.090	-0.310
-300.778	-42.221	0.341	-0.175
-299.764	685.307	0.053	0.140
-298.749	-30.821	0.083	-0.047
-297.735	149.505	0.128	-0.175
-296.720	-79.267	0.296	-0.101
-295.705	367.292	-0.131	0.266
-294.691	20.990	0.065	0.053
-293.676	-99.860	0.308	-0.078
-292.662	16.260	0.242	-0.192
-291.647	477.495	-0.075	-0.169
-290.632	-28.602	0.075	0.044
-289.618	-24.986	0.182	-0.109
-288.603	-94.091	0.218	0.060
-287.589	-71.629	0.196	-0.074
-286.574	-26.923	-0.345	-0.203
-285.559	-200.000	0.002	0.442
-284.545	-129.329	-0.231	-0.032
-283.530	14.438	-0.084	0.066
-282.516	-118.096	-0.441	0.079
-281.501	-91.982	0.174	-0.050
-280.486	-88.809	0.256	0.076
-279.472	-200.000	-0.005	0.127
-278.457	-200.000	0.021	-0.245
-277.443	7.916	-0.129	-0.097
-276.428	21.152	-0.117	-0.096
-275.413	-168.670	-0.171	0.007
-274.399	-15.319	-0.291	0.187
-273.384	-200.000	0.083	0.424
-272.370	-200.000	-0.004	0.269
-271.355	-63.188	0.122	0.051
-270.340	-31.078	0.173	-0.098
-269.326	-64.747	0.066	0.027
-268.311	222.256	-0.085	0.137
-267.297	-91.782	0.164	-0.047
-266.282	-35.605	-0.278	-0.152
-265.267	-52.459	-0.053	-0.025
-264.253	-18.210	-0.292	0.184
-263.238	117.688	-0.162	0.201
-262.224	-92.539	-0.318	0.090
-261.209	-68.288	-0.230	-0.090
-260.195	-57.572	-0.374	0.165
-259.180	150.584	-0.045	0.061
-258.165	-79.662	0.264	0.089
-257.151	115.943	-0.142	-0.174
-256.136	20.293	0.199	-0.161
-255.122	208.074	0.054	-0.085
-254.107	-147.441	-0.096	-0.008
-253.092	800.000	0.035	0.103
-252.078	423.347	-0.040	-0.086
-251.063	265.268	0.051	0.089
-250.049	-133.915	0.118	0.015
-249.034	-144.896	0.267	0.024
-248.019	800.000	0.049	0.171
-247.005	-100.047	-0.216	0.054
-245.990	-107.982	0.465	0.101
-244.976	-51.922	0.123	0.057
-243.961	-9.360	0.312	-0.209
-242.946	-200.000	0.033	-0.326
-241.932	-64.613	0.139	-0.057
-240.917	14.059	-0.087	0.068
-239.903	0.558	-0.143	-0.102
-238.888	800.000	0.023	-0.097
-237.873	-27.953	-0.247	-0.143
-236.859	50.481	0.151	0.143
-235.844	123.806	0.151	-0.190
-234.830	-200.000	-0.049	0.333
-233.815	800.000	-0.016	0.062
-232.800	800.000	0.018	-0.063
-231.786	257.379	0.032	0.056
-230.771	-65.509	-0.286	0.115
-229.757	-200.000	0.047	-0.219
-228.742	-129.427	0.266	0.037
-227.727	411.345	-0.105	-0.223
-226.713	337.770	0.117	0.228
-225.698	-200.000	-0.014	0.381
-224.684	662.168	-0.070	-0.180
-223.669	23.447	0.093	0.077
-222.655	529.456	-0.087	0.205
-221.640	800.000	0.093	0.389
-220.625	576.707	0.118	0.289
-219.611	12.485	0.228	0.176
-218.596	-109.757	0.234	-0.049
-217.582	-118.415	-0.292	-0.052
-216.567	-200.000	-0.010	-0.091
-215.552	-114.362	0.046	-0.009
-214.538	86.257	0.179	-0.197
-213.523	-138.284	-0.247	0.027
-212.509	23.198	0.093	0.077
-211.494	150.251	-0.203	-0.276
-210.479	-51.161	0.097	-0.046
-209.465	-200.000	-0.013	-0.100
-208.450	408.668	0.170	-0.361
-207.436	91.272	-0.215	0.241
-206.421	-128.999	-0.113	-0.016
-205.406	-200.000	0.055	0.261
-204.392	-115.485	0.249	-0.047
-203.377	182.901	0.138	0.205
-202.363	-75.029	0.128	0.046
-201.348	-14.399	-0.157	0.101
-200.333	374.819	-0.020	-0.041
-199.319	-40.422	0.199	-0.103
-198.304	-200.000	0.004	-0.074
-197.290	539.239	-0.052	-0.124
-196.275	800.000	-0.107	0.321
-195.260	-117.362	-0.214	0.039
-194.246	-155.693	0.245	-0.016
-193.231	-200.000	0.050	0.220
-192.217	46.993	0.255	0.238
-191.202	354.050	0.067	0.133
-190.187	-107.222	0.257	-0.057
-189.173	-109.507	-0.224	-0.047
-188.158	-112.895	-0.268	-0.053
-187.144	-82.503	0.068	-0.022
-186.129	241.445	-0.058	0.098
-185.114	309.739	0.035	-0.066
-184.100	-200.000	-0.017	-0.101
-183.085	304.638	0.137	0.255
-182.071	19.600	-0.453	0.364
-181.056	-200.000	0.021	0.174
-180.042	-77.746	-0.315	0.109
-179.027	198.613	-0.058	0.089
-178.012	-173.786	-0.225	-0.007
-176.998	-153.822	0.494	0.034
-175.983	57.732	0.238	0.233
-174.969	-107.187	0.253	0.056
-173.954	121.034	0.113	0.140
-172.939	118.084	-0.281	0.347
-171.925	-200.000	0.014	-0.099
-170.910	-41.541	-0.122	-0.063
-169.896	104.458	-0.163	0.192
-168.881	43.108	-0.065	-0.059
-167.866	316.094	0.019	-0.036
-166.852	-8.309	-0.333	-0.224
-165.837	-200.000	-0.003	-0.192
-164.823	5.989	-0.150	-0.111
-163.808	-18.092	0.074	-0.046
-162.793	-70.312	-0.223	-0.084
-161.779	68.878	0.132	-0.135
-160.764	335.715	0.184	0.358
-159.750	107.602	-0.199	-0.236
-158.735	-130.877	0.219	-0.029
-157.720	-62.229	-0.236	-0.098
-156.706	-102.195	0.397	0.096
-155.691	56.836	-0.265	-0.258
-154.677	333.993	-0.147	-0.285
-153.662	-24.399	-0.253	-0.151
-152.647	-127.013	-0.251	-0.037
-151.633	-200.000	-0.070	-0.320
-150.618	-80.822	0.123	-0.041
-149.604	-53.476	0.527	0.241
-148.589	800.000	0.071	0.250
-147.574	-181.788	-0.270	0.005
-146.560	-106.820	0.211	-0.047
-145.545	-82.262	-0.321	-0.105
-144.531	308.507	-0.085	-0.159
-143.516	173.554	0.191	-0.275
-142.502	46.920	-0.226	-0.210
-141.487	-65.521	0.152	-0.061
-140.472	162.757	0.104	0.145
-139.458	82.387	-0.143	0.155
-138.443	-200.000	0.031	-0.389
-137.429	-200.000	-0.040	-0.181
-136.414	-200.000	0.016	-0.121
-135.399	-71.496	-0.191	0.071
-134.385	-200.000	-0.053	0.245
-133.370	29.259	0.142	-0.120
-132.356	442.944	-0.120	-0.264
-131.341	101.626	-0.135	-0.157
-130.326	60.924	-0.279	-0.276
-129.312	173.009	0.188	-0.271
-128.297	325.699	-0.063	-0.121
-127.283	100.577	-0.019	-0.022
-126.268	197.227	-0.131	0.199
-125.253	102.544	0.295	0.345
-124.239	682.677	-0.051	-0.133
-123.224	-39.483	0.335	-0.175
-122.210	-150.189	-0.177	0.014
-121.195	192.521	0.161	-0.243
