DTS Sentinel unit serial number:	SN413079Multiplexer serial number:	ORYXHardware model number:	OX4-SRSoftware version number:	ORYX F/W v4.00 Oryx Data Collector v3.7.2.0data status	okinstallation	princeton_trtdifferential loss correction	single-endedforward channel	channel 1reverse channel	N/Adate	2019/09/18time	15:54:35forward acquisition time	60.00reverse acquisition time	0.00gamma	496.2192k internal	0.2294k external	0.2294temperature offset calibration	0.9993default loss term (dB/km)	0.3790temperature slope calibration	1.0000multiplexer offset coefficient	1.0000multiplexer slope coefficient	1.0000fibre end	0.00T internal ref (°C)	36.92T ext. ref 1 (°C)	0.79T ext. ref 2 (°C)	36.03length (m)	temperature (°C)	Stokes	anti-Stokes-747.200	-152.999	0.420	0.030
-746.185	154.050	0.115	0.162
-745.171	423.715	0.090	-0.199
-744.156	800.000	0.034	0.114
-743.142	433.645	0.100	-0.221
-742.127	411.765	-0.053	0.116
-741.112	-200.000	-0.002	-0.293
-740.098	641.964	-0.093	0.241
-739.083	-51.109	0.073	-0.035
-738.069	320.866	-0.085	0.165
-737.054	800.000	-0.032	-0.109
-736.039	-200.000	-0.002	-0.119
-735.025	62.361	0.260	0.266
-734.010	-200.000	0.050	0.235
-732.996	163.418	-0.194	-0.279
-731.981	-91.329	0.232	0.068
-730.966	-158.686	-0.205	0.012
-729.952	88.202	0.061	-0.070
-728.937	-115.347	-0.169	0.033
-727.923	800.000	0.121	-0.528
-726.908	-107.488	-0.109	-0.024
-725.894	-200.000	0.017	0.079
-724.879	645.594	-0.116	0.302
-723.864	-81.980	0.145	0.049
-722.850	7.790	-0.153	-0.117
-721.835	-87.692	-0.086	-0.027
-720.821	166.965	0.042	0.061
-719.806	800.000	0.040	0.167
-718.791	432.344	0.158	0.349
-717.777	234.061	0.122	0.205
-716.762	94.797	-0.092	0.107
-715.748	-200.000	-0.047	-0.297
-714.733	-2.031	-0.338	-0.242
-713.718	-33.383	-0.457	-0.258
-712.704	-129.019	-0.309	-0.044
-711.689	-200.000	-0.019	0.419
-710.675	-126.365	-0.224	0.034
-709.660	-200.000	0.015	-0.103
-708.645	800.000	-0.045	-0.152
-707.631	126.963	-0.061	-0.079
-706.616	-140.027	0.229	0.025
-705.602	165.421	0.031	0.044
-704.587	-200.000	-0.014	-0.324
-703.572	-200.000	0.001	0.249
-702.558	1.250	-0.051	-0.037
-701.543	-200.000	0.011	0.153
-700.529	-150.220	-0.019	-0.002
-699.514	212.760	0.054	0.087
-698.499	86.554	-0.112	0.126
-697.485	-21.957	0.157	-0.098
-696.470	-85.100	-0.060	-0.019
-695.456	-74.718	0.388	-0.142
-694.441	49.170	0.225	0.216
-693.426	37.147	-0.243	-0.219
-692.412	240.341	-0.203	-0.345
-691.397	-167.529	-0.359	0.015
-690.383	-156.929	-0.111	0.007
-689.368	-87.733	-0.269	0.083
-688.354	47.087	0.102	0.097
-687.339	-200.000	-0.001	-0.139
-686.324	-200.000	0.018	0.227
-685.310	240.774	-0.091	-0.154
-684.295	111.187	0.177	-0.218
-683.281	-166.451	0.158	-0.007
-682.266	800.000	-0.109	-0.417
-681.251	36.515	-0.151	-0.136
-680.237	-200.000	-0.015	-0.145
-679.222	-53.156	0.214	-0.100
-678.208	11.532	-0.147	-0.115
-677.193	767.675	-0.056	-0.157
-676.178	-62.035	0.193	-0.082
-675.164	-121.729	-0.184	-0.031
-674.149	457.582	0.154	0.350
-673.135	-173.259	-0.303	-0.009
-672.120	-111.465	-0.320	0.066
-671.105	-144.876	0.340	-0.032
-670.091	38.344	-0.311	-0.282
-669.076	800.000	-0.025	0.093
-668.062	-169.107	-0.140	0.005
-667.047	176.054	0.039	0.058
-666.032	-154.579	0.182	-0.012
-665.018	-200.000	0.028	-0.414
-664.003	-67.125	0.215	-0.086
-662.989	333.363	-0.110	-0.217
-661.974	140.039	0.102	-0.137
-660.959	-4.545	0.152	-0.107
-659.945	207.713	-0.077	-0.123
-658.930	-149.041	-0.255	-0.021
-657.916	188.627	0.037	-0.056
-656.901	163.401	-0.071	-0.102
-655.886	-79.922	0.195	0.067
-654.872	-177.734	-0.304	-0.007
-653.857	-200.000	-0.022	-0.265
-652.843	151.178	0.177	-0.245
-651.828	800.000	-0.052	-0.201
-650.814	124.396	0.152	-0.195
-649.799	633.088	-0.077	-0.198
-648.784	800.000	-0.031	0.116
-647.770	-71.883	-0.344	-0.131
-646.755	-200.000	0.002	-0.053
-645.741	-33.511	0.205	-0.116
-644.726	800.000	-0.038	0.169
-643.711	-55.491	0.137	-0.063
-642.697	-200.000	0.101	0.507
-641.682	-149.500	0.104	-0.008
-640.668	800.000	-0.050	-0.144
-639.653	396.970	0.187	-0.397
-638.638	-119.115	-0.211	-0.037
-637.624	258.057	0.078	-0.136
-636.609	103.306	-0.109	0.130
-635.595	97.077	0.084	-0.099
-634.580	-31.068	0.215	0.123
-633.565	239.126	0.159	0.269
-632.551	82.107	-0.090	0.099
-631.536	-91.602	-0.434	0.126
-630.522	264.944	0.018	-0.032
-629.507	110.951	0.156	-0.191
-628.492	233.900	-0.015	-0.024
-627.478	83.441	0.188	-0.209
-626.463	-200.000	-0.002	0.054
-625.449	134.818	-0.211	0.279
-624.434	2.031	-0.171	0.125
-623.419	-138.017	0.147	-0.017
-622.405	-9.848	0.233	0.158
-621.390	401.618	0.064	-0.136
-620.376	115.387	-0.108	-0.135
-619.361	169.100	-0.164	-0.238
-618.346	-139.217	-0.186	-0.020
-617.332	-64.122	0.042	-0.018
-616.317	155.920	-0.067	-0.094
-615.303	-137.810	0.105	-0.012
-614.288	-200.000	0.101	-0.524
-613.273	428.723	-0.041	-0.090
-612.259	235.348	0.191	-0.321
-611.244	-89.775	-0.182	-0.054
-610.230	-149.524	0.237	0.019
-609.215	-200.000	0.007	0.071
-608.201	274.974	0.206	-0.372
-607.186	106.664	0.319	-0.385
-606.171	390.528	-0.079	-0.166
-605.157	-200.000	-0.002	-0.072
-604.142	95.934	-0.126	-0.147
-603.128	80.700	-0.154	-0.169
-602.113	246.027	0.189	-0.324
-601.098	800.000	0.028	-0.110
-600.084	-65.407	0.299	-0.122
-599.069	-52.157	-0.338	-0.160
-598.055	312.595	-0.073	0.140
-597.040	-116.598	0.215	0.040
-596.025	320.081	0.041	-0.079
-595.011	-200.000	-0.031	-0.313
-593.996	-86.062	0.029	0.009
-592.982	30.610	0.163	0.142
-591.967	28.803	0.036	0.031
-590.952	-200.000	-0.007	0.066
-589.938	3.965	0.205	0.153
-588.923	-200.000	0.001	-0.351
-587.909	-116.418	-0.282	-0.053
-586.894	201.053	0.191	0.299
-585.879	486.387	0.099	-0.229
-584.865	-90.861	0.238	-0.070
-583.850	-200.000	-0.023	0.158
-582.836	800.000	-0.026	0.098
-581.821	595.868	-0.042	0.106
-580.806	800.000	-0.153	0.453
-579.792	125.769	0.010	0.013
-578.777	547.449	0.098	0.238
-577.763	84.159	0.031	0.034
-576.748	-126.624	0.385	-0.058
-575.733	-130.814	-0.322	-0.044
-574.719	213.966	0.097	-0.156
-573.704	-46.414	0.064	-0.032
-572.690	44.706	-0.160	-0.150
-571.675	-81.823	0.118	-0.039
-570.661	36.836	-0.205	-0.184
-569.646	800.000	0.085	-0.324
-568.631	-118.195	-0.206	-0.037
-567.617	-90.651	0.254	0.075
-566.602	22.414	-0.257	-0.213
-565.588	-173.777	-0.056	-0.002
-564.573	-16.839	-0.332	0.213
-563.558	120.561	-0.079	-0.099
-562.544	-34.111	0.093	-0.052
-561.529	-95.512	0.151	-0.041
-560.515	-70.251	-0.405	-0.156
-559.500	43.245	0.255	-0.236
-558.485	277.848	-0.141	0.255
-557.471	322.073	0.095	0.183
-556.456	-200.000	0.030	0.298
-555.442	-7.374	0.246	-0.169
-554.427	117.719	0.147	-0.183
-553.412	17.834	-0.205	-0.166
-552.398	359.781	0.043	-0.086
-551.383	-54.440	-0.254	-0.117
-550.369	-166.185	0.208	-0.009
-549.354	-4.000	-0.223	-0.157
-548.339	-88.371	-0.174	0.053
-547.325	-5.923	0.048	0.034
-546.310	-109.753	-0.338	0.072
-545.296	-200.000	0.065	0.379
-544.281	-29.386	0.106	0.061
-543.266	-27.788	-0.318	0.187
-542.252	-200.000	-0.015	-0.228
-541.237	34.716	-0.212	0.188
-540.223	202.433	-0.156	0.244
-539.208	800.000	-0.025	0.086
-538.193	526.713	0.074	-0.176
-537.179	-200.000	0.043	0.223
-536.164	60.966	-0.152	0.153
-535.150	156.362	0.089	-0.124
-534.135	-147.135	0.146	-0.013
-533.121	-151.341	-0.193	-0.015
-532.106	800.000	0.135	0.401
-531.091	-93.617	0.098	0.027
-530.077	731.499	0.062	-0.167
-529.062	43.541	-0.216	-0.200
-528.048	239.353	0.121	-0.204
-527.033	-40.049	0.288	-0.152
-526.018	351.861	-0.086	-0.172
-525.004	32.671	-0.070	-0.061
-523.989	-81.857	-0.125	-0.041
-522.975	-200.000	0.013	0.079
-521.960	-133.736	0.238	-0.030
-520.945	39.007	0.171	0.155
-519.931	-35.817	-0.181	-0.099
-518.916	-200.000	0.052	0.288
-517.902	588.153	-0.126	0.313
-516.887	-109.103	0.057	-0.012
-515.872	-141.971	-0.332	-0.034
-514.858	-16.231	-0.105	-0.068
-513.843	-1.287	0.073	-0.052
-512.829	590.388	-0.067	-0.168
-511.814	38.444	-0.094	0.085
-510.799	-55.600	-0.362	0.164
-509.785	-200.000	-0.039	0.449
-508.770	89.787	-0.239	-0.271
-507.756	668.134	-0.019	0.049
-506.741	-68.166	0.170	0.067
-505.726	-77.095	-0.341	0.121
-504.712	28.134	-0.191	-0.163
-503.697	-178.661	-0.235	0.005
-502.683	481.013	0.184	0.424
-501.668	71.436	-0.209	0.220
-500.653	-38.976	-0.110	0.058
-499.639	115.186	0.032	0.040
-498.624	40.451	-0.342	-0.312
-497.610	133.236	-0.228	0.298
-496.595	-113.732	-0.150	0.030
-495.581	99.220	-0.148	-0.173
-494.566	63.218	0.127	0.129
-493.551	-142.580	0.164	-0.016
-492.537	-200.000	0.039	0.218
-491.522	-24.210	-0.144	-0.087
-490.508	-200.000	0.064	-0.296
-489.493	-108.847	0.373	0.081
-488.478	173.348	-0.110	-0.160
-487.464	66.426	0.119	0.122
-486.449	159.325	0.083	0.117
-485.435	-117.813	-0.113	-0.021
-484.420	-174.725	0.215	0.006
-483.405	-0.881	0.222	0.159
-482.391	-200.000	-0.014	-0.405
-481.376	150.541	-0.083	0.114
-480.362	260.195	0.052	-0.090
-479.347	268.090	0.104	0.185
-478.332	-200.000	0.013	0.276
-477.318	-200.000	0.037	0.296
-476.303	-44.712	0.247	-0.125
-475.289	152.407	-0.137	0.190
-474.274	449.493	-0.144	0.322
-473.259	-34.826	-0.177	0.098
-472.245	-7.996	0.127	0.087
-471.230	-14.737	-0.310	0.201
-470.216	-200.000	0.001	-0.097
-469.201	-54.002	0.207	0.095
-468.186	-200.000	-0.010	0.117
-467.172	-93.246	0.289	-0.081
-466.157	86.480	-0.182	-0.203
-465.143	-24.150	-0.155	0.094
-464.128	140.010	0.130	0.174
-463.113	-200.000	-0.046	-0.369
-462.099	-68.349	0.271	0.106
-461.084	455.418	0.092	-0.207
-460.070	755.605	0.125	0.342
-459.055	283.661	0.107	-0.194
-458.040	-59.322	0.173	0.075
-457.026	250.618	0.176	-0.302
-456.011	-200.000	-0.008	-0.097
-454.997	124.175	-0.077	-0.098
-453.982	-63.756	-0.230	-0.095
-452.968	-42.795	-0.124	-0.064
-451.953	54.990	0.015	-0.015
-450.938	-101.930	-0.111	-0.027
-449.924	158.326	-0.129	0.180
-448.909	800.000	-0.109	0.359
-447.895	800.000	0.128	0.394
-446.880	-51.825	-0.040	-0.019
-445.865	107.664	0.097	0.117
-444.851	-33.906	-0.285	0.158
-443.836	800.000	-0.056	0.243
-442.822	-48.547	-0.122	-0.059
-441.807	-83.069	-0.049	-0.016
-440.792	-200.000	0.042	-0.187
-439.778	-49.845	0.269	-0.129
-438.763	-111.942	0.087	0.018
-437.749	-34.306	-0.321	-0.178
-436.734	-121.432	-0.194	0.033
-435.719	-200.000	0.040	-0.335
-434.705	40.302	-0.144	0.131
-433.690	-167.663	-0.246	-0.010
-432.676	347.439	-0.124	0.246
-431.661	-29.156	0.283	0.164
-430.646	-25.162	0.222	-0.133
-429.632	345.456	0.153	0.304
-428.617	-89.826	-0.138	0.041
-427.603	800.000	0.056	0.229
-426.588	374.853	0.081	0.166
-425.573	-127.325	0.213	-0.031
-424.559	512.372	0.036	0.086
-423.544	-200.000	-0.006	-0.208
-422.530	276.059	-0.111	0.200
-421.515	-132.656	0.252	-0.033
-420.500	53.916	-0.030	-0.029
-419.486	475.683	0.061	-0.139
-418.471	68.801	-0.098	-0.101
-417.457	-148.134	0.106	0.009
-416.442	42.760	0.169	-0.155
-415.428	-109.704	-0.070	-0.015
-414.413	92.859	0.175	0.200
-413.398	188.465	-0.084	0.127
-412.384	-48.630	0.130	0.063
-411.369	1.554	0.075	0.054
-410.355	800.000	0.032	-0.110
-409.340	74.732	-0.138	0.146
-408.325	-140.605	0.093	0.010
-407.311	800.000	0.033	0.098
-406.296	195.641	0.166	0.255
-405.282	541.112	0.087	0.210
-404.267	-200.000	0.005	0.355
-403.252	-161.011	0.217	-0.012
-402.238	140.576	0.217	-0.289
-401.223	-1.343	0.201	-0.143
-400.209	-200.000	0.044	0.291
-399.194	-35.278	0.372	-0.204
-398.179	-100.074	-0.272	0.068
-397.165	-115.212	-0.072	-0.014
-396.150	-200.000	-0.051	0.255
-395.136	-89.623	0.320	-0.095
-394.121	-200.000	-0.420	0.001
-393.106	-152.082	-0.544	0.040
-392.092	48.556	-0.171	0.162
-391.077	705.475	0.107	0.284
-390.063	-170.993	0.165	-0.006
-389.048	86.980	0.093	0.104
-388.033	800.000	-0.016	-0.062
-387.019	-200.000	0.016	-0.133
-386.004	452.044	-0.021	0.047
-384.990	159.591	-0.103	0.145
-383.975	11.148	-0.060	-0.046
-382.960	-107.068	-0.277	0.062
-381.946	63.225	0.264	-0.267
-380.931	800.000	-0.047	-0.155
-379.917	388.017	-0.158	-0.329
-378.902	-2.734	0.267	-0.188
-377.888	-133.026	-0.288	0.037
-376.873	-200.000	0.000	0.167
-375.858	81.048	-0.321	-0.349
-374.844	176.349	-0.235	-0.345
-373.829	-87.494	0.281	-0.086
-372.815	-200.000	0.000	0.105
-371.800	211.651	-0.095	0.151
-370.785	800.000	0.039	0.147
-369.771	-32.326	-0.273	0.153
-368.756	-159.526	-0.123	-0.007
-367.742	-200.000	-0.034	-0.343
-366.727	-200.000	0.019	0.153
-365.712	-81.587	0.046	-0.015
-364.698	800.000	0.039	0.154
-363.683	-105.273	-0.348	-0.080
-362.669	13.839	-0.374	0.293
-361.654	17.813	0.060	0.048
-360.639	50.126	0.029	-0.027
-359.625	96.517	-0.092	0.106
-358.610	800.000	-0.126	-0.468
-357.596	-161.329	-0.384	0.020
-356.581	103.952	0.108	-0.128
-355.566	21.626	-0.047	-0.039
-354.552	-17.445	-0.358	-0.227
-353.537	-200.000	0.030	-0.280
-352.523	-24.309	-0.252	0.152
-351.508	-84.082	0.092	-0.029
-350.493	-17.206	0.327	-0.207
-349.479	515.457	0.096	0.226
-348.464	-184.054	-0.385	0.006
-347.450	-200.000	0.027	0.303
-346.435	-50.946	0.388	-0.184
-345.420	-150.540	0.352	0.027
-344.406	438.231	0.158	-0.346
-343.391	404.199	-0.080	-0.170
-342.377	-13.002	-0.079	-0.051
-341.362	-128.199	-0.530	-0.076
-340.348	-30.549	0.267	0.152
-339.333	27.256	0.265	0.224
-338.318	195.120	-0.099	0.152
-337.304	-200.000	-0.002	0.288
-336.289	-46.491	0.178	0.088
-335.275	800.000	-0.038	-0.154
-334.260	-200.000	0.001	-0.248
-333.245	-135.223	0.319	-0.039
-332.231	-165.225	-0.152	-0.007
-331.216	-179.708	0.240	-0.005
-330.202	74.065	-0.107	-0.113
-329.187	335.758	-0.157	-0.306
-328.172	-107.192	-0.154	-0.034
-327.158	800.000	0.038	-0.145
-326.143	-132.809	-0.225	-0.029
-325.129	-15.360	-0.203	0.131
-324.114	-115.351	-0.385	0.073
-323.099	174.221	-0.269	0.391
-322.085	-64.632	-0.272	-0.111
-321.070	800.000	0.025	-0.094
-320.056	238.548	0.108	0.180
-319.041	-107.346	0.228	0.050
-318.026	335.131	0.091	0.177
-317.012	-6.652	0.147	-0.101
-315.997	412.635	-0.084	-0.179
-314.983	-18.497	0.296	-0.186
-313.968	-158.063	0.358	0.021
-312.953	67.134	0.161	0.165
-311.939	71.124	-0.174	0.181
-310.924	-200.000	0.002	0.057
-309.910	-4.033	0.169	0.118
-308.895	52.171	-0.110	-0.106
-307.880	-117.536	-0.160	0.029
-306.866	-167.935	0.485	0.019
-305.851	27.418	0.046	0.039
-304.837	-102.913	0.224	-0.054
-303.822	38.650	-0.133	0.119
-302.807	-82.932	-0.179	0.058
-301.793	43.711	0.247	-0.227
-300.778	-185.305	0.314	0.005
-299.764	-200.000	0.010	-0.256
-298.749	44.628	-0.138	-0.128
-297.735	59.623	-0.078	-0.077
-296.720	-129.465	0.463	0.064
-295.705	39.321	-0.230	-0.207
-294.691	-88.822	0.311	0.093
-293.676	-68.256	0.287	-0.112
-292.662	-110.708	0.056	0.012
-291.647	-200.000	-0.051	0.245
-290.632	313.736	-0.078	0.147
-289.618	19.558	0.051	-0.042
-288.603	-62.848	0.178	0.074
-287.589	-66.462	0.221	0.088
-286.574	800.000	-0.029	0.115
-285.559	-107.369	0.331	-0.073
-284.545	-200.000	-0.040	0.277
-283.530	800.000	0.079	0.244
-282.516	-94.011	-0.172	0.047
-281.501	2.500	-0.226	0.165
-280.486	-48.938	0.272	0.131
-279.472	800.000	-0.023	-0.074
-278.457	800.000	-0.082	-0.300
-277.443	-37.232	0.103	0.055
-276.428	-200.000	0.020	0.144
-275.413	-200.000	-0.177	0.000
-274.399	-75.676	0.402	0.143
-273.384	-48.528	0.104	0.050
-272.370	-197.558	0.197	-0.001
-271.355	451.464	0.211	-0.467
-270.340	160.377	-0.095	-0.133
-269.326	112.304	0.074	0.090
-268.311	-130.609	-0.168	-0.023
-267.297	-10.928	-0.146	0.097
-266.282	-200.000	-0.026	-0.152
-265.267	-16.162	0.186	0.119
-264.253	-136.987	-0.080	-0.009
-263.238	93.929	-0.100	0.113
-262.224	800.000	0.082	0.341
-261.209	61.038	0.159	0.159
-260.195	299.176	0.133	-0.245
-259.180	-125.414	-0.211	0.032
-258.165	-54.182	0.135	-0.062
-257.151	347.795	-0.075	-0.149
-256.136	-116.024	-0.161	-0.030
-255.122	-37.261	0.228	0.122
-254.107	-37.749	0.127	0.068
-253.092	-125.782	-0.268	-0.041
-252.078	-5.348	-0.159	0.110
-251.063	461.590	-0.187	0.419
-250.049	31.109	-0.240	-0.207
-249.034	-95.643	-0.400	-0.107
-248.019	10.212	0.335	-0.256
-247.005	-101.534	0.339	-0.083
-245.990	98.409	0.250	-0.289
-244.976	800.000	0.031	0.127
-243.961	-74.366	0.121	-0.044
-242.946	-101.684	-0.384	-0.093
-241.932	-76.053	-0.199	-0.071
-240.917	-48.880	-0.250	-0.120
-239.903	161.321	0.212	0.297
-238.888	-5.805	-0.156	0.107
-237.873	110.703	-0.064	0.077
-236.859	271.190	-0.085	0.149
-235.844	-200.000	0.045	-0.198
-234.830	78.930	0.117	0.126
-233.815	-200.000	-0.050	0.242
-232.800	111.784	0.059	-0.072
-231.786	91.224	-0.317	-0.357
-230.771	-14.066	-0.321	0.207
-229.757	800.000	0.024	-0.093
-228.742	-200.000	0.014	0.159
-227.727	265.147	0.034	0.059
-226.713	-109.682	-0.274	-0.058
-225.698	-64.499	0.229	0.093
-224.684	334.083	0.086	0.166
-223.669	800.000	0.041	-0.139
-222.655	227.901	-0.107	-0.175
-221.640	136.334	-0.141	-0.185
-220.625	221.788	0.104	-0.167
-219.611	800.000	0.084	0.300
-218.596	-200.000	-0.016	0.139
-217.582	800.000	-0.040	-0.118
-216.567	800.000	-0.070	-0.241
-215.552	-200.000	-0.021	0.116
-214.538	800.000	-0.056	-0.243
-213.523	158.587	0.171	-0.237
-212.509	162.078	0.218	0.306
-211.494	698.753	0.127	-0.335
-210.479	-126.918	0.145	0.021
-209.465	34.156	0.058	-0.051
-208.450	-121.826	0.296	-0.049
-207.436	532.450	0.059	0.139
-206.421	-200.000	-0.013	-0.263
-205.406	-138.252	-0.343	0.038
-204.392	428.139	0.042	-0.091
-203.377	-56.253	0.137	0.061
-202.363	-133.607	0.124	0.016
-201.348	574.534	0.052	-0.128
-200.333	152.603	-0.048	-0.065
-199.319	527.852	-0.173	-0.408
-198.304	188.661	-0.066	0.099
-197.290	-26.584	0.294	-0.172
-196.275	-19.611	-0.050	-0.031
-195.260	800.000	-0.106	-0.353
-194.246	800.000	0.049	0.188
-193.231	251.126	-0.109	0.185
-192.217	-33.674	0.084	-0.046
-191.202	343.412	0.073	-0.143
-190.187	-200.000	0.032	0.249
-189.173	-116.149	0.084	0.016
-188.158	-107.270	0.110	-0.024
-187.144	-34.868	-0.196	0.107
-186.129	-85.441	-0.509	0.159
-185.114	525.081	0.112	0.264
-184.100	239.248	0.057	0.094
-183.085	-159.668	0.311	0.017
-182.071	-148.631	0.101	0.008
-181.056	188.023	0.074	0.111
-180.042	-9.742	0.341	-0.227
-179.027	-120.610	0.081	0.014
-178.012	-113.344	-0.176	0.035
-176.998	-11.767	0.064	0.042
-175.983	426.199	-0.124	0.267
-174.969	-200.000	0.019	0.250
-173.954	-69.220	0.060	-0.023
-172.939	5.423	0.092	0.068
-171.925	-68.009	0.109	-0.042
-170.910	-200.000	-0.019	0.313
-169.896	-153.240	0.135	-0.009
-168.881	-200.000	-0.006	-0.033
-167.866	152.969	-0.106	0.145
-166.852	130.054	-0.215	-0.275
-165.837	69.111	-0.099	-0.101
-164.823	-38.074	0.075	0.040
-163.808	-18.258	0.148	-0.093
-162.793	-57.165	0.073	0.032
-161.779	-200.000	-0.002	0.044
-160.764	-47.818	-0.219	0.106
-159.750	261.851	0.163	-0.282
-158.735	-200.000	-0.002	-0.018
-157.720	-88.328	-0.047	-0.014
-156.706	15.276	-0.177	0.139
-155.691	800.000	-0.106	-0.406
-154.677	414.976	-0.053	-0.112
-153.662	-200.000	0.044	-0.243
-152.647	14.032	0.118	0.091
-151.633	329.496	-0.147	0.282
-150.618	-41.157	-0.149	0.077
-149.604	55.243	-0.055	-0.053
-148.589	591.357	0.052	0.128
-147.574	158.696	-0.159	-0.221
-146.560	-200.000	-0.055	0.302
-145.545	530.189	-0.087	-0.206
-144.531	-18.328	-0.326	0.204
-143.516	134.887	-0.025	-0.032
-142.502	16.179	-0.195	0.153
-141.487	6.677	0.104	-0.077
-140.472	671.582	0.061	-0.157
-139.458	-92.391	0.278	0.078
-138.443	-137.126	-0.040	0.005
-137.429	268.474	-0.132	-0.231
-136.414	-173.928	-0.347	0.010
-135.399	201.685	0.101	-0.155
-134.385	-72.287	-0.174	-0.064
-133.370	114.724	-0.148	0.180
-132.356	-25.223	0.205	-0.121
-131.341	-17.201	-0.191	-0.120
-130.326	-57.768	-0.033	-0.014
-129.312	-55.389	-0.409	0.183
-128.297	800.000	0.107	0.301
-127.283	-200.000	0.045	0.267
-126.268	-39.450	0.358	-0.187
-125.253	303.377	-0.122	0.225
-124.239	-97.555	0.108	0.028
-123.224	251.091	0.102	0.172
-122.210	-95.177	-0.352	-0.095
-121.195	52.932	-0.231	-0.221
