DTS Sentinel unit serial number:	SN413079Multiplexer serial number:	ORYXHardware model number:	OX4-SRSoftware version number:	ORYX F/W v4.00 Oryx Data Collector v3.7.2.0data status	okinstallation	princeton_trtdifferential loss correction	single-endedforward channel	channel 1reverse channel	N/Adate	2019/09/13time	22:26:35forward acquisition time	60.00reverse acquisition time	0.00gamma	496.2192k internal	0.2332k external	0.2332temperature offset calibration	1.0089default loss term (dB/km)	0.3790temperature slope calibration	1.0000multiplexer offset coefficient	1.0000multiplexer slope coefficient	1.0000fibre end	0.00T internal ref (°C)	27.81T ext. ref 1 (°C)	3.24T ext. ref 2 (°C)	22.33length (m)	temperature (°C)	Stokes	anti-Stokes-747.200	-95.888	-0.185	0.050
-746.185	-160.400	-0.211	0.011
-745.171	-117.434	0.234	-0.043
-744.156	800.000	-0.070	-0.240
-743.142	-200.000	0.050	0.429
-742.127	-48.595	-0.031	-0.015
-741.112	507.649	-0.054	0.126
-740.098	-200.000	-0.066	0.724
-739.083	15.271	0.133	-0.105
-738.069	241.369	-0.021	-0.035
-737.054	-32.999	0.103	0.057
-736.039	47.718	0.048	0.045
-735.025	800.000	-0.031	0.108
-734.010	-133.251	-0.246	-0.031
-732.996	516.012	-0.178	-0.418
-731.981	96.387	0.120	0.138
-730.966	770.395	-0.097	-0.266
-729.952	-200.000	0.002	-0.110
-728.937	-109.597	-0.237	0.050
-727.923	99.719	-0.247	0.287
-726.908	-151.953	-0.333	0.024
-725.894	-200.000	0.000	-0.199
-724.879	191.071	0.156	0.236
-723.864	-200.000	-0.000	0.245
-722.850	-149.512	-0.174	-0.014
-721.835	-136.497	-0.364	0.042
-720.821	-102.019	-0.224	-0.054
-719.806	12.602	-0.305	-0.236
-718.791	-142.647	-0.039	0.004
-717.777	800.000	0.089	0.288
-716.762	-151.066	0.032	-0.002
-715.748	-34.380	-0.080	0.044
-714.733	-17.368	0.327	0.207
-713.718	-200.000	0.056	0.265
-712.704	343.804	0.127	-0.251
-711.689	263.443	-0.042	0.074
-710.675	706.832	0.008	-0.022
-709.660	800.000	0.074	0.279
-708.645	251.959	-0.135	-0.231
-707.631	236.025	0.077	-0.129
-706.616	1.426	-0.285	0.206
-705.602	108.008	-0.121	-0.145
-704.587	27.742	-0.150	0.127
-703.572	-200.000	-0.386	-0.001
-702.558	800.000	0.066	-0.251
-701.543	148.420	-0.225	-0.305
-700.529	-200.000	0.012	0.187
-699.514	-122.219	-0.239	0.039
-698.499	1.784	-0.066	-0.048
-697.485	-101.669	-0.365	-0.089
-696.470	-200.000	0.006	0.291
-695.456	-20.413	0.224	-0.139
-694.441	390.002	0.075	-0.155
-693.426	156.590	-0.115	-0.159
-692.412	800.000	0.066	0.215
-691.397	207.072	-0.204	-0.319
-690.383	-56.018	-0.248	0.111
-689.368	-200.000	-0.036	-0.161
-688.354	43.000	0.142	-0.130
-687.339	800.000	-0.035	-0.140
-686.324	-149.346	-0.314	0.025
-685.310	-84.498	-0.132	-0.042
-684.295	-83.484	0.037	0.012
-683.281	-51.921	0.126	-0.059
-682.266	-200.000	-0.052	0.405
-681.251	-200.000	-0.012	-0.105
-680.237	-36.702	-0.155	-0.084
-679.222	800.000	-0.070	0.266
-678.208	-100.508	-0.370	-0.092
-677.193	-91.766	-0.152	-0.043
-676.178	-25.223	-0.331	0.196
-675.164	-15.997	0.274	0.175
-674.149	800.000	0.081	0.251
-673.135	-97.556	0.258	0.067
-672.120	-5.316	0.179	-0.123
-671.105	-74.425	-0.121	0.044
-670.091	264.993	0.049	-0.087
-669.076	484.732	-0.126	0.287
-668.062	220.015	-0.184	0.295
-667.047	-101.135	0.376	-0.092
-666.032	-164.358	0.290	0.013
-665.018	800.000	0.069	-0.245
-664.003	490.144	0.104	0.240
-662.989	-120.864	0.235	0.040
-661.974	410.562	0.125	-0.265
-660.959	-200.000	0.013	0.077
-659.945	-88.293	-0.345	-0.104
-658.930	512.212	0.079	-0.184
-657.916	387.119	0.034	0.071
-656.901	-92.482	-0.089	-0.025
-655.886	111.492	-0.145	-0.175
-654.872	148.327	-0.081	-0.110
-653.857	-147.019	-0.268	0.023
-652.843	-23.534	0.089	0.054
-651.828	-39.563	0.106	-0.055
-650.814	-200.000	0.016	0.123
-649.799	800.000	0.066	0.222
-648.784	-170.713	0.150	0.005
-647.770	-84.771	0.236	-0.074
-646.755	186.878	-0.100	-0.150
-645.741	-56.496	0.483	0.215
-644.726	-60.675	0.062	-0.026
-643.711	-200.000	0.101	0.571
-642.697	-175.668	0.461	0.012
-641.682	313.599	-0.141	-0.265
-640.668	50.912	-0.153	0.146
-639.653	22.209	-0.133	0.109
-638.638	-105.711	0.139	-0.032
-637.624	-35.317	-0.188	0.102
-636.609	60.798	0.265	0.263
-635.595	-200.000	-0.025	-0.162
-634.580	10.785	-0.075	0.057
-633.565	2.473	-0.110	0.080
-632.551	-10.024	-0.303	0.202
-631.536	-43.637	-0.288	0.145
-630.522	75.994	0.120	0.127
-629.507	50.809	-0.184	-0.174
-628.492	-118.562	0.120	0.021
-627.478	1.019	-0.234	-0.168
-626.463	800.000	-0.014	0.059
-625.449	-200.000	0.001	0.082
-624.434	-88.003	0.181	0.055
-623.419	26.400	-0.236	-0.197
-622.405	-41.611	0.155	-0.080
-621.390	-200.000	0.042	0.423
-620.376	169.027	-0.156	-0.223
-619.361	278.212	-0.202	0.361
-618.346	-67.844	0.018	0.007
-617.332	-200.000	0.042	-0.294
-616.317	-200.000	-0.049	-0.231
-615.303	-66.743	0.071	-0.028
-614.288	-98.304	0.109	0.028
-613.273	359.179	0.096	0.193
-612.259	-128.926	-0.340	-0.048
-611.244	800.000	-0.071	-0.246
-610.230	476.097	-0.071	0.160
-609.215	9.537	-0.144	-0.109
-608.201	327.059	-0.158	-0.303
-607.186	212.755	-0.116	-0.182
-606.171	800.000	-0.074	0.314
-605.157	-18.295	0.217	-0.136
-604.142	222.920	-0.179	-0.288
-603.128	-166.082	-0.240	0.010
-602.113	535.310	-0.073	-0.174
-601.098	-21.555	-0.075	0.046
-600.084	-200.000	-0.016	-0.080
-599.069	143.320	-0.159	0.212
-598.055	-76.737	0.301	-0.105
-597.040	-134.750	-0.165	0.020
-596.025	-50.638	0.062	0.029
-595.011	800.000	-0.078	0.242
-593.996	-67.800	0.031	0.012
-592.982	-200.000	0.006	-0.263
-591.967	-200.000	0.022	0.113
-590.952	194.367	0.075	-0.114
-589.938	139.834	-0.123	-0.163
-588.923	-59.729	0.026	0.011
-587.909	-45.637	-0.223	-0.111
-586.894	-55.903	0.164	-0.073
-585.879	144.819	-0.017	0.023
-584.865	380.541	-0.063	-0.130
-583.850	800.000	-0.033	0.115
-582.836	54.912	0.127	-0.123
-581.821	-157.076	-0.268	-0.016
-580.806	-68.218	-0.367	0.143
-579.792	-53.840	0.059	0.027
-578.777	-200.000	0.009	0.193
-577.763	-74.282	-0.217	-0.078
-576.748	-105.597	0.141	-0.032
-575.733	-200.000	-0.022	-0.618
-574.719	-41.725	-0.226	-0.116
-573.704	654.101	0.081	-0.208
-572.690	-200.000	0.021	0.133
-571.675	800.000	0.081	-0.226
-570.661	767.918	0.068	-0.185
-569.646	443.158	0.049	-0.107
-568.631	-75.937	-0.345	-0.122
-567.617	-87.713	-0.081	0.024
-566.602	-31.330	-0.081	0.045
-565.588	-196.389	0.281	0.002
-564.573	82.997	-0.068	-0.073
-563.558	422.309	0.082	0.175
-562.544	250.649	0.106	-0.180
-561.529	-23.092	0.166	0.100
-560.515	-99.432	0.317	-0.080
-559.500	-200.000	0.004	-0.325
-558.485	2.998	-0.015	0.011
-557.471	-99.278	0.223	0.056
-556.456	-101.700	0.190	0.046
-555.442	99.790	0.177	-0.204
-554.427	338.116	0.088	-0.172
-553.412	-91.912	-0.270	-0.076
-552.398	-200.000	0.004	-0.225
-551.383	-200.000	0.031	0.285
-550.369	-74.663	0.031	0.011
-549.354	-129.643	0.147	-0.020
-548.339	341.578	0.105	0.206
-547.325	23.059	0.223	0.182
-546.310	-1.751	-0.390	-0.274
-545.296	-200.000	-0.052	0.269
-544.281	-200.000	0.017	-0.127
-543.266	298.951	0.196	-0.359
-542.252	-139.489	-0.162	-0.017
-541.237	800.000	-0.046	0.177
-540.223	-4.236	0.145	-0.100
-539.208	33.804	-0.039	0.034
-538.193	532.328	-0.176	-0.415
-537.179	-48.436	0.406	-0.195
-536.164	-200.000	-0.007	-0.280
-535.150	800.000	0.149	0.495
-534.135	42.761	0.276	0.251
-533.121	-90.213	0.212	-0.061
-532.106	-76.164	-0.223	0.079
-531.091	-103.688	-0.075	0.018
-530.077	-117.117	0.213	-0.039
-529.062	-66.669	0.313	-0.124
-528.048	-38.638	0.340	-0.179
-527.033	122.902	0.348	0.434
-526.018	-200.000	0.041	0.222
-525.004	-200.000	-0.000	-0.159
-523.989	316.223	0.176	0.331
-522.975	113.442	-0.155	0.188
-521.960	-200.000	0.038	0.246
-520.945	800.000	-0.041	-0.171
-519.931	-77.733	-0.264	0.091
-518.916	-83.087	-0.320	0.103
-517.902	800.000	-0.028	0.093
-516.887	800.000	0.067	-0.240
-515.872	-98.881	-0.035	-0.009
-514.858	-107.513	0.288	0.063
-513.843	-108.355	-0.350	-0.075
-512.829	-11.940	-0.264	-0.172
-511.814	-200.000	-0.057	-0.251
-510.799	800.000	-0.083	0.288
-509.785	-9.730	0.092	0.061
-508.770	-115.171	-0.276	0.052
-507.756	-43.540	-0.183	0.092
-506.741	-25.205	-0.085	-0.050
-505.726	-100.807	0.279	0.068
-504.712	45.038	-0.080	0.074
-503.697	800.000	-0.092	0.319
-502.683	135.719	0.266	0.346
-501.668	196.502	-0.120	-0.182
-500.653	287.428	0.109	0.197
-499.639	208.034	0.127	0.198
-498.624	-40.230	0.189	-0.098
-497.610	523.693	-0.084	-0.197
-496.595	800.000	-0.139	-0.409
-495.581	150.791	0.084	-0.114
-494.566	-160.781	0.070	0.004
-493.551	74.307	-0.258	0.271
-492.537	276.796	0.141	0.250
-491.522	800.000	-0.067	-0.191
-490.508	-66.379	-0.138	-0.055
-489.493	309.544	-0.158	-0.294
-488.478	-200.000	-0.062	-0.392
-487.464	71.204	-0.052	-0.053
-486.449	-1.275	-0.229	0.161
-485.435	-200.000	-0.041	-0.249
-484.420	-70.473	0.203	0.077
-483.405	18.941	0.444	-0.354
-482.391	23.982	0.205	0.169
-481.376	744.417	-0.065	0.175
-480.362	-18.359	-0.337	-0.210
-479.347	382.316	-0.053	-0.109
-478.332	299.782	-0.037	-0.068
-477.318	17.783	0.107	-0.084
-476.303	-62.039	0.262	-0.109
-475.289	-27.065	-0.171	-0.099
-474.274	-138.019	0.134	0.015
-473.259	305.560	0.026	0.049
-472.245	-39.263	0.226	0.118
-471.230	-200.000	0.067	0.388
-470.216	-122.227	0.074	0.012
-469.201	105.871	0.116	-0.136
-468.186	-124.930	-0.168	-0.026
-467.172	119.355	0.130	-0.160
-466.157	400.328	0.120	-0.251
-465.143	-9.067	-0.374	0.249
-464.128	126.077	0.249	0.314
-463.113	-117.240	0.271	-0.049
-462.099	656.225	0.021	-0.054
-461.084	-49.017	-0.139	0.066
-460.070	27.923	-0.152	-0.127
-459.055	449.343	-0.059	-0.129
-458.040	-125.567	-0.249	0.038
-457.026	729.980	-0.171	0.453
-456.011	-200.000	-0.011	0.238
-454.997	67.810	-0.065	-0.066
-453.982	-37.445	0.038	0.020
-452.968	-36.874	-0.176	0.094
-451.953	-200.000	0.024	-0.141
-450.938	40.507	0.110	0.099
-449.924	122.342	-0.241	-0.300
-448.909	-87.330	-0.310	0.094
-447.895	-91.780	-0.250	0.071
-446.880	8.578	-0.507	-0.380
-445.865	58.171	-0.036	0.035
-444.851	800.000	-0.038	0.119
-443.836	-200.000	-0.012	-0.451
-442.822	74.090	0.211	0.220
-441.807	52.397	0.052	0.049
-440.792	272.685	0.061	0.107
-439.778	-16.432	-0.154	0.097
-438.763	-42.974	0.361	-0.182
-437.749	-41.602	-0.083	-0.042
-436.734	89.443	-0.077	0.085
-435.719	-200.000	0.011	0.240
-434.705	800.000	0.040	0.165
-433.690	-43.045	-0.320	-0.162
-432.676	-200.000	0.001	0.099
-431.661	-20.567	-0.324	0.198
-430.646	-40.621	-0.352	-0.181
-429.632	-5.191	0.106	-0.072
-428.617	-200.000	-0.014	0.377
-427.603	-87.207	-0.363	0.110
-426.588	-169.163	0.269	0.010
-425.573	386.764	0.057	0.118
-424.559	419.738	-0.094	0.199
-423.544	800.000	-0.139	-0.409
-422.530	-200.000	0.023	-0.411
-421.515	-7.805	-0.282	0.189
-420.500	-25.423	0.271	0.159
-419.486	-66.052	0.076	0.030
-418.471	26.326	0.151	0.125
-417.457	-200.000	0.009	0.149
-416.442	800.000	0.038	0.133
-415.428	-131.930	-0.185	-0.024
-414.413	-200.000	0.012	-0.055
-413.398	800.000	0.058	0.161
-412.384	-122.075	0.432	-0.070
-411.369	-168.409	-0.199	-0.008
-410.355	-90.481	0.197	-0.057
-409.340	162.497	-0.250	-0.348
-408.325	443.778	0.069	0.150
-407.311	-185.403	-0.294	-0.004
-406.296	-200.000	0.019	-0.199
-405.282	269.869	0.157	0.273
-404.267	800.000	0.032	-0.128
-403.252	138.859	-0.201	0.262
-402.238	-71.627	0.188	0.070
-401.223	-61.551	0.187	-0.078
-400.209	-50.588	-0.144	-0.067
-399.194	-68.706	0.147	0.056
-398.179	-4.829	-0.199	0.136
-397.165	-39.798	-0.199	0.103
-396.150	-92.591	0.399	-0.111
-395.136	234.079	-0.102	0.167
-394.121	-71.347	0.321	-0.119
-393.106	124.774	0.103	-0.128
-392.092	800.000	-0.136	-0.398
-391.077	-62.459	0.193	0.079
-390.063	73.865	-0.114	0.118
-389.048	78.210	-0.252	0.267
-388.033	140.419	0.179	0.234
-387.019	-39.666	-0.329	-0.171
-386.004	654.123	0.036	0.091
-384.990	-106.601	0.170	0.038
-383.975	800.000	-0.048	0.168
-382.960	579.058	0.138	0.336
-381.946	-200.000	0.039	-0.431
-380.931	523.880	0.077	-0.180
-379.917	70.891	0.124	0.127
-378.902	783.318	0.042	-0.115
-377.888	-200.000	-0.008	0.239
-376.873	-35.786	-0.115	0.062
-375.858	789.651	-0.032	0.088
-374.844	-200.000	-0.031	-0.484
-373.829	90.646	0.153	-0.170
-372.815	-55.256	-0.113	-0.050
-371.800	221.254	-0.085	0.136
-370.785	-200.000	0.044	-0.198
-369.771	-200.000	0.051	-0.464
-368.756	-74.594	-0.219	-0.078
-367.742	127.336	0.121	-0.152
-366.727	409.132	-0.106	0.223
-365.712	402.439	-0.062	0.130
-364.698	75.596	0.096	0.100
-363.683	-89.882	0.328	-0.095
-362.669	-200.000	0.005	-0.142
-361.654	674.052	0.058	-0.149
-360.639	-200.000	-0.000	-0.209
-359.625	224.207	0.049	0.079
-358.610	-74.815	-0.202	-0.072
-357.596	12.895	0.057	-0.044
-356.581	-200.000	-0.042	0.212
-355.566	-200.000	-0.007	0.209
-354.552	-73.916	-0.082	0.029
-353.537	146.858	-0.132	-0.176
-352.523	167.874	-0.137	-0.192
-351.508	412.836	0.085	0.179
-350.493	-84.608	-0.510	-0.159
-349.479	-12.366	-0.233	-0.151
-348.464	-134.509	-0.261	0.032
-347.450	-100.054	0.335	0.083
-346.435	-146.127	0.238	0.021
-345.420	-200.000	-0.054	0.341
-344.406	-200.000	-0.130	-0.000
-343.391	-63.113	-0.163	-0.067
-342.377	-11.708	-0.088	-0.057
-341.362	382.794	0.123	-0.250
-340.348	-109.765	0.225	0.047
-339.333	156.468	0.122	0.167
-338.318	736.004	0.119	0.315
-337.304	477.542	-0.091	-0.205
-336.289	256.054	0.125	0.212
-335.275	-130.555	-0.323	-0.043
-334.260	174.306	0.196	-0.281
-333.245	-19.528	0.082	0.050
-332.231	155.552	0.180	0.245
-331.216	-107.507	-0.371	-0.080
-330.202	32.362	0.239	0.204
-329.187	-200.000	-0.032	-0.387
-328.172	-82.702	0.261	-0.084
-327.158	-200.000	-0.014	0.201
-326.143	147.139	-0.148	-0.197
-325.129	389.494	0.085	-0.175
-324.114	-200.000	-0.011	0.114
-323.099	-41.136	0.085	0.043
-322.085	-53.442	-0.291	-0.132
-321.070	235.715	-0.068	0.110
-320.056	119.193	0.047	-0.057
-319.041	-139.631	0.084	-0.009
-318.026	-87.047	-0.257	0.078
-317.012	213.106	0.055	-0.086
-315.997	-71.137	0.400	-0.149
-314.983	155.701	0.031	-0.042
-313.968	264.929	0.163	-0.281
-312.953	164.030	-0.203	-0.282
-311.939	-119.166	0.167	-0.029
-310.924	741.468	0.017	-0.046
-309.910	204.932	0.085	-0.130
-308.895	-92.428	0.216	-0.060
-307.880	800.000	0.012	-0.039
-306.866	-171.679	-0.079	-0.003
-305.851	123.027	-0.105	-0.130
-304.837	7.157	0.157	0.116
-303.822	-79.574	0.280	-0.093
-302.807	-107.899	-0.346	-0.074
-301.793	74.955	-0.151	-0.157
-300.778	-69.023	-0.276	-0.105
-299.764	88.934	0.150	0.165
-298.749	-110.248	-0.224	0.046
-297.735	-129.523	-0.102	0.014
-296.720	151.980	0.301	-0.405
-295.705	-35.053	0.264	-0.142
-294.691	-57.224	-0.158	-0.069
-293.676	-183.639	0.227	0.004
-292.662	313.973	-0.143	0.266
-291.647	2.169	-0.233	0.166
-290.632	162.924	0.213	-0.296
-289.618	-5.868	-0.559	-0.378
-288.603	147.014	0.122	0.162
-287.589	277.582	0.055	0.096
-286.574	-115.474	0.288	-0.054
-285.559	120.331	0.113	0.138
-284.545	23.329	-0.069	-0.056
-283.530	800.000	-0.035	-0.099
-282.516	189.152	0.018	0.027
-281.501	800.000	-0.060	0.206
-280.486	-3.226	0.262	0.180
-279.472	38.078	-0.269	0.236
-278.457	-200.000	0.026	0.134
-277.443	51.787	0.078	-0.074
-276.428	-46.563	0.074	0.036
-275.413	800.000	-0.051	-0.180
-274.399	504.075	-0.076	-0.173
-273.384	32.664	0.172	-0.147
-272.370	51.508	-0.152	0.143
-271.355	-81.080	-0.246	-0.080
-270.340	-200.000	-0.008	-0.171
-269.326	69.651	-0.134	0.137
-268.311	31.119	0.127	-0.108
-267.297	-123.711	0.276	-0.043
-266.282	308.067	0.158	0.290
-265.267	-159.374	0.185	0.010
-264.253	-138.731	0.343	-0.037
-263.238	-140.588	-0.283	-0.029
-262.224	783.692	-0.085	0.230
-261.209	50.851	-0.096	-0.090
-260.195	-135.955	-0.170	-0.020
-259.180	7.802	-0.144	0.107
-258.165	-12.969	-0.074	0.048
-257.151	-31.627	0.272	-0.151
-256.136	7.901	-0.215	0.159
-255.122	434.247	-0.093	0.200
-254.107	192.154	0.187	0.278
-253.092	800.000	-0.134	0.451
-252.078	310.184	-0.029	0.054
-251.063	-200.000	0.049	0.234
-250.049	63.050	-0.215	0.212
-249.034	-39.909	-0.124	-0.064
-248.019	176.665	0.071	0.102
-247.005	-63.683	0.085	-0.034
-245.990	-4.552	-0.215	-0.146
-244.976	461.884	-0.175	0.386
-243.961	-192.379	-0.228	-0.002
-242.946	-85.490	-0.268	-0.082
-241.932	800.000	0.107	0.313
-240.917	-139.778	-0.029	-0.003
-239.903	800.000	-0.018	-0.068
-238.888	49.651	0.079	0.074
-237.873	7.534	0.112	0.083
-236.859	171.955	-0.184	0.260
-235.844	-8.974	0.154	-0.102
-234.830	192.336	-0.069	-0.103
-233.815	-109.298	0.332	0.069
-232.800	-125.141	0.340	0.051
-231.786	-77.563	-0.362	0.124
-230.771	101.810	0.177	-0.204
-229.757	39.672	-0.173	-0.153
-228.742	-66.462	-0.228	-0.089
-227.727	-55.922	0.143	-0.063
-226.713	124.839	0.169	-0.210
-225.698	65.720	-0.255	0.254
-224.684	800.000	-0.108	0.420
-223.669	42.046	0.236	0.211
-222.655	-52.512	0.234	-0.107
-221.640	324.595	0.114	-0.215
-220.625	-29.967	0.040	0.022
-219.611	463.643	-0.041	-0.090
-218.596	-200.000	0.021	0.126
-217.582	-40.725	0.108	-0.055
-216.567	-54.245	0.101	0.045
-215.552	-86.998	-0.348	-0.104
-214.538	233.498	-0.161	0.260
-213.523	-66.888	0.095	-0.037
-212.509	-200.000	0.001	-0.006
-211.494	84.611	0.229	-0.247
-210.479	-160.523	-0.096	0.005
-209.465	-61.738	-0.143	-0.059
-208.450	800.000	0.063	0.272
-207.436	-200.000	0.016	0.194
-206.421	-91.813	-0.422	0.118
-205.406	-200.000	-0.026	-0.256
-204.392	57.031	0.112	0.107
-203.377	-200.000	0.000	0.009
-202.363	-147.477	0.157	-0.013
-201.348	-56.783	0.024	0.010
-200.333	-200.000	0.002	-0.063
-199.319	34.568	0.037	0.031
-198.304	109.397	0.135	-0.160
-197.290	670.695	-0.059	-0.151
-196.275	120.390	-0.014	-0.017
-195.260	331.472	0.139	-0.265
-194.246	-147.365	0.231	0.019
-193.231	-200.000	0.011	-0.118
-192.217	128.280	0.157	0.197
-191.202	-66.752	-0.165	-0.064
-190.187	800.000	0.067	-0.259
-189.173	573.289	-0.029	-0.069
-188.158	182.155	-0.181	-0.263
-187.144	92.492	-0.233	0.259
-186.129	-12.800	0.212	0.136
-185.114	-102.792	-0.170	0.040
-184.100	136.158	0.165	-0.212
-183.085	53.698	0.249	0.235
-182.071	-200.000	0.044	0.269
-181.056	54.241	0.167	0.158
-180.042	-200.000	0.006	-0.077
-179.027	-200.000	-0.018	-0.099
-178.012	195.398	0.027	0.040
-176.998	269.330	0.036	0.062
-175.983	-93.188	0.308	0.084
-174.969	-74.848	0.196	0.069
-173.954	-200.000	-0.002	0.151
-172.939	-108.029	0.210	-0.045
-171.925	730.894	0.168	-0.442
-170.910	788.171	0.080	-0.217
-169.896	-200.000	0.009	-0.146
-168.881	-95.329	-0.176	-0.047
-167.866	391.971	-0.036	0.074
-166.852	-25.095	0.132	0.077
-165.837	-200.000	0.036	0.181
-164.823	-71.971	-0.242	0.089
-163.808	-200.000	0.026	-0.268
-162.793	-5.937	0.228	0.153
-161.779	447.170	0.026	-0.056
-160.764	-94.341	0.158	0.042
-159.750	800.000	-0.037	0.110
-158.735	-80.201	0.051	-0.017
-157.720	-200.000	-0.029	-0.248
-156.706	653.477	0.096	0.242
-155.691	-56.880	0.077	0.033
-154.677	-200.000	-0.016	0.256
-153.662	800.000	0.128	0.457
-152.647	-53.510	-0.233	0.105
-151.633	89.230	0.053	0.058
-150.618	-200.000	0.034	0.410
-149.604	-200.000	0.009	0.213
-148.589	-91.204	-0.341	-0.096
-147.574	142.666	0.164	-0.215
-146.560	-200.000	0.014	-0.089
-145.545	-200.000	0.004	-0.169
-144.531	-159.018	0.301	0.017
-143.516	-52.312	0.220	-0.100
-142.502	-72.059	-0.191	0.070
-141.487	-60.258	0.269	-0.113
-140.472	86.961	0.270	-0.293
-139.458	-51.610	0.463	-0.212
-138.443	313.896	0.031	0.057
-137.429	344.857	0.024	-0.046
-136.414	-89.382	-0.460	0.133
-135.399	-79.084	0.100	0.033
-134.385	-200.000	-0.011	0.176
-133.370	155.000	0.118	-0.159
-132.356	-200.000	0.022	0.115
-131.341	170.338	0.051	-0.071
-130.326	-50.619	-0.132	-0.061
-129.312	9.533	-0.213	-0.159
-128.297	381.268	-0.038	0.076
-127.283	92.377	-0.136	-0.151
-126.268	-200.000	0.025	0.171
-125.253	552.110	0.025	0.060
-124.239	800.000	-0.048	-0.156
-123.224	7.469	0.144	0.106
-122.210	14.370	0.157	-0.120
-121.195	583.844	0.075	-0.181
-120.180	-200.000	-0.046	-0.263
