DTS Sentinel unit serial number:	SN413079Multiplexer serial number:	ORYXHardware model number:	OX4-SRSoftware version number:	ORYX F/W v4.00 Oryx Data Collector v3.7.2.0data status	okinstallation	princeton_trtdifferential loss correction	single-endedforward channel	channel 1reverse channel	N/Adate	2019/09/17time	15:30:35forward acquisition time	60.00reverse acquisition time	0.00gamma	496.2192k internal	0.2294k external	0.2294temperature offset calibration	0.9968default loss term (dB/km)	0.3790temperature slope calibration	1.0000multiplexer offset coefficient	1.0000multiplexer slope coefficient	1.0000fibre end	0.00T internal ref (°C)	38.31T ext. ref 1 (°C)	0.37T ext. ref 2 (°C)	35.63length (m)	temperature (°C)	Stokes	anti-Stokes-747.200	800.000	-0.050	0.186
-746.185	506.280	-0.057	0.136
-745.171	-8.195	0.218	0.150
-744.156	-24.163	-0.260	0.159
-743.142	274.616	-0.328	-0.595
-742.127	-200.000	-0.042	0.196
-741.112	61.365	0.312	0.317
-740.098	800.000	-0.051	0.180
-739.083	127.147	0.181	0.234
-738.069	800.000	-0.083	0.321
-737.054	-166.493	-0.381	0.016
-736.039	15.385	-0.131	0.105
-735.025	28.951	0.158	0.137
-734.010	-142.223	-0.247	0.025
-732.996	1.614	-0.123	-0.091
-731.981	78.049	-0.147	0.160
-730.966	160.806	0.106	0.151
-729.952	111.161	0.056	-0.069
-728.937	-56.142	-0.250	0.114
-727.923	61.716	-0.163	0.165
-726.908	800.000	-0.080	-0.330
-725.894	500.795	-0.115	-0.272
-724.879	-36.816	-0.155	0.085
-723.864	-118.141	-0.321	0.059
-722.850	-46.350	0.077	-0.039
-721.835	-29.608	-0.232	-0.135
-720.821	147.018	-0.078	-0.107
-719.806	202.437	-0.046	-0.073
-718.791	356.117	0.022	-0.044
-717.777	-18.790	-0.239	0.152
-716.762	-89.260	-0.152	-0.046
-715.748	-200.000	-0.030	0.204
-714.733	-200.000	-0.022	-0.226
-713.718	-47.605	0.102	-0.051
-712.704	111.711	-0.072	-0.089
-711.689	142.747	0.272	-0.370
-710.675	-69.493	0.091	-0.036
-709.660	-64.043	0.147	0.061
-708.645	253.857	0.102	0.178
-707.631	333.613	0.103	-0.204
-706.616	-200.000	-0.008	0.093
-705.602	-160.677	0.141	-0.008
-704.587	62.685	0.154	0.157
-703.572	608.338	-0.076	-0.193
-702.558	-96.819	0.231	-0.062
-701.543	-19.942	0.203	-0.128
-700.529	33.482	0.195	-0.173
-699.514	-20.135	-0.107	-0.068
-698.499	800.000	-0.048	0.195
-697.485	-27.892	0.064	-0.038
-696.470	-92.943	-0.293	-0.083
-695.456	800.000	0.061	0.182
-694.441	-200.000	0.023	-0.117
-693.426	-80.332	0.045	0.015
-692.412	-57.167	-0.113	0.051
-691.397	-138.117	-0.247	-0.028
-690.383	-16.486	-0.152	-0.098
-689.368	-170.931	-0.454	-0.016
-688.354	-200.000	0.010	0.138
-687.339	46.930	0.126	0.120
-686.324	21.646	0.136	0.113
-685.310	-140.768	0.165	0.017
-684.295	367.258	0.130	0.269
-683.281	-153.997	0.412	-0.029
-682.266	113.613	-0.129	0.160
-681.251	28.341	0.105	0.091
-680.237	-200.000	0.093	-0.425
-679.222	33.666	0.049	-0.043
-678.208	133.264	-0.037	0.049
-677.193	-186.363	0.138	-0.002
-676.178	560.418	0.081	-0.200
-675.164	50.398	-0.308	-0.297
-674.149	-200.000	0.036	0.446
-673.135	800.000	-0.074	0.218
-672.120	-28.095	0.023	0.013
-671.105	-139.883	0.124	0.013
-670.091	92.799	-0.045	0.052
-669.076	-23.771	-0.080	-0.049
-668.062	11.980	-0.126	-0.099
-667.047	1.470	0.210	0.154
-666.032	-33.574	-0.240	-0.135
-665.018	-200.000	-0.036	-0.172
-664.003	66.848	0.366	0.380
-662.989	-200.000	-0.007	0.053
-661.974	-200.000	-0.026	-0.439
-660.959	-69.606	-0.128	0.050
-659.945	-98.627	0.178	-0.046
-658.930	-200.000	0.062	-0.310
-657.916	-48.458	-0.189	-0.093
-656.901	-44.990	0.253	-0.128
-655.886	-42.848	0.309	-0.160
-654.872	-53.339	-0.447	-0.209
-653.857	64.310	-0.272	-0.279
-652.843	249.989	-0.086	-0.148
-651.828	171.020	0.083	-0.122
-650.814	14.847	-0.080	-0.064
-649.799	-43.814	-0.173	-0.089
-648.784	-177.564	0.312	0.008
-647.770	-153.494	-0.278	-0.020
-646.755	212.446	-0.245	-0.394
-645.741	128.620	0.123	0.160
-644.726	800.000	0.072	-0.318
-643.711	27.803	0.145	-0.125
-642.697	126.910	-0.031	0.040
-641.682	-86.932	0.296	0.092
-640.668	-120.142	-0.267	0.046
-639.653	268.217	-0.033	-0.059
-638.638	-108.728	-0.208	0.045
-637.624	19.140	-0.185	-0.151
-636.609	366.455	-0.138	0.283
-635.595	171.306	-0.045	-0.066
-634.580	25.009	-0.004	-0.004
-633.565	77.341	0.089	-0.097
-632.551	103.234	-0.066	-0.079
-631.536	367.450	-0.132	0.271
-630.522	239.120	0.098	-0.166
-629.507	588.768	0.027	-0.067
-628.492	-91.122	0.135	-0.040
-627.478	-101.917	0.299	-0.073
-626.463	-200.000	-0.022	-0.116
-625.449	-200.000	-0.053	-0.256
-624.434	-200.000	0.031	0.219
-623.419	-4.847	0.118	0.083
-622.405	351.815	0.142	0.286
-621.390	-37.586	0.013	-0.007
-620.376	-42.845	0.266	-0.138
-619.361	55.128	-0.161	-0.159
-618.346	-200.000	0.013	-0.325
-617.332	800.000	0.049	-0.216
-616.317	-200.000	0.009	-0.189
-615.303	90.555	-0.278	0.316
-614.288	47.132	-0.093	-0.088
-613.273	-125.071	-0.302	-0.047
-612.259	-142.792	0.367	0.036
-611.244	-61.634	-0.147	0.063
-610.230	-71.210	0.181	-0.069
-609.215	274.994	-0.017	0.030
-608.201	-145.905	0.134	-0.012
-607.186	-57.162	0.310	0.139
-606.171	800.000	0.047	0.137
-605.157	-200.000	-0.020	-0.268
-604.142	-146.247	-0.172	0.015
-603.128	-185.743	-0.232	0.004
-602.113	800.000	-0.024	-0.090
-601.098	18.759	-0.034	0.028
-600.084	61.154	-0.024	-0.025
-599.069	-123.911	0.168	-0.027
-598.055	35.898	0.240	-0.214
-597.040	-106.211	-0.100	-0.023
-596.025	-72.929	0.165	0.062
-595.011	-4.067	-0.238	0.167
-593.996	366.478	-0.202	0.414
-592.982	-200.000	0.004	-0.099
-591.967	41.122	0.082	-0.076
-590.952	-185.076	-0.588	-0.009
-589.938	800.000	-0.041	0.141
-588.923	55.694	0.180	0.177
-587.909	-36.301	0.130	-0.071
-586.894	-42.486	-0.443	-0.229
-585.879	704.841	0.125	-0.335
-584.865	-196.068	-0.226	0.002
-583.850	49.212	0.089	0.085
-582.836	800.000	-0.115	0.375
-581.821	-46.859	0.324	0.161
-580.806	180.030	-0.076	-0.114
-579.792	-200.000	-0.047	-0.220
-578.777	-64.259	0.301	-0.125
-577.763	127.533	0.088	0.113
-576.748	302.060	-0.309	0.580
-575.733	-189.797	0.471	-0.005
-574.719	615.921	0.109	-0.278
-573.704	-48.605	-0.188	0.092
-572.690	115.235	-0.068	0.085
-571.675	800.000	0.085	-0.294
-570.661	-27.714	0.190	0.112
-569.646	450.173	-0.055	0.124
-568.631	307.665	-0.080	-0.151
-567.617	191.485	0.046	-0.071
-566.602	800.000	0.014	-0.044
-565.588	-63.363	0.467	-0.195
-564.573	72.938	-0.076	-0.081
-563.558	800.000	0.067	0.194
-562.544	1.749	0.333	-0.244
-561.529	-200.000	0.024	-0.223
-560.515	-87.288	-0.188	-0.058
-559.500	-128.006	0.243	-0.035
-558.485	-159.826	-0.157	-0.009
-557.471	-91.277	-0.211	-0.061
-556.456	137.979	0.064	0.085
-555.442	-139.517	-0.191	-0.021
-554.427	98.578	-0.092	-0.108
-553.412	-50.211	-0.073	0.035
-552.398	-21.347	0.073	-0.045
-551.383	40.043	-0.145	0.132
-550.369	40.960	-0.262	-0.240
-549.354	800.000	0.098	0.402
-548.339	-50.109	0.283	-0.136
-547.325	-47.732	0.203	-0.100
-546.310	476.907	-0.053	-0.122
-545.296	-145.725	0.090	-0.008
-544.281	29.913	-0.136	-0.118
-543.266	212.176	-0.088	-0.141
-542.252	-13.998	0.110	0.072
-541.237	-200.000	-0.014	0.144
-540.223	-39.440	0.141	0.075
-539.208	-172.668	-0.025	0.001
-538.193	72.205	-0.066	-0.070
-537.179	316.938	0.134	0.257
-536.164	-200.000	0.022	-0.176
-535.150	800.000	-0.037	-0.114
-534.135	-59.340	-0.186	-0.081
-533.121	595.069	-0.110	-0.275
-532.106	105.872	-0.230	-0.276
-531.091	-124.919	0.248	0.039
-530.077	64.238	0.114	-0.116
-529.062	-200.000	0.034	0.180
-528.048	12.342	-0.263	0.205
-527.033	-35.265	0.199	0.110
-526.018	275.924	0.073	-0.132
-525.004	8.748	-0.117	-0.089
-523.989	-108.548	0.040	0.009
-522.975	-29.048	0.090	0.053
-521.960	152.731	-0.119	-0.165
-520.945	-33.163	-0.031	0.017
-519.931	-10.968	-0.121	-0.081
-518.916	-13.764	0.186	0.122
-517.902	443.556	0.114	0.253
-516.887	-200.000	0.020	-0.252
-515.872	800.000	-0.083	-0.279
-514.858	-103.803	-0.103	0.024
-513.843	-200.000	-0.022	-0.301
-512.829	-136.171	0.572	-0.068
-511.814	-200.000	-0.137	-0.000
-510.799	-65.608	-0.343	-0.140
-509.785	131.195	-0.039	0.051
-508.770	-200.000	0.001	-0.090
-507.756	247.292	-0.136	0.233
-506.741	-82.220	0.337	-0.111
-505.726	-98.939	0.284	0.073
-504.712	-77.229	0.177	-0.062
-503.697	-47.960	0.251	0.123
-502.683	-2.984	-0.216	0.153
-501.668	-200.000	0.071	-0.526
-500.653	26.608	-0.109	-0.092
-499.639	-44.065	-0.180	-0.092
-498.624	800.000	0.110	0.313
-497.610	-110.516	-0.112	-0.024
-496.595	47.678	-0.261	0.247
-495.581	-197.997	-0.440	0.003
-494.566	-200.000	0.019	0.157
-493.551	-142.511	0.357	-0.035
-492.537	-148.460	-0.092	-0.008
-491.522	-9.049	-0.251	0.170
-490.508	-200.000	-0.026	0.183
-489.493	-31.135	-0.183	-0.105
-488.478	402.209	-0.113	0.240
-487.464	-57.260	0.058	0.026
-486.449	-200.000	-0.005	0.105
-485.435	800.000	-0.103	-0.418
-484.420	-94.372	0.203	-0.056
-483.405	-200.000	-0.021	-0.477
-482.391	311.766	-0.099	-0.188
-481.376	-155.491	-0.143	-0.009
-480.362	1.706	0.192	0.140
-479.347	84.856	0.092	0.102
-478.332	-200.000	0.020	0.098
-477.318	-28.582	-0.223	-0.130
-476.303	-200.000	0.093	-0.483
-475.289	456.460	0.049	0.109
-474.274	-145.417	-0.209	-0.019
-473.259	326.384	0.034	0.066
-472.245	321.764	-0.053	-0.101
-471.230	-111.168	-0.113	0.023
-470.216	107.727	0.120	0.145
-469.201	79.167	0.088	-0.096
-468.186	447.647	0.056	0.124
-467.172	800.000	0.047	-0.132
-466.157	-164.679	-0.242	-0.011
-465.143	-149.410	-0.415	0.033
-464.128	235.436	-0.143	-0.240
-463.113	-112.893	0.050	-0.010
-462.099	-24.836	-0.128	0.077
-461.084	255.155	0.146	0.253
-460.070	64.447	0.111	0.113
-459.055	-15.096	0.151	-0.098
-458.040	-200.000	0.021	-0.172
-457.026	48.226	0.377	-0.357
-456.011	-200.000	-0.046	-0.501
-454.997	-91.596	-0.118	-0.034
-453.982	-33.441	-0.165	-0.092
-452.968	-113.548	0.272	-0.054
-451.953	800.000	-0.068	0.257
-450.938	56.257	-0.159	0.157
-449.924	-139.703	0.169	-0.018
-448.909	-131.702	0.185	0.025
-447.895	-37.138	0.389	0.211
-446.880	0.858	-0.190	0.138
-445.865	-1.591	-0.103	0.073
-444.851	-200.000	0.001	0.015
-443.836	583.093	-0.089	-0.220
-442.822	800.000	0.053	0.195
-441.807	32.373	-0.323	0.282
-440.792	-200.000	0.008	0.116
-439.778	-51.162	-0.325	-0.154
-438.763	-69.308	0.322	-0.125
-437.749	-200.000	0.076	0.341
-436.734	-78.851	-0.352	0.121
-435.719	136.409	-0.213	0.280
-434.705	-155.099	-0.175	-0.012
-433.690	-200.000	0.034	-0.270
-432.676	800.000	0.093	-0.319
-431.661	45.224	-0.178	-0.166
-430.646	-72.900	0.089	-0.033
-429.632	-132.170	-0.118	0.015
-428.617	800.000	-0.075	0.215
-427.603	185.018	0.165	0.248
-426.588	-143.350	0.199	0.019
-425.573	-200.000	0.022	-0.160
-424.559	-118.235	-0.186	-0.033
-423.544	-148.863	0.139	-0.011
-422.530	58.876	-0.085	0.085
-421.515	-88.263	-0.265	-0.080
-420.500	294.948	-0.069	-0.127
-419.486	-46.601	-0.130	-0.064
-418.471	36.055	0.195	0.174
-417.457	223.150	0.050	-0.081
-416.442	595.153	-0.025	-0.062
-415.428	-200.000	0.053	0.265
-414.413	161.455	0.054	-0.076
-413.398	-200.000	0.070	0.610
-412.384	182.331	-0.163	0.243
-411.369	-200.000	-0.072	0.383
-410.355	800.000	0.148	-0.426
-409.340	-120.822	-0.119	-0.020
-408.325	160.359	-0.146	-0.205
-407.311	191.458	-0.060	-0.092
-406.296	151.581	-0.158	0.217
-405.282	118.059	-0.054	0.067
-404.267	60.736	-0.059	-0.059
-403.252	-200.000	-0.021	-0.343
-402.238	75.753	-0.149	0.159
-401.223	399.275	0.109	-0.231
-400.209	-116.527	0.295	0.055
-399.194	-200.000	-0.027	0.159
-398.179	79.136	0.184	-0.198
-397.165	144.784	-0.191	0.258
-396.150	-200.000	0.021	0.206
-395.136	45.705	0.157	0.147
-394.121	-77.162	-0.048	0.017
-393.106	0.910	-0.431	0.312
-392.092	-14.178	0.241	-0.157
-391.077	-45.218	-0.223	-0.112
-390.063	-12.119	-0.200	0.132
-389.048	-66.409	0.086	-0.034
-388.033	618.654	0.090	0.228
-387.019	64.320	0.221	0.225
-386.004	-42.453	0.160	0.082
-384.990	-166.594	0.112	-0.005
-383.975	-200.000	-0.067	-0.000
-382.960	800.000	-0.035	0.107
-381.946	108.064	0.035	-0.042
-380.931	2.338	0.099	-0.073
-379.917	34.767	0.068	0.060
-378.902	208.590	-0.054	-0.085
-377.888	-112.585	0.183	-0.037
-376.873	-200.000	0.039	-0.313
-375.858	-44.359	-0.389	0.196
-374.844	30.812	-0.303	-0.262
-373.829	130.769	-0.057	0.073
-372.815	-106.382	-0.116	-0.026
-371.800	-200.000	-0.008	-0.044
-370.785	-115.562	-0.382	0.072
-369.771	-178.282	-0.158	-0.004
-368.756	800.000	-0.078	0.293
-367.742	-104.417	0.293	-0.068
-366.727	291.711	-0.069	-0.127
-365.712	-89.501	0.075	0.022
-364.698	70.652	-0.192	0.201
-363.683	-142.837	0.130	-0.013
-362.669	42.152	0.140	-0.128
-361.654	-200.000	-0.038	0.168
-360.639	332.958	-0.184	0.357
-359.625	42.910	0.225	-0.207
-358.610	800.000	0.095	-0.317
-357.596	-200.000	-0.056	-0.384
-356.581	395.429	-0.048	-0.100
-355.566	-200.000	-0.012	-0.110
-354.552	147.060	0.005	0.006
-353.537	56.145	0.210	0.205
-352.523	708.263	-0.123	0.328
-351.508	-90.286	0.157	-0.046
-350.493	-200.000	0.008	-0.167
-349.479	-12.966	0.284	0.186
-348.464	-121.690	-0.329	0.055
-347.450	800.000	0.075	-0.231
-346.435	-23.234	-0.221	-0.134
-345.420	800.000	-0.106	-0.302
-344.406	390.493	0.105	-0.219
-343.391	800.000	-0.047	-0.197
-342.377	800.000	0.135	-0.378
-341.362	200.229	0.175	0.271
-340.348	29.023	0.337	-0.288
-339.333	489.858	-0.120	0.276
-338.318	38.761	0.105	0.094
-337.304	-33.610	-0.172	-0.096
-336.289	-140.770	0.255	-0.027
-335.275	-48.717	0.150	-0.073
-334.260	77.561	0.142	0.152
-333.245	-136.765	0.303	-0.035
-332.231	-139.958	-0.388	-0.041
-331.216	-155.000	-0.292	-0.019
-330.202	-61.506	0.329	0.139
-329.187	-78.208	-0.169	0.058
-328.172	-70.137	-0.054	-0.021
-327.158	390.612	-0.024	0.049
-326.143	594.932	0.126	-0.315
-325.129	-72.912	0.228	0.084
-324.114	-200.000	0.034	-0.268
-323.099	86.861	0.177	-0.196
-322.085	-120.006	0.125	0.022
-321.070	-104.892	0.193	0.045
-320.056	422.391	-0.203	0.438
-319.041	39.869	-0.063	0.057
-318.026	185.698	0.017	0.026
-317.012	-83.745	-0.233	-0.075
-315.997	-45.321	-0.318	-0.159
-314.983	-86.598	0.256	-0.079
-313.968	261.121	0.158	0.276
-312.953	-200.000	-0.041	0.208
-311.939	-82.299	0.146	-0.048
-310.924	800.000	-0.108	0.369
-309.910	-200.000	-0.018	0.106
-308.895	-72.418	-0.094	-0.035
-307.880	800.000	0.084	-0.247
-306.866	-22.200	0.285	-0.174
-305.851	-200.000	0.002	0.117
-304.837	-119.874	0.325	-0.056
-303.822	-12.890	-0.081	0.053
-302.807	800.000	0.117	-0.351
-301.793	61.688	0.081	0.081
-300.778	562.580	-0.159	0.386
-299.764	-93.153	0.093	0.026
-298.749	-200.000	0.023	0.105
-297.735	83.101	0.145	0.158
-296.720	-112.533	0.102	-0.020
-295.705	-122.250	0.221	0.036
-294.691	435.443	0.101	-0.220
-293.676	-200.000	-0.032	-0.144
-292.662	-69.604	0.107	-0.041
-291.647	-200.000	-0.031	-0.146
-290.632	-200.000	0.009	0.332
-289.618	-200.000	0.001	0.017
-288.603	164.531	-0.044	-0.063
-287.589	-171.463	0.161	0.005
-286.574	-200.000	0.002	0.084
-285.559	-80.373	0.294	0.099
-284.545	-56.011	0.309	0.138
-283.530	-49.721	0.219	0.105
-282.516	-200.000	-0.028	0.146
-281.501	417.010	-0.105	-0.226
-280.486	-26.738	0.169	0.100
-279.472	572.554	-0.140	0.343
-278.457	486.043	0.069	-0.158
-277.443	32.066	0.049	-0.042
-276.428	-66.917	-0.039	-0.015
-275.413	800.000	-0.105	0.402
-274.399	541.628	0.076	0.181
-273.384	6.056	-0.316	-0.235
-272.370	18.889	0.198	0.159
-271.355	159.824	-0.143	0.201
-270.340	629.959	-0.170	-0.433
-269.326	-186.219	-0.119	-0.002
-268.311	539.509	-0.102	0.243
-267.297	-27.892	0.063	0.037
-266.282	800.000	-0.026	0.084
-265.267	-80.348	-0.146	-0.049
-264.253	-163.192	0.596	0.029
-263.238	110.264	0.112	0.135
-262.224	-146.707	-0.125	-0.011
-261.209	-149.933	0.205	0.016
-260.195	3.019	0.121	0.088
-259.180	161.501	-0.031	-0.044
-258.165	-200.000	0.037	-0.300
-257.151	51.035	0.199	-0.190
-256.136	-36.316	0.282	0.153
-255.122	-48.588	-0.259	0.125
-254.107	676.925	0.236	0.616
-253.092	272.703	0.133	-0.236
-252.078	-92.515	-0.218	0.062
-251.063	-189.987	-0.878	-0.010
-250.049	-199.055	0.242	0.001
-249.034	131.925	-0.039	0.050
-248.019	207.536	0.261	0.409
-247.005	-200.000	0.002	0.222
-245.990	-169.646	-0.302	-0.011
-244.976	-114.193	-0.107	-0.021
-243.961	61.315	-0.355	-0.354
-242.946	-30.285	-0.095	-0.054
-241.932	-71.410	-0.289	-0.108
-240.917	-82.097	0.194	-0.064
-239.903	-200.000	-0.009	-0.070
-238.888	236.971	-0.149	-0.247
-237.873	332.807	-0.080	0.156
-236.859	264.180	0.050	-0.086
-235.844	-139.627	0.131	-0.014
-234.830	98.566	0.098	-0.113
-233.815	406.458	-0.142	-0.300
-232.800	-22.111	0.033	-0.020
-231.786	-28.459	0.080	0.046
-230.771	776.600	0.031	0.086
-229.757	47.722	-0.094	-0.088
-228.742	-200.000	-0.007	0.106
-227.727	-89.435	-0.102	-0.030
-226.713	140.978	-0.198	0.262
-225.698	-85.392	-0.018	0.005
-224.684	800.000	0.084	-0.257
-223.669	-18.550	0.315	0.197
-222.655	36.611	-0.037	-0.032
-221.640	-200.000	-0.038	0.230
-220.625	-81.962	-0.095	-0.031
-219.611	-200.000	-0.023	0.238
-218.596	-200.000	0.004	-0.128
-217.582	-200.000	0.005	0.163
-216.567	148.868	-0.065	0.088
-215.552	88.558	0.218	0.243
-214.538	187.251	-0.225	0.336
-213.523	390.558	-0.089	0.185
-212.509	-61.364	-0.201	0.085
-211.494	-22.342	0.307	0.186
-210.479	-200.000	-0.006	0.122
-209.465	-27.973	0.260	-0.151
-208.450	9.807	0.143	-0.109
-207.436	485.483	0.107	0.245
-206.421	47.375	0.247	-0.230
-205.406	-70.190	-0.086	0.033
-204.392	289.454	-0.100	-0.182
-203.377	-167.577	-0.369	-0.015
-202.363	153.153	0.268	-0.367
-201.348	28.308	-0.402	-0.340
-200.333	-44.016	0.081	-0.041
-199.319	800.000	-0.084	0.261
-198.304	55.951	0.065	0.063
-197.290	435.478	-0.042	0.091
-196.275	-63.229	-0.155	0.064
-195.260	18.540	0.052	-0.042
-194.246	144.865	-0.162	-0.217
-193.231	-60.411	-0.209	0.089
-192.217	-200.000	-0.014	0.204
-191.202	-122.692	-0.108	-0.018
-190.187	-200.000	0.028	0.374
-189.173	800.000	0.034	-0.132
-188.158	-132.113	-0.295	0.038
-187.144	-73.460	-0.082	-0.030
-186.129	556.601	0.050	-0.122
-185.114	-35.669	0.576	-0.312
-184.100	21.685	0.077	0.062
-183.085	236.653	-0.116	0.192
-182.071	-200.000	-0.002	0.111
-181.056	77.132	0.155	0.164
-180.042	-200.000	0.063	-0.366
-179.027	-157.652	0.097	0.006
-178.012	749.870	-0.077	0.208
-176.998	348.558	0.100	0.198
-175.983	364.305	0.130	-0.262
-174.969	-173.131	0.097	-0.003
-173.954	-40.850	-0.258	-0.134
-172.939	-24.466	-0.260	0.155
-171.925	800.000	0.052	-0.192
-170.910	-91.107	-0.119	0.034
-169.896	16.402	-0.072	0.057
-168.881	800.000	-0.079	0.327
-167.866	112.337	0.091	0.110
-166.852	400.702	0.073	-0.153
-165.837	800.000	0.097	-0.359
-164.823	-200.000	-0.012	-0.227
-163.808	-200.000	0.015	0.199
-162.793	-31.838	-0.277	0.155
-161.779	-147.882	0.168	0.014
-160.764	-146.510	-0.218	-0.019
-159.750	-200.000	-0.009	0.188
-158.735	222.347	0.263	0.424
-157.720	800.000	0.088	0.248
-156.706	102.712	-0.182	-0.213
-155.691	-200.000	0.027	0.156
-154.677	-137.213	-0.125	-0.014
-153.662	800.000	-0.092	-0.258
-152.647	-127.195	0.493	-0.072
-151.633	-129.310	-0.096	-0.013
-150.618	274.121	-0.103	0.182
-149.604	-133.578	-0.074	-0.009
-148.589	-200.000	-0.013	0.395
-147.574	57.021	0.101	0.098
-146.560	112.878	0.132	0.160
-145.545	-112.925	-0.477	0.094
-144.531	-200.000	-0.024	-0.278
-143.516	-117.390	0.249	-0.045
-142.502	800.000	-0.153	0.531
-141.487	-200.000	0.040	0.189
-140.472	-171.268	0.145	0.005
-139.458	-72.165	0.333	0.123
-138.443	-200.000	-0.008	0.210
-137.429	179.100	0.082	-0.120
-136.414	-200.000	-0.053	-0.311
-135.399	-200.000	0.021	0.310
-134.385	321.272	-0.050	0.095
-133.370	-200.000	0.258	-0.000
-132.356	327.247	0.191	0.366
-131.341	-145.750	0.181	0.016
-130.326	-80.046	-0.203	0.068
-129.312	76.501	0.171	0.181
-128.297	-74.858	0.069	0.025
-127.283	-165.821	-0.305	0.013
-126.268	-200.000	0.063	-0.388
-125.253	-96.643	0.226	0.060
-124.239	-119.157	0.089	-0.016
-123.224	28.300	-0.179	-0.151
-122.210	125.849	0.052	-0.065
