DTS Sentinel unit serial number:	SN413079Multiplexer serial number:	ORYXHardware model number:	OX4-SRSoftware version number:	ORYX F/W v4.00 Oryx Data Collector v3.7.2.0data status	okinstallation	princeton_trtdifferential loss correction	single-endedforward channel	channel 1reverse channel	N/Adate	2019/09/12time	09:00:11forward acquisition time	60.00reverse acquisition time	0.00gamma	496.2192k internal	0.2309k external	0.2309temperature offset calibration	1.0044default loss term (dB/km)	0.3790temperature slope calibration	1.0000multiplexer offset coefficient	1.0000multiplexer slope coefficient	1.0000fibre end	0.00T internal ref (°C)	34.25T ext. ref 1 (°C)	1.77T ext. ref 2 (°C)	31.26length (m)	temperature (°C)	Stokes	anti-Stokes-747.200	-104.929	0.225	-0.052
-746.185	-36.969	-0.318	-0.173
-745.171	-109.114	-0.096	0.021
-744.156	-24.006	-0.323	0.196
-743.142	-200.000	-0.008	0.193
-742.127	-200.000	-0.040	0.215
-741.112	-144.350	-0.185	0.017
-740.098	44.420	0.269	0.251
-739.083	-200.000	-0.290	-0.001
-738.069	-58.857	-0.373	0.164
-737.054	800.000	-0.042	-0.147
-736.039	-185.040	-0.175	-0.003
-735.025	800.000	0.030	-0.121
-734.010	-200.000	-0.018	-0.410
-732.996	-200.000	-0.042	-0.458
-731.981	54.547	0.317	0.310
-730.966	-136.281	-0.142	-0.017
-729.952	39.185	-0.103	0.093
-728.937	-200.000	0.042	-0.221
-727.923	-80.352	-0.061	0.021
-726.908	-123.320	-0.326	-0.053
-725.894	800.000	0.027	0.081
-724.879	425.649	0.093	-0.203
-723.864	-200.000	0.020	0.181
-722.850	-79.780	0.215	0.074
-721.835	-119.691	-0.194	0.034
-720.821	-140.904	-0.201	-0.021
-719.806	65.110	-0.120	0.123
-718.791	-133.847	0.138	-0.017
-717.777	108.735	-0.225	-0.273
-716.762	-129.610	-0.287	-0.040
-715.748	-46.271	-0.332	-0.166
-714.733	-64.977	0.179	-0.074
-713.718	756.359	0.048	0.132
-712.704	800.000	0.097	0.371
-711.689	41.552	0.219	-0.201
-710.675	62.436	0.157	-0.159
-709.660	130.543	-0.075	-0.098
-708.645	-200.000	-0.017	-0.133
-707.631	351.383	0.103	-0.206
-706.616	-61.649	-0.504	0.214
-705.602	208.180	0.047	-0.075
-704.587	98.925	-0.143	-0.167
-703.572	-6.211	0.182	0.126
-702.558	123.393	0.104	0.132
-701.543	-17.929	0.233	-0.148
-700.529	-147.574	0.288	0.025
-699.514	-63.684	0.115	0.048
-698.499	-103.447	-0.261	0.062
-697.485	-200.000	-0.011	0.208
-696.470	-114.395	-0.205	-0.040
-695.456	-27.439	-0.109	-0.064
-694.441	800.000	-0.036	-0.119
-693.426	44.801	-0.093	-0.086
-692.412	800.000	-0.066	-0.237
-691.397	129.485	-0.218	-0.282
-690.383	-62.329	0.067	0.028
-689.368	-43.164	-0.164	0.084
-688.354	-65.481	-0.157	0.064
-687.339	-4.819	0.210	0.147
-686.324	108.160	0.076	-0.092
-685.310	-180.566	0.187	0.004
-684.295	-200.000	0.006	-0.184
-683.281	81.451	0.165	0.181
-682.266	228.718	-0.096	-0.158
-681.251	-82.689	-0.134	-0.044
-680.237	317.156	-0.124	0.237
-679.222	53.529	-0.191	-0.186
-678.208	-41.003	-0.222	-0.116
-677.193	251.800	0.044	0.076
-676.178	-22.240	-0.040	-0.025
-675.164	-7.478	0.160	0.110
-674.149	-20.663	-0.303	0.188
-673.135	-200.000	0.058	-0.343
-672.120	-170.070	-0.208	-0.007
-671.105	-18.969	0.067	0.042
-670.091	-200.000	-0.036	-0.162
-669.076	-200.000	-0.029	0.142
-668.062	175.733	-0.069	0.101
-667.047	-200.000	0.016	0.157
-666.032	-200.000	-0.065	-0.332
-665.018	47.545	0.054	0.051
-664.003	49.877	0.099	-0.094
-662.989	-145.152	-0.238	0.022
-661.974	238.988	0.029	-0.049
-660.959	800.000	-0.118	0.349
-659.945	187.645	-0.073	-0.110
-658.930	-200.000	-0.029	-0.310
-657.916	92.966	-0.242	0.277
-656.901	56.454	-0.199	-0.196
-655.886	162.190	-0.229	-0.325
-654.872	758.211	0.131	0.360
-653.857	800.000	0.062	-0.190
-652.843	127.308	0.141	-0.182
-651.828	400.025	0.048	0.101
-650.814	394.913	0.102	-0.215
-649.799	-200.000	-0.054	-0.263
-648.784	-69.662	-0.137	-0.053
-647.770	181.647	0.045	0.068
-646.755	800.000	-0.040	0.130
-645.741	111.149	-0.275	0.335
-644.726	1.064	-0.269	-0.195
-643.711	-55.204	-0.124	-0.056
-642.697	800.000	-0.031	-0.116
-641.682	54.267	-0.117	-0.114
-640.668	-200.000	0.002	-0.080
-639.653	-51.072	-0.240	-0.114
-638.638	-116.966	-0.120	-0.022
-637.624	49.167	-0.109	0.104
-636.609	574.485	-0.067	-0.165
-635.595	175.651	0.059	-0.086
-634.580	-116.940	-0.156	-0.029
-633.565	800.000	-0.059	-0.259
-632.551	-114.194	0.156	0.030
-631.536	-119.340	-0.283	0.050
-630.522	800.000	0.023	-0.082
-629.507	-200.000	0.096	-0.435
-628.492	147.563	0.140	-0.191
-627.478	123.940	0.204	-0.259
-626.463	-10.423	0.269	0.180
-625.449	-200.000	-0.033	0.164
-624.434	-160.252	-0.450	-0.025
-623.419	-200.000	0.014	-0.256
-622.405	-100.994	-0.248	-0.061
-621.390	-200.000	0.003	-0.070
-620.376	118.993	-0.288	0.360
-619.361	655.512	0.118	-0.306
-618.346	165.257	-0.162	0.231
-617.332	-200.000	-0.024	0.236
-616.317	47.214	0.138	-0.130
-615.303	361.653	-0.093	0.189
-614.288	-126.901	0.158	-0.024
-613.273	58.331	-0.173	0.172
-612.259	800.000	-0.106	0.365
-611.244	-8.094	-0.377	0.257
-610.230	-18.797	-0.146	0.092
-609.215	306.309	-0.137	0.258
-608.201	-60.066	-0.179	-0.077
-607.186	-123.703	-0.389	0.062
-606.171	-177.789	-0.322	-0.008
-605.157	-200.000	-0.013	0.188
-604.142	353.338	-0.104	-0.209
-603.128	-96.293	0.168	0.045
-602.113	-200.000	0.007	0.279
-601.098	-117.626	-0.201	0.037
-600.084	-25.208	-0.163	0.098
-599.069	-15.025	0.160	-0.104
-598.055	171.312	0.132	-0.191
-597.040	72.799	0.175	-0.184
-596.025	100.592	-0.070	0.082
-595.011	-31.416	0.079	-0.045
-593.996	-107.672	0.261	-0.058
-592.982	758.369	-0.039	-0.108
-591.967	-108.661	0.134	-0.029
-590.952	-200.000	-0.024	0.290
-589.938	-92.548	0.111	0.032
-588.923	-200.000	-0.038	-0.334
-587.909	646.974	0.105	-0.270
-586.894	606.958	-0.051	0.129
-585.879	-200.000	-0.056	0.250
-584.865	800.000	-0.021	-0.063
-583.850	-200.000	-0.059	0.291
-582.836	-74.318	0.086	0.031
-581.821	800.000	-0.045	0.132
-580.806	-197.490	-0.393	0.002
-579.792	-125.372	0.257	-0.040
-578.777	800.000	0.108	0.414
-577.763	165.484	-0.253	0.361
-576.748	-98.875	0.201	0.051
-575.733	-60.976	0.145	0.062
-574.719	74.285	0.132	0.140
-573.704	-155.158	-0.292	-0.019
-572.690	-104.248	-0.612	0.143
-571.675	-200.000	-0.009	0.300
-570.661	615.238	0.033	0.085
-569.646	207.439	-0.054	0.085
-568.631	-122.225	0.198	-0.033
-567.617	189.698	-0.100	0.151
-566.602	-95.860	-0.296	0.080
-565.588	-61.195	0.292	-0.124
-564.573	637.639	-0.064	0.165
-563.558	-200.000	-0.012	0.077
-562.544	-29.753	-0.239	0.138
-561.529	-71.326	0.092	0.035
-560.515	13.021	0.283	0.221
-559.500	-200.000	-0.021	-0.244
-558.485	-104.768	-0.281	-0.065
-557.471	-39.495	0.282	-0.149
-556.456	374.853	0.024	-0.050
-555.442	-200.000	0.016	0.094
-554.427	246.650	0.051	-0.086
-553.412	-75.534	-0.252	0.090
-552.398	-195.436	-0.311	0.002
-551.383	163.307	0.146	-0.206
-550.369	-188.270	0.412	-0.005
-549.354	414.473	0.050	0.107
-548.339	-115.736	-0.082	0.016
-547.325	-200.000	-0.024	-0.260
-546.310	-200.000	0.016	-0.291
-545.296	83.110	-0.192	-0.210
-544.281	-118.989	-0.150	0.027
-543.266	800.000	-0.041	-0.158
-542.252	800.000	-0.049	0.208
-541.237	133.223	-0.057	0.074
-540.223	-75.188	-0.129	0.047
-539.208	182.101	0.210	-0.312
-538.193	-125.338	0.366	-0.056
-537.179	-113.215	-0.295	-0.058
-536.164	15.984	0.093	0.074
-535.150	800.000	0.061	0.189
-534.135	-108.181	-0.196	-0.043
-533.121	-134.683	0.207	0.025
-532.106	-190.457	-0.307	0.003
-531.091	192.808	0.135	-0.206
-530.077	800.000	0.051	0.143
-529.062	279.075	0.102	0.183
-528.048	83.498	0.137	0.150
-527.033	-200.000	-0.041	-0.182
-526.018	-169.996	-0.212	-0.008
-525.004	-25.683	-0.338	0.201
-523.989	622.397	0.031	0.080
-522.975	-54.960	0.132	-0.060
-521.960	-194.914	-0.371	-0.003
-520.945	-132.229	-0.202	-0.026
-519.931	-200.000	-0.026	-0.137
-518.916	86.325	-0.155	0.172
-517.902	70.935	0.172	-0.180
-516.887	-155.811	0.212	-0.014
-515.872	-66.752	0.453	0.180
-514.858	-200.000	-0.018	-0.238
-513.843	171.210	-0.082	-0.119
-512.829	-53.318	0.174	0.080
-511.814	105.974	-0.114	0.136
-510.799	-115.227	-0.151	0.029
-509.785	-126.676	0.532	-0.079
-508.770	-107.615	-0.144	-0.032
-507.756	-26.929	-0.282	-0.166
-506.741	283.915	0.045	0.082
-505.726	98.610	-0.168	0.195
-504.712	-20.758	-0.224	0.138
-503.697	800.000	0.077	-0.220
-502.683	669.101	-0.059	-0.153
-501.668	-162.907	0.022	-0.001
-500.653	-130.211	0.126	0.017
-499.639	57.054	0.077	-0.076
-498.624	-155.188	0.109	0.007
-497.610	-200.000	0.036	0.311
-496.595	-200.000	0.311	-0.001
-495.581	-148.726	-0.161	-0.013
-494.566	-10.309	0.222	-0.148
-493.551	283.593	-0.229	-0.414
-492.537	-78.929	0.064	-0.022
-491.522	-100.898	-0.208	0.051
-490.508	60.613	0.254	-0.253
-489.493	417.097	0.076	-0.164
-488.478	157.099	-0.118	-0.164
-487.464	-82.935	-0.370	0.120
-486.449	160.768	0.036	-0.051
-485.435	-200.000	0.051	-0.371
-484.420	-84.941	-0.135	-0.042
-483.405	-100.538	0.105	0.026
-482.391	-147.876	0.331	0.028
-481.376	156.636	0.102	-0.142
-480.362	-3.930	-0.238	-0.166
-479.347	-200.000	0.022	-0.362
-478.332	800.000	0.043	-0.141
-477.318	0.744	-0.232	-0.167
-476.303	48.052	0.206	0.193
-475.289	-200.000	-0.012	0.202
-474.274	67.984	0.191	0.197
-473.259	-40.890	0.165	-0.086
-472.245	164.258	-0.114	0.162
-471.230	125.905	-0.146	0.186
-470.216	-115.496	0.199	0.038
-469.201	-145.491	0.036	0.003
-468.186	800.000	-0.189	0.538
-467.172	-200.000	-0.033	-0.496
-466.157	545.880	0.057	-0.137
-465.143	172.396	0.107	0.155
-464.128	-27.071	-0.159	-0.093
-463.113	765.583	-0.020	-0.054
-462.099	-27.466	0.230	0.134
-461.084	153.323	0.037	0.050
-460.070	-120.019	-0.401	-0.069
-459.055	116.527	0.084	-0.103
-458.040	-121.260	-0.299	0.050
-457.026	-125.695	0.142	0.022
-456.011	-63.224	-0.203	0.084
-454.997	-75.330	-0.153	0.055
-453.982	175.536	-0.222	-0.323
-452.968	-200.000	0.003	-0.334
-451.953	-158.562	0.344	0.020
-450.938	-200.000	0.024	0.147
-449.924	-180.891	0.013	-0.000
-448.909	-191.669	-0.128	0.001
-447.895	37.710	-0.365	-0.325
-446.880	-200.000	-0.004	-0.063
-445.865	-131.372	-0.074	0.010
-444.851	-128.212	-0.384	-0.055
-443.836	318.609	-0.083	0.158
-442.822	52.966	-0.255	-0.245
-441.807	-200.000	-0.040	-0.207
-440.792	800.000	-0.064	-0.220
-439.778	-200.000	-0.005	0.071
-438.763	40.245	-0.200	-0.180
-437.749	191.157	0.098	-0.147
-436.734	-67.768	-0.452	0.178
-435.719	45.882	-0.163	0.151
-434.705	-79.921	0.238	-0.080
-433.690	-200.000	-0.001	0.148
-432.676	83.234	-0.049	0.054
-431.661	-200.000	-0.005	0.137
-430.646	-200.000	-0.042	0.231
-429.632	-182.608	-0.302	0.006
-428.617	-29.626	-0.058	-0.033
-427.603	-200.000	0.001	-0.226
-426.588	50.592	-0.004	0.003
-425.573	364.057	0.077	0.155
-424.559	75.229	0.136	-0.144
-423.544	22.973	-0.098	0.080
-422.530	-200.000	0.012	0.161
-421.515	-100.247	0.326	-0.081
-420.500	204.934	-0.109	0.170
-419.486	-200.000	-0.026	0.377
-418.471	-42.976	0.206	0.105
-417.457	65.391	0.147	0.150
-416.442	-200.000	0.004	-0.083
-415.428	94.325	0.128	-0.145
-414.413	63.484	0.191	-0.192
-413.398	-80.900	-0.158	-0.053
-412.384	429.025	0.152	0.329
-411.369	-177.197	-0.082	-0.002
-410.355	-200.000	-0.030	0.189
-409.340	89.667	0.035	-0.039
-408.325	26.944	0.114	-0.096
-407.311	800.000	-0.077	-0.282
-406.296	-158.815	0.619	0.035
-405.282	-200.000	-0.015	-0.078
-404.267	-200.000	0.002	0.049
-403.252	-195.787	0.346	-0.002
-402.238	-63.082	-0.316	0.131
-401.223	-27.839	0.023	-0.013
-400.209	-15.066	-0.224	-0.144
-399.194	-102.204	-0.225	-0.054
-398.179	-84.795	0.117	-0.037
-397.165	258.878	0.099	-0.171
-396.150	-124.642	-0.060	0.009
-395.136	-58.342	-0.255	-0.111
-394.121	42.245	0.059	-0.054
-393.106	-200.000	0.016	-0.316
-392.092	800.000	0.014	0.046
-391.077	242.819	-0.109	-0.183
-390.063	-89.611	0.172	-0.051
-389.048	-151.717	0.255	-0.019
-388.033	21.944	-0.206	-0.169
-387.019	142.366	0.060	0.080
-386.004	800.000	-0.042	0.149
-384.990	40.843	0.217	0.196
-383.975	-63.888	-0.440	0.180
-382.960	-34.248	-0.392	-0.216
-381.946	-150.523	0.383	0.029
-380.931	458.762	-0.030	0.067
-379.917	50.253	0.167	0.158
-378.902	391.486	0.030	0.063
-377.888	71.905	0.044	0.046
-376.873	12.327	-0.161	-0.124
-375.858	-46.111	-0.342	-0.169
-374.844	-77.013	0.271	-0.095
-373.829	14.195	-0.177	-0.138
-372.815	-53.499	-0.199	-0.091
-371.800	57.283	0.298	0.291
-370.785	-19.889	0.080	-0.049
-369.771	800.000	0.112	-0.372
-368.756	-200.000	0.010	-0.215
-367.742	-147.270	0.079	-0.007
-366.727	43.339	0.245	0.224
-365.712	-200.000	-0.051	-0.231
-364.698	-168.752	0.333	-0.013
-363.683	-115.934	0.063	0.012
-362.669	-154.509	0.158	0.011
-361.654	470.153	0.016	-0.036
-360.639	75.041	0.169	-0.179
-359.625	24.867	0.096	0.079
-358.610	-102.890	-0.224	-0.053
-357.596	81.706	0.330	0.357
-356.581	800.000	0.054	-0.179
-355.566	-16.954	-0.513	-0.324
-354.552	-21.180	-0.111	-0.068
-353.537	550.538	0.065	0.155
-352.523	800.000	-0.017	0.057
-351.508	30.120	0.207	-0.177
-350.493	800.000	-0.061	-0.260
-349.479	800.000	-0.042	0.128
-348.464	680.534	0.158	-0.410
-347.450	-86.500	-0.431	0.132
-346.435	-61.069	0.111	0.047
-345.420	-122.913	-0.304	-0.049
-344.406	800.000	0.102	0.354
-343.391	-109.204	-0.172	0.037
-342.377	-91.933	-0.026	-0.007
-341.362	-200.000	-0.001	-0.189
-340.348	-46.057	-0.290	-0.143
-339.333	119.555	-0.124	0.154
-338.318	-131.484	0.464	-0.061
-337.304	800.000	0.044	0.170
-336.289	800.000	0.095	0.303
-335.275	-200.000	-0.015	0.199
-334.260	-67.791	-0.148	0.058
-333.245	78.233	-0.275	-0.294
-332.231	800.000	0.089	-0.284
-331.216	344.995	0.140	-0.275
-330.202	233.923	0.193	0.319
-329.187	92.708	0.202	-0.227
-328.172	-61.145	0.175	-0.074
-327.158	-3.845	0.070	0.049
-326.143	235.952	0.056	-0.093
-325.129	-145.543	0.052	-0.005
-324.114	-200.000	-0.008	0.238
-323.099	19.627	0.284	0.228
-322.085	555.508	-0.032	-0.076
-321.070	12.734	-0.065	0.050
-320.056	-76.963	0.133	0.047
-319.041	800.000	0.024	0.083
-318.026	163.796	0.157	-0.221
-317.012	75.697	0.142	-0.150
-315.997	202.957	-0.020	0.031
-314.983	118.508	0.126	-0.156
-313.968	800.000	-0.020	-0.080
-312.953	-96.940	-0.036	0.009
-311.939	-200.000	0.031	0.275
-310.924	-200.000	-0.016	-0.168
-309.910	800.000	-0.113	0.480
-308.895	-1.307	-0.208	0.147
-307.880	-200.000	0.073	0.361
-306.866	722.249	0.097	-0.258
-305.851	-43.018	-0.124	-0.063
-304.837	-162.679	-0.059	-0.003
-303.822	458.572	-0.113	-0.252
-302.807	-200.000	-0.026	-0.125
-301.793	-66.055	0.042	-0.017
-300.778	-162.577	0.255	-0.013
-299.764	-146.362	0.356	0.031
-298.749	5.482	0.260	0.191
-297.735	-154.205	-0.389	-0.026
-296.720	-118.801	-0.211	0.037
-295.705	365.332	-0.146	-0.293
-294.691	800.000	0.065	0.261
-293.676	56.870	0.071	0.069
-292.662	-92.161	0.228	-0.064
-291.647	-133.963	-0.333	-0.041
-290.632	-117.728	0.131	0.024
-289.618	0.449	-0.095	-0.068
-288.603	-200.000	-0.011	-0.181
-287.589	175.648	0.054	-0.078
-286.574	-51.539	0.417	-0.194
-285.559	113.703	-0.061	-0.074
-284.545	-64.895	-0.128	0.052
-283.530	-78.276	0.219	0.075
-282.516	-101.927	-0.209	0.050
-281.501	800.000	-0.098	0.296
-280.486	-166.757	0.355	-0.015
-279.472	800.000	-0.023	0.080
-278.457	-65.737	0.243	0.097
-277.443	-53.837	-0.198	0.090
-276.428	68.380	0.222	0.227
-275.413	108.117	0.038	0.045
-274.399	800.000	-0.007	0.028
-273.384	800.000	0.105	0.419
-272.370	150.760	0.293	0.397
-271.355	643.145	0.104	0.265
-270.340	21.625	-0.096	-0.078
-269.326	83.783	-0.097	0.106
-268.311	-80.210	0.168	0.056
-267.297	-200.000	0.017	-0.190
-266.282	800.000	0.151	-0.474
-265.267	-10.442	-0.138	0.091
-264.253	-118.788	0.152	-0.027
-263.238	-200.000	0.024	-0.418
-262.224	-89.428	0.157	-0.046
-261.209	-93.173	0.163	-0.045
-260.195	214.599	0.225	0.356
-259.180	163.650	0.138	0.193
-258.165	712.341	-0.038	0.101
-257.151	259.217	-0.201	0.345
-256.136	-11.079	0.329	0.216
-255.122	276.816	-0.213	0.378
-254.107	118.005	0.103	0.127
-253.092	-135.651	0.139	-0.016
-252.078	284.872	-0.085	-0.152
-251.063	-128.100	0.239	0.034
-250.049	73.199	0.114	0.119
-249.034	-48.068	-0.367	0.177
-248.019	800.000	0.021	0.068
-247.005	-200.000	0.006	-0.053
-245.990	-60.669	-0.188	-0.079
-244.976	-28.335	-0.118	0.068
-243.961	-200.000	-0.043	-0.262
-242.946	800.000	0.082	-0.307
-241.932	-86.319	-0.126	0.039
-240.917	-85.949	0.269	0.083
-239.903	331.460	-0.124	0.239
-238.888	-125.701	0.165	-0.025
-237.873	12.092	-0.111	0.085
-236.859	477.845	-0.104	0.234
-235.844	-200.000	0.008	0.190
-234.830	47.029	0.122	0.113
-233.815	423.865	0.085	-0.182
-232.800	156.896	0.204	0.280
-231.786	-200.000	0.044	0.271
-230.771	100.816	0.236	-0.273
-229.757	-200.000	0.007	0.145
-228.742	-200.000	-0.063	0.334
-227.727	-200.000	0.021	-0.192
-226.713	-70.707	0.463	-0.174
-225.698	766.339	0.031	0.085
-224.684	-200.000	0.004	0.201
-223.669	491.880	0.142	0.323
-222.655	85.482	0.163	-0.178
-221.640	-169.094	-0.102	-0.004
-220.625	10.153	0.168	0.127
-219.611	-123.162	0.429	-0.068
-218.596	-200.000	-0.079	-0.354
-217.582	79.216	0.130	0.139
-216.567	-173.191	0.167	0.005
-215.552	800.000	0.117	-0.334
-214.538	9.687	0.275	0.208
-213.523	616.568	-0.078	0.193
-212.509	-174.229	-0.127	-0.004
-211.494	274.808	-0.029	-0.051
-210.479	116.219	0.200	-0.244
-209.465	456.797	-0.134	-0.296
-208.450	-25.905	-0.439	-0.257
-207.436	-60.939	0.167	0.070
-206.421	-200.000	-0.027	-0.314
-205.406	-71.329	-0.283	-0.106
-204.392	105.455	-0.188	-0.221
-203.377	-14.404	0.097	-0.062
-202.363	-14.252	-0.222	0.142
-201.348	-200.000	-0.005	-0.198
-200.333	-96.730	0.142	-0.037
-199.319	-200.000	-0.052	-0.321
-198.304	-87.891	0.246	-0.073
-197.290	-200.000	0.000	0.266
-196.275	-64.932	-0.240	0.096
-195.260	-17.866	-0.302	-0.188
-194.246	43.832	0.170	0.155
-193.231	301.496	0.086	0.159
-192.217	-131.470	-0.222	-0.029
-191.202	-66.093	0.308	-0.122
-190.187	-200.000	0.020	0.214
-189.173	800.000	-0.102	0.341
-188.158	-200.000	-0.021	-0.125
-187.144	119.997	-0.116	-0.143
-186.129	-33.175	-0.169	0.093
-185.114	-142.332	-0.014	-0.001
-184.100	-85.549	-0.385	-0.119
-183.085	800.000	-0.059	0.177
-182.071	-132.809	0.172	0.022
-181.056	171.699	0.115	0.164
-180.042	-91.200	0.199	-0.057
-179.027	-92.115	0.300	0.084
-178.012	-200.000	-0.017	0.341
-176.998	246.817	0.059	0.098
-175.983	279.732	0.237	-0.420
-174.969	-75.909	0.258	-0.091
-173.954	141.542	0.083	-0.110
-172.939	-154.227	0.181	0.012
-171.925	60.198	0.044	0.044
-170.910	800.000	-0.115	-0.419
-169.896	82.304	0.082	0.088
-168.881	-33.593	-0.200	0.110
-167.866	-121.001	-0.132	-0.022
-166.852	38.126	0.403	-0.356
-165.837	14.148	-0.024	-0.019
-164.823	214.949	0.194	0.305
-163.808	-200.000	-0.021	0.171
-162.793	246.822	0.050	-0.084
-161.779	-42.552	0.276	0.140
-160.764	-68.722	-0.106	-0.041
-159.750	16.705	-0.086	-0.068
-158.735	-200.000	-0.025	0.226
-157.720	400.356	0.075	-0.157
-156.706	-38.241	0.179	0.094
-155.691	-36.153	-0.088	0.047
-154.677	-36.162	-0.250	0.134
-153.662	-123.097	-0.223	0.036
-152.647	800.000	0.036	-0.112
-151.633	46.484	-0.171	-0.157
-150.618	-31.348	0.059	0.033
-149.604	-35.037	-0.254	0.137
-148.589	55.502	0.257	0.247
-147.574	65.843	-0.233	0.235
-146.560	29.688	0.234	0.198
-145.545	800.000	0.023	-0.068
-144.531	-89.727	0.153	0.044
-143.516	-98.777	0.093	-0.024
-142.502	-81.981	-0.323	-0.105
-141.487	676.619	0.147	0.380
-140.472	68.198	-0.219	0.223
-139.458	-88.387	0.090	-0.027
-138.443	-4.760	0.151	-0.103
-137.429	57.790	0.266	-0.258
-136.414	-138.749	-0.198	0.021
-135.399	-200.000	-0.005	0.173
-134.385	173.178	0.057	-0.082
-133.370	69.531	0.088	0.090
-132.356	-200.000	-0.043	0.276
-131.341	-200.000	0.024	-0.149
-130.326	-100.676	-0.190	-0.047
-129.312	162.007	-0.210	0.292
-128.297	300.786	-0.110	0.201
-127.283	800.000	-0.152	0.444
-126.268	13.996	-0.218	0.168
-125.253	12.487	0.365	0.279
-124.239	800.000	0.038	-0.110
-123.224	160.297	-0.092	-0.127
-122.210	-122.373	-0.077	-0.012
