DTS Sentinel unit serial number:	SN413079Multiplexer serial number:	ORYXHardware model number:	OX4-SRSoftware version number:	ORYX F/W v4.00 Oryx Data Collector v3.7.2.0data status	okinstallation	princeton_trtdifferential loss correction	single-endedforward channel	channel 1reverse channel	N/Adate	2019/09/11time	23:40:11forward acquisition time	60.00reverse acquisition time	0.00gamma	496.2192k internal	0.2319k external	0.2319temperature offset calibration	1.0065default loss term (dB/km)	0.3790temperature slope calibration	1.0000multiplexer offset coefficient	1.0000multiplexer slope coefficient	1.0000fibre end	0.00T internal ref (°C)	34.12T ext. ref 1 (°C)	1.90T ext. ref 2 (°C)	28.41length (m)	temperature (°C)	Stokes	anti-Stokes-747.200	-167.599	0.038	0.002
-746.185	731.903	0.139	0.375
-745.171	-17.987	0.162	0.103
-744.156	767.416	-0.099	-0.273
-743.142	-200.000	0.009	0.059
-742.127	-53.257	0.412	0.191
-741.112	800.000	-0.039	0.137
-740.098	127.740	-0.113	-0.145
-739.083	-96.372	0.398	0.106
-738.069	-86.151	-0.194	-0.061
-737.054	-200.000	-0.004	0.121
-736.039	-200.000	-0.015	-0.207
-735.025	3.244	0.292	-0.215
-734.010	-114.176	0.355	-0.069
-732.996	-200.000	0.028	-0.154
-731.981	-78.371	-0.315	0.109
-730.966	-34.369	-0.291	-0.161
-729.952	65.567	0.333	-0.341
-728.937	41.613	-0.035	0.032
-727.923	-184.346	0.122	0.002
-726.908	-57.011	-0.177	0.079
-725.894	-162.073	0.302	-0.015
-724.879	-179.966	-0.346	0.007
-723.864	66.360	0.167	-0.172
-722.850	-47.096	0.105	-0.052
-721.835	18.304	-0.020	0.016
-720.821	-177.065	0.051	-0.001
-719.806	45.783	-0.110	-0.103
-718.791	479.824	0.054	-0.123
-717.777	-200.000	-0.007	-0.138
-716.762	257.795	-0.065	-0.113
-715.748	-54.452	0.110	-0.050
-714.733	105.737	-0.161	-0.192
-713.718	800.000	0.119	0.357
-712.704	176.258	-0.152	-0.223
-711.689	-89.481	0.412	0.123
-710.675	304.101	0.073	0.137
-709.660	-4.425	-0.108	-0.075
-708.645	46.391	0.242	0.227
-707.631	-200.000	0.073	-0.369
-706.616	-70.524	0.261	-0.100
-705.602	-95.000	0.219	0.060
-704.587	-53.149	-0.409	0.190
-703.572	298.956	0.094	-0.176
-702.558	36.693	-0.086	0.077
-701.543	451.318	-0.038	-0.085
-700.529	338.197	-0.118	0.232
-699.514	548.058	-0.158	0.383
-698.499	132.667	-0.259	0.338
-697.485	800.000	-0.038	-0.132
-696.470	127.194	-0.163	-0.209
-695.456	-108.779	-0.423	-0.091
-694.441	32.514	0.093	-0.081
-693.426	94.286	0.055	0.064
-692.412	-96.483	-0.076	-0.020
-691.397	-3.605	-0.113	0.080
-690.383	133.203	0.275	-0.359
-689.368	212.825	0.072	0.114
-688.354	-65.057	-0.398	0.162
-687.339	-52.323	-0.136	-0.063
-686.324	143.976	0.117	0.157
-685.310	-69.905	-0.122	-0.047
-684.295	-136.189	-0.263	0.031
-683.281	-93.034	0.057	0.016
-682.266	-38.255	-0.018	0.010
-681.251	-78.051	-0.161	-0.056
-680.237	-29.658	0.215	0.124
-679.222	800.000	-0.061	-0.237
-678.208	579.561	0.080	-0.197
-677.193	-8.000	0.182	0.124
-676.178	-7.039	0.081	-0.055
-675.164	-200.000	0.008	-0.120
-674.149	-68.853	-0.266	-0.104
-673.135	458.112	0.075	0.168
-672.120	176.568	-0.175	-0.257
-671.105	-39.702	0.174	-0.092
-670.091	293.805	-0.076	-0.140
-669.076	378.541	0.180	0.371
-668.062	421.401	0.048	-0.103
-667.047	-90.514	0.105	0.031
-666.032	12.958	-0.087	0.068
-665.018	248.322	-0.117	-0.200
-664.003	-200.000	-0.012	-0.139
-662.989	92.351	-0.223	0.254
-661.974	-5.848	0.214	0.148
-660.959	36.675	-0.214	0.191
-659.945	-200.000	0.019	0.294
-658.930	36.468	0.020	-0.017
-657.916	-103.722	0.525	-0.124
-656.901	400.350	-0.069	0.147
-655.886	-145.130	0.268	0.025
-654.872	762.048	-0.060	0.165
-653.857	106.339	-0.075	-0.090
-652.843	-113.223	-0.383	0.076
-651.828	-115.498	0.324	0.062
-650.814	63.394	-0.048	0.049
-649.799	-200.000	-0.002	-0.275
-648.784	800.000	-0.055	-0.203
-647.770	477.276	0.128	-0.292
-646.755	136.312	-0.179	0.235
-645.741	-99.549	-0.216	-0.055
-644.726	51.265	-0.136	-0.130
-643.711	-113.321	0.094	-0.019
-642.697	-200.000	-0.028	-0.177
-641.682	209.442	-0.247	-0.390
-640.668	-27.229	0.228	-0.134
-639.653	201.965	-0.100	0.155
-638.638	78.684	0.127	-0.137
-637.624	274.116	-0.113	0.202
-636.609	39.214	0.164	-0.148
-635.595	176.598	0.159	-0.233
-634.580	79.914	-0.067	-0.073
-633.565	800.000	0.029	-0.098
-632.551	-200.000	0.006	-0.079
-631.536	-48.449	0.181	-0.088
-630.522	-135.434	0.305	-0.037
-629.507	-85.336	-0.251	-0.079
-628.492	-200.000	0.004	0.072
-627.478	-200.000	0.025	-0.161
-626.463	-200.000	-0.014	0.163
-625.449	-28.290	-0.176	-0.103
-624.434	799.320	-0.131	-0.364
-623.419	800.000	0.079	-0.287
-622.405	-61.383	0.167	-0.071
-621.390	109.651	0.188	0.227
-620.376	800.000	-0.035	0.100
-619.361	-200.000	0.025	0.265
-618.346	-200.000	0.380	-0.001
-617.332	800.000	-0.043	0.177
-616.317	11.680	-0.160	0.124
-615.303	6.347	0.209	0.156
-614.288	-93.205	0.144	0.040
-613.273	-72.772	-0.225	-0.083
-612.259	53.648	-0.247	0.239
-611.244	-200.000	-0.002	-0.119
-610.230	457.133	-0.117	-0.262
-609.215	-3.603	-0.074	0.051
-608.201	-200.000	-0.045	-0.271
-607.186	389.779	-0.130	-0.271
-606.171	305.693	-0.081	-0.152
-605.157	5.522	-0.099	0.074
-604.142	-186.440	-0.294	0.004
-603.128	180.936	-0.126	0.186
-602.113	800.000	-0.100	-0.305
-601.098	-61.754	-0.353	0.149
-600.084	123.636	-0.238	0.301
-599.069	-200.000	0.063	0.468
-598.055	328.998	-0.153	0.295
-597.040	-102.712	-0.224	-0.054
-596.025	-200.000	-0.011	0.224
-595.011	-200.000	-0.060	0.300
-593.996	-125.747	0.140	0.021
-592.982	-200.000	0.055	-0.295
-591.967	66.360	0.093	0.095
-590.952	-3.204	-0.252	0.177
-589.938	800.000	-0.020	0.072
-588.923	-99.098	-0.074	-0.019
-587.909	-24.913	-0.251	0.150
-586.894	-128.696	0.279	-0.040
-585.879	-119.818	-0.051	0.009
-584.865	-20.886	0.096	-0.059
-583.850	-113.020	-0.179	-0.036
-582.836	-82.572	0.110	0.036
-581.821	-126.905	-0.251	0.037
-580.806	-124.157	0.302	0.048
-579.792	-136.802	-0.139	-0.016
-578.777	99.474	-0.068	-0.079
-577.763	-200.000	0.021	0.176
-576.748	371.453	0.274	0.559
-575.733	13.372	-0.264	0.206
-574.719	-43.461	-0.200	0.102
-573.704	-65.211	0.103	-0.042
-572.690	414.965	-0.149	-0.318
-571.675	-200.000	-0.022	0.248
-570.661	98.991	0.131	-0.152
-569.646	153.267	0.228	0.314
-568.631	201.902	0.108	-0.167
-567.617	-172.723	-0.441	-0.014
-566.602	54.107	0.420	0.406
-565.588	-61.482	0.357	0.151
-564.573	-200.000	0.016	-0.233
-563.558	-131.157	0.156	0.021
-562.544	-75.110	-0.241	-0.087
-561.529	-144.313	-0.174	-0.016
-560.515	-62.394	0.179	-0.075
-559.500	317.318	0.080	0.152
-558.485	34.106	-0.118	0.103
-557.471	239.160	0.155	-0.259
-556.456	-62.173	0.264	-0.111
-555.442	-66.089	-0.093	0.037
-554.427	-200.000	-0.026	-0.205
-553.412	777.144	0.075	0.205
-552.398	607.673	-0.035	-0.088
-551.383	-5.595	-0.128	0.088
-550.369	-200.000	0.058	-0.426
-549.354	116.313	-0.151	0.186
-548.339	741.846	0.059	0.160
-547.325	-84.584	0.208	0.066
-546.310	-173.494	0.593	-0.018
-545.296	209.147	-0.116	0.183
-544.281	-200.000	0.008	-0.288
-543.266	-131.980	-0.005	0.001
-542.252	355.291	-0.117	0.233
-541.237	28.741	0.281	-0.239
-540.223	25.837	-0.074	-0.062
-539.208	400.299	0.079	-0.165
-538.193	-200.000	-0.064	-0.291
-537.179	230.201	-0.102	0.167
-536.164	800.000	0.046	0.135
-535.150	149.849	0.137	0.186
-534.135	-85.066	-0.349	0.110
-533.121	151.074	-0.199	-0.272
-532.106	-61.282	0.285	-0.120
-531.091	-43.855	-0.214	0.108
-530.077	706.922	-0.030	-0.081
-529.062	-200.000	-0.003	-0.039
-528.048	800.000	0.114	0.392
-527.033	-3.534	-0.099	-0.069
-526.018	-161.631	-0.252	0.013
-525.004	-200.000	-0.001	0.179
-523.989	-144.964	-0.316	-0.029
-522.975	114.459	-0.225	-0.275
-521.960	23.491	-0.061	-0.050
-520.945	-200.000	0.027	0.188
-519.931	-200.000	-0.048	-0.252
-518.916	653.715	0.064	0.164
-517.902	130.439	-0.248	0.319
-516.887	155.258	0.167	0.231
-515.872	-200.000	-0.027	-0.228
-514.858	-64.059	-0.212	-0.087
-513.843	304.793	-0.143	0.267
-512.829	124.027	-0.095	0.120
-511.814	-28.870	0.197	0.114
-510.799	800.000	-0.046	0.141
-509.785	-90.650	-0.059	0.017
-508.770	-33.363	-0.158	-0.087
-507.756	800.000	0.062	-0.238
-506.741	-67.556	-0.262	0.103
-505.726	471.862	0.045	0.102
-504.712	111.445	-0.341	-0.413
-503.697	23.721	0.268	-0.221
-502.683	440.955	0.028	-0.062
-501.668	-107.647	-0.065	0.014
-500.653	165.675	-0.129	-0.182
-499.639	253.544	0.164	-0.281
-498.624	800.000	0.020	-0.061
-497.610	-141.594	-0.374	0.038
-496.595	10.888	0.179	0.137
-495.581	181.000	0.264	0.389
-494.566	-8.652	0.261	0.176
-493.551	26.906	0.060	-0.050
-492.537	-55.989	-0.156	-0.070
-491.522	43.175	-0.066	-0.060
-490.508	800.000	-0.060	0.242
-489.493	-21.924	0.244	-0.149
-488.478	800.000	-0.102	-0.286
-487.464	-63.449	-0.049	0.020
-486.449	800.000	-0.052	0.196
-485.435	-200.000	-0.030	-0.163
-484.420	-100.442	-0.213	-0.053
-483.405	-76.170	-0.184	-0.065
-482.391	529.144	-0.040	0.094
-481.376	800.000	0.044	0.126
-480.362	-49.566	0.230	0.110
-479.347	-6.321	-0.306	0.209
-478.332	31.415	0.097	-0.084
-477.318	-200.000	-0.029	0.173
-476.303	800.000	-0.055	-0.174
-475.289	-49.697	-0.113	-0.054
-474.274	-154.508	-0.336	-0.022
-473.259	-88.658	-0.276	-0.082
-472.245	800.000	0.011	-0.030
-471.230	131.749	-0.156	-0.201
-470.216	-5.566	-0.180	-0.124
-469.201	-138.016	0.158	-0.018
-468.186	-32.728	-0.163	-0.091
-467.172	-15.211	0.083	-0.053
-466.157	800.000	0.063	-0.234
-465.143	128.014	0.059	-0.075
-464.128	-187.563	-0.096	0.001
-463.113	-105.299	-0.049	-0.011
-462.099	267.283	0.157	-0.275
-461.084	104.380	0.135	0.159
-460.070	115.463	0.149	0.182
-459.055	-200.000	-0.000	-0.039
-458.040	-200.000	-0.014	0.110
-457.026	-120.391	-0.253	0.043
-456.011	-25.570	0.047	-0.028
-454.997	285.529	-0.246	0.443
-453.982	125.396	0.127	-0.160
-452.968	554.270	-0.077	-0.186
-451.953	172.480	0.167	0.241
-450.938	-89.725	0.112	0.033
-449.924	-200.000	-0.045	-0.240
-448.909	482.281	-0.183	-0.416
-447.895	231.808	-0.065	-0.107
-446.880	-2.375	0.198	0.139
-445.865	196.364	-0.036	0.055
-444.851	-111.838	-0.268	0.054
-443.836	513.909	0.055	0.129
-442.822	122.279	0.113	0.141
-441.807	-200.000	0.012	-0.086
-440.792	163.634	-0.115	0.161
-439.778	428.011	0.041	0.088
-438.763	42.408	-0.235	-0.214
-437.749	800.000	0.069	-0.243
-436.734	800.000	0.081	-0.245
-435.719	-200.000	-0.069	0.325
-434.705	-184.599	0.099	-0.002
-433.690	561.398	-0.050	0.120
-432.676	-17.087	0.361	0.228
-431.661	243.397	-0.172	-0.288
-430.646	398.418	0.140	-0.293
-429.632	-200.000	-0.018	-0.161
-428.617	-11.686	-0.332	-0.218
-427.603	800.000	0.125	-0.353
-426.588	163.192	-0.088	0.123
-425.573	-143.464	0.143	0.014
-424.559	385.834	-0.042	0.087
-423.544	127.003	-0.360	0.455
-422.530	305.797	-0.140	-0.260
-421.515	-68.333	0.027	-0.011
-420.500	-200.000	-0.024	0.232
-419.486	-59.698	0.135	0.058
-418.471	-72.562	0.070	-0.026
-417.457	-63.400	0.098	0.040
-416.442	-104.484	-0.307	0.071
-415.428	144.663	0.098	-0.131
-414.413	-4.440	-0.075	0.052
-413.398	-120.434	0.178	0.030
-412.384	325.508	-0.043	-0.082
-411.369	-200.000	0.031	0.188
-410.355	-18.853	0.134	0.083
-409.340	689.145	-0.068	0.178
-408.325	146.436	0.080	0.107
-407.311	-125.684	0.219	0.033
-406.296	150.119	0.034	-0.046
-405.282	-84.806	-0.223	-0.070
-404.267	-200.000	-0.024	0.144
-403.252	179.883	-0.154	0.225
-402.238	-200.000	0.032	0.221
-401.223	-124.720	0.127	-0.020
-400.209	380.325	0.046	-0.094
-399.194	-200.000	0.011	-0.336
-398.179	580.607	-0.188	-0.461
-397.165	32.215	-0.064	0.055
-396.150	92.014	0.153	-0.172
-395.136	214.530	0.177	-0.280
-394.121	-200.000	-0.000	-0.180
-393.106	46.671	-0.049	0.046
-392.092	-200.000	0.028	0.146
-391.077	4.013	0.081	-0.059
-390.063	-29.535	0.185	-0.106
-389.048	-96.010	0.173	0.046
-388.033	707.732	-0.073	0.192
-387.019	280.525	-0.054	-0.096
-386.004	157.621	-0.203	0.281
-384.990	-99.703	0.130	0.032
-383.975	48.395	0.162	0.151
-382.960	-120.853	-0.200	0.034
-381.946	-12.201	-0.074	0.048
-380.931	231.571	0.209	0.342
-379.917	25.344	0.080	-0.067
-378.902	71.821	0.082	-0.085
-377.888	800.000	0.059	0.212
-376.873	-108.675	0.130	0.028
-375.858	150.237	0.151	0.204
-374.844	-94.573	-0.099	0.027
-373.829	-77.702	-0.096	-0.033
-372.815	319.064	0.147	-0.277
-371.800	-89.099	-0.349	-0.103
-370.785	204.805	0.053	0.081
-369.771	800.000	-0.061	-0.225
-368.756	558.672	0.038	-0.091
-367.742	233.760	-0.142	-0.233
-366.727	1.226	0.200	0.143
-365.712	-200.000	-0.028	-0.272
-364.698	253.475	-0.207	-0.353
-363.683	-31.296	-0.265	0.149
-362.669	-145.237	0.192	-0.017
-361.654	-200.000	-0.045	-0.213
-360.639	-100.747	-0.196	-0.048
-359.625	800.000	0.036	0.135
-358.610	-63.538	-0.103	-0.042
-357.596	-137.495	-0.171	0.019
-356.581	-12.541	-0.171	0.112
-355.566	7.574	0.135	0.100
-354.552	-188.892	0.165	-0.002
-353.537	-200.000	0.040	-0.323
-352.523	-200.000	0.016	0.308
-351.508	310.904	0.182	0.339
-350.493	210.748	0.150	0.235
-349.479	-200.000	0.012	0.117
-348.464	-48.820	-0.259	-0.124
-347.450	142.880	0.170	-0.225
-346.435	12.238	-0.278	0.213
-345.420	-60.646	0.233	0.098
-344.406	-88.944	0.192	0.057
-343.391	20.052	0.451	-0.362
-342.377	-61.984	-0.224	-0.093
-341.362	800.000	0.063	0.174
-340.348	249.015	-0.173	-0.292
-339.333	-200.000	-0.025	-0.134
-338.318	800.000	0.095	-0.276
-337.304	-77.266	-0.317	0.110
-336.289	196.968	0.028	-0.042
-335.275	355.147	-0.098	-0.194
-334.260	-123.629	-0.338	-0.053
-333.245	-200.000	0.014	0.083
-332.231	-110.264	-0.389	0.081
-331.216	253.873	-0.026	-0.044
-330.202	-111.465	0.110	0.022
-329.187	-94.177	0.092	0.025
-328.172	660.805	-0.104	0.266
-327.158	17.934	-0.420	0.333
-326.143	-200.000	0.036	0.195
-325.129	521.964	0.043	0.101
-324.114	800.000	-0.033	0.138
-323.099	-200.000	0.079	-0.345
-322.085	-3.288	0.183	0.127
-321.070	-200.000	0.024	-0.231
-320.056	-200.000	-0.019	0.188
-319.041	-94.169	-0.076	-0.021
-318.026	-200.000	0.036	0.179
-317.012	-116.882	0.101	0.018
-315.997	101.783	0.098	0.113
-314.983	800.000	0.100	0.322
-313.968	305.970	-0.151	0.280
-312.953	-68.319	0.186	0.072
-311.939	-155.693	-0.237	0.015
-310.924	362.948	0.004	0.009
-309.910	-15.279	-0.165	0.105
-308.895	39.364	0.027	0.024
-307.880	-14.028	-0.071	0.046
-306.866	-180.059	0.111	-0.002
-305.851	147.405	0.169	0.227
-304.837	800.000	-0.095	-0.412
-303.822	574.982	0.080	-0.194
-302.807	34.569	0.056	0.049
-301.793	-72.354	0.219	-0.080
-300.778	-74.425	0.284	0.102
-299.764	-166.555	0.221	0.009
-298.749	37.738	-0.266	0.235
-297.735	800.000	0.059	-0.221
-296.720	304.225	-0.086	-0.158
-295.705	-103.050	0.058	0.014
-294.691	540.439	-0.034	-0.082
-293.676	11.649	0.107	-0.082
-292.662	-25.849	0.382	0.224
-291.647	34.335	0.042	-0.036
-290.632	-66.279	-0.019	-0.008
-289.618	-200.000	-0.002	-0.238
-288.603	-97.524	0.154	0.040
-287.589	-94.941	-0.238	0.064
-286.574	-88.479	-0.205	-0.061
-285.559	145.801	0.178	-0.237
-284.545	-174.893	0.113	0.003
-283.530	-91.502	-0.386	-0.109
-282.516	-148.089	-0.314	0.026
-281.501	-24.292	0.037	0.022
-280.486	108.356	-0.173	0.205
-279.472	289.367	0.154	0.277
-278.457	-151.294	0.325	0.024
-277.443	-17.628	-0.300	-0.187
-276.428	-200.000	-0.069	-0.343
-275.413	-24.245	-0.183	0.108
-274.399	-94.742	0.043	0.012
-273.384	800.000	-0.040	0.159
-272.370	-92.549	-0.259	-0.072
-271.355	305.437	0.191	0.353
-270.340	-95.946	0.290	0.077
-269.326	166.670	0.045	-0.063
-268.311	-64.436	0.164	-0.066
-267.297	122.278	0.103	-0.128
-266.282	150.025	0.193	-0.260
-265.267	98.400	-0.201	-0.230
-264.253	-200.000	-0.009	-0.139
-263.238	310.236	0.166	0.309
-262.224	-67.107	0.417	0.163
-261.209	800.000	0.040	-0.134
-260.195	263.144	-0.133	0.230
-259.180	260.750	0.170	-0.292
-258.165	-134.586	0.368	0.045
-257.151	448.251	0.138	0.301
-256.136	800.000	0.109	0.333
-255.122	-143.388	0.317	0.030
-254.107	-86.112	0.189	-0.058
-253.092	800.000	-0.111	0.337
-252.078	-148.246	0.351	0.029
-251.063	-200.000	-0.012	-0.140
-250.049	136.312	0.123	-0.159
-249.034	-200.000	-0.028	0.267
-248.019	-43.911	-0.353	-0.176
-247.005	-70.185	0.077	0.029
-245.990	-81.858	-0.032	-0.011
-244.976	39.497	0.094	-0.084
-243.961	83.256	-0.004	-0.004
-242.946	216.735	-0.079	-0.125
-241.932	-119.845	0.316	-0.054
-240.917	-200.000	0.005	0.110
-239.903	98.043	0.103	0.117
-238.888	-200.000	0.002	-0.098
-237.873	800.000	-0.036	0.107
-236.859	640.963	0.134	-0.340
-235.844	65.186	0.036	-0.036
-234.830	53.692	0.337	-0.321
-233.815	-12.283	-0.088	-0.057
-232.800	179.339	0.202	0.294
-231.786	-135.963	0.394	-0.046
-230.771	633.809	-0.094	-0.237
-229.757	800.000	0.102	0.308
-228.742	-105.442	0.345	0.078
-227.727	127.712	0.163	-0.206
-226.713	-65.396	0.262	-0.104
-225.698	93.907	-0.180	-0.202
-224.684	-21.940	-0.070	-0.042
-223.669	439.773	-0.059	0.127
-222.655	-136.297	0.265	-0.031
-221.640	-112.831	-0.058	0.011
-220.625	-14.536	0.113	-0.072
-219.611	151.269	0.204	-0.275
-218.596	-88.443	-0.113	-0.033
-217.582	1.614	0.118	0.084
-216.567	-133.724	-0.139	0.017
-215.552	336.188	-0.204	0.393
-214.538	-117.756	0.296	0.053
-213.523	-112.713	0.161	-0.032
-212.509	124.590	-0.403	-0.503
-211.494	-92.241	-0.285	0.080
-210.479	-42.724	0.229	0.116
-209.465	-106.953	-0.127	-0.028
-208.450	-132.296	0.225	0.029
-207.436	-132.417	0.300	-0.038
-206.421	-200.000	0.015	-0.225
-205.406	800.000	-0.212	0.677
-204.392	4.544	-0.172	0.125
-203.377	110.195	0.202	0.240
-202.363	-75.194	-0.149	0.053
-201.348	-200.000	0.009	-0.091
-200.333	-10.078	-0.105	0.069
-199.319	453.689	-0.066	-0.144
-198.304	50.386	0.110	0.103
-197.290	-34.188	-0.466	0.253
-196.275	-167.364	0.192	-0.008
-195.260	-60.455	-0.378	0.159
-194.246	-34.870	0.235	-0.127
-193.231	24.321	0.306	0.250
-192.217	-68.959	0.077	-0.029
-191.202	-100.695	-0.432	0.105
-190.187	-200.000	-0.025	0.146
-189.173	66.668	0.210	0.211
-188.158	60.692	-0.099	-0.097
-187.144	-136.161	0.096	0.011
-186.129	-69.967	0.257	-0.097
-185.114	-64.166	-0.181	-0.073
-184.100	-200.000	0.009	0.093
-183.085	-138.176	-0.149	-0.016
-182.071	-146.412	0.477	0.041
-181.056	420.565	0.088	-0.187
-180.042	800.000	0.026	-0.090
-179.027	384.073	-0.010	0.020
-178.012	116.077	-0.129	0.156
-176.998	800.000	0.046	-0.142
-175.983	226.640	0.117	-0.188
-174.969	-129.811	-0.177	0.024
-173.954	-33.841	0.172	0.094
-172.939	382.877	-0.079	0.162
-171.925	139.952	-0.179	-0.233
-170.910	45.813	0.356	-0.326
-169.896	-200.000	0.024	-0.126
-168.881	4.153	0.201	-0.146
-167.866	-96.891	-0.265	0.069
-166.852	-47.941	-0.307	-0.147
-165.837	800.000	0.094	-0.285
-164.823	-200.000	0.017	-0.123
-163.808	-200.000	0.014	-0.188
-162.793	-200.000	-0.079	0.384
-161.779	-128.918	-0.074	0.010
-160.764	800.000	0.040	0.112
-159.750	607.504	0.088	0.217
-158.735	800.000	-0.046	-0.198
-157.720	729.872	-0.102	0.269
-156.706	-200.000	0.024	0.317
-155.691	791.321	-0.084	-0.229
-154.677	89.661	0.102	0.113
-153.662	-67.339	-0.196	-0.076
-152.647	-81.230	-0.072	0.024
-151.633	65.140	0.244	-0.244
-150.618	42.511	0.189	0.170
-149.604	27.389	-0.257	-0.214
-148.589	800.000	0.015	-0.049
-147.574	32.076	-0.161	0.137
-146.560	-5.929	-0.265	0.179
-145.545	-162.724	-0.195	-0.009
-144.531	-200.000	0.019	-0.127
-143.516	569.430	-0.051	-0.124
-142.502	321.113	0.215	0.405
-141.487	189.677	-0.086	0.127
-140.472	-78.253	-0.277	0.094
-139.458	147.497	0.158	0.211
-138.443	65.318	0.082	-0.082
-137.429	-172.636	-0.145	-0.005
-136.414	800.000	-0.075	0.269
-135.399	341.842	0.118	0.228
-134.385	61.295	-0.037	0.037
-133.370	50.406	-0.161	-0.150
-132.356	-101.215	-0.423	0.102
-131.341	800.000	0.056	-0.154
-130.326	-200.000	-0.013	0.120
-129.312	-155.956	-0.271	0.017
-128.297	-200.000	-0.062	0.393
-127.283	413.301	-0.137	0.288
-126.268	-1.884	0.146	0.101
-125.253	-74.961	-0.347	0.123
-124.239	-200.000	-0.009	0.189
-123.224	-54.400	0.436	-0.195
-122.210	-83.471	-0.120	-0.038
-121.195	800.000	-0.114	0.323
