DTS Sentinel unit serial number:	SN413079Multiplexer serial number:	ORYXHardware model number:	OX4-SRSoftware version number:	ORYX F/W v4.00 Oryx Data Collector v3.7.2.0data status	okinstallation	princeton_trtdifferential loss correction	single-endedforward channel	channel 1reverse channel	N/Adate	2019/09/15time	15:06:35forward acquisition time	60.00reverse acquisition time	0.00gamma	496.2192k internal	0.2292k external	0.2292temperature offset calibration	0.9948default loss term (dB/km)	0.3790temperature slope calibration	1.0000multiplexer offset coefficient	1.0000multiplexer slope coefficient	1.0000fibre end	0.00T internal ref (°C)	40.37T ext. ref 1 (°C)	4.93T ext. ref 2 (°C)	37.56length (m)	temperature (°C)	Stokes	anti-Stokes-747.200	-22.761	-0.170	0.105
-746.185	800.000	-0.034	-0.131
-745.171	471.515	-0.087	0.200
-744.156	800.000	-0.078	0.343
-743.142	117.136	0.178	0.224
-742.127	-110.674	-0.213	0.045
-741.112	-90.617	0.283	-0.084
-740.098	-121.120	-0.243	0.042
-739.083	668.951	-0.106	-0.280
-738.069	316.672	0.164	0.318
-737.054	417.218	-0.043	-0.093
-736.039	-175.598	0.421	0.012
-735.025	-152.112	-0.387	0.029
-734.010	-200.000	-0.019	-0.098
-732.996	-200.000	0.016	0.157
-731.981	-42.170	-0.174	0.091
-730.966	-0.792	0.217	-0.157
-729.952	-200.000	0.041	0.218
-728.937	-58.480	-0.289	0.128
-727.923	-200.000	0.050	-0.233
-726.908	-52.461	-0.105	0.050
-725.894	43.502	0.123	-0.115
-724.879	-6.152	-0.270	-0.189
-723.864	324.172	-0.066	-0.129
-722.850	-73.840	0.312	0.116
-721.835	272.353	-0.105	-0.190
-720.821	-87.375	-0.116	-0.036
-719.806	-56.083	-0.581	-0.265
-718.791	-80.924	-0.222	0.075
-717.777	-200.000	0.053	0.261
-716.762	41.344	0.222	0.205
-715.748	-200.000	0.039	-0.290
-714.733	-24.225	-0.192	0.117
-713.718	-200.000	-0.033	-0.213
-712.704	363.119	-0.031	-0.063
-711.689	25.372	0.256	-0.217
-710.675	-200.000	-0.019	-0.153
-709.660	35.431	-0.096	0.086
-708.645	125.454	-0.082	0.105
-707.631	133.037	-0.185	0.244
-706.616	-7.780	0.397	-0.274
-705.602	788.750	-0.098	0.275
-704.587	-200.000	-0.013	0.248
-703.572	68.497	0.159	-0.167
-702.558	800.000	0.121	-0.381
-701.543	-83.000	0.423	0.139
-700.529	-200.000	0.020	-0.163
-699.514	-200.000	-0.045	-0.209
-698.499	60.920	-0.058	-0.058
-697.485	-10.094	0.053	-0.036
-696.470	212.807	-0.085	0.137
-695.456	800.000	0.045	0.142
-694.441	-63.014	-0.128	-0.054
-693.426	-127.997	0.068	0.010
-692.412	20.273	0.058	-0.048
-691.397	-4.593	0.228	0.161
-690.383	51.729	-0.218	0.212
-689.368	-106.004	-0.306	-0.070
-688.354	-45.254	-0.255	-0.129
-687.339	-70.045	0.098	0.038
-686.324	-106.545	0.104	0.024
-685.310	199.406	-0.109	0.171
-684.295	344.291	0.132	0.265
-683.281	-200.000	-0.043	-0.276
-682.266	436.412	-0.140	0.312
-681.251	6.092	-0.169	-0.128
-680.237	-156.881	0.164	-0.010
-679.222	-115.079	-0.474	-0.092
-678.208	-200.000	-0.033	-0.220
-677.193	-71.469	0.305	-0.117
-676.178	125.689	0.171	0.220
-675.164	72.540	-0.020	0.021
-674.149	113.027	-0.143	0.177
-673.135	42.569	-0.193	-0.179
-672.120	-163.931	0.413	-0.020
-671.105	643.953	-0.108	0.280
-670.091	-146.301	-0.465	-0.042
-669.076	64.874	-0.234	-0.241
-668.062	181.992	-0.252	-0.379
-667.047	315.410	-0.071	-0.136
-666.032	-184.749	0.113	-0.002
-665.018	-101.389	0.357	-0.089
-664.003	64.451	0.045	-0.047
-662.989	80.622	0.126	0.138
-661.974	800.000	-0.045	-0.130
-660.959	-53.506	-0.114	-0.053
-659.945	-200.000	0.073	-0.358
-658.930	-113.096	0.050	0.010
-657.916	79.956	-0.101	-0.110
-656.901	-200.000	-0.013	0.334
-655.886	-95.113	-0.249	-0.068
-654.872	-41.285	-0.228	0.120
-653.857	-200.000	0.034	-0.174
-652.843	-99.667	-0.243	-0.062
-651.828	-200.000	0.149	-0.001
-650.814	-92.167	-0.129	-0.037
-649.799	21.908	-0.062	-0.052
-648.784	701.272	0.117	-0.313
-647.770	10.836	-0.245	-0.191
-646.755	-117.505	-0.235	-0.043
-645.741	131.979	-0.174	0.229
-644.726	-96.374	-0.021	-0.006
-643.711	-200.000	0.075	-0.426
-642.697	-81.233	-0.177	-0.060
-641.682	61.703	-0.271	-0.275
-640.668	706.408	0.162	0.437
-639.653	-64.995	0.180	-0.074
-638.638	-21.738	0.046	-0.029
-637.624	252.841	-0.077	-0.133
-636.609	-12.247	0.106	-0.071
-635.595	800.000	-0.067	-0.205
-634.580	101.949	0.050	-0.060
-633.565	187.141	0.067	0.101
-632.551	-12.584	-0.234	-0.155
-631.536	-92.929	0.206	0.059
-630.522	155.831	0.103	-0.144
-629.507	-141.720	-0.166	0.017
-628.492	360.741	0.062	0.126
-627.478	-62.976	0.266	-0.112
-626.463	-5.855	-0.138	0.096
-625.449	60.229	-0.083	-0.084
-624.434	800.000	0.075	-0.218
-623.419	-52.836	-0.238	-0.112
-622.405	31.095	-0.080	0.070
-621.390	268.406	-0.064	0.115
-620.376	122.265	-0.177	-0.225
-619.361	-200.000	-0.090	-0.452
-618.346	-63.534	-0.265	0.111
-617.332	-144.502	-0.132	0.012
-616.317	265.947	-0.200	-0.355
-615.303	-154.946	-0.322	-0.022
-614.288	297.708	0.178	0.333
-613.273	-78.048	-0.359	-0.126
-612.259	779.330	-0.107	-0.297
-611.244	-30.779	0.193	-0.111
-610.230	-102.812	0.348	0.084
-609.215	-94.546	0.237	0.066
-608.201	800.000	0.046	0.137
-607.186	800.000	0.041	0.140
-606.171	-132.252	0.310	0.041
-605.157	334.187	0.087	-0.171
-604.142	-100.953	0.175	-0.044
-603.128	-22.510	0.219	-0.135
-602.113	102.089	-0.097	-0.115
-601.098	161.501	-0.096	0.137
-600.084	153.608	0.118	-0.165
-599.069	365.460	-0.116	0.237
-598.055	-200.000	0.018	0.208
-597.040	800.000	0.024	-0.075
-596.025	800.000	-0.046	-0.151
-595.011	-200.000	-0.034	0.178
-593.996	271.434	0.167	0.300
-592.982	-128.911	-0.224	0.032
-591.967	-97.337	-0.293	-0.078
-590.952	-58.089	0.076	-0.034
-589.938	-64.626	-0.238	-0.098
-588.923	336.202	-0.104	-0.205
-587.909	19.368	0.227	0.186
-586.894	156.020	0.126	-0.176
-585.879	44.605	-0.149	-0.140
-584.865	-92.316	0.188	0.054
-583.850	800.000	-0.011	0.039
-582.836	-14.079	-0.063	-0.041
-581.821	-24.071	0.207	0.126
-580.806	-200.000	-0.005	-0.112
-579.792	-172.452	0.237	-0.008
-578.777	-177.509	0.164	0.004
-577.763	-90.794	-0.394	0.115
-576.748	236.482	-0.094	0.159
-575.733	41.919	0.137	0.127
-574.719	300.011	-0.059	-0.110
-573.704	646.504	0.051	0.132
-572.690	-31.718	-0.277	-0.158
-571.675	428.512	-0.105	-0.231
-570.661	800.000	0.034	-0.112
-569.646	800.000	-0.117	0.330
-568.631	-161.621	-0.118	-0.006
-567.617	291.884	0.022	0.040
-566.602	356.028	-0.026	-0.052
-565.588	660.743	0.044	-0.115
-564.573	-29.603	0.227	-0.132
-563.558	800.000	-0.023	-0.097
-562.544	-72.268	-0.254	0.096
-561.529	800.000	0.075	0.229
-560.515	-89.775	-0.222	-0.066
-559.500	14.891	-0.230	-0.183
-558.485	800.000	0.063	-0.197
-557.471	-185.572	-0.139	0.002
-556.456	-85.336	-0.097	-0.031
-555.442	664.884	-0.034	0.089
-554.427	-147.740	-0.139	-0.012
-553.412	-95.341	-0.245	0.067
-552.398	-110.693	-0.206	0.043
-551.383	800.000	0.036	0.132
-550.369	3.038	0.336	-0.248
-549.354	-115.998	-0.253	-0.048
-548.339	56.059	-0.333	-0.328
-547.325	463.103	0.059	-0.133
-546.310	-200.000	-0.077	-0.397
-545.296	230.582	0.107	-0.177
-544.281	83.665	-0.097	0.108
-543.266	-72.260	-0.089	0.034
-542.252	-200.000	0.011	0.117
-541.237	800.000	-0.036	0.143
-540.223	-140.944	-0.278	0.029
-539.208	301.501	-0.139	-0.261
-538.193	-130.270	0.398	-0.055
-537.179	-64.514	-0.304	-0.125
-536.164	-200.000	0.018	-0.129
-535.150	-65.949	-0.148	-0.060
-534.135	-200.000	-0.018	-0.192
-533.121	241.784	0.110	-0.187
-532.106	39.124	-0.038	0.035
-531.091	800.000	-0.060	0.241
-530.077	463.783	0.050	0.113
-529.062	-200.000	0.041	-0.277
-528.048	-200.000	0.133	0.000
-527.033	-63.468	0.017	0.007
-526.018	24.911	0.100	0.085
-525.004	-200.000	-0.011	-0.077
-523.989	-200.000	0.003	-0.049
-522.975	-23.917	-0.116	-0.071
-521.960	-200.000	-0.010	0.282
-520.945	179.423	-0.092	0.137
-519.931	15.163	-0.256	-0.204
-518.916	-200.000	0.068	-0.356
-517.902	-36.265	0.302	0.165
-516.887	136.716	0.093	-0.124
-515.872	-103.420	0.171	-0.041
-514.858	90.085	-0.167	-0.189
-513.843	79.010	0.089	0.097
-512.829	-139.507	-0.065	0.007
-511.814	161.609	-0.110	-0.156
-510.799	269.596	-0.136	0.242
-509.785	-200.000	-0.012	-0.248
-508.770	19.469	-0.011	-0.009
-507.756	713.202	0.067	-0.180
-506.741	25.402	-0.056	-0.047
-505.726	250.233	0.124	0.214
-504.712	-29.811	-0.039	-0.023
-503.697	-44.215	0.141	0.072
-502.683	273.871	-0.126	0.226
-501.668	15.534	-0.197	0.157
-500.653	-117.027	-0.225	0.042
-499.639	-108.958	0.142	0.031
-498.624	-200.000	0.020	0.282
-497.610	199.045	-0.092	0.143
-496.595	61.073	0.215	0.217
-495.581	12.416	0.145	0.113
-494.566	-16.641	-0.066	-0.042
-493.551	-59.958	0.227	0.098
-492.537	30.485	-0.103	-0.089
-491.522	-71.889	0.160	0.060
-490.508	229.305	0.026	0.043
-489.493	800.000	-0.022	0.085
-488.478	-153.731	-0.233	-0.016
-487.464	87.595	-0.081	0.091
-486.449	320.187	0.173	-0.334
-485.435	-75.058	-0.223	-0.081
-484.420	-200.000	0.009	0.194
-483.405	-58.574	-0.173	-0.076
-482.391	311.894	0.213	-0.404
-481.376	310.038	0.165	-0.314
-480.362	-6.610	-0.145	-0.100
-479.347	-97.741	-0.304	0.080
-478.332	-59.887	-0.092	-0.040
-477.318	-108.314	-0.315	-0.069
-476.303	391.058	-0.119	-0.249
-475.289	445.552	0.138	0.306
-474.274	447.075	-0.080	-0.178
-473.259	-113.130	-0.145	0.029
-472.245	-89.136	-0.415	0.124
-471.230	800.000	-0.092	0.358
-470.216	800.000	0.048	0.154
-469.201	-200.000	0.046	-0.220
-468.186	98.009	0.101	-0.117
-467.172	-200.000	-0.019	-0.123
-466.157	22.106	-0.087	-0.072
-465.143	-200.000	0.027	0.189
-464.128	474.499	0.062	-0.141
-463.113	25.050	0.145	-0.122
-462.099	-117.728	-0.133	-0.024
-461.084	-13.124	0.085	0.056
-460.070	-25.445	-0.403	0.241
-459.055	-200.000	-0.031	0.244
-458.040	-200.000	0.045	0.255
-457.026	253.748	-0.246	0.425
-456.011	-134.998	0.118	-0.014
-454.997	-66.400	-0.236	-0.095
-453.982	-112.571	0.140	0.028
-452.968	800.000	0.113	0.436
-451.953	182.456	0.081	-0.121
-450.938	-45.360	0.112	-0.056
-449.924	-171.808	0.043	-0.001
-448.909	-111.950	0.125	-0.026
-447.895	-200.000	0.441	-0.001
-446.880	-5.747	0.078	0.054
-445.865	682.855	-0.139	0.368
-444.851	-130.336	-0.070	0.010
-443.836	-200.000	-0.028	-0.234
-442.822	-56.358	-0.217	0.097
-441.807	148.340	-0.059	0.080
-440.792	-200.000	0.027	0.337
-439.778	800.000	-0.059	0.170
-438.763	-81.859	0.408	0.135
-437.749	-200.000	-0.048	0.214
-436.734	-174.478	-0.422	0.012
-435.719	800.000	-0.064	-0.248
-434.705	-45.782	0.167	0.084
-433.690	7.040	-0.287	0.216
-432.676	27.192	-0.217	-0.184
-431.661	-62.401	-0.072	0.030
-430.646	1.444	0.197	0.143
-429.632	-48.912	-0.206	-0.100
-428.617	-146.984	-0.160	-0.014
-427.603	-59.764	-0.238	-0.103
-426.588	-200.000	0.053	0.325
-425.573	-105.487	0.099	-0.023
-424.559	-200.000	0.005	-0.107
-423.544	29.049	-0.211	0.181
-422.530	-200.000	0.016	0.126
-421.515	646.863	0.106	0.274
-420.500	-87.485	-0.162	-0.049
-419.486	-200.000	0.030	-0.283
-418.471	109.346	-0.237	-0.287
-417.457	56.029	0.205	-0.201
-416.442	-81.395	0.302	-0.101
-415.428	-63.487	0.026	-0.011
-414.413	289.922	0.100	-0.183
-413.398	49.169	0.341	-0.324
-412.384	800.000	-0.057	0.248
-411.369	-17.056	-0.372	-0.237
-410.355	800.000	0.097	0.285
-409.340	36.931	0.078	0.069
-408.325	-200.000	-0.045	0.289
-407.311	800.000	0.022	0.064
-406.296	80.285	-0.420	-0.456
-405.282	-1.454	0.178	-0.127
-404.267	142.440	0.194	0.261
-403.252	197.779	-0.043	0.066
-402.238	-175.883	0.416	-0.011
-401.223	47.965	-0.117	-0.110
-400.209	-138.412	-0.165	0.018
-399.194	-200.000	0.017	-0.163
-398.179	-84.965	-0.145	0.046
-397.165	-47.426	0.268	0.132
-396.150	302.102	-0.086	-0.161
-395.136	-200.000	0.031	0.139
-394.121	-30.375	-0.199	-0.114
-393.106	-200.000	0.007	0.261
-392.092	401.772	-0.056	0.118
-391.077	-200.000	-0.003	0.109
-390.063	427.603	-0.104	-0.226
-389.048	32.900	-0.071	-0.062
-388.033	130.061	-0.034	-0.044
-387.019	134.752	-0.055	-0.072
-386.004	101.701	-0.114	0.134
-384.990	-200.000	-0.046	0.445
-383.975	27.578	-0.278	-0.236
-382.960	467.194	-0.073	-0.165
-381.946	-200.000	-0.016	-0.260
-380.931	-81.648	-0.449	-0.149
-379.917	18.391	-0.108	0.087
-378.902	-200.000	-0.063	0.305
-377.888	-200.000	0.004	0.269
-376.873	284.495	0.089	-0.162
-375.858	-200.000	0.001	0.252
-374.844	-68.250	0.117	-0.046
-373.829	-66.563	0.203	-0.081
-372.815	-200.000	0.011	-0.095
-371.800	-40.054	0.152	-0.080
-370.785	-200.000	0.009	0.063
-369.771	136.131	0.039	0.052
-368.756	800.000	0.084	-0.244
-367.742	42.434	0.045	0.042
-366.727	-100.622	0.121	-0.030
-365.712	95.582	-0.194	0.223
-364.698	568.578	-0.156	0.383
-363.683	-114.050	-0.177	-0.035
-362.669	-41.264	-0.322	-0.167
-361.654	-140.361	0.328	-0.035
-360.639	28.193	0.076	-0.064
-359.625	-88.183	0.227	-0.069
-358.610	-74.377	-0.113	-0.041
-357.596	-62.258	0.186	-0.078
-356.581	-152.163	0.212	0.016
-355.566	270.466	0.175	0.311
-354.552	-104.417	-0.273	0.064
-353.537	-159.821	0.098	-0.005
-352.523	203.327	0.037	-0.058
-351.508	359.824	0.088	0.177
-350.493	-6.469	0.092	0.063
-349.479	-79.956	-0.231	-0.078
-348.464	-78.411	0.262	-0.091
-347.450	-105.885	0.270	-0.061
-346.435	800.000	-0.121	-0.399
-345.420	800.000	-0.060	-0.262
-344.406	-116.094	0.224	0.042
-343.391	710.541	-0.066	-0.177
-342.377	800.000	0.030	0.092
-341.362	-200.000	0.011	0.116
-340.348	-177.481	-0.304	0.007
-339.333	-200.000	0.033	0.152
-338.318	-101.452	0.041	-0.010
-337.304	-89.638	-0.140	0.041
-336.289	347.470	0.037	-0.073
-335.275	-89.069	0.058	-0.017
-334.260	-165.639	0.219	0.010
-333.245	280.207	-0.122	-0.220
-332.231	435.221	0.175	0.382
-331.216	-25.657	-0.058	-0.035
-330.202	-57.144	0.284	0.126
-329.187	52.956	0.274	0.264
-328.172	-131.922	-0.705	0.093
-327.158	-130.748	0.171	-0.023
-326.143	800.000	0.066	0.290
-325.129	650.708	-0.106	-0.273
-324.114	292.818	-0.139	-0.256
-323.099	152.097	-0.224	-0.307
-322.085	800.000	-0.062	0.223
-321.070	-127.636	0.222	-0.032
-320.056	-83.473	0.212	0.068
-319.041	767.257	0.126	0.344
-318.026	43.239	0.077	0.070
-317.012	105.504	0.154	0.183
-315.997	-200.000	0.515	-0.001
-314.983	-159.039	0.217	-0.012
-313.968	73.757	-0.075	-0.079
-312.953	800.000	0.061	0.255
-311.939	-53.161	-0.084	0.039
-310.924	-179.291	0.216	-0.005
-309.910	590.398	0.084	0.208
-308.895	439.669	0.057	0.125
-307.880	-200.000	0.001	-0.070
-306.866	25.714	0.155	-0.130
-305.851	648.236	-0.024	-0.061
-304.837	214.014	-0.182	0.290
-303.822	296.129	0.173	0.319
-302.807	-168.358	-0.382	0.015
-301.793	10.000	0.095	0.073
-300.778	800.000	-0.093	0.358
-299.764	314.066	0.118	0.224
-298.749	372.420	0.081	0.166
-297.735	386.329	0.075	0.157
-296.720	300.240	-0.100	-0.186
-295.705	273.216	0.238	-0.422
-294.691	-139.382	0.082	-0.009
-293.676	-88.206	0.289	-0.087
-292.662	-82.426	-0.235	0.077
-291.647	134.485	-0.139	-0.182
-290.632	-200.000	0.022	0.356
-289.618	250.322	0.056	-0.096
-288.603	545.532	0.078	0.188
-287.589	-163.258	-0.365	0.018
-286.574	-126.468	0.406	-0.061
-285.559	-200.000	0.065	-0.300
-284.545	-74.147	0.072	0.026
-283.530	58.185	0.167	-0.165
-282.516	468.662	0.154	0.349
-281.501	38.215	0.474	0.424
-280.486	-200.000	-0.016	-0.087
-279.472	-90.893	-0.179	0.052
-278.457	-28.291	0.145	0.084
-277.443	256.221	0.054	0.093
-276.428	-98.703	0.096	-0.025
-275.413	-103.888	-0.337	-0.079
-274.399	128.676	0.178	-0.228
-273.384	-83.636	0.330	-0.106
-272.370	196.413	0.045	0.069
-271.355	-9.105	-0.069	0.047
-270.340	-2.641	0.092	-0.064
-269.326	-200.000	0.019	-0.104
-268.311	800.000	-0.059	0.257
-267.297	-54.741	0.258	-0.117
-266.282	216.383	-0.090	-0.144
-265.267	-200.000	0.016	-0.083
-264.253	1.933	-0.225	0.163
-263.238	-200.000	0.047	0.000
-262.224	800.000	0.048	0.203
-261.209	800.000	-0.080	-0.269
-260.195	227.384	0.163	0.266
-259.180	800.000	0.100	0.312
-258.165	260.418	-0.170	-0.296
-257.151	85.413	0.182	0.201
-256.136	800.000	0.058	0.163
-255.122	-58.737	-0.304	-0.132
-254.107	-86.559	0.213	0.066
-253.092	110.366	0.181	0.218
-252.078	-102.633	-0.100	0.024
-251.063	-91.117	0.307	-0.088
-250.049	335.068	-0.016	0.030
-249.034	-71.966	0.121	-0.045
-248.019	612.079	-0.041	-0.103
-247.005	-15.594	0.245	0.157
-245.990	-70.713	-0.082	-0.031
-244.976	389.149	0.171	-0.355
-243.961	-85.354	0.266	-0.083
-242.946	-166.110	0.026	-0.001
-241.932	-42.185	0.472	-0.242
-240.917	-52.553	-0.348	0.161
-239.903	800.000	0.094	0.305
-238.888	-73.489	-0.196	-0.072
-237.873	-154.834	0.182	-0.012
-236.859	112.597	-0.125	-0.152
-235.844	-91.510	0.488	-0.140
-234.830	-29.350	0.266	0.153
-233.815	-143.186	-0.107	0.010
-232.800	-200.000	-0.029	-0.383
-231.786	-95.528	0.064	-0.017
-230.771	-200.000	-0.062	-0.278
-229.757	0.247	-0.064	-0.045
-228.742	224.520	-0.141	-0.229
-227.727	-150.325	0.172	0.013
-226.713	-124.629	-0.205	-0.032
-225.698	-200.000	0.011	0.140
-224.684	-200.000	0.023	0.132
-223.669	-15.123	0.108	0.069
-222.655	195.495	0.114	0.174
-221.640	-200.000	-0.026	0.120
-220.625	14.310	0.185	0.145
-219.611	52.337	0.148	0.142
-218.596	14.463	-0.161	-0.126
-217.582	7.119	-0.085	-0.064
-216.567	-70.628	0.143	0.054
-215.552	35.103	-0.153	-0.135
-214.538	80.737	0.178	-0.193
-213.523	97.206	-0.223	0.257
-212.509	-99.762	0.165	-0.041
-211.494	-68.872	0.120	-0.047
-210.479	33.166	-0.147	-0.128
-209.465	-200.000	-0.031	-0.291
-208.450	-200.000	0.014	0.200
-207.436	-200.000	-0.019	-0.155
-206.421	800.000	0.126	0.511
-205.406	510.350	0.059	-0.137
-204.392	800.000	0.062	0.258
-203.377	-133.824	0.192	-0.024
-202.363	-107.368	-0.134	0.029
-201.348	-79.306	-0.408	0.138
-200.333	-15.047	0.257	-0.165
-199.319	-135.555	-0.187	-0.022
-198.304	47.684	0.075	0.070
-197.290	514.710	0.060	-0.141
-196.275	800.000	-0.045	-0.197
-195.260	147.280	0.186	-0.250
-194.246	-20.530	0.292	-0.180
-193.231	52.294	-0.236	-0.225
-192.217	800.000	0.047	0.204
-191.202	-200.000	-0.053	0.572
-190.187	800.000	-0.041	0.122
-189.173	168.460	0.122	0.174
-188.158	800.000	0.050	0.146
-187.144	-29.447	0.351	-0.201
-186.129	-52.861	-0.151	-0.070
-185.114	-200.000	-0.034	-0.260
-184.100	-149.350	0.051	-0.004
-183.085	-81.423	0.313	-0.103
-182.071	-104.892	0.442	0.102
-181.056	-56.461	-0.152	-0.068
-180.042	575.491	0.129	0.316
-179.027	-2.498	0.084	-0.059
-178.012	81.875	-0.267	0.290
-176.998	-200.000	-0.040	0.422
-175.983	-123.990	-0.186	0.029
-174.969	-158.778	-0.198	-0.011
-173.954	306.644	-0.121	-0.225
-172.939	394.595	0.091	-0.190
-171.925	526.880	0.135	0.317
-170.910	-200.000	0.012	0.159
-169.896	-200.000	0.027	-0.135
-168.881	-200.000	0.032	-0.212
-167.866	-129.293	0.087	-0.012
-166.852	-64.272	-0.463	0.189
-165.837	-200.000	0.000	0.240
-164.823	266.421	0.174	0.304
-163.808	-200.000	-0.030	0.230
-162.793	418.821	-0.047	-0.100
-161.779	-45.106	0.280	-0.139
-160.764	-42.106	-0.162	-0.083
-159.750	-41.394	0.038	0.020
-158.735	-200.000	-0.057	-0.341
-157.720	543.198	-0.109	-0.261
-156.706	800.000	-0.101	-0.423
-155.691	-200.000	0.007	0.115
-154.677	248.843	-0.146	-0.248
-153.662	224.737	-0.192	-0.311
-152.647	85.974	-0.049	-0.054
-151.633	198.336	0.118	0.181
-150.618	-100.278	-0.088	0.022
-149.604	-89.492	-0.150	-0.044
-148.589	800.000	0.070	0.225
-147.574	-160.947	0.221	0.012
-146.560	422.830	0.101	0.218
-145.545	290.639	0.097	-0.177
-144.531	-116.673	0.255	0.047
-143.516	65.457	-0.009	0.009
-142.502	429.901	-0.102	-0.221
-141.487	62.495	-0.150	-0.150
-140.472	-45.668	-0.243	0.120
-139.458	161.261	-0.074	-0.104
-138.443	106.603	-0.119	0.141
-137.429	800.000	0.033	0.144
-136.414	-59.715	0.277	0.119
-135.399	-141.449	0.175	-0.018
-134.385	-56.722	0.161	-0.071
-133.370	76.624	0.216	0.229
-132.356	-63.501	-0.110	0.045
-131.341	614.752	0.053	0.132
-130.326	70.410	0.256	0.264
-129.312	176.769	0.033	0.048
-128.297	440.992	-0.104	-0.228
-127.283	800.000	0.075	-0.251
-126.268	21.797	0.207	0.168
-125.253	45.877	0.146	0.135
-124.239	-67.196	0.038	-0.015
-123.224	-86.599	-0.064	-0.020
-122.210	-200.000	-0.015	-0.245
