DTS Sentinel unit serial number:	SN413079Multiplexer serial number:	ORYXHardware model number:	OX4-SRSoftware version number:	ORYX F/W v4.00 Oryx Data Collector v3.7.2.0data status	okinstallation	princeton_trtdifferential loss correction	single-endedforward channel	channel 1reverse channel	N/Adate	2019/09/17time	02:26:35forward acquisition time	60.00reverse acquisition time	0.00gamma	496.2192k internal	0.2323k external	0.2323temperature offset calibration	0.9961default loss term (dB/km)	0.3790temperature slope calibration	1.0000multiplexer offset coefficient	1.0000multiplexer slope coefficient	1.0000fibre end	0.00T internal ref (°C)	29.77T ext. ref 1 (°C)	0.12T ext. ref 2 (°C)	24.76length (m)	temperature (°C)	Stokes	anti-Stokes-747.200	-32.356	-0.210	-0.118
-746.185	77.566	0.090	0.097
-745.171	-17.584	0.200	0.127
-744.156	-116.986	-0.430	-0.079
-743.142	8.730	-0.118	0.090
-742.127	177.247	-0.202	0.296
-741.112	28.434	0.133	0.113
-740.098	-15.856	-0.165	0.106
-739.083	693.353	0.163	0.430
-738.069	-127.774	-0.340	-0.050
-737.054	337.879	0.210	-0.413
-736.039	40.385	-0.175	-0.159
-735.025	72.239	0.326	0.343
-734.010	-55.489	-0.564	-0.255
-732.996	-73.616	-0.228	0.084
-731.981	-57.706	-0.210	0.093
-730.966	-200.000	0.006	0.107
-729.952	-200.000	-0.016	0.257
-728.937	800.000	0.071	-0.216
-727.923	42.658	-0.129	-0.119
-726.908	800.000	0.042	-0.151
-725.894	-66.672	0.410	-0.164
-724.879	54.497	-0.233	-0.227
-723.864	-52.203	-0.188	-0.088
-722.850	25.286	-0.086	-0.072
-721.835	21.554	-0.346	-0.284
-720.821	-200.000	0.035	-0.242
-719.806	107.871	-0.149	-0.179
-718.791	-148.706	-0.268	0.022
-717.777	-113.116	-0.386	-0.077
-716.762	-128.872	-0.320	0.045
-715.748	63.691	-0.135	0.137
-714.733	-200.000	0.021	-0.326
-713.718	-45.464	0.395	-0.198
-712.704	-41.582	-0.133	0.069
-711.689	185.366	-0.135	0.203
-710.675	12.612	-0.068	0.053
-709.660	16.234	-0.066	-0.052
-708.645	126.843	0.059	0.075
-707.631	553.145	-0.077	-0.188
-706.616	23.716	0.126	-0.104
-705.602	-200.000	-0.002	0.085
-704.587	800.000	-0.041	-0.167
-703.572	5.390	-0.165	0.123
-702.558	10.107	0.143	-0.109
-701.543	629.907	-0.008	-0.021
-700.529	-1.615	-0.128	0.091
-699.514	-200.000	-0.052	0.284
-698.499	76.577	-0.191	-0.204
-697.485	21.350	-0.167	-0.137
-696.470	-163.459	0.421	0.020
-695.456	77.114	0.099	0.106
-694.441	-46.831	-0.268	-0.132
-693.426	674.573	-0.040	-0.105
-692.412	61.595	0.331	-0.331
-691.397	-88.633	-0.158	-0.047
-690.383	800.000	0.052	-0.169
-689.368	-117.198	-0.183	-0.033
-688.354	-117.271	-0.323	0.059
-687.339	338.876	-0.300	0.589
-686.324	320.054	-0.194	0.371
-685.310	346.122	-0.051	0.100
-684.295	157.061	-0.162	-0.225
-683.281	800.000	-0.060	0.208
-682.266	168.270	0.174	0.250
-681.251	-159.452	-0.463	0.026
-680.237	-108.137	0.049	-0.011
-679.222	214.463	-0.067	-0.107
-678.208	-97.771	-0.262	0.068
-677.193	-86.508	-0.138	0.043
-676.178	-35.363	-0.333	-0.182
-675.164	53.293	0.111	-0.107
-674.149	-52.305	-0.382	-0.178
-673.135	235.987	0.079	0.131
-672.120	-200.000	0.076	0.567
-671.105	15.124	0.224	-0.177
-670.091	-171.102	0.295	0.010
-669.076	-200.000	-0.099	0.461
-668.062	800.000	-0.041	-0.172
-667.047	36.199	0.241	0.214
-666.032	-23.635	-0.227	-0.137
-665.018	-187.965	-0.270	-0.004
-664.003	83.994	-0.028	0.030
-662.989	800.000	0.060	0.244
-661.974	-200.000	-0.004	-0.070
-660.959	-0.038	0.037	-0.027
-659.945	800.000	0.018	-0.076
-658.930	239.718	-0.148	0.248
-657.916	-43.180	0.168	0.086
-656.901	-13.799	-0.134	-0.087
-655.886	-53.675	-0.102	-0.047
-654.872	-200.000	-0.071	-0.367
-653.857	800.000	-0.110	-0.305
-652.843	-153.875	-0.089	0.006
-651.828	-114.466	-0.103	0.020
-650.814	22.083	0.062	0.051
-649.799	248.854	-0.142	0.242
-648.784	-200.000	-0.002	-0.154
-647.770	0.237	-0.202	-0.145
-646.755	-99.185	0.114	0.029
-645.741	-158.606	0.139	-0.008
-644.726	-11.346	-0.214	-0.142
-643.711	-50.275	0.265	0.126
-642.697	800.000	-0.132	-0.509
-641.682	341.273	-0.171	-0.335
-640.668	139.419	-0.194	-0.257
-639.653	129.907	0.139	-0.179
-638.638	-84.095	0.094	0.030
-637.624	-142.734	0.328	0.032
-636.609	-200.000	0.030	-0.311
-635.595	1.827	-0.067	0.048
-634.580	-0.879	0.359	0.256
-633.565	-87.500	-0.226	-0.069
-632.551	-109.154	0.202	0.043
-631.536	-200.000	-0.007	-0.171
-630.522	-200.000	0.010	0.147
-629.507	198.329	0.078	0.121
-628.492	-200.000	-0.022	-0.311
-627.478	800.000	-0.033	0.093
-626.463	800.000	0.043	0.187
-625.449	43.190	-0.148	-0.136
-624.434	-200.000	-0.015	-0.066
-623.419	-200.000	0.006	-0.250
-622.405	-190.823	0.219	-0.002
-621.390	-200.000	0.040	-0.315
-620.376	-200.000	0.063	-0.351
-619.361	138.799	0.041	-0.055
-618.346	30.958	0.015	-0.013
-617.332	-65.869	-0.320	0.129
-616.317	309.804	0.030	-0.057
-615.303	147.416	-0.114	-0.154
-614.288	26.650	-0.215	-0.181
-613.273	-84.512	-0.073	0.023
-612.259	800.000	-0.133	0.511
-611.244	-200.000	0.018	0.312
-610.230	800.000	0.098	-0.306
-609.215	115.699	0.180	0.221
-608.201	18.782	0.027	0.022
-607.186	-166.476	-0.042	0.002
-606.171	-200.000	-0.015	-0.214
-605.157	14.041	0.013	-0.010
-604.142	162.308	0.083	0.117
-603.128	800.000	0.033	-0.099
-602.113	-12.140	0.034	0.023
-601.098	-200.000	0.012	0.207
-600.084	-64.570	0.276	-0.112
-599.069	-200.000	-0.041	-0.369
-598.055	258.536	-0.035	-0.061
-597.040	111.086	-0.201	0.243
-596.025	-3.846	-0.512	0.357
-595.011	-13.800	-0.069	0.045
-593.996	-76.031	-0.178	0.063
-592.982	-200.000	-0.023	-0.296
-591.967	-106.783	0.357	0.080
-590.952	147.323	0.219	0.296
-589.938	292.364	-0.122	-0.222
-588.923	173.459	-0.077	-0.112
-587.909	24.450	0.093	-0.078
-586.894	-85.683	-0.203	-0.063
-585.879	730.694	-0.151	0.406
-584.865	-105.349	-0.235	0.054
-583.850	-119.306	-0.182	0.032
-582.836	-200.000	-0.004	-0.276
-581.821	-35.493	-0.280	-0.153
-580.806	-200.000	-0.000	-0.019
-579.792	34.068	0.088	0.077
-578.777	139.903	-0.211	-0.280
-577.763	205.490	0.091	0.142
-576.748	-159.926	0.184	-0.010
-575.733	-152.418	-0.401	-0.029
-574.719	2.850	-0.336	-0.245
-573.704	216.829	-0.102	-0.162
-572.690	-146.915	0.038	-0.003
-571.675	123.143	-0.201	-0.253
-570.661	155.971	0.128	0.177
-569.646	-151.789	0.041	0.003
-568.631	-161.123	-0.029	-0.002
-567.617	137.366	0.102	0.134
-566.602	-58.993	-0.222	0.096
-565.588	-200.000	-0.035	0.188
-564.573	-139.456	0.398	0.043
-563.558	800.000	-0.045	-0.178
-562.544	125.596	-0.132	-0.166
-561.529	-200.000	-0.001	0.106
-560.515	93.796	-0.054	-0.061
-559.500	271.580	-0.230	-0.407
-558.485	181.756	0.178	0.263
-557.471	-200.000	0.023	-0.242
-556.456	25.742	-0.182	0.152
-555.442	353.776	0.127	0.252
-554.427	113.988	0.073	0.089
-553.412	-200.000	-0.009	0.197
-552.398	248.783	0.094	-0.160
-551.383	-200.000	0.007	0.326
-550.369	411.108	0.221	0.470
-549.354	-81.682	-0.216	-0.071
-548.339	-157.821	0.068	-0.004
-547.325	-30.675	-0.219	-0.124
-546.310	57.805	0.218	0.213
-545.296	-55.228	-0.271	-0.122
-544.281	84.561	-0.199	0.218
-543.266	-47.626	-0.109	-0.053
-542.252	104.818	0.168	0.199
-541.237	140.939	0.229	0.303
-540.223	81.964	0.070	-0.076
-539.208	-200.000	0.008	0.048
-538.193	516.515	0.033	0.077
-537.179	232.107	-0.133	0.218
-536.164	-140.269	-0.220	-0.023
-535.150	-61.952	0.188	0.079
-534.135	800.000	-0.051	-0.144
-533.121	-200.000	-0.011	0.173
-532.106	8.204	0.158	0.119
-531.091	-73.837	-0.193	0.070
-530.077	165.310	-0.097	0.137
-529.062	330.957	-0.085	-0.164
-528.048	-14.888	-0.225	-0.145
-527.033	-1.156	-0.256	-0.181
-526.018	-200.000	-0.024	0.341
-525.004	-200.000	0.002	-0.251
-523.989	232.128	0.109	-0.178
-522.975	-200.000	0.049	0.269
-521.960	-200.000	-0.008	0.083
-520.945	-75.012	-0.225	-0.081
-519.931	-137.867	0.183	-0.020
-518.916	-139.018	0.243	-0.026
-517.902	800.000	0.080	-0.233
-516.887	-200.000	0.009	0.085
-515.872	800.000	-0.055	0.170
-514.858	-200.000	0.067	0.349
-513.843	-125.518	0.293	-0.045
-512.829	800.000	0.041	0.125
-511.814	326.024	-0.056	0.108
-510.799	-62.574	-0.350	0.145
-509.785	-36.488	-0.192	0.104
-508.770	70.922	0.118	-0.122
-507.756	800.000	-0.111	-0.400
-506.741	64.314	0.137	-0.138
-505.726	121.069	-0.227	-0.283
-504.712	-200.000	-0.072	-0.504
-503.697	-138.515	0.147	-0.016
-502.683	800.000	-0.100	0.413
-501.668	-99.462	0.143	-0.036
-500.653	63.644	-0.198	0.199
-499.639	800.000	0.060	-0.212
-498.624	222.772	0.278	-0.448
-497.610	610.491	0.113	-0.283
-496.595	-53.536	-0.155	0.071
-495.581	-200.000	-0.030	0.252
-494.566	1.020	-0.329	-0.236
-493.551	452.765	-0.071	-0.157
-492.537	800.000	0.016	0.064
-491.522	68.098	0.154	-0.158
-490.508	228.269	0.155	-0.253
-489.493	195.296	0.070	0.107
-488.478	507.543	0.189	0.440
-487.464	800.000	0.119	-0.423
-486.449	189.953	-0.099	0.149
-485.435	-38.242	0.206	-0.109
-484.420	-200.000	0.018	0.258
-483.405	324.500	0.167	-0.319
-482.391	1.762	0.161	-0.116
-481.376	-200.000	-0.029	0.222
-480.362	13.131	0.201	-0.156
-479.347	3.294	0.341	-0.248
-478.332	-118.971	-0.186	0.033
-477.318	-12.541	-0.129	0.084
-476.303	721.745	0.077	0.205
-475.289	364.878	-0.249	0.502
-474.274	-16.579	-0.210	0.133
-473.259	-69.368	0.092	0.035
-472.245	-102.105	-0.215	0.052
-471.230	442.201	-0.077	-0.168
-470.216	-138.196	0.308	-0.034
-469.201	-94.050	0.215	0.059
-468.186	124.916	0.020	-0.025
-467.172	-174.159	0.468	0.014
-466.157	-200.000	0.028	-0.239
-465.143	-3.958	-0.082	-0.057
-464.128	-18.437	-0.275	0.172
-463.113	173.245	-0.392	0.565
-462.099	-119.268	0.242	0.042
-461.084	-200.000	-0.049	0.257
-460.070	-0.313	0.174	-0.124
-459.055	-200.000	0.043	0.270
-458.040	800.000	-0.044	0.185
-457.026	-200.000	0.006	0.069
-456.011	800.000	0.024	-0.067
-454.997	-200.000	0.005	-0.225
-453.982	-200.000	0.048	-0.214
-452.968	380.076	-0.153	-0.313
-451.953	18.623	-0.065	-0.052
-450.938	-200.000	-0.026	0.279
-449.924	-20.884	0.196	-0.120
-448.909	-200.000	0.017	0.222
-447.895	219.917	0.164	0.262
-446.880	-200.000	0.012	0.208
-445.865	22.066	-0.148	-0.120
-444.851	-34.387	0.007	-0.004
-443.836	800.000	-0.087	-0.275
-442.822	800.000	-0.043	-0.135
-441.807	-200.000	0.027	-0.354
-440.792	800.000	-0.069	-0.214
-439.778	382.349	-0.023	-0.048
-438.763	-44.355	0.152	-0.076
-437.749	44.148	-0.257	0.236
-436.734	41.677	0.103	-0.093
-435.719	-200.000	-0.036	-0.000
-434.705	-72.399	-0.115	-0.042
-433.690	7.345	0.254	0.189
-432.676	-92.898	0.316	0.088
-431.661	-30.604	0.079	-0.045
-430.646	-14.491	0.109	0.070
-429.632	-158.046	-0.133	-0.008
-428.617	-142.099	-0.197	0.020
-427.603	-66.265	-0.196	0.078
-426.588	507.796	0.037	-0.086
-425.573	-84.420	0.302	-0.095
-424.559	-200.000	0.003	-0.565
-423.544	102.201	0.239	-0.279
-422.530	79.959	-0.118	0.127
-421.515	93.484	-0.073	-0.082
-420.500	-200.000	-0.006	0.090
-419.486	-95.404	0.405	0.109
-418.471	-116.818	0.232	-0.042
-417.457	-19.501	-0.011	0.007
-416.442	-90.740	0.148	0.043
-415.428	-30.586	0.205	-0.116
-414.413	-144.212	-0.271	-0.025
-413.398	2.935	-0.349	0.253
-412.384	145.829	0.164	0.219
-411.369	273.859	-0.113	-0.199
-410.355	-200.000	0.055	-0.350
-409.340	-87.192	-0.342	-0.104
-408.325	-200.000	-0.028	0.281
-407.311	800.000	0.003	-0.011
-406.296	-102.894	0.017	-0.004
-405.282	-116.309	0.252	-0.047
-404.267	-200.000	-0.023	0.131
-403.252	326.209	-0.139	-0.265
-402.238	-56.931	0.355	-0.156
-401.223	-57.904	-0.247	-0.108
-400.209	98.591	-0.214	-0.245
-399.194	-200.000	0.012	0.199
-398.179	250.044	0.022	0.037
-397.165	7.678	0.087	0.065
-396.150	213.719	-0.102	-0.161
-395.136	19.646	0.196	0.157
-394.121	113.597	0.134	0.162
-393.106	314.107	-0.132	0.248
-392.092	187.093	-0.200	0.297
-391.077	-200.000	-0.027	-0.138
-390.063	-165.750	-0.242	-0.010
-389.048	-37.733	-0.104	0.055
-388.033	457.092	0.068	-0.150
-387.019	11.931	-0.038	-0.029
-386.004	-10.078	-0.184	-0.122
-384.990	-13.338	0.230	-0.149
-383.975	29.158	0.167	0.142
-382.960	5.355	-0.048	0.035
-381.946	-74.408	-0.162	-0.058
-380.931	-77.526	0.222	-0.077
-379.917	800.000	0.039	0.115
-378.902	-115.272	0.101	-0.019
-377.888	119.586	0.143	0.177
-376.873	800.000	-0.103	0.343
-375.858	-200.000	0.016	0.270
-374.844	-53.196	-0.083	-0.038
-373.829	-200.000	-0.025	-0.245
-372.815	90.557	-0.042	-0.047
-371.800	18.469	-0.055	0.044
-370.785	-141.169	-0.291	0.030
-369.771	58.205	-0.177	-0.173
-368.756	-200.000	0.027	0.164
-367.742	800.000	-0.018	0.054
-366.727	-91.994	-0.240	0.068
-365.712	-56.302	0.294	0.130
-364.698	440.010	-0.142	-0.309
-363.683	77.109	-0.193	-0.204
-362.669	-116.803	0.068	0.012
-361.654	-200.000	-0.039	0.270
-360.639	-96.899	-0.223	-0.058
-359.625	-135.355	-0.167	-0.020
-358.610	-88.299	-0.151	0.045
-357.596	-200.000	-0.007	0.140
-356.581	108.663	0.087	-0.104
-355.566	39.118	-0.128	-0.114
-354.552	435.537	-0.136	-0.294
-353.537	204.099	-0.130	0.200
-352.523	158.665	-0.085	-0.117
-351.508	330.167	0.109	-0.210
-350.493	16.212	-0.236	-0.185
-349.479	661.724	-0.038	0.099
-348.464	438.927	-0.080	-0.174
-347.450	-133.679	0.191	-0.024
-346.435	218.935	0.176	-0.280
-345.420	184.136	0.171	-0.251
-344.406	-97.543	-0.360	-0.093
-343.391	120.196	0.175	0.216
-342.377	374.488	-0.126	-0.255
-341.362	800.000	-0.056	0.203
-340.348	-9.016	-0.349	0.232
-339.333	-74.009	-0.228	0.082
-338.318	800.000	-0.025	0.069
-337.304	77.633	-0.154	-0.163
-336.289	-65.746	0.166	-0.066
-335.275	-131.912	-0.166	-0.022
-334.260	-200.000	0.023	0.153
-333.245	22.715	-0.228	0.185
-332.231	-200.000	0.007	-0.075
-331.216	30.235	0.069	-0.058
-330.202	-200.000	-0.011	0.147
-329.187	-129.687	0.267	-0.037
-328.172	-109.800	-0.103	0.021
-327.158	-124.463	-0.195	0.030
-326.143	-51.459	-0.249	-0.116
-325.129	-133.352	-0.088	0.011
-324.114	234.052	-0.142	-0.232
-323.099	607.210	-0.062	-0.153
-322.085	-76.100	-0.120	0.042
-321.070	61.278	0.135	0.133
-320.056	-142.731	-0.389	0.038
-319.041	-80.414	-0.141	-0.047
-318.026	-86.359	0.168	0.051
-317.012	257.779	0.218	0.373
-315.997	200.910	-0.180	0.275
-314.983	123.711	0.175	0.218
-313.968	-33.516	0.262	-0.144
-312.953	-11.591	0.374	-0.244
-311.939	-144.446	0.112	0.010
-310.924	-63.079	-0.225	0.092
-309.910	800.000	-0.077	-0.274
-308.895	177.397	-0.162	0.234
-307.880	-75.513	0.281	-0.099
-306.866	172.280	0.116	0.166
-305.851	-131.853	0.524	0.068
-304.837	800.000	-0.050	0.146
-303.822	-200.000	0.012	-0.104
-302.807	96.344	-0.152	-0.172
-301.793	160.344	0.161	-0.223
-300.778	800.000	0.069	-0.197
-299.764	20.281	-0.114	0.091
-298.749	564.236	-0.021	0.051
-297.735	800.000	-0.037	0.104
-296.720	-100.646	0.191	-0.047
-295.705	-64.595	0.221	-0.089
-294.691	173.902	-0.080	0.115
-293.676	800.000	-0.127	0.474
-292.662	800.000	-0.107	-0.401
-291.647	-2.202	0.186	-0.129
-290.632	-137.725	0.068	0.008
-289.618	-18.720	0.105	-0.065
-288.603	29.915	0.063	-0.053
-287.589	42.022	0.048	0.043
-286.574	11.556	0.252	0.191
-285.559	-50.462	-0.394	-0.184
-284.545	-114.200	-0.330	-0.063
-283.530	19.512	0.194	0.155
-282.516	288.051	-0.046	0.082
-281.501	-27.085	-0.074	-0.043
-280.486	-200.000	-0.358	-0.001
-279.472	-139.194	0.328	-0.035
-278.457	-132.663	-0.275	-0.035
-277.443	-115.049	-0.246	-0.046
-276.428	237.087	-0.112	0.184
-275.413	800.000	0.137	0.384
-274.399	-200.000	-0.034	0.285
-273.384	-12.953	0.298	0.192
-272.370	-38.422	0.150	-0.079
-271.355	55.917	-0.026	-0.025
-270.340	-200.000	-0.011	-0.055
-269.326	-2.566	0.190	0.132
-268.311	-200.000	-0.015	-0.187
-267.297	-200.000	-0.054	-0.312
-266.282	-200.000	-0.076	-0.360
-265.267	84.753	0.202	0.219
-264.253	183.390	0.119	-0.174
-263.238	1.671	0.262	-0.187
-262.224	238.385	-0.105	0.173
-261.209	-41.670	0.105	-0.053
-260.195	-22.070	-0.229	-0.138
-259.180	-102.570	0.304	0.072
-258.165	-68.517	-0.038	-0.015
-257.151	-41.499	0.165	-0.084
-256.136	-121.949	0.060	-0.010
-255.122	800.000	0.034	0.104
-254.107	43.679	-0.298	0.270
-253.092	3.171	0.096	-0.069
-252.078	-83.582	0.197	0.062
-251.063	-200.000	-0.068	0.317
-250.049	-200.000	-0.012	0.056
-249.034	655.905	0.128	0.325
-248.019	212.983	-0.070	-0.109
-247.005	26.848	-0.230	0.191
-245.990	-26.202	-0.094	-0.055
-244.976	-125.180	0.169	0.026
-243.961	-200.000	-0.027	-0.198
-242.946	-78.086	0.179	-0.061
-241.932	-200.000	-0.017	-0.084
-240.917	-105.918	-0.497	0.111
-239.903	502.248	-0.115	-0.263
-238.888	123.704	0.095	0.118
-237.873	228.846	0.096	-0.155
-236.859	-32.585	0.186	0.103
-235.844	68.411	-0.108	-0.109
-234.830	-106.759	-0.343	-0.075
-233.815	-88.997	0.117	-0.034
-232.800	53.316	-0.310	0.294
-231.786	112.009	-0.190	-0.227
-230.771	110.346	-0.120	-0.143
-229.757	470.801	-0.042	-0.094
-228.742	-27.311	0.322	0.186
-227.727	-200.000	-0.017	0.117
-226.713	-146.358	0.235	0.020
-225.698	477.022	0.052	0.115
-224.684	-172.991	-0.202	-0.006
-223.669	192.065	-0.087	-0.130
-222.655	-29.103	0.108	0.061
-221.640	318.350	0.120	0.225
-220.625	240.851	0.109	-0.179
-219.611	-200.000	-0.001	0.437
-218.596	-147.882	-0.062	-0.005
-217.582	4.630	0.205	-0.149
-216.567	128.839	-0.137	0.173
-215.552	800.000	0.058	0.236
-214.538	800.000	0.061	-0.239
-213.523	-77.812	-0.129	-0.044
-212.509	-117.809	0.374	0.066
-211.494	6.062	0.200	-0.147
-210.479	-72.797	0.159	0.058
-209.465	-200.000	-0.002	-0.061
-208.450	-53.899	-0.280	-0.126
-207.436	-200.000	0.007	-0.256
-206.421	-200.000	-0.028	-0.324
-205.406	-89.966	-0.060	0.017
-204.392	-200.000	-0.001	0.263
-203.377	-65.777	0.235	0.093
-202.363	319.559	0.080	0.150
-201.348	800.000	-0.067	-0.212
-200.333	-42.398	-0.068	-0.034
-199.319	112.721	-0.097	-0.116
-198.304	-72.639	-0.066	0.024
-197.290	800.000	0.037	-0.117
-196.275	-62.415	0.378	-0.156
-195.260	-144.122	-0.099	0.009
-194.246	800.000	0.050	0.150
-193.231	-200.000	-0.018	-0.189
-192.217	433.759	0.152	0.326
-191.202	-36.192	0.241	-0.129
-190.187	238.671	0.051	-0.084
-189.173	-200.000	0.021	-0.161
-188.158	-88.926	-0.225	-0.066
-187.144	60.571	0.089	0.087
-186.129	-34.100	0.331	0.180
-185.114	800.000	0.045	0.130
-184.100	800.000	-0.059	0.168
-183.085	45.654	0.197	0.180
-182.071	268.174	-0.081	-0.140
-181.056	98.621	-0.140	0.159
-180.042	-27.757	-0.209	-0.120
-179.027	262.335	-0.253	0.433
-178.012	-177.851	0.246	0.006
-176.998	379.694	-0.025	0.050
-175.983	112.678	0.197	-0.235
-174.969	-34.083	-0.295	0.160
-173.954	199.263	0.120	-0.182
-172.939	-120.029	0.501	0.085
-171.925	-169.504	-0.314	0.011
-170.910	236.549	-0.141	0.230
-169.896	11.463	0.452	0.342
-168.881	-72.323	0.301	0.110
-167.866	53.684	0.166	0.158
-166.852	-141.317	0.300	-0.030
-165.837	-139.825	0.039	-0.004
-164.823	-33.708	0.046	-0.025
-163.808	-54.023	0.081	0.036
-162.793	-77.964	0.315	-0.107
-161.779	100.856	-0.137	0.157
-160.764	-103.804	0.469	-0.108
-159.750	147.429	-0.212	0.282
-158.735	-137.639	-0.191	-0.021
-157.720	-138.949	0.186	-0.020
-156.706	109.947	-0.124	0.147
-155.691	-151.804	0.205	0.015
-154.677	398.142	-0.007	0.014
-153.662	40.295	0.261	0.232
-152.647	-48.342	-0.247	-0.118
-151.633	109.517	-0.100	-0.118
-150.618	128.755	0.064	-0.081
-149.604	-124.954	-0.260	-0.040
-148.589	498.217	0.069	-0.157
-147.574	-200.000	0.021	-0.108
-146.560	62.641	0.070	-0.069
-145.545	800.000	0.215	0.627
-144.531	-59.730	0.254	-0.107
-143.516	-80.398	0.359	0.118
-142.502	-60.148	0.196	-0.082
-141.487	-99.428	-0.295	-0.073
-140.472	-30.510	-0.231	-0.129
-139.458	411.204	-0.068	0.142
-138.443	-115.693	-0.281	-0.052
-137.429	96.764	0.191	-0.216
-136.414	-200.000	0.058	-0.260
-135.399	-16.087	0.141	0.089
-134.385	32.471	0.266	-0.227
-133.370	-69.952	-0.123	-0.046
-132.356	-48.365	-0.313	0.149
-131.341	-200.000	0.036	0.171
-130.326	168.149	-0.112	-0.157
-129.312	177.036	0.144	-0.207
-128.297	84.901	0.139	-0.151
-127.283	-59.937	-0.246	-0.104
-126.268	-87.241	-0.309	0.092
-125.253	-200.000	-0.000	0.157
-124.239	-107.051	-0.161	-0.035
-123.224	162.315	-0.140	-0.193
-122.210	800.000	0.091	0.276
