DTS Sentinel unit serial number:	SN413079Multiplexer serial number:	ORYXHardware model number:	OX4-SRSoftware version number:	ORYX F/W v4.00 Oryx Data Collector v3.7.2.0data status	okinstallation	princeton_trtdifferential loss correction	single-endedforward channel	channel 1reverse channel	N/Adate	2019/09/11time	19:36:11forward acquisition time	60.00reverse acquisition time	0.00gamma	496.2192k internal	0.2297k external	0.2297temperature offset calibration	1.0030default loss term (dB/km)	0.3790temperature slope calibration	1.0000multiplexer offset coefficient	1.0000multiplexer slope coefficient	1.0000fibre end	0.00T internal ref (°C)	40.05T ext. ref 1 (°C)	1.33T ext. ref 2 (°C)	32.26length (m)	temperature (°C)	Stokes	anti-Stokes-747.200	-37.514	0.175	0.096
-746.185	800.000	-0.072	0.243
-745.171	-61.916	0.108	0.046
-744.156	361.808	-0.183	0.374
-743.142	-67.142	0.080	-0.032
-742.127	-10.240	-0.059	0.040
-741.112	800.000	0.052	0.221
-740.098	-200.000	-0.028	0.295
-739.083	-113.007	0.268	-0.054
-738.069	195.115	0.159	0.246
-737.054	-187.114	0.149	-0.002
-736.039	-79.853	-0.239	-0.082
-735.025	-200.000	0.057	-0.313
-734.010	-172.757	-0.221	-0.007
-732.996	581.891	-0.014	0.036
-731.981	2.466	0.184	-0.136
-730.966	-80.920	-0.075	0.026
-729.952	-200.000	0.041	-0.228
-728.937	17.572	0.208	-0.168
-727.923	-200.000	-0.013	-0.167
-726.908	-200.000	0.079	-0.363
-725.894	-175.978	-0.343	0.009
-724.879	-110.735	0.119	0.025
-723.864	800.000	0.088	0.367
-722.850	189.617	0.193	0.295
-721.835	110.910	-0.158	-0.194
-720.821	-200.000	-0.027	-0.166
-719.806	-177.135	-0.195	0.005
-718.791	-56.334	0.341	-0.155
-717.777	-11.445	0.174	0.117
-716.762	-164.559	0.388	0.018
-715.748	447.747	-0.105	-0.236
-714.733	97.626	-0.111	-0.130
-713.718	-21.794	0.095	0.059
-712.704	-200.000	-0.035	-0.338
-711.689	505.370	-0.088	-0.209
-710.675	-147.287	-0.202	-0.018
-709.660	5.994	0.177	0.134
-708.645	-200.000	-0.045	0.353
-707.631	7.381	0.051	0.039
-706.616	800.000	0.050	0.189
-705.602	334.261	-0.169	-0.334
-704.587	-83.209	-0.082	0.027
-703.572	139.042	-0.055	-0.073
-702.558	-104.126	-0.180	0.043
-701.543	303.810	0.041	-0.077
-700.529	-127.605	0.284	-0.042
-699.514	208.766	-0.030	-0.048
-698.499	-91.957	-0.092	-0.027
-697.485	-76.954	-0.116	0.041
-696.470	19.204	0.132	-0.108
-695.456	-200.000	-0.045	0.221
-694.441	146.831	-0.015	-0.020
-693.426	-164.349	-0.218	-0.010
-692.412	-77.121	0.110	0.039
-691.397	373.841	0.048	-0.099
-690.383	564.497	0.055	0.137
-689.368	-200.000	0.034	0.440
-688.354	120.713	0.067	0.085
-687.339	-200.000	0.042	0.302
-686.324	59.678	0.084	0.084
-685.310	72.188	-0.110	-0.117
-684.295	800.000	0.029	-0.096
-683.281	-102.282	0.330	-0.081
-682.266	-97.475	0.063	-0.017
-681.251	172.438	-0.111	0.163
-680.237	168.352	-0.227	0.330
-679.222	800.000	0.069	0.195
-678.208	-200.000	-0.044	0.579
-677.193	118.357	0.205	0.257
-676.178	-200.000	-0.020	0.384
-675.164	187.799	-0.209	-0.318
-674.149	-200.000	-0.037	-0.177
-673.135	800.000	0.047	0.140
-672.120	-200.000	0.017	-0.219
-671.105	286.740	0.171	-0.314
-670.091	-39.954	0.156	0.083
-669.076	444.202	0.155	-0.347
-668.062	260.228	0.149	-0.262
-667.047	268.321	0.090	-0.161
-666.032	376.352	0.059	-0.123
-665.018	-70.111	-0.179	-0.069
-664.003	81.189	0.117	-0.128
-662.989	222.172	0.127	0.208
-661.974	107.946	-0.089	-0.108
-660.959	-64.219	-0.329	0.136
-659.945	134.676	-0.124	-0.164
-658.930	-200.000	-0.031	0.453
-657.916	126.222	0.281	0.361
-656.901	-18.418	0.213	0.135
-655.886	74.218	0.076	0.081
-654.872	27.133	-0.212	0.181
-653.857	389.901	0.031	0.066
-652.843	-200.000	-0.043	-0.428
-651.828	800.000	-0.110	-0.380
-650.814	-200.000	0.049	-0.311
-649.799	291.038	-0.024	0.044
-648.784	92.259	-0.206	0.236
-647.770	-73.813	-0.157	0.058
-646.755	480.218	0.151	-0.348
-645.741	16.331	-0.128	-0.103
-644.726	296.850	-0.035	-0.066
-643.711	800.000	0.068	0.237
-642.697	800.000	0.097	-0.326
-641.682	54.334	-0.224	0.219
-640.668	171.570	-0.023	-0.034
-639.653	34.444	-0.193	-0.172
-638.638	-109.503	0.208	-0.045
-637.624	-139.584	0.245	0.027
-636.609	-51.359	-0.150	0.071
-635.595	-172.743	-0.234	-0.007
-634.580	-166.825	0.229	-0.010
-633.565	548.841	-0.070	-0.170
-632.551	-112.589	0.064	-0.013
-631.536	800.000	-0.029	-0.126
-630.522	-13.573	-0.170	-0.112
-629.507	-18.268	0.155	-0.098
-628.492	-200.000	0.060	-0.314
-627.478	91.575	-0.244	-0.278
-626.463	-111.628	-0.223	0.046
-625.449	640.933	0.022	0.057
-624.434	116.174	-0.044	-0.055
-623.419	-81.061	0.217	-0.073
-622.405	-114.545	-0.074	0.014
-621.390	-138.380	-0.077	-0.009
-620.376	-11.844	-0.430	0.286
-619.361	-105.741	0.337	0.077
-618.346	-145.573	-0.117	0.011
-617.332	191.311	-0.247	-0.379
-616.317	-200.000	0.033	-0.167
-615.303	201.736	-0.126	0.197
-614.288	204.191	0.055	0.087
-613.273	382.090	0.059	0.124
-612.259	456.004	0.041	-0.093
-611.244	209.870	0.150	-0.240
-610.230	111.157	-0.309	-0.378
-609.215	175.317	0.098	-0.144
-608.201	800.000	0.090	-0.276
-607.186	661.979	0.089	0.234
-606.171	188.959	-0.059	0.090
-605.157	150.301	-0.136	0.187
-604.142	-200.000	-0.016	0.183
-603.128	-138.897	0.304	-0.034
-602.113	-200.000	-0.031	0.191
-601.098	-36.217	0.179	0.098
-600.084	7.408	-0.190	-0.144
-599.069	-200.000	-0.044	-0.295
-598.055	14.383	-0.113	-0.090
-597.040	358.399	0.193	-0.392
-596.025	253.072	-0.178	-0.308
-595.011	800.000	0.032	-0.092
-593.996	406.033	0.134	0.288
-592.982	-119.666	0.264	-0.046
-591.967	800.000	0.076	-0.251
-590.952	127.554	0.144	0.185
-589.938	-152.134	-0.112	-0.008
-588.923	-7.400	0.172	0.118
-587.909	-63.030	0.152	-0.064
-586.894	800.000	-0.085	0.280
-585.879	381.542	0.138	-0.287
-584.865	800.000	-0.068	-0.194
-583.850	800.000	0.098	0.340
-582.836	113.787	-0.281	0.346
-581.821	193.257	-0.070	-0.108
-580.806	336.810	-0.066	-0.131
-579.792	-121.741	-0.157	-0.026
-578.777	-129.834	-0.217	-0.030
-577.763	93.038	-0.046	-0.053
-576.748	75.224	-0.311	-0.332
-575.733	-42.591	-0.280	-0.145
-574.719	-200.000	-0.010	-0.181
-573.704	-117.946	-0.385	0.070
-572.690	-162.635	-0.253	0.013
-571.675	-142.662	0.121	-0.012
-570.661	60.535	-0.029	0.029
-569.646	-36.637	0.395	-0.216
-568.631	169.819	0.162	-0.235
-567.617	-105.695	0.163	0.037
-566.602	167.332	-0.020	-0.029
-565.588	-179.672	-0.091	0.002
-564.573	-79.770	-0.206	0.070
-563.558	-200.000	0.006	0.109
-562.544	-79.565	0.442	-0.151
-561.529	-200.000	-0.035	0.222
-560.515	781.333	-0.087	0.240
-559.500	-97.295	-0.246	0.065
-558.485	135.420	-0.300	-0.396
-557.471	-9.553	0.434	0.293
-556.456	-127.322	0.169	0.025
-555.442	73.543	-0.264	-0.280
-554.427	-200.000	-0.001	0.007
-553.412	-38.211	0.084	-0.045
-552.398	74.395	0.075	0.080
-551.383	-200.000	-0.066	0.328
-550.369	-101.943	-0.140	-0.034
-549.354	-200.000	0.014	-0.072
-548.339	18.400	0.192	0.155
-547.325	-200.000	0.021	0.227
-546.310	374.952	0.025	0.052
-545.296	-46.395	-0.167	0.083
-544.281	335.509	0.046	-0.090
-543.266	207.375	-0.058	-0.092
-542.252	-76.608	-0.079	-0.028
-541.237	142.808	0.140	-0.188
-540.223	-121.078	-0.095	-0.016
-539.208	161.445	0.119	0.169
-538.193	-55.583	-0.365	0.166
-537.179	-41.629	0.091	-0.047
-536.164	-4.579	-0.142	-0.099
-535.150	-134.540	-0.337	-0.042
-534.135	72.629	-0.212	-0.224
-533.121	-60.552	0.175	-0.075
-532.106	-123.395	-0.212	-0.034
-531.091	-139.359	0.121	-0.013
-530.077	-200.000	-0.014	-0.185
-529.062	-31.999	0.036	0.020
-528.048	-60.390	-0.343	-0.148
-527.033	-92.280	0.020	-0.006
-526.018	172.203	-0.063	0.091
-525.004	-200.000	-0.029	0.171
-523.989	-57.739	-0.214	-0.095
-522.975	-121.002	0.125	-0.021
-521.960	344.643	-0.215	0.426
-520.945	-0.836	-0.149	0.107
-519.931	290.102	0.156	0.286
-518.916	432.960	-0.187	0.410
-517.902	800.000	0.071	0.200
-516.887	-126.583	-0.129	0.019
-515.872	374.834	-0.107	0.221
-514.858	-44.907	-0.362	-0.183
-513.843	-142.819	-0.285	-0.028
-512.829	-93.180	-0.212	-0.060
-511.814	-18.974	-0.073	-0.046
-510.799	800.000	-0.090	-0.280
-509.785	-200.000	0.005	-0.232
-508.770	800.000	-0.041	0.172
-507.756	190.006	-0.223	0.338
-506.741	-200.000	-0.073	0.462
-505.726	800.000	0.149	-0.485
-504.712	-108.370	0.202	-0.044
-503.697	-158.141	-0.140	-0.008
-502.683	800.000	0.015	-0.057
-501.668	800.000	-0.026	-0.109
-500.653	333.501	-0.094	-0.184
-499.639	-200.000	-0.008	0.061
-498.624	-44.635	-0.238	-0.120
-497.610	27.862	-0.194	0.166
-496.595	-65.591	-0.027	0.011
-495.581	-0.262	0.069	0.049
-494.566	532.658	-0.111	-0.265
-493.551	-50.211	-0.075	-0.036
-492.537	327.444	-0.129	-0.251
-491.522	555.143	-0.061	-0.147
-490.508	800.000	0.043	-0.146
-489.493	-129.428	-0.308	0.043
-488.478	242.412	0.108	0.183
-487.464	-34.108	-0.253	-0.141
-486.449	50.296	-0.377	-0.360
-485.435	-64.732	0.134	-0.055
-484.420	-46.719	0.397	0.196
-483.405	89.645	0.054	0.061
-482.391	225.523	0.075	0.123
-481.376	50.679	0.155	0.148
-480.362	-120.701	-0.046	0.008
-479.347	-15.966	0.161	-0.104
-478.332	-162.147	-0.095	-0.005
-477.318	281.519	0.029	-0.052
-476.303	435.550	-0.100	0.221
-475.289	-66.803	0.190	-0.076
-474.274	94.672	-0.135	0.155
-473.259	-126.047	-0.230	0.035
-472.245	-68.830	-0.192	-0.075
-471.230	42.329	-0.218	0.201
-470.216	800.000	0.030	-0.091
-469.201	-76.746	0.215	-0.076
-468.186	111.497	0.085	0.103
-467.172	-200.000	0.041	-0.277
-466.157	304.943	-0.188	-0.352
-465.143	69.522	-0.056	-0.058
-464.128	-1.484	-0.295	0.210
-463.113	107.129	0.104	0.125
-462.099	730.637	0.083	0.224
-461.084	-100.995	0.113	-0.028
-460.070	-200.000	0.025	0.198
-459.055	-200.000	-0.027	-0.186
-458.040	171.521	0.043	-0.063
-457.026	563.428	0.186	-0.454
-456.011	-26.204	0.139	0.082
-454.997	402.290	0.097	0.206
-453.982	138.392	-0.077	-0.102
-452.968	411.700	-0.093	-0.200
-451.953	-35.491	-0.069	-0.038
-450.938	800.000	-0.079	0.294
-449.924	-60.136	-0.106	0.046
-448.909	-200.000	0.024	-0.238
-447.895	800.000	-0.089	0.302
-446.880	800.000	0.023	0.077
-445.865	-200.000	-0.009	-0.141
-444.851	-93.582	0.334	-0.093
-443.836	701.263	-0.048	-0.128
-442.822	94.117	-0.124	-0.142
-441.807	2.036	-0.186	0.136
-440.792	124.178	0.233	0.296
-439.778	27.068	-0.050	-0.042
-438.763	-109.575	0.303	-0.065
-437.749	800.000	0.038	0.144
-436.734	-200.000	0.038	0.208
-435.719	800.000	0.117	0.405
-434.705	-200.000	0.019	-0.153
-433.690	-74.527	0.408	0.148
-432.676	193.884	0.140	0.213
-431.661	-110.329	-0.318	-0.067
-430.646	94.374	-0.298	-0.341
-429.632	-77.662	0.296	-0.103
-428.617	-200.000	0.000	0.022
-427.603	-46.370	0.164	-0.081
-426.588	-9.190	-0.088	0.059
-425.573	-73.999	-0.309	0.113
-424.559	54.452	0.114	-0.111
-423.544	30.410	0.141	0.122
-422.530	800.000	-0.119	0.337
-421.515	-43.037	0.092	0.047
-420.500	95.706	-0.081	0.093
-419.486	455.990	0.059	-0.131
-418.471	-187.627	0.234	-0.003
-417.457	-200.000	0.076	-0.402
-416.442	-200.000	0.011	0.238
-415.428	800.000	0.099	0.367
-414.413	-45.854	-0.272	0.135
-413.398	-84.230	0.087	0.028
-412.384	-32.571	0.150	-0.084
-411.369	-63.972	-0.115	0.047
-410.355	123.532	0.156	-0.197
-409.340	-200.000	-0.051	-0.248
-408.325	-162.681	-0.267	-0.013
-407.311	320.780	0.285	-0.546
-406.296	-29.396	0.418	0.241
-405.282	-200.000	-0.010	0.164
-404.267	-80.897	-0.122	-0.041
-403.252	24.177	-0.131	0.109
-402.238	155.744	0.115	-0.159
-401.223	251.067	0.115	-0.197
-400.209	-176.058	-0.078	0.002
-399.194	-66.058	0.041	-0.016
-398.179	-73.946	0.246	0.090
-397.165	-200.000	0.009	0.210
-396.150	162.101	-0.036	-0.051
-395.136	-154.790	0.337	0.022
-394.121	51.498	0.135	-0.129
-393.106	89.543	0.164	-0.184
-392.092	-44.126	-0.237	0.120
-391.077	-15.442	0.354	0.228
-390.063	251.197	0.093	0.159
-389.048	-113.523	-0.140	-0.028
-388.033	-19.270	0.183	0.114
-387.019	149.224	-0.105	0.143
-386.004	521.450	0.072	0.170
-384.990	-176.400	0.054	0.001
-383.975	-178.195	0.194	0.005
-382.960	147.324	0.061	0.082
-381.946	800.000	-0.031	0.119
-380.931	177.006	-0.126	0.185
-379.917	187.415	-0.028	0.043
-378.902	800.000	-0.120	0.479
-377.888	-200.000	0.038	-0.235
-376.873	-25.301	0.186	-0.111
-375.858	-43.100	0.050	0.026
-374.844	-200.000	0.029	-0.277
-373.829	-145.183	-0.389	-0.035
-372.815	698.754	-0.094	0.248
-371.800	727.585	-0.071	0.191
-370.785	-73.119	0.063	0.023
-369.771	800.000	0.096	-0.388
-368.756	59.431	-0.084	0.083
-367.742	-136.486	-0.096	0.011
-366.727	-74.227	-0.143	-0.052
-365.712	-34.506	0.301	-0.166
-364.698	-117.023	0.066	0.012
-363.683	-84.004	-0.041	0.013
-362.669	-151.995	-0.343	-0.025
-361.654	-5.420	0.311	-0.215
-360.639	154.945	0.083	-0.115
-359.625	800.000	-0.063	0.262
-358.610	-59.005	-0.216	-0.094
-357.596	-200.000	-0.011	-0.262
-356.581	-200.000	-0.032	-0.310
-355.566	-14.211	0.144	0.094
-354.552	-57.534	-0.164	-0.073
-353.537	-64.440	0.540	0.221
-352.523	800.000	-0.129	-0.394
-351.508	-95.675	-0.340	-0.091
-350.493	-200.000	0.040	0.544
-349.479	800.000	0.151	-0.506
-348.464	26.942	-0.058	-0.049
-347.450	28.390	0.201	-0.170
-346.435	210.585	-0.042	-0.066
-345.420	-2.685	-0.320	-0.225
-344.406	136.606	0.248	0.326
-343.391	20.663	-0.367	0.299
-342.377	-160.630	-0.237	0.013
-341.362	-61.649	0.367	0.155
-340.348	-27.407	-0.045	0.026
-339.333	91.969	0.207	-0.234
-338.318	17.378	0.062	-0.050
-337.304	-200.000	-0.003	-0.044
-336.289	-176.286	-0.184	-0.005
-335.275	700.652	-0.109	0.287
-334.260	-128.569	0.243	0.035
-333.245	-77.676	0.224	-0.078
-332.231	-3.894	-0.146	-0.102
-331.216	-55.525	0.052	0.024
-330.202	44.939	-0.168	0.155
-329.187	39.297	-0.028	0.025
-328.172	-42.414	-0.248	-0.127
-327.158	-21.596	0.525	0.322
-326.143	800.000	-0.039	0.118
-325.129	67.455	0.105	0.107
-324.114	-98.902	0.310	0.079
-323.099	-105.750	-0.153	0.035
-322.085	103.159	-0.041	-0.049
-321.070	-63.077	0.272	-0.113
-320.056	-21.490	0.221	0.135
-319.041	764.912	0.060	0.164
-318.026	194.164	0.193	-0.293
-317.012	-60.969	-0.085	-0.036
-315.997	139.251	-0.097	-0.128
-314.983	573.832	-0.111	-0.272
-313.968	165.367	0.118	-0.167
-312.953	-10.332	-0.267	-0.178
-311.939	282.811	0.284	0.511
-310.924	-200.000	-0.013	-0.111
-309.910	-63.511	-0.317	0.131
-308.895	644.498	0.086	0.219
-307.880	800.000	0.016	0.044
-306.866	52.542	-0.126	0.121
-305.851	-99.830	0.168	-0.042
-304.837	377.123	0.079	0.163
-303.822	172.013	-0.171	0.247
-302.807	800.000	-0.022	0.094
-301.793	-1.698	-0.235	-0.166
-300.778	-115.684	-0.513	-0.096
-299.764	-168.435	0.407	-0.016
-298.749	-62.012	-0.131	-0.055
-297.735	-4.525	0.057	-0.040
-296.720	174.221	-0.152	-0.220
-295.705	800.000	0.057	0.229
-294.691	-200.000	0.003	-0.074
-293.676	-8.709	-0.062	-0.041
-292.662	80.622	-0.150	-0.162
-291.647	32.707	0.200	0.174
-290.632	691.976	-0.131	0.345
-289.618	-91.652	-0.090	0.026
-288.603	23.891	0.200	0.165
-287.589	-120.064	-0.265	0.045
-286.574	-200.000	-0.015	0.096
-285.559	-170.880	0.417	0.014
-284.545	109.381	0.271	0.325
-283.530	-175.769	0.378	0.010
-282.516	-19.400	0.065	0.041
-281.501	800.000	0.060	-0.199
-280.486	-40.389	0.106	-0.055
-279.472	-7.984	-0.124	-0.084
-278.457	800.000	-0.033	0.099
-277.443	-121.071	-0.276	-0.046
-276.428	-200.000	0.061	-0.314
-275.413	-95.677	0.341	0.091
-274.399	-123.304	-0.261	-0.042
-273.384	-200.000	0.014	-0.217
-272.370	70.375	-0.082	0.085
-271.355	377.858	-0.036	0.075
-270.340	-200.000	0.007	-0.191
-269.326	194.119	-0.093	-0.141
-268.311	48.664	0.264	0.248
-267.297	-114.057	0.416	-0.081
-266.282	43.412	-0.189	0.173
-265.267	154.751	-0.106	0.146
-264.253	-30.399	-0.233	-0.132
-263.238	-200.000	0.062	-0.281
-262.224	42.499	-0.094	0.086
-261.209	-169.364	0.014	-0.001
-260.195	156.608	0.181	0.251
-259.180	-200.000	0.031	0.146
-258.165	-50.749	0.368	0.173
-257.151	-30.397	0.244	-0.139
-256.136	-135.916	0.186	0.022
-255.122	2.610	-0.106	-0.077
-254.107	-200.000	0.105	-0.472
-253.092	-200.000	-0.041	0.192
-252.078	689.294	0.077	-0.203
-251.063	126.099	-0.185	-0.234
-250.049	42.328	-0.065	-0.059
-249.034	134.440	0.057	-0.075
-248.019	-126.928	0.175	-0.026
-247.005	118.130	0.241	0.298
-245.990	-128.749	0.135	-0.019
-244.976	-69.489	0.233	0.089
-243.961	222.998	0.049	0.079
-242.946	-16.729	-0.033	-0.021
-241.932	-200.000	0.002	-0.315
-240.917	-61.406	0.217	-0.092
-239.903	515.881	-0.124	0.290
-238.888	-83.735	-0.188	-0.060
-237.873	123.230	0.124	0.155
-236.859	-200.000	-0.055	-0.283
-235.844	-141.361	0.459	0.047
-234.830	-48.843	0.395	0.189
-233.815	-37.525	-0.169	-0.090
-232.800	119.022	0.027	-0.034
-231.786	-200.000	0.065	0.353
-230.771	288.506	0.042	0.076
-229.757	-47.687	-0.112	-0.054
-228.742	717.789	0.079	0.209
-227.727	-166.056	-0.321	-0.014
-226.713	229.888	0.123	0.202
-225.698	453.263	0.074	0.164
-224.684	-86.967	0.398	0.122
-223.669	527.613	0.086	0.203
-222.655	-200.000	0.057	0.378
-221.640	-47.027	-0.207	0.101
-220.625	87.552	0.099	-0.109
-219.611	-200.000	0.026	0.210
-218.596	-68.310	0.085	0.033
-217.582	-200.000	0.006	0.088
-216.567	-90.376	0.334	-0.097
-215.552	-200.000	0.033	-0.386
-214.538	-96.766	-0.402	0.106
-213.523	-157.098	-0.305	-0.019
-212.509	-68.221	0.405	0.158
-211.494	-133.485	-0.195	0.024
-210.479	-200.000	0.019	0.280
-209.465	7.385	0.300	0.224
-208.450	198.382	0.159	-0.242
-207.436	83.064	-0.254	0.277
-206.421	-200.000	0.044	0.196
-205.406	-153.360	0.138	0.010
-204.392	-133.114	-0.455	-0.058
-203.377	-3.669	0.135	0.094
-202.363	195.347	-0.084	0.128
-201.348	372.962	0.074	0.150
-200.333	231.776	0.054	-0.089
-199.319	-41.824	0.013	-0.007
-198.304	-58.301	-0.203	-0.088
-197.290	800.000	0.047	0.131
-196.275	-3.918	-0.084	0.058
-195.260	145.151	0.249	0.333
-194.246	129.815	-0.207	-0.264
-193.231	131.840	-0.191	-0.246
-192.217	-0.612	0.235	-0.166
-191.202	-69.654	0.037	0.014
-190.187	-0.976	-0.222	0.157
-189.173	87.036	-0.319	0.353
-188.158	455.039	-0.047	-0.104
-187.144	-200.000	0.017	0.103
-186.129	12.072	0.374	-0.288
-185.114	502.000	-0.150	-0.347
-184.100	76.698	-0.055	-0.059
-183.085	230.164	0.129	0.210
-182.071	-13.496	-0.157	-0.102
-181.056	-89.962	0.150	-0.044
-180.042	301.988	0.103	-0.190
-179.027	-200.000	-0.102	0.000
-178.012	92.333	-0.140	-0.157
-176.998	129.628	-0.212	-0.271
-175.983	742.600	0.043	-0.115
-174.969	-72.933	0.218	-0.080
-173.954	-200.000	0.033	-0.182
-172.939	-114.262	-0.103	-0.020
-171.925	800.000	-0.132	0.454
-170.910	-27.527	0.297	0.172
-169.896	-200.000	0.016	-0.102
-168.881	168.739	0.084	0.120
-167.866	-200.000	0.043	0.191
-166.852	800.000	-0.101	-0.363
-165.837	16.132	0.152	0.120
-164.823	79.170	-0.132	-0.141
-163.808	-155.872	-0.300	0.019
-162.793	-200.000	0.009	-0.122
-161.779	-58.459	0.123	-0.053
-160.764	101.396	-0.204	-0.237
-159.750	-85.563	0.087	-0.027
-158.735	-200.000	-0.033	0.166
-157.720	-200.000	0.036	0.350
-156.706	-82.826	-0.024	0.008
-155.691	-200.000	-0.020	-0.233
-154.677	-83.421	0.112	-0.036
-153.662	-200.000	0.020	-0.246
-152.647	19.193	0.175	0.140
-151.633	0.632	0.144	-0.103
-150.618	-42.529	0.081	-0.041
-149.604	28.725	-0.291	-0.246
-148.589	-200.000	0.019	0.231
-147.574	319.156	-0.173	0.328
-146.560	800.000	-0.040	0.165
-145.545	-200.000	0.021	-0.392
-144.531	-66.164	-0.127	0.050
-143.516	50.957	0.093	0.088
-142.502	-200.000	0.079	0.462
-141.487	-200.000	-0.015	0.164
-140.472	-114.921	-0.202	-0.038
-139.458	-45.041	0.315	0.157
-138.443	-19.847	-0.162	-0.100
-137.429	234.818	-0.235	0.386
-136.414	363.841	0.090	0.181
-135.399	50.412	0.257	0.242
-134.385	-66.031	0.303	0.121
-133.370	-6.572	0.198	-0.134
-132.356	-165.164	0.037	-0.002
-131.341	-200.000	-0.008	0.358
-130.326	138.534	0.108	-0.141
-129.312	66.150	-0.240	-0.243
-128.297	-90.622	-0.195	0.056
-127.283	354.882	-0.090	0.178
-126.268	-196.283	-0.304	-0.002
-125.253	18.210	-0.323	0.257
-124.239	-18.994	0.131	0.081
-123.224	6.007	-0.160	-0.118
-122.210	-26.592	-0.213	0.124
-121.195	-200.000	-0.017	0.384
