DTS Sentinel unit serial number:	SN413079Multiplexer serial number:	ORYXHardware model number:	OX4-SRSoftware version number:	ORYX F/W v4.00 Oryx Data Collector v3.7.2.0data status	okinstallation	princeton_trtdifferential loss correction	single-endedforward channel	channel 1reverse channel	N/Adate	2019/09/19time	08:02:35forward acquisition time	60.00reverse acquisition time	0.00gamma	496.2192k internal	0.2342k external	0.2342temperature offset calibration	1.0008default loss term (dB/km)	0.3790temperature slope calibration	1.0000multiplexer offset coefficient	1.0000multiplexer slope coefficient	1.0000fibre end	0.00T internal ref (°C)	19.92T ext. ref 1 (°C)	0.55T ext. ref 2 (°C)	15.51length (m)	temperature (°C)	Stokes	anti-Stokes-747.200	21.964	0.182	-0.148
-746.185	-126.266	-0.054	0.008
-745.171	-200.000	-0.024	-0.230
-744.156	800.000	0.056	-0.157
-743.142	448.739	0.054	-0.120
-742.127	691.728	0.022	0.057
-741.112	-200.000	-0.004	0.078
-740.098	-159.338	0.339	0.019
-739.083	190.639	-0.127	0.191
-738.069	6.043	-0.253	0.187
-737.054	800.000	-0.114	-0.499
-736.039	-200.000	0.040	-0.246
-735.025	52.586	-0.280	0.267
-734.010	-24.471	-0.320	-0.191
-732.996	-200.000	-0.002	-0.137
-731.981	800.000	-0.117	-0.438
-730.966	-47.314	-0.134	0.065
-729.952	107.978	-0.028	0.033
-728.937	-172.589	-0.365	0.012
-727.923	-107.463	0.260	0.057
-726.908	188.419	-0.233	0.349
-725.894	-45.810	-0.227	0.112
-724.879	-73.160	-0.109	0.040
-723.864	616.940	-0.138	-0.347
-722.850	492.251	0.132	-0.302
-721.835	-200.000	0.020	-0.384
-720.821	89.272	-0.175	-0.195
-719.806	698.023	-0.024	-0.063
-718.791	157.278	0.193	-0.268
-717.777	-200.000	-0.050	-0.238
-716.762	93.896	-0.079	-0.090
-715.748	-157.538	-0.221	-0.013
-714.733	108.028	0.102	-0.122
-713.718	800.000	0.042	-0.131
-712.704	-63.829	-0.253	-0.104
-711.689	-200.000	-0.006	-0.092
-710.675	-7.548	-0.218	-0.147
-709.660	-200.000	0.015	0.292
-708.645	-86.794	0.140	0.043
-707.631	-94.541	-0.284	0.077
-706.616	800.000	0.063	-0.272
-705.602	-18.309	-0.082	0.052
-704.587	-27.415	-0.171	-0.100
-703.572	322.041	0.240	0.456
-702.558	-200.000	-0.014	-0.219
-701.543	140.894	0.181	-0.239
-700.529	-200.000	-0.084	0.488
-699.514	-200.000	0.008	0.134
-698.499	289.030	-0.009	-0.016
-697.485	-46.344	0.312	0.153
-696.470	-50.519	-0.247	0.117
-695.456	493.244	-0.096	-0.219
-694.441	-118.451	-0.076	0.013
-693.426	-20.884	0.239	-0.147
-692.412	-128.400	0.543	-0.077
-691.397	-53.394	0.184	0.084
-690.383	-28.713	0.120	-0.069
-689.368	800.000	0.132	-0.402
-688.354	-104.922	-0.342	-0.078
-687.339	-80.812	0.331	-0.110
-686.324	-103.314	0.194	-0.046
-685.310	-146.797	0.122	0.011
-684.295	-93.247	0.244	0.068
-683.281	616.229	-0.204	-0.511
-682.266	-200.000	0.028	-0.248
-681.251	-200.000	-0.008	-0.135
-680.237	-29.579	0.026	-0.015
-679.222	800.000	-0.096	0.354
-678.208	534.710	0.064	-0.151
-677.193	458.247	-0.148	-0.329
-676.178	97.778	-0.128	-0.147
-675.164	-111.083	-0.175	-0.036
-674.149	96.430	0.112	-0.128
-673.135	392.907	0.187	-0.388
-672.120	-125.152	-0.103	-0.016
-671.105	-144.174	0.267	-0.025
-670.091	403.496	-0.159	-0.335
-669.076	-4.820	0.301	-0.207
-668.062	-200.000	-0.005	-0.157
-667.047	-200.000	-0.024	-0.112
-666.032	93.834	-0.243	0.275
-665.018	-69.942	-0.192	-0.073
-664.003	-200.000	-0.010	-0.262
-662.989	32.290	-0.116	-0.100
-661.974	248.099	0.119	0.201
-660.959	-180.775	0.249	-0.005
-659.945	-200.000	-0.007	-0.128
-658.930	-200.000	0.002	-0.193
-657.916	437.415	0.059	0.128
-656.901	409.779	-0.035	0.074
-655.886	-200.000	0.031	-0.227
-654.872	800.000	0.085	-0.243
-653.857	800.000	-0.114	0.419
-652.843	-69.805	0.089	-0.034
-651.828	-129.354	-0.179	-0.025
-650.814	99.184	0.038	0.044
-649.799	735.288	0.036	0.095
-648.784	191.035	-0.075	0.112
-647.770	18.284	0.342	0.273
-646.755	181.342	0.031	0.046
-645.741	72.481	0.093	-0.096
-644.726	-200.000	0.012	-0.368
-643.711	35.473	0.320	0.280
-642.697	399.391	-0.129	-0.270
-641.682	69.396	0.084	-0.086
-640.668	-131.341	-0.180	-0.024
-639.653	-84.336	0.075	-0.024
-638.638	275.471	-0.096	-0.170
-637.624	25.235	0.070	-0.058
-636.609	269.355	0.155	-0.272
-635.595	800.000	0.010	0.043
-634.580	-19.036	-0.126	-0.078
-633.565	194.855	-0.142	0.215
-632.551	-75.037	-0.550	0.196
-631.536	-33.852	0.112	-0.062
-630.522	-19.774	-0.078	0.048
-629.507	-59.931	-0.548	-0.233
-628.492	-14.139	0.185	0.119
-627.478	800.000	0.070	-0.292
-626.463	800.000	0.064	-0.228
-625.449	800.000	0.041	0.149
-624.434	-200.000	-0.051	0.433
-623.419	61.671	0.055	-0.054
-622.405	51.072	-0.109	0.103
-621.390	384.392	-0.056	0.115
-620.376	96.635	0.072	-0.083
-619.361	-40.044	-0.224	-0.116
-618.346	800.000	0.094	0.324
-617.332	-200.000	0.007	0.301
-616.317	-138.538	0.373	-0.041
-615.303	-200.000	0.031	0.281
-614.288	-120.657	0.168	-0.028
-613.273	-200.000	0.006	0.172
-612.259	14.955	0.067	0.052
-611.244	-59.274	0.255	0.109
-610.230	150.730	-0.102	-0.138
-609.215	145.545	0.201	-0.268
-608.201	39.030	-0.074	-0.066
-607.186	116.367	-0.164	-0.200
-606.171	-200.000	-0.003	0.033
-605.157	-153.204	-0.129	0.009
-604.142	181.745	0.226	0.332
-603.128	-38.688	-0.139	0.073
-602.113	-200.000	0.058	0.282
-601.098	81.966	-0.146	0.158
-600.084	-15.202	0.059	-0.038
-599.069	-200.000	0.022	-0.152
-598.055	544.699	0.078	0.185
-597.040	308.979	-0.165	-0.307
-596.025	5.394	0.127	-0.093
-595.011	-43.059	-0.126	0.063
-593.996	94.085	-0.097	0.110
-592.982	99.432	0.166	0.191
-591.967	-132.391	0.151	0.019
-590.952	800.000	-0.034	-0.127
-589.938	-73.197	0.105	0.038
-588.923	-189.208	-0.170	0.002
-587.909	-59.397	0.169	0.072
-586.894	120.273	-0.144	-0.177
-585.879	-200.000	-0.004	-0.073
-584.865	567.410	0.111	-0.269
-583.850	351.046	-0.062	0.123
-582.836	-167.928	-0.207	0.008
-581.821	-200.000	-0.009	-0.368
-580.806	188.248	-0.078	-0.116
-579.792	595.379	0.050	0.123
-578.777	-28.265	-0.263	-0.151
-577.763	800.000	0.020	0.070
-576.748	24.265	-0.234	-0.192
-575.733	55.365	0.064	-0.062
-574.719	241.318	-0.049	-0.082
-573.704	-83.576	0.211	0.067
-572.690	-23.110	0.270	-0.162
-571.675	27.095	0.210	-0.175
-570.661	57.825	-0.029	-0.028
-569.646	-141.239	0.324	-0.033
-568.631	-47.999	-0.120	-0.058
-567.617	-200.000	-0.009	0.108
-566.602	20.663	0.105	0.085
-565.588	-68.048	-0.108	-0.042
-564.573	102.700	-0.014	-0.017
-563.558	-92.992	-0.100	0.028
-562.544	-200.000	-0.005	0.033
-561.529	-56.933	0.037	-0.016
-560.515	-200.000	0.008	-0.095
-559.500	-200.000	-0.036	-0.300
-558.485	-19.843	-0.121	-0.074
-557.471	503.251	0.138	0.317
-556.456	439.918	0.140	0.305
-555.442	607.441	0.007	0.018
-554.427	-10.652	-0.191	-0.125
-553.412	694.337	0.072	-0.188
-552.398	-9.368	-0.304	0.202
-551.383	800.000	-0.099	-0.414
-550.369	-200.000	0.037	-0.209
-549.354	-173.615	0.365	-0.011
-548.339	-200.000	0.017	0.149
-547.325	202.342	0.075	0.116
-546.310	29.231	0.017	0.014
-545.296	-87.827	-0.334	-0.100
-544.281	264.263	-0.114	-0.197
-543.266	-65.786	-0.194	-0.077
-542.252	800.000	-0.049	-0.145
-541.237	-40.342	-0.122	-0.063
-540.223	132.571	0.225	0.289
-539.208	217.159	0.298	0.472
-538.193	800.000	-0.103	-0.295
-537.179	-19.818	0.287	-0.176
-536.164	-7.265	0.254	0.171
-535.150	74.961	-0.189	0.198
-534.135	-200.000	-0.039	0.194
-533.121	-91.313	-0.241	0.068
-532.106	392.207	0.096	0.198
-531.091	571.949	0.101	-0.245
-530.077	800.000	-0.081	-0.320
-529.062	118.551	0.243	-0.298
-528.048	-12.844	0.090	0.058
-527.033	-103.708	-0.098	-0.023
-526.018	63.627	0.145	-0.145
-525.004	-144.046	0.354	0.033
-523.989	-97.500	-0.205	-0.053
-522.975	-35.102	-0.225	-0.122
-521.960	800.000	-0.143	0.415
-520.945	-8.406	0.122	0.081
-519.931	-48.968	-0.084	-0.040
-518.916	-15.482	-0.286	0.181
-517.902	442.012	0.128	-0.279
-516.887	39.156	0.022	0.019
-515.872	293.009	-0.038	0.068
-514.858	7.010	-0.271	0.200
-513.843	371.208	0.074	0.149
-512.829	23.606	0.257	-0.210
-511.814	1.752	-0.239	0.171
-510.799	-52.631	-0.017	-0.008
-509.785	-72.651	-0.039	-0.014
-508.770	641.442	0.038	-0.097
-507.756	-68.008	0.242	0.094
-506.741	-200.000	0.011	-0.051
-505.726	600.911	0.111	0.272
-504.712	800.000	0.078	-0.270
-503.697	90.102	-0.309	-0.342
-502.683	800.000	0.013	0.045
-501.668	-73.777	0.121	0.044
-500.653	-97.032	0.105	0.027
-499.639	-200.000	0.003	-0.112
-498.624	4.946	0.153	-0.112
-497.610	-84.126	-0.075	-0.024
-496.595	37.973	0.157	-0.139
-495.581	146.153	0.185	-0.246
-494.566	90.649	-0.052	0.058
-493.551	-200.000	0.001	-0.023
-492.537	-200.000	-0.001	-0.020
-491.522	-150.135	0.146	-0.011
-490.508	328.834	-0.078	-0.149
-489.493	-168.100	0.306	0.012
-488.478	-200.000	-0.005	-0.121
-487.464	-8.360	-0.183	-0.122
-486.449	190.863	0.121	-0.180
-485.435	1.102	-0.128	0.091
-484.420	-150.970	0.292	0.022
-483.405	-76.801	-0.271	-0.094
-482.391	-93.211	-0.258	-0.071
-481.376	27.480	-0.091	0.076
-480.362	77.804	-0.401	0.423
-479.347	-63.324	0.109	-0.045
-478.332	368.434	0.021	0.042
-477.318	-110.935	-0.346	0.070
-476.303	197.702	0.108	0.164
-475.289	9.657	0.060	0.045
-474.274	800.000	0.087	0.251
-473.259	-200.000	0.021	-0.125
-472.245	88.955	-0.165	-0.182
-471.230	-8.217	-0.097	0.065
-470.216	800.000	-0.051	-0.159
-469.201	-200.000	-0.025	-0.141
-468.186	-32.302	-0.253	0.140
-467.172	-142.477	0.182	-0.018
-466.157	-200.000	-0.002	0.172
-465.143	-200.000	-0.011	-0.226
-464.128	-200.000	0.037	-0.245
-463.113	-123.980	-0.234	-0.036
-462.099	106.175	0.253	0.296
-461.084	800.000	0.034	0.102
-460.070	465.384	0.047	-0.104
-459.055	140.485	-0.029	0.038
-458.040	88.866	0.131	-0.144
-457.026	126.613	0.141	0.177
-456.011	44.577	0.149	0.136
-454.997	-200.000	-0.008	-0.302
-453.982	54.206	-0.082	0.078
-452.968	-67.857	-0.378	-0.146
-451.953	16.196	-0.098	0.076
-450.938	-2.622	-0.057	-0.039
-449.924	160.796	-0.043	0.060
-448.909	35.216	0.050	-0.044
-447.895	-200.000	-0.047	0.260
-446.880	151.864	0.091	0.123
-445.865	-200.000	0.043	0.249
-444.851	10.471	0.299	-0.225
-443.836	36.477	0.304	-0.266
-442.822	-110.590	0.274	-0.056
-441.807	-200.000	-0.005	-0.232
-440.792	67.974	-0.351	0.355
-439.778	-134.452	-0.134	0.016
-438.763	556.469	-0.039	0.094
-437.749	300.498	-0.132	0.241
-436.734	68.917	-0.241	-0.245
-435.719	-148.838	0.351	-0.028
-434.705	-200.000	0.062	0.356
-433.690	-148.317	0.170	0.014
-432.676	-81.727	0.078	-0.025
-431.661	-153.670	0.220	0.015
-430.646	200.612	-0.148	-0.225
-429.632	-39.466	-0.425	-0.221
-428.617	-51.311	-0.380	0.176
-427.603	287.711	-0.029	-0.051
-426.588	-74.207	0.291	-0.104
-425.573	800.000	-0.061	0.199
-424.559	-200.000	-0.002	-0.013
-423.544	54.211	-0.120	-0.114
-422.530	-118.717	-0.368	-0.064
-421.515	243.789	0.115	-0.191
-420.500	-200.000	0.042	0.255
-419.486	-60.812	-0.288	-0.121
-418.471	-91.071	0.085	-0.024
-417.457	22.609	-0.165	-0.134
-416.442	394.350	-0.126	-0.260
-415.428	311.781	0.066	0.122
-414.413	369.602	-0.235	-0.471
-413.398	68.482	-0.078	-0.079
-412.384	-1.200	-0.174	-0.121
-411.369	-41.358	-0.099	-0.050
-410.355	-9.484	-0.091	-0.060
-409.340	315.899	-0.142	0.265
-408.325	-180.700	0.158	-0.003
-407.311	641.581	-0.058	-0.146
-406.296	63.856	0.200	-0.199
-405.282	26.906	-0.258	0.214
-404.267	-64.211	0.082	-0.033
-403.252	-180.399	0.138	-0.003
-402.238	-200.000	-0.006	0.350
-401.223	174.836	-0.161	-0.230
-400.209	800.000	0.097	-0.395
-399.194	179.524	-0.102	-0.148
-398.179	-182.955	-0.088	0.002
-397.165	800.000	-0.042	-0.166
-396.150	800.000	0.053	-0.174
-395.136	-4.356	-0.130	0.089
-394.121	102.438	-0.156	0.180
-393.106	95.201	-0.123	-0.139
-392.092	-181.379	0.111	0.002
-391.077	106.942	-0.260	0.305
-390.063	420.685	0.149	0.316
-389.048	170.592	-0.197	-0.279
-388.033	-154.481	0.208	-0.014
-387.019	800.000	0.017	0.063
-386.004	-200.000	0.050	-0.286
-384.990	370.718	-0.150	-0.301
-383.975	535.241	0.067	0.156
-382.960	756.972	-0.012	-0.032
-381.946	800.000	0.090	0.289
-380.931	-200.000	-0.005	0.102
-379.917	-104.203	-0.111	-0.025
-378.902	54.178	-0.101	0.096
-377.888	411.677	0.035	-0.074
-376.873	-46.334	-0.069	-0.033
-375.858	53.110	0.181	-0.171
-374.844	148.129	-0.102	0.136
-373.829	-60.195	-0.196	0.082
-372.815	-77.395	0.153	0.053
-371.800	-129.849	0.291	0.039
-370.785	765.672	0.004	0.012
-369.771	800.000	-0.062	0.236
-368.756	-104.277	0.145	-0.033
-367.742	269.553	0.165	0.286
-366.727	95.930	0.168	0.189
-365.712	800.000	0.080	-0.335
-364.698	-73.563	0.064	-0.023
-363.683	800.000	-0.032	0.112
-362.669	168.490	0.188	-0.264
-361.654	800.000	0.014	-0.060
-360.639	800.000	0.040	-0.146
-359.625	57.108	-0.111	-0.107
-358.610	-58.039	0.043	0.019
-357.596	102.291	0.250	-0.288
-356.581	800.000	-0.069	0.209
-355.566	184.387	-0.063	0.093
-354.552	-56.593	0.107	0.047
-353.537	-150.595	-0.364	-0.027
-352.523	800.000	-0.033	0.102
-351.508	-76.161	0.551	-0.192
-350.493	-200.000	-0.018	0.100
-349.479	138.375	0.190	0.247
-348.464	-15.461	0.307	0.194
-347.450	-72.753	0.359	0.130
-346.435	-200.000	-0.005	-0.066
-345.420	570.083	0.147	0.354
-344.406	-200.000	0.008	0.036
-343.391	38.294	-0.154	-0.135
-342.377	-200.000	-0.007	-0.066
-341.362	52.994	0.065	-0.062
-340.348	94.743	0.090	0.101
-339.333	-15.262	-0.162	-0.102
-338.318	231.727	-0.142	-0.230
-337.304	-105.130	0.073	0.016
-336.289	-98.100	0.072	-0.018
-335.275	197.043	0.197	0.296
-334.260	-47.410	-0.054	0.026
-333.245	214.717	-0.100	0.156
-332.231	-114.158	-0.217	0.041
-331.216	-38.622	0.154	0.080
-330.202	-200.000	0.001	0.016
-329.187	-123.371	-0.306	0.048
-328.172	800.000	-0.025	0.102
-327.158	-32.795	0.139	-0.076
-326.143	259.194	-0.016	0.027
-325.129	69.202	-0.054	-0.055
-324.114	-89.585	0.255	0.074
-323.099	172.925	-0.053	0.076
-322.085	-200.000	-0.099	0.464
-321.070	159.722	-0.181	0.248
-320.056	-143.403	-0.094	0.009
-319.041	800.000	0.030	0.084
-318.026	-107.146	0.268	0.058
-317.012	-97.017	-0.057	0.015
-315.997	325.683	0.117	-0.221
-314.983	800.000	-0.117	0.453
-313.968	-42.799	-0.246	0.123
-312.953	242.231	-0.041	-0.068
-311.939	196.913	-0.109	0.163
-310.924	-87.851	-0.079	-0.024
-309.910	-178.423	-0.130	-0.003
-308.895	33.358	-0.249	0.213
-307.880	-16.601	-0.133	0.083
-306.866	98.699	-0.052	0.059
-305.851	259.338	-0.153	-0.260
-304.837	605.537	-0.101	-0.247
-303.822	432.780	-0.120	0.257
-302.807	134.057	-0.212	0.270
-301.793	-177.681	-0.217	0.005
-300.778	36.169	0.172	0.149
-299.764	73.324	-0.140	-0.144
-298.749	74.637	0.151	0.157
-297.735	194.070	-0.148	0.221
-296.720	123.712	0.162	-0.200
-295.705	-18.311	0.297	0.183
-294.691	-90.164	-0.213	0.061
-293.676	-154.765	-0.296	-0.019
-292.662	-70.437	0.194	0.072
-291.647	36.623	-0.495	-0.430
-290.632	-166.381	0.455	-0.019
-289.618	-82.239	0.241	0.077
-288.603	-150.942	-0.543	-0.040
-287.589	16.618	0.038	0.029
-286.574	297.820	0.086	0.155
-285.559	423.014	0.123	-0.259
-284.545	-200.000	0.025	-0.270
-283.530	-24.086	-0.066	-0.039
-282.516	-51.881	-0.147	0.067
-281.501	800.000	-0.104	-0.352
-280.486	-200.000	-0.080	-0.449
-279.472	394.372	0.161	0.331
-278.457	800.000	0.027	0.084
-277.443	-65.711	-0.200	0.079
-276.428	-7.089	-0.260	0.174
-275.413	800.000	-0.032	-0.117
-274.399	-200.000	0.001	0.014
-273.384	129.393	0.102	-0.128
-272.370	-0.622	-0.108	0.075
-271.355	508.763	0.102	-0.234
-270.340	75.386	-0.174	0.180
-269.326	143.087	0.130	0.170
-268.311	34.747	-0.079	0.068
-267.297	296.949	-0.060	0.108
-266.282	-125.043	-0.176	-0.027
-265.267	92.410	-0.137	-0.152
-264.253	-200.000	0.028	0.209
-263.238	-200.000	0.006	0.298
-262.224	-127.303	0.159	0.023
-261.209	549.676	0.095	-0.224
-260.195	-200.000	0.006	-0.040
-259.180	-71.283	0.156	-0.057
-258.165	-118.069	-0.198	-0.035
-257.151	-179.743	-0.120	-0.003
-256.136	696.245	0.085	0.219
-255.122	-101.972	-0.264	0.063
-254.107	-84.902	0.207	-0.064
-253.092	-158.672	0.210	0.012
-252.078	53.171	0.093	0.087
-251.063	5.664	-0.277	0.201
-250.049	163.997	0.169	0.234
-249.034	800.000	0.085	0.231
-248.019	296.269	-0.095	0.170
-247.005	800.000	0.052	-0.174
-245.990	-89.900	0.079	0.023
-244.976	800.000	0.045	-0.130
-243.961	-22.538	-0.162	0.096
-242.946	-67.550	0.144	0.055
-241.932	-81.780	0.272	-0.087
-240.917	-141.553	0.340	0.034
-239.903	628.450	-0.030	0.074
-238.888	800.000	0.106	-0.409
-237.873	132.971	-0.107	-0.136
-236.859	-18.361	0.283	-0.174
-235.844	-49.753	-0.167	0.078
-234.830	-200.000	0.063	0.295
-233.815	-117.505	-0.247	-0.044
-232.800	800.000	0.050	-0.161
-231.786	268.321	0.163	0.280
-230.771	-200.000	0.008	-0.111
-229.757	-38.242	0.274	-0.143
-228.742	449.724	-0.130	-0.281
-227.727	-81.974	0.444	-0.142
-226.713	-200.000	0.031	-0.546
-225.698	-17.117	0.131	0.081
-224.684	11.987	0.154	0.116
-223.669	226.259	0.084	-0.133
-222.655	19.571	-0.282	-0.223
-221.640	65.705	0.073	-0.072
-220.625	436.298	0.099	-0.211
-219.611	147.994	-0.072	0.095
-218.596	-47.783	-0.372	-0.177
-217.582	800.000	0.130	-0.438
-216.567	-43.719	0.137	0.068
-215.552	-140.600	0.329	-0.033
-214.538	175.982	0.109	0.156
-213.523	77.062	0.148	0.154
-212.509	252.681	0.315	0.527
-211.494	800.000	-0.047	0.181
-210.479	727.508	-0.175	-0.459
-209.465	-200.000	0.008	0.195
-208.450	-200.000	0.000	-0.119
-207.436	347.680	-0.063	-0.122
-206.421	-200.000	-0.018	0.298
-205.406	-188.225	-0.280	-0.003
-204.392	299.669	-0.182	0.329
-203.377	-132.248	-0.164	-0.021
-202.363	346.054	0.011	0.022
-201.348	-200.000	-0.030	-0.204
-200.333	-135.754	-0.349	0.041
-199.319	-200.000	-0.021	0.251
-198.304	-200.000	-0.021	0.241
-197.290	-183.265	-0.263	0.005
-196.275	-200.000	0.071	-0.317
-195.260	800.000	-0.077	-0.272
-194.246	-200.000	-0.010	0.408
-193.231	8.075	0.306	-0.225
-192.217	-89.782	0.492	-0.141
-191.202	332.248	-0.118	-0.224
-190.187	57.152	0.152	-0.146
-189.173	121.496	0.158	-0.193
-188.158	-176.576	0.171	-0.004
-187.144	341.382	0.013	-0.024
-186.129	-27.353	-0.321	0.183
-185.114	-94.485	0.140	0.038
-184.100	-172.921	-0.318	-0.010
-183.085	-16.031	-0.164	0.102
-182.071	800.000	0.067	0.223
-181.056	-96.844	0.258	-0.066
-180.042	800.000	-0.035	0.119
-179.027	-200.000	-0.011	0.162
-178.012	-200.000	0.058	0.265
-176.998	-78.171	0.494	0.166
-175.983	800.000	0.126	-0.358
-174.969	800.000	-0.088	0.330
-173.954	-200.000	-0.010	-0.183
-172.939	-61.766	0.318	-0.131
-171.925	-46.832	-0.180	-0.086
-170.910	-31.830	0.286	0.157
-169.896	-128.089	-0.232	-0.033
-168.881	-91.584	0.273	-0.076
-167.866	-87.841	0.279	-0.082
-166.852	-200.000	-0.011	-0.340
-165.837	-200.000	-0.004	0.306
-164.823	-137.144	0.118	0.013
-163.808	-11.548	0.315	-0.203
-162.793	800.000	-0.151	-0.464
-161.779	800.000	-0.041	0.145
-160.764	-98.177	-0.212	-0.053
-159.750	36.611	-0.092	0.079
-158.735	-20.747	-0.174	-0.104
-157.720	-200.000	0.022	-0.268
-156.706	-200.000	-0.035	0.361
-155.691	800.000	-0.065	0.276
-154.677	-45.037	-0.274	0.134
-153.662	-200.000	0.028	0.135
-152.647	198.159	0.124	-0.185
-151.633	-200.000	-0.057	0.466
-150.618	37.024	0.195	-0.169
-149.604	-127.195	-0.293	-0.042
-148.589	48.095	0.239	-0.219
-147.574	51.147	-0.079	0.073
-146.560	-36.028	-0.178	0.094
-145.545	-151.712	-0.128	-0.009
-144.531	94.076	0.219	0.243
-143.516	689.845	0.115	-0.296
-142.502	-147.272	0.320	0.027
-141.487	44.788	-0.203	-0.183
-140.472	273.795	0.331	0.573
-139.458	98.552	-0.057	-0.064
-138.443	-19.401	0.192	0.116
-137.429	-179.785	0.226	-0.005
-136.414	-77.138	-0.308	-0.105
-135.399	-200.000	-0.057	-0.253
-134.385	266.768	0.063	0.109
-133.370	800.000	-0.089	0.274
-132.356	-200.000	0.043	0.280
-131.341	789.577	-0.082	-0.221
-130.326	64.113	-0.149	-0.146
-129.312	-45.871	0.163	-0.079
-128.297	55.352	-0.264	-0.250
-127.283	800.000	-0.051	-0.184
-126.268	800.000	0.052	0.141
-125.253	-200.000	-0.013	0.066
-124.239	434.516	-0.078	0.165
-123.224	96.027	-0.253	-0.283
-122.210	-200.000	-0.026	0.144
-121.195	-102.289	0.358	0.084
