DTS Sentinel unit serial number:	SN413079Multiplexer serial number:	ORYXHardware model number:	OX4-SRSoftware version number:	ORYX F/W v4.00 Oryx Data Collector v3.7.2.0data status	okinstallation	princeton_trtdifferential loss correction	single-endedforward channel	channel 1reverse channel	N/Adate	2019/09/12time	22:58:35forward acquisition time	60.00reverse acquisition time	0.00gamma	496.2192k internal	0.2327k external	0.2327temperature offset calibration	1.0151default loss term (dB/km)	0.3790temperature slope calibration	1.0000multiplexer offset coefficient	1.0000multiplexer slope coefficient	1.0000fibre end	0.00T internal ref (°C)	29.34T ext. ref 1 (°C)	3.74T ext. ref 2 (°C)	23.92length (m)	temperature (°C)	Stokes	anti-Stokes-747.200	-200.000	-0.082	-0.406
-746.185	-83.388	-0.187	-0.060
-745.171	87.266	0.128	0.143
-744.156	4.827	0.286	0.212
-743.142	800.000	-0.043	0.185
-742.127	64.253	-0.193	0.196
-741.112	-115.884	-0.163	0.031
-740.098	304.144	-0.020	0.037
-739.083	-10.285	0.247	0.165
-738.069	-200.000	-0.019	0.490
-737.054	-18.872	-0.190	0.119
-736.039	65.342	0.120	-0.122
-735.025	-46.860	-0.120	0.059
-734.010	-48.744	-0.265	-0.128
-732.996	152.771	0.158	-0.217
-731.981	-140.303	0.061	-0.006
-730.966	-188.728	-0.221	0.003
-729.952	-95.582	0.299	-0.081
-728.937	35.582	0.034	-0.030
-727.923	-95.625	-0.096	-0.026
-726.908	-23.328	-0.186	-0.113
-725.894	-131.674	-0.027	-0.004
-724.879	641.576	0.060	-0.155
-723.864	800.000	0.043	0.168
-722.850	155.793	-0.126	0.175
-721.835	206.386	-0.076	-0.119
-720.821	94.410	-0.041	0.047
-719.806	-80.728	0.321	-0.108
-718.791	121.635	0.103	-0.130
-717.777	-10.036	-0.327	0.219
-716.762	-97.567	-0.050	0.013
-715.748	162.185	-0.081	0.115
-714.733	92.395	-0.109	-0.124
-713.718	-200.000	0.012	-0.116
-712.704	155.455	-0.127	0.176
-711.689	-200.000	0.003	0.154
-710.675	114.081	0.136	-0.167
-709.660	-35.795	0.117	-0.064
-708.645	-5.044	0.183	-0.127
-707.631	42.050	-0.184	-0.168
-706.616	-93.998	0.037	0.010
-705.602	220.760	-0.029	-0.046
-704.587	-200.000	-0.066	-0.322
-703.572	576.962	0.142	0.349
-702.558	92.402	-0.181	-0.205
-701.543	-60.840	0.157	0.067
-700.529	-32.896	-0.123	-0.069
-699.514	-131.790	-0.185	-0.024
-698.499	107.812	0.291	0.349
-697.485	800.000	0.040	0.137
-696.470	-5.957	0.055	0.038
-695.456	9.656	0.162	-0.123
-694.441	-46.887	0.360	-0.177
-693.426	-150.133	-0.324	0.025
-692.412	276.787	0.188	-0.337
-691.397	33.816	-0.316	-0.276
-690.383	-41.552	-0.192	-0.099
-689.368	-25.444	-0.229	-0.136
-688.354	-138.826	-0.292	0.032
-687.339	800.000	-0.095	0.314
-686.324	166.451	-0.146	0.208
-685.310	-130.190	-0.233	-0.032
-684.295	33.567	0.177	0.155
-683.281	-200.000	-0.026	0.233
-682.266	800.000	0.100	-0.339
-681.251	-17.956	-0.222	-0.140
-680.237	60.032	0.141	-0.140
-679.222	666.038	-0.018	0.046
-678.208	9.927	-0.070	0.054
-677.193	-136.566	-0.177	-0.021
-676.178	128.446	-0.041	-0.053
-675.164	126.354	0.190	-0.241
-674.149	-30.807	-0.121	-0.069
-673.135	-51.643	-0.200	-0.094
-672.120	437.161	0.135	-0.295
-671.105	-75.316	0.345	0.124
-670.091	146.687	0.081	-0.109
-669.076	94.319	-0.077	0.088
-668.062	496.520	-0.114	-0.263
-667.047	-13.743	-0.156	-0.102
-666.032	-84.343	0.308	0.098
-665.018	-80.548	0.160	0.053
-664.003	-67.748	0.141	-0.055
-662.989	-72.236	0.236	-0.088
-661.974	-39.531	0.218	0.115
-660.959	-62.579	0.291	0.121
-659.945	523.174	-0.141	0.334
-658.930	-136.173	-0.201	0.024
-657.916	-122.772	0.326	-0.053
-656.901	329.622	0.151	-0.292
-655.886	-200.000	-0.018	0.104
-654.872	-10.892	-0.320	-0.212
-653.857	-87.510	0.132	0.040
-652.843	476.068	0.076	-0.173
-651.828	-101.278	-0.017	-0.004
-650.814	-63.445	-0.176	0.073
-649.799	-34.159	-0.122	0.068
-648.784	-1.121	-0.168	0.120
-647.770	-200.000	0.026	0.175
-646.755	-200.000	-0.000	-0.186
-645.741	-200.000	-0.015	0.367
-644.726	644.172	0.061	0.157
-643.711	-200.000	-0.012	-0.075
-642.697	-45.613	-0.258	0.128
-641.682	106.097	0.125	-0.149
-640.668	800.000	-0.018	0.062
-639.653	74.928	0.160	0.169
-638.638	-98.869	-0.148	0.038
-637.624	61.158	0.049	-0.049
-636.609	-200.000	-0.028	0.155
-635.595	26.796	-0.206	0.173
-634.580	163.490	0.212	0.300
-633.565	436.435	-0.045	0.099
-632.551	-181.417	0.264	-0.005
-631.536	-24.631	0.185	-0.111
-630.522	-200.000	-0.005	-0.038
-629.507	-18.761	-0.151	0.095
-628.492	-200.000	-0.021	0.092
-627.478	-200.000	0.045	-0.296
-626.463	-26.359	0.241	-0.142
-625.449	-200.000	0.008	0.046
-624.434	800.000	-0.027	0.085
-623.419	-200.000	0.037	-0.276
-622.405	-13.148	-0.299	-0.195
-621.390	-89.915	-0.220	-0.064
-620.376	610.289	-0.070	0.176
-619.361	-200.000	0.047	-0.288
-618.346	-96.804	0.124	-0.033
-617.332	-112.050	0.220	0.044
-616.317	800.000	-0.086	-0.301
-615.303	286.530	0.189	-0.342
-614.288	-89.650	0.169	0.050
-613.273	-1.623	0.142	0.101
-612.259	600.918	-0.062	0.155
-611.244	-103.891	-0.188	0.044
-610.230	195.866	0.053	-0.081
-609.215	-42.393	-0.279	-0.143
-608.201	-200.000	0.014	-0.130
-607.186	3.476	-0.083	-0.061
-606.171	-128.281	0.461	0.066
-605.157	-37.829	0.310	0.166
-604.142	-10.179	0.038	-0.026
-603.128	106.890	0.218	-0.260
-602.113	-123.175	0.200	-0.032
-601.098	-120.072	0.282	0.048
-600.084	218.943	-0.030	0.048
-599.069	93.204	-0.315	0.357
-598.055	-118.525	0.402	0.071
-597.040	-86.193	-0.345	-0.107
-596.025	-6.528	-0.091	0.062
-595.011	-50.446	0.120	-0.057
-593.996	-11.906	0.127	0.083
-592.982	245.001	0.049	0.083
-591.967	3.996	-0.288	-0.211
-590.952	-132.061	0.271	-0.035
-589.938	96.868	-0.126	-0.145
-588.923	-149.747	0.037	-0.003
-587.909	182.764	-0.042	0.062
-586.894	-131.552	-0.173	0.023
-585.879	-80.396	0.248	0.083
-584.865	310.088	-0.121	-0.228
-583.850	-200.000	-0.000	-0.020
-582.836	-3.062	-0.140	0.098
-581.821	-90.619	0.232	0.067
-580.806	132.266	0.232	-0.299
-579.792	54.320	0.102	-0.098
-578.777	800.000	0.020	0.059
-577.763	240.844	-0.219	0.366
-576.748	128.275	0.238	-0.304
-575.733	16.415	-0.240	0.190
-574.719	-137.276	0.191	0.022
-573.704	-64.936	-0.316	-0.128
-572.690	150.372	0.143	-0.194
-571.675	138.700	0.054	0.071
-570.661	528.469	0.117	-0.276
-569.646	57.648	-0.166	0.163
-568.631	-200.000	0.017	0.080
-567.617	256.345	0.092	-0.158
-566.602	-43.607	0.109	0.055
-565.588	-139.470	-0.127	-0.014
-564.573	800.000	0.059	-0.199
-563.558	-200.000	-0.009	0.103
-562.544	98.807	-0.139	-0.160
-561.529	166.022	-0.057	-0.080
-560.515	-134.028	-0.249	0.031
-559.500	735.955	0.117	0.314
-558.485	266.155	0.059	0.103
-557.471	19.795	0.221	-0.178
-556.456	-141.724	-0.111	0.011
-555.442	32.256	0.207	0.179
-554.427	266.082	0.147	0.257
-553.412	247.806	-0.058	-0.098
-552.398	18.337	0.186	0.149
-551.383	267.508	0.135	0.237
-550.369	86.912	0.038	-0.042
-549.354	-200.000	0.028	0.394
-548.339	-142.749	0.386	-0.038
-547.325	712.617	-0.039	-0.103
-546.310	800.000	0.028	0.097
-545.296	-200.000	0.013	-0.179
-544.281	-200.000	-0.046	-0.207
-543.266	-14.481	0.109	-0.070
-542.252	-70.360	-0.091	-0.034
-541.237	-73.112	0.341	-0.125
-540.223	482.961	-0.147	0.334
-539.208	135.054	0.058	0.075
-538.193	26.491	0.417	-0.349
-537.179	-24.393	-0.136	0.081
-536.164	286.030	-0.245	-0.442
-535.150	-49.191	-0.286	-0.137
-534.135	-200.000	0.025	0.174
-533.121	-200.000	-0.030	-0.258
-532.106	-200.000	0.052	0.300
-531.091	18.543	-0.376	-0.301
-530.077	-200.000	0.006	0.216
-529.062	-149.305	0.201	-0.016
-528.048	-200.000	-0.047	-0.518
-527.033	-181.207	-0.308	0.006
-526.018	-200.000	-0.004	-0.114
-525.004	491.319	-0.241	0.552
-523.989	800.000	0.100	0.342
-522.975	-200.000	-0.069	-0.510
-521.960	-17.561	0.120	0.075
-520.945	30.320	0.172	-0.147
-519.931	-73.823	0.114	0.041
-518.916	137.029	-0.093	-0.121
-517.902	-23.909	0.138	0.082
-516.887	718.892	0.126	0.335
-515.872	800.000	-0.031	0.098
-514.858	-200.000	-0.054	0.308
-513.843	-130.509	-0.272	0.037
-512.829	104.659	0.251	0.295
-511.814	-26.766	0.110	0.064
-510.799	-200.000	-0.002	0.130
-509.785	-133.750	-0.231	0.029
-508.770	-200.000	-0.056	-0.252
-507.756	58.373	-0.029	0.029
-506.741	-138.884	-0.161	0.018
-505.726	128.629	-0.108	-0.137
-504.712	41.186	0.113	-0.102
-503.697	-200.000	-0.026	-0.322
-502.683	-200.000	-0.057	-0.274
-501.668	-155.722	-0.291	0.019
-500.653	-28.913	0.196	0.112
-499.639	-200.000	-0.028	-0.213
-498.624	-43.705	0.130	-0.065
-497.610	-200.000	-0.004	0.097
-496.595	54.660	-0.067	-0.065
-495.581	-23.177	-0.112	-0.067
-494.566	-66.225	0.125	0.050
-493.551	-96.809	0.319	-0.084
-492.537	-116.545	-0.427	0.079
-491.522	283.901	-0.075	-0.134
-490.508	-200.000	0.006	0.058
-489.493	640.149	-0.094	-0.239
-488.478	-200.000	-0.009	-0.235
-487.464	-101.514	0.153	0.037
-486.449	-105.525	-0.238	0.054
-485.435	-200.000	0.030	0.187
-484.420	-200.000	0.011	0.314
-483.405	800.000	0.031	0.110
-482.391	-200.000	-0.033	0.283
-481.376	-151.334	-0.398	0.030
-480.362	-17.167	0.141	-0.089
-479.347	-51.953	-0.352	-0.163
-478.332	800.000	-0.121	-0.414
-477.318	42.028	0.110	0.100
-476.303	-15.894	-0.221	0.140
-475.289	505.042	-0.065	-0.151
-474.274	-59.125	-0.228	0.098
-473.259	1.554	-0.222	-0.159
-472.245	-200.000	-0.015	-0.117
-471.230	-177.771	0.262	0.006
-470.216	800.000	-0.063	0.213
-469.201	97.503	-0.033	0.037
-468.186	174.200	0.074	0.107
-467.172	-200.000	0.019	0.139
-466.157	-97.600	0.056	0.014
-465.143	-107.862	0.097	0.021
-464.128	-2.735	-0.254	-0.177
-463.113	800.000	-0.089	-0.336
-462.099	190.654	0.033	0.049
-461.084	165.119	0.169	-0.238
-460.070	-165.949	-0.188	0.008
-459.055	-200.000	0.013	-0.239
-458.040	-179.581	-0.348	-0.008
-457.026	-200.000	-0.023	0.544
-456.011	800.000	-0.116	0.322
-454.997	43.589	-0.197	0.180
-453.982	191.727	-0.252	-0.379
-452.968	37.636	-0.265	-0.235
-451.953	-200.000	0.023	-0.115
-450.938	46.857	0.258	-0.239
-449.924	800.000	-0.118	-0.405
-448.909	-79.952	0.134	0.045
-447.895	-120.997	-0.195	0.033
-446.880	-13.125	0.043	-0.028
-445.865	270.233	0.060	-0.104
-444.851	-116.964	-0.170	-0.031
-443.836	95.036	0.100	0.114
-442.822	107.144	0.078	0.093
-441.807	102.964	0.171	-0.199
-440.792	-61.646	-0.118	0.049
-439.778	447.600	0.119	-0.261
-438.763	174.237	-0.268	0.386
-437.749	289.558	0.022	0.040
-436.734	-128.536	-0.156	-0.022
-435.719	-153.070	-0.460	-0.032
-434.705	-53.415	0.070	-0.032
-433.690	-200.000	-0.011	-0.174
-432.676	-19.837	-0.074	-0.046
-431.661	102.746	-0.242	-0.283
-430.646	83.349	0.054	0.059
-429.632	-57.868	0.084	-0.037
-428.617	344.659	0.057	-0.111
-427.603	-156.694	0.241	-0.015
-426.588	17.554	-0.035	-0.028
-425.573	134.420	-0.068	-0.088
-424.559	-81.019	0.192	0.063
-423.544	259.344	0.090	-0.155
-422.530	523.849	0.118	-0.276
-421.515	122.566	-0.052	0.065
-420.500	121.176	-0.045	-0.055
-419.486	-144.749	0.117	-0.011
-418.471	-47.462	-0.169	0.082
-417.457	-40.613	0.251	0.130
-416.442	-200.000	0.027	-0.285
-415.428	-97.347	-0.295	0.077
-414.413	96.408	-0.300	-0.342
-413.398	164.175	0.086	-0.120
-412.384	245.248	0.129	0.216
-411.369	21.957	0.150	-0.122
-410.355	-200.000	0.133	0.641
-409.340	800.000	0.033	-0.096
-408.325	323.041	-0.092	-0.175
-407.311	-48.328	0.336	-0.161
-406.296	195.900	-0.093	-0.140
-405.282	-200.000	-0.032	0.304
-404.267	-158.228	0.027	0.002
-403.252	588.039	0.117	-0.288
-402.238	122.423	-0.129	0.161
-401.223	-154.060	-0.363	-0.025
-400.209	168.879	-0.130	0.184
-399.194	-18.877	0.210	0.130
-398.179	-8.269	0.156	-0.105
-397.165	302.436	-0.012	-0.022
-396.150	10.836	0.111	-0.084
-395.136	231.859	-0.030	0.049
-394.121	800.000	-0.061	-0.216
-393.106	-200.000	0.070	-0.468
-392.092	-48.526	-0.221	-0.106
-391.077	-96.951	0.359	0.094
-390.063	-35.430	-0.341	-0.184
-389.048	-14.560	-0.212	-0.135
-388.033	-8.703	-0.336	-0.224
-387.019	-200.000	0.037	-0.252
-386.004	800.000	-0.027	0.084
-384.990	-200.000	0.007	0.090
-383.975	800.000	0.046	0.133
-382.960	210.502	0.060	0.094
-381.946	135.313	-0.183	0.237
-380.931	-166.333	0.142	-0.006
-379.917	-200.000	0.064	-0.296
-378.902	800.000	-0.013	-0.038
-377.888	-174.497	0.159	-0.005
-376.873	161.252	0.057	0.079
-375.858	-165.330	0.053	-0.002
-374.844	-200.000	0.008	0.163
-373.829	-102.238	-0.234	0.056
-372.815	74.006	0.111	0.116
-371.800	9.955	0.106	-0.080
-370.785	-200.000	-0.026	0.277
-369.771	7.654	0.234	-0.174
-368.756	-107.639	0.127	-0.028
-367.742	-75.647	0.066	-0.023
-366.727	-128.807	0.418	-0.059
-365.712	10.977	0.075	0.057
-364.698	107.841	0.037	-0.044
-363.683	-200.000	0.083	0.627
-362.669	-200.000	-0.012	-0.102
-361.654	500.143	-0.045	0.104
-360.639	19.995	-0.224	-0.180
-359.625	237.047	-0.154	-0.253
-358.610	208.628	0.142	-0.220
-357.596	-200.000	-0.007	0.204
-356.581	700.204	0.048	0.125
-355.566	-6.988	0.092	0.062
-354.552	-200.000	-0.077	0.340
-353.537	173.404	0.086	0.123
-352.523	322.714	-0.036	0.068
-351.508	-200.000	-0.018	0.152
-350.493	-200.000	0.034	0.214
-349.479	-137.709	-0.390	0.043
-348.464	35.534	-0.199	-0.173
-347.450	-157.554	0.124	0.007
-346.435	285.943	0.104	-0.186
-345.420	-92.338	0.346	-0.097
-344.406	-101.296	0.181	-0.044
-343.391	800.000	0.043	0.155
-342.377	-17.437	-0.291	0.182
-341.362	-200.000	0.045	0.213
-340.348	44.584	-0.182	0.166
-339.333	14.357	0.267	0.207
-338.318	-88.936	0.285	-0.084
-337.304	800.000	0.035	0.113
-336.289	-14.882	-0.064	0.041
-335.275	756.266	-0.039	-0.105
-334.260	88.934	-0.197	0.218
-333.245	190.414	-0.102	-0.152
-332.231	157.101	0.254	-0.348
-331.216	245.039	-0.044	-0.074
-330.202	-178.075	0.215	0.005
-329.187	92.510	-0.166	0.186
-328.172	15.691	-0.130	-0.101
-327.158	112.315	0.062	0.074
-326.143	143.028	-0.253	-0.333
-325.129	-7.168	0.178	-0.120
-324.114	190.831	0.152	-0.227
-323.099	333.584	-0.140	-0.268
-322.085	408.620	0.161	0.338
-321.070	-68.841	-0.271	-0.104
-320.056	800.000	0.124	0.411
-319.041	65.198	0.066	-0.066
-318.026	226.115	-0.050	0.081
-317.012	324.830	-0.061	0.116
-315.997	-80.956	-0.367	0.120
-314.983	33.187	0.153	0.131
-313.968	-5.313	0.145	-0.098
-312.953	196.304	0.090	0.136
-311.939	-82.301	-0.055	-0.018
-310.924	84.539	-0.112	0.122
-309.910	-200.000	0.004	-0.106
-308.895	182.522	0.110	0.160
-307.880	312.862	-0.072	-0.134
-306.866	-48.655	0.273	-0.130
-305.851	132.404	0.239	0.305
-304.837	49.977	0.166	-0.156
-303.822	-200.000	0.034	0.338
-302.807	-88.079	0.328	0.097
-301.793	-175.751	-0.346	-0.009
-300.778	295.338	0.062	0.112
-299.764	800.000	-0.045	0.158
-298.749	-69.164	0.156	0.059
-297.735	115.324	-0.179	0.217
-296.720	800.000	0.048	0.165
-295.705	-134.880	0.176	-0.021
-294.691	632.617	-0.030	-0.075
-293.676	-123.678	-0.013	0.002
-292.662	575.090	0.016	0.039
-291.647	618.584	-0.040	0.099
-290.632	-181.121	0.221	0.004
-289.618	47.652	0.100	-0.093
-288.603	224.010	0.144	0.231
-287.589	-31.279	-0.123	0.068
-286.574	-74.828	0.103	0.036
-285.559	55.309	0.071	0.068
-284.545	192.324	-0.265	-0.396
-283.530	-83.482	-0.120	0.038
-282.516	117.403	0.101	0.123
-281.501	24.229	0.160	0.131
-280.486	800.000	0.075	0.251
-279.472	-122.437	0.298	-0.048
-278.457	-200.000	0.006	-0.052
-277.443	-200.000	0.029	-0.183
-276.428	-99.665	-0.092	-0.023
-275.413	-15.551	0.234	-0.148
-274.399	-149.272	0.349	-0.028
-273.384	59.660	-0.150	-0.146
-272.370	59.296	0.230	0.224
-271.355	-143.336	-0.365	-0.035
-270.340	-8.677	-0.259	-0.172
-269.326	24.946	0.413	-0.339
-268.311	173.866	0.147	0.210
-267.297	-166.790	-0.327	-0.013
-266.282	151.532	0.208	0.280
-265.267	426.827	0.103	0.219
-264.253	-30.269	-0.179	0.101
-263.238	500.694	0.064	0.147
-262.224	800.000	-0.217	0.761
-261.209	-200.000	0.047	0.400
-260.195	367.223	-0.069	-0.138
-259.180	180.135	-0.036	0.052
-258.165	-200.000	-0.038	0.221
-257.151	317.998	0.175	-0.327
-256.136	34.559	0.080	0.069
-255.122	-22.357	-0.096	-0.057
-254.107	-72.334	0.187	-0.069
-253.092	-86.573	0.263	0.080
-252.078	79.002	-0.045	0.048
-251.063	-156.543	0.374	-0.023
-250.049	-18.965	0.176	0.109
-249.034	17.516	-0.254	-0.200
-248.019	10.609	0.250	-0.189
-247.005	195.859	0.123	0.184
-245.990	-72.890	-0.091	-0.033
-244.976	-200.000	-0.015	0.215
-243.961	72.418	0.112	0.115
-242.946	-70.182	0.296	-0.111
-241.932	-200.000	-0.001	-0.205
-240.917	-92.964	-0.197	0.054
-239.903	-93.406	0.052	-0.014
-238.888	127.490	-0.195	0.244
-237.873	288.945	-0.076	-0.136
-236.859	-200.000	-0.023	-0.109
-235.844	-156.317	-0.258	0.016
-234.830	-19.608	0.259	-0.159
-233.815	-73.757	-0.252	-0.091
-232.800	239.564	-0.059	-0.097
-231.786	-200.000	0.003	0.397
-230.771	-97.177	-0.188	-0.048
-229.757	-200.000	0.032	-0.387
-228.742	25.512	-0.348	0.286
-227.727	-200.000	-0.061	-0.324
-226.713	23.526	0.299	-0.243
-225.698	-200.000	-0.056	0.354
-224.684	19.026	-0.133	0.105
-223.669	232.744	-0.163	-0.264
-222.655	-200.000	-0.014	-0.115
-221.640	-98.321	-0.195	0.049
-220.625	587.014	0.064	-0.155
-219.611	-200.000	-0.013	0.076
-218.596	-1.485	-0.319	-0.222
-217.582	-200.000	0.002	0.221
-216.567	729.127	-0.067	0.177
-215.552	-6.155	-0.369	-0.249
-214.538	438.782	0.116	-0.251
-213.523	-109.507	-0.343	0.072
-212.509	319.012	0.170	0.319
-211.494	337.792	-0.105	0.202
-210.479	-200.000	0.069	0.376
-209.465	800.000	-0.056	0.193
-208.450	800.000	-0.104	-0.307
-207.436	-200.000	-0.010	-0.097
-206.421	154.756	0.085	-0.116
-205.406	-94.199	0.340	0.092
-204.392	9.523	-0.318	-0.238
-203.377	-144.311	0.256	-0.024
-202.363	-33.453	-0.143	-0.078
-201.348	-21.388	-0.185	-0.112
-200.333	-134.255	0.145	-0.018
-199.319	-85.325	-0.149	0.046
-198.304	-200.000	0.019	0.117
-197.290	-22.196	-0.220	-0.132
-196.275	82.978	0.123	0.132
-195.260	-24.882	-0.122	0.072
-194.246	143.441	0.155	-0.203
-193.231	-200.000	0.006	0.283
-192.217	-17.686	-0.137	0.085
-191.202	1.198	0.206	0.146
-190.187	1.954	0.266	0.189
-189.173	119.698	-0.152	-0.186
-188.158	-27.744	0.126	0.072
-187.144	-200.000	0.006	-0.182
-186.129	-101.281	-0.187	-0.045
-185.114	-173.801	0.165	-0.005
-184.100	166.705	0.112	0.157
-183.085	116.399	-0.147	-0.177
-182.071	-200.000	-0.016	0.111
-181.056	38.116	-0.115	-0.101
-180.042	-200.000	0.040	-0.235
-179.027	425.035	0.045	-0.096
-178.012	-187.619	-0.045	-0.001
-176.998	-200.000	0.014	0.310
-175.983	-70.007	-0.190	0.071
-174.969	2.664	0.112	0.080
-173.954	10.974	-0.195	-0.147
-172.939	-23.423	-0.116	0.068
-171.925	-181.717	0.406	-0.008
-170.910	-136.069	-0.247	-0.029
-169.896	274.569	-0.072	-0.126
-168.881	39.457	-0.166	-0.147
-167.866	-200.000	-0.012	-0.074
-166.852	-173.692	0.194	0.006
-165.837	449.186	-0.103	0.224
-164.823	499.212	0.093	-0.211
-163.808	371.199	0.070	0.139
-162.793	-200.000	0.032	0.159
-161.779	-156.061	0.090	-0.006
-160.764	-98.468	0.128	0.032
-159.750	-65.858	-0.181	-0.071
-158.735	-200.000	0.005	0.064
-157.720	24.434	0.122	0.099
-156.706	522.675	0.101	-0.233
-155.691	-140.449	-0.217	0.022
-154.677	-43.944	0.027	0.013
-153.662	-66.216	0.089	-0.035
-152.647	93.210	-0.171	-0.190
-151.633	409.453	-0.118	-0.246
-150.618	-161.342	-0.208	0.011
-149.604	-200.000	-0.020	0.095
-148.589	-118.888	0.282	0.049
-147.574	-10.047	-0.276	-0.181
-146.560	800.000	0.057	0.167
-145.545	-58.359	-0.169	-0.072
-144.531	154.316	-0.103	-0.139
-143.516	-200.000	0.005	-0.127
-142.502	-48.174	-0.152	-0.072
-141.487	-3.017	0.148	0.102
-140.472	-73.464	-0.153	0.055
-139.458	-81.480	0.167	-0.054
-138.443	73.725	0.295	-0.304
-137.429	800.000	0.029	-0.109
-136.414	24.272	-0.083	-0.067
-135.399	-150.543	0.280	-0.021
-134.385	-200.000	-0.014	-0.099
-133.370	800.000	0.082	-0.263
-132.356	279.530	0.115	-0.203
-131.341	-2.611	0.216	-0.149
-130.326	718.657	0.098	-0.256
-129.312	-136.899	0.242	0.027
-128.297	348.712	0.123	-0.239
-127.283	-21.502	-0.321	0.192
-126.268	67.851	-0.243	-0.244
-125.253	312.252	0.157	-0.290
-124.239	312.068	-0.117	0.215
-123.224	-96.467	0.296	0.077
-122.210	-200.000	-0.020	-0.163
-121.195	-18.686	0.362	-0.222
