DTS Sentinel unit serial number:	SN413079Multiplexer serial number:	ORYXHardware model number:	OX4-SRSoftware version number:	ORYX F/W v4.00 Oryx Data Collector v3.7.2.0data status	okinstallation	princeton_trtdifferential loss correction	single-endedforward channel	channel 1reverse channel	N/Adate	2019/09/15time	09:18:35forward acquisition time	60.00reverse acquisition time	0.00gamma	496.2192k internal	0.2312k external	0.2312temperature offset calibration	0.9977default loss term (dB/km)	0.3790temperature slope calibration	1.0000multiplexer offset coefficient	1.0000multiplexer slope coefficient	1.0000fibre end	0.00T internal ref (°C)	33.41T ext. ref 1 (°C)	4.95T ext. ref 2 (°C)	30.57length (m)	temperature (°C)	Stokes	anti-Stokes-747.200	-200.000	-0.004	-0.091
-746.185	66.866	-0.075	0.077
-745.171	800.000	-0.036	0.145
-744.156	111.340	0.109	0.133
-743.142	66.008	-0.016	0.016
-742.127	294.901	0.091	0.169
-741.112	636.038	-0.092	-0.237
-740.098	232.207	-0.007	0.011
-739.083	800.000	0.049	0.143
-738.069	-200.000	0.051	0.241
-737.054	-154.495	-0.244	0.017
-736.039	-200.000	0.002	0.062
-735.025	-112.688	0.113	0.023
-734.010	-19.979	-0.173	-0.109
-732.996	720.348	-0.066	-0.179
-731.981	89.658	-0.151	-0.171
-730.966	749.119	-0.041	0.111
-729.952	-116.294	0.267	-0.050
-728.937	-40.780	-0.067	-0.035
-727.923	70.067	0.132	-0.138
-726.908	536.970	0.078	0.187
-725.894	-200.000	0.002	-0.073
-724.879	145.591	-0.180	-0.245
-723.864	714.803	-0.116	0.312
-722.850	-200.000	-0.040	0.195
-721.835	-138.298	0.198	0.022
-720.821	-69.615	0.420	0.163
-719.806	292.079	0.136	0.250
-718.791	-106.128	0.182	0.041
-717.777	-81.522	0.141	-0.047
-716.762	-55.690	-0.266	-0.121
-715.748	85.226	-0.118	0.131
-714.733	24.031	0.065	0.055
-713.718	-37.269	-0.146	0.079
-712.704	800.000	-0.057	0.176
-711.689	520.447	-0.016	-0.037
-710.675	-66.411	-0.202	-0.081
-709.660	58.377	0.111	-0.110
-708.645	-200.000	0.043	0.326
-707.631	28.557	0.239	-0.204
-706.616	440.875	0.030	-0.066
-705.602	-63.107	-0.227	-0.095
-704.587	243.144	0.017	-0.028
-703.572	316.886	-0.037	-0.071
-702.558	-91.883	-0.138	-0.040
-701.543	-200.000	0.008	0.113
-700.529	-200.000	-0.002	0.337
-699.514	155.438	0.170	0.237
-698.499	147.788	-0.128	-0.175
-697.485	252.158	0.235	-0.405
-696.470	-3.174	0.097	0.068
-695.456	245.032	-0.062	0.106
-694.441	-71.166	0.341	-0.130
-693.426	-52.503	-0.219	-0.102
-692.412	-27.837	0.154	-0.091
-691.397	147.825	0.050	0.068
-690.383	603.260	-0.034	-0.087
-689.368	-65.874	-0.220	0.089
-688.354	800.000	0.130	-0.388
-687.339	17.576	0.219	0.176
-686.324	11.837	0.140	0.109
-685.310	121.894	0.111	0.140
-684.295	96.079	0.050	0.058
-683.281	-45.119	-0.069	-0.035
-682.266	800.000	0.125	-0.429
-681.251	383.027	0.185	-0.386
-680.237	76.817	-0.199	-0.214
-679.222	-200.000	-0.003	-0.078
-678.208	-7.826	-0.142	0.097
-677.193	456.597	-0.108	-0.243
-676.178	-44.375	0.301	0.152
-675.164	33.662	0.136	0.120
-674.149	-200.000	-0.028	-0.145
-673.135	713.494	-0.045	0.122
-672.120	52.009	0.083	0.080
-671.105	-94.847	0.331	-0.091
-670.091	-103.414	-0.363	-0.087
-669.076	145.992	0.106	0.143
-668.062	81.709	0.230	0.252
-667.047	365.611	0.035	-0.071
-666.032	94.337	0.125	-0.143
-665.018	405.495	0.144	-0.307
-664.003	-30.760	-0.147	-0.084
-662.989	-176.244	-0.209	0.006
-661.974	324.662	0.079	0.152
-660.959	-200.000	0.005	0.064
-659.945	558.572	0.065	0.158
-658.930	800.000	-0.117	-0.507
-657.916	-114.328	0.045	-0.009
-656.901	-200.000	0.031	-0.220
-655.886	-153.017	-0.107	0.008
-654.872	-200.000	-0.022	0.272
-653.857	-8.196	-0.207	-0.141
-652.843	2.591	-0.063	-0.046
-651.828	-11.697	-0.159	-0.106
-650.814	-200.000	0.011	0.073
-649.799	264.192	-0.037	-0.065
-648.784	-53.820	0.457	-0.211
-647.770	659.878	-0.037	-0.097
-646.755	-88.124	0.333	0.101
-645.741	-173.511	-0.339	0.010
-644.726	19.483	-0.078	-0.064
-643.711	-200.000	0.013	-0.243
-642.697	-93.741	-0.166	0.046
-641.682	800.000	0.047	-0.193
-640.668	800.000	-0.082	0.233
-639.653	-111.528	-0.461	0.095
-638.638	164.760	0.063	-0.089
-637.624	-122.497	0.053	0.009
-636.609	221.801	0.116	0.189
-635.595	800.000	0.030	-0.120
-634.580	-76.837	-0.293	0.104
-633.565	56.393	0.231	-0.227
-632.551	-74.680	-0.183	-0.067
-631.536	800.000	0.123	-0.355
-630.522	-200.000	0.039	-0.219
-629.507	596.128	-0.023	0.058
-628.492	41.788	-0.137	-0.125
-627.478	800.000	0.100	0.408
-626.463	115.452	-0.170	-0.209
-625.449	356.636	-0.083	-0.167
-624.434	800.000	-0.042	-0.149
-623.419	284.916	-0.163	0.296
-622.405	-63.470	-0.174	-0.072
-621.390	171.599	-0.165	0.240
-620.376	-200.000	0.010	-0.088
-619.361	800.000	0.092	0.374
-618.346	-194.895	-0.149	-0.001
-617.332	-149.874	0.202	-0.016
-616.317	800.000	0.153	0.554
-615.303	19.544	-0.069	-0.056
-614.288	-59.843	0.184	0.080
-613.273	12.848	0.115	-0.090
-612.259	800.000	-0.065	-0.275
-611.244	-40.883	-0.381	-0.199
-610.230	-112.962	-0.232	0.046
-609.215	247.823	-0.122	0.208
-608.201	568.971	-0.053	0.130
-607.186	800.000	-0.058	0.197
-606.171	-200.000	0.011	-0.054
-605.157	20.052	0.037	-0.030
-604.142	128.610	-0.276	-0.355
-603.128	800.000	0.078	-0.296
-602.113	-58.231	-0.296	-0.130
-601.098	-181.955	0.051	-0.001
-600.084	333.025	0.058	0.113
-599.069	502.870	-0.159	0.371
-598.055	-78.178	0.415	0.144
-597.040	27.328	0.232	-0.197
-596.025	-21.428	-0.056	-0.034
-595.011	98.057	0.119	-0.138
-593.996	100.625	-0.091	0.106
-592.982	-200.000	-0.016	0.126
-591.967	405.393	0.064	0.135
-590.952	-19.519	0.042	-0.026
-589.938	653.207	0.109	0.281
-588.923	492.694	0.084	-0.193
-587.909	-60.924	-0.159	0.068
-586.894	-40.950	-0.104	-0.054
-585.879	46.800	-0.503	-0.471
-584.865	58.976	-0.138	-0.136
-583.850	-155.137	-0.102	0.007
-582.836	-97.909	-0.266	0.069
-581.821	-200.000	0.029	-0.274
-580.806	-156.599	0.365	-0.023
-579.792	242.260	0.339	-0.572
-578.777	5.552	-0.332	0.247
-577.763	-111.173	0.624	0.129
-576.748	-200.000	0.027	0.271
-575.733	-65.227	-0.186	-0.075
-574.719	135.064	-0.087	0.114
-573.704	-200.000	0.018	-0.093
-572.690	-127.058	-0.312	-0.046
-571.675	-200.000	-0.066	0.401
-570.661	133.820	-0.177	0.230
-569.646	-200.000	0.008	-0.253
-568.631	-100.008	0.279	0.070
-567.617	290.597	-0.190	-0.348
-566.602	-200.000	0.012	-0.210
-565.588	-26.407	-0.210	-0.124
-564.573	-200.000	-0.023	-0.180
-563.558	800.000	0.126	0.396
-562.544	-200.000	0.022	-0.116
-561.529	-75.359	-0.288	0.103
-560.515	71.729	-0.054	0.057
-559.500	34.760	-0.078	-0.069
-558.485	626.617	-0.091	0.232
-557.471	-77.358	0.051	0.018
-556.456	-123.314	-0.213	-0.034
-555.442	336.369	-0.033	0.064
-554.427	-118.851	-0.230	0.041
-553.412	-200.000	0.014	0.093
-552.398	-104.416	0.193	0.045
-551.383	800.000	-0.061	0.257
-550.369	-85.577	-0.140	0.044
-549.354	-91.713	0.019	0.005
-548.339	221.684	0.143	-0.232
-547.325	-101.707	-0.097	-0.024
-546.310	280.274	0.126	-0.226
-545.296	510.642	0.066	0.155
-544.281	191.507	0.088	-0.134
-543.266	469.333	0.155	0.351
-542.252	-200.000	0.010	0.070
-541.237	100.241	-0.123	-0.144
-540.223	17.865	-0.133	0.107
-539.208	-52.315	-0.228	-0.106
-538.193	-200.000	-0.004	0.505
-537.179	-172.976	-0.476	-0.015
-536.164	385.278	-0.025	-0.053
-535.150	262.974	0.075	0.131
-534.135	-152.241	0.144	-0.010
-533.121	-93.966	-0.084	-0.023
-532.106	-200.000	-0.015	-0.089
-531.091	753.383	-0.106	-0.287
-530.077	-98.651	-0.218	-0.056
-529.062	-114.398	0.181	0.035
-528.048	-16.316	0.216	0.138
-527.033	800.000	-0.083	-0.251
-526.018	-15.607	0.117	-0.075
-525.004	597.021	-0.094	-0.234
-523.989	-184.360	0.185	-0.003
-522.975	-37.342	0.201	-0.108
-521.960	-79.550	0.032	-0.011
-520.945	-126.393	-0.188	-0.028
-519.931	-42.934	0.060	-0.031
-518.916	156.992	0.155	-0.215
-517.902	-200.000	0.012	0.250
-516.887	47.095	0.132	0.124
-515.872	-11.837	0.085	0.056
-514.858	-79.652	-0.164	0.056
-513.843	800.000	0.043	0.166
-512.829	-75.815	-0.318	0.113
-511.814	100.902	0.135	0.158
-510.799	-149.043	0.481	-0.039
-509.785	173.851	-0.198	0.287
-508.770	-200.000	0.032	0.188
-507.756	138.858	0.083	-0.109
-506.741	347.973	0.087	-0.173
-505.726	-174.086	-0.094	-0.003
-504.712	800.000	-0.031	-0.133
-503.697	-84.135	-0.129	-0.041
-502.683	62.483	-0.046	-0.046
-501.668	800.000	-0.065	-0.285
-500.653	-75.028	0.157	-0.057
-499.639	-134.835	0.298	0.036
-498.624	-108.944	-0.069	0.015
-497.610	-62.941	0.139	-0.058
-496.595	317.959	-0.138	-0.262
-495.581	-200.000	0.014	0.096
-494.566	-97.642	-0.281	0.073
-493.551	102.418	0.184	0.216
-492.537	-200.000	-0.032	0.192
-491.522	-103.517	0.060	-0.014
-490.508	166.749	0.124	0.177
-489.493	198.274	0.142	-0.218
-488.478	505.522	-0.123	-0.286
-487.464	-5.611	0.157	0.108
-486.449	-135.891	-0.158	0.019
-485.435	-165.569	-0.304	0.013
-484.420	8.571	0.071	0.053
-483.405	-136.146	-0.108	0.013
-482.391	33.007	0.036	0.031
-481.376	-200.000	0.036	0.384
-480.362	73.833	0.159	-0.167
-479.347	-169.388	0.043	-0.002
-478.332	357.048	0.155	-0.310
-477.318	-101.845	-0.440	0.107
-476.303	800.000	0.187	-0.595
-475.289	800.000	0.042	0.141
-474.274	139.077	-0.176	0.232
-473.259	-135.646	-0.063	0.007
-472.245	130.548	0.122	0.157
-471.230	-56.265	-0.377	0.168
-470.216	800.000	-0.066	-0.211
-469.201	-12.829	0.100	0.065
-468.186	-200.000	-0.012	-0.185
-467.172	74.819	0.291	-0.308
-466.157	110.998	0.051	0.062
-465.143	-200.000	0.056	-0.333
-464.128	-200.000	0.011	-0.086
-463.113	800.000	0.109	0.303
-462.099	800.000	-0.041	0.172
-461.084	-200.000	-0.053	0.251
-460.070	80.975	0.305	0.330
-459.055	-200.000	-0.021	-0.507
-458.040	401.367	0.089	-0.188
-457.026	236.266	0.209	0.347
-456.011	-200.000	0.159	-0.001
-454.997	-37.589	-0.189	0.101
-453.982	-200.000	0.065	0.307
-452.968	800.000	-0.067	0.265
-451.953	-50.371	0.250	0.118
-450.938	-73.798	-0.344	0.126
-449.924	-80.026	0.080	0.027
-448.909	98.808	0.065	0.075
-447.895	-193.668	-0.264	0.002
-446.880	-38.298	-0.235	-0.125
-445.865	800.000	0.063	0.187
-444.851	-200.000	-0.056	0.264
-443.836	-10.164	-0.217	-0.144
-442.822	205.666	0.081	0.126
-441.807	253.623	0.099	-0.170
-440.792	315.072	0.138	-0.261
-439.778	102.432	-0.226	0.265
-438.763	-39.085	-0.209	0.110
-437.749	800.000	-0.058	0.198
-436.734	543.291	0.208	-0.498
-435.719	-17.194	-0.095	0.060
-434.705	226.485	0.103	-0.167
-433.690	-200.000	0.018	0.139
-432.676	-61.569	0.450	-0.190
-431.661	86.709	0.162	0.179
-430.646	-0.725	0.106	0.076
-429.632	800.000	-0.085	-0.329
-428.617	9.999	-0.109	0.083
-427.603	164.270	-0.160	0.226
-426.588	-101.862	0.236	0.057
-425.573	-72.275	0.112	0.042
-424.559	18.360	0.200	0.160
-423.544	108.640	-0.122	-0.147
-422.530	-200.000	-0.001	-0.082
-421.515	582.890	0.078	0.193
-420.500	-200.000	0.053	-0.252
-419.486	-57.097	0.199	-0.088
-418.471	119.594	-0.195	0.242
-417.457	800.000	-0.041	-0.161
-416.442	-31.915	0.134	-0.075
-415.428	159.721	-0.117	-0.163
-414.413	-200.000	-0.106	0.508
-413.398	-113.532	0.297	-0.058
-412.384	-8.918	-0.158	0.106
-411.369	-96.524	-0.217	-0.057
-410.355	-5.006	0.067	0.046
-409.340	-115.378	-0.020	-0.004
-408.325	29.722	0.258	-0.220
-407.311	31.563	-0.069	-0.060
-406.296	-84.922	0.137	-0.043
-405.282	-112.645	0.144	0.029
-404.267	-40.532	0.046	0.024
-403.252	-84.610	-0.131	0.041
-402.238	18.087	-0.026	-0.020
-401.223	-103.138	0.293	0.069
-400.209	93.179	-0.047	0.054
-399.194	10.393	-0.183	-0.139
-398.179	-24.361	0.103	-0.062
-397.165	-200.000	-0.045	0.385
-396.150	196.491	-0.066	0.101
-395.136	54.375	-0.194	0.187
-394.121	13.285	0.085	-0.066
-393.106	7.651	-0.204	-0.153
-392.092	45.965	0.127	-0.117
-391.077	521.870	0.101	0.237
-390.063	-42.071	-0.209	-0.107
-389.048	239.978	0.116	0.194
-388.033	-163.813	-0.245	0.011
-387.019	-120.605	-0.284	-0.048
-386.004	800.000	-0.044	0.130
-384.990	499.878	-0.077	0.179
-383.975	-200.000	0.044	0.212
-382.960	24.541	0.263	-0.218
-381.946	-94.236	0.216	-0.059
-380.931	3.719	0.189	-0.138
-379.917	37.049	0.301	-0.267
-378.902	-200.000	-0.016	-0.178
-377.888	-70.236	0.250	0.095
-376.873	66.644	0.084	0.085
-375.858	727.177	0.076	-0.202
-374.844	-200.000	0.007	0.092
-373.829	12.727	-0.203	0.157
-372.815	344.730	-0.154	0.303
-371.800	48.939	-0.227	0.213
-370.785	800.000	0.054	0.193
-369.771	59.001	0.154	0.152
-368.756	-40.085	-0.179	0.093
-367.742	-157.069	0.184	-0.011
-366.727	-33.853	0.044	-0.024
-365.712	-200.000	0.006	-0.075
-364.698	-71.543	-0.162	-0.060
-363.683	800.000	-0.073	-0.281
-362.669	-61.179	-0.185	-0.078
-361.654	52.379	0.228	-0.217
-360.639	186.733	0.169	0.252
-359.625	35.098	0.069	0.061
-358.610	-37.533	-0.015	0.008
-357.596	-152.151	0.351	-0.025
-356.581	233.843	0.071	0.117
-355.566	-200.000	0.064	-0.472
-354.552	-23.223	0.289	0.174
-353.537	126.545	0.055	0.070
-352.523	-136.577	0.028	-0.003
-351.508	136.779	0.065	0.084
-350.493	25.626	-0.140	0.116
-349.479	59.485	-0.144	-0.142
-348.464	371.937	-0.027	0.054
-347.450	387.227	0.173	0.356
-346.435	-127.179	0.259	-0.038
-345.420	5.348	-0.271	-0.200
-344.406	47.043	0.176	0.164
-343.391	117.149	0.149	-0.183
-342.377	-200.000	0.020	-0.179
-341.362	-200.000	0.011	-0.258
-340.348	800.000	-0.088	0.375
-339.333	97.732	0.076	0.087
-338.318	-159.941	0.285	-0.016
-337.304	-121.502	-0.124	0.021
-336.289	-200.000	0.001	-0.034
-335.275	-31.651	-0.193	0.108
-334.260	-66.131	0.305	0.122
-333.245	119.904	-0.127	0.158
-332.231	-34.245	0.304	0.167
-331.216	62.543	-0.046	-0.046
-330.202	-62.078	-0.085	0.035
-329.187	-103.193	0.061	0.014
-328.172	-200.000	-0.041	-0.181
-327.158	800.000	-0.036	-0.112
-326.143	-65.518	-0.111	-0.045
-325.129	244.550	-0.128	0.215
-324.114	-110.396	-0.152	-0.031
-323.099	14.716	-0.091	0.071
-322.085	214.829	0.064	-0.101
-321.070	156.416	-0.244	0.336
-320.056	128.866	-0.137	0.175
-319.041	-100.269	-0.300	0.074
-318.026	-200.000	0.026	-0.199
-317.012	30.944	0.349	-0.299
-315.997	64.737	0.221	0.223
-314.983	-29.192	-0.153	0.087
-313.968	-117.807	-0.092	0.017
-312.953	209.510	-0.141	-0.220
-311.939	-88.562	0.503	-0.150
-310.924	-32.896	-0.184	-0.102
-309.910	406.899	0.043	-0.091
-308.895	-64.260	-0.054	0.022
-307.880	-110.972	0.225	0.046
-306.866	800.000	-0.044	0.172
-305.851	253.079	0.036	0.061
-304.837	35.712	-0.121	-0.106
-303.822	-72.545	0.159	0.059
-302.807	-173.858	-0.169	-0.005
-301.793	-200.000	-0.008	0.093
-300.778	-102.407	0.215	-0.051
-299.764	55.916	-0.116	-0.112
-298.749	-78.719	0.064	-0.022
-297.735	-70.618	0.202	-0.076
-296.720	-200.000	0.031	-0.334
-295.705	-200.000	-0.000	0.189
-294.691	561.157	-0.113	0.273
-293.676	298.276	0.176	0.322
-292.662	-83.235	0.253	-0.081
-291.647	-138.650	-0.173	0.019
-290.632	65.204	-0.259	-0.261
-289.618	-200.000	0.053	0.479
-288.603	-5.739	0.089	0.061
-287.589	18.592	-0.062	0.050
-286.574	-200.000	-0.033	0.198
-285.559	96.082	0.053	0.061
-284.545	307.643	-0.066	0.123
-283.530	-200.000	0.009	-0.165
-282.516	700.173	0.010	-0.025
-281.501	-85.620	0.273	0.085
-280.486	-113.355	-0.170	0.033
-279.472	-153.105	-0.161	-0.011
-278.457	-72.800	0.122	0.045
-277.443	47.862	0.280	0.260
-276.428	15.562	0.207	0.162
-275.413	-11.388	-0.250	-0.164
-274.399	15.601	-0.072	0.057
-273.384	-122.589	-0.309	-0.050
-272.370	131.996	0.122	0.157
-271.355	-89.453	-0.390	0.114
-270.340	-30.740	-0.463	-0.261
-269.326	-108.835	-0.377	0.080
-268.311	-82.745	-0.272	-0.088
-267.297	135.502	0.072	0.094
-266.282	57.105	0.171	0.166
-265.267	-200.000	-0.004	0.024
-264.253	69.478	0.230	-0.236
-263.238	338.691	-0.111	0.216
-262.224	550.411	0.069	0.165
-261.209	-200.000	0.039	-0.505
-260.195	800.000	0.111	-0.391
-259.180	800.000	0.061	-0.211
-258.165	-40.870	-0.313	0.161
-257.151	748.298	0.090	0.242
-256.136	-56.014	0.346	0.153
-255.122	-96.991	0.072	-0.019
-254.107	12.058	-0.217	0.166
-253.092	-51.841	0.426	-0.197
-252.078	-37.537	-0.043	-0.023
-251.063	432.470	-0.088	-0.190
-250.049	50.246	0.203	-0.191
-249.034	-142.462	-0.340	-0.033
-248.019	-68.494	0.089	-0.035
-247.005	68.011	-0.043	-0.044
-245.990	283.445	-0.148	0.264
-244.976	-5.192	0.247	-0.169
-243.961	70.323	-0.133	0.137
-242.946	-143.132	-0.268	-0.026
-241.932	178.322	0.149	-0.216
-240.917	1.688	0.239	-0.171
-239.903	34.260	0.216	0.187
-238.888	397.916	-0.026	0.054
-237.873	-139.199	0.218	0.023
-236.859	204.912	0.138	0.214
-235.844	57.585	-0.158	-0.154
-234.830	-101.155	0.405	-0.099
-233.815	90.648	-0.028	-0.031
-232.800	800.000	0.106	-0.356
-231.786	800.000	-0.090	0.277
-230.771	-200.000	-0.028	0.165
-229.757	546.309	0.044	-0.106
-228.742	-86.213	-0.241	0.074
-227.727	395.749	0.086	-0.178
-226.713	90.685	0.085	-0.095
-225.698	96.528	-0.209	-0.238
-224.684	-78.941	-0.086	-0.029
-223.669	-74.968	-0.194	-0.069
-222.655	-200.000	0.174	-0.001
-221.640	-147.292	0.298	0.025
-220.625	100.011	0.073	0.084
-219.611	23.900	-0.235	0.193
-218.596	800.000	-0.080	-0.248
-217.582	100.262	-0.172	0.198
-216.567	342.099	0.088	-0.170
-215.552	232.155	0.024	-0.040
-214.538	-200.000	-0.047	-0.317
-213.523	-200.000	-0.015	0.159
-212.509	-200.000	-0.009	-0.184
-211.494	532.600	0.185	-0.435
-210.479	266.090	-0.152	0.264
-209.465	495.701	-0.043	0.099
-208.450	-191.547	0.078	0.001
-207.436	-95.609	0.403	0.107
-206.421	800.000	0.051	-0.155
-205.406	-137.429	0.080	-0.009
-204.392	-200.000	0.012	0.079
-203.377	-163.914	-0.239	-0.011
-202.363	18.023	-0.145	-0.114
-201.348	-83.070	0.264	-0.084
-200.333	-54.833	0.125	0.056
-199.319	-11.283	-0.045	0.029
-198.304	42.676	-0.214	-0.193
-197.290	306.224	-0.058	-0.107
-196.275	-180.233	-0.355	-0.007
-195.260	-169.168	0.199	0.007
-194.246	143.607	0.141	-0.187
-193.231	85.414	-0.201	-0.219
-192.217	-200.000	0.002	-0.017
-191.202	554.115	-0.067	-0.159
-190.187	-57.873	-0.287	0.124
-189.173	800.000	0.155	0.523
-188.158	-142.172	0.353	-0.035
-187.144	143.592	0.363	-0.480
-186.129	-161.687	-0.143	-0.007
-185.114	206.246	-0.073	-0.113
-184.100	326.286	-0.060	-0.114
-183.085	-154.342	-0.355	-0.024
-182.071	-200.000	0.014	-0.105
-181.056	-123.439	-0.054	0.009
-180.042	-48.718	-0.111	0.053
-179.027	118.514	-0.229	0.280
-178.012	-128.915	-0.244	0.034
-176.998	37.890	-0.202	-0.178
-175.983	-198.571	0.270	0.002
-174.969	-200.000	0.028	-0.202
-173.954	-78.020	0.071	0.024
-172.939	-65.039	0.236	-0.094
-171.925	6.894	0.152	-0.113
-170.910	-68.871	-0.128	0.049
-169.896	79.382	-0.092	0.098
-168.881	226.922	-0.126	-0.203
-167.866	800.000	-0.077	-0.212
-166.852	658.673	-0.049	-0.126
-165.837	-176.593	0.228	0.006
-164.823	680.216	-0.079	0.205
-163.808	-175.635	-0.121	-0.003
-162.793	86.105	-0.060	-0.066
-161.779	-200.000	0.061	0.490
-160.764	-200.000	0.028	-0.201
-159.750	12.004	0.076	0.058
-158.735	-29.911	0.184	0.104
-157.720	136.256	-0.128	0.166
-156.706	356.953	0.068	-0.135
-155.691	-200.000	0.012	-0.151
-154.677	-82.307	0.203	-0.065
-153.662	-44.815	0.077	-0.038
-152.647	129.098	0.173	-0.218
-151.633	82.788	-0.130	0.140
-150.618	132.731	0.091	0.117
-149.604	800.000	0.112	0.331
-148.589	-200.000	0.260	0.001
-147.574	-96.224	-0.289	0.076
-146.560	-40.994	0.195	0.100
-145.545	-24.576	0.186	-0.110
-144.531	36.047	-0.144	-0.126
-143.516	-64.425	0.083	0.033
-142.502	120.541	-0.071	-0.088
-141.487	-134.595	-0.291	0.035
-140.472	-50.225	-0.082	0.038
-139.458	185.136	-0.073	0.108
-138.443	800.000	0.055	-0.226
-137.429	-200.000	-0.031	-0.151
-136.414	-200.000	0.044	0.318
-135.399	-104.906	-0.176	0.040
-134.385	-191.693	-0.417	-0.004
-133.370	-130.097	0.503	-0.068
-132.356	-104.990	0.020	-0.005
-131.341	88.653	-0.187	0.206
-130.326	-124.188	0.108	0.017
-129.312	285.085	-0.097	-0.173
-128.297	292.485	-0.309	-0.558
-127.283	-178.987	0.371	-0.008
-126.268	-200.000	0.017	-0.174
-125.253	371.598	-0.193	-0.387
-124.239	-150.338	0.270	-0.021
-123.224	286.209	0.083	0.149
-122.210	595.941	-0.144	-0.352
-121.195	800.000	0.097	0.339
