DTS Sentinel unit serial number:	SN413079Multiplexer serial number:	ORYXHardware model number:	OX4-SRSoftware version number:	ORYX F/W v4.00 Oryx Data Collector v3.7.2.0data status	okinstallation	princeton_trtdifferential loss correction	single-endedforward channel	channel 1reverse channel	N/Adate	2019/09/15time	02:06:35forward acquisition time	60.00reverse acquisition time	0.00gamma	496.2192k internal	0.2322k external	0.2322temperature offset calibration	0.9986default loss term (dB/km)	0.3790temperature slope calibration	1.0000multiplexer offset coefficient	1.0000multiplexer slope coefficient	1.0000fibre end	0.00T internal ref (°C)	31.69T ext. ref 1 (°C)	4.55T ext. ref 2 (°C)	26.43length (m)	temperature (°C)	Stokes	anti-Stokes-747.200	60.143	0.192	0.192
-746.185	113.812	-0.143	0.175
-745.171	717.553	0.100	-0.269
-744.156	-67.690	-0.386	0.153
-743.142	127.640	0.219	0.281
-742.127	-75.425	0.194	0.070
-741.112	-200.000	-0.083	0.406
-740.098	-200.000	-0.025	0.495
-739.083	-87.577	-0.150	-0.046
-738.069	800.000	0.097	0.378
-737.054	-61.137	-0.194	-0.083
-736.039	34.314	0.137	-0.121
-735.025	800.000	-0.073	-0.243
-734.010	-78.294	-0.489	-0.169
-732.996	-67.150	-0.110	-0.044
-731.981	-20.282	-0.294	-0.183
-730.966	-27.365	-0.253	-0.148
-729.952	-83.020	-0.184	-0.060
-728.937	-104.909	-0.201	0.047
-727.923	-51.008	0.224	-0.106
-726.908	366.349	-0.020	0.041
-725.894	-200.000	0.024	0.191
-724.879	-200.000	0.077	-0.591
-723.864	209.175	0.054	0.086
-722.850	-74.864	-0.073	-0.027
-721.835	800.000	0.066	0.278
-720.821	84.241	-0.176	-0.195
-719.806	-148.818	-0.066	-0.005
-718.791	-82.346	0.152	-0.050
-717.777	258.235	0.084	0.145
-716.762	-89.014	-0.192	-0.057
-715.748	93.302	-0.090	0.102
-714.733	-82.729	0.324	-0.106
-713.718	744.127	0.071	-0.192
-712.704	-200.000	0.017	-0.199
-711.689	-106.776	-0.001	0.000
-710.675	63.726	0.205	0.208
-709.660	15.370	0.215	-0.170
-708.645	438.929	0.026	0.057
-707.631	800.000	-0.014	-0.043
-706.616	-35.139	-0.199	0.109
-705.602	260.609	-0.136	0.237
-704.587	104.478	0.149	-0.177
-703.572	107.270	0.113	-0.136
-702.558	77.493	0.306	-0.328
-701.543	-200.000	0.019	0.344
-700.529	-131.726	-0.171	0.023
-699.514	698.710	0.047	-0.126
-698.499	-200.000	0.078	-0.370
-697.485	-73.365	-0.083	-0.031
-696.470	-36.947	0.342	-0.185
-695.456	32.345	-0.212	-0.185
-694.441	-109.415	-0.259	-0.055
-693.426	-200.000	-0.024	-0.259
-692.412	368.884	0.078	-0.159
-691.397	347.106	-0.109	-0.216
-690.383	-154.668	-0.072	-0.005
-689.368	199.547	0.096	-0.149
-688.354	-127.540	-0.401	0.059
-687.339	213.613	0.153	0.244
-686.324	131.295	-0.145	-0.188
-685.310	-200.000	-0.065	-0.419
-684.295	556.813	-0.074	-0.180
-683.281	246.895	0.182	-0.309
-682.266	237.592	0.075	-0.125
-681.251	253.053	0.286	-0.491
-680.237	223.283	-0.098	-0.158
-679.222	-200.000	0.025	-0.325
-678.208	11.906	-0.120	0.093
-677.193	-54.454	-0.424	-0.194
-676.178	26.456	-0.193	-0.163
-675.164	-73.402	0.281	0.104
-674.149	-200.000	0.002	-0.144
-673.135	747.666	-0.100	-0.272
-672.120	438.889	-0.138	0.304
-671.105	800.000	0.041	0.154
-670.091	800.000	0.073	0.224
-669.076	60.219	-0.198	-0.198
-668.062	-200.000	-0.014	0.088
-667.047	-117.686	0.155	-0.028
-666.032	-44.661	0.360	-0.181
-665.018	-161.552	-0.147	-0.008
-664.003	800.000	0.056	0.212
-662.989	-160.292	0.208	-0.011
-661.974	-77.786	-0.344	0.120
-660.959	-147.373	0.491	0.042
-659.945	-200.000	-0.013	0.129
-658.930	-57.264	-0.398	0.176
-657.916	-36.170	0.200	0.109
-656.901	-200.000	-0.030	0.172
-655.886	239.616	-0.067	0.113
-654.872	-23.514	0.105	0.064
-653.857	-143.730	-0.284	-0.027
-652.843	800.000	-0.060	-0.262
-651.828	86.332	0.124	-0.138
-650.814	-200.000	-0.034	-0.183
-649.799	42.070	0.206	-0.188
-648.784	0.947	0.042	0.030
-647.770	-94.039	-0.075	0.021
-646.755	-103.112	-0.301	0.072
-645.741	800.000	-0.046	-0.140
-644.726	103.849	0.270	-0.319
-643.711	-200.000	-0.006	0.299
-642.697	48.674	0.221	-0.208
-641.682	-163.361	0.135	0.006
-640.668	-173.254	-0.216	0.007
-639.653	-200.000	0.019	-0.086
-638.638	800.000	0.084	-0.234
-637.624	154.779	-0.107	-0.148
-636.609	-171.780	0.237	0.008
-635.595	473.163	-0.076	-0.172
-634.580	-22.642	-0.037	-0.022
-633.565	-200.000	0.025	-0.193
-632.551	-85.553	0.325	0.102
-631.536	495.989	0.064	0.148
-630.522	459.344	-0.110	-0.246
-629.507	-200.000	0.076	0.358
-628.492	800.000	-0.122	-0.363
-627.478	-200.000	-0.035	-0.288
-626.463	-102.400	0.100	-0.024
-625.449	-200.000	0.055	-0.316
-624.434	339.670	0.106	-0.207
-623.419	129.273	-0.098	0.126
-622.405	-200.000	-0.008	-0.131
-621.390	-151.090	0.241	0.018
-620.376	-190.278	0.333	0.004
-619.361	147.470	0.106	0.144
-618.346	800.000	0.012	-0.034
-617.332	-5.532	0.074	-0.051
-616.317	160.748	0.160	0.225
-615.303	-133.046	-0.283	0.036
-614.288	800.000	-0.083	-0.344
-613.273	26.263	0.224	-0.188
-612.259	325.277	-0.066	-0.127
-611.244	-56.669	0.068	0.030
-610.230	-200.000	0.017	-0.109
-609.215	204.993	0.064	-0.099
-608.201	28.337	-0.144	0.122
-607.186	469.354	-0.095	0.213
-606.171	-2.413	-0.151	0.106
-605.157	-200.000	0.001	-0.247
-604.142	-48.717	-0.168	0.081
-603.128	-60.848	-0.140	0.060
-602.113	-156.440	0.204	-0.013
-601.098	30.243	-0.206	-0.176
-600.084	-85.079	-0.409	-0.129
-599.069	-200.000	0.002	-0.142
-598.055	620.851	0.154	-0.389
-597.040	800.000	-0.086	-0.271
-596.025	800.000	0.051	0.177
-595.011	74.974	-0.173	-0.184
-593.996	-39.439	-0.243	-0.128
-592.982	-155.244	0.239	-0.016
-591.967	684.752	-0.014	0.036
-590.952	270.964	-0.068	0.121
-589.938	161.509	-0.154	0.216
-588.923	358.949	0.102	-0.206
-587.909	-138.356	-0.323	-0.036
-586.894	485.731	-0.042	-0.095
-585.879	242.893	-0.116	0.196
-584.865	138.858	0.129	0.170
-583.850	-98.816	0.128	-0.033
-582.836	-39.023	0.152	-0.080
-581.821	-137.442	0.197	-0.022
-580.806	18.783	0.108	0.087
-579.792	-39.991	-0.098	-0.052
-578.777	19.239	-0.084	0.068
-577.763	-43.676	-0.154	0.078
-576.748	-96.588	0.166	0.044
-575.733	-200.000	0.003	0.184
-574.719	-200.000	0.025	-0.165
-573.704	112.801	0.196	0.238
-572.690	475.821	-0.030	-0.068
-571.675	-131.057	-0.231	0.031
-570.661	-112.101	-0.122	0.025
-569.646	113.738	0.128	0.156
-568.631	-134.327	0.318	0.039
-567.617	-122.958	-0.086	-0.014
-566.602	-26.591	0.185	0.109
-565.588	-85.512	-0.196	-0.061
-564.573	326.747	0.109	0.209
-563.558	24.411	0.243	-0.201
-562.544	491.182	-0.078	-0.180
-561.529	-96.321	-0.246	-0.065
-560.515	153.548	-0.057	-0.079
-559.500	113.779	0.066	-0.081
-558.485	15.091	0.164	0.129
-557.471	-193.238	-0.080	0.001
-556.456	-200.000	-0.053	-0.309
-555.442	-126.857	0.053	0.008
-554.427	266.270	-0.060	-0.105
-553.412	366.182	-0.108	-0.218
-552.398	-112.756	-0.198	-0.040
-551.383	-11.869	0.132	0.087
-550.369	203.813	-0.136	0.211
-549.354	-200.000	-0.054	-0.421
-548.339	174.813	-0.239	-0.347
-547.325	299.435	-0.104	-0.193
-546.310	141.000	-0.178	0.236
-545.296	800.000	0.023	-0.068
-544.281	-27.551	0.197	-0.115
-543.266	143.468	-0.072	0.096
-542.252	-95.691	-0.235	0.063
-541.237	-200.000	-0.017	-0.211
-540.223	-100.608	0.112	0.028
-539.208	800.000	-0.035	0.118
-538.193	-200.000	-0.003	0.374
-537.179	-200.000	0.011	0.228
-536.164	-138.269	0.154	-0.017
-535.150	-195.000	0.352	-0.003
-534.135	-100.204	0.150	0.037
-533.121	32.400	0.087	-0.075
-532.106	-33.791	0.051	-0.028
-531.091	-3.458	-0.147	0.103
-530.077	-142.292	0.159	-0.016
-529.062	-147.806	0.363	0.030
-528.048	654.578	-0.070	-0.179
-527.033	800.000	0.201	-0.610
-526.018	800.000	0.033	-0.111
-525.004	722.828	-0.061	-0.164
-523.989	-90.034	0.177	-0.052
-522.975	174.043	-0.155	-0.224
-521.960	-200.000	0.015	-0.125
-520.945	14.302	-0.366	0.286
-519.931	-200.000	0.006	-0.115
-518.916	-200.000	0.016	-0.314
-517.902	-105.625	0.049	0.011
-516.887	-51.532	-0.139	-0.065
-515.872	800.000	-0.112	-0.336
-514.858	-15.118	-0.194	-0.124
-513.843	-52.980	0.281	-0.130
-512.829	364.241	0.188	-0.379
-511.814	-56.068	-0.381	-0.170
-510.799	190.953	-0.166	0.249
-509.785	-18.796	-0.245	-0.153
-508.770	800.000	0.071	0.227
-507.756	216.468	0.193	0.307
-506.741	-6.509	0.374	0.255
-505.726	-36.621	0.225	-0.121
-504.712	107.211	0.268	-0.319
-503.697	-162.237	0.171	0.009
-502.683	14.836	0.051	0.040
-501.668	182.091	-0.127	0.188
-500.653	383.655	-0.111	-0.230
-499.639	-127.921	0.170	0.024
-498.624	-54.416	-0.182	-0.083
-497.610	-200.000	0.032	-0.282
-496.595	-54.444	0.124	0.056
-495.581	107.177	-0.119	-0.142
-494.566	80.183	0.256	0.275
-493.551	-39.592	-0.045	-0.024
-492.537	-200.000	0.019	-0.299
-491.522	-164.874	-0.177	-0.008
-490.508	217.657	-0.072	0.114
-489.493	-79.224	-0.104	0.035
-488.478	800.000	0.080	-0.329
-487.464	-200.000	-0.101	-0.582
-486.449	-200.000	-0.039	-0.183
-485.435	-125.818	0.100	0.015
-484.420	800.000	0.074	0.263
-483.405	-11.353	0.183	-0.121
-482.391	409.933	-0.091	-0.193
-481.376	-61.714	0.027	0.011
-480.362	-65.575	0.272	-0.109
-479.347	34.220	-0.109	0.095
-478.332	339.458	0.068	0.132
-477.318	-104.791	-0.227	-0.052
-476.303	-41.024	0.055	-0.029
-475.289	79.071	0.291	0.311
-474.274	27.360	-0.082	-0.069
-473.259	94.625	-0.217	-0.247
-472.245	-94.347	0.167	-0.046
-471.230	-200.000	0.007	-0.333
-470.216	-102.504	-0.325	-0.078
-469.201	-56.792	0.266	-0.118
-468.186	-130.145	0.044	-0.006
-467.172	-200.000	-0.060	-0.282
-466.157	-200.000	0.031	-0.152
-465.143	110.135	0.219	0.263
-464.128	37.694	0.113	-0.100
-463.113	800.000	0.065	-0.221
-462.099	800.000	0.024	-0.090
-461.084	-200.000	0.033	0.375
-460.070	-25.581	-0.083	-0.049
-459.055	-2.422	0.363	-0.254
-458.040	-109.340	-0.020	-0.004
-457.026	105.350	-0.050	-0.059
-456.011	-153.876	0.224	-0.015
-454.997	158.018	-0.116	0.161
-453.982	530.958	0.112	0.264
-452.968	-174.990	-0.130	-0.004
-451.953	-4.982	-0.294	-0.202
-450.938	165.164	0.144	-0.203
-449.924	-136.645	-0.118	0.014
-448.909	-200.000	0.038	-0.179
-447.895	252.524	0.083	-0.141
-446.880	-192.806	0.153	-0.001
-445.865	3.208	-0.051	-0.037
-444.851	-200.000	-0.022	-0.180
-443.836	-175.048	-0.356	0.010
-442.822	67.995	-0.098	0.100
-441.807	-78.213	0.283	0.097
-440.792	800.000	0.174	0.610
-439.778	-134.052	0.356	0.044
-438.763	26.490	-0.163	-0.136
-437.749	-135.023	-0.261	-0.031
-436.734	800.000	-0.020	0.066
-435.719	-131.883	0.171	0.022
-434.705	-134.493	0.131	-0.016
-433.690	-200.000	-0.022	-0.274
-432.676	-200.000	0.017	-0.272
-431.661	-200.000	0.029	-0.184
-430.646	-46.441	-0.232	0.114
-429.632	-46.810	-0.029	-0.014
-428.617	-130.397	0.240	-0.032
-427.603	-115.129	0.140	-0.027
-426.588	-104.471	-0.237	0.055
-425.573	33.359	-0.117	-0.102
-424.559	-200.000	0.045	-0.316
-423.544	-141.798	-0.152	-0.015
-422.530	65.744	0.105	0.107
-421.515	-20.629	0.186	-0.114
-420.500	-21.121	0.088	0.054
-419.486	-37.225	-0.209	-0.111
-418.471	-12.524	-0.136	-0.089
-417.457	93.635	0.103	-0.116
-416.442	19.010	-0.025	0.020
-415.428	-156.583	-0.089	-0.006
-414.413	-70.803	-0.098	0.037
-413.398	257.627	0.064	-0.109
-412.384	10.896	0.161	0.123
-411.369	123.150	-0.140	-0.176
-410.355	-200.000	-0.031	0.232
-409.340	90.024	0.300	0.335
-408.325	800.000	0.082	-0.304
-407.311	800.000	-0.034	-0.100
-406.296	332.490	-0.088	0.169
-405.282	407.027	0.178	0.375
-404.267	46.131	0.138	-0.128
-403.252	159.639	0.110	0.153
-402.238	350.065	-0.026	-0.051
-401.223	23.751	-0.160	0.132
-400.209	-200.000	0.038	0.328
-399.194	800.000	0.032	-0.108
-398.179	25.964	0.014	-0.012
-397.165	-129.033	0.082	0.011
-396.150	-86.969	-0.258	0.078
-395.136	-200.000	0.021	-0.118
-394.121	-45.482	-0.188	-0.093
-393.106	188.800	-0.220	-0.328
-392.092	800.000	0.017	-0.075
-391.077	-153.196	-0.330	-0.023
-390.063	175.952	-0.038	0.055
-389.048	-34.274	-0.208	-0.114
-388.033	268.550	-0.069	0.121
-387.019	165.588	-0.113	-0.159
-386.004	-39.417	0.203	0.106
-384.990	-76.449	-0.217	-0.076
-383.975	140.350	0.110	0.144
-382.960	34.627	-0.113	0.098
-381.946	43.594	0.166	0.151
-380.931	163.918	0.103	-0.145
-379.917	-2.149	-0.244	-0.171
-378.902	40.421	0.014	-0.013
-377.888	47.030	0.057	0.053
-376.873	7.900	0.111	0.083
-375.858	-69.713	0.234	-0.089
-374.844	495.516	-0.077	-0.177
-373.829	-140.709	0.302	-0.031
-372.815	-161.936	-0.365	0.018
-371.800	-66.519	-0.248	-0.098
-370.785	-200.000	0.030	-0.278
-369.771	169.071	0.088	0.125
-368.756	138.646	-0.077	-0.101
-367.742	-135.350	0.118	-0.014
-366.727	-85.814	-0.125	-0.038
-365.712	-81.833	0.187	-0.061
-364.698	-200.000	-0.018	-0.083
-363.683	-133.577	-0.339	0.042
-362.669	307.217	-0.125	0.232
-361.654	-122.150	0.439	0.072
-360.639	562.864	0.048	-0.115
-359.625	500.059	-0.010	0.022
-358.610	72.430	0.189	0.196
-357.596	-100.057	-0.094	0.023
-356.581	-129.164	-0.106	-0.015
-355.566	800.000	-0.049	0.135
-354.552	138.719	-0.203	0.265
-353.537	198.040	-0.158	-0.240
-352.523	48.303	-0.289	-0.269
-351.508	-94.789	0.243	0.066
-350.493	800.000	-0.046	0.190
-349.479	-200.000	0.008	0.257
-348.464	383.246	-0.144	0.296
-347.450	-110.451	-0.182	-0.038
-346.435	800.000	0.075	0.274
-345.420	-200.000	0.011	-0.134
-344.406	-69.303	-0.028	-0.011
-343.391	433.397	0.102	0.219
-342.377	-132.197	0.149	-0.019
-341.362	-54.263	-0.291	-0.131
-340.348	-27.591	-0.185	0.107
-339.333	-200.000	-0.002	0.086
-338.318	-59.559	-0.143	0.061
-337.304	-200.000	0.056	0.311
-336.289	-41.656	-0.133	-0.068
-335.275	800.000	-0.085	0.325
-334.260	-181.648	0.461	0.009
-333.245	-46.368	-0.236	-0.115
-332.231	-136.134	0.110	-0.013
-331.216	8.809	0.049	-0.037
-330.202	271.745	-0.112	0.197
-329.187	-200.000	0.039	-0.450
-328.172	28.911	0.210	-0.177
-327.158	-200.000	0.013	0.165
-326.143	176.212	0.098	-0.142
-325.129	-116.467	-0.392	-0.072
-324.114	309.746	0.077	0.143
-323.099	-91.370	-0.111	0.032
-322.085	-200.000	0.024	0.252
-321.070	-160.885	-0.400	-0.021
-320.056	-3.654	0.254	-0.176
-319.041	-69.618	0.097	0.037
-318.026	138.698	-0.205	0.267
-317.012	-200.000	0.012	0.451
-315.997	162.000	-0.059	0.083
-314.983	-200.000	0.013	-0.178
-313.968	311.691	-0.048	-0.089
-312.953	800.000	0.018	0.073
-311.939	-91.480	-0.158	0.045
-310.924	168.039	-0.163	0.230
-309.910	10.215	0.101	0.076
-308.895	44.675	0.155	0.141
-307.880	446.925	-0.050	0.108
-306.866	-81.028	0.210	0.069
-305.851	-83.466	-0.171	0.054
-304.837	62.697	-0.080	0.080
-303.822	-117.242	0.188	-0.034
-302.807	763.819	-0.124	0.334
-301.793	417.840	0.152	-0.323
-300.778	131.873	-0.132	-0.169
-299.764	-95.391	-0.315	0.084
-298.749	-158.624	-0.219	-0.013
-297.735	95.282	-0.172	0.195
-296.720	-60.496	-0.286	0.121
-295.705	-200.000	-0.111	0.507
-294.691	104.504	-0.072	-0.084
-293.676	274.588	0.044	-0.077
-292.662	338.724	-0.067	0.129
-291.647	-50.266	0.295	0.138
-290.632	346.269	-0.044	-0.086
-289.618	-143.993	0.148	-0.014
-288.603	-61.309	-0.090	-0.038
-287.589	265.095	0.181	0.313
-286.574	158.798	-0.177	0.244
-285.559	800.000	-0.028	0.117
-284.545	-172.572	-0.216	0.007
-283.530	144.474	0.083	-0.110
-282.516	-28.704	0.108	0.062
-281.501	38.727	0.137	0.121
-280.486	-200.000	0.025	-0.227
-279.472	-108.476	0.277	0.059
-278.457	9.423	-0.109	-0.082
-277.443	223.079	0.103	0.165
-276.428	-41.475	0.135	-0.069
-275.413	800.000	-0.053	0.155
-274.399	11.609	0.163	-0.124
-273.384	397.384	0.082	0.170
-272.370	20.273	0.084	0.067
-271.355	-200.000	-0.005	0.465
-270.340	112.316	0.093	-0.111
-269.326	82.458	0.064	-0.069
-268.311	161.846	0.181	-0.252
-267.297	112.069	-0.252	0.302
-266.282	128.375	0.139	0.175
-265.267	-200.000	0.037	-0.168
-264.253	46.508	0.206	0.190
-263.238	52.516	0.059	0.056
-262.224	-200.000	0.010	-0.080
-261.209	800.000	-0.078	0.311
-260.195	472.561	0.113	0.253
-259.180	800.000	0.127	0.395
-258.165	-55.958	-0.360	0.159
-257.151	-79.675	0.259	-0.087
-256.136	-0.208	0.072	-0.050
-255.122	800.000	-0.073	0.238
-254.107	228.787	0.090	-0.146
-253.092	335.861	-0.097	0.186
-252.078	-88.661	0.129	0.038
-251.063	96.230	-0.083	0.094
-250.049	458.772	-0.044	0.096
-249.034	800.000	-0.020	-0.064
-248.019	130.773	-0.135	0.171
-247.005	-71.417	-0.257	0.096
-245.990	800.000	-0.015	-0.054
-244.976	-11.348	-0.084	-0.055
-243.961	-200.000	-0.013	-0.151
-242.946	800.000	0.048	0.166
-241.932	-200.000	0.016	-0.200
-240.917	94.839	-0.196	-0.221
-239.903	292.249	0.114	-0.206
-238.888	-42.105	0.441	-0.223
-237.873	-156.543	-0.038	0.002
-236.859	-36.059	0.216	0.115
-235.844	28.217	0.080	0.067
-234.830	95.769	0.186	-0.211
-233.815	418.024	0.180	-0.381
-232.800	-82.138	0.056	0.018
-231.786	81.413	-0.122	-0.131
-230.771	-200.000	-0.091	-0.485
-229.757	161.149	0.151	0.208
-228.742	800.000	0.057	0.159
-227.727	49.681	0.257	-0.240
-226.713	-38.131	-0.213	0.112
-225.698	800.000	-0.061	0.205
-224.684	-29.374	-0.214	0.121
-223.669	800.000	-0.106	0.330
-222.655	-46.435	-0.222	-0.108
-221.640	-78.982	-0.291	0.098
-220.625	67.042	0.250	0.252
-219.611	-153.947	-0.395	0.027
-218.596	-111.008	-0.261	0.053
-217.582	-200.000	0.015	0.099
-216.567	69.044	0.131	-0.133
-215.552	800.000	0.055	-0.161
-214.538	800.000	0.077	-0.234
-213.523	800.000	0.091	0.265
-212.509	39.763	-0.110	0.098
-211.494	-71.623	-0.217	0.080
-210.479	-57.941	-0.182	-0.079
-209.465	-160.782	-0.157	0.008
-208.450	-150.862	-0.117	-0.009
-207.436	47.662	0.209	0.193
-206.421	-200.000	0.036	0.208
-205.406	-200.000	0.035	0.300
-204.392	-76.408	-0.344	0.120
-203.377	53.422	0.165	0.156
-202.363	154.641	0.348	0.473
-201.348	297.956	0.120	0.218
-200.333	-108.552	0.207	-0.044
-199.319	-200.000	-0.036	0.158
-198.304	3.935	0.118	0.085
-197.290	13.717	0.173	0.133
-196.275	-88.880	0.127	-0.037
-195.260	-184.003	-0.030	-0.001
-194.246	800.000	-0.027	-0.107
-193.231	255.083	-0.098	-0.167
-192.217	16.103	-0.260	0.203
-191.202	800.000	0.086	0.281
-190.187	638.704	0.226	0.568
-189.173	-75.457	-0.218	0.077
-188.158	-200.000	0.031	0.331
-187.144	-23.443	0.299	0.178
-186.129	-200.000	-0.006	-0.226
-185.114	-200.000	0.020	-0.210
-184.100	-47.849	-0.131	0.063
-183.085	-92.222	-0.108	0.030
-182.071	800.000	-0.065	-0.232
-181.056	-200.000	0.045	-0.195
-180.042	11.797	0.258	0.196
-179.027	-4.187	-0.215	0.147
-178.012	33.922	-0.169	0.146
-176.998	-110.659	-0.095	-0.019
-175.983	-23.518	-0.101	0.060
-174.969	-105.240	0.164	0.037
-173.954	145.384	-0.180	0.239
-172.939	-90.608	-0.254	0.072
-171.925	-11.201	-0.149	0.097
-170.910	-200.000	-0.008	0.211
-169.896	13.609	-0.067	-0.051
-168.881	22.431	0.149	0.120
-167.866	-200.000	0.032	-0.166
-166.852	661.134	0.070	0.179
-165.837	-54.736	0.114	0.051
-164.823	39.516	-0.121	-0.107
-163.808	-200.000	0.017	-0.136
-162.793	23.328	-0.263	-0.214
-161.779	12.872	0.318	-0.243
-160.764	-88.615	-0.174	0.051
-159.750	130.092	0.222	-0.281
-158.735	-130.818	0.222	-0.029
-157.720	76.321	0.131	0.137
-156.706	-200.000	-0.009	0.091
-155.691	-76.038	-0.244	0.085
-154.677	474.462	0.050	0.112
-153.662	-26.148	-0.181	0.105
-152.647	-42.652	-0.279	-0.140
-151.633	0.470	0.437	0.309
-150.618	-200.000	-0.054	-0.377
-149.604	-76.063	0.142	0.049
-148.589	-16.669	-0.293	0.183
-147.574	324.803	0.015	-0.029
-146.560	-200.000	0.120	-0.540
-145.545	409.638	0.080	-0.168
-144.531	302.696	0.033	-0.060
-143.516	-15.432	0.121	-0.076
-142.502	19.268	0.176	0.139
-141.487	595.817	-0.054	-0.132
-140.472	-110.390	0.319	0.066
-139.458	-25.227	0.256	0.149
-138.443	-166.481	0.128	0.005
-137.429	800.000	0.053	-0.204
-136.414	-200.000	0.006	-0.056
-135.399	-200.000	0.012	-0.278
-134.385	2.927	0.170	0.122
-133.370	-16.021	0.293	-0.184
-132.356	152.439	-0.074	0.100
-131.341	-139.047	0.302	-0.032
-130.326	-162.050	0.210	-0.010
-129.312	-99.851	0.272	-0.067
-128.297	-200.000	0.041	0.361
-127.283	102.458	0.139	0.160
-126.268	-119.516	0.124	-0.021
-125.253	-129.249	0.310	-0.043
-124.239	-88.009	0.201	0.060
-123.224	-16.065	0.189	-0.119
-122.210	67.327	0.163	-0.164
-121.195	-59.037	0.260	0.111
