DTS Sentinel unit serial number:	SN413079Multiplexer serial number:	ORYXHardware model number:	OX4-SRSoftware version number:	ORYX F/W v4.00 Oryx Data Collector v3.7.2.0data status	okinstallation	princeton_trtdifferential loss correction	single-endedforward channel	channel 1reverse channel	N/Adate	2019/09/15time	18:42:36forward acquisition time	60.00reverse acquisition time	0.00gamma	496.2192k internal	0.2288k external	0.2288temperature offset calibration	0.9938default loss term (dB/km)	0.3790temperature slope calibration	1.0000multiplexer offset coefficient	1.0000multiplexer slope coefficient	1.0000fibre end	0.00T internal ref (°C)	43.56T ext. ref 1 (°C)	6.85T ext. ref 2 (°C)	36.40length (m)	temperature (°C)	Stokes	anti-Stokes-747.200	31.053	0.108	-0.095
-746.185	-83.246	-0.221	0.073
-745.171	-104.578	-0.121	0.029
-744.156	-111.551	0.185	0.039
-743.142	59.578	-0.078	-0.079
-742.127	-132.323	0.180	-0.024
-741.112	607.806	-0.171	0.438
-740.098	800.000	-0.005	0.017
-739.083	800.000	-0.016	0.067
-738.069	-140.677	-0.104	-0.011
-737.054	800.000	-0.060	0.259
-736.039	102.885	-0.230	-0.276
-735.025	-125.628	-0.290	0.045
-734.010	-139.289	-0.247	-0.027
-732.996	146.021	-0.136	-0.187
-731.981	1.660	-0.092	-0.068
-730.966	319.284	-0.154	-0.299
-729.952	81.954	0.081	-0.089
-728.937	-10.986	0.125	-0.084
-727.923	-191.211	-0.121	0.001
-726.908	-158.381	0.036	0.002
-725.894	-126.768	-0.181	-0.027
-724.879	-200.000	0.021	-0.113
-723.864	-147.114	-0.357	0.031
-722.850	-162.972	0.074	-0.004
-721.835	-200.000	0.062	0.305
-720.821	-200.000	0.010	0.149
-719.806	-156.084	-0.166	0.011
-718.791	140.867	0.194	-0.263
-717.777	-92.511	-0.160	0.046
-716.762	35.487	0.067	-0.060
-715.748	-98.674	-0.453	0.118
-714.733	800.000	-0.126	0.395
-713.718	14.715	-0.279	0.223
-712.704	261.968	-0.165	-0.293
-711.689	124.427	-0.023	-0.030
-710.675	722.943	-0.078	0.212
-709.660	800.000	0.090	0.319
-708.645	-200.000	0.014	-0.166
-707.631	-200.000	0.020	0.172
-706.616	48.563	0.029	0.028
-705.602	73.604	0.211	-0.226
-704.587	-200.000	0.034	-0.378
-703.572	-65.060	0.161	0.067
-702.558	44.787	0.239	0.225
-701.543	-122.952	-0.382	0.063
-700.529	800.000	0.002	-0.008
-699.514	-53.116	-0.449	0.211
-698.499	150.099	-0.125	-0.174
-697.485	140.950	0.072	-0.098
-696.470	-120.844	-0.217	-0.037
-695.456	800.000	-0.065	0.204
-694.441	-13.614	-0.181	0.120
-693.426	-114.773	0.082	-0.016
-692.412	800.000	0.066	0.240
-691.397	-200.000	-0.029	-0.406
-690.383	-66.375	-0.136	0.055
-689.368	-68.186	0.139	-0.055
-688.354	-98.349	0.301	-0.079
-687.339	-200.000	0.015	-0.308
-686.324	-200.000	-0.015	-0.276
-685.310	256.760	-0.076	0.134
-684.295	68.586	-0.141	-0.148
-683.281	-200.000	-0.027	0.242
-682.266	329.944	-0.178	-0.351
-681.251	-107.240	-0.234	-0.053
-680.237	16.153	-0.066	-0.053
-679.222	640.620	-0.129	0.337
-678.208	-124.845	0.043	-0.007
-677.193	781.436	-0.069	-0.194
-676.178	123.679	-0.147	0.189
-675.164	-14.211	-0.124	-0.082
-674.149	-200.000	-0.042	0.222
-673.135	-83.042	0.248	0.082
-672.120	119.379	-0.085	0.107
-671.105	6.303	0.113	0.085
-670.091	538.004	-0.049	0.119
-669.076	92.337	0.178	-0.205
-668.062	658.311	0.060	-0.159
-667.047	43.078	0.247	0.230
-666.032	151.812	0.183	-0.255
-665.018	24.075	-0.036	0.030
-664.003	652.574	-0.073	-0.191
-662.989	-142.375	-0.252	-0.025
-661.974	-24.112	0.150	-0.092
-660.959	-159.292	0.319	-0.018
-659.945	-200.000	-0.020	-0.223
-658.930	90.490	0.089	-0.102
-657.916	-186.878	-0.080	-0.001
-656.901	-200.000	0.017	-0.077
-655.886	91.598	-0.204	-0.234
-654.872	0.954	0.142	-0.104
-653.857	-200.000	0.068	0.417
-652.843	658.853	0.050	0.131
-651.828	125.316	-0.198	-0.255
-650.814	382.380	-0.044	-0.093
-649.799	32.792	0.191	0.168
-648.784	92.531	0.077	0.089
-647.770	-125.682	0.054	-0.008
-646.755	239.259	-0.135	0.229
-645.741	101.290	0.134	0.160
-644.726	-184.162	0.109	-0.002
-643.711	96.953	0.051	0.060
-642.697	-148.907	0.224	-0.018
-641.682	-57.560	-0.356	0.159
-640.668	-107.360	0.190	0.043
-639.653	12.350	-0.246	-0.193
-638.638	574.623	0.138	-0.344
-637.624	-122.463	-0.143	-0.024
-636.609	-200.000	0.056	-0.276
-635.595	800.000	0.107	-0.387
-634.580	-96.249	0.120	-0.033
-633.565	-72.321	0.287	0.109
-632.551	800.000	0.043	0.177
-631.536	136.633	0.053	-0.070
-630.522	800.000	0.064	0.194
-629.507	-47.865	0.154	-0.076
-628.492	357.527	-0.077	0.157
-627.478	2.798	0.267	-0.198
-626.463	-200.000	0.007	0.287
-625.449	-31.957	-0.153	0.087
-624.434	-62.059	0.076	0.032
-623.419	800.000	-0.030	0.115
-622.405	-77.568	-0.050	0.018
-621.390	-200.000	0.019	-0.108
-620.376	-18.405	-0.101	0.065
-619.361	-19.843	0.295	0.186
-618.346	95.604	-0.140	-0.163
-617.332	199.904	-0.180	-0.282
-616.317	-87.744	0.166	-0.051
-615.303	-51.579	-0.166	-0.079
-614.288	-115.966	0.060	-0.011
-613.273	110.158	0.260	0.318
-612.259	-200.000	0.013	0.157
-611.244	93.945	0.163	-0.189
-610.230	-45.838	0.285	-0.143
-609.215	-36.424	-0.067	-0.037
-608.201	-56.689	0.289	0.131
-607.186	125.247	-0.088	0.113
-606.171	-140.040	-0.049	0.005
-605.157	-64.462	0.216	0.090
-604.142	571.388	0.086	0.214
-603.128	-200.000	-0.050	0.375
-602.113	280.025	0.040	-0.073
-601.098	-163.963	-0.187	-0.009
-600.084	-60.021	-0.383	-0.167
-599.069	142.448	0.137	0.186
-598.055	-84.596	-0.229	-0.074
-597.040	-159.315	-0.261	-0.015
-596.025	800.000	0.089	-0.270
-595.011	-200.000	0.020	0.142
-593.996	157.952	-0.122	0.173
-592.982	-200.000	-0.004	0.065
-591.967	800.000	-0.040	0.117
-590.952	170.120	-0.222	0.323
-589.938	800.000	-0.050	0.189
-588.923	-97.305	-0.118	0.031
-587.909	-130.304	0.083	0.012
-586.894	-27.952	0.160	-0.094
-585.879	-26.830	-0.094	0.056
-584.865	-200.000	0.006	-0.065
-583.850	-94.104	0.240	0.067
-582.836	5.166	-0.113	0.085
-581.821	93.045	-0.013	0.015
-580.806	-200.000	0.004	-0.091
-579.792	-200.000	-0.021	0.465
-578.777	305.800	0.205	-0.388
-577.763	-147.321	0.310	-0.027
-576.748	18.793	0.134	-0.109
-575.733	-11.025	0.062	-0.042
-574.719	643.548	0.099	0.257
-573.704	-53.051	-0.228	-0.107
-572.690	228.725	0.093	0.154
-571.675	16.574	-0.258	-0.208
-570.661	-112.887	0.152	-0.031
-569.646	-200.000	-0.020	-0.175
-568.631	-33.455	-0.163	-0.092
-567.617	-200.000	0.008	-0.047
-566.602	281.512	0.234	-0.426
-565.588	-70.401	-0.126	0.049
-564.573	-157.338	-0.298	0.018
-563.558	106.601	0.071	0.085
-562.544	35.266	-0.118	0.105
-561.529	3.263	-0.235	0.174
-560.515	-130.950	0.178	0.024
-559.500	-12.032	-0.015	0.010
-558.485	-39.907	-0.209	-0.111
-557.471	800.000	0.059	0.176
-556.456	4.091	-0.232	0.172
-555.442	587.788	0.100	0.250
-554.427	-200.000	0.014	0.296
-553.412	-9.266	-0.257	0.175
-552.398	372.650	-0.122	-0.253
-551.383	52.600	-0.079	-0.077
-550.369	-94.511	0.115	0.032
-549.354	-102.612	0.291	0.071
-548.339	800.000	-0.073	-0.249
-547.325	-200.000	-0.026	-0.192
-546.310	-48.673	-0.219	0.107
-545.296	-80.814	-0.038	0.013
-544.281	800.000	-0.082	-0.347
-543.266	327.383	-0.115	0.225
-542.252	-37.470	0.332	0.180
-541.237	-200.000	-0.047	0.259
-540.223	142.877	0.295	0.399
-539.208	191.906	0.085	0.131
-538.193	-176.118	0.091	0.002
-537.179	299.427	0.144	-0.270
-536.164	472.134	-0.132	-0.301
-535.150	-200.000	-0.010	0.241
-534.135	307.769	0.108	0.204
-533.121	165.876	0.122	-0.175
-532.106	73.936	0.112	0.119
-531.091	90.028	-0.049	-0.056
-530.077	-200.000	-0.030	0.229
-529.062	-122.373	0.197	0.033
-528.048	528.871	0.068	-0.162
-527.033	-176.810	-0.135	-0.003
-526.018	800.000	-0.078	0.258
-525.004	-93.082	0.254	0.072
-523.989	800.000	0.051	0.146
-522.975	62.004	0.223	0.226
-521.960	-140.953	-0.346	0.036
-520.945	194.814	0.141	0.217
-519.931	91.259	0.024	-0.027
-518.916	86.487	0.065	-0.073
-517.902	-200.000	0.024	-0.225
-516.887	190.684	0.185	-0.283
-515.872	-85.018	0.248	-0.079
-514.858	4.017	-0.139	0.103
-513.843	669.107	0.058	-0.153
-512.829	-200.000	0.032	0.181
-511.814	-200.000	-0.020	0.278
-510.799	-200.000	0.012	0.127
-509.785	273.343	-0.039	-0.070
-508.770	0.335	0.145	0.105
-507.756	-200.000	-0.034	-0.169
-506.741	-73.815	-0.237	0.088
-505.726	-115.326	-0.089	-0.017
-504.712	-119.422	-0.193	0.034
-503.697	-106.856	-0.323	0.073
-502.683	-200.000	0.040	-0.310
-501.668	402.417	0.078	-0.167
-500.653	0.628	-0.121	0.088
-499.639	19.218	-0.433	-0.353
-498.624	-11.130	-0.190	-0.127
-497.610	0.112	0.229	-0.166
-496.595	46.001	0.232	0.218
-495.581	-158.412	-0.165	-0.010
-494.566	-40.196	-0.312	-0.165
-493.551	-54.077	0.248	0.115
-492.537	93.429	-0.099	-0.113
-491.522	56.633	0.170	0.168
-490.508	-200.000	-0.011	0.308
-489.493	-110.946	-0.311	-0.065
-488.478	800.000	-0.064	0.182
-487.464	134.635	-0.351	0.462
-486.449	-82.684	0.269	0.089
-485.435	492.620	0.002	0.005
-484.420	156.069	-0.041	0.058
-483.405	-167.553	-0.086	0.003
-482.391	27.247	-0.159	-0.135
-481.376	-71.259	-0.241	0.092
-480.362	-92.958	-0.199	-0.056
-479.347	-54.446	-0.192	0.088
-478.332	-200.000	-0.030	-0.213
-477.318	-79.825	0.171	-0.058
-476.303	800.000	0.142	-0.435
-475.289	-200.000	-0.051	-0.241
-474.274	263.527	-0.091	-0.161
-473.259	-200.000	-0.015	0.152
-472.245	-149.580	-0.296	0.024
-471.230	-130.199	0.331	0.046
-470.216	-200.000	0.045	-0.203
-469.201	6.511	-0.099	0.074
-468.186	125.179	-0.070	0.090
-467.172	-9.179	0.177	-0.120
-466.157	-200.000	-0.052	-0.419
-465.143	800.000	-0.072	-0.228
-464.128	-98.969	-0.350	-0.090
-463.113	-78.877	0.333	-0.115
-462.099	-200.000	0.089	-0.469
-461.084	-2.952	-0.060	-0.043
-460.070	-52.047	0.316	-0.149
-459.055	-105.992	0.146	-0.033
-458.040	-71.130	0.156	-0.060
-457.026	40.245	0.065	0.060
-456.011	41.107	0.296	0.272
-454.997	109.141	-0.148	0.180
-453.982	97.632	0.278	-0.324
-452.968	80.697	0.026	0.028
-451.953	-20.572	0.272	-0.169
-450.938	-140.649	-0.107	0.011
-449.924	-85.623	0.180	0.057
-448.909	-200.000	0.001	0.074
-447.895	-200.000	-0.011	0.073
-446.880	124.076	0.151	0.192
-445.865	367.739	0.161	0.330
-444.851	-200.000	-0.050	0.443
-443.836	81.276	0.167	-0.183
-442.822	-200.000	-0.137	0.000
-441.807	288.885	0.124	-0.228
-440.792	800.000	0.081	-0.237
-439.778	-200.000	0.078	-0.445
-438.763	-107.975	0.414	-0.091
-437.749	-27.802	-0.174	-0.102
-436.734	96.024	-0.129	-0.149
-435.719	-30.297	-0.090	-0.052
-434.705	-79.330	0.020	0.007
-433.690	420.251	0.134	-0.290
-432.676	800.000	0.079	0.330
-431.661	188.994	-0.023	0.035
-430.646	-200.000	0.036	0.197
-429.632	-45.466	-0.247	-0.124
-428.617	-69.939	-0.179	-0.069
-427.603	800.000	-0.116	0.335
-426.588	106.254	-0.070	-0.085
-425.573	256.954	0.093	0.162
-424.559	-82.781	0.284	-0.093
-423.544	-200.000	-0.023	0.406
-422.530	-49.327	0.073	0.035
-421.515	199.752	0.177	-0.276
-420.500	-57.239	-0.055	-0.025
-419.486	48.614	0.148	0.141
-418.471	-200.000	0.004	-0.026
-417.457	334.194	0.167	-0.328
-416.442	129.141	0.057	0.074
-415.428	50.302	-0.119	-0.114
-414.413	-118.059	-0.444	-0.080
-413.398	-63.812	0.294	0.122
-412.384	-111.980	-0.176	0.036
-411.369	-76.329	-0.212	-0.076
-410.355	-200.000	-0.002	0.021
-409.340	198.152	-0.170	0.263
-408.325	-84.243	0.227	-0.073
-407.311	193.708	-0.320	-0.490
-406.296	800.000	-0.055	-0.166
-405.282	32.499	0.286	0.250
-404.267	800.000	-0.078	-0.317
-403.252	43.762	-0.125	-0.115
-402.238	148.461	0.149	-0.203
-401.223	84.460	0.022	0.025
-400.209	-110.160	-0.118	0.025
-399.194	-44.768	0.041	0.021
-398.179	-200.000	0.008	-0.235
-397.165	-200.000	0.020	0.134
-396.150	156.369	0.073	-0.102
-395.136	-200.000	0.023	-0.249
-394.121	463.705	0.131	-0.296
-393.106	174.097	0.130	-0.190
-392.092	-138.493	-0.192	-0.021
-391.077	133.262	0.120	-0.157
-390.063	-200.000	-0.033	0.298
-389.048	2.408	-0.233	-0.171
-388.033	800.000	-0.078	-0.310
-387.019	-38.459	-0.082	-0.044
-386.004	800.000	-0.121	0.344
-384.990	-200.000	-0.006	0.116
-383.975	270.523	0.250	0.444
-382.960	800.000	0.139	0.397
-381.946	-160.339	-0.195	-0.011
-380.931	179.792	0.151	0.223
-379.917	89.530	-0.224	-0.253
-378.902	-200.000	0.008	0.151
-377.888	-200.000	0.051	0.314
-376.873	-200.000	-0.045	0.247
-375.858	-124.316	-0.193	0.030
-374.844	-78.097	0.295	-0.103
-373.829	76.576	0.131	0.140
-372.815	303.410	-0.061	-0.114
-371.800	241.539	-0.130	0.220
-370.785	-58.286	0.206	0.091
-369.771	-90.061	0.068	0.020
-368.756	242.856	0.204	0.345
-367.742	-200.000	0.010	-0.133
-366.727	-3.430	-0.122	0.086
-365.712	264.529	0.183	-0.321
-364.698	168.347	0.089	0.128
-363.683	21.598	0.230	-0.189
-362.669	800.000	0.049	-0.173
-361.654	29.203	0.138	-0.118
-360.639	222.055	-0.178	0.290
-359.625	-200.000	0.023	0.173
-358.610	27.958	0.107	-0.091
-357.596	120.627	0.182	-0.228
-356.581	-40.658	-0.132	0.069
-355.566	-105.284	0.222	-0.051
-354.552	119.354	-0.039	-0.049
-353.537	-200.000	-0.024	0.108
-352.523	-54.829	0.157	-0.072
-351.508	-200.000	-0.015	-0.070
-350.493	-200.000	0.002	0.180
-349.479	-80.964	-0.255	0.085
-348.464	-166.565	0.013	0.001
-347.450	4.557	-0.194	-0.144
-346.435	-103.887	-0.099	0.023
-345.420	-200.000	-0.028	-0.126
-344.406	77.430	0.030	-0.032
-343.391	336.134	-0.077	0.150
-342.377	113.061	-0.163	-0.199
-341.362	112.665	0.086	0.105
-340.348	-46.258	-0.209	0.104
-339.333	-51.114	0.069	-0.033
-338.318	-85.990	-0.412	0.128
-337.304	-200.000	-0.039	0.277
-336.289	-200.000	-0.003	-0.018
-335.275	-84.936	0.226	-0.071
-334.260	-200.000	0.041	-0.237
-333.245	800.000	0.098	0.374
-332.231	-7.110	0.272	0.186
-331.216	-13.040	0.068	-0.044
-330.202	-200.000	-0.002	-0.123
-329.187	-55.464	-0.085	-0.038
-328.172	800.000	0.056	-0.231
-327.158	-43.563	-0.155	0.079
-326.143	28.720	-0.207	0.177
-325.129	800.000	0.023	-0.082
-324.114	-111.986	0.262	-0.053
-323.099	306.757	0.085	-0.159
-322.085	-95.763	-0.052	-0.014
-321.070	-69.689	-0.254	-0.098
-320.056	-11.449	-0.215	0.142
-319.041	-75.427	-0.201	-0.072
-318.026	765.370	-0.068	-0.187
-317.012	-134.551	0.347	-0.043
-315.997	-7.475	-0.138	0.094
-314.983	-200.000	0.038	0.171
-313.968	-46.842	-0.227	0.112
-312.953	218.827	0.214	0.344
-311.939	-200.000	-0.007	-0.318
-310.924	368.651	-0.034	0.068
-309.910	693.207	0.105	-0.276
-308.895	-200.000	0.069	-0.312
-307.880	65.736	-0.070	-0.071
-306.866	619.327	0.066	-0.168
-305.851	-200.000	-0.014	-0.070
-304.837	34.155	-0.190	0.167
-303.822	-12.715	-0.122	0.080
-302.807	-7.817	-0.048	-0.033
-301.793	800.000	-0.042	0.134
-300.778	537.296	0.138	0.329
-299.764	212.599	0.103	0.164
-298.749	7.703	0.352	0.266
-297.735	-77.543	-0.142	-0.050
-296.720	38.844	-0.241	0.217
-295.705	-135.097	-0.183	0.022
-294.691	595.268	-0.122	-0.305
-293.676	-200.000	-0.042	-0.226
-292.662	-76.499	0.436	0.154
-291.647	-85.484	-0.333	0.105
-290.632	6.208	0.405	-0.303
-289.618	-200.000	-0.034	0.224
-288.603	-98.184	0.106	-0.028
-287.589	-93.633	0.091	-0.025
-286.574	207.573	-0.074	-0.117
-285.559	330.243	-0.134	-0.260
-284.545	115.741	0.207	0.255
-283.530	-156.916	0.434	-0.027
-282.516	-126.584	-0.113	0.017
-281.501	216.690	-0.129	0.206
-280.486	38.111	0.041	-0.036
-279.472	-80.848	0.314	0.105
-278.457	-9.874	-0.173	0.116
-277.443	79.458	0.221	0.239
-276.428	244.198	-0.079	0.134
-275.413	-111.231	-0.312	0.064
-274.399	-98.635	-0.134	0.034
-273.384	-31.699	-0.247	0.139
-272.370	-200.000	0.003	-0.045
-271.355	-25.295	-0.280	-0.167
-270.340	-200.000	0.007	-0.040
-269.326	-143.247	-0.123	-0.012
-268.311	-200.000	-0.015	-0.075
-267.297	-86.071	-0.120	0.037
-266.282	-106.332	0.261	0.059
-265.267	-111.751	-0.107	0.022
-264.253	-118.978	-0.206	0.036
-263.238	-76.330	-0.080	-0.028
-262.224	23.796	-0.208	-0.172
-261.209	217.924	-0.164	-0.263
-260.195	-144.458	0.136	0.013
-259.180	800.000	0.060	0.200
-258.165	-0.842	-0.132	0.094
-257.151	-200.000	-0.050	0.411
-256.136	237.912	-0.191	0.319
-255.122	-156.957	-0.264	-0.016
-254.107	-65.786	-0.007	-0.003
-253.092	800.000	0.071	-0.252
-252.078	26.953	-0.130	-0.110
-251.063	-123.256	-0.306	-0.049
-250.049	-82.170	-0.071	-0.023
-249.034	-200.000	0.020	-0.102
-248.019	800.000	0.037	-0.145
-247.005	-200.000	-0.055	-0.306
-245.990	332.585	0.168	-0.327
-244.976	422.882	-0.144	-0.310
-243.961	-45.444	-0.209	-0.104
-242.946	-1.105	0.458	0.326
-241.932	-75.165	-0.229	0.082
-240.917	-147.444	0.423	-0.036
-239.903	726.611	-0.119	-0.318
-238.888	308.655	0.140	0.262
-237.873	233.478	0.136	-0.225
-236.859	139.825	0.108	-0.143
-235.844	-200.000	-0.019	0.223
-234.830	-22.286	-0.212	-0.129
-233.815	191.098	-0.165	0.250
-232.800	800.000	-0.089	-0.323
-231.786	4.482	0.064	-0.047
-230.771	210.854	0.052	-0.082
-229.757	-200.000	-0.101	-0.543
-228.742	91.103	0.320	-0.361
-227.727	195.586	0.111	0.170
-226.713	-170.348	0.188	0.007
-225.698	299.334	0.040	-0.075
-224.684	800.000	-0.029	-0.120
-223.669	-195.462	-0.013	0.000
-222.655	-200.000	-0.006	0.165
-221.640	35.646	0.149	0.131
-220.625	782.077	-0.047	0.128
-219.611	15.560	-0.169	-0.133
-218.596	800.000	0.135	0.531
-217.582	29.857	0.187	-0.160
-216.567	125.823	0.042	-0.054
-215.552	800.000	-0.114	0.396
-214.538	-200.000	-0.002	-0.115
-213.523	-51.920	0.193	-0.090
-212.509	800.000	0.073	0.234
-211.494	567.464	-0.037	-0.090
-210.479	-83.219	-0.122	-0.039
-209.465	800.000	-0.138	0.569
-208.450	-140.305	-0.121	-0.013
-207.436	-173.141	-0.170	0.005
-206.421	273.627	-0.101	-0.178
-205.406	243.033	0.039	0.065
-204.392	-172.395	-0.322	-0.010
-203.377	-149.797	-0.280	0.022
-202.363	-121.512	0.246	0.041
-201.348	-200.000	-0.060	0.334
-200.333	-200.000	0.002	-0.091
-199.319	-22.731	0.259	-0.157
-198.304	-101.950	0.160	-0.039
-197.290	57.346	-0.163	-0.159
-196.275	800.000	0.039	0.149
-195.260	472.237	0.045	-0.102
-194.246	31.531	-0.288	0.249
-193.231	189.636	-0.098	0.148
-192.217	287.335	-0.114	-0.207
-191.202	100.778	-0.252	-0.293
-190.187	424.238	-0.105	-0.226
-189.173	535.894	-0.085	-0.202
-188.158	494.658	-0.149	-0.344
-187.144	-81.437	0.168	-0.055
-186.129	-151.739	-0.243	0.018
-185.114	-105.571	-0.546	-0.124
-184.100	229.730	-0.133	-0.217
-183.085	-112.638	-0.292	0.058
-182.071	-200.000	0.004	-0.219
-181.056	-127.655	0.142	0.021
-180.042	168.753	-0.202	0.289
-179.027	800.000	-0.044	-0.184
-178.012	217.867	0.061	-0.098
-176.998	-103.928	0.128	0.030
-175.983	43.914	0.139	0.127
-174.969	800.000	-0.033	-0.130
-173.954	-121.564	0.295	-0.049
-172.939	322.732	0.111	-0.211
-171.925	-200.000	-0.024	0.172
-170.910	-50.200	0.358	0.170
-169.896	-172.337	-0.049	0.002
-168.881	82.226	-0.212	-0.231
-167.866	-58.167	0.233	0.102
-166.852	38.147	0.137	0.122
-165.837	-200.000	-0.015	0.281
-164.823	-120.413	0.250	-0.043
-163.808	-100.373	0.179	0.044
-162.793	33.351	0.050	0.044
-161.779	90.803	-0.235	-0.264
-160.764	-18.886	0.078	0.048
-159.750	-46.116	0.109	0.054
-158.735	70.724	-0.158	0.164
-157.720	800.000	-0.069	0.211
-156.706	-64.258	0.308	-0.126
-155.691	-12.945	-0.286	-0.187
-154.677	88.753	0.299	-0.333
-153.662	-97.363	0.349	0.091
-152.647	38.789	-0.213	0.191
-151.633	57.583	-0.126	0.124
-150.618	-65.524	0.072	0.029
-149.604	310.859	0.008	-0.015
-148.589	-110.247	-0.424	0.088
-147.574	253.211	-0.123	0.210
-146.560	-200.000	-0.058	0.262
-145.545	114.317	-0.257	-0.313
-144.531	800.000	0.094	0.331
-143.516	22.659	0.327	-0.268
-142.502	108.194	0.228	-0.272
-141.487	109.278	-0.175	0.210
-140.472	-75.625	0.411	-0.146
-139.458	800.000	0.098	0.285
-138.443	-134.791	0.311	0.038
-137.429	126.849	0.156	-0.198
-136.414	-200.000	-0.003	-0.050
-135.399	-200.000	-0.002	0.159
-134.385	325.902	-0.139	-0.267
-133.370	155.462	0.088	-0.121
-132.356	-200.000	-0.010	0.181
-131.341	136.990	-0.156	0.204
-130.326	238.944	0.106	-0.176
-129.312	349.852	0.051	0.100
-128.297	470.963	0.080	0.181
-127.283	524.478	-0.073	-0.171
-126.268	161.922	-0.105	0.147
-125.253	-200.000	0.005	0.185
-124.239	119.346	-0.160	0.198
-123.224	227.154	0.196	0.319
-122.210	83.228	-0.158	0.173
