DTS Sentinel unit serial number:	SN413079Multiplexer serial number:	ORYXHardware model number:	OX4-SRSoftware version number:	ORYX F/W v4.00 Oryx Data Collector v3.7.2.0data status	okinstallation	princeton_trtdifferential loss correction	single-endedforward channel	channel 1reverse channel	N/Adate	2019/09/19time	00:10:35forward acquisition time	60.00reverse acquisition time	0.00gamma	496.2192k internal	0.2342k external	0.2342temperature offset calibration	1.0019default loss term (dB/km)	0.3790temperature slope calibration	1.0000multiplexer offset coefficient	1.0000multiplexer slope coefficient	1.0000fibre end	0.00T internal ref (°C)	22.87T ext. ref 1 (°C)	0.75T ext. ref 2 (°C)	15.81length (m)	temperature (°C)	Stokes	anti-Stokes-747.200	48.340	0.084	0.078
-746.185	800.000	-0.202	0.579
-745.171	-200.000	-0.068	0.567
-744.156	-63.234	-0.207	-0.085
-743.142	331.049	-0.160	0.308
-742.127	230.280	-0.204	0.335
-741.112	94.720	-0.072	-0.082
-740.098	56.347	0.203	0.198
-739.083	800.000	-0.061	0.170
-738.069	251.189	-0.134	0.228
-737.054	800.000	-0.051	-0.190
-736.039	-99.421	-0.450	-0.114
-735.025	-200.000	-0.026	0.154
-734.010	-23.084	-0.116	-0.070
-732.996	-200.000	-0.041	0.315
-731.981	112.759	0.061	-0.074
-730.966	-81.499	-0.335	0.110
-729.952	103.670	-0.165	0.194
-728.937	-178.099	0.550	0.013
-727.923	-200.000	-0.022	0.105
-726.908	-43.713	-0.221	-0.111
-725.894	-91.483	-0.429	-0.123
-724.879	139.660	-0.255	0.336
-723.864	-35.216	0.048	0.026
-722.850	-163.681	-0.343	0.016
-721.835	409.055	-0.099	-0.210
-720.821	-144.012	0.049	-0.005
-719.806	685.222	-0.038	-0.099
-718.791	800.000	-0.073	0.256
-717.777	-200.000	0.016	-0.091
-716.762	-200.000	-0.071	-0.376
-715.748	-53.243	-0.260	0.119
-714.733	-200.000	-0.023	-0.182
-713.718	-118.878	-0.133	-0.023
-712.704	75.907	-0.167	-0.176
-711.689	800.000	0.013	0.051
-710.675	-40.476	-0.116	0.060
-709.660	6.105	0.086	0.064
-708.645	92.600	-0.166	0.187
-707.631	169.124	0.218	0.311
-706.616	-133.367	-0.440	-0.055
-705.602	-43.706	-0.365	-0.184
-704.587	6.278	0.105	0.078
-703.572	26.450	-0.202	-0.169
-702.558	79.689	0.144	-0.154
-701.543	800.000	0.116	-0.377
-700.529	423.083	-0.037	-0.079
-699.514	-63.771	-0.078	0.032
-698.499	-106.537	-0.150	-0.033
-697.485	-119.065	0.113	0.020
-696.470	-57.018	-0.257	-0.113
-695.456	61.722	-0.182	0.181
-694.441	-18.715	-0.187	-0.117
-693.426	-60.488	-0.144	0.061
-692.412	-200.000	-0.037	-0.381
-691.397	-172.468	-0.349	0.011
-690.383	-61.557	-0.207	-0.087
-689.368	-145.632	0.286	0.026
-688.354	800.000	0.062	-0.219
-687.339	-200.000	-0.019	-0.365
-686.324	73.635	-0.234	-0.245
-685.310	-200.000	-0.036	-0.315
-684.295	-200.000	0.025	0.358
-683.281	50.509	0.039	0.037
-682.266	-39.197	0.346	0.182
-681.251	-14.104	-0.268	0.173
-680.237	-81.679	-0.179	-0.059
-679.222	44.446	-0.238	-0.218
-678.208	-200.000	-0.044	0.255
-677.193	9.393	-0.122	0.092
-676.178	800.000	-0.046	0.177
-675.164	-31.885	-0.225	0.126
-674.149	-154.919	-0.086	-0.006
-673.135	-15.708	-0.168	0.107
-672.120	-132.011	-0.096	-0.013
-671.105	-24.249	-0.219	0.131
-670.091	-39.271	0.081	-0.042
-669.076	-200.000	0.004	-0.164
-668.062	800.000	0.048	-0.160
-667.047	26.633	0.078	0.065
-666.032	-200.000	0.007	0.122
-665.018	800.000	0.069	0.202
-664.003	127.866	-0.230	-0.292
-662.989	-200.000	-0.006	-0.369
-661.974	105.329	-0.229	-0.270
-660.959	-161.738	-0.147	0.007
-659.945	38.535	-0.261	-0.233
-658.930	-85.065	0.198	-0.062
-657.916	-200.000	-0.029	-0.408
-656.901	94.380	0.231	-0.262
-655.886	-10.590	-0.246	0.163
-654.872	-200.000	0.024	-0.235
-653.857	-23.737	0.135	-0.081
-652.843	82.833	-0.112	0.122
-651.828	165.640	0.076	-0.107
-650.814	-200.000	-0.043	0.302
-649.799	248.735	-0.257	0.435
-648.784	597.807	-0.100	0.247
-647.770	-200.000	-0.012	-0.112
-646.755	-100.665	-0.246	0.061
-645.741	22.522	-0.177	0.145
-644.726	-200.000	0.022	0.165
-643.711	-112.150	-0.394	-0.079
-642.697	-200.000	-0.006	0.274
-641.682	21.648	-0.270	-0.220
-640.668	357.409	0.094	-0.187
-639.653	173.904	-0.172	-0.247
-638.638	-4.776	-0.274	0.189
-637.624	172.905	0.181	0.260
-636.609	158.213	-0.171	0.236
-635.595	-158.223	-0.101	0.006
-634.580	-142.045	0.156	-0.016
-633.565	800.000	0.047	-0.149
-632.551	431.939	-0.159	0.344
-631.536	800.000	-0.096	0.348
-630.522	341.949	-0.014	-0.027
-629.507	58.674	-0.111	0.109
-628.492	-135.562	-0.375	0.044
-627.478	-110.380	0.351	-0.073
-626.463	43.013	0.229	0.208
-625.449	500.131	-0.066	0.152
-624.434	-22.890	0.235	0.141
-623.419	-105.061	-0.079	-0.018
-622.405	263.628	0.120	0.208
-621.390	272.195	0.084	-0.147
-620.376	258.646	-0.109	-0.187
-619.361	743.429	-0.053	-0.141
-618.346	-200.000	0.000	-0.073
-617.332	700.177	0.047	0.123
-616.317	-32.284	-0.201	-0.112
-615.303	-200.000	-0.013	0.120
-614.288	800.000	-0.058	0.169
-613.273	-200.000	0.072	0.409
-612.259	18.552	0.346	-0.276
-611.244	46.107	-0.027	-0.025
-610.230	-194.223	0.064	-0.001
-609.215	112.157	0.054	-0.065
-608.201	95.128	-0.076	-0.087
-607.186	800.000	0.020	-0.085
-606.171	-200.000	0.034	0.248
-605.157	-108.832	-0.245	0.052
-604.142	-200.000	-0.002	0.313
-603.128	-27.710	-0.471	-0.272
-602.113	-77.760	-0.213	-0.073
-601.098	800.000	0.079	-0.218
-600.084	-200.000	0.006	-0.330
-599.069	385.041	0.104	-0.214
-598.055	285.580	0.038	0.068
-597.040	122.656	0.158	-0.197
-596.025	-77.350	-0.280	-0.097
-595.011	800.000	0.061	-0.218
-593.996	-200.000	-0.075	-0.333
-592.982	-200.000	0.032	-0.251
-591.967	134.556	-0.088	0.114
-590.952	78.888	0.088	0.094
-589.938	800.000	-0.041	0.157
-588.923	362.388	0.124	-0.248
-587.909	-25.625	-0.050	0.029
-586.894	800.000	0.029	-0.121
-585.879	134.488	-0.120	0.155
-584.865	-46.557	0.077	0.038
-583.850	-200.000	-0.007	-0.384
-582.836	139.700	0.062	-0.081
-581.821	-200.000	-0.074	-0.339
-580.806	-198.349	0.202	0.001
-579.792	120.833	0.176	-0.218
-578.777	717.834	-0.048	-0.127
-577.763	81.013	0.215	0.231
-576.748	-63.294	-0.282	-0.116
-575.733	-102.792	-0.128	0.030
-574.719	9.068	-0.135	-0.101
-573.704	-120.518	-0.122	0.021
-572.690	-144.164	0.166	-0.015
-571.675	-177.514	0.229	-0.006
-570.661	-19.454	-0.322	-0.198
-569.646	10.039	-0.164	-0.124
-568.631	-67.891	-0.128	0.050
-567.617	-133.376	-0.081	0.010
-566.602	357.944	-0.068	0.134
-565.588	-200.000	0.027	-0.185
-564.573	800.000	-0.108	-0.307
-563.558	10.492	0.073	-0.055
-562.544	426.902	0.094	-0.201
-561.529	-200.000	0.022	0.124
-560.515	364.182	-0.145	0.290
-559.500	800.000	0.082	-0.300
-558.485	-200.000	0.028	-0.290
-557.471	-63.084	0.143	-0.059
-556.456	421.946	-0.062	-0.132
-555.442	-200.000	0.028	-0.182
-554.427	143.338	-0.112	-0.148
-553.412	457.632	-0.082	-0.181
-552.398	-29.864	0.265	0.150
-551.383	-65.556	0.132	0.053
-550.369	51.084	0.155	-0.146
-549.354	-112.420	-0.272	-0.054
-548.339	84.142	0.153	0.167
-547.325	-17.907	-0.195	-0.122
-546.310	-168.716	0.149	0.006
-545.296	264.296	-0.060	-0.104
-544.281	800.000	-0.079	0.235
-543.266	-157.270	0.273	0.016
-542.252	800.000	-0.068	0.290
-541.237	800.000	0.044	-0.125
-540.223	-198.096	-0.274	0.002
-539.208	29.813	0.075	-0.063
-538.193	-200.000	0.013	0.139
-537.179	224.715	0.158	0.255
-536.164	-100.169	0.390	0.096
-535.150	40.207	0.154	0.138
-534.135	-176.399	-0.241	0.006
-533.121	-46.526	-0.106	0.052
-532.106	36.289	-0.225	0.197
-531.091	61.613	0.044	0.044
-530.077	179.431	0.052	-0.075
-529.062	-135.486	0.233	0.028
-528.048	-25.876	-0.196	-0.115
-527.033	-112.947	-0.212	-0.042
-526.018	114.690	0.318	0.385
-525.004	296.612	0.117	-0.213
-523.989	-157.696	-0.595	-0.035
-522.975	483.159	-0.082	-0.185
-521.960	196.820	-0.080	-0.121
-520.945	580.822	0.120	0.292
-519.931	800.000	0.022	0.081
-518.916	311.248	-0.069	0.129
-517.902	77.915	-0.074	-0.078
-516.887	-128.758	-0.195	-0.027
-515.872	800.000	-0.042	-0.166
-514.858	153.940	-0.230	-0.313
-513.843	-119.843	-0.138	0.024
-512.829	-158.801	-0.216	0.012
-511.814	-200.000	-0.053	-0.335
-510.799	-135.946	0.448	0.052
-509.785	800.000	0.099	0.392
-508.770	177.402	-0.099	-0.143
-507.756	-98.091	-0.317	-0.081
-506.741	-13.055	-0.064	0.042
-505.726	126.108	-0.064	0.081
-504.712	138.583	0.114	0.149
-503.697	29.300	0.103	0.087
-502.683	-198.079	0.216	-0.001
-501.668	-136.184	0.186	0.022
-500.653	-200.000	-0.040	0.186
-499.639	-138.893	0.091	0.010
-498.624	800.000	0.136	-0.389
-497.610	-106.801	0.027	0.006
-496.595	-100.938	0.198	-0.048
-495.581	-14.948	0.330	-0.210
-494.566	67.632	0.151	-0.153
-493.551	800.000	-0.118	-0.343
-492.537	-30.368	-0.255	0.143
-491.522	-67.825	-0.131	-0.051
-490.508	55.558	0.140	-0.135
-489.493	-118.300	0.187	0.033
-488.478	49.669	-0.238	-0.223
-487.464	100.850	-0.153	-0.177
-486.449	800.000	-0.126	0.371
-485.435	-52.583	0.301	0.138
-484.420	394.581	-0.074	0.154
-483.405	-94.639	0.175	0.047
-482.391	261.578	-0.067	-0.115
-481.376	-200.000	-0.192	0.000
-480.362	95.210	-0.147	-0.166
-479.347	-95.624	0.219	-0.058
-478.332	-200.000	-0.024	-0.123
-477.318	-200.000	0.011	0.123
-476.303	-200.000	0.003	-0.084
-475.289	291.422	-0.089	-0.161
-474.274	-85.951	0.034	0.010
-473.259	-33.242	0.230	0.126
-472.245	346.975	0.022	-0.043
-471.230	-200.000	-0.002	-0.309
-470.216	-41.317	0.195	-0.100
-469.201	-90.265	-0.191	0.055
-468.186	93.606	-0.217	0.243
-467.172	-43.184	0.226	-0.113
-466.157	294.478	0.132	0.239
-465.143	219.378	0.086	0.136
-464.128	69.097	0.125	0.128
-463.113	-98.764	0.397	-0.100
-462.099	191.888	-0.048	-0.072
-461.084	800.000	0.068	0.223
-460.070	453.404	0.030	0.065
-459.055	-200.000	0.030	0.200
-458.040	-123.131	-0.206	-0.033
-457.026	-115.923	0.064	-0.012
-456.011	-63.761	0.236	-0.096
-454.997	800.000	0.072	-0.215
-453.982	213.608	0.084	0.131
-452.968	-68.131	0.147	0.057
-451.953	-73.562	0.168	0.061
-450.938	-131.152	-0.059	-0.008
-449.924	-34.173	0.213	-0.116
-448.909	-59.700	-0.298	-0.127
-447.895	-200.000	-0.003	-0.258
-446.880	-156.435	-0.301	-0.019
-445.865	-200.000	0.022	-0.173
-444.851	270.741	0.192	-0.334
-443.836	-115.086	-0.308	0.058
-442.822	673.719	-0.042	-0.107
-441.807	-200.000	-0.016	0.367
-440.792	-110.938	0.519	0.106
-439.778	-67.884	-0.184	0.071
-438.763	72.059	0.056	-0.058
-437.749	39.077	-0.078	0.069
-436.734	0.383	-0.259	0.183
-435.719	107.414	-0.097	0.114
-434.705	-105.081	0.131	-0.030
-433.690	800.000	-0.032	-0.136
-432.676	50.812	0.147	0.138
-431.661	800.000	-0.071	0.234
-430.646	111.736	-0.095	0.114
-429.632	-20.078	0.421	-0.257
-428.617	-73.090	0.117	-0.042
-427.603	-200.000	0.167	-0.000
-426.588	-103.997	0.290	-0.067
-425.573	-22.440	0.062	-0.037
-424.559	10.907	0.052	0.039
-423.544	-200.000	0.002	0.063
-422.530	28.361	0.217	0.182
-421.515	24.085	-0.207	0.169
-420.500	347.495	0.096	-0.187
-419.486	-200.000	-0.033	-0.241
-418.471	505.124	0.036	-0.083
-417.457	-200.000	-0.009	0.088
-416.442	-45.599	0.236	-0.116
-415.428	-48.884	-0.201	0.095
-414.413	-130.445	-0.162	-0.022
-413.398	-163.381	0.140	-0.007
-412.384	-200.000	-0.019	-0.167
-411.369	33.260	-0.091	-0.078
-410.355	388.171	-0.058	-0.119
-409.340	800.000	-0.125	-0.539
-408.325	-154.513	-0.715	-0.047
-407.311	800.000	-0.098	-0.282
-406.296	-21.428	0.060	0.036
-405.282	-97.980	-0.401	0.102
-404.267	-136.920	-0.083	-0.009
-403.252	109.967	-0.072	-0.086
-402.238	12.703	-0.326	-0.248
-401.223	800.000	0.102	0.300
-400.209	-122.300	-0.242	0.039
-399.194	9.465	0.193	-0.144
-398.179	-61.429	-0.352	-0.146
-397.165	485.848	-0.081	-0.182
-396.150	-200.000	-0.003	0.197
-395.136	-176.540	0.289	-0.007
-394.121	194.629	-0.070	-0.105
-393.106	474.706	-0.034	-0.077
-392.092	-79.466	-0.406	-0.136
-391.077	5.613	0.122	-0.089
-390.063	-159.461	-0.094	0.005
-389.048	401.452	-0.190	-0.395
-388.033	-200.000	-0.063	0.392
-387.019	-23.704	0.083	-0.049
-386.004	-200.000	0.003	0.082
-384.990	37.297	-0.223	0.195
-383.975	-45.211	0.161	0.079
-382.960	176.969	0.124	0.178
-381.946	-8.453	-0.351	0.233
-380.931	-200.000	-0.017	-0.133
-379.917	-200.000	-0.001	-0.095
-378.902	41.107	0.073	-0.066
-377.888	57.862	0.051	-0.049
-376.873	58.147	0.358	0.347
-375.858	-126.285	-0.303	-0.045
-374.844	-38.687	-0.214	-0.111
-373.829	268.033	0.102	-0.177
-372.815	-200.000	-0.027	-0.148
-371.800	27.352	-0.106	-0.088
-370.785	-83.985	0.340	0.107
-369.771	12.511	-0.071	0.054
-368.756	-48.404	-0.055	0.026
-367.742	357.214	0.016	-0.032
-366.727	58.697	-0.281	0.272
-365.712	124.657	0.064	-0.079
-364.698	-38.738	-0.161	0.084
-363.683	-200.000	0.010	0.151
-362.669	-100.065	-0.128	-0.032
-361.654	-148.365	-0.141	-0.011
-360.639	333.368	0.007	0.013
-359.625	-200.000	-0.034	-0.207
-358.610	-138.352	0.055	-0.006
-357.596	-200.000	-0.003	-0.235
-356.581	-143.134	-0.229	0.022
-355.566	-7.023	-0.096	-0.064
-354.552	-38.664	0.424	0.221
-353.537	314.703	0.180	0.335
-352.523	800.000	0.038	0.116
-351.508	-59.271	0.028	-0.012
-350.493	-81.760	-0.008	0.003
-349.479	800.000	0.108	0.462
-348.464	-120.832	0.123	0.020
-347.450	-15.950	-0.142	-0.089
-346.435	-200.000	-0.004	-0.129
-345.420	566.065	-0.016	0.038
-344.406	-124.615	0.156	0.024
-343.391	680.549	0.026	0.066
-342.377	179.091	0.217	0.313
-341.362	-26.024	0.108	-0.063
-340.348	-0.628	0.136	-0.095
-339.333	800.000	-0.032	-0.118
-338.318	34.331	0.097	-0.084
-337.304	-57.776	-0.008	0.004
-336.289	3.902	0.059	-0.042
-335.275	800.000	-0.085	-0.237
-334.260	800.000	-0.108	-0.415
-333.245	227.271	0.057	-0.091
-332.231	-114.085	0.269	-0.051
-331.216	31.946	0.223	0.189
-330.202	-7.820	-0.238	0.158
-329.187	295.185	0.088	0.158
-328.172	343.504	-0.153	-0.295
-327.158	31.945	0.120	-0.102
-326.143	-196.374	0.143	0.001
-325.129	75.611	-0.130	0.135
-324.114	-28.270	0.129	-0.073
-323.099	-3.671	-0.014	0.009
-322.085	-66.781	0.095	0.037
-321.070	-200.000	-0.006	-0.077
-320.056	-200.000	0.001	0.288
-319.041	800.000	-0.015	0.061
-318.026	-135.954	0.049	0.006
-317.012	-44.617	0.411	0.202
-315.997	-69.114	-0.104	0.039
-314.983	-89.617	-0.045	-0.013
-313.968	453.422	-0.066	-0.144
-312.953	176.006	0.277	-0.396
-311.939	-135.692	-0.364	-0.043
-310.924	42.014	0.183	-0.163
-309.910	-131.422	-0.432	0.056
-308.895	711.360	-0.069	0.181
-307.880	70.633	-0.090	0.092
-306.866	-72.400	0.284	-0.104
-305.851	113.846	-0.107	0.129
-304.837	800.000	-0.033	0.105
-303.822	184.348	0.201	0.293
-302.807	64.054	-0.083	0.082
-301.793	-11.631	-0.197	-0.127
-300.778	87.177	-0.195	-0.212
-299.764	-70.351	0.160	0.060
-298.749	98.388	0.083	0.094
-297.735	-148.702	-0.294	0.024
-296.720	-138.056	0.126	-0.014
-295.705	-14.244	0.125	-0.079
-294.691	-59.560	-0.219	-0.093
-293.676	-200.000	-0.014	-0.338
-292.662	-159.649	0.107	-0.006
-291.647	174.803	-0.091	-0.130
-290.632	188.216	-0.023	-0.034
-289.618	-135.693	0.377	0.044
-288.603	-200.000	-0.003	0.047
-287.589	13.749	0.309	0.237
-286.574	-200.000	-0.086	-0.429
-285.559	159.184	-0.127	0.174
-284.545	-200.000	0.004	-0.126
-283.530	275.407	0.133	0.233
-282.516	117.203	0.281	0.340
-281.501	-2.009	-0.235	-0.163
-280.486	-25.501	-0.135	0.078
-279.472	-130.843	-0.113	0.015
-278.457	-89.125	-0.197	-0.057
-277.443	129.323	0.176	-0.220
-276.428	-124.227	-0.141	0.022
-275.413	186.360	0.183	-0.268
-274.399	-94.576	-0.161	-0.043
-273.384	16.986	0.027	-0.021
-272.370	5.295	0.342	0.248
-271.355	154.276	-0.157	0.212
-270.340	-193.737	-0.217	-0.002
-269.326	800.000	-0.043	-0.155
-268.311	68.369	-0.091	0.091
-267.297	-200.000	-0.035	0.156
-266.282	-200.000	-0.021	-0.200
-265.267	-138.952	0.229	0.024
-264.253	-1.696	-0.160	0.111
-263.238	800.000	0.060	0.180
-262.224	-122.195	-0.112	-0.018
-261.209	-24.399	0.148	-0.087
-260.195	-141.122	0.073	-0.007
-259.180	21.190	0.437	-0.349
-258.165	178.013	0.158	-0.226
-257.151	800.000	-0.079	0.229
-256.136	175.129	0.112	-0.159
-255.122	241.605	-0.153	-0.252
-254.107	-200.000	-0.004	-0.136
-253.092	568.067	0.079	-0.187
-252.078	-103.884	0.369	0.085
-251.063	-150.179	0.321	0.024
-250.049	96.670	-0.132	-0.148
-249.034	-200.000	-0.049	-0.218
-248.019	-200.000	0.020	0.241
-247.005	-96.842	0.214	0.055
-245.990	800.000	0.086	0.326
-244.976	44.312	-0.237	0.213
-243.961	91.217	-0.096	-0.105
-242.946	148.320	-0.229	-0.303
-241.932	-93.873	0.314	0.085
-240.917	800.000	-0.029	-0.115
-239.903	-18.910	0.062	-0.038
-238.888	522.112	0.091	-0.210
-237.873	-200.000	-0.014	0.203
-236.859	50.853	-0.310	-0.289
-235.844	-11.475	0.234	0.151
-234.830	-154.830	0.161	0.010
-233.815	17.577	-0.078	-0.061
-232.800	202.935	0.075	-0.114
-231.786	25.830	0.236	-0.193
-230.771	-45.546	-0.162	0.079
-229.757	212.325	0.085	-0.132
-228.742	-200.000	0.009	-0.050
-227.727	-9.229	0.185	-0.121
-226.713	800.000	0.023	-0.087
-225.698	-200.000	0.013	-0.086
-224.684	-112.036	0.145	-0.029
-223.669	800.000	-0.025	0.095
-222.655	273.391	-0.067	0.116
-221.640	-66.524	0.076	-0.029
-220.625	-169.101	-0.332	-0.012
-219.611	-96.055	0.041	-0.011
-218.596	301.579	-0.186	0.337
-217.582	665.266	-0.056	0.143
-216.567	800.000	-0.052	-0.151
-215.552	-133.728	0.272	0.033
-214.538	132.753	-0.154	0.195
-213.523	38.127	0.345	0.301
-212.509	-200.000	0.005	-0.084
-211.494	-200.000	-0.027	0.160
-210.479	-141.363	0.295	-0.029
-209.465	191.072	0.151	0.222
-208.450	496.560	-0.091	0.205
-207.436	-22.627	0.264	0.157
-206.421	-200.000	-0.031	0.138
-205.406	389.725	0.105	0.212
-204.392	284.799	-0.181	0.319
-203.377	-48.108	-0.268	-0.127
-202.363	-149.164	0.275	-0.022
-201.348	-90.196	0.153	-0.044
-200.333	417.352	0.058	0.121
-199.319	-73.401	-0.187	0.067
-198.304	80.631	-0.266	-0.281
-197.290	418.594	0.111	0.232
-196.275	800.000	-0.080	0.336
-195.260	800.000	0.076	0.321
-194.246	-59.527	0.143	0.060
-193.231	145.312	0.086	-0.113
-192.217	350.536	-0.009	0.017
-191.202	-47.778	0.109	-0.052
-190.187	-36.925	0.096	-0.050
-189.173	-133.017	-0.274	0.034
-188.158	800.000	0.032	0.113
-187.144	-200.000	0.026	-0.324
-186.129	-200.000	0.024	0.175
-185.114	-11.796	0.051	-0.033
-184.100	127.135	0.030	0.037
-183.085	-89.403	0.134	0.039
-182.071	42.992	-0.037	0.033
-181.056	-129.519	-0.196	0.027
-180.042	-200.000	-0.046	-0.200
-179.027	-200.000	0.046	-0.246
-178.012	-116.997	-0.214	0.038
-176.998	-74.924	-0.109	0.038
-175.983	-57.833	-0.107	0.046
-174.969	-16.935	-0.207	-0.128
-173.954	-45.761	0.070	0.034
-172.939	693.798	-0.067	-0.172
-171.925	800.000	0.048	0.139
-170.910	-200.000	-0.080	0.362
-169.896	-22.233	-0.328	-0.195
-168.881	-200.000	-0.069	0.565
-167.866	800.000	-0.179	0.489
-166.852	-94.443	0.156	-0.042
-165.837	53.840	0.229	-0.216
-164.823	-23.653	0.054	0.032
-163.808	-4.315	0.315	-0.213
-162.793	-63.491	-0.071	-0.028
-161.779	-131.506	0.324	0.042
-160.764	-200.000	-0.038	0.479
-159.750	-200.000	0.008	0.446
-158.735	800.000	-0.024	0.101
-157.720	800.000	-0.044	-0.181
-156.706	-7.116	0.271	0.180
-155.691	117.183	0.177	0.213
-154.677	-111.091	-0.494	0.099
-153.662	-88.472	0.100	-0.029
-152.647	-59.084	0.195	0.082
-151.633	800.000	0.114	0.314
-150.618	-98.381	-0.030	-0.008
-149.604	-200.000	-0.021	-0.215
-148.589	-200.000	-0.039	0.264
-147.574	-200.000	0.071	0.306
-146.560	562.587	-0.045	0.106
-145.545	-200.000	0.022	-0.266
-144.531	79.604	-0.115	-0.121
-143.516	-148.167	-0.137	-0.011
-142.502	423.123	0.042	0.089
-141.487	-7.114	-0.172	0.114
-140.472	333.643	-0.050	0.095
-139.458	-200.000	-0.019	-0.294
-138.443	47.003	0.362	0.330
-137.429	131.208	0.178	0.223
-136.414	800.000	0.160	0.574
-135.399	-200.000	0.009	-0.070
-134.385	65.559	0.245	0.243
-133.370	319.288	-0.064	0.119
-132.356	-82.726	0.244	-0.077
-131.341	-117.917	0.046	0.008
-130.326	-200.000	0.064	-0.311
-129.312	-144.723	0.197	-0.018
-128.297	-33.936	-0.133	0.071
-127.283	-159.982	0.199	-0.011
-126.268	55.590	-0.077	0.073
-125.253	218.877	-0.130	0.203
-124.239	262.122	-0.044	0.075
-123.224	99.273	-0.106	0.120
-122.210	-200.000	0.006	-0.100
