DTS Sentinel unit serial number:	SN413079Multiplexer serial number:	ORYXHardware model number:	OX4-SRSoftware version number:	ORYX F/W v4.00 Oryx Data Collector v3.7.2.0data status	okinstallation	princeton_trtdifferential loss correction	single-endedforward channel	channel 1reverse channel	N/Adate	2019/09/13time	10:10:35forward acquisition time	60.00reverse acquisition time	0.00gamma	496.2192k internal	0.2324k external	0.2324temperature offset calibration	1.0158default loss term (dB/km)	0.3790temperature slope calibration	1.0000multiplexer offset coefficient	1.0000multiplexer slope coefficient	1.0000fibre end	0.00T internal ref (°C)	30.55T ext. ref 1 (°C)	4.51T ext. ref 2 (°C)	27.86length (m)	temperature (°C)	Stokes	anti-Stokes-747.200	800.000	0.014	0.056
-746.185	53.001	-0.123	-0.119
-745.171	97.802	0.172	0.200
-744.156	-200.000	0.026	0.143
-743.142	-110.833	0.141	0.029
-742.127	-200.000	0.016	0.310
-741.112	453.166	0.056	-0.125
-740.098	-87.411	0.109	-0.033
-739.083	27.349	0.224	0.190
-738.069	218.534	-0.122	0.197
-737.054	-106.828	0.188	0.042
-736.039	-200.000	-0.016	0.091
-735.025	556.370	0.097	0.236
-734.010	111.461	-0.326	0.397
-732.996	100.670	-0.117	-0.138
-731.981	-179.789	-0.256	-0.006
-730.966	-200.000	-0.022	0.333
-729.952	800.000	-0.111	0.335
-728.937	105.898	0.057	-0.068
-727.923	-116.833	0.374	-0.069
-726.908	-112.620	-0.571	0.115
-725.894	3.204	0.188	0.138
-724.879	-200.000	-0.006	-0.187
-723.864	-144.963	0.296	0.027
-722.850	752.115	0.116	-0.317
-721.835	-3.694	-0.120	0.084
-720.821	-200.000	-0.009	0.060
-719.806	-99.619	0.415	0.105
-718.791	-200.000	-0.026	-0.627
-717.777	-105.672	-0.204	0.047
-716.762	800.000	-0.029	-0.091
-715.748	58.415	-0.098	-0.097
-714.733	-126.281	-0.199	-0.030
-713.718	-31.132	0.362	-0.206
-712.704	304.904	0.081	-0.151
-711.689	166.962	-0.149	-0.213
-710.675	-108.430	0.114	0.025
-709.660	800.000	-0.128	0.535
-708.645	-46.689	-0.124	-0.061
-707.631	-200.000	0.052	-0.245
-706.616	-200.000	0.000	-0.011
-705.602	128.563	0.102	-0.131
-704.587	800.000	0.011	0.042
-703.572	-200.000	0.021	-0.138
-702.558	-77.869	0.314	-0.109
-701.543	222.150	0.050	0.082
-700.529	-54.619	-0.277	-0.126
-699.514	255.716	-0.033	-0.057
-698.499	-200.000	0.031	-0.158
-697.485	800.000	0.064	-0.222
-696.470	-200.000	-0.055	-0.414
-695.456	-65.985	0.109	0.044
-694.441	-74.454	-0.309	0.112
-693.426	39.745	0.116	0.105
-692.412	-175.073	0.141	0.004
-691.397	-41.487	-0.242	0.125
-690.383	102.524	0.196	-0.231
-689.368	102.363	-0.079	0.093
-688.354	-91.335	0.182	0.052
-687.339	800.000	-0.026	0.110
-686.324	800.000	0.124	0.416
-685.310	800.000	0.025	-0.087
-684.295	102.008	0.070	0.082
-683.281	74.950	0.149	-0.158
-682.266	-123.128	-0.095	0.015
-681.251	-9.442	0.186	0.125
-680.237	62.356	0.181	-0.182
-679.222	-109.798	0.012	-0.002
-678.208	-82.209	-0.084	-0.028
-677.193	-85.071	0.139	-0.044
-676.178	401.952	-0.087	0.183
-675.164	-190.028	-0.272	0.003
-674.149	800.000	-0.069	-0.242
-673.135	469.925	-0.074	-0.167
-672.120	-98.683	0.145	-0.037
-671.105	-37.985	0.262	-0.140
-670.091	-200.000	-0.009	0.181
-669.076	800.000	-0.059	0.167
-668.062	-41.874	-0.291	-0.150
-667.047	102.772	0.159	-0.188
-666.032	215.370	-0.062	-0.099
-665.018	800.000	-0.078	-0.311
-664.003	153.412	0.049	0.068
-662.989	-45.560	0.163	-0.081
-661.974	-8.162	0.150	-0.101
-660.959	71.395	-0.214	0.224
-659.945	497.232	-0.058	-0.133
-658.930	207.887	-0.156	-0.246
-657.916	-119.895	-0.188	0.032
-656.901	800.000	-0.065	-0.195
-655.886	-37.798	-0.257	0.137
-654.872	51.789	0.150	-0.144
-653.857	252.821	-0.049	-0.083
-652.843	119.318	0.318	-0.396
-651.828	800.000	0.036	0.124
-650.814	294.531	0.185	0.340
-649.799	27.420	-0.253	0.214
-648.784	121.853	0.184	0.231
-647.770	-200.000	0.059	-0.295
-646.755	189.588	0.154	0.232
-645.741	248.814	-0.172	-0.293
-644.726	68.016	0.149	0.153
-643.711	-82.539	0.396	0.129
-642.697	-46.570	-0.067	0.033
-641.682	126.469	0.204	0.260
-640.668	8.486	0.118	0.090
-639.653	800.000	-0.094	-0.286
-638.638	-88.703	0.108	0.032
-637.624	-166.288	-0.215	-0.009
-636.609	-81.045	-0.196	-0.065
-635.595	-31.526	-0.190	0.107
-634.580	800.000	0.016	-0.044
-633.565	166.109	-0.163	0.232
-632.551	-25.864	-0.095	-0.057
-631.536	800.000	-0.061	0.250
-630.522	10.918	0.159	-0.122
-629.507	-3.975	0.227	-0.158
-628.492	800.000	-0.114	-0.414
-627.478	-200.000	0.006	-0.042
-626.463	-186.731	0.143	0.002
-625.449	-39.905	0.305	-0.160
-624.434	125.060	0.099	0.126
-623.419	23.137	0.209	0.172
-622.405	-22.681	0.118	-0.072
-621.390	-83.608	0.079	-0.025
-620.376	-200.000	-0.020	0.103
-619.361	-7.483	-0.423	0.288
-618.346	-9.760	0.193	-0.129
-617.332	-136.672	0.011	0.001
-616.317	-4.716	-0.204	0.142
-615.303	61.592	0.116	-0.116
-614.288	222.652	0.176	-0.284
-613.273	-154.814	0.229	-0.015
-612.259	800.000	0.019	0.054
-611.244	-36.369	-0.366	0.198
-610.230	575.351	-0.131	-0.320
-609.215	149.142	-0.170	-0.231
-608.201	305.558	-0.037	-0.070
-607.186	800.000	0.059	-0.181
-606.171	155.561	-0.130	-0.179
-605.157	21.012	-0.175	-0.143
-604.142	-82.640	-0.273	0.089
-603.128	-89.296	-0.242	0.072
-602.113	380.322	-0.042	0.087
-601.098	-200.000	-0.048	0.346
-600.084	32.491	-0.105	-0.091
-599.069	41.963	0.230	-0.210
-598.055	-200.000	-0.241	0.000
-597.040	496.528	0.068	-0.157
-596.025	145.301	-0.128	-0.172
-595.011	68.845	0.124	-0.128
-593.996	-122.843	0.285	0.046
-592.982	-159.396	-0.123	-0.007
-591.967	183.983	-0.098	-0.145
-590.952	56.350	-0.083	-0.081
-589.938	-24.917	0.175	-0.104
-588.923	-120.212	-0.267	0.046
-587.909	58.698	-0.434	-0.428
-586.894	800.000	0.039	-0.148
-585.879	-200.000	0.031	0.191
-584.865	-190.036	-0.563	0.006
-583.850	-162.159	-0.330	0.017
-582.836	79.020	-0.127	-0.136
-581.821	441.606	0.114	0.251
-580.806	-91.367	0.029	-0.008
-579.792	27.732	0.301	-0.254
-578.777	-92.259	-0.265	-0.075
-577.763	-21.531	-0.112	0.068
-576.748	355.678	0.087	-0.174
-575.733	156.139	-0.055	0.077
-574.719	-200.000	0.000	0.173
-573.704	-128.661	-0.049	-0.007
-572.690	87.715	-0.205	-0.228
-571.675	96.001	-0.117	0.135
-570.661	800.000	-0.063	-0.202
-569.646	216.624	0.167	-0.266
-568.631	-61.701	0.246	-0.103
-567.617	9.255	-0.061	-0.047
-566.602	-200.000	-0.028	-0.305
-565.588	46.857	0.059	-0.055
-564.573	-200.000	0.074	0.345
-563.558	-3.022	-0.264	0.184
-562.544	-49.677	0.266	-0.127
-561.529	-106.483	0.172	0.039
-560.515	78.862	-0.129	-0.139
-559.500	-109.916	-0.058	-0.012
-558.485	-7.426	-0.155	0.105
-557.471	800.000	-0.192	-0.550
-556.456	9.478	0.035	-0.027
-555.442	215.287	0.091	0.145
-554.427	-200.000	-0.026	-0.356
-553.412	-200.000	-0.015	0.342
-552.398	-114.980	-0.379	0.072
-551.383	-200.000	-0.038	-0.333
-550.369	-48.047	-0.109	0.053
-549.354	-33.552	0.108	0.060
-548.339	-118.003	-0.561	-0.101
-547.325	610.819	0.065	0.164
-546.310	-200.000	0.002	-0.024
-545.296	-200.000	0.009	-0.212
-544.281	25.755	0.079	-0.066
-543.266	-200.000	0.018	-0.191
-542.252	800.000	0.050	-0.201
-541.237	800.000	0.061	0.266
-540.223	48.857	0.055	0.052
-539.208	-22.572	-0.087	-0.053
-538.193	800.000	0.014	0.044
-537.179	-123.936	0.236	0.037
-536.164	-47.878	0.126	0.061
-535.150	-101.659	-0.168	-0.041
-534.135	332.355	0.034	0.065
-533.121	-128.364	-0.295	0.042
-532.106	34.650	-0.174	0.153
-531.091	78.894	-0.089	-0.096
-530.077	-200.000	-0.076	0.450
-529.062	-108.166	-0.202	-0.044
-528.048	736.262	-0.092	0.248
-527.033	226.873	0.131	-0.212
-526.018	328.866	0.033	-0.064
-525.004	50.896	-0.121	-0.115
-523.989	57.559	0.056	0.055
-522.975	-118.138	0.102	-0.018
-521.960	-105.756	-0.122	0.028
-520.945	-74.363	0.387	-0.140
-519.931	192.981	-0.118	0.179
-518.916	-200.000	-0.021	0.231
-517.902	-131.004	0.032	-0.004
-516.887	-5.554	0.146	-0.100
-515.872	800.000	0.081	0.331
-514.858	-170.635	0.250	-0.009
-513.843	1.348	0.137	0.099
-512.829	212.969	-0.136	-0.215
-511.814	-109.737	-0.310	0.065
-510.799	-200.000	0.011	0.135
-509.785	-9.647	0.063	0.042
-508.770	4.081	0.086	0.063
-507.756	-73.877	0.089	0.032
-506.741	800.000	-0.083	-0.256
-505.726	-116.815	0.121	0.022
-504.712	-200.000	-0.031	0.239
-503.697	52.284	0.294	0.280
-502.683	800.000	0.099	-0.369
-501.668	381.732	0.046	-0.095
-500.653	40.206	-0.150	0.135
-499.639	-200.000	-0.043	-0.326
-498.624	172.951	0.081	-0.117
-497.610	305.778	-0.109	-0.202
-496.595	238.018	-0.070	-0.116
-495.581	-3.191	0.097	-0.068
-494.566	-200.000	-0.037	-0.705
-493.551	55.235	0.344	-0.333
-492.537	-74.764	-0.209	-0.075
-491.522	-194.220	0.229	0.002
-490.508	800.000	-0.042	0.168
-489.493	282.819	-0.087	-0.155
-488.478	784.613	-0.041	-0.113
-487.464	-43.660	0.363	-0.183
-486.449	517.904	0.094	0.219
-485.435	168.801	-0.140	0.199
-484.420	-45.705	-0.199	-0.098
-483.405	80.699	0.120	-0.130
-482.391	-92.363	-0.294	-0.083
-481.376	197.067	-0.064	0.097
-480.362	248.427	0.056	0.094
-479.347	-200.000	0.025	-0.206
-478.332	7.945	-0.137	0.103
-477.318	-56.573	0.338	0.150
-476.303	-121.904	0.273	-0.045
-475.289	-55.298	-0.349	0.157
-474.274	-200.000	-0.070	0.356
-473.259	388.000	0.029	-0.059
-472.245	52.723	-0.121	0.115
-471.230	80.140	0.163	0.176
-470.216	-8.088	-0.249	-0.167
-469.201	70.994	-0.231	-0.239
-468.186	800.000	0.084	0.287
-467.172	-8.671	-0.115	0.077
-466.157	-33.909	-0.296	0.163
-465.143	-200.000	-0.044	-0.360
-464.128	-34.725	0.287	-0.157
-463.113	-124.723	-0.016	0.002
-462.099	144.355	-0.077	-0.103
-461.084	122.610	0.075	0.094
-460.070	40.579	0.160	-0.144
-459.055	-110.449	-0.471	-0.098
-458.040	-52.129	0.373	0.173
-457.026	13.742	-0.133	-0.103
-456.011	96.309	0.195	0.223
-454.997	800.000	0.042	0.168
-453.982	-87.899	-0.457	-0.137
-452.968	637.718	0.065	-0.164
-451.953	-44.573	-0.018	0.009
-450.938	-155.196	0.124	-0.008
-449.924	126.989	-0.013	-0.016
-448.909	-200.000	0.030	0.146
-447.895	-13.458	-0.331	-0.214
-446.880	735.879	0.046	-0.124
-445.865	-200.000	0.035	-0.157
-444.851	-73.389	0.267	0.097
-443.836	-67.053	0.111	0.044
-442.822	-200.000	-0.037	0.378
-441.807	408.217	-0.108	-0.229
-440.792	800.000	-0.057	0.213
-439.778	128.353	-0.146	0.185
-438.763	800.000	0.135	0.476
-437.749	-42.345	-0.295	-0.150
-436.734	-173.820	0.169	0.005
-435.719	24.020	0.157	-0.129
-434.705	-200.000	0.040	0.190
-433.690	347.638	-0.027	0.053
-432.676	-80.918	-0.158	0.052
-431.661	-21.729	-0.172	0.105
-430.646	-139.876	-0.081	-0.009
-429.632	-171.925	0.319	0.010
-428.617	800.000	0.044	-0.124
-427.603	-151.500	0.373	-0.028
-426.588	-200.000	-0.005	-0.158
-425.573	-165.631	0.023	0.001
-424.559	-115.870	0.245	0.046
-423.544	-24.399	-0.204	-0.121
-422.530	61.047	-0.139	-0.138
-421.515	-200.000	-0.024	-0.174
-420.500	-200.000	-0.014	-0.189
-419.486	-70.454	-0.215	0.081
-418.471	152.735	-0.014	0.019
-417.457	-200.000	-0.058	-0.454
-416.442	487.731	-0.203	-0.461
-415.428	82.232	-0.090	0.098
-414.413	28.547	-0.060	-0.051
-413.398	170.989	0.109	-0.156
-412.384	-70.004	-0.146	0.056
-411.369	-114.890	0.400	0.076
-410.355	-63.343	0.212	-0.087
-409.340	220.463	0.120	-0.191
-408.325	-159.862	0.094	-0.005
-407.311	-79.242	0.247	0.083
-406.296	-21.023	-0.337	-0.206
-405.282	-200.000	-0.008	0.257
-404.267	-109.329	0.418	-0.088
-403.252	1.114	0.303	-0.217
-402.238	-33.111	0.132	-0.073
-401.223	119.649	-0.117	-0.145
-400.209	-110.398	-0.146	-0.030
-399.194	47.568	-0.046	0.042
-398.179	-51.052	0.288	-0.135
-397.165	552.361	0.098	0.235
-396.150	-108.224	-0.239	0.051
-395.136	-200.000	0.014	-0.175
-394.121	307.992	0.079	0.148
-393.106	-200.000	0.075	0.659
-392.092	-200.000	0.057	-0.288
-391.077	245.910	0.076	0.127
-390.063	31.624	-0.082	-0.071
-389.048	105.786	-0.298	0.351
-388.033	-20.892	-0.389	0.237
-387.019	-134.177	0.360	0.044
-386.004	-81.692	-0.266	-0.087
-384.990	-200.000	-0.022	0.148
-383.975	-70.741	0.119	0.045
-382.960	-43.471	0.116	-0.058
-381.946	-200.000	-0.048	-0.277
-380.931	-45.722	0.181	0.089
-379.917	-34.184	0.430	-0.235
-378.902	-26.216	-0.249	0.146
-377.888	-200.000	0.025	0.219
-376.873	-135.822	0.223	-0.026
-375.858	-200.000	0.002	-0.043
-374.844	-54.330	-0.334	0.151
-373.829	-64.857	0.094	0.038
-372.815	249.327	0.076	-0.128
-371.800	-84.633	-0.226	0.071
-370.785	800.000	-0.112	-0.348
-369.771	583.744	0.185	0.452
-368.756	-76.989	-0.405	-0.141
-367.742	800.000	0.044	-0.131
-366.727	-81.637	-0.061	-0.020
-365.712	-53.192	0.226	0.103
-364.698	-200.000	0.040	0.283
-363.683	-139.272	0.191	-0.020
-362.669	4.076	0.295	0.214
-361.654	-97.956	0.133	0.034
-360.639	800.000	0.135	0.435
-359.625	5.169	0.149	0.109
-358.610	116.549	0.271	-0.331
-357.596	-135.204	0.200	-0.024
-356.581	370.760	-0.117	0.236
-355.566	-17.326	-0.124	-0.078
-354.552	-33.697	-0.137	-0.075
-353.537	-29.027	0.250	0.142
-352.523	800.000	-0.052	0.155
-351.508	25.224	0.045	0.037
-350.493	316.052	0.163	-0.306
-349.479	395.512	-0.137	-0.284
-348.464	185.512	0.081	-0.120
-347.450	-128.343	-0.081	-0.012
-346.435	97.617	-0.019	0.022
-345.420	456.682	0.010	-0.022
-344.406	800.000	0.075	0.214
-343.391	-171.804	-0.203	-0.007
-342.377	-200.000	-0.052	0.265
-341.362	-17.507	0.111	0.069
-340.348	-180.447	0.046	-0.001
-339.333	-200.000	-0.213	0.001
-338.318	0.665	-0.197	0.140
-337.304	295.641	-0.082	0.150
-336.289	-200.000	0.017	0.347
-335.275	-17.724	0.179	-0.112
-334.260	541.662	0.159	-0.377
-333.245	-91.020	0.295	-0.084
-332.231	77.274	0.179	-0.189
-331.216	216.397	-0.167	0.263
-330.202	781.927	-0.059	0.161
-329.187	-200.000	0.034	0.274
-328.172	35.226	0.136	-0.118
-327.158	21.755	-0.040	0.032
-326.143	-200.000	-0.007	-0.156
-325.129	130.589	0.044	-0.057
-324.114	-200.000	-0.015	-0.069
-323.099	768.448	0.092	0.249
-322.085	-200.000	-0.008	-0.097
-321.070	-200.000	0.001	-0.236
-320.056	-142.458	0.161	0.016
-319.041	800.000	0.080	-0.224
-318.026	-53.572	-0.203	-0.092
-317.012	-200.000	0.011	0.106
-315.997	35.949	0.122	-0.107
-314.983	132.295	0.188	-0.240
-313.968	-200.000	0.001	0.345
-312.953	-105.732	0.096	-0.022
-311.939	-19.148	0.245	0.151
-310.924	-43.019	-0.063	0.032
-309.910	254.001	-0.100	0.170
-308.895	-94.298	-0.158	-0.043
-307.880	-116.166	0.196	-0.036
-306.866	122.771	-0.147	0.182
-305.851	-82.000	-0.122	-0.039
-304.837	-141.846	0.222	0.022
-303.822	115.752	-0.248	-0.301
-302.807	-105.412	-0.184	-0.042
-301.793	534.439	-0.137	-0.321
-300.778	511.408	0.103	0.237
-299.764	-200.000	0.055	0.254
-298.749	-66.971	0.185	-0.072
-297.735	-139.441	-0.129	-0.014
-296.720	-200.000	0.029	-0.304
-295.705	800.000	-0.053	0.199
-294.691	-39.544	0.316	-0.164
-293.676	-82.697	0.106	-0.034
-292.662	-200.000	0.026	0.114
-291.647	-50.557	-0.088	0.041
-290.632	800.000	0.010	0.039
-289.618	-98.084	-0.266	0.068
-288.603	-18.978	0.328	-0.202
-287.589	286.849	0.072	0.128
-286.574	107.869	0.119	-0.141
-285.559	241.430	0.087	0.144
-284.545	70.312	-0.184	-0.188
-283.530	800.000	-0.102	0.309
-282.516	800.000	-0.045	0.186
-281.501	-10.382	0.169	-0.111
-280.486	-94.444	0.412	-0.111
-279.472	-200.000	0.048	0.309
-278.457	-131.889	-0.253	-0.033
-277.443	-18.321	-0.203	0.126
-276.428	-60.105	-0.232	-0.098
-275.413	-165.934	0.033	-0.001
-274.399	-70.922	-0.103	-0.038
-273.384	-72.824	-0.130	0.047
-272.370	262.091	0.099	0.171
-271.355	-141.709	0.126	0.013
-270.340	53.015	0.329	-0.312
-269.326	447.382	0.157	0.343
-268.311	-31.811	0.090	0.050
-267.297	-200.000	-0.034	0.154
-266.282	23.160	0.136	0.110
-265.267	327.887	-0.213	-0.406
-264.253	-200.000	-0.004	-0.107
-263.238	800.000	0.094	-0.293
-262.224	46.035	-0.157	-0.144
-261.209	409.220	-0.095	0.200
-260.195	-17.560	-0.124	0.077
-259.180	-80.284	0.221	-0.073
-258.165	-157.479	-0.216	0.013
-257.151	279.110	0.090	0.160
-256.136	56.828	-0.188	-0.182
-255.122	-119.105	-0.224	-0.039
-254.107	-90.234	0.291	0.084
-253.092	-95.276	0.179	0.048
-252.078	588.641	-0.070	-0.172
-251.063	-163.449	-0.200	-0.009
-250.049	-122.830	0.252	0.040
-249.034	525.866	0.109	0.254
-248.019	-11.211	0.172	0.112
-247.005	-73.708	0.152	0.055
-245.990	39.840	0.062	-0.055
-244.976	465.035	-0.092	0.203
-243.961	800.000	0.008	-0.027
-242.946	546.005	-0.057	0.135
-241.932	-200.000	0.016	0.224
-240.917	-87.794	0.326	0.097
-239.903	94.348	0.214	-0.240
-238.888	588.493	0.032	-0.079
-237.873	-61.399	0.141	-0.059
-236.859	235.409	0.082	0.133
-235.844	-200.000	-0.022	0.115
-234.830	412.379	-0.210	0.441
-233.815	-14.773	-0.177	0.112
-232.800	-114.332	0.233	0.044
-231.786	-82.320	-0.397	0.128
-230.771	-65.304	-0.311	0.124
-229.757	375.231	0.168	0.339
-228.742	55.811	-0.066	-0.063
-227.727	42.605	0.068	0.061
-226.713	-116.373	0.121	-0.022
-225.698	-200.000	-0.011	-0.071
-224.684	262.190	0.013	0.023
-223.669	603.089	-0.147	0.362
-222.655	-200.000	0.033	0.328
-221.640	743.915	-0.081	0.217
-220.625	-154.605	-0.150	-0.010
-219.611	-61.095	-0.070	-0.029
-218.596	-200.000	-0.035	-0.187
-217.582	149.234	0.178	0.238
-216.567	-36.864	-0.157	0.083
-215.552	-200.000	-0.039	-0.193
-214.538	148.836	0.151	0.202
-213.523	800.000	-0.011	-0.044
-212.509	27.356	-0.219	0.182
-211.494	-84.970	0.059	-0.018
-210.479	-200.000	-0.024	-0.189
-209.465	800.000	0.087	0.273
-208.450	-200.000	0.001	-0.194
-207.436	-200.000	-0.019	0.189
-206.421	-113.127	0.162	-0.032
-205.406	-58.391	0.204	-0.088
-204.392	-43.040	-0.314	-0.157
-203.377	800.000	-0.029	0.122
-202.363	-63.934	0.072	-0.029
-201.348	-36.083	-0.098	-0.052
-200.333	-134.100	0.123	-0.015
-199.319	-82.580	-0.290	-0.093
-198.304	28.123	0.284	0.237
-197.290	800.000	-0.054	0.199
-196.275	800.000	-0.079	0.231
-195.260	-167.124	-0.201	-0.008
-194.246	800.000	0.081	-0.234
-193.231	-128.259	-0.235	-0.033
-192.217	-200.000	-0.011	-0.064
-191.202	204.917	0.131	-0.201
-190.187	95.123	-0.303	-0.341
-189.173	290.752	-0.103	0.185
-188.158	16.948	0.073	0.057
-187.144	-200.000	0.007	-0.091
-186.129	274.595	-0.173	-0.303
-185.114	800.000	-0.091	-0.393
-184.100	-2.229	0.172	0.119
-183.085	-200.000	-0.001	-0.332
-182.071	-142.626	0.214	-0.021
-181.056	198.489	-0.186	0.281
-180.042	12.912	-0.178	0.136
-179.027	136.829	-0.122	-0.158
-178.012	-200.000	-0.014	0.102
-176.998	447.838	-0.104	0.225
-175.983	-65.878	-0.091	0.036
-174.969	-15.939	-0.112	0.071
-173.954	178.055	-0.102	-0.146
-172.939	-200.000	0.004	0.055
-171.925	61.084	0.104	0.102
-170.910	47.649	-0.101	-0.093
-169.896	-169.659	-0.064	-0.002
-168.881	-200.000	-0.002	0.285
-167.866	135.487	0.132	-0.169
-166.852	-35.740	0.039	0.021
-165.837	367.436	0.079	-0.157
-164.823	-45.583	0.212	0.104
-163.808	-123.838	-0.183	-0.028
-162.793	162.903	0.164	0.227
-161.779	-66.959	0.184	-0.072
-160.764	380.316	0.152	0.308
-159.750	-147.186	0.174	-0.015
-158.735	27.572	0.282	-0.234
-157.720	800.000	-0.070	-0.218
-156.706	644.054	-0.117	0.294
-155.691	37.631	-0.111	-0.097
-154.677	280.526	0.188	0.332
-153.662	-200.000	0.003	-0.035
-152.647	-5.683	-0.426	-0.288
-151.633	-92.883	0.238	0.066
-150.618	73.066	0.166	-0.172
-149.604	800.000	0.060	0.192
-148.589	-51.307	-0.311	0.144
-147.574	-12.030	-0.056	0.036
-146.560	-200.000	-0.005	0.349
-145.545	299.712	0.144	-0.261
-144.531	32.122	0.208	-0.177
-143.516	-95.749	-0.165	0.043
-142.502	800.000	0.039	0.111
-141.487	30.723	-0.089	-0.075
-140.472	-95.509	0.205	-0.054
-139.458	-119.107	-0.294	-0.051
-138.443	800.000	0.119	0.330
-137.429	-200.000	0.057	0.294
-136.414	87.197	0.143	0.156
-135.399	-44.321	-0.179	-0.088
-134.385	-4.796	-0.160	0.109
-133.370	-58.959	0.416	0.177
-132.356	-32.635	-0.189	-0.103
-131.341	-155.325	0.170	-0.011
-130.326	-200.000	-0.025	0.166
-129.312	-63.967	-0.192	-0.077
-128.297	-200.000	-0.022	0.099
-127.283	346.275	0.107	-0.208
-126.268	-71.011	0.128	0.047
-125.253	-200.000	0.023	-0.644
-124.239	688.883	-0.143	-0.367
-123.224	-179.987	0.095	-0.002
-122.210	-38.382	0.181	0.094
-121.195	68.956	0.060	-0.060
