DTS Sentinel unit serial number:	SN413079Multiplexer serial number:	ORYXHardware model number:	OX4-SRSoftware version number:	ORYX F/W v4.00 Oryx Data Collector v3.7.2.0data status	okinstallation	princeton_trtdifferential loss correction	single-endedforward channel	channel 1reverse channel	N/Adate	2019/09/14time	05:50:35forward acquisition time	60.00reverse acquisition time	0.00gamma	496.2192k internal	0.2334k external	0.2334temperature offset calibration	1.0083default loss term (dB/km)	0.3790temperature slope calibration	1.0000multiplexer offset coefficient	1.0000multiplexer slope coefficient	1.0000fibre end	0.00T internal ref (°C)	26.89T ext. ref 1 (°C)	3.40T ext. ref 2 (°C)	21.38length (m)	temperature (°C)	Stokes	anti-Stokes-747.200	75.954	0.321	-0.341
-746.185	669.452	-0.027	0.071
-745.171	21.149	0.151	0.124
-744.156	35.095	-0.211	-0.186
-743.142	2.296	0.348	0.253
-742.127	-200.000	0.008	-0.041
-741.112	-200.000	-0.004	0.089
-740.098	-108.103	-0.209	-0.045
-739.083	-2.767	0.235	0.165
-738.069	-200.000	0.028	0.476
-737.054	800.000	0.071	0.231
-736.039	-87.491	-0.379	-0.115
-735.025	111.750	-0.080	0.097
-734.010	-79.923	-0.241	-0.081
-732.996	-77.662	0.004	0.001
-731.981	-200.000	-0.006	0.247
-730.966	31.184	0.361	0.311
-729.952	60.593	-0.038	0.038
-728.937	800.000	0.087	0.270
-727.923	48.959	0.143	-0.134
-726.908	69.727	0.093	0.097
-725.894	185.429	0.055	-0.082
-724.879	251.507	0.107	-0.183
-723.864	78.265	-0.056	-0.060
-722.850	16.328	0.046	0.036
-721.835	417.747	-0.130	-0.279
-720.821	3.266	0.154	0.112
-719.806	800.000	0.043	0.177
-718.791	800.000	-0.053	-0.159
-717.777	-18.939	-0.230	-0.144
-716.762	74.512	0.118	0.124
-715.748	64.206	-0.286	-0.289
-714.733	-122.447	-0.245	-0.040
-713.718	-80.434	0.130	0.044
-712.704	-200.000	0.027	0.137
-711.689	800.000	0.148	0.485
-710.675	443.762	0.056	-0.122
-709.660	-154.387	0.295	0.020
-708.645	174.191	-0.150	-0.218
-707.631	236.188	-0.070	-0.117
-706.616	800.000	-0.036	-0.143
-705.602	68.091	-0.324	-0.333
-704.587	54.436	0.187	-0.181
-703.572	27.465	0.295	0.249
-702.558	-167.245	-0.062	0.003
-701.543	-70.733	-0.139	-0.053
-700.529	-49.514	-0.078	0.037
-699.514	-87.818	0.287	0.087
-698.499	88.622	0.235	0.262
-697.485	134.888	-0.147	-0.191
-696.470	-119.284	-0.042	-0.007
-695.456	138.695	-0.163	-0.215
-694.441	40.240	-0.220	0.199
-693.426	-84.257	0.198	-0.063
-692.412	-86.619	-0.457	-0.141
-691.397	55.792	0.290	0.282
-690.383	-160.398	-0.185	0.010
-689.368	-52.093	0.266	0.124
-688.354	-79.540	-0.101	-0.034
-687.339	-10.753	0.320	-0.212
-686.324	-110.734	-0.063	-0.013
-685.310	300.732	-0.080	-0.149
-684.295	-110.642	0.272	-0.056
-683.281	-125.683	0.353	0.054
-682.266	57.746	-0.208	-0.203
-681.251	-200.000	0.001	0.076
-680.237	144.384	0.072	-0.096
-679.222	800.000	-0.041	-0.174
-678.208	-200.000	-0.042	0.203
-677.193	800.000	-0.123	-0.456
-676.178	58.831	-0.352	-0.347
-675.164	-54.699	0.102	-0.046
-674.149	-129.756	0.311	0.043
-673.135	146.237	0.239	-0.321
-672.120	-200.000	-0.036	-0.161
-671.105	-200.000	0.008	0.106
-670.091	-200.000	0.013	0.097
-669.076	-200.000	-0.000	0.222
-668.062	-200.000	0.001	-0.115
-667.047	245.089	0.151	-0.255
-666.032	-14.496	-0.108	0.070
-665.018	-28.812	0.195	0.112
-664.003	-61.047	-0.101	0.043
-662.989	-76.855	0.236	0.083
-661.974	-104.886	0.367	-0.084
-660.959	387.515	-0.082	-0.169
-659.945	-200.000	-0.019	0.171
-658.930	-72.252	-0.162	0.060
-657.916	800.000	0.056	-0.156
-656.901	234.632	-0.089	0.147
-655.886	-200.000	-0.021	0.494
-654.872	34.053	0.084	-0.073
-653.857	-151.870	0.172	-0.013
-652.843	-154.002	-0.299	-0.020
-651.828	-145.389	0.143	-0.013
-650.814	203.713	0.104	0.161
-649.799	-200.000	-0.019	0.107
-648.784	-56.408	-0.144	-0.064
-647.770	-200.000	-0.020	-0.089
-646.755	-88.442	0.252	-0.075
-645.741	800.000	0.072	0.277
-644.726	-200.000	0.002	0.015
-643.711	-87.939	-0.386	-0.116
-642.697	800.000	0.053	-0.190
-641.682	215.473	0.142	0.225
-640.668	-13.111	-0.242	-0.157
-639.653	-180.470	0.036	-0.001
-638.638	800.000	-0.062	-0.191
-637.624	144.530	0.108	0.144
-636.609	-42.721	0.176	-0.090
-635.595	224.378	-0.184	0.298
-634.580	-26.651	-0.281	-0.165
-633.565	-32.189	-0.345	0.193
-632.551	-133.799	0.205	0.026
-631.536	-110.815	-0.014	-0.003
-630.522	-200.000	-0.041	0.227
-629.507	-150.864	-0.212	-0.016
-628.492	109.958	-0.187	0.225
-627.478	-122.893	0.243	0.039
-626.463	144.654	0.142	0.190
-625.449	14.929	-0.356	-0.279
-624.434	-200.000	0.004	0.165
-623.419	-200.000	0.005	-0.026
-622.405	-62.043	-0.380	0.159
-621.390	800.000	-0.052	0.205
-620.376	-108.466	-0.403	-0.087
-619.361	-175.285	-0.259	-0.007
-618.346	75.165	0.323	-0.341
-617.332	-132.033	0.391	-0.051
-616.317	-200.000	0.003	-0.208
-615.303	-200.000	0.039	-0.620
-614.288	160.094	0.156	-0.217
-613.273	237.430	-0.136	0.225
-612.259	-39.141	0.202	0.106
-611.244	30.663	0.056	0.048
-610.230	-59.036	-0.215	0.093
-609.215	-200.000	-0.037	-0.191
-608.201	233.571	-0.242	0.398
-607.186	-200.000	-0.029	0.195
-606.171	3.304	0.090	-0.065
-605.157	800.000	0.048	-0.190
-604.142	-200.000	0.033	-0.187
-603.128	35.666	-0.218	0.192
-602.113	-55.545	-0.063	-0.028
-601.098	800.000	0.122	-0.435
-600.084	45.173	0.027	0.025
-599.069	-200.000	0.060	-0.270
-598.055	800.000	0.126	-0.361
-597.040	42.224	0.103	0.093
-596.025	-200.000	-0.060	-0.269
-595.011	-200.000	-0.021	-0.097
-593.996	5.090	0.031	-0.023
-592.982	86.379	0.172	-0.189
-591.967	-200.000	0.000	-0.012
-590.952	-141.220	-0.371	-0.038
-589.938	35.539	-0.221	-0.194
-588.923	-200.000	-0.005	-0.514
-587.909	-200.000	-0.025	-0.231
-586.894	10.132	0.157	-0.119
-585.879	-200.000	0.021	-0.111
-584.865	-200.000	-0.033	0.284
-583.850	800.000	-0.075	-0.220
-582.836	800.000	0.075	-0.257
-581.821	204.664	0.159	-0.246
-580.806	-22.193	0.171	-0.104
-579.792	-51.822	-0.086	0.040
-578.777	20.599	-0.066	-0.053
-577.763	-81.395	0.117	-0.038
-576.748	-163.309	-0.159	0.008
-575.733	447.152	0.060	0.131
-574.719	260.710	-0.070	0.121
-573.704	-29.486	0.214	-0.122
-572.690	800.000	0.095	0.320
-571.675	-200.000	-0.037	-0.399
-570.661	241.624	-0.049	-0.082
-569.646	-51.193	-0.151	-0.070
-568.631	-44.400	0.248	-0.124
-567.617	687.631	0.028	-0.072
-566.602	87.156	-0.276	0.304
-565.588	-66.004	0.178	0.071
-564.573	118.620	0.156	-0.192
-563.558	393.395	-0.208	0.432
-562.544	-133.969	-0.400	-0.049
-561.529	-120.683	-0.228	-0.039
-560.515	-198.966	0.300	-0.002
-559.500	-140.129	-0.253	0.027
-558.485	-200.000	-0.002	-0.263
-557.471	-124.343	-0.343	0.053
-556.456	75.440	0.098	-0.104
-555.442	14.411	-0.216	0.168
-554.427	-99.215	0.160	-0.040
-553.412	37.974	-0.088	0.078
-552.398	792.763	-0.112	-0.308
-551.383	388.509	-0.053	-0.110
-550.369	38.475	-0.271	0.241
-549.354	606.325	0.122	-0.304
-548.339	28.621	0.101	0.085
-547.325	-68.593	-0.265	-0.102
-546.310	-162.918	0.184	-0.009
-545.296	136.015	-0.084	-0.109
-544.281	16.958	-0.240	-0.189
-543.266	711.291	-0.065	-0.171
-542.252	-118.620	-0.256	-0.045
-541.237	-110.296	-0.225	0.047
-540.223	97.435	-0.107	-0.123
-539.208	-125.226	0.150	0.023
-538.193	-200.000	-0.016	0.106
-537.179	800.000	0.016	-0.063
-536.164	-200.000	-0.048	-0.228
-535.150	109.119	0.028	0.033
-534.135	26.516	-0.162	0.135
-533.121	-91.361	0.205	0.058
-532.106	-10.547	-0.173	0.114
-531.091	-200.000	-0.030	-0.282
-530.077	-42.111	-0.226	-0.115
-529.062	800.000	-0.036	0.110
-528.048	-93.598	-0.306	0.084
-527.033	-200.000	0.038	-0.195
-526.018	45.622	-0.372	0.343
-525.004	-121.461	-0.309	-0.051
-523.989	757.894	-0.109	0.294
-522.975	67.604	-0.345	-0.351
-521.960	335.423	-0.100	-0.194
-520.945	49.644	0.161	-0.151
-519.931	800.000	-0.011	-0.038
-518.916	-200.000	0.020	-0.088
-517.902	800.000	-0.053	-0.210
-516.887	-200.000	-0.030	-0.158
-515.872	-200.000	0.034	0.436
-514.858	4.573	0.003	0.002
-513.843	29.563	0.251	0.212
-512.829	-14.813	-0.182	-0.116
-511.814	185.814	0.108	-0.159
-510.799	-200.000	0.002	-0.154
-509.785	75.248	0.077	-0.081
-508.770	-143.297	0.129	-0.012
-507.756	-111.434	0.012	0.002
-506.741	8.283	-0.048	-0.036
-505.726	-94.108	0.241	-0.066
-504.712	-112.134	0.230	-0.046
-503.697	175.659	0.237	-0.342
-502.683	-112.969	0.242	-0.048
-501.668	-16.345	0.137	0.087
-500.653	188.769	-0.217	-0.323
-499.639	-3.463	-0.188	0.130
-498.624	-200.000	-0.029	0.162
-497.610	-70.157	-0.241	-0.091
-496.595	-156.792	-0.051	-0.003
-495.581	96.190	-0.137	-0.156
-494.566	640.170	-0.100	-0.253
-493.551	800.000	-0.145	-0.506
-492.537	-164.428	0.228	0.010
-491.522	-200.000	0.012	-0.059
-490.508	173.362	0.177	-0.253
-489.493	40.004	-0.167	0.149
-488.478	96.829	0.204	-0.232
-487.464	-34.502	0.142	0.077
-486.449	-190.341	-0.093	0.001
-485.435	291.272	-0.126	0.228
-484.420	-200.000	-0.013	0.221
-483.405	341.216	0.123	-0.240
-482.391	13.805	-0.209	0.161
-481.376	-29.831	0.268	-0.152
-480.362	-178.789	0.519	-0.012
-479.347	-17.196	-0.197	-0.123
-478.332	-36.461	0.179	0.096
-477.318	32.723	0.222	0.191
-476.303	-200.000	0.041	-0.195
-475.289	-200.000	0.027	-0.120
-474.274	43.274	-0.055	0.050
-473.259	-64.504	-0.343	0.139
-472.245	92.072	-0.146	0.164
-471.230	-74.533	-0.240	-0.086
-470.216	377.223	0.058	-0.118
-469.201	-134.202	0.372	-0.046
-468.186	-26.467	-0.227	0.132
-467.172	800.000	-0.098	0.328
-466.157	-200.000	0.007	-0.095
-465.143	262.776	0.017	-0.030
-464.128	-200.000	0.048	0.309
-463.113	-125.476	-0.111	0.017
-462.099	743.360	-0.008	0.021
-461.084	-118.263	0.117	-0.021
-460.070	800.000	-0.041	-0.141
-459.055	-200.000	0.006	-0.170
-458.040	102.938	0.214	-0.249
-457.026	-111.115	0.227	-0.046
-456.011	638.575	0.044	-0.110
-454.997	-60.471	-0.177	-0.075
-453.982	800.000	0.026	0.075
-452.968	-45.212	-0.165	-0.081
-451.953	232.866	-0.091	0.148
-450.938	-200.000	0.041	-0.223
-449.924	-140.245	0.326	-0.034
-448.909	-134.629	-0.104	0.013
-447.895	-200.000	-0.217	-0.001
-446.880	-200.000	0.038	0.229
-445.865	-39.602	-0.206	0.107
-444.851	-56.968	0.342	0.150
-443.836	-200.000	0.020	-0.223
-442.822	42.834	0.363	0.328
-441.807	-41.194	0.105	-0.054
-440.792	-49.236	0.198	0.094
-439.778	-146.131	0.227	0.020
-438.763	-40.780	0.162	0.083
-437.749	-71.100	-0.212	0.079
-436.734	800.000	-0.015	-0.050
-435.719	-200.000	-0.011	-0.351
-434.705	88.058	0.153	-0.168
-433.690	-71.692	0.094	0.035
-432.676	89.540	-0.137	0.151
-431.661	21.863	0.154	-0.125
-430.646	87.612	0.331	-0.363
-429.632	800.000	0.206	0.607
-428.617	-46.289	-0.350	0.171
-427.603	16.302	-0.071	0.056
-426.588	498.225	0.135	0.308
-425.573	-200.000	0.052	0.564
-424.559	-200.000	-0.026	0.213
-423.544	-1.110	-0.182	0.128
-422.530	59.433	-0.130	-0.127
-421.515	-200.000	-0.017	-0.210
-420.500	-89.445	-0.061	-0.018
-419.486	-200.000	0.056	-0.312
-418.471	747.360	-0.086	-0.229
-417.457	-200.000	-0.012	-0.143
-416.442	-83.063	0.355	-0.113
-415.428	-200.000	-0.013	-0.078
-414.413	77.359	0.298	0.315
-413.398	-200.000	0.018	0.307
-412.384	-22.205	0.160	0.096
-411.369	201.734	0.172	0.263
-410.355	361.825	-0.074	0.147
-409.340	-73.387	-0.166	-0.060
-408.325	222.721	0.148	0.236
-407.311	-110.540	0.421	0.087
-406.296	97.291	-0.072	0.082
-405.282	653.028	0.068	-0.173
-404.267	-19.041	-0.199	-0.123
-403.252	-129.239	-0.354	-0.049
-402.238	-17.530	0.282	-0.176
-401.223	-9.052	0.178	0.118
-400.209	-24.766	0.319	0.188
-399.194	-72.722	-0.087	-0.032
-398.179	800.000	0.033	-0.132
-397.165	155.017	-0.043	0.059
-396.150	187.669	-0.116	-0.172
-395.136	72.331	0.305	0.315
-394.121	-200.000	0.006	0.054
-393.106	-200.000	-0.026	-0.257
-392.092	6.586	-0.217	-0.160
-391.077	-57.206	0.296	0.129
-390.063	-200.000	-0.008	-0.046
-389.048	800.000	0.131	0.390
-388.033	149.778	0.046	0.062
-387.019	-101.425	0.048	-0.012
-386.004	232.729	0.075	-0.123
-384.990	254.169	-0.052	-0.089
-383.975	-161.057	0.200	0.010
-382.960	93.998	-0.301	-0.339
-381.946	273.797	0.056	-0.099
-380.931	-166.230	-0.418	0.017
-379.917	-139.235	-0.205	0.022
-378.902	155.036	-0.167	0.228
-377.888	-200.000	0.001	-0.155
-376.873	-200.000	0.004	-0.282
-375.858	22.796	0.126	0.102
-374.844	-63.960	0.139	0.056
-373.829	390.139	0.086	-0.176
-372.815	166.919	-0.042	0.059
-371.800	-200.000	0.010	0.261
-370.785	800.000	-0.061	0.190
-369.771	148.114	0.058	0.078
-368.756	-126.347	0.255	0.038
-367.742	-39.447	-0.085	0.044
-366.727	93.504	0.135	0.151
-365.712	-126.600	-0.356	0.052
-364.698	-177.897	-0.180	0.004
-363.683	-57.533	-0.079	0.034
-362.669	244.720	0.167	0.278
-361.654	375.395	-0.079	-0.159
-360.639	491.269	-0.154	0.348
-359.625	45.013	0.194	0.177
-358.610	-163.977	0.161	0.007
-357.596	-36.693	-0.204	-0.109
-356.581	-95.069	0.232	0.062
-355.566	25.120	-0.082	0.067
-354.552	143.993	-0.236	-0.311
-353.537	-47.683	0.052	-0.025
-352.523	38.108	-0.214	0.189
-351.508	-200.000	0.016	-0.141
-350.493	56.079	0.053	0.051
-349.479	669.073	0.085	-0.217
-348.464	265.188	0.046	-0.079
-347.450	800.000	0.041	-0.170
-346.435	472.080	0.046	-0.104
-345.420	42.309	-0.121	0.109
-344.406	-113.485	0.190	-0.037
-343.391	-140.631	0.261	0.027
-342.377	166.273	0.135	-0.189
-341.362	194.521	0.092	0.138
-340.348	107.625	-0.125	-0.147
-339.333	-78.263	-0.355	0.121
-338.318	-69.380	-0.119	-0.045
-337.304	-200.000	0.074	0.382
-336.289	48.124	0.184	0.170
-335.275	-200.000	-0.002	0.182
-334.260	182.930	0.118	-0.172
-333.245	67.717	0.210	0.213
-332.231	57.676	-0.401	0.388
-331.216	-125.112	-0.158	-0.024
-330.202	800.000	-0.022	0.076
-329.187	800.000	0.008	0.035
-328.172	13.614	-0.215	0.165
-327.158	-23.979	-0.073	0.043
-326.143	-29.434	0.167	-0.095
-325.129	-159.999	-0.286	-0.015
-324.114	776.315	0.079	0.213
-323.099	-79.249	0.221	0.074
-322.085	-168.712	-0.257	0.010
-321.070	-163.133	0.309	-0.015
-320.056	143.145	-0.175	-0.230
-319.041	-142.430	-0.208	-0.020
-318.026	793.853	0.065	0.178
-317.012	-200.000	-0.075	-0.328
-315.997	-200.000	0.027	0.336
-314.983	-200.000	0.026	0.148
-313.968	-130.844	0.451	0.060
-312.953	36.828	-0.145	0.126
-311.939	24.072	-0.188	0.153
-310.924	-181.407	-0.337	0.007
-309.910	44.425	0.177	0.161
-308.895	-137.600	-0.148	-0.016
-307.880	233.187	0.056	-0.090
-306.866	-16.506	-0.056	0.035
-305.851	-192.513	0.029	0.000
-304.837	139.724	-0.118	-0.154
-303.822	549.313	0.107	-0.253
-302.807	-15.113	0.099	-0.062
-301.793	-200.000	0.018	-0.206
-300.778	800.000	-0.066	0.186
-299.764	47.385	0.067	0.062
-298.749	-110.413	-0.266	-0.055
-297.735	-65.122	0.289	-0.115
-296.720	-200.000	0.035	0.193
-295.705	-30.858	0.212	0.118
-294.691	210.555	0.237	-0.368
-293.676	288.696	-0.092	-0.165
-292.662	-71.013	-0.056	-0.021
-291.647	-200.000	0.075	0.344
-290.632	161.099	0.058	0.080
-289.618	28.282	-0.003	-0.003
-288.603	-109.165	0.088	-0.018
-287.589	-200.000	0.020	0.158
-286.574	-200.000	-0.023	-0.182
-285.559	-200.000	0.027	-0.199
-284.545	17.078	0.291	-0.228
-283.530	-134.844	-0.479	0.057
-282.516	113.213	0.243	0.291
-281.501	-141.688	0.254	0.025
-280.486	-200.000	0.039	0.252
-279.472	291.369	0.062	-0.112
-278.457	76.972	0.210	-0.221
-277.443	-77.815	0.245	0.083
-276.428	-200.000	0.004	0.129
-275.413	-20.748	-0.186	0.113
-274.399	486.943	0.053	-0.119
-273.384	-29.030	-0.324	0.184
-272.370	-24.622	-0.104	-0.061
-271.355	-185.027	0.142	0.002
-270.340	-29.184	-0.180	-0.102
-269.326	-55.310	-0.194	-0.086
-268.311	-200.000	0.033	-0.177
-267.297	10.539	0.172	-0.129
-266.282	99.623	-0.076	-0.087
-265.267	-127.288	-0.067	0.010
-264.253	-25.219	0.186	-0.108
-263.238	800.000	-0.028	0.077
-262.224	800.000	-0.096	-0.357
-261.209	-200.000	-0.039	0.215
-260.195	536.087	0.012	0.029
-259.180	115.480	0.121	0.146
-258.165	-55.630	-0.197	0.087
-257.151	86.884	0.322	0.351
-256.136	-200.000	0.052	-0.291
-255.122	185.077	-0.293	-0.429
-254.107	429.465	-0.038	-0.081
-253.092	-40.081	0.094	0.049
-252.078	-200.000	-0.049	-0.403
-251.063	-72.881	0.299	0.108
-250.049	14.898	0.166	-0.128
-249.034	38.796	-0.207	-0.182
-248.019	-28.809	0.462	-0.262
-247.005	181.216	-0.183	0.265
-245.990	800.000	-0.049	-0.190
-244.976	700.150	0.119	-0.310
-243.961	61.095	0.179	-0.175
-242.946	603.908	-0.065	0.159
-241.932	91.341	-0.026	0.029
-240.917	217.022	-0.146	0.229
-239.903	-63.165	0.372	0.151
-238.888	-33.971	0.069	-0.038
-237.873	196.979	-0.139	0.209
-236.859	395.624	0.040	0.082
-235.844	-200.000	-0.032	0.178
-234.830	240.867	0.193	-0.317
-233.815	5.595	-0.131	0.095
-232.800	82.178	-0.122	0.130
-231.786	-200.000	0.044	0.480
-230.771	-200.000	0.013	0.076
-229.757	800.000	-0.083	0.261
-228.742	-146.455	0.118	-0.010
-227.727	89.966	-0.103	-0.114
-226.713	-53.717	-0.166	0.075
-225.698	202.770	0.099	0.151
-224.684	10.295	0.268	0.201
-223.669	159.785	-0.070	0.095
-222.655	-93.295	-0.288	0.079
-221.640	-200.000	-0.030	0.210
-220.625	-133.174	0.315	0.039
-219.611	800.000	-0.051	-0.207
-218.596	483.848	-0.066	0.148
-217.582	-12.247	0.255	-0.164
-216.567	800.000	0.074	0.291
-215.552	-200.000	0.044	0.201
-214.538	-200.000	0.058	-0.360
-213.523	-17.275	0.260	0.161
-212.509	800.000	0.053	0.217
-211.494	26.420	0.085	0.070
-210.479	107.762	0.158	0.185
-209.465	8.421	-0.130	-0.097
-208.450	398.869	-0.058	0.119
-207.436	133.750	-0.049	0.063
-206.421	-200.000	-0.057	-0.289
-205.406	-184.117	0.200	0.003
-204.392	800.000	0.044	0.144
-203.377	800.000	0.084	0.295
-202.363	-70.037	-0.092	0.034
-201.348	104.550	-0.072	-0.083
-200.333	125.784	-0.083	-0.104
-199.319	-19.256	-0.260	0.159
-198.304	-129.228	0.269	-0.037
-197.290	-200.000	-0.172	0.001
-196.275	-15.716	0.176	0.110
-195.260	800.000	0.113	-0.321
-194.246	-200.000	-0.015	0.269
-193.231	143.939	0.246	0.323
-192.217	-200.000	-0.034	-0.508
-191.202	-43.323	-0.177	-0.088
-190.187	2.821	-0.095	0.068
-189.173	-37.342	0.126	0.066
-188.158	-200.000	0.014	0.157
-187.144	-48.236	-0.300	0.142
-186.129	-180.783	0.503	0.010
-185.114	-200.000	0.085	0.402
-184.100	128.700	-0.220	0.276
-183.085	3.799	0.100	0.071
-182.071	441.873	0.064	0.138
-181.056	189.871	0.118	0.174
-180.042	-158.504	-0.373	0.021
-179.027	-200.000	0.013	0.233
-178.012	73.064	-0.140	0.143
-176.998	-4.532	-0.163	-0.111
-175.983	663.636	-0.073	0.186
-174.969	800.000	0.100	-0.294
-173.954	274.271	-0.126	0.219
-172.939	25.316	0.239	-0.195
-171.925	-200.000	0.049	0.237
-170.910	143.833	-0.128	0.168
-169.896	800.000	-0.046	0.145
-168.881	800.000	-0.182	0.502
-167.866	-16.566	-0.305	-0.190
-166.852	-200.000	0.032	-0.246
-165.837	661.084	0.171	-0.433
-164.823	62.827	-0.202	0.198
-163.808	-131.357	-0.350	0.046
-162.793	317.686	0.091	-0.169
-161.779	588.001	-0.046	0.110
-160.764	-118.721	0.096	0.017
-159.750	-13.324	0.263	-0.168
-158.735	95.114	0.073	-0.081
-157.720	142.737	-0.045	-0.059
-156.706	800.000	-0.064	0.181
-155.691	11.583	-0.205	0.154
-154.677	-200.000	0.002	0.130
-153.662	-101.369	0.138	-0.033
-152.647	39.607	0.243	-0.214
-151.633	-66.763	0.280	-0.109
-150.618	221.954	-0.046	0.072
-149.604	-135.769	0.085	0.010
-148.589	171.768	-0.058	0.082
-147.574	28.023	0.058	0.048
-146.560	-200.000	0.059	0.273
-145.545	211.813	-0.155	-0.239
-144.531	-110.812	-0.301	-0.061
-143.516	-200.000	0.040	0.328
-142.502	-81.695	0.427	0.137
-141.487	800.000	-0.091	0.313
-140.472	324.154	0.115	-0.216
-139.458	800.000	0.030	0.093
-138.443	692.685	0.097	0.248
-137.429	63.822	0.267	-0.263
-136.414	176.932	-0.088	-0.125
-135.399	46.878	-0.273	0.249
-134.385	234.965	0.048	0.077
-133.370	19.931	0.411	0.325
-132.356	-86.765	0.467	-0.140
-131.341	-110.917	-0.223	0.045
-130.326	800.000	0.073	0.224
-129.312	-200.000	0.067	0.297
-128.297	-54.575	0.215	-0.095
-127.283	-138.192	0.190	0.021
-126.268	-200.000	-0.009	0.123
-125.253	3.672	-0.351	0.251
-124.239	103.824	-0.029	-0.034
-123.224	-175.980	-0.153	0.004
-122.210	-58.937	-0.294	-0.124
-121.195	-81.733	0.056	-0.018
-120.180	188.997	-0.195	0.286
