DTS Sentinel unit serial number:	SN413079Multiplexer serial number:	ORYXHardware model number:	OX4-SRSoftware version number:	ORYX F/W v4.00 Oryx Data Collector v3.7.2.0data status	okinstallation	princeton_trtdifferential loss correction	single-endedforward channel	channel 1reverse channel	N/Adate	2019/09/15time	19:42:35forward acquisition time	60.00reverse acquisition time	0.00gamma	496.2192k internal	0.2307k external	0.2307temperature offset calibration	0.9949default loss term (dB/km)	0.3790temperature slope calibration	1.0000multiplexer offset coefficient	1.0000multiplexer slope coefficient	1.0000fibre end	0.00T internal ref (°C)	37.41T ext. ref 1 (°C)	7.40T ext. ref 2 (°C)	27.30length (m)	temperature (°C)	Stokes	anti-Stokes-747.200	241.422	-0.182	-0.309
-746.185	800.000	-0.076	0.230
-745.171	124.931	0.282	0.362
-744.156	-200.000	-0.040	0.262
-743.142	494.830	-0.022	-0.052
-742.127	-200.000	-0.046	0.230
-741.112	-200.000	0.002	0.293
-740.098	114.499	-0.130	-0.161
-739.083	-78.092	0.180	0.063
-738.069	800.000	0.080	0.332
-737.054	800.000	-0.050	0.200
-736.039	24.784	-0.271	-0.229
-735.025	800.000	0.058	0.178
-734.010	-127.902	-0.205	0.030
-732.996	11.902	-0.160	-0.125
-731.981	234.482	0.104	-0.174
-730.966	-63.180	-0.403	-0.169
-729.952	10.299	-0.110	-0.085
-728.937	57.316	-0.298	0.296
-727.923	-177.554	-0.380	0.009
-726.908	10.265	-0.234	-0.181
-725.894	-187.453	-0.300	0.004
-724.879	-94.106	0.119	-0.033
-723.864	-200.000	-0.068	0.334
-722.850	3.557	0.144	-0.106
-721.835	576.883	0.022	0.056
-720.821	30.457	-0.083	-0.072
-719.806	800.000	-0.071	-0.258
-718.791	-81.596	-0.207	-0.069
-717.777	-200.000	0.002	-0.212
-716.762	-76.247	-0.210	-0.075
-715.748	-89.697	0.403	0.120
-714.733	-85.350	0.154	-0.049
-713.718	-144.700	-0.293	0.027
-712.704	-200.000	0.021	-0.168
-711.689	-21.093	-0.082	0.051
-710.675	-15.787	-0.160	-0.104
-709.660	222.700	-0.213	0.349
-708.645	85.391	0.225	-0.251
-707.631	-148.724	-0.298	-0.025
-706.616	-19.368	0.188	-0.119
-705.602	-200.000	-0.030	-0.216
-704.587	59.657	-0.305	-0.306
-703.572	-51.577	-0.061	-0.029
-702.558	208.589	0.196	-0.312
-701.543	-200.000	0.009	0.233
-700.529	-51.071	-0.033	-0.016
-699.514	144.471	-0.033	-0.044
-698.499	190.198	-0.193	-0.294
-697.485	235.230	-0.164	-0.275
-696.470	-53.815	-0.188	-0.087
-695.456	-200.000	-0.023	0.111
-694.441	-143.021	0.291	-0.029
-693.426	424.268	-0.151	-0.330
-692.412	-124.993	-0.339	0.053
-691.397	-200.000	0.020	0.290
-690.383	-13.916	-0.245	0.161
-689.368	-104.556	-0.100	-0.024
-688.354	-200.000	0.027	-0.297
-687.339	528.110	-0.161	-0.385
-686.324	153.999	0.026	0.036
-685.310	800.000	0.094	0.315
-684.295	800.000	-0.040	0.172
-683.281	-88.080	-0.103	-0.031
-682.266	-184.508	0.426	0.007
-681.251	800.000	-0.121	-0.349
-680.237	-81.250	-0.194	-0.065
-679.222	-115.354	-0.052	0.010
-678.208	52.146	-0.191	0.185
-677.193	-60.141	-0.069	-0.030
-676.178	-48.280	0.171	-0.084
-675.164	-63.185	0.085	0.036
-674.149	-200.000	0.052	0.268
-673.135	117.559	0.207	-0.258
-672.120	-200.000	0.033	0.212
-671.105	800.000	0.029	0.084
-670.091	2.290	-0.186	-0.136
-669.076	128.473	-0.159	-0.206
-668.062	-128.350	0.130	0.019
-667.047	-112.572	0.235	0.047
-666.032	-87.568	0.225	0.069
-665.018	-200.000	0.057	0.294
-664.003	23.926	0.139	0.116
-662.989	-200.000	-0.015	0.286
-661.974	243.092	-0.053	-0.090
-660.959	800.000	-0.024	0.076
-659.945	145.112	0.048	0.066
-658.930	-94.407	0.058	0.016
-657.916	40.547	-0.141	-0.128
-656.901	-200.000	0.001	0.063
-655.886	114.260	-0.313	-0.386
-654.872	410.620	0.064	-0.137
-653.857	800.000	0.065	0.227
-652.843	-61.255	-0.213	0.091
-651.828	-4.904	0.228	0.159
-650.814	218.685	-0.070	0.114
-649.799	800.000	0.053	0.200
-648.784	800.000	-0.006	0.021
-647.770	-189.377	-0.092	0.001
-646.755	203.833	0.094	0.148
-645.741	-66.769	-0.148	0.059
-644.726	-83.409	0.386	0.125
-643.711	-200.000	-0.028	0.181
-642.697	-81.575	0.136	-0.045
-641.682	-93.564	-0.193	0.054
-640.668	-200.000	0.028	0.127
-639.653	87.846	-0.197	-0.221
-638.638	-149.444	0.363	0.029
-637.624	77.568	0.132	-0.142
-636.609	-200.000	-0.043	0.319
-635.595	800.000	0.134	-0.440
-634.580	91.351	0.113	-0.129
-633.565	19.425	-0.279	0.227
-632.551	58.899	0.105	-0.104
-631.536	5.553	-0.284	-0.212
-630.522	-128.272	-0.328	0.047
-629.507	150.676	-0.146	0.201
-628.492	-94.578	0.041	0.011
-627.478	-200.000	0.223	0.000
-626.463	-200.000	-0.036	-0.231
-625.449	800.000	0.080	-0.336
-624.434	-200.000	-0.036	-0.223
-623.419	-200.000	0.001	-0.095
-622.405	-149.122	-0.357	0.029
-621.390	-200.000	-0.003	0.255
-620.376	-141.735	-0.414	0.042
-619.361	-77.454	0.135	-0.047
-618.346	-200.000	-0.019	-0.094
-617.332	21.312	-0.241	-0.199
-616.317	800.000	-0.054	-0.232
-615.303	80.549	-0.121	0.132
-614.288	-5.436	0.071	0.049
-613.273	-0.637	0.225	-0.162
-612.259	-134.459	0.285	-0.035
-611.244	371.071	-0.193	-0.396
-610.230	800.000	0.049	-0.144
-609.215	-53.102	-0.214	0.099
-608.201	800.000	0.022	0.094
-607.186	800.000	-0.011	-0.043
-606.171	-95.410	0.215	0.059
-605.157	-74.261	-0.263	-0.096
-604.142	800.000	-0.095	0.284
-603.128	349.920	0.068	-0.135
-602.113	48.855	0.167	-0.158
-601.098	64.517	0.154	0.157
-600.084	95.117	0.073	-0.084
-599.069	-23.282	-0.093	-0.057
-598.055	90.024	0.179	0.202
-597.040	194.678	0.135	-0.207
-596.025	800.000	0.052	0.167
-595.011	156.964	-0.272	0.380
-593.996	-112.820	0.097	-0.020
-592.982	41.765	-0.150	-0.137
-591.967	-164.851	-0.159	0.007
-590.952	-93.531	0.191	-0.053
-589.938	-125.977	0.211	-0.032
-588.923	49.955	-0.170	-0.162
-587.909	800.000	0.073	0.221
-586.894	-11.623	0.209	0.139
-585.879	158.427	-0.157	0.220
-584.865	-200.000	0.053	0.339
-583.850	4.183	-0.327	-0.242
-582.836	-40.861	0.339	-0.177
-581.821	481.848	-0.058	0.132
-580.806	94.544	-0.153	-0.175
-579.792	-200.000	-0.035	-0.289
-578.777	175.445	-0.066	-0.097
-577.763	-67.977	-0.267	-0.105
-576.748	581.636	0.078	-0.193
-575.733	-116.167	0.202	-0.038
-574.719	51.885	0.087	-0.084
-573.704	107.369	-0.037	-0.044
-572.690	-200.000	-0.025	0.211
-571.675	530.307	-0.068	0.162
-570.661	441.704	0.134	-0.296
-569.646	-115.466	-0.067	-0.013
-568.631	332.239	-0.087	0.170
-567.617	-28.836	-0.130	0.076
-566.602	226.737	0.089	0.146
-565.588	-35.074	-0.170	0.093
-564.573	-61.831	0.353	-0.149
-563.558	-200.000	-0.020	0.112
-562.544	-71.271	0.103	0.039
-561.529	-169.785	0.357	-0.013
-560.515	-120.576	0.203	-0.035
-559.500	800.000	-0.048	0.173
-558.485	-12.266	0.160	-0.105
-557.471	-136.337	-0.226	0.027
-556.456	88.320	0.196	0.220
-555.442	77.291	-0.274	-0.295
-554.427	-99.026	-0.184	0.047
-553.412	-200.000	-0.020	-0.200
-552.398	-41.560	-0.256	0.133
-551.383	-200.000	0.003	0.073
-550.369	405.277	-0.068	-0.145
-549.354	-200.000	-0.046	-0.510
-548.339	-115.750	0.248	0.047
-547.325	-103.690	-0.156	0.037
-546.310	-29.785	0.176	0.101
-545.296	-173.505	0.120	0.004
-544.281	-24.675	0.272	-0.163
-543.266	206.615	0.053	0.083
-542.252	562.639	0.013	-0.032
-541.237	16.716	0.306	-0.244
-540.223	242.598	-0.102	-0.173
-539.208	-139.236	-0.192	0.021
-538.193	-102.775	-0.287	0.069
-537.179	392.627	0.010	0.020
-536.164	8.117	0.192	0.145
-535.150	-4.919	-0.337	0.234
-534.135	-200.000	0.016	-0.324
-533.121	-42.046	-0.025	-0.013
-532.106	-21.033	0.465	-0.287
-531.091	-111.035	0.240	0.050
-530.077	-24.669	0.246	0.147
-529.062	-64.689	-0.254	0.104
-528.048	-55.420	0.135	0.061
-527.033	-110.583	0.325	-0.068
-526.018	-97.176	0.145	-0.038
-525.004	-50.307	-0.214	-0.102
-523.989	112.591	-0.090	0.110
-522.975	65.882	0.126	0.128
-521.960	230.434	0.250	-0.412
-520.945	71.014	-0.126	-0.132
-519.931	98.449	-0.340	0.395
-518.916	67.703	0.122	-0.126
-517.902	239.676	-0.202	0.340
-516.887	478.964	0.189	0.431
-515.872	-95.694	-0.302	0.081
-514.858	172.005	0.129	0.186
-513.843	-100.159	-0.251	0.063
-512.829	87.373	-0.075	0.083
-511.814	-112.765	0.038	-0.008
-510.799	-109.372	0.128	-0.027
-509.785	-200.000	0.034	-0.153
-508.770	-46.553	-0.174	0.086
-507.756	-200.000	0.023	0.259
-506.741	34.770	-0.285	-0.251
-505.726	-200.000	0.032	0.162
-504.712	-46.891	0.046	0.023
-503.697	800.000	0.040	-0.119
-502.683	438.817	0.111	-0.245
-501.668	-184.443	-0.256	0.004
-500.653	-149.396	0.177	0.014
-499.639	21.308	-0.240	-0.196
-498.624	-31.235	0.169	-0.096
-497.610	-200.000	-0.006	-0.043
-496.595	-160.531	0.351	-0.019
-495.581	-113.724	-0.338	-0.066
-494.566	800.000	-0.045	-0.157
-493.551	-13.433	0.114	0.075
-492.537	-106.586	-0.417	0.094
-491.522	800.000	0.067	0.262
-490.508	-165.760	0.388	-0.017
-489.493	-28.804	-0.278	0.161
-488.478	-118.228	0.063	0.011
-487.464	-200.000	0.011	-0.162
-486.449	-182.390	0.371	-0.007
-485.435	535.231	-0.116	-0.277
-484.420	-127.183	0.123	0.018
-483.405	188.410	0.261	0.392
-482.391	32.908	-0.058	-0.050
-481.376	-200.000	0.002	-0.088
-480.362	755.031	0.102	-0.278
-479.347	-200.000	-0.010	0.072
-478.332	105.025	-0.100	-0.119
-477.318	-200.000	-0.036	0.213
-476.303	-200.000	-0.014	-0.266
-475.289	154.488	0.061	0.085
-474.274	-166.812	-0.184	0.008
-473.259	145.510	0.090	-0.121
-472.245	67.850	-0.077	-0.079
-471.230	-114.438	-0.228	-0.044
-470.216	-200.000	0.062	-0.582
-469.201	389.573	0.190	-0.397
-468.186	-61.989	-0.097	0.041
-467.172	51.792	0.128	0.123
-466.157	-64.461	0.311	0.127
-465.143	29.582	0.141	0.121
-464.128	-200.000	-0.043	-0.468
-463.113	-200.000	0.027	-0.134
-462.099	435.343	-0.084	-0.184
-461.084	-100.520	-0.324	0.081
-460.070	-200.000	0.003	0.019
-459.055	-124.803	-0.323	-0.050
-458.040	-200.000	-0.026	-0.314
-457.026	51.114	0.143	-0.137
-456.011	0.512	-0.193	-0.139
-454.997	-60.754	0.090	-0.038
-453.982	326.674	-0.233	0.450
-452.968	96.740	-0.194	0.223
-451.953	251.296	0.042	0.073
-450.938	38.913	-0.145	-0.130
-449.924	132.814	-0.200	-0.260
-448.909	-200.000	0.013	0.066
-447.895	-101.042	-0.079	0.020
-446.880	-160.795	0.091	-0.005
-445.865	19.044	-0.062	0.050
-444.851	250.994	-0.140	0.238
-443.836	-22.209	0.378	0.231
-442.822	121.055	-0.216	0.270
-441.807	-200.000	-0.022	-0.115
-440.792	123.923	-0.032	-0.040
-439.778	300.907	0.074	0.136
-438.763	-101.131	-0.049	-0.012
-437.749	203.818	-0.081	-0.125
-436.734	800.000	0.064	-0.237
-435.719	800.000	-0.070	0.289
-434.705	-200.000	0.029	0.320
-433.690	-21.676	-0.230	-0.141
-432.676	800.000	0.067	-0.220
-431.661	-109.640	-0.275	-0.058
-430.646	-136.059	-0.140	0.017
-429.632	-8.600	0.126	0.085
-428.617	311.735	0.054	0.102
-427.603	-55.500	-0.322	-0.145
-426.588	79.329	0.191	0.206
-425.573	486.204	-0.046	-0.105
-424.559	47.211	-0.227	-0.212
-423.544	-200.000	-0.013	-0.264
-422.530	123.618	0.118	-0.149
-421.515	96.259	-0.064	-0.074
-420.500	198.130	0.125	-0.193
-419.486	123.314	0.111	-0.140
-418.471	-133.116	-0.180	-0.023
-417.457	800.000	0.041	-0.150
-416.442	-27.986	0.080	-0.046
-415.428	800.000	-0.039	0.145
-414.413	-75.145	-0.385	0.138
-413.398	43.258	-0.036	-0.033
-412.384	226.800	-0.058	-0.094
-411.369	250.824	0.103	0.176
-410.355	-48.331	0.184	-0.089
-409.340	-200.000	0.014	0.319
-408.325	154.279	0.260	0.358
-407.311	81.093	-0.105	-0.113
-406.296	205.580	0.075	-0.118
-405.282	-200.000	-0.047	0.286
-404.267	269.379	-0.011	-0.020
-403.252	-6.946	0.168	0.114
-402.238	781.531	-0.150	-0.411
-401.223	800.000	-0.077	0.216
-400.209	-5.648	0.144	0.099
-399.194	45.733	-0.035	-0.032
-398.179	282.244	0.027	0.048
-397.165	67.233	-0.090	-0.092
-396.150	-128.647	0.201	0.029
-395.136	-39.521	0.056	-0.030
-394.121	-31.185	-0.375	0.212
-393.106	105.427	-0.064	-0.076
-392.092	55.376	0.336	-0.326
-391.077	-66.676	-0.178	0.071
-390.063	-200.000	0.040	0.320
-389.048	578.221	0.085	0.209
-388.033	-200.000	0.014	0.101
-387.019	-40.888	0.214	0.111
-386.004	276.249	0.110	0.197
-384.990	-200.000	-0.010	0.188
-383.975	165.690	-0.183	0.259
-382.960	173.641	-0.113	0.163
-381.946	96.662	0.033	-0.037
-380.931	225.601	-0.072	0.118
-379.917	-200.000	-0.020	0.117
-378.902	-200.000	0.048	0.302
-377.888	-200.000	0.030	-0.383
-376.873	800.000	0.030	-0.125
-375.858	-47.730	-0.359	0.175
-374.844	-200.000	-0.011	-0.267
-373.829	77.439	0.139	-0.149
-372.815	4.746	-0.092	-0.068
-371.800	800.000	0.070	0.209
-370.785	-33.459	-0.332	0.184
-369.771	0.525	0.171	0.122
-368.756	-141.116	-0.272	0.028
-367.742	-2.154	-0.178	0.125
-366.727	800.000	0.002	0.007
-365.712	96.663	0.005	0.006
-364.698	94.531	0.188	-0.214
-363.683	-200.000	0.032	-0.242
-362.669	-75.484	-0.229	-0.082
-361.654	-113.784	-0.177	0.034
-360.639	-200.000	-0.004	0.049
-359.625	-27.634	-0.315	0.183
-358.610	8.823	-0.197	-0.149
-357.596	-77.686	-0.186	-0.065
-356.581	-93.757	0.039	-0.011
-355.566	-155.031	-0.020	-0.001
-354.552	-142.220	0.321	0.032
-353.537	406.047	0.092	-0.194
-352.523	800.000	-0.025	-0.071
-351.508	34.705	0.249	-0.218
-350.493	46.024	0.104	-0.096
-349.479	-163.946	-0.269	-0.013
-348.464	171.631	0.031	-0.044
-347.450	-5.755	-0.129	-0.088
-346.435	-26.933	-0.430	-0.252
-345.420	-200.000	0.089	-0.533
-344.406	37.199	-0.258	-0.229
-343.391	-200.000	-0.020	-0.133
-342.377	-50.449	0.178	-0.084
-341.362	800.000	-0.104	0.445
-340.348	41.694	-0.088	0.080
-339.333	38.137	0.327	-0.291
-338.318	-24.380	-0.313	-0.187
-337.304	-110.440	-0.105	-0.022
-336.289	-28.620	0.316	0.182
-335.275	534.548	0.016	0.039
-334.260	442.803	-0.128	0.281
-333.245	-56.754	-0.227	0.101
-332.231	-31.130	-0.238	0.134
-331.216	-200.000	-0.005	-0.069
-330.202	-200.000	-0.052	-0.356
-329.187	-96.058	-0.253	-0.067
-328.172	186.184	0.284	-0.423
-327.158	-24.032	0.432	-0.259
-326.143	-200.000	0.215	0.001
-325.129	-120.618	-0.072	0.012
-324.114	-200.000	-0.012	0.165
-323.099	-200.000	-0.024	0.349
-322.085	-57.178	0.106	0.047
-321.070	-200.000	0.039	0.271
-320.056	48.776	-0.132	0.124
-319.041	-200.000	0.033	0.238
-318.026	41.107	0.222	-0.201
-317.012	-85.859	-0.284	0.088
-315.997	800.000	-0.023	0.075
-314.983	356.099	-0.079	0.158
-313.968	193.791	0.117	-0.177
-312.953	-44.363	-0.234	0.117
-311.939	293.565	-0.126	0.230
-310.924	249.101	-0.284	-0.481
-309.910	-149.228	0.187	0.015
-308.895	-150.406	-0.055	-0.004
-307.880	800.000	0.084	-0.247
-306.866	-200.000	0.055	0.308
-305.851	0.542	0.334	0.238
-304.837	-200.000	0.002	-0.186
-303.822	-32.791	-0.094	-0.052
-302.807	-142.447	0.061	0.006
-301.793	-200.000	-0.043	-0.192
-300.778	-97.367	0.063	-0.016
-299.764	405.166	-0.128	0.270
-298.749	-112.708	-0.383	-0.076
-297.735	800.000	0.006	-0.020
-296.720	-200.000	0.000	0.553
-295.705	4.079	0.069	-0.050
-294.691	-44.438	0.088	-0.044
-293.676	800.000	-0.047	0.180
-292.662	22.837	-0.159	0.130
-291.647	-80.990	0.342	0.113
-290.632	-101.182	0.176	-0.043
-289.618	-200.000	-0.031	0.408
-288.603	-200.000	0.034	-0.261
-287.589	15.189	-0.201	-0.158
-286.574	1.192	-0.225	0.161
-285.559	-40.851	-0.133	-0.069
-284.545	207.668	-0.082	0.128
-283.530	-200.000	-0.013	0.070
-282.516	-101.501	-0.147	0.036
-281.501	-200.000	0.024	-0.162
-280.486	800.000	0.072	0.248
-279.472	-74.654	0.154	0.055
-278.457	-200.000	-0.039	-0.218
-277.443	-56.052	0.114	-0.051
-276.428	-12.072	0.134	-0.088
-275.413	800.000	-0.070	-0.211
-274.399	-169.130	0.390	0.014
-273.384	-24.734	0.349	0.207
-272.370	50.435	0.288	-0.272
-271.355	164.455	-0.025	0.035
-270.340	24.814	-0.126	-0.104
-269.326	-56.937	0.130	0.057
-268.311	800.000	0.043	-0.156
-267.297	239.739	-0.076	-0.126
-266.282	99.632	0.138	-0.159
-265.267	138.154	-0.242	0.316
-264.253	17.030	0.093	-0.074
-263.238	101.629	-0.082	0.095
-262.224	-35.380	0.062	0.034
-261.209	-32.345	0.154	-0.086
-260.195	-25.227	-0.296	-0.175
-259.180	22.524	0.058	-0.048
-258.165	-116.305	0.253	0.047
-257.151	-13.193	-0.280	0.182
-256.136	-131.858	-0.240	-0.031
-255.122	800.000	0.022	0.085
-254.107	41.569	0.188	-0.170
-253.092	-200.000	0.072	0.330
-252.078	800.000	0.053	-0.171
-251.063	-200.000	-0.051	0.441
-250.049	-200.000	-0.012	0.463
-249.034	-24.564	0.132	0.078
-248.019	692.497	-0.084	-0.218
-247.005	-38.554	-0.094	0.050
-245.990	227.255	0.156	-0.253
-244.976	111.236	-0.091	0.110
-243.961	490.223	-0.017	0.039
-242.946	-115.281	0.179	0.034
-241.932	80.616	-0.200	-0.215
-240.917	36.130	-0.378	-0.332
-239.903	77.827	0.053	-0.057
-238.888	185.456	-0.140	-0.208
-237.873	-200.000	-0.018	-0.095
-236.859	21.526	-0.230	-0.187
-235.844	11.151	0.236	0.180
-234.830	-49.206	0.213	0.102
-233.815	218.245	0.162	-0.257
-232.800	-200.000	-0.014	0.431
-231.786	-76.954	0.451	0.157
-230.771	40.828	-0.195	0.175
-229.757	-188.898	-0.254	-0.003
-228.742	-28.763	-0.227	0.130
-227.727	-76.064	0.086	-0.030
-226.713	188.182	0.163	0.243
-225.698	49.111	0.067	0.063
-224.684	-200.000	-0.011	0.075
-223.669	702.982	-0.053	0.139
-222.655	-200.000	0.006	0.042
-221.640	-56.064	-0.255	-0.113
-220.625	-200.000	0.036	0.181
-219.611	-200.000	0.002	-0.127
-218.596	-38.331	-0.329	-0.174
-217.582	-159.578	-0.087	0.005
-216.567	15.523	0.182	-0.142
-215.552	-7.024	0.347	0.235
-214.538	-200.000	-0.036	-0.193
-213.523	-146.000	-0.308	-0.027
-212.509	-189.503	0.404	-0.005
-211.494	-28.361	0.117	-0.067
-210.479	-34.061	-0.240	0.132
-209.465	-92.355	0.452	0.127
-208.450	-154.169	-0.124	-0.008
-207.436	-59.186	-0.326	-0.140
-206.421	-200.000	0.025	0.177
-205.406	424.446	-0.181	0.387
-204.392	-105.158	-0.086	-0.020
-203.377	-33.633	0.242	0.133
-202.363	-78.559	-0.284	0.097
-201.348	800.000	-0.055	0.176
-200.333	-200.000	0.022	-0.198
-199.319	-91.709	0.074	0.021
-198.304	-65.388	-0.292	-0.117
-197.290	383.234	-0.100	0.205
-196.275	-49.082	0.422	-0.201
-195.260	-58.550	0.267	0.115
-194.246	-74.358	0.131	0.047
-193.231	313.617	0.044	0.083
-192.217	800.000	0.085	0.361
-191.202	-88.652	0.237	0.070
-190.187	800.000	-0.051	-0.173
-189.173	123.907	0.151	-0.189
-188.158	-73.016	0.148	-0.054
-187.144	-152.913	-0.200	-0.014
-186.129	121.557	0.134	-0.166
-185.114	88.568	0.202	0.223
-184.100	580.041	-0.108	0.263
-183.085	-130.864	0.125	-0.017
-182.071	42.970	-0.125	0.113
-181.056	24.451	-0.142	-0.117
-180.042	-62.816	-0.118	0.049
-179.027	-23.034	0.240	-0.144
-178.012	-42.075	0.315	-0.160
-176.998	-166.486	-0.059	-0.002
-175.983	39.198	0.115	-0.102
-174.969	338.945	-0.170	0.329
-173.954	14.852	0.310	0.242
-172.939	466.915	0.152	0.338
-171.925	42.540	0.106	0.096
-170.910	-200.000	-0.005	-0.128
-169.896	226.153	-0.073	-0.118
-168.881	-200.000	0.018	-0.126
-167.866	-96.587	0.135	-0.035
-166.852	29.673	0.195	-0.165
-165.837	27.453	0.240	-0.201
-164.823	390.684	0.082	0.170
-163.808	46.481	0.228	0.210
-162.793	-144.816	0.214	-0.020
-161.779	-200.000	0.001	-0.067
-160.764	181.279	-0.022	-0.032
-159.750	495.196	0.133	0.303
-158.735	110.492	0.067	-0.080
-157.720	1.126	0.125	-0.089
-156.706	239.972	0.054	0.089
-155.691	493.838	-0.111	-0.253
-154.677	108.418	-0.136	0.161
-153.662	191.608	-0.139	-0.209
-152.647	-120.107	0.077	-0.013
-151.633	-74.312	0.164	0.059
-150.618	-26.517	0.201	0.117
-149.604	-51.603	0.391	0.181
-148.589	-121.973	0.270	0.044
-147.574	-200.000	0.033	-0.166
-146.560	82.562	0.099	-0.107
-145.545	153.585	-0.107	-0.146
-144.531	-124.906	0.319	-0.049
-143.516	120.460	-0.067	0.083
-142.502	103.431	0.106	-0.124
-141.487	75.239	-0.144	-0.151
-140.472	421.524	-0.093	-0.198
-139.458	-200.000	-0.020	0.313
-138.443	-22.861	0.410	0.246
-137.429	-65.548	0.400	0.159
-136.414	-200.000	-0.029	-0.156
-135.399	-87.726	-0.413	-0.124
-134.385	567.165	-0.096	0.230
-133.370	196.544	-0.188	-0.285
-132.356	-112.258	-0.226	-0.045
-131.341	-71.733	0.180	0.067
-130.326	482.798	-0.092	-0.207
-129.312	-151.967	0.144	0.010
-128.297	-74.555	0.371	0.133
-127.283	-174.011	0.211	-0.006
-126.268	-27.336	-0.171	0.099
-125.253	-200.000	0.024	0.175
-124.239	177.558	0.136	0.196
-123.224	-47.023	0.153	-0.074
-122.210	512.031	0.139	-0.321
-121.195	26.035	-0.135	0.112
