DTS Sentinel unit serial number:	SN413079Multiplexer serial number:	ORYXHardware model number:	OX4-SRSoftware version number:	ORYX F/W v4.00 Oryx Data Collector v3.7.2.0data status	okinstallation	princeton_trtdifferential loss correction	single-endedforward channel	channel 1reverse channel	N/Adate	2019/09/14time	18:22:35forward acquisition time	60.00reverse acquisition time	0.00gamma	496.2192k internal	0.2301k external	0.2301temperature offset calibration	1.0037default loss term (dB/km)	0.3790temperature slope calibration	1.0000multiplexer offset coefficient	1.0000multiplexer slope coefficient	1.0000fibre end	0.00T internal ref (°C)	36.83T ext. ref 1 (°C)	4.94T ext. ref 2 (°C)	30.75length (m)	temperature (°C)	Stokes	anti-Stokes-747.200	-83.025	-0.555	0.182
-746.185	-42.315	0.226	-0.117
-745.171	-130.704	-0.067	0.009
-744.156	-110.192	0.152	-0.032
-743.142	268.433	0.053	0.094
-742.127	257.769	-0.145	0.254
-741.112	207.433	0.142	-0.226
-740.098	135.121	-0.142	0.188
-739.083	-96.708	-0.057	0.015
-738.069	-200.000	0.017	0.227
-737.054	189.111	0.062	-0.095
-736.039	800.000	0.015	0.066
-735.025	558.006	0.086	-0.211
-734.010	555.221	0.082	0.201
-732.996	-69.962	-0.375	-0.146
-731.981	-52.229	0.182	-0.086
-730.966	-200.000	-0.001	-0.056
-729.952	-138.176	-0.215	0.024
-728.937	-200.000	0.058	0.315
-727.923	-200.000	0.022	-0.192
-726.908	-169.999	-0.099	0.004
-725.894	-101.778	-0.143	-0.035
-724.879	-69.828	-0.192	0.075
-723.864	-200.000	0.023	-0.157
-722.850	375.449	0.023	0.048
-721.835	-74.644	-0.227	-0.083
-720.821	632.529	0.119	0.308
-719.806	-151.931	-0.284	-0.021
-718.791	-142.527	0.344	-0.034
-717.777	-200.000	0.006	-0.301
-716.762	-131.485	-0.315	0.042
-715.748	166.188	-0.053	-0.077
-714.733	800.000	0.053	-0.217
-713.718	-70.446	-0.290	0.112
-712.704	24.843	-0.245	0.207
-711.689	-56.568	0.313	-0.141
-710.675	-200.000	0.015	-0.283
-709.660	-200.000	-0.023	-0.183
-708.645	58.304	-0.332	-0.332
-707.631	-57.337	-0.139	-0.062
-706.616	-200.000	-0.000	0.080
-705.602	-139.979	0.189	0.020
-704.587	8.427	0.212	0.162
-703.572	18.653	-0.204	0.166
-702.558	-200.000	-0.032	-0.330
-701.543	178.283	0.080	-0.119
-700.529	-21.922	0.261	0.161
-699.514	-36.899	-0.168	0.092
-698.499	800.000	-0.015	0.060
-697.485	-78.906	-0.130	-0.045
-696.470	-129.040	-0.179	0.026
-695.456	-78.848	0.401	-0.139
-694.441	404.567	-0.088	0.189
-693.426	-106.433	-0.165	0.037
-692.412	-52.329	-0.209	0.099
-691.397	-200.000	0.005	0.334
-690.383	800.000	-0.106	-0.354
-689.368	800.000	0.056	0.217
-688.354	219.244	-0.099	0.161
-687.339	-200.000	-0.059	-0.303
-686.324	-84.806	0.374	-0.120
-685.310	-27.513	-0.119	0.070
-684.295	-200.000	-0.001	-0.019
-683.281	-200.000	0.010	0.156
-682.266	350.137	-0.119	-0.240
-681.251	-146.365	-0.104	0.009
-680.237	218.311	0.113	0.183
-679.222	-113.404	0.140	0.028
-678.208	-153.080	-0.305	-0.022
-677.193	17.007	0.201	0.162
-676.178	-105.736	-0.354	0.081
-675.164	18.705	0.150	0.122
-674.149	800.000	0.056	-0.230
-673.135	-14.870	0.252	-0.164
-672.120	800.000	0.039	-0.134
-671.105	-126.641	0.012	-0.002
-670.091	-103.381	-0.222	0.053
-669.076	192.310	-0.037	0.056
-668.062	-91.011	-0.438	-0.128
-667.047	444.323	-0.121	0.270
-666.032	-35.447	-0.200	-0.110
-665.018	-1.468	0.088	0.063
-664.003	456.808	-0.094	0.212
-662.989	800.000	0.091	-0.262
-661.974	-29.754	-0.062	0.036
-660.959	-197.049	-0.326	-0.002
-659.945	152.300	0.078	-0.109
-658.930	302.772	-0.118	-0.221
-657.916	-15.179	0.080	0.052
-656.901	-120.330	-0.042	-0.007
-655.886	158.852	-0.170	0.240
-654.872	165.072	-0.104	-0.149
-653.857	189.382	-0.082	0.125
-652.843	800.000	-0.051	0.194
-651.828	32.094	0.242	-0.212
-650.814	97.861	-0.077	0.090
-649.799	800.000	0.057	-0.208
-648.784	106.571	0.234	0.282
-647.770	-175.902	0.221	0.006
-646.755	-200.000	0.001	0.354
-645.741	111.996	0.082	-0.101
-644.726	-87.123	0.193	-0.060
-643.711	228.897	0.024	-0.040
-642.697	254.786	0.092	-0.160
-641.682	-93.338	0.097	0.027
-640.668	-46.961	-0.099	0.049
-639.653	104.652	0.145	-0.173
-638.638	-68.255	0.069	0.027
-637.624	-200.000	-0.022	-0.111
-636.609	-200.000	-0.017	0.301
-635.595	212.799	0.169	0.270
-634.580	-100.266	0.250	-0.063
-633.565	-79.306	-0.197	0.068
-632.551	-200.000	-0.014	-0.240
-631.536	-34.855	-0.348	-0.193
-630.522	4.535	-0.131	-0.098
-629.507	70.485	-0.102	-0.107
-628.492	164.265	-0.296	0.423
-627.478	48.890	-0.256	-0.244
-626.463	11.342	0.159	-0.124
-625.449	347.704	-0.101	0.202
-624.434	69.825	-0.090	-0.094
-623.419	-58.057	-0.194	-0.086
-622.405	-88.524	0.038	0.012
-621.390	-200.000	-0.005	0.242
-620.376	39.096	-0.117	-0.106
-619.361	263.460	-0.088	-0.155
-618.346	-12.700	-0.136	-0.090
-617.332	800.000	-0.039	-0.166
-616.317	-82.983	-0.260	-0.085
-615.303	-159.477	-0.216	0.012
-614.288	-89.822	-0.157	-0.046
-613.273	143.050	-0.055	0.074
-612.259	-200.000	-0.018	0.251
-611.244	-31.693	-0.158	-0.090
-610.230	42.845	-0.117	0.108
-609.215	10.167	-0.165	0.127
-608.201	-140.099	0.243	-0.026
-607.186	800.000	0.008	0.024
-606.171	-50.772	-0.237	0.113
-605.157	-200.000	0.027	0.211
-604.142	-60.790	0.210	-0.090
-603.128	-77.393	0.070	0.025
-602.113	-199.390	-0.128	0.001
-601.098	384.065	-0.150	0.313
-600.084	-97.564	-0.245	0.064
-599.069	-100.516	0.100	-0.025
-598.055	55.981	-0.071	0.070
-597.040	121.107	-0.261	-0.329
-596.025	67.370	0.073	-0.076
-595.011	481.168	-0.092	0.211
-593.996	-86.158	0.104	0.033
-592.982	658.231	0.121	0.316
-591.967	127.800	-0.088	-0.113
-590.952	214.364	0.093	-0.149
-589.938	348.648	0.071	-0.142
-588.923	-71.117	0.217	0.083
-587.909	300.185	0.149	-0.279
-586.894	-155.269	0.146	-0.010
-585.879	-136.750	-0.088	-0.010
-584.865	311.664	-0.101	-0.192
-583.850	-88.409	-0.247	-0.075
-582.836	-13.620	-0.132	-0.086
-581.821	-48.366	0.247	-0.121
-580.806	-200.000	-0.004	-0.232
-579.792	-113.030	-0.093	0.019
-578.777	129.404	0.105	-0.136
-577.763	13.036	-0.204	0.160
-576.748	51.034	-0.194	-0.187
-575.733	800.000	0.028	0.101
-574.719	84.244	-0.179	0.199
-573.704	-200.000	0.049	0.225
-572.690	-160.157	-0.280	-0.015
-571.675	-143.944	0.322	0.031
-570.661	218.766	-0.080	0.129
-569.646	-16.434	-0.307	0.197
-568.631	256.158	0.089	0.155
-567.617	372.932	-0.009	0.019
-566.602	-29.769	-0.172	-0.099
-565.588	106.309	-0.128	-0.153
-564.573	640.940	-0.051	-0.131
-563.558	-103.425	-0.101	-0.024
-562.544	196.931	0.077	-0.120
-561.529	-200.000	-0.010	-0.100
-560.515	800.000	0.081	-0.294
-559.500	504.770	-0.138	-0.324
-558.485	-200.000	-0.002	-0.106
-557.471	114.855	0.254	0.314
-556.456	800.000	0.003	-0.012
-555.442	-200.000	0.058	0.304
-554.427	-200.000	-0.008	-0.134
-553.412	-131.681	-0.181	-0.024
-552.398	-200.000	0.008	0.202
-551.383	-62.974	0.475	-0.199
-550.369	170.661	-0.156	0.227
-549.354	244.660	-0.172	-0.293
-548.339	-102.319	-0.239	-0.058
-547.325	616.002	-0.065	-0.166
-546.310	-50.233	0.157	0.075
-545.296	-26.801	-0.316	0.187
-544.281	295.418	0.084	-0.156
-543.266	-200.000	0.014	0.127
-542.252	-57.799	0.336	0.149
-541.237	-110.513	-0.402	-0.084
-540.223	145.468	-0.125	0.170
-539.208	13.455	0.173	-0.136
-538.193	-173.429	0.079	0.002
-537.179	282.766	-0.072	-0.130
-536.164	-12.932	-0.058	0.038
-535.150	-116.258	0.032	0.006
-534.135	95.731	0.031	-0.036
-533.121	159.739	-0.108	-0.152
-532.106	-200.000	-0.047	0.217
-531.091	-78.581	0.272	0.094
-530.077	-52.174	-0.194	0.091
-529.062	164.341	-0.039	0.055
-528.048	-103.280	0.091	-0.022
-527.033	-47.895	-0.039	-0.019
-526.018	20.585	-0.157	0.128
-525.004	800.000	-0.195	0.545
-523.989	-200.000	-0.042	-0.274
-522.975	-31.532	0.199	0.113
-521.960	312.095	0.206	-0.390
-520.945	-141.990	-0.170	0.017
-519.931	275.432	-0.138	-0.247
-518.916	-135.092	-0.285	-0.035
-517.902	-176.096	-0.082	-0.002
-516.887	-146.020	0.061	0.005
-515.872	75.264	0.123	0.131
-514.858	-72.324	-0.142	0.053
-513.843	-200.000	0.030	0.165
-512.829	279.573	0.071	-0.127
-511.814	378.426	-0.094	0.195
-510.799	800.000	-0.008	0.033
-509.785	-21.643	-0.111	0.068
-508.770	-71.933	-0.162	0.061
-507.756	517.819	0.009	-0.022
-506.741	800.000	-0.072	0.231
-505.726	-59.840	-0.349	0.151
-504.712	800.000	-0.045	-0.198
-503.697	-79.535	-0.204	0.069
-502.683	-145.164	0.394	-0.036
-501.668	221.862	-0.025	0.041
-500.653	180.095	-0.122	0.181
-499.639	41.527	-0.042	-0.038
-498.624	-200.000	0.011	-0.088
-497.610	-200.000	0.020	0.171
-496.595	47.271	-0.089	0.084
-495.581	-200.000	0.032	0.282
-494.566	132.666	-0.284	0.369
-493.551	782.085	-0.073	0.202
-492.537	-132.113	-0.230	0.030
-491.522	422.650	-0.083	-0.180
-490.508	96.023	-0.096	-0.110
-489.493	-109.502	0.065	-0.014
-488.478	-200.000	-0.044	-0.235
-487.464	-70.959	0.174	-0.066
-486.449	-55.640	-0.156	0.070
-485.435	144.783	0.078	0.105
-484.420	0.422	-0.216	-0.156
-483.405	-161.504	0.169	0.009
-482.391	114.708	0.050	-0.061
-481.376	53.964	-0.175	0.170
-480.362	605.457	0.100	0.251
-479.347	31.995	0.132	-0.115
-478.332	800.000	0.064	-0.248
-477.318	-110.246	-0.086	0.018
-476.303	355.056	0.106	-0.212
-475.289	-127.307	-0.275	0.041
-474.274	184.935	-0.200	-0.300
-473.259	92.490	0.065	0.074
-472.245	336.274	0.156	-0.306
-471.230	-111.367	0.260	0.053
-470.216	45.652	-0.096	0.089
-469.201	800.000	0.079	0.233
-468.186	-61.743	0.277	-0.117
-467.172	472.458	-0.093	-0.211
-466.157	-4.024	-0.158	-0.110
-465.143	-100.951	-0.183	-0.045
-464.128	183.792	-0.058	-0.086
-463.113	800.000	-0.045	-0.169
-462.099	174.597	-0.102	0.149
-461.084	219.436	0.133	-0.215
-460.070	-200.000	-0.038	-0.181
-459.055	-112.557	-0.098	0.020
-458.040	-200.000	-0.004	0.196
-457.026	156.709	-0.106	0.147
-456.011	-112.252	0.212	0.043
-454.997	-28.601	-0.033	0.019
-453.982	-200.000	0.033	-0.181
-452.968	644.313	0.115	0.294
-451.953	-97.898	0.105	0.027
-450.938	189.164	-0.060	0.091
-449.924	106.221	0.081	0.097
-448.909	-79.086	-0.163	0.056
-447.895	-200.000	0.039	-0.183
-446.880	-14.643	0.335	0.217
-445.865	-69.500	-0.292	-0.113
-444.851	192.788	-0.115	0.174
-443.836	11.696	0.099	0.076
-442.822	800.000	0.094	-0.399
-441.807	245.818	0.134	0.228
-440.792	-89.536	-0.174	-0.051
-439.778	-119.054	0.243	-0.043
-438.763	133.106	-0.051	-0.067
-437.749	335.599	0.151	-0.295
-436.734	73.320	-0.240	-0.252
-435.719	143.061	-0.026	-0.034
-434.705	687.528	0.082	-0.216
-433.690	355.209	0.163	0.327
-432.676	-151.686	0.378	0.028
-431.661	2.213	-0.289	-0.211
-430.646	-79.878	0.059	-0.020
-429.632	15.472	0.107	-0.085
-428.617	-173.625	0.205	-0.006
-427.603	40.539	-0.037	0.033
-426.588	800.000	0.126	-0.374
-425.573	204.359	-0.148	0.231
-424.559	-126.797	-0.226	-0.034
-423.544	-119.992	-0.105	0.018
-422.530	64.760	-0.325	0.330
-421.515	-67.177	-0.338	0.134
-420.500	23.339	0.105	0.087
-419.486	109.615	-0.279	0.337
-418.471	800.000	-0.060	0.243
-417.457	-12.555	-0.182	0.120
-416.442	-35.644	-0.310	0.169
-415.428	-128.063	0.085	-0.012
-414.413	27.312	-0.269	0.228
-413.398	-141.204	0.102	-0.010
-412.384	-104.958	0.064	-0.015
-411.369	-167.364	-0.240	-0.010
-410.355	-90.877	0.235	0.068
-409.340	92.822	0.079	0.089
-408.325	-200.000	-0.022	-0.158
-407.311	-158.775	0.231	0.013
-406.296	-50.460	0.272	-0.129
-405.282	-200.000	-0.024	0.179
-404.267	-98.153	0.321	-0.083
-403.252	-51.892	-0.279	-0.131
-402.238	91.825	-0.212	0.240
-401.223	147.081	0.150	0.202
-400.209	-143.440	-0.142	-0.014
-399.194	800.000	-0.083	0.286
-398.179	-200.000	0.004	-0.071
-397.165	-149.786	0.200	0.016
-396.150	-162.275	-0.286	-0.014
-395.136	-88.862	0.220	-0.066
-394.121	-61.607	-0.278	-0.117
-393.106	140.505	-0.265	0.352
-392.092	264.296	-0.102	-0.179
-391.077	142.382	-0.125	-0.167
-390.063	-132.043	0.343	-0.045
-389.048	-200.000	0.030	0.156
-388.033	183.211	0.127	0.189
-387.019	325.158	0.128	0.246
-386.004	-200.000	0.007	0.203
-384.990	-200.000	-0.033	0.162
-383.975	-53.311	-0.276	0.127
-382.960	-200.000	-0.011	0.051
-381.946	59.720	0.114	-0.113
-380.931	800.000	0.036	0.142
-379.917	-200.000	-0.012	0.216
-378.902	91.087	-0.163	-0.184
-377.888	-72.110	0.147	-0.055
-376.873	-109.170	-0.316	-0.068
-375.858	109.806	0.111	0.134
-374.844	800.000	0.106	0.410
-373.829	130.792	0.067	0.087
-372.815	103.583	-0.043	-0.051
-371.800	-200.000	-0.013	-0.077
-370.785	428.838	0.094	-0.204
-369.771	-52.780	-0.097	-0.045
-368.756	-136.556	0.077	0.009
-367.742	-200.000	-0.018	0.378
-366.727	-148.698	-0.150	-0.012
-365.712	27.930	0.068	-0.058
-364.698	51.062	0.280	0.267
-363.683	87.630	0.048	0.053
-362.669	56.049	-0.216	0.211
-361.654	-118.232	0.264	-0.047
-360.639	96.423	-0.167	-0.192
-359.625	-94.398	-0.162	0.044
-358.610	397.352	-0.044	0.093
-357.596	-160.252	0.255	0.014
-356.581	-200.000	-0.006	0.316
-355.566	92.023	0.169	0.190
-354.552	53.077	0.053	0.051
-353.537	-68.222	0.285	-0.111
-352.523	195.911	0.211	-0.323
-351.508	-200.000	-0.001	0.308
-350.493	-103.608	-0.078	0.018
-349.479	-128.562	-0.079	-0.011
-348.464	-59.142	-0.204	0.088
-347.450	-200.000	0.008	-0.079
-346.435	-174.325	-0.161	0.005
-345.420	-19.922	0.274	0.170
-344.406	-61.703	0.279	0.117
-343.391	800.000	-0.160	-0.589
-342.377	-83.886	-0.180	-0.057
-341.362	-123.309	-0.253	-0.041
-340.348	298.573	-0.079	-0.147
-339.333	800.000	0.034	0.125
-338.318	-85.175	-0.190	-0.060
-337.304	78.187	0.316	-0.338
-336.289	-136.492	0.150	-0.017
-335.275	-40.131	0.293	-0.153
-334.260	592.746	0.172	-0.426
-333.245	-170.582	-0.269	0.009
-332.231	-89.748	0.050	-0.015
-331.216	55.091	-0.015	-0.015
-330.202	190.250	0.115	0.173
-329.187	-200.000	0.001	-0.049
-328.172	190.993	0.182	-0.275
-327.158	124.209	0.136	0.171
-326.143	173.696	0.215	0.311
-325.129	-148.584	-0.276	0.023
-324.114	67.927	0.190	-0.195
-323.099	-114.137	-0.365	-0.071
-322.085	-78.725	-0.161	0.055
-321.070	-200.000	-0.040	-0.267
-320.056	-92.719	0.189	-0.053
-319.041	-56.455	0.254	0.113
-318.026	-81.075	0.584	-0.194
-317.012	112.444	-0.046	0.055
-315.997	-142.221	0.164	-0.016
-314.983	66.072	0.135	-0.138
-313.968	-40.925	0.200	0.104
-312.953	-63.834	-0.143	0.058
-311.939	-3.977	0.396	-0.275
-310.924	-97.423	0.200	-0.052
-309.910	-76.906	0.196	0.069
-308.895	-99.972	-0.300	0.075
-307.880	-140.882	-0.188	0.019
-306.866	-66.325	0.283	0.113
-305.851	-117.979	0.419	0.075
-304.837	-200.000	0.031	-0.407
-303.822	-76.741	0.200	0.070
-302.807	-200.000	-0.022	0.327
-301.793	-183.394	-0.039	0.001
-300.778	129.656	0.250	-0.320
-299.764	115.537	-0.152	0.186
-298.749	-82.194	-0.138	0.045
-297.735	242.523	-0.035	0.059
-296.720	-153.091	-0.292	-0.021
-295.705	-98.617	0.133	-0.034
-294.691	279.257	-0.045	-0.081
-293.676	-170.301	-0.247	0.009
-292.662	6.403	-0.240	-0.179
-291.647	800.000	-0.119	-0.408
-290.632	-171.225	0.243	0.008
-289.618	-66.455	0.453	0.180
-288.603	-175.123	0.164	-0.005
-287.589	345.374	0.088	-0.173
-286.574	-114.148	0.166	0.032
-285.559	-200.000	-0.013	0.305
-284.545	-102.250	0.184	-0.044
-283.530	-142.363	-0.420	-0.041
-282.516	-188.899	-0.217	-0.003
-281.501	800.000	-0.056	-0.194
-280.486	-63.736	0.185	-0.076
-279.472	-133.082	-0.241	-0.031
-278.457	71.794	0.263	0.274
-277.443	800.000	-0.031	-0.101
-276.428	800.000	-0.058	-0.177
-275.413	122.520	-0.284	0.355
-274.399	-200.000	-0.006	0.253
-273.384	102.183	-0.075	-0.087
-272.370	444.208	-0.027	-0.060
-271.355	-4.499	0.188	-0.130
-270.340	-200.000	-0.025	0.221
-269.326	303.399	0.134	-0.248
-268.311	-78.457	0.205	-0.070
-267.297	-200.000	-0.006	0.112
-266.282	800.000	0.096	-0.325
-265.267	-200.000	-0.008	-0.102
-264.253	-106.037	0.317	0.071
-263.238	-35.591	-0.358	-0.194
-262.224	-152.590	-0.300	-0.021
-261.209	189.224	-0.142	-0.214
-260.195	-200.000	0.051	0.263
-259.180	-200.000	0.046	0.357
-258.165	-200.000	0.033	-0.196
-257.151	-6.400	0.149	-0.102
-256.136	-123.579	0.379	0.060
-255.122	-189.077	-0.340	-0.004
-254.107	-110.863	-0.077	0.016
-253.092	-200.000	-0.016	0.092
-252.078	515.995	-0.050	-0.116
-251.063	-57.135	-0.185	-0.082
-250.049	-149.616	-0.323	-0.025
-249.034	-88.518	0.091	0.027
-248.019	-58.175	-0.108	-0.047
-247.005	-35.431	0.146	-0.080
-245.990	-200.000	0.032	-0.193
-244.976	-66.548	-0.105	-0.042
-243.961	-200.000	-0.022	-0.170
-242.946	306.818	0.208	-0.388
-241.932	30.930	-0.202	-0.173
-240.917	190.843	-0.162	0.244
-239.903	-200.000	0.020	0.292
-238.888	-200.000	-0.038	-0.176
-237.873	800.000	0.035	0.117
-236.859	-91.413	-0.423	-0.121
-235.844	54.726	-0.176	0.169
-234.830	-91.487	0.287	-0.082
-233.815	297.785	0.121	-0.221
-232.800	-11.423	0.179	0.118
-231.786	-115.092	-0.148	-0.028
-230.771	-110.781	0.023	-0.005
-229.757	-108.119	0.389	0.084
-228.742	-50.227	-0.235	-0.111
-227.727	372.073	0.034	-0.069
-226.713	-11.619	0.278	-0.183
-225.698	-200.000	0.011	-0.191
-224.684	-62.106	0.256	0.107
-223.669	-200.000	0.037	0.229
-222.655	146.095	0.051	0.068
-221.640	13.535	-0.065	-0.051
-220.625	26.236	0.061	-0.051
-219.611	274.524	0.112	-0.198
-218.596	-39.550	-0.057	0.030
-217.582	-52.747	0.208	0.096
-216.567	20.607	-0.131	-0.106
-215.552	800.000	-0.047	0.156
-214.538	-50.823	-0.208	0.098
-213.523	7.402	-0.064	-0.048
-212.509	88.632	0.054	-0.060
-211.494	-120.842	0.377	0.063
-210.479	-9.315	0.226	-0.151
-209.465	-131.744	0.422	0.055
-208.450	800.000	-0.099	-0.278
-207.436	22.976	-0.091	-0.074
-206.421	-59.505	-0.298	0.128
-205.406	49.712	0.177	0.166
-204.392	-107.256	-0.091	-0.020
-203.377	344.367	0.113	0.221
-202.363	-200.000	-0.014	-0.065
-201.348	800.000	-0.137	-0.393
-200.333	800.000	0.089	0.288
-199.319	800.000	-0.140	0.497
-198.304	8.578	0.129	-0.097
-197.290	-44.158	0.145	0.073
-196.275	-200.000	-0.028	0.180
-195.260	-200.000	0.002	-0.380
-194.246	11.296	-0.105	-0.080
-193.231	262.699	-0.123	-0.213
-192.217	45.672	0.291	-0.268
-191.202	19.195	0.214	-0.172
-190.187	-200.000	0.024	-0.293
-189.173	-189.300	0.281	0.003
-188.158	-200.000	0.001	-0.437
-187.144	-16.933	0.220	-0.139
-186.129	-128.829	-0.140	0.020
-185.114	140.855	0.226	0.298
-184.100	59.160	0.098	-0.096
-183.085	-90.790	0.169	0.049
-182.071	98.025	-0.145	0.166
-181.056	34.060	0.071	0.062
-180.042	-33.057	0.189	0.105
-179.027	96.312	-0.317	-0.361
-178.012	800.000	-0.105	-0.316
-176.998	-164.815	0.294	-0.013
-175.983	-200.000	0.063	0.327
-174.969	-200.000	0.062	0.378
-173.954	25.226	0.074	0.061
-172.939	-160.479	-0.178	0.010
-171.925	-75.982	0.280	-0.099
-170.910	33.525	0.206	0.178
-169.896	-44.527	0.204	0.102
-168.881	440.744	-0.060	0.131
-167.866	-21.342	0.249	0.152
-166.852	800.000	-0.130	-0.395
-165.837	-78.205	0.252	-0.086
-164.823	88.696	-0.130	-0.144
-163.808	142.980	0.052	-0.069
-162.793	305.407	-0.165	0.305
-161.779	-200.000	0.001	-0.147
-160.764	-102.707	-0.332	-0.079
-159.750	-126.613	0.190	0.028
-158.735	95.608	0.104	-0.118
-157.720	9.625	0.217	0.164
-156.706	-104.047	0.149	0.035
-155.691	-9.083	0.257	0.171
-154.677	-24.479	-0.183	-0.109
-153.662	423.597	-0.044	0.094
-152.647	-6.499	-0.261	0.177
-151.633	379.049	0.048	0.097
-150.618	-88.896	-0.193	-0.057
-149.604	-117.993	-0.238	0.042
-148.589	129.323	0.195	-0.248
-147.574	800.000	-0.049	0.201
-146.560	344.973	-0.121	0.236
-145.545	563.825	0.051	0.122
-144.531	-132.150	0.166	0.021
-143.516	117.320	-0.013	0.016
-142.502	28.817	0.129	0.109
-141.487	-52.327	0.123	0.057
-140.472	-8.327	0.174	-0.117
-139.458	-81.588	-0.105	-0.034
-138.443	30.256	-0.085	0.072
-137.429	152.308	-0.146	-0.199
-136.414	379.966	0.203	0.414
-135.399	-200.000	-0.028	0.326
-134.385	54.232	-0.048	0.046
-133.370	-96.311	0.186	-0.049
-132.356	37.503	-0.028	-0.025
-131.341	216.081	0.164	0.259
-130.326	800.000	0.007	-0.022
-129.312	-107.622	-0.099	0.021
-128.297	176.570	-0.133	0.193
-127.283	800.000	-0.070	0.240
-126.268	-50.049	-0.290	0.137
-125.253	-165.394	-0.141	0.006
-124.239	-105.940	-0.319	-0.071
-123.224	-108.141	-0.254	0.055
