DTS Sentinel unit serial number:	SN413079Multiplexer serial number:	ORYXHardware model number:	OX4-SRSoftware version number:	ORYX F/W v4.00 Oryx Data Collector v3.7.2.0data status	okinstallation	princeton_trtdifferential loss correction	single-endedforward channel	channel 1reverse channel	N/Adate	2019/09/14time	20:58:35forward acquisition time	60.00reverse acquisition time	0.00gamma	496.2192k internal	0.2318k external	0.2318temperature offset calibration	1.0020default loss term (dB/km)	0.3790temperature slope calibration	1.0000multiplexer offset coefficient	1.0000multiplexer slope coefficient	1.0000fibre end	0.00T internal ref (°C)	33.17T ext. ref 1 (°C)	4.80T ext. ref 2 (°C)	27.90length (m)	temperature (°C)	Stokes	anti-Stokes-747.200	35.721	0.104	-0.093
-746.185	-200.000	-0.105	0.504
-745.171	-129.575	0.319	-0.045
-744.156	-200.000	0.024	0.252
-743.142	219.869	-0.091	0.148
-742.127	-10.040	-0.060	-0.041
-741.112	-5.609	0.111	0.077
-740.098	512.545	0.129	0.304
-739.083	114.516	0.422	0.520
-738.069	-200.000	0.009	0.233
-737.054	-18.570	0.195	0.123
-736.039	-60.638	-0.463	0.199
-735.025	73.679	-0.188	0.199
-734.010	-200.000	-0.041	0.338
-732.996	60.287	-0.196	-0.196
-731.981	-200.000	0.025	0.206
-730.966	78.358	-0.225	0.243
-729.952	-77.291	0.384	-0.135
-728.937	-29.699	-0.233	0.135
-727.923	-117.324	-0.144	-0.026
-726.908	213.951	-0.137	0.219
-725.894	-29.329	-0.185	-0.107
-724.879	381.039	0.095	-0.197
-723.864	30.932	0.149	-0.129
-722.850	-65.573	-0.116	-0.047
-721.835	-78.701	0.192	-0.066
-720.821	-200.000	0.009	-0.177
-719.806	522.152	-0.065	0.153
-718.791	800.000	-0.023	0.076
-717.777	800.000	0.031	0.109
-716.762	800.000	0.090	-0.318
-715.748	124.283	-0.090	-0.114
-714.733	-200.000	-0.037	-0.259
-713.718	211.247	0.075	0.119
-712.704	-126.088	0.061	0.009
-711.689	88.573	-0.056	-0.063
-710.675	800.000	0.098	-0.336
-709.660	13.218	0.078	0.061
-708.645	125.182	0.143	-0.182
-707.631	-9.632	-0.177	-0.119
-706.616	-79.119	0.448	-0.154
-705.602	28.401	-0.138	0.118
-704.587	-33.048	0.068	0.038
-703.572	-200.000	0.030	-0.208
-702.558	268.548	-0.113	-0.200
-701.543	-2.128	0.200	0.142
-700.529	-200.000	-0.018	0.202
-699.514	37.170	-0.046	-0.041
-698.499	800.000	0.063	-0.266
-697.485	-10.954	-0.291	0.194
-696.470	800.000	0.082	0.256
-695.456	118.210	0.099	0.124
-694.441	82.059	0.115	-0.126
-693.426	-132.489	0.043	0.006
-692.412	155.911	-0.164	0.228
-691.397	-157.357	-0.363	0.022
-690.383	74.203	-0.118	-0.125
-689.368	-200.000	-0.026	-0.192
-688.354	29.033	-0.144	-0.123
-687.339	-47.104	-0.180	0.089
-686.324	432.506	0.168	0.368
-685.310	800.000	-0.098	0.320
-684.295	-117.976	-0.345	-0.062
-683.281	41.527	0.211	0.193
-682.266	253.189	0.132	0.228
-681.251	-200.000	-0.025	-0.210
-680.237	340.951	-0.088	0.174
-679.222	-74.381	-0.336	0.122
-678.208	-1.978	0.158	0.112
-677.193	388.407	0.068	0.141
-676.178	-77.280	0.218	0.076
-675.164	176.560	0.142	-0.209
-674.149	142.320	-0.177	-0.237
-673.135	-200.000	0.021	-0.209
-672.120	-42.672	0.200	-0.103
-671.105	-40.303	-0.275	-0.144
-670.091	-200.000	0.040	0.326
-669.076	240.012	-0.103	-0.174
-668.062	318.649	-0.045	0.086
-667.047	153.506	-0.072	0.100
-666.032	800.000	-0.110	-0.336
-665.018	-47.647	-0.257	0.126
-664.003	70.490	0.242	0.252
-662.989	-32.849	0.201	-0.113
-661.974	-72.744	-0.224	-0.083
-660.959	-35.713	0.100	0.055
-659.945	-157.815	0.169	0.010
-658.930	800.000	-0.175	-0.541
-657.916	81.654	0.194	-0.212
-656.901	291.942	0.106	-0.194
-655.886	-154.056	-0.102	-0.007
-654.872	-95.096	0.289	-0.079
-653.857	800.000	0.084	-0.263
-652.843	-57.923	0.411	-0.181
-651.828	-200.000	0.009	0.092
-650.814	29.635	-0.154	-0.132
-649.799	119.070	-0.189	0.235
-648.784	308.470	0.141	0.265
-647.770	344.710	0.105	0.207
-646.755	-29.389	-0.309	0.178
-645.741	7.640	-0.289	0.218
-644.726	19.855	0.188	-0.153
-643.711	-200.000	-0.001	0.339
-642.697	-200.000	-0.007	0.132
-641.682	-200.000	0.001	0.082
-640.668	109.983	-0.167	-0.202
-639.653	-42.181	0.202	-0.104
-638.638	33.221	0.207	-0.181
-637.624	-133.366	-0.174	0.022
-636.609	-54.939	-0.232	-0.105
-635.595	165.066	-0.204	-0.290
-634.580	78.059	-0.060	0.065
-633.565	-200.000	0.070	0.358
-632.551	268.655	0.176	0.311
-631.536	93.445	-0.201	-0.229
-630.522	636.273	-0.029	-0.074
-629.507	-200.000	0.027	0.179
-628.492	-200.000	-0.027	0.139
-627.478	89.973	0.047	0.053
-626.463	800.000	-0.025	-0.083
-625.449	-43.109	0.186	0.095
-624.434	-116.204	-0.369	-0.069
-623.419	-200.000	0.060	-0.274
-622.405	160.688	-0.112	-0.158
-621.390	148.086	-0.190	0.258
-620.376	-148.118	-0.420	-0.035
-619.361	800.000	-0.097	-0.289
-618.346	289.584	-0.085	-0.155
-617.332	800.000	-0.069	0.301
-616.317	113.343	-0.076	0.093
-615.303	-145.525	-0.159	-0.014
-614.288	-200.000	-0.032	0.231
-613.273	-126.935	-0.468	-0.069
-612.259	63.612	-0.318	-0.322
-611.244	89.112	0.289	-0.325
-610.230	-122.207	0.147	0.024
-609.215	-32.345	-0.324	0.182
-608.201	-61.916	0.189	0.080
-607.186	496.735	0.058	-0.135
-606.171	-200.000	0.040	0.341
-605.157	-67.311	-0.444	0.176
-604.142	14.048	0.217	-0.170
-603.128	-87.730	0.028	-0.009
-602.113	-200.000	0.054	0.295
-601.098	278.972	0.037	0.067
-600.084	95.893	-0.158	-0.182
-599.069	-13.287	0.200	0.131
-598.055	800.000	0.100	-0.315
-597.040	276.029	-0.055	0.099
-596.025	-66.694	0.145	0.058
-595.011	-104.085	-0.137	0.032
-593.996	76.206	0.396	-0.422
-592.982	-66.330	0.185	-0.074
-591.967	800.000	0.030	0.098
-590.952	593.717	0.055	0.137
-589.938	125.716	0.077	0.098
-588.923	123.776	0.176	-0.222
-587.909	800.000	-0.053	0.159
-586.894	-124.666	0.340	0.053
-585.879	159.070	-0.145	0.203
-584.865	-44.905	0.291	-0.146
-583.850	800.000	0.124	0.352
-582.836	100.086	-0.099	0.116
-581.821	500.547	0.088	0.204
-580.806	-79.673	-0.396	0.134
-579.792	800.000	-0.100	0.359
-578.777	-96.833	0.214	0.056
-577.763	0.419	0.215	0.154
-576.748	800.000	0.074	-0.249
-575.733	369.505	0.120	-0.244
-574.719	42.029	-0.231	0.211
-573.704	-94.376	0.070	0.019
-572.690	497.760	0.168	-0.389
-571.675	-83.458	0.096	0.031
-570.661	268.681	0.221	-0.389
-569.646	-200.000	-0.024	0.235
-568.631	-92.057	-0.356	-0.101
-567.617	206.492	-0.090	0.141
-566.602	800.000	-0.043	0.128
-565.588	-109.812	0.385	0.081
-564.573	-200.000	-0.056	0.339
-563.558	-54.607	0.280	0.127
-562.544	800.000	-0.059	0.175
-561.529	451.197	-0.094	0.208
-560.515	-2.567	0.226	-0.159
-559.500	-200.000	-0.027	0.197
-558.485	-46.434	-0.281	0.139
-557.471	-69.240	-0.371	-0.143
-556.456	50.684	0.110	0.105
-555.442	-200.000	-0.010	-0.058
-554.427	800.000	0.075	0.237
-553.412	-200.000	0.012	0.238
-552.398	-200.000	0.071	0.412
-551.383	-139.879	-0.232	0.025
-550.369	-45.885	-0.572	-0.283
-549.354	-17.254	-0.128	0.081
-548.339	236.525	-0.168	0.280
-547.325	-20.716	-0.167	0.103
-546.310	-19.040	-0.277	0.173
-545.296	113.277	0.193	0.235
-544.281	-67.791	0.098	0.038
-543.266	800.000	0.072	-0.202
-542.252	88.398	-0.130	-0.145
-541.237	800.000	0.058	-0.205
-540.223	584.748	0.090	0.223
-539.208	-120.070	0.142	-0.025
-538.193	285.498	-0.128	0.231
-537.179	-30.996	0.299	-0.170
-536.164	76.688	-0.119	0.127
-535.150	16.775	0.197	0.156
-534.135	107.878	-0.108	-0.130
-533.121	-119.766	-0.127	-0.022
-532.106	-26.673	0.203	-0.119
-531.091	-26.151	0.252	0.149
-530.077	-200.000	-0.020	0.142
-529.062	-166.681	0.139	-0.006
-528.048	-200.000	-0.056	-0.383
-527.033	-200.000	-0.017	-0.117
-526.018	203.951	0.145	-0.226
-525.004	547.960	-0.052	0.124
-523.989	800.000	-0.060	0.199
-522.975	-47.475	0.325	-0.158
-521.960	800.000	0.049	0.195
-520.945	182.867	0.172	0.254
-519.931	-54.435	-0.114	-0.052
-518.916	-200.000	0.036	-0.310
-517.902	-129.757	0.124	0.017
-516.887	-38.734	0.234	-0.124
-515.872	-200.000	0.040	0.330
-514.858	-121.579	-0.302	-0.050
-513.843	108.584	-0.027	0.033
-512.829	160.456	-0.117	-0.164
-511.814	287.477	0.082	-0.148
-510.799	-200.000	-0.092	-0.507
-509.785	-25.799	-0.190	0.112
-508.770	-85.834	0.158	0.049
-507.756	800.000	-0.035	-0.142
-506.741	55.974	-0.238	-0.232
-505.726	85.634	0.094	0.104
-504.712	-148.035	0.385	-0.032
-503.697	153.265	0.086	-0.119
-502.683	-16.568	-0.072	-0.046
-501.668	800.000	0.014	0.041
-500.653	125.541	-0.300	0.380
-499.639	209.439	-0.139	-0.218
-498.624	-55.644	-0.125	0.056
-497.610	-60.557	-0.273	0.116
-496.595	72.905	-0.049	-0.052
-495.581	343.783	-0.176	-0.347
-494.566	-107.639	0.269	0.059
-493.551	40.456	-0.365	-0.330
-492.537	-10.550	0.201	-0.133
-491.522	203.325	-0.066	0.103
-490.508	-200.000	-0.009	-0.075
-489.493	-87.191	0.226	-0.069
-488.478	-159.407	0.236	0.013
-487.464	-120.055	-0.217	-0.037
-486.449	51.960	-0.154	0.147
-485.435	-64.211	-0.073	-0.030
-484.420	-39.565	0.224	-0.118
-483.405	193.938	0.129	-0.195
-482.391	-200.000	0.025	0.211
-481.376	41.438	-0.103	-0.093
-480.362	-166.176	0.242	-0.010
-479.347	15.397	0.246	-0.193
-478.332	-108.393	-0.100	-0.022
-477.318	-28.277	0.341	-0.197
-476.303	25.663	0.203	-0.170
-475.289	36.985	-0.014	-0.012
-474.274	-200.000	-0.021	-0.102
-473.259	800.000	0.076	-0.222
-472.245	-200.000	-0.006	0.047
-471.230	88.949	0.190	-0.212
-470.216	-87.229	-0.141	0.043
-469.201	800.000	-0.049	-0.172
-468.186	220.361	0.261	0.419
-467.172	164.735	-0.068	0.097
-466.157	115.140	0.182	-0.222
-465.143	31.745	-0.281	-0.242
-464.128	196.718	-0.242	0.369
-463.113	140.273	0.189	0.250
-462.099	-200.000	-0.010	-0.177
-461.084	-154.596	-0.180	-0.012
-460.070	188.736	0.135	-0.203
-459.055	122.656	0.189	0.236
-458.040	7.477	-0.039	0.029
-457.026	67.596	-0.261	-0.267
-456.011	-170.202	-0.122	-0.004
-454.997	-28.773	0.053	0.030
-453.982	356.868	-0.083	-0.165
-452.968	-3.826	0.096	-0.067
-451.953	556.592	-0.224	-0.541
-450.938	422.507	-0.151	0.325
-449.924	189.680	0.109	0.163
-448.909	-133.878	0.049	0.006
-447.895	351.188	0.121	-0.239
-446.880	-91.315	0.206	0.059
-445.865	-16.613	0.410	-0.260
-444.851	-170.759	-0.086	0.003
-443.836	-118.742	-0.318	-0.056
-442.822	47.627	0.076	-0.071
-441.807	-78.790	-0.027	0.009
-440.792	57.567	0.193	-0.189
-439.778	-200.000	0.038	0.219
-438.763	-101.401	0.191	-0.046
-437.749	106.976	0.180	-0.214
-436.734	-113.037	-0.337	-0.067
-435.719	-200.000	-0.003	-0.018
-434.705	800.000	0.142	0.464
-433.690	289.099	0.149	0.269
-432.676	1.501	0.149	-0.107
-431.661	-48.129	0.182	0.088
-430.646	106.831	-0.199	-0.237
-429.632	-50.943	0.272	-0.128
-428.617	-5.548	-0.156	-0.107
-427.603	-200.000	-0.002	-0.272
-426.588	275.104	-0.050	0.088
-425.573	-200.000	-0.042	-0.205
-424.559	72.381	-0.061	-0.064
-423.544	-13.151	-0.251	-0.163
-422.530	372.338	0.115	-0.233
-421.515	-78.126	-0.217	0.075
-420.500	-200.000	-0.000	-0.079
-419.486	-102.461	0.014	0.003
-418.471	800.000	-0.039	0.141
-417.457	-133.102	0.211	0.027
-416.442	59.852	0.058	-0.057
-415.428	800.000	0.050	-0.201
-414.413	302.925	0.173	0.320
-413.398	-91.533	0.120	-0.034
-412.384	-110.138	-0.093	0.019
-411.369	-81.872	0.050	-0.016
-410.355	468.160	-0.190	0.425
-409.340	54.421	-0.089	0.086
-408.325	-7.026	0.177	-0.120
-407.311	-36.829	-0.294	0.158
-406.296	-200.000	-0.011	-0.232
-405.282	800.000	0.047	-0.155
-404.267	-145.851	0.328	0.029
-403.252	-80.746	-0.257	-0.085
-402.238	-200.000	0.022	-0.407
-401.223	-200.000	-0.047	-0.290
-400.209	800.000	0.068	0.201
-399.194	800.000	-0.086	-0.319
-398.179	-200.000	0.002	0.104
-397.165	56.395	-0.088	-0.085
-396.150	-114.780	0.100	0.019
-395.136	-134.661	0.426	0.052
-394.121	-8.208	0.029	0.019
-393.106	403.515	0.047	-0.098
-392.092	-86.877	-0.244	0.075
-391.077	168.502	-0.199	0.283
-390.063	800.000	-0.015	0.043
-389.048	476.857	-0.117	0.265
-388.033	107.218	-0.054	-0.064
-387.019	245.157	-0.093	0.157
-386.004	-106.584	0.266	-0.059
-384.990	800.000	-0.061	-0.177
-383.975	-169.912	0.316	-0.011
-382.960	-136.931	-0.266	-0.030
-381.946	216.102	0.078	-0.124
-380.931	275.629	0.063	-0.111
-379.917	47.532	0.171	-0.159
-378.902	-186.483	-0.082	0.001
-377.888	25.680	-0.266	0.221
-376.873	-86.227	-0.145	0.045
-375.858	15.493	0.240	-0.188
-374.844	800.000	-0.023	-0.095
-373.829	-200.000	-0.014	-0.141
-372.815	279.168	0.169	-0.302
-371.800	180.812	0.158	0.231
-370.785	-105.761	0.247	0.056
-369.771	-139.997	0.319	0.034
-368.756	-141.393	-0.151	0.015
-367.742	69.083	0.133	0.137
-366.727	-145.116	-0.378	0.034
-365.712	-35.504	-0.261	-0.141
-364.698	-200.000	-0.040	-0.233
-363.683	-31.848	-0.101	-0.057
-362.669	-107.403	0.245	-0.054
-361.654	193.093	0.091	0.138
-360.639	244.639	0.062	-0.104
-359.625	48.556	-0.235	0.219
-358.610	15.621	0.186	-0.146
-357.596	-32.584	0.119	-0.066
-356.581	-200.000	-0.015	0.254
-355.566	-119.436	-0.402	0.070
-354.552	-103.731	-0.108	-0.025
-353.537	84.340	0.184	0.201
-352.523	-5.966	0.187	0.128
-351.508	75.809	0.373	-0.393
-350.493	416.343	-0.145	0.309
-349.479	-92.230	0.113	0.032
-348.464	-41.119	-0.269	-0.138
-347.450	800.000	0.033	0.095
-346.435	-63.830	0.013	0.005
-345.420	198.144	-0.068	0.103
-344.406	800.000	-0.041	0.156
-343.391	-79.661	-0.064	-0.022
-342.377	-100.227	-0.080	-0.020
-341.362	151.936	-0.123	0.167
-340.348	-8.401	0.225	-0.151
-339.333	-4.551	-0.191	0.132
-338.318	-142.005	0.151	0.015
-337.304	-200.000	-0.051	0.516
-336.289	-54.913	-0.196	0.088
-335.275	-200.000	0.046	-0.389
-334.260	-35.468	-0.213	-0.115
-333.245	-56.982	-0.481	-0.211
-332.231	-77.404	0.142	0.049
-331.216	-90.009	-0.141	0.041
-330.202	175.503	0.017	-0.024
-329.187	800.000	-0.077	-0.300
-328.172	-57.478	-0.208	-0.091
-327.158	542.672	-0.051	-0.121
-326.143	-200.000	0.057	-0.393
-325.129	800.000	-0.069	-0.222
-324.114	-129.625	0.258	0.035
-323.099	-66.783	-0.174	-0.069
-322.085	60.056	0.080	0.079
-321.070	340.817	0.033	-0.064
-320.056	-200.000	-0.002	0.071
-319.041	61.108	0.224	0.221
-318.026	-158.962	-0.069	-0.004
-317.012	-85.415	0.018	0.006
-315.997	221.015	0.158	0.253
-314.983	197.623	-0.184	-0.280
-313.968	3.773	-0.157	-0.114
-312.953	-65.878	0.137	-0.054
-311.939	65.554	0.200	0.201
-310.924	800.000	-0.066	0.261
-309.910	-43.823	0.122	-0.061
-308.895	-136.390	0.074	0.009
-307.880	60.134	0.244	0.240
-306.866	17.585	-0.455	-0.360
-305.851	84.725	-0.160	-0.174
-304.837	-112.418	0.294	0.058
-303.822	480.472	-0.057	-0.128
-302.807	-200.000	0.001	0.266
-301.793	-143.267	-0.377	0.036
-300.778	136.096	0.070	0.091
-299.764	-34.732	0.190	0.103
-298.749	-29.166	-0.028	-0.016
-297.735	13.292	0.076	0.059
-296.720	-122.801	0.223	-0.036
-295.705	294.500	0.074	-0.134
-294.691	-78.303	0.163	0.056
-293.676	40.107	-0.180	0.161
-292.662	9.624	-0.216	-0.162
-291.647	0.485	0.267	-0.189
-290.632	2.054	-0.100	0.072
-289.618	800.000	-0.043	-0.140
-288.603	-54.487	0.252	-0.113
-287.589	-149.228	0.404	-0.032
-286.574	-200.000	-0.026	0.166
-285.559	-44.157	-0.088	-0.044
-284.545	121.653	0.162	0.201
-283.530	290.993	0.131	0.236
-282.516	28.842	-0.084	-0.071
-281.501	-200.000	-0.005	0.208
-280.486	162.834	0.089	0.124
-279.472	-40.417	-0.156	-0.081
-278.457	800.000	0.030	-0.115
-277.443	56.590	-0.192	0.185
-276.428	800.000	-0.069	-0.230
-275.413	800.000	-0.025	-0.094
-274.399	-200.000	0.050	0.228
-273.384	-129.143	-0.505	0.070
-272.370	320.879	-0.106	-0.200
-271.355	-92.628	-0.342	-0.095
-270.340	-200.000	0.003	-0.072
-269.326	359.122	-0.019	-0.038
-268.311	-138.955	0.417	-0.045
-267.297	-148.244	-0.165	0.013
-266.282	-149.864	0.197	-0.015
-265.267	-117.771	-0.212	-0.038
-264.253	800.000	0.195	-0.551
-263.238	800.000	0.094	-0.366
-262.224	-200.000	-0.003	0.128
-261.209	415.381	0.167	0.354
-260.195	44.291	0.153	-0.140
-259.180	-125.297	-0.186	0.028
-258.165	-143.706	0.071	0.007
-257.151	-200.000	-0.012	-0.059
-256.136	41.567	-0.081	-0.072
-255.122	800.000	-0.109	-0.418
-254.107	800.000	-0.064	-0.179
-253.092	88.370	-0.066	0.072
-252.078	74.265	0.279	0.291
-251.063	-4.774	-0.121	-0.083
-250.049	180.075	0.070	-0.101
-249.034	-11.040	-0.147	0.096
-248.019	259.311	-0.059	-0.101
-247.005	-125.705	-0.149	-0.022
-245.990	-200.000	-0.001	0.096
-244.976	118.811	0.112	-0.138
-243.961	-4.951	-0.140	0.096
-242.946	-0.176	0.365	0.258
-241.932	75.316	0.258	0.270
-240.917	800.000	0.027	0.082
-239.903	-62.845	-0.101	-0.042
-238.888	20.737	0.084	-0.067
-237.873	-200.000	-0.046	-0.273
-236.859	-90.730	0.293	0.084
-235.844	-125.540	0.143	0.022
-234.830	82.107	0.036	0.039
-233.815	-176.457	-0.190	0.005
-232.800	503.234	-0.101	-0.233
-231.786	-160.690	0.090	-0.005
-230.771	147.211	-0.211	0.282
-229.757	-200.000	0.019	-0.119
-228.742	301.912	-0.114	0.208
-227.727	129.738	-0.147	0.187
-226.713	-66.942	0.208	0.082
-225.698	380.120	-0.064	0.130
-224.684	37.494	-0.187	0.165
-223.669	16.607	0.280	0.220
-222.655	756.093	0.045	0.121
-221.640	800.000	0.048	0.147
-220.625	-77.450	-0.090	-0.031
-219.611	104.452	0.202	0.235
-218.596	107.822	-0.130	-0.154
-217.582	-89.876	0.155	-0.045
-216.567	-72.507	0.287	-0.105
-215.552	-98.430	0.049	-0.012
-214.538	249.070	0.043	-0.072
-213.523	-68.653	-0.296	0.114
-212.509	800.000	0.098	0.313
-211.494	2.175	-0.229	0.164
-210.479	-200.000	0.027	0.203
-209.465	312.045	0.147	-0.274
-208.450	-66.381	0.279	0.110
-207.436	-127.637	0.111	0.016
-206.421	-55.509	-0.363	0.161
-205.406	-12.543	0.177	0.115
-204.392	154.551	0.104	0.142
-203.377	167.348	-0.081	-0.114
-202.363	-157.788	0.018	-0.001
-201.348	14.077	-0.212	0.163
-200.333	-200.000	-0.030	0.378
-199.319	-200.000	0.012	0.078
-198.304	800.000	-0.078	-0.301
-197.290	800.000	0.032	0.099
-196.275	678.269	-0.181	-0.467
-195.260	-79.435	0.130	0.044
-194.246	307.233	0.095	0.175
-193.231	-50.738	0.238	0.111
-192.217	79.615	-0.187	-0.199
-191.202	181.394	-0.160	-0.234
-190.187	37.108	-0.057	-0.050
-189.173	48.004	-0.117	-0.109
-188.158	800.000	0.073	-0.314
-187.144	-200.000	0.031	-0.171
-186.129	78.849	0.281	0.298
-185.114	-115.543	-0.268	0.050
-184.100	800.000	0.088	0.369
-183.085	800.000	0.099	0.289
-182.071	-49.727	-0.258	0.122
-181.056	16.569	0.230	-0.180
-180.042	12.076	-0.074	0.056
-179.027	-120.681	-0.020	-0.003
-178.012	-144.693	-0.093	0.008
-176.998	1.628	0.162	-0.116
-175.983	49.229	-0.207	0.192
-174.969	90.439	-0.042	-0.046
-173.954	148.955	0.083	-0.111
-172.939	119.641	0.195	0.239
-171.925	-168.007	-0.050	-0.002
-170.910	-200.000	0.132	-0.000
-169.896	-115.813	-0.164	0.030
-168.881	-73.510	0.216	0.078
-167.866	-27.133	-0.254	0.147
-166.852	88.398	-0.068	0.074
-165.837	206.388	0.148	0.228
-164.823	261.749	-0.030	0.051
-163.808	232.646	0.148	-0.240
-162.793	42.564	-0.261	-0.235
-161.779	-45.915	-0.141	-0.069
-160.764	-4.930	0.209	0.143
-159.750	-200.000	-0.050	-0.228
-158.735	-44.585	-0.236	-0.117
-157.720	244.761	0.152	-0.252
-156.706	8.856	0.104	0.077
-155.691	149.178	-0.252	0.338
-154.677	-200.000	0.039	-0.221
-153.662	-200.000	0.029	-0.192
-152.647	255.954	-0.206	-0.349
-151.633	800.000	-0.034	-0.140
-150.618	800.000	-0.067	0.204
-149.604	-93.930	0.424	0.115
-148.589	-200.000	0.045	0.231
-147.574	-51.280	0.167	-0.077
-146.560	-118.482	0.426	-0.075
-145.545	-140.001	-0.258	-0.027
-144.531	-9.193	0.087	0.058
-143.516	-169.522	-0.164	0.006
-142.502	48.930	-0.255	-0.237
-141.487	387.191	0.119	0.243
-140.472	16.493	-0.253	0.198
-139.458	87.275	0.131	0.143
-138.443	-156.259	0.119	0.007
-137.429	2.509	0.325	0.233
-136.414	-17.376	0.238	-0.148
-135.399	-158.050	-0.258	0.015
-134.385	-36.511	0.102	-0.054
-133.370	800.000	-0.113	-0.357
-132.356	230.376	-0.052	0.084
-131.341	-200.000	-0.097	-0.000
-130.326	94.038	0.165	-0.185
-129.312	-200.000	0.024	-0.276
-128.297	282.139	0.284	-0.503
-127.283	-126.129	0.206	-0.030
-126.268	-200.000	0.006	-0.162
-125.253	172.411	-0.155	-0.221
-124.239	257.567	0.129	-0.220
-123.224	800.000	-0.018	-0.074
-122.210	800.000	0.028	-0.079
-121.195	-13.467	0.060	-0.038
-120.180	113.765	0.135	0.162
