DTS Sentinel unit serial number:	SN413079Multiplexer serial number:	ORYXHardware model number:	OX4-SRSoftware version number:	ORYX F/W v4.00 Oryx Data Collector v3.7.2.0data status	okinstallation	princeton_trtdifferential loss correction	single-endedforward channel	channel 1reverse channel	N/Adate	2019/09/17time	23:26:35forward acquisition time	60.00reverse acquisition time	0.00gamma	496.2192k internal	0.2340k external	0.2340temperature offset calibration	0.9980default loss term (dB/km)	0.3790temperature slope calibration	1.0000multiplexer offset coefficient	1.0000multiplexer slope coefficient	1.0000fibre end	0.00T internal ref (°C)	24.31T ext. ref 1 (°C)	0.17T ext. ref 2 (°C)	17.60length (m)	temperature (°C)	Stokes	anti-Stokes-747.200	12.999	0.149	-0.116
-746.185	800.000	0.072	0.252
-745.171	-83.042	0.257	0.083
-744.156	593.935	0.064	-0.158
-743.142	-200.000	-0.015	0.231
-742.127	-4.411	0.215	0.149
-741.112	236.512	0.059	-0.098
-740.098	134.074	0.072	-0.094
-739.083	378.694	0.210	0.431
-738.069	6.915	-0.282	0.211
-737.054	361.520	-0.050	-0.101
-736.039	4.379	-0.315	-0.232
-735.025	267.029	0.095	0.167
-734.010	-15.353	-0.250	0.160
-732.996	67.170	0.054	0.056
-731.981	202.177	-0.029	-0.044
-730.966	800.000	0.070	-0.249
-729.952	139.055	-0.259	-0.341
-728.937	49.473	-0.182	0.171
-727.923	-13.113	0.207	-0.135
-726.908	-200.000	0.005	-0.258
-725.894	-101.036	-0.213	0.052
-724.879	61.718	-0.100	0.100
-723.864	-147.599	0.255	0.022
-722.850	800.000	0.063	0.258
-721.835	32.814	-0.317	-0.275
-720.821	-21.154	-0.342	-0.210
-719.806	-191.442	0.104	-0.001
-718.791	-200.000	0.018	0.445
-717.777	-85.984	-0.193	-0.060
-716.762	-165.051	0.303	-0.013
-715.748	108.614	0.112	-0.134
-714.733	800.000	-0.038	0.156
-713.718	-145.607	0.134	-0.012
-712.704	800.000	-0.033	-0.109
-711.689	800.000	-0.145	-0.516
-710.675	-20.599	-0.176	-0.108
-709.660	560.505	0.061	-0.147
-708.645	28.425	-0.025	-0.021
-707.631	-97.819	0.138	-0.036
-706.616	-200.000	-0.101	-0.445
-705.602	-90.261	0.296	-0.086
-704.587	-200.000	0.048	0.490
-703.572	226.621	0.162	-0.263
-702.558	-200.000	-0.009	-0.195
-701.543	295.391	-0.109	0.199
-700.529	-200.000	-0.003	0.059
-699.514	63.450	0.235	0.235
-698.499	-200.000	0.022	0.282
-697.485	800.000	-0.024	0.100
-696.470	-5.881	0.160	0.110
-695.456	-59.709	-0.271	0.116
-694.441	-100.284	0.283	0.070
-693.426	243.907	-0.092	0.155
-692.412	239.989	0.133	0.222
-691.397	-200.000	-0.004	-0.232
-690.383	-21.884	-0.117	-0.071
-689.368	-200.000	0.027	-0.166
-688.354	0.168	-0.376	-0.268
-687.339	145.795	0.142	0.191
-686.324	146.079	-0.155	0.209
-685.310	-1.025	0.185	-0.131
-684.295	137.559	0.045	-0.059
-683.281	770.665	-0.057	0.156
-682.266	222.989	-0.039	-0.063
-681.251	369.501	0.061	-0.123
-680.237	114.112	0.047	0.057
-679.222	26.383	0.217	-0.182
-678.208	224.105	-0.134	0.216
-677.193	129.063	-0.278	-0.355
-676.178	311.019	-0.054	0.100
-675.164	-105.002	-0.188	-0.043
-674.149	-200.000	-0.024	0.115
-673.135	-200.000	0.019	0.253
-672.120	-22.060	0.176	0.107
-671.105	307.584	0.021	0.039
-670.091	178.545	-0.245	-0.358
-669.076	-125.505	-0.290	-0.044
-668.062	-148.957	-0.081	-0.007
-667.047	730.652	0.073	-0.196
-666.032	79.046	0.107	-0.115
-665.018	-182.901	-0.332	-0.006
-664.003	242.313	0.181	0.302
-662.989	-121.562	-0.119	-0.020
-661.974	708.925	0.101	-0.267
-660.959	116.993	-0.203	0.249
-659.945	-102.401	0.305	0.073
-658.930	-6.565	-0.160	-0.109
-657.916	-164.012	0.307	-0.014
-656.901	473.027	0.104	0.234
-655.886	-200.000	-0.001	0.163
-654.872	-43.165	0.175	0.089
-653.857	-8.819	-0.200	0.134
-652.843	15.348	-0.234	-0.183
-651.828	-19.057	0.213	-0.132
-650.814	-161.322	-0.232	-0.012
-649.799	-200.000	0.077	-0.337
-648.784	800.000	0.060	-0.191
-647.770	627.854	0.021	0.052
-646.755	754.369	0.024	-0.065
-645.741	750.748	-0.047	-0.126
-644.726	-129.808	0.149	0.020
-643.711	-161.592	-0.273	0.014
-642.697	105.448	-0.175	-0.207
-641.682	-46.091	-0.116	0.057
-640.668	-36.790	0.145	-0.078
-639.653	27.832	0.138	0.117
-638.638	-82.137	-0.133	0.043
-637.624	-3.329	0.291	-0.203
-636.609	-147.250	-0.203	-0.017
-635.595	-31.045	-0.294	-0.166
-634.580	18.631	0.280	-0.223
-633.565	-66.786	0.129	-0.051
-632.551	11.562	-0.230	-0.176
-631.536	-32.305	0.081	-0.045
-630.522	786.593	-0.078	-0.215
-629.507	-105.536	-0.185	0.042
-628.492	8.576	0.167	0.126
-627.478	512.180	-0.047	-0.109
-626.463	-45.751	-0.223	-0.110
-625.449	283.838	-0.085	0.152
-624.434	503.349	-0.111	0.257
-623.419	-200.000	0.078	-0.376
-622.405	-200.000	-0.008	-0.145
-621.390	-24.077	-0.127	-0.076
-620.376	-53.953	-0.202	-0.092
-619.361	-54.705	0.233	0.105
-618.346	-107.451	-0.186	0.041
-617.332	-200.000	0.006	0.246
-616.317	710.147	0.153	-0.403
-615.303	-181.307	-0.007	-0.000
-614.288	65.225	0.357	0.360
-613.273	178.943	-0.186	0.271
-612.259	36.194	-0.094	0.082
-611.244	-200.000	-0.071	-0.406
-610.230	662.721	0.006	0.017
-609.215	77.846	-0.185	0.196
-608.201	41.190	-0.112	0.101
-607.186	800.000	0.076	-0.252
-606.171	-11.823	0.023	-0.015
-605.157	258.469	-0.128	-0.219
-604.142	-5.892	-0.332	-0.226
-603.128	-188.373	0.271	-0.003
-602.113	236.383	-0.144	0.238
-601.098	71.827	0.137	-0.142
-600.084	-200.000	-0.000	-0.158
-599.069	29.746	0.128	0.108
-598.055	76.255	0.185	0.196
-597.040	148.356	-0.095	0.128
-596.025	149.833	0.071	0.096
-595.011	37.209	-0.185	-0.163
-593.996	800.000	-0.100	-0.283
-592.982	-116.061	0.142	0.026
-591.967	-138.785	-0.050	0.005
-590.952	187.289	-0.040	0.059
-589.938	-47.314	0.326	-0.158
-588.923	48.774	-0.168	-0.157
-587.909	42.231	0.128	0.116
-586.894	-7.794	0.099	-0.066
-585.879	-200.000	0.029	0.153
-584.865	-200.000	-0.003	-0.116
-583.850	84.824	-0.053	-0.058
-582.836	98.882	-0.153	-0.176
-581.821	242.954	0.126	-0.210
-580.806	55.099	0.191	-0.184
-579.792	-200.000	-0.046	-0.299
-578.777	-114.112	-0.221	0.043
-577.763	307.034	0.073	0.136
-576.748	193.734	-0.237	0.357
-575.733	-77.838	0.278	-0.096
-574.719	-188.897	-0.232	-0.003
-573.704	29.741	-0.208	0.177
-572.690	795.357	0.106	0.290
-571.675	-24.536	-0.251	-0.149
-570.661	-86.103	-0.128	-0.039
-569.646	58.906	0.089	0.087
-568.631	800.000	0.095	0.346
-567.617	-119.802	0.101	-0.017
-566.602	-46.241	-0.232	-0.114
-565.588	218.513	0.082	-0.131
-564.573	262.353	0.211	-0.364
-563.558	93.333	-0.179	-0.202
-562.544	51.738	-0.170	0.161
-561.529	-173.678	-0.175	-0.005
-560.515	-112.488	0.156	0.031
-559.500	800.000	-0.016	0.059
-558.485	-200.000	0.010	0.061
-557.471	800.000	-0.045	0.148
-556.456	679.481	-0.041	0.106
-555.442	362.512	0.071	0.142
-554.427	149.907	-0.173	0.233
-553.412	424.296	-0.153	0.328
-552.398	-23.252	0.124	-0.074
-551.383	12.632	-0.092	-0.071
-550.369	-115.058	0.527	0.100
-549.354	9.693	0.219	0.165
-548.339	125.052	-0.140	-0.176
-547.325	-23.818	0.281	0.167
-546.310	27.279	0.100	-0.083
-545.296	352.363	0.210	-0.413
-544.281	800.000	-0.058	-0.235
-543.266	-163.386	0.451	-0.021
-542.252	-173.492	0.019	-0.001
-541.237	-179.725	-0.234	0.005
-540.223	-200.000	0.009	0.185
-539.208	22.316	-0.084	0.068
-538.193	106.816	-0.147	0.174
-537.179	46.927	-0.137	0.127
-536.164	-7.754	0.078	0.052
-535.150	-122.152	-0.271	-0.044
-534.135	16.292	-0.282	-0.222
-533.121	309.464	0.116	-0.215
-532.106	-200.000	0.019	-0.152
-531.091	-200.000	-0.001	-0.387
-530.077	25.117	-0.321	-0.265
-529.062	195.383	-0.031	0.046
-528.048	184.439	0.077	0.113
-527.033	274.623	0.056	0.099
-526.018	703.954	0.062	-0.164
-525.004	800.000	-0.076	0.269
-523.989	2.266	0.191	-0.137
-522.975	800.000	0.134	0.374
-521.960	-200.000	-0.005	-0.351
-520.945	79.623	0.115	-0.122
-519.931	-88.900	0.190	-0.056
-518.916	-111.839	-0.132	-0.027
-517.902	-200.000	-0.014	0.138
-516.887	-79.239	0.155	0.052
-515.872	-200.000	-0.004	0.021
-514.858	-83.681	-0.175	0.055
-513.843	72.044	-0.223	0.231
-512.829	51.822	0.296	0.280
-511.814	-200.000	-0.030	0.163
-510.799	1.905	-0.363	0.260
-509.785	485.054	-0.105	0.239
-508.770	-102.782	-0.252	0.060
-507.756	-71.390	-0.030	0.011
-506.741	7.887	-0.108	0.080
-505.726	-74.344	-0.211	-0.076
-504.712	-39.493	0.081	0.042
-503.697	-165.368	-0.028	0.001
-502.683	-48.932	0.098	0.046
-501.668	-200.000	-0.044	-0.414
-500.653	212.053	0.180	0.282
-499.639	270.039	-0.137	0.238
-498.624	-200.000	0.027	-0.171
-497.610	600.703	-0.009	0.022
-496.595	-200.000	0.020	-0.118
-495.581	484.971	-0.082	0.184
-494.566	267.557	-0.170	0.295
-493.551	-126.381	-0.305	-0.045
-492.537	-78.189	-0.092	-0.031
-491.522	172.822	0.152	-0.217
-490.508	250.103	-0.078	-0.132
-489.493	130.367	-0.169	-0.215
-488.478	-123.282	-0.376	-0.060
-487.464	198.503	0.066	0.101
-486.449	-200.000	-0.001	0.069
-485.435	-200.000	-0.004	-0.340
-484.420	-200.000	0.099	-0.457
-483.405	800.000	-0.020	-0.069
-482.391	-102.307	0.339	-0.081
-481.376	-46.241	0.194	0.095
-480.362	-36.698	-0.128	0.068
-479.347	-94.131	-0.277	-0.075
-478.332	-200.000	-0.006	-0.187
-477.318	-60.467	0.157	-0.066
-476.303	-60.603	0.338	-0.142
-475.289	66.712	0.153	-0.154
-474.274	321.981	0.064	0.121
-473.259	-200.000	-0.027	-0.194
-472.245	88.396	-0.015	0.017
-471.230	-13.455	0.056	-0.036
-470.216	27.704	-0.135	-0.113
-469.201	-200.000	-0.020	-0.119
-468.186	24.500	0.038	-0.031
-467.172	-81.713	-0.205	-0.067
-466.157	-200.000	0.014	0.212
-465.143	33.694	0.166	0.143
-464.128	-147.700	-0.339	0.028
-463.113	-200.000	0.040	0.225
-462.099	-47.733	0.199	0.096
-461.084	95.460	0.276	-0.312
-460.070	676.532	0.106	-0.272
-459.055	-65.992	0.093	0.037
-458.040	-87.838	-0.074	0.022
-457.026	-129.893	-0.422	-0.057
-456.011	-61.357	-0.089	-0.037
-454.997	-34.227	0.237	-0.129
-453.982	800.000	-0.054	-0.181
-452.968	-130.706	-0.106	-0.014
-451.953	800.000	0.036	-0.111
-450.938	-200.000	0.051	0.411
-449.924	285.839	-0.054	0.096
-448.909	102.955	0.220	-0.256
-447.895	-56.674	-0.392	0.172
-446.880	-126.242	0.436	-0.065
-445.865	39.116	-0.124	-0.110
-444.851	-63.163	-0.160	-0.065
-443.836	195.828	0.098	0.147
-442.822	800.000	-0.094	0.344
-441.807	-84.700	-0.224	0.070
-440.792	14.660	-0.118	0.091
-439.778	-71.052	0.149	0.055
-438.763	21.254	-0.268	0.215
-437.749	195.749	0.153	0.231
-436.734	-65.255	-0.403	0.161
-435.719	318.720	0.081	0.152
-434.705	800.000	-0.044	0.179
-433.690	97.938	-0.042	0.048
-432.676	392.640	0.074	0.153
-431.661	-200.000	-0.026	0.115
-430.646	87.847	0.191	-0.210
-429.632	22.654	-0.243	-0.197
-428.617	323.419	0.048	0.091
-427.603	-76.862	-0.332	0.115
-426.588	64.008	-0.281	-0.279
-425.573	310.326	0.197	-0.366
-424.559	-200.000	0.095	0.510
-423.544	-73.283	0.272	0.099
-422.530	-80.572	-0.189	0.062
-421.515	-200.000	0.053	0.248
-420.500	243.830	0.075	0.125
-419.486	-200.000	0.029	-0.206
-418.471	-47.068	-0.193	-0.093
-417.457	362.719	0.082	-0.162
-416.442	45.405	0.254	0.232
-415.428	-38.652	-0.193	-0.101
-414.413	71.925	-0.096	-0.099
-413.398	-200.000	-0.061	-0.372
-412.384	72.034	0.144	0.148
-411.369	440.713	0.096	0.208
-410.355	67.579	0.248	-0.250
-409.340	-62.320	-0.271	0.112
-408.325	311.687	-0.080	-0.149
-407.311	216.139	-0.185	0.290
-406.296	800.000	-0.127	-0.415
-405.282	-77.752	-0.274	0.094
-404.267	-135.252	-0.169	0.020
-403.252	414.014	-0.065	-0.137
-402.238	-1.504	-0.278	-0.194
-401.223	-126.841	0.146	0.021
-400.209	46.446	0.128	0.117
-399.194	16.014	0.308	0.240
-398.179	6.945	0.142	-0.105
-397.165	-39.194	0.333	0.173
-396.150	-68.680	-0.066	0.025
-395.136	-154.220	-0.155	0.010
-394.121	251.047	0.187	-0.314
-393.106	800.000	-0.058	-0.189
-392.092	-182.088	0.214	-0.004
-391.077	-87.222	0.171	-0.052
-390.063	236.042	0.084	-0.138
-389.048	800.000	0.037	0.103
-388.033	-41.417	-0.044	0.022
-387.019	-200.000	-0.007	-0.309
-386.004	-200.000	-0.005	0.048
-384.990	-8.358	0.107	-0.071
-383.975	-18.642	0.215	-0.133
-382.960	234.562	-0.053	0.087
-381.946	31.806	-0.415	-0.353
-380.931	-37.115	0.244	-0.129
-379.917	800.000	-0.078	0.247
-378.902	60.415	0.071	-0.070
-377.888	210.446	-0.162	-0.251
-376.873	-147.937	0.342	0.028
-375.858	358.301	0.035	0.068
-374.844	-200.000	0.014	0.243
-373.829	-200.000	-0.081	0.496
-372.815	330.929	-0.014	0.027
-371.800	800.000	-0.077	0.221
-370.785	21.205	-0.264	-0.212
-369.771	-200.000	-0.016	0.105
-368.756	-31.540	-0.177	0.098
-367.742	-102.486	-0.227	0.054
-366.727	-200.000	-0.000	-0.122
-365.712	-200.000	-0.032	0.345
-364.698	-200.000	-0.049	-0.267
-363.683	-31.113	-0.259	0.144
-362.669	111.587	-0.093	-0.111
-361.654	-154.640	-0.206	0.014
-360.639	274.325	-0.058	0.101
-359.625	-67.026	-0.156	0.061
-358.610	205.279	-0.030	-0.046
-357.596	800.000	0.010	0.030
-356.581	692.021	0.110	-0.284
-355.566	-69.268	0.225	-0.085
-354.552	-31.980	0.241	-0.133
-353.537	38.873	0.171	-0.151
-352.523	-113.441	0.445	-0.086
-351.508	-166.249	-0.149	-0.006
-350.493	2.982	0.251	-0.180
-349.479	800.000	0.073	0.212
-348.464	101.041	0.090	-0.103
-347.450	-200.000	-0.060	-0.364
-346.435	-200.000	0.025	-0.182
-345.420	-175.193	0.191	0.005
-344.406	-200.000	0.025	0.190
-343.391	800.000	-0.029	-0.080
-342.377	-157.844	-0.248	0.015
-341.362	-200.000	-0.018	-0.129
-340.348	-200.000	-0.003	-0.183
-339.333	-200.000	-0.009	-0.160
-338.318	-200.000	-0.061	-0.288
-337.304	800.000	-0.035	-0.098
-336.289	101.025	-0.173	0.199
-335.275	-200.000	0.073	0.316
-334.260	-134.076	-0.175	-0.021
-333.245	800.000	0.039	0.160
-332.231	-126.422	-0.309	0.045
-331.216	92.026	0.329	-0.366
-330.202	800.000	-0.041	-0.117
-329.187	96.976	0.172	0.195
-328.172	123.941	0.211	-0.261
-327.158	-28.510	0.139	0.079
-326.143	-111.676	0.184	0.037
-325.129	-87.105	0.209	-0.063
-324.114	218.781	-0.081	0.127
-323.099	163.498	-0.117	-0.162
-322.085	-200.000	0.005	-0.236
-321.070	138.809	0.115	0.150
-320.056	88.583	0.448	0.491
-319.041	-55.348	-0.143	0.063
-318.026	-200.000	0.007	-0.046
-317.012	-90.450	-0.225	0.064
-315.997	68.308	0.109	0.110
-314.983	37.927	-0.012	0.010
-313.968	184.847	-0.113	-0.166
-312.953	-200.000	0.012	0.243
-311.939	-200.000	0.005	0.123
-310.924	-108.727	0.189	-0.040
-309.910	-94.315	0.138	0.037
-308.895	-1.641	0.053	0.037
-307.880	-43.750	-0.267	0.133
-306.866	154.736	-0.066	0.090
-305.851	168.837	-0.220	-0.309
-304.837	314.688	0.098	0.183
-303.822	368.606	-0.063	0.126
-302.807	-129.538	0.112	0.015
-301.793	313.031	-0.134	0.249
-300.778	-36.708	-0.066	-0.035
-299.764	350.593	-0.038	0.073
-298.749	-149.724	0.053	-0.004
-297.735	-93.115	-0.208	0.057
-296.720	-16.494	-0.143	0.089
-295.705	-110.730	0.212	0.043
-294.691	-13.800	-0.020	-0.013
-293.676	800.000	-0.031	0.103
-292.662	-200.000	-0.010	0.198
-291.647	-200.000	0.040	0.208
-290.632	-36.842	0.210	-0.111
-289.618	-139.769	0.331	-0.035
-288.603	-99.003	0.084	-0.021
-287.589	-200.000	0.029	-0.164
-286.574	57.823	0.256	0.247
-285.559	-88.439	-0.228	0.067
-284.545	-200.000	0.000	-0.277
-283.530	43.536	-0.346	-0.312
-282.516	-112.279	0.109	-0.022
-281.501	324.689	0.029	0.054
-280.486	-48.566	-0.311	-0.147
-279.472	-54.832	-0.215	-0.096
-278.457	-129.802	0.437	-0.059
-277.443	-61.164	-0.142	-0.059
-276.428	-52.356	0.177	-0.081
-275.413	-200.000	0.002	0.181
-274.399	630.800	0.201	0.501
-273.384	-131.521	-0.120	0.016
-272.370	207.213	0.144	0.221
-271.355	-87.845	0.223	0.066
-270.340	-51.709	0.305	0.140
-269.326	-200.000	0.005	0.261
-268.311	59.821	-0.047	-0.045
-267.297	177.231	-0.076	-0.109
-266.282	110.499	0.209	-0.248
-265.267	118.371	0.165	0.201
-264.253	99.745	-0.141	0.160
-263.238	209.077	-0.131	0.201
-262.224	501.192	-0.107	-0.243
-261.209	-200.000	-0.023	0.164
-260.195	55.027	-0.265	-0.252
-259.180	-56.126	0.362	0.159
-258.165	41.536	-0.267	0.238
-257.151	649.509	0.101	0.253
-256.136	31.118	0.076	0.064
-255.122	93.572	-0.044	-0.049
-254.107	-149.114	-0.133	-0.011
-253.092	-160.612	-0.204	-0.011
-252.078	79.360	0.114	-0.120
-251.063	-200.000	-0.025	0.242
-250.049	233.149	-0.054	0.087
-249.034	-92.567	-0.182	-0.050
-248.019	719.810	-0.057	0.148
-247.005	-200.000	0.006	0.124
-245.990	111.399	-0.083	0.098
-244.976	327.076	0.099	0.187
-243.961	20.570	0.172	0.137
-242.946	800.000	0.036	0.138
-241.932	117.368	0.220	-0.266
-240.917	-7.102	-0.160	-0.107
-239.903	88.701	-0.109	-0.119
-238.888	-200.000	0.002	-0.265
-237.873	243.183	0.126	0.208
-236.859	-24.349	-0.211	-0.124
-235.844	-55.794	-0.098	-0.043
-234.830	-89.609	-0.123	0.035
-233.815	-0.963	0.130	0.091
-232.800	741.998	-0.049	-0.130
-231.786	-200.000	-0.007	0.228
-230.771	25.016	0.300	0.245
-229.757	-200.000	-0.002	-0.389
-228.742	-50.867	0.201	-0.093
-227.727	552.749	-0.013	0.031
-226.713	29.081	-0.289	0.241
-225.698	800.000	0.013	-0.040
-224.684	577.647	-0.114	0.273
-223.669	195.243	-0.050	0.075
-222.655	54.060	0.036	-0.034
-221.640	-134.767	-0.303	-0.036
-220.625	195.814	0.065	-0.097
-219.611	75.655	-0.147	0.153
-218.596	-200.000	0.003	0.020
-217.582	-3.150	-0.110	0.075
-216.567	-25.296	0.118	0.069
-215.552	-200.000	0.005	-0.119
-214.538	-200.000	0.032	-0.173
-213.523	395.289	0.061	-0.124
-212.509	123.575	0.166	0.205
-211.494	800.000	0.050	-0.139
-210.479	-9.354	0.008	-0.005
-209.465	-76.404	0.292	0.101
-208.450	67.701	0.304	-0.305
-207.436	-174.323	-0.203	-0.006
-206.421	128.018	0.077	0.096
-205.406	147.427	0.286	0.378
-204.392	610.750	-0.082	0.202
-203.377	-200.000	0.031	-0.152
-202.363	-27.478	-0.187	-0.107
-201.348	744.974	-0.053	-0.141
-200.333	22.267	0.217	-0.174
-199.319	26.624	0.220	0.180
-198.304	35.968	-0.354	-0.306
-197.290	-200.000	-0.022	-0.137
-196.275	69.173	-0.240	-0.242
-195.260	67.800	0.140	0.141
-194.246	176.424	0.158	0.225
-193.231	-38.136	0.181	0.094
-192.217	-20.520	0.108	-0.065
-191.202	-135.482	-0.320	0.037
-190.187	-130.168	0.426	0.057
-189.173	-101.031	0.078	0.019
-188.158	-7.567	0.201	-0.133
-187.144	67.173	-0.080	-0.080
-186.129	800.000	-0.050	0.193
-185.114	-39.281	0.043	-0.022
-184.100	-63.723	-0.173	0.070
-183.085	-78.882	0.388	0.130
-182.071	800.000	0.039	-0.136
-181.056	-1.869	-0.155	-0.107
-180.042	-69.430	0.104	-0.039
-179.027	-106.737	0.164	0.036
-178.012	96.455	-0.142	-0.159
-176.998	-200.000	0.019	0.101
-175.983	-200.000	-0.011	-0.090
-174.969	-200.000	0.036	-0.176
-173.954	800.000	0.019	0.082
-172.939	301.715	-0.076	0.138
-171.925	6.660	0.062	0.045
-170.910	-90.216	-0.332	0.095
-169.896	-77.255	0.090	0.031
-168.881	-65.350	-0.264	-0.104
-167.866	-5.634	0.340	0.228
-166.852	19.103	-0.375	0.295
-165.837	-200.000	0.024	-0.167
-164.823	-49.177	0.266	0.125
-163.808	4.010	-0.043	0.031
-162.793	-200.000	-0.032	-0.198
-161.779	501.771	0.119	0.270
-160.764	89.945	-0.105	0.115
-159.750	444.578	0.062	0.133
-158.735	66.025	0.377	0.375
-157.720	49.957	-0.146	-0.135
-156.706	-125.316	0.467	-0.070
-155.691	-145.948	-0.294	-0.026
-154.677	483.280	-0.074	-0.166
-153.662	-128.443	0.115	0.016
-152.647	-146.284	0.221	0.019
-151.633	-138.620	0.128	0.014
-150.618	-175.059	0.240	0.007
-149.604	308.521	-0.058	-0.106
-148.589	-162.706	-0.235	-0.011
-147.574	-200.000	-0.030	-0.392
-146.560	-73.652	-0.155	0.055
-145.545	-200.000	-0.030	-0.152
-144.531	58.509	-0.465	0.447
-143.516	586.411	-0.072	-0.173
-142.502	228.523	0.012	-0.019
-141.487	-84.223	0.172	0.053
-140.472	-107.901	-0.237	-0.050
-139.458	246.030	-0.115	0.190
-138.443	-82.738	0.213	-0.067
-137.429	-80.663	0.184	-0.060
-136.414	66.140	0.166	0.165
-135.399	27.715	0.086	0.071
-134.385	-118.691	-0.217	-0.038
-133.370	-200.000	0.002	0.053
-132.356	-13.622	0.246	0.156
-131.341	95.009	0.225	-0.251
-130.326	-200.000	-0.009	-0.161
-129.312	-74.197	0.117	0.042
-128.297	1.115	-0.065	0.045
-127.283	-7.947	0.212	-0.140
-126.268	-10.416	0.082	0.053
-125.253	26.634	-0.120	0.099
-124.239	-200.000	0.045	0.269
-123.224	60.661	-0.237	0.230
-122.210	116.483	0.048	0.057
-121.195	115.705	-0.126	0.151
-120.180	800.000	-0.084	0.268
