DTS Sentinel unit serial number:	SN413079Multiplexer serial number:	ORYXHardware model number:	OX4-SRSoftware version number:	ORYX F/W v4.00 Oryx Data Collector v3.7.2.0data status	okinstallation	borehole priincetondifferential loss correction	single-endedforward channel	channel 1reverse channel	N/Adate	2019/09/10time	14:21:17forward acquisition time	15.00reverse acquisition time	0.00gamma	496.2192k internal	0.2299k external	0.2299temperature offset calibration	1.0000default loss term (dB/km)	0.3790temperature slope calibration	1.0000multiplexer offset coefficient	1.0000multiplexer slope coefficient	1.0000fibre end	0.00T internal ref (°C)	39.12T ext. ref 1 (°C)	27.64T ext. ref 2 (°C)	30.29length (m)	temperature (°C)	Stokes	anti-Stokes-747.200	-19.014	-0.443	0.281
-746.185	345.492	-0.278	-0.557
-745.171	-37.276	0.432	-0.236
-744.156	-83.016	0.494	-0.162
-743.142	-25.428	-0.956	0.577
-742.127	159.117	-0.170	0.242
-741.112	-200.000	0.029	0.933
-740.098	298.331	-0.345	0.648
-739.083	-93.737	1.181	0.332
-738.069	-200.000	0.009	-0.482
-737.054	113.354	0.263	-0.325
-736.039	55.918	0.238	0.235
-735.025	800.000	-0.127	-0.418
-734.010	-28.519	-0.513	0.302
-732.996	69.483	-0.176	0.185
-731.981	1.935	-0.333	-0.245
-730.966	-76.868	-1.188	0.424
-729.952	800.000	0.074	-0.268
-728.937	-54.486	-0.267	0.123
-727.923	183.989	-0.593	0.895
-726.908	141.392	0.171	-0.231
-725.894	-113.517	0.484	0.097
-724.879	-35.462	0.427	-0.237
-723.864	-80.625	-0.495	-0.168
-722.850	800.000	0.068	0.221
-721.835	-200.000	0.023	0.289
-720.821	-21.211	-0.989	-0.616
-719.806	-104.281	1.314	-0.311
-718.791	86.925	-0.040	-0.045
-717.777	275.395	-0.440	0.795
-716.762	800.000	-0.202	0.610
-715.748	-200.000	0.035	0.456
-714.733	74.213	-0.884	-0.946
-713.718	-200.000	0.018	0.214
-712.704	800.000	-0.029	-0.082
-711.689	407.147	0.487	-1.049
-710.675	170.126	-0.100	-0.146
-709.660	325.977	0.433	-0.845
-708.645	-92.180	-0.738	-0.212
-707.631	151.243	-0.259	-0.359
-706.616	800.000	0.147	0.559
-705.602	-78.405	-0.141	0.049
-704.587	136.592	-0.362	-0.481
-703.572	4.731	0.399	0.299
-702.558	-72.620	-0.432	0.162
-701.543	-193.081	0.760	-0.007
-700.529	-62.832	0.687	-0.290
-699.514	-22.754	-0.586	-0.361
-698.499	313.712	0.434	-0.831
-697.485	-26.967	0.854	0.508
-696.470	-146.800	-0.840	-0.074
-695.456	688.001	0.092	-0.245
-694.441	800.000	-0.125	0.483
-693.426	312.767	0.158	-0.303
-692.412	342.695	0.679	-1.354
-691.397	43.736	0.259	0.241
-690.383	-46.596	-0.634	-0.317
-689.368	56.041	-0.278	-0.275
-688.354	675.876	0.208	0.551
-687.339	600.497	0.282	-0.714
-686.324	-200.000	0.009	-0.118
-685.310	57.019	-0.267	0.265
-684.295	11.291	-0.487	-0.380
-683.281	438.443	-0.051	-0.113
-682.266	800.000	-0.275	-0.927
-681.251	94.003	-0.349	-0.403
-680.237	-116.030	0.156	0.030
-679.222	102.686	-0.621	-0.740
-678.208	-11.170	0.431	0.289
-677.193	159.441	0.272	-0.385
-676.178	-36.826	-0.446	-0.244
-675.164	-18.509	-0.462	0.294
-674.149	800.000	-0.240	0.697
-673.135	269.554	0.039	-0.070
-672.120	-110.830	0.851	0.178
-671.105	800.000	-0.198	0.808
-670.091	-200.000	0.012	0.199
-669.076	-90.492	0.511	0.151
-668.062	421.277	-0.266	-0.580
-667.047	-29.466	0.544	-0.317
-666.032	98.897	0.599	-0.704
-665.018	606.293	0.062	0.158
-664.003	-178.753	-0.584	-0.014
-662.989	47.781	-0.585	-0.555
-661.974	-200.000	-0.103	-0.770
-660.959	67.972	0.429	-0.446
-659.945	800.000	-0.163	0.509
-658.930	86.352	0.411	0.461
-657.916	-133.417	-0.231	-0.030
-656.901	-118.749	-0.566	-0.101
-655.886	-200.000	-0.043	-0.413
-654.872	424.328	-0.145	0.318
-653.857	800.000	0.199	-0.572
-652.843	4.629	0.481	0.359
-651.828	-196.415	0.216	0.001
-650.814	77.874	0.144	0.156
-649.799	317.979	0.365	0.702
-648.784	-26.800	0.352	0.209
-647.770	-58.340	-0.119	0.053
-646.755	-107.207	-0.705	0.158
-645.741	800.000	0.239	-0.752
-644.726	-4.694	0.488	0.343
-643.711	-65.854	-1.057	-0.430
-642.697	-129.292	0.434	0.061
-641.682	-38.750	-0.859	-0.461
-640.668	-200.000	0.053	-0.647
-639.653	-192.004	-0.823	-0.008
-638.638	-200.000	-0.003	-0.237
-637.624	-200.000	-0.011	0.058
-636.609	62.475	-0.047	0.048
-635.595	-142.245	0.807	-0.081
-634.580	-115.485	0.964	0.185
-633.565	-45.680	-0.702	0.353
-632.551	-200.000	-0.004	0.355
-631.536	-50.584	0.464	-0.222
-630.522	-200.000	0.044	-0.474
-629.507	139.272	-0.358	0.478
-628.492	14.679	0.457	-0.363
-627.478	-138.000	-0.361	0.041
-626.463	800.000	0.086	0.253
-625.449	-85.189	0.538	0.171
-624.434	12.178	-0.227	0.177
-623.419	-193.258	-0.305	0.003
-622.405	60.304	-0.413	0.415
-621.390	-1.581	-0.319	-0.229
-620.376	15.114	-0.570	0.454
-619.361	-45.066	-0.357	0.180
-618.346	-178.636	0.343	-0.008
-617.332	-34.163	0.375	0.209
-616.317	137.574	-0.547	-0.727
-615.303	-183.665	0.786	0.014
-614.288	-3.119	-0.073	0.052
-613.273	800.000	0.037	0.150
-612.259	119.288	0.516	-0.648
-611.244	-194.372	-0.320	0.003
-610.230	-5.212	-0.339	0.236
-609.215	-6.464	-0.444	-0.307
-608.201	200.720	0.265	-0.414
-607.186	800.000	-0.099	-0.368
-606.171	-73.897	0.568	-0.209
-605.157	70.730	-0.532	-0.559
-604.142	800.000	-0.128	-0.505
-603.128	60.387	0.206	0.207
-602.113	-48.081	0.465	-0.228
-601.098	-105.918	-0.417	0.095
-600.084	95.189	-0.316	0.366
-599.069	74.294	-0.117	0.125
-598.055	-135.887	-0.648	0.078
-597.040	-124.671	0.090	-0.014
-596.025	-15.191	0.106	0.069
-595.011	209.119	-0.600	0.953
-593.996	375.638	0.374	0.774
-592.982	9.018	0.443	0.339
-591.967	-200.000	-0.062	0.305
-590.952	30.781	0.607	0.527
-589.938	-113.735	-0.379	0.075
-588.923	-200.000	0.083	0.727
-587.909	365.270	-0.237	0.485
-586.894	800.000	0.104	0.349
-585.879	-200.000	0.032	0.602
-584.865	-94.770	-0.918	0.253
-583.850	9.391	-0.248	-0.190
-582.836	251.087	0.292	0.504
-581.821	126.774	-0.393	-0.504
-580.806	-157.370	-0.534	0.033
-579.792	-200.000	-0.006	-0.492
-578.777	237.650	0.266	-0.448
-577.763	92.469	-0.490	0.561
-576.748	-200.000	0.017	-0.296
-575.733	-47.224	0.381	-0.188
-574.719	-79.039	0.821	0.283
-573.704	384.041	-0.670	-1.399
-572.690	-148.570	-0.378	0.031
-571.675	-7.561	0.224	0.154
-570.661	404.011	-0.321	0.686
-569.646	-141.413	-0.254	0.026
-568.631	800.000	-0.088	-0.323
-567.617	1.990	-0.239	-0.175
-566.602	431.755	0.171	0.376
-565.588	-164.698	0.774	0.035
-564.573	177.975	0.189	-0.280
-563.558	-200.000	-0.142	0.671
-562.544	22.125	-0.179	0.148
-561.529	-200.000	-0.004	0.052
-560.515	-46.190	0.732	-0.365
-559.500	-200.000	-0.035	-0.416
-558.485	-86.913	0.404	0.125
-557.471	-200.000	0.041	-0.326
-556.456	-200.000	0.035	0.468
-555.442	15.820	-0.499	0.398
-554.427	570.800	0.445	1.097
-553.412	800.000	0.078	0.318
-552.398	6.496	0.503	-0.379
-551.383	-152.498	0.810	0.059
-550.369	-165.434	0.530	-0.024
-549.354	-200.000	-0.066	-0.315
-548.339	-22.055	0.215	-0.132
-547.325	-147.439	-0.480	-0.041
-546.310	-200.000	0.118	0.795
-545.296	800.000	-0.148	-0.456
-544.281	-200.000	0.074	1.142
-543.266	604.736	0.182	0.458
-542.252	-200.000	0.037	-0.318
-541.237	-153.960	-0.832	0.057
-540.223	-17.944	-0.890	-0.565
-539.208	725.637	-0.047	-0.128
-538.193	280.682	-0.278	-0.503
-537.179	800.000	-0.341	-0.998
-536.164	-56.772	0.405	0.181
-535.150	800.000	-0.078	0.285
-534.135	-200.000	0.005	-0.540
-533.121	60.014	0.569	0.569
-532.106	-125.443	0.437	-0.067
-531.091	534.047	-0.266	0.639
-530.077	-134.718	-0.520	-0.064
-529.062	749.077	-0.338	-0.922
-528.048	-36.121	-0.484	-0.265
-527.033	-200.000	0.081	0.578
-526.018	-94.556	-0.359	-0.099
-525.004	78.631	-0.104	0.113
-523.989	-64.549	-0.436	-0.179
-522.975	-112.519	-0.627	-0.127
-521.960	75.127	-0.516	-0.551
-520.945	395.193	0.098	0.207
-519.931	-200.000	-0.066	-0.473
-518.916	7.444	-0.438	0.331
-517.902	140.082	-0.428	-0.571
-516.887	-200.000	-0.106	-0.991
-515.872	-103.135	0.687	-0.164
-514.858	800.000	0.126	0.548
-513.843	232.002	0.346	0.574
-512.829	-113.592	0.461	-0.091
-511.814	-145.256	0.638	0.058
-510.799	15.245	-0.582	-0.461
-509.785	-200.000	-0.057	0.335
-508.770	-52.371	-0.684	0.320
-507.756	-84.611	0.732	0.233
-506.741	89.363	0.420	0.474
-505.726	191.465	-0.336	0.511
-504.712	722.392	0.212	0.570
-503.697	-200.000	0.052	-0.324
-502.683	800.000	0.201	0.581
-501.668	800.000	-0.126	0.351
-500.653	-200.000	0.011	0.117
-499.639	-62.807	-0.386	0.162
-498.624	-98.703	-0.557	0.143
-497.610	-102.865	0.143	-0.034
-496.595	324.222	-0.165	-0.319
-495.581	84.137	-0.385	0.426
-494.566	800.000	-0.172	0.682
-493.551	-129.472	-0.457	-0.064
-492.537	-1.210	-0.298	0.213
-491.522	576.972	0.070	-0.173
-490.508	-66.144	0.576	0.232
-489.493	84.492	-0.080	-0.088
-488.478	-77.765	0.467	-0.163
-487.464	-53.126	-0.615	-0.286
-486.449	800.000	-0.113	-0.362
-485.435	-159.089	-0.515	-0.029
-484.420	66.310	-0.243	-0.249
-483.405	800.000	-0.070	0.198
-482.391	445.892	0.186	0.412
-481.376	111.647	-0.262	0.320
-480.362	-123.512	0.408	-0.066
-479.347	-200.000	0.018	0.576
-478.332	-200.000	-0.005	-0.450
-477.318	-169.475	0.388	0.014
-476.303	155.187	0.572	0.795
-475.289	15.557	0.736	0.584
-474.274	45.230	0.429	-0.399
-473.259	-105.365	-0.602	0.138
-472.245	-11.202	-0.502	0.334
-471.230	267.861	-0.281	-0.496
-470.216	90.972	0.264	0.299
-469.201	-40.346	-0.490	-0.257
-468.186	-103.061	0.870	-0.208
-467.172	-200.000	0.014	0.267
-466.157	10.838	0.516	-0.398
-465.143	97.944	-0.272	0.316
-464.128	13.817	-0.572	-0.449
-463.113	-101.025	-0.285	-0.070
-462.099	-92.806	-0.325	0.092
-461.084	136.160	-0.449	-0.590
-460.070	-106.996	0.571	0.127
-459.055	-164.411	0.447	-0.021
-458.040	484.539	-0.230	0.528
-457.026	49.679	0.184	-0.175
-456.011	-200.000	0.016	-0.453
-454.997	-65.750	-0.086	-0.035
-453.982	-130.325	1.437	-0.197
-452.968	4.536	-0.395	0.292
-451.953	-200.000	-0.159	-0.991
-450.938	27.163	-0.621	-0.526
-449.924	-179.764	0.537	-0.012
-448.909	800.000	-0.066	0.249
-447.895	89.387	-0.566	-0.636
-446.880	152.405	-0.265	0.366
-445.865	72.207	0.717	0.753
-444.851	5.039	-0.504	-0.374
-443.836	-101.661	0.413	0.101
-442.822	-200.000	-0.574	0.000
-441.807	215.045	0.172	0.275
-440.792	-200.000	-0.037	0.567
-439.778	-200.000	0.007	-0.188
-438.763	-200.000	0.101	-0.643
-437.749	-200.000	0.047	0.325
-436.734	720.797	-0.099	0.265
-435.719	188.538	0.353	0.533
-434.705	-200.000	-0.033	0.470
-433.690	509.670	-0.125	0.292
-432.676	190.533	0.063	0.095
-431.661	-71.719	-0.339	0.127
-430.646	-96.145	-0.363	0.097
-429.632	800.000	-0.219	-0.694
-428.617	-200.000	0.075	-0.555
-427.603	-148.175	-0.395	0.033
-426.588	-94.194	0.704	0.194
-425.573	-200.000	0.048	0.244
-424.559	-22.811	-0.531	0.323
-423.544	-200.000	-0.002	0.101
-422.530	800.000	0.056	-0.232
-421.515	-200.000	0.219	1.103
-420.500	-200.000	-0.036	-0.536
-419.486	-39.557	-0.770	-0.406
-418.471	-83.271	-0.083	0.027
-417.457	-191.024	-0.236	0.002
-416.442	37.256	-0.261	-0.233
-415.428	355.429	0.177	0.355
-414.413	800.000	0.041	0.134
-413.398	193.060	-0.382	0.582
-412.384	-114.227	0.314	0.061
-411.369	-176.118	-0.571	-0.015
-410.355	-37.728	0.706	0.379
-409.340	76.841	0.241	-0.258
-408.325	66.037	1.155	1.180
-407.311	-200.000	-0.038	-0.196
-406.296	-27.795	-0.591	-0.345
-405.282	-200.000	-0.050	0.610
-404.267	-118.067	0.197	-0.035
-403.252	800.000	0.168	0.513
-402.238	-162.500	-0.954	-0.048
-401.223	-200.000	-0.047	-0.513
-400.209	443.781	0.103	-0.227
-399.194	789.054	-0.197	0.543
-398.179	-67.018	0.310	-0.123
-397.165	-161.748	-0.380	-0.020
-396.150	274.302	0.346	0.616
-395.136	-200.000	0.072	-0.659
-394.121	-200.000	0.059	-0.545
-393.106	-12.098	0.718	-0.473
-392.092	-131.546	0.583	-0.077
-391.077	141.556	-0.329	0.438
-390.063	-20.442	0.339	0.210
-389.048	800.000	0.121	0.453
-388.033	-192.903	0.535	-0.005
-387.019	-50.658	0.496	-0.235
-386.004	-122.695	0.444	-0.072
-384.990	147.594	0.335	0.454
-383.975	-200.000	0.143	-0.831
-382.960	-200.000	0.090	-0.750
-381.946	-200.000	-0.018	0.585
-380.931	800.000	0.110	0.357
-379.917	-95.967	0.754	0.202
-378.902	-56.793	-0.364	0.162
-377.888	-111.467	0.319	-0.065
-376.873	-184.393	-0.752	-0.012
-375.858	-200.000	-0.056	-0.454
-374.844	144.758	-0.546	0.734
-373.829	145.975	0.410	0.553
-372.815	-166.697	-0.136	-0.006
-371.800	47.080	0.361	-0.338
-370.785	-140.936	0.390	-0.040
-369.771	0.093	-0.397	-0.284
-368.756	-42.425	-0.136	0.070
-367.742	53.673	0.289	0.279
-366.727	201.669	0.318	-0.493
-365.712	-90.830	-0.601	-0.174
-364.698	-96.015	0.970	-0.260
-363.683	800.000	-0.253	0.815
-362.669	800.000	-0.071	-0.242
-361.654	60.656	-0.228	-0.227
-360.639	349.914	0.272	-0.541
-359.625	-200.000	-0.034	-0.567
-358.610	14.031	-0.211	-0.166
-357.596	42.555	0.365	-0.334
-356.581	-200.000	-0.025	0.133
-355.566	169.278	0.555	-0.796
-354.552	126.163	0.255	-0.324
-353.537	-200.000	0.023	0.340
-352.523	56.977	-0.540	0.529
-351.508	-70.371	0.156	0.059
-350.493	139.058	-0.333	-0.440
-349.479	-22.581	-0.577	-0.351
-348.464	302.569	0.391	-0.726
-347.450	-72.043	0.431	0.161
-346.435	-200.000	0.092	-0.502
-345.420	-15.751	0.314	-0.201
-344.406	-154.656	0.019	0.001
-343.391	100.272	-0.210	-0.245
-342.377	-200.000	0.124	-0.705
-341.362	-118.563	-0.750	0.133
-340.348	12.643	-0.523	-0.406
-339.333	402.809	-0.395	0.834
-338.318	303.021	0.245	-0.456
-337.304	-200.000	-0.028	-0.137
-336.289	32.215	-0.227	-0.197
-335.275	-47.467	0.660	-0.322
-334.260	273.764	-0.263	-0.467
-333.245	174.804	-0.338	-0.491
-332.231	800.000	-0.134	-0.581
-331.216	320.590	-0.229	-0.438
-330.202	65.812	0.424	0.432
-329.187	53.478	-0.404	-0.389
-328.172	-52.606	-0.325	0.151
-327.158	-71.424	0.190	-0.071
-326.143	-152.277	-0.281	-0.020
-325.129	209.730	-0.195	-0.307
-324.114	-27.379	-0.832	0.486
-323.099	-200.000	0.104	0.595
-322.085	494.563	-0.188	-0.434
-321.070	152.603	-0.304	-0.417
-320.056	10.732	0.326	-0.250
-319.041	-62.866	0.865	-0.359
-318.026	0.891	-0.603	-0.434
-317.012	598.666	-0.172	0.429
-315.997	176.868	0.212	-0.310
-314.983	-136.383	-0.189	0.022
-313.968	-72.777	-0.714	-0.264
-312.953	-200.000	-0.003	-0.592
-311.939	-112.890	-0.410	0.082
-310.924	-145.482	0.624	-0.056
-309.910	153.207	0.247	0.339
-308.895	8.306	-0.545	-0.411
-307.880	52.841	0.282	-0.270
-306.866	275.085	-0.123	-0.218
-305.851	120.454	-0.198	0.247
-304.837	800.000	0.114	0.362
-303.822	134.310	-0.209	0.272
-302.807	-190.015	0.828	0.009
-301.793	-1.804	-0.090	-0.063
-300.778	342.586	-0.071	-0.140
-299.764	174.914	-0.481	-0.699
-298.749	264.497	-0.112	-0.196
-297.735	243.772	-0.243	0.408
-296.720	-46.871	0.398	-0.195
-295.705	167.938	-0.345	0.492
-294.691	-13.083	-0.206	-0.134
-293.676	156.413	-0.126	-0.175
-292.662	-200.000	-0.021	0.394
-291.647	456.340	-0.446	-0.993
-290.632	-15.643	0.278	-0.178
-289.618	-89.068	-0.571	-0.169
-288.603	161.399	-0.191	-0.268
-287.589	-136.796	0.637	-0.074
-286.574	-110.726	-0.399	-0.083
-285.559	-29.852	-0.582	0.333
-284.545	-200.000	-0.267	0.001
-283.530	-103.815	0.756	0.177
-282.516	800.000	0.098	-0.356
-281.501	-116.792	-0.288	0.053
-280.486	-103.296	0.759	-0.179
-279.472	232.131	-0.541	-0.889
-278.457	488.034	-0.182	0.416
-277.443	199.854	-0.794	1.221
-276.428	-121.025	1.132	-0.190
-275.413	496.786	0.092	0.212
-274.399	-6.403	0.594	-0.406
-273.384	-200.000	0.131	-0.598
-272.370	-91.839	0.440	-0.125
-271.355	-20.215	0.433	-0.267
-270.340	-200.000	-0.000	0.101
-269.326	111.343	0.607	0.733
-268.311	-100.561	0.201	0.050
-267.297	-118.864	-0.598	-0.105
-266.282	-69.021	-0.197	-0.076
-265.267	50.437	-0.830	0.786
-264.253	462.836	0.118	0.265
-263.238	-126.585	0.712	-0.106
-262.224	-109.848	-0.442	-0.093
-261.209	-200.000	-0.093	0.636
-260.195	558.882	-0.141	0.342
-259.180	-200.000	0.023	0.935
-258.165	560.800	-0.180	-0.436
-257.151	112.548	-0.227	-0.275
-256.136	180.797	-0.271	0.399
-255.122	-55.392	-0.547	-0.246
-254.107	-97.496	-0.554	0.144
-253.092	-166.139	-0.830	-0.035
-252.078	453.389	-0.125	0.278
-251.063	-83.274	0.479	0.154
-250.049	-15.019	-0.138	-0.089
-249.034	43.971	-0.348	-0.319
-248.019	-129.996	0.220	-0.030
-247.005	800.000	-0.217	-0.644
-245.990	-200.000	-0.076	0.522
-244.976	56.393	0.331	-0.322
-243.961	240.062	0.578	0.965
-242.946	-74.949	-0.834	-0.299
-241.932	693.730	-0.281	-0.737
-240.917	303.181	0.279	0.518
-239.903	34.727	0.547	0.479
-238.888	-22.132	0.718	-0.436
-237.873	-163.395	1.195	0.057
-236.859	169.792	0.253	0.362
-235.844	-200.000	0.049	-0.250
-234.830	298.269	0.093	0.172
-233.815	-166.222	-0.405	-0.017
-232.800	-136.257	0.044	0.005
-231.786	800.000	-0.129	-0.534
-230.771	-90.187	0.996	-0.290
-229.757	70.735	-0.463	-0.479
-228.742	241.480	-0.405	-0.677
-227.727	211.833	-0.442	-0.697
-226.713	-103.045	0.836	0.198
-225.698	138.119	-0.150	0.197
-224.684	-200.000	-0.046	0.367
-223.669	-178.171	1.134	-0.027
-222.655	-69.193	1.122	-0.431
-221.640	800.000	0.161	0.669
-220.625	-152.862	-0.612	0.043
-219.611	-200.000	-0.300	1.434
-218.596	-200.000	0.060	0.458
-217.582	77.527	-0.387	-0.412
-216.567	-35.485	0.751	-0.408
-215.552	218.391	0.193	0.307
-214.538	74.888	0.452	-0.476
-213.523	800.000	-0.074	-0.241
-212.509	-200.000	-0.012	-1.089
-211.494	-200.000	-0.076	-0.577
-210.479	-95.661	-0.281	0.075
-209.465	-115.761	-0.066	0.012
-208.450	-35.979	0.406	-0.220
-207.436	-108.339	-0.326	0.070
-206.421	151.238	-0.332	-0.451
-205.406	137.688	-0.248	0.324
-204.392	-98.364	0.287	0.073
-203.377	674.091	0.260	0.675
-202.363	-200.000	-0.038	0.501
-201.348	-157.007	-0.401	-0.025
-200.333	800.000	-0.310	1.044
-199.319	-121.273	0.704	0.117
-198.304	82.697	0.338	0.367
-197.290	-104.776	-0.358	-0.082
-196.275	-8.088	0.556	0.375
-195.260	57.858	0.266	0.260
-194.246	48.624	0.692	0.648
-193.231	270.747	0.281	-0.495
-192.217	100.438	-0.281	-0.326
-191.202	38.457	-0.551	-0.490
-190.187	-32.839	0.448	-0.248
-189.173	-13.317	-0.764	-0.495
-188.158	-138.369	0.907	0.100
-187.144	294.420	0.230	-0.420
-186.129	73.481	0.038	-0.040
-185.114	-74.399	-0.212	-0.076
-184.100	-149.292	0.442	0.035
-183.085	-74.368	0.449	0.162
-182.071	112.626	-0.255	-0.308
-181.056	6.813	-0.357	0.265
-180.042	-191.911	-0.755	-0.007
-179.027	-92.144	0.342	-0.096
-178.012	42.627	-0.408	-0.371
-176.998	800.000	-0.042	-0.160
-175.983	36.589	-0.303	-0.267
-174.969	28.252	-0.492	0.414
-173.954	111.344	-0.518	0.623
-172.939	17.617	0.285	-0.226
-171.925	-138.088	0.994	-0.110
-170.910	2.007	-0.825	0.594
-169.896	40.966	-0.315	-0.284
-168.881	8.730	0.883	-0.664
-167.866	13.166	0.431	0.333
-166.852	800.000	-0.207	-0.688
-165.837	800.000	0.277	0.914
-164.823	74.627	0.736	-0.772
-163.808	800.000	0.053	0.211
-162.793	-118.152	-0.756	0.134
-161.779	28.772	0.426	0.360
-160.764	-101.048	0.834	0.204
-159.750	-5.331	0.197	0.135
-158.735	508.815	-0.195	-0.452
-157.720	537.952	-0.173	-0.411
-156.706	-68.665	0.529	-0.204
-155.691	-200.000	0.054	-0.372
-154.677	19.866	0.711	0.571
-153.662	-200.000	-0.023	0.234
-152.647	800.000	-0.042	0.176
-151.633	206.858	0.439	0.682
-150.618	53.781	-0.363	0.348
-149.604	266.328	-0.130	0.227
-148.589	-200.000	-0.060	-0.453
-147.574	-200.000	0.107	0.580
-146.560	91.200	-0.275	0.308
-145.545	-30.499	1.284	-0.726
-144.531	800.000	0.315	1.012
-143.516	658.213	0.083	-0.213
-142.502	-140.037	-0.709	-0.075
-141.487	-94.314	-0.232	0.063
-140.472	159.974	-0.411	-0.571
-139.458	-25.924	0.266	-0.156
-138.443	-53.120	0.178	0.081
-137.429	-87.480	-0.534	-0.161
-136.414	-74.267	0.489	-0.176
-135.399	177.893	-0.134	0.194
-134.385	210.561	0.062	-0.097
-133.370	84.712	0.499	0.544
-132.356	-200.000	-0.158	0.748
-131.341	800.000	-0.191	0.832
-130.326	-58.684	-0.195	0.084
-129.312	388.723	-0.444	0.915
-128.297	-53.864	-0.736	0.334
-127.283	800.000	0.058	0.185
-126.268	-50.476	0.226	0.106
-125.253	136.246	-0.526	0.684
-124.239	-76.068	0.373	-0.131
-123.224	239.772	-0.243	-0.404
-122.210	-164.790	-0.499	0.022
