DTS Sentinel unit serial number:	SN413079Multiplexer serial number:	ORYXHardware model number:	OX4-SRSoftware version number:	ORYX F/W v4.00 Oryx Data Collector v3.7.2.0data status	okinstallation	borehole priincetondifferential loss correction	single-endedforward channel	channel 2reverse channel	N/Adate	2019/09/10time	14:21:32forward acquisition time	60.00reverse acquisition time	0.00gamma	496.2192k internal	0.2306k external	0.2306temperature offset calibration	1.0075default loss term (dB/km)	0.3790temperature slope calibration	1.0000multiplexer offset coefficient	1.0000multiplexer slope coefficient	1.0000fibre end	0.00T internal ref (°C)	39.12T ext. ref 1 (°C)	27.65T ext. ref 2 (°C)	29.98length (m)	temperature (°C)	Stokes	anti-Stokes-747.200	-200.000	-0.015	-0.176
-746.185	800.000	-0.116	0.382
-745.171	-200.000	0.063	0.321
-744.156	-200.000	0.001	0.061
-743.142	-200.000	0.024	0.304
-742.127	75.479	0.325	0.349
-741.112	-98.851	-0.120	0.031
-740.098	182.912	0.032	0.048
-739.083	-140.343	-0.156	0.017
-738.069	501.832	0.169	0.397
-737.054	52.902	-0.415	0.404
-736.039	-25.800	0.097	0.058
-735.025	121.821	-0.010	0.013
-734.010	-200.000	-0.039	-0.350
-732.996	-200.000	0.057	-0.303
-731.981	-200.000	-0.013	-0.069
-730.966	73.634	-0.073	0.077
-729.952	92.225	-0.100	0.115
-728.937	-153.083	-0.171	-0.012
-727.923	67.724	-0.160	0.166
-726.908	35.256	0.143	-0.128
-725.894	-200.000	-0.001	-0.160
-724.879	89.915	-0.193	-0.219
-723.864	96.273	0.067	-0.078
-722.850	230.331	-0.125	0.208
-721.835	-101.096	-0.365	-0.091
-720.821	84.133	-0.117	0.130
-719.806	-200.000	-0.067	-0.303
-718.791	-63.367	-0.247	-0.103
-717.777	800.000	-0.079	-0.295
-716.762	-125.072	-0.373	0.058
-715.748	-39.058	-0.193	-0.103
-714.733	-35.149	-0.189	-0.105
-713.718	-174.787	0.226	-0.006
-712.704	-200.000	0.028	0.139
-711.689	-106.382	0.193	-0.044
-710.675	-80.967	-0.260	-0.087
-709.660	-116.307	-0.104	0.020
-708.645	-76.629	0.280	-0.100
-707.631	-135.498	0.491	0.059
-706.616	-63.359	-0.179	0.075
-705.602	208.812	0.211	-0.335
-704.587	-134.525	0.436	0.054
-703.572	1.833	0.114	0.084
-702.558	-200.000	-0.003	0.240
-701.543	-67.417	0.157	-0.063
-700.529	800.000	-0.051	0.198
-699.514	52.459	-0.164	-0.159
-698.499	-200.000	-0.020	-0.299
-697.485	-42.114	0.374	0.194
-696.470	-54.873	-0.124	-0.057
-695.456	13.818	-0.224	-0.177
-694.441	-175.843	-0.146	0.004
-693.426	58.757	0.050	-0.050
-692.412	-200.000	0.031	-0.343
-691.397	800.000	-0.020	0.064
-690.383	-125.084	-0.516	-0.080
-689.368	-16.793	0.188	-0.121
-688.354	230.493	-0.217	0.361
-687.339	-132.230	0.353	0.046
-686.324	35.421	0.233	0.207
-685.310	186.335	0.106	0.160
-684.295	28.465	0.131	-0.112
-683.281	122.502	-0.225	0.286
-682.266	365.899	-0.049	0.100
-681.251	-119.719	0.067	0.012
-680.237	-200.000	0.135	-0.756
-679.222	-82.344	-0.086	-0.028
-678.208	-113.206	-0.361	0.072
-677.193	-106.050	-0.247	0.056
-676.178	-3.611	-0.125	-0.088
-675.164	-73.247	0.113	0.042
-674.149	-200.000	0.009	0.111
-673.135	-63.242	-0.381	0.159
-672.120	324.915	0.089	0.172
-671.105	-103.619	-0.274	-0.065
-670.091	-95.879	0.300	0.081
-669.076	471.304	-0.089	-0.203
-668.062	-107.065	0.052	0.012
-667.047	-24.389	-0.309	-0.187
-666.032	-200.000	-0.040	-0.371
-665.018	-77.173	-0.081	0.029
-664.003	-34.574	-0.356	-0.197
-662.989	379.767	0.074	-0.154
-661.974	165.880	0.199	-0.286
-660.959	154.226	0.017	0.023
-659.945	-144.694	0.308	0.029
-658.930	-85.612	0.206	-0.065
-657.916	137.422	-0.191	-0.253
-656.901	39.254	0.207	0.188
-655.886	246.124	-0.231	0.394
-654.872	-200.000	-0.009	0.260
-653.857	402.749	-0.089	-0.189
-652.843	-95.964	-0.082	0.022
-651.828	-200.000	0.000	0.229
-650.814	-3.403	0.218	-0.153
-649.799	95.018	0.210	-0.242
-648.784	165.330	-0.131	0.188
-647.770	-38.823	-0.167	-0.089
-646.755	124.377	-0.023	0.029
-645.741	-165.188	0.380	0.017
-644.726	-200.000	-0.003	-0.015
-643.711	-200.000	0.021	0.261
-642.697	-159.365	-0.392	0.022
-641.682	26.752	0.138	0.117
-640.668	-36.149	0.311	-0.170
-639.653	-9.562	-0.189	0.128
-638.638	-12.864	-0.094	-0.062
-637.624	219.344	-0.031	0.050
-636.609	-200.000	0.025	0.239
-635.595	-3.953	-0.103	-0.072
-634.580	-200.000	0.009	-0.290
-633.565	-134.326	-0.115	0.014
-632.551	444.496	-0.108	0.239
-631.536	168.355	0.105	-0.151
-630.522	122.780	0.096	-0.121
-629.507	-149.267	-0.466	-0.038
-628.492	97.805	0.201	-0.234
-627.478	-66.024	0.084	0.034
-626.463	155.180	0.126	-0.176
-625.449	-134.087	0.112	-0.014
-624.434	-200.000	-0.031	0.465
-623.419	-84.091	0.213	0.069
-622.405	-3.929	-0.123	-0.087
-621.390	-200.000	0.007	-0.169
-620.376	800.000	-0.023	0.084
-619.361	402.196	-0.114	0.243
-618.346	402.515	-0.139	-0.295
-617.332	-200.000	-0.012	-0.116
-616.317	-24.244	0.013	0.008
-615.303	13.336	0.150	-0.117
-614.288	170.672	-0.144	-0.209
-613.273	-165.798	0.156	0.007
-612.259	66.260	0.130	-0.133
-611.244	-169.456	0.250	-0.009
-610.230	89.333	-0.323	-0.365
-609.215	38.533	0.147	0.132
-608.201	-22.963	0.041	0.025
-607.186	-114.607	0.238	-0.046
-606.171	800.000	0.061	-0.257
-605.157	-65.516	-0.322	0.131
-604.142	36.423	-0.376	-0.335
-603.128	-50.491	0.343	0.164
-602.113	-8.930	-0.122	0.083
-601.098	791.960	-0.101	-0.281
-600.084	-95.860	0.249	-0.067
-599.069	429.594	0.110	-0.240
-598.055	-140.250	-0.129	-0.014
-597.040	26.614	0.294	-0.249
-596.025	557.005	0.073	0.178
-595.011	224.745	-0.089	0.145
-593.996	228.616	0.044	-0.073
-592.982	119.637	0.140	0.176
-591.967	-200.000	0.033	0.161
-590.952	90.582	0.071	0.081
-589.938	134.276	-0.023	-0.030
-588.923	-9.536	-0.123	0.083
-587.909	-34.625	-0.086	0.047
-586.894	85.390	-0.097	-0.107
-585.879	59.191	0.120	-0.119
-584.865	134.057	-0.159	-0.208
-583.850	202.523	0.039	0.060
-582.836	-200.000	0.017	-0.107
-581.821	-200.000	0.042	-0.290
-580.806	800.000	0.129	0.401
-579.792	380.664	0.056	-0.117
-578.777	-200.000	0.008	-0.145
-577.763	756.649	0.075	0.204
-576.748	-147.815	-0.080	-0.007
-575.733	178.409	-0.112	0.165
-574.719	-132.539	0.071	-0.009
-573.704	800.000	0.083	-0.258
-572.690	143.162	0.139	-0.186
-571.675	135.036	-0.286	0.375
-570.661	-200.000	0.077	0.370
-569.646	-38.402	0.097	0.052
-568.631	800.000	0.046	0.150
-567.617	-74.633	0.199	-0.072
-566.602	91.685	-0.032	-0.037
-565.588	-200.000	0.022	0.383
-564.573	16.647	0.138	0.111
-563.558	800.000	0.137	-0.411
-562.544	26.323	0.128	0.108
-561.529	13.434	-0.401	0.314
-560.515	309.879	-0.089	-0.168
-559.500	-114.666	-0.184	-0.035
-558.485	-125.698	0.221	-0.034
-557.471	775.727	-0.030	0.081
-556.456	800.000	-0.145	-0.456
-555.442	638.579	0.056	0.144
-554.427	128.516	-0.072	0.093
-553.412	65.721	0.356	0.364
-552.398	159.393	-0.090	0.126
-551.383	800.000	-0.103	0.336
-550.369	-200.000	0.012	-0.216
-549.354	94.698	-0.053	-0.061
-548.339	-200.000	-0.008	-0.080
-547.325	-92.229	-0.192	0.055
-546.310	-200.000	-0.038	-0.196
-545.296	171.344	0.153	0.221
-544.281	434.031	-0.074	-0.162
-543.266	-200.000	0.029	0.201
-542.252	-200.000	0.028	0.133
-541.237	-109.021	0.038	-0.008
-540.223	344.619	-0.024	0.047
-539.208	-153.626	0.181	-0.013
-538.193	69.730	-0.096	0.100
-537.179	-64.642	-0.218	-0.089
-536.164	192.215	0.106	-0.161
-535.150	247.195	0.152	0.259
-534.135	-35.891	-0.200	-0.109
-533.121	8.921	0.160	-0.122
-532.106	-92.159	-0.308	-0.088
-531.091	800.000	-0.038	0.106
-530.077	-112.567	-0.471	0.095
-529.062	-70.743	0.244	0.093
-528.048	-5.086	0.178	-0.124
-527.033	168.458	-0.053	-0.077
-526.018	-200.000	-0.039	-0.289
-525.004	44.691	-0.098	-0.091
-523.989	13.512	-0.040	0.031
-522.975	113.613	0.296	-0.362
-521.960	9.583	0.062	-0.047
-520.945	-192.591	-0.102	0.001
-519.931	720.494	0.135	0.361
-518.916	-53.172	0.143	-0.066
-517.902	-200.000	0.006	0.114
-516.887	-107.030	-0.437	-0.097
-515.872	-200.000	-0.013	0.124
-514.858	-196.457	0.183	0.001
-513.843	-158.734	-0.426	-0.025
-512.829	-200.000	0.029	0.139
-511.814	-14.634	-0.465	-0.302
-510.799	-16.981	-0.191	-0.122
-509.785	266.748	0.214	0.376
-508.770	-55.286	-0.154	0.070
-507.756	170.924	-0.088	-0.128
-506.741	126.632	-0.133	-0.170
-505.726	-200.000	0.026	0.265
-504.712	-17.984	-0.286	-0.180
-503.697	-113.331	-0.304	-0.060
-502.683	4.647	-0.181	0.134
-501.668	-62.075	0.056	0.024
-500.653	-200.000	-0.001	-0.032
-499.639	532.542	0.050	-0.118
-498.624	76.100	0.005	-0.005
-497.610	800.000	0.056	-0.202
-496.595	81.164	-0.034	-0.037
-495.581	85.406	-0.138	0.153
-494.566	800.000	0.104	0.353
-493.551	-45.466	0.173	0.086
-492.537	-107.123	0.139	0.031
-491.522	-16.901	-0.132	-0.084
-490.508	-138.299	-0.087	0.010
-489.493	-200.000	0.020	0.097
-488.478	800.000	-0.008	-0.033
-487.464	14.393	0.159	-0.125
-486.449	-200.000	0.067	0.303
-485.435	145.648	-0.092	0.124
-484.420	-134.175	-0.246	0.031
-483.405	-109.539	-0.125	-0.027
-482.391	30.079	0.120	-0.103
-481.376	611.488	0.117	0.295
-480.362	-21.159	0.113	0.070
-479.347	-35.618	-0.241	0.131
-478.332	-66.758	0.153	-0.061
-477.318	1.082	0.134	-0.097
-476.303	-11.421	-0.195	0.129
-475.289	22.095	-0.118	0.097
-474.274	-6.949	0.240	-0.164
-473.259	-200.000	-0.030	0.191
-472.245	800.000	0.057	-0.227
-471.230	-85.563	0.317	-0.099
-470.216	-200.000	-0.048	-0.223
-469.201	92.543	0.237	0.269
-468.186	-115.522	-0.305	-0.058
-467.172	-200.000	0.020	-0.492
-466.157	-90.420	0.238	-0.069
-465.143	-200.000	0.009	0.188
-464.128	385.467	0.208	0.432
-463.113	-63.885	0.329	0.135
-462.099	-135.083	-0.147	0.018
-461.084	800.000	-0.056	-0.159
-460.070	-39.335	-0.559	-0.295
-459.055	-44.506	0.219	0.110
-458.040	136.851	-0.180	-0.236
-457.026	800.000	0.081	-0.267
-456.011	221.469	0.042	-0.067
-454.997	104.650	-0.245	-0.290
-453.982	-200.000	-0.018	-0.228
-452.968	-86.036	0.292	-0.091
-451.953	-200.000	-0.055	-0.374
-450.938	-200.000	-0.027	-0.165
-449.924	-200.000	0.025	-0.144
-448.909	-9.459	-0.081	0.054
-447.895	114.937	0.303	0.372
-446.880	800.000	-0.031	-0.121
-445.865	-28.695	-0.055	-0.032
-444.851	800.000	0.137	-0.385
-443.836	-91.637	0.268	-0.077
-442.822	-200.000	-0.065	0.322
-441.807	-65.743	0.277	0.112
-440.792	9.252	-0.074	0.057
-439.778	-200.000	0.021	0.182
-438.763	800.000	0.039	0.136
-437.749	-113.114	-0.230	0.046
-436.734	80.389	-0.180	-0.195
-435.719	-12.387	0.157	0.103
-434.705	-28.075	0.152	0.088
-433.690	-124.839	-0.297	-0.046
-432.676	-32.851	-0.130	0.073
-431.661	-88.267	-0.372	-0.112
-430.646	-1.284	-0.164	0.116
-429.632	-33.598	-0.305	0.169
-428.617	-20.718	-0.182	-0.112
-427.603	588.161	0.154	-0.380
-426.588	-23.677	0.432	-0.260
-425.573	-84.042	0.213	-0.068
-424.559	142.580	-0.082	-0.109
-423.544	7.078	-0.045	0.033
-422.530	-88.356	0.165	0.049
-421.515	-200.000	-0.090	0.428
-420.500	-200.000	-0.005	0.442
-419.486	-200.000	-0.008	0.300
-418.471	-48.020	0.051	0.025
-417.457	-200.000	0.003	-0.087
-416.442	168.627	0.222	-0.317
-415.428	-123.855	-0.218	-0.035
-414.413	-147.640	-0.330	0.028
-413.398	9.345	0.025	0.019
-412.384	-200.000	0.070	0.370
-411.369	-69.989	-0.012	-0.005
-410.355	50.419	-0.244	-0.232
-409.340	800.000	-0.038	0.105
-408.325	800.000	0.037	0.143
-407.311	59.958	0.123	-0.122
-406.296	-67.040	-0.150	-0.059
-405.282	201.262	-0.037	-0.057
-404.267	2.767	0.413	-0.301
-403.252	-26.687	0.221	-0.130
-402.238	61.793	0.293	-0.292
-401.223	800.000	-0.021	-0.061
-400.209	260.717	0.032	0.056
-399.194	-94.242	0.230	-0.063
-398.179	297.849	0.074	-0.137
-397.165	800.000	0.064	-0.218
-396.150	-3.773	0.090	-0.063
-395.136	223.791	-0.077	-0.125
-394.121	800.000	0.076	-0.285
-393.106	97.928	0.045	0.052
-392.092	-200.000	-0.018	-0.132
-391.077	106.263	0.170	-0.202
-390.063	-200.000	0.019	0.358
-389.048	-154.826	0.109	-0.007
-388.033	224.467	-0.007	0.012
-387.019	-10.765	-0.278	-0.184
-386.004	374.361	0.057	-0.115
-384.990	-200.000	-0.009	0.124
-383.975	-45.101	-0.100	0.050
-382.960	-200.000	-0.014	0.182
-381.946	11.147	0.200	0.153
-380.931	-127.784	0.146	0.021
-379.917	-200.000	0.029	0.404
-378.902	11.400	0.100	-0.077
-377.888	223.767	0.121	-0.196
-376.873	-200.000	-0.013	0.066
-375.858	-129.881	-0.074	0.010
-374.844	426.986	0.086	-0.185
-373.829	5.643	-0.132	-0.098
-372.815	206.595	0.302	-0.472
-371.800	-200.000	-0.069	-0.319
-370.785	-81.995	-0.321	0.105
-369.771	206.219	0.147	-0.229
-368.756	270.011	0.104	0.184
-367.742	-200.000	-0.029	-0.132
-366.727	126.887	0.151	0.191
-365.712	-27.635	0.140	0.081
-364.698	-109.204	-0.186	0.040
-363.683	88.932	0.163	0.182
-362.669	465.210	-0.028	-0.063
-361.654	-200.000	0.005	0.309
-360.639	-47.920	-0.266	0.129
-359.625	-133.082	0.025	-0.003
-358.610	-84.926	0.291	-0.091
-357.596	40.511	0.045	0.041
-356.581	60.477	0.112	0.111
-355.566	51.058	0.204	0.193
-354.552	-29.767	0.330	0.189
-353.537	-19.286	-0.297	0.184
-352.523	154.539	0.016	0.022
-351.508	-200.000	-0.045	0.305
-350.493	-134.754	-0.035	0.004
-349.479	576.476	0.094	-0.231
-348.464	794.883	0.173	0.477
-347.450	-22.010	0.250	0.152
-346.435	-32.896	0.113	-0.063
-345.420	-200.000	0.061	0.479
-344.406	2.801	-0.064	-0.047
-343.391	800.000	0.074	0.290
-342.377	-200.000	-0.016	0.454
-341.362	289.366	-0.052	-0.094
-340.348	202.647	0.154	-0.239
-339.333	-200.000	0.006	0.146
-338.318	-200.000	-0.021	0.225
-337.304	-128.582	0.124	0.018
-336.289	432.235	-0.123	0.267
-335.275	2.985	-0.317	-0.230
-334.260	-200.000	0.009	0.200
-333.245	-23.004	-0.126	-0.076
-332.231	326.100	-0.093	-0.178
-331.216	679.261	0.065	-0.168
-330.202	-115.707	-0.330	-0.062
-329.187	249.873	0.081	-0.138
-328.172	-114.539	0.110	-0.021
-327.158	117.112	-0.162	0.199
-326.143	91.569	0.048	0.054
-325.129	-200.000	-0.038	-0.175
-324.114	58.999	-0.066	-0.065
-323.099	743.357	-0.041	-0.110
-322.085	-10.943	0.113	0.074
-321.070	714.383	0.065	-0.174
-320.056	-145.639	0.150	0.013
-319.041	192.009	-0.076	0.115
-318.026	-126.344	0.115	0.017
-317.012	-42.853	-0.258	0.131
-315.997	-42.340	0.157	0.080
-314.983	271.169	0.035	0.062
-313.968	-83.770	-0.143	0.046
-312.953	616.276	0.093	0.233
-311.939	535.269	0.108	0.255
-310.924	270.674	-0.184	0.323
-309.910	119.191	0.045	0.055
-308.895	62.146	-0.254	0.254
-307.880	253.644	-0.080	-0.136
-306.866	-200.000	-0.006	0.054
-305.851	414.334	0.054	0.114
-304.837	133.619	0.058	0.075
-303.822	-132.339	0.207	-0.027
-302.807	1.238	-0.142	-0.102
-301.793	239.984	0.128	0.214
-300.778	643.206	0.031	-0.078
-299.764	-19.592	-0.248	0.154
-298.749	267.233	-0.041	0.072
-297.735	-52.024	-0.373	0.173
-296.720	96.027	0.040	0.046
-295.705	-65.301	-0.330	0.133
-294.691	-133.455	-0.318	-0.040
-293.676	45.957	-0.117	-0.108
-292.662	-60.190	0.123	0.053
-291.647	-153.971	0.418	-0.028
-290.632	-76.242	0.104	0.037
-289.618	-92.305	0.305	-0.086
-288.603	-55.781	-0.314	0.140
-287.589	-200.000	-0.075	0.351
-286.574	269.508	-0.102	-0.179
-285.559	4.878	0.284	0.209
-284.545	224.847	0.026	0.042
-283.530	316.347	-0.087	0.165
-282.516	-200.000	0.017	0.249
-281.501	-50.240	0.185	0.088
-280.486	-135.648	-0.109	0.013
-279.472	800.000	0.083	0.287
-278.457	-101.760	-0.172	0.042
-277.443	-139.945	0.360	-0.038
-276.428	800.000	0.079	-0.285
-275.413	427.652	-0.121	-0.260
-274.399	139.439	-0.025	-0.033
-273.384	-200.000	0.034	0.190
-272.370	-76.801	0.232	0.081
-271.355	-1.808	-0.309	-0.217
-270.340	-200.000	0.061	-0.275
-269.326	-72.350	0.223	-0.082
-268.311	-200.000	-0.015	-0.192
-267.297	-125.483	0.173	0.026
-266.282	-200.000	0.004	-0.026
-265.267	-200.000	-0.005	-0.155
-264.253	-200.000	-0.014	0.165
-263.238	346.033	0.065	-0.127
-262.224	794.875	-0.076	-0.210
-261.209	-111.810	0.073	0.015
-260.195	8.587	0.310	0.233
-259.180	59.542	-0.093	-0.092
-258.165	318.456	0.082	0.155
-257.151	28.518	-0.199	0.168
-256.136	800.000	0.076	0.332
-255.122	56.275	-0.268	-0.260
-254.107	-200.000	0.001	0.156
-253.092	800.000	0.126	0.429
-252.078	-76.039	-0.238	0.084
-251.063	-200.000	-0.009	-0.088
-250.049	-200.000	0.004	0.211
-249.034	800.000	-0.156	0.464
-248.019	-200.000	0.003	0.430
-247.005	-200.000	0.025	0.227
-245.990	-200.000	-0.001	0.215
-244.976	303.092	0.085	0.157
-243.961	-200.000	-0.001	-0.035
-242.946	-200.000	0.015	-0.144
-241.932	299.706	-0.225	-0.414
-240.917	-150.805	-0.251	-0.019
-239.903	-200.000	0.017	-0.488
-238.888	76.582	0.166	-0.175
-237.873	-64.272	0.272	-0.110
-236.859	700.106	0.036	-0.094
-235.844	-200.000	-0.026	-0.125
-234.830	20.754	-0.173	-0.140
-233.815	-153.064	0.242	-0.017
-232.800	24.003	0.077	-0.063
-231.786	-24.016	-0.126	0.075
-230.771	800.000	-0.123	-0.431
-229.757	800.000	0.058	0.213
-228.742	268.667	0.145	-0.253
-227.727	37.568	0.180	-0.159
-226.713	-200.000	-0.035	-0.216
-225.698	800.000	-0.061	-0.199
-224.684	-142.046	0.425	0.042
-223.669	85.534	0.208	0.227
-222.655	-139.001	0.268	-0.029
-221.640	-15.929	-0.478	-0.303
-220.625	800.000	-0.075	-0.263
-219.611	362.002	-0.069	-0.137
-218.596	-200.000	-0.028	-0.223
-217.582	-200.000	0.009	-0.138
-216.567	335.931	-0.035	-0.067
-215.552	-200.000	0.016	0.198
-214.538	-1.205	0.058	-0.041
-213.523	-200.000	-0.010	-0.291
-212.509	217.215	0.137	0.217
-211.494	102.724	0.188	0.219
-210.479	-200.000	-0.001	-0.145
-209.465	400.486	0.077	-0.160
-208.450	800.000	0.067	-0.233
-207.436	108.335	-0.256	-0.304
-206.421	271.751	-0.143	-0.250
-205.406	-170.846	0.119	-0.004
-204.392	-150.143	0.280	0.022
-203.377	-93.457	-0.413	-0.114
-202.363	-135.630	-0.133	0.016
-201.348	5.798	-0.331	0.244
-200.333	194.329	-0.127	0.192
-199.319	114.649	0.125	-0.151
-198.304	321.295	-0.101	-0.192
-197.290	-43.256	-0.065	0.033
-196.275	53.800	-0.341	0.326
-195.260	210.908	-0.047	-0.073
-194.246	98.776	0.217	0.249
-193.231	-4.072	-0.169	0.116
-192.217	406.628	0.069	-0.146
-191.202	-200.000	-0.038	-0.201
-190.187	120.853	-0.136	-0.169
-189.173	2.232	-0.114	-0.082
-188.158	206.355	0.164	-0.254
-187.144	313.123	-0.185	0.346
-186.129	586.028	-0.075	0.184
-185.114	275.783	-0.094	-0.166
-184.100	-200.000	0.039	0.171
-183.085	800.000	0.005	0.021
-182.071	-200.000	0.003	0.042
-181.056	79.481	0.159	-0.170
-180.042	-93.604	-0.240	-0.066
-179.027	-200.000	-0.004	-0.066
-178.012	-67.010	-0.369	-0.145
-176.998	-139.608	0.353	0.037
-175.983	-24.684	-0.163	-0.096
-174.969	216.299	-0.206	0.325
-173.954	-1.409	0.314	0.220
-172.939	-156.409	0.061	-0.004
-171.925	49.502	-0.070	-0.065
-170.910	359.081	0.195	0.388
-169.896	-46.598	-0.338	-0.165
-168.881	-159.180	-0.380	-0.021
-167.866	-150.539	-0.395	-0.030
-166.852	-65.813	0.424	0.169
-165.837	453.846	-0.043	-0.095
-164.823	-163.570	-0.166	0.008
-163.808	-97.511	-0.159	-0.041
-162.793	-111.451	0.234	-0.047
-161.779	-153.924	0.231	0.016
-160.764	-200.000	-0.054	-0.271
-159.750	-110.860	-0.191	0.039
-158.735	-56.942	-0.350	0.153
-157.720	-96.087	0.373	-0.099
-156.706	164.997	0.008	-0.011
-155.691	6.866	-0.096	0.071
-154.677	800.000	0.124	-0.373
-153.662	-106.326	0.147	0.033
-152.647	-108.214	-0.051	-0.011
-151.633	-64.105	0.341	-0.138
-150.618	-36.195	-0.279	-0.150
-149.604	9.204	-0.088	-0.066
-148.589	144.407	0.096	0.127
-147.574	168.347	0.225	0.318
-146.560	194.634	-0.113	-0.170
-145.545	-128.355	-0.363	-0.051
-144.531	37.155	0.138	0.121
-143.516	-22.622	0.379	-0.228
-142.502	-190.978	-0.095	0.001
-141.487	800.000	-0.057	-0.217
-140.472	800.000	0.118	0.381
-139.458	166.015	-0.248	-0.348
-138.443	316.555	0.140	-0.264
-137.429	-200.000	0.026	0.124
-136.414	43.577	-0.103	0.093
-135.399	-134.458	0.471	-0.057
-134.385	-0.435	0.354	0.249
-133.370	127.942	0.142	0.180
-132.356	-4.650	0.123	0.084
-131.341	-200.000	0.018	0.132
-130.326	166.757	0.065	0.092
-129.312	-116.898	-0.221	-0.040
-128.297	-200.000	0.023	0.156
-127.283	706.813	0.018	0.047
-126.268	154.161	0.223	0.303
-125.253	-200.000	-0.064	-0.324
-124.239	-162.369	-0.270	0.013
-123.224	1.062	0.164	0.117
-122.210	170.451	0.040	0.056
-121.195	0.003	0.205	-0.145
