DTS Sentinel unit serial number:	SN413079Multiplexer serial number:	ORYXHardware model number:	OX4-SRSoftware version number:	ORYX F/W v4.00 Oryx Data Collector v3.7.2.0data status	okinstallation	princeton_trtdifferential loss correction	single-endedforward channel	channel 1reverse channel	N/Adate	2019/09/11time	17:44:11forward acquisition time	60.00reverse acquisition time	0.00gamma	496.2192k internal	0.2290k external	0.2290temperature offset calibration	0.9998default loss term (dB/km)	0.3790temperature slope calibration	1.0000multiplexer offset coefficient	1.0000multiplexer slope coefficient	1.0000fibre end	0.00T internal ref (°C)	43.89T ext. ref 1 (°C)	1.11T ext. ref 2 (°C)	39.28length (m)	temperature (°C)	Stokes	anti-Stokes-747.200	8.666	-0.353	-0.273
-746.185	800.000	0.061	-0.215
-745.171	-63.250	0.082	0.035
-744.156	-200.000	0.009	-0.052
-743.142	-168.347	0.220	0.009
-742.127	210.128	-0.178	0.286
-741.112	-164.625	-0.274	-0.013
-740.098	108.490	-0.055	0.068
-739.083	315.929	-0.105	0.204
-738.069	800.000	-0.103	0.417
-737.054	-200.000	-0.041	0.223
-736.039	-103.633	-0.301	0.072
-735.025	102.817	0.123	0.148
-734.010	-80.769	0.250	-0.085
-732.996	-121.497	-0.207	0.035
-731.981	-85.842	-0.289	0.092
-730.966	-27.452	0.368	0.219
-729.952	325.180	-0.076	0.149
-728.937	-96.737	-0.239	-0.064
-727.923	-0.916	-0.373	-0.271
-726.908	-200.000	0.006	-0.038
-725.894	103.293	0.073	-0.088
-724.879	-200.000	0.011	0.403
-723.864	-200.000	0.029	-0.204
-722.850	-63.796	0.106	-0.044
-721.835	-120.035	0.389	0.068
-720.821	-105.226	-0.119	-0.028
-719.806	682.563	0.124	0.330
-718.791	-78.341	-0.444	0.156
-717.777	-200.000	-0.009	-0.184
-716.762	800.000	0.079	-0.332
-715.748	-159.025	-0.317	-0.018
-714.733	-175.484	0.216	-0.006
-713.718	-200.000	0.021	0.100
-712.704	-200.000	0.066	-0.430
-711.689	-5.965	-0.124	0.087
-710.675	-66.997	0.328	-0.133
-709.660	15.497	-0.338	-0.271
-708.645	-200.000	-0.013	-0.087
-707.631	-116.823	-0.145	-0.027
-706.616	-14.315	0.094	0.062
-705.602	-3.544	-0.290	0.206
-704.587	58.967	-0.198	-0.199
-703.572	-200.000	-0.023	-0.192
-702.558	86.584	-0.254	-0.286
-701.543	-200.000	-0.037	-0.358
-700.529	432.324	-0.113	-0.250
-699.514	76.388	0.186	-0.202
-698.499	-37.438	-0.201	-0.110
-697.485	129.346	0.128	-0.167
-696.470	-60.111	-0.187	-0.082
-695.456	800.000	0.046	0.153
-694.441	-146.294	-0.160	0.014
-693.426	-111.770	-0.281	-0.058
-692.412	-56.353	-0.190	0.086
-691.397	346.776	-0.077	0.155
-690.383	800.000	-0.068	0.227
-689.368	-200.000	-0.024	-0.143
-688.354	-200.000	-0.007	0.139
-687.339	-55.892	0.539	-0.246
-686.324	-70.595	0.368	-0.142
-685.310	225.152	0.087	0.144
-684.295	800.000	-0.127	0.513
-683.281	-200.000	-0.010	0.092
-682.266	463.906	0.081	-0.186
-681.251	232.537	0.136	0.229
-680.237	49.252	0.322	-0.309
-679.222	89.287	-0.227	-0.258
-678.208	769.647	0.093	0.260
-677.193	-200.000	-0.013	0.156
-676.178	-91.659	0.228	-0.066
-675.164	800.000	0.067	-0.295
-674.149	-77.913	-0.305	0.107
-673.135	369.803	0.068	0.142
-672.120	-200.000	-0.018	-0.371
-671.105	-148.644	-0.182	-0.015
-670.091	-200.000	0.021	-0.317
-669.076	21.406	0.162	-0.134
-668.062	102.202	0.177	0.211
-667.047	670.368	0.105	-0.278
-666.032	800.000	-0.071	-0.215
-665.018	49.932	-0.109	0.105
-664.003	612.325	0.139	0.356
-662.989	146.002	0.115	0.158
-661.974	25.244	-0.171	-0.145
-660.959	-75.210	0.277	0.101
-659.945	166.029	-0.182	0.263
-658.930	-200.000	0.002	-0.095
-657.916	7.681	0.229	0.175
-656.901	1.418	0.214	-0.157
-655.886	36.907	-0.107	0.097
-654.872	-15.424	-0.289	0.188
-653.857	-200.000	0.018	-0.138
-652.843	575.470	-0.076	-0.189
-651.828	-200.000	-0.009	0.161
-650.814	135.437	-0.289	0.384
-649.799	-46.549	0.298	0.149
-648.784	-194.715	-0.222	-0.002
-647.770	-63.519	0.107	0.045
-646.755	-105.537	0.140	-0.032
-645.741	800.000	-0.069	0.238
-644.726	284.364	-0.225	-0.414
-643.711	-72.551	-0.239	-0.090
-642.697	-72.022	0.282	0.107
-641.682	-88.277	0.097	-0.030
-640.668	-172.545	-0.194	0.006
-639.653	-156.536	-0.123	0.008
-638.638	-71.535	-0.192	-0.073
-637.624	20.449	0.189	0.156
-636.609	29.079	0.272	-0.235
-635.595	-150.692	-0.276	-0.021
-634.580	-74.796	0.173	0.063
-633.565	-150.194	0.127	0.010
-632.551	179.585	0.143	0.214
-631.536	-55.578	-0.262	-0.120
-630.522	-200.000	0.053	-0.246
-629.507	-128.662	0.305	-0.044
-628.492	357.176	-0.120	-0.243
-627.478	283.500	-0.072	0.132
-626.463	246.603	-0.207	0.355
-625.449	158.160	-0.168	0.238
-624.434	199.877	-0.160	-0.250
-623.419	-166.009	-0.493	-0.021
-622.405	9.945	-0.089	-0.069
-621.390	-200.000	0.052	-0.272
-620.376	-29.922	-0.154	-0.090
-619.361	-126.782	-0.102	-0.015
-618.346	53.166	-0.219	0.213
-617.332	11.972	0.156	-0.122
-616.317	488.665	0.101	0.234
-615.303	-82.735	-0.139	0.046
-614.288	-200.000	-0.012	0.106
-613.273	206.579	0.119	-0.189
-612.259	128.653	-0.209	-0.272
-611.244	-91.467	0.289	-0.084
-610.230	-200.000	-0.020	-0.325
-609.215	-199.528	-0.211	0.001
-608.201	-95.543	-0.165	0.045
-607.186	29.294	-0.062	-0.054
-606.171	-87.808	0.302	-0.093
-605.157	109.951	0.011	-0.014
-604.142	-48.818	-0.225	-0.110
-603.128	324.086	-0.136	-0.265
-602.113	54.405	-0.261	0.256
-601.098	33.899	-0.087	-0.077
-600.084	146.650	-0.041	0.056
-599.069	800.000	-0.052	-0.220
-598.055	-93.743	-0.205	-0.057
-597.040	-200.000	-0.010	0.329
-596.025	193.858	-0.051	0.079
-595.011	-70.611	-0.406	-0.156
-593.996	-39.520	-0.153	-0.081
-592.982	-200.000	0.034	-0.215
-591.967	410.306	-0.063	0.136
-590.952	616.673	0.104	0.265
-589.938	-107.970	0.470	0.104
-588.923	-200.000	-0.002	-0.406
-587.909	237.181	-0.130	0.220
-586.894	-36.595	-0.185	0.101
-585.879	5.994	0.077	-0.058
-584.865	-97.883	-0.150	0.040
-583.850	-200.000	0.045	-0.218
-582.836	-80.747	-0.138	0.047
-581.821	-141.937	-0.172	-0.018
-580.806	3.064	-0.127	-0.094
-579.792	278.352	-0.038	-0.069
-578.777	171.867	0.155	0.227
-577.763	-60.393	-0.285	0.123
-576.748	-2.278	0.149	-0.106
-575.733	185.847	0.108	-0.164
-574.719	189.040	0.054	0.082
-573.704	-46.976	-0.478	0.238
-572.690	-119.933	-0.418	-0.073
-571.675	-118.280	0.108	-0.020
-570.661	535.506	0.096	0.232
-569.646	-86.858	-0.083	-0.026
-568.631	-144.760	0.476	-0.044
-567.617	379.990	-0.152	0.316
-566.602	-152.839	0.071	0.005
-565.588	-32.676	-0.181	-0.102
-564.573	800.000	-0.126	-0.372
-563.558	180.132	-0.051	-0.076
-562.544	-72.526	-0.162	-0.061
-561.529	96.932	0.108	0.126
-560.515	-69.635	-0.111	-0.043
-559.500	-39.604	-0.192	-0.102
-558.485	178.130	-0.240	-0.356
-557.471	-200.000	0.012	-0.065
-556.456	-39.207	0.235	-0.125
-555.442	-200.000	0.087	0.416
-554.427	226.281	-0.071	0.116
-553.412	216.889	0.107	0.174
-552.398	230.432	0.099	-0.165
-551.383	-200.000	0.039	-0.322
-550.369	800.000	-0.073	0.212
-549.354	157.166	-0.076	0.107
-548.339	57.122	-0.053	-0.052
-547.325	13.308	-0.169	0.133
-546.310	365.346	-0.104	-0.213
-545.296	-82.095	0.099	-0.033
-544.281	-200.000	-0.106	0.513
-543.266	138.203	0.054	0.072
-542.252	-172.794	0.105	-0.003
-541.237	-137.726	-0.273	-0.031
-540.223	-0.938	-0.238	-0.171
-539.208	-69.296	-0.590	0.230
-538.193	383.688	0.069	-0.144
-537.179	333.839	-0.073	0.144
-536.164	-2.790	-0.301	-0.214
-535.150	127.116	0.193	0.248
-534.135	-200.000	-0.025	0.426
-533.121	576.292	-0.073	0.182
-532.106	800.000	-0.055	0.159
-531.091	800.000	-0.046	-0.181
-530.077	-58.171	-0.172	0.076
-529.062	-28.151	0.092	0.054
-528.048	-8.275	-0.141	-0.096
-527.033	362.839	0.126	-0.256
-526.018	-157.466	0.249	-0.015
-525.004	49.293	-0.218	0.208
-523.989	14.869	0.064	0.051
-522.975	18.996	0.236	0.192
-521.960	800.000	0.088	-0.343
-520.945	-200.000	0.009	-0.285
-519.931	-54.560	-0.065	0.030
-518.916	280.580	0.095	0.172
-517.902	198.420	-0.078	0.122
-516.887	800.000	0.070	-0.257
-515.872	6.991	-0.231	-0.175
-514.858	-200.000	-0.010	-0.213
-513.843	-200.000	-0.036	0.196
-512.829	-7.509	-0.137	0.094
-511.814	800.000	0.022	-0.094
-510.799	458.818	0.122	-0.275
-509.785	-166.373	0.124	-0.005
-508.770	-200.000	0.006	0.327
-507.756	-200.000	-0.003	0.193
-506.741	168.218	0.147	-0.213
-505.726	-20.330	0.376	0.235
-504.712	-128.647	-0.222	0.032
-503.697	562.902	0.040	-0.098
-502.683	-200.000	-0.043	-0.287
-501.668	40.804	-0.153	0.140
-500.653	-20.893	-0.177	-0.110
-499.639	76.661	0.132	-0.142
-498.624	144.860	0.198	0.268
-497.610	-18.042	-0.167	0.106
-496.595	24.849	0.298	0.250
-495.581	-175.760	0.172	0.005
-494.566	-24.748	0.018	0.011
-493.551	-138.921	-0.212	0.023
-492.537	24.400	-0.213	-0.179
-491.522	76.668	-0.107	0.116
-490.508	-105.474	-0.186	-0.043
-489.493	187.890	-0.127	0.192
-488.478	51.370	0.194	-0.187
-487.464	-167.699	0.183	0.007
-486.449	-200.000	0.045	-0.213
-485.435	435.101	0.084	0.186
-484.420	232.411	-0.121	-0.201
-483.405	215.854	-0.411	0.662
-482.391	42.443	0.449	0.414
-481.376	-107.541	-0.123	-0.027
-480.362	800.000	0.069	0.198
-479.347	118.346	-0.019	0.024
-478.332	-200.000	-0.030	-0.248
-477.318	37.290	-0.085	0.076
-476.303	209.657	-0.031	0.049
-475.289	139.227	0.179	0.239
-474.274	-64.319	-0.253	-0.104
-473.259	-61.555	-0.080	-0.034
-472.245	-9.713	0.165	-0.111
-471.230	-160.012	-0.498	0.028
-470.216	405.270	0.114	-0.245
-469.201	191.846	0.138	-0.211
-468.186	-200.000	-0.004	-0.318
-467.172	-167.046	0.257	0.011
-466.157	180.643	-0.282	0.420
-465.143	108.179	0.276	0.334
-464.128	-40.832	-0.237	0.124
-463.113	-48.943	0.212	0.103
-462.099	16.385	-0.151	0.121
-461.084	800.000	-0.071	-0.259
-460.070	-166.570	-0.183	0.008
-459.055	-200.000	-0.062	-0.308
-458.040	800.000	0.049	0.185
-457.026	800.000	0.081	-0.275
-456.011	273.868	-0.167	-0.300
-454.997	800.000	0.041	-0.156
-453.982	800.000	0.085	0.253
-452.968	131.709	-0.110	-0.143
-451.953	800.000	-0.021	-0.064
-450.938	380.483	-0.028	0.058
-449.924	-200.000	0.002	-0.350
-448.909	-18.781	0.046	0.029
-447.895	-66.894	0.294	0.118
-446.880	-141.132	0.080	0.008
-445.865	489.375	0.105	-0.242
-444.851	-172.632	0.221	-0.007
-443.836	323.860	-0.120	0.232
-442.822	13.982	0.190	-0.150
-441.807	25.541	0.050	-0.042
-440.792	-126.069	-0.253	-0.039
-439.778	536.531	-0.045	-0.108
-438.763	-34.855	-0.346	-0.191
-437.749	-200.000	0.016	0.248
-436.734	800.000	-0.036	0.134
-435.719	800.000	0.175	-0.553
-434.705	125.858	-0.119	-0.153
-433.690	-110.951	0.044	0.009
-432.676	374.334	0.153	0.315
-431.661	88.565	-0.167	-0.187
-430.646	18.490	-0.165	-0.134
-429.632	-50.285	0.055	0.026
-428.617	-200.000	0.054	0.350
-427.603	-10.843	0.268	-0.179
-426.588	-200.000	0.012	-0.052
-425.573	-200.000	0.066	-0.321
-424.559	-25.020	0.428	0.257
-423.544	800.000	-0.027	0.094
-422.530	-89.964	0.282	0.083
-421.515	-86.859	0.021	-0.006
-420.500	-41.736	-0.060	0.031
-419.486	-109.633	0.250	-0.053
-418.471	-34.521	0.319	0.177
-417.457	-86.602	-0.361	-0.112
-416.442	-139.205	-0.258	0.028
-415.428	81.484	0.079	0.087
-414.413	-91.247	-0.095	-0.028
-413.398	302.874	0.027	-0.051
-412.384	-61.335	-0.081	0.035
-411.369	-91.622	0.360	0.104
-410.355	-12.867	-0.021	0.014
-409.340	-146.349	-0.294	0.026
-408.325	16.689	-0.225	-0.180
-407.311	-109.635	0.357	-0.076
-406.296	7.293	0.211	-0.159
-405.282	289.320	0.033	0.061
-404.267	-65.774	-0.216	-0.087
-403.252	-176.426	0.107	-0.003
-402.238	-91.719	0.180	-0.052
-401.223	184.179	-0.254	-0.380
-400.209	156.620	0.079	0.111
-399.194	196.524	-0.042	-0.064
-398.179	-200.000	-0.003	-0.033
-397.165	-200.000	0.023	-0.224
-396.150	10.584	0.136	0.105
-395.136	182.777	-0.133	-0.199
-394.121	-165.717	-0.029	0.001
-393.106	-179.370	-0.293	0.007
-392.092	-32.736	0.130	-0.073
-391.077	102.246	-0.094	-0.111
-390.063	32.590	-0.144	-0.126
-389.048	-185.977	-0.020	0.000
-388.033	-32.579	-0.096	0.054
-387.019	800.000	-0.061	0.180
-386.004	461.834	0.103	0.232
-384.990	20.499	-0.243	-0.199
-383.975	-63.781	0.196	-0.081
-382.960	-200.000	-0.030	0.198
-381.946	-31.013	-0.191	0.109
-380.931	800.000	0.097	0.299
-379.917	-200.000	-0.026	0.241
-378.902	40.698	-0.230	0.210
-377.888	-200.000	-0.088	0.401
-376.873	-6.176	0.162	-0.112
-375.858	639.488	0.105	0.270
-374.844	487.690	0.060	-0.139
-373.829	-5.529	0.005	-0.003
-372.815	-111.396	0.407	0.084
-371.800	-78.782	-0.241	0.083
-370.785	-165.660	0.176	-0.008
-369.771	800.000	0.039	0.161
-368.756	471.061	0.153	-0.347
-367.742	10.508	0.390	0.300
-366.727	677.276	-0.058	0.153
-365.712	64.494	0.189	-0.192
-364.698	-200.000	-0.029	-0.161
-363.683	95.039	0.147	-0.169
-362.669	-174.842	0.084	0.002
-361.654	49.404	-0.100	-0.095
-360.639	153.333	0.022	-0.031
-359.625	148.956	-0.043	0.059
-358.610	-200.000	-0.008	0.047
-357.596	129.811	-0.301	0.389
-356.581	-162.351	0.216	-0.011
-355.566	-200.000	-0.070	0.343
-354.552	-200.000	-0.031	0.268
-353.537	-200.000	0.076	-0.447
-352.523	-85.618	-0.295	0.092
-351.508	-69.331	-0.102	0.040
-350.493	-132.173	0.127	0.017
-349.479	-200.000	-0.096	0.436
-348.464	535.209	-0.038	0.090
-347.450	-142.893	0.148	0.014
-346.435	800.000	-0.107	-0.325
-345.420	427.483	0.084	-0.182
-344.406	-45.120	0.286	-0.144
-343.391	-101.588	0.488	0.120
-342.377	-15.057	0.130	0.084
-341.362	-115.683	-0.186	0.035
-340.348	-130.602	0.192	-0.026
-339.333	-21.218	0.232	0.143
-338.318	-200.000	-0.014	0.248
-337.304	-6.435	-0.263	-0.181
-336.289	-42.724	-0.411	-0.211
-335.275	89.155	0.264	-0.297
-334.260	-200.000	-0.006	0.057
-333.245	-63.684	0.279	-0.115
-332.231	-72.198	0.216	0.081
-331.216	168.655	0.207	-0.297
-330.202	-39.488	-0.211	0.111
-329.187	-161.556	0.151	-0.008
-328.172	-145.889	-0.245	-0.022
-327.158	-200.000	0.055	-0.376
-326.143	-162.127	0.211	0.011
-325.129	127.653	-0.164	-0.210
-324.114	-94.335	-0.261	-0.072
-323.099	-18.857	0.192	0.120
-322.085	-200.000	0.008	0.156
-321.070	-200.000	0.065	-0.312
-320.056	800.000	-0.126	-0.371
-319.041	-102.444	0.168	-0.040
-318.026	800.000	0.037	-0.158
-317.012	122.549	0.289	0.364
-315.997	-56.264	0.264	-0.118
-314.983	-121.169	-0.273	0.046
-313.968	16.772	0.331	0.264
-312.953	-200.000	0.008	-0.036
-311.939	213.211	0.053	-0.085
-310.924	-49.225	0.121	-0.058
-309.910	23.499	0.084	0.070
-308.895	-69.580	0.283	-0.109
-307.880	244.414	0.152	-0.258
-306.866	-97.759	-0.173	0.045
-305.851	-70.761	0.366	-0.139
-304.837	46.809	0.240	-0.225
-303.822	178.228	0.108	0.159
-302.807	251.829	0.141	0.241
-301.793	-200.000	0.014	-0.123
-300.778	-1.161	0.129	-0.092
-299.764	574.662	0.224	-0.550
-298.749	56.287	-0.041	-0.040
-297.735	-132.066	0.094	0.012
-296.720	116.843	0.184	0.228
-295.705	-65.959	0.284	-0.114
-294.691	-56.878	-0.367	-0.163
-293.676	102.006	-0.058	-0.068
-292.662	-48.565	0.328	-0.159
-291.647	800.000	0.144	0.401
-290.632	142.004	0.102	-0.136
-289.618	29.899	0.112	0.096
-288.603	78.477	0.101	0.108
-287.589	800.000	0.130	-0.541
-286.574	-170.437	-0.095	0.003
-285.559	-63.261	0.149	0.062
-284.545	126.759	-0.213	0.271
-283.530	-48.965	0.075	-0.036
-282.516	-66.667	-0.302	0.120
-281.501	-51.515	0.190	0.089
-280.486	800.000	-0.129	0.383
-279.472	-113.926	-0.355	0.069
-278.457	194.692	-0.118	-0.180
-277.443	490.726	-0.186	0.429
-276.428	-160.578	0.104	0.006
-275.413	231.339	0.028	0.046
-274.399	-153.027	0.148	0.010
-273.384	-128.585	0.260	0.037
-272.370	-125.804	-0.267	0.041
-271.355	150.602	0.112	-0.153
-270.340	94.323	0.054	-0.062
-269.326	-128.913	0.412	-0.058
-268.311	-109.777	0.199	0.042
-267.297	-93.961	-0.340	-0.094
-266.282	201.070	-0.070	-0.108
-265.267	412.944	0.157	-0.336
-264.253	-176.814	0.334	0.009
-263.238	5.250	0.131	-0.097
-262.224	315.838	-0.014	-0.026
-261.209	-108.379	-0.202	0.044
-260.195	32.778	0.049	-0.043
-259.180	800.000	-0.013	-0.050
-258.165	-6.109	-0.310	0.213
-257.151	-200.000	0.004	0.020
-256.136	-143.377	-0.112	0.011
-255.122	-155.841	0.160	0.010
-254.107	448.562	-0.133	-0.295
-253.092	800.000	-0.034	0.100
-252.078	42.559	-0.141	0.129
-251.063	-188.751	0.361	-0.004
-250.049	-200.000	-0.008	-0.431
-249.034	-184.623	-0.174	0.003
-248.019	-103.147	0.038	0.009
-247.005	-170.974	-0.065	0.002
-245.990	800.000	0.106	0.433
-244.976	-56.859	0.222	0.099
-243.961	149.971	-0.118	-0.161
-242.946	-71.238	0.352	-0.133
-241.932	-46.351	0.169	0.083
-240.917	705.917	-0.121	-0.321
-239.903	-34.987	0.119	-0.065
-238.888	28.428	-0.252	0.214
-237.873	29.858	0.227	-0.195
-236.859	-200.000	0.042	0.190
-235.844	-103.204	0.234	-0.055
-234.830	399.787	-0.094	0.197
-233.815	121.422	-0.145	0.181
-232.800	800.000	0.064	0.280
-231.786	-59.535	-0.191	0.082
-230.771	-17.896	-0.156	0.098
-229.757	-19.284	0.155	-0.096
-228.742	-200.000	-0.004	-0.024
-227.727	-105.468	-0.099	-0.023
-226.713	-42.103	-0.240	-0.123
-225.698	-124.143	-0.266	0.042
-224.684	-200.000	-0.183	0.000
-223.669	800.000	0.045	0.136
-222.655	-200.000	0.025	0.338
-221.640	-175.065	0.141	0.004
-220.625	162.282	0.227	0.320
-219.611	582.490	0.098	0.241
-218.596	204.724	-0.122	0.190
-217.582	800.000	0.025	-0.072
-216.567	800.000	-0.061	-0.203
-215.552	-105.242	0.309	-0.071
-214.538	-78.289	0.243	-0.084
-213.523	800.000	-0.053	-0.214
-212.509	86.868	0.103	0.114
-211.494	-13.558	-0.138	-0.090
-210.479	-55.423	0.263	0.118
-209.465	-62.866	-0.212	-0.088
-208.450	581.741	-0.060	0.149
-207.436	-62.264	0.247	-0.103
-206.421	800.000	-0.068	0.284
-205.406	-93.505	-0.390	0.108
-204.392	0.135	-0.090	0.064
-203.377	-83.833	-0.401	0.128
-202.363	-33.885	0.017	0.009
-201.348	-61.296	0.372	0.157
-200.333	88.949	0.193	-0.215
-199.319	-25.216	-0.097	-0.058
-198.304	-200.000	0.008	-0.293
-197.290	423.942	0.210	-0.454
-196.275	236.553	-0.104	-0.172
-195.260	-125.891	0.310	-0.047
-194.246	-36.740	0.198	0.107
-193.231	265.778	-0.185	-0.324
-192.217	-200.000	-0.030	0.197
-191.202	-118.313	-0.226	-0.040
-190.187	-24.462	-0.302	-0.180
-189.173	88.879	-0.089	0.099
-188.158	-68.026	0.174	0.068
-187.144	-200.000	0.009	-0.314
-186.129	800.000	-0.034	0.107
-185.114	-43.675	-0.063	0.032
-184.100	-200.000	0.019	0.128
-183.085	-20.930	0.112	0.069
-182.071	40.331	-0.313	0.282
-181.056	-200.000	0.003	-0.094
-180.042	800.000	0.049	0.182
-179.027	-200.000	0.030	-0.177
-178.012	-72.408	-0.477	0.177
-176.998	-5.444	-0.363	-0.250
-175.983	273.397	-0.060	0.106
-174.969	-48.737	-0.198	0.095
-173.954	-200.000	0.013	0.465
-172.939	613.558	-0.065	0.164
-171.925	77.079	0.152	-0.162
-170.910	800.000	0.063	0.252
-169.896	83.669	0.054	-0.059
-168.881	-39.900	0.225	-0.118
-167.866	-119.306	0.092	-0.016
-166.852	800.000	0.066	-0.207
-165.837	-200.000	0.016	0.141
-164.823	-5.009	0.033	0.023
-163.808	60.556	-0.054	-0.054
-162.793	210.926	0.180	-0.284
-161.779	-200.000	-0.009	0.263
-160.764	116.316	0.114	-0.140
-159.750	65.364	-0.127	-0.128
-158.735	-71.164	-0.112	-0.042
-157.720	159.952	0.029	-0.041
-156.706	-200.000	0.040	0.269
-155.691	5.229	0.096	0.071
-154.677	-200.000	-0.039	0.232
-153.662	43.260	-0.121	0.110
-152.647	139.597	0.096	0.127
-151.633	343.346	0.176	0.346
-150.618	800.000	-0.114	0.380
-149.604	229.250	-0.059	0.096
-148.589	-111.083	-0.452	0.093
-147.574	105.730	0.212	-0.251
-146.560	-200.000	-0.001	-0.235
-145.545	-200.000	-0.008	0.402
-144.531	-24.075	-0.184	0.110
-143.516	-200.000	0.020	0.209
-142.502	-66.115	0.229	-0.091
-141.487	398.687	0.047	-0.098
-140.472	-137.682	-0.121	-0.014
-139.458	800.000	-0.100	-0.310
-138.443	92.399	-0.192	0.217
-137.429	-112.546	0.140	-0.028
-136.414	-80.716	0.136	0.045
-135.399	-8.980	0.300	-0.201
-134.385	321.057	0.055	0.105
-133.370	34.080	0.197	-0.171
-132.356	-52.785	0.251	0.116
-131.341	-200.000	-0.033	0.303
-130.326	-6.498	0.158	-0.107
-129.312	-28.911	0.117	-0.067
-128.297	542.211	0.077	0.183
-127.283	618.802	-0.130	-0.328
-126.268	-7.425	-0.088	-0.059
-125.253	338.227	-0.129	-0.250
-124.239	43.210	-0.048	-0.044
-123.224	-19.980	-0.074	0.045
-122.210	800.000	0.055	-0.179
-121.195	-57.938	0.085	-0.037
