DTS Sentinel unit serial number:	SN413079Multiplexer serial number:	ORYXHardware model number:	OX4-SRSoftware version number:	ORYX F/W v4.00 Oryx Data Collector v3.7.2.0data status	okinstallation	princeton_trtdifferential loss correction	single-endedforward channel	channel 1reverse channel	N/Adate	2019/09/11time	10:32:11forward acquisition time	60.00reverse acquisition time	0.00gamma	496.2192k internal	0.2299k external	0.2299temperature offset calibration	0.9951default loss term (dB/km)	0.3790temperature slope calibration	1.0000multiplexer offset coefficient	1.0000multiplexer slope coefficient	1.0000fibre end	0.00T internal ref (°C)	36.44T ext. ref 1 (°C)	0.17T ext. ref 2 (°C)	33.65length (m)	temperature (°C)	Stokes	anti-Stokes-747.200	485.574	0.063	-0.147
-746.185	-83.451	0.311	-0.102
-745.171	-93.458	-0.067	0.019
-744.156	-12.164	-0.263	-0.175
-743.142	-5.580	-0.304	0.213
-742.127	-200.000	0.025	0.538
-741.112	670.265	0.091	-0.241
-740.098	-200.000	-0.018	-0.324
-739.083	32.967	-0.291	0.257
-738.069	-35.068	0.340	0.189
-737.054	800.000	-0.069	0.199
-736.039	103.212	-0.294	-0.352
-735.025	304.565	-0.144	0.272
-734.010	360.142	-0.032	0.066
-732.996	-39.967	-0.165	-0.088
-731.981	-200.000	-0.051	-0.262
-730.966	769.216	0.094	-0.262
-729.952	756.221	-0.083	0.230
-728.937	-117.804	0.414	-0.076
-727.923	-124.276	0.050	0.008
-726.908	-118.871	0.151	-0.027
-725.894	-141.949	-0.197	-0.020
-724.879	0.564	-0.236	-0.172
-723.864	-80.395	0.216	0.073
-722.850	161.178	0.079	0.113
-721.835	-38.429	-0.184	-0.099
-720.821	32.412	-0.243	-0.214
-719.806	744.457	0.032	0.087
-718.791	320.006	-0.176	0.341
-717.777	186.904	-0.197	-0.300
-716.762	-81.993	-0.102	0.034
-715.748	-3.776	0.065	0.046
-714.733	230.472	-0.114	-0.191
-713.718	-35.972	0.109	-0.060
-712.704	-97.502	-0.234	0.062
-711.689	265.649	-0.282	0.501
-710.675	-200.000	-0.045	0.467
-709.660	384.320	-0.109	-0.229
-708.645	-90.110	0.242	0.072
-707.631	-41.021	0.375	0.197
-706.616	-85.965	-0.066	0.021
-705.602	-184.405	0.365	-0.006
-704.587	-170.961	0.090	0.003
-703.572	-200.000	0.018	0.127
-702.558	-119.953	0.177	0.031
-701.543	94.613	0.038	-0.045
-700.529	557.305	0.062	-0.153
-699.514	-200.000	-0.052	0.255
-698.499	22.332	-0.231	-0.192
-697.485	32.838	-0.126	0.111
-696.470	800.000	0.027	0.099
-695.456	-131.851	-0.300	0.040
-694.441	-146.302	-0.093	0.008
-693.426	7.107	-0.346	-0.263
-692.412	-200.000	0.013	0.204
-691.397	-198.731	0.287	-0.002
-690.383	-118.884	-0.234	0.042
-689.368	-200.000	0.003	0.107
-688.354	-18.462	-0.273	0.174
-687.339	283.814	0.153	-0.281
-686.324	-137.560	-0.348	0.040
-685.310	-76.644	-0.200	-0.071
-684.295	18.266	0.162	-0.132
-683.281	-99.619	0.098	-0.025
-682.266	-200.000	-0.036	-0.259
-681.251	-11.547	0.079	0.053
-680.237	800.000	-0.051	-0.201
-679.222	-133.840	-0.192	-0.024
-678.208	-200.000	-0.014	0.071
-677.193	69.475	0.269	-0.282
-676.178	-42.919	-0.317	-0.164
-675.164	-200.000	-0.015	-0.222
-674.149	800.000	0.085	-0.253
-673.135	648.072	-0.062	-0.162
-672.120	295.224	-0.169	-0.316
-671.105	91.098	0.127	-0.145
-670.091	-200.000	0.010	-0.208
-669.076	-141.136	-0.194	-0.020
-668.062	444.082	0.175	-0.391
-667.047	634.387	-0.132	-0.340
-666.032	-200.000	-0.019	-0.145
-665.018	-200.000	-0.008	-0.120
-664.003	19.717	0.300	-0.246
-662.989	-130.562	-0.079	0.011
-661.974	-23.840	-0.160	0.097
-660.959	73.984	-0.163	-0.174
-659.945	191.687	0.048	0.074
-658.930	136.020	0.113	-0.149
-657.916	-116.263	0.442	-0.083
-656.901	330.867	-0.192	-0.377
-655.886	-200.000	0.039	0.364
-654.872	-200.000	0.010	-0.068
-653.857	-78.385	-0.115	-0.040
-652.843	31.540	-0.286	0.250
-651.828	324.065	-0.166	-0.323
-650.814	-132.084	0.314	0.041
-649.799	-110.983	-0.338	-0.071
-648.784	-13.498	-0.124	-0.082
-647.770	-200.000	0.068	0.379
-646.755	465.802	-0.041	0.094
-645.741	264.653	-0.105	-0.187
-644.726	-166.044	-0.092	-0.004
-643.711	-200.000	-0.063	0.363
-642.697	-200.000	0.599	-0.001
-641.682	482.894	0.059	-0.136
-640.668	132.465	-0.059	-0.077
-639.653	-200.000	-0.008	-0.232
-638.638	-134.088	0.143	-0.018
-637.624	-200.000	0.018	-0.120
-636.609	-200.000	0.027	-0.292
-635.595	-4.499	0.140	-0.099
-634.580	-200.000	0.006	0.128
-633.565	-175.033	-0.168	-0.005
-632.551	-200.000	-0.021	-0.175
-631.536	72.182	0.029	0.031
-630.522	-112.700	-0.252	0.051
-629.507	65.289	0.181	0.186
-628.492	-86.884	0.265	-0.082
-627.478	26.031	-0.174	0.147
-626.463	103.061	0.198	0.235
-625.449	-56.578	-0.090	-0.041
-624.434	-116.911	0.177	-0.033
-623.419	-200.000	-0.019	-0.381
-622.405	-143.205	0.237	0.023
-621.390	-200.000	-0.007	0.399
-620.376	-9.798	-0.103	-0.070
-619.361	404.662	-0.061	-0.130
-618.346	-82.223	-0.136	0.045
-617.332	22.149	0.125	-0.103
-616.317	800.000	0.006	0.027
-615.303	370.150	0.111	-0.228
-614.288	800.000	-0.063	-0.256
-613.273	-135.233	-0.095	0.012
-612.259	-59.136	0.071	-0.031
-611.244	-148.632	0.287	-0.024
-610.230	-90.725	0.046	-0.013
-609.215	-85.536	0.198	-0.062
-608.201	155.624	-0.062	0.087
-607.186	453.034	-0.123	0.276
-606.171	-76.367	0.158	0.056
-605.157	85.371	0.041	-0.045
-604.142	-25.522	0.209	-0.125
-603.128	-75.139	-0.219	-0.079
-602.113	800.000	-0.028	0.087
-601.098	412.050	-0.069	-0.149
-600.084	737.607	-0.057	-0.154
-599.069	-117.661	0.387	-0.071
-598.055	-150.426	-0.202	0.016
-597.040	-200.000	0.017	-0.245
-596.025	-68.989	0.126	-0.049
-595.011	400.741	-0.034	-0.072
-593.996	-35.342	0.126	-0.070
-592.982	42.646	0.295	-0.272
-591.967	33.933	0.131	-0.116
-590.952	-112.254	-0.572	-0.116
-589.938	10.266	-0.215	-0.166
-588.923	-200.000	-0.045	0.345
-587.909	540.673	-0.130	0.314
-586.894	358.778	-0.096	0.194
-585.879	4.318	0.430	0.319
-584.865	425.402	0.046	-0.100
-583.850	-117.880	-0.256	-0.047
-582.836	156.530	-0.185	0.260
-581.821	800.000	-0.038	-0.155
-580.806	568.571	-0.064	-0.159
-579.792	-24.374	-0.195	-0.118
-578.777	334.336	-0.140	0.274
-577.763	-117.109	-0.043	-0.008
-576.748	-200.000	0.014	-0.179
-575.733	-200.000	-0.017	-0.244
-574.719	-18.017	-0.211	-0.134
-573.704	24.436	-0.151	0.126
-572.690	333.667	0.095	0.187
-571.675	800.000	-0.080	-0.282
-570.661	374.862	0.098	0.201
-569.646	0.428	-0.213	0.154
-568.631	-7.643	0.088	-0.060
-567.617	378.121	-0.043	-0.088
-566.602	229.782	-0.229	-0.379
-565.588	-138.873	-0.251	0.028
-564.573	-103.928	-0.120	-0.028
-563.558	-76.509	-0.131	-0.046
-562.544	-77.025	-0.440	0.156
-561.529	-200.000	-0.058	-0.450
-560.515	146.109	0.225	-0.306
-559.500	-200.000	-0.016	0.236
-558.485	-94.682	-0.578	-0.159
-557.471	-106.246	0.033	-0.007
-556.456	800.000	-0.077	0.217
-555.442	131.950	0.205	-0.267
-554.427	800.000	-0.054	-0.182
-553.412	-62.928	-0.192	0.081
-552.398	-62.177	0.140	0.059
-551.383	114.231	-0.144	0.178
-550.369	-146.766	0.102	-0.009
-549.354	65.408	-0.300	0.308
-548.339	-35.044	-0.166	-0.092
-547.325	69.783	0.223	-0.232
-546.310	-200.000	0.032	0.420
-545.296	3.731	-0.412	0.305
-544.281	-36.980	-0.175	0.095
-543.266	313.550	0.126	0.239
-542.252	-66.773	0.036	0.015
-541.237	123.285	-0.164	0.208
-540.223	-192.522	-0.568	0.005
-539.208	-120.481	-0.095	0.016
-538.193	-103.623	0.154	0.037
-537.179	-200.000	-0.036	-0.165
-536.164	-200.000	0.005	0.192
-535.150	40.559	-0.234	0.214
-534.135	108.714	-0.192	-0.232
-533.121	167.200	-0.053	-0.077
-532.106	-96.256	-0.095	0.025
-531.091	-39.719	0.239	-0.126
-530.077	-88.038	-0.162	0.049
-529.062	638.202	0.091	0.235
-528.048	800.000	0.051	0.145
-527.033	-37.286	-0.161	-0.087
-526.018	-0.256	-0.137	0.098
-525.004	135.487	-0.009	-0.012
-523.989	104.634	0.140	-0.167
-522.975	-112.296	-0.127	-0.026
-521.960	-108.961	-0.248	-0.054
-520.945	-200.000	-0.021	0.313
-519.931	55.975	0.077	-0.076
-518.916	-29.828	-0.258	0.149
-517.902	-138.909	-0.308	0.034
-516.887	-37.515	-0.116	-0.063
-515.872	-39.584	0.210	0.111
-514.858	-200.000	0.051	0.287
-513.843	-13.402	-0.101	-0.066
-512.829	655.639	-0.021	0.054
-511.814	77.064	0.212	-0.228
-510.799	106.747	0.063	0.076
-509.785	329.902	-0.068	-0.133
-508.770	100.310	-0.132	-0.155
-507.756	-72.831	0.241	0.090
-506.741	800.000	0.037	0.157
-505.726	-65.716	-0.342	0.139
-504.712	67.850	-0.312	0.323
-503.697	800.000	0.030	0.096
-502.683	132.523	0.168	0.219
-501.668	-1.885	-0.099	-0.071
-500.653	688.792	0.080	-0.211
-499.639	-0.119	-0.073	-0.053
-498.624	800.000	-0.027	-0.092
-497.610	-45.393	0.197	-0.099
-496.595	235.497	-0.188	-0.314
-495.581	-107.819	0.317	-0.070
-494.566	85.275	-0.180	0.199
-493.551	7.000	0.137	-0.103
-492.537	461.165	0.078	-0.176
-491.522	-147.661	0.425	0.036
-490.508	-73.898	-0.096	-0.035
-489.493	647.133	-0.015	0.040
-488.478	800.000	0.035	-0.132
-487.464	-52.188	0.087	0.041
-486.449	-200.000	-0.006	0.057
-485.435	-200.000	0.022	-0.213
-484.420	-8.248	0.227	0.154
-483.405	800.000	0.067	0.202
-482.391	392.102	0.187	-0.392
-481.376	-63.973	-0.200	-0.082
-480.362	800.000	-0.135	-0.478
-479.347	413.292	-0.012	0.026
-478.332	56.413	0.114	0.112
-477.318	-135.482	0.284	-0.034
-476.303	-69.203	0.111	-0.043
-475.289	20.533	-0.229	-0.187
-474.274	800.000	-0.057	0.172
-473.259	484.652	0.066	0.152
-472.245	27.189	0.186	-0.157
-471.230	651.179	-0.116	0.300
-470.216	-43.715	0.295	-0.150
-469.201	-98.632	0.144	-0.037
-468.186	-42.294	-0.143	-0.074
-467.172	500.007	0.031	0.071
-466.157	800.000	-0.077	-0.262
-465.143	15.493	-0.255	0.202
-464.128	800.000	0.079	0.245
-463.113	228.542	-0.157	-0.259
-462.099	-102.426	0.211	0.051
-461.084	22.102	-0.190	0.156
-460.070	77.564	-0.240	0.257
-459.055	-99.720	0.207	0.052
-458.040	213.490	0.115	-0.183
-457.026	-161.596	-0.106	0.005
-456.011	-102.709	0.064	-0.015
-454.997	-200.000	-0.011	0.221
-453.982	99.567	0.273	-0.319
-452.968	-119.061	0.181	0.032
-451.953	-200.000	-0.012	0.206
-450.938	-10.631	-0.202	0.135
-449.924	35.002	-0.121	0.107
-448.909	-20.540	0.081	-0.050
-447.895	-21.677	0.269	-0.165
-446.880	9.546	0.125	-0.096
-445.865	136.996	-0.166	0.219
-444.851	-88.707	-0.353	-0.106
-443.836	-175.463	-0.589	0.016
-442.822	-22.740	0.020	-0.012
-441.807	-200.000	0.050	-0.377
-440.792	-138.976	0.164	-0.018
-439.778	433.342	0.111	0.243
-438.763	800.000	0.031	0.109
-437.749	596.213	-0.096	-0.240
-436.734	-200.000	-0.065	-0.429
-435.719	-85.683	-0.044	0.014
-434.705	-89.832	-0.253	-0.075
-433.690	-109.765	0.267	0.057
-432.676	-31.963	0.194	0.109
-431.661	-66.135	0.220	0.088
-430.646	50.397	-0.181	0.173
-429.632	-101.798	-0.101	-0.025
-428.617	686.442	-0.018	-0.048
-427.603	-200.000	0.020	0.170
-426.588	-29.937	0.305	0.175
-425.573	800.000	0.062	0.174
-424.559	-40.215	0.212	-0.111
-423.544	30.126	-0.222	-0.191
-422.530	67.826	0.183	0.189
-421.515	-200.000	0.346	-0.000
-420.500	26.031	-0.304	0.256
-419.486	22.834	0.289	-0.239
-418.471	205.280	-0.162	-0.254
-417.457	38.228	0.149	-0.133
-416.442	-200.000	0.002	0.218
-415.428	-94.324	0.536	-0.148
-414.413	58.185	0.089	-0.088
-413.398	-158.346	0.205	-0.012
-412.384	222.064	-0.105	0.171
-411.369	404.478	0.115	-0.245
-410.355	800.000	-0.064	0.218
-409.340	572.527	0.038	-0.092
-408.325	-119.412	-0.296	-0.052
-407.311	-118.637	-0.148	-0.026
-406.296	800.000	0.057	0.194
-405.282	800.000	-0.097	-0.341
-404.267	-111.536	0.315	0.064
-403.252	38.595	0.054	0.048
-402.238	-17.559	0.105	0.067
-401.223	-140.744	0.236	-0.025
-400.209	-200.000	0.031	0.146
-399.194	-22.018	0.378	-0.231
-398.179	-88.898	-0.244	-0.073
-397.165	124.295	-0.044	-0.056
-396.150	-193.517	0.496	-0.004
-395.136	800.000	-0.038	0.131
-394.121	-104.936	-0.170	-0.039
-393.106	-200.000	0.031	0.374
-392.092	-200.000	-0.025	-0.161
-391.077	218.977	0.095	-0.152
-390.063	214.171	0.153	-0.244
-389.048	28.625	-0.168	0.143
-388.033	217.832	0.107	0.172
-387.019	130.498	0.217	0.280
-386.004	-200.000	0.022	0.261
-384.990	-109.222	0.423	-0.090
-383.975	24.108	0.242	0.201
-382.960	800.000	-0.077	-0.301
-381.946	-200.000	-0.008	-0.143
-380.931	-94.230	-0.107	0.030
-379.917	-200.000	0.033	-0.301
-378.902	-98.085	0.228	0.059
-377.888	-28.782	-0.156	0.090
-376.873	231.135	0.120	0.197
-375.858	345.760	-0.070	-0.138
-374.844	-120.440	-0.335	-0.057
-373.829	-7.542	0.100	0.068
-372.815	-119.904	-0.492	-0.085
-371.800	-200.000	0.017	-0.169
-370.785	-200.000	-0.026	0.135
-369.771	-49.890	-0.067	0.032
-368.756	-50.991	-0.239	0.113
-367.742	19.972	0.051	-0.042
-366.727	43.907	-0.140	-0.129
-365.712	-158.631	-0.262	-0.015
-364.698	258.325	-0.067	-0.115
-363.683	255.231	0.228	0.393
-362.669	-200.000	0.018	-0.250
-361.654	-36.702	-0.258	-0.139
-360.639	-43.361	0.223	-0.113
-359.625	-64.896	0.180	-0.073
-358.610	800.000	0.047	0.187
-357.596	-81.170	-0.144	0.048
-356.581	-17.773	0.011	-0.007
-355.566	-200.000	-0.037	0.418
-354.552	-25.730	-0.107	-0.064
-353.537	-110.365	0.348	-0.073
-352.523	-200.000	0.006	-0.106
-351.508	-179.016	-0.125	0.003
-350.493	91.170	0.062	0.070
-349.479	-200.000	0.002	-0.114
-348.464	93.330	-0.087	-0.099
-347.450	84.715	0.224	0.247
-346.435	-11.819	-0.075	-0.049
-345.420	-67.100	-0.212	0.084
-344.406	-119.068	-0.041	0.007
-343.391	-35.367	0.150	-0.082
-342.377	-200.000	-0.011	-0.155
-341.362	-136.294	-0.191	0.022
-340.348	-111.256	0.185	0.038
-339.333	-34.938	-0.217	0.119
-338.318	196.850	0.216	-0.331
-337.304	24.856	0.184	0.153
-336.289	-200.000	-0.001	0.253
-335.275	-200.000	0.046	0.274
-334.260	20.496	0.072	0.058
-333.245	376.256	-0.055	-0.112
-332.231	262.591	0.178	-0.311
-331.216	77.857	-0.204	-0.219
-330.202	-200.000	-0.026	-0.162
-329.187	-91.909	-0.326	0.093
-328.172	102.027	0.048	-0.057
-327.158	126.373	-0.152	-0.193
-326.143	-176.789	0.262	-0.007
-325.129	159.309	0.253	0.353
-324.114	-36.968	-0.115	0.062
-323.099	122.022	-0.206	0.258
-322.085	441.112	-0.062	0.137
-321.070	-200.000	0.028	-0.186
-320.056	112.164	0.141	0.172
-319.041	-26.801	0.195	-0.114
-318.026	-55.747	-0.242	-0.109
-317.012	-140.163	0.436	0.046
-315.997	197.982	-0.207	0.317
-314.983	-68.178	-0.187	-0.073
-313.968	-200.000	-0.037	0.343
-312.953	-9.919	0.282	-0.188
-311.939	-200.000	-0.052	-0.262
-310.924	-174.608	0.187	0.005
-309.910	-176.135	0.298	-0.008
-308.895	-111.470	-0.235	0.048
-307.880	-174.888	-0.185	0.005
-306.866	-154.514	0.210	0.014
-305.851	-116.581	-0.278	0.051
-304.837	235.380	0.163	0.270
-303.822	-62.201	-0.061	0.025
-302.807	-200.000	0.016	-0.298
-301.793	-13.981	0.194	-0.126
-300.778	-51.473	-0.280	-0.131
-299.764	-200.000	0.222	0.000
-298.749	-85.380	0.081	0.025
-297.735	57.526	-0.221	0.217
-296.720	47.887	0.112	0.105
-295.705	-200.000	0.008	0.114
-294.691	35.113	0.281	0.247
-293.676	113.014	-0.154	0.187
-292.662	-94.989	0.544	-0.147
-291.647	-85.343	-0.145	-0.045
-290.632	158.752	0.084	-0.117
-289.618	-200.000	0.042	-0.343
-288.603	-200.000	-0.000	-0.147
-287.589	23.570	-0.159	0.131
-286.574	37.458	-0.195	0.173
-285.559	27.708	0.287	0.242
-284.545	23.416	0.226	-0.186
-283.530	603.315	-0.035	-0.087
-282.516	6.379	-0.078	-0.058
-281.501	-110.694	0.189	-0.039
-280.486	-115.476	-0.378	-0.071
-279.472	800.000	0.069	-0.246
-278.457	-107.460	0.181	-0.040
-277.443	111.680	-0.015	-0.018
-276.428	130.942	-0.227	0.292
-275.413	347.789	-0.082	-0.162
-274.399	21.208	-0.086	-0.070
-273.384	-63.597	-0.288	-0.118
-272.370	-14.791	0.321	-0.206
-271.355	-200.000	-0.017	-0.152
-270.340	-200.000	-0.003	-0.061
-269.326	-80.415	0.287	0.096
-268.311	96.873	0.131	0.150
-267.297	-200.000	0.032	0.146
-266.282	-20.312	-0.230	-0.142
-265.267	-200.000	0.014	0.305
-264.253	-54.751	-0.407	-0.184
-263.238	505.064	0.113	0.262
-262.224	-68.811	-0.152	-0.059
-261.209	-200.000	-0.015	-0.229
-260.195	633.431	-0.081	0.207
-259.180	71.153	0.066	-0.068
-258.165	-30.617	0.095	0.054
-257.151	-95.658	0.373	0.100
-256.136	-66.358	0.245	-0.097
-255.122	-152.456	-0.147	-0.011
-254.107	-103.187	0.314	-0.074
-253.092	-61.018	0.039	-0.016
-252.078	90.885	-0.157	0.177
-251.063	800.000	-0.028	0.076
-250.049	800.000	0.045	-0.156
-249.034	53.098	-0.260	0.249
-248.019	-122.296	-0.253	-0.041
-247.005	-143.074	-0.158	-0.015
-245.990	22.397	-0.294	0.240
-244.976	-200.000	0.065	0.403
-243.961	2.268	0.446	0.323
-242.946	800.000	0.080	0.264
-241.932	-200.000	0.045	-0.235
-240.917	-145.189	0.044	-0.004
-239.903	-177.310	-0.366	0.009
-238.888	-200.000	-0.020	0.206
-237.873	21.280	0.191	-0.155
-236.859	-121.447	-0.079	0.013
-235.844	84.352	0.091	0.099
-234.830	127.904	-0.239	0.304
-233.815	217.809	-0.047	-0.074
-232.800	174.732	-0.153	-0.221
-231.786	226.438	0.119	-0.193
-230.771	-200.000	-0.013	-0.082
-229.757	-64.155	0.198	0.081
-228.742	-140.677	0.159	-0.016
-227.727	112.769	0.087	0.106
-226.713	800.000	-0.055	-0.171
-225.698	261.683	-0.043	-0.074
-224.684	86.689	-0.083	-0.092
-223.669	78.862	-0.160	-0.171
-222.655	800.000	-0.036	0.134
-221.640	598.471	0.112	-0.277
-220.625	800.000	-0.034	0.116
-219.611	800.000	-0.097	-0.397
-218.596	-80.601	-0.367	-0.122
-217.582	-158.297	0.051	0.003
-216.567	-43.919	-0.109	0.055
-215.552	-200.000	-0.009	-0.186
-214.538	-134.203	0.066	0.008
-213.523	-149.279	-0.177	0.014
-212.509	-200.000	-0.062	0.547
-211.494	70.464	0.077	-0.080
-210.479	638.166	0.022	0.057
-209.465	800.000	-0.040	0.117
-208.450	-60.893	-0.213	0.090
-207.436	126.980	0.053	-0.067
-206.421	55.308	-0.075	0.073
-205.406	-200.000	-0.053	0.245
-204.392	-102.080	0.342	-0.082
-203.377	438.133	0.164	-0.357
-202.363	-200.000	0.052	0.263
-201.348	-96.469	-0.369	0.097
-200.333	-200.000	-0.019	0.118
-199.319	-28.344	-0.099	0.057
-198.304	-106.352	-0.087	-0.019
-197.290	-94.774	0.101	0.027
-196.275	-62.986	0.100	0.041
-195.260	14.629	0.288	0.225
-194.246	0.135	0.062	-0.044
-193.231	-39.604	0.164	-0.086
-192.217	363.008	-0.146	-0.293
-191.202	-28.558	-0.139	-0.080
-190.187	-100.352	0.190	0.047
-189.173	-59.712	-0.231	0.099
-188.158	800.000	-0.054	-0.180
-187.144	120.650	0.206	0.255
-186.129	-200.000	0.009	-0.326
-185.114	53.435	-0.260	-0.249
-184.100	800.000	-0.044	0.180
-183.085	-73.086	0.284	-0.104
-182.071	-118.174	0.261	0.047
-181.056	-200.000	0.413	-0.001
-180.042	800.000	-0.147	-0.409
-179.027	-200.000	0.000	-0.099
-178.012	-41.315	-0.201	-0.103
-176.998	-103.106	-0.199	-0.047
-175.983	-200.000	0.033	0.164
-174.969	210.983	-0.182	-0.286
-173.954	-127.337	0.084	0.012
-172.939	-200.000	0.009	-0.318
-171.925	-61.756	-0.360	-0.151
-170.910	195.922	0.124	0.188
-169.896	91.218	0.219	0.245
-168.881	-47.365	0.034	-0.016
-167.866	2.080	0.190	0.137
-166.852	-25.660	0.152	0.089
-165.837	-57.091	0.230	0.101
-164.823	21.224	0.096	0.078
-163.808	-125.220	-0.185	-0.028
-162.793	731.669	0.064	-0.170
-161.779	-200.000	-0.010	0.309
-160.764	800.000	0.072	0.217
-159.750	-200.000	0.049	-0.231
-158.735	44.424	0.215	0.197
-157.720	289.422	-0.062	-0.111
-156.706	388.855	0.088	0.183
-155.691	-145.356	-0.269	-0.024
-154.677	166.929	-0.068	-0.096
-153.662	35.431	-0.218	0.190
-152.647	-82.747	0.342	0.110
-151.633	-137.539	0.331	0.037
-150.618	-200.000	-0.018	0.324
-149.604	-122.749	-0.177	0.029
-148.589	120.458	-0.064	-0.079
-147.574	-63.533	0.139	0.057
-146.560	-1.648	-0.077	0.054
-145.545	-38.145	0.042	0.022
-144.531	752.760	-0.035	0.095
-143.516	800.000	-0.082	0.245
-142.502	-200.000	-0.064	-0.280
-141.487	197.630	-0.230	-0.351
-140.472	13.702	0.045	-0.034
-139.458	-93.992	0.291	0.080
-138.443	-200.000	0.032	-0.191
-137.429	-62.575	-0.108	0.045
-136.414	1.686	-0.257	-0.184
-135.399	-149.861	0.150	-0.012
-134.385	-36.088	0.107	-0.058
-133.370	-51.392	0.117	0.055
-132.356	-38.161	-0.195	-0.103
-131.341	800.000	0.086	0.264
-130.326	61.972	-0.180	-0.179
-129.312	-129.086	0.275	-0.038
-128.297	-174.904	-0.122	-0.003
-127.283	-36.544	0.175	-0.094
-126.268	608.480	0.059	0.146
-125.253	-200.000	-0.005	-0.258
-124.239	488.565	0.088	-0.200
-123.224	182.543	-0.098	0.144
