DTS Sentinel unit serial number:	SN413079Multiplexer serial number:	ORYXHardware model number:	OX4-SRSoftware version number:	ORYX F/W v4.00 Oryx Data Collector v3.7.2.0data status	okinstallation	princeton_trtdifferential loss correction	single-endedforward channel	channel 1reverse channel	N/Adate	2019/09/11time	14:36:11forward acquisition time	60.00reverse acquisition time	0.00gamma	496.2192k internal	0.2292k external	0.2292temperature offset calibration	0.9987default loss term (dB/km)	0.3790temperature slope calibration	1.0000multiplexer offset coefficient	1.0000multiplexer slope coefficient	1.0000fibre end	0.00T internal ref (°C)	42.28T ext. ref 1 (°C)	0.90T ext. ref 2 (°C)	37.51length (m)	temperature (°C)	Stokes	anti-Stokes-747.200	363.991	0.141	0.290
-746.185	800.000	0.123	0.380
-745.171	-35.332	-0.128	-0.071
-744.156	83.623	0.236	0.263
-743.142	28.853	-0.067	0.058
-742.127	-70.730	0.133	-0.051
-741.112	-200.000	0.020	-0.149
-740.098	-8.145	-0.168	-0.116
-739.083	33.631	0.293	-0.261
-738.069	800.000	-0.018	0.060
-737.054	119.415	0.121	0.153
-736.039	-54.859	0.208	-0.096
-735.025	-200.000	-0.007	0.125
-734.010	48.967	-0.072	-0.069
-732.996	-200.000	-0.038	-0.250
-731.981	-92.773	-0.287	0.082
-730.966	-97.080	-0.196	0.053
-729.952	261.403	0.067	-0.119
-728.937	-90.222	-0.309	-0.092
-727.923	-62.748	0.217	-0.092
-726.908	-144.674	0.152	0.014
-725.894	218.340	-0.142	0.231
-724.879	446.994	-0.185	0.417
-723.864	-6.638	0.142	0.099
-722.850	-78.761	-0.232	0.081
-721.835	17.069	-0.214	0.173
-720.821	-88.799	0.193	0.058
-719.806	800.000	-0.073	0.284
-718.791	-103.411	-0.211	-0.051
-717.777	-200.000	-0.025	-0.174
-716.762	3.839	0.121	0.090
-715.748	-55.274	-0.133	-0.061
-714.733	-33.575	0.037	-0.021
-713.718	-69.298	-0.186	0.073
-712.704	-43.518	0.176	0.091
-711.689	-200.000	-0.005	0.030
-710.675	-78.044	0.124	-0.044
-709.660	800.000	0.083	-0.239
-708.645	-126.640	-0.232	0.035
-707.631	-107.748	-0.117	-0.026
-706.616	-70.530	0.206	-0.080
-705.602	-147.028	-0.418	0.037
-704.587	-107.093	0.653	0.147
-703.572	-69.240	0.090	-0.036
-702.558	-30.581	0.128	0.074
-701.543	800.000	0.078	-0.272
-700.529	-29.092	-0.277	-0.162
-699.514	48.709	0.095	0.091
-698.499	-200.000	-0.043	-0.192
-697.485	-166.406	0.219	-0.009
-696.470	-195.770	0.400	-0.003
-695.456	-152.208	-0.169	-0.013
-694.441	305.165	0.036	0.068
-693.426	800.000	0.046	-0.177
-692.412	407.583	-0.091	0.197
-691.397	16.922	-0.125	-0.101
-690.383	-117.158	-0.066	0.012
-689.368	129.830	0.141	-0.184
-688.354	-35.179	-0.242	-0.135
-687.339	-85.172	0.427	0.136
-686.324	800.000	-0.054	0.155
-685.310	-52.837	0.218	-0.102
-684.295	248.936	-0.231	-0.400
-683.281	-200.000	-0.008	-0.182
-682.266	510.942	0.110	-0.262
-681.251	-13.853	-0.200	-0.132
-680.237	-183.045	-0.088	-0.002
-679.222	-88.402	-0.222	-0.068
-678.208	-200.000	-0.017	0.454
-677.193	800.000	0.078	0.300
-676.178	61.469	0.106	0.108
-675.164	483.727	0.118	0.274
-674.149	-53.263	0.296	0.139
-673.135	-78.277	-0.296	-0.104
-672.120	28.182	-0.128	0.110
-671.105	433.563	0.086	-0.190
-670.091	300.985	0.111	-0.210
-669.076	-96.437	0.399	0.108
-668.062	82.910	0.194	-0.215
-667.047	-122.919	-0.215	0.035
-666.032	800.000	-0.092	0.311
-665.018	124.388	-0.162	-0.208
-664.003	-103.133	-0.084	-0.020
-662.989	-27.207	-0.329	-0.196
-661.974	-30.247	-0.196	0.113
-660.959	277.550	0.128	-0.232
-659.945	-200.000	-0.048	-0.232
-658.930	-127.980	0.452	-0.066
-657.916	-20.522	-0.407	-0.255
-656.901	-8.643	-0.170	-0.116
-655.886	800.000	-0.058	-0.217
-654.872	800.000	-0.073	0.289
-653.857	-94.089	0.197	-0.055
-652.843	-117.389	0.185	0.034
-651.828	265.500	0.055	0.097
-650.814	-186.868	0.192	-0.003
-649.799	-200.000	0.036	-0.294
-648.784	-45.806	-0.224	-0.113
-647.770	41.333	-0.230	-0.212
-646.755	-200.000	-0.004	-0.233
-645.741	215.956	0.182	0.295
-644.726	800.000	-0.072	-0.227
-643.711	800.000	0.048	0.171
-642.697	21.550	-0.075	0.062
-641.682	364.578	0.042	0.085
-640.668	523.912	0.029	0.070
-639.653	337.179	0.147	-0.290
-638.638	29.549	0.157	0.136
-637.624	237.135	-0.185	0.312
-636.609	336.385	-0.157	-0.311
-635.595	-137.586	-0.403	-0.046
-634.580	-84.996	-0.442	-0.141
-633.565	72.799	-0.337	-0.359
-632.551	-180.401	0.261	-0.006
-631.536	-86.370	-0.480	-0.150
-630.522	105.279	-0.155	-0.186
-629.507	-41.615	-0.100	0.052
-628.492	-97.588	-0.193	0.051
-627.478	147.438	-0.168	0.231
-626.463	17.484	0.164	-0.132
-625.449	-91.631	0.288	-0.083
-624.434	380.929	0.078	-0.164
-623.419	-200.000	0.020	0.238
-622.405	130.901	-0.196	0.256
-621.390	193.507	-0.029	-0.044
-620.376	107.971	-0.228	-0.277
-619.361	173.176	-0.149	-0.219
-618.346	-140.144	0.038	0.004
-617.332	-200.000	-0.016	-0.251
-616.317	791.084	0.173	-0.483
-615.303	62.512	0.183	-0.186
-614.288	-82.718	-0.135	-0.045
-613.273	419.969	0.135	-0.294
-612.259	-75.798	-0.094	-0.034
-611.244	-200.000	0.002	0.144
-610.230	337.847	0.031	0.062
-609.215	-110.080	0.332	0.071
-608.201	800.000	0.060	-0.191
-607.186	117.023	0.206	-0.258
-606.171	-92.586	-0.265	-0.076
-605.157	-200.000	-0.029	-0.146
-604.142	-46.505	-0.042	0.021
-603.128	-133.578	0.132	0.017
-602.113	-47.629	-0.159	-0.078
-601.098	-34.755	0.094	-0.052
-600.084	17.878	0.106	0.086
-599.069	-55.975	0.185	-0.084
-598.055	-67.812	-0.261	0.104
-597.040	-181.503	0.290	-0.006
-596.025	-50.224	0.323	0.155
-595.011	-146.342	-0.185	0.016
-593.996	163.528	0.145	-0.207
-592.982	-35.664	-0.188	0.104
-591.967	-200.000	0.003	-0.136
-590.952	156.101	0.121	0.170
-589.938	800.000	0.083	0.324
-588.923	-30.220	-0.100	0.058
-587.909	-108.799	-0.304	-0.066
-586.894	-200.000	0.003	0.136
-585.879	-18.878	-0.224	0.142
-584.865	254.222	-0.067	0.116
-583.850	147.919	-0.185	0.254
-582.836	-200.000	0.014	-0.155
-581.821	-200.000	0.000	-0.281
-580.806	-36.581	-0.371	0.203
-579.792	-25.648	0.024	0.014
-578.777	683.470	0.034	-0.090
-577.763	-200.000	-0.053	-0.342
-576.748	54.914	0.042	0.041
-575.733	-60.666	-0.137	0.059
-574.719	-74.834	-0.205	0.075
-573.704	-123.702	-0.398	-0.064
-572.690	78.743	0.219	0.238
-571.675	-66.311	-0.223	-0.090
-570.661	-176.127	0.134	0.004
-569.646	241.822	0.220	-0.374
-568.631	-24.148	-0.072	-0.044
-567.617	-141.004	-0.140	0.015
-566.602	-200.000	0.019	0.333
-565.588	53.368	0.050	0.049
-564.573	210.096	0.143	-0.229
-563.558	800.000	0.082	0.246
-562.544	567.156	-0.118	0.291
-561.529	-23.122	-0.410	0.251
-560.515	429.301	0.032	0.070
-559.500	-10.875	0.089	-0.060
-558.485	75.657	-0.046	0.049
-557.471	-58.144	-0.268	0.118
-556.456	223.243	0.119	-0.195
-555.442	17.145	-0.012	-0.010
-554.427	399.301	0.046	0.097
-553.412	-150.010	0.335	0.026
-552.398	-200.000	-0.002	-0.308
-551.383	-78.800	-0.089	-0.031
-550.369	-52.150	0.067	-0.031
-549.354	38.223	0.119	0.107
-548.339	443.069	0.133	0.296
-547.325	-45.726	0.247	0.124
-546.310	341.986	-0.160	0.318
-545.296	231.387	0.056	-0.094
-544.281	67.550	-0.298	-0.309
-543.266	-123.963	-0.198	-0.032
-542.252	-92.072	0.183	0.053
-541.237	278.696	0.163	-0.295
-540.223	800.000	-0.028	0.090
-539.208	-48.104	0.125	0.062
-538.193	-200.000	0.031	-0.167
-537.179	198.306	-0.130	0.202
-536.164	-90.553	0.123	0.036
-535.150	38.563	-0.260	0.235
-534.135	468.759	0.148	0.338
-533.121	-170.695	0.227	0.008
-532.106	-33.730	-0.079	-0.044
-531.091	2.169	0.062	0.045
-530.077	47.456	0.154	0.146
-529.062	-13.566	-0.065	-0.043
-528.048	800.000	0.060	0.179
-527.033	437.988	-0.031	0.068
-526.018	-74.633	-0.036	0.013
-525.004	-66.692	0.031	-0.012
-523.989	-200.000	-0.024	0.139
-522.975	-169.596	-0.215	-0.008
-521.960	-200.000	0.037	-0.169
-520.945	800.000	-0.061	-0.176
-519.931	111.777	0.283	-0.346
-518.916	800.000	-0.094	0.330
-517.902	80.175	-0.086	0.093
-516.887	-183.514	-0.155	-0.003
-515.872	23.868	0.096	-0.080
-514.858	359.592	-0.176	-0.358
-513.843	-2.452	-0.285	-0.203
-512.829	-166.127	-0.053	-0.002
-511.814	611.356	0.030	-0.077
-510.799	244.509	0.339	-0.578
-509.785	134.330	-0.280	-0.368
-508.770	-200.000	-0.003	-0.250
-507.756	800.000	0.104	0.413
-506.741	122.118	-0.114	0.145
-505.726	-87.798	-0.437	-0.133
-504.712	-200.000	0.014	0.071
-503.697	-127.679	0.001	-0.000
-502.683	-78.933	-0.240	0.083
-501.668	-73.798	0.098	-0.036
-500.653	495.345	0.042	0.098
-499.639	67.853	0.060	0.062
-498.624	-103.894	0.400	-0.095
-497.610	-37.948	-0.230	0.124
-496.595	157.025	0.048	-0.067
-495.581	56.246	0.399	-0.393
-494.566	54.647	0.064	0.062
-493.551	-200.000	0.009	-0.230
-492.537	-98.953	0.433	0.111
-491.522	-159.793	0.449	-0.025
-490.508	87.551	-0.184	0.206
-489.493	217.070	-0.185	0.299
-488.478	162.597	-0.088	0.125
-487.464	712.035	-0.075	-0.202
-486.449	330.214	0.051	0.100
-485.435	285.111	-0.149	-0.271
-484.420	-35.299	0.173	-0.095
-483.405	-200.000	-0.015	-0.226
-482.391	-58.473	-0.191	-0.084
-481.376	-93.485	-0.047	0.013
-480.362	-130.811	-0.381	0.052
-479.347	-23.707	0.187	-0.114
-478.332	-12.887	-0.021	-0.014
-477.318	-153.549	-0.186	-0.013
-476.303	-4.884	-0.237	-0.165
-475.289	141.499	-0.021	0.028
-474.274	131.162	0.075	0.097
-473.259	-200.000	0.053	0.346
-472.245	29.383	-0.113	-0.097
-471.230	161.539	-0.056	-0.080
-470.216	-200.000	-0.013	-0.311
-469.201	-200.000	-0.029	-0.474
-468.186	284.434	0.063	-0.114
-467.172	279.470	-0.060	-0.108
-466.157	235.524	0.080	-0.134
-465.143	-126.923	-0.124	0.018
-464.128	740.357	0.057	-0.156
-463.113	-54.227	0.179	0.082
-462.099	-96.845	0.378	0.101
-461.084	-48.968	0.121	-0.059
-460.070	-200.000	-0.009	-0.314
-459.055	86.784	-0.144	0.161
-458.040	-164.759	0.154	-0.007
-457.026	-200.000	-0.018	-0.172
-456.011	-200.000	-0.033	0.200
-454.997	-22.312	0.274	-0.168
-453.982	12.675	-0.099	-0.077
-452.968	128.433	-0.164	-0.211
-451.953	132.618	0.171	0.223
-450.938	79.603	-0.152	-0.165
-449.924	-41.520	-0.048	-0.025
-448.909	-127.420	-0.230	-0.034
-447.895	-200.000	0.054	0.247
-446.880	-83.996	0.072	-0.023
-445.865	-200.000	0.023	0.248
-444.851	-56.170	0.229	0.103
-443.836	800.000	-0.052	-0.166
-442.822	-167.680	0.387	-0.016
-441.807	-93.111	0.211	0.059
-440.792	800.000	-0.045	0.137
-439.778	84.180	-0.237	0.262
-438.763	151.896	0.207	0.285
-437.749	-59.981	-0.211	0.091
-436.734	-109.625	-0.394	-0.084
-435.719	23.799	-0.028	0.024
-434.705	254.360	-0.218	-0.378
-433.690	-123.773	0.147	0.024
-432.676	-155.699	0.181	0.012
-431.661	-200.000	-0.034	0.287
-430.646	131.570	0.124	0.161
-429.632	-141.509	-0.363	-0.037
-428.617	-200.000	-0.020	0.508
-427.603	-143.018	0.327	-0.032
-426.588	-200.000	0.004	-0.185
-425.573	-117.731	0.229	0.042
-424.559	-151.982	-0.277	-0.020
-423.544	362.516	-0.245	0.496
-422.530	-200.000	-0.002	0.033
-421.515	198.553	-0.136	0.211
-420.500	113.080	-0.160	-0.196
-419.486	-59.833	0.363	-0.157
-418.471	-129.963	-0.218	-0.030
-417.457	-9.031	-0.303	0.205
-416.442	104.692	0.166	-0.198
-415.428	36.525	0.349	-0.311
-414.413	-105.273	0.014	0.003
-413.398	-200.000	0.063	-0.000
-412.384	458.023	-0.113	0.254
-411.369	800.000	0.096	0.393
-410.355	-200.000	0.021	-0.169
-409.340	-4.232	0.026	0.018
-408.325	745.023	-0.046	0.124
-407.311	-69.683	-0.002	0.001
-406.296	-82.644	-0.145	-0.048
-405.282	800.000	-0.075	-0.231
-404.267	33.480	0.266	0.233
-403.252	800.000	0.058	-0.194
-402.238	-171.147	0.064	-0.002
-401.223	-200.000	-0.002	-0.092
-400.209	210.510	-0.120	-0.190
-399.194	29.519	-0.178	0.153
-398.179	-135.052	0.124	-0.015
-397.165	-180.709	0.177	0.004
-396.150	-10.530	-0.186	0.125
-395.136	-15.062	-0.058	0.037
-394.121	-200.000	0.007	0.217
-393.106	-200.000	-0.009	-0.302
-392.092	-200.000	-0.087	0.525
-391.077	-65.506	-0.227	0.092
-390.063	187.011	-0.047	-0.071
-389.048	38.163	-0.227	0.204
-388.033	-81.732	-0.231	0.077
-387.019	272.991	0.102	0.183
-386.004	555.795	0.034	-0.084
-384.990	664.464	0.102	0.266
-383.975	399.064	0.052	-0.110
-382.960	-79.561	0.139	-0.047
-381.946	99.646	-0.072	0.084
-380.931	800.000	-0.034	0.152
-379.917	15.006	0.014	-0.011
-378.902	471.274	-0.082	-0.186
-377.888	-200.000	0.008	-0.052
-376.873	-39.461	-0.118	0.062
-375.858	-144.396	-0.295	0.028
-374.844	22.786	0.226	0.187
-373.829	-134.445	0.226	-0.028
-372.815	-90.871	-0.108	0.031
-371.800	-163.815	-0.472	0.022
-370.785	-75.542	-0.310	0.111
-369.771	-200.000	0.006	-0.060
-368.756	-56.155	0.166	0.074
-367.742	435.066	-0.069	-0.151
-366.727	-200.000	-0.057	-0.262
-365.712	439.301	-0.119	-0.263
-364.698	103.772	-0.115	0.136
-363.683	400.180	0.011	0.023
-362.669	-113.117	0.323	0.064
-361.654	-132.483	-0.117	0.015
-360.639	800.000	0.114	0.362
-359.625	-47.388	0.218	0.107
-358.610	157.714	0.289	-0.403
-357.596	47.595	0.216	0.204
-356.581	-80.747	0.495	-0.166
-355.566	-4.346	0.268	-0.187
-354.552	800.000	0.024	0.089
-353.537	-200.000	0.008	0.185
-352.523	56.861	-0.212	0.208
-351.508	-174.923	0.269	0.008
-350.493	164.817	-0.072	-0.102
-349.479	-200.000	0.036	0.241
-348.464	800.000	-0.054	0.228
-347.450	-61.149	-0.055	-0.024
-346.435	-200.000	0.005	-0.452
-345.420	52.669	-0.336	0.323
-344.406	-145.925	-0.219	0.020
-343.391	58.131	0.164	0.161
-342.377	800.000	-0.021	-0.072
-341.362	104.224	-0.234	0.277
-340.348	577.002	0.068	0.168
-339.333	68.287	-0.094	-0.097
-338.318	-200.000	0.011	0.160
-337.304	308.808	0.095	0.178
-336.289	793.159	0.025	0.069
-335.275	-116.592	0.274	-0.051
-334.260	285.669	0.023	-0.042
-333.245	-142.443	-0.187	-0.019
-332.231	-49.810	-0.156	0.074
-331.216	-200.000	0.032	-0.149
-330.202	521.144	0.035	-0.082
-329.187	-16.636	-0.171	0.109
-328.172	-170.712	-0.374	0.013
-327.158	537.460	0.125	0.300
-326.143	-119.196	0.207	-0.036
-325.129	-126.772	0.145	-0.022
-324.114	-92.202	0.155	-0.044
-323.099	346.797	0.055	-0.110
-322.085	-53.298	0.148	-0.068
-321.070	-151.973	-0.095	0.007
-320.056	-200.000	-0.007	-0.131
-319.041	-14.890	0.256	-0.165
-318.026	-107.001	-0.158	-0.035
-317.012	-113.351	-0.245	-0.048
-315.997	-165.043	0.386	0.017
-314.983	800.000	-0.037	0.139
-313.968	222.857	-0.121	-0.197
-312.953	209.771	-0.128	-0.202
-311.939	-1.465	-0.315	0.223
-310.924	422.540	0.051	-0.110
-309.910	-10.969	0.121	0.081
-308.895	-132.954	-0.131	0.017
-307.880	-197.942	0.305	-0.002
-306.866	-27.420	-0.063	0.037
-305.851	433.780	0.139	-0.304
-304.837	5.812	0.202	0.150
-303.822	201.986	0.089	0.137
-302.807	-161.233	-0.361	0.019
-301.793	800.000	0.089	0.261
-300.778	800.000	-0.065	0.266
-299.764	-22.704	-0.271	-0.165
-298.749	-200.000	-0.040	0.181
-297.735	132.283	0.158	0.205
-296.720	-200.000	-0.000	-0.153
-295.705	-200.000	-0.081	0.000
-294.691	435.579	0.149	-0.325
-293.676	88.091	0.334	-0.372
-292.662	-102.918	0.264	0.063
-291.647	57.960	0.114	-0.112
-290.632	68.743	-0.303	-0.312
-289.618	-200.000	-0.035	0.199
-288.603	176.790	-0.318	0.465
-287.589	-58.302	0.145	0.063
-286.574	127.080	0.169	-0.215
-285.559	10.568	0.177	-0.136
-284.545	-200.000	-0.001	-0.010
-283.530	-190.586	0.375	-0.004
-282.516	-35.133	0.388	0.213
-281.501	-146.184	-0.209	-0.018
-280.486	-200.000	0.058	0.315
-279.472	-87.100	0.362	-0.111
-278.457	-200.000	-0.020	0.146
-277.443	-25.609	-0.090	0.053
-276.428	312.614	-0.034	0.065
-275.413	-200.000	-0.026	0.232
-274.399	113.055	-0.152	-0.186
-273.384	32.341	-0.078	-0.067
-272.370	227.771	0.144	-0.235
-271.355	-89.167	-0.353	-0.105
-270.340	-91.329	0.271	-0.078
-269.326	-200.000	0.013	0.332
-268.311	-98.777	0.011	-0.003
-267.297	95.697	0.026	-0.030
-266.282	-70.446	-0.148	-0.056
-265.267	-83.374	-0.178	-0.057
-264.253	-38.006	0.198	-0.106
-263.238	800.000	0.025	0.073
-262.224	-154.849	0.228	0.015
-261.209	-142.836	-0.242	-0.024
-260.195	0.323	-0.184	-0.132
-259.180	486.200	-0.138	-0.315
-258.165	174.690	-0.014	-0.021
-257.151	504.998	-0.069	-0.160
-256.136	-71.511	-0.090	-0.034
-255.122	8.236	-0.215	0.163
-254.107	514.455	-0.064	0.151
-253.092	800.000	0.047	-0.178
-252.078	746.221	0.038	-0.102
-251.063	-102.885	0.217	-0.052
-250.049	-200.000	-0.033	0.250
-249.034	-200.000	0.028	0.174
-248.019	-200.000	-0.083	-0.473
-247.005	92.802	-0.159	0.180
-245.990	-55.349	0.374	0.168
-244.976	13.207	-0.045	-0.035
-243.961	-66.908	0.281	0.111
-242.946	-72.952	0.036	0.013
-241.932	-124.552	0.247	0.038
-240.917	18.325	-0.179	0.144
-239.903	-200.000	0.036	-0.170
-238.888	-200.000	0.026	0.212
-237.873	25.112	0.413	-0.344
-236.859	-200.000	0.029	-0.182
-235.844	28.019	0.249	0.211
-234.830	800.000	-0.056	0.167
-233.815	-200.000	0.001	-0.116
-232.800	332.137	-0.125	-0.243
-231.786	-65.251	-0.102	0.041
-230.771	-52.765	0.212	0.098
-229.757	88.615	-0.087	-0.097
-228.742	-200.000	-0.015	0.250
-227.727	137.707	0.151	0.199
-226.713	71.959	-0.342	0.357
-225.698	-200.000	0.006	-0.066
-224.684	43.510	0.135	0.124
-223.669	-98.255	0.127	0.033
-222.655	-135.969	0.152	0.018
-221.640	74.395	-0.173	0.182
-220.625	-5.878	-0.146	0.100
-219.611	-200.000	-0.051	0.408
-218.596	-200.000	0.029	-0.246
-217.582	16.573	-0.114	0.090
-216.567	-83.828	-0.406	0.130
-215.552	-176.813	-0.034	-0.001
-214.538	179.857	-0.082	0.121
-213.523	-145.060	0.034	0.003
-212.509	690.296	0.071	-0.186
-211.494	-200.000	0.007	-0.136
-210.479	-34.628	0.319	-0.175
-209.465	-44.176	0.239	-0.120
-208.450	-85.218	0.210	-0.066
-207.436	800.000	-0.068	-0.200
-206.421	504.076	-0.141	-0.328
-205.406	-200.000	-0.008	-0.085
-204.392	-200.000	0.038	-0.354
-203.377	800.000	-0.103	0.339
-202.363	780.399	-0.026	0.071
-201.348	30.907	-0.146	-0.126
-200.333	-81.577	0.343	-0.113
-199.319	-200.000	-0.173	0.000
-198.304	-67.792	0.247	0.097
-197.290	-200.000	-0.036	0.415
-196.275	424.369	0.238	0.513
-195.260	194.670	0.153	-0.233
-194.246	-110.794	-0.187	-0.039
-193.231	220.779	0.125	-0.201
-192.217	-64.128	0.148	-0.061
-191.202	90.975	0.189	-0.213
-190.187	102.850	0.144	-0.169
-189.173	90.832	-0.052	-0.059
-188.158	409.149	-0.105	-0.223
-187.144	-200.000	0.018	0.082
-186.129	184.748	0.138	0.205
-185.114	0.704	-0.207	0.149
-184.100	800.000	-0.097	0.389
-183.085	-200.000	-0.013	0.184
-182.071	-65.688	-0.087	-0.035
-181.056	5.347	-0.135	0.099
-180.042	10.180	0.058	0.044
-179.027	-200.000	-0.032	0.177
-178.012	724.898	0.041	-0.111
-176.998	135.709	0.028	0.036
-175.983	-40.933	-0.030	-0.015
-174.969	31.626	-0.182	0.156
-173.954	221.092	0.068	-0.109
-172.939	-18.139	0.141	-0.088
-171.925	800.000	0.098	0.334
-170.910	-48.817	-0.130	-0.063
-169.896	-40.481	0.237	0.123
-168.881	27.344	0.221	-0.186
-167.866	-55.868	0.210	-0.094
-166.852	-170.805	0.204	0.007
-165.837	676.674	0.066	0.172
-164.823	-200.000	-0.043	0.320
-163.808	-141.116	-0.124	0.013
-162.793	-150.214	0.353	0.027
-161.779	800.000	0.043	0.149
-160.764	-157.251	-0.282	0.017
-159.750	-132.286	0.061	-0.008
-158.735	-200.000	0.011	-0.308
-157.720	-53.701	0.241	-0.110
-156.706	191.366	-0.289	-0.435
-155.691	698.186	0.094	-0.247
-154.677	148.205	0.085	0.114
-153.662	-160.053	0.091	-0.005
-152.647	162.463	-0.090	0.126
-151.633	87.230	-0.161	-0.178
-150.618	172.027	-0.202	-0.291
-149.604	75.014	-0.127	-0.134
-148.589	490.139	-0.036	0.082
-147.574	800.000	-0.085	0.347
-146.560	64.072	-0.274	0.276
-145.545	-73.935	0.150	0.054
-144.531	-97.840	-0.029	-0.008
-143.516	-200.000	0.004	0.214
-142.502	-200.000	0.043	0.244
-141.487	-200.000	-0.036	0.318
-140.472	61.474	0.155	0.154
-139.458	-66.530	-0.329	0.130
-138.443	28.555	-0.128	-0.108
-137.429	-51.473	0.067	-0.031
-136.414	-200.000	-0.007	-0.041
-135.399	-34.165	-0.107	0.059
-134.385	442.835	0.046	0.102
-133.370	-200.000	0.016	-0.092
-132.356	25.729	0.249	0.207
-131.341	-200.000	0.006	0.386
-130.326	-200.000	0.018	-0.305
-129.312	115.893	-0.180	0.220
-128.297	660.352	0.057	-0.146
-127.283	800.000	0.077	-0.251
-126.268	94.341	0.065	0.074
-125.253	-34.409	0.292	-0.160
-124.239	-5.299	0.235	0.161
-123.224	800.000	0.029	0.083
-122.210	68.681	0.175	-0.179
-121.195	-53.248	0.138	-0.063
