DTS Sentinel unit serial number:	SN413079Multiplexer serial number:	ORYXHardware model number:	OX4-SRSoftware version number:	ORYX F/W v4.00 Oryx Data Collector v3.7.2.0data status	okinstallation	princeton_trtdifferential loss correction	single-endedforward channel	channel 1reverse channel	N/Adate	2019/09/11time	01:08:11forward acquisition time	60.00reverse acquisition time	0.00gamma	496.2192k internal	0.2331k external	0.2331temperature offset calibration	0.9929default loss term (dB/km)	0.3790temperature slope calibration	1.0000multiplexer offset coefficient	1.0000multiplexer slope coefficient	1.0000fibre end	0.00T internal ref (°C)	29.12T ext. ref 1 (°C)	-0.32T ext. ref 2 (°C)	23.10length (m)	temperature (°C)	Stokes	anti-Stokes-747.200	-124.687	0.241	-0.038
-746.185	-200.000	-0.015	0.238
-745.171	-149.466	0.370	-0.030
-744.156	-200.000	0.036	-0.391
-743.142	-29.597	-0.308	-0.177
-742.127	-125.133	-0.341	-0.053
-741.112	210.033	-0.150	0.237
-740.098	-94.472	0.216	0.059
-739.083	-84.546	0.069	-0.022
-738.069	-102.384	0.091	-0.022
-737.054	-28.365	-0.317	-0.184
-736.039	-71.123	-0.362	-0.137
-735.025	21.574	0.142	-0.117
-734.010	-164.226	-0.160	0.007
-732.996	-200.000	-0.027	-0.245
-731.981	281.243	0.097	-0.174
-730.966	156.564	0.130	0.180
-729.952	-17.674	0.142	0.090
-728.937	450.887	-0.107	0.237
-727.923	-81.279	-0.032	-0.011
-726.908	95.406	-0.093	-0.106
-725.894	-130.174	-0.557	-0.076
-724.879	223.435	0.065	0.106
-723.864	-178.726	-0.129	-0.003
-722.850	800.000	0.007	0.025
-721.835	-71.597	-0.243	0.091
-720.821	-113.613	0.169	0.033
-719.806	800.000	-0.069	-0.198
-718.791	200.448	0.084	-0.130
-717.777	800.000	0.033	0.102
-716.762	108.973	-0.183	-0.220
-715.748	-200.000	-0.025	-0.147
-714.733	222.375	0.276	0.446
-713.718	362.648	-0.080	-0.162
-712.704	61.795	0.139	-0.139
-711.689	444.465	0.035	0.077
-710.675	183.913	0.126	-0.187
-709.660	746.530	-0.151	-0.408
-708.645	-134.086	0.441	-0.055
-707.631	800.000	-0.094	0.326
-706.616	179.911	0.167	0.246
-705.602	56.741	0.350	-0.342
-704.587	58.135	-0.157	-0.155
-703.572	213.885	-0.195	-0.309
-702.558	800.000	-0.033	0.132
-701.543	320.565	-0.036	0.069
-700.529	82.755	0.051	0.055
-699.514	800.000	0.081	-0.324
-698.499	55.740	0.156	0.152
-697.485	305.032	-0.048	0.090
-696.470	-154.379	-0.214	0.014
-695.456	224.423	-0.070	0.114
-694.441	-200.000	-0.014	0.070
-693.426	354.991	0.112	0.224
-692.412	-200.000	0.001	0.179
-691.397	-55.192	-0.076	0.034
-690.383	52.143	-0.122	0.117
-689.368	-24.706	0.063	0.037
-688.354	477.109	-0.040	-0.090
-687.339	-72.193	-0.335	-0.125
-686.324	-80.291	-0.267	0.090
-685.310	129.878	0.148	-0.191
-684.295	293.354	-0.067	0.122
-683.281	-200.000	0.002	-0.246
-682.266	-57.592	0.075	-0.033
-681.251	-27.810	0.167	0.097
-680.237	75.302	0.139	0.147
-679.222	221.137	-0.037	0.059
-678.208	118.002	-0.176	-0.218
-677.193	-64.872	-0.304	-0.123
-676.178	800.000	0.109	-0.366
-675.164	403.047	0.200	0.423
-674.149	-69.461	0.332	0.128
-673.135	-75.771	-0.327	0.117
-672.120	800.000	-0.090	-0.271
-671.105	-152.912	-0.222	-0.016
-670.091	-74.743	0.252	0.091
-669.076	82.730	0.184	-0.201
-668.062	346.338	-0.030	0.059
-667.047	-88.006	0.052	-0.016
-666.032	-147.829	-0.129	-0.011
-665.018	800.000	-0.030	0.120
-664.003	789.324	0.018	-0.049
-662.989	-75.029	-0.178	-0.064
-661.974	478.570	0.093	0.210
-660.959	218.093	-0.090	-0.144
-659.945	-4.465	-0.354	0.246
-658.930	-35.674	0.066	-0.036
-657.916	205.459	-0.253	-0.394
-656.901	225.366	0.164	-0.266
-655.886	-79.786	-0.128	0.043
-654.872	-200.000	-0.016	0.139
-653.857	-43.569	-0.141	-0.071
-652.843	40.040	0.124	-0.112
-651.828	350.696	-0.102	0.202
-650.814	60.945	0.291	-0.290
-649.799	282.514	-0.089	0.160
-648.784	-200.000	0.011	-0.120
-647.770	128.215	0.098	0.124
-646.755	-126.212	0.043	0.007
-645.741	104.680	-0.289	-0.341
-644.726	-20.140	0.435	-0.269
-643.711	502.402	-0.041	-0.095
-642.697	-200.000	0.048	-0.315
-641.682	-200.000	0.046	-0.380
-640.668	15.748	0.363	-0.286
-639.653	648.567	-0.027	0.069
-638.638	-200.000	-0.009	0.310
-637.624	287.839	0.143	-0.259
-636.609	-104.379	0.230	-0.053
-635.595	334.617	-0.072	-0.139
-634.580	-200.000	0.003	0.032
-633.565	-101.944	-0.347	-0.084
-632.551	563.941	0.253	0.615
-631.536	-57.919	-0.014	0.006
-630.522	56.380	-0.200	0.195
-629.507	-200.000	-0.034	0.261
-628.492	159.784	0.071	-0.099
-627.478	800.000	0.040	-0.118
-626.463	-51.989	-0.044	0.020
-625.449	-26.117	0.104	0.061
-624.434	169.873	0.033	-0.048
-623.419	-101.093	-0.199	-0.049
-622.405	-102.391	-0.252	0.060
-621.390	-200.000	-0.006	0.215
-620.376	271.108	-0.119	-0.211
-619.361	193.004	0.149	-0.226
-618.346	800.000	-0.016	0.059
-617.332	-124.008	-0.234	0.037
-616.317	88.237	-0.154	-0.172
-615.303	-200.000	-0.007	0.059
-614.288	23.597	-0.381	-0.314
-613.273	43.327	0.083	0.076
-612.259	-200.000	0.056	-0.400
-611.244	3.460	-0.142	0.104
-610.230	293.746	0.031	-0.056
-609.215	168.305	-0.156	0.222
-608.201	227.322	-0.103	-0.167
-607.186	800.000	-0.117	0.330
-606.171	107.660	-0.008	-0.010
-605.157	680.872	0.126	-0.330
-604.142	221.869	-0.088	-0.142
-603.128	449.822	-0.084	-0.185
-602.113	315.746	-0.136	0.257
-601.098	-200.000	-0.009	0.073
-600.084	191.992	0.095	-0.143
-599.069	-107.323	-0.040	-0.009
-598.055	22.998	-0.240	-0.197
-597.040	-77.240	0.288	-0.100
-596.025	-46.724	-0.268	0.131
-595.011	-96.621	-0.396	-0.105
-593.996	-200.000	0.001	-0.020
-592.982	197.315	0.085	0.130
-591.967	-108.022	0.164	0.036
-590.952	-183.734	-0.347	-0.006
-589.938	-43.355	-0.089	-0.045
-588.923	-200.000	-0.046	0.281
-587.909	-200.000	0.012	-0.151
-586.894	-134.488	0.166	-0.020
-585.879	64.249	0.067	-0.068
-584.865	292.389	0.102	-0.186
-583.850	151.632	-0.115	0.157
-582.836	-157.884	-0.123	-0.007
-581.821	-162.950	-0.101	-0.005
-580.806	-83.738	-0.186	-0.059
-579.792	135.618	-0.170	-0.221
-578.777	476.587	0.083	0.188
-577.763	36.471	0.106	-0.093
-576.748	35.984	-0.177	-0.156
-575.733	-85.899	-0.254	0.079
-574.719	200.573	-0.122	0.187
-573.704	-158.163	-0.449	-0.026
-572.690	326.845	0.038	-0.073
-571.675	-200.000	0.015	0.267
-570.661	800.000	-0.079	-0.300
-569.646	-200.000	-0.002	0.075
-568.631	-146.182	-0.224	-0.020
-567.617	-200.000	0.063	-0.399
-566.602	-200.000	-0.006	0.031
-565.588	-36.628	0.167	0.090
-564.573	-141.372	-0.272	-0.028
-563.558	43.953	-0.092	0.084
-562.544	301.319	-0.081	0.150
-561.529	154.987	0.116	0.159
-560.515	-92.714	-0.113	-0.032
-559.500	63.132	-0.134	-0.134
-558.485	-69.300	-0.121	-0.046
-557.471	-140.012	0.196	0.021
-556.456	-200.000	-0.016	0.108
-555.442	800.000	-0.047	-0.148
-554.427	-60.612	0.275	0.116
-553.412	43.080	-0.223	-0.203
-552.398	-128.978	-0.248	0.035
-551.383	-154.729	-0.307	-0.020
-550.369	-200.000	0.070	-0.381
-549.354	-200.000	-0.010	0.237
-548.339	-200.000	0.022	0.267
-547.325	27.737	-0.168	0.142
-546.310	800.000	-0.053	-0.229
-545.296	800.000	0.046	0.189
-544.281	32.739	0.253	0.219
-543.266	-200.000	-0.038	-0.208
-542.252	254.187	0.106	-0.182
-541.237	68.966	0.138	0.142
-540.223	593.646	-0.072	0.177
-539.208	-26.434	0.151	-0.089
-538.193	35.116	-0.204	-0.179
-537.179	130.639	0.233	-0.299
-536.164	176.760	-0.162	-0.235
-535.150	16.090	0.043	-0.034
-534.135	98.548	0.087	0.100
-533.121	-127.476	0.317	0.046
-532.106	-200.000	0.041	0.234
-531.091	-200.000	-0.008	0.133
-530.077	-109.988	-0.257	0.054
-529.062	20.200	0.282	-0.227
-528.048	-101.580	-0.157	0.038
-527.033	-167.690	-0.361	-0.014
-526.018	98.732	-0.041	-0.047
-525.004	204.018	-0.102	-0.158
-523.989	800.000	-0.034	-0.117
-522.975	52.716	-0.276	0.263
-521.960	511.575	0.106	0.246
-520.945	60.438	0.132	0.131
-519.931	-200.000	0.032	-0.214
-518.916	-42.664	0.272	-0.138
-517.902	-200.000	-0.002	-0.035
-516.887	800.000	-0.024	0.074
-515.872	-200.000	-0.004	0.061
-514.858	-200.000	0.022	-0.363
-513.843	-124.774	-0.349	-0.054
-512.829	-97.983	-0.161	-0.041
-511.814	-200.000	0.033	-0.167
-510.799	49.541	-0.304	0.286
-509.785	787.310	0.082	-0.225
-508.770	-163.152	0.309	0.015
-507.756	800.000	0.071	-0.289
-506.741	160.033	0.203	0.282
-505.726	-37.235	-0.248	0.132
-504.712	-130.513	0.393	-0.053
-503.697	668.669	-0.150	0.386
-502.683	656.899	0.022	-0.057
-501.668	-101.756	0.001	-0.000
-500.653	-80.468	-0.121	-0.040
-499.639	800.000	-0.075	-0.244
-498.624	249.559	0.109	0.185
-497.610	486.517	-0.058	-0.132
-496.595	-45.881	-0.140	-0.069
-495.581	800.000	-0.034	-0.142
-494.566	-87.505	0.191	-0.058
-493.551	-129.984	0.216	-0.030
-492.537	-200.000	-0.028	-0.126
-491.522	-200.000	0.036	-0.203
-490.508	800.000	-0.079	-0.277
-489.493	-48.264	0.041	0.019
-488.478	241.697	-0.092	-0.154
-487.464	-200.000	0.003	0.171
-486.449	47.761	0.053	0.049
-485.435	800.000	-0.087	-0.305
-484.420	112.738	-0.063	0.076
-483.405	-200.000	0.008	0.179
-482.391	-142.260	0.305	-0.030
-481.376	102.347	0.179	-0.208
-480.362	164.218	-0.041	0.058
-479.347	23.722	0.257	0.211
-478.332	-54.292	0.254	-0.115
-477.318	-88.854	-0.163	0.048
-476.303	-161.951	-0.103	0.005
-475.289	201.108	-0.067	0.103
-474.274	148.080	-0.036	0.048
-473.259	-200.000	0.002	0.042
-472.245	-200.000	-0.053	-0.253
-471.230	-146.653	0.127	-0.011
-470.216	-163.985	0.109	0.005
-469.201	-29.028	0.331	0.189
-468.186	-85.958	0.279	0.086
-467.172	800.000	-0.130	-0.361
-466.157	-108.064	0.040	-0.009
-465.143	17.496	-0.034	0.027
-464.128	-111.528	-0.470	0.095
-463.113	800.000	0.071	-0.293
-462.099	250.712	0.204	0.345
-461.084	119.280	-0.110	0.136
-460.070	-98.799	-0.218	-0.055
-459.055	-114.940	-0.070	-0.013
-458.040	-179.452	0.191	-0.004
-457.026	-103.898	-0.316	0.074
-456.011	-53.246	0.051	0.023
-454.997	-200.000	-0.047	-0.369
-453.982	-200.000	-0.042	0.282
-452.968	137.331	0.317	0.412
-451.953	-200.000	-0.007	-0.281
-450.938	146.290	-0.040	-0.054
-449.924	16.428	-0.014	0.011
-448.909	0.539	-0.120	0.085
-447.895	150.501	-0.225	0.304
-446.880	-200.000	0.010	0.251
-445.865	31.609	-0.268	-0.230
-444.851	-150.449	0.262	-0.020
-443.836	-62.347	-0.290	-0.120
-442.822	446.045	0.193	-0.423
-441.807	146.574	0.028	-0.038
-440.792	-200.000	-0.002	0.025
-439.778	-40.659	0.152	0.078
-438.763	-70.332	0.182	-0.069
-437.749	84.800	0.213	-0.232
-436.734	-163.179	0.242	-0.012
-435.719	-35.267	-0.226	-0.122
-434.705	198.628	0.071	0.108
-433.690	-26.129	0.270	-0.158
-432.676	800.000	0.086	-0.324
-431.661	256.794	0.165	-0.282
-430.646	98.537	0.103	-0.118
-429.632	-98.221	-0.074	0.019
-428.617	-82.445	0.299	-0.096
-427.603	-100.905	-0.422	-0.103
-426.588	-55.407	0.351	0.157
-425.573	-200.000	-0.016	-0.259
-424.559	-116.588	-0.126	-0.023
-423.544	-74.696	0.095	0.034
-422.530	-46.122	-0.158	-0.077
-421.515	104.335	-0.285	-0.334
-420.500	347.995	0.176	-0.344
-419.486	-200.000	-0.010	0.082
-418.471	-20.072	-0.297	-0.182
-417.457	-68.473	0.413	0.159
-416.442	-115.651	-0.104	0.019
-415.428	90.002	-0.071	0.079
-414.413	-172.427	0.029	0.001
-413.398	-86.988	0.088	0.027
-412.384	-200.000	0.003	0.089
-411.369	8.508	-0.085	0.064
-410.355	-26.479	0.333	-0.194
-409.340	44.285	0.210	-0.191
-408.325	-9.678	0.179	0.119
-407.311	-125.769	0.194	-0.029
-406.296	-200.000	-0.021	-0.095
-405.282	487.384	-0.049	0.112
-404.267	800.000	0.097	0.413
-403.252	656.947	0.151	-0.386
-402.238	77.359	0.148	-0.156
-401.223	-4.373	-0.260	0.178
-400.209	-200.000	0.027	0.231
-399.194	-25.063	-0.408	-0.240
-398.179	8.265	-0.076	-0.057
-397.165	-200.000	-0.010	-0.135
-396.150	-200.000	0.015	-0.177
-395.136	-93.114	-0.333	0.092
-394.121	-200.000	0.028	-0.194
-393.106	-19.937	0.230	0.141
-392.092	-48.352	-0.345	-0.165
-391.077	230.042	-0.159	0.257
-390.063	89.506	0.209	-0.232
-389.048	132.320	-0.150	-0.192
-388.033	-141.151	0.089	-0.009
-387.019	-16.612	-0.116	-0.073
-386.004	-192.362	0.288	0.003
-384.990	113.697	0.217	-0.261
-383.975	-135.187	-0.234	0.028
-382.960	-200.000	0.020	0.188
-381.946	-23.189	0.277	-0.166
-380.931	-8.963	-0.222	0.147
-379.917	-43.172	0.086	-0.043
-378.902	-200.000	-0.048	0.261
-377.888	96.457	0.237	-0.269
-376.873	-70.557	-0.254	-0.095
-375.858	52.645	-0.038	-0.036
-374.844	22.569	0.252	-0.205
-373.829	-36.197	0.234	0.125
-372.815	263.676	-0.216	0.373
-371.800	-200.000	0.002	0.291
-370.785	434.457	-0.166	-0.358
-369.771	-200.000	-0.022	0.125
-368.756	-39.537	-0.186	0.097
-367.742	375.829	0.093	-0.187
-366.727	-160.382	0.156	0.008
-365.712	-120.334	-0.152	-0.026
-364.698	284.596	0.179	0.320
-363.683	-160.312	-0.131	0.007
-362.669	-150.149	0.270	0.021
-361.654	-15.594	-0.173	-0.110
-360.639	97.495	0.095	-0.109
-359.625	260.898	-0.171	0.293
-358.610	757.584	0.068	-0.182
-357.596	-43.966	-0.112	-0.056
-356.581	-200.000	0.021	-0.150
-355.566	28.792	0.085	0.071
-354.552	-93.112	0.285	-0.079
-353.537	358.525	-0.202	0.399
-352.523	147.117	0.299	0.398
-351.508	-65.718	0.232	0.092
-350.493	72.350	0.060	-0.062
-349.479	-32.547	0.120	0.066
-348.464	103.788	-0.204	0.238
-347.450	-50.725	-0.223	0.104
-346.435	-88.400	-0.212	0.063
-345.420	-69.632	-0.281	0.107
-344.406	-0.684	0.111	-0.078
-343.391	91.517	0.283	-0.315
-342.377	224.835	-0.096	0.154
-341.362	-174.389	0.140	-0.004
-340.348	800.000	-0.073	0.237
-339.333	800.000	0.052	-0.159
-338.318	-200.000	0.002	-0.055
-337.304	-200.000	0.011	0.049
-336.289	-105.336	0.141	-0.032
-335.275	-200.000	0.027	0.242
-334.260	332.476	0.112	0.214
-333.245	800.000	0.080	-0.270
-332.231	800.000	-0.041	-0.139
-331.216	-153.400	-0.032	-0.002
-330.202	335.143	-0.124	0.237
-329.187	-200.000	0.024	0.256
-328.172	153.579	-0.066	-0.090
-327.158	-70.612	-0.267	0.100
-326.143	800.000	0.087	-0.250
-325.129	-100.518	-0.332	0.081
-324.114	-0.834	0.069	0.048
-323.099	-200.000	0.025	0.209
-322.085	800.000	-0.080	0.336
-321.070	-27.446	0.134	0.077
-320.056	152.928	-0.107	0.144
-319.041	115.610	-0.163	0.197
-318.026	-83.542	-0.054	0.017
-317.012	301.731	-0.099	0.180
-315.997	27.000	0.376	0.312
-314.983	-200.000	0.039	-0.202
-313.968	9.734	0.300	-0.225
-312.953	-182.129	0.328	0.006
-311.939	-175.087	-0.388	0.011
-310.924	-120.096	-0.440	0.075
-309.910	-200.000	0.010	-0.066
-308.895	-130.173	-0.264	-0.036
-307.880	-112.512	0.154	0.030
-306.866	205.519	-0.150	0.231
-305.851	48.422	0.115	-0.106
-304.837	467.167	-0.129	-0.285
-303.822	-24.927	0.263	-0.154
-302.807	-163.196	0.103	-0.005
-301.793	544.813	-0.052	0.122
-300.778	74.612	0.126	0.131
-299.764	-94.664	0.312	-0.084
-298.749	-86.190	0.432	-0.132
-297.735	370.769	-0.104	0.209
-296.720	-200.000	-0.043	0.334
-295.705	-29.432	-0.070	0.039
-294.691	-52.767	0.253	-0.115
-293.676	159.604	0.032	-0.044
-292.662	-135.288	-0.103	0.012
-291.647	260.491	0.129	0.221
-290.632	-200.000	-0.021	0.127
-289.618	-200.000	-0.022	-0.142
-288.603	51.953	-0.156	-0.147
-287.589	-200.000	0.018	0.211
-286.574	34.501	0.237	0.204
-285.559	603.376	0.037	-0.091
-284.545	-12.015	-0.120	0.078
-283.530	-140.748	0.039	0.004
-282.516	800.000	-0.056	0.210
-281.501	364.291	0.049	0.098
-280.486	-133.317	-0.310	0.039
-279.472	-200.000	0.078	0.339
-278.457	-200.000	0.040	0.181
-277.443	800.000	-0.081	0.318
-276.428	-57.036	0.314	0.137
-275.413	157.235	-0.327	-0.446
-274.399	-62.068	0.328	0.135
-273.384	-108.858	-0.133	-0.028
-272.370	800.000	0.080	-0.334
-271.355	250.495	0.106	-0.177
-270.340	465.122	0.084	-0.186
-269.326	396.630	-0.125	0.259
-268.311	569.218	-0.036	0.087
-267.297	-106.867	-0.471	0.103
-266.282	-200.000	-0.009	0.174
-265.267	-84.604	0.072	-0.022
-264.253	-59.408	0.084	0.036
-263.238	-200.000	0.047	0.332
-262.224	-105.400	0.204	0.046
-261.209	800.000	-0.074	0.205
-260.195	800.000	0.039	-0.122
-259.180	-191.958	-0.295	-0.003
-258.165	-20.419	0.262	0.159
-257.151	-138.459	-0.100	0.011
-256.136	-200.000	0.035	0.391
-255.122	99.745	0.311	-0.355
-254.107	-200.000	-0.014	-0.082
-253.092	-108.806	-0.329	0.069
-252.078	-200.000	-0.045	0.209
-251.063	-200.000	-0.045	-0.226
-250.049	-58.003	0.213	0.092
-249.034	-200.000	-0.010	0.184
-248.019	-200.000	-0.017	-0.159
-247.005	-122.782	0.272	-0.043
-245.990	-164.133	-0.137	0.006
-244.976	-113.598	0.484	0.093
-243.961	-46.089	-0.188	0.092
-242.946	-200.000	0.043	0.264
-241.932	-47.538	-0.304	-0.146
-240.917	800.000	-0.011	0.040
-239.903	800.000	-0.070	0.219
-238.888	170.887	-0.139	-0.196
-237.873	155.464	0.054	0.073
-236.859	75.445	-0.247	-0.258
-235.844	-131.468	0.425	0.055
-234.830	-115.246	-0.262	-0.049
-233.815	97.147	0.049	-0.055
-232.800	143.241	0.134	0.176
-231.786	-143.504	0.177	0.017
-230.771	-116.306	0.288	0.053
-229.757	20.751	-0.085	-0.068
-228.742	-82.615	0.212	-0.068
-227.727	-200.000	-0.021	-0.111
-226.713	-89.158	0.192	0.056
-225.698	-85.383	0.129	-0.040
-224.684	-119.932	-0.055	-0.009
-223.669	61.449	0.074	0.073
-222.655	-128.575	0.225	0.031
-221.640	-132.669	-0.261	0.033
-220.625	-67.551	-0.288	-0.111
-219.611	-200.000	-0.029	-0.215
-218.596	-21.536	0.189	-0.113
-217.582	31.353	-0.060	0.051
-216.567	-63.568	-0.187	-0.076
-215.552	-163.464	-0.099	0.005
-214.538	-146.103	0.371	-0.032
-213.523	14.938	-0.134	-0.103
-212.509	67.051	-0.263	-0.264
-211.494	-8.785	-0.106	0.070
-210.479	-26.476	0.148	0.086
-209.465	545.950	0.173	0.408
-208.450	800.000	-0.068	0.246
-207.436	-8.479	-0.112	-0.074
-206.421	125.921	-0.050	-0.063
-205.406	111.650	0.261	0.310
-204.392	-65.925	-0.147	0.058
-203.377	800.000	-0.052	0.167
-202.363	-200.000	-0.013	0.081
-201.348	17.898	0.144	0.113
-200.333	800.000	-0.121	-0.345
-199.319	-147.221	0.334	-0.028
-198.304	800.000	0.084	-0.295
-197.290	329.621	0.100	-0.190
-196.275	24.529	0.195	-0.159
-195.260	451.834	-0.071	-0.154
-194.246	-171.260	0.197	0.007
-193.231	284.253	-0.086	-0.153
-192.217	-69.089	0.220	0.083
-191.202	-200.000	-0.004	0.147
-190.187	264.323	0.039	0.067
-189.173	37.491	-0.081	0.071
-188.158	115.052	-0.128	0.154
-187.144	-23.742	-0.431	0.254
-186.129	-3.882	0.181	0.124
-185.114	-169.121	0.143	0.005
-184.100	-200.000	0.003	0.078
-183.085	-61.509	0.122	0.050
-182.071	-120.037	0.205	0.035
-181.056	-29.978	-0.170	0.095
-180.042	280.666	0.173	0.304
-179.027	128.660	-0.125	0.157
-178.012	37.538	0.131	-0.114
-176.998	-200.000	-0.002	0.025
-175.983	30.941	-0.313	0.264
-174.969	201.284	0.175	-0.265
-173.954	800.000	0.071	0.198
-172.939	204.552	0.215	0.328
-171.925	-200.000	-0.028	0.253
-170.910	-200.000	0.010	-0.090
-169.896	701.522	-0.085	0.219
-168.881	-74.892	-0.446	-0.157
-167.866	-107.813	0.334	0.072
-166.852	141.078	0.305	-0.397
-165.837	-200.000	-0.034	0.249
-164.823	-179.886	-0.318	0.007
-163.808	72.261	-0.262	-0.269
-162.793	-200.000	0.026	0.365
-161.779	-200.000	0.009	0.116
-160.764	-200.000	-0.010	-0.315
-159.750	-14.307	0.076	-0.048
-158.735	-78.613	0.400	-0.135
-157.720	800.000	-0.028	0.100
-156.706	10.666	-0.216	0.162
-155.691	800.000	-0.049	-0.147
-154.677	138.488	0.327	-0.422
-153.662	-157.162	-0.363	0.022
-152.647	-181.043	0.121	0.002
-151.633	110.368	-0.163	0.192
-150.618	-200.000	-0.017	-0.090
-149.604	-200.000	-0.007	-0.116
-148.589	251.126	-0.096	-0.161
-147.574	-91.292	-0.223	0.063
-146.560	-86.168	0.280	-0.085
-145.545	-55.731	-0.163	-0.072
-144.531	118.252	-0.039	0.047
-143.516	-200.000	-0.231	0.000
-142.502	-200.000	-0.004	0.093
-141.487	27.608	-0.200	0.166
-140.472	-200.000	-0.041	-0.324
-139.458	-111.027	0.296	0.060
-138.443	145.961	0.038	0.051
-137.429	-200.000	0.092	-0.527
-136.414	-88.833	-0.186	0.054
-135.399	-50.427	-0.231	0.107
-134.385	141.648	0.255	-0.332
-133.370	135.286	-0.062	0.079
-132.356	-200.000	-0.003	0.224
-131.341	-132.487	0.249	0.031
-130.326	-200.000	0.014	0.061
-129.312	-65.148	-0.132	-0.052
-128.297	-200.000	0.013	-0.113
-127.283	-155.771	-0.180	-0.011
-126.268	-200.000	0.002	-0.150
-125.253	800.000	0.034	0.096
-124.239	-115.703	-0.054	-0.010
-123.224	666.517	-0.071	-0.180
