DTS Sentinel unit serial number:	SN413079Multiplexer serial number:	ORYXHardware model number:	OX4-SRSoftware version number:	ORYX F/W v4.00 Oryx Data Collector v3.7.2.0data status	okinstallation	princeton_trtdifferential loss correction	single-endedforward channel	channel 1reverse channel	N/Adate	2019/09/10time	18:56:11forward acquisition time	60.00reverse acquisition time	0.00gamma	496.2192k internal	0.2313k external	0.2313temperature offset calibration	0.9922default loss term (dB/km)	0.3790temperature slope calibration	1.0000multiplexer offset coefficient	1.0000multiplexer slope coefficient	1.0000fibre end	0.00T internal ref (°C)	34.75T ext. ref 1 (°C)	-0.44T ext. ref 2 (°C)	26.89length (m)	temperature (°C)	Stokes	anti-Stokes-747.200	27.725	0.073	-0.063
-746.185	2.090	-0.187	0.137
-745.171	514.106	0.125	0.296
-744.156	-11.631	0.187	0.124
-743.142	-66.518	-0.101	-0.041
-742.127	-29.015	0.076	-0.044
-741.112	-118.183	0.074	-0.013
-740.098	120.885	0.148	0.187
-739.083	68.298	0.031	-0.032
-738.069	800.000	0.031	0.139
-737.054	-73.848	-0.186	-0.068
-736.039	364.991	0.071	0.145
-735.025	-116.399	0.208	0.039
-734.010	71.063	0.118	0.124
-732.996	134.806	0.164	-0.216
-731.981	156.597	0.171	-0.239
-730.966	612.923	0.107	-0.272
-729.952	88.782	-0.158	0.178
-728.937	504.385	-0.174	-0.408
-727.923	-200.000	0.000	-0.203
-726.908	35.507	-0.166	-0.148
-725.894	-151.027	0.307	-0.023
-724.879	-41.395	-0.267	0.139
-723.864	800.000	0.123	-0.400
-722.850	-18.271	-0.052	0.033
-721.835	88.626	-0.100	0.112
-720.821	57.616	0.158	-0.157
-719.806	86.961	-0.235	0.263
-718.791	-200.000	-0.032	-0.223
-717.777	92.836	-0.055	0.063
-716.762	-169.232	-0.381	-0.014
-715.748	-141.405	0.142	0.015
-714.733	-0.440	-0.345	0.249
-713.718	64.677	-0.175	0.179
-712.704	115.281	-0.255	0.316
-711.689	62.212	0.212	0.215
-710.675	751.664	-0.055	-0.149
-709.660	262.705	0.059	-0.104
-708.645	-200.000	0.034	-0.448
-707.631	-46.640	-0.347	0.172
-706.616	800.000	0.055	0.243
-705.602	-72.541	-0.359	0.134
-704.587	312.431	-0.082	-0.156
-703.572	-200.000	-0.004	0.192
-702.558	67.269	-0.076	-0.079
-701.543	390.453	0.118	-0.249
-700.529	21.820	-0.308	-0.254
-699.514	-184.263	0.247	-0.004
-698.499	-97.880	-0.245	-0.064
-697.485	800.000	-0.024	0.073
-696.470	-200.000	0.003	-0.275
-695.456	-108.013	-0.497	-0.109
-694.441	-140.069	-0.240	-0.026
-693.426	45.378	-0.093	0.087
-692.412	-200.000	0.036	-0.169
-691.397	21.135	-0.142	-0.117
-690.383	182.127	-0.122	-0.183
-689.368	93.982	0.045	-0.052
-688.354	-200.000	0.015	-0.123
-687.339	297.129	-0.148	-0.275
-686.324	47.817	0.089	0.084
-685.310	535.088	0.113	0.271
-684.295	151.488	-0.267	-0.368
-683.281	-132.447	-0.451	0.059
-682.266	-27.396	0.152	0.090
-681.251	-56.860	-0.181	-0.081
-680.237	39.175	-0.047	-0.043
-679.222	18.169	-0.112	-0.091
-678.208	-126.413	-0.238	-0.036
-677.193	800.000	-0.096	-0.331
-676.178	-114.597	0.416	-0.081
-675.164	15.823	0.130	0.103
-674.149	138.357	-0.192	0.255
-673.135	134.271	-0.228	0.300
-672.120	43.515	-0.251	0.232
-671.105	-29.806	-0.160	0.092
-670.091	20.915	-0.313	-0.257
-669.076	119.782	-0.108	-0.135
-668.062	128.641	0.159	-0.205
-667.047	-155.045	0.215	0.014
-666.032	65.028	0.151	0.155
-665.018	94.006	0.097	-0.111
-664.003	-37.502	-0.378	-0.204
-662.989	-179.128	0.300	-0.007
-661.974	-200.000	0.003	-0.274
-660.959	-89.559	0.295	-0.088
-659.945	800.000	-0.139	-0.400
-658.930	-77.580	0.406	-0.142
-657.916	460.706	-0.031	0.070
-656.901	-138.196	0.389	0.044
-655.886	-200.000	-0.002	0.136
-654.872	800.000	-0.073	0.322
-653.857	50.647	0.291	0.279
-652.843	-200.000	-0.029	0.201
-651.828	-73.629	-0.227	-0.083
-650.814	7.362	0.225	0.170
-649.799	76.233	0.161	0.172
-648.784	-6.546	-0.243	0.167
-647.770	-143.945	0.215	-0.020
-646.755	-57.331	0.415	-0.184
-645.741	-36.083	-0.247	-0.135
-644.726	76.719	-0.144	0.154
-643.711	412.318	-0.078	0.167
-642.697	-15.248	-0.176	0.114
-641.682	-72.055	-0.296	-0.111
-640.668	140.166	0.027	-0.036
-639.653	-200.000	-0.049	-0.427
-638.638	-200.000	0.024	0.121
-637.624	2.666	0.071	-0.052
-636.609	490.027	-0.118	-0.273
-635.595	-200.000	0.028	-0.148
-634.580	-103.345	-0.506	0.120
-633.565	800.000	-0.051	-0.223
-632.551	-200.000	0.027	-0.179
-631.536	800.000	0.046	-0.197
-630.522	-200.000	0.020	-0.185
-629.507	-200.000	0.055	-0.523
-628.492	-200.000	-0.008	-0.415
-627.478	-116.672	0.022	-0.004
-626.463	40.900	-0.169	0.154
-625.449	45.174	-0.043	0.040
-624.434	216.802	0.048	0.077
-623.419	-74.455	-0.060	-0.022
-622.405	-97.575	-0.397	-0.104
-621.390	-200.000	-0.020	-0.097
-620.376	165.674	-0.141	-0.202
-619.361	643.354	-0.084	-0.216
-618.346	-157.152	0.013	0.001
-617.332	-143.785	-0.358	0.034
-616.317	8.310	0.142	0.108
-615.303	-71.297	-0.217	0.082
-614.288	-97.516	0.324	0.085
-613.273	-200.000	0.011	-0.206
-612.259	-27.206	-0.187	-0.110
-611.244	-94.436	-0.094	0.026
-610.230	-134.164	-0.285	0.036
-609.215	-36.186	-0.053	-0.029
-608.201	-200.000	0.040	0.216
-607.186	-36.425	-0.113	0.061
-606.171	45.794	0.093	-0.087
-605.157	155.430	-0.177	-0.246
-604.142	-56.665	-0.288	-0.129
-603.128	131.602	0.076	-0.099
-602.113	-167.873	-0.441	-0.017
-601.098	-119.712	-0.393	0.068
-600.084	800.000	0.020	-0.068
-599.069	52.287	0.066	0.064
-598.055	42.556	-0.109	0.100
-597.040	-96.954	-0.472	-0.125
-596.025	265.094	-0.156	0.274
-595.011	50.093	-0.031	-0.030
-593.996	-57.490	0.211	0.093
-592.982	-21.359	-0.320	0.197
-591.967	-200.000	0.040	0.279
-590.952	-200.000	0.007	0.323
-589.938	800.000	-0.076	-0.291
-588.923	-200.000	0.009	0.085
-587.909	-15.043	0.178	-0.115
-586.894	-33.873	0.036	-0.020
-585.879	154.755	0.156	0.217
-584.865	-90.341	0.194	-0.057
-583.850	-51.386	-0.197	0.093
-582.836	36.093	-0.044	-0.039
-581.821	-86.115	-0.208	0.065
-580.806	23.779	0.127	0.105
-579.792	12.315	0.336	-0.261
-578.777	23.350	0.253	0.210
-577.763	130.434	0.119	0.154
-576.748	-93.644	-0.388	0.108
-575.733	55.511	0.094	0.092
-574.719	728.326	0.097	0.262
-573.704	-200.000	-0.017	-0.152
-572.690	-15.430	0.351	0.226
-571.675	212.867	0.081	0.129
-570.661	-200.000	-0.053	-0.278
-569.646	70.233	-0.071	-0.074
-568.631	-101.856	0.328	0.080
-567.617	-41.844	0.236	-0.122
-566.602	-65.476	-0.183	-0.074
-565.588	-4.475	-0.358	-0.249
-564.573	118.765	0.280	0.349
-563.558	27.197	-0.204	-0.172
-562.544	-200.000	0.050	-0.373
-561.529	308.886	-0.126	0.237
-560.515	-200.000	0.026	0.150
-559.500	90.851	0.070	-0.079
-558.485	-129.440	-0.159	-0.022
-557.471	100.969	0.107	-0.125
-556.456	-200.000	0.078	-0.404
-555.442	-25.435	0.462	-0.275
-554.427	-91.251	0.278	-0.080
-553.412	-195.284	0.340	0.003
-552.398	800.000	-0.057	0.219
-551.383	56.717	0.223	-0.219
-550.369	800.000	0.030	-0.129
-549.354	-200.000	-0.006	0.258
-548.339	-62.830	0.208	-0.087
-547.325	303.538	-0.026	0.048
-546.310	-48.273	-0.031	0.015
-545.296	-200.000	-0.018	-0.150
-544.281	-156.468	-0.284	-0.018
-543.266	134.936	0.120	-0.157
-542.252	-200.000	-0.012	-0.474
-541.237	180.040	-0.170	-0.251
-540.223	-86.318	0.354	0.110
-539.208	-200.000	-0.064	-0.295
-538.193	-121.383	-0.255	-0.043
-537.179	-29.534	-0.121	-0.069
-536.164	-200.000	-0.041	-0.428
-535.150	-5.034	-0.158	0.109
-534.135	-75.416	0.282	-0.101
-533.121	-61.584	0.484	0.204
-532.106	304.645	0.095	-0.178
-531.091	776.175	-0.060	0.164
-530.077	-61.215	-0.279	-0.119
-529.062	9.165	-0.144	0.109
-528.048	575.425	0.118	-0.289
-527.033	778.234	0.012	-0.033
-526.018	670.294	0.097	-0.252
-525.004	-44.297	0.199	-0.100
-523.989	702.640	-0.029	0.076
-522.975	-150.579	0.136	0.010
-521.960	298.424	0.076	0.140
-520.945	162.383	-0.127	-0.179
-519.931	128.461	-0.206	0.264
-518.916	142.222	0.213	-0.284
-517.902	-47.885	0.056	0.027
-516.887	47.415	-0.239	-0.224
-515.872	-114.588	-0.361	-0.070
-514.858	46.761	-0.160	0.149
-513.843	-86.019	-0.208	0.065
-512.829	12.076	0.146	0.113
-511.814	0.531	-0.087	0.062
-510.799	9.933	-0.209	-0.159
-509.785	411.499	0.115	-0.245
-508.770	800.000	0.103	0.298
-507.756	-101.114	0.191	-0.047
-506.741	86.861	0.136	0.151
-505.726	-4.240	0.328	-0.228
-504.712	-23.586	-0.286	0.173
-503.697	176.840	-0.159	0.233
-502.683	-167.529	0.275	0.011
-501.668	11.610	0.400	0.308
-500.653	-50.883	0.118	0.056
-499.639	-200.000	0.037	-0.194
-498.624	-60.337	-0.290	0.124
-497.610	-200.000	0.034	-0.310
-496.595	-74.615	0.140	-0.050
-495.581	-200.000	0.019	0.155
-494.566	222.046	-0.182	0.293
-493.551	517.393	0.080	-0.189
-492.537	-77.970	0.378	0.131
-491.522	-60.163	0.309	0.132
-490.508	631.687	-0.125	0.318
-489.493	-117.695	0.150	0.027
-488.478	280.426	-0.098	-0.176
-487.464	534.040	0.059	0.141
-486.449	800.000	-0.059	-0.226
-485.435	-65.871	-0.187	-0.075
-484.420	-69.955	-0.060	-0.023
-483.405	522.234	-0.085	-0.200
-482.391	-133.149	0.315	0.040
-481.376	-12.827	-0.203	0.133
-480.362	-200.000	-0.006	-0.070
-479.347	800.000	-0.018	-0.051
-478.332	-105.001	-0.108	-0.025
-477.318	58.182	-0.276	0.271
-476.303	0.014	-0.037	-0.027
-475.289	114.353	-0.178	0.218
-474.274	92.893	-0.137	-0.155
-473.259	800.000	-0.083	0.331
-472.245	-200.000	-0.036	0.179
-471.230	3.635	-0.150	-0.110
-470.216	52.772	0.193	-0.186
-469.201	800.000	-0.071	-0.217
-468.186	-57.503	0.172	0.076
-467.172	-176.982	0.123	0.003
-466.157	48.338	0.222	-0.209
-465.143	800.000	0.056	-0.194
-464.128	-132.887	0.139	-0.018
-463.113	-200.000	0.017	0.358
-462.099	-120.976	-0.015	0.003
-461.084	-200.000	0.020	-0.397
-460.070	321.072	-0.176	0.337
-459.055	-200.000	-0.016	-0.145
-458.040	-104.727	-0.209	-0.048
-457.026	800.000	-0.042	-0.185
-456.011	-48.819	-0.098	-0.047
-454.997	-59.862	-0.202	-0.087
-453.982	800.000	0.035	0.142
-452.968	-66.171	0.265	-0.106
-451.953	-53.933	-0.151	-0.069
-450.938	-200.000	0.027	0.162
-449.924	327.898	-0.155	-0.299
-448.909	800.000	0.064	-0.192
-447.895	111.866	0.151	0.183
-446.880	-65.835	0.259	0.104
-445.865	-89.796	0.356	-0.105
-444.851	-79.494	-0.172	-0.058
-443.836	24.275	0.206	-0.170
-442.822	1.995	-0.113	0.082
-441.807	156.841	0.059	0.082
-440.792	139.138	-0.155	0.205
-439.778	800.000	0.121	-0.344
-438.763	800.000	-0.175	-0.503
-437.749	98.877	-0.181	0.210
-436.734	800.000	-0.057	0.243
-435.719	-200.000	-0.036	0.239
-434.705	-200.000	0.022	-0.151
-433.690	71.061	-0.151	-0.157
-432.676	-47.776	0.119	0.058
-431.661	-200.000	-0.035	0.229
-430.646	-200.000	-0.019	0.188
-429.632	54.607	-0.075	0.072
-428.617	-200.000	-0.034	-0.328
-427.603	800.000	0.054	-0.226
-426.588	29.050	-0.121	0.103
-425.573	403.676	-0.081	0.171
-424.559	800.000	0.091	-0.269
-423.544	-167.563	-0.460	-0.018
-422.530	-200.000	-0.007	0.221
-421.515	-129.648	-0.340	-0.047
-420.500	53.640	0.084	0.081
-419.486	-140.716	-0.278	-0.029
-418.471	-200.000	-0.057	0.298
-417.457	-30.541	-0.075	0.043
-416.442	-65.401	-0.188	-0.076
-415.428	-25.261	-0.214	0.127
-414.413	-50.332	-0.178	-0.084
-413.398	-200.000	-0.028	-0.157
-412.384	-200.000	-0.013	0.072
-411.369	-88.032	0.518	0.156
-410.355	207.033	0.140	-0.219
-409.340	800.000	-0.024	0.080
-408.325	-17.683	-0.237	-0.149
-407.311	308.598	0.144	0.270
-406.296	-200.000	0.014	0.156
-405.282	263.799	-0.208	0.361
-404.267	800.000	0.059	-0.186
-403.252	472.593	-0.078	-0.176
-402.238	-200.000	0.060	-0.279
-401.223	36.552	0.148	-0.130
-400.209	-200.000	-0.020	0.151
-399.194	-87.565	0.348	-0.105
-398.179	-166.097	-0.171	0.007
-397.165	-32.300	0.310	-0.173
-396.150	126.703	0.285	-0.362
-395.136	-94.396	0.256	-0.070
-394.121	-36.260	-0.181	0.098
-393.106	-200.000	-0.028	0.169
-392.092	-126.295	-0.226	0.034
-391.077	196.748	0.127	-0.193
-390.063	-9.700	-0.076	0.051
-389.048	-89.909	0.313	0.092
-388.033	800.000	-0.038	0.111
-387.019	-77.498	-0.310	0.107
-386.004	-165.006	0.087	0.004
-384.990	-92.842	-0.255	-0.071
-383.975	128.737	-0.127	-0.162
-382.960	-100.122	-0.239	0.059
-381.946	44.885	0.181	0.167
-380.931	-76.028	-0.304	-0.107
-379.917	176.384	0.115	-0.167
-378.902	-81.898	0.210	0.069
-377.888	368.118	0.092	0.187
-376.873	-106.459	-0.178	-0.040
-375.858	-120.316	-0.139	-0.024
-374.844	800.000	0.087	-0.356
-373.829	15.379	0.079	-0.062
-372.815	110.450	0.118	0.142
-371.800	-195.907	-0.167	0.001
-370.785	-56.100	0.308	0.137
-369.771	-30.623	-0.246	0.139
-368.756	139.267	0.048	0.064
-367.742	-104.306	0.355	0.082
-366.727	-68.027	-0.048	0.019
-365.712	-69.405	0.220	-0.084
-364.698	-200.000	0.010	-0.335
-363.683	480.377	-0.181	-0.410
-362.669	53.711	-0.217	0.208
-361.654	-200.000	-0.008	-0.233
-360.639	-39.726	0.049	0.026
-359.625	800.000	-0.105	-0.336
-358.610	363.156	-0.112	0.225
-357.596	-200.000	0.044	0.206
-356.581	126.067	-0.249	-0.315
-355.566	-89.217	0.130	0.038
-354.552	-52.892	0.134	-0.062
-353.537	169.238	0.034	-0.048
-352.523	-47.673	-0.091	-0.044
-351.508	138.014	-0.250	-0.327
-350.493	-81.475	-0.055	-0.018
-349.479	-108.526	-0.288	0.062
-348.464	-173.439	-0.343	-0.010
-347.450	28.855	0.058	-0.049
-346.435	-96.411	-0.210	0.055
-345.420	800.000	-0.028	-0.108
-344.406	777.103	0.045	0.122
-343.391	10.628	0.176	0.134
-342.377	471.441	0.174	-0.391
-341.362	168.551	0.198	0.281
-340.348	-200.000	0.009	0.242
-339.333	-158.770	0.060	-0.003
-338.318	-103.268	0.095	0.022
-337.304	118.794	0.151	-0.187
-336.289	-122.167	-0.172	0.028
-335.275	168.690	-0.226	0.322
-334.260	582.776	-0.043	0.106
-333.245	473.605	0.029	0.064
-332.231	-36.534	0.198	-0.106
-331.216	224.875	0.185	0.299
-330.202	-13.750	-0.294	-0.190
-329.187	-62.837	0.185	-0.077
-328.172	-92.838	-0.508	-0.142
-327.158	800.000	0.041	-0.150
-326.143	172.567	-0.094	0.135
-325.129	-126.495	0.105	-0.016
-324.114	-82.059	-0.172	-0.056
-323.099	-200.000	-0.024	-0.454
-322.085	-40.001	-0.164	0.085
-321.070	-12.506	0.243	-0.158
-320.056	649.381	0.055	-0.140
-319.041	-200.000	0.041	0.209
-318.026	-200.000	0.042	0.405
-317.012	-13.506	0.029	0.019
-315.997	165.741	-0.102	-0.144
-314.983	10.323	0.053	0.040
-313.968	-133.943	0.141	-0.017
-312.953	-151.966	0.067	0.005
-311.939	-61.928	-0.182	0.076
-310.924	-167.792	0.125	-0.005
-309.910	29.484	0.088	0.075
-308.895	-32.011	0.152	0.085
-307.880	20.104	-0.235	-0.189
-306.866	800.000	-0.064	-0.215
-305.851	-142.328	0.172	-0.017
-304.837	436.326	-0.135	0.292
-303.822	-174.365	0.430	0.012
-302.807	34.763	0.263	0.229
-301.793	41.491	0.113	-0.102
-300.778	-200.000	0.025	0.185
-299.764	800.000	0.040	-0.125
-298.749	527.203	-0.158	-0.372
-297.735	-72.486	0.160	-0.059
-296.720	-58.217	0.086	-0.037
-295.705	-24.408	0.057	-0.034
-294.691	-34.480	0.319	-0.174
-293.676	-200.000	-0.044	0.245
-292.662	201.361	0.048	-0.073
-291.647	-118.181	0.182	0.032
-290.632	89.375	0.179	0.199
-289.618	303.072	-0.124	0.230
-288.603	461.361	-0.211	0.468
-287.589	30.252	0.378	-0.322
-286.574	87.999	-0.110	0.122
-285.559	2.253	-0.160	0.116
-284.545	-54.126	0.371	0.168
-283.530	84.211	0.068	0.074
-282.516	-48.742	-0.206	0.098
-281.501	201.443	0.211	-0.324
-280.486	222.829	0.074	-0.119
-279.472	-92.215	0.375	-0.105
-278.457	197.128	-0.182	-0.277
-277.443	-200.000	0.010	0.071
-276.428	-52.082	-0.178	0.082
-275.413	187.266	0.205	0.305
-274.399	-122.089	-0.424	-0.069
-273.384	800.000	-0.045	-0.150
-272.370	-24.940	-0.215	-0.127
-271.355	59.119	0.129	0.127
-270.340	-31.683	0.111	-0.062
-269.326	13.482	0.286	0.221
-268.311	37.543	-0.225	-0.199
-267.297	800.000	-0.081	0.332
-266.282	-200.000	-0.022	-0.137
-265.267	800.000	-0.040	0.171
-264.253	-200.000	0.015	0.132
-263.238	244.317	0.130	-0.218
-262.224	-152.103	-0.014	-0.001
-261.209	-66.677	0.143	0.056
-260.195	-200.000	0.072	0.440
-259.180	800.000	0.040	0.147
-258.165	513.656	0.173	0.403
-257.151	77.715	0.200	-0.212
-256.136	-200.000	-0.012	-0.131
-255.122	31.722	0.350	0.300
-254.107	-200.000	-0.021	0.294
-253.092	800.000	0.072	0.251
-252.078	732.809	-0.029	0.078
-251.063	-101.936	-0.212	-0.051
-250.049	-99.738	-0.265	-0.066
-249.034	112.397	-0.076	0.091
-248.019	-200.000	-0.026	-0.160
-247.005	460.342	0.212	-0.469
-245.990	800.000	0.021	-0.060
-244.976	800.000	-0.113	-0.400
-243.961	-34.733	0.190	0.103
-242.946	800.000	-0.067	0.232
-241.932	-132.891	0.002	-0.000
-240.917	800.000	-0.078	0.230
-239.903	19.307	0.188	0.150
-238.888	-153.256	-0.444	-0.031
-237.873	-109.750	0.078	0.016
-236.859	565.592	0.115	-0.277
-235.844	-54.902	-0.299	-0.134
-234.830	576.162	0.099	-0.242
-233.815	-200.000	-0.035	0.240
-232.800	81.219	-0.062	0.067
-231.786	-200.000	0.001	-0.065
-230.771	-73.583	0.230	0.083
-229.757	-41.266	-0.112	-0.057
-228.742	717.868	-0.025	-0.067
-227.727	-200.000	0.028	-0.250
-226.713	-200.000	0.025	-0.133
-225.698	-118.366	0.503	0.089
-224.684	86.072	-0.264	-0.289
-223.669	234.389	0.069	-0.114
-222.655	80.376	-0.152	0.163
-221.640	-118.470	0.168	0.030
-220.625	-200.000	-0.049	0.331
-219.611	-119.509	0.282	-0.049
-218.596	-19.537	0.193	0.119
-217.582	192.238	0.165	0.248
-216.567	-162.139	-0.163	-0.008
-215.552	281.973	0.146	0.261
-214.538	9.064	0.121	-0.091
-213.523	8.439	-0.128	-0.095
-212.509	-23.033	0.189	-0.113
-211.494	-75.568	-0.055	-0.019
-210.479	26.414	0.070	0.059
-209.465	-47.770	0.080	0.039
-208.450	-200.000	-0.021	-0.365
-207.436	-200.000	-0.023	0.169
-206.421	650.609	-0.109	0.277
-205.406	-200.000	0.028	0.211
-204.392	-82.695	0.085	-0.027
-203.377	83.028	0.216	0.233
-202.363	-9.069	0.125	-0.083
-201.348	382.153	-0.102	0.208
-200.333	235.145	-0.019	-0.031
-199.319	-200.000	-0.002	0.349
-198.304	-37.283	0.246	0.130
-197.290	-106.786	-0.080	-0.018
-196.275	155.271	0.079	-0.108
-195.260	-103.296	0.246	0.058
-194.246	-200.000	-0.021	0.152
-193.231	216.072	-0.121	0.191
-192.217	800.000	0.039	0.125
-191.202	-122.093	-0.183	0.030
-190.187	353.238	-0.088	-0.173
-189.173	210.169	-0.105	0.163
-188.158	102.095	0.043	0.049
-187.144	317.285	-0.075	0.140
-186.129	-17.261	-0.137	0.086
-185.114	18.115	0.154	0.122
-184.100	800.000	-0.091	0.296
-183.085	-200.000	0.043	0.195
-182.071	436.343	-0.064	0.139
-181.056	-200.000	0.083	0.491
-180.042	-49.828	-0.033	0.016
-179.027	194.329	0.278	-0.419
-178.012	-4.140	0.092	0.063
-176.998	306.688	0.038	0.070
-175.983	-186.670	0.178	-0.002
-174.969	118.697	-0.007	0.008
-173.954	-141.496	-0.056	-0.006
-172.939	47.949	0.108	0.100
-171.925	-200.000	0.043	-0.227
-170.910	118.766	0.109	0.134
-169.896	73.120	-0.150	-0.156
-168.881	18.350	-0.144	0.114
-167.866	229.185	0.113	-0.182
-166.852	718.415	0.027	0.072
-165.837	-17.942	0.189	0.117
-164.823	530.287	-0.095	-0.222
-163.808	-163.205	-0.196	-0.009
-162.793	-200.000	0.014	0.386
-161.779	800.000	-0.037	0.146
-160.764	-148.944	-0.409	0.033
-159.750	-60.758	-0.134	-0.056
-158.735	196.492	0.175	0.265
-157.720	36.475	-0.164	0.143
-156.706	-200.000	0.006	0.099
-155.691	49.644	-0.117	0.109
-154.677	-114.021	-0.053	-0.010
-153.662	483.447	0.160	0.361
-152.647	-189.864	0.027	-0.000
-151.633	-159.755	0.158	0.009
-150.618	800.000	0.079	-0.298
-149.604	-28.103	-0.136	0.078
-148.589	-2.127	-0.115	-0.080
-147.574	121.619	-0.071	0.087
-146.560	29.188	0.086	-0.072
-145.545	90.765	0.134	0.149
-144.531	271.666	0.037	0.064
-143.516	-60.453	-0.243	-0.102
-142.502	-13.314	-0.042	-0.027
-141.487	-49.835	0.313	0.147
-140.472	62.700	-0.192	-0.190
-139.458	583.392	0.063	0.154
-138.443	53.358	-0.209	0.199
-137.429	382.613	-0.172	0.351
-136.414	165.635	0.219	0.306
-135.399	-200.000	-0.031	-0.264
-134.385	241.935	-0.204	-0.338
-133.370	-200.000	-0.022	0.183
-132.356	-14.947	-0.154	0.098
-131.341	-41.149	-0.141	-0.072
-130.326	-186.536	-0.263	-0.004
-129.312	712.634	0.083	-0.217
-128.297	800.000	0.033	-0.121
-127.283	-22.548	0.037	-0.022
-126.268	-200.000	0.001	-0.007
-125.253	-138.016	0.396	0.044
-124.239	-67.516	-0.239	-0.093
-123.224	-128.892	-0.145	0.020
-122.210	127.097	-0.129	0.163
-121.195	-95.509	0.311	-0.083
