DTS Sentinel unit serial number:	SN413079Multiplexer serial number:	ORYXHardware model number:	OX4-SRSoftware version number:	ORYX F/W v4.00 Oryx Data Collector v3.7.2.0data status	okinstallation	princeton_trtdifferential loss correction	single-endedforward channel	channel 1reverse channel	N/Adate	2019/09/10time	20:52:11forward acquisition time	60.00reverse acquisition time	0.00gamma	496.2192k internal	0.2328k external	0.2328temperature offset calibration	0.9930default loss term (dB/km)	0.3790temperature slope calibration	1.0000multiplexer offset coefficient	1.0000multiplexer slope coefficient	1.0000fibre end	0.00T internal ref (°C)	31.73T ext. ref 1 (°C)	-0.32T ext. ref 2 (°C)	25.30length (m)	temperature (°C)	Stokes	anti-Stokes-747.200	-115.255	0.026	-0.005
-746.185	-200.000	0.030	-0.151
-745.171	-58.419	0.104	-0.046
-744.156	336.390	-0.120	0.236
-743.142	-132.465	0.176	0.023
-742.127	176.900	-0.055	0.081
-741.112	52.840	-0.155	-0.149
-740.098	96.882	0.093	0.107
-739.083	588.098	0.221	0.549
-738.069	-74.302	-0.372	-0.135
-737.054	-200.000	-0.020	-0.314
-736.039	-200.000	-0.045	0.368
-735.025	-200.000	0.080	0.522
-734.010	108.413	0.140	0.168
-732.996	33.407	-0.326	0.285
-731.981	800.000	0.040	0.169
-730.966	-58.756	-0.255	-0.111
-729.952	-200.000	-0.026	0.168
-728.937	800.000	0.030	-0.095
-727.923	159.217	-0.050	0.070
-726.908	65.185	-0.083	-0.084
-725.894	246.809	0.017	-0.028
-724.879	-200.000	0.026	-0.155
-723.864	44.491	0.135	0.125
-722.850	299.033	0.131	0.242
-721.835	-80.997	-0.098	0.033
-720.821	-24.615	-0.341	0.204
-719.806	-44.706	-0.267	-0.134
-718.791	-52.222	-0.185	0.086
-717.777	56.827	-0.158	-0.155
-716.762	194.215	0.222	-0.338
-715.748	389.715	0.123	0.257
-714.733	-95.309	0.070	0.019
-713.718	-154.674	-0.182	0.012
-712.704	220.266	-0.156	-0.252
-711.689	32.439	0.095	-0.082
-710.675	-18.994	-0.347	-0.217
-709.660	-125.439	0.161	0.025
-708.645	201.416	-0.103	0.160
-707.631	-200.000	0.015	0.092
-706.616	96.791	0.257	-0.297
-705.602	291.922	-0.083	0.152
-704.587	-45.050	0.241	0.121
-703.572	-61.529	-0.072	0.030
-702.558	108.471	-0.176	-0.211
-701.543	-38.448	0.277	-0.147
-700.529	-166.143	-0.216	-0.009
-699.514	16.639	-0.260	0.207
-698.499	800.000	0.005	-0.016
-697.485	-43.080	0.073	-0.037
-696.470	-140.430	-0.315	-0.033
-695.456	47.001	-0.050	0.047
-694.441	10.468	-0.095	-0.073
-693.426	-117.995	-0.235	-0.042
-692.412	-94.478	0.114	-0.031
-691.397	800.000	0.043	-0.146
-690.383	-4.747	-0.235	0.163
-689.368	379.858	0.111	0.230
-688.354	-42.340	-0.202	-0.104
-687.339	-200.000	0.004	0.114
-686.324	800.000	-0.078	-0.304
-685.310	404.341	0.126	-0.266
-684.295	133.160	-0.070	0.091
-683.281	115.633	-0.285	0.351
-682.266	42.684	-0.254	0.233
-681.251	328.041	-0.136	-0.262
-680.237	-200.000	-0.000	0.008
-679.222	-8.187	-0.216	0.146
-678.208	-200.000	-0.040	0.215
-677.193	-5.477	-0.363	0.250
-676.178	195.629	-0.224	-0.342
-675.164	-145.521	-0.153	-0.014
-674.149	-45.459	0.195	-0.097
-673.135	-74.198	0.157	-0.057
-672.120	131.867	0.062	-0.080
-671.105	141.089	0.043	0.058
-670.091	800.000	-0.112	-0.485
-669.076	-200.000	0.075	-0.367
-668.062	-96.400	0.215	0.057
-667.047	-163.085	0.150	-0.007
-666.032	-8.959	-0.056	-0.038
-665.018	458.553	-0.056	0.124
-664.003	-200.000	0.020	0.102
-662.989	16.873	0.177	-0.140
-661.974	-104.805	-0.198	0.046
-660.959	800.000	-0.089	0.338
-659.945	150.979	0.193	-0.263
-658.930	-109.449	-0.155	0.033
-657.916	-135.800	0.104	-0.012
-656.901	98.935	0.072	-0.084
-655.886	76.696	0.155	-0.165
-654.872	-155.300	0.287	0.019
-653.857	-155.259	-0.182	0.012
-652.843	649.048	0.067	-0.171
-651.828	75.762	0.246	-0.261
-650.814	172.713	0.042	-0.061
-649.799	-177.971	0.217	-0.005
-648.784	-42.450	0.235	0.120
-647.770	247.176	-0.088	-0.149
-646.755	-122.247	0.090	0.015
-645.741	56.942	-0.225	0.220
-644.726	-137.931	-0.087	-0.010
-643.711	347.982	-0.034	-0.068
-642.697	-123.340	-0.356	0.057
-641.682	800.000	0.095	0.311
-640.668	-200.000	-0.005	-0.087
-639.653	-56.575	0.347	-0.154
-638.638	-84.335	-0.322	0.102
-637.624	-61.368	-0.141	-0.060
-636.609	154.556	0.075	0.104
-635.595	800.000	0.039	-0.117
-634.580	800.000	-0.105	-0.405
-633.565	-20.427	0.318	-0.196
-632.551	-129.998	0.386	-0.053
-631.536	-200.000	0.010	0.076
-630.522	-200.000	-0.021	0.169
-629.507	-37.658	0.119	0.063
-628.492	800.000	-0.015	-0.049
-627.478	71.518	0.150	0.156
-626.463	-88.763	0.196	0.059
-625.449	800.000	0.046	0.128
-624.434	-177.419	0.145	-0.004
-623.419	-200.000	-0.051	-0.480
-622.405	-200.000	0.014	-0.078
-621.390	510.142	0.049	-0.115
-620.376	-36.435	-0.278	-0.150
-619.361	-200.000	-0.018	-0.213
-618.346	42.365	-0.153	-0.139
-617.332	-200.000	0.022	0.335
-616.317	-61.929	-0.110	0.046
-615.303	5.276	0.018	-0.013
-614.288	-68.400	0.162	-0.063
-613.273	-64.224	-0.292	-0.119
-612.259	-91.304	0.107	0.031
-611.244	-200.000	-0.078	-0.357
-610.230	90.437	-0.170	-0.190
-609.215	397.265	0.056	0.118
-608.201	42.216	-0.264	0.240
-607.186	-200.000	-0.058	-0.282
-606.171	-78.305	0.235	0.081
-605.157	-200.000	-0.124	0.000
-604.142	800.000	0.035	-0.098
-603.128	247.733	0.117	-0.198
-602.113	-80.163	0.188	-0.063
-601.098	800.000	0.061	-0.206
-600.084	800.000	-0.034	0.135
-599.069	89.033	-0.041	-0.046
-598.055	-110.412	0.330	-0.069
-597.040	-118.509	-0.240	-0.043
-596.025	-200.000	0.026	0.256
-595.011	237.160	0.090	0.150
-593.996	-31.471	0.158	0.089
-592.982	-200.000	-0.027	0.184
-591.967	-108.401	-0.062	-0.013
-590.952	13.807	-0.073	-0.056
-589.938	-20.775	0.269	0.166
-588.923	-65.313	-0.781	-0.315
-587.909	-22.727	-0.422	0.255
-586.894	-166.508	0.096	-0.004
-585.879	-84.111	0.145	0.046
-584.865	15.467	0.284	0.223
-583.850	-135.380	-0.201	0.024
-582.836	152.729	0.131	0.180
-581.821	-104.075	-0.338	0.079
-580.806	800.000	-0.067	-0.294
-579.792	78.695	-0.167	0.178
-578.777	-120.997	-0.162	-0.027
-577.763	213.384	0.033	-0.052
-576.748	-21.937	0.454	-0.276
-575.733	11.485	-0.075	0.057
-574.719	33.407	-0.034	0.030
-573.704	-24.112	0.401	0.240
-572.690	-111.661	-0.207	0.042
-571.675	120.551	0.098	0.122
-570.661	788.258	0.138	-0.379
-569.646	-38.039	0.274	0.146
-568.631	-200.000	0.042	0.195
-567.617	800.000	-0.031	-0.129
-566.602	434.319	-0.049	0.108
-565.588	111.493	-0.015	-0.018
-564.573	295.196	0.151	0.277
-563.558	-76.398	0.185	0.065
-562.544	800.000	-0.034	0.108
-561.529	55.008	-0.149	-0.144
-560.515	-200.000	0.027	0.127
-559.500	-200.000	-0.000	0.156
-558.485	800.000	0.051	0.189
-557.471	-200.000	-0.407	-0.001
-556.456	174.938	-0.116	0.168
-555.442	352.504	0.065	0.129
-554.427	800.000	0.101	-0.288
-553.412	-27.229	0.248	-0.144
-552.398	-36.925	-0.335	-0.180
-551.383	-27.415	0.227	-0.132
-550.369	261.265	-0.132	-0.229
-549.354	-43.645	-0.196	-0.099
-548.339	264.458	0.082	0.143
-547.325	-164.739	0.254	0.011
-546.310	-14.544	0.099	0.063
-545.296	-200.000	-0.002	0.164
-544.281	47.359	-0.043	-0.040
-543.266	-200.000	-0.011	-0.647
-542.252	-106.668	0.320	-0.071
-541.237	-119.290	-0.233	-0.041
-540.223	86.048	0.040	0.044
-539.208	412.780	-0.127	0.270
-538.193	-79.315	0.188	-0.064
-537.179	800.000	0.040	0.154
-536.164	179.954	-0.114	0.167
-535.150	278.274	0.202	-0.360
-534.135	156.657	0.085	-0.118
-533.121	65.590	-0.127	0.128
-532.106	-44.832	-0.391	-0.195
-531.091	225.813	0.077	0.125
-530.077	-104.109	-0.149	-0.035
-529.062	-42.037	-0.195	-0.100
-528.048	-54.186	0.220	-0.100
-527.033	202.930	-0.077	-0.119
-526.018	76.111	0.142	-0.151
-525.004	-92.678	-0.165	-0.046
-523.989	-88.703	-0.425	-0.126
-522.975	82.292	0.108	0.117
-521.960	49.044	0.128	-0.120
-520.945	26.242	0.093	0.077
-519.931	236.393	0.061	-0.101
-518.916	-200.000	0.000	-0.021
-517.902	-200.000	-0.038	0.169
-516.887	149.972	0.047	-0.063
-515.872	-127.732	-0.185	0.027
-514.858	188.029	-0.096	-0.143
-513.843	-200.000	-0.077	0.368
-512.829	389.668	0.078	-0.161
-511.814	-59.452	-0.117	-0.050
-510.799	-71.299	0.114	0.043
-509.785	-144.821	-0.206	-0.019
-508.770	131.853	-0.124	-0.159
-507.756	9.313	-0.235	0.177
-506.741	-14.029	0.057	0.037
-505.726	-200.000	-0.031	-0.304
-504.712	-200.000	-0.020	-0.220
-503.697	800.000	0.090	-0.251
-502.683	-200.000	-0.130	-0.580
-501.668	11.636	-0.207	-0.158
-500.653	-200.000	0.010	0.275
-499.639	-36.465	-0.205	-0.110
-498.624	-53.900	-0.307	-0.140
-497.610	391.925	-0.133	-0.276
-496.595	-200.000	-0.006	-0.093
-495.581	-200.000	0.020	-0.224
-494.566	800.000	0.084	0.282
-493.551	-87.665	-0.097	-0.029
-492.537	-200.000	-0.002	0.251
-491.522	-134.005	0.054	-0.007
-490.508	-200.000	0.045	-0.339
-489.493	-41.474	0.388	-0.199
-488.478	-80.793	-0.095	-0.031
-487.464	-151.637	-0.030	0.002
-486.449	65.228	-0.108	-0.109
-485.435	-200.000	0.033	0.205
-484.420	139.580	-0.082	0.108
-483.405	-150.326	0.160	-0.012
-482.391	399.949	0.105	-0.220
-481.376	52.916	0.081	-0.077
-480.362	-200.000	-0.189	0.001
-479.347	-83.876	-0.211	-0.067
-478.332	-200.000	0.067	0.370
-477.318	800.000	0.094	0.290
-476.303	31.036	0.345	-0.295
-475.289	-200.000	-0.033	0.260
-474.274	583.014	0.052	-0.128
-473.259	-165.997	-0.140	0.006
-472.245	-94.675	-0.242	0.066
-471.230	566.827	-0.038	-0.092
-470.216	-200.000	0.027	0.138
-469.201	20.578	-0.225	0.181
-468.186	-5.818	-0.304	-0.207
-467.172	-200.000	-0.042	-0.361
-466.157	-79.159	-0.370	0.125
-465.143	243.112	0.121	-0.203
-464.128	273.567	-0.082	0.145
-463.113	123.232	-0.096	-0.119
-462.099	-43.213	0.287	-0.145
-461.084	-112.438	-0.145	-0.029
-460.070	-38.851	0.170	-0.089
-459.055	-41.284	-0.304	-0.156
-458.040	800.000	-0.041	0.116
-457.026	-118.776	0.173	0.030
-456.011	-200.000	-0.029	-0.149
-454.997	-200.000	-0.005	-0.030
-453.982	800.000	0.123	-0.389
-452.968	103.796	0.122	0.143
-451.953	615.938	-0.111	-0.278
-450.938	14.766	0.207	0.161
-449.924	800.000	-0.025	-0.107
-448.909	155.415	0.046	-0.063
-447.895	188.143	-0.112	-0.167
-446.880	-200.000	-0.077	-0.430
-445.865	128.506	-0.165	0.210
-444.851	194.201	-0.161	-0.243
-443.836	118.079	0.073	-0.090
-442.822	451.617	0.052	-0.114
-441.807	800.000	0.068	-0.279
-440.792	-28.646	0.186	-0.107
-439.778	-39.664	0.145	0.075
-438.763	-55.220	0.014	-0.006
-437.749	245.960	0.125	0.210
-436.734	-200.000	0.012	0.120
-435.719	26.250	-0.113	0.094
-434.705	-200.000	0.018	0.101
-433.690	-200.000	-0.028	-0.233
-432.676	106.484	-0.109	-0.128
-431.661	800.000	-0.044	0.135
-430.646	-156.033	0.186	-0.012
-429.632	192.494	-0.022	0.033
-428.617	-109.873	0.112	0.023
-427.603	362.053	0.157	-0.314
-426.588	-60.768	0.331	-0.139
-425.573	-26.750	-0.080	-0.047
-424.559	34.042	-0.288	0.250
-423.544	-45.535	-0.341	-0.168
-422.530	593.311	-0.163	-0.402
-421.515	153.915	0.201	0.274
-420.500	-3.474	0.015	0.011
-419.486	-150.307	-0.273	-0.021
-418.471	-85.828	-0.475	0.146
-417.457	-52.622	0.094	-0.043
-416.442	648.932	0.048	-0.121
-415.428	-126.120	0.265	-0.040
-414.413	-83.495	0.320	0.102
-413.398	219.238	-0.228	-0.363
-412.384	-68.318	0.098	-0.038
-411.369	237.125	-0.127	0.210
-410.355	105.225	0.095	-0.111
-409.340	-200.000	0.007	-0.540
-408.325	128.597	0.064	-0.082
-407.311	366.035	0.046	-0.093
-406.296	-200.000	0.020	0.242
-405.282	-118.172	0.240	-0.042
-404.267	-200.000	0.001	0.133
-403.252	33.336	0.052	-0.045
-402.238	53.090	-0.086	0.082
-401.223	170.103	0.120	0.171
-400.209	-200.000	0.001	0.138
-399.194	-24.713	0.420	-0.248
-398.179	90.941	0.057	-0.063
-397.165	-200.000	-0.043	-0.302
-396.150	49.590	0.242	0.226
-395.136	-122.865	0.185	-0.030
-394.121	-200.000	-0.022	-0.218
-393.106	24.375	-0.169	-0.139
-392.092	28.927	-0.074	0.062
-391.077	-20.675	0.160	-0.097
-390.063	-20.552	0.229	0.140
-389.048	35.934	0.161	0.141
-388.033	228.127	0.154	-0.249
-387.019	800.000	-0.014	0.047
-386.004	256.236	-0.100	0.171
-384.990	-200.000	0.018	0.083
-383.975	516.342	0.067	-0.155
-382.960	-51.056	-0.188	-0.088
-381.946	-89.629	0.298	0.087
-380.931	361.179	-0.042	-0.083
-379.917	28.472	0.429	-0.360
-378.902	-187.844	-0.115	0.001
-377.888	-194.688	-0.229	0.002
-376.873	-200.000	-0.043	0.198
-375.858	-200.000	-0.004	-0.182
-374.844	565.643	-0.148	-0.356
-373.829	33.220	-0.206	0.177
-372.815	-118.790	-0.180	-0.031
-371.800	646.351	0.089	-0.225
-370.785	301.615	0.127	-0.232
-369.771	-84.879	-0.261	-0.081
-368.756	-155.304	-0.288	0.019
-367.742	-200.000	-0.005	0.095
-366.727	81.104	-0.126	-0.135
-365.712	-42.442	-0.177	0.090
-364.698	-200.000	0.091	0.453
-363.683	-99.869	-0.102	0.025
-362.669	-4.823	0.141	0.096
-361.654	286.791	0.133	0.238
-360.639	708.472	-0.109	0.287
-359.625	110.218	0.153	0.183
-358.610	105.708	-0.152	0.179
-357.596	32.911	-0.047	0.040
-356.581	-42.343	0.065	-0.033
-355.566	32.051	0.151	-0.129
-354.552	-182.909	-0.125	0.002
-353.537	-200.000	0.029	-0.161
-352.523	196.709	-0.155	-0.234
-351.508	-54.606	-0.135	-0.061
-350.493	-200.000	-0.001	-0.030
-349.479	-200.000	0.024	0.218
-348.464	25.559	0.129	0.106
-347.450	686.059	-0.132	0.341
-346.435	-200.000	-0.017	0.098
-345.420	-200.000	-0.030	0.282
-344.406	-200.000	-0.064	0.464
-343.391	-95.042	0.389	-0.104
-342.377	43.935	-0.140	0.127
-341.362	22.322	-0.142	0.115
-340.348	-121.143	-0.205	0.034
-339.333	6.203	0.300	-0.220
-338.318	-172.893	0.256	0.008
-337.304	-153.446	0.089	0.006
-336.289	-200.000	-0.016	0.107
-335.275	343.066	0.239	0.464
-334.260	44.734	0.119	0.108
-333.245	-86.451	-0.306	0.093
-332.231	109.603	0.255	0.303
-331.216	347.644	-0.175	-0.343
-330.202	-155.555	0.126	-0.008
-329.187	16.243	-0.104	-0.082
-328.172	-55.495	0.018	-0.008
-327.158	-40.284	0.279	0.144
-326.143	-42.290	0.188	0.095
-325.129	249.427	-0.196	-0.330
-324.114	800.000	0.048	0.155
-323.099	-0.868	0.128	0.090
-322.085	-200.000	0.015	-0.090
-321.070	-200.000	-0.074	0.467
-320.056	148.117	0.090	-0.121
-319.041	-200.000	0.003	0.262
-318.026	-5.576	0.165	-0.112
-317.012	-31.070	-0.060	-0.034
-315.997	96.951	0.265	-0.301
-314.983	-55.487	-0.325	0.144
-313.968	766.767	-0.088	-0.237
-312.953	800.000	0.073	0.237
-311.939	22.877	0.123	0.100
-310.924	-91.266	0.141	0.040
-309.910	-75.662	0.567	0.199
-308.895	265.734	-0.053	0.092
-307.880	-200.000	-0.029	-0.413
-306.866	-24.660	0.019	0.011
-305.851	800.000	-0.030	-0.107
-304.837	24.129	0.051	0.041
-303.822	-200.000	-0.014	-0.097
-302.807	-200.000	0.024	-0.113
-301.793	-200.000	-0.058	0.271
-300.778	-20.742	0.034	-0.021
-299.764	-200.000	-0.007	0.064
-298.749	200.350	-0.160	0.243
-297.735	-200.000	-0.004	0.027
-296.720	-31.343	0.267	0.149
-295.705	720.075	-0.116	-0.306
-294.691	64.677	-0.323	0.323
-293.676	341.094	0.163	0.316
-292.662	-200.000	0.051	0.351
-291.647	-200.000	-0.017	0.276
-290.632	-200.000	0.009	0.248
-289.618	166.274	-0.062	-0.087
-288.603	-100.609	0.148	-0.036
-287.589	-61.307	0.201	0.084
-286.574	-54.827	-0.162	-0.072
-285.559	-133.238	0.273	0.034
-284.545	153.196	-0.221	0.299
-283.530	23.200	-0.229	0.186
-282.516	-35.620	-0.264	0.142
-281.501	-200.000	-0.020	0.295
-280.486	-200.000	0.112	-0.526
-279.472	-101.548	-0.200	0.048
-278.457	-200.000	-0.056	0.261
-277.443	-200.000	-0.020	0.166
-276.428	800.000	-0.080	0.267
-275.413	237.283	0.144	0.236
-274.399	162.489	0.109	-0.152
-273.384	195.662	0.168	-0.252
-272.370	800.000	-0.014	-0.043
-271.355	-76.960	0.348	-0.120
-270.340	800.000	-0.062	-0.224
-269.326	118.026	0.138	0.168
-268.311	-200.000	0.021	0.137
-267.297	-98.036	-0.133	-0.034
-266.282	800.000	0.063	-0.179
-265.267	-136.574	0.096	0.011
-264.253	-130.813	-0.167	-0.022
-263.238	130.988	-0.076	0.096
-262.224	800.000	-0.114	0.311
-261.209	75.136	0.206	0.215
-260.195	140.184	-0.165	-0.215
-259.180	-117.423	-0.195	-0.035
-258.165	71.843	-0.233	0.239
-257.151	300.064	0.051	-0.092
-256.136	800.000	0.042	0.176
-255.122	187.648	-0.117	0.172
-254.107	-34.702	0.117	-0.063
-253.092	65.791	-0.101	0.101
-252.078	634.566	-0.063	-0.157
-251.063	136.981	-0.094	-0.121
-250.049	-36.834	0.329	-0.175
-249.034	168.728	-0.222	-0.312
-248.019	667.393	-0.024	-0.062
-247.005	-116.237	0.105	-0.019
-245.990	186.043	-0.271	0.398
-244.976	-76.830	0.230	-0.080
-243.961	-81.323	-0.165	0.054
-242.946	-200.000	-0.021	0.169
-241.932	78.891	0.181	0.191
-240.917	-55.132	0.160	0.071
-239.903	-105.874	-0.131	0.029
-238.888	-200.000	0.066	0.370
-237.873	168.434	-0.110	0.154
-236.859	-200.000	-0.053	-0.250
-235.844	-2.951	-0.023	-0.016
-234.830	-46.638	-0.106	-0.051
-233.815	-72.534	-0.198	0.072
-232.800	-49.377	-0.183	0.086
-231.786	570.079	-0.038	0.091
-230.771	-9.100	-0.250	-0.166
-229.757	171.019	0.237	-0.335
-228.742	189.044	-0.054	0.079
-227.727	102.114	-0.252	-0.291
-226.713	178.364	0.109	-0.157
-225.698	194.308	-0.135	-0.202
-224.684	-200.000	-0.017	0.204
-223.669	208.017	0.140	0.215
-222.655	-162.418	-0.270	0.013
-221.640	-169.454	0.082	-0.003
-220.625	165.683	0.085	0.119
-219.611	110.631	-0.171	-0.204
-218.596	-200.000	-0.046	0.343
-217.582	-200.000	-0.009	0.194
-216.567	68.275	-0.110	0.111
-215.552	423.573	-0.123	0.262
-214.538	-30.610	-0.239	0.134
-213.523	-30.894	0.048	0.027
-212.509	-65.894	0.211	-0.083
-211.494	-200.000	-0.007	-0.232
-210.479	35.778	-0.131	-0.114
-209.465	-200.000	-0.013	-0.152
-208.450	32.903	0.052	-0.045
-207.436	-40.724	-0.205	0.105
-206.421	-13.057	-0.050	-0.032
-205.406	13.106	0.253	0.194
-204.392	308.929	-0.103	0.189
-203.377	-71.034	0.220	0.082
-202.363	-126.052	-0.294	0.044
-201.348	173.578	-0.090	-0.128
-200.333	-200.000	-0.028	0.202
-199.319	83.267	0.240	-0.258
-198.304	800.000	0.089	0.264
-197.290	190.638	-0.200	0.296
-196.275	59.649	-0.059	0.058
-195.260	-200.000	0.036	0.192
-194.246	-200.000	-0.003	0.256
-193.231	-82.446	0.308	-0.099
-192.217	-45.089	-0.358	-0.176
-191.202	159.479	0.014	0.019
-190.187	21.373	-0.043	0.035
-189.173	441.509	-0.090	0.193
-188.158	-200.000	-0.089	0.413
-187.144	-115.460	-0.252	-0.047
-186.129	6.193	0.102	0.074
-185.114	-147.622	0.219	-0.018
-184.100	-106.526	0.245	-0.054
-183.085	-139.196	0.425	-0.045
-182.071	469.324	-0.014	0.032
-181.056	685.253	0.127	0.327
-180.042	169.818	0.081	-0.115
-179.027	-200.000	-0.038	-0.518
-178.012	-32.424	-0.247	-0.136
-176.998	-10.276	0.101	0.066
-175.983	-200.000	-0.065	-0.328
-174.969	78.347	0.062	-0.066
-173.954	285.223	0.028	-0.050
-172.939	77.685	0.342	0.359
-171.925	214.779	0.158	0.247
-170.910	24.181	-0.212	0.173
-169.896	-87.494	0.095	-0.028
-168.881	69.715	0.327	-0.332
-167.866	21.059	-0.039	0.031
-166.852	-96.909	0.220	0.057
-165.837	38.388	-0.177	-0.156
-164.823	800.000	0.028	-0.119
-163.808	800.000	0.052	-0.165
-162.793	-147.976	-0.073	-0.006
-161.779	-200.000	-0.002	-0.025
-160.764	-83.739	0.075	0.024
-159.750	217.826	-0.105	-0.164
-158.735	-52.572	-0.175	-0.080
-157.720	800.000	-0.039	-0.134
-156.706	107.997	0.069	-0.081
-155.691	-148.924	0.269	0.021
-154.677	178.729	0.045	0.065
-153.662	-200.000	-0.021	0.204
-152.647	800.000	0.088	0.305
-151.633	-109.208	0.244	-0.051
-150.618	-21.331	0.042	-0.026
-149.604	25.801	0.061	-0.050
-148.589	359.822	0.152	0.298
-147.574	-200.000	-0.065	0.300
-146.560	72.607	-0.055	-0.057
-145.545	-200.000	0.000	-0.153
-144.531	266.716	-0.058	0.100
-143.516	800.000	-0.055	-0.227
-142.502	800.000	-0.081	0.331
-141.487	-200.000	-0.016	0.334
-140.472	96.150	0.278	0.313
-139.458	-105.045	0.100	-0.022
-138.443	464.564	-0.006	-0.013
-137.429	489.758	0.128	-0.287
-136.414	-115.824	-0.156	0.029
-135.399	-50.695	0.061	-0.028
-134.385	73.812	0.222	0.229
-133.370	23.270	0.162	0.131
-132.356	63.284	-0.390	-0.385
-131.341	149.523	0.062	-0.083
-130.326	800.000	-0.027	-0.095
-129.312	606.506	-0.052	-0.129
-128.297	-136.116	0.192	-0.022
-127.283	197.377	0.242	-0.363
-126.268	5.756	0.291	0.212
-125.253	-36.371	0.371	-0.196
-124.239	13.107	0.320	-0.244
-123.224	-59.348	0.255	-0.108
-122.210	253.210	0.024	-0.040
