DTS Sentinel unit serial number:	SN413079Multiplexer serial number:	ORYXHardware model number:	OX4-SRSoftware version number:	ORYX F/W v4.00 Oryx Data Collector v3.7.2.0data status	okinstallation	princeton_trtdifferential loss correction	single-endedforward channel	channel 1reverse channel	N/Adate	2019/09/10time	16:00:11forward acquisition time	60.00reverse acquisition time	0.00gamma	496.2192k internal	0.2298k external	0.2298temperature offset calibration	0.9917default loss term (dB/km)	0.3790temperature slope calibration	1.0000multiplexer offset coefficient	1.0000multiplexer slope coefficient	1.0000fibre end	0.00T internal ref (°C)	38.20T ext. ref 1 (°C)	-0.26T ext. ref 2 (°C)	32.06length (m)	temperature (°C)	Stokes	anti-Stokes-747.200	-9.133	0.193	0.132
-746.185	64.204	0.033	-0.034
-745.171	800.000	0.107	-0.307
-744.156	-180.299	0.146	0.003
-743.142	800.000	0.029	-0.110
-742.127	481.398	0.151	0.350
-741.112	-109.936	0.112	0.024
-740.098	-17.499	-0.412	0.265
-739.083	71.301	0.248	-0.262
-738.069	168.133	0.122	0.178
-737.054	18.439	-0.225	0.183
-736.039	-200.000	0.031	0.173
-735.025	-200.000	-0.054	-0.247
-734.010	-91.164	0.380	0.111
-732.996	-63.709	-0.145	-0.061
-731.981	715.858	0.113	0.305
-730.966	103.739	-0.105	0.125
-729.952	78.914	-0.087	0.095
-728.937	-39.079	-0.057	-0.031
-727.923	55.088	-0.190	-0.188
-726.908	58.604	-0.216	-0.217
-725.894	-165.432	-0.422	-0.019
-724.879	-200.000	0.016	0.197
-723.864	800.000	0.122	0.345
-722.850	-153.104	-0.400	-0.029
-721.835	-100.026	0.209	0.053
-720.821	-200.000	-0.042	-0.285
-719.806	-200.000	0.006	-0.115
-718.791	76.054	-0.281	0.304
-717.777	-35.237	-0.049	-0.027
-716.762	800.000	-0.072	0.214
-715.748	800.000	0.081	-0.239
-714.733	-100.247	0.335	0.085
-713.718	269.427	0.068	-0.121
-712.704	122.301	0.129	0.165
-711.689	-200.000	-0.044	-0.214
-710.675	-92.450	0.284	0.082
-709.660	-63.780	-0.164	0.068
-708.645	52.936	-0.236	0.230
-707.631	101.897	0.153	-0.182
-706.616	733.028	0.094	-0.255
-705.602	780.101	-0.094	-0.261
-704.587	298.885	0.083	-0.155
-703.572	-35.513	-0.279	0.155
-702.558	46.181	0.201	-0.190
-701.543	-117.764	-0.147	0.027
-700.529	13.767	0.097	-0.077
-699.514	-110.616	0.227	-0.048
-698.499	-52.652	-0.020	-0.009
-697.485	-172.830	0.089	-0.003
-696.470	75.295	0.234	0.251
-695.456	225.706	-0.244	0.403
-694.441	-200.000	0.036	-0.211
-693.426	145.545	-0.152	0.208
-692.412	-71.448	0.061	0.023
-691.397	-200.000	-0.047	0.216
-690.383	-114.255	-0.199	-0.039
-689.368	-166.402	0.170	0.007
-688.354	40.295	0.114	0.105
-687.339	-75.927	0.197	0.071
-686.324	19.913	0.071	0.058
-685.310	-70.206	0.150	-0.058
-684.295	-200.000	0.028	-0.168
-683.281	-200.000	-0.005	-0.304
-682.266	-200.000	0.036	0.259
-681.251	112.774	-0.211	-0.260
-680.237	-37.352	-0.262	0.142
-679.222	714.382	0.071	0.191
-678.208	2.440	0.057	0.042
-677.193	-200.000	0.011	-0.153
-676.178	-91.415	-0.357	-0.104
-675.164	-35.059	0.131	-0.073
-674.149	-44.955	-0.062	0.032
-673.135	-200.000	-0.027	-0.148
-672.120	-16.287	0.096	0.062
-671.105	-97.384	0.300	0.080
-670.091	-200.000	-0.006	-0.660
-669.076	0.773	0.130	0.094
-668.062	568.730	0.084	-0.208
-667.047	800.000	0.074	-0.324
-666.032	255.600	0.126	-0.220
-665.018	-22.960	-0.162	-0.099
-664.003	25.491	0.473	0.401
-662.989	-200.000	-0.034	0.204
-661.974	-48.029	-0.167	0.082
-660.959	800.000	0.039	-0.114
-659.945	-100.399	0.117	-0.030
-658.930	644.901	0.192	0.499
-657.916	105.019	0.075	0.090
-656.901	-75.420	0.254	-0.092
-655.886	-82.957	-0.104	-0.034
-654.872	800.000	0.053	-0.216
-653.857	-200.000	0.021	-0.235
-652.843	369.969	0.062	-0.128
-651.828	-43.497	0.164	-0.084
-650.814	-99.669	0.133	0.034
-649.799	800.000	0.074	0.228
-648.784	-80.698	-0.219	-0.074
-647.770	-200.000	0.031	0.241
-646.755	85.488	0.092	0.102
-645.741	397.755	-0.060	0.128
-644.726	321.838	-0.005	0.010
-643.711	243.896	-0.145	-0.247
-642.697	57.317	0.216	-0.214
-641.682	166.958	0.053	-0.077
-640.668	-65.104	0.158	-0.065
-639.653	-149.651	-0.315	0.025
-638.638	-86.795	-0.105	0.033
-637.624	-29.143	-0.036	0.021
-636.609	-200.000	-0.058	0.271
-635.595	718.896	-0.082	0.222
-634.580	-200.000	-0.005	-0.068
-633.565	800.000	-0.174	-0.532
-632.551	537.327	0.137	-0.331
-631.536	800.000	-0.057	-0.160
-630.522	-117.272	-0.295	-0.054
-629.507	800.000	0.032	-0.101
-628.492	800.000	0.060	-0.193
-627.478	800.000	0.120	0.337
-626.463	-200.000	0.044	0.198
-625.449	-200.000	-0.028	0.383
-624.434	-111.050	-0.138	-0.029
-623.419	-41.527	-0.165	-0.086
-622.405	-200.000	0.016	-0.149
-621.390	-65.538	-0.300	-0.122
-620.376	-63.602	-0.270	0.113
-619.361	70.381	-0.106	0.112
-618.346	800.000	-0.033	-0.096
-617.332	-54.264	-0.292	-0.135
-616.317	47.103	-0.277	-0.262
-615.303	34.978	-0.045	-0.040
-614.288	67.528	-0.127	-0.132
-613.273	-77.899	0.413	0.145
-612.259	-178.139	-0.235	-0.006
-611.244	-200.000	0.020	-0.104
-610.230	-200.000	-0.009	-0.138
-609.215	-200.000	0.014	-0.307
-608.201	230.780	0.104	0.173
-607.186	12.233	0.157	-0.123
-606.171	271.790	0.066	0.118
-605.157	153.122	-0.194	0.269
-604.142	-40.603	0.182	0.096
-603.128	-200.000	0.018	0.094
-602.113	242.999	-0.021	0.035
-601.098	-21.053	-0.164	-0.102
-600.084	-85.898	-0.117	0.037
-599.069	-89.478	-0.093	-0.028
-598.055	26.702	0.181	-0.154
-597.040	46.582	0.201	0.189
-596.025	67.183	0.108	0.112
-595.011	426.834	-0.035	0.076
-593.996	-104.678	0.125	0.029
-592.982	8.208	0.227	-0.173
-591.967	-70.642	-0.175	0.067
-590.952	130.691	-0.102	-0.133
-589.938	-200.000	0.010	-0.141
-588.923	-151.006	0.222	0.017
-587.909	253.406	0.086	-0.150
-586.894	465.915	0.063	-0.143
-585.879	-48.341	0.335	0.164
-584.865	-144.453	-0.104	0.010
-583.850	-64.454	0.085	-0.035
-582.836	43.626	0.050	0.047
-581.821	-190.304	-0.133	-0.001
-580.806	-200.000	0.046	0.242
-579.792	-35.596	-0.251	0.138
-578.777	-137.189	0.488	-0.056
-577.763	-10.043	-0.260	0.175
-576.748	-87.202	0.189	0.058
-575.733	726.728	0.086	0.232
-574.719	-200.000	0.021	0.096
-573.704	-31.015	0.276	0.158
-572.690	-109.055	-0.122	-0.026
-571.675	800.000	-0.062	-0.252
-570.661	-200.000	0.098	-0.491
-569.646	-8.812	0.129	-0.088
-568.631	800.000	0.016	0.065
-567.617	77.242	-0.118	-0.127
-566.602	-60.858	-0.232	-0.099
-565.588	-200.000	-0.022	0.136
-564.573	-200.000	0.009	0.218
-563.558	-3.364	-0.294	0.207
-562.544	439.504	-0.100	0.220
-561.529	-81.739	0.254	-0.084
-560.515	103.655	0.190	-0.226
-559.500	800.000	-0.034	0.131
-558.485	211.110	0.211	0.337
-557.471	323.180	-0.145	-0.281
-556.456	255.995	-0.114	-0.198
-555.442	161.591	0.109	-0.155
-554.427	159.443	0.166	-0.234
-553.412	-56.302	-0.136	0.061
-552.398	800.000	-0.089	-0.292
-551.383	523.802	0.083	-0.198
-550.369	-6.780	-0.141	0.097
-549.354	-112.273	-0.116	0.023
-548.339	-88.832	-0.210	0.063
-547.325	48.320	-0.075	0.071
-546.310	-98.125	-0.101	-0.026
-545.296	-200.000	0.017	0.243
-544.281	-200.000	-0.011	0.096
-543.266	21.874	-0.175	-0.144
-542.252	-200.000	0.051	-0.262
-541.237	-58.978	0.079	-0.035
-540.223	800.000	0.114	-0.348
-539.208	-200.000	-0.209	-0.000
-538.193	-200.000	-0.012	-0.130
-537.179	-200.000	-0.020	-0.217
-536.164	728.211	0.093	-0.251
-535.150	-90.345	-0.143	-0.042
-534.135	-75.659	-0.364	0.131
-533.121	408.017	-0.067	0.143
-532.106	-34.130	-0.124	0.069
-531.091	800.000	0.095	-0.325
-530.077	-155.067	-0.192	-0.013
-529.062	-74.680	-0.277	-0.101
-528.048	-20.910	0.146	0.090
-527.033	-48.948	-0.085	-0.041
-526.018	179.481	0.199	-0.295
-525.004	-39.391	0.202	-0.107
-523.989	42.286	-0.138	-0.127
-522.975	-16.818	0.236	-0.151
-521.960	-30.031	0.326	-0.188
-520.945	-96.843	-0.118	0.031
-519.931	-200.000	0.011	0.206
-518.916	118.541	0.106	0.132
-517.902	-59.630	0.095	-0.041
-516.887	-157.655	0.295	0.018
-515.872	-127.676	0.198	-0.029
-514.858	378.537	-0.162	0.336
-513.843	-200.000	0.035	-0.158
-512.829	-154.630	-0.359	-0.024
-511.814	-200.000	-0.006	0.069
-510.799	-121.150	0.246	-0.042
-509.785	-92.678	0.294	-0.083
-508.770	29.125	0.249	-0.214
-507.756	-200.000	0.010	-0.109
-506.741	-200.000	0.064	0.322
-505.726	-95.973	0.145	0.039
-504.712	212.003	0.180	0.287
-503.697	-200.000	0.006	0.148
-502.683	554.601	-0.101	0.245
-501.668	-69.401	-0.396	-0.154
-500.653	145.338	0.114	-0.154
-499.639	90.072	-0.367	0.415
-498.624	-93.898	0.272	-0.076
-497.610	-93.305	0.012	0.003
-496.595	-122.249	-0.154	-0.026
-495.581	314.933	-0.113	-0.215
-494.566	568.321	0.051	-0.125
-493.551	129.069	0.037	0.048
-492.537	-92.987	-0.163	0.046
-491.522	-100.732	0.289	0.072
-490.508	545.951	0.093	0.225
-489.493	-139.130	0.061	0.007
-488.478	-110.643	-0.243	-0.051
-487.464	-28.870	-0.211	0.123
-486.449	-200.000	-0.004	-0.127
-485.435	-200.000	-0.004	-0.078
-484.420	-17.191	-0.034	-0.022
-483.405	-2.711	0.248	-0.176
-482.391	176.865	0.133	0.196
-481.376	144.507	-0.033	-0.044
-480.362	57.952	-0.289	-0.286
-479.347	62.944	-0.149	-0.151
-478.332	38.189	0.153	0.137
-477.318	146.127	-0.075	0.102
-476.303	-170.317	-0.172	0.006
-475.289	800.000	0.010	-0.036
-474.274	-123.047	0.159	-0.026
-473.259	69.838	-0.062	-0.065
-472.245	18.570	-0.168	0.136
-471.230	800.000	0.117	-0.374
-470.216	-69.698	0.137	0.053
-469.201	-200.000	0.021	-0.121
-468.186	529.351	0.089	-0.211
-467.172	-5.494	-0.163	-0.113
-466.157	-200.000	-0.002	-0.042
-465.143	223.414	0.077	-0.126
-464.128	119.682	0.282	0.353
-463.113	136.893	-0.074	-0.097
-462.099	-200.000	-0.003	-0.269
-461.084	96.401	-0.172	0.199
-460.070	362.644	-0.125	0.254
-459.055	129.452	-0.162	0.209
-458.040	-132.205	0.101	-0.013
-457.026	-119.000	-0.241	0.043
-456.011	178.515	-0.079	0.117
-454.997	-120.196	-0.202	0.035
-453.982	-112.014	0.274	-0.056
-452.968	55.997	0.105	-0.103
-451.953	-46.013	-0.245	0.122
-450.938	800.000	0.058	0.227
-449.924	-200.000	-0.009	-0.067
-448.909	-200.000	-0.009	0.101
-447.895	-1.017	-0.266	0.190
-446.880	800.000	0.033	-0.147
-445.865	-21.745	0.240	0.147
-444.851	36.156	0.182	-0.162
-443.836	-139.040	-0.079	-0.009
-442.822	367.499	-0.029	0.059
-441.807	207.390	0.014	0.022
-440.792	244.434	0.079	-0.134
-439.778	800.000	-0.067	0.219
-438.763	249.349	-0.087	0.149
-437.749	-54.423	-0.443	-0.203
-436.734	-32.743	-0.070	0.040
-435.719	38.664	0.212	-0.191
-434.705	29.463	-0.253	-0.217
-433.690	-171.242	0.132	0.004
-432.676	376.517	-0.043	-0.088
-431.661	800.000	0.102	-0.302
-430.646	-72.942	-0.174	-0.065
-429.632	800.000	0.023	-0.084
-428.617	7.133	-0.272	0.204
-427.603	-43.771	0.070	0.035
-426.588	-200.000	-0.020	0.488
-425.573	784.599	0.101	0.280
-424.559	-181.629	0.060	-0.001
-423.544	-144.258	0.370	0.035
-422.530	800.000	0.075	0.223
-421.515	-38.552	-0.135	-0.072
-420.500	-200.000	0.248	-0.001
-419.486	579.091	-0.097	0.240
-418.471	-98.833	0.475	-0.122
-417.457	0.243	0.166	-0.120
-416.442	69.269	-0.127	-0.132
-415.428	215.061	-0.074	-0.119
-414.413	-69.274	0.062	-0.024
-413.398	19.248	-0.229	0.186
-412.384	328.528	-0.062	0.119
-411.369	800.000	0.006	-0.022
-410.355	-200.000	-0.046	0.239
-409.340	83.427	-0.148	-0.163
-408.325	-49.219	-0.112	0.054
-407.311	800.000	-0.074	-0.251
-406.296	360.926	0.131	0.264
-405.282	4.588	-0.184	0.136
-404.267	357.700	0.119	0.240
-403.252	-116.163	0.123	0.023
-402.238	160.060	0.065	-0.091
-401.223	775.458	0.070	-0.191
-400.209	59.219	0.101	-0.100
-399.194	-8.196	-0.079	-0.054
-398.179	-200.000	-0.013	0.094
-397.165	800.000	0.018	-0.054
-396.150	93.164	0.175	0.200
-395.136	397.864	0.069	0.146
-394.121	-114.662	0.267	0.052
-393.106	-129.032	0.155	0.022
-392.092	-63.996	-0.113	-0.046
-391.077	-14.044	-0.054	0.035
-390.063	462.217	0.049	-0.109
-389.048	61.375	-0.159	0.160
-388.033	-200.000	0.010	-0.051
-387.019	586.461	-0.073	-0.180
-386.004	800.000	-0.126	-0.350
-384.990	29.637	0.113	-0.097
-383.975	138.953	0.169	-0.224
-382.960	-19.271	-0.208	-0.130
-381.946	-53.406	0.143	-0.066
-380.931	-168.378	0.146	0.006
-379.917	492.231	0.089	0.205
-378.902	-200.000	0.020	0.212
-377.888	55.680	-0.105	-0.102
-376.873	-88.440	-0.126	0.038
-375.858	187.948	0.166	0.249
-374.844	-12.673	-0.003	-0.002
-373.829	-52.075	0.090	-0.042
-372.815	-145.088	0.238	-0.022
-371.800	453.484	-0.073	0.162
-370.785	179.089	-0.113	0.166
-369.771	272.769	-0.168	0.299
-368.756	-200.000	0.005	0.272
-367.742	17.994	-0.291	-0.233
-366.727	652.933	0.083	-0.215
-365.712	114.155	0.165	-0.202
-364.698	291.022	-0.021	0.039
-363.683	-38.754	0.131	0.069
-362.669	800.000	-0.145	0.521
-361.654	122.525	0.120	-0.151
-360.639	-176.275	0.271	-0.007
-359.625	-12.983	0.153	0.100
-358.610	-200.000	-0.129	-0.000
-357.596	-116.309	-0.249	0.046
-356.581	9.359	0.160	0.122
-355.566	-200.000	0.028	0.144
-354.552	-86.102	-0.373	-0.116
-353.537	217.984	-0.140	0.225
-352.523	3.457	-0.202	-0.148
-351.508	645.940	0.106	0.272
-350.493	-38.270	0.347	-0.185
-349.479	-200.000	-0.031	-0.352
-348.464	38.952	0.162	0.145
-347.450	-116.287	0.310	0.058
-346.435	158.924	-0.097	0.135
-345.420	-46.768	0.273	-0.134
-344.406	84.736	0.281	-0.309
-343.391	782.761	0.056	-0.155
-342.377	-18.412	0.241	0.151
-341.362	314.903	-0.134	0.253
-340.348	101.517	0.218	0.256
-339.333	27.636	0.106	0.090
-338.318	65.774	-0.243	0.248
-337.304	-52.999	0.106	-0.049
-336.289	-92.615	0.174	-0.049
-335.275	-128.749	0.361	0.051
-334.260	-99.333	0.197	-0.050
-333.245	15.291	0.288	0.227
-332.231	-136.481	0.275	-0.032
-331.216	-166.239	-0.273	0.012
-330.202	-103.996	-0.334	-0.078
-329.187	800.000	-0.037	-0.135
-328.172	140.805	0.232	0.309
-327.158	-131.879	-0.072	-0.009
-326.143	800.000	0.113	0.356
-325.129	21.198	-0.202	-0.165
-324.114	124.415	0.208	-0.263
-323.099	800.000	-0.060	-0.212
-322.085	-7.948	-0.235	0.159
-321.070	-83.261	-0.073	0.023
-320.056	800.000	-0.020	-0.069
-319.041	130.114	-0.080	0.102
-318.026	800.000	0.061	-0.188
-317.012	-177.018	0.282	-0.007
-315.997	-200.000	0.035	0.272
-314.983	-50.505	-0.118	0.056
-313.968	-6.114	0.142	-0.098
-312.953	-200.000	0.035	0.224
-311.939	325.813	0.020	0.038
-310.924	396.811	-0.126	0.264
-309.910	-189.930	-0.211	0.002
-308.895	-33.987	-0.375	0.207
-307.880	-116.247	-0.245	0.046
-306.866	-37.778	0.144	0.077
-305.851	800.000	-0.032	-0.089
-304.837	126.698	0.134	0.170
-303.822	-130.228	-0.311	-0.042
-302.807	-200.000	0.009	-0.259
-301.793	162.201	-0.128	0.180
-300.778	-200.000	0.001	-0.219
-299.764	-200.000	0.010	0.105
-298.749	-84.260	-0.146	-0.046
-297.735	529.940	0.016	0.038
-296.720	343.303	-0.123	0.241
-295.705	800.000	-0.031	0.108
-294.691	-200.000	0.008	0.099
-293.676	-200.000	0.022	0.289
-292.662	800.000	0.046	-0.151
-291.647	800.000	0.061	-0.253
-290.632	92.363	0.155	0.176
-289.618	-200.000	0.005	-0.148
-288.603	-1.563	-0.212	0.150
-287.589	-200.000	-0.040	-0.270
-286.574	94.347	-0.059	0.067
-285.559	323.627	-0.115	-0.220
-284.545	-39.146	-0.071	0.037
-283.530	-112.185	-0.189	-0.038
-282.516	2.289	-0.187	-0.136
-281.501	-14.011	0.397	0.257
-280.486	-200.000	-0.043	-0.300
-279.472	-40.506	0.113	-0.059
-278.457	-85.255	0.189	0.059
-277.443	541.789	-0.088	-0.211
-276.428	58.316	-0.124	0.122
-275.413	-68.688	0.180	-0.070
-274.399	-200.000	0.029	-0.137
-273.384	-72.595	0.191	-0.071
-272.370	-200.000	0.049	0.219
-271.355	292.720	-0.123	0.225
-270.340	169.658	0.220	0.315
-269.326	-200.000	0.002	-0.219
-268.311	-200.000	-0.002	0.143
-267.297	22.585	-0.191	0.157
-266.282	-38.448	-0.062	-0.033
-265.267	221.744	0.173	0.279
-264.253	800.000	-0.089	-0.319
-263.238	61.469	-0.171	-0.170
-262.224	770.571	0.165	-0.450
-261.209	-25.578	0.177	0.105
-260.195	-65.321	0.144	-0.058
-259.180	-115.238	-0.256	-0.049
-258.165	71.770	0.035	0.036
-257.151	-9.870	-0.057	0.038
-256.136	-200.000	-0.025	0.206
-255.122	617.019	0.045	-0.114
-254.107	-171.360	-0.156	0.005
-253.092	-21.018	-0.339	-0.208
-252.078	-200.000	-0.042	-0.211
-251.063	-31.282	-0.337	0.190
-250.049	29.032	0.092	-0.078
-249.034	242.189	0.211	0.353
-248.019	96.172	-0.052	-0.059
-247.005	378.508	0.114	-0.234
-245.990	-200.000	0.041	0.231
-244.976	-200.000	0.004	0.098
-243.961	28.903	-0.134	-0.114
-242.946	36.756	-0.165	-0.146
-241.932	271.038	0.125	0.220
-240.917	-77.252	-0.215	0.075
-239.903	366.830	-0.070	0.141
-238.888	22.063	0.389	-0.318
-237.873	166.291	0.289	-0.410
-236.859	-12.726	-0.219	-0.143
-235.844	234.365	0.247	-0.407
-234.830	-200.000	0.028	-0.238
-233.815	34.172	-0.296	-0.258
-232.800	-188.035	0.149	-0.002
-231.786	396.820	0.114	0.237
-230.771	324.718	-0.048	-0.091
-229.757	75.446	0.185	0.195
-228.742	1.684	-0.163	-0.117
-227.727	-178.505	0.097	0.002
-226.713	441.888	-0.124	-0.272
-225.698	-24.904	-0.213	-0.126
-224.684	800.000	0.020	0.086
-223.669	-34.725	-0.407	-0.223
-222.655	-65.648	-0.155	-0.062
-221.640	76.463	0.162	-0.171
-220.625	-76.467	0.150	0.053
-219.611	384.034	-0.097	-0.200
-218.596	-68.845	-0.268	0.103
-217.582	-200.000	-0.040	0.187
-216.567	800.000	0.038	-0.166
-215.552	800.000	0.092	0.304
-214.538	765.414	0.104	0.283
-213.523	-22.373	-0.086	0.052
-212.509	353.256	-0.152	-0.301
-211.494	-200.000	-0.025	0.158
-210.479	-90.062	0.201	0.059
-209.465	52.087	-0.130	-0.124
-208.450	433.579	0.078	0.169
-207.436	236.270	0.126	-0.208
-206.421	-39.009	0.194	-0.102
-205.406	800.000	-0.011	-0.040
-204.392	53.312	0.059	-0.057
-203.377	245.727	-0.165	0.277
-202.363	-9.082	-0.065	0.043
-201.348	178.173	-0.144	-0.210
-200.333	62.549	-0.015	0.015
-199.319	-77.897	-0.121	0.042
-198.304	151.491	0.086	-0.117
-197.290	26.319	0.245	0.205
-196.275	38.301	0.100	-0.089
-195.260	-36.720	0.126	-0.067
-194.246	-167.495	-0.327	-0.013
-193.231	-120.169	-0.403	-0.069
-192.217	800.000	0.013	0.041
-191.202	52.962	-0.113	-0.108
-190.187	5.469	-0.226	-0.167
-189.173	592.371	-0.157	0.388
-188.158	-200.000	0.007	-0.129
-187.144	800.000	0.042	0.180
-186.129	80.614	0.197	-0.212
-185.114	187.864	0.020	0.030
-184.100	-200.000	0.014	0.293
-183.085	176.407	0.088	0.128
-182.071	-161.168	0.248	-0.013
-181.056	-161.737	-0.196	0.010
-180.042	206.773	-0.097	-0.152
-179.027	380.928	-0.068	0.139
-178.012	-21.225	0.168	-0.103
-176.998	800.000	-0.071	-0.216
-175.983	-45.072	-0.207	-0.103
-174.969	451.417	-0.105	-0.231
-173.954	-200.000	-0.013	0.115
-172.939	800.000	-0.046	0.178
-171.925	-98.442	0.227	0.058
-170.910	-200.000	0.025	0.189
-169.896	-70.138	0.252	0.096
-168.881	-26.486	0.228	-0.133
-167.866	25.595	0.180	-0.149
-166.852	-44.702	0.220	0.109
-165.837	57.742	-0.137	0.134
-164.823	292.490	-0.157	0.286
-163.808	-113.957	0.156	0.030
-162.793	800.000	-0.087	0.257
-161.779	-200.000	0.073	0.496
-160.764	70.694	0.190	0.196
-159.750	386.979	-0.057	-0.117
-158.735	0.359	0.143	-0.102
-157.720	-91.024	-0.118	-0.034
-156.706	332.309	-0.060	0.115
-155.691	-200.000	0.039	0.226
-154.677	219.129	0.295	-0.470
-153.662	36.098	-0.110	-0.097
-152.647	96.725	0.122	-0.140
-151.633	-106.044	0.226	0.051
-150.618	-200.000	-0.029	-0.185
-149.604	-20.289	-0.077	0.048
-148.589	-200.000	0.017	-0.137
-147.574	-200.000	0.025	-0.376
-146.560	-13.435	-0.325	-0.210
-145.545	107.762	0.264	0.313
-144.531	-200.000	-0.009	-0.079
-143.516	-200.000	-0.032	-0.223
-142.502	-6.638	0.156	0.106
-141.487	-200.000	0.077	0.398
-140.472	800.000	0.039	0.148
-139.458	-101.204	-0.038	-0.009
-138.443	-200.000	0.020	0.090
-137.429	352.827	-0.042	-0.083
-136.414	-200.000	0.045	-0.213
-135.399	-36.960	0.249	0.133
-134.385	-14.817	-0.177	0.113
-133.370	124.173	0.125	-0.156
-132.356	267.955	-0.123	-0.215
-131.341	-104.358	0.205	0.047
-130.326	91.961	0.082	-0.092
-129.312	18.685	0.276	0.220
-128.297	2.601	-0.078	0.056
-127.283	264.013	0.084	0.145
-126.268	-200.000	0.049	-0.326
-125.253	-93.320	-0.418	-0.116
-124.239	-200.000	-0.036	0.209
-123.224	-200.000	-0.050	-0.223
-122.210	-138.716	0.186	0.020
-121.195	-191.632	0.239	-0.002
-120.180	-174.280	-0.150	0.004
