DTS Sentinel unit serial number:	SN413079Multiplexer serial number:	ORYXHardware model number:	OX4-SRSoftware version number:	ORYX F/W v4.00 Oryx Data Collector v3.7.2.0data status	okinstallation	princeton_trtdifferential loss correction	single-endedforward channel	channel 1reverse channel	N/Adate	2019/09/10time	22:16:11forward acquisition time	60.00reverse acquisition time	0.00gamma	496.2192k internal	0.2331k external	0.2331temperature offset calibration	0.9936default loss term (dB/km)	0.3790temperature slope calibration	1.0000multiplexer offset coefficient	1.0000multiplexer slope coefficient	1.0000fibre end	0.00T internal ref (°C)	30.52T ext. ref 1 (°C)	-0.31T ext. ref 2 (°C)	23.87length (m)	temperature (°C)	Stokes	anti-Stokes-747.200	-105.563	-0.237	-0.054
-746.185	-169.515	-0.335	-0.012
-745.171	131.551	0.090	0.116
-744.156	-118.163	-0.245	-0.044
-743.142	-102.864	-0.257	0.062
-742.127	216.042	0.158	-0.253
-741.112	-200.000	0.057	-0.456
-740.098	455.984	-0.063	0.141
-739.083	-200.000	-0.036	-0.198
-738.069	-36.100	-0.115	0.062
-737.054	-111.233	-0.237	0.049
-736.039	237.320	0.013	-0.022
-735.025	233.910	0.134	0.222
-734.010	112.155	0.072	-0.087
-732.996	-85.525	-0.512	-0.160
-731.981	766.032	-0.184	-0.504
-730.966	-65.031	-0.134	0.054
-729.952	106.443	0.095	0.113
-728.937	-102.178	-0.409	-0.099
-727.923	-22.924	-0.288	-0.175
-726.908	697.728	-0.064	-0.169
-725.894	-191.375	0.420	-0.004
-724.879	540.437	0.167	0.399
-723.864	-12.274	0.169	-0.111
-722.850	128.944	-0.161	-0.206
-721.835	-200.000	-0.068	0.387
-720.821	-105.421	0.124	0.028
-719.806	-112.395	-0.152	0.031
-718.791	-24.420	-0.193	-0.115
-717.777	800.000	-0.029	-0.089
-716.762	-24.160	0.365	-0.219
-715.748	800.000	0.025	-0.069
-714.733	681.565	-0.067	0.175
-713.718	-98.272	0.344	0.089
-712.704	-87.761	-0.248	0.075
-711.689	183.296	-0.025	0.037
-710.675	-4.925	-0.160	0.111
-709.660	-115.227	-0.068	0.013
-708.645	344.974	-0.123	-0.243
-707.631	45.953	-0.132	-0.122
-706.616	-200.000	-0.046	-0.353
-705.602	109.020	0.124	-0.150
-704.587	-179.416	0.258	0.006
-703.572	187.382	-0.285	0.427
-702.558	625.836	0.144	0.364
-701.543	254.836	0.315	-0.541
-700.529	-50.506	-0.278	-0.132
-699.514	-74.642	-0.267	-0.097
-698.499	135.510	0.205	0.268
-697.485	15.848	-0.105	0.083
-696.470	-0.164	-0.167	0.119
-695.456	800.000	-0.085	-0.291
-694.441	-174.141	0.049	-0.001
-693.426	-105.086	-0.129	-0.030
-692.412	157.744	-0.116	-0.162
-691.397	300.887	0.258	-0.478
-690.383	-177.032	-0.181	-0.005
-689.368	800.000	-0.027	-0.114
-688.354	-84.537	-0.273	-0.087
-687.339	-8.996	0.175	-0.118
-686.324	120.466	-0.284	0.354
-685.310	-200.000	-0.114	-0.542
-684.295	35.663	-0.232	-0.205
-683.281	59.683	-0.112	-0.111
-682.266	-200.000	-0.013	0.079
-681.251	136.776	0.322	-0.421
-680.237	-59.049	-0.203	-0.088
-679.222	-174.267	0.040	-0.001
-678.208	46.050	0.137	-0.127
-677.193	800.000	-0.065	-0.213
-676.178	800.000	-0.084	-0.233
-675.164	-68.717	0.242	-0.094
-674.149	132.556	-0.085	0.110
-673.135	-200.000	0.024	-0.117
-672.120	-200.000	0.025	-0.166
-671.105	800.000	-0.022	0.093
-670.091	-200.000	0.008	0.055
-669.076	-88.354	-0.138	-0.041
-668.062	-200.000	0.001	-0.237
-667.047	-200.000	0.039	-0.232
-666.032	-200.000	-0.004	-0.068
-665.018	-200.000	0.046	0.254
-664.003	800.000	-0.042	0.136
-662.989	-4.283	0.205	0.142
-661.974	209.847	-0.143	0.224
-660.959	-200.000	0.048	-0.357
-659.945	-58.796	0.069	-0.030
-658.930	-200.000	0.008	-0.048
-657.916	-134.985	0.283	-0.034
-656.901	54.959	-0.133	-0.128
-655.886	-200.000	-0.024	0.263
-654.872	-200.000	-0.022	-0.324
-653.857	-82.732	-0.344	0.111
-652.843	-91.171	0.139	-0.040
-651.828	124.931	-0.206	-0.260
-650.814	800.000	-0.046	-0.193
-649.799	-200.000	-0.049	-0.276
-648.784	-73.423	0.369	-0.135
-647.770	288.006	-0.104	-0.189
-646.755	22.572	0.230	0.189
-645.741	-21.980	0.215	-0.131
-644.726	-0.287	0.247	-0.176
-643.711	-200.000	0.047	0.231
-642.697	800.000	-0.122	-0.348
-641.682	-115.928	0.145	0.027
-640.668	105.023	-0.222	0.262
-639.653	0.307	-0.103	0.073
-638.638	-180.464	-0.135	-0.003
-637.624	-200.000	-0.007	0.145
-636.609	800.000	-0.100	-0.350
-635.595	6.250	0.131	0.097
-634.580	308.550	-0.241	0.452
-633.565	-73.252	-0.105	0.039
-632.551	-200.000	-0.002	-0.210
-631.536	427.640	-0.136	-0.294
-630.522	475.761	0.114	-0.258
-629.507	800.000	0.059	-0.217
-628.492	-19.294	0.189	0.117
-627.478	-24.173	0.214	-0.128
-626.463	-200.000	-0.008	0.054
-625.449	-145.066	0.131	-0.012
-624.434	137.553	0.089	0.117
-623.419	-200.000	0.233	0.001
-622.405	-161.184	-0.250	-0.013
-621.390	266.121	0.025	0.044
-620.376	-200.000	-0.007	-0.235
-619.361	-126.540	0.234	0.035
-618.346	-200.000	-0.089	0.401
-617.332	467.995	0.027	0.062
-616.317	-73.358	-0.131	-0.048
-615.303	-200.000	-0.018	0.094
-614.288	55.954	-0.186	0.180
-613.273	-64.013	-0.115	0.047
-612.259	-57.619	0.382	0.167
-611.244	-200.000	0.002	0.201
-610.230	-171.117	-0.040	0.001
-609.215	65.484	0.095	0.097
-608.201	82.843	0.098	0.107
-607.186	-0.904	-0.283	0.200
-606.171	80.562	0.439	0.473
-605.157	-174.272	-0.090	-0.003
-604.142	-26.578	-0.313	0.184
-603.128	-200.000	0.045	0.286
-602.113	800.000	0.045	0.173
-601.098	-200.000	-0.015	-0.099
-600.084	800.000	0.011	0.036
-599.069	-78.930	-0.176	0.060
-598.055	-200.000	0.049	0.281
-597.040	517.610	-0.099	-0.232
-596.025	-41.779	-0.107	0.055
-595.011	-151.559	-0.160	-0.012
-593.996	-18.481	0.017	-0.010
-592.982	-187.821	-0.038	0.000
-591.967	-118.362	-0.309	0.055
-590.952	-90.247	-0.176	-0.051
-589.938	-6.084	-0.341	-0.233
-588.923	486.111	-0.182	0.415
-587.909	-143.144	0.274	0.026
-586.894	96.506	-0.124	0.142
-585.879	13.455	0.059	0.046
-584.865	419.077	0.153	-0.328
-583.850	-18.316	-0.095	-0.059
-582.836	361.728	-0.128	-0.258
-581.821	153.170	-0.257	-0.352
-580.806	-200.000	0.044	0.353
-579.792	31.933	-0.016	0.014
-578.777	-200.000	-0.005	0.093
-577.763	-11.000	-0.251	-0.166
-576.748	-48.874	-0.335	0.161
-575.733	-200.000	-0.042	-0.305
-574.719	330.914	0.079	-0.152
-573.704	-72.502	-0.204	0.075
-572.690	-200.000	-0.032	-0.186
-571.675	390.912	-0.056	0.116
-570.661	60.457	-0.237	0.234
-569.646	-45.681	0.300	-0.148
-568.631	-127.751	-0.128	-0.019
-567.617	-200.000	0.065	-0.319
-566.602	6.860	0.163	0.121
-565.588	-140.994	0.428	0.044
-564.573	152.667	-0.062	-0.084
-563.558	52.404	-0.157	-0.150
-562.544	-200.000	0.050	0.234
-561.529	283.141	-0.102	0.184
-560.515	579.265	0.101	0.247
-559.500	-200.000	-0.002	-0.315
-558.485	-99.691	0.260	0.065
-557.471	12.429	-0.058	-0.044
-556.456	660.924	0.119	0.306
-555.442	80.060	0.265	0.285
-554.427	322.538	-0.098	-0.187
-553.412	-200.000	-0.008	-0.300
-552.398	-200.000	0.006	0.379
-551.383	115.286	-0.054	0.066
-550.369	68.844	-0.225	-0.231
-549.354	464.321	0.035	-0.079
-548.339	-29.509	-0.138	0.079
-547.325	-28.829	0.092	0.053
-546.310	17.536	-0.172	-0.137
-545.296	-84.733	-0.293	-0.092
-544.281	-150.137	-0.284	0.022
-543.266	12.959	0.135	0.105
-542.252	35.718	0.155	-0.136
-541.237	-96.677	-0.241	0.063
-540.223	-96.397	-0.266	-0.070
-539.208	-200.000	-0.032	-0.142
-538.193	386.301	-0.113	-0.234
-537.179	-118.782	-0.061	-0.011
-536.164	-93.566	-0.091	0.025
-535.150	-38.440	0.110	0.058
-534.135	-200.000	-0.029	-0.256
-533.121	-76.181	-0.355	-0.125
-532.106	800.000	0.011	-0.032
-531.091	663.196	-0.075	-0.192
-530.077	-126.512	0.190	0.028
-529.062	29.010	-0.347	0.293
-528.048	-200.000	0.009	0.044
-527.033	-110.991	0.368	-0.075
-526.018	-50.411	0.330	0.155
-525.004	-125.056	-0.326	-0.050
-523.989	121.346	-0.050	0.063
-522.975	-200.000	0.029	-0.156
-521.960	800.000	0.069	-0.279
-520.945	-200.000	0.023	-0.189
-519.931	-200.000	-0.001	0.055
-518.916	800.000	-0.004	-0.014
-517.902	-47.369	0.163	0.079
-516.887	800.000	-0.084	-0.353
-515.872	100.918	0.062	-0.072
-514.858	51.554	0.120	-0.113
-513.843	734.440	0.009	-0.024
-512.829	-134.408	-0.334	-0.041
-511.814	-114.151	-0.080	0.015
-510.799	-113.721	0.346	-0.067
-509.785	-107.466	-0.252	0.055
-508.770	246.482	0.122	0.206
-507.756	-146.039	0.102	0.009
-506.741	-33.084	-0.070	0.039
-505.726	58.266	-0.062	-0.060
-504.712	800.000	-0.069	0.215
-503.697	-6.084	-0.193	-0.131
-502.683	-19.934	0.169	0.104
-501.668	-14.636	-0.274	0.175
-500.653	-104.355	0.277	0.064
-499.639	-169.876	0.043	0.002
-498.624	-200.000	0.034	-0.179
-497.610	-200.000	0.021	0.135
-496.595	-40.303	-0.084	-0.043
-495.581	53.394	-0.151	-0.144
-494.566	-9.745	0.288	0.191
-493.551	-116.302	-0.055	-0.010
-492.537	-200.000	0.008	0.200
-491.522	140.591	-0.145	-0.190
-490.508	-46.905	-0.247	-0.120
-489.493	800.000	-0.032	-0.113
-488.478	-200.000	-0.003	-0.032
-487.464	800.000	-0.050	0.200
-486.449	800.000	-0.031	0.116
-485.435	-51.331	-0.132	0.062
-484.420	10.813	0.434	-0.330
-483.405	-62.300	0.024	0.010
-482.391	-200.000	-0.202	0.001
-481.376	113.512	0.112	0.136
-480.362	-48.071	0.011	0.005
-479.347	767.938	-0.012	-0.033
-478.332	-68.662	0.252	-0.097
-477.318	668.311	0.064	-0.166
-476.303	800.000	0.100	-0.358
-475.289	-56.652	0.036	-0.016
-474.274	42.467	0.217	0.196
-473.259	92.563	-0.199	0.224
-472.245	-6.194	0.290	0.197
-471.230	-170.736	0.369	0.013
-470.216	33.887	0.232	-0.201
-469.201	442.458	-0.105	-0.229
-468.186	-80.376	-0.253	-0.084
-467.172	-27.797	0.403	0.233
-466.157	295.568	0.052	-0.094
-465.143	-55.029	0.388	0.174
-464.128	-200.000	-0.011	0.270
-463.113	-42.545	0.152	-0.077
-462.099	-82.147	0.424	-0.138
-461.084	-34.785	-0.229	-0.125
-460.070	80.915	-0.254	-0.272
-459.055	114.604	0.215	0.260
-458.040	364.689	0.116	-0.233
-457.026	-77.432	-0.106	-0.037
-456.011	-200.000	0.022	-0.138
-454.997	-87.785	0.153	-0.046
-453.982	800.000	-0.093	0.327
-452.968	-200.000	-0.001	0.053
-451.953	51.912	0.042	-0.040
-450.938	-200.000	0.043	-0.210
-449.924	61.198	0.084	0.083
-448.909	-191.309	0.225	0.002
-447.895	-176.640	0.087	-0.002
-446.880	231.856	-0.184	-0.301
-445.865	-111.757	-0.206	0.041
-444.851	800.000	0.068	0.272
-443.836	300.326	0.137	0.251
-442.822	340.475	0.136	-0.265
-441.807	18.335	-0.145	0.115
-440.792	800.000	0.058	0.232
-439.778	-200.000	-0.032	-0.177
-438.763	100.871	0.120	-0.138
-437.749	97.581	0.172	0.197
-436.734	453.136	0.099	0.218
-435.719	-135.933	-0.212	-0.025
-434.705	800.000	-0.017	-0.050
-433.690	-82.345	0.249	0.081
-432.676	-29.044	-0.129	0.074
-431.661	185.748	0.233	-0.345
-430.646	118.493	-0.179	0.220
-429.632	-7.072	0.148	-0.100
-428.617	345.508	0.115	0.224
-427.603	-200.000	-0.002	0.344
-426.588	-132.966	-0.152	-0.019
-425.573	0.012	0.239	-0.169
-424.559	318.303	0.118	-0.222
-423.544	-200.000	-0.000	-0.054
-422.530	-87.686	0.106	-0.032
-421.515	84.912	-0.109	0.118
-420.500	93.678	0.106	-0.120
-419.486	-87.031	-0.070	-0.021
-418.471	-146.586	-0.178	-0.015
-417.457	-200.000	-0.006	0.196
-416.442	-22.197	-0.176	0.106
-415.428	344.075	-0.057	0.112
-414.413	360.565	0.044	-0.087
-413.398	115.440	0.199	0.241
-412.384	259.674	-0.078	0.133
-411.369	800.000	-0.023	-0.072
-410.355	241.673	-0.090	-0.150
-409.340	689.876	0.149	0.388
-408.325	-86.765	-0.135	-0.041
-407.311	49.660	0.120	-0.112
-406.296	295.685	-0.118	0.214
-405.282	400.919	-0.084	-0.176
-404.267	-35.039	0.129	0.070
-403.252	34.241	-0.224	-0.194
-402.238	-114.435	-0.158	-0.030
-401.223	-135.859	-0.169	0.020
-400.209	-146.391	-0.064	-0.006
-399.194	-123.118	0.306	-0.049
-398.179	171.354	0.233	-0.332
-397.165	-153.155	-0.194	-0.013
-396.150	-131.383	0.361	0.047
-395.136	199.858	-0.114	0.174
-394.121	-77.604	0.161	-0.055
-393.106	237.132	0.038	0.063
-392.092	-200.000	0.024	-0.165
-391.077	-167.572	0.462	0.018
-390.063	800.000	-0.033	-0.129
-389.048	92.145	-0.240	0.268
-388.033	145.154	-0.064	0.086
-387.019	-20.366	-0.127	0.078
-386.004	27.966	-0.078	0.065
-384.990	800.000	-0.055	-0.154
-383.975	-43.810	0.038	0.019
-382.960	-200.000	0.003	0.109
-381.946	-27.056	-0.209	0.121
-380.931	50.944	-0.115	-0.108
-379.917	-200.000	-0.034	-0.150
-378.902	800.000	0.028	0.113
-377.888	-115.512	-0.280	-0.052
-376.873	800.000	-0.051	-0.184
-375.858	63.222	-0.085	-0.085
-374.844	-141.667	0.115	0.011
-373.829	112.877	-0.217	0.260
-372.815	44.349	0.091	0.083
-371.800	800.000	0.044	-0.188
-370.785	-3.007	-0.389	0.270
-369.771	126.460	0.174	-0.218
-368.756	-100.618	-0.084	0.021
-367.742	800.000	-0.012	-0.048
-366.727	800.000	-0.009	0.037
-365.712	364.846	-0.053	-0.107
-364.698	-200.000	0.030	-0.525
-363.683	-200.000	-0.018	-0.106
-362.669	-120.300	0.214	-0.036
-361.654	-125.731	-0.414	-0.062
-360.639	-40.832	0.050	-0.026
-359.625	175.190	-0.045	0.064
-358.610	-117.148	-0.059	0.011
-357.596	52.032	-0.103	0.097
-356.581	800.000	0.119	0.353
-355.566	210.946	-0.080	0.125
-354.552	-173.473	0.224	0.007
-353.537	169.661	-0.117	-0.166
-352.523	800.000	0.002	0.009
-351.508	-200.000	-0.015	0.107
-350.493	210.422	-0.056	-0.088
-349.479	-106.902	0.309	-0.068
-348.464	33.907	0.058	-0.050
-347.450	16.825	0.081	-0.064
-346.435	119.880	-0.121	-0.148
-345.420	-69.921	0.232	0.088
-344.406	317.978	-0.139	-0.261
-343.391	58.009	-0.454	0.441
-342.377	220.971	0.072	0.115
-341.362	58.561	0.062	0.060
-340.348	-88.121	-0.165	0.049
-339.333	-162.184	-0.248	-0.012
-338.318	-3.161	-0.221	0.153
-337.304	-56.760	0.192	-0.084
-336.289	-94.974	-0.236	0.063
-335.275	126.138	-0.117	0.147
-334.260	45.361	0.292	0.267
-333.245	505.194	-0.048	-0.110
-332.231	-200.000	-0.011	-0.174
-331.216	-116.670	-0.235	0.043
-330.202	337.724	0.220	0.424
-329.187	-25.210	0.187	-0.110
-328.172	375.380	-0.127	-0.257
-327.158	-200.000	-0.006	0.167
-326.143	-58.430	-0.200	0.086
-325.129	-200.000	-0.028	0.145
-324.114	68.327	0.147	-0.149
-323.099	800.000	-0.017	0.062
-322.085	800.000	0.043	0.166
-321.070	-135.733	0.272	0.032
-320.056	-42.213	-0.060	-0.030
-319.041	41.705	0.130	-0.116
-318.026	-142.650	0.179	-0.017
-317.012	667.794	0.024	0.062
-315.997	-200.000	0.009	0.166
-314.983	-200.000	0.079	-0.456
-313.968	-127.630	0.231	-0.033
-312.953	56.484	-0.096	-0.092
-311.939	-82.897	-0.090	-0.029
-310.924	1.854	-0.218	0.156
-309.910	800.000	-0.043	0.176
-308.895	-155.443	-0.104	-0.007
-307.880	-68.241	-0.273	0.105
-306.866	470.869	0.106	-0.237
-305.851	260.822	-0.059	0.100
-304.837	-200.000	-0.006	0.073
-303.822	-40.150	-0.106	-0.055
-302.807	-200.000	0.065	-0.306
-301.793	82.078	0.155	-0.166
-300.778	-113.217	0.249	-0.049
-299.764	237.694	0.229	0.376
-298.749	117.315	-0.158	0.193
-297.735	-129.397	-0.119	0.016
-296.720	33.734	-0.080	0.069
-295.705	109.621	0.095	-0.112
-294.691	117.501	0.157	0.191
-293.676	68.804	0.069	-0.070
-292.662	-82.515	-0.241	0.077
-291.647	-85.499	-0.171	-0.053
-290.632	76.650	0.148	0.156
-289.618	30.553	-0.176	0.149
-288.603	17.438	0.099	-0.078
-287.589	-122.764	0.132	-0.021
-286.574	800.000	-0.069	-0.261
-285.559	70.714	0.253	-0.259
-284.545	54.938	0.199	-0.190
-283.530	13.791	0.379	0.291
-282.516	-200.000	-0.035	0.293
-281.501	-197.890	0.448	-0.003
-280.486	32.148	0.130	-0.111
-279.472	800.000	-0.090	-0.337
-278.457	-200.000	0.021	-0.360
-277.443	60.448	-0.415	0.406
-276.428	-59.603	0.176	-0.075
-275.413	-9.277	-0.183	0.121
-274.399	0.914	-0.188	-0.133
-273.384	-118.155	-0.275	0.048
-272.370	800.000	0.047	-0.173
-271.355	-123.662	-0.203	-0.032
-270.340	205.004	0.122	-0.187
-269.326	-62.357	-0.060	0.025
-268.311	8.627	0.026	0.020
-267.297	800.000	0.025	-0.097
-266.282	-17.774	-0.239	-0.148
-265.267	-200.000	0.005	0.062
-264.253	18.881	0.170	0.135
-263.238	-111.369	0.288	0.058
-262.224	-16.456	-0.057	0.036
-261.209	133.544	0.099	-0.126
-260.195	2.900	-0.114	0.082
-259.180	-79.585	-0.231	-0.077
-258.165	-200.000	0.036	0.169
-257.151	96.906	-0.240	0.272
-256.136	-107.195	0.230	0.050
-255.122	308.700	0.039	0.071
-254.107	26.045	0.333	0.274
-253.092	-106.688	-0.254	-0.056
-252.078	32.861	0.171	-0.146
-251.063	-139.810	-0.179	0.019
-250.049	-120.621	-0.261	-0.044
-249.034	52.069	-0.080	-0.075
-248.019	396.438	0.077	0.158
-247.005	-200.000	-0.012	0.069
-245.990	121.434	0.038	0.047
-244.976	800.000	0.018	0.069
-243.961	-143.886	0.144	0.013
-242.946	7.562	0.210	0.155
-241.932	-146.467	-0.325	0.028
-240.917	-10.165	0.194	-0.127
-239.903	-114.148	0.318	0.061
-238.888	-125.792	0.326	0.049
-237.873	713.005	0.050	-0.130
-236.859	-138.638	-0.350	-0.038
-235.844	189.059	0.265	0.391
-234.830	19.066	0.256	-0.202
-233.815	-86.409	-0.095	0.029
-232.800	-74.949	-0.156	0.055
-231.786	-47.350	0.125	-0.060
-230.771	-2.866	0.352	0.243
-229.757	494.227	-0.140	0.317
-228.742	-160.692	-0.241	-0.013
-227.727	-200.000	0.004	0.044
-226.713	800.000	-0.043	-0.136
-225.698	-144.347	-0.191	-0.017
-224.684	800.000	0.049	0.183
-223.669	-200.000	-0.003	0.570
-222.655	800.000	-0.067	-0.218
-221.640	90.299	0.112	-0.124
-220.625	800.000	0.070	0.258
-219.611	200.207	0.073	0.111
-218.596	-32.425	-0.144	-0.079
-217.582	206.514	0.059	-0.090
-216.567	-33.723	-0.168	-0.091
-215.552	-200.000	0.006	0.197
-214.538	-24.025	-0.060	0.035
-213.523	800.000	-0.061	-0.194
-212.509	295.806	-0.031	-0.056
-211.494	-66.041	-0.176	0.069
-210.479	-200.000	-0.020	-0.254
-209.465	79.666	0.133	-0.140
-208.450	122.169	-0.061	0.075
-207.436	335.199	-0.137	-0.262
-206.421	-71.036	-0.168	0.062
-205.406	-6.177	-0.196	-0.132
-204.392	-124.940	-0.221	0.034
-203.377	-200.000	-0.013	0.215
-202.363	-128.696	0.392	-0.054
-201.348	-11.480	0.153	0.099
-200.333	602.657	-0.071	0.173
-199.319	118.769	0.158	0.192
-198.304	46.790	-0.385	-0.353
-197.290	-200.000	0.038	-0.293
-196.275	286.739	-0.169	0.300
-195.260	-30.915	-0.216	0.120
-194.246	90.103	-0.218	-0.240
-193.231	126.706	0.086	-0.108
-192.217	370.563	0.101	0.201
-191.202	-36.737	0.238	0.126
-190.187	-176.201	0.035	0.001
-189.173	-200.000	0.091	0.504
-188.158	552.784	-0.018	-0.043
-187.144	111.982	-0.095	-0.113
-186.129	-200.000	0.012	-0.168
-185.114	-200.000	-0.056	-0.462
-184.100	800.000	0.086	-0.343
-183.085	6.700	-0.370	-0.271
-182.071	-165.967	0.165	-0.007
-181.056	800.000	0.069	0.234
-180.042	-126.089	0.080	-0.012
-179.027	-200.000	0.029	-0.245
-178.012	111.847	-0.062	-0.074
-176.998	-147.789	0.349	0.029
-175.983	51.284	-0.077	-0.072
-174.969	800.000	0.043	-0.116
-173.954	62.478	0.315	-0.309
-172.939	-200.000	-0.009	-0.114
-171.925	210.227	-0.044	-0.068
-170.910	-121.326	-0.379	0.062
-169.896	68.954	-0.094	-0.095
-168.881	800.000	0.084	-0.296
-167.866	-200.000	0.042	-0.342
-166.852	800.000	-0.060	0.195
-165.837	-117.913	0.092	0.016
-164.823	175.632	0.165	-0.236
-163.808	135.996	-0.079	0.101
-162.793	-200.000	-0.004	0.047
-161.779	-75.108	0.257	-0.090
-160.764	-200.000	0.008	-0.076
-159.750	-200.000	0.013	0.104
-158.735	127.658	0.128	-0.160
-157.720	-59.925	-0.112	-0.047
-156.706	-11.871	0.185	-0.119
-155.691	575.196	-0.122	0.293
-154.677	-200.000	-0.018	-0.250
-153.662	-173.502	-0.101	0.003
-152.647	147.079	0.189	0.250
-151.633	-200.000	-0.026	0.150
-150.618	800.000	-0.014	0.050
-149.604	31.466	0.159	-0.134
-148.589	381.341	-0.070	-0.141
-147.574	-98.880	0.248	-0.062
-146.560	457.520	0.122	-0.266
-145.545	800.000	0.046	-0.177
-144.531	-37.876	0.195	-0.102
-143.516	800.000	-0.037	0.156
-142.502	53.875	0.135	0.127
-141.487	-11.865	0.244	0.157
-140.472	-200.000	-0.033	0.202
-139.458	-1.785	0.196	-0.135
-138.443	36.122	0.289	0.250
-137.429	-191.782	0.186	0.002
-136.414	-146.530	0.296	0.025
-135.399	-64.750	0.048	0.019
-134.385	-50.736	-0.041	-0.019
-133.370	-141.072	0.137	-0.014
-132.356	355.710	0.078	0.153
-131.341	-0.194	0.032	-0.022
-130.326	-127.289	0.367	-0.053
-129.312	-14.728	-0.215	-0.136
-128.297	-19.142	0.169	0.103
-127.283	-200.000	-0.031	-0.174
-126.268	100.343	0.054	-0.061
-125.253	62.828	0.103	-0.101
-124.239	-19.379	0.058	-0.035
-123.224	221.454	-0.015	0.024
-122.210	432.787	0.123	0.263
