DTS Sentinel unit serial number:	SN413079Multiplexer serial number:	ORYXHardware model number:	OX4-SRSoftware version number:	ORYX F/W v4.00 Oryx Data Collector v3.7.2.0data status	okinstallation	princeton_trtdifferential loss correction	single-endedforward channel	channel 1reverse channel	N/Adate	2019/09/12time	05:08:11forward acquisition time	60.00reverse acquisition time	0.00gamma	496.2192k internal	0.2322k external	0.2322temperature offset calibration	1.0053default loss term (dB/km)	0.3790temperature slope calibration	1.0000multiplexer offset coefficient	1.0000multiplexer slope coefficient	1.0000fibre end	0.00T internal ref (°C)	31.77T ext. ref 1 (°C)	1.66T ext. ref 2 (°C)	27.11length (m)	temperature (°C)	Stokes	anti-Stokes-747.200	800.000	0.017	0.072
-746.185	-200.000	-0.006	0.415
-745.171	-73.648	-0.203	0.075
-744.156	-66.217	-0.221	0.089
-743.142	-200.000	-0.002	-0.024
-742.127	-21.340	0.013	0.008
-741.112	-95.770	0.159	0.043
-740.098	-200.000	-0.059	0.347
-739.083	-65.097	0.247	0.101
-738.069	-81.421	-0.264	0.088
-737.054	238.738	-0.137	-0.229
-736.039	115.445	0.068	0.084
-735.025	-15.000	-0.284	-0.184
-734.010	-79.589	-0.333	-0.113
-732.996	-200.000	0.055	0.287
-731.981	-53.649	-0.224	-0.103
-730.966	-123.585	0.204	-0.033
-729.952	-200.000	0.060	0.449
-728.937	-129.237	0.365	0.051
-727.923	-200.000	0.007	-0.168
-726.908	-142.766	0.123	-0.012
-725.894	12.688	-0.189	0.147
-724.879	-200.000	0.004	0.275
-723.864	-116.008	-0.411	-0.077
-722.850	-78.070	0.279	-0.097
-721.835	-36.326	-0.207	-0.113
-720.821	800.000	0.031	0.115
-719.806	800.000	0.130	-0.448
-718.791	-200.000	-0.010	-0.225
-717.777	-149.387	-0.374	-0.030
-716.762	216.422	0.058	0.094
-715.748	195.513	-0.098	0.151
-714.733	32.066	0.371	-0.323
-713.718	40.308	-0.260	0.236
-712.704	-22.804	-0.037	-0.023
-711.689	800.000	0.064	-0.192
-710.675	578.504	0.049	0.121
-709.660	-37.560	0.346	-0.186
-708.645	-27.058	-0.111	-0.065
-707.631	-182.662	-0.265	0.005
-706.616	-133.418	-0.111	-0.014
-705.602	800.000	0.132	0.384
-704.587	-51.600	-0.154	0.073
-703.572	-7.676	-0.068	-0.047
-702.558	164.638	-0.150	-0.213
-701.543	-130.398	0.378	-0.052
-700.529	2.119	-0.175	-0.128
-699.514	137.847	0.042	-0.056
-698.499	-200.000	-0.008	0.108
-697.485	177.236	-0.203	-0.297
-696.470	12.477	-0.087	-0.068
-695.456	-122.637	-0.055	0.009
-694.441	659.682	0.090	-0.234
-693.426	-12.463	0.049	0.032
-692.412	85.211	-0.023	0.026
-691.397	50.659	-0.195	0.186
-690.383	492.885	-0.036	-0.084
-689.368	800.000	0.109	-0.312
-688.354	143.149	0.057	-0.076
-687.339	92.701	0.109	-0.124
-686.324	-150.250	-0.294	0.023
-685.310	800.000	0.036	-0.149
-684.295	-146.620	-0.101	-0.009
-683.281	152.102	-0.090	-0.124
-682.266	-25.450	0.125	-0.074
-681.251	573.167	0.143	-0.352
-680.237	-166.365	0.201	-0.009
-679.222	186.727	0.117	-0.176
-678.208	-200.000	-0.025	0.274
-677.193	-200.000	0.033	0.161
-676.178	-38.051	-0.161	-0.086
-675.164	-177.210	-0.203	-0.005
-674.149	259.611	0.052	0.090
-673.135	800.000	-0.029	0.085
-672.120	-200.000	-0.005	0.103
-671.105	800.000	0.080	-0.298
-670.091	-134.895	0.159	-0.019
-669.076	-179.013	0.156	0.004
-668.062	800.000	-0.084	-0.264
-667.047	-200.000	-0.002	-0.232
-666.032	-7.632	0.128	-0.087
-665.018	38.238	-0.078	0.070
-664.003	-29.601	0.239	0.138
-662.989	294.505	0.114	0.209
-661.974	79.219	0.156	-0.168
-660.959	-200.000	0.029	-0.245
-659.945	-200.000	-0.030	0.185
-658.930	-200.000	0.003	0.226
-657.916	-200.000	-0.003	0.039
-656.901	-61.645	-0.138	-0.058
-655.886	-200.000	0.006	0.154
-654.872	303.269	-0.090	-0.167
-653.857	-133.144	0.089	-0.011
-652.843	-200.000	-0.024	-0.123
-651.828	-200.000	0.018	0.152
-650.814	-200.000	0.004	0.089
-649.799	-200.000	0.022	0.141
-648.784	-39.909	-0.183	0.096
-647.770	-144.568	-0.337	-0.031
-646.755	-162.381	0.312	-0.016
-645.741	404.276	0.065	0.137
-644.726	-200.000	0.039	0.243
-643.711	107.757	-0.148	0.178
-642.697	-88.897	-0.182	0.054
-641.682	590.339	-0.061	0.151
-640.668	800.000	-0.135	-0.387
-639.653	-17.633	-0.246	0.155
-638.638	-131.474	-0.353	-0.047
-637.624	20.341	0.301	0.245
-636.609	152.179	-0.074	-0.102
-635.595	-126.378	-0.526	-0.079
-634.580	-200.000	-0.028	0.262
-633.565	-87.735	-0.163	-0.049
-632.551	209.998	0.090	-0.142
-631.536	324.353	-0.080	0.153
-630.522	-1.519	-0.144	-0.102
-629.507	655.257	-0.183	-0.473
-628.492	191.148	0.125	0.189
-627.478	-60.129	-0.205	-0.088
-626.463	-123.557	0.109	0.017
-625.449	-110.430	0.275	0.057
-624.434	-200.000	0.033	-0.176
-623.419	-200.000	0.002	0.133
-622.405	-107.322	0.320	-0.071
-621.390	-6.962	0.143	-0.097
-620.376	122.102	0.272	0.342
-619.361	-200.000	-0.036	0.194
-618.346	-11.055	-0.106	-0.070
-617.332	167.489	-0.115	0.164
-616.317	800.000	-0.069	0.297
-615.303	430.169	-0.129	-0.281
-614.288	648.138	0.069	-0.177
-613.273	-117.765	-0.192	-0.035
-612.259	-200.000	-0.043	-0.309
-611.244	255.254	0.214	0.369
-610.230	-124.633	-0.048	0.008
-609.215	-114.137	-0.407	0.079
-608.201	-200.000	0.008	-0.177
-607.186	300.684	-0.055	0.103
-606.171	-200.000	-0.026	0.338
-605.157	800.000	-0.045	-0.127
-604.142	24.710	-0.204	-0.170
-603.128	-120.924	-0.247	-0.042
-602.113	797.624	0.124	-0.344
-601.098	1.666	0.289	-0.209
-600.084	-185.173	0.302	0.005
-599.069	479.057	0.096	0.218
-598.055	29.446	-0.065	-0.055
-597.040	21.441	0.145	0.119
-596.025	800.000	-0.032	-0.106
-595.011	800.000	0.041	-0.179
-593.996	-200.000	-0.000	-0.182
-592.982	-28.168	0.222	0.129
-591.967	-200.000	-0.003	0.095
-590.952	-127.019	0.294	0.043
-589.938	-200.000	0.029	0.157
-588.923	-91.780	-0.178	-0.051
-587.909	-200.000	-0.037	0.203
-586.894	-78.066	0.248	0.086
-585.879	-36.886	-0.032	0.017
-584.865	231.353	0.198	-0.325
-583.850	-200.000	-0.010	0.085
-582.836	-129.456	-0.182	0.025
-581.821	-200.000	-0.056	0.263
-580.806	77.836	0.094	0.101
-579.792	194.347	0.309	0.470
-578.777	-75.339	0.189	-0.068
-577.763	274.330	0.197	-0.350
-576.748	412.873	0.108	-0.230
-575.733	20.510	0.147	0.119
-574.719	7.136	0.069	0.052
-573.704	-162.618	-0.223	-0.011
-572.690	648.837	-0.086	-0.221
-571.675	-200.000	-0.019	-0.125
-570.661	-114.149	-0.087	-0.017
-569.646	-36.273	-0.041	-0.022
-568.631	-99.309	0.091	-0.023
-567.617	-41.217	0.064	-0.033
-566.602	112.628	0.252	-0.307
-565.588	107.879	-0.130	0.155
-564.573	-97.151	0.119	0.031
-563.558	-150.192	-0.146	-0.011
-562.544	154.552	-0.045	0.063
-561.529	168.520	0.261	-0.374
-560.515	-39.093	0.081	0.043
-559.500	800.000	0.123	-0.342
-558.485	27.857	0.250	0.211
-557.471	30.692	0.155	0.133
-556.456	-18.050	0.139	0.087
-555.442	-45.345	0.083	0.041
-554.427	2.023	-0.078	0.057
-553.412	782.695	0.109	0.299
-552.398	1.459	-0.401	-0.289
-551.383	800.000	0.033	-0.131
-550.369	-167.271	0.474	-0.019
-549.354	536.212	-0.216	-0.515
-548.339	-111.257	0.278	0.057
-547.325	-21.605	-0.251	0.153
-546.310	800.000	-0.108	-0.401
-545.296	35.842	0.044	0.039
-544.281	-140.455	0.544	0.057
-543.266	-200.000	-0.001	0.050
-542.252	-200.000	0.023	0.279
-541.237	-100.522	-0.083	0.021
-540.223	-120.007	0.168	0.029
-539.208	-15.957	0.070	-0.045
-538.193	229.353	-0.039	0.064
-537.179	502.902	-0.146	-0.339
-536.164	-143.893	-0.156	-0.015
-535.150	-186.866	-0.232	0.003
-534.135	800.000	0.075	-0.285
-533.121	104.248	-0.166	0.195
-532.106	6.273	-0.273	0.203
-531.091	-187.556	0.258	-0.003
-530.077	102.125	-0.130	-0.152
-529.062	238.951	-0.051	0.085
-528.048	-52.449	0.301	-0.139
-527.033	159.274	0.237	0.331
-526.018	-39.413	0.217	0.114
-525.004	-140.124	0.148	-0.016
-523.989	-105.369	-0.073	-0.017
-522.975	-200.000	-0.037	-0.209
-521.960	133.186	0.087	0.113
-520.945	180.164	-0.033	-0.049
-519.931	-56.257	0.094	0.042
-518.916	-96.632	-0.156	0.041
-517.902	800.000	-0.077	-0.225
-516.887	-200.000	-0.001	-0.090
-515.872	-44.748	-0.248	0.124
-514.858	315.946	0.068	0.129
-513.843	-158.561	-0.148	0.009
-512.829	1.453	-0.128	-0.092
-511.814	-2.352	0.109	-0.077
-510.799	17.339	0.156	0.124
-509.785	5.137	-0.231	0.170
-508.770	800.000	0.049	0.213
-507.756	-145.584	-0.170	0.015
-506.741	112.780	0.113	-0.137
-505.726	45.994	-0.068	-0.063
-504.712	-27.877	-0.117	0.068
-503.697	-57.433	-0.317	-0.139
-502.683	485.490	-0.041	-0.094
-501.668	-200.000	0.028	0.131
-500.653	348.047	-0.062	-0.123
-499.639	-70.480	-0.056	-0.021
-498.624	-200.000	-0.046	0.269
-497.610	228.808	-0.098	0.159
-496.595	-100.429	-0.414	0.103
-495.581	376.040	0.151	0.309
-494.566	-13.484	-0.246	-0.160
-493.551	78.094	0.142	-0.151
-492.537	-200.000	0.002	0.121
-491.522	-169.956	0.143	-0.005
-490.508	-147.566	-0.433	0.036
-489.493	17.213	-0.174	0.138
-488.478	-200.000	-0.033	-0.176
-487.464	-1.672	0.162	0.114
-486.449	800.000	-0.076	-0.316
-485.435	520.948	-0.080	-0.189
-484.420	-37.103	0.139	0.074
-483.405	87.913	0.144	0.159
-482.391	-122.736	0.073	0.012
-481.376	-200.000	-0.015	0.080
-480.362	-200.000	-0.176	-0.001
-479.347	-14.300	0.196	-0.127
-478.332	165.766	0.221	0.312
-477.318	438.498	-0.148	0.324
-476.303	164.828	0.179	0.252
-475.289	-114.381	0.170	0.033
-474.274	800.000	0.117	-0.456
-473.259	-186.600	0.508	0.007
-472.245	78.774	0.086	-0.091
-471.230	-119.633	-0.351	-0.061
-470.216	-27.688	0.228	0.132
-469.201	-200.000	0.043	0.229
-468.186	-67.276	-0.069	0.027
-467.172	5.076	-0.127	-0.093
-466.157	-150.795	-0.136	0.010
-465.143	102.248	0.080	-0.093
-464.128	267.634	-0.094	0.165
-463.113	280.015	-0.043	-0.077
-462.099	-200.000	0.008	0.164
-461.084	-28.756	0.168	-0.097
-460.070	800.000	0.106	0.367
-459.055	-38.720	-0.253	-0.133
-458.040	-135.339	-0.262	-0.031
-457.026	533.197	-0.180	-0.427
-456.011	-41.423	-0.144	0.074
-454.997	164.996	-0.206	0.291
-453.982	5.282	-0.073	0.054
-452.968	180.681	0.032	0.046
-451.953	-44.057	0.270	0.136
-450.938	27.562	-0.109	0.092
-449.924	-63.954	0.320	-0.131
-448.909	-25.756	0.154	-0.091
-447.895	-96.117	0.244	0.065
-446.880	381.616	-0.124	-0.254
-445.865	-98.772	0.181	-0.046
-444.851	-200.000	0.059	-0.410
-443.836	25.321	-0.081	0.067
-442.822	507.891	0.045	0.104
-441.807	-200.000	-0.020	-0.161
-440.792	67.803	-0.154	-0.157
-439.778	-119.125	0.076	-0.013
-438.763	-14.406	-0.185	0.119
-437.749	-146.721	0.168	0.015
-436.734	698.965	0.045	0.117
-435.719	-165.395	-0.238	-0.010
-434.705	269.984	0.039	0.068
-433.690	46.183	-0.142	0.131
-432.676	337.912	0.154	0.300
-431.661	-37.899	-0.074	-0.039
-430.646	800.000	-0.090	0.354
-429.632	-49.604	0.175	0.083
-428.617	462.406	0.073	0.163
-427.603	-15.371	0.244	-0.156
-426.588	546.071	-0.111	-0.264
-425.573	67.564	-0.065	-0.066
-424.559	-120.391	0.431	-0.073
-423.544	-200.000	-0.021	0.266
-422.530	129.985	-0.106	0.135
-421.515	-61.897	-0.161	-0.067
-420.500	800.000	-0.100	-0.420
-419.486	-145.827	0.129	-0.011
-418.471	122.293	-0.170	-0.212
-417.457	45.492	-0.081	0.074
-416.442	61.276	-0.075	-0.075
-415.428	-112.298	-0.228	0.046
-414.413	147.462	-0.127	-0.171
-413.398	-200.000	0.023	-0.220
-412.384	39.017	0.134	-0.119
-411.369	61.712	-0.245	-0.243
-410.355	-200.000	0.035	0.251
-409.340	-163.217	-0.125	-0.006
-408.325	195.656	0.127	-0.193
-407.311	-60.302	-0.137	0.058
-406.296	80.447	0.150	0.161
-405.282	403.398	0.074	-0.155
-404.267	-28.761	-0.250	0.144
-403.252	196.705	0.121	-0.184
-402.238	124.073	-0.135	0.169
-401.223	-200.000	0.038	0.327
-400.209	-162.672	-0.123	0.006
-399.194	-34.533	0.117	-0.064
-398.179	-82.078	0.246	-0.080
-397.165	-72.739	0.107	-0.039
-396.150	800.000	-0.018	0.062
-395.136	-200.000	0.073	-0.427
-394.121	-115.907	-0.189	-0.035
-393.106	14.294	0.233	0.181
-392.092	56.095	-0.107	-0.103
-391.077	-118.685	-0.038	0.007
-390.063	138.463	0.145	0.190
-389.048	-134.341	-0.178	0.022
-388.033	7.814	-0.150	-0.112
-387.019	800.000	-0.033	0.093
-386.004	396.755	0.013	-0.028
-384.990	-200.000	0.045	0.517
-383.975	265.319	-0.087	0.151
-382.960	95.716	-0.080	0.091
-381.946	80.067	0.347	-0.372
-380.931	-87.068	0.196	0.059
-379.917	-105.507	0.363	-0.082
-378.902	-200.000	0.007	0.122
-377.888	-16.228	0.168	0.106
-376.873	-61.592	-0.250	-0.105
-375.858	39.518	-0.295	-0.263
-374.844	-101.250	-0.349	0.085
-373.829	-86.367	-0.425	-0.130
-372.815	-92.225	-0.225	0.063
-371.800	27.720	-0.158	0.132
-370.785	-200.000	0.029	-0.304
-369.771	43.456	0.278	0.253
-368.756	-15.608	0.305	0.193
-367.742	-4.929	-0.266	-0.182
-366.727	-60.961	0.153	0.065
-365.712	-128.597	-0.275	-0.039
-364.698	-81.084	-0.142	0.047
-363.683	222.252	-0.058	-0.093
-362.669	-63.202	-0.052	0.021
-361.654	-200.000	-0.004	0.227
-360.639	-95.600	-0.054	0.015
-359.625	288.795	0.093	0.167
-358.610	-200.000	-0.005	0.286
-357.596	393.006	0.072	-0.150
-356.581	800.000	-0.031	-0.110
-355.566	-57.034	-0.170	0.075
-354.552	-176.997	-0.183	0.005
-353.537	299.363	0.145	0.266
-352.523	190.951	-0.133	0.199
-351.508	-114.808	0.260	-0.049
-350.493	800.000	-0.055	-0.215
-349.479	-121.879	0.342	0.056
-348.464	-94.150	0.250	0.068
-347.450	84.194	0.135	-0.147
-346.435	-52.244	-0.134	0.062
-345.420	800.000	-0.025	0.076
-344.406	-200.000	0.009	-0.114
-343.391	120.075	-0.239	-0.296
-342.377	800.000	0.058	-0.246
-341.362	-151.416	0.053	-0.004
-340.348	2.961	-0.134	-0.097
-339.333	18.662	-0.091	0.072
-338.318	-138.312	0.168	-0.018
-337.304	800.000	0.016	0.047
-336.289	-107.200	-0.291	0.064
-335.275	-200.000	0.031	-0.289
-334.260	133.205	0.098	0.126
-333.245	216.998	0.238	-0.377
-332.231	-67.747	0.414	-0.161
-331.216	-40.387	0.155	0.080
-330.202	585.674	0.082	0.200
-329.187	-25.545	-0.067	0.040
-328.172	-136.172	-0.130	0.015
-327.158	-84.115	-0.279	-0.088
-326.143	1.292	-0.091	0.065
-325.129	-90.832	-0.197	-0.056
-324.114	-67.625	-0.303	0.118
-323.099	148.223	0.068	-0.092
-322.085	-200.000	0.028	-0.470
-321.070	-41.534	0.059	-0.030
-320.056	55.737	0.060	-0.058
-319.041	-125.460	0.354	-0.053
-318.026	255.332	0.094	0.160
-317.012	-28.982	0.045	-0.026
-315.997	198.405	-0.067	0.102
-314.983	-200.000	-0.036	0.212
-313.968	63.753	-0.002	0.002
-312.953	-142.293	0.330	0.032
-311.939	800.000	0.045	-0.174
-310.924	-88.818	0.077	-0.023
-309.910	-200.000	0.005	0.191
-308.895	-124.657	-0.287	-0.044
-307.880	-200.000	0.020	0.110
-306.866	-200.000	0.003	0.113
-305.851	-200.000	-0.050	0.354
-304.837	193.180	-0.012	0.018
-303.822	-69.486	0.119	-0.045
-302.807	666.606	-0.038	0.099
-301.793	236.619	-0.121	-0.198
-300.778	-60.799	0.076	-0.032
-299.764	102.365	0.251	-0.292
-298.749	76.655	0.177	-0.186
-297.735	-200.000	0.086	0.378
-296.720	-107.900	0.044	0.009
-295.705	52.880	0.257	0.244
-294.691	371.535	0.074	0.149
-293.676	-58.898	-0.142	0.061
-292.662	-33.989	-0.138	0.075
-291.647	-73.957	-0.185	-0.067
-290.632	1.551	0.212	-0.151
-289.618	112.691	-0.122	0.147
-288.603	800.000	0.006	0.025
-287.589	166.846	-0.246	0.346
-286.574	800.000	-0.120	0.390
-285.559	484.587	-0.143	-0.324
-284.545	-127.618	-0.330	-0.047
-283.530	282.586	-0.128	0.228
-282.516	223.078	-0.144	0.230
-281.501	154.559	-0.095	-0.129
-280.486	-131.348	-0.119	-0.016
-279.472	-19.388	0.163	-0.100
-278.457	-97.301	-0.150	-0.039
-277.443	800.000	-0.042	0.145
-276.428	-54.251	-0.078	-0.035
-275.413	723.105	-0.018	0.048
-274.399	94.685	-0.162	0.183
-273.384	-83.441	0.123	-0.039
-272.370	-91.073	-0.103	-0.029
-271.355	-200.000	-0.038	0.190
-270.340	636.341	-0.097	-0.246
-269.326	103.810	-0.041	-0.048
-268.311	-154.015	-0.126	-0.009
-267.297	-200.000	0.003	-0.334
-266.282	-200.000	0.005	-0.336
-265.267	-54.334	-0.243	0.109
-264.253	29.484	-0.281	0.237
-263.238	-98.709	0.355	-0.090
-262.224	-81.812	0.137	0.044
-261.209	366.851	-0.100	-0.199
-260.195	-88.004	-0.208	0.062
-259.180	72.061	0.189	0.195
-258.165	-78.180	-0.155	-0.053
-257.151	-101.596	-0.178	-0.043
-256.136	64.271	-0.112	-0.112
-255.122	654.489	0.065	-0.165
-254.107	-98.523	0.276	0.070
-253.092	800.000	0.065	0.224
-252.078	-200.000	0.035	0.223
-251.063	-124.505	-0.112	-0.017
-250.049	155.980	0.225	-0.307
-249.034	-35.558	-0.289	0.156
-248.019	-200.000	0.005	-0.203
-247.005	-200.000	-0.036	-0.285
-245.990	-17.803	-0.206	0.128
-244.976	-200.000	-0.010	-0.297
-243.961	-75.463	-0.276	0.097
-242.946	20.608	0.162	-0.130
-241.932	-85.952	-0.038	0.012
-240.917	800.000	0.053	0.158
-239.903	112.272	0.056	0.067
-238.888	-6.626	0.069	0.047
-237.873	203.550	0.190	-0.291
-236.859	-200.000	-0.006	-0.109
-235.844	592.484	0.063	0.154
-234.830	-200.000	0.012	-0.113
-233.815	74.233	0.131	0.136
-232.800	158.824	-0.180	0.248
-231.786	221.764	-0.217	0.345
-230.771	-71.707	-0.320	-0.118
-229.757	-84.927	0.212	0.066
-228.742	354.667	0.036	0.070
-227.727	400.383	0.062	0.130
-226.713	711.063	0.034	-0.090
-225.698	122.819	-0.256	0.317
-224.684	105.778	-0.089	0.105
-223.669	-32.248	-0.097	0.053
-222.655	-200.000	0.013	0.063
-221.640	-200.000	-0.016	0.112
-220.625	20.373	-0.125	0.100
-219.611	177.227	-0.153	-0.220
-218.596	-200.000	-0.010	-0.164
-217.582	-48.680	0.230	0.109
-216.567	-159.219	0.179	-0.010
-215.552	132.380	-0.139	0.178
-214.538	-70.204	0.211	-0.079
-213.523	150.758	0.173	-0.233
-212.509	50.973	-0.102	-0.096
-211.494	-200.000	0.016	-0.294
-210.479	-200.000	0.012	-0.270
-209.465	-94.568	0.150	0.040
-208.450	180.832	0.129	0.187
-207.436	-200.000	-0.021	-0.153
-206.421	63.684	0.218	0.216
-205.406	-48.243	-0.196	-0.094
-204.392	6.574	-0.099	-0.072
-203.377	682.879	0.008	-0.021
-202.363	800.000	0.074	-0.205
-201.348	-105.274	-0.218	0.049
-200.333	-25.965	0.313	0.182
-199.319	524.735	-0.031	0.071
-198.304	800.000	-0.042	-0.120
-197.290	-84.046	0.193	0.061
-196.275	-147.336	0.375	-0.031
-195.260	-143.371	-0.203	0.019
-194.246	800.000	-0.024	-0.104
-193.231	800.000	-0.146	0.406
-192.217	-20.595	0.130	0.079
-191.202	-129.631	0.336	-0.046
-190.187	33.684	-0.150	0.129
-189.173	23.048	0.122	0.099
-188.158	130.112	-0.117	0.148
-187.144	-200.000	0.016	0.102
-186.129	136.404	0.021	-0.026
-185.114	800.000	0.085	-0.308
-184.100	205.819	0.148	-0.227
-183.085	-200.000	-0.022	0.194
-182.071	45.274	-0.263	-0.240
-181.056	800.000	-0.012	-0.040
-180.042	-200.000	-0.001	-0.085
-179.027	308.964	0.185	-0.342
-178.012	-200.000	0.001	-0.048
-176.998	-200.000	-0.020	0.333
-175.983	-200.000	-0.065	-0.329
-174.969	800.000	-0.026	-0.095
-173.954	292.664	-0.084	0.150
-172.939	-200.000	0.069	-0.335
-171.925	-200.000	0.016	-0.100
-170.910	800.000	-0.072	0.303
-169.896	-18.541	-0.153	0.094
-168.881	-200.000	0.003	-0.341
-167.866	-146.044	-0.310	-0.027
-166.852	39.740	0.135	-0.120
-165.837	-83.674	0.527	-0.166
-164.823	800.000	0.096	0.340
-163.808	-93.866	0.158	0.043
-162.793	-6.415	0.046	-0.031
-161.779	-29.916	0.148	-0.083
-160.764	-148.834	0.268	0.021
-159.750	-54.815	0.202	-0.090
-158.735	-46.620	0.028	0.014
-157.720	-69.627	0.188	0.071
-156.706	800.000	0.058	0.167
-155.691	108.693	0.184	-0.217
-154.677	-200.000	0.024	-0.152
-153.662	481.920	0.022	0.049
-152.647	-200.000	0.022	-0.476
-151.633	-163.399	-0.211	0.010
-150.618	-96.299	0.316	0.083
-149.604	-200.000	0.013	-0.127
-148.589	-60.953	0.227	-0.095
-147.574	800.000	0.076	0.237
-146.560	-98.114	0.224	0.057
-145.545	68.285	-0.293	0.297
-144.531	-31.262	-0.259	0.144
-143.516	268.327	-0.051	-0.088
-142.502	-125.154	-0.145	-0.022
-141.487	749.670	-0.073	-0.195
-140.472	-200.000	0.009	0.101
-139.458	-123.412	-0.057	-0.009
-138.443	-115.816	0.168	-0.031
-137.429	26.455	0.096	-0.079
-136.414	-19.382	0.207	-0.127
-135.399	-200.000	0.028	-0.156
-134.385	338.525	-0.134	0.257
-133.370	98.503	0.058	0.066
-132.356	18.385	0.270	-0.213
-131.341	159.689	0.175	0.241
-130.326	-16.706	0.178	0.111
-129.312	198.670	-0.113	0.171
-128.297	-50.695	0.127	0.059
-127.283	185.634	0.141	0.207
-126.268	-84.998	0.108	0.033
-125.253	222.957	-0.158	-0.252
-124.239	-104.559	-0.195	-0.044
-123.224	7.847	0.158	-0.117
-122.210	-20.089	0.154	-0.094
