DTS Sentinel unit serial number:	SN413079Multiplexer serial number:	ORYXHardware model number:	OX4-SRSoftware version number:	ORYX F/W v4.00 Oryx Data Collector v3.7.2.0data status	okinstallation	princeton_trtdifferential loss correction	single-endedforward channel	channel 1reverse channel	N/Adate	2019/09/10time	18:48:11forward acquisition time	60.00reverse acquisition time	0.00gamma	496.2192k internal	0.2311k external	0.2311temperature offset calibration	0.9926default loss term (dB/km)	0.3790temperature slope calibration	1.0000multiplexer offset coefficient	1.0000multiplexer slope coefficient	1.0000fibre end	0.00T internal ref (°C)	35.06T ext. ref 1 (°C)	-0.43T ext. ref 2 (°C)	27.10length (m)	temperature (°C)	Stokes	anti-Stokes-747.200	-81.762	0.169	-0.056
-746.185	74.260	0.169	0.180
-745.171	-200.000	0.002	-0.211
-744.156	-200.000	-0.067	-0.444
-743.142	744.298	0.068	-0.185
-742.127	50.012	-0.145	0.138
-741.112	800.000	0.080	0.259
-740.098	53.802	-0.080	-0.078
-739.083	-42.121	-0.116	0.060
-738.069	-21.913	-0.184	0.113
-737.054	570.896	0.072	0.177
-736.039	-186.685	-0.293	-0.004
-735.025	-50.006	0.365	0.176
-734.010	-129.172	-0.140	-0.020
-732.996	722.703	0.008	-0.021
-731.981	89.549	0.058	0.066
-730.966	-100.609	-0.255	-0.064
-729.952	39.035	-0.265	-0.240
-728.937	301.685	-0.052	0.097
-727.923	-26.717	-0.311	-0.184
-726.908	-44.634	-0.335	-0.170
-725.894	209.753	0.073	-0.117
-724.879	636.501	0.099	-0.254
-723.864	17.887	-0.121	-0.098
-722.850	83.003	-0.196	0.216
-721.835	-1.773	0.156	0.111
-720.821	-20.108	-0.191	-0.119
-719.806	-100.142	0.194	0.049
-718.791	23.963	-0.171	-0.143
-717.777	-28.767	-0.146	-0.085
-716.762	209.838	-0.044	-0.069
-715.748	-198.875	-0.300	-0.002
-714.733	-99.306	-0.275	0.070
-713.718	-72.555	-0.099	-0.037
-712.704	337.930	0.182	0.358
-711.689	5.194	0.101	0.076
-710.675	780.048	-0.100	-0.276
-709.660	-60.535	-0.049	-0.021
-708.645	-96.797	0.289	0.077
-707.631	388.279	-0.120	-0.251
-706.616	259.818	0.076	0.132
-705.602	-96.553	-0.322	-0.086
-704.587	302.701	-0.129	-0.242
-703.572	-171.026	0.333	-0.011
-702.558	134.495	-0.049	-0.064
-701.543	-165.720	0.035	-0.002
-700.529	-84.557	-0.226	-0.072
-699.514	-130.600	0.135	-0.018
-698.499	-200.000	0.008	-0.200
-697.485	-63.726	0.158	0.065
-696.470	-48.215	-0.043	-0.021
-695.456	-4.149	0.159	0.111
-694.441	340.273	-0.106	-0.209
-693.426	-168.099	-0.024	-0.001
-692.412	18.437	0.249	-0.202
-691.397	800.000	-0.039	0.144
-690.383	83.989	-0.087	-0.097
-689.368	-60.190	-0.095	-0.041
-688.354	36.488	0.423	-0.378
-687.339	-193.448	-0.495	-0.004
-686.324	-80.797	0.439	0.148
-685.310	34.915	-0.245	0.217
-684.295	-66.013	-0.249	0.101
-683.281	-105.406	0.532	-0.123
-682.266	7.712	-0.206	0.156
-681.251	-41.090	0.143	-0.075
-680.237	-143.411	-0.286	-0.028
-679.222	-200.000	-0.002	0.281
-678.208	-200.000	0.040	0.252
-677.193	-169.608	0.183	-0.007
-676.178	-135.967	0.288	-0.034
-675.164	-116.049	-0.253	0.048
-674.149	32.847	0.098	-0.085
-673.135	-95.278	-0.365	-0.099
-672.120	119.504	-0.181	-0.227
-671.105	-100.274	0.180	-0.045
-670.091	-25.594	-0.199	0.119
-669.076	-200.000	-0.013	0.199
-668.062	158.935	-0.209	-0.294
-667.047	95.439	0.251	-0.289
-666.032	-41.448	0.352	-0.183
-665.018	-200.000	0.043	0.293
-664.003	800.000	-0.065	0.187
-662.989	-148.386	-0.191	0.016
-661.974	-97.056	0.191	-0.051
-660.959	-164.198	0.165	0.008
-659.945	800.000	-0.038	-0.144
-658.930	358.971	-0.042	0.085
-657.916	-200.000	0.014	-0.277
-656.901	119.197	0.092	-0.115
-655.886	227.772	-0.153	-0.251
-654.872	-56.891	0.208	-0.093
-653.857	-90.187	-0.212	-0.062
-652.843	36.673	-0.100	0.090
-651.828	246.807	0.028	-0.047
-650.814	-200.000	0.034	0.209
-649.799	52.887	0.155	-0.150
-648.784	-75.212	-0.215	0.078
-647.770	-38.074	0.126	0.068
-646.755	-200.000	-0.014	-0.155
-645.741	-152.875	-0.409	0.029
-644.726	-62.176	-0.118	0.050
-643.711	-10.215	0.261	-0.175
-642.697	-200.000	-0.032	-0.277
-641.682	-71.120	0.066	0.025
-640.668	-31.738	-0.091	-0.052
-639.653	-154.730	0.429	0.029
-638.638	354.008	0.069	-0.139
-637.624	-51.337	-0.182	-0.086
-636.609	-163.900	-0.084	0.004
-635.595	26.205	0.149	0.126
-634.580	-200.000	0.015	-0.109
-633.565	-69.725	-0.114	0.044
-632.551	347.987	0.092	0.182
-631.536	763.489	0.076	-0.208
-630.522	348.938	-0.020	0.041
-629.507	-113.504	-0.094	-0.019
-628.492	-200.000	-0.048	0.235
-627.478	70.210	0.149	-0.156
-626.463	800.000	0.059	-0.169
-625.449	-133.150	-0.358	-0.046
-624.434	104.815	0.108	0.128
-623.419	-200.000	0.086	0.510
-622.405	800.000	0.057	-0.195
-621.390	-93.255	-0.121	0.034
-620.376	24.745	0.162	0.135
-619.361	-200.000	-0.010	0.221
-618.346	114.057	-0.031	0.038
-617.332	309.962	-0.131	0.247
-616.317	-69.998	0.091	0.035
-615.303	-200.000	0.015	-0.205
-614.288	-62.437	0.171	-0.072
-613.273	207.772	0.130	0.205
-612.259	800.000	-0.009	-0.039
-611.244	-116.755	-0.040	0.007
-610.230	401.020	0.033	0.069
-609.215	96.177	-0.201	-0.233
-608.201	-95.727	-0.021	-0.006
-607.186	-200.000	0.023	-0.136
-606.171	-11.826	0.217	0.144
-605.157	199.574	0.134	-0.207
-604.142	749.966	-0.068	-0.186
-603.128	-200.000	0.062	-0.413
-602.113	-101.670	-0.401	0.098
-601.098	-68.713	0.249	-0.097
-600.084	260.907	-0.047	-0.082
-599.069	-85.983	-0.337	0.105
-598.055	36.281	-0.205	-0.183
-597.040	800.000	0.067	-0.292
-596.025	-185.431	0.065	0.001
-595.011	-104.197	-0.133	0.031
-593.996	-55.632	-0.162	0.073
-592.982	-26.419	0.003	0.002
-591.967	-10.098	0.109	-0.073
-590.952	76.319	0.205	-0.219
-589.938	-113.083	-0.375	-0.075
-588.923	-200.000	-0.019	-0.196
-587.909	199.866	0.102	0.158
-586.894	-134.862	-0.262	0.032
-585.879	39.193	-0.115	-0.104
-584.865	186.907	-0.115	-0.173
-583.850	-91.128	-0.019	-0.006
-582.836	-80.835	0.172	-0.058
-581.821	-65.277	-0.136	0.055
-580.806	-101.832	0.081	0.020
-579.792	-200.000	-0.003	-0.057
-578.777	-200.000	-0.001	-0.166
-577.763	-109.589	-0.179	-0.038
-576.748	-169.719	0.286	-0.010
-575.733	-200.000	-0.004	0.075
-574.719	54.614	0.333	-0.324
-573.704	85.910	0.151	-0.167
-572.690	-96.491	0.219	0.058
-571.675	-199.875	-0.198	0.001
-570.661	-200.000	0.064	0.309
-569.646	388.893	-0.137	-0.285
-568.631	1.396	-0.134	-0.097
-567.617	-87.720	0.144	0.044
-566.602	226.322	0.120	-0.196
-565.588	-29.728	-0.118	0.068
-564.573	-7.069	-0.135	0.092
-563.558	-123.264	-0.363	0.059
-562.544	-126.125	-0.189	-0.029
-561.529	-200.000	0.000	-0.058
-560.515	800.000	-0.100	0.312
-559.500	-200.000	-0.025	0.199
-558.485	183.484	0.102	0.152
-557.471	-143.637	0.087	0.008
-556.456	-200.000	0.023	0.102
-555.442	-77.649	0.105	0.037
-554.427	-141.846	0.376	-0.038
-553.412	-200.000	-0.001	0.041
-552.398	7.832	-0.229	0.173
-551.383	-160.602	-0.167	-0.009
-550.369	-200.000	0.026	-0.212
-549.354	800.000	0.006	-0.023
-548.339	85.553	-0.231	0.256
-547.325	-200.000	-0.012	0.127
-546.310	800.000	0.070	0.230
-545.296	-91.403	0.392	-0.113
-544.281	-200.000	-0.004	-0.110
-543.266	-200.000	0.037	0.222
-542.252	367.253	0.112	0.228
-541.237	-144.139	0.245	-0.023
-540.223	336.025	-0.015	0.030
-539.208	-160.118	-0.424	-0.023
-538.193	-157.438	-0.278	-0.017
-537.179	167.210	-0.128	0.183
-536.164	-93.012	0.145	0.041
-535.150	-200.000	-0.016	0.256
-534.135	210.170	-0.083	0.131
-533.121	164.980	0.235	-0.334
-532.106	68.746	0.243	0.251
-531.091	-200.000	0.075	0.478
-530.077	-120.968	-0.117	0.020
-529.062	-72.620	-0.182	-0.068
-528.048	-188.442	0.210	0.003
-527.033	-114.068	-0.154	-0.030
-526.018	37.626	-0.098	-0.088
-525.004	-200.000	-0.004	0.039
-523.989	-51.709	-0.179	-0.084
-522.975	-73.196	-0.260	0.096
-521.960	-112.039	0.220	0.045
-520.945	800.000	-0.064	-0.280
-519.931	11.295	0.120	-0.092
-518.916	-51.074	-0.176	0.083
-517.902	-43.996	-0.336	0.170
-516.887	419.050	0.123	0.264
-515.872	-85.231	-0.344	0.108
-514.858	-199.502	0.121	-0.001
-513.843	-115.162	-0.425	-0.081
-512.829	-31.725	0.280	-0.158
-511.814	-79.503	0.174	0.059
-510.799	-120.947	0.221	-0.037
-509.785	148.413	0.104	-0.141
-508.770	-200.000	0.028	0.235
-507.756	-50.812	0.123	0.058
-506.741	-90.448	0.172	0.050
-505.726	-200.000	-0.016	-0.238
-504.712	-51.310	0.108	0.051
-503.697	-2.212	-0.188	0.133
-502.683	43.049	-0.177	-0.162
-501.668	-200.000	-0.008	-0.075
-500.653	800.000	0.055	-0.205
-499.639	-38.773	0.186	-0.099
-498.624	54.502	-0.115	0.111
-497.610	334.846	-0.024	-0.046
-496.595	208.451	-0.082	0.128
-495.581	224.090	-0.054	0.087
-494.566	100.932	0.117	0.137
-493.551	-84.163	0.218	-0.070
-492.537	-200.000	-0.019	-0.122
-491.522	-5.862	-0.030	0.021
-490.508	-200.000	-0.059	0.317
-489.493	17.252	-0.060	0.048
-488.478	24.261	0.055	-0.046
-487.464	206.342	-0.049	-0.076
-486.449	-73.315	0.145	-0.053
-485.435	-200.000	-0.026	-0.149
-484.420	129.338	-0.260	-0.333
-483.405	68.711	0.076	-0.078
-482.391	404.637	-0.096	-0.203
-481.376	121.148	-0.223	0.279
-480.362	800.000	-0.052	-0.183
-479.347	-71.645	0.321	-0.121
-478.332	-143.262	-0.315	0.030
-477.318	61.044	-0.246	-0.246
-476.303	-101.699	-0.353	-0.086
-475.289	242.670	-0.096	-0.162
-474.274	184.530	0.156	-0.233
-473.259	-90.673	0.211	-0.061
-472.245	-105.244	-0.062	-0.014
-471.230	29.446	0.332	0.283
-470.216	-200.000	-0.017	0.241
-469.201	379.795	0.025	-0.051
-468.186	-77.453	-0.245	0.086
-467.172	-200.000	0.019	0.146
-466.157	-124.408	-0.382	-0.060
-465.143	92.468	0.053	-0.060
-464.128	-200.000	0.140	0.000
-463.113	-41.800	-0.028	-0.014
-462.099	-200.000	-0.004	0.068
-461.084	142.257	-0.121	0.161
-460.070	61.356	0.184	0.183
-459.055	-153.454	-0.157	0.011
-458.040	-67.962	0.144	0.056
-457.026	-70.661	-0.219	0.083
-456.011	-184.436	0.374	-0.006
-454.997	-63.552	0.091	-0.038
-453.982	-75.954	-0.274	0.097
-452.968	-42.151	0.158	-0.081
-451.953	167.206	-0.144	-0.205
-450.938	-120.672	-0.475	-0.081
-449.924	708.801	-0.048	-0.126
-448.909	-200.000	0.018	0.105
-447.895	-106.824	0.178	-0.040
-446.880	-53.905	-0.135	-0.062
-445.865	-200.000	-0.013	-0.095
-444.851	207.595	-0.118	0.185
-443.836	800.000	-0.074	-0.266
-442.822	-27.263	-0.046	0.027
-441.807	170.612	0.183	0.263
-440.792	271.243	-0.200	0.353
-439.778	-200.000	-0.007	0.105
-438.763	-200.000	0.034	0.317
-437.749	185.484	0.154	0.229
-436.734	800.000	0.037	-0.109
-435.719	179.478	-0.145	0.213
-434.705	187.986	0.139	0.208
-433.690	-183.911	0.147	0.002
-432.676	-47.267	-0.196	-0.096
-431.661	-200.000	0.000	-0.020
-430.646	800.000	-0.078	0.290
-429.632	219.144	0.102	-0.163
-428.617	800.000	-0.076	-0.305
-427.603	-9.115	-0.384	-0.258
-426.588	-200.000	-0.026	-0.160
-425.573	-40.749	0.216	-0.112
-424.559	-109.913	0.291	-0.061
-423.544	534.616	-0.056	0.133
-422.530	-200.000	-0.041	0.400
-421.515	-36.363	0.384	0.208
-420.500	-200.000	0.010	0.239
-419.486	-200.000	0.009	-0.149
-418.471	-200.000	-0.005	0.214
-417.457	303.330	0.075	-0.139
-416.442	-200.000	-0.039	0.433
-415.428	227.429	-0.078	-0.126
-414.413	-10.185	0.119	0.079
-413.398	695.130	0.079	-0.209
-412.384	-200.000	0.028	0.380
-411.369	5.068	0.213	0.157
-410.355	185.257	0.289	-0.430
-409.340	-200.000	-0.053	-0.363
-408.325	-149.601	-0.287	0.023
-407.311	98.059	0.192	0.222
-406.296	-118.444	-0.101	-0.018
-405.282	-41.692	0.248	-0.128
-404.267	3.254	-0.262	0.191
-403.252	-41.255	0.100	-0.052
-402.238	800.000	-0.077	0.322
-401.223	-200.000	-0.009	0.323
-400.209	-33.536	-0.080	-0.044
-399.194	-200.000	0.152	0.001
-398.179	-98.703	0.489	0.125
-397.165	293.344	0.208	0.381
-396.150	-17.861	-0.068	-0.043
-395.136	15.025	0.279	0.219
-394.121	-200.000	-0.019	-0.158
-393.106	-83.953	0.330	-0.105
-392.092	-106.433	0.298	0.067
-391.077	-97.148	0.206	-0.054
-390.063	800.000	0.049	0.161
-389.048	64.680	-0.287	0.290
-388.033	-84.535	-0.365	0.115
-387.019	71.688	0.256	0.266
-386.004	70.948	-0.133	0.137
-384.990	-158.334	-0.471	0.027
-383.975	-200.000	-0.003	-0.054
-382.960	356.648	0.063	-0.125
-381.946	-59.577	0.353	0.152
-380.931	175.682	0.096	-0.139
-379.917	-96.351	0.396	0.105
-378.902	-103.728	0.234	-0.055
-377.888	-8.159	0.221	-0.149
-376.873	493.553	0.211	0.485
-375.858	-60.397	-0.211	0.090
-374.844	-125.914	0.269	0.041
-373.829	31.065	0.090	-0.077
-372.815	212.054	-0.139	0.219
-371.800	-46.866	-0.237	-0.116
-370.785	-80.517	0.269	0.090
-369.771	800.000	0.065	0.229
-368.756	48.642	0.072	-0.067
-367.742	-84.259	-0.052	-0.016
-366.727	508.548	-0.093	0.216
-365.712	23.663	0.137	-0.113
-364.698	-117.945	0.113	0.020
-363.683	800.000	0.013	-0.050
-362.669	-39.332	-0.235	0.124
-361.654	-200.000	0.089	0.458
-360.639	-113.749	0.171	0.033
-359.625	800.000	0.031	-0.097
-358.610	-79.346	0.443	0.150
-357.596	-75.401	0.306	0.109
-356.581	-78.171	-0.203	-0.070
-355.566	465.977	-0.272	-0.610
-354.552	-78.430	-0.152	0.052
-353.537	-200.000	-0.008	-0.095
-352.523	-182.707	-0.543	-0.010
-351.508	-105.632	-0.248	-0.056
-350.493	-200.000	-0.037	-0.261
-349.479	-200.000	-0.044	-0.320
-348.464	327.971	0.015	-0.029
-347.450	-200.000	-0.061	0.442
-346.435	-96.255	-0.167	0.044
-345.420	-129.616	-0.172	0.024
-344.406	303.050	-0.078	-0.144
-343.391	-93.597	-0.484	-0.134
-342.377	-26.100	0.103	0.060
-341.362	-134.438	-0.229	0.028
-340.348	-200.000	-0.071	0.364
-339.333	-82.070	-0.279	-0.091
-338.318	568.202	0.184	-0.447
-337.304	-126.920	0.338	-0.050
-336.289	-200.000	-0.041	-0.190
-335.275	-46.219	-0.241	-0.119
-334.260	652.544	-0.126	-0.323
-333.245	-200.000	-0.005	-0.142
-332.231	-178.435	-0.299	0.007
-331.216	-76.668	0.256	-0.090
-330.202	148.946	-0.142	0.192
-329.187	70.113	0.146	0.150
-328.172	-118.928	-0.352	0.062
-327.158	800.000	-0.057	0.208
-326.143	-0.502	0.208	-0.148
-325.129	739.524	0.071	0.191
-324.114	800.000	-0.029	-0.090
-323.099	192.758	0.070	0.106
-322.085	591.639	0.033	-0.083
-321.070	-31.039	0.294	-0.166
-320.056	-82.459	-0.359	-0.116
-319.041	59.587	0.140	0.138
-318.026	142.170	0.134	0.177
-317.012	-15.757	-0.336	0.214
-315.997	-200.000	-0.014	-0.080
-314.983	7.804	-0.346	-0.259
-313.968	-3.953	-0.145	-0.100
-312.953	-172.753	0.170	0.005
-311.939	-183.182	-0.331	-0.006
-310.924	-22.560	0.305	-0.184
-309.910	172.462	0.150	0.216
-308.895	-173.762	-0.061	-0.002
-307.880	-124.043	-0.039	0.006
-306.866	-38.185	0.123	0.065
-305.851	101.235	0.239	-0.277
-304.837	186.370	0.215	0.319
-303.822	-83.556	-0.259	-0.083
-302.807	-6.211	0.192	0.131
-301.793	-146.268	-0.283	0.025
-300.778	-74.961	0.406	0.145
-299.764	800.000	-0.036	-0.143
-298.749	-32.195	-0.107	0.060
-297.735	20.219	0.232	-0.187
-296.720	242.941	-0.097	0.161
-295.705	626.960	-0.079	-0.200
-294.691	51.892	-0.112	0.106
-293.676	141.151	-0.049	0.064
-292.662	54.077	0.223	-0.214
-291.647	178.125	0.120	-0.175
-290.632	381.026	-0.090	0.185
-289.618	-200.000	0.017	-0.296
-288.603	-110.654	0.398	0.082
-287.589	800.000	-0.034	0.115
-286.574	183.864	-0.044	0.065
-285.559	87.795	0.159	-0.175
-284.545	-200.000	0.019	0.125
-283.530	-135.489	-0.089	-0.011
-282.516	-156.762	0.058	0.004
-281.501	-67.098	0.376	0.148
-280.486	-87.610	0.395	-0.119
-279.472	-200.000	0.041	-0.183
-278.457	17.586	0.168	-0.133
-277.443	-106.531	0.065	0.014
-276.428	-107.876	-0.057	0.012
-275.413	-19.660	0.318	0.196
-274.399	310.059	0.120	-0.225
-273.384	-115.013	0.257	0.049
-272.370	416.095	-0.102	0.217
-271.355	-96.575	-0.140	-0.037
-270.340	-179.299	-0.342	0.008
-269.326	670.086	-0.156	-0.404
-268.311	-76.147	0.287	-0.101
-267.297	-200.000	-0.013	0.254
-266.282	-168.369	-0.143	0.005
-265.267	800.000	-0.087	-0.250
-264.253	215.087	-0.138	-0.218
-263.238	108.606	0.217	0.258
-262.224	-200.000	-0.039	0.255
-261.209	191.131	0.022	0.034
-260.195	733.332	-0.021	-0.057
-259.180	-42.131	-0.407	-0.207
-258.165	-73.811	0.255	-0.092
-257.151	-65.682	0.374	-0.149
-256.136	-200.000	0.010	-0.110
-255.122	-76.104	0.323	0.114
-254.107	-200.000	-0.005	-0.149
-253.092	800.000	0.133	-0.558
-252.078	-158.955	-0.039	0.002
-251.063	-74.974	-0.119	0.043
-250.049	-126.728	-0.495	0.073
-249.034	-22.448	-0.345	0.208
-248.019	126.549	-0.135	0.170
-247.005	-70.173	-0.143	0.054
-245.990	-200.000	-0.006	-0.187
-244.976	-200.000	0.046	0.345
-243.961	-200.000	0.051	0.261
-242.946	800.000	0.056	0.184
-241.932	-200.000	0.007	-0.163
-240.917	49.410	0.137	0.128
-239.903	-200.000	0.016	-0.172
-238.888	-41.834	0.101	-0.052
-237.873	800.000	0.073	0.209
-236.859	539.087	0.038	-0.090
-235.844	-12.130	0.151	0.098
-234.830	107.254	-0.013	-0.015
-233.815	-58.351	0.191	-0.083
-232.800	713.193	-0.084	-0.221
-231.786	194.977	-0.121	-0.183
-230.771	57.932	0.131	-0.128
-229.757	-200.000	-0.007	-0.255
-228.742	-200.000	0.021	0.321
-227.727	800.000	-0.076	-0.303
-226.713	67.283	0.095	0.097
-225.698	-63.900	-0.239	-0.097
-224.684	-50.871	0.125	0.059
-223.669	55.303	-0.116	-0.111
-222.655	284.612	0.110	0.198
-221.640	800.000	0.022	0.072
-220.625	-10.727	-0.160	-0.105
-219.611	-200.000	0.014	0.080
-218.596	238.018	-0.067	0.110
-217.582	-93.897	0.190	-0.052
-216.567	12.979	-0.067	-0.052
-215.552	-200.000	-0.022	-0.146
-214.538	-79.149	-0.294	-0.099
-213.523	800.000	0.057	-0.167
-212.509	800.000	0.019	0.053
-211.494	-199.744	0.436	0.002
-210.479	-144.098	0.228	0.021
-209.465	800.000	0.060	-0.217
-208.450	-55.697	0.256	0.114
-207.436	125.540	-0.088	-0.110
-206.421	800.000	-0.141	-0.388
-205.406	-200.000	-0.056	-0.350
-204.392	1.302	-0.095	0.068
-203.377	-60.331	-0.148	0.063
-202.363	-200.000	-0.028	0.158
-201.348	-113.436	-0.021	0.004
-200.333	800.000	0.028	-0.088
-199.319	-144.852	-0.252	-0.023
-198.304	800.000	0.026	0.096
-197.290	509.377	0.083	-0.193
-196.275	-8.586	-0.059	0.039
-195.260	800.000	0.066	0.224
-194.246	-27.196	0.124	-0.072
-193.231	-64.798	-0.153	0.061
-192.217	13.543	0.189	0.145
-191.202	-200.000	0.007	0.059
-190.187	-109.848	-0.077	0.016
-189.173	800.000	-0.073	0.215
-188.158	-130.596	0.225	-0.030
-187.144	-20.231	-0.082	0.050
-186.129	107.518	0.118	0.139
-185.114	25.953	-0.057	-0.047
-184.100	170.776	0.180	-0.256
-183.085	432.032	-0.088	-0.190
-182.071	76.279	0.253	-0.266
-181.056	26.993	-0.097	-0.080
-180.042	-127.069	-0.197	-0.029
-179.027	-23.440	0.249	-0.148
-178.012	-57.234	-0.367	-0.160
-176.998	800.000	0.012	0.037
-175.983	192.790	-0.225	0.338
-174.969	419.827	-0.022	-0.047
-173.954	17.737	-0.261	-0.207
-172.939	-200.000	0.012	-0.122
-171.925	-88.521	-0.441	0.130
-170.910	-1.215	0.193	-0.135
-169.896	-77.003	-0.084	0.029
-168.881	-200.000	0.044	0.216
-167.866	40.719	0.310	0.278
-166.852	29.105	-0.316	-0.266
-165.837	10.827	0.151	-0.115
-164.823	-200.000	-0.014	-0.143
-163.808	-200.000	0.014	0.253
-162.793	-141.651	-0.323	0.032
-161.779	-121.147	0.040	0.007
-160.764	-48.702	-0.239	-0.114
-159.750	45.056	-0.245	-0.224
-158.735	-200.000	0.007	-0.368
-157.720	12.229	-0.353	0.270
-156.706	76.197	0.146	0.154
-155.691	-118.311	0.317	0.056
-154.677	6.930	0.043	0.032
-153.662	-186.494	0.186	0.003
-152.647	70.182	0.030	-0.031
-151.633	148.186	0.054	-0.073
-150.618	-200.000	-0.016	0.284
-149.604	-200.000	-0.033	0.206
-148.589	800.000	-0.025	0.105
-147.574	800.000	0.079	0.229
-146.560	-200.000	0.001	0.081
-145.545	-200.000	-0.012	-0.056
-144.531	-73.925	0.214	-0.077
-143.516	85.665	-0.014	-0.015
-142.502	-135.990	0.232	-0.027
-141.487	-50.982	0.180	-0.084
-140.472	379.637	0.050	-0.102
-139.458	-163.291	-0.137	0.006
-138.443	-149.101	-0.260	-0.021
-137.429	15.587	0.276	-0.215
-136.414	-143.778	0.017	0.002
-135.399	-124.810	-0.334	0.051
-134.385	17.689	0.138	0.109
-133.370	309.198	-0.052	0.097
-132.356	531.648	-0.181	0.425
-131.341	112.096	-0.056	-0.067
-130.326	-106.064	0.142	-0.032
-129.312	85.627	-0.061	-0.066
-128.297	-200.000	-0.032	-0.216
-127.283	707.379	0.136	0.357
-126.268	-144.512	-0.209	-0.019
-125.253	800.000	-0.035	0.132
-124.239	800.000	-0.133	-0.392
-123.224	-12.370	-0.122	0.079
