DTS Sentinel unit serial number:	SN413079Multiplexer serial number:	ORYXHardware model number:	OX4-SRSoftware version number:	ORYX F/W v4.00 Oryx Data Collector v3.7.2.0data status	okinstallation	princeton_trtdifferential loss correction	single-endedforward channel	channel 1reverse channel	N/Adate	2019/09/10time	15:52:11forward acquisition time	60.00reverse acquisition time	0.00gamma	496.2192k internal	0.2297k external	0.2297temperature offset calibration	0.9915default loss term (dB/km)	0.3790temperature slope calibration	1.0000multiplexer offset coefficient	1.0000multiplexer slope coefficient	1.0000fibre end	0.00T internal ref (°C)	38.12T ext. ref 1 (°C)	-0.26T ext. ref 2 (°C)	32.49length (m)	temperature (°C)	Stokes	anti-Stokes-747.200	30.897	0.117	0.103
-746.185	437.039	-0.065	0.146
-745.171	420.152	0.159	-0.347
-744.156	-62.172	-0.159	-0.068
-743.142	-74.988	-0.135	0.049
-742.127	-12.137	-0.301	-0.201
-741.112	-36.939	0.100	-0.055
-740.098	-55.656	-0.154	0.071
-739.083	-52.227	0.327	-0.155
-738.069	-116.747	-0.561	0.105
-737.054	440.644	-0.056	0.125
-736.039	800.000	-0.076	-0.266
-735.025	-148.882	0.171	0.014
-734.010	800.000	-0.096	-0.290
-732.996	78.084	-0.073	0.079
-731.981	-154.905	-0.139	0.009
-730.966	-200.000	-0.020	-0.255
-729.952	800.000	0.094	-0.288
-728.937	92.961	-0.125	0.144
-727.923	147.455	-0.145	-0.199
-726.908	398.075	-0.077	-0.164
-725.894	82.804	-0.176	0.196
-724.879	-200.000	0.073	0.427
-723.864	-200.000	0.042	-0.210
-722.850	-50.218	-0.058	0.028
-721.835	-200.000	0.040	0.277
-720.821	-151.468	-0.110	0.008
-719.806	-71.193	-0.161	-0.062
-718.791	18.586	0.104	0.085
-717.777	800.000	-0.039	-0.130
-716.762	-200.000	0.030	-0.291
-715.748	131.286	-0.192	-0.252
-714.733	-55.542	-0.077	0.035
-713.718	-28.498	-0.275	-0.162
-712.704	-108.502	0.366	0.080
-711.689	-108.397	0.410	-0.090
-710.675	-125.890	-0.240	0.037
-709.660	-24.502	-0.159	0.096
-708.645	218.964	-0.030	0.048
-707.631	45.707	-0.168	-0.159
-706.616	353.658	-0.057	0.115
-705.602	-19.216	-0.195	-0.123
-704.587	-200.000	-0.014	0.176
-703.572	-113.158	0.090	0.018
-702.558	-14.529	0.176	-0.116
-701.543	398.598	-0.103	-0.221
-700.529	-152.149	0.179	-0.013
-699.514	520.636	-0.070	0.167
-698.499	342.413	-0.074	0.149
-697.485	-94.365	0.296	-0.082
-696.470	-11.460	-0.181	0.121
-695.456	-91.301	-0.217	0.063
-694.441	28.970	0.192	-0.166
-693.426	162.413	-0.034	0.049
-692.412	17.819	0.052	-0.043
-691.397	22.227	0.156	-0.130
-690.383	800.000	-0.068	0.241
-689.368	424.617	-0.032	-0.070
-688.354	62.842	0.439	-0.447
-687.339	800.000	0.084	-0.268
-686.324	-32.674	-0.188	0.107
-685.310	800.000	0.079	-0.306
-684.295	-200.000	0.002	0.149
-683.281	263.341	-0.121	-0.215
-682.266	-93.816	-0.263	-0.074
-681.251	-134.717	-0.443	0.055
-680.237	103.301	-0.063	-0.076
-679.222	-200.000	0.005	-0.065
-678.208	8.111	0.054	0.041
-677.193	282.807	-0.136	-0.249
-676.178	226.502	0.231	-0.382
-675.164	155.878	-0.163	-0.229
-674.149	487.345	0.099	0.230
-673.135	175.177	-0.121	0.178
-672.120	-138.213	-0.041	0.005
-671.105	20.029	-0.142	0.116
-670.091	245.451	-0.158	-0.271
-669.076	-200.000	-0.011	-0.144
-668.062	-200.000	0.103	0.474
-667.047	198.551	-0.247	0.385
-666.032	-29.460	-0.063	-0.037
-665.018	-200.000	-0.033	0.293
-664.003	-173.042	-0.302	0.009
-662.989	-42.851	-0.143	-0.074
-661.974	-200.000	-0.062	-0.319
-660.959	800.000	-0.072	-0.281
-659.945	-42.144	-0.214	-0.112
-658.930	22.474	0.077	-0.064
-657.916	570.045	0.118	0.293
-656.901	343.119	-0.103	-0.204
-655.886	195.009	0.163	0.252
-654.872	-110.307	-0.213	0.045
-653.857	53.852	0.132	0.129
-652.843	33.096	0.281	-0.248
-651.828	69.396	0.212	-0.222
-650.814	-102.092	0.084	-0.021
-649.799	51.408	-0.058	-0.056
-648.784	800.000	-0.059	0.176
-647.770	-168.162	-0.369	-0.015
-646.755	2.360	-0.198	0.146
-645.741	418.567	0.046	-0.099
-644.726	-131.140	0.103	0.014
-643.711	800.000	-0.043	-0.180
-642.697	800.000	0.045	-0.129
-641.682	87.953	-0.138	-0.156
-640.668	724.601	0.065	-0.176
-639.653	-60.655	0.195	-0.084
-638.638	152.720	-0.156	0.216
-637.624	-188.074	-0.184	-0.002
-636.609	-80.913	-0.180	-0.061
-635.595	180.980	-0.112	0.167
-634.580	577.485	0.112	0.279
-633.565	-167.966	-0.171	0.007
-632.551	-200.000	-0.030	-0.404
-631.536	190.183	-0.173	-0.264
-630.522	73.817	-0.295	-0.315
-629.507	-200.000	-0.025	-0.200
-628.492	243.996	0.034	-0.059
-627.478	361.200	0.123	-0.251
-626.463	-200.000	0.014	-0.104
-625.449	-69.482	0.281	-0.109
-624.434	168.993	0.169	-0.245
-623.419	-74.493	0.181	-0.066
-622.405	4.150	-0.283	0.210
-621.390	-109.139	-0.227	0.049
-620.376	-116.113	0.314	-0.059
-619.361	47.740	0.097	-0.092
-618.346	17.024	0.172	0.139
-617.332	-36.441	0.144	-0.079
-616.317	-81.757	0.389	0.130
-615.303	25.850	0.259	-0.219
-614.288	91.652	-0.078	0.089
-613.273	549.775	0.029	0.070
-612.259	800.000	-0.081	-0.297
-611.244	-54.380	0.093	-0.043
-610.230	37.419	-0.083	-0.074
-609.215	-200.000	0.055	-0.332
-608.201	-74.834	-0.206	-0.075
-607.186	284.731	0.123	0.224
-606.171	-88.273	0.272	0.083
-605.157	16.197	-0.266	-0.213
-604.142	800.000	0.062	-0.198
-603.128	-200.000	0.020	-0.105
-602.113	43.814	0.118	0.110
-601.098	74.986	-0.268	-0.287
-600.084	-200.000	0.041	-0.472
-599.069	-160.589	-0.061	-0.003
-598.055	-200.000	-0.039	-0.498
-597.040	-77.505	-0.264	0.093
-596.025	150.938	-0.075	-0.104
-595.011	-181.791	0.108	-0.002
-593.996	800.000	0.058	0.196
-592.982	136.320	-0.165	0.219
-591.967	-143.229	-0.207	0.020
-590.952	111.896	0.191	0.234
-589.938	-145.456	-0.137	-0.012
-588.923	800.000	-0.104	0.345
-587.909	-200.000	-0.005	0.044
-586.894	35.904	0.037	0.033
-585.879	-105.437	-0.318	-0.073
-584.865	392.299	-0.143	-0.303
-583.850	182.620	-0.172	0.258
-582.836	500.769	0.051	0.119
-581.821	-54.465	-0.321	-0.148
-580.806	550.509	-0.126	-0.306
-579.792	2.220	-0.187	0.137
-578.777	800.000	-0.063	-0.219
-577.763	-200.000	-0.033	-0.262
-576.748	-84.203	0.153	0.049
-575.733	-58.142	0.265	0.117
-574.719	-200.000	0.044	0.203
-573.704	-39.526	-0.327	-0.174
-572.690	92.412	0.369	-0.422
-571.675	-65.174	0.139	-0.057
-570.661	-46.302	0.236	-0.118
-569.646	319.978	-0.142	-0.273
-568.631	272.414	0.100	-0.180
-567.617	-2.419	-0.097	-0.069
-566.602	-200.000	-0.002	0.022
-565.588	94.538	-0.111	-0.128
-564.573	-137.343	-0.186	-0.021
-563.558	-154.536	0.393	-0.027
-562.544	-33.016	-0.188	0.106
-561.529	-185.142	-0.443	-0.007
-560.515	176.719	-0.050	-0.074
-559.500	272.572	0.157	0.282
-558.485	-129.810	0.362	0.050
-557.471	-200.000	-0.103	0.481
-556.456	5.379	0.151	0.113
-555.442	800.000	-0.085	0.289
-554.427	142.499	0.192	0.258
-553.412	-144.703	0.199	-0.019
-552.398	-114.895	-0.340	-0.066
-551.383	-166.291	-0.191	0.008
-550.369	-200.000	-0.012	-0.217
-549.354	-152.955	-0.474	-0.034
-548.339	-52.858	0.284	0.133
-547.325	-94.013	-0.250	0.070
-546.310	110.418	-0.257	-0.313
-545.296	800.000	0.034	0.132
-544.281	800.000	-0.081	0.309
-543.266	41.556	-0.208	0.190
-542.252	-107.120	-0.204	-0.046
-541.237	-164.979	0.125	-0.006
-540.223	-6.070	-0.204	-0.141
-539.208	74.311	0.124	-0.132
-538.193	506.164	-0.046	-0.108
-537.179	-31.524	-0.083	0.047
-536.164	800.000	0.077	0.340
-535.150	57.205	-0.195	0.192
-534.135	-14.567	-0.283	0.184
-533.121	-81.741	-0.161	-0.053
-532.106	-105.996	-0.348	-0.079
-531.091	289.848	0.202	0.371
-530.077	138.668	0.172	-0.229
-529.062	-121.792	0.189	-0.032
-528.048	-44.480	-0.387	-0.196
-527.033	-16.434	0.242	0.156
-526.018	800.000	-0.100	-0.291
-525.004	-200.000	0.027	-0.278
-523.989	281.201	0.127	-0.230
-522.975	115.513	0.104	0.128
-521.960	242.698	0.052	-0.089
-520.945	119.626	0.160	0.201
-519.931	800.000	0.047	0.134
-518.916	-190.219	0.278	0.003
-517.902	-200.000	0.002	-0.134
-516.887	-200.000	0.011	0.098
-515.872	-130.217	-0.237	-0.033
-514.858	762.912	0.043	0.119
-513.843	-200.000	0.059	0.496
-512.829	-95.004	0.265	-0.072
-511.814	243.830	-0.230	0.391
-510.799	-147.127	-0.151	-0.013
-509.785	169.815	-0.027	-0.039
-508.770	27.242	0.038	0.033
-507.756	-200.000	-0.043	-0.222
-506.741	-200.000	0.001	0.090
-505.726	128.707	-0.084	-0.108
-504.712	342.009	-0.108	-0.214
-503.697	-70.990	-0.181	0.069
-502.683	-200.000	0.001	0.037
-501.668	78.364	0.069	-0.075
-500.653	-165.116	0.034	-0.002
-499.639	-47.508	0.177	-0.087
-498.624	50.734	-0.156	0.149
-497.610	800.000	-0.025	-0.080
-496.595	135.449	0.055	-0.073
-495.581	439.320	0.052	0.116
-494.566	-181.691	0.016	-0.000
-493.551	-64.979	0.086	0.035
-492.537	-168.295	0.243	0.009
-491.522	-103.768	-0.334	0.079
-490.508	-81.250	0.134	0.045
-489.493	-7.554	-0.256	-0.175
-488.478	175.226	0.138	-0.202
-487.464	63.526	-0.118	0.120
-486.449	-95.528	0.391	-0.106
-485.435	-57.572	0.409	-0.181
-484.420	96.591	0.198	0.229
-483.405	96.241	-0.070	-0.081
-482.391	345.574	-0.031	0.062
-481.376	42.348	0.175	-0.161
-480.362	800.000	-0.085	0.283
-479.347	-60.002	-0.071	-0.030
-478.332	633.782	0.084	0.215
-477.318	380.360	-0.080	-0.165
-476.303	-161.728	0.176	0.009
-475.289	-133.751	-0.145	0.018
-474.274	-6.885	0.061	0.042
-473.259	562.957	-0.133	0.326
-472.245	56.589	0.215	0.212
-471.230	-96.129	-0.145	-0.039
-470.216	83.657	0.153	-0.168
-469.201	800.000	-0.073	0.224
-468.186	-160.174	0.307	-0.017
-467.172	73.000	-0.291	0.307
-466.157	-13.446	-0.128	-0.084
-465.143	-93.066	-0.082	0.023
-464.128	374.705	-0.101	0.208
-463.113	-66.672	0.349	0.140
-462.099	19.553	-0.143	-0.117
-461.084	339.329	0.136	-0.268
-460.070	-66.453	-0.099	-0.040
-459.055	-200.000	0.030	-0.332
-458.040	-200.000	0.014	-0.261
-457.026	653.526	0.024	0.062
-456.011	332.322	0.124	0.242
-454.997	-200.000	0.007	-0.050
-453.982	800.000	-0.070	-0.276
-452.968	-3.902	-0.327	-0.229
-451.953	198.238	-0.123	0.190
-450.938	206.404	0.106	0.167
-449.924	-200.000	-0.004	-0.077
-448.909	800.000	0.051	0.202
-447.895	83.326	-0.065	0.071
-446.880	0.546	-0.096	-0.069
-445.865	-136.197	0.234	0.028
-444.851	-85.237	-0.283	0.089
-443.836	26.212	-0.205	-0.173
-442.822	-50.341	0.319	-0.152
-441.807	-120.603	0.313	-0.054
-440.792	-142.302	-0.088	0.009
-439.778	594.367	-0.077	-0.193
-438.763	-27.149	-0.177	0.104
-437.749	-132.471	0.127	0.016
-436.734	54.200	-0.118	-0.114
-435.719	129.610	0.228	0.293
-434.705	-134.030	0.300	-0.037
-433.690	199.418	-0.188	0.292
-432.676	-156.888	-0.089	-0.006
-431.661	-67.263	-0.137	-0.054
-430.646	-21.278	0.173	-0.107
-429.632	800.000	0.088	-0.263
-428.617	186.225	-0.131	0.197
-427.603	147.294	0.110	-0.150
-426.588	-77.098	-0.374	-0.132
-425.573	14.016	0.126	0.099
-424.559	80.493	-0.237	0.258
-423.544	-83.960	-0.193	-0.062
-422.530	112.971	0.081	-0.099
-421.515	38.276	-0.171	0.154
-420.500	590.542	-0.139	-0.346
-419.486	35.521	0.162	-0.144
-418.471	170.793	-0.205	-0.295
-417.457	293.233	0.157	-0.289
-416.442	0.254	-0.251	0.181
-415.428	498.731	-0.043	-0.101
-414.413	-3.861	-0.221	-0.155
-413.398	800.000	-0.068	0.195
-412.384	-200.000	-0.046	0.390
-411.369	302.426	0.250	0.466
-410.355	-54.499	0.178	0.081
-409.340	800.000	-0.053	-0.232
-408.325	-200.000	0.023	0.179
-407.311	36.124	0.045	0.040
-406.296	-90.139	0.275	0.081
-405.282	-78.514	0.039	0.013
-404.267	-91.600	0.478	0.137
-403.252	-200.000	0.005	-0.178
-402.238	-43.717	0.257	-0.130
-401.223	21.316	0.173	0.142
-400.209	85.073	-0.194	0.214
-399.194	126.541	-0.200	0.256
-398.179	-200.000	0.006	0.126
-397.165	286.229	0.035	0.064
-396.150	236.465	0.159	-0.264
-395.136	4.327	0.201	0.148
-394.121	800.000	0.019	-0.067
-393.106	800.000	0.035	-0.101
-392.092	-200.000	0.010	0.169
-391.077	182.053	0.155	-0.230
-390.063	251.259	-0.051	-0.088
-389.048	-131.759	0.212	0.028
-388.033	-200.000	-0.009	-0.151
-387.019	-86.936	-0.361	-0.111
-386.004	-22.792	-0.204	0.124
-384.990	-200.000	-0.002	-0.084
-383.975	-200.000	0.035	-0.247
-382.960	257.142	-0.114	0.197
-381.946	-200.000	0.012	0.197
-380.931	-110.249	-0.533	-0.112
-379.917	45.789	-0.101	-0.094
-378.902	-121.551	-0.191	-0.032
-377.888	-200.000	-0.011	0.377
-376.873	-200.000	-0.009	-0.074
-375.858	-102.969	-0.066	0.016
-374.844	-147.065	-0.136	-0.012
-373.829	-200.000	0.058	-0.318
-372.815	37.661	-0.127	-0.114
-371.800	-200.000	0.033	-0.150
-370.785	71.250	-0.242	0.253
-369.771	-42.517	0.137	-0.070
-368.756	326.910	-0.105	-0.203
-367.742	-60.009	-0.339	0.146
-366.727	201.131	0.033	-0.051
-365.712	-154.553	-0.281	0.019
-364.698	-200.000	0.009	-0.104
-363.683	-173.775	-0.153	0.005
-362.669	-58.284	0.293	-0.128
-361.654	-36.928	0.494	0.266
-360.639	-200.000	0.027	-0.119
-359.625	75.471	-0.195	-0.207
-358.610	-95.839	0.190	0.051
-357.596	-89.333	0.193	0.057
-356.581	-0.097	-0.217	0.155
-355.566	541.641	-0.047	0.113
-354.552	430.342	0.226	0.492
-353.537	800.000	-0.046	0.175
-352.523	-55.822	-0.275	-0.124
-351.508	697.242	0.124	0.327
-350.493	51.010	0.087	-0.083
-349.479	-15.205	-0.171	0.110
-348.464	-200.000	-0.081	0.360
-347.450	9.471	-0.259	0.197
-346.435	57.822	0.086	-0.084
-345.420	-29.024	-0.109	0.063
-344.406	-38.386	-0.268	-0.143
-343.391	-200.000	-0.022	-0.327
-342.377	13.135	0.204	0.158
-341.362	-180.614	-0.159	-0.003
-340.348	8.900	0.062	0.047
-339.333	800.000	-0.108	0.312
-338.318	-200.000	0.026	-0.140
-337.304	-200.000	-0.022	-0.177
-336.289	113.950	0.091	-0.111
-335.275	306.188	0.033	-0.062
-334.260	-200.000	-0.003	0.066
-333.245	98.226	0.177	-0.205
-332.231	-200.000	-0.019	-0.158
-331.216	254.712	0.062	-0.106
-330.202	-200.000	-0.004	-0.305
-329.187	-90.678	0.123	-0.036
-328.172	-53.405	-0.205	0.094
-327.158	-30.506	0.181	-0.103
-326.143	-121.517	0.206	0.034
-325.129	-114.153	0.350	0.068
-324.114	-95.415	-0.176	-0.048
-323.099	800.000	-0.011	0.035
-322.085	-108.508	0.124	-0.027
-321.070	103.308	0.062	-0.073
-320.056	-85.158	0.504	0.158
-319.041	-200.000	-0.026	-0.282
-318.026	148.590	-0.064	0.086
-317.012	-69.677	-0.378	0.145
-315.997	-200.000	-0.015	0.200
-314.983	124.738	0.131	0.165
-313.968	145.026	0.131	0.175
-312.953	10.366	-0.150	-0.115
-311.939	322.008	0.125	-0.240
-310.924	-200.000	0.009	0.231
-309.910	37.293	-0.176	0.156
-308.895	-118.806	0.453	0.080
-307.880	800.000	-0.058	-0.178
-306.866	-43.651	0.121	0.061
-305.851	284.025	-0.240	0.433
-304.837	800.000	-0.050	-0.191
-303.822	800.000	-0.070	-0.225
-302.807	-107.771	0.312	0.068
-301.793	157.200	-0.146	-0.203
-300.778	-200.000	0.018	0.269
-299.764	36.107	-0.196	-0.173
-298.749	-175.500	0.224	-0.006
-297.735	-31.312	-0.251	0.142
-296.720	173.815	0.186	0.269
-295.705	-200.000	0.021	0.598
-294.691	-119.433	0.417	0.073
-293.676	194.614	0.027	0.042
-292.662	-31.507	0.085	0.048
-291.647	-200.000	0.011	0.503
-290.632	-73.809	-0.433	-0.158
-289.618	45.758	-0.214	0.198
-288.603	19.384	-0.241	0.195
-287.589	800.000	-0.025	-0.101
-286.574	-100.405	-0.280	0.070
-285.559	100.332	0.215	-0.251
-284.545	42.963	-0.051	0.047
-283.530	129.837	-0.070	-0.089
-282.516	90.229	0.327	-0.367
-281.501	-58.170	-0.327	-0.143
-280.486	-23.165	0.214	0.129
-279.472	50.507	0.157	-0.149
-278.457	155.455	-0.068	0.094
-277.443	-45.563	-0.285	0.142
-276.428	69.461	-0.304	-0.314
-275.413	15.329	0.251	0.197
-274.399	525.403	0.143	0.339
-273.384	-18.975	-0.153	-0.096
-272.370	-132.134	0.146	-0.019
-271.355	-121.559	0.152	-0.025
-270.340	800.000	-0.132	0.507
-269.326	299.286	0.124	-0.229
-268.311	-63.159	-0.202	-0.084
-267.297	-72.179	0.224	-0.083
-266.282	-200.000	0.018	-0.120
-265.267	111.406	0.125	0.151
-264.253	800.000	0.010	0.042
-263.238	-21.318	0.145	0.089
-262.224	-112.963	0.432	0.086
-261.209	311.816	0.028	-0.054
-260.195	286.549	0.209	0.378
-259.180	341.926	-0.083	-0.163
-258.165	-200.000	0.017	0.235
-257.151	-139.457	-0.260	0.028
-256.136	175.889	0.064	-0.093
-255.122	9.821	0.314	-0.239
-254.107	6.198	0.151	0.112
-253.092	800.000	-0.046	-0.127
-252.078	1.397	0.096	0.069
-251.063	142.115	-0.169	-0.225
-250.049	331.592	-0.145	-0.279
-249.034	39.884	-0.049	-0.044
-248.019	800.000	-0.096	-0.400
-247.005	-174.271	0.052	-0.002
-245.990	-117.718	-0.120	0.022
-244.976	-84.762	0.046	0.014
-243.961	651.502	-0.029	0.074
-242.946	800.000	0.047	0.171
-241.932	-7.634	-0.121	-0.082
-240.917	182.911	-0.208	-0.307
-239.903	125.294	-0.282	0.356
-238.888	-200.000	0.053	0.375
-237.873	-200.000	-0.018	0.196
-236.859	189.904	0.054	-0.081
-235.844	-200.000	-0.018	0.255
-234.830	82.488	-0.049	0.053
-233.815	-200.000	-0.048	-0.422
-232.800	84.455	-0.217	0.237
-231.786	800.000	0.158	0.574
-230.771	800.000	-0.110	-0.305
-229.757	-150.702	-0.183	0.014
-228.742	318.119	0.087	-0.165
-227.727	192.520	0.260	-0.393
-226.713	-200.000	-0.018	-0.102
-225.698	49.376	0.050	0.047
-224.684	-200.000	0.068	0.468
-223.669	-84.589	0.164	0.052
-222.655	53.413	-0.318	-0.305
-221.640	-18.240	-0.070	-0.044
-220.625	63.495	-0.066	-0.066
-219.611	162.909	-0.195	-0.273
-218.596	-200.000	-0.010	0.172
-217.582	800.000	0.104	-0.357
-216.567	-51.865	-0.196	-0.091
-215.552	800.000	0.042	0.148
-214.538	-200.000	0.014	0.728
-213.523	721.414	-0.082	0.219
-212.509	-193.425	0.101	0.001
-211.494	633.352	0.109	-0.275
-210.479	-171.656	0.144	0.005
-209.465	-117.433	0.125	-0.023
-208.450	292.598	-0.122	-0.222
-207.436	89.305	0.139	0.155
-206.421	800.000	-0.011	-0.030
-205.406	-169.068	0.370	0.014
-204.392	800.000	-0.092	-0.276
-203.377	4.512	-0.104	-0.076
-202.363	-120.959	0.295	0.050
-201.348	-200.000	0.039	-0.233
-200.333	334.839	-0.030	-0.058
-199.319	-159.787	0.359	0.020
-198.304	-33.936	0.136	0.075
-197.290	-121.614	-0.083	-0.014
-196.275	800.000	-0.048	-0.180
-195.260	-16.131	-0.106	-0.067
-194.246	-188.729	0.205	0.003
-193.231	800.000	-0.053	0.160
-192.217	-117.377	0.328	-0.059
-191.202	-49.559	0.250	-0.119
-190.187	153.867	-0.296	-0.406
-189.173	-200.000	-0.032	0.162
-188.158	-92.766	0.140	-0.039
-187.144	225.467	0.139	0.225
-186.129	133.634	-0.007	0.009
-185.114	484.112	-0.153	-0.347
-184.100	-36.396	-0.151	-0.081
-183.085	-200.000	0.014	-0.090
-182.071	194.494	-0.184	0.279
-181.056	800.000	-0.079	0.312
-180.042	600.353	0.050	-0.124
-179.027	-200.000	-0.079	0.417
-178.012	-65.978	0.314	-0.125
-176.998	-127.409	0.215	0.031
-175.983	149.822	-0.144	-0.195
-174.969	109.712	0.097	0.116
-173.954	-200.000	0.025	-0.384
-172.939	-200.000	-0.012	-0.137
-171.925	-114.740	0.449	0.086
-170.910	-32.852	0.158	-0.088
-169.896	-3.512	0.194	-0.135
-168.881	571.535	0.113	0.275
-167.866	4.472	0.371	0.272
-166.852	800.000	-0.025	-0.110
-165.837	800.000	-0.090	-0.332
-164.823	582.605	-0.083	0.204
-163.808	-72.149	-0.183	0.068
-162.793	405.694	0.048	0.102
-161.779	-200.000	0.011	-0.090
-160.764	79.125	0.138	-0.148
-159.750	139.025	0.204	0.267
-158.735	-131.425	0.183	0.024
-157.720	-4.538	-0.309	0.213
-156.706	-28.808	0.324	0.186
-155.691	-200.000	-0.073	0.399
-154.677	86.665	0.266	-0.292
-153.662	611.747	-0.047	-0.116
-152.647	-200.000	0.018	0.274
-151.633	4.106	-0.050	0.036
-150.618	-1.590	0.219	0.154
-149.604	-94.027	0.340	0.093
-148.589	-31.293	0.048	-0.027
-147.574	-74.046	-0.317	-0.115
-146.560	800.000	-0.062	0.249
-145.545	23.085	-0.085	-0.069
-144.531	-73.153	0.141	0.052
-143.516	150.216	-0.060	-0.082
-142.502	-153.210	0.225	0.016
-141.487	-93.125	-0.051	0.014
-140.472	-200.000	0.040	0.185
-139.458	-38.881	0.285	-0.150
-138.443	-1.055	-0.213	0.150
-137.429	240.242	-0.080	0.132
-136.414	-155.671	0.151	-0.010
-135.399	-133.307	0.146	0.018
-134.385	-24.672	-0.096	0.057
-133.370	-134.927	-0.219	0.026
-132.356	32.728	0.397	0.342
-131.341	143.246	-0.246	-0.327
-130.326	161.004	0.175	-0.244
-129.312	-104.859	0.076	-0.017
-128.297	-100.232	-0.222	-0.055
-127.283	-38.692	-0.432	-0.227
-126.268	-142.525	0.028	-0.003
-125.253	-200.000	-0.054	-0.247
-124.239	-45.443	0.092	-0.045
-123.224	6.308	-0.060	-0.044
-122.210	-144.215	0.165	-0.015
