DTS Sentinel unit serial number:	SN413079Multiplexer serial number:	ORYXHardware model number:	OX4-SRSoftware version number:	ORYX F/W v4.00 Oryx Data Collector v3.7.2.0data status	okinstallation	princeton_trtdifferential loss correction	single-endedforward channel	channel 1reverse channel	N/Adate	2019/09/11time	17:48:11forward acquisition time	60.00reverse acquisition time	0.00gamma	496.2192k internal	0.2290k external	0.2290temperature offset calibration	0.9999default loss term (dB/km)	0.3790temperature slope calibration	1.0000multiplexer offset coefficient	1.0000multiplexer slope coefficient	1.0000fibre end	0.00T internal ref (°C)	43.94T ext. ref 1 (°C)	1.12T ext. ref 2 (°C)	39.39length (m)	temperature (°C)	Stokes	anti-Stokes-747.200	-141.186	-0.288	-0.030
-746.185	204.487	-0.160	0.255
-745.171	-200.000	0.050	0.440
-744.156	-200.000	0.001	0.287
-743.142	-43.482	0.135	-0.070
-742.127	51.621	0.087	0.084
-741.112	48.112	0.096	-0.092
-740.098	155.835	0.051	0.072
-739.083	134.506	0.222	0.295
-738.069	-125.439	0.114	-0.018
-737.054	-105.398	0.353	0.082
-736.039	249.263	-0.146	-0.253
-735.025	-7.551	0.040	-0.028
-734.010	431.304	0.064	-0.142
-732.996	112.281	-0.219	-0.272
-731.981	-58.712	-0.314	-0.139
-730.966	-16.981	-0.156	-0.101
-729.952	27.866	0.221	-0.191
-728.937	-200.000	0.019	-0.217
-727.923	-114.308	0.038	-0.008
-726.908	239.500	-0.167	-0.285
-725.894	297.874	0.185	-0.348
-724.879	-96.388	0.197	-0.053
-723.864	120.103	-0.266	0.337
-722.850	93.023	-0.105	0.122
-721.835	10.982	-0.367	0.287
-720.821	-52.047	0.243	-0.116
-719.806	487.531	-0.106	0.248
-718.791	10.227	-0.135	0.105
-717.777	-152.193	0.092	-0.007
-716.762	800.000	-0.107	-0.316
-715.748	-62.583	-0.147	-0.062
-714.733	-143.053	0.072	0.007
-713.718	800.000	-0.068	-0.291
-712.704	-200.000	0.013	-0.236
-711.689	513.098	0.027	0.064
-710.675	96.324	0.171	0.200
-709.660	-200.000	-0.019	0.283
-708.645	-131.756	0.043	0.006
-707.631	-92.901	-0.296	-0.085
-706.616	-139.250	0.413	0.045
-705.602	800.000	0.027	0.114
-704.587	143.610	0.103	-0.140
-703.572	-63.052	0.376	-0.159
-702.558	-81.619	0.140	-0.047
-701.543	-46.037	0.309	-0.156
-700.529	126.414	0.044	0.058
-699.514	14.436	-0.080	0.064
-698.499	800.000	0.103	-0.454
-697.485	-111.102	0.251	0.053
-696.470	491.665	-0.106	-0.249
-695.456	-122.177	-0.107	0.018
-694.441	515.527	-0.061	-0.145
-693.426	-84.339	0.387	-0.125
-692.412	-95.845	-0.121	-0.033
-691.397	510.447	-0.110	-0.263
-690.383	-187.613	-0.031	-0.000
-689.368	467.071	-0.095	-0.219
-688.354	-109.491	-0.112	0.024
-687.339	290.861	0.127	0.236
-686.324	-32.619	0.224	0.127
-685.310	800.000	0.018	-0.052
-684.295	-186.443	-0.414	-0.006
-683.281	-99.726	0.057	-0.015
-682.266	-19.641	0.198	-0.125
-681.251	-117.415	0.168	-0.031
-680.237	9.365	-0.183	0.142
-679.222	-200.000	0.023	-0.434
-678.208	-30.894	-0.239	0.138
-677.193	0.506	-0.215	0.157
-676.178	-200.000	-0.062	-0.374
-675.164	-127.399	-0.545	-0.081
-674.149	-200.000	-0.079	-0.496
-673.135	-186.536	0.195	-0.003
-672.120	-32.464	-0.065	-0.037
-671.105	-94.274	-0.229	0.064
-670.091	-129.925	0.457	0.064
-669.076	-152.685	0.084	-0.006
-668.062	-200.000	-0.043	0.373
-667.047	448.903	0.031	0.070
-666.032	-81.719	0.335	-0.112
-665.018	-24.791	0.196	0.119
-664.003	800.000	-0.067	-0.269
-662.989	176.579	0.163	-0.242
-661.974	800.000	-0.004	-0.018
-660.959	114.779	0.067	0.084
-659.945	-60.487	-0.145	-0.063
-658.930	98.502	0.168	-0.197
-657.916	-48.388	-0.066	-0.033
-656.901	800.000	-0.036	-0.113
-655.886	-133.145	0.077	-0.010
-654.872	-200.000	-0.036	-0.579
-653.857	-200.000	0.021	-0.192
-652.843	278.897	-0.068	0.124
-651.828	-94.809	-0.440	0.122
-650.814	289.264	-0.085	-0.158
-649.799	643.665	0.015	-0.039
-648.784	9.938	-0.233	-0.181
-647.770	38.854	-0.235	-0.214
-646.755	12.485	-0.223	-0.176
-645.741	55.480	0.212	-0.209
-644.726	-13.477	0.094	-0.062
-643.711	-200.000	-0.031	-0.200
-642.697	317.609	0.070	-0.136
-641.682	-200.000	-0.011	0.085
-640.668	-33.412	0.214	-0.121
-639.653	-200.000	0.028	-0.144
-638.638	234.783	0.058	-0.097
-637.624	-200.000	-0.071	-0.324
-636.609	800.000	0.073	0.230
-635.595	306.372	0.053	-0.101
-634.580	-123.186	-0.323	0.053
-633.565	413.636	0.090	0.195
-632.551	618.636	-0.088	-0.226
-631.536	-200.000	-0.018	-0.168
-630.522	-1.412	0.108	-0.077
-629.507	13.579	-0.196	-0.155
-628.492	76.485	0.217	-0.234
-627.478	-200.000	-0.013	-0.178
-626.463	260.588	-0.137	-0.242
-625.449	-200.000	0.003	-0.304
-624.434	800.000	-0.109	0.375
-623.419	800.000	0.095	0.272
-622.405	-200.000	-0.007	-0.245
-621.390	-200.000	0.066	0.324
-620.376	-200.000	-0.027	-0.498
-619.361	-38.778	-0.181	-0.097
-618.346	-200.000	-0.054	-0.372
-617.332	-200.000	0.048	-0.314
-616.317	-48.037	0.122	-0.060
-615.303	-153.223	-0.182	0.013
-614.288	-148.385	0.188	-0.016
-613.273	-79.165	-0.313	-0.108
-612.259	-182.014	-0.153	0.003
-611.244	800.000	0.047	-0.185
-610.230	-71.441	0.105	0.040
-609.215	158.212	-0.200	-0.282
-608.201	18.263	-0.190	-0.155
-607.186	4.761	0.251	-0.188
-606.171	13.024	0.086	-0.068
-605.157	118.652	-0.151	0.190
-604.142	654.661	-0.130	0.341
-603.128	188.224	0.069	-0.105
-602.113	-13.158	-0.026	-0.017
-601.098	10.325	-0.200	-0.155
-600.084	178.938	-0.217	0.323
-599.069	-200.000	0.044	0.332
-598.055	-200.000	-0.019	0.098
-597.040	402.044	0.112	0.240
-596.025	800.000	-0.044	0.155
-595.011	425.460	0.110	-0.242
-593.996	137.043	-0.158	0.210
-592.982	800.000	-0.061	0.173
-591.967	-37.959	-0.328	-0.177
-590.952	-200.000	0.038	-0.351
-589.938	-120.244	0.127	-0.022
-588.923	4.232	-0.200	0.149
-587.909	800.000	0.031	-0.100
-586.894	-148.836	-0.092	-0.008
-585.879	-5.115	-0.156	-0.109
-584.865	800.000	0.116	0.409
-583.850	-115.273	-0.428	-0.082
-582.836	39.282	-0.333	0.303
-581.821	-66.215	-0.149	0.061
-580.806	173.448	0.142	-0.209
-579.792	98.107	0.067	-0.079
-578.777	-34.529	-0.149	0.083
-577.763	37.253	0.189	0.170
-576.748	1.433	0.061	0.045
-575.733	-200.000	-0.056	0.318
-574.719	-26.497	-0.139	0.083
-573.704	-119.795	-0.022	-0.004
-572.690	-200.000	-0.172	-0.000
-571.675	326.286	-0.101	0.196
-570.661	37.502	-0.161	0.145
-569.646	-116.860	-0.221	0.041
-568.631	554.709	-0.089	0.218
-567.617	-200.000	0.059	-0.320
-566.602	57.698	0.181	-0.180
-565.588	-104.518	-0.232	-0.055
-564.573	126.009	0.101	-0.130
-563.558	-163.628	0.239	-0.011
-562.544	-142.204	0.237	-0.024
-561.529	-49.517	0.134	-0.065
-560.515	-106.540	0.180	0.041
-559.500	3.378	-0.138	-0.102
-558.485	-128.343	-0.196	-0.028
-557.471	27.722	-0.257	0.220
-556.456	409.767	0.163	-0.351
-555.442	5.564	-0.186	0.140
-554.427	108.673	0.111	-0.135
-553.412	-200.000	0.021	-0.205
-552.398	-89.305	0.032	0.010
-551.383	-133.627	0.182	0.023
-550.369	-200.000	0.016	0.200
-549.354	-106.513	0.185	0.042
-548.339	-95.102	-0.136	0.037
-547.325	-200.000	-0.005	-0.158
-546.310	85.016	-0.187	-0.208
-545.296	346.919	-0.047	-0.095
-544.281	30.321	0.175	-0.152
-543.266	-75.828	0.086	0.031
-542.252	-38.800	-0.323	0.173
-541.237	-5.238	-0.112	0.079
-540.223	145.741	0.071	0.096
-539.208	65.294	0.165	0.169
-538.193	-200.000	-0.036	-0.223
-537.179	65.395	-0.064	-0.066
-536.164	-37.393	-0.226	-0.123
-535.150	116.343	-0.081	-0.101
-534.135	-130.560	-0.334	0.046
-533.121	-136.678	-0.109	0.013
-532.106	-90.289	-0.212	-0.063
-531.091	-200.000	-0.062	-0.321
-530.077	-200.000	-0.034	-0.511
-529.062	-84.427	0.132	-0.042
-528.048	38.632	-0.110	0.100
-527.033	800.000	-0.031	-0.098
-526.018	-200.000	0.045	-0.320
-525.004	-200.000	-0.014	0.097
-523.989	64.661	-0.158	-0.162
-522.975	-200.000	0.041	-0.465
-521.960	-59.087	-0.375	0.164
-520.945	-200.000	0.035	0.319
-519.931	-200.000	0.018	-0.215
-518.916	-200.000	-0.019	-0.129
-517.902	-200.000	0.006	-0.245
-516.887	41.554	-0.147	-0.135
-515.872	-75.494	-0.135	0.049
-514.858	-200.000	0.024	-0.528
-513.843	-200.000	0.005	-0.051
-512.829	-130.709	0.354	-0.048
-511.814	-200.000	0.029	0.184
-510.799	19.581	-0.105	0.086
-509.785	-200.000	0.018	0.210
-508.770	37.919	-0.121	-0.109
-507.756	177.700	0.130	-0.192
-506.741	-81.733	-0.136	0.045
-505.726	-180.887	-0.274	-0.006
-504.712	11.952	-0.038	0.030
-503.697	-57.957	-0.108	-0.048
-502.683	-109.742	-0.416	-0.089
-501.668	182.449	-0.046	0.068
-500.653	-89.429	-0.295	0.088
-499.639	800.000	0.068	-0.219
-498.624	-157.394	-0.129	-0.008
-497.610	602.830	-0.051	0.129
-496.595	412.282	-0.041	0.089
-495.581	-164.424	-0.193	0.009
-494.566	-145.186	-0.368	0.034
-493.551	-35.847	-0.341	-0.187
-492.537	-84.506	-0.112	-0.036
-491.522	800.000	-0.045	-0.197
-490.508	-200.000	-0.008	0.377
-489.493	372.907	0.117	-0.241
-488.478	-70.417	0.110	0.042
-487.464	-162.658	0.143	-0.007
-486.449	800.000	0.069	-0.227
-485.435	-200.000	0.038	0.256
-484.420	16.962	0.045	0.037
-483.405	-141.531	0.483	0.049
-482.391	800.000	0.048	-0.207
-481.376	4.962	0.057	-0.043
-480.362	180.302	0.225	0.335
-479.347	261.573	0.051	0.090
-478.332	95.663	-0.069	0.080
-477.318	-72.774	0.325	0.121
-476.303	-132.113	0.482	-0.063
-475.289	-105.893	-0.291	-0.067
-474.274	-80.647	-0.269	0.091
-473.259	-200.000	0.087	0.408
-472.245	-91.677	0.237	0.068
-471.230	-99.671	-0.261	0.066
-470.216	515.913	0.046	0.109
-469.201	-74.926	-0.156	0.057
-468.186	800.000	-0.052	-0.158
-467.172	-200.000	-0.028	-0.190
-466.157	-33.874	0.136	0.076
-465.143	-31.604	-0.293	-0.167
-464.128	391.179	-0.113	0.238
-463.113	61.142	0.167	0.168
-462.099	7.556	-0.219	-0.166
-461.084	-200.000	0.023	0.163
-460.070	-200.000	-0.078	0.358
-459.055	-119.915	0.307	0.053
-458.040	-200.000	0.044	0.246
-457.026	-200.000	0.065	0.397
-456.011	-41.268	-0.098	-0.051
-454.997	-46.041	0.146	-0.073
-453.982	15.814	0.261	0.208
-452.968	-101.226	0.129	0.032
-451.953	25.061	0.248	-0.208
-450.938	445.794	-0.202	-0.449
-449.924	11.715	-0.263	0.204
-448.909	-200.000	-0.056	-0.272
-447.895	-200.000	-0.013	-0.134
-446.880	100.901	0.135	-0.159
-445.865	800.000	0.141	-0.557
-444.851	-91.999	0.303	0.087
-443.836	-68.373	0.090	-0.036
-442.822	-128.063	0.303	0.044
-441.807	-200.000	0.027	-0.175
-440.792	507.159	-0.079	0.186
-439.778	-100.383	-0.099	-0.025
-438.763	436.092	0.050	-0.110
-437.749	-200.000	-0.063	-0.325
-436.734	-4.047	-0.144	0.101
-435.719	-28.451	0.311	-0.182
-434.705	110.368	-0.213	0.259
-433.690	383.846	-0.014	0.030
-432.676	638.492	-0.164	-0.421
-431.661	223.316	-0.192	-0.314
-430.646	-89.824	-0.194	-0.057
-429.632	28.300	0.193	-0.165
-428.617	-200.000	0.002	0.014
-427.603	800.000	-0.086	-0.243
-426.588	715.161	-0.093	-0.249
-425.573	-10.251	-0.133	0.089
-424.559	-87.752	-0.251	-0.076
-423.544	-96.941	0.064	0.017
-422.530	-56.441	0.385	0.173
-421.515	800.000	0.030	0.097
-420.500	27.991	-0.191	0.163
-419.486	-149.811	-0.050	0.004
-418.471	-73.800	-0.106	0.039
-417.457	72.968	0.374	0.395
-416.442	82.947	0.080	-0.088
-415.428	-40.992	0.288	-0.150
-414.413	-131.498	-0.240	-0.032
-413.398	139.548	0.232	0.310
-412.384	-200.000	-0.012	-0.177
-411.369	-17.262	0.095	0.061
-410.355	63.248	0.216	-0.219
-409.340	-0.493	0.214	-0.153
-408.325	-200.000	0.045	-0.384
-407.311	178.765	0.031	0.046
-406.296	800.000	-0.125	0.398
-405.282	-200.000	0.017	0.129
-404.267	-89.631	0.131	0.039
-403.252	110.419	0.189	-0.229
-402.238	-200.000	-0.012	-0.332
-401.223	-31.592	-0.121	-0.069
-400.209	-85.205	-0.187	-0.059
-399.194	-55.250	-0.294	0.134
-398.179	-8.261	0.045	0.030
-397.165	-148.293	-0.056	-0.005
-396.150	-185.059	-0.320	0.005
-395.136	800.000	0.082	0.362
-394.121	104.091	-0.070	0.083
-393.106	349.897	0.143	0.285
-392.092	367.338	-0.094	0.191
-391.077	7.561	0.161	0.121
-390.063	-69.335	-0.106	0.041
-389.048	240.624	0.065	0.109
-388.033	800.000	-0.045	0.193
-387.019	33.279	0.041	0.036
-386.004	800.000	0.080	0.337
-384.990	539.678	-0.112	-0.268
-383.975	13.794	-0.303	0.238
-382.960	-52.332	0.171	0.080
-381.946	113.197	0.125	0.154
-380.931	46.036	0.052	-0.049
-379.917	-59.400	-0.450	0.195
-378.902	198.492	-0.084	0.129
-377.888	47.093	0.256	0.240
-376.873	-97.381	0.358	0.094
-375.858	100.473	-0.030	0.035
-374.844	-200.000	-0.056	0.300
-373.829	-200.000	-0.001	-0.415
-372.815	503.562	0.026	0.060
-371.800	-68.700	0.269	-0.105
-370.785	42.442	0.296	0.272
-369.771	-200.000	-0.009	0.229
-368.756	107.290	-0.168	0.201
-367.742	-200.000	0.002	-0.041
-366.727	105.432	0.096	0.115
-365.712	-122.372	0.228	0.038
-364.698	398.850	-0.169	-0.358
-363.683	-156.548	0.208	-0.013
-362.669	-200.000	-0.030	0.289
-361.654	762.136	0.029	-0.079
-360.639	800.000	-0.039	0.114
-359.625	405.321	-0.107	0.228
-358.610	-100.181	0.200	-0.050
-357.596	-26.912	0.185	-0.109
-356.581	139.566	0.083	-0.111
-355.566	-4.180	-0.069	-0.048
-354.552	-157.193	-0.087	0.005
-353.537	-122.981	-0.251	0.041
-352.523	178.696	-0.220	-0.324
-351.508	355.391	0.039	0.079
-350.493	20.014	0.216	0.176
-349.479	-200.000	0.013	0.235
-348.464	-25.197	0.228	0.136
-347.450	-30.602	0.071	0.041
-346.435	-50.916	0.044	0.021
-345.420	-200.000	-0.019	0.266
-344.406	-63.453	0.041	0.017
-343.391	229.727	0.072	0.119
-342.377	-76.231	0.088	0.031
-341.362	-153.653	-0.312	-0.022
-340.348	-62.465	-0.074	0.031
-339.333	-200.000	-0.004	0.024
-338.318	-138.194	0.143	0.016
-337.304	187.193	-0.123	0.185
-336.289	376.987	-0.106	-0.218
-335.275	-60.633	0.159	-0.068
-334.260	65.386	0.030	-0.031
-333.245	-66.854	-0.040	0.016
-332.231	-9.158	0.322	-0.217
-331.216	800.000	-0.043	0.166
-330.202	754.757	-0.034	-0.094
-329.187	-103.240	0.051	0.012
-328.172	178.864	0.130	0.191
-327.158	800.000	-0.037	0.146
-326.143	41.903	0.104	0.095
-325.129	-200.000	0.019	0.253
-324.114	174.847	-0.205	0.299
-323.099	-144.961	0.098	-0.009
-322.085	95.041	-0.108	-0.124
-321.070	179.652	0.202	0.299
-320.056	-24.464	-0.372	0.223
-319.041	413.517	-0.155	0.332
-318.026	139.699	-0.064	0.085
-317.012	-69.590	0.247	0.095
-315.997	-200.000	-0.006	-0.038
-314.983	-99.369	-0.455	-0.116
-313.968	-89.289	0.335	-0.099
-312.953	123.927	-0.084	-0.106
-311.939	-200.000	-0.030	-0.210
-310.924	39.903	0.154	-0.140
-309.910	-148.972	-0.196	-0.016
-308.895	800.000	-0.105	0.334
-307.880	-200.000	0.003	-0.113
-306.866	-8.402	-0.163	-0.111
-305.851	379.198	0.100	-0.206
-304.837	-127.723	0.171	0.025
-303.822	-200.000	0.017	-0.210
-302.807	-103.988	-0.115	0.027
-301.793	-75.542	-0.209	0.075
-300.778	-112.543	0.355	0.071
-299.764	-87.549	-0.252	0.077
-298.749	800.000	-0.097	-0.324
-297.735	800.000	0.100	-0.298
-296.720	800.000	-0.059	0.198
-295.705	59.218	-0.114	-0.113
-294.691	800.000	-0.052	0.184
-293.676	-200.000	0.055	-0.280
-292.662	-18.702	0.118	-0.074
-291.647	-70.983	0.264	0.100
-290.632	-142.368	0.199	0.020
-289.618	-149.373	0.115	0.009
-288.603	18.022	-0.154	0.124
-287.589	-172.823	0.350	0.011
-286.574	17.430	0.149	-0.119
-285.559	-200.000	0.017	0.150
-284.545	-60.705	-0.118	0.050
-283.530	-157.599	0.183	-0.011
-282.516	5.097	0.163	0.121
-281.501	310.013	-0.027	-0.052
-280.486	-149.814	-0.403	-0.032
-279.472	-200.000	0.039	-0.311
-278.457	-10.014	0.103	0.069
-277.443	-51.966	-0.280	0.131
-276.428	-161.433	-0.226	-0.012
-275.413	-2.356	-0.057	0.041
-274.399	-66.359	0.083	-0.033
-273.384	-108.289	-0.261	-0.057
-272.370	800.000	0.072	-0.248
-271.355	344.008	0.080	-0.158
-270.340	-129.772	-0.312	-0.043
-269.326	-200.000	0.064	-0.441
-268.311	800.000	-0.030	0.112
-267.297	-32.281	-0.232	0.130
-266.282	-32.990	0.072	0.040
-265.267	-200.000	0.024	0.462
-264.253	182.676	0.074	-0.110
-263.238	-200.000	0.034	0.211
-262.224	155.564	0.065	0.090
-261.209	-122.700	-0.232	0.038
-260.195	-138.658	0.241	-0.027
-259.180	-175.465	-0.222	0.006
-258.165	-200.000	0.010	0.047
-257.151	-152.912	-0.230	-0.016
-256.136	-75.044	-0.449	0.161
-255.122	-115.961	0.178	-0.033
-254.107	-111.257	-0.328	0.067
-253.092	-80.601	-0.103	0.035
-252.078	800.000	0.018	-0.078
-251.063	-90.664	0.128	-0.037
-250.049	-108.459	0.250	-0.054
-249.034	81.890	0.212	0.230
-248.019	-200.000	-0.005	0.180
-247.005	-1.755	-0.191	0.135
-245.990	143.202	-0.113	0.152
-244.976	-200.000	0.008	0.176
-243.961	6.647	0.101	0.075
-242.946	320.623	0.127	0.242
-241.932	-39.831	0.196	0.103
-240.917	800.000	-0.037	-0.112
-239.903	-121.697	0.546	0.091
-238.888	739.820	0.053	0.143
-237.873	46.266	0.157	0.146
-236.859	-89.070	0.161	-0.048
-235.844	81.682	-0.044	-0.048
-234.830	17.103	-0.157	-0.125
-233.815	-28.896	0.230	-0.133
-232.800	-129.168	0.348	0.049
-231.786	163.448	0.183	0.259
-230.771	598.433	0.048	0.120
-229.757	82.088	0.200	0.218
-228.742	-18.325	-0.216	-0.136
-227.727	-20.557	-0.052	-0.032
-226.713	68.825	0.048	-0.050
-225.698	-200.000	0.017	0.215
-224.684	-200.000	-0.052	0.261
-223.669	-133.959	0.051	-0.006
-222.655	-5.540	0.224	0.154
-221.640	44.407	0.108	0.100
-220.625	280.510	0.075	0.135
-219.611	780.173	0.160	-0.438
-218.596	617.269	-0.034	-0.086
-217.582	26.798	0.235	0.198
-216.567	-200.000	-0.012	0.190
-215.552	-112.690	0.160	0.032
-214.538	-164.547	0.440	0.020
-213.523	100.841	-0.205	-0.239
-212.509	-200.000	-0.029	0.148
-211.494	60.340	0.234	-0.233
-210.479	-152.884	0.082	-0.006
-209.465	-200.000	-0.001	0.148
-208.450	124.297	-0.115	0.145
-207.436	800.000	0.031	0.111
-206.421	-200.000	-0.028	-0.326
-205.406	800.000	0.022	-0.090
-204.392	-200.000	-0.002	0.094
-203.377	72.580	0.151	0.158
-202.363	132.252	0.060	0.077
-201.348	-80.794	0.128	0.043
-200.333	-0.443	0.070	-0.050
-199.319	-67.044	-0.248	-0.098
-198.304	-58.222	-0.166	0.072
-197.290	-27.638	-0.068	-0.039
-196.275	-71.774	0.131	-0.049
-195.260	4.424	0.090	0.066
-194.246	-200.000	-0.001	-0.152
-193.231	-80.920	-0.076	-0.025
-192.217	163.908	-0.005	0.007
-191.202	288.672	0.240	-0.436
-190.187	9.350	-0.074	0.056
-189.173	-200.000	0.000	-0.128
-188.158	154.060	-0.125	-0.172
-187.144	-200.000	-0.001	-0.335
-186.129	96.535	0.076	-0.087
-185.114	131.764	-0.117	-0.151
-184.100	51.987	0.161	0.154
-183.085	-200.000	-0.027	-0.295
-182.071	-42.743	0.128	0.065
-181.056	-108.044	-0.118	-0.026
-180.042	379.468	-0.071	-0.146
-179.027	-52.000	0.218	0.101
-178.012	-200.000	-0.065	0.417
-176.998	84.174	0.155	0.170
-175.983	-79.873	0.283	-0.095
-174.969	-118.247	0.087	0.015
-173.954	269.993	0.209	-0.367
-172.939	97.869	0.185	-0.213
-171.925	64.577	0.131	0.132
-170.910	49.760	0.048	0.045
-169.896	-153.378	-0.379	0.026
-168.881	-162.981	0.245	0.012
-167.866	93.088	0.027	0.030
-166.852	800.000	0.067	0.255
-165.837	-70.684	0.291	-0.110
-164.823	-12.610	0.252	0.165
-163.808	-27.747	-0.287	-0.167
-162.793	-148.087	0.343	-0.028
-161.779	-79.361	-0.278	0.094
-160.764	-32.306	0.261	0.146
-159.750	-193.291	0.302	0.003
-158.735	-161.605	0.014	-0.001
-157.720	29.432	-0.120	0.102
-156.706	328.322	-0.053	0.102
-155.691	-175.730	-0.479	0.013
-154.677	800.000	-0.011	-0.036
-153.662	105.605	-0.170	0.201
-152.647	-75.982	0.104	-0.037
-151.633	-200.000	0.065	0.449
-150.618	-82.523	0.096	-0.031
-149.604	-53.046	-0.330	-0.152
-148.589	-106.793	0.110	0.024
-147.574	266.473	0.047	0.082
-146.560	-67.137	0.080	-0.031
-145.545	22.686	-0.174	-0.143
-144.531	-149.889	0.184	-0.014
-143.516	-92.491	-0.202	0.057
-142.502	110.698	-0.079	0.095
-141.487	-200.000	0.045	0.253
-140.472	308.090	-0.040	-0.075
-139.458	716.582	0.089	-0.236
-138.443	498.807	-0.141	-0.326
-137.429	-177.424	0.091	-0.002
-136.414	673.392	0.094	0.243
-135.399	-166.586	0.054	-0.002
-134.385	130.983	-0.043	0.055
-133.370	7.953	0.105	0.079
-132.356	98.099	0.044	-0.050
-131.341	-150.809	0.240	0.018
-130.326	800.000	-0.061	-0.220
-129.312	800.000	-0.041	0.160
-128.297	-87.795	-0.381	-0.115
-127.283	-23.466	-0.098	-0.059
-126.268	-120.088	-0.194	0.033
-125.253	-53.143	0.259	-0.119
-124.239	381.137	0.107	-0.219
-123.224	-50.063	0.124	-0.059
-122.210	72.739	0.191	0.199
-121.195	36.255	0.223	0.196
