DTS Sentinel unit serial number:	SN413079Multiplexer serial number:	ORYXHardware model number:	OX4-SRSoftware version number:	ORYX F/W v4.00 Oryx Data Collector v3.7.2.0data status	okinstallation	princeton_trtdifferential loss correction	single-endedforward channel	channel 1reverse channel	N/Adate	2019/09/11time	23:00:11forward acquisition time	60.00reverse acquisition time	0.00gamma	496.2192k internal	0.2317k external	0.2317temperature offset calibration	1.0060default loss term (dB/km)	0.3790temperature slope calibration	1.0000multiplexer offset coefficient	1.0000multiplexer slope coefficient	1.0000fibre end	0.00T internal ref (°C)	34.62T ext. ref 1 (°C)	1.80T ext. ref 2 (°C)	29.08length (m)	temperature (°C)	Stokes	anti-Stokes-747.200	-2.031	-0.154	0.110
-746.185	-15.390	-0.216	0.140
-745.171	134.228	0.186	0.244
-744.156	-200.000	-0.023	0.360
-743.142	-13.307	0.202	0.133
-742.127	150.306	0.108	-0.149
-741.112	479.428	0.089	0.205
-740.098	-65.589	-0.413	0.168
-739.083	20.984	0.269	-0.221
-738.069	-119.326	-0.258	-0.045
-737.054	-6.872	-0.072	-0.049
-736.039	515.421	-0.047	0.111
-735.025	-100.755	0.145	-0.036
-734.010	-27.556	-0.356	0.209
-732.996	-174.204	-0.168	-0.005
-731.981	455.484	-0.044	-0.098
-730.966	66.692	0.114	0.117
-729.952	367.752	-0.050	-0.102
-728.937	-200.000	0.007	-0.474
-727.923	800.000	0.059	-0.199
-726.908	281.935	0.094	-0.170
-725.894	-25.584	-0.408	-0.244
-724.879	-43.446	0.172	-0.088
-723.864	-127.336	0.383	0.057
-722.850	800.000	0.167	-0.494
-721.835	-70.144	-0.421	-0.162
-720.821	-43.850	0.080	-0.041
-719.806	-200.000	0.020	0.105
-718.791	668.681	0.095	0.249
-717.777	-200.000	-0.010	0.268
-716.762	160.637	-0.162	-0.229
-715.748	47.038	0.198	0.187
-714.733	590.078	-0.167	-0.416
-713.718	-47.756	0.139	-0.068
-712.704	800.000	0.063	-0.205
-711.689	269.133	-0.127	-0.225
-710.675	-3.468	0.130	-0.092
-709.660	36.824	0.325	-0.291
-708.645	-200.000	0.024	-0.241
-707.631	-200.000	-0.041	-0.196
-706.616	5.587	0.314	-0.234
-705.602	-75.823	-0.074	-0.027
-704.587	-200.000	0.008	0.126
-703.572	203.481	-0.066	-0.103
-702.558	32.031	0.150	-0.130
-701.543	-200.000	-0.006	-0.302
-700.529	-200.000	-0.028	0.160
-699.514	800.000	0.009	-0.039
-698.499	93.083	0.044	0.050
-697.485	800.000	-0.053	0.192
-696.470	143.728	-0.214	-0.288
-695.456	146.093	-0.236	-0.320
-694.441	-43.868	-0.189	-0.096
-693.426	-90.496	-0.212	-0.062
-692.412	-80.213	0.367	-0.124
-691.397	-200.000	0.013	-0.069
-690.383	-36.718	-0.317	-0.172
-689.368	4.728	-0.223	0.166
-688.354	-36.968	0.330	-0.179
-687.339	-28.505	0.092	0.053
-686.324	176.749	0.147	-0.216
-685.310	-200.000	-0.050	-0.241
-684.295	-200.000	-0.007	0.069
-683.281	800.000	0.022	0.088
-682.266	12.247	-0.195	0.152
-681.251	194.414	-0.266	-0.407
-680.237	800.000	-0.019	-0.065
-679.222	53.658	0.020	0.019
-678.208	193.577	0.102	-0.157
-677.193	-176.454	-0.101	0.003
-676.178	-27.372	0.068	0.040
-675.164	-200.000	-0.060	-0.331
-674.149	-200.000	-0.068	0.381
-673.135	800.000	-0.071	-0.227
-672.120	-105.604	-0.129	-0.030
-671.105	191.766	0.077	0.117
-670.091	139.213	-0.084	-0.111
-669.076	-200.000	-0.016	0.094
-668.062	308.991	0.160	-0.301
-667.047	373.472	0.039	0.081
-666.032	119.358	0.220	-0.275
-665.018	46.413	0.180	-0.169
-664.003	-147.365	-0.127	-0.011
-662.989	616.279	0.088	-0.224
-661.974	275.025	0.087	-0.156
-660.959	-115.793	0.215	0.041
-659.945	6.106	-0.305	0.228
-658.930	197.161	0.172	0.264
-657.916	365.375	0.011	-0.023
-656.901	84.510	0.123	0.135
-655.886	-200.000	0.000	0.186
-654.872	-200.000	-0.076	-0.407
-653.857	-94.958	-0.271	-0.074
-652.843	-107.028	0.167	-0.037
-651.828	28.420	0.211	-0.180
-650.814	401.615	-0.190	-0.403
-649.799	800.000	0.089	-0.385
-648.784	-200.000	-0.026	0.131
-647.770	-90.355	-0.340	-0.100
-646.755	-200.000	-0.002	-0.047
-645.741	-49.311	0.175	0.084
-644.726	220.337	-0.109	0.176
-643.711	-200.000	-0.005	0.231
-642.697	800.000	-0.041	-0.147
-641.682	147.246	0.106	0.144
-640.668	285.819	0.145	0.263
-639.653	-20.907	-0.142	-0.088
-638.638	-200.000	0.020	-0.240
-637.624	800.000	0.048	0.176
-636.609	666.663	-0.116	-0.302
-635.595	57.938	0.052	-0.051
-634.580	-4.496	0.218	-0.152
-633.565	800.000	0.075	-0.281
-632.551	418.589	0.081	0.175
-631.536	-12.811	0.276	-0.181
-630.522	2.920	-0.075	0.055
-629.507	-200.000	-0.049	-0.245
-628.492	-172.541	-0.106	0.003
-627.478	800.000	-0.060	0.261
-626.463	-200.000	-0.040	-0.207
-625.449	-185.664	-0.365	-0.006
-624.434	-74.759	-0.111	0.040
-623.419	238.822	0.172	-0.288
-622.405	88.369	0.095	-0.107
-621.390	30.636	-0.185	-0.159
-620.376	-127.448	-0.200	-0.029
-619.361	4.569	0.202	0.149
-618.346	106.920	-0.249	-0.298
-617.332	214.329	0.273	-0.436
-616.317	800.000	-0.129	-0.442
-615.303	13.972	0.394	-0.309
-614.288	2.182	0.117	0.085
-613.273	800.000	0.053	-0.207
-612.259	127.874	0.160	0.205
-611.244	-200.000	0.006	-0.179
-610.230	-18.348	-0.231	-0.146
-609.215	-73.417	0.196	0.072
-608.201	-0.020	-0.095	0.068
-607.186	12.854	-0.304	0.237
-606.171	-111.003	-0.277	0.057
-605.157	85.288	-0.211	0.233
-604.142	-9.989	-0.268	-0.180
-603.128	-131.832	-0.064	0.008
-602.113	-200.000	0.033	0.184
-601.098	-200.000	0.009	-0.043
-600.084	62.590	-0.215	-0.216
-599.069	-118.564	-0.285	0.051
-598.055	300.435	0.038	0.071
-597.040	800.000	-0.095	-0.297
-596.025	-3.072	-0.086	-0.061
-595.011	-37.122	-0.254	-0.137
-593.996	-200.000	-0.039	-0.289
-592.982	-163.213	-0.445	0.021
-591.967	-141.725	0.368	0.037
-590.952	98.725	-0.129	-0.150
-589.938	-58.962	0.157	0.068
-588.923	800.000	0.074	0.300
-587.909	-200.000	-0.009	0.170
-586.894	-88.804	-0.238	-0.071
-585.879	345.662	-0.089	0.177
-584.865	-143.133	0.062	-0.006
-583.850	-43.001	0.382	-0.195
-582.836	-158.959	0.324	0.019
-581.821	-26.553	-0.074	0.044
-580.806	-81.158	-0.185	0.061
-579.792	-200.000	-0.058	-0.385
-578.777	215.771	-0.135	0.215
-577.763	-164.975	-0.494	-0.022
-576.748	3.505	-0.035	-0.026
-575.733	-39.897	0.310	0.163
-574.719	-200.000	-0.002	0.126
-573.704	661.291	-0.076	-0.197
-572.690	10.046	0.060	-0.045
-571.675	-200.000	0.027	0.219
-570.661	-51.711	-0.342	-0.160
-569.646	-71.810	-0.121	-0.045
-568.631	-92.429	-0.079	-0.022
-567.617	-200.000	-0.016	0.250
-566.602	505.621	0.141	-0.329
-565.588	-200.000	-0.003	0.032
-564.573	775.310	-0.055	-0.150
-563.558	25.838	0.110	-0.093
-562.544	222.670	-0.138	-0.223
-561.529	-66.458	-0.272	0.109
-560.515	800.000	0.095	0.283
-559.500	-200.000	0.016	0.290
-558.485	800.000	-0.043	-0.149
-557.471	124.676	-0.120	0.152
-556.456	-157.256	-0.325	-0.020
-555.442	-129.101	0.221	-0.031
-554.427	-147.961	-0.197	0.016
-553.412	-126.826	0.255	-0.038
-552.398	93.766	-0.228	-0.260
-551.383	-107.876	-0.095	-0.021
-550.369	401.598	0.084	0.178
-549.354	102.835	-0.097	-0.114
-548.339	-152.874	0.095	0.007
-547.325	177.671	-0.134	0.196
-546.310	-97.962	-0.229	-0.059
-545.296	125.730	0.186	0.236
-544.281	408.314	0.127	0.269
-543.266	-31.145	-0.238	0.135
-542.252	20.000	0.152	-0.123
-541.237	-200.000	-0.016	-0.383
-540.223	-84.092	0.182	0.058
-539.208	-77.677	-0.157	0.054
-538.193	128.951	0.069	-0.088
-537.179	-82.103	-0.193	0.063
-536.164	-200.000	0.046	0.389
-535.150	-200.000	0.003	-0.256
-534.135	-19.783	0.158	0.098
-533.121	86.365	0.189	0.210
-532.106	-21.127	0.167	-0.103
-531.091	-136.341	-0.372	-0.044
-530.077	-10.167	0.117	0.078
-529.062	-92.605	0.341	-0.096
-528.048	800.000	-0.008	0.029
-527.033	232.939	0.157	-0.259
-526.018	-26.862	-0.113	0.066
-525.004	-98.578	-0.261	-0.067
-523.989	-200.000	-0.097	0.440
-522.975	419.329	0.070	-0.150
-521.960	75.583	-0.076	0.080
-520.945	800.000	-0.034	-0.106
-519.931	293.288	-0.082	-0.150
-518.916	-128.656	-0.281	-0.040
-517.902	-73.163	-0.083	-0.031
-516.887	-115.199	-0.155	-0.029
-515.872	157.038	-0.183	-0.254
-514.858	-200.000	0.027	0.118
-513.843	166.730	0.106	0.150
-512.829	282.744	-0.064	-0.116
-511.814	262.944	0.052	0.091
-510.799	-200.000	-0.002	-0.193
-509.785	334.703	0.187	-0.363
-508.770	29.552	-0.218	-0.186
-507.756	-80.390	0.304	-0.102
-506.741	-200.000	-0.001	0.038
-505.726	-200.000	0.024	0.149
-504.712	-64.752	0.331	0.134
-503.697	800.000	0.089	-0.359
-502.683	-110.566	0.055	-0.011
-501.668	409.439	-0.160	0.339
-500.653	800.000	0.046	0.133
-499.639	-156.072	0.169	-0.011
-498.624	386.931	0.050	0.103
-497.610	-200.000	0.013	-0.244
-496.595	-159.456	0.398	0.022
-495.581	207.644	-0.179	0.280
-494.566	13.267	-0.045	0.035
-493.551	59.628	-0.131	-0.129
-492.537	-162.984	0.086	-0.004
-491.522	-140.781	-0.170	0.018
-490.508	-73.783	-0.171	0.062
-489.493	800.000	0.025	-0.095
-488.478	-81.791	0.097	0.032
-487.464	84.598	0.230	0.253
-486.449	-49.161	0.076	-0.037
-485.435	114.522	-0.137	-0.168
-484.420	88.684	0.192	0.214
-483.405	-109.086	-0.227	-0.048
-482.391	-56.297	0.078	0.035
-481.376	351.505	-0.117	0.232
-480.362	-146.473	-0.452	0.039
-479.347	-45.225	-0.324	0.161
-478.332	-200.000	-0.005	-0.114
-477.318	134.486	0.114	-0.148
-476.303	397.564	-0.067	-0.140
-475.289	45.544	-0.009	-0.009
-474.274	47.721	-0.170	0.159
-473.259	-93.789	0.014	0.004
-472.245	161.551	-0.149	0.209
-471.230	9.660	0.071	-0.054
-470.216	-200.000	-0.008	0.170
-469.201	-117.139	0.312	0.057
-468.186	-200.000	0.016	-0.089
-467.172	-33.072	0.143	-0.079
-466.157	-73.110	-0.158	-0.058
-465.143	-129.807	0.154	-0.021
-464.128	-29.073	0.233	-0.134
-463.113	-82.446	0.152	-0.050
-462.099	162.646	0.135	-0.189
-461.084	-75.101	-0.237	0.085
-460.070	7.619	0.280	0.210
-459.055	-125.695	-0.292	-0.044
-458.040	62.277	-0.202	-0.202
-457.026	-180.452	0.169	0.004
-456.011	160.982	0.106	-0.148
-454.997	-98.411	0.477	-0.122
-453.982	716.613	-0.146	-0.387
-452.968	319.211	0.130	-0.247
-451.953	-200.000	0.049	-0.324
-450.938	607.581	0.133	-0.333
-449.924	800.000	0.112	-0.314
-448.909	-200.000	0.041	0.244
-447.895	-90.990	-0.226	-0.065
-446.880	-80.948	-0.182	-0.060
-445.865	698.127	-0.116	0.306
-444.851	-29.868	-0.400	-0.228
-443.836	11.626	-0.241	0.185
-442.822	-20.454	-0.146	0.090
-441.807	64.843	0.141	-0.142
-440.792	-158.740	0.098	0.006
-439.778	800.000	-0.029	0.088
-438.763	800.000	-0.122	-0.385
-437.749	-122.430	0.228	-0.037
-436.734	59.623	0.171	0.169
-435.719	-200.000	-0.004	0.264
-434.705	-68.315	-0.265	-0.103
-433.690	-200.000	-0.010	0.195
-432.676	-111.953	-0.147	-0.030
-431.661	-28.473	0.049	0.028
-430.646	495.328	-0.074	0.170
-429.632	800.000	-0.094	0.315
-428.617	800.000	-0.043	-0.126
-427.603	312.331	0.182	0.341
-426.588	193.395	-0.162	-0.246
-425.573	-200.000	0.008	-0.169
-424.559	475.822	0.026	0.059
-423.544	119.188	-0.135	0.166
-422.530	162.893	0.028	0.040
-421.515	-164.347	0.103	0.005
-420.500	328.620	0.070	-0.135
-419.486	-13.655	0.273	0.177
-418.471	168.326	0.162	0.230
-417.457	577.205	0.086	0.211
-416.442	46.233	0.121	0.112
-415.428	-21.309	0.207	-0.127
-414.413	800.000	0.035	-0.122
-413.398	43.461	-0.308	0.282
-412.384	-200.000	-0.098	0.480
-411.369	-88.950	-0.201	0.059
-410.355	-200.000	0.015	0.208
-409.340	-103.791	0.171	0.040
-408.325	-180.836	0.105	-0.002
-407.311	88.149	0.175	-0.194
-406.296	-50.196	0.420	0.199
-405.282	-27.556	-0.126	0.073
-404.267	125.194	0.038	0.048
-403.252	-200.000	0.011	0.070
-402.238	-20.167	-0.146	0.090
-401.223	800.000	0.097	-0.306
-400.209	-200.000	0.025	-0.176
-399.194	404.808	0.096	0.203
-398.179	-88.854	0.295	0.087
-397.165	651.820	-0.121	0.309
-396.150	-62.727	0.117	-0.048
-395.136	800.000	0.061	-0.199
-394.121	-133.824	0.253	-0.031
-393.106	800.000	-0.047	0.182
-392.092	-72.355	-0.146	0.054
-391.077	-200.000	-0.000	0.123
-390.063	-200.000	0.001	-0.134
-389.048	-200.000	0.048	-0.231
-388.033	-200.000	0.011	0.193
-387.019	-60.176	-0.147	-0.062
-386.004	107.182	-0.061	-0.073
-384.990	-200.000	0.008	-0.221
-383.975	-200.000	0.089	-0.455
-382.960	197.679	-0.042	0.064
-381.946	45.208	0.195	-0.179
-380.931	69.206	-0.213	-0.218
-379.917	451.249	0.139	0.307
-378.902	-82.380	-0.156	0.050
-377.888	345.719	-0.022	-0.044
-376.873	-130.695	0.095	0.013
-375.858	86.857	-0.266	0.293
-374.844	800.000	0.054	-0.187
-373.829	-200.000	0.008	-0.282
-372.815	279.304	0.091	0.162
-371.800	800.000	-0.065	0.197
-370.785	11.934	-0.356	-0.273
-369.771	-80.093	0.218	-0.073
-368.756	405.561	0.144	0.303
-367.742	-200.000	0.011	0.057
-366.727	-200.000	-0.009	-0.173
-365.712	-200.000	-0.015	-0.102
-364.698	66.175	0.105	0.106
-363.683	113.872	0.220	0.267
-362.669	-83.787	-0.479	0.152
-361.654	-200.000	0.056	0.272
-360.639	134.849	0.167	0.216
-359.625	-70.245	-0.186	0.070
-358.610	-96.380	0.217	-0.057
-357.596	108.929	-0.053	-0.064
-356.581	800.000	0.125	0.386
-355.566	56.533	0.214	0.208
-354.552	691.791	-0.077	-0.201
-353.537	-200.000	0.003	0.269
-352.523	-200.000	-0.056	-0.291
-351.508	-142.799	-0.145	0.014
-350.493	12.033	0.271	-0.208
-349.479	466.652	-0.030	0.066
-348.464	519.556	0.150	0.350
-347.450	-88.546	0.268	0.080
-346.435	-200.000	-0.004	0.030
-345.420	64.950	-0.232	-0.233
-344.406	-19.018	0.397	0.246
-343.391	-107.335	-0.282	0.062
-342.377	145.206	-0.064	0.086
-341.362	147.019	-0.156	0.208
-340.348	279.252	-0.023	-0.041
-339.333	800.000	-0.057	-0.180
-338.318	-169.238	0.076	0.003
-337.304	498.371	-0.069	-0.159
-336.289	12.442	0.155	-0.119
-335.275	800.000	-0.037	0.132
-334.260	-58.665	-0.240	0.104
-333.245	-33.824	0.145	-0.080
-332.231	403.152	0.021	-0.044
-331.216	-80.801	0.217	-0.072
-330.202	637.013	0.137	0.347
-329.187	75.051	0.068	0.071
-328.172	-200.000	0.031	0.258
-327.158	111.957	-0.266	0.320
-326.143	316.080	-0.200	0.376
-325.129	197.050	0.146	0.222
-324.114	-25.728	-0.168	-0.099
-323.099	-108.942	0.368	-0.078
-322.085	800.000	-0.058	-0.165
-321.070	-164.877	0.205	0.009
-320.056	227.346	-0.085	-0.138
-319.041	-93.355	-0.460	-0.127
-318.026	-37.034	0.188	-0.100
-317.012	144.401	-0.091	-0.121
-315.997	-65.179	0.401	0.161
-314.983	142.895	-0.143	-0.190
-313.968	-13.342	0.106	0.069
-312.953	253.180	-0.188	0.319
-311.939	-200.000	-0.008	-0.092
-310.924	-200.000	0.057	0.399
-309.910	-30.149	-0.383	0.217
-308.895	190.159	-0.133	0.199
-307.880	-141.126	0.114	0.012
-306.866	-58.432	-0.232	0.100
-305.851	-33.344	-0.320	0.176
-304.837	-73.175	0.014	-0.005
-303.822	-142.270	0.185	0.018
-302.807	800.000	0.026	-0.080
-301.793	-121.470	-0.384	0.064
-300.778	-10.479	0.147	0.097
-299.764	771.439	-0.093	0.252
-298.749	-200.000	0.027	0.516
-297.735	-36.923	0.057	0.030
-296.720	-200.000	-0.014	-0.159
-295.705	-34.496	0.499	0.272
-294.691	-200.000	0.043	0.212
-293.676	800.000	0.203	0.596
-292.662	251.588	-0.048	-0.082
-291.647	-82.418	-0.277	0.090
-290.632	-55.981	0.172	0.076
-289.618	-116.814	0.079	0.014
-288.603	22.929	-0.231	-0.188
-287.589	-200.000	0.053	-0.254
-286.574	95.022	0.087	0.099
-285.559	10.974	-0.054	-0.041
-284.545	-200.000	-0.031	-0.240
-283.530	154.411	-0.042	-0.057
-282.516	800.000	0.041	-0.131
-281.501	-177.971	0.302	-0.007
-280.486	768.528	0.109	-0.294
-279.472	-8.622	0.238	-0.159
-278.457	39.679	-0.160	0.142
-277.443	-200.000	0.005	-0.060
-276.428	-200.000	0.046	0.220
-275.413	36.337	-0.138	0.121
-274.399	-39.219	0.115	0.060
-273.384	-47.998	0.259	0.124
-272.370	-128.938	-0.138	-0.019
-271.355	226.516	-0.134	-0.216
-270.340	191.367	-0.093	-0.138
-269.326	800.000	-0.014	0.060
-268.311	476.650	0.119	0.266
-267.297	-27.085	-0.251	0.146
-266.282	694.736	-0.083	0.216
-265.267	-77.989	0.091	-0.031
-264.253	1.071	-0.072	-0.051
-263.238	31.562	-0.124	-0.106
-262.224	376.716	0.095	-0.194
-261.209	-123.115	-0.168	0.027
-260.195	184.865	-0.121	-0.178
-259.180	33.219	-0.219	-0.189
-258.165	-0.930	-0.082	0.058
-257.151	800.000	0.032	0.128
-256.136	-59.659	-0.290	0.124
-255.122	-200.000	0.088	0.461
-254.107	19.740	0.137	0.109
-253.092	-117.685	-0.159	-0.028
-252.078	-51.376	-0.063	-0.029
-251.063	800.000	0.066	-0.187
-250.049	800.000	-0.060	0.172
-249.034	-29.351	-0.242	0.138
-248.019	143.472	-0.253	0.334
-247.005	776.782	-0.197	-0.534
-245.990	-131.876	0.074	-0.010
-244.976	-127.847	-0.175	-0.025
-243.961	69.477	0.150	-0.153
-242.946	490.518	-0.070	0.158
-241.932	142.461	-0.092	-0.121
-240.917	105.193	-0.111	0.130
-239.903	-73.748	0.278	-0.100
-238.888	-65.520	-0.157	0.063
-237.873	800.000	0.079	0.269
-236.859	475.440	-0.081	0.181
-235.844	-64.825	0.093	0.037
-234.830	-200.000	-0.013	0.124
-233.815	655.300	0.085	-0.216
-232.800	-200.000	-0.055	-0.317
-231.786	-67.333	-0.111	0.043
-230.771	-76.858	0.374	-0.130
-229.757	132.432	0.264	-0.338
-228.742	-34.969	0.369	-0.200
-227.727	-103.167	0.330	0.077
-226.713	221.124	-0.160	-0.255
-225.698	-108.954	-0.215	-0.045
-224.684	800.000	0.021	0.090
-223.669	251.162	-0.185	0.312
-222.655	-102.160	0.075	0.018
-221.640	3.554	-0.125	-0.090
-220.625	68.807	0.237	-0.242
-219.611	157.668	0.079	-0.108
-218.596	-98.147	-0.100	-0.026
-217.582	120.645	-0.027	0.034
-216.567	-200.000	0.031	-0.339
-215.552	466.398	-0.095	-0.212
-214.538	-150.834	0.150	0.011
-213.523	74.733	-0.070	0.073
-212.509	-16.788	0.183	0.115
-211.494	-110.648	0.294	-0.060
-210.479	227.732	0.082	-0.132
-209.465	-6.883	0.241	0.162
-208.450	184.853	-0.188	-0.276
-207.436	-61.539	0.176	0.073
-206.421	-91.442	0.539	0.153
-205.406	12.701	-0.158	-0.121
-204.392	-200.000	-0.034	-0.153
-203.377	-129.246	0.271	-0.037
-202.363	93.703	-0.074	-0.083
-201.348	110.205	0.149	-0.178
-200.333	721.361	0.050	-0.131
-199.319	-2.412	-0.086	0.060
-198.304	110.339	-0.189	0.225
-197.290	-200.000	-0.012	-0.080
-196.275	311.522	0.141	-0.262
-195.260	-54.533	0.340	-0.153
-194.246	256.754	0.210	-0.358
-193.231	299.511	-0.076	-0.139
-192.217	-13.191	-0.187	0.121
-191.202	126.280	-0.241	0.302
-190.187	-186.067	0.023	-0.000
-189.173	-200.000	-0.012	0.192
-188.158	483.662	-0.057	-0.129
-187.144	-200.000	-0.023	-0.199
-186.129	-166.211	0.291	-0.012
-185.114	-200.000	0.016	-0.080
-184.100	489.895	-0.087	0.197
-183.085	-30.189	-0.034	0.019
-182.071	11.973	-0.212	-0.161
-181.056	-104.288	-0.108	-0.025
-180.042	-52.812	-0.354	-0.162
-179.027	800.000	0.033	0.103
-178.012	-142.476	0.170	-0.017
-176.998	-0.365	-0.146	0.102
-175.983	-127.191	-0.089	-0.013
-174.969	472.010	0.078	0.174
-173.954	800.000	0.039	0.153
-172.939	-24.846	0.203	0.119
-171.925	26.513	0.129	-0.107
-170.910	86.326	-0.123	-0.134
-169.896	-48.001	0.371	0.178
-168.881	800.000	0.106	-0.421
-167.866	-80.161	0.256	-0.085
-166.852	26.632	0.427	-0.354
-165.837	-200.000	0.064	-0.295
-164.823	172.767	-0.123	0.176
-163.808	800.000	0.026	0.086
-162.793	91.014	0.087	-0.096
-161.779	-74.325	0.221	0.079
-160.764	800.000	-0.123	0.490
-159.750	200.705	0.124	-0.188
-158.735	-112.013	0.176	0.035
-157.720	-65.991	-0.273	0.108
-156.706	44.359	-0.279	-0.253
-155.691	107.041	-0.165	0.194
-154.677	210.857	0.109	-0.170
-153.662	-160.176	0.089	-0.005
-152.647	-200.000	-0.015	0.077
-151.633	-100.718	0.230	-0.056
-150.618	101.074	0.146	0.168
-149.604	-104.335	-0.540	-0.124
-148.589	156.043	-0.100	0.136
-147.574	438.289	0.088	-0.190
-146.560	-95.213	-0.109	0.029
-145.545	-54.666	0.311	-0.139
-144.531	-200.000	0.021	0.352
-143.516	-200.000	-0.066	-0.287
-142.502	131.849	-0.194	0.247
-141.487	172.885	-0.098	-0.140
-140.472	42.930	0.229	-0.206
-139.458	-78.887	-0.333	-0.112
-138.443	-93.210	-0.138	-0.038
-137.429	800.000	0.076	-0.236
-136.414	800.000	0.077	-0.298
-135.399	138.091	0.143	-0.186
-134.385	59.549	-0.050	0.048
-133.370	324.322	0.042	-0.078
-132.356	-56.085	-0.168	0.074
-131.341	-88.614	-0.200	0.059
-130.326	800.000	0.058	0.191
-129.312	-200.000	0.049	-0.236
-128.297	162.224	0.083	-0.115
-127.283	-122.152	-0.193	-0.031
-126.268	800.000	-0.060	0.193
-125.253	-73.237	0.336	0.122
-124.239	151.315	0.089	0.119
-123.224	-75.514	-0.180	-0.063
-122.210	-200.000	0.061	0.337
