DTS Sentinel unit serial number:	SN413079Multiplexer serial number:	ORYXHardware model number:	OX4-SRSoftware version number:	ORYX F/W v4.00 Oryx Data Collector v3.7.2.0data status	okinstallation	princeton_trtdifferential loss correction	single-endedforward channel	channel 1reverse channel	N/Adate	2019/09/12time	01:24:11forward acquisition time	60.00reverse acquisition time	0.00gamma	496.2192k internal	0.2320k external	0.2320temperature offset calibration	1.0075default loss term (dB/km)	0.3790temperature slope calibration	1.0000multiplexer offset coefficient	1.0000multiplexer slope coefficient	1.0000fibre end	0.00T internal ref (°C)	32.98T ext. ref 1 (°C)	2.07T ext. ref 2 (°C)	27.83length (m)	temperature (°C)	Stokes	anti-Stokes-747.200	-131.115	-0.228	-0.031
-746.185	75.384	0.159	-0.169
-745.171	143.201	0.127	-0.170
-744.156	747.411	-0.139	0.378
-743.142	15.432	0.053	0.042
-742.127	-200.000	0.015	0.111
-741.112	-200.000	0.000	-0.047
-740.098	148.943	-0.246	-0.336
-739.083	-200.000	-0.057	-0.670
-738.069	52.333	-0.156	0.150
-737.054	-30.483	-0.186	-0.106
-736.039	-11.316	-0.331	-0.221
-735.025	-189.161	0.063	-0.001
-734.010	800.000	0.053	-0.186
-732.996	341.809	0.028	0.055
-731.981	5.501	0.060	0.045
-730.966	-200.000	-0.133	0.000
-729.952	-34.183	0.234	-0.130
-728.937	-29.962	-0.412	0.237
-727.923	220.546	0.158	-0.257
-726.908	800.000	-0.086	0.352
-725.894	-200.000	-0.053	0.256
-724.879	-200.000	0.075	0.333
-723.864	147.909	-0.112	0.152
-722.850	-60.208	0.108	0.046
-721.835	314.088	0.172	0.326
-720.821	82.175	0.153	0.168
-719.806	-101.509	-0.267	0.066
-718.791	-200.000	-0.018	0.219
-717.777	-115.409	0.236	-0.045
-716.762	596.402	0.137	-0.343
-715.748	800.000	-0.023	-0.064
-714.733	-200.000	-0.022	0.125
-713.718	231.726	-0.090	-0.149
-712.704	372.875	-0.054	0.111
-711.689	-41.269	-0.094	0.049
-710.675	-90.244	-0.191	-0.056
-709.660	122.467	-0.112	0.142
-708.645	800.000	-0.048	0.134
-707.631	-116.779	-0.237	0.044
-706.616	17.512	-0.348	-0.280
-705.602	599.862	0.033	-0.082
-704.587	-97.956	-0.193	-0.050
-703.572	505.399	-0.066	0.155
-702.558	108.618	0.224	-0.270
-701.543	-200.000	-0.007	0.231
-700.529	-102.837	-0.391	-0.094
-699.514	800.000	0.076	0.326
-698.499	4.250	0.284	0.210
-697.485	125.502	-0.083	-0.106
-696.470	111.752	-0.153	-0.186
-695.456	303.737	0.021	-0.039
-694.441	92.470	0.212	-0.242
-693.426	-200.000	-0.013	-0.183
-692.412	800.000	0.119	-0.371
-691.397	701.411	0.014	-0.037
-690.383	-50.803	-0.168	0.080
-689.368	800.000	0.075	-0.233
-688.354	-200.000	-0.007	0.378
-687.339	-34.120	0.041	-0.023
-686.324	-135.446	0.214	0.026
-685.310	351.515	-0.153	-0.306
-684.295	-104.641	-0.133	-0.031
-683.281	-75.361	-0.341	-0.123
-682.266	384.129	0.037	0.078
-681.251	4.660	-0.262	0.194
-680.237	-0.432	-0.169	0.121
-679.222	-136.613	-0.209	-0.024
-678.208	-46.300	-0.293	0.145
-677.193	-200.000	-0.022	-0.147
-676.178	-27.459	0.224	-0.131
-675.164	-129.374	-0.421	-0.059
-674.149	800.000	-0.019	0.078
-673.135	-10.472	0.075	0.050
-672.120	418.174	0.023	0.049
-671.105	-125.215	-0.434	-0.067
-670.091	-200.000	-0.013	0.076
-669.076	-3.328	-0.205	-0.144
-668.062	-13.567	0.069	-0.045
-667.047	800.000	0.056	-0.212
-666.032	800.000	0.095	-0.308
-665.018	800.000	-0.057	-0.184
-664.003	-200.000	-0.021	-0.223
-662.989	44.185	0.115	-0.106
-661.974	67.725	-0.133	-0.137
-660.959	-21.684	-0.262	-0.161
-659.945	182.072	0.030	0.045
-658.930	-47.125	-0.282	-0.139
-657.916	301.361	0.111	0.206
-656.901	65.060	-0.095	0.096
-655.886	498.582	0.045	-0.105
-654.872	138.266	-0.127	-0.168
-653.857	3.654	0.111	0.081
-652.843	48.051	-0.165	-0.155
-651.828	-200.000	-0.006	0.120
-650.814	245.895	-0.151	0.256
-649.799	32.729	0.094	0.082
-648.784	221.402	-0.104	0.168
-647.770	489.314	-0.055	0.127
-646.755	800.000	0.049	-0.142
-645.741	-20.562	-0.343	-0.213
-644.726	643.340	0.109	-0.279
-643.711	800.000	0.066	0.241
-642.697	-200.000	-0.012	0.058
-641.682	-48.073	0.105	0.051
-640.668	46.087	-0.188	0.175
-639.653	-89.732	0.119	-0.035
-638.638	169.367	-0.051	-0.073
-637.624	-25.496	0.033	0.020
-636.609	69.000	-0.285	-0.295
-635.595	-26.537	-0.254	-0.150
-634.580	-64.797	-0.187	-0.076
-633.565	-63.905	0.155	-0.064
-632.551	-200.000	0.010	0.253
-631.536	404.636	-0.097	0.206
-630.522	228.392	-0.171	-0.280
-629.507	267.193	-0.124	-0.219
-628.492	-151.312	0.368	-0.028
-627.478	13.309	0.271	-0.211
-626.463	-200.000	0.012	0.069
-625.449	-55.627	0.142	0.064
-624.434	-88.242	-0.163	-0.049
-623.419	36.377	0.163	0.145
-622.405	219.975	-0.155	-0.250
-621.390	35.003	0.121	0.106
-620.376	23.188	-0.170	0.141
-619.361	-200.000	-0.005	-0.300
-618.346	70.471	0.095	0.099
-617.332	-109.385	0.162	-0.035
-616.317	25.972	0.282	0.237
-615.303	-168.485	0.273	0.011
-614.288	-63.050	0.054	-0.023
-613.273	800.000	-0.143	0.434
-612.259	-105.706	-0.160	0.036
-611.244	-29.991	-0.150	-0.086
-610.230	-134.223	-0.096	-0.012
-609.215	800.000	0.062	-0.260
-608.201	38.212	0.050	0.045
-607.186	234.843	0.109	0.181
-606.171	36.312	-0.184	-0.163
-605.157	-200.000	-0.008	0.102
-604.142	54.733	0.100	0.097
-603.128	-200.000	0.058	-0.397
-602.113	-77.635	0.128	-0.045
-601.098	714.381	-0.079	0.212
-600.084	192.102	-0.089	-0.134
-599.069	800.000	0.074	-0.236
-598.055	-5.749	0.238	0.164
-597.040	10.240	0.320	0.245
-596.025	1.914	0.339	0.246
-595.011	-86.779	-0.336	-0.103
-593.996	-41.575	-0.266	0.138
-592.982	514.132	0.042	-0.098
-591.967	-187.702	0.164	0.002
-590.952	-58.243	0.359	0.157
-589.938	-8.724	-0.147	0.099
-588.923	689.725	0.047	0.124
-587.909	-159.069	-0.278	0.016
-586.894	141.775	-0.138	-0.183
-585.879	-200.000	-0.003	0.041
-584.865	255.773	-0.027	0.047
-583.850	-200.000	0.036	0.207
-582.836	-93.820	0.074	-0.020
-581.821	42.756	0.286	-0.262
-580.806	-4.384	-0.112	-0.078
-579.792	-40.013	-0.070	-0.037
-578.777	-164.206	-0.029	-0.001
-577.763	-41.510	0.137	-0.071
-576.748	-167.253	-0.099	-0.004
-575.733	-46.075	0.335	-0.166
-574.719	800.000	-0.014	-0.043
-573.704	53.857	0.226	-0.218
-572.690	-200.000	0.016	0.212
-571.675	800.000	0.017	0.053
-570.661	-4.932	0.307	0.212
-569.646	-179.683	-0.168	0.004
-568.631	65.519	0.191	0.194
-567.617	258.813	0.011	-0.018
-566.602	-138.891	-0.079	-0.009
-565.588	186.508	0.095	-0.141
-564.573	-81.979	0.117	-0.038
-563.558	800.000	0.053	0.162
-562.544	-107.978	0.092	-0.020
-561.529	800.000	0.101	0.310
-560.515	800.000	0.083	0.314
-559.500	-168.697	0.057	0.002
-558.485	648.384	-0.056	-0.144
-557.471	35.568	0.188	-0.166
-556.456	-200.000	-0.046	0.212
-555.442	242.186	0.155	0.261
-554.427	93.997	0.147	0.168
-553.412	-3.513	-0.142	0.099
-552.398	137.430	0.052	-0.068
-551.383	-40.128	-0.088	0.046
-550.369	323.185	0.112	0.214
-549.354	-27.685	-0.209	-0.122
-548.339	-200.000	0.017	-0.114
-547.325	745.236	0.215	-0.580
-546.310	800.000	-0.084	-0.338
-545.296	435.160	-0.140	0.305
-544.281	-200.000	0.014	-0.282
-543.266	-55.066	-0.255	-0.115
-542.252	-200.000	0.029	-0.181
-541.237	-200.000	0.006	0.434
-540.223	-185.288	-0.423	-0.007
-539.208	68.188	-0.189	0.194
-538.193	462.396	-0.171	0.382
-537.179	13.591	-0.109	-0.085
-536.164	268.868	0.118	-0.207
-535.150	800.000	0.055	-0.216
-534.135	-153.035	-0.115	0.008
-533.121	169.717	-0.149	-0.213
-532.106	-16.604	0.354	0.225
-531.091	-173.130	0.066	0.002
-530.077	-124.099	0.158	0.025
-529.062	445.152	0.045	-0.100
-528.048	83.289	0.068	0.074
-527.033	-170.747	-0.119	0.004
-526.018	48.639	0.145	0.136
-525.004	-200.000	-0.016	0.204
-523.989	800.000	0.106	-0.309
-522.975	-57.809	0.345	0.151
-521.960	319.353	0.078	0.149
-520.945	68.628	0.145	-0.149
-519.931	101.380	0.160	0.187
-518.916	-123.167	-0.194	0.031
-517.902	243.736	0.139	0.234
-516.887	800.000	0.010	-0.034
-515.872	6.638	-0.098	0.073
-514.858	-145.426	0.276	0.025
-513.843	-69.193	0.141	-0.054
-512.829	-200.000	0.015	0.110
-511.814	-200.000	0.026	0.134
-510.799	-200.000	0.038	0.237
-509.785	800.000	0.089	-0.354
-508.770	-131.819	0.406	-0.053
-507.756	658.716	-0.137	-0.354
-506.741	-62.796	-0.169	-0.070
-505.726	-200.000	-0.026	0.311
-504.712	-157.788	0.258	-0.015
-503.697	68.860	-0.185	0.190
-502.683	50.074	-0.037	-0.035
-501.668	-200.000	-0.044	-0.248
-500.653	-200.000	-0.068	0.357
-499.639	113.991	-0.049	0.059
-498.624	-95.935	0.271	-0.072
-497.610	236.664	0.181	0.301
-496.595	-103.572	0.256	-0.060
-495.581	-154.747	-0.154	0.010
-494.566	63.368	0.128	-0.128
-493.551	-200.000	-0.014	-0.203
-492.537	77.167	-0.031	0.033
-491.522	-49.250	0.172	-0.082
-490.508	-200.000	-0.009	-0.095
-489.493	-107.874	-0.308	-0.067
-488.478	-13.286	0.043	-0.028
-487.464	15.956	-0.126	0.099
-486.449	-200.000	-0.010	0.381
-485.435	95.035	-0.160	0.183
-484.420	-39.223	0.096	0.051
-483.405	-140.980	-0.438	-0.045
-482.391	-200.000	0.073	0.493
-481.376	190.786	0.123	0.185
-480.362	800.000	-0.089	0.255
-479.347	-200.000	0.016	0.073
-478.332	-167.837	-0.322	0.013
-477.318	-4.441	-0.236	0.163
-476.303	-115.011	-0.088	0.017
-475.289	25.893	-0.141	-0.117
-474.274	359.022	0.113	-0.226
-473.259	800.000	-0.022	-0.090
-472.245	-7.366	-0.319	0.216
-471.230	-200.000	-0.038	-0.304
-470.216	-200.000	0.025	0.139
-469.201	-92.345	-0.376	-0.106
-468.186	-200.000	0.000	0.258
-467.172	-132.395	0.173	-0.022
-466.157	-200.000	-0.035	0.296
-465.143	-37.629	-0.039	0.021
-464.128	315.717	-0.058	0.110
-463.113	-168.450	-0.220	0.008
-462.099	35.193	0.323	0.283
-461.084	-185.966	-0.270	0.004
-460.070	-82.697	0.177	-0.057
-459.055	-200.000	-0.018	-0.255
-458.040	184.477	-0.116	0.171
-457.026	-52.723	-0.339	0.157
-456.011	103.885	-0.079	0.092
-454.997	122.404	-0.126	0.157
-453.982	82.638	0.262	-0.284
-452.968	163.030	-0.126	-0.177
-451.953	-58.794	0.029	0.013
-450.938	62.669	-0.101	0.101
-449.924	-141.054	-0.324	0.033
-448.909	800.000	-0.035	0.098
-447.895	-200.000	-0.033	0.158
-446.880	-116.015	-0.105	0.020
-445.865	556.706	-0.064	-0.155
-444.851	374.138	-0.044	0.090
-443.836	490.739	-0.083	-0.191
-442.822	-200.000	-0.032	-0.212
-441.807	800.000	0.151	-0.497
-440.792	75.234	0.145	-0.153
-439.778	-186.046	-0.269	0.004
-438.763	-93.957	0.131	0.036
-437.749	-30.512	-0.184	-0.104
-436.734	-110.891	0.099	0.020
-435.719	800.000	-0.066	0.193
-434.705	-200.000	-0.008	0.334
-433.690	-200.000	-0.020	0.399
-432.676	-168.054	-0.221	-0.009
-431.661	46.333	0.115	0.106
-430.646	800.000	0.058	-0.222
-429.632	21.399	-0.029	-0.024
-428.617	297.692	-0.104	-0.190
-427.603	-69.086	-0.218	0.084
-426.588	-200.000	-0.001	-0.122
-425.573	191.144	-0.250	0.375
-424.559	185.405	0.029	-0.043
-423.544	-108.354	0.177	0.038
-422.530	-50.682	0.250	-0.117
-421.515	-200.000	-0.037	-0.323
-420.500	676.497	0.027	0.070
-419.486	-89.282	0.391	-0.115
-418.471	-144.878	0.169	-0.015
-417.457	20.748	0.201	-0.162
-416.442	-147.225	-0.098	-0.008
-415.428	-75.856	-0.117	-0.041
-414.413	244.924	-0.038	-0.063
-413.398	-25.833	0.335	0.197
-412.384	-114.993	-0.170	-0.032
-411.369	60.679	-0.064	-0.063
-410.355	617.046	-0.083	-0.207
-409.340	165.835	-0.145	-0.204
-408.325	145.319	0.035	-0.047
-407.311	-165.306	-0.437	-0.019
-406.296	-200.000	-0.003	-0.061
-405.282	102.237	0.138	-0.161
-404.267	24.382	0.077	-0.063
-403.252	-200.000	0.015	-0.078
-402.238	-200.000	0.054	0.248
-401.223	-57.045	-0.168	0.074
-400.209	-200.000	-0.089	-0.426
-399.194	-76.704	0.210	0.073
-398.179	800.000	-0.050	-0.186
-397.165	-129.673	0.279	0.038
-396.150	58.126	0.200	0.196
-395.136	516.139	-0.118	-0.274
-394.121	-200.000	0.052	-0.281
-393.106	563.577	-0.063	-0.151
-392.092	-150.201	-0.242	0.019
-391.077	97.103	0.112	0.128
-390.063	800.000	0.041	-0.161
-389.048	95.646	0.120	-0.137
-388.033	397.207	0.037	-0.077
-387.019	96.794	-0.359	0.410
-386.004	11.053	-0.334	-0.255
-384.990	-94.624	-0.125	0.034
-383.975	69.099	0.139	0.142
-382.960	-53.748	-0.053	0.024
-381.946	-125.978	0.261	0.039
-380.931	-156.020	0.267	0.017
-379.917	385.448	0.081	0.166
-378.902	221.313	-0.124	0.199
-377.888	-200.000	-0.011	0.184
-376.873	-82.359	-0.135	0.044
-375.858	43.485	-0.234	0.214
-374.844	324.361	-0.078	0.148
-373.829	-200.000	-0.044	0.340
-372.815	104.284	-0.078	-0.091
-371.800	527.671	-0.162	-0.381
-370.785	38.559	-0.082	-0.073
-369.771	-13.358	0.239	-0.155
-368.756	23.155	0.140	-0.114
-367.742	800.000	-0.047	0.192
-366.727	123.116	0.085	0.107
-365.712	800.000	-0.024	-0.096
-364.698	-153.913	-0.263	0.018
-363.683	97.597	-0.052	0.059
-362.669	68.169	-0.115	0.118
-361.654	800.000	0.068	0.234
-360.639	535.133	-0.098	0.232
-359.625	800.000	-0.064	-0.187
-358.610	-123.589	0.076	-0.012
-357.596	-200.000	0.035	0.393
-356.581	-82.946	-0.179	-0.058
-355.566	571.128	-0.099	-0.240
-354.552	-134.335	0.283	-0.035
-353.537	107.696	0.342	0.406
-352.523	-12.282	-0.290	-0.189
-351.508	350.089	0.204	0.402
-350.493	496.068	-0.116	-0.265
-349.479	402.156	0.012	0.025
-348.464	-187.513	-0.183	-0.002
-347.450	800.000	0.070	0.248
-346.435	-200.000	-0.029	0.259
-345.420	-2.209	-0.260	-0.181
-344.406	-200.000	0.019	-0.086
-343.391	-123.276	0.247	0.039
-342.377	-187.639	-0.424	0.006
-341.362	-128.385	-0.297	0.042
-340.348	-126.286	0.113	-0.017
-339.333	800.000	0.086	-0.260
-338.318	647.152	0.043	0.109
-337.304	-200.000	-0.002	0.126
-336.289	-200.000	-0.036	-0.192
-335.275	-200.000	-0.042	-0.203
-334.260	124.202	-0.064	-0.080
-333.245	-126.509	0.150	-0.022
-332.231	-200.000	0.010	0.090
-331.216	217.505	-0.136	-0.215
-330.202	163.290	0.246	-0.345
-329.187	514.785	0.106	-0.246
-328.172	-123.994	0.125	0.020
-327.158	-200.000	-0.008	0.097
-326.143	-200.000	-0.009	-0.143
-325.129	607.150	0.079	-0.196
-324.114	43.364	0.105	-0.095
-323.099	-200.000	-0.028	0.202
-322.085	800.000	-0.077	0.219
-321.070	338.714	0.074	0.142
-320.056	436.328	0.084	0.183
-319.041	187.611	0.034	0.051
-318.026	-16.926	-0.224	-0.141
-317.012	800.000	-0.126	-0.467
-315.997	-143.424	0.149	0.014
-314.983	-92.790	-0.363	0.101
-313.968	196.401	-0.104	0.158
-312.953	-200.000	0.021	0.417
-311.939	13.865	0.100	-0.077
-310.924	9.421	0.313	0.235
-309.910	-163.448	-0.014	-0.001
-308.895	-200.000	-0.018	0.119
-307.880	-89.460	-0.370	-0.108
-306.866	800.000	0.030	-0.094
-305.851	-161.361	-0.290	0.015
-304.837	91.743	-0.170	0.189
-303.822	-37.469	-0.296	0.157
-302.807	800.000	-0.060	0.255
-301.793	800.000	-0.085	0.305
-300.778	201.400	0.183	0.281
-299.764	800.000	0.007	0.026
-298.749	371.414	0.088	0.177
-297.735	-200.000	-0.000	0.210
-296.720	272.913	0.064	-0.113
-295.705	210.296	-0.071	-0.111
-294.691	555.257	0.043	0.104
-293.676	800.000	-0.051	-0.159
-292.662	226.859	0.080	0.128
-291.647	29.240	-0.112	0.095
-290.632	687.204	0.078	0.201
-289.618	96.689	-0.219	-0.249
-288.603	800.000	0.038	0.116
-287.589	-152.890	0.516	-0.036
-286.574	-58.756	-0.375	0.161
-285.559	-200.000	0.014	0.124
-284.545	-105.569	0.057	0.013
-283.530	-135.468	-0.068	0.008
-282.516	-200.000	0.000	0.356
-281.501	35.746	0.126	0.110
-280.486	-58.149	0.077	-0.033
-279.472	-32.039	-0.073	-0.041
-278.457	142.595	0.034	0.045
-277.443	-15.192	-0.293	-0.186
-276.428	-72.060	-0.173	-0.064
-275.413	358.450	0.054	-0.107
-274.399	-122.828	-0.141	-0.023
-273.384	27.144	0.245	-0.204
-272.370	89.964	0.239	-0.265
-271.355	121.952	-0.278	-0.344
-270.340	-200.000	0.025	0.180
-269.326	-121.650	0.133	0.022
-268.311	-200.000	-0.015	-0.274
-267.297	-72.687	0.062	0.023
-266.282	253.436	-0.114	0.192
-265.267	-200.000	0.015	-0.242
-264.253	125.259	0.153	-0.191
-263.238	19.603	-0.124	-0.099
-262.224	-107.504	0.236	-0.051
-261.209	-0.296	-0.217	-0.153
-260.195	-200.000	-0.001	-0.486
-259.180	-112.916	0.349	0.069
-258.165	444.522	0.070	0.152
-257.151	505.191	0.139	0.318
-256.136	-138.144	-0.035	-0.004
-255.122	-23.592	0.292	-0.174
-254.107	65.554	0.148	0.148
-253.092	129.979	-0.153	0.194
-252.078	43.468	-0.080	-0.072
-251.063	-141.126	-0.055	-0.006
-250.049	-21.952	0.128	-0.077
-249.034	67.517	0.210	0.213
-248.019	800.000	-0.096	-0.350
-247.005	-33.760	0.275	-0.150
-245.990	162.983	0.008	-0.011
-244.976	800.000	0.053	-0.149
-243.961	549.418	-0.165	-0.393
-242.946	-26.457	0.295	0.171
-241.932	-185.661	-0.148	0.002
-240.917	27.954	-0.143	-0.119
-239.903	-42.927	-0.411	-0.207
-238.888	-200.000	-0.067	-0.486
-237.873	-107.840	0.149	0.032
-236.859	-200.000	-0.007	0.115
-235.844	-131.015	-0.228	-0.030
-234.830	16.391	0.255	0.199
-233.815	77.335	-0.087	0.091
-232.800	224.914	0.009	-0.015
-231.786	-13.757	-0.302	0.193
-230.771	410.425	-0.104	-0.220
-229.757	-18.994	0.045	-0.028
-228.742	-81.359	0.130	-0.042
-227.727	-157.028	-0.267	0.016
-226.713	-200.000	0.112	-0.573
-225.698	-151.307	-0.012	0.001
-224.684	703.734	-0.077	-0.201
-223.669	-200.000	-0.025	-0.254
-222.655	-129.213	-0.123	-0.017
-221.640	-200.000	0.007	-0.149
-220.625	800.000	0.075	0.270
-219.611	800.000	-0.024	0.071
-218.596	-43.814	0.201	0.100
-217.582	-11.623	0.065	-0.042
-216.567	-115.565	-0.423	0.079
-215.552	800.000	0.069	0.203
-214.538	9.918	-0.062	0.047
-213.523	-185.566	0.140	-0.002
-212.509	307.032	0.139	0.256
-211.494	97.416	0.223	-0.254
-210.479	-30.048	-0.079	-0.045
-209.465	124.841	0.277	-0.346
-208.450	356.958	0.029	0.057
-207.436	-15.116	0.395	0.251
-206.421	316.622	0.045	-0.084
-205.406	341.325	0.107	-0.207
-204.392	-1.487	0.399	0.278
-203.377	-66.148	0.412	0.162
-202.363	24.484	-0.365	-0.299
-201.348	-38.023	-0.169	0.089
-200.333	-200.000	-0.012	0.088
-199.319	-17.278	-0.075	-0.047
-198.304	196.111	0.209	0.315
-197.290	148.588	-0.044	0.059
-196.275	-138.711	0.104	0.011
-195.260	-44.857	0.044	0.021
-194.246	-15.963	-0.183	-0.116
-193.231	72.254	-0.094	0.097
-192.217	-200.000	0.031	0.287
-191.202	-200.000	0.007	-0.099
-190.187	31.984	0.314	-0.267
-189.173	160.887	-0.130	-0.180
-188.158	60.859	-0.195	-0.192
-187.144	-200.000	-0.029	-0.267
-186.129	-19.072	0.205	0.126
-185.114	181.525	-0.118	0.172
-184.100	249.997	0.072	0.121
-183.085	-98.846	0.047	-0.012
-182.071	-200.000	-0.140	-0.616
-181.056	800.000	0.096	-0.296
-180.042	-200.000	0.033	0.256
-179.027	-200.000	-0.028	-0.138
-178.012	1.156	-0.260	0.184
-176.998	496.957	0.077	0.175
-175.983	-46.919	-0.150	0.073
-174.969	-114.985	0.246	0.046
-173.954	-170.795	0.299	-0.010
-172.939	800.000	0.051	-0.187
-171.925	653.326	-0.134	-0.339
-170.910	41.566	0.140	0.125
-169.896	-99.014	0.042	-0.010
-168.881	-70.103	0.067	0.025
-167.866	800.000	0.141	-0.410
-166.852	800.000	-0.020	-0.062
-165.837	14.967	0.183	-0.141
-164.823	134.352	-0.132	-0.169
-163.808	640.037	0.053	0.134
-162.793	-200.000	-0.021	0.119
-161.779	544.649	-0.012	0.029
-160.764	-118.977	-0.238	-0.041
-159.750	-200.000	-0.091	-0.464
-158.735	567.142	-0.120	0.287
-157.720	-200.000	0.011	-0.430
-156.706	13.378	0.107	-0.082
-155.691	363.611	0.014	-0.028
-154.677	-109.008	-0.300	-0.063
-153.662	171.353	0.175	0.248
-152.647	-105.523	0.113	-0.025
-151.633	145.201	-0.208	0.274
-150.618	82.152	-0.168	0.180
-149.604	216.224	-0.172	0.270
-148.589	-100.429	0.308	0.075
-147.574	98.647	-0.047	0.054
-146.560	13.850	0.254	-0.195
-145.545	18.406	0.115	0.091
-144.531	800.000	-0.095	-0.387
-143.516	800.000	-0.014	-0.049
-142.502	659.441	-0.108	-0.275
-141.487	-79.490	0.304	-0.102
-140.472	-98.709	-0.370	-0.093
-139.458	-119.674	-0.311	0.053
-138.443	-200.000	-0.011	-0.290
-137.429	627.097	-0.037	0.092
-136.414	369.279	0.039	0.078
-135.399	43.324	0.141	-0.127
-134.385	800.000	-0.106	-0.311
-133.370	-94.853	-0.075	0.020
-132.356	-23.861	0.087	0.052
-131.341	-85.908	-0.165	-0.051
-130.326	800.000	0.007	0.026
-129.312	-103.814	0.175	0.040
-128.297	-200.000	-0.012	0.221
-127.283	-200.000	0.023	0.188
-126.268	144.123	-0.118	-0.155
-125.253	59.343	0.193	0.188
-124.239	153.042	-0.028	-0.037
-123.224	-61.699	-0.316	0.131
-122.210	-21.722	0.238	0.143
-121.195	389.359	-0.098	0.201
