DTS Sentinel unit serial number:	SN413079Multiplexer serial number:	ORYXHardware model number:	OX4-SRSoftware version number:	ORYX F/W v4.00 Oryx Data Collector v3.7.2.0data status	okinstallation	princeton_trtdifferential loss correction	single-endedforward channel	channel 1reverse channel	N/Adate	2019/09/10time	22:00:11forward acquisition time	60.00reverse acquisition time	0.00gamma	496.2192k internal	0.2331k external	0.2331temperature offset calibration	0.9941default loss term (dB/km)	0.3790temperature slope calibration	1.0000multiplexer offset coefficient	1.0000multiplexer slope coefficient	1.0000fibre end	0.00T internal ref (°C)	30.69T ext. ref 1 (°C)	-0.31T ext. ref 2 (°C)	23.95length (m)	temperature (°C)	Stokes	anti-Stokes-747.200	21.338	0.227	0.186
-746.185	-167.472	-0.203	-0.008
-745.171	409.577	-0.047	0.099
-744.156	68.620	-0.350	0.362
-743.142	-80.664	-0.234	0.078
-742.127	412.669	-0.227	0.486
-741.112	126.125	-0.104	-0.133
-740.098	11.818	0.124	0.096
-739.083	-200.000	0.007	-0.108
-738.069	-136.258	0.152	-0.018
-737.054	-200.000	0.014	-0.263
-736.039	-34.511	-0.354	0.195
-735.025	43.366	0.371	0.341
-734.010	199.829	0.091	-0.140
-732.996	604.180	0.079	0.198
-731.981	-110.655	-0.196	-0.041
-730.966	-120.827	0.280	-0.047
-729.952	-200.000	0.026	-0.134
-728.937	800.000	-0.037	-0.114
-727.923	-200.000	-0.096	-0.459
-726.908	-44.551	-0.363	-0.183
-725.894	800.000	-0.016	-0.058
-724.879	-135.621	-0.208	-0.025
-723.864	-200.000	-0.041	-0.244
-722.850	-29.942	-0.199	-0.114
-721.835	37.650	0.184	-0.164
-720.821	-15.008	-0.110	-0.071
-719.806	-45.686	0.220	-0.110
-718.791	167.770	0.086	-0.123
-717.777	174.962	-0.035	0.051
-716.762	-200.000	-0.003	0.341
-715.748	-109.142	-0.199	-0.043
-714.733	96.459	0.222	-0.256
-713.718	210.523	-0.072	-0.113
-712.704	187.640	-0.157	-0.235
-711.689	-61.599	-0.483	-0.204
-710.675	-126.361	-0.105	0.016
-709.660	-200.000	-0.000	0.006
-708.645	-200.000	0.009	-0.188
-707.631	-69.730	-0.182	-0.070
-706.616	-120.402	0.368	0.063
-705.602	-200.000	0.015	-0.163
-704.587	-200.000	-0.032	-0.146
-703.572	-155.217	-0.471	-0.031
-702.558	156.833	0.192	0.267
-701.543	-200.000	-0.051	0.273
-700.529	-200.000	-0.057	-0.419
-699.514	35.407	-0.238	0.210
-698.499	27.679	0.133	-0.113
-697.485	-200.000	-0.023	-0.319
-696.470	-0.205	0.226	0.161
-695.456	593.856	0.056	-0.140
-694.441	-95.485	0.007	0.002
-693.426	-200.000	0.000	0.061
-692.412	-88.057	-0.363	-0.109
-691.397	18.102	-0.216	0.173
-690.383	800.000	0.014	-0.047
-689.368	-145.311	-0.100	0.009
-688.354	800.000	0.085	-0.263
-687.339	-133.378	-0.309	-0.039
-686.324	357.043	0.089	-0.179
-685.310	156.952	0.274	-0.381
-684.295	-72.677	-0.122	-0.045
-683.281	604.656	0.103	0.259
-682.266	-101.457	-0.321	-0.078
-681.251	-34.553	-0.277	0.152
-680.237	-200.000	0.040	-0.217
-679.222	800.000	0.102	0.347
-678.208	-76.860	0.124	-0.044
-677.193	130.046	0.109	-0.141
-676.178	-196.894	0.194	-0.001
-675.164	53.174	-0.073	0.070
-674.149	12.201	-0.239	0.185
-673.135	398.352	0.102	-0.213
-672.120	728.562	-0.025	0.068
-671.105	-103.553	0.075	0.018
-670.091	109.504	-0.104	0.126
-669.076	800.000	0.006	-0.020
-668.062	-200.000	0.033	0.155
-667.047	759.484	-0.103	0.279
-666.032	-124.409	0.294	-0.046
-665.018	-72.454	0.173	0.064
-664.003	-140.490	-0.257	-0.027
-662.989	-116.916	0.355	0.065
-661.974	62.073	-0.181	-0.181
-660.959	-64.380	0.118	-0.048
-659.945	-167.318	-0.321	-0.013
-658.930	34.759	0.250	-0.220
-657.916	72.709	0.181	0.190
-656.901	-39.487	0.110	-0.058
-655.886	300.215	-0.152	-0.280
-654.872	-1.179	-0.242	0.172
-653.857	800.000	-0.033	-0.102
-652.843	130.469	0.067	-0.086
-651.828	745.242	-0.100	0.270
-650.814	221.677	-0.182	0.294
-649.799	-20.877	0.129	0.079
-648.784	-200.000	-0.021	-0.280
-647.770	-176.490	-0.312	0.008
-646.755	272.549	0.130	0.231
-645.741	-155.608	-0.107	0.007
-644.726	-200.000	-0.037	-0.270
-643.711	-13.595	0.286	0.186
-642.697	-122.124	-0.142	-0.023
-641.682	800.000	0.018	-0.052
-640.668	152.595	0.041	0.057
-639.653	123.797	-0.053	0.067
-638.638	21.401	-0.130	0.106
-637.624	-112.480	-0.172	-0.035
-636.609	200.517	-0.051	0.079
-635.595	-120.260	0.341	0.058
-634.580	-7.637	-0.156	-0.106
-633.565	-123.464	-0.203	0.032
-632.551	552.989	0.141	-0.339
-631.536	-150.105	0.495	0.039
-630.522	-130.752	0.364	0.049
-629.507	-84.478	-0.257	0.081
-628.492	315.680	0.057	-0.108
-627.478	800.000	-0.079	-0.297
-626.463	800.000	-0.025	0.109
-625.449	89.548	-0.164	-0.183
-624.434	305.655	-0.083	0.155
-623.419	35.267	0.184	0.162
-622.405	-41.358	-0.205	-0.106
-621.390	36.924	-0.068	-0.060
-620.376	11.856	-0.256	-0.197
-619.361	71.695	0.106	0.111
-618.346	-108.155	0.285	0.062
-617.332	800.000	-0.031	-0.095
-616.317	6.613	-0.100	0.074
-615.303	422.374	-0.020	0.044
-614.288	-4.475	-0.493	0.341
-613.273	-13.233	-0.182	-0.119
-612.259	-81.923	-0.105	0.034
-611.244	474.979	0.079	0.178
-610.230	-196.190	0.232	0.002
-609.215	-28.807	-0.262	0.151
-608.201	-32.983	-0.130	0.072
-607.186	800.000	0.126	-0.438
-606.171	18.716	-0.164	-0.132
-605.157	800.000	0.042	0.119
-604.142	16.976	0.069	0.055
-603.128	10.756	0.139	-0.106
-602.113	-200.000	0.002	0.031
-601.098	34.025	-0.024	-0.021
-600.084	-102.295	-0.059	-0.014
-599.069	-200.000	-0.038	0.433
-598.055	-200.000	0.014	0.248
-597.040	-109.494	-0.096	0.020
-596.025	800.000	0.082	0.344
-595.011	585.070	-0.031	0.076
-593.996	-124.835	0.319	0.049
-592.982	131.814	0.062	-0.080
-591.967	-59.987	-0.186	0.080
-590.952	-33.552	0.088	0.049
-589.938	-42.623	-0.221	0.112
-588.923	-33.882	-0.377	-0.208
-587.909	29.036	0.086	0.073
-586.894	-74.425	-0.277	0.100
-585.879	-200.000	0.005	0.043
-584.865	73.588	0.187	0.196
-583.850	143.538	-0.100	-0.133
-582.836	16.344	-0.140	0.110
-581.821	338.616	-0.118	-0.229
-580.806	-200.000	-0.021	-0.175
-579.792	324.674	0.092	-0.175
-578.777	247.232	-0.080	0.135
-577.763	-200.000	0.050	0.487
-576.748	-18.211	0.171	0.107
-575.733	-63.673	0.407	0.167
-574.719	477.598	0.141	0.319
-573.704	-178.965	-0.111	0.003
-572.690	-17.116	-0.179	0.113
-571.675	-22.102	-0.089	0.054
-570.661	-102.645	-0.134	0.032
-569.646	800.000	0.048	0.139
-568.631	-117.002	0.432	0.079
-567.617	-78.742	-0.218	-0.074
-566.602	-70.632	-0.076	-0.029
-565.588	383.224	0.107	-0.221
-564.573	-200.000	0.013	-0.206
-563.558	471.289	0.046	0.104
-562.544	-47.115	0.055	0.027
-561.529	-165.958	-0.257	-0.011
-560.515	108.735	0.331	0.396
-559.500	185.940	-0.150	0.223
-558.485	-200.000	-0.005	-0.029
-557.471	-200.000	0.025	0.237
-556.456	-200.000	0.014	-0.169
-555.442	-13.464	-0.113	0.073
-554.427	-134.006	-0.170	0.021
-553.412	55.462	0.163	0.158
-552.398	77.779	0.049	0.052
-551.383	-68.217	-0.209	0.081
-550.369	-166.056	-0.225	0.010
-549.354	-200.000	0.003	-0.231
-548.339	-11.017	0.203	-0.134
-547.325	195.949	-0.138	-0.210
-546.310	-149.086	0.271	-0.022
-545.296	-104.302	0.120	0.028
-544.281	137.489	-0.135	0.176
-543.266	-134.896	-0.139	-0.017
-542.252	-83.743	0.302	0.096
-541.237	42.783	0.003	-0.003
-540.223	800.000	-0.024	-0.082
-539.208	-62.977	-0.340	0.140
-538.193	40.471	-0.076	0.068
-537.179	-120.161	-0.211	-0.036
-536.164	32.608	-0.296	0.255
-535.150	800.000	0.151	0.472
-534.135	-200.000	0.000	-0.006
-533.121	800.000	0.060	0.191
-532.106	27.734	0.318	0.268
-531.091	-68.525	-0.178	-0.069
-530.077	-200.000	0.015	-0.303
-529.062	800.000	-0.002	-0.009
-528.048	-200.000	-0.150	0.000
-527.033	9.232	-0.265	-0.200
-526.018	64.620	0.380	0.382
-525.004	-112.909	0.098	0.019
-523.989	379.667	-0.165	-0.337
-522.975	376.633	0.039	-0.080
-521.960	107.607	0.103	-0.123
-520.945	71.146	-0.124	0.129
-519.931	421.745	-0.059	-0.126
-518.916	291.135	0.085	-0.154
-517.902	293.210	0.084	0.153
-516.887	303.932	0.074	-0.138
-515.872	-152.452	0.055	-0.004
-514.858	-31.688	0.189	-0.106
-513.843	86.825	0.112	-0.123
-512.829	-82.960	-0.316	0.102
-511.814	-6.678	0.386	-0.262
-510.799	-200.000	-0.069	0.358
-509.785	-40.697	0.163	-0.084
-508.770	289.814	0.067	-0.120
-507.756	-200.000	0.002	-0.117
-506.741	343.397	0.146	-0.285
-505.726	327.454	-0.149	0.284
-504.712	-200.000	-0.031	-0.494
-503.697	368.932	0.047	-0.094
-502.683	-200.000	-0.017	-0.222
-501.668	-200.000	0.048	0.279
-500.653	39.114	0.095	-0.084
-499.639	800.000	-0.038	0.146
-498.624	-200.000	0.011	0.089
-497.610	800.000	0.056	-0.217
-496.595	581.466	0.133	-0.326
-495.581	800.000	-0.065	-0.245
-494.566	-45.460	0.148	-0.073
-493.551	-200.000	-0.056	0.343
-492.537	-123.740	0.167	-0.026
-491.522	109.816	-0.143	-0.171
-490.508	138.571	0.038	-0.050
-489.493	-176.104	0.387	0.010
-488.478	116.670	-0.013	-0.016
-487.464	237.244	-0.119	0.197
-486.449	-83.341	0.155	-0.050
-485.435	249.475	-0.040	0.068
-484.420	800.000	0.013	0.045
-483.405	246.188	-0.178	-0.299
-482.391	-200.000	-0.022	-0.258
-481.376	-200.000	-0.021	-0.229
-480.362	-26.008	-0.220	0.129
-479.347	30.511	0.143	-0.121
-478.332	-80.357	0.136	0.045
-477.318	-72.537	-0.234	0.086
-476.303	-78.184	0.408	-0.140
-475.289	474.099	-0.074	0.166
-474.274	800.000	-0.081	-0.241
-473.259	53.986	-0.148	0.142
-472.245	258.309	0.243	-0.417
-471.230	627.958	0.069	-0.173
-470.216	800.000	-0.097	-0.276
-469.201	385.720	0.151	-0.309
-468.186	1.610	-0.133	-0.095
-467.172	167.887	-0.099	-0.140
-466.157	-23.287	0.167	-0.100
-465.143	-95.473	-0.018	-0.005
-464.128	106.244	0.090	-0.106
-463.113	0.572	-0.155	-0.111
-462.099	-200.000	0.014	0.067
-461.084	-200.000	0.005	-0.082
-460.070	-200.000	-0.045	-0.209
-459.055	800.000	0.002	0.007
-458.040	-103.987	0.464	-0.108
-457.026	-200.000	-0.086	-0.509
-456.011	-120.366	-0.578	0.098
-454.997	-118.918	0.337	0.059
-453.982	536.615	0.142	0.336
-452.968	-136.843	0.133	0.015
-451.953	-200.000	0.022	-0.333
-450.938	-43.308	-0.159	-0.080
-449.924	111.125	0.285	-0.342
-448.909	357.474	0.153	-0.304
-447.895	368.219	0.012	-0.024
-446.880	-200.000	-0.072	-0.371
-445.865	-53.924	-0.243	-0.110
-444.851	-78.392	-0.397	0.135
-443.836	-51.124	0.100	0.047
-442.822	-82.108	-0.363	-0.118
-441.807	-149.761	-0.224	-0.018
-440.792	-77.731	-0.157	-0.054
-439.778	222.618	-0.192	0.308
-438.763	9.685	-0.070	-0.053
-437.749	-22.049	0.170	0.103
-436.734	-130.133	-0.350	-0.047
-435.719	25.113	0.045	0.037
-434.705	-127.338	0.281	-0.041
-433.690	179.063	-0.094	0.137
-432.676	-130.870	0.198	-0.026
-431.661	46.601	0.154	-0.142
-430.646	-184.051	0.148	-0.002
-429.632	-39.200	0.272	-0.142
-428.617	296.344	-0.065	-0.118
-427.603	324.907	0.146	-0.277
-426.588	-81.238	0.443	0.146
-425.573	-125.214	0.482	-0.073
-424.559	34.916	-0.141	-0.123
-423.544	362.311	-0.200	0.399
-422.530	800.000	-0.134	0.384
-421.515	353.761	-0.078	0.154
-420.500	800.000	0.057	-0.243
-419.486	55.828	0.237	-0.228
-418.471	167.276	-0.152	0.215
-417.457	-73.222	0.096	0.035
-416.442	373.218	0.110	-0.223
-415.428	208.218	-0.092	-0.142
-414.413	159.792	0.258	-0.358
-413.398	-94.071	-0.164	0.045
-412.384	800.000	0.089	-0.311
-411.369	601.499	0.079	-0.195
-410.355	-163.020	-0.338	-0.016
-409.340	-200.000	-0.042	0.200
-408.325	-200.000	-0.037	0.186
-407.311	-200.000	0.010	0.065
-406.296	800.000	0.029	-0.123
-405.282	800.000	0.057	0.205
-404.267	-43.091	0.336	0.169
-403.252	-42.760	-0.397	0.201
-402.238	-200.000	-0.035	-0.301
-401.223	-200.000	-0.031	-0.142
-400.209	17.186	-0.336	0.265
-399.194	72.578	-0.153	0.159
-398.179	27.222	0.271	-0.226
-397.165	54.095	0.155	-0.148
-396.150	-18.202	-0.240	-0.149
-395.136	-15.743	0.095	0.060
-394.121	800.000	0.103	-0.290
-393.106	61.439	0.096	0.095
-392.092	800.000	0.094	0.319
-391.077	181.777	0.105	0.154
-390.063	-27.659	-0.316	0.182
-389.048	-46.841	-0.195	0.095
-388.033	-140.885	-0.188	-0.019
-387.019	800.000	-0.013	0.038
-386.004	-71.940	-0.157	0.058
-384.990	275.997	-0.076	-0.135
-383.975	-89.967	-0.252	-0.073
-382.960	417.525	-0.141	-0.300
-381.946	-65.403	0.281	-0.112
-380.931	669.159	0.074	-0.189
-379.917	414.408	-0.061	-0.130
-378.902	800.000	0.049	0.167
-377.888	800.000	0.049	0.197
-376.873	-200.000	-0.011	-0.244
-375.858	24.737	-0.074	-0.060
-374.844	153.619	0.219	-0.297
-373.829	50.379	-0.115	-0.108
-372.815	28.432	0.088	-0.074
-371.800	-200.000	-0.056	0.265
-370.785	800.000	0.025	0.072
-369.771	-59.784	-0.231	0.098
-368.756	-8.566	0.174	0.116
-367.742	-192.980	-0.393	-0.004
-366.727	226.999	-0.134	-0.216
-365.712	-71.266	0.156	0.058
-364.698	-73.894	0.474	-0.171
-363.683	176.369	0.056	0.080
-362.669	16.566	0.203	0.159
-361.654	-76.656	0.275	0.096
-360.639	-181.378	0.365	0.007
-359.625	361.347	0.116	0.230
-358.610	418.226	-0.126	0.266
-357.596	800.000	-0.038	-0.141
-356.581	-87.065	0.047	-0.014
-355.566	800.000	-0.033	0.117
-354.552	800.000	-0.076	0.279
-353.537	147.932	-0.178	0.238
-352.523	-200.000	0.025	0.114
-351.508	-185.024	0.635	-0.010
-350.493	-103.657	-0.352	-0.082
-349.479	264.227	-0.046	0.079
-348.464	-179.671	-0.270	-0.006
-347.450	-88.670	-0.161	-0.047
-346.435	-183.057	0.159	0.003
-345.420	800.000	-0.051	-0.211
-344.406	800.000	-0.036	0.111
-343.391	-200.000	-0.030	0.353
-342.377	108.471	0.305	0.361
-341.362	119.877	0.094	0.115
-340.348	-70.797	0.068	-0.025
-339.333	25.450	0.108	0.089
-338.318	-54.921	0.237	0.106
-337.304	-200.000	-0.051	-0.357
-336.289	800.000	-0.049	-0.159
-335.275	-114.157	0.202	0.039
-334.260	214.923	0.123	-0.194
-333.245	-138.705	0.534	0.058
-332.231	186.371	0.101	-0.148
-331.216	-17.368	-0.069	-0.043
-330.202	-117.928	0.272	-0.048
-329.187	-200.000	-0.065	0.000
-328.172	-200.000	0.025	-0.230
-327.158	-200.000	-0.017	-0.126
-326.143	188.452	-0.126	-0.187
-325.129	800.000	0.065	-0.234
-324.114	371.684	0.029	-0.057
-323.099	77.339	-0.122	-0.128
-322.085	-200.000	0.030	-0.210
-321.070	-101.747	-0.320	0.077
-320.056	-200.000	-0.041	-0.384
-319.041	146.204	-0.196	-0.260
-318.026	364.013	-0.010	-0.021
-317.012	53.203	-0.288	0.273
-315.997	-59.357	-0.474	-0.202
-314.983	800.000	0.010	-0.038
-313.968	23.311	0.187	0.152
-312.953	-59.238	-0.072	-0.031
-311.939	-125.896	0.229	0.034
-310.924	-160.223	-0.179	0.010
-309.910	372.365	0.185	-0.372
-308.895	783.763	-0.073	0.197
-307.880	-135.264	-0.102	-0.012
-306.866	-3.802	-0.248	-0.170
-305.851	-84.148	-0.121	-0.038
-304.837	-74.254	-0.235	-0.084
-303.822	-40.309	-0.340	0.175
-302.807	-92.900	0.411	0.114
-301.793	-19.492	0.177	0.109
-300.778	12.246	-0.234	-0.178
-299.764	-135.084	0.175	-0.021
-298.749	16.364	0.115	0.090
-297.735	690.311	0.018	0.045
-296.720	-88.855	-0.126	0.037
-295.705	98.545	0.090	-0.102
-294.691	-81.417	-0.109	0.035
-293.676	-200.000	0.037	0.227
-292.662	156.807	0.107	0.147
-291.647	793.673	-0.086	-0.234
-290.632	-131.543	0.260	0.034
-289.618	-108.752	-0.057	0.012
-288.603	-52.951	0.423	0.193
-287.589	-6.905	-0.166	-0.111
-286.574	800.000	0.163	0.457
-285.559	672.752	-0.104	0.267
-284.545	75.002	0.177	-0.184
-283.530	-67.470	-0.239	-0.093
-282.516	-15.315	0.096	0.061
-281.501	370.159	0.087	0.174
-280.486	-16.757	0.262	-0.164
-279.472	145.670	-0.106	0.140
-278.457	122.426	0.083	0.102
-277.443	-152.830	-0.167	0.012
-276.428	-30.170	0.213	0.120
-275.413	-61.579	-0.460	-0.191
-274.399	51.307	-0.136	0.127
-273.384	626.286	-0.020	0.051
-272.370	-200.000	0.025	0.116
-271.355	-17.830	0.241	-0.149
-270.340	52.095	-0.138	0.130
-269.326	-106.959	-0.228	-0.050
-268.311	-200.000	-0.002	-0.162
-267.297	800.000	-0.080	-0.242
-266.282	144.877	0.267	-0.353
-265.267	-108.921	-0.151	-0.032
-264.253	-200.000	-0.088	0.581
-263.238	-137.608	0.292	0.032
-262.224	395.821	-0.076	0.157
-261.209	-200.000	0.002	0.532
-260.195	-54.495	-0.394	0.176
-259.180	-89.663	0.130	-0.038
-258.165	96.314	0.227	-0.257
-257.151	336.525	-0.088	0.169
-256.136	-96.066	-0.114	0.030
-255.122	351.001	-0.025	-0.048
-254.107	55.737	-0.025	-0.024
-253.092	93.004	-0.113	0.126
-252.078	-34.126	-0.223	-0.121
-251.063	248.810	0.222	0.372
-250.049	-162.420	-0.183	0.009
-249.034	-200.000	-0.035	-0.227
-248.019	499.389	0.150	-0.341
-247.005	-76.288	-0.152	-0.053
-245.990	360.934	-0.050	0.098
-244.976	118.986	-0.088	-0.108
-243.961	-200.000	-0.069	0.306
-242.946	-200.000	0.003	-0.080
-241.932	-200.000	-0.032	0.264
-240.917	68.980	0.167	0.169
-239.903	194.296	-0.108	0.161
-238.888	-35.149	-0.239	0.128
-237.873	800.000	-0.108	-0.322
-236.859	68.690	-0.282	0.286
-235.844	-90.990	0.323	0.091
-234.830	1.283	0.346	0.245
-233.815	170.946	0.092	-0.130
-232.800	128.880	-0.144	-0.182
-231.786	84.841	0.280	-0.302
-230.771	20.427	0.115	-0.092
-229.757	461.378	-0.112	0.246
-228.742	800.000	-0.041	-0.132
-227.727	119.429	0.133	-0.162
-226.713	800.000	-0.036	0.132
-225.698	-80.492	0.178	0.058
-224.684	-125.653	0.026	0.004
-223.669	39.822	0.186	0.165
-222.655	456.038	-0.155	0.338
-221.640	325.668	0.136	-0.256
-220.625	-200.000	-0.015	0.076
-219.611	800.000	-0.028	0.106
-218.596	-26.567	-0.115	-0.067
-217.582	-2.156	-0.049	0.034
-216.567	181.886	-0.063	0.092
-215.552	-121.854	-0.173	-0.028
-214.538	800.000	0.062	0.252
-213.523	13.564	-0.172	0.131
-212.509	800.000	0.049	0.188
-211.494	-28.784	0.243	-0.138
-210.479	39.081	-0.102	-0.090
-209.465	591.894	0.113	0.274
-208.450	-200.000	0.038	0.301
-207.436	-75.128	-0.204	-0.072
-206.421	-84.731	-0.221	-0.069
-205.406	337.416	0.044	0.084
-204.392	-66.835	-0.145	-0.057
-203.377	256.569	0.104	0.176
-202.363	800.000	0.050	0.202
-201.348	112.987	-0.067	0.080
-200.333	800.000	0.060	0.236
-199.319	57.557	0.055	0.053
-198.304	-56.336	0.300	-0.132
-197.290	24.826	0.188	0.154
-196.275	152.868	-0.190	0.256
-195.260	112.265	-0.039	0.047
-194.246	-106.870	0.276	-0.060
-193.231	445.933	0.076	0.164
-192.217	-39.194	0.100	0.052
-191.202	98.493	0.014	0.015
-190.187	-200.000	0.069	-0.353
-189.173	411.279	-0.057	0.119
-188.158	131.694	0.193	0.245
-187.144	-10.699	-0.053	-0.034
-186.129	-200.000	0.028	0.498
-185.114	-114.682	0.171	0.032
-184.100	-200.000	0.032	-0.311
-183.085	-200.000	0.010	0.065
-182.071	129.928	0.223	-0.281
-181.056	72.001	-0.239	-0.245
-180.042	-49.071	0.091	0.043
-179.027	-76.673	-0.056	0.019
-178.012	-131.364	0.245	0.032
-176.998	278.232	-0.338	-0.593
-175.983	-85.557	-0.079	0.024
-174.969	-78.739	0.199	-0.067
-173.954	-51.097	-0.138	0.064
-172.939	-200.000	0.027	-0.131
-171.925	57.726	-0.170	-0.163
-170.910	-57.544	0.038	0.017
-169.896	-67.091	0.179	0.069
-168.881	-200.000	-0.013	-0.133
-167.866	-200.000	0.015	0.181
-166.852	-42.657	-0.281	-0.141
-165.837	-200.000	0.020	-0.166
-164.823	800.000	0.079	0.265
-163.808	-54.720	-0.107	0.048
-162.793	105.721	0.049	-0.056
-161.779	800.000	-0.026	0.084
-160.764	166.115	-0.114	-0.159
-159.750	144.756	0.177	-0.233
-158.735	-87.504	-0.082	-0.024
-157.720	-155.993	-0.312	-0.019
-156.706	-165.609	-0.283	-0.012
-155.691	256.612	-0.064	0.108
-154.677	94.093	-0.020	-0.022
-153.662	-110.496	-0.396	-0.081
-152.647	-86.865	0.138	0.041
-151.633	800.000	0.089	0.307
-150.618	632.766	-0.087	-0.216
-149.604	-0.920	0.210	0.146
-148.589	-200.000	0.013	0.193
-147.574	188.918	-0.168	0.247
-146.560	-200.000	-0.009	-0.183
-145.545	39.641	-0.313	0.276
-144.531	187.687	0.102	0.150
-143.516	350.168	-0.076	0.147
-142.502	762.710	0.162	-0.432
-141.487	-108.002	-0.160	0.034
-140.472	-193.021	-0.108	0.001
-139.458	-96.885	0.266	-0.069
-138.443	-93.234	-0.091	0.025
-137.429	34.224	0.295	0.253
-136.414	-105.858	0.252	0.056
-135.399	-200.000	-0.076	0.447
-134.385	-53.814	0.201	0.090
-133.370	-27.532	0.152	0.087
-132.356	6.202	0.133	-0.097
-131.341	-32.956	0.092	0.050
-130.326	-200.000	0.027	0.208
-129.312	53.863	-0.103	-0.097
-128.297	-56.824	0.389	0.169
-127.283	-9.909	0.148	-0.097
-126.268	257.461	0.019	0.032
-125.253	-69.567	0.149	0.056
-124.239	88.839	0.076	0.083
-123.224	166.583	0.226	0.315
-122.210	-200.000	-0.021	0.261
-121.195	-200.000	-0.300	0.001
