DTS Sentinel unit serial number:	SN413079Multiplexer serial number:	ORYXHardware model number:	OX4-SRSoftware version number:	ORYX F/W v4.00 Oryx Data Collector v3.7.2.0data status	okinstallation	princeton_trtdifferential loss correction	single-endedforward channel	channel 1reverse channel	N/Adate	2019/09/11time	16:00:11forward acquisition time	60.00reverse acquisition time	0.00gamma	496.2192k internal	0.2291k external	0.2291temperature offset calibration	0.9990default loss term (dB/km)	0.3790temperature slope calibration	1.0000multiplexer offset coefficient	1.0000multiplexer slope coefficient	1.0000fibre end	0.00T internal ref (°C)	43.06T ext. ref 1 (°C)	1.01T ext. ref 2 (°C)	37.94length (m)	temperature (°C)	Stokes	anti-Stokes-747.200	-28.181	0.210	0.124
-746.185	-70.669	-0.101	0.039
-745.171	295.636	-0.128	0.239
-744.156	800.000	-0.052	0.173
-743.142	-109.439	-0.262	0.057
-742.127	159.429	-0.203	0.290
-741.112	-39.647	-0.023	-0.012
-740.098	-93.032	0.164	-0.047
-739.083	105.561	0.185	-0.224
-738.069	418.016	-0.090	0.196
-737.054	751.148	-0.053	0.146
-736.039	407.139	-0.061	0.131
-735.025	-39.364	0.226	0.121
-734.010	800.000	-0.046	-0.195
-732.996	-80.118	-0.681	-0.234
-731.981	800.000	-0.073	-0.287
-730.966	-53.576	0.124	0.058
-729.952	-23.489	-0.254	0.156
-728.937	737.176	-0.076	0.209
-727.923	-45.415	-0.168	0.085
-726.908	107.054	-0.169	0.206
-725.894	-200.000	-0.044	0.264
-724.879	19.665	-0.275	-0.227
-723.864	-74.956	-0.113	-0.042
-722.850	-164.762	-0.064	0.003
-721.835	-200.000	0.011	0.413
-720.821	-86.136	0.223	0.070
-719.806	180.487	0.137	0.206
-718.791	-73.358	-0.232	0.087
-717.777	-193.624	0.172	0.002
-716.762	-155.971	0.274	0.018
-715.748	-131.160	0.393	-0.053
-714.733	-28.560	0.155	0.091
-713.718	128.109	-0.140	-0.182
-712.704	800.000	-0.040	-0.143
-711.689	-66.368	-0.186	-0.076
-710.675	-11.245	0.309	-0.208
-709.660	-116.207	-0.081	0.015
-708.645	800.000	0.013	-0.051
-707.631	-200.000	-0.020	0.269
-706.616	-115.794	0.208	-0.040
-705.602	146.614	-0.085	0.116
-704.587	800.000	-0.102	0.377
-703.572	-91.878	0.192	0.056
-702.558	-50.974	-0.249	0.120
-701.543	-200.000	0.462	0.000
-700.529	800.000	0.030	-0.120
-699.514	-68.743	-0.159	0.063
-698.499	-200.000	0.001	0.170
-697.485	-143.653	-0.280	-0.027
-696.470	66.100	-0.184	0.191
-695.456	-184.291	-0.211	-0.004
-694.441	-200.000	-0.041	0.228
-693.426	136.425	0.182	-0.242
-692.412	800.000	0.077	-0.271
-691.397	153.077	0.058	0.081
-690.383	196.185	-0.059	-0.092
-689.368	-58.505	-0.152	-0.068
-688.354	125.277	-0.108	-0.140
-687.339	-200.000	0.021	-0.171
-686.324	-162.433	0.089	-0.004
-685.310	-13.792	0.220	-0.146
-684.295	-127.224	0.074	0.011
-683.281	-53.953	-0.104	-0.048
-682.266	-55.037	-0.343	0.158
-681.251	249.093	-0.139	0.241
-680.237	-65.191	-0.240	0.099
-679.222	800.000	-0.057	-0.252
-678.208	142.915	-0.064	0.087
-677.193	-99.919	0.263	0.067
-676.178	-200.000	-0.009	-0.116
-675.164	-110.042	-0.282	-0.060
-674.149	177.921	0.119	-0.177
-673.135	314.979	0.088	-0.170
-672.120	19.376	0.128	-0.105
-671.105	-200.000	-0.025	-0.114
-670.091	-86.224	-0.284	0.089
-669.076	190.009	-0.184	-0.282
-668.062	-200.000	0.073	-0.330
-667.047	-182.418	-0.221	0.004
-666.032	315.893	-0.056	-0.107
-665.018	97.863	-0.219	-0.258
-664.003	9.042	-0.397	-0.306
-662.989	7.799	-0.287	-0.219
-661.974	-200.000	0.018	0.213
-660.959	-137.877	0.186	-0.021
-659.945	-152.893	-0.272	-0.020
-658.930	-171.150	0.112	0.004
-657.916	326.945	-0.163	0.318
-656.901	-66.434	0.182	-0.074
-655.886	800.000	0.022	-0.090
-654.872	-200.000	-0.002	-0.028
-653.857	2.326	0.142	0.105
-652.843	-17.422	-0.155	0.100
-651.828	206.502	0.190	0.302
-650.814	-137.113	-0.291	0.034
-649.799	156.701	-0.100	-0.141
-648.784	-33.061	-0.123	-0.070
-647.770	-102.994	0.250	0.060
-646.755	-200.000	-0.096	-0.461
-645.741	-18.403	0.223	-0.142
-644.726	-18.783	-0.148	0.094
-643.711	-200.000	-0.028	0.280
-642.697	-200.000	0.013	-0.187
-641.682	-113.770	0.348	-0.069
-640.668	265.410	0.063	0.113
-639.653	72.798	-0.214	0.228
-638.638	-116.356	-0.112	-0.021
-637.624	179.436	0.197	-0.293
-636.609	415.066	0.112	0.244
-635.595	-55.735	0.177	0.081
-634.580	479.557	-0.077	0.178
-633.565	-22.438	0.020	0.012
-632.551	-161.514	0.031	0.002
-631.536	386.684	-0.121	-0.255
-630.522	298.911	0.085	0.159
-629.507	104.718	-0.135	-0.163
-628.492	56.950	-0.124	-0.123
-627.478	730.054	-0.148	0.403
-626.463	800.000	0.035	0.101
-625.449	8.941	-0.218	-0.168
-624.434	-67.689	0.171	-0.068
-623.419	14.541	0.181	-0.144
-622.405	-128.459	-0.074	0.011
-621.390	-147.835	0.292	-0.025
-620.376	-23.579	0.207	0.126
-619.361	-17.949	-0.328	-0.210
-618.346	-53.846	0.072	-0.033
-617.332	672.749	-0.027	0.072
-616.317	800.000	0.043	-0.158
-615.303	293.874	0.137	-0.255
-614.288	800.000	0.148	0.442
-613.273	-82.032	0.380	-0.127
-612.259	33.321	0.051	0.045
-611.244	88.246	0.047	0.053
-610.230	653.155	0.050	0.131
-609.215	-123.281	-0.155	-0.025
-608.201	-122.275	-0.111	-0.019
-607.186	-191.939	-0.191	0.002
-606.171	800.000	0.030	0.114
-605.157	453.877	-0.212	0.477
-604.142	800.000	-0.057	-0.218
-603.128	800.000	-0.117	-0.339
-602.113	-200.000	-0.017	0.204
-601.098	-97.369	0.479	0.127
-600.084	-5.456	0.070	0.049
-599.069	-137.990	-0.298	0.034
-598.055	173.883	-0.182	0.268
-597.040	-161.475	0.390	0.020
-596.025	800.000	0.102	-0.391
-595.011	-200.000	-0.010	-0.165
-593.996	-158.020	0.293	0.018
-592.982	-41.149	-0.027	-0.014
-591.967	800.000	0.057	-0.173
-590.952	246.197	-0.223	-0.382
-589.938	-200.000	-0.007	-0.373
-588.923	129.357	-0.106	0.137
-587.909	72.717	-0.056	-0.060
-586.894	-100.647	0.400	-0.100
-585.879	190.962	-0.179	-0.275
-584.865	-200.000	0.018	-0.396
-583.850	-6.859	-0.196	0.136
-582.836	-69.853	-0.111	-0.043
-581.821	-196.299	-0.104	-0.001
-580.806	229.566	-0.173	0.288
-579.792	800.000	0.049	0.141
-578.777	-200.000	0.006	-0.055
-577.763	62.997	-0.108	-0.110
-576.748	-0.902	-0.200	-0.144
-575.733	-200.000	0.001	0.278
-574.719	314.934	0.222	0.426
-573.704	800.000	0.051	-0.149
-572.690	319.539	0.138	-0.266
-571.675	-42.269	-0.117	0.061
-570.661	77.290	0.103	-0.111
-569.646	-200.000	0.016	0.157
-568.631	140.043	-0.108	0.145
-567.617	-118.489	-0.148	0.027
-566.602	43.287	-0.132	-0.122
-565.588	-60.386	-0.110	0.048
-564.573	-88.945	-0.065	0.020
-563.558	97.772	-0.216	-0.253
-562.544	-55.212	-0.341	-0.156
-561.529	153.005	-0.122	-0.169
-560.515	-89.407	-0.381	0.114
-559.500	42.788	0.264	-0.244
-558.485	-173.283	0.080	0.002
-557.471	800.000	0.037	-0.162
-556.456	-50.072	0.200	-0.096
-555.442	-42.524	-0.247	0.128
-554.427	40.040	0.272	-0.248
-553.412	84.896	-0.214	-0.239
-552.398	-200.000	0.021	0.165
-551.383	-165.317	-0.182	-0.008
-550.369	223.672	0.083	-0.136
-549.354	-20.868	-0.263	0.164
-548.339	-94.173	-0.107	-0.030
-547.325	38.845	-0.171	-0.155
-546.310	250.768	-0.142	-0.245
-545.296	23.338	-0.193	0.161
-544.281	49.323	0.077	0.073
-543.266	-200.000	-0.025	0.218
-542.252	-52.980	0.057	0.027
-541.237	-16.235	0.308	-0.199
-540.223	800.000	-0.027	-0.083
-539.208	372.850	-0.043	0.088
-538.193	-95.092	-0.238	0.065
-537.179	-200.000	0.004	-0.115
-536.164	190.808	-0.090	-0.138
-535.150	10.548	0.433	0.335
-534.135	800.000	-0.036	0.131
-533.121	35.905	-0.074	0.066
-532.106	-200.000	0.033	0.270
-531.091	-169.423	-0.207	-0.008
-530.077	-200.000	0.024	-0.168
-529.062	-35.813	0.249	0.137
-528.048	-91.465	0.205	-0.059
-527.033	-1.475	-0.038	0.027
-526.018	-135.840	-0.281	0.034
-525.004	-48.672	-0.253	-0.123
-523.989	-24.511	0.247	-0.149
-522.975	112.312	-0.168	0.206
-521.960	54.570	0.122	-0.119
-520.945	-103.990	0.208	-0.049
-519.931	800.000	0.046	-0.131
-518.916	164.846	0.288	-0.412
-517.902	8.545	0.189	-0.145
-516.887	-200.000	-0.007	-0.091
-515.872	-138.584	-0.334	-0.037
-514.858	-52.831	0.192	0.090
-513.843	64.550	0.228	-0.233
-512.829	-200.000	-0.005	-0.215
-511.814	-179.131	0.260	0.006
-510.799	-200.000	0.013	-0.120
-509.785	62.510	-0.084	-0.086
-508.770	800.000	-0.057	0.160
-507.756	-200.000	-0.017	0.406
-506.741	-50.092	-0.128	-0.062
-505.726	153.772	-0.141	-0.197
-504.712	278.462	0.106	-0.191
-503.697	240.884	0.162	0.275
-502.683	284.329	-0.155	0.283
-501.668	8.488	0.267	0.204
-500.653	217.695	-0.185	-0.299
-499.639	800.000	-0.114	-0.461
-498.624	9.838	-0.050	0.039
-497.610	118.104	0.159	-0.198
-496.595	220.759	0.165	-0.269
-495.581	-200.000	-0.050	-0.227
-494.566	414.795	-0.068	0.147
-493.551	-200.000	0.053	-0.246
-492.537	-200.000	0.022	-0.144
-491.522	-200.000	-0.018	-0.231
-490.508	-69.532	-0.314	0.122
-489.493	800.000	0.103	0.410
-488.478	324.276	0.090	-0.174
-487.464	-136.519	-0.068	0.008
-486.449	-62.273	-0.250	0.105
-485.435	-200.000	0.058	0.294
-484.420	321.995	0.088	-0.170
-483.405	508.408	-0.063	-0.148
-482.391	-168.299	0.346	0.014
-481.376	-107.690	-0.165	0.036
-480.362	8.360	-0.168	0.128
-479.347	-105.551	0.233	-0.054
-478.332	81.742	0.314	0.344
-477.318	-56.226	0.248	-0.112
-476.303	15.019	-0.100	0.079
-475.289	310.588	-0.128	0.242
-474.274	800.000	-0.055	0.206
-473.259	210.881	-0.136	0.217
-472.245	-200.000	0.023	0.337
-471.230	182.001	-0.152	0.226
-470.216	242.755	-0.028	0.048
-469.201	-159.560	0.087	0.005
-468.186	800.000	-0.026	-0.072
-467.172	38.091	0.092	0.083
-466.157	193.333	-0.168	-0.258
-465.143	-146.791	-0.382	-0.033
-464.128	-149.769	-0.166	0.013
-463.113	-155.933	0.222	-0.014
-462.099	-200.000	0.038	0.192
-461.084	800.000	-0.092	-0.331
-460.070	226.024	0.133	0.219
-459.055	369.456	-0.122	0.249
-458.040	-89.493	0.374	-0.111
-457.026	-91.074	0.139	0.040
-456.011	-3.001	-0.314	0.222
-454.997	537.729	-0.058	0.139
-453.982	-8.052	0.198	0.135
-452.968	-70.045	-0.214	0.083
-451.953	800.000	-0.024	0.100
-450.938	-145.560	-0.184	0.017
-449.924	-200.000	-0.076	0.354
-448.909	-200.000	-0.005	0.216
-447.895	-44.101	-0.175	-0.089
-446.880	124.064	-0.132	0.168
-445.865	800.000	0.023	0.078
-444.851	33.610	-0.140	-0.123
-443.836	558.741	-0.076	-0.185
-442.822	-38.536	-0.202	-0.108
-441.807	800.000	-0.050	0.183
-440.792	-200.000	-0.027	0.151
-439.778	-200.000	0.012	0.125
-438.763	800.000	-0.034	0.139
-437.749	50.161	-0.045	-0.043
-436.734	90.433	0.134	0.152
-435.719	308.675	0.126	0.238
-434.705	-165.472	0.256	-0.011
-433.690	43.064	-0.149	-0.138
-432.676	172.259	0.060	0.088
-431.661	-90.890	0.092	0.027
-430.646	-29.146	0.245	-0.142
-429.632	-32.036	-0.217	-0.123
-428.617	37.327	0.148	-0.133
-427.603	-61.265	0.271	-0.116
-426.588	800.000	0.023	-0.087
-425.573	380.286	-0.065	-0.135
-424.559	0.851	0.155	-0.112
-423.544	304.767	0.081	-0.152
-422.530	81.131	0.171	0.187
-421.515	-149.264	-0.197	-0.016
-420.500	6.555	0.109	0.082
-419.486	164.071	-0.200	-0.285
-418.471	-72.146	-0.430	0.161
-417.457	-195.773	-0.227	0.002
-416.442	-200.000	-0.040	0.244
-415.428	-200.000	0.003	0.275
-414.413	113.085	-0.218	-0.267
-413.398	-45.260	-0.325	0.163
-412.384	-22.190	-0.192	0.118
-411.369	11.865	-0.328	-0.255
-410.355	-34.742	-0.154	-0.085
-409.340	365.153	0.097	-0.198
-408.325	600.511	-0.067	-0.169
-407.311	-54.578	-0.228	-0.104
-406.296	81.020	0.071	-0.078
-405.282	-200.000	0.053	0.429
-404.267	-136.520	0.182	0.021
-403.252	182.392	-0.062	0.093
-402.238	82.417	-0.193	0.211
-401.223	253.033	0.062	0.107
-400.209	800.000	-0.067	-0.225
-399.194	642.143	-0.010	0.026
-398.179	-133.577	-0.351	-0.044
-397.165	-173.661	0.232	0.007
-396.150	-168.279	0.294	-0.011
-395.136	720.711	0.121	-0.325
-394.121	125.109	-0.086	-0.110
-393.106	-150.336	0.120	-0.009
-392.092	800.000	0.065	-0.186
-391.077	-112.945	0.099	-0.020
-390.063	77.462	0.119	0.128
-389.048	-111.874	-0.119	0.024
-388.033	-76.438	-0.255	-0.090
-387.019	149.989	0.207	-0.284
-386.004	307.069	-0.077	-0.145
-384.990	71.254	-0.159	0.166
-383.975	748.152	-0.005	-0.013
-382.960	-200.000	-0.067	-0.320
-381.946	150.103	0.189	0.259
-380.931	56.501	-0.110	-0.108
-379.917	-74.529	0.172	-0.063
-378.902	-16.520	-0.247	0.158
-377.888	613.896	0.070	-0.178
-376.873	9.141	0.307	-0.234
-375.858	-128.603	0.185	-0.026
-374.844	-75.281	0.179	0.065
-373.829	-65.202	0.169	-0.069
-372.815	27.053	0.133	0.112
-371.800	476.493	0.113	-0.257
-370.785	273.329	0.189	-0.336
-369.771	-16.959	0.044	-0.028
-368.756	-113.156	-0.463	-0.092
-367.742	-200.000	0.018	-0.110
-366.727	18.356	-0.032	-0.026
-365.712	800.000	0.065	0.270
-364.698	107.980	-0.136	0.164
-363.683	75.225	-0.032	-0.034
-362.669	21.408	-0.148	0.121
-361.654	-57.123	0.030	0.013
-360.639	310.101	0.080	0.151
-359.625	163.658	0.162	0.230
-358.610	-25.097	0.202	0.121
-357.596	-125.278	-0.333	-0.051
-356.581	-154.773	0.178	0.012
-355.566	-33.153	-0.044	0.025
-354.552	-24.550	0.356	-0.214
-353.537	52.425	0.201	-0.193
-352.523	707.541	-0.013	0.035
-351.508	364.783	0.155	0.314
-350.493	-200.000	-0.023	-0.216
-349.479	-82.001	0.248	-0.082
-348.464	-113.716	0.212	0.042
-347.450	-200.000	0.004	-0.337
-346.435	76.928	-0.340	-0.364
-345.420	111.233	0.075	-0.091
-344.406	-200.000	-0.051	-0.326
-343.391	177.772	-0.045	0.067
-342.377	-32.953	-0.086	0.048
-341.362	37.146	-0.171	0.152
-340.348	-90.722	0.140	-0.041
-339.333	72.656	-0.243	-0.256
-338.318	178.180	0.037	-0.055
-337.304	800.000	-0.099	0.292
-336.289	166.197	-0.172	0.245
-335.275	-200.000	-0.001	0.030
-334.260	99.666	-0.145	0.169
-333.245	-61.670	0.167	-0.071
-332.231	-200.000	-0.003	-0.037
-331.216	2.533	0.030	-0.022
-330.202	524.960	-0.060	-0.143
-329.187	7.653	-0.054	0.041
-328.172	800.000	-0.086	-0.292
-327.158	-200.000	-0.077	-0.389
-326.143	129.555	0.135	0.174
-325.129	569.987	0.054	-0.133
-324.114	-14.540	0.140	-0.091
-323.099	800.000	-0.087	0.338
-322.085	128.058	0.171	0.219
-321.070	800.000	0.072	0.212
-320.056	-11.674	0.328	0.217
-319.041	-130.205	-0.096	0.013
-318.026	-83.280	0.200	-0.065
-317.012	153.590	0.278	-0.383
-315.997	-200.000	-0.034	-0.236
-314.983	-200.000	0.018	0.147
-313.968	138.160	0.188	-0.248
-312.953	-146.546	-0.378	-0.033
-311.939	-200.000	0.029	0.248
-310.924	122.842	0.107	-0.135
-309.910	47.238	0.166	0.155
-308.895	-200.000	-0.020	0.185
-307.880	-200.000	0.044	0.234
-306.866	-129.066	-0.085	0.012
-305.851	-141.279	-0.350	0.036
-304.837	382.972	0.092	-0.191
-303.822	-85.715	0.387	0.121
-302.807	-62.357	0.061	-0.025
-301.793	-41.017	-0.173	0.090
-300.778	-200.000	-0.007	0.051
-299.764	-21.509	0.206	-0.127
-298.749	800.000	-0.015	0.063
-297.735	12.383	-0.140	0.108
-296.720	-51.000	-0.140	-0.066
-295.705	-160.235	-0.316	-0.017
-294.691	-86.925	-0.308	-0.094
-293.676	67.248	-0.157	0.162
-292.662	413.437	0.056	-0.120
-291.647	87.644	0.241	0.268
-290.632	1.905	0.302	0.219
-289.618	800.000	0.049	0.142
-288.603	-200.000	-0.023	0.470
-287.589	-18.359	-0.250	-0.157
-286.574	61.396	0.075	0.075
-285.559	-200.000	-0.023	0.180
-284.545	-8.169	-0.110	-0.074
-283.530	-53.723	0.186	-0.085
-282.516	-69.735	0.062	0.024
-281.501	-28.828	0.247	-0.143
-280.486	236.785	0.153	-0.254
-279.472	-96.412	-0.129	-0.034
-278.457	800.000	0.105	0.362
-277.443	800.000	0.026	0.090
-276.428	146.301	-0.171	0.231
-275.413	7.820	-0.128	-0.096
-274.399	-200.000	-0.009	0.163
-273.384	318.678	0.163	0.311
-272.370	4.337	-0.107	-0.079
-271.355	800.000	0.062	0.221
-270.340	170.900	0.090	0.130
-269.326	-58.833	-0.144	0.063
-268.311	-200.000	-0.028	0.183
-267.297	-200.000	0.026	0.285
-266.282	48.121	-0.030	-0.028
-265.267	37.808	-0.081	0.072
-264.253	-200.000	0.068	-0.521
-263.238	15.599	0.089	-0.070
-262.224	45.281	-0.060	0.056
-261.209	-200.000	-0.077	-0.382
-260.195	-200.000	-0.011	-0.220
-259.180	459.190	0.146	-0.327
-258.165	-139.121	0.268	-0.029
-257.151	-91.844	0.308	0.088
-256.136	-200.000	0.024	-0.162
-255.122	-5.480	0.203	-0.140
-254.107	-52.335	0.154	0.072
-253.092	156.547	-0.149	0.207
-252.078	-200.000	0.016	-0.075
-251.063	800.000	-0.066	-0.225
-250.049	-200.000	-0.027	0.192
-249.034	-200.000	0.015	0.068
-248.019	203.743	-0.056	-0.087
-247.005	-96.593	-0.153	0.041
-245.990	-200.000	-0.013	0.073
-244.976	-46.514	0.154	-0.076
-243.961	-9.826	-0.188	-0.126
-242.946	-200.000	0.022	0.387
-241.932	38.287	-0.032	0.028
-240.917	167.297	0.107	0.152
-239.903	-200.000	-0.003	-0.090
-238.888	800.000	0.031	-0.134
-237.873	800.000	0.015	-0.061
-236.859	-105.618	0.073	-0.017
-235.844	425.319	-0.054	0.117
-234.830	758.328	-0.055	-0.151
-233.815	-122.879	-0.304	0.049
-232.800	8.470	0.170	0.129
-231.786	43.631	0.173	0.159
-230.771	-19.808	0.361	0.224
-229.757	800.000	-0.044	0.133
-228.742	800.000	-0.078	-0.257
-227.727	24.561	-0.222	0.185
-226.713	-200.000	-0.006	0.145
-225.698	119.843	-0.123	-0.153
-224.684	276.846	-0.071	-0.127
-223.669	-33.171	0.196	-0.109
-222.655	-6.898	0.208	-0.142
-221.640	-87.607	0.102	0.031
-220.625	800.000	-0.044	0.158
-219.611	-200.000	-0.011	0.090
-218.596	-79.554	0.081	-0.027
-217.582	62.498	0.288	-0.288
-216.567	370.850	0.098	0.199
-215.552	225.739	-0.087	-0.142
-214.538	-113.404	0.103	0.020
-213.523	-200.000	0.033	0.207
-212.509	387.477	0.015	-0.031
-211.494	556.698	-0.064	-0.154
-210.479	-57.065	0.127	0.056
-209.465	-125.966	0.084	-0.013
-208.450	85.334	0.074	0.082
-207.436	-16.895	0.054	-0.034
-206.421	12.996	0.104	0.081
-205.406	-32.223	0.230	0.129
-204.392	411.225	-0.103	-0.218
-203.377	800.000	0.116	-0.323
-202.363	250.420	0.120	-0.204
-201.348	591.273	-0.091	-0.224
-200.333	100.103	0.106	0.124
-199.319	-84.555	-0.252	0.080
-198.304	-22.773	-0.342	0.207
-197.290	-72.737	-0.223	-0.082
-196.275	59.857	-0.151	-0.150
-195.260	-87.606	-0.083	0.025
-194.246	-90.419	0.211	-0.061
-193.231	131.010	-0.161	0.207
-192.217	-133.176	0.359	-0.046
-191.202	-177.050	-0.141	0.004
-190.187	-200.000	-0.001	-0.147
-189.173	800.000	0.032	0.136
-188.158	-48.313	-0.262	-0.127
-187.144	-50.333	0.326	0.154
-186.129	111.320	0.124	-0.150
-185.114	202.925	-0.126	0.194
-184.100	74.430	0.347	0.366
-183.085	156.219	-0.344	0.476
-182.071	12.609	-0.367	0.284
-181.056	-40.465	0.025	0.013
-180.042	-14.520	-0.144	-0.093
-179.027	25.886	-0.071	0.059
-178.012	-88.523	-0.183	0.055
-176.998	800.000	0.105	0.328
-175.983	-73.447	-0.237	-0.087
-174.969	492.331	-0.156	0.357
-173.954	-200.000	0.028	-0.299
-172.939	-64.268	0.125	0.051
-171.925	-123.734	0.222	-0.035
-170.910	336.126	0.167	0.325
-169.896	409.203	0.099	0.211
-168.881	324.688	0.088	-0.168
-167.866	93.203	-0.075	0.085
-166.852	-81.777	-0.182	0.060
-165.837	-65.920	-0.162	-0.065
-164.823	-147.449	0.009	-0.001
-163.808	-32.883	0.215	-0.120
-162.793	-200.000	0.072	0.317
-161.779	-200.000	-0.029	-0.274
-160.764	277.012	-0.164	0.292
-159.750	-200.000	0.014	-0.204
-158.735	77.650	0.168	-0.179
-157.720	695.004	-0.085	-0.224
-156.706	334.256	-0.193	-0.375
-155.691	56.829	0.128	0.125
-154.677	28.172	-0.321	0.271
-153.662	124.647	-0.063	-0.080
-152.647	-63.175	0.247	0.102
-151.633	101.178	-0.157	0.183
-150.618	-15.762	0.142	0.091
-149.604	800.000	0.048	-0.151
-148.589	38.961	-0.167	-0.149
-147.574	-114.969	-0.097	-0.019
-146.560	635.694	0.135	-0.344
-145.545	-46.585	0.384	-0.188
-144.531	-200.000	-0.022	-0.338
-143.516	-57.324	-0.312	-0.137
-142.502	-58.400	0.230	-0.100
-141.487	38.943	-0.097	0.086
-140.472	-200.000	-0.005	0.395
-139.458	18.373	-0.509	0.407
-138.443	64.219	-0.238	-0.240
-137.429	19.249	0.065	-0.052
-136.414	434.411	-0.076	-0.165
-135.399	79.176	0.096	-0.103
-134.385	54.921	0.213	-0.206
-133.370	208.369	-0.081	-0.126
-132.356	169.332	0.112	0.160
-131.341	-63.218	0.144	0.059
-130.326	-200.000	0.027	-0.247
-129.312	42.686	-0.239	-0.218
-128.297	-117.676	0.292	0.053
-127.283	205.706	-0.051	0.080
-126.268	-161.900	0.175	0.009
-125.253	-122.283	0.297	0.049
-124.239	249.584	0.229	0.388
-123.224	-200.000	-0.037	0.311
-122.210	-131.503	0.139	-0.018
-121.195	161.250	0.172	0.241
