DTS Sentinel unit serial number:	SN413079Multiplexer serial number:	ORYXHardware model number:	OX4-SRSoftware version number:	ORYX F/W v4.00 Oryx Data Collector v3.7.2.0data status	okinstallation	princeton_trtdifferential loss correction	single-endedforward channel	channel 1reverse channel	N/Adate	2019/09/10time	17:24:12forward acquisition time	60.00reverse acquisition time	0.00gamma	496.2192k internal	0.2299k external	0.2299temperature offset calibration	0.9928default loss term (dB/km)	0.3790temperature slope calibration	1.0000multiplexer offset coefficient	1.0000multiplexer slope coefficient	1.0000fibre end	0.00T internal ref (°C)	37.66T ext. ref 1 (°C)	-0.34T ext. ref 2 (°C)	32.55length (m)	temperature (°C)	Stokes	anti-Stokes-747.200	-163.459	0.136	0.007
-746.185	108.666	-0.107	0.131
-745.171	-89.562	0.186	0.056
-744.156	498.687	-0.155	0.365
-743.142	24.702	0.216	-0.182
-742.127	29.124	0.127	0.110
-741.112	-84.789	-0.339	-0.109
-740.098	-200.000	-0.022	0.494
-739.083	271.112	0.088	0.158
-738.069	-57.671	0.215	0.096
-737.054	167.587	0.129	-0.186
-736.039	-200.000	-0.015	-0.440
-735.025	-50.260	-0.191	0.092
-734.010	-46.194	0.011	-0.005
-732.996	209.736	-0.064	-0.103
-731.981	120.655	-0.103	0.130
-730.966	-200.000	-0.028	0.215
-729.952	262.599	0.082	0.146
-728.937	-122.333	-0.239	0.040
-727.923	-111.333	-0.205	0.043
-726.908	153.917	0.102	-0.143
-725.894	800.000	0.135	-0.390
-724.879	276.645	0.060	-0.108
-723.864	800.000	0.081	0.328
-722.850	-200.000	-0.000	-0.166
-721.835	349.632	-0.129	-0.261
-720.821	-29.741	-0.143	-0.083
-719.806	-200.000	0.030	-0.137
-718.791	-100.899	0.301	-0.075
-717.777	-105.077	-0.153	-0.036
-716.762	128.522	-0.254	0.329
-715.748	-147.611	-0.406	0.035
-714.733	-60.537	-0.231	-0.100
-713.718	-65.753	-0.347	0.142
-712.704	-136.990	-0.057	0.007
-711.689	-55.478	-0.236	0.108
-710.675	555.623	-0.033	0.082
-709.660	-117.788	-0.261	-0.048
-708.645	-200.000	0.066	0.431
-707.631	-108.389	-0.287	0.063
-706.616	130.610	-0.086	-0.112
-705.602	43.289	-0.155	-0.145
-704.587	-70.787	0.268	-0.103
-703.572	41.222	0.152	0.140
-702.558	-48.254	0.152	0.075
-701.543	-200.000	0.011	-0.052
-700.529	603.404	-0.077	-0.194
-699.514	-52.790	0.077	-0.036
-698.499	151.411	0.111	-0.154
-697.485	-200.000	-0.017	-0.277
-696.470	-60.974	-0.267	0.115
-695.456	2.848	-0.181	-0.134
-694.441	214.447	0.251	-0.404
-693.426	110.541	-0.179	-0.220
-692.412	800.000	0.032	-0.140
-691.397	183.763	0.120	-0.180
-690.383	227.046	0.108	-0.179
-689.368	-6.838	-0.340	-0.236
-688.354	-200.000	-0.002	-0.035
-687.339	107.511	0.166	0.201
-686.324	20.543	0.239	-0.197
-685.310	-145.160	0.234	0.022
-684.295	79.551	-0.191	-0.209
-683.281	800.000	-0.041	-0.115
-682.266	-102.444	0.271	-0.066
-681.251	800.000	-0.080	0.256
-680.237	34.394	0.204	0.181
-679.222	-125.184	-0.366	-0.057
-678.208	-66.122	-0.213	0.086
-677.193	88.012	0.048	-0.054
-676.178	-166.623	0.447	-0.019
-675.164	56.908	0.337	-0.334
-674.149	-200.000	-0.057	-0.389
-673.135	-82.662	-0.217	-0.071
-672.120	-85.955	-0.167	0.053
-671.105	-200.000	-0.019	-0.170
-670.091	-58.744	0.291	-0.128
-669.076	-48.673	-0.147	-0.072
-668.062	-200.000	0.019	0.109
-667.047	111.422	0.047	-0.058
-666.032	-126.171	-0.237	0.036
-665.018	206.222	-0.121	0.191
-664.003	800.000	0.025	0.074
-662.989	-68.311	0.247	-0.098
-661.974	-82.181	-0.107	-0.036
-660.959	42.958	0.186	-0.173
-659.945	-110.913	0.247	0.052
-658.930	49.590	0.197	0.189
-657.916	-95.674	-0.257	-0.070
-656.901	-200.000	0.021	0.116
-655.886	-89.126	-0.143	-0.043
-654.872	212.238	-0.064	-0.103
-653.857	-105.801	-0.088	0.020
-652.843	-16.806	0.079	-0.051
-651.828	-200.000	0.017	-0.184
-650.814	-20.774	-0.340	-0.212
-649.799	-200.000	-0.041	-0.269
-648.784	595.400	-0.069	0.173
-647.770	59.430	0.151	-0.151
-646.755	451.028	-0.011	0.024
-645.741	800.000	0.004	0.017
-644.726	35.200	0.204	0.182
-643.711	800.000	-0.074	0.252
-642.697	-100.839	0.276	-0.069
-641.682	-86.505	0.054	-0.017
-640.668	499.359	0.143	0.334
-639.653	-110.132	-0.305	-0.065
-638.638	-72.160	0.270	0.102
-637.624	800.000	-0.079	-0.324
-636.609	-200.000	-0.011	-0.215
-635.595	247.245	0.014	0.025
-634.580	-69.079	-0.260	-0.102
-633.565	-152.234	0.314	-0.023
-632.551	99.617	-0.053	0.063
-631.536	54.404	-0.158	-0.155
-630.522	-200.000	-0.011	0.209
-629.507	-200.000	0.014	0.170
-628.492	-169.611	-0.159	0.006
-627.478	-169.181	-0.132	0.005
-626.463	-23.451	-0.197	-0.120
-625.449	-200.000	0.004	0.060
-624.434	108.954	0.048	0.058
-623.419	124.900	0.181	-0.232
-622.405	-74.407	0.152	0.056
-621.390	15.866	0.158	-0.126
-620.376	800.000	0.099	-0.294
-619.361	23.691	-0.159	0.133
-618.346	-28.270	0.183	-0.107
-617.332	800.000	0.075	0.222
-616.317	343.255	0.120	0.238
-615.303	-200.000	-0.035	-0.272
-614.288	-36.186	-0.256	-0.140
-613.273	-138.988	-0.296	0.033
-612.259	-48.044	0.445	0.218
-611.244	-168.083	0.096	-0.004
-610.230	154.462	-0.054	-0.075
-609.215	219.326	0.094	-0.153
-608.201	-44.051	-0.036	-0.018
-607.186	-200.000	-0.026	-0.196
-606.171	266.504	-0.105	-0.186
-605.157	396.875	0.071	0.150
-604.142	30.165	0.244	0.211
-603.128	15.929	0.056	0.045
-602.113	516.845	-0.061	0.146
-601.098	-120.241	0.232	0.040
-600.084	-121.777	-0.072	-0.012
-599.069	-77.569	0.102	-0.036
-598.055	800.000	-0.051	0.222
-597.040	148.782	0.086	0.118
-596.025	-76.766	-0.269	-0.096
-595.011	-23.536	-0.313	-0.190
-593.996	-64.052	-0.063	0.026
-592.982	-109.812	-0.203	0.043
-591.967	-120.603	0.035	-0.006
-590.952	800.000	0.055	-0.203
-589.938	-123.395	0.089	0.014
-588.923	-39.475	0.130	-0.069
-587.909	-158.048	-0.220	-0.013
-586.894	-200.000	-0.014	0.087
-585.879	156.050	0.098	-0.137
-584.865	-200.000	-0.014	-0.065
-583.850	-157.850	0.125	0.007
-582.836	219.808	0.156	0.253
-581.821	-16.113	0.094	-0.060
-580.806	507.545	-0.099	-0.232
-579.792	-45.350	0.204	-0.102
-578.777	800.000	0.017	-0.062
-577.763	130.775	0.028	0.036
-576.748	-125.294	-0.137	-0.021
-575.733	-35.581	0.120	-0.066
-574.719	-127.538	-0.172	0.025
-573.704	434.828	0.055	0.122
-572.690	135.550	-0.130	-0.171
-571.675	-200.000	0.013	0.173
-570.661	200.511	-0.035	0.054
-569.646	-68.606	-0.123	-0.048
-568.631	275.295	0.038	0.068
-567.617	502.264	0.113	-0.264
-566.602	-112.175	0.208	-0.042
-565.588	-144.228	-0.075	-0.007
-564.573	15.391	-0.228	0.181
-563.558	-123.840	0.434	-0.069
-562.544	51.673	0.196	0.189
-561.529	-200.000	-0.029	0.235
-560.515	-129.901	0.148	-0.021
-559.500	184.446	-0.109	0.163
-558.485	402.809	-0.164	-0.349
-557.471	-90.790	-0.267	-0.078
-556.456	762.351	-0.075	0.207
-555.442	800.000	-0.043	0.135
-554.427	-39.100	0.121	-0.065
-553.412	800.000	0.044	-0.137
-552.398	-99.130	-0.633	-0.162
-551.383	-76.519	-0.117	0.042
-550.369	-139.443	-0.049	0.005
-549.354	-200.000	-0.039	-0.277
-548.339	-153.168	0.164	0.012
-547.325	107.568	-0.057	0.069
-546.310	21.060	0.054	0.044
-545.296	-8.466	-0.257	-0.175
-544.281	-131.398	-0.156	-0.021
-543.266	-60.852	0.097	-0.042
-542.252	-200.000	-0.146	-0.001
-541.237	-144.969	0.080	-0.007
-540.223	-101.737	-0.122	-0.030
-539.208	8.563	-0.196	-0.149
-538.193	42.865	0.083	-0.076
-537.179	-119.309	0.236	0.042
-536.164	452.020	-0.148	-0.331
-535.150	-98.323	0.215	0.056
-534.135	-119.737	0.315	-0.055
-533.121	4.658	0.191	-0.142
-532.106	597.420	-0.060	0.152
-531.091	-164.768	0.093	0.004
-530.077	-41.106	-0.108	-0.056
-529.062	24.739	-0.055	-0.046
-528.048	69.954	0.138	0.144
-527.033	-116.596	0.357	-0.067
-526.018	800.000	0.015	-0.045
-525.004	73.454	0.133	-0.140
-523.989	-132.814	-0.506	0.065
-522.975	-89.453	0.191	-0.057
-521.960	-113.945	-0.161	-0.032
-520.945	-100.004	-0.283	-0.071
-519.931	-131.873	0.112	-0.015
-518.916	-200.000	0.070	-0.367
-517.902	483.293	0.082	-0.189
-516.887	162.461	-0.043	-0.060
-515.872	-47.780	0.215	0.105
-514.858	192.081	0.053	0.081
-513.843	800.000	0.051	0.150
-512.829	-35.864	-0.233	0.128
-511.814	52.942	-0.163	0.158
-510.799	110.749	-0.220	-0.268
-509.785	397.482	0.080	-0.169
-508.770	486.181	0.011	-0.026
-507.756	-200.000	0.067	0.296
-506.741	-200.000	-0.009	0.115
-505.726	-200.000	-0.017	0.000
-504.712	-28.221	-0.234	-0.136
-503.697	-200.000	-0.001	-0.198
-502.683	-144.522	0.045	0.004
-501.668	716.771	0.047	0.127
-500.653	-135.836	0.088	-0.010
-499.639	-161.099	-0.125	0.007
-498.624	-55.595	0.136	0.061
-497.610	-112.255	0.287	0.058
-496.595	-72.876	0.090	0.033
-495.581	189.725	-0.217	-0.329
-494.566	440.215	-0.062	-0.137
-493.551	-160.681	-0.341	-0.018
-492.537	50.206	-0.093	0.089
-491.522	-4.807	0.207	-0.144
-490.508	71.416	-0.132	-0.138
-489.493	-200.000	0.025	0.337
-488.478	10.323	-0.235	-0.181
-487.464	-200.000	-0.003	-0.028
-486.449	334.991	0.108	-0.211
-485.435	20.957	-0.294	-0.241
-484.420	-183.109	-0.419	-0.007
-483.405	-200.000	-0.021	0.374
-482.391	-200.000	-0.059	0.305
-481.376	-119.866	0.196	0.034
-480.362	-158.131	-0.054	-0.003
-479.347	-84.305	0.211	-0.067
-478.332	695.490	-0.091	0.240
-477.318	25.841	-0.234	-0.197
-476.303	-103.368	0.265	0.063
-475.289	186.799	0.020	0.030
-474.274	-80.493	-0.342	0.115
-473.259	122.894	-0.100	-0.127
-472.245	210.267	-0.078	0.124
-471.230	226.337	-0.164	0.269
-470.216	-103.505	-0.212	-0.050
-469.201	184.048	-0.089	-0.133
-468.186	-99.598	-0.230	0.058
-467.172	-177.798	-0.254	0.006
-466.157	46.058	0.145	-0.136
-465.143	-13.903	0.345	0.225
-464.128	-21.183	-0.208	0.128
-463.113	-155.032	0.373	0.025
-462.099	685.665	0.135	-0.356
-461.084	357.415	-0.055	0.110
-460.070	-200.000	-0.011	-0.056
-459.055	-200.000	-0.032	-0.159
-458.040	258.487	0.123	0.214
-457.026	800.000	0.009	-0.040
-456.011	-60.724	0.206	-0.088
-454.997	-107.501	0.194	0.043
-453.982	126.737	-0.017	-0.021
-452.968	38.353	-0.135	-0.121
-451.953	90.612	-0.040	0.045
-450.938	-200.000	-0.002	-0.032
-449.924	147.779	-0.159	-0.216
-448.909	720.219	0.057	0.152
-447.895	800.000	-0.062	-0.245
-446.880	-27.660	0.219	0.128
-445.865	250.185	0.022	0.037
-444.851	163.775	-0.152	0.216
-443.836	-13.169	0.121	0.079
-442.822	16.543	0.151	0.120
-441.807	-96.576	0.154	-0.041
-440.792	800.000	-0.109	-0.359
-439.778	253.632	-0.235	-0.405
-438.763	-88.348	0.317	-0.096
-437.749	800.000	0.043	0.145
-436.734	-76.392	-0.051	0.018
-435.719	120.871	0.180	-0.226
-434.705	-131.440	-0.203	-0.027
-433.690	461.168	-0.116	0.260
-432.676	-66.584	0.541	0.216
-431.661	-64.433	-0.318	0.130
-430.646	460.103	-0.067	-0.149
-429.632	-48.614	0.051	0.025
-428.617	222.371	0.056	0.092
-427.603	110.892	-0.177	-0.215
-426.588	-200.000	-0.017	0.101
-425.573	800.000	-0.081	0.267
-424.559	-116.826	-0.443	-0.082
-423.544	-80.252	0.260	-0.088
-422.530	-83.121	-0.179	0.058
-421.515	-200.000	0.015	0.138
-420.500	-200.000	-0.089	0.459
-419.486	-71.152	0.112	0.042
-418.471	-200.000	-0.011	0.229
-417.457	-151.842	-0.170	-0.013
-416.442	-200.000	-0.026	-0.360
-415.428	746.099	-0.048	-0.129
-414.413	14.363	0.071	-0.056
-413.398	0.178	-0.319	0.229
-412.384	183.111	0.076	0.113
-411.369	800.000	0.116	-0.390
-410.355	-123.855	0.114	-0.018
-409.340	-19.537	-0.063	0.040
-408.325	230.317	0.199	-0.328
-407.311	384.818	0.061	-0.127
-406.296	-29.726	0.289	0.166
-405.282	124.923	-0.216	-0.274
-404.267	-44.624	-0.137	-0.069
-403.252	303.635	-0.011	0.021
-402.238	-200.000	0.034	0.207
-401.223	-114.361	-0.052	-0.010
-400.209	-200.000	0.002	0.475
-399.194	-24.503	-0.156	-0.094
-398.179	-119.751	0.257	0.045
-397.165	28.431	-0.128	0.109
-396.150	-173.903	0.137	0.004
-395.136	-46.066	0.253	-0.125
-394.121	-108.532	0.290	-0.063
-393.106	306.464	-0.084	0.158
-392.092	-73.349	-0.370	0.136
-391.077	667.915	-0.067	0.174
-390.063	-142.174	-0.472	0.047
-389.048	-55.577	0.255	-0.115
-388.033	160.962	-0.148	0.208
-387.019	-121.878	-0.373	0.062
-386.004	-136.601	-0.289	0.034
-384.990	294.554	0.189	0.349
-383.975	-118.798	0.163	0.029
-382.960	-12.444	-0.187	-0.123
-381.946	-180.886	-0.310	0.006
-380.931	180.263	-0.042	-0.062
-379.917	660.586	0.079	-0.205
-378.902	434.858	-0.067	-0.146
-377.888	106.894	-0.167	-0.199
-376.873	-11.741	0.101	-0.067
-375.858	-26.589	-0.077	-0.045
-374.844	800.000	-0.087	0.296
-373.829	365.229	0.054	-0.109
-372.815	55.859	-0.046	-0.045
-371.800	800.000	-0.095	-0.286
-370.785	-73.752	0.213	-0.078
-369.771	281.679	0.015	-0.027
-368.756	654.569	-0.054	-0.139
-367.742	-94.800	-0.201	0.055
-366.727	-200.000	-0.014	-0.238
-365.712	93.608	-0.223	-0.254
-364.698	342.999	-0.209	0.412
-363.683	-136.704	0.292	0.034
-362.669	-200.000	-0.012	-0.127
-361.654	-200.000	0.007	-0.354
-360.639	376.205	-0.052	-0.107
-359.625	169.963	-0.198	-0.284
-358.610	109.550	0.139	-0.168
-357.596	800.000	0.107	0.362
-356.581	-200.000	-0.024	0.161
-355.566	-100.201	-0.101	0.025
-354.552	-47.140	-0.249	-0.122
-353.537	261.203	-0.074	0.128
-352.523	-172.279	-0.178	-0.006
-351.508	-81.424	0.268	-0.089
-350.493	29.884	0.344	0.294
-349.479	-200.000	-0.018	0.155
-348.464	217.714	0.027	-0.043
-347.450	-200.000	0.054	-0.331
-346.435	123.127	-0.157	0.197
-345.420	-68.724	0.217	0.084
-344.406	20.544	-0.093	0.076
-343.391	-23.351	-0.113	0.068
-342.377	-162.491	0.288	0.014
-341.362	104.893	-0.129	0.153
-340.348	-200.000	-0.232	-0.001
-339.333	-200.000	0.038	0.274
-338.318	-144.054	-0.412	-0.039
-337.304	-200.000	-0.017	0.236
-336.289	-119.529	0.028	0.005
-335.275	-200.000	0.022	-0.172
-334.260	-147.694	0.242	-0.020
-333.245	-96.562	0.101	-0.027
-332.231	-200.000	-0.055	-0.255
-331.216	249.275	-0.087	0.148
-330.202	617.121	0.040	-0.100
-329.187	-113.703	0.219	0.043
-328.172	-49.265	-0.135	0.065
-327.158	-78.578	0.212	-0.073
-326.143	-43.022	-0.176	-0.090
-325.129	-98.661	-0.196	-0.050
-324.114	51.835	0.070	-0.067
-323.099	81.699	0.332	-0.360
-322.085	800.000	-0.086	0.350
-321.070	-200.000	-0.040	0.263
-320.056	84.212	0.346	0.379
-319.041	154.119	0.095	0.131
-318.026	-8.382	0.278	-0.187
-317.012	-159.549	-0.087	0.005
-315.997	800.000	0.047	-0.155
-314.983	10.734	0.270	0.207
-313.968	-167.375	-0.182	-0.007
-312.953	-1.798	-0.272	-0.192
-311.939	83.665	0.156	0.170
-310.924	115.641	-0.057	0.070
-309.910	800.000	-0.112	-0.340
-308.895	68.765	0.144	0.148
-307.880	247.621	0.087	0.148
-306.866	513.563	-0.077	0.181
-305.851	-200.000	-0.008	-0.133
-304.837	-29.339	0.209	0.120
-303.822	135.517	0.089	-0.117
-302.807	-113.207	0.401	0.079
-301.793	63.791	0.132	0.133
-300.778	-200.000	-0.036	0.226
-299.764	459.136	-0.027	0.060
-298.749	-104.025	-0.237	-0.055
-297.735	-66.843	0.118	0.047
-296.720	-57.306	0.052	-0.023
-295.705	-200.000	-0.003	-0.096
-294.691	-0.997	0.121	0.086
-293.676	39.569	-0.110	0.098
-292.662	-106.468	-0.303	-0.068
-291.647	-200.000	0.056	-0.316
-290.632	800.000	0.041	0.175
-289.618	11.440	-0.056	0.043
-288.603	-32.853	0.226	0.126
-287.589	-200.000	-0.010	-0.074
-286.574	-14.160	-0.167	-0.108
-285.559	-200.000	-0.034	-0.192
-284.545	-34.938	0.295	0.161
-283.530	19.718	0.060	-0.048
-282.516	-200.000	0.050	-0.263
-281.501	800.000	0.072	0.214
-280.486	-57.155	0.263	-0.116
-279.472	-28.952	0.030	-0.017
-278.457	-143.683	0.185	-0.018
-277.443	-27.337	-0.432	-0.252
-276.428	22.183	-0.223	-0.182
-275.413	571.932	0.040	0.099
-274.399	-200.000	-0.041	-0.296
-273.384	46.713	0.243	-0.227
-272.370	-65.376	0.094	-0.038
-271.355	-200.000	-0.023	0.134
-270.340	-120.101	-0.264	0.045
-269.326	118.255	0.182	0.225
-268.311	57.217	-0.182	0.177
-267.297	-200.000	-0.022	-0.117
-266.282	-141.731	-0.256	0.026
-265.267	-117.871	-0.236	-0.042
-264.253	-101.018	0.455	0.112
-263.238	-200.000	-0.017	-0.127
-262.224	-7.189	0.136	0.093
-261.209	397.569	-0.090	0.189
-260.195	-57.199	0.105	-0.046
-259.180	-200.000	0.015	-0.175
-258.165	-28.437	0.236	-0.136
-257.151	598.706	-0.084	-0.208
-256.136	-106.348	0.155	-0.035
-255.122	98.107	0.044	0.050
-254.107	-88.671	-0.142	-0.042
-253.092	-25.001	0.227	-0.135
-252.078	-72.323	0.200	-0.074
-251.063	-200.000	0.007	0.119
-250.049	-200.000	0.008	0.292
-249.034	390.951	-0.069	0.143
-248.019	-155.526	-0.084	-0.005
-247.005	-2.081	-0.080	-0.056
-245.990	67.756	0.162	-0.166
-244.976	-200.000	-0.013	-0.093
-243.961	800.000	0.055	-0.209
-242.946	-37.320	-0.286	0.153
-241.932	800.000	0.064	0.208
-240.917	-102.782	0.235	-0.056
-239.903	528.590	-0.271	-0.640
-238.888	324.528	0.083	-0.159
-237.873	-115.634	-0.036	0.007
-236.859	211.659	0.100	-0.157
-235.844	83.327	0.239	0.260
-234.830	-200.000	-0.027	0.196
-233.815	-194.467	0.158	-0.001
-232.800	9.466	0.108	-0.082
-231.786	-111.077	0.075	0.015
-230.771	-64.222	0.228	-0.093
-229.757	-79.106	0.366	0.124
-228.742	99.589	-0.120	0.139
-227.727	-200.000	0.022	0.166
-226.713	-148.867	-0.041	0.003
-225.698	-146.914	-0.389	-0.033
-224.684	800.000	0.047	-0.155
-223.669	39.124	-0.265	0.237
-222.655	94.768	0.244	0.278
-221.640	-69.192	-0.163	-0.063
-220.625	-100.141	0.086	0.021
-219.611	800.000	0.062	-0.204
-218.596	177.232	0.158	0.230
-217.582	-200.000	-0.041	0.330
-216.567	-71.098	0.230	0.086
-215.552	-125.825	0.087	0.013
-214.538	149.774	0.247	0.334
-213.523	304.728	0.101	-0.188
-212.509	380.211	0.109	0.224
-211.494	74.772	-0.270	0.284
-210.479	25.260	0.192	0.159
-209.465	-40.075	-0.348	0.181
-208.450	-173.043	0.287	0.009
-207.436	-130.393	0.588	-0.080
-206.421	800.000	-0.015	-0.055
-205.406	5.481	-0.209	0.154
-204.392	89.144	-0.198	0.220
-203.377	28.678	-0.092	-0.078
-202.363	-200.000	0.001	0.187
-201.348	-190.520	-0.420	0.005
-200.333	-172.352	0.333	-0.011
-199.319	800.000	-0.057	-0.196
-198.304	-157.375	-0.164	0.010
-197.290	-165.711	-0.163	0.007
-196.275	312.250	0.082	-0.153
-195.260	-117.561	-0.214	0.039
-194.246	738.203	-0.025	-0.067
-193.231	358.596	-0.064	0.128
-192.217	-34.858	-0.212	-0.116
-191.202	-95.336	0.245	-0.066
-190.187	-200.000	-0.045	0.379
-189.173	232.156	-0.163	-0.267
-188.158	-31.000	0.333	0.188
-187.144	800.000	-0.084	-0.355
-186.129	-200.000	0.003	-0.406
-185.114	800.000	-0.025	0.107
-184.100	-119.977	-0.271	0.047
-183.085	116.329	-0.067	0.081
-182.071	-12.188	0.073	0.048
-181.056	-200.000	-0.060	0.307
-180.042	248.877	0.081	0.137
-179.027	-57.152	0.239	0.105
-178.012	800.000	0.059	0.226
-176.998	437.217	0.089	-0.193
-175.983	800.000	0.091	0.328
-174.969	-40.746	0.093	-0.048
-173.954	800.000	-0.093	-0.326
-172.939	92.899	-0.111	-0.125
-171.925	-139.013	0.326	0.035
-170.910	-109.742	-0.218	0.046
-169.896	422.383	0.098	0.211
-168.881	-200.000	0.161	-0.000
-167.866	800.000	0.071	-0.239
-166.852	-200.000	0.040	0.238
-165.837	-44.655	0.072	0.036
-164.823	-200.000	0.029	-0.189
-163.808	204.123	-0.025	0.038
-162.793	249.759	-0.158	0.267
-161.779	800.000	-0.023	0.093
-160.764	327.226	0.125	-0.239
-159.750	-114.937	-0.352	-0.067
-158.735	-86.883	0.221	-0.067
-157.720	800.000	0.074	0.307
-156.706	256.713	0.059	-0.102
-155.691	-58.768	-0.229	-0.099
-154.677	159.921	0.035	0.049
-153.662	-166.012	-0.214	0.009
-152.647	-107.136	0.241	-0.053
-151.633	-108.857	-0.326	0.070
-150.618	78.895	0.104	0.111
-149.604	-71.473	0.114	0.043
-148.589	-85.664	0.146	-0.045
-147.574	102.172	-0.170	0.198
-146.560	-200.000	0.008	-0.161
-145.545	-147.551	0.593	0.050
-144.531	-171.910	0.231	-0.007
-143.516	445.291	-0.085	-0.186
-142.502	-200.000	-0.003	-0.029
-141.487	-132.447	-0.162	0.021
-140.472	-116.418	0.053	-0.010
-139.458	-77.279	0.051	0.018
-138.443	-100.337	-0.044	0.011
-137.429	-97.687	0.342	0.088
-136.414	-0.542	0.269	-0.190
-135.399	245.943	0.063	-0.105
-134.385	417.118	-0.235	-0.500
-133.370	-182.255	0.260	0.005
-132.356	287.134	0.205	0.369
-131.341	596.731	0.049	-0.121
-130.326	-106.320	-0.155	0.035
-129.312	-200.000	-0.029	0.186
-128.297	-13.047	-0.189	0.122
-127.283	158.985	0.148	-0.205
-126.268	31.789	0.062	0.053
-125.253	-200.000	0.095	0.000
-124.239	-200.000	-0.005	-0.171
-123.224	-200.000	0.011	0.166
