DTS Sentinel unit serial number:	SN413079Multiplexer serial number:	ORYXHardware model number:	OX4-SRSoftware version number:	ORYX F/W v4.00 Oryx Data Collector v3.7.2.0data status	okinstallation	princeton_trtdifferential loss correction	single-endedforward channel	channel 1reverse channel	N/Adate	2019/09/11time	10:20:11forward acquisition time	60.00reverse acquisition time	0.00gamma	496.2192k internal	0.2299k external	0.2299temperature offset calibration	0.9952default loss term (dB/km)	0.3790temperature slope calibration	1.0000multiplexer offset coefficient	1.0000multiplexer slope coefficient	1.0000fibre end	0.00T internal ref (°C)	36.08T ext. ref 1 (°C)	0.14T ext. ref 2 (°C)	33.03length (m)	temperature (°C)	Stokes	anti-Stokes-747.200	-20.187	0.182	0.115
-746.185	313.104	-0.104	0.200
-745.171	-89.321	-0.226	0.068
-744.156	95.863	0.158	0.184
-743.142	16.922	0.242	-0.195
-742.127	19.056	0.168	0.137
-741.112	127.910	0.176	-0.229
-740.098	463.151	0.024	-0.055
-739.083	-25.244	-0.282	0.170
-738.069	-89.380	0.203	0.061
-737.054	23.531	0.208	0.175
-736.039	180.115	-0.247	-0.369
-735.025	-200.000	0.011	-0.156
-734.010	60.640	-0.111	0.113
-732.996	100.378	-0.079	-0.093
-731.981	-133.750	-0.223	0.028
-730.966	16.362	0.249	0.201
-729.952	-200.000	0.035	0.204
-728.937	399.452	-0.127	-0.272
-727.923	-96.300	-0.197	0.053
-726.908	-200.000	-0.017	0.139
-725.894	-200.000	0.015	-0.575
-724.879	-200.000	0.012	0.068
-723.864	-172.916	-0.411	-0.013
-722.850	800.000	-0.068	-0.232
-721.835	151.588	-0.133	-0.185
-720.821	-128.836	-0.255	-0.037
-719.806	-200.000	-0.013	-0.101
-718.791	308.071	-0.098	0.185
-717.777	-200.000	-0.008	-0.114
-716.762	371.482	-0.212	0.439
-715.748	-38.355	0.269	-0.145
-714.733	64.080	0.323	-0.331
-713.718	-191.152	0.247	0.003
-712.704	-200.000	-0.022	0.264
-711.689	-200.000	0.018	0.113
-710.675	-200.000	-0.006	0.313
-709.660	-200.000	0.005	-0.058
-708.645	118.944	-0.042	0.053
-707.631	-200.000	0.001	0.143
-706.616	92.892	-0.245	-0.283
-705.602	426.483	0.083	-0.182
-704.587	-140.994	-0.080	0.008
-703.572	-200.000	0.034	0.195
-702.558	-8.356	-0.195	-0.134
-701.543	216.342	-0.176	0.285
-700.529	-93.286	0.174	-0.049
-699.514	81.423	-0.153	-0.168
-698.499	17.901	-0.237	0.192
-697.485	-70.675	0.122	0.047
-696.470	-43.056	0.077	0.040
-695.456	-156.734	0.143	0.009
-694.441	-108.030	0.294	-0.065
-693.426	485.761	-0.147	-0.341
-692.412	197.114	-0.165	-0.256
-691.397	800.000	0.077	-0.296
-690.383	-106.503	0.109	-0.025
-689.368	90.652	-0.134	-0.153
-688.354	518.983	0.042	0.100
-687.339	94.515	0.046	0.054
-686.324	-56.864	-0.251	0.113
-685.310	-30.291	0.075	0.043
-684.295	-200.000	-0.001	0.069
-683.281	800.000	0.037	0.131
-682.266	13.270	-0.073	0.058
-681.251	177.826	0.110	-0.163
-680.237	800.000	-0.031	0.106
-679.222	-200.000	0.027	-0.257
-678.208	42.132	-0.291	-0.269
-677.193	-156.684	-0.348	-0.022
-676.178	-171.742	-0.367	-0.012
-675.164	-155.806	0.431	0.028
-674.149	-101.140	0.172	0.043
-673.135	-74.539	0.373	-0.137
-672.120	290.709	0.187	-0.346
-671.105	800.000	-0.064	0.196
-670.091	-31.912	-0.141	0.080
-669.076	102.339	-0.078	-0.092
-668.062	14.296	-0.251	-0.199
-667.047	124.925	-0.082	0.105
-666.032	800.000	0.133	0.381
-665.018	241.135	0.011	-0.019
-664.003	-175.827	0.249	-0.007
-662.989	-69.470	0.087	0.034
-661.974	-94.821	-0.374	-0.103
-660.959	86.915	0.013	0.015
-659.945	-40.707	0.095	-0.050
-658.930	-200.000	-0.003	-0.469
-657.916	4.046	-0.148	-0.110
-656.901	-200.000	0.011	0.193
-655.886	-200.000	0.026	-0.158
-654.872	165.546	-0.127	-0.183
-653.857	614.334	0.099	-0.253
-652.843	59.807	0.081	0.081
-651.828	-45.937	-0.155	0.078
-650.814	800.000	-0.024	-0.084
-649.799	72.182	-0.122	-0.129
-648.784	-127.336	0.318	0.047
-647.770	800.000	-0.047	-0.158
-646.755	-200.000	0.003	-0.292
-645.741	-133.848	-0.314	0.040
-644.726	800.000	-0.050	-0.173
-643.711	800.000	-0.074	0.213
-642.697	-200.000	0.028	-0.213
-641.682	-89.882	0.384	0.114
-640.668	-22.815	0.066	0.041
-639.653	-200.000	-0.030	-0.211
-638.638	800.000	0.109	-0.477
-637.624	-200.000	0.010	0.141
-636.609	-50.568	-0.140	0.067
-635.595	-75.749	0.432	0.156
-634.580	-80.935	-0.328	-0.110
-633.565	-200.000	0.009	-0.200
-632.551	-44.346	-0.221	-0.112
-631.536	200.071	-0.095	-0.147
-630.522	-106.427	0.315	0.071
-629.507	18.482	0.107	-0.087
-628.492	71.221	0.197	-0.208
-627.478	-58.755	0.203	0.089
-626.463	-113.977	-0.230	-0.045
-625.449	-89.805	-0.170	-0.051
-624.434	49.899	0.084	-0.081
-623.419	100.483	-0.318	-0.375
-622.405	-157.891	0.296	-0.018
-621.390	-80.233	0.447	0.152
-620.376	-65.641	0.081	0.033
-619.361	-200.000	0.041	-0.208
-618.346	360.200	-0.089	-0.181
-617.332	100.749	-0.161	0.190
-616.317	-95.483	-0.145	-0.039
-615.303	-200.000	0.028	0.328
-614.288	-77.734	0.059	-0.021
-613.273	-181.954	0.165	0.003
-612.259	800.000	0.070	0.258
-611.244	-99.337	0.381	0.098
-610.230	12.868	-0.221	0.174
-609.215	185.458	0.095	-0.143
-608.201	-56.106	-0.038	0.017
-607.186	131.586	-0.256	-0.335
-606.171	146.634	-0.230	-0.313
-605.157	-64.570	-0.167	0.069
-604.142	73.114	-0.146	-0.155
-603.128	17.049	0.176	0.141
-602.113	-80.104	0.161	0.055
-601.098	-173.532	-0.128	0.004
-600.084	-183.395	0.332	0.006
-599.069	800.000	0.096	-0.287
-598.055	117.685	0.080	0.100
-597.040	-200.000	-0.004	-0.051
-596.025	-30.577	0.253	-0.145
-595.011	-67.015	0.175	-0.070
-593.996	263.423	-0.102	-0.180
-592.982	-200.000	0.005	-0.050
-591.967	-200.000	0.017	-0.308
-590.952	-123.611	-0.122	0.020
-589.938	43.107	0.076	0.070
-588.923	800.000	-0.085	0.300
-587.909	118.221	0.229	-0.287
-586.894	-130.671	0.275	-0.038
-585.879	92.067	0.192	0.219
-584.865	-72.818	-0.176	-0.066
-583.850	160.568	-0.088	0.125
-582.836	-22.122	0.080	-0.049
-581.821	800.000	-0.029	0.096
-580.806	121.735	-0.066	-0.084
-579.792	-9.497	-0.124	0.084
-578.777	723.161	0.167	-0.450
-577.763	-28.086	-0.308	0.181
-576.748	-87.368	0.385	0.118
-575.733	-47.775	0.106	0.052
-574.719	800.000	0.097	-0.378
-573.704	800.000	0.064	-0.223
-572.690	-53.729	0.263	0.122
-571.675	-73.420	-0.252	0.093
-570.661	364.102	0.067	-0.137
-569.646	-134.185	-0.147	-0.018
-568.631	800.000	-0.032	0.099
-567.617	345.089	0.021	0.042
-566.602	-200.000	0.065	0.301
-565.588	468.234	0.099	0.225
-564.573	114.334	-0.178	-0.219
-563.558	-130.515	-0.032	0.004
-562.544	-200.000	0.034	0.305
-561.529	-200.000	0.002	0.028
-560.515	19.893	-0.408	-0.333
-559.500	-200.000	-0.036	-0.431
-558.485	25.141	-0.111	0.094
-557.471	700.053	-0.032	-0.085
-556.456	14.695	-0.107	-0.085
-555.442	80.710	-0.069	-0.076
-554.427	-200.000	-0.015	-0.208
-553.412	214.610	-0.069	0.110
-552.398	20.470	-0.226	0.185
-551.383	-104.284	0.151	0.036
-550.369	151.239	0.134	-0.185
-549.354	800.000	-0.055	-0.178
-548.339	800.000	-0.023	-0.093
-547.325	-27.438	0.388	0.229
-546.310	800.000	-0.033	0.123
-545.296	-200.000	-0.005	-0.085
-544.281	345.869	0.069	-0.138
-543.266	111.105	-0.207	0.253
-542.252	124.182	0.029	-0.037
-541.237	65.090	-0.091	0.093
-540.223	-200.000	-0.033	-0.258
-539.208	-200.000	-0.014	-0.162
-538.193	-200.000	-0.016	-0.172
-537.179	-49.698	-0.121	0.058
-536.164	-103.923	0.381	-0.090
-535.150	800.000	0.090	-0.304
-534.135	95.936	-0.135	0.156
-533.121	96.936	0.104	-0.121
-532.106	-200.000	0.011	-0.112
-531.091	48.593	-0.023	-0.022
-530.077	-171.718	-0.332	0.011
-529.062	-200.000	-0.008	0.058
-528.048	-200.000	0.034	0.306
-527.033	-7.385	0.127	0.087
-526.018	51.149	0.016	0.015
-525.004	-56.258	-0.133	0.060
-523.989	-42.137	0.441	0.228
-522.975	271.175	0.201	0.359
-521.960	800.000	0.036	0.100
-520.945	800.000	0.110	0.391
-519.931	800.000	0.085	-0.286
-518.916	-131.106	0.328	0.044
-517.902	-40.414	-0.257	0.135
-516.887	-200.000	-0.021	-0.491
-515.872	800.000	-0.048	0.173
-514.858	-79.325	-0.287	0.098
-513.843	588.110	-0.047	0.117
-512.829	-96.392	0.431	0.115
-511.814	-42.330	0.145	-0.075
-510.799	-200.000	0.033	-0.256
-509.785	800.000	0.014	-0.049
-508.770	-78.104	0.210	0.073
-507.756	314.238	0.105	-0.201
-506.741	-78.720	-0.302	0.104
-505.726	-133.811	0.187	0.024
-504.712	-19.682	-0.353	-0.221
-503.697	-10.652	-0.230	-0.154
-502.683	43.781	-0.263	0.243
-501.668	160.195	-0.109	-0.153
-500.653	-200.000	-0.019	0.208
-499.639	6.785	0.278	0.209
-498.624	-83.494	0.106	-0.034
-497.610	-53.638	0.072	0.033
-496.595	-200.000	-0.068	0.437
-495.581	-110.307	0.103	-0.022
-494.566	-35.029	-0.377	-0.207
-493.551	235.776	0.119	0.199
-492.537	61.895	0.353	0.356
-491.522	80.153	-0.351	0.381
-490.508	-138.792	-0.285	0.031
-489.493	-109.586	0.096	0.020
-488.478	800.000	0.089	0.257
-487.464	144.786	-0.113	-0.153
-486.449	88.649	-0.312	0.350
-485.435	-200.000	0.147	-0.000
-484.420	-200.000	-0.038	-0.403
-483.405	437.137	-0.113	0.249
-482.391	306.886	-0.124	-0.234
-481.376	332.157	0.043	-0.084
-480.362	-166.374	0.299	0.013
-479.347	-136.532	0.266	-0.031
-478.332	141.859	0.198	-0.265
-477.318	-146.360	-0.159	-0.014
-476.303	-141.254	-0.147	0.015
-475.289	40.169	-0.140	0.127
-474.274	-200.000	0.001	-0.009
-473.259	-200.000	-0.031	0.174
-472.245	250.577	-0.079	-0.135
-471.230	56.347	0.087	-0.085
-470.216	-200.000	0.094	-0.451
-469.201	-200.000	-0.057	-0.333
-468.186	193.169	0.138	0.211
-467.172	123.033	0.189	0.239
-466.157	-64.859	0.215	0.088
-465.143	188.654	0.153	0.231
-464.128	-200.000	0.038	0.198
-463.113	-124.603	-0.262	0.041
-462.099	-138.643	0.334	-0.037
-461.084	-38.526	0.111	0.059
-460.070	98.603	-0.126	0.147
-459.055	-150.835	0.245	0.019
-458.040	21.793	-0.194	0.159
-457.026	69.212	0.074	0.077
-456.011	-81.855	-0.115	0.038
-454.997	44.076	0.076	0.070
-453.982	-22.873	0.307	-0.187
-452.968	-171.743	0.057	-0.002
-451.953	603.417	-0.065	-0.164
-450.938	180.573	-0.151	0.224
-449.924	-42.279	0.213	0.110
-448.909	530.195	-0.019	-0.046
-447.895	15.170	0.328	0.259
-446.880	-75.692	-0.153	-0.055
-445.865	-50.322	0.177	-0.084
-444.851	-200.000	-0.040	-0.201
-443.836	147.242	-0.071	-0.096
-442.822	-114.021	0.234	0.046
-441.807	-30.585	0.277	0.158
-440.792	136.497	0.086	0.113
-439.778	66.702	0.143	-0.147
-438.763	-163.551	-0.459	0.022
-437.749	-42.205	-0.221	0.114
-436.734	-52.775	0.058	-0.027
-435.719	-67.516	-0.394	0.156
-434.705	-76.228	0.164	-0.058
-433.690	17.951	0.042	-0.034
-432.676	-119.793	0.194	-0.034
-431.661	-1.282	0.194	-0.138
-430.646	-70.754	0.123	-0.047
-429.632	-83.275	-0.256	-0.083
-428.617	-85.506	0.244	0.077
-427.603	-26.094	-0.180	-0.107
-426.588	-44.462	0.308	-0.155
-425.573	-200.000	0.047	0.304
-424.559	-91.526	0.196	0.056
-423.544	246.464	-0.244	-0.415
-422.530	32.747	-0.308	-0.269
-421.515	800.000	-0.019	-0.074
-420.500	93.953	0.164	-0.187
-419.486	148.830	0.115	0.157
-418.471	60.671	-0.158	-0.158
-417.457	-66.096	0.480	-0.193
-416.442	13.922	-0.198	0.155
-415.428	48.658	-0.147	-0.139
-414.413	-121.593	-0.224	-0.037
-413.398	23.714	0.200	-0.166
-412.384	800.000	-0.093	0.292
-411.369	-30.432	-0.111	-0.063
-410.355	-200.000	-0.057	-0.346
-409.340	-200.000	0.014	0.085
-408.325	-63.458	0.184	0.076
-407.311	-76.280	-0.495	-0.176
-406.296	-200.000	-0.041	0.201
-405.282	-70.958	-0.168	-0.064
-404.267	-200.000	-0.017	-0.266
-403.252	-200.000	-0.002	-0.202
-402.238	800.000	-0.080	0.280
-401.223	-53.537	0.227	-0.105
-400.209	8.951	-0.185	0.141
-399.194	-88.519	0.266	-0.080
-398.179	-59.058	0.103	-0.045
-397.165	-200.000	-0.044	-0.223
-396.150	127.255	-0.122	0.156
-395.136	800.000	-0.046	0.156
-394.121	-134.623	-0.228	0.028
-393.106	-98.396	-0.217	-0.056
-392.092	-26.600	0.078	0.046
-391.077	800.000	0.074	-0.207
-390.063	-161.425	-0.256	0.013
-389.048	-42.889	-0.266	-0.136
-388.033	390.281	-0.148	-0.310
-387.019	-121.947	-0.174	0.029
-386.004	-113.098	-0.023	-0.005
-384.990	210.511	0.171	-0.270
-383.975	-200.000	0.167	0.001
-382.960	800.000	0.098	0.322
-381.946	-154.757	-0.258	-0.017
-380.931	800.000	0.071	-0.244
-379.917	-56.678	-0.137	-0.061
-378.902	42.431	-0.169	-0.155
-377.888	-167.752	0.248	0.010
-376.873	-200.000	-0.003	0.062
-375.858	-172.338	0.168	0.005
-374.844	-194.121	0.314	-0.003
-373.829	-151.297	-0.429	-0.032
-372.815	-113.358	-0.210	-0.041
-371.800	358.210	0.189	0.380
-370.785	800.000	-0.076	0.280
-369.771	27.765	-0.020	-0.017
-368.756	-90.145	0.199	-0.058
-367.742	698.507	-0.119	-0.314
-366.727	-200.000	-0.003	0.096
-365.712	27.159	0.111	0.094
-364.698	32.862	0.167	-0.146
-363.683	800.000	-0.038	0.151
-362.669	105.635	-0.321	0.381
-361.654	-70.094	-0.236	0.090
-360.639	-200.000	0.035	0.157
-359.625	585.011	0.057	-0.142
-358.610	-73.304	0.138	0.051
-357.596	-76.024	-0.258	-0.092
-356.581	-31.223	0.307	0.174
-355.566	-200.000	-0.021	0.151
-354.552	-20.734	0.061	-0.038
-353.537	-200.000	0.013	-0.077
-352.523	15.451	0.063	0.049
-351.508	557.941	-0.044	0.106
-350.493	-36.434	-0.297	0.161
-349.479	-48.673	-0.305	-0.147
-348.464	-75.117	0.362	-0.130
-347.450	-200.000	0.015	-0.259
-346.435	35.878	0.285	0.252
-345.420	229.648	-0.228	0.374
-344.406	-200.000	-0.017	-0.168
-343.391	-200.000	0.035	0.298
-342.377	642.359	0.134	-0.343
-341.362	170.121	-0.150	0.215
-340.348	14.066	0.044	0.034
-339.333	380.882	-0.066	-0.136
-338.318	-20.150	-0.167	-0.103
-337.304	800.000	0.045	-0.158
-336.289	800.000	-0.054	-0.213
-335.275	15.735	0.233	0.184
-334.260	-200.000	-0.007	0.047
-333.245	-33.422	-0.178	0.099
-332.231	-18.748	-0.320	0.200
-331.216	-200.000	0.003	0.048
-330.202	-151.497	0.366	-0.027
-329.187	80.272	-0.287	-0.310
-328.172	-36.814	-0.137	-0.074
-327.158	-100.703	0.257	-0.064
-326.143	-31.027	0.350	-0.198
-325.129	307.502	0.099	0.186
-324.114	-200.000	-0.037	0.268
-323.099	-110.834	0.201	0.042
-322.085	-17.409	0.221	-0.139
-321.070	130.689	-0.071	0.091
-320.056	-200.000	-0.045	-0.313
-319.041	132.388	-0.221	-0.286
-318.026	-110.275	0.120	0.025
-317.012	-180.282	-0.379	-0.008
-315.997	-200.000	-0.002	0.040
-314.983	104.211	0.118	0.140
-313.968	126.305	-0.263	-0.334
-312.953	533.535	0.059	0.141
-311.939	300.368	-0.062	-0.115
-310.924	-71.740	0.113	0.042
-309.910	-200.000	-0.013	-0.072
-308.895	83.719	0.106	-0.116
-307.880	724.486	0.029	0.079
-306.866	375.009	0.055	-0.113
-305.851	-200.000	0.064	-0.293
-304.837	-31.292	0.071	-0.040
-303.822	-200.000	-0.006	0.098
-302.807	-159.624	0.172	0.010
-301.793	3.118	-0.145	0.106
-300.778	172.763	0.132	0.190
-299.764	-200.000	0.041	0.350
-298.749	800.000	-0.045	0.139
-297.735	-102.366	-0.238	0.057
-296.720	-68.398	0.199	0.077
-295.705	800.000	0.035	0.141
-294.691	-175.217	0.259	0.007
-293.676	-69.236	0.135	0.052
-292.662	-21.828	-0.219	0.133
-291.647	-182.265	-0.362	-0.007
-290.632	-90.884	-0.159	0.046
-289.618	-200.000	-0.015	-0.147
-288.603	174.961	0.173	-0.251
-287.589	-200.000	0.032	0.141
-286.574	-148.197	-0.261	-0.022
-285.559	-200.000	-0.039	0.246
-284.545	787.974	0.115	0.316
-283.530	-200.000	0.002	0.229
-282.516	124.629	-0.221	0.278
-281.501	-55.658	-0.276	-0.124
-280.486	800.000	0.071	-0.304
-279.472	211.858	-0.055	0.088
-278.457	77.815	0.042	-0.045
-277.443	16.989	0.017	-0.013
-276.428	-200.000	0.019	-0.145
-275.413	-48.959	-0.231	0.111
-274.399	-19.262	0.341	-0.212
-273.384	-84.356	0.250	-0.079
-272.370	162.003	-0.286	-0.402
-271.355	83.487	0.152	0.166
-270.340	29.175	0.212	-0.180
-269.326	-108.574	-0.129	-0.028
-268.311	-48.009	-0.330	0.160
-267.297	-83.130	0.214	0.069
-266.282	639.468	-0.090	0.230
-265.267	334.855	-0.068	0.132
-264.253	-90.735	-0.305	0.088
-263.238	265.466	-0.097	0.169
-262.224	-153.758	-0.202	-0.014
-261.209	200.126	-0.096	-0.147
-260.195	-200.000	0.022	0.188
-259.180	11.367	0.054	0.042
-258.165	113.702	0.258	-0.314
-257.151	-200.000	-0.011	0.222
-256.136	336.536	0.074	0.143
-255.122	521.834	-0.109	0.255
-254.107	-53.136	0.061	0.028
-253.092	-200.000	-0.041	-0.192
-252.078	800.000	0.023	-0.094
-251.063	-123.474	-0.351	0.056
-250.049	245.378	0.138	0.232
-249.034	-48.932	-0.289	-0.139
-248.019	-159.652	-0.160	-0.009
-247.005	800.000	-0.091	-0.369
-245.990	-119.261	-0.178	-0.031
-244.976	-166.277	0.019	0.001
-243.961	-137.068	-0.421	0.048
-242.946	-94.699	-0.205	-0.056
-241.932	79.555	-0.051	-0.055
-240.917	142.260	0.099	0.131
-239.903	-200.000	0.030	-0.312
-238.888	-111.397	-0.369	-0.075
-237.873	70.670	-0.183	-0.189
-236.859	-62.483	0.246	-0.102
-235.844	-200.000	-0.037	-0.473
-234.830	-200.000	0.011	0.417
-233.815	424.858	-0.086	0.186
-232.800	800.000	0.032	0.106
-231.786	-7.158	-0.026	-0.018
-230.771	-109.572	-0.149	0.031
-229.757	107.917	0.259	0.308
-228.742	327.999	0.097	0.185
-227.727	566.643	0.105	-0.255
-226.713	142.571	-0.081	-0.108
-225.698	-27.560	-0.379	-0.220
-224.684	93.057	-0.071	-0.080
-223.669	72.647	0.243	0.254
-222.655	-200.000	0.020	0.327
-221.640	800.000	-0.101	0.380
-220.625	800.000	-0.142	-0.405
-219.611	202.299	0.110	0.169
-218.596	-200.000	0.009	0.143
-217.582	19.884	-0.292	0.235
-216.567	-108.163	-0.092	-0.020
-215.552	-176.591	0.160	-0.004
-214.538	16.746	-0.043	0.034
-213.523	261.987	-0.153	-0.265
-212.509	-128.810	-0.049	0.007
-211.494	-200.000	0.030	0.477
-210.479	33.289	0.269	0.234
-209.465	-200.000	0.015	-0.271
-208.450	-200.000	-0.039	0.256
-207.436	-200.000	0.268	-0.001
-206.421	-87.034	-0.272	-0.083
-205.406	800.000	-0.045	-0.138
-204.392	-200.000	0.036	-0.220
-203.377	8.479	-0.076	0.057
-202.363	282.971	0.284	0.509
-201.348	148.447	-0.087	0.118
-200.333	-39.513	-0.132	0.069
-199.319	-76.703	0.208	-0.073
-198.304	555.934	-0.072	-0.173
-197.290	-134.325	0.046	0.006
-196.275	-13.458	-0.076	0.049
-195.260	-72.413	-0.172	-0.064
-194.246	-5.933	0.151	0.103
-193.231	187.752	0.203	-0.302
-192.217	800.000	0.064	0.279
-191.202	253.070	-0.072	0.123
-190.187	233.861	0.173	0.285
-189.173	-50.809	0.159	0.074
-188.158	-116.396	0.287	-0.053
-187.144	757.917	0.149	0.403
-186.129	406.613	0.190	-0.401
-185.114	70.800	-0.085	-0.088
-184.100	-48.195	0.206	-0.099
-183.085	23.085	-0.198	-0.162
-182.071	759.139	-0.053	0.143
-181.056	-66.402	0.403	0.160
-180.042	-200.000	0.045	0.216
-179.027	-148.672	-0.070	0.006
-178.012	325.601	0.048	0.092
-176.998	290.661	-0.174	0.316
-175.983	-200.000	-0.053	0.252
-174.969	-101.321	-0.069	0.017
-173.954	657.517	0.085	0.217
-172.939	-18.683	-0.068	0.043
-171.925	1.612	0.052	-0.038
-170.910	-200.000	-0.008	0.153
-169.896	-26.388	-0.199	-0.117
-168.881	-59.804	-0.364	-0.155
-167.866	60.230	0.145	0.143
-166.852	30.776	0.185	-0.158
-165.837	130.601	0.039	0.050
-164.823	-49.932	0.381	0.180
-163.808	800.000	-0.100	-0.378
-162.793	-100.582	0.220	-0.054
-161.779	348.948	-0.026	0.051
-160.764	-200.000	-0.041	-0.349
-159.750	-9.604	-0.184	-0.123
-158.735	-200.000	-0.065	-0.302
-157.720	-140.838	-0.144	-0.015
-156.706	57.517	0.169	0.165
-155.691	-105.084	-0.293	-0.067
-154.677	-200.000	-0.014	0.125
-153.662	-169.025	0.070	0.003
-152.647	-199.095	-0.046	-0.000
-151.633	365.412	0.098	0.197
-150.618	33.344	-0.242	0.209
-149.604	-21.904	-0.238	-0.144
-148.589	-120.880	-0.357	-0.060
-147.574	83.492	0.191	0.207
-146.560	142.583	0.082	0.109
-145.545	-200.000	-0.014	-0.191
-144.531	49.345	0.338	0.317
-143.516	800.000	0.071	0.211
-142.502	533.784	-0.178	0.419
-141.487	-108.878	-0.133	-0.028
-140.472	137.134	-0.067	-0.088
-139.458	61.356	0.220	0.218
-138.443	800.000	-0.024	-0.080
-137.429	343.137	-0.079	0.153
-136.414	-135.274	-0.224	0.027
-135.399	-114.313	0.222	0.043
-134.385	-200.000	0.010	0.110
-133.370	-200.000	0.034	-0.224
-132.356	-91.771	0.062	-0.017
-131.341	800.000	-0.041	0.136
-130.326	104.741	-0.055	-0.064
-129.312	-86.524	0.236	0.072
-128.297	148.496	0.125	-0.168
-127.283	-76.308	-0.368	0.129
-126.268	46.427	0.199	0.184
-125.253	-173.584	-0.261	-0.008
-124.239	-140.152	-0.285	-0.030
-123.224	412.420	-0.199	-0.421
-122.210	-16.575	0.128	-0.080
