DTS Sentinel unit serial number:	SN413079Multiplexer serial number:	ORYXHardware model number:	OX4-SRSoftware version number:	ORYX F/W v4.00 Oryx Data Collector v3.7.2.0data status	okinstallation	princeton_trtdifferential loss correction	single-endedforward channel	channel 1reverse channel	N/Adate	2019/09/11time	20:28:11forward acquisition time	60.00reverse acquisition time	0.00gamma	496.2192k internal	0.2303k external	0.2303temperature offset calibration	1.0040default loss term (dB/km)	0.3790temperature slope calibration	1.0000multiplexer offset coefficient	1.0000multiplexer slope coefficient	1.0000fibre end	0.00T internal ref (°C)	37.70T ext. ref 1 (°C)	1.49T ext. ref 2 (°C)	31.19length (m)	temperature (°C)	Stokes	anti-Stokes-747.200	-89.420	-0.190	0.057
-746.185	-63.213	0.432	0.181
-745.171	800.000	0.054	0.226
-744.156	57.230	0.142	-0.141
-743.142	-71.012	-0.287	0.110
-742.127	340.941	0.107	0.213
-741.112	-38.981	0.111	-0.060
-740.098	-88.421	-0.029	-0.009
-739.083	-200.000	0.031	-0.146
-738.069	263.972	0.127	0.225
-737.054	561.701	-0.110	0.271
-736.039	37.504	-0.112	0.101
-735.025	381.733	-0.083	-0.174
-734.010	-200.000	0.008	0.161
-732.996	151.149	0.137	0.189
-731.981	-158.003	-0.102	0.006
-730.966	-58.524	-0.522	0.231
-729.952	-24.553	0.067	0.041
-728.937	310.708	-0.130	0.248
-727.923	76.556	-0.173	-0.187
-726.908	-72.553	-0.278	0.105
-725.894	-119.525	-0.356	0.063
-724.879	89.984	0.222	-0.252
-723.864	-91.021	0.205	-0.060
-722.850	-49.967	-0.065	0.031
-721.835	800.000	0.043	-0.156
-720.821	116.481	-0.153	-0.191
-719.806	742.029	-0.151	-0.413
-718.791	-61.625	0.154	0.066
-717.777	34.603	0.317	-0.282
-716.762	-123.280	-0.224	-0.036
-715.748	-21.246	-0.279	-0.173
-714.733	-111.274	-0.296	0.062
-713.718	-101.628	-0.214	0.053
-712.704	29.572	0.199	0.172
-711.689	-200.000	-0.042	-0.389
-710.675	-45.342	0.514	0.260
-709.660	-200.000	0.058	0.382
-708.645	-21.041	0.146	-0.091
-707.631	261.579	-0.097	0.171
-706.616	-51.494	0.465	0.221
-705.602	430.867	0.094	0.207
-704.587	-29.965	0.201	0.117
-703.572	107.230	-0.210	0.254
-702.558	-200.000	-0.076	0.411
-701.543	-36.611	0.197	-0.107
-700.529	-200.000	0.030	0.174
-699.514	184.867	-0.107	0.162
-698.499	41.846	-0.158	0.145
-697.485	800.000	-0.069	0.197
-696.470	214.103	0.103	0.166
-695.456	-200.000	-0.002	0.138
-694.441	800.000	-0.031	-0.127
-693.426	89.013	0.098	0.111
-692.412	-182.874	0.129	0.002
-691.397	24.014	0.097	-0.082
-690.383	97.485	-0.147	-0.172
-689.368	-0.467	0.077	0.056
-688.354	28.840	0.171	-0.147
-687.339	95.686	-0.166	0.193
-686.324	-200.000	-0.013	0.250
-685.310	-172.901	-0.248	-0.008
-684.295	-200.000	0.049	0.236
-683.281	-136.799	-0.226	-0.026
-682.266	800.000	-0.133	-0.510
-681.251	-200.000	-0.023	-0.409
-680.237	800.000	0.040	0.135
-679.222	-191.806	-0.554	0.006
-678.208	800.000	-0.060	-0.206
-677.193	-200.000	-0.006	-0.058
-676.178	55.098	-0.234	0.230
-675.164	56.809	0.101	0.100
-674.149	-154.656	0.077	-0.005
-673.135	25.408	-0.353	-0.298
-672.120	305.443	0.123	-0.232
-671.105	-152.650	-0.247	0.018
-670.091	251.656	0.131	-0.227
-669.076	210.197	-0.068	-0.108
-668.062	-77.114	-0.259	-0.092
-667.047	613.826	0.067	0.170
-666.032	-200.000	0.023	0.119
-665.018	373.652	-0.152	0.314
-664.003	63.089	-0.176	-0.179
-662.989	698.962	-0.093	-0.248
-661.974	-24.949	0.171	0.103
-660.959	-90.932	0.165	0.048
-659.945	-162.949	0.109	-0.005
-658.930	249.265	-0.184	-0.316
-657.916	-100.432	0.042	0.011
-656.901	134.893	-0.067	-0.089
-655.886	-54.115	-0.162	-0.075
-654.872	-151.188	-0.066	-0.005
-653.857	-117.446	0.056	-0.010
-652.843	59.297	0.116	0.116
-651.828	-138.687	-0.242	0.027
-650.814	800.000	0.035	-0.122
-649.799	-200.000	-0.042	-0.215
-648.784	-33.496	-0.293	0.165
-647.770	206.590	0.074	0.118
-646.755	-176.288	-0.046	0.001
-645.741	4.101	0.137	-0.102
-644.726	-82.017	-0.147	0.049
-643.711	225.714	-0.086	-0.142
-642.697	-200.000	0.045	0.325
-641.682	-43.575	-0.037	0.019
-640.668	654.666	0.095	0.247
-639.653	183.477	0.123	-0.185
-638.638	-200.000	0.047	-0.516
-637.624	13.401	0.316	0.249
-636.609	440.393	-0.073	-0.162
-635.595	-54.289	0.319	0.147
-634.580	525.106	0.036	-0.087
-633.565	-130.137	0.119	-0.016
-632.551	-200.000	-0.347	-0.001
-631.536	-87.718	-0.235	-0.072
-630.522	-153.043	-0.221	0.016
-629.507	-200.000	-0.056	-0.263
-628.492	220.241	0.168	0.273
-627.478	-141.504	0.022	-0.002
-626.463	800.000	0.099	-0.351
-625.449	32.341	-0.058	0.051
-624.434	-200.000	0.017	0.137
-623.419	800.000	0.093	-0.279
-622.405	728.240	0.062	-0.168
-621.390	-200.000	0.006	0.296
-620.376	-5.596	-0.077	0.053
-619.361	-175.812	0.344	0.009
-618.346	-0.914	0.245	0.176
-617.332	-112.477	-0.244	0.049
-616.317	800.000	-0.074	0.232
-615.303	-200.000	-0.014	0.263
-614.288	-48.942	0.154	0.075
-613.273	800.000	0.047	0.140
-612.259	-148.280	0.186	-0.016
-611.244	-27.457	0.098	-0.058
-610.230	-67.472	-0.197	-0.078
-609.215	-135.002	0.017	-0.002
-608.201	120.208	-0.252	-0.316
-607.186	58.058	0.116	-0.115
-606.171	34.165	0.270	0.238
-605.157	-94.140	0.072	0.020
-604.142	184.877	-0.109	0.164
-603.128	740.954	-0.067	-0.183
-602.113	-200.000	0.008	0.325
-601.098	800.000	-0.043	0.182
-600.084	-200.000	-0.033	-0.237
-599.069	169.425	-0.109	0.157
-598.055	-4.941	0.090	0.063
-597.040	-44.051	-0.292	-0.149
-596.025	-9.436	-0.076	-0.052
-595.011	284.140	-0.080	-0.145
-593.996	-123.810	-0.125	0.020
-592.982	42.688	0.419	0.386
-591.967	34.798	-0.238	-0.211
-590.952	184.141	0.090	0.134
-589.938	-114.130	-0.113	0.022
-588.923	718.127	0.099	-0.266
-587.909	-24.786	0.070	0.042
-586.894	-200.000	-0.015	0.104
-585.879	83.536	-0.148	0.163
-584.865	-200.000	0.029	0.529
-583.850	59.745	0.118	-0.118
-582.836	-110.569	-0.317	-0.067
-581.821	515.323	-0.066	0.155
-580.806	800.000	-0.027	-0.117
-579.792	-50.007	-0.235	-0.113
-578.777	-114.265	0.126	0.025
-577.763	1.433	-0.145	-0.106
-576.748	-200.000	-0.022	-0.124
-575.733	-37.634	-0.184	-0.099
-574.719	-9.640	-0.134	0.090
-573.704	-30.054	0.185	0.107
-572.690	-135.743	0.180	0.022
-571.675	-167.412	0.211	-0.009
-570.661	-200.000	-0.047	0.209
-569.646	-200.000	-0.032	-0.215
-568.631	-7.438	-0.056	-0.038
-567.617	-84.052	-0.271	0.087
-566.602	33.134	-0.133	-0.116
-565.588	254.828	0.106	0.184
-564.573	-144.392	-0.269	0.025
-563.558	-34.977	-0.287	0.158
-562.544	-200.000	-0.022	0.241
-561.529	61.696	-0.094	-0.095
-560.515	-200.000	-0.033	-0.207
-559.500	-102.193	-0.106	-0.026
-558.485	-31.953	0.113	-0.064
-557.471	725.996	-0.112	-0.301
-556.456	-64.421	0.086	-0.035
-555.442	800.000	-0.074	0.237
-554.427	800.000	-0.043	-0.165
-553.412	347.938	-0.042	-0.084
-552.398	251.571	-0.032	0.056
-551.383	-106.740	0.236	-0.053
-550.369	-36.906	-0.088	-0.048
-549.354	-28.032	-0.209	0.122
-548.339	-200.000	-0.065	0.345
-547.325	-43.697	0.213	0.108
-546.310	-169.014	-0.040	-0.001
-545.296	-33.060	-0.205	-0.115
-544.281	-65.388	0.290	0.118
-543.266	218.341	-0.024	0.039
-542.252	-200.000	0.013	0.115
-541.237	-200.000	-0.016	-0.525
-540.223	-3.810	0.129	-0.091
-539.208	-139.077	-0.399	-0.044
-538.193	1.366	-0.099	-0.072
-537.179	-200.000	-0.044	0.295
-536.164	-31.666	-0.114	0.065
-535.150	-200.000	0.036	-0.205
-534.135	-200.000	-0.053	-0.250
-533.121	347.023	0.110	-0.218
-532.106	-39.098	-0.086	0.045
-531.091	60.612	-0.173	0.174
-530.077	52.667	-0.221	0.213
-529.062	-68.693	0.170	0.066
-528.048	-93.232	0.095	-0.027
-527.033	-38.423	0.315	-0.168
-526.018	659.442	-0.187	0.485
-525.004	10.544	0.122	0.094
-523.989	599.525	-0.133	0.334
-522.975	29.581	0.133	-0.114
-521.960	-19.566	-0.199	-0.124
-520.945	-31.559	-0.096	0.055
-519.931	15.064	0.174	0.138
-518.916	12.715	0.254	-0.198
-517.902	-73.256	-0.076	-0.028
-516.887	-200.000	-0.014	0.118
-515.872	34.231	-0.056	0.049
-514.858	209.910	-0.154	0.244
-513.843	-65.190	0.410	0.167
-512.829	-16.995	0.270	-0.172
-511.814	424.281	-0.121	-0.262
-510.799	14.811	0.261	-0.206
-509.785	746.809	0.116	0.316
-508.770	800.000	-0.080	0.251
-507.756	-43.693	0.258	-0.131
-506.741	-200.000	0.013	0.071
-505.726	-200.000	-0.063	0.324
-504.712	-94.238	-0.402	-0.111
-503.697	-200.000	-0.004	0.059
-502.683	-200.000	-0.008	-0.271
-501.668	403.483	-0.053	-0.113
-500.653	-54.697	-0.246	-0.112
-499.639	126.344	0.054	0.068
-498.624	-147.563	0.042	0.004
-497.610	-146.319	0.111	0.010
-496.595	800.000	0.015	0.055
-495.581	-84.890	0.329	0.104
-494.566	-37.979	-0.336	0.180
-493.551	-58.827	0.112	0.049
-492.537	-136.110	-0.183	-0.022
-491.522	-200.000	0.061	0.406
-490.508	-54.087	0.162	0.074
-489.493	70.002	-0.132	-0.138
-488.478	-82.393	0.272	0.089
-487.464	-200.000	0.048	-0.458
-486.449	107.920	-0.177	0.213
-485.435	-33.092	0.263	0.147
-484.420	-71.671	-0.145	-0.054
-483.405	74.044	-0.092	0.098
-482.391	217.963	0.043	-0.069
-481.376	96.154	-0.127	-0.146
-480.362	114.969	0.163	-0.200
-479.347	-200.000	-0.029	0.206
-478.332	50.984	-0.159	-0.152
-477.318	232.995	-0.080	0.133
-476.303	-93.343	-0.208	0.058
-475.289	-83.229	0.116	0.038
-474.274	52.362	0.245	0.235
-473.259	800.000	0.027	-0.119
-472.245	800.000	-0.030	0.131
-471.230	54.679	0.053	-0.051
-470.216	490.745	0.150	0.347
-469.201	800.000	-0.064	-0.253
-468.186	-32.200	-0.098	0.055
-467.172	-148.466	0.018	-0.001
-466.157	23.670	0.179	0.148
-465.143	-200.000	-0.007	-0.100
-464.128	139.159	0.065	-0.087
-463.113	104.424	0.036	0.042
-462.099	547.445	-0.132	0.319
-461.084	-200.000	0.029	-0.333
-460.070	-200.000	0.001	0.150
-459.055	-46.430	-0.508	0.251
-458.040	-45.862	0.195	-0.097
-457.026	396.754	0.118	-0.249
-456.011	131.962	0.140	-0.181
-454.997	800.000	0.037	0.123
-453.982	-200.000	-0.001	-0.016
-452.968	-59.018	0.090	-0.039
-451.953	77.250	-0.199	0.214
-450.938	-182.104	0.101	0.002
-449.924	-125.520	-0.253	-0.039
-448.909	-107.082	0.375	-0.083
-447.895	-200.000	0.024	-0.107
-446.880	-107.636	-0.385	0.085
-445.865	-24.310	-0.184	0.110
-444.851	171.443	-0.260	-0.376
-443.836	800.000	0.030	-0.086
-442.822	266.388	0.134	-0.235
-441.807	-58.169	-0.040	-0.017
-440.792	-200.000	0.025	-0.265
-439.778	-126.933	0.252	0.037
-438.763	509.548	-0.233	0.546
-437.749	28.947	0.229	0.195
-436.734	-79.130	-0.354	0.121
-435.719	371.744	-0.158	0.323
-434.705	-200.000	0.011	-0.343
-433.690	-59.388	-0.030	-0.013
-432.676	-198.137	-0.400	0.002
-431.661	-200.000	0.052	-0.261
-430.646	-109.606	0.182	-0.039
-429.632	-141.919	0.190	0.019
-428.617	-36.670	-0.151	0.082
-427.603	-200.000	-0.010	0.332
-426.588	164.940	-0.338	0.480
-425.573	195.769	-0.088	0.135
-424.559	-200.000	0.018	0.168
-423.544	-200.000	-0.011	-0.101
-422.530	226.072	-0.121	0.197
-421.515	-88.190	-0.247	0.074
-420.500	-21.058	0.094	-0.058
-419.486	-200.000	0.038	0.239
-418.471	800.000	-0.089	-0.246
-417.457	327.711	-0.175	-0.337
-416.442	-44.384	0.269	0.136
-415.428	-200.000	0.003	-0.516
-414.413	-48.239	-0.188	-0.091
-413.398	564.882	-0.134	0.326
-412.384	83.720	0.035	0.038
-411.369	7.186	-0.081	-0.061
-410.355	184.466	-0.175	0.260
-409.340	-79.145	-0.189	0.065
-408.325	-27.119	0.158	0.092
-407.311	800.000	-0.066	-0.220
-406.296	21.957	-0.136	-0.111
-405.282	-200.000	-0.037	-0.270
-404.267	-133.171	-0.153	-0.019
-403.252	-200.000	0.080	-0.381
-402.238	113.545	-0.053	0.064
-401.223	-179.389	-0.089	0.002
-400.209	800.000	0.061	0.195
-399.194	-113.018	-0.312	-0.062
-398.179	130.593	-0.054	-0.070
-397.165	-200.000	-0.090	-0.403
-396.150	-110.856	-0.203	-0.042
-395.136	-79.316	-0.112	-0.038
-394.121	-155.461	0.304	-0.020
-393.106	800.000	0.109	-0.355
-392.092	675.631	0.073	0.191
-391.077	-67.375	-0.167	0.066
-390.063	-153.350	0.072	0.005
-389.048	445.992	0.082	0.182
-388.033	226.595	0.095	-0.155
-387.019	-41.511	-0.388	0.201
-386.004	-18.488	-0.082	-0.051
-384.990	-104.823	0.301	0.069
-383.975	89.278	-0.192	-0.215
-382.960	800.000	0.066	0.230
-381.946	-200.000	0.041	-0.326
-380.931	173.792	0.098	0.142
-379.917	-179.580	0.258	-0.006
-378.902	627.725	0.087	-0.221
-377.888	131.864	0.198	0.255
-376.873	-103.886	0.148	-0.035
-375.858	512.839	0.020	-0.047
-374.844	-144.860	-0.216	-0.020
-373.829	456.017	0.107	-0.238
-372.815	-164.819	-0.096	0.004
-371.800	129.694	-0.130	0.167
-370.785	0.546	0.333	-0.239
-369.771	135.069	-0.178	0.232
-368.756	320.585	0.040	0.075
-367.742	-142.716	0.238	0.023
-366.727	-14.909	0.169	0.109
-365.712	300.320	0.163	-0.303
-364.698	-200.000	0.009	-0.110
-363.683	-97.465	-0.028	-0.007
-362.669	138.891	-0.198	0.261
-361.654	-131.616	0.147	0.019
-360.639	-200.000	-0.022	-0.226
-359.625	-200.000	-0.031	-0.321
-358.610	560.188	0.029	0.071
-357.596	-60.984	0.132	0.056
-356.581	379.461	-0.025	0.052
-355.566	25.281	0.183	-0.152
-354.552	-98.393	-0.217	-0.056
-353.537	175.993	0.099	0.144
-352.523	800.000	0.064	-0.212
-351.508	-144.885	0.272	-0.025
-350.493	278.645	0.103	-0.185
-349.479	-128.864	-0.075	0.011
-348.464	-114.839	-0.176	-0.034
-347.450	-134.218	0.244	-0.030
-346.435	-130.775	0.255	0.034
-345.420	-122.842	0.085	-0.014
-344.406	-181.439	0.403	0.008
-343.391	-129.165	0.345	0.048
-342.377	-200.000	-0.068	-0.511
-341.362	-17.504	-0.243	-0.153
-340.348	800.000	-0.050	0.177
-339.333	-101.197	-0.140	0.034
-338.318	137.964	0.232	0.304
-337.304	665.400	0.099	0.256
-336.289	-60.209	0.342	0.146
-335.275	127.748	0.201	-0.256
-334.260	217.867	-0.179	0.287
-333.245	-34.347	0.088	-0.048
-332.231	600.976	-0.053	-0.133
-331.216	-200.000	0.010	0.132
-330.202	-200.000	0.196	-0.001
-329.187	-159.166	0.460	0.026
-328.172	-17.565	0.118	-0.074
-327.158	800.000	-0.114	-0.360
-326.143	705.920	0.083	-0.219
-325.129	-135.203	-0.238	-0.029
-324.114	317.888	-0.014	-0.027
-323.099	10.817	-0.422	-0.323
-322.085	-107.586	-0.354	0.078
-321.070	239.165	-0.153	0.254
-320.056	-86.824	0.378	-0.116
-319.041	510.974	-0.125	0.291
-318.026	-149.113	0.117	0.009
-317.012	-200.000	-0.047	-0.226
-315.997	800.000	-0.076	-0.301
-314.983	800.000	-0.029	0.100
-313.968	-200.000	-0.017	0.140
-312.953	-200.000	0.045	-0.286
-311.939	5.950	0.034	-0.025
-310.924	-136.277	-0.179	-0.021
-309.910	260.911	0.105	0.182
-308.895	201.671	0.105	0.162
-307.880	0.292	0.130	-0.093
-306.866	-8.945	0.161	-0.108
-305.851	-15.546	-0.117	0.075
-304.837	-200.000	-0.000	0.320
-303.822	800.000	0.043	-0.150
-302.807	39.395	-0.267	0.239
-301.793	-200.000	0.007	0.151
-300.778	507.411	0.039	-0.091
-299.764	-55.601	-0.153	0.069
-298.749	-141.887	-0.320	0.032
-297.735	-52.044	-0.190	0.088
-296.720	-200.000	-0.017	-0.107
-295.705	-153.377	0.407	-0.028
-294.691	643.455	0.042	-0.108
-293.676	199.890	0.130	0.199
-292.662	-200.000	-0.047	-0.206
-291.647	-144.542	-0.288	-0.027
-290.632	350.719	-0.155	-0.307
-289.618	-193.234	-0.298	-0.003
-288.603	-174.293	0.262	-0.008
-287.589	-28.596	0.260	0.150
-286.574	269.684	0.214	0.376
-285.559	-124.058	0.173	-0.027
-284.545	179.788	-0.030	0.044
-283.530	136.771	0.099	-0.130
-282.516	-1.093	0.190	-0.134
-281.501	800.000	0.030	-0.123
-280.486	-180.971	-0.353	0.007
-279.472	48.532	0.244	0.229
-278.457	-125.196	-0.246	-0.038
-277.443	125.139	0.080	-0.101
-276.428	-200.000	-0.009	-0.120
-275.413	800.000	0.052	-0.175
-274.399	-9.303	0.157	0.105
-273.384	44.856	0.172	0.158
-272.370	-80.392	-0.168	0.056
-271.355	63.719	0.109	-0.110
-270.340	81.649	-0.193	-0.208
-269.326	-154.561	-0.119	0.008
-268.311	-99.068	-0.304	0.077
-267.297	-117.402	0.075	-0.014
-266.282	83.400	0.235	0.255
-265.267	71.395	-0.094	0.098
-264.253	72.785	-0.055	0.057
-263.238	-200.000	0.024	-0.141
-262.224	73.926	-0.258	-0.271
-261.209	-200.000	-0.002	0.044
-260.195	-18.021	-0.138	0.087
-259.180	-65.650	-0.252	-0.101
-258.165	-122.651	-0.239	-0.039
-257.151	129.653	-0.331	-0.423
-256.136	-37.511	-0.085	0.045
-255.122	800.000	0.115	-0.338
-254.107	-101.360	-0.266	0.065
-253.092	-200.000	0.009	-0.102
-252.078	800.000	-0.081	0.258
-251.063	228.062	-0.079	0.129
-250.049	-17.372	0.162	-0.102
-249.034	473.776	0.013	0.029
-248.019	446.636	-0.071	-0.156
-247.005	188.553	0.157	-0.235
-245.990	552.863	-0.046	-0.110
-244.976	-200.000	0.047	0.290
-243.961	89.327	-0.105	-0.117
-242.946	58.931	0.110	0.108
-241.932	-200.000	-0.068	0.392
-240.917	-200.000	0.049	-0.293
-239.903	-164.177	-0.226	-0.010
-238.888	-200.000	-0.019	0.236
-237.873	800.000	0.088	-0.289
-236.859	800.000	0.081	-0.232
-235.844	19.132	0.198	-0.158
-234.830	800.000	0.054	0.179
-233.815	457.349	-0.040	-0.090
-232.800	15.692	0.179	-0.140
-231.786	-87.072	0.183	-0.056
-230.771	-21.519	-0.254	0.155
-229.757	433.857	-0.155	-0.336
-228.742	800.000	0.041	0.121
-227.727	-16.857	0.228	-0.144
-226.713	-26.557	-0.204	-0.119
-225.698	-200.000	-0.043	-0.270
-224.684	-43.169	0.213	-0.108
-223.669	36.950	0.108	0.095
-222.655	42.304	0.165	0.150
-221.640	-94.265	0.112	-0.031
-220.625	12.978	-0.127	0.098
-219.611	1.049	-0.086	0.061
-218.596	-200.000	-0.008	-0.133
-217.582	-25.481	-0.249	-0.147
-216.567	-200.000	0.264	-0.000
-215.552	-200.000	0.021	0.209
-214.538	-43.731	0.248	-0.125
-213.523	800.000	0.106	0.292
-212.509	-52.972	0.170	0.078
-211.494	-200.000	-0.022	0.123
-210.479	82.654	-0.039	0.042
-209.465	-200.000	-0.012	0.081
-208.450	-117.090	0.217	-0.039
-207.436	-200.000	0.033	-0.149
-206.421	-200.000	0.006	0.074
-205.406	-34.044	0.248	0.136
-204.392	-200.000	-0.006	0.308
-203.377	-96.634	-0.449	-0.118
-202.363	-92.877	0.173	-0.048
-201.348	-125.816	0.497	-0.075
-200.333	-86.164	-0.393	-0.121
-199.319	-153.543	0.189	0.013
-198.304	-14.029	0.181	-0.116
-197.290	-55.200	0.204	-0.091
-196.275	-200.000	-0.009	0.392
-195.260	352.966	0.086	-0.170
-194.246	329.073	-0.094	-0.180
-193.231	-4.417	0.251	-0.173
-192.217	-166.109	-0.127	0.005
-191.202	-114.153	-0.099	-0.019
-190.187	-200.000	-0.023	-0.429
-189.173	-85.978	-0.217	0.067
-188.158	-155.071	0.404	-0.026
-187.144	42.165	-0.130	-0.117
-186.129	726.990	-0.096	0.256
-185.114	-145.196	0.409	-0.037
-184.100	-200.000	-0.030	-0.362
-183.085	-200.000	0.001	-0.182
-182.071	800.000	-0.018	-0.068
-181.056	30.600	-0.095	0.081
-180.042	-70.114	0.347	0.132
-179.027	800.000	0.073	0.246
-178.012	730.495	0.044	0.118
-176.998	-7.442	0.177	0.119
-175.983	-200.000	0.027	0.377
-174.969	-8.229	0.113	-0.076
-173.954	-200.000	0.008	0.368
-172.939	297.358	-0.118	0.216
-171.925	800.000	-0.058	0.233
-170.910	102.568	0.031	-0.036
-169.896	-47.528	-0.142	-0.069
-168.881	319.129	-0.073	0.137
-167.866	-111.001	-0.235	0.048
-166.852	-65.406	-0.148	0.059
-165.837	-200.000	0.008	0.275
-164.823	-200.000	-0.035	-0.170
-163.808	800.000	0.022	-0.083
-162.793	271.126	0.131	-0.229
-161.779	75.683	-0.040	0.042
-160.764	763.872	-0.079	0.213
-159.750	-58.723	0.165	-0.071
-158.735	-200.000	0.045	-0.385
-157.720	116.961	-0.058	0.071
-156.706	526.986	-0.094	-0.221
-155.691	-200.000	-0.010	0.076
-154.677	-72.137	0.159	0.059
-153.662	-17.601	0.157	-0.098
-152.647	800.000	0.071	0.291
-151.633	6.338	-0.024	-0.018
-150.618	236.043	0.334	0.549
-149.604	16.632	-0.187	0.147
-148.589	-200.000	0.003	0.381
-147.574	-99.250	0.317	-0.080
-146.560	-200.000	0.036	0.189
-145.545	146.526	-0.098	0.131
-144.531	338.961	0.096	-0.186
-143.516	-142.865	0.535	0.052
-142.502	-51.960	-0.273	0.126
-141.487	297.240	-0.195	0.357
-140.472	-6.562	0.306	0.207
-139.458	90.476	0.199	-0.222
-138.443	195.176	-0.105	0.159
-137.429	-82.481	0.229	-0.074
-136.414	213.708	-0.074	-0.116
-135.399	-200.000	-0.007	-0.127
-134.385	-33.814	-0.144	0.079
-133.370	800.000	0.043	-0.176
-132.356	192.523	0.098	0.147
-131.341	-200.000	-0.003	0.155
-130.326	23.050	0.120	0.098
-129.312	72.290	-0.165	0.171
-128.297	69.085	0.135	-0.138
-127.283	244.922	-0.157	-0.263
-126.268	53.754	0.086	0.082
-125.253	800.000	0.063	0.216
-124.239	146.516	0.074	-0.098
-123.224	156.633	0.111	-0.153
-122.210	42.535	0.194	0.176
