DTS Sentinel unit serial number:	SN413079Multiplexer serial number:	ORYXHardware model number:	OX4-SRSoftware version number:	ORYX F/W v4.00 Oryx Data Collector v3.7.2.0data status	okinstallation	princeton_trtdifferential loss correction	single-endedforward channel	channel 1reverse channel	N/Adate	2019/09/12time	02:12:11forward acquisition time	60.00reverse acquisition time	0.00gamma	496.2192k internal	0.2321k external	0.2321temperature offset calibration	1.0077default loss term (dB/km)	0.3790temperature slope calibration	1.0000multiplexer offset coefficient	1.0000multiplexer slope coefficient	1.0000fibre end	0.00T internal ref (°C)	32.69T ext. ref 1 (°C)	2.06T ext. ref 2 (°C)	27.43length (m)	temperature (°C)	Stokes	anti-Stokes-747.200	-146.268	0.193	0.017
-746.185	-200.000	0.021	0.121
-745.171	221.002	0.050	0.082
-744.156	539.305	-0.036	0.086
-743.142	103.464	-0.132	-0.156
-742.127	-200.000	0.004	-0.088
-741.112	278.625	-0.266	0.480
-740.098	-200.000	-0.045	0.366
-739.083	800.000	-0.119	0.369
-738.069	13.566	-0.260	0.204
-737.054	278.019	0.142	0.255
-736.039	356.300	0.088	-0.177
-735.025	144.662	-0.088	0.119
-734.010	-22.932	0.118	-0.072
-732.996	-82.078	-0.316	-0.104
-731.981	4.992	-0.067	0.050
-730.966	-30.375	-0.167	-0.096
-729.952	73.782	-0.309	-0.327
-728.937	118.293	-0.120	0.149
-727.923	-63.766	-0.087	-0.036
-726.908	-131.884	-0.279	-0.037
-725.894	-63.536	-0.418	-0.173
-724.879	-51.832	0.124	0.058
-723.864	309.357	-0.045	-0.084
-722.850	119.193	0.233	-0.291
-721.835	38.611	-0.127	0.115
-720.821	-200.000	-0.015	-0.349
-719.806	-46.453	0.112	0.056
-718.791	-75.527	-0.199	-0.072
-717.777	-200.000	-0.003	0.025
-716.762	800.000	0.063	-0.263
-715.748	-79.297	0.108	0.037
-714.733	3.351	0.150	0.110
-713.718	-141.343	-0.451	0.046
-712.704	-200.000	0.007	0.227
-711.689	74.003	0.083	0.088
-710.675	800.000	0.162	0.533
-709.660	-200.000	-0.047	-0.354
-708.645	-55.528	0.336	-0.152
-707.631	10.129	0.208	0.159
-706.616	-84.325	-0.184	0.059
-705.602	-106.249	-0.435	0.098
-704.587	-81.901	-0.104	-0.034
-703.572	130.636	0.061	-0.078
-702.558	246.503	-0.190	-0.323
-701.543	210.908	0.106	-0.169
-700.529	238.401	-0.135	-0.227
-699.514	174.673	-0.238	-0.348
-698.499	194.434	0.073	-0.112
-697.485	-200.000	-0.036	0.225
-696.470	800.000	0.067	0.213
-695.456	-158.833	0.184	-0.011
-694.441	20.373	0.131	-0.107
-693.426	161.457	-0.194	0.274
-692.412	302.177	-0.080	-0.150
-691.397	14.256	0.215	-0.169
-690.383	-90.493	-0.091	-0.026
-689.368	64.377	0.139	-0.142
-688.354	-200.000	-0.006	0.032
-687.339	255.958	-0.061	-0.106
-686.324	56.591	-0.226	-0.222
-685.310	-21.124	-0.342	0.211
-684.295	472.442	0.041	-0.093
-683.281	8.018	0.158	0.119
-682.266	-110.007	-0.330	-0.070
-681.251	-200.000	-0.012	0.146
-680.237	27.188	0.161	0.136
-679.222	-25.495	0.089	-0.053
-678.208	265.943	0.106	0.187
-677.193	-200.000	-0.057	0.254
-676.178	73.346	-0.052	-0.055
-675.164	-74.053	0.185	0.068
-674.149	343.068	0.047	-0.093
-673.135	43.745	-0.159	0.147
-672.120	32.692	-0.029	-0.025
-671.105	-72.961	-0.142	-0.052
-670.091	-200.000	-0.046	-0.334
-669.076	541.986	-0.078	-0.188
-668.062	-65.107	0.133	0.054
-667.047	329.351	0.111	-0.215
-666.032	800.000	0.030	-0.093
-665.018	110.959	-0.113	-0.137
-664.003	235.631	-0.060	-0.099
-662.989	-200.000	-0.016	-0.142
-661.974	424.355	-0.128	-0.277
-660.959	-110.144	-0.536	0.113
-659.945	-108.716	-0.420	-0.091
-658.930	-117.967	-0.230	-0.041
-657.916	527.865	0.090	-0.215
-656.901	800.000	-0.106	-0.389
-655.886	6.407	0.315	-0.236
-654.872	6.295	0.139	-0.104
-653.857	101.084	0.182	-0.213
-652.843	-68.235	-0.256	0.100
-651.828	800.000	-0.067	0.196
-650.814	702.080	0.062	-0.164
-649.799	90.988	0.084	-0.095
-648.784	21.879	0.192	-0.158
-647.770	86.993	-0.243	-0.271
-646.755	6.905	-0.290	-0.218
-645.741	-200.000	-0.019	0.098
-644.726	182.979	-0.202	-0.300
-643.711	-170.510	0.264	-0.009
-642.697	-200.000	-0.037	0.242
-641.682	-135.449	-0.240	0.029
-640.668	-153.669	-0.316	-0.022
-639.653	375.044	0.253	-0.519
-638.638	149.074	0.081	0.111
-637.624	-200.000	-0.026	-0.355
-636.609	-94.680	0.108	0.030
-635.595	90.303	0.113	0.127
-634.580	-39.319	0.272	-0.144
-633.565	-200.000	-0.035	-0.394
-632.551	-200.000	-0.007	-0.093
-631.536	54.856	-0.154	0.149
-630.522	-139.746	-0.160	0.017
-629.507	-107.561	-0.222	-0.049
-628.492	483.054	-0.130	-0.298
-627.478	-19.440	0.047	0.030
-626.463	-200.000	0.025	0.218
-625.449	-18.375	0.136	-0.085
-624.434	-137.518	0.180	0.020
-623.419	-28.216	0.113	0.066
-622.405	-116.885	-0.601	0.111
-621.390	-200.000	0.026	-0.230
-620.376	-128.292	-0.199	0.029
-619.361	24.220	0.092	0.077
-618.346	800.000	0.057	-0.180
-617.332	-40.390	-0.290	-0.152
-616.317	-122.344	0.110	0.018
-615.303	-123.734	-0.195	0.031
-614.288	-86.999	0.249	0.076
-613.273	-200.000	-0.009	-0.116
-612.259	259.232	0.064	0.111
-611.244	800.000	-0.039	-0.120
-610.230	591.508	0.058	0.145
-609.215	24.090	0.189	0.157
-608.201	-173.623	-0.416	0.013
-607.186	800.000	0.098	-0.353
-606.171	137.253	-0.032	-0.041
-605.157	162.333	-0.050	0.071
-604.142	-21.200	0.161	-0.099
-603.128	-34.431	-0.342	-0.188
-602.113	-152.560	-0.077	0.006
-601.098	501.856	-0.143	-0.332
-600.084	-200.000	-0.006	0.364
-599.069	-200.000	0.035	-0.178
-598.055	773.011	-0.127	-0.348
-597.040	-11.317	0.258	-0.171
-596.025	-200.000	-0.012	0.062
-595.011	-124.235	-0.290	0.046
-593.996	89.414	0.206	-0.231
-592.982	-70.698	-0.083	0.031
-591.967	128.139	-0.057	0.074
-590.952	41.424	0.097	0.088
-589.938	-47.845	-0.231	-0.112
-588.923	-113.634	0.368	-0.072
-587.909	-200.000	0.018	-0.202
-586.894	47.365	-0.233	-0.218
-585.879	184.473	0.104	-0.155
-584.865	127.974	-0.081	-0.104
-583.850	-31.306	0.303	-0.171
-582.836	147.867	-0.257	-0.348
-581.821	-200.000	-0.010	0.216
-580.806	800.000	-0.010	-0.028
-579.792	-67.370	0.394	-0.156
-578.777	-95.391	-0.134	0.036
-577.763	104.699	-0.193	0.229
-576.748	-60.792	-0.103	0.044
-575.733	212.934	0.056	0.089
-574.719	80.882	0.224	-0.243
-573.704	-95.357	-0.099	-0.027
-572.690	519.261	-0.067	0.158
-571.675	800.000	0.096	-0.324
-570.661	-148.476	0.143	0.012
-569.646	-76.160	-0.097	-0.034
-568.631	-78.822	0.248	-0.085
-567.617	73.628	0.158	0.166
-566.602	12.995	-0.164	-0.128
-565.588	-200.000	0.005	0.171
-564.573	83.136	-0.047	0.051
-563.558	-200.000	-0.076	-0.500
-562.544	-200.000	-0.000	-0.342
-561.529	25.150	-0.249	-0.208
-560.515	-200.000	-0.008	-0.424
-559.500	-169.800	-0.195	0.007
-558.485	-66.542	0.072	0.029
-557.471	-64.856	-0.244	0.099
-556.456	352.457	0.125	-0.248
-555.442	-7.745	-0.276	-0.187
-554.427	-82.746	0.323	0.105
-553.412	-38.948	-0.077	0.041
-552.398	194.858	0.103	0.157
-551.383	242.283	0.080	0.135
-550.369	266.401	-0.142	0.249
-549.354	232.192	0.141	0.232
-548.339	72.841	-0.135	0.142
-547.325	-52.578	0.505	0.234
-546.310	-114.249	0.340	-0.066
-545.296	23.389	-0.398	0.328
-544.281	79.806	-0.079	-0.086
-543.266	800.000	0.016	-0.059
-542.252	62.776	-0.204	0.204
-541.237	3.401	-0.260	-0.190
-540.223	270.572	0.096	-0.169
-539.208	0.286	0.051	-0.037
-538.193	9.166	-0.052	-0.039
-537.179	215.060	-0.071	-0.113
-536.164	-40.155	-0.310	0.162
-535.150	-104.314	-0.126	-0.029
-534.135	321.364	-0.066	-0.126
-533.121	-157.302	0.109	0.007
-532.106	249.597	0.051	0.086
-531.091	-143.179	-0.036	0.003
-530.077	-200.000	0.030	0.354
-529.062	92.467	-0.288	0.325
-528.048	85.144	0.125	0.137
-527.033	-47.738	-0.193	0.094
-526.018	450.167	-0.145	0.320
-525.004	8.238	-0.312	-0.235
-523.989	374.190	-0.071	0.144
-522.975	-49.615	-0.147	0.070
-521.960	176.952	0.029	0.043
-520.945	-200.000	-0.048	-0.267
-519.931	-3.490	-0.098	-0.068
-518.916	-119.679	0.237	0.041
-517.902	458.708	0.054	-0.121
-516.887	-101.368	0.068	0.017
-515.872	800.000	-0.052	-0.169
-514.858	35.636	0.117	0.103
-513.843	-56.936	-0.147	0.065
-512.829	800.000	0.078	0.264
-511.814	277.921	-0.036	0.065
-510.799	-200.000	0.005	0.294
-509.785	-6.190	0.133	-0.091
-508.770	800.000	-0.055	0.217
-507.756	-200.000	-0.008	0.376
-506.741	424.327	0.063	0.136
-505.726	83.306	-0.213	-0.233
-504.712	651.365	0.137	0.352
-503.697	-153.907	-0.086	0.006
-502.683	-200.000	0.026	0.264
-501.668	34.051	0.054	-0.047
-500.653	-31.986	-0.186	0.104
-499.639	267.876	-0.159	0.279
-498.624	-10.424	0.149	-0.099
-497.610	274.060	-0.095	0.169
-496.595	-155.726	0.270	-0.017
-495.581	800.000	-0.009	-0.030
-494.566	-125.982	0.440	-0.066
-493.551	9.632	-0.198	0.150
-492.537	2.332	-0.084	-0.061
-491.522	-200.000	0.001	-0.085
-490.508	-200.000	-0.027	-0.165
-489.493	-64.283	-0.227	0.093
-488.478	33.324	0.230	0.200
-487.464	-36.634	0.303	0.163
-486.449	-53.491	-0.308	-0.141
-485.435	32.422	-0.109	-0.094
-484.420	-200.000	-0.106	-0.001
-483.405	127.981	0.092	0.117
-482.391	800.000	0.090	-0.369
-481.376	-103.977	0.082	0.019
-480.362	-181.438	-0.079	-0.002
-479.347	800.000	0.011	0.033
-478.332	45.863	0.034	0.031
-477.318	-16.865	-0.399	-0.252
-476.303	-94.346	-0.240	-0.066
-475.289	586.664	0.046	0.114
-474.274	-44.918	-0.245	-0.122
-473.259	-26.494	0.006	-0.004
-472.245	-200.000	-0.087	-0.451
-471.230	64.495	0.144	-0.145
-470.216	-200.000	0.012	-0.071
-469.201	800.000	0.061	0.239
-468.186	82.389	0.131	-0.142
-467.172	-72.349	-0.234	-0.087
-466.157	-200.000	-0.027	0.143
-465.143	-53.821	0.408	-0.186
-464.128	-35.389	0.061	0.033
-463.113	127.512	-0.135	-0.171
-462.099	30.642	-0.246	0.211
-461.084	800.000	-0.126	0.358
-460.070	-200.000	-0.021	0.273
-459.055	253.560	-0.124	0.211
-458.040	127.299	0.162	0.205
-457.026	-33.984	0.212	-0.117
-456.011	-7.202	0.118	-0.080
-454.997	-200.000	-0.001	0.111
-453.982	452.116	-0.103	-0.228
-452.968	-40.124	-0.244	-0.127
-451.953	-200.000	-0.029	0.415
-450.938	475.577	-0.019	0.043
-449.924	579.725	-0.064	0.157
-448.909	-145.118	0.213	0.019
-447.895	-72.864	-0.108	0.040
-446.880	-98.793	0.105	0.027
-445.865	800.000	-0.023	0.066
-444.851	35.089	0.212	0.186
-443.836	12.456	-0.306	-0.235
-442.822	169.473	-0.184	-0.263
-441.807	-105.014	-0.325	0.074
-440.792	67.101	-0.052	0.053
-439.778	-126.819	-0.338	0.050
-438.763	800.000	0.053	-0.213
-437.749	78.212	0.101	-0.108
-436.734	160.078	0.185	0.258
-435.719	-36.660	-0.299	-0.161
-434.705	-24.809	0.214	0.127
-433.690	-124.883	0.245	-0.038
-432.676	67.673	0.041	0.042
-431.661	-200.000	-0.078	0.483
-430.646	63.355	0.190	-0.190
-429.632	-200.000	-0.291	0.001
-428.617	-138.393	-0.474	-0.052
-427.603	-127.013	0.498	-0.073
-426.588	291.363	0.139	-0.252
-425.573	-200.000	0.017	-0.138
-424.559	-79.957	-0.236	0.079
-423.544	-200.000	0.034	-0.224
-422.530	28.251	0.180	0.152
-421.515	79.684	0.174	0.187
-420.500	6.714	0.180	0.134
-419.486	-200.000	0.024	-0.342
-418.471	-107.765	0.237	-0.052
-417.457	-200.000	0.044	0.203
-416.442	314.536	-0.058	-0.108
-415.428	467.880	-0.035	0.079
-414.413	126.828	0.148	-0.187
-413.398	800.000	0.009	0.038
-412.384	-200.000	0.016	0.248
-411.369	198.755	-0.063	-0.096
-410.355	-200.000	-0.005	-0.034
-409.340	143.538	0.121	-0.161
-408.325	-137.359	0.085	0.010
-407.311	-44.882	0.194	0.097
-406.296	377.645	0.015	-0.030
-405.282	186.872	0.050	0.074
-404.267	785.948	-0.131	0.359
-403.252	-124.824	-0.214	0.033
-402.238	-45.275	0.090	-0.044
-401.223	-200.000	0.025	0.252
-400.209	166.365	-0.156	-0.221
-399.194	33.194	0.343	0.296
-398.179	176.893	0.221	0.320
-397.165	-36.539	0.123	0.066
-396.150	-100.271	0.075	-0.018
-395.136	-33.239	-0.225	-0.124
-394.121	58.441	-0.366	-0.358
-393.106	800.000	0.026	0.097
-392.092	800.000	-0.064	-0.261
-391.077	420.504	-0.108	-0.231
-390.063	206.165	0.232	-0.360
-389.048	108.202	0.081	0.096
-388.033	686.063	-0.101	-0.263
-387.019	-200.000	-0.013	-0.128
-386.004	-200.000	-0.016	0.296
-384.990	121.799	-0.005	-0.006
-383.975	223.717	-0.091	-0.146
-382.960	800.000	0.058	-0.225
-381.946	73.210	0.086	0.090
-380.931	15.958	-0.068	0.053
-379.917	25.258	-0.160	-0.132
-378.902	32.092	0.194	-0.167
-377.888	-5.051	0.169	0.116
-376.873	-50.710	-0.162	0.076
-375.858	800.000	-0.022	0.093
-374.844	-75.088	0.212	-0.076
-373.829	-187.923	-0.407	0.005
-372.815	-200.000	0.012	0.136
-371.800	-200.000	0.000	0.032
-370.785	-200.000	-0.015	0.116
-369.771	-161.334	-0.108	0.006
-368.756	-200.000	-0.056	-0.277
-367.742	-109.676	0.293	-0.061
-366.727	-71.012	0.198	-0.074
-365.712	34.504	0.295	0.257
-364.698	-200.000	0.008	-0.213
-363.683	-200.000	-0.022	0.296
-362.669	23.214	0.139	-0.114
-361.654	800.000	0.086	0.292
-360.639	-38.932	0.029	-0.015
-359.625	-200.000	0.010	0.257
-358.610	-174.393	-0.085	0.002
-357.596	17.542	0.304	0.241
-356.581	543.688	-0.144	0.343
-355.566	-173.575	-0.340	-0.010
-354.552	-200.000	0.007	0.225
-353.537	115.489	0.094	-0.114
-352.523	800.000	0.074	0.228
-351.508	40.036	-0.181	-0.162
-350.493	-180.498	-0.292	-0.006
-349.479	800.000	-0.015	-0.051
-348.464	800.000	0.082	-0.340
-347.450	262.155	-0.117	0.202
-346.435	245.496	-0.173	-0.290
-345.420	-8.825	0.165	0.110
-344.406	-198.903	0.394	0.002
-343.391	137.019	0.173	0.225
-342.377	9.925	-0.132	-0.099
-341.362	37.162	0.071	-0.063
-340.348	-41.353	0.340	0.174
-339.333	-101.768	0.185	0.045
-338.318	800.000	-0.082	0.246
-337.304	-113.487	-0.066	-0.013
-336.289	82.068	-0.172	-0.186
-335.275	-131.064	0.278	-0.037
-334.260	-38.268	0.174	0.092
-333.245	-200.000	-0.007	0.207
-332.231	202.620	0.022	0.034
-331.216	-46.736	-0.189	0.092
-330.202	-23.858	-0.208	0.124
-329.187	800.000	-0.065	0.190
-328.172	254.681	0.041	-0.070
-327.158	-163.881	-0.078	-0.004
-326.143	132.705	-0.068	-0.087
-325.129	294.270	0.081	0.146
-324.114	-200.000	-0.004	-0.246
-323.099	-49.433	0.177	-0.084
-322.085	-117.864	0.151	-0.027
-321.070	30.208	0.067	0.057
-320.056	-8.548	0.157	0.105
-319.041	800.000	0.142	-0.560
-318.026	21.694	0.097	0.079
-317.012	-37.616	0.125	0.066
-315.997	351.881	0.169	0.333
-314.983	-200.000	0.001	-0.336
-313.968	6.563	0.061	0.045
-312.953	231.785	0.183	0.299
-311.939	-200.000	0.020	-0.100
-310.924	-6.446	0.071	0.048
-309.910	-108.764	0.081	-0.017
-308.895	800.000	0.048	0.206
-307.880	-102.827	-0.369	0.087
-306.866	-30.843	0.048	0.027
-305.851	154.354	-0.235	-0.321
-304.837	-165.931	-0.256	-0.011
-303.822	800.000	0.040	0.131
-302.807	-18.627	0.203	-0.126
-301.793	-174.629	-0.134	-0.004
-300.778	-151.925	-0.146	0.011
-299.764	800.000	0.030	-0.120
-298.749	-200.000	-0.021	-0.098
-297.735	-156.276	0.277	-0.017
-296.720	-200.000	-0.012	-0.180
-295.705	661.028	0.179	-0.459
-294.691	800.000	-0.110	-0.364
-293.676	23.179	0.216	0.176
-292.662	-92.902	0.313	0.087
-291.647	7.366	-0.202	-0.150
-290.632	-159.175	-0.110	0.006
-289.618	47.037	0.113	-0.104
-288.603	800.000	0.053	0.189
-287.589	-73.582	-0.147	-0.053
-286.574	12.913	-0.146	-0.112
-285.559	129.297	0.290	-0.367
-284.545	-7.394	-0.107	-0.072
-283.530	192.314	0.084	-0.126
-282.516	-200.000	0.061	-0.380
-281.501	163.814	-0.081	-0.113
-280.486	64.316	0.131	-0.131
-279.472	-30.910	-0.182	0.102
-278.457	-115.886	0.346	0.064
-277.443	-200.000	-0.007	0.240
-276.428	637.082	-0.085	0.213
-275.413	246.202	0.086	0.144
-274.399	85.193	0.090	0.098
-273.384	-52.168	-0.183	0.084
-272.370	-200.000	0.033	-0.174
-271.355	-200.000	0.030	-0.205
-270.340	800.000	-0.054	-0.236
-269.326	-64.029	0.263	-0.107
-268.311	-200.000	-0.058	0.370
-267.297	-200.000	0.008	0.196
-266.282	-84.030	0.168	0.053
-265.267	159.531	-0.267	-0.369
-264.253	800.000	-0.042	0.165
-263.238	-10.098	0.216	-0.142
-262.224	-200.000	-0.007	0.209
-261.209	-200.000	0.000	-0.090
-260.195	-89.576	-0.400	0.116
-259.180	143.216	-0.214	0.282
-258.165	-103.342	-0.349	-0.082
-257.151	-147.264	-0.187	0.016
-256.136	-200.000	0.042	-0.489
-255.122	314.852	0.254	-0.475
-254.107	-142.476	-0.084	0.008
-253.092	-200.000	0.001	0.160
-252.078	-158.560	0.063	0.004
-251.063	-200.000	-0.005	-0.647
-250.049	213.203	-0.111	-0.173
-249.034	204.642	-0.168	0.258
-248.019	-4.867	-0.289	-0.198
-247.005	800.000	-0.052	0.167
-245.990	-32.922	0.144	0.079
-244.976	247.910	0.227	0.381
-243.961	-162.537	-0.247	0.012
-242.946	-143.816	0.050	0.005
-241.932	486.924	0.164	-0.370
-240.917	-48.774	-0.194	-0.092
-239.903	-200.000	-0.070	0.321
-238.888	278.765	0.082	0.146
-237.873	-12.718	-0.305	-0.197
-236.859	-23.042	0.223	0.133
-235.844	164.108	-0.146	0.204
-234.830	483.768	-0.074	0.166
-233.815	176.054	-0.031	-0.044
-232.800	800.000	-0.030	0.090
-231.786	-44.480	-0.294	0.146
-230.771	-41.826	0.133	0.068
-229.757	-200.000	-0.022	0.156
-228.742	-83.681	-0.201	-0.064
-227.727	-123.742	0.298	-0.047
-226.713	-10.167	-0.120	-0.079
-225.698	-15.370	0.217	0.138
-224.684	-15.606	0.225	-0.142
-223.669	214.171	0.009	-0.015
-222.655	245.902	0.133	-0.223
-221.640	-6.602	0.132	0.089
-220.625	-130.963	0.311	-0.041
-219.611	87.554	-0.150	0.164
-218.596	-128.178	0.142	0.020
-217.582	396.843	-0.095	0.197
-216.567	566.044	-0.090	0.216
-215.552	-200.000	-0.072	0.324
-214.538	-134.109	0.050	0.006
-213.523	-198.076	0.394	-0.002
-212.509	-38.279	-0.222	0.117
-211.494	-142.405	-0.200	-0.020
-210.479	200.767	0.308	0.468
-209.465	-97.567	-0.288	-0.074
-208.450	-200.000	-0.004	-0.089
-207.436	505.293	-0.196	0.449
-206.421	-125.704	0.106	-0.016
-205.406	-200.000	0.000	0.017
-204.392	800.000	0.051	-0.143
-203.377	18.059	0.064	-0.051
-202.363	-200.000	-0.057	0.269
-201.348	310.721	0.078	-0.145
-200.333	-200.000	0.084	0.394
-199.319	-132.173	0.295	-0.038
-198.304	-73.784	-0.095	-0.034
-197.290	503.193	0.059	-0.135
-196.275	-70.872	-0.034	-0.013
-195.260	-94.240	-0.122	-0.033
-194.246	-127.925	0.203	0.029
-193.231	-131.080	0.257	0.034
-192.217	83.156	-0.093	-0.100
-191.202	-200.000	0.013	0.354
-190.187	800.000	0.090	-0.251
-189.173	-133.846	0.250	0.031
-188.158	-44.001	-0.443	0.220
-187.144	83.943	-0.157	-0.169
-186.129	-104.440	-0.221	0.051
-185.114	8.407	-0.252	0.187
-184.100	-200.000	-0.034	-0.220
-183.085	32.902	-0.184	-0.158
-182.071	-65.660	-0.335	0.133
-181.056	274.160	0.237	0.415
-180.042	28.963	0.198	0.166
-179.027	319.984	0.118	-0.222
-178.012	800.000	-0.074	0.221
-176.998	-22.558	0.107	0.064
-175.983	152.336	-0.154	-0.207
-174.969	-71.105	0.217	-0.081
-173.954	-60.212	-0.027	-0.011
-172.939	0.803	0.169	0.119
-171.925	69.209	0.144	0.147
-170.910	16.446	0.134	-0.105
-169.896	-200.000	0.053	-0.250
-168.881	118.495	0.235	-0.286
-167.866	-132.719	-0.109	0.014
-166.852	-36.964	-0.406	0.215
-165.837	-65.722	0.189	0.075
-164.823	-105.601	-0.264	-0.059
-163.808	-34.852	0.306	0.165
-162.793	357.508	0.171	0.337
-161.779	91.510	0.204	-0.227
-160.764	800.000	0.086	0.277
-159.750	143.397	-0.046	-0.061
-158.735	-3.578	0.153	-0.105
-157.720	600.266	0.055	-0.135
-156.706	-99.762	-0.244	-0.060
-155.691	2.337	0.168	-0.120
-154.677	193.286	0.114	0.170
-153.662	56.385	0.331	0.317
-152.647	-200.000	-0.042	0.241
-151.633	-101.886	0.169	0.040
-150.618	766.843	0.028	0.075
-149.604	-50.199	-0.360	0.168
-148.589	-200.000	-0.083	0.394
-147.574	800.000	0.042	0.130
-146.560	13.350	-0.224	-0.171
-145.545	-105.644	-0.005	0.001
-144.531	-61.157	0.106	-0.044
-143.516	-64.794	0.049	-0.020
-142.502	-29.059	-0.077	-0.044
-141.487	-200.000	-0.011	0.082
-140.472	-18.248	-0.103	0.064
-139.458	49.892	0.193	0.180
-138.443	114.307	0.194	-0.233
-137.429	-6.319	0.077	0.052
-136.414	-200.000	0.048	0.382
-135.399	522.979	-0.077	0.178
-134.385	436.704	-0.141	0.303
-133.370	169.385	-0.118	-0.167
-132.356	-200.000	-0.013	0.109
-131.341	-158.646	0.299	0.017
-130.326	82.702	0.197	-0.211
-129.312	95.932	0.218	-0.246
-128.297	131.085	-0.153	-0.193
-127.283	800.000	-0.122	-0.355
-126.268	78.597	-0.044	0.047
-125.253	99.668	-0.102	0.117
-124.239	5.781	0.056	0.041
-123.224	-19.077	-0.377	0.231
-122.210	-200.000	0.020	-0.287
-121.195	215.050	0.071	0.111
-120.180	480.290	0.109	0.243
