DTS Sentinel unit serial number:	SN413079Multiplexer serial number:	ORYXHardware model number:	OX4-SRSoftware version number:	ORYX F/W v4.00 Oryx Data Collector v3.7.2.0data status	okinstallation	princeton_trtdifferential loss correction	single-endedforward channel	channel 1reverse channel	N/Adate	2019/09/10time	20:20:11forward acquisition time	60.00reverse acquisition time	0.00gamma	496.2192k internal	0.2326k external	0.2326temperature offset calibration	0.9935default loss term (dB/km)	0.3790temperature slope calibration	1.0000multiplexer offset coefficient	1.0000multiplexer slope coefficient	1.0000fibre end	0.00T internal ref (°C)	32.19T ext. ref 1 (°C)	-0.31T ext. ref 2 (°C)	25.28length (m)	temperature (°C)	Stokes	anti-Stokes-747.200	60.079	-0.164	0.164
-746.185	400.887	0.095	-0.200
-745.171	-14.650	0.359	0.233
-744.156	81.110	-0.295	0.321
-743.142	-148.377	0.153	0.013
-742.127	-120.130	-0.104	0.018
-741.112	800.000	0.071	-0.275
-740.098	59.772	0.160	-0.159
-739.083	-200.000	0.006	-0.185
-738.069	-200.000	-0.001	-0.024
-737.054	199.958	-0.117	0.181
-736.039	800.000	0.051	-0.160
-735.025	192.627	-0.158	-0.240
-734.010	-13.401	0.235	-0.153
-732.996	-71.259	-0.314	-0.119
-731.981	-99.179	0.179	-0.046
-730.966	800.000	-0.058	0.239
-729.952	-103.672	0.082	-0.019
-728.937	78.582	-0.319	-0.344
-727.923	-42.744	-0.210	-0.108
-726.908	-40.314	-0.252	-0.132
-725.894	5.654	0.184	-0.137
-724.879	794.506	-0.129	-0.358
-723.864	290.377	0.182	-0.333
-722.850	28.034	-0.103	-0.088
-721.835	-189.703	-0.224	0.003
-720.821	133.441	0.078	0.101
-719.806	-200.000	-0.022	-0.380
-718.791	12.992	0.008	-0.006
-717.777	158.982	-0.242	-0.339
-716.762	793.211	0.123	-0.340
-715.748	-89.237	-0.256	-0.076
-714.733	21.131	0.198	0.162
-713.718	499.423	-0.045	0.104
-712.704	-200.000	-0.051	0.280
-711.689	47.163	0.093	0.087
-710.675	-45.477	-0.069	-0.034
-709.660	175.228	0.229	-0.334
-708.645	800.000	-0.050	-0.156
-707.631	-110.758	0.218	0.045
-706.616	-200.000	0.021	-0.115
-705.602	367.504	0.071	0.145
-704.587	-127.971	-0.199	0.029
-703.572	-81.646	0.208	0.069
-702.558	-200.000	-0.065	0.296
-701.543	-200.000	0.008	-0.192
-700.529	141.439	-0.086	-0.115
-699.514	147.980	-0.113	0.154
-698.499	32.287	0.292	-0.254
-697.485	-30.308	0.242	-0.138
-696.470	-10.113	0.118	0.079
-695.456	203.263	0.283	-0.441
-694.441	-200.000	0.052	-0.270
-693.426	502.284	-0.013	0.031
-692.412	161.533	-0.174	-0.245
-691.397	607.423	0.089	-0.222
-690.383	71.839	-0.362	-0.379
-689.368	-200.000	0.019	0.182
-688.354	-200.000	0.013	0.109
-687.339	31.066	0.168	0.145
-686.324	407.371	0.103	-0.219
-685.310	25.904	0.143	0.120
-684.295	47.695	-0.142	0.133
-683.281	-200.000	-0.028	-0.193
-682.266	149.182	0.115	-0.156
-681.251	800.000	-0.065	-0.259
-680.237	-200.000	-0.047	-0.378
-679.222	-92.594	-0.260	-0.073
-678.208	-200.000	0.056	-0.296
-677.193	76.578	0.131	-0.140
-676.178	166.172	0.095	-0.136
-675.164	232.026	-0.084	-0.139
-674.149	-200.000	0.001	0.249
-673.135	158.406	0.215	-0.301
-672.120	-200.000	-0.048	-0.253
-671.105	-114.947	0.102	-0.020
-670.091	30.344	0.044	-0.038
-669.076	-200.000	-0.017	0.208
-668.062	-129.424	-0.085	0.012
-667.047	-32.837	-0.050	-0.028
-666.032	32.990	-0.128	-0.112
-665.018	-199.182	-0.232	0.001
-664.003	-32.461	-0.058	-0.032
-662.989	-102.029	-0.133	-0.032
-661.974	-200.000	-0.301	0.000
-660.959	-112.327	0.229	-0.046
-659.945	-9.546	-0.384	0.257
-658.930	-145.884	0.130	0.012
-657.916	66.272	0.186	0.190
-656.901	-72.390	0.331	-0.123
-655.886	23.961	-0.198	-0.164
-654.872	-37.564	0.189	-0.101
-653.857	-86.607	-0.151	0.047
-652.843	-161.856	-0.243	-0.012
-651.828	-145.441	-0.293	0.026
-650.814	105.915	-0.093	-0.111
-649.799	-141.465	-0.284	0.029
-648.784	32.179	0.303	-0.263
-647.770	-40.270	-0.163	0.085
-646.755	24.269	-0.168	-0.139
-645.741	-200.000	0.041	0.198
-644.726	69.299	0.162	0.168
-643.711	800.000	-0.045	0.128
-642.697	-26.033	-0.166	-0.098
-641.682	400.139	0.194	0.408
-640.668	800.000	0.049	0.174
-639.653	-200.000	-0.032	-0.197
-638.638	-40.716	-0.215	0.112
-637.624	629.510	0.133	-0.339
-636.609	48.511	0.068	-0.064
-635.595	-24.821	0.090	-0.054
-634.580	282.887	0.161	0.290
-633.565	-107.837	0.240	0.052
-632.551	50.916	0.199	-0.190
-631.536	44.866	-0.246	-0.227
-630.522	-200.000	0.039	0.281
-629.507	-17.577	-0.365	0.230
-628.492	800.000	-0.049	0.159
-627.478	800.000	-0.059	-0.226
-626.463	201.129	-0.083	-0.129
-625.449	-200.000	0.004	-0.143
-624.434	-46.707	-0.290	0.143
-623.419	-86.738	0.273	0.084
-622.405	800.000	0.067	0.224
-621.390	-139.919	-0.387	-0.041
-620.376	215.271	-0.354	-0.564
-619.361	-185.055	-0.127	-0.002
-618.346	-200.000	0.022	-0.114
-617.332	800.000	-0.085	0.248
-616.317	572.268	-0.054	-0.133
-615.303	258.816	0.098	-0.170
-614.288	-101.574	-0.253	0.062
-613.273	-176.217	0.054	0.001
-612.259	7.881	-0.121	-0.091
-611.244	-19.639	-0.341	0.212
-610.230	-67.742	-0.132	-0.052
-609.215	126.912	-0.144	-0.183
-608.201	285.181	0.201	0.363
-607.186	171.675	-0.179	-0.258
-606.171	800.000	0.032	0.090
-605.157	-52.123	-0.127	-0.059
-604.142	-94.767	0.211	0.057
-603.128	-131.553	-0.099	-0.013
-602.113	-138.731	-0.235	0.026
-601.098	582.802	-0.061	-0.150
-600.084	-112.229	0.202	0.041
-599.069	86.653	0.108	-0.119
-598.055	-101.109	0.112	-0.027
-597.040	161.853	0.101	0.142
-596.025	-57.676	0.014	0.006
-595.011	-68.758	0.470	-0.182
-593.996	76.735	0.288	0.306
-592.982	-152.290	0.151	-0.011
-591.967	-200.000	0.034	0.379
-590.952	9.849	-0.030	-0.023
-589.938	-131.931	-0.209	0.027
-588.923	-94.008	-0.118	0.032
-587.909	579.019	-0.035	0.085
-586.894	276.048	-0.143	0.254
-585.879	800.000	0.020	-0.082
-584.865	208.707	-0.129	0.202
-583.850	-200.000	-0.021	0.106
-582.836	-162.572	-0.146	-0.007
-581.821	-43.657	0.129	0.065
-580.806	800.000	0.097	-0.302
-579.792	-160.501	0.333	0.018
-578.777	-50.400	-0.188	0.089
-577.763	-200.000	-0.010	0.205
-576.748	-129.169	-0.380	-0.053
-575.733	-44.670	-0.067	0.034
-574.719	-140.367	0.280	0.029
-573.704	-139.454	0.302	0.032
-572.690	800.000	-0.047	-0.153
-571.675	225.843	-0.118	0.192
-570.661	800.000	0.042	0.121
-569.646	383.109	-0.079	0.163
-568.631	-75.750	-0.118	-0.042
-567.617	-129.085	0.251	-0.035
-566.602	-137.677	-0.161	-0.018
-565.588	-24.976	0.184	0.110
-564.573	-200.000	-0.005	-0.027
-563.558	-53.832	0.181	-0.083
-562.544	-165.724	0.211	0.009
-561.529	-33.435	-0.275	-0.152
-560.515	234.042	0.031	-0.051
-559.500	-139.436	-0.508	0.055
-558.485	-3.001	-0.174	-0.122
-557.471	-44.696	0.283	-0.141
-556.456	-69.535	-0.160	0.062
-555.442	-200.000	-0.049	0.354
-554.427	800.000	-0.032	-0.116
-553.412	-200.000	0.012	-0.208
-552.398	4.056	0.119	-0.087
-551.383	800.000	-0.010	0.038
-550.369	267.280	-0.087	-0.151
-549.354	-95.684	0.293	0.078
-548.339	154.768	0.142	-0.195
-547.325	142.957	-0.161	-0.214
-546.310	-200.000	-0.060	-0.328
-545.296	490.056	0.062	-0.143
-544.281	386.374	-0.051	0.106
-543.266	-200.000	-0.001	-0.162
-542.252	337.988	-0.036	-0.071
-541.237	-200.000	0.045	-0.250
-540.223	800.000	0.069	0.235
-539.208	280.499	0.071	0.127
-538.193	800.000	0.031	0.125
-537.179	54.153	-0.071	-0.068
-536.164	-134.174	0.037	-0.005
-535.150	-14.556	0.364	-0.234
-534.135	-200.000	0.023	0.104
-533.121	-200.000	-0.031	0.163
-532.106	-160.552	-0.182	0.010
-531.091	113.485	-0.200	0.243
-530.077	-144.619	0.241	0.022
-529.062	-99.763	-0.382	0.096
-528.048	-89.625	0.312	-0.092
-527.033	-101.492	-0.391	0.095
-526.018	533.868	0.094	-0.224
-525.004	-117.608	0.284	-0.051
-523.989	8.343	0.113	-0.085
-522.975	62.118	0.164	-0.163
-521.960	-142.158	-0.068	-0.007
-520.945	203.125	-0.196	-0.304
-519.931	140.437	0.042	-0.055
-518.916	497.114	-0.153	0.351
-517.902	-200.000	-0.053	0.000
-516.887	104.231	-0.058	-0.069
-515.872	-132.324	-0.174	0.022
-514.858	100.933	-0.142	0.165
-513.843	32.766	-0.138	-0.119
-512.829	-200.000	-0.017	0.384
-511.814	551.172	-0.118	-0.283
-510.799	367.292	-0.113	-0.227
-509.785	-200.000	0.006	-0.120
-508.770	-76.067	0.361	-0.127
-507.756	-200.000	-0.033	-0.324
-506.741	-57.897	-0.352	-0.154
-505.726	662.219	-0.023	0.058
-504.712	86.415	0.307	-0.339
-503.697	-200.000	-0.007	-0.039
-502.683	-200.000	0.038	0.238
-501.668	30.959	0.220	-0.188
-500.653	259.751	-0.061	0.105
-499.639	373.620	-0.014	-0.028
-498.624	798.248	-0.021	0.057
-497.610	-51.721	-0.111	0.052
-496.595	-79.691	0.151	-0.051
-495.581	-200.000	0.023	0.130
-494.566	197.980	-0.147	-0.225
-493.551	-123.527	0.051	-0.008
-492.537	-69.518	0.130	0.050
-491.522	-200.000	-0.062	0.277
-490.508	152.836	-0.087	-0.119
-489.493	149.716	-0.154	-0.208
-488.478	-200.000	-0.024	0.278
-487.464	-91.511	-0.072	0.020
-486.449	221.991	-0.188	0.302
-485.435	294.150	0.065	0.119
-484.420	-200.000	-0.021	0.214
-483.405	-126.812	-0.051	-0.007
-482.391	5.743	-0.054	-0.040
-481.376	55.847	0.184	-0.178
-480.362	-70.818	0.178	0.067
-479.347	-144.683	0.178	-0.016
-478.332	65.550	-0.125	0.126
-477.318	-93.843	-0.378	-0.104
-476.303	656.777	-0.099	-0.255
-475.289	-200.000	-0.007	0.148
-474.274	-54.996	0.124	0.056
-473.259	-127.877	0.298	-0.043
-472.245	203.053	-0.100	0.155
-471.230	-138.876	0.273	-0.030
-470.216	-200.000	-0.039	0.220
-469.201	186.092	-0.099	-0.147
-468.186	169.196	0.223	-0.318
-467.172	29.183	-0.044	0.037
-466.157	51.573	0.432	0.410
-465.143	31.752	0.069	-0.059
-464.128	-110.345	0.073	-0.015
-463.113	-114.297	0.126	0.024
-462.099	69.875	0.149	0.153
-461.084	-200.000	0.018	0.080
-460.070	-156.575	0.164	0.010
-459.055	-54.477	0.201	0.091
-458.040	-113.858	-0.315	-0.061
-457.026	40.216	0.243	0.218
-456.011	473.000	-0.062	0.140
-454.997	-72.523	-0.209	-0.077
-453.982	612.559	0.105	-0.261
-452.968	120.294	-0.092	0.113
-451.953	24.048	-0.173	0.143
-450.938	79.866	-0.051	-0.055
-449.924	-132.238	-0.341	0.044
-448.909	800.000	0.016	-0.050
-447.895	-62.384	0.260	0.108
-446.880	-156.832	0.088	0.005
-445.865	114.566	0.122	-0.149
-444.851	481.055	0.198	-0.448
-443.836	-75.534	0.113	0.040
-442.822	-148.282	-0.149	-0.012
-441.807	396.799	0.087	-0.182
-440.792	177.537	-0.016	-0.023
-439.778	203.081	-0.156	0.241
-438.763	-200.000	0.003	0.250
-437.749	39.341	0.305	-0.272
-436.734	153.984	0.177	-0.241
-435.719	-142.062	0.246	-0.024
-434.705	-42.774	-0.081	0.041
-433.690	-52.976	-0.324	-0.149
-432.676	-200.000	-0.049	-0.241
-431.661	100.365	-0.228	-0.264
-430.646	-187.034	0.168	0.002
-429.632	-200.000	0.058	-0.306
-428.617	316.397	0.100	0.188
-427.603	-39.015	0.157	0.082
-426.588	-200.000	-0.034	0.376
-425.573	-0.633	0.117	-0.083
-424.559	800.000	0.044	-0.151
-423.544	-162.228	0.330	-0.016
-422.530	79.149	0.244	-0.260
-421.515	-103.406	-0.197	0.046
-420.500	-44.249	-0.087	-0.043
-419.486	33.595	0.065	-0.056
-418.471	-200.000	-0.081	0.415
-417.457	-71.307	-0.354	0.132
-416.442	-200.000	0.052	-0.245
-415.428	800.000	-0.032	-0.115
-414.413	-189.918	-0.284	0.003
-413.398	800.000	-0.082	-0.340
-412.384	800.000	-0.035	-0.129
-411.369	-102.218	-0.524	-0.126
-410.355	246.856	0.031	0.052
-409.340	-67.011	-0.095	0.037
-408.325	-79.707	0.053	-0.018
-407.311	97.224	0.188	0.214
-406.296	800.000	0.060	0.196
-405.282	-200.000	-0.026	-0.136
-404.267	316.027	-0.153	-0.287
-403.252	-125.298	-0.110	-0.017
-402.238	-200.000	0.027	-0.135
-401.223	-113.674	0.309	0.060
-400.209	800.000	-0.074	-0.223
-399.194	104.291	0.078	0.091
-398.179	-168.198	0.044	0.002
-397.165	-55.428	-0.172	0.077
-396.150	159.443	-0.130	0.180
-395.136	-200.000	-0.019	-0.535
-394.121	51.556	0.188	0.178
-393.106	26.684	-0.148	-0.124
-392.092	-126.459	0.487	-0.072
-391.077	-100.527	-0.196	-0.048
-390.063	-49.283	0.066	0.031
-389.048	152.232	-0.224	0.304
-388.033	-200.000	-0.009	0.064
-387.019	346.495	-0.035	-0.069
-386.004	200.426	-0.234	0.358
-384.990	-200.000	-0.013	-0.202
-383.975	-112.618	0.165	0.033
-382.960	-74.855	0.146	-0.052
-381.946	-91.820	0.244	0.069
-380.931	-48.092	-0.021	0.010
-379.917	41.394	-0.110	0.099
-378.902	800.000	-0.018	0.075
-377.888	-200.000	0.016	0.151
-376.873	800.000	0.062	-0.255
-375.858	-140.518	0.159	0.016
-374.844	-145.080	0.351	-0.032
-373.829	-118.912	-0.331	0.058
-372.815	114.498	-0.238	0.289
-371.800	396.882	-0.081	-0.168
-370.785	-200.000	-0.047	0.225
-369.771	18.086	-0.150	-0.119
-368.756	-150.191	-0.290	-0.022
-367.742	-140.671	-0.069	0.007
-366.727	-194.125	0.302	-0.002
-365.712	-64.975	0.077	-0.031
-364.698	501.053	0.123	-0.282
-363.683	-76.333	0.147	-0.051
-362.669	111.736	-0.042	-0.050
-361.654	-66.622	-0.108	-0.042
-360.639	454.482	0.132	-0.290
-359.625	484.968	-0.105	0.237
-358.610	-43.925	-0.145	0.072
-357.596	800.000	-0.096	-0.311
-356.581	800.000	0.024	0.071
-355.566	449.020	-0.068	-0.149
-354.552	-200.000	0.084	-0.399
-353.537	107.914	-0.073	0.086
-352.523	118.863	-0.249	-0.306
-351.508	800.000	-0.049	-0.186
-350.493	-200.000	0.029	-0.199
-349.479	116.679	-0.208	0.253
-348.464	-31.411	0.250	-0.140
-347.450	-200.000	0.006	0.138
-346.435	433.942	0.132	0.284
-345.420	-200.000	-0.013	0.195
-344.406	30.979	0.131	-0.111
-343.391	-55.052	0.113	0.050
-342.377	-200.000	-0.059	-0.274
-341.362	-200.000	0.089	-0.507
-340.348	-120.850	-0.158	-0.027
-339.333	-200.000	0.007	-0.192
-338.318	-18.462	0.184	0.114
-337.304	188.114	-0.234	0.347
-336.289	-113.357	-0.270	0.053
-335.275	-200.000	0.017	-0.142
-334.260	199.674	-0.224	-0.342
-333.245	-14.480	0.117	0.074
-332.231	-168.602	-0.064	0.002
-331.216	-200.000	-0.010	-0.309
-330.202	-20.605	-0.105	0.064
-329.187	-153.797	-0.143	0.010
-328.172	800.000	0.064	0.207
-327.158	-58.377	-0.233	-0.101
-326.143	-42.091	-0.336	-0.170
-325.129	-109.385	-0.156	-0.033
-324.114	-20.377	0.208	0.127
-323.099	88.400	-0.209	-0.231
-322.085	535.241	-0.070	0.166
-321.070	103.465	-0.088	0.103
-320.056	-200.000	0.024	-0.113
-319.041	113.855	-0.141	-0.170
-318.026	93.392	0.117	0.132
-317.012	9.478	0.242	0.182
-315.997	-131.216	0.356	0.047
-314.983	-83.797	-0.148	-0.047
-313.968	-7.766	-0.324	0.217
-312.953	93.649	0.184	0.207
-311.939	78.772	-0.244	0.258
-310.924	-200.000	0.010	0.242
-309.910	286.011	-0.142	0.255
-308.895	5.911	0.120	0.088
-307.880	800.000	0.089	0.261
-306.866	-200.000	0.090	0.530
-305.851	364.527	0.051	0.103
-304.837	372.976	-0.191	0.386
-303.822	96.249	0.231	0.262
-302.807	-200.000	-0.027	0.138
-301.793	-200.000	0.003	0.069
-300.778	-200.000	-0.012	-0.101
-299.764	800.000	-0.068	-0.269
-298.749	800.000	0.104	0.298
-297.735	454.500	-0.140	0.309
-296.720	492.741	-0.130	0.296
-295.705	54.925	0.169	-0.161
-294.691	37.479	-0.186	0.163
-293.676	332.065	-0.108	0.207
-292.662	-200.000	0.032	0.291
-291.647	69.573	0.158	-0.162
-290.632	-79.088	0.034	0.011
-289.618	12.191	0.095	-0.073
-288.603	-108.551	0.113	-0.024
-287.589	88.297	0.169	-0.186
-286.574	-146.837	0.154	0.013
-285.559	-200.000	-0.032	-0.395
-284.545	-59.126	-0.184	0.079
-283.530	-179.389	-0.167	-0.004
-282.516	618.978	-0.117	0.291
-281.501	800.000	0.053	-0.157
-280.486	403.965	0.038	-0.080
-279.472	-200.000	0.029	0.284
-278.457	453.976	-0.193	0.423
-277.443	201.358	0.132	-0.201
-276.428	-37.200	-0.215	0.114
-275.413	-200.000	0.003	0.085
-274.399	348.161	-0.118	0.231
-273.384	71.453	-0.054	-0.055
-272.370	-94.365	0.329	-0.089
-271.355	38.897	-0.123	-0.109
-270.340	-197.791	0.235	0.001
-269.326	82.927	-0.056	0.060
-268.311	-182.232	-0.076	0.001
-267.297	800.000	-0.043	0.175
-266.282	-155.222	0.208	-0.013
-265.267	-37.144	-0.063	0.033
-264.253	800.000	0.040	-0.128
-263.238	-5.063	0.095	0.065
-262.224	-200.000	-0.055	-0.392
-261.209	-159.411	0.176	0.010
-260.195	217.978	-0.085	0.135
-259.180	-7.827	-0.237	0.158
-258.165	-200.000	-0.043	0.354
-257.151	-200.000	0.001	0.039
-256.136	37.668	-0.131	-0.115
-255.122	800.000	-0.055	-0.204
-254.107	121.240	-0.146	0.180
-253.092	-33.093	-0.167	0.091
-252.078	307.283	-0.105	-0.193
-251.063	109.162	0.218	-0.258
-250.049	220.005	0.101	-0.160
-249.034	-82.059	-0.248	-0.080
-248.019	-78.362	0.176	-0.060
-247.005	472.637	0.091	-0.204
-245.990	18.376	-0.338	-0.267
-244.976	-28.454	0.153	0.087
-243.961	-73.342	-0.052	-0.019
-242.946	-200.000	-0.018	0.335
-241.932	-105.705	0.275	0.062
-240.917	-200.000	0.024	-0.236
-239.903	800.000	-0.025	-0.103
-238.888	54.053	-0.149	0.141
-237.873	-103.601	-0.161	0.037
-236.859	-130.235	0.212	-0.029
-235.844	-23.766	0.351	-0.208
-234.830	182.998	-0.070	-0.103
-233.815	-43.399	0.060	0.030
-232.800	-200.000	0.003	-0.186
-231.786	800.000	0.136	0.439
-230.771	174.514	-0.228	-0.326
-229.757	-77.113	0.308	0.106
-228.742	-200.000	-0.029	0.336
-227.727	393.625	-0.152	-0.312
-226.713	-16.330	-0.049	0.030
-225.698	-90.593	-0.206	-0.059
-224.684	-161.704	-0.210	0.011
-223.669	-120.102	-0.138	0.023
-222.655	-48.352	-0.242	-0.115
-221.640	-136.649	0.203	0.023
-220.625	-28.884	0.286	0.162
-219.611	200.954	-0.087	-0.132
-218.596	-200.000	-0.009	-0.191
-217.582	800.000	-0.021	-0.062
-216.567	105.793	-0.267	0.311
-215.552	800.000	-0.081	0.282
-214.538	-74.247	0.309	-0.111
-213.523	26.485	0.120	0.099
-212.509	211.914	0.124	-0.192
-211.494	800.000	0.097	-0.314
-210.479	-200.000	0.028	0.291
-209.465	89.554	-0.100	0.110
-208.450	-200.000	-0.001	0.173
-207.436	-10.830	0.106	-0.069
-206.421	23.115	-0.123	-0.100
-205.406	-50.675	0.122	-0.057
-204.392	-200.000	0.029	-0.313
-203.377	-146.275	0.153	-0.013
-202.363	-200.000	-0.002	-0.103
-201.348	64.002	-0.282	-0.280
-200.333	-200.000	0.022	0.120
-199.319	-19.805	0.456	0.278
-198.304	44.634	0.187	0.170
-197.290	-200.000	0.016	0.078
-196.275	-112.067	-0.241	-0.048
-195.260	-187.764	-0.109	0.001
-194.246	-130.045	0.112	0.015
-193.231	-123.762	-0.292	-0.046
-192.217	41.823	0.185	-0.166
-191.202	-137.124	0.413	-0.047
-190.187	194.546	0.082	-0.122
-189.173	-169.609	-0.230	0.008
-188.158	-146.907	0.399	0.034
-187.144	-196.884	0.264	0.002
-186.129	800.000	0.049	0.169
-185.114	-65.629	0.209	0.083
-184.100	-20.087	0.447	0.272
-183.085	2.610	-0.127	-0.091
-182.071	-44.041	-0.177	-0.088
-181.056	309.282	-0.056	-0.104
-180.042	76.540	0.113	-0.118
-179.027	800.000	0.049	-0.193
-178.012	119.655	0.154	-0.188
-176.998	-200.000	0.005	0.032
-175.983	276.902	0.091	0.159
-174.969	-29.391	0.162	-0.092
-173.954	-21.932	-0.310	0.186
-172.939	215.392	0.365	0.571
-171.925	-200.000	0.116	-0.583
-170.910	224.212	-0.125	-0.200
-169.896	800.000	-0.047	0.201
-168.881	204.955	0.219	-0.335
-167.866	-94.254	-0.393	-0.106
-166.852	-200.000	0.038	0.191
-165.837	543.074	-0.121	0.286
-164.823	-18.990	0.320	0.196
-163.808	-83.114	0.545	0.173
-162.793	159.121	0.125	-0.171
-161.779	527.639	0.069	-0.160
-160.764	-0.562	0.153	-0.107
-159.750	89.107	-0.196	0.215
-158.735	20.593	-0.290	0.231
-157.720	78.253	-0.059	0.063
-156.706	296.107	-0.035	0.064
-155.691	-200.000	-0.046	-0.266
-154.677	-178.069	0.092	0.002
-153.662	-30.326	0.159	-0.089
-152.647	274.478	0.080	0.139
-151.633	-97.282	-0.234	0.060
-150.618	104.000	0.217	0.251
-149.604	800.000	-0.110	0.426
-148.589	17.609	0.102	0.080
-147.574	-87.353	-0.295	0.088
-146.560	-148.942	0.122	0.010
-145.545	-200.000	0.102	0.000
-144.531	770.838	-0.056	-0.150
-143.516	-54.531	-0.159	0.071
-142.502	341.540	0.016	-0.031
-141.487	2.979	0.070	-0.050
-140.472	312.031	-0.066	-0.121
-139.458	-80.077	0.176	-0.058
-138.443	800.000	0.121	0.365
-137.429	-25.245	0.040	-0.023
-136.414	-186.348	0.256	0.004
-135.399	247.246	0.027	-0.044
-134.385	298.498	0.071	-0.128
-133.370	-200.000	-0.012	-0.055
-132.356	-200.000	-0.006	-0.161
-131.341	-116.517	-0.265	-0.048
-130.326	800.000	-0.028	0.110
-129.312	-100.379	0.409	0.100
-128.297	-53.442	0.318	-0.143
-127.283	-200.000	0.006	0.067
-126.268	14.252	0.222	-0.170
-125.253	93.350	-0.175	-0.195
-124.239	800.000	0.145	0.428
-123.224	800.000	0.070	-0.201
