DTS Sentinel unit serial number:	SN413079Multiplexer serial number:	ORYXHardware model number:	OX4-SRSoftware version number:	ORYX F/W v4.00 Oryx Data Collector v3.7.2.0data status	okinstallation	princeton_trtdifferential loss correction	single-endedforward channel	channel 1reverse channel	N/Adate	2019/09/10time	23:48:11forward acquisition time	60.00reverse acquisition time	0.00gamma	496.2192k internal	0.2331k external	0.2331temperature offset calibration	0.9932default loss term (dB/km)	0.3790temperature slope calibration	1.0000multiplexer offset coefficient	1.0000multiplexer slope coefficient	1.0000fibre end	0.00T internal ref (°C)	29.55T ext. ref 1 (°C)	-0.31T ext. ref 2 (°C)	23.07length (m)	temperature (°C)	Stokes	anti-Stokes-747.200	-118.276	0.285	0.051
-746.185	-200.000	-0.034	0.316
-745.171	-27.337	0.120	-0.070
-744.156	-200.000	0.012	0.209
-743.142	-120.194	0.401	-0.069
-742.127	4.451	0.130	0.096
-741.112	-200.000	-0.057	-0.299
-740.098	-158.906	-0.093	-0.005
-739.083	-124.949	-0.077	0.012
-738.069	566.430	0.087	0.212
-737.054	50.188	-0.101	-0.096
-736.039	-200.000	-0.005	-0.238
-735.025	67.203	0.145	0.149
-734.010	800.000	-0.048	-0.163
-732.996	294.550	-0.166	-0.306
-731.981	-158.285	-0.230	-0.013
-730.966	252.953	0.096	-0.165
-729.952	800.000	-0.048	-0.193
-728.937	157.223	0.045	-0.063
-727.923	800.000	0.101	-0.317
-726.908	399.804	0.050	-0.106
-725.894	-200.000	0.008	-0.135
-724.879	-32.828	-0.228	-0.128
-723.864	18.879	0.121	0.098
-722.850	-143.266	0.163	-0.016
-721.835	596.995	-0.087	0.216
-720.821	-53.927	0.355	-0.163
-719.806	-114.526	-0.368	-0.071
-718.791	10.962	0.363	0.279
-717.777	800.000	-0.027	-0.096
-716.762	-158.087	-0.293	0.017
-715.748	-87.756	0.127	0.039
-714.733	-200.000	0.065	-0.646
-713.718	-200.000	-0.010	0.081
-712.704	119.024	-0.159	0.198
-711.689	-96.034	0.346	-0.092
-710.675	-101.581	-0.217	-0.053
-709.660	-97.567	0.096	0.025
-708.645	-125.789	0.291	0.044
-707.631	339.491	-0.186	-0.364
-706.616	-150.083	0.233	0.018
-705.602	800.000	0.103	0.301
-704.587	800.000	-0.049	-0.156
-703.572	204.337	-0.298	-0.464
-702.558	159.969	0.047	0.066
-701.543	-48.070	0.200	0.097
-700.529	-200.000	-0.022	-0.361
-699.514	-106.403	-0.065	-0.015
-698.499	-79.060	-0.181	0.062
-697.485	611.466	-0.223	-0.560
-696.470	151.302	-0.317	-0.434
-695.456	-86.090	-0.131	0.041
-694.441	82.517	0.332	0.362
-693.426	19.634	-0.191	0.155
-692.412	-125.677	0.101	-0.015
-691.397	42.766	0.147	-0.134
-690.383	30.588	0.323	-0.277
-689.368	-8.385	-0.306	-0.207
-688.354	-23.009	-0.302	0.183
-687.339	-86.584	0.260	-0.080
-686.324	13.445	-0.213	0.166
-685.310	-200.000	-0.021	-0.226
-684.295	-200.000	-0.044	-0.209
-683.281	-45.704	0.191	-0.095
-682.266	40.748	-0.218	-0.197
-681.251	-161.287	0.194	0.010
-680.237	168.517	0.260	-0.372
-679.222	605.022	-0.142	0.354
-678.208	800.000	-0.035	0.126
-677.193	-200.000	-0.022	0.223
-676.178	280.948	-0.099	-0.178
-675.164	191.532	-0.158	-0.238
-674.149	-134.654	-0.178	-0.022
-673.135	-157.950	-0.143	-0.008
-672.120	-58.770	-0.182	-0.079
-671.105	70.070	-0.176	0.182
-670.091	-13.936	0.260	0.169
-669.076	-152.753	0.400	0.028
-668.062	-30.042	-0.206	-0.118
-667.047	115.381	0.262	0.321
-666.032	421.727	0.039	0.083
-665.018	-92.291	-0.382	-0.108
-664.003	9.461	-0.277	-0.210
-662.989	521.145	0.073	-0.173
-661.974	79.953	-0.135	-0.145
-660.959	12.978	-0.179	-0.139
-659.945	-25.780	-0.210	0.124
-658.930	-63.309	-0.106	-0.044
-657.916	-90.763	0.158	0.046
-656.901	-200.000	-0.453	0.001
-655.886	-121.482	0.218	0.036
-654.872	49.356	-0.065	-0.061
-653.857	-7.013	-0.150	-0.102
-652.843	-21.447	0.141	-0.086
-651.828	-129.883	-0.394	-0.054
-650.814	254.888	-0.177	0.303
-649.799	-5.182	-0.338	-0.233
-648.784	480.326	-0.006	-0.013
-647.770	-139.047	-0.258	0.028
-646.755	-21.285	-0.290	0.178
-645.741	157.271	0.042	-0.058
-644.726	170.739	0.168	0.241
-643.711	-175.881	0.120	0.003
-642.697	800.000	0.080	-0.315
-641.682	42.521	0.123	0.112
-640.668	383.890	-0.020	0.041
-639.653	-200.000	-0.007	-0.054
-638.638	-200.000	0.014	-0.197
-637.624	597.979	-0.088	-0.218
-636.609	5.981	-0.255	0.189
-635.595	163.245	0.024	0.034
-634.580	-34.109	0.423	-0.233
-633.565	-34.510	-0.149	0.082
-632.551	40.849	0.067	0.060
-631.536	-200.000	0.002	-0.072
-630.522	30.289	0.114	0.098
-629.507	-96.365	-0.329	-0.087
-628.492	22.748	0.045	-0.037
-627.478	800.000	-0.139	-0.473
-626.463	800.000	-0.074	-0.270
-625.449	114.162	-0.168	0.204
-624.434	-200.000	0.009	-0.192
-623.419	39.168	0.220	-0.197
-622.405	227.121	-0.059	0.096
-621.390	67.283	-0.256	0.262
-620.376	254.822	0.083	0.143
-619.361	-111.658	0.221	-0.045
-618.346	-162.500	0.312	-0.015
-617.332	800.000	-0.043	-0.177
-616.317	-140.595	-0.341	0.035
-615.303	100.604	0.176	-0.205
-614.288	-28.011	0.263	-0.152
-613.273	110.329	-0.194	-0.233
-612.259	50.968	0.274	-0.260
-611.244	-3.236	0.078	0.054
-610.230	16.432	0.134	-0.106
-609.215	121.927	0.116	0.144
-608.201	167.472	0.135	0.192
-607.186	200.864	0.136	-0.209
-606.171	503.260	-0.031	-0.071
-605.157	-137.704	-0.128	0.014
-604.142	-156.922	-0.114	0.007
-603.128	-200.000	-0.001	0.363
-602.113	-200.000	0.011	0.407
-601.098	249.866	0.106	-0.180
-600.084	-135.868	-0.412	-0.049
-599.069	-162.955	0.197	-0.010
-598.055	30.252	-0.162	-0.138
-597.040	-114.902	0.210	-0.040
-596.025	68.030	-0.032	-0.033
-595.011	-143.802	-0.079	-0.007
-593.996	77.864	0.208	-0.221
-592.982	800.000	-0.041	-0.147
-591.967	15.720	0.283	-0.223
-590.952	-47.633	0.111	-0.054
-589.938	300.602	0.005	-0.010
-588.923	21.581	0.217	0.177
-587.909	-111.898	-0.295	0.059
-586.894	-200.000	-0.097	-0.447
-585.879	-29.774	0.230	-0.131
-584.865	174.456	0.328	0.474
-583.850	-200.000	-0.023	-0.105
-582.836	-66.099	-0.259	-0.103
-581.821	-66.464	0.239	0.095
-580.806	-169.728	-0.289	-0.010
-579.792	-30.379	0.299	-0.170
-578.777	19.186	0.200	-0.160
-577.763	133.388	0.065	-0.084
-576.748	-54.959	-0.088	-0.040
-575.733	303.342	0.038	-0.070
-574.719	-80.455	-0.119	0.040
-573.704	-25.133	0.242	-0.144
-572.690	-153.602	0.145	0.010
-571.675	-2.124	0.095	-0.066
-570.661	693.877	-0.080	-0.210
-569.646	1.271	0.484	0.347
-568.631	205.849	0.062	-0.096
-567.617	267.906	-0.102	-0.179
-566.602	179.862	-0.133	-0.194
-565.588	-90.638	0.152	0.044
-564.573	34.311	-0.316	0.275
-563.558	-200.000	-0.024	-0.248
-562.544	753.256	-0.105	-0.283
-561.529	-116.032	-0.178	0.033
-560.515	800.000	0.062	-0.235
-559.500	800.000	-0.026	0.108
-558.485	-112.155	0.296	-0.059
-557.471	-136.025	-0.239	-0.028
-556.456	-25.004	-0.289	-0.171
-555.442	-200.000	-0.026	0.211
-554.427	605.929	-0.039	-0.096
-553.412	-200.000	-0.041	-0.256
-552.398	446.813	0.113	-0.249
-551.383	45.216	-0.208	0.191
-550.369	-65.477	-0.118	-0.048
-549.354	-49.263	-0.208	0.099
-548.339	-200.000	0.023	0.295
-547.325	16.683	0.336	0.265
-546.310	252.819	-0.036	0.061
-545.296	-144.175	-0.453	0.042
-544.281	-60.061	-0.261	0.111
-543.266	-200.000	-0.037	0.266
-542.252	-37.424	-0.096	0.051
-541.237	-200.000	0.038	-0.383
-540.223	-140.236	0.242	0.025
-539.208	-103.021	0.290	0.069
-538.193	800.000	-0.066	-0.259
-537.179	449.852	0.145	-0.318
-536.164	-200.000	0.035	-0.168
-535.150	284.122	0.125	0.224
-534.135	70.734	0.197	-0.204
-533.121	-55.344	0.149	0.067
-532.106	455.419	0.024	-0.053
-531.091	-15.060	-0.108	0.069
-530.077	-10.896	0.204	0.135
-529.062	590.483	-0.123	0.302
-528.048	-86.876	-0.228	-0.069
-527.033	-200.000	0.057	-0.327
-526.018	-200.000	-0.002	0.228
-525.004	-90.985	-0.147	0.042
-523.989	64.979	-0.179	0.180
-522.975	85.263	-0.237	0.259
-521.960	-200.000	-0.021	-0.219
-520.945	268.439	-0.043	-0.076
-519.931	154.309	-0.211	0.288
-518.916	-56.461	-0.060	0.027
-517.902	-200.000	0.002	0.108
-516.887	-200.000	0.018	-0.149
-515.872	89.585	0.225	-0.250
-514.858	800.000	-0.005	0.023
-513.843	33.780	0.121	0.105
-512.829	800.000	0.075	0.292
-511.814	-200.000	0.050	-0.390
-510.799	-200.000	-0.017	0.194
-509.785	-200.000	-0.002	0.262
-508.770	800.000	0.055	0.208
-507.756	800.000	-0.006	-0.018
-506.741	-6.501	0.201	0.136
-505.726	-183.328	0.318	-0.006
-504.712	510.718	-0.104	0.242
-503.697	16.314	-0.406	0.319
-502.683	2.141	0.273	-0.197
-501.668	-84.542	-0.209	-0.066
-500.653	-76.621	-0.218	-0.076
-499.639	-51.794	-0.187	0.087
-498.624	-31.726	0.085	-0.047
-497.610	-45.823	-0.308	0.152
-496.595	685.240	0.058	0.150
-495.581	-2.707	-0.182	-0.127
-494.566	73.449	-0.183	-0.191
-493.551	-152.644	-0.200	0.014
-492.537	-200.000	-0.031	-0.317
-491.522	135.584	0.241	-0.312
-490.508	-23.321	-0.096	0.058
-489.493	268.767	0.093	0.162
-488.478	-148.337	-0.449	-0.037
-487.464	-108.725	-0.085	0.018
-486.449	800.000	0.157	0.533
-485.435	189.657	-0.112	0.167
-484.420	250.332	-0.143	-0.242
-483.405	-98.843	-0.056	-0.014
-482.391	800.000	-0.079	0.244
-481.376	-123.546	-0.363	-0.057
-480.362	2.495	-0.348	-0.251
-479.347	-69.460	-0.134	-0.051
-478.332	5.349	0.266	-0.196
-477.318	271.008	0.147	-0.258
-476.303	-200.000	0.025	0.163
-475.289	-112.887	0.451	0.089
-474.274	-69.988	-0.202	-0.077
-473.259	-37.980	0.090	-0.048
-472.245	-61.723	-0.166	0.069
-471.230	-200.000	-0.006	-0.300
-470.216	-158.016	-0.342	-0.020
-469.201	-87.926	-0.022	-0.007
-468.186	-66.303	-0.212	-0.084
-467.172	-67.029	-0.136	-0.053
-466.157	233.993	-0.083	0.137
-465.143	800.000	0.038	-0.130
-464.128	-11.651	-0.168	0.110
-463.113	302.799	-0.025	0.046
-462.099	55.366	-0.135	-0.130
-461.084	-39.031	-0.203	0.106
-460.070	-196.639	-0.068	0.000
-459.055	800.000	-0.023	-0.069
-458.040	171.930	0.006	0.008
-457.026	-67.738	-0.089	0.035
-456.011	123.756	0.036	-0.045
-454.997	-200.000	-0.039	-0.345
-453.982	3.400	-0.258	-0.187
-452.968	-54.078	0.264	-0.119
-451.953	92.141	-0.393	0.440
-450.938	-74.380	-0.541	0.194
-449.924	87.634	0.159	-0.175
-448.909	-30.260	0.138	0.078
-447.895	800.000	0.057	-0.220
-446.880	-116.618	-0.164	-0.030
-445.865	-130.761	-0.140	-0.019
-444.851	-200.000	-0.071	-0.339
-443.836	30.106	-0.179	0.152
-442.822	295.662	0.173	0.315
-441.807	392.055	0.084	-0.173
-440.792	173.028	0.167	-0.239
-439.778	20.193	-0.262	-0.211
-438.763	-200.000	0.014	0.175
-437.749	650.016	-0.086	0.218
-436.734	561.380	-0.099	-0.237
-435.719	-200.000	0.033	0.167
-434.705	75.213	-0.099	0.103
-433.690	225.668	0.144	0.232
-432.676	-168.145	-0.045	0.002
-431.661	200.193	-0.046	0.071
-430.646	20.769	-0.295	0.238
-429.632	-108.700	0.196	-0.042
-428.617	800.000	0.083	0.296
-427.603	800.000	0.111	0.338
-426.588	-45.616	-0.025	-0.013
-425.573	72.095	0.077	0.079
-424.559	322.166	-0.166	-0.314
-423.544	-200.000	0.008	-0.185
-422.530	27.492	0.383	0.320
-421.515	61.494	0.066	-0.066
-420.500	800.000	-0.087	0.323
-419.486	-5.850	-0.415	-0.282
-418.471	-113.444	-0.480	0.094
-417.457	136.112	0.055	-0.071
-416.442	93.466	-0.106	-0.119
-415.428	800.000	0.088	-0.247
-414.413	-200.000	-0.081	0.449
-413.398	74.609	0.175	-0.182
-412.384	23.355	0.374	-0.306
-411.369	253.090	-0.091	0.154
-410.355	105.580	-0.032	-0.038
-409.340	222.936	0.071	-0.114
-408.325	26.854	-0.221	0.184
-407.311	414.835	0.030	-0.064
-406.296	-197.345	0.103	-0.001
-405.282	354.119	-0.101	-0.199
-404.267	-200.000	0.027	0.185
-403.252	152.291	0.129	0.175
-402.238	800.000	0.048	0.140
-401.223	10.038	-0.029	-0.022
-400.209	53.002	0.164	-0.156
-399.194	581.037	0.040	0.097
-398.179	-106.968	-0.202	-0.044
-397.165	-200.000	-0.001	0.166
-396.150	-200.000	-0.017	0.177
-395.136	37.925	0.157	-0.138
-394.121	-6.620	0.172	0.116
-393.106	-167.453	-0.048	-0.002
-392.092	-78.659	0.305	-0.103
-391.077	800.000	-0.091	0.351
-390.063	271.414	0.018	0.031
-389.048	247.126	0.141	-0.237
-388.033	-75.587	0.195	-0.069
-387.019	341.031	0.171	0.332
-386.004	-124.036	0.262	-0.041
-384.990	-200.000	0.022	-0.142
-383.975	586.826	0.147	0.359
-382.960	104.161	-0.133	0.156
-381.946	356.131	-0.057	0.114
-380.931	800.000	-0.028	0.095
-379.917	-34.635	-0.310	0.168
-378.902	-200.000	0.001	0.026
-377.888	-32.793	-0.137	0.075
-376.873	-89.588	-0.172	-0.050
-375.858	-200.000	0.031	0.338
-374.844	-181.324	-0.425	-0.008
-373.829	-8.867	-0.255	0.170
-372.815	-143.606	0.161	0.015
-371.800	-200.000	-0.002	0.133
-370.785	12.890	0.206	0.158
-369.771	600.444	-0.118	0.291
-368.756	-110.887	0.029	0.006
-367.742	-200.000	0.054	-0.536
-366.727	140.398	0.152	-0.199
-365.712	358.803	0.121	0.239
-364.698	210.764	-0.195	0.304
-363.683	30.223	0.095	-0.080
-362.669	178.276	-0.064	-0.092
-361.654	-200.000	0.022	0.240
-360.639	301.689	-0.121	-0.221
-359.625	193.922	0.144	-0.216
-358.610	-200.000	0.050	-0.253
-357.596	396.391	-0.069	-0.142
-356.581	-200.000	0.062	-0.281
-355.566	-200.000	0.214	-0.001
-354.552	-200.000	-0.009	-0.125
-353.537	-5.840	-0.348	-0.236
-352.523	-50.977	-0.252	-0.117
-351.508	219.205	0.075	-0.118
-350.493	678.940	-0.028	0.071
-349.479	-72.127	-0.143	0.052
-348.464	-200.000	0.008	-0.145
-347.450	-63.013	0.277	0.114
-346.435	-2.354	0.106	0.073
-345.420	229.422	-0.122	-0.197
-344.406	51.883	-0.124	0.117
-343.391	-127.900	-0.124	-0.018
-342.377	-132.649	0.115	0.015
-341.362	200.241	0.037	0.057
-340.348	800.000	-0.081	0.231
-339.333	-200.000	-0.011	-0.228
-338.318	-74.947	0.364	0.129
-337.304	800.000	-0.043	0.136
-336.289	-84.302	-0.102	-0.032
-335.275	-200.000	-0.079	0.380
-334.260	95.196	-0.184	-0.208
-333.245	-111.356	0.260	0.052
-332.231	800.000	0.060	0.198
-331.216	-200.000	0.008	0.056
-330.202	45.951	0.360	-0.329
-329.187	-200.000	-0.013	0.162
-328.172	-200.000	-0.006	0.197
-327.158	367.923	0.156	-0.313
-326.143	-200.000	0.018	-0.108
-325.129	152.612	-0.094	0.126
-324.114	399.345	-0.158	-0.327
-323.099	-90.729	-0.194	0.055
-322.085	-200.000	-0.026	0.189
-321.070	-79.887	-0.371	0.124
-320.056	-89.176	-0.308	-0.090
-319.041	11.085	0.193	-0.146
-318.026	243.338	0.246	0.409
-317.012	64.540	-0.009	-0.009
-315.997	16.490	-0.088	-0.069
-314.983	2.532	0.227	0.163
-313.968	779.180	0.049	-0.132
-312.953	286.007	0.016	0.029
-311.939	468.491	0.068	0.152
-310.924	1.864	-0.263	-0.188
-309.910	62.469	-0.225	-0.223
-308.895	-106.132	0.177	-0.039
-307.880	407.942	0.085	0.178
-306.866	-144.237	-0.189	0.017
-305.851	767.514	0.026	0.070
-304.837	176.273	-0.183	-0.262
-303.822	290.408	0.059	0.105
-302.807	-111.844	-0.113	0.022
-301.793	-119.057	0.285	0.049
-300.778	589.525	-0.091	-0.221
-299.764	423.424	0.058	0.122
-298.749	-44.218	0.297	0.147
-297.735	800.000	0.112	-0.392
-296.720	-119.345	-0.527	0.091
-295.705	800.000	0.046	0.148
-294.691	-143.707	0.179	-0.017
-293.676	176.895	0.067	-0.096
-292.662	-175.486	-0.180	0.005
-291.647	-200.000	0.034	0.295
-290.632	-139.734	-0.150	-0.016
-289.618	-87.399	0.065	-0.019
-288.603	-57.117	0.306	-0.133
-287.589	-2.240	0.076	-0.053
-286.574	-165.224	0.349	0.015
-285.559	-58.056	-0.222	-0.096
-284.545	97.710	0.160	0.182
-283.530	84.018	0.192	-0.207
-282.516	-98.217	0.086	-0.022
-281.501	186.968	0.137	0.202
-280.486	322.673	0.131	-0.247
-279.472	-80.711	0.231	-0.076
-278.457	-200.000	-0.010	-0.126
-277.443	101.418	0.099	-0.114
-276.428	-74.268	0.317	-0.113
-275.413	306.441	-0.215	-0.396
-274.399	-43.917	0.196	0.097
-273.384	800.000	-0.046	-0.196
-272.370	218.619	0.029	0.046
-271.355	-47.934	-0.259	0.124
-270.340	-74.956	0.172	-0.061
-269.326	363.593	0.156	0.309
-268.311	112.942	0.475	0.568
-267.297	664.741	0.139	-0.354
-266.282	555.935	-0.064	-0.152
-265.267	800.000	0.044	-0.157
-264.253	-145.253	-0.285	0.025
-263.238	101.564	-0.109	0.126
-262.224	177.091	-0.168	-0.241
-261.209	-2.357	-0.117	0.081
-260.195	4.682	0.124	-0.090
-259.180	57.126	0.049	0.047
-258.165	18.847	-0.235	0.186
-257.151	-200.000	-0.043	-0.190
-256.136	-117.437	-0.271	-0.048
-255.122	-139.194	0.362	0.039
-254.107	24.984	0.269	-0.221
-253.092	-200.000	-0.033	-0.172
-252.078	119.550	-0.187	0.228
-251.063	-187.427	-0.291	-0.004
-250.049	-200.000	0.001	-0.423
-249.034	-18.333	-0.061	0.038
-248.019	-60.545	0.256	-0.107
-247.005	-21.132	-0.100	-0.061
-245.990	-200.000	-0.011	-0.341
-244.976	610.645	0.081	0.200
-243.961	-200.000	0.051	0.262
-242.946	800.000	-0.084	-0.258
-241.932	243.393	0.202	-0.333
-240.917	-200.000	-0.024	0.190
-239.903	-52.518	0.111	-0.051
-238.888	-146.203	-0.333	-0.029
-237.873	399.978	0.060	0.124
-236.859	-200.000	-0.050	-0.235
-235.844	-200.000	-0.045	0.241
-234.830	-124.728	0.077	-0.012
-233.815	-82.900	0.167	0.053
-232.800	-200.000	0.000	0.304
-231.786	800.000	-0.127	0.389
-230.771	191.109	0.197	0.293
-229.757	-95.555	0.282	-0.075
-228.742	-200.000	0.029	0.215
-227.727	-200.000	0.034	0.339
-226.713	-71.200	-0.042	-0.015
-225.698	-141.662	-0.187	-0.019
-224.684	138.282	0.192	0.248
-223.669	-62.803	0.281	-0.115
-222.655	-74.591	0.123	-0.044
-221.640	58.864	-0.134	0.130
-220.625	800.000	0.026	-0.093
-219.611	43.484	0.281	0.253
-218.596	-24.272	-0.247	0.145
-217.582	-200.000	0.012	-0.146
-216.567	-200.000	-0.032	0.139
-215.552	-200.000	-0.001	0.300
-214.538	-12.017	0.481	0.311
-213.523	215.623	0.169	0.265
-212.509	637.013	-0.146	-0.366
-211.494	-0.711	0.034	0.024
-210.479	-161.433	-0.204	-0.010
-209.465	70.074	0.172	-0.175
-208.450	-65.337	0.137	0.054
-207.436	-17.176	0.123	0.077
-206.421	669.633	0.122	-0.310
-205.406	-74.845	0.072	-0.026
-204.392	800.000	-0.057	-0.170
-203.377	742.450	0.102	0.271
-202.363	-0.940	0.090	0.063
-201.348	300.027	0.309	0.560
-200.333	10.802	0.186	0.140
-199.319	-43.373	-0.229	0.114
-198.304	27.770	-0.227	-0.189
-197.290	115.341	-0.048	0.057
-196.275	800.000	-0.032	-0.136
-195.260	75.722	-0.051	-0.053
-194.246	17.011	0.097	-0.076
-193.231	281.434	-0.084	0.149
-192.217	12.929	0.195	0.149
-191.202	-26.909	0.277	-0.159
-190.187	50.863	-0.154	-0.144
-189.173	134.297	0.163	-0.207
-188.158	396.750	-0.009	-0.018
-187.144	800.000	0.131	-0.364
-186.129	350.422	-0.090	0.176
-185.114	-6.046	0.156	-0.105
-184.100	-12.756	-0.265	-0.170
-183.085	59.945	-0.075	0.072
-182.071	-71.425	0.156	0.057
-181.056	797.610	0.046	-0.124
-180.042	-200.000	0.051	0.228
-179.027	317.608	-0.133	0.247
-178.012	-200.000	-0.039	0.331
-176.998	-98.908	-0.144	-0.036
-175.983	146.551	0.160	0.211
-174.969	243.275	0.120	0.199
-173.954	-200.000	-0.020	0.275
-172.939	612.712	0.044	0.108
-171.925	93.523	0.352	-0.392
-170.910	-200.000	0.051	-0.261
-169.896	-200.000	-0.025	0.437
-168.881	152.599	0.153	0.205
-167.866	-30.020	-0.169	0.094
-166.852	-120.123	-0.314	-0.053
-165.837	207.639	0.124	0.190
-164.823	-200.000	0.004	-0.048
-163.808	162.725	-0.049	-0.067
-162.793	-159.824	-0.402	-0.022
-161.779	800.000	-0.025	-0.078
-160.764	532.443	-0.112	0.260
-159.750	-200.000	-0.048	-0.254
-158.735	82.170	0.199	-0.212
-157.720	800.000	-0.041	0.158
-156.706	213.722	0.244	-0.380
-155.691	214.575	0.224	-0.349
-154.677	-200.000	-0.015	0.308
-153.662	494.119	-0.045	0.101
-152.647	-166.169	-0.055	-0.002
-151.633	-19.012	-0.108	-0.066
-150.618	70.909	0.082	0.083
-149.604	-76.711	-0.226	-0.078
-148.589	800.000	0.070	0.260
-147.574	-200.000	-0.084	0.398
-146.560	800.000	0.166	-0.559
-145.545	88.482	-0.192	-0.210
-144.531	-143.140	0.107	0.010
-143.516	-200.000	-0.019	-0.128
-142.502	-169.677	0.249	0.009
-141.487	-200.000	0.003	0.179
-140.472	17.156	-0.093	0.073
-139.458	-89.829	-0.026	-0.007
-138.443	-53.899	-0.264	0.118
-137.429	776.353	0.104	0.280
-136.414	-96.736	0.227	-0.059
-135.399	-200.000	0.000	0.105
-134.385	-30.118	-0.110	-0.061
-133.370	-32.786	0.240	-0.131
-132.356	335.818	-0.007	0.013
-131.341	-7.645	0.182	0.121
-130.326	-200.000	0.049	0.382
-129.312	-130.722	0.289	0.038
-128.297	116.865	-0.095	0.115
-127.283	-143.980	-0.090	0.008
-126.268	15.970	0.177	0.137
-125.253	-66.316	0.296	0.116
-124.239	-155.894	-0.309	-0.019
-123.224	-161.133	0.145	-0.007
-122.210	426.726	-0.076	-0.161
-121.195	774.993	0.027	-0.072
