DTS Sentinel unit serial number:	SN413079Multiplexer serial number:	ORYXHardware model number:	OX4-SRSoftware version number:	ORYX F/W v4.00 Oryx Data Collector v3.7.2.0data status	okinstallation	princeton_trtdifferential loss correction	single-endedforward channel	channel 1reverse channel	N/Adate	2019/09/11time	13:36:11forward acquisition time	60.00reverse acquisition time	0.00gamma	496.2192k internal	0.2294k external	0.2294temperature offset calibration	0.9984default loss term (dB/km)	0.3790temperature slope calibration	1.0000multiplexer offset coefficient	1.0000multiplexer slope coefficient	1.0000fibre end	0.00T internal ref (°C)	41.94T ext. ref 1 (°C)	0.83T ext. ref 2 (°C)	35.50length (m)	temperature (°C)	Stokes	anti-Stokes-747.200	157.847	-0.145	-0.206
-746.185	-129.321	-0.477	0.068
-745.171	-200.000	0.017	-0.102
-744.156	-200.000	-0.033	0.445
-743.142	-54.960	0.176	0.081
-742.127	-200.000	-0.003	0.107
-741.112	-200.000	-0.010	-0.061
-740.098	-82.784	-0.092	0.031
-739.083	-58.528	-0.209	-0.093
-738.069	-116.199	-0.391	0.074
-737.054	-200.000	-0.006	0.129
-736.039	-128.181	-0.420	0.061
-735.025	89.348	0.350	0.399
-734.010	170.238	-0.117	-0.171
-732.996	206.633	-0.121	-0.193
-731.981	141.752	0.091	-0.123
-730.966	52.559	0.205	-0.200
-729.952	313.362	0.093	0.179
-728.937	-200.000	0.016	0.133
-727.923	-187.744	-0.262	0.004
-726.908	-157.168	-0.040	-0.002
-725.894	-69.672	-0.055	0.021
-724.879	20.856	0.266	-0.220
-723.864	169.578	0.084	-0.123
-722.850	41.863	0.061	0.056
-721.835	800.000	-0.079	-0.253
-720.821	-33.213	-0.314	-0.178
-719.806	-200.000	-0.013	-0.261
-718.791	104.575	-0.195	-0.235
-717.777	-81.505	0.167	-0.056
-716.762	56.470	-0.136	0.135
-715.748	112.793	0.114	0.141
-714.733	165.498	0.134	-0.194
-713.718	-200.000	0.013	-0.343
-712.704	-78.552	-0.060	0.021
-711.689	-200.000	0.001	-0.192
-710.675	-116.834	0.308	0.058
-709.660	-7.885	-0.170	0.117
-708.645	-83.643	0.264	-0.086
-707.631	-200.000	-0.003	0.346
-706.616	-150.999	-0.099	0.008
-705.602	261.752	0.049	0.087
-704.587	559.372	-0.079	-0.195
-703.572	127.774	-0.116	0.150
-702.558	800.000	-0.061	-0.175
-701.543	-103.057	-0.146	-0.035
-700.529	49.868	-0.290	-0.279
-699.514	-200.000	-0.061	-0.374
-698.499	-110.392	-0.154	-0.033
-697.485	-17.555	-0.118	-0.076
-696.470	-77.769	-0.385	0.136
-695.456	447.665	-0.173	-0.389
-694.441	-200.000	-0.016	-0.150
-693.426	-112.996	-0.035	0.007
-692.412	-200.000	-0.011	0.057
-691.397	-152.923	-0.246	-0.018
-690.383	745.926	-0.061	0.167
-689.368	-117.207	-0.115	0.021
-688.354	800.000	-0.048	-0.169
-687.339	-200.000	-0.218	-0.001
-686.324	31.622	-0.165	0.145
-685.310	-200.000	0.089	0.411
-684.295	63.869	-0.112	-0.115
-683.281	-200.000	-0.037	-0.295
-682.266	-149.313	-0.092	-0.008
-681.251	29.940	0.220	-0.191
-680.237	97.384	-0.236	-0.276
-679.222	-197.745	0.375	0.002
-678.208	-200.000	-0.069	0.398
-677.193	-114.452	0.395	-0.077
-676.178	59.660	-0.094	0.095
-675.164	-18.376	-0.160	-0.102
-674.149	108.496	0.276	-0.337
-673.135	-93.585	0.379	-0.107
-672.120	-30.876	-0.397	0.229
-671.105	-200.000	-0.034	0.364
-670.091	-26.608	0.176	-0.105
-669.076	114.455	0.118	0.147
-668.062	99.450	-0.136	-0.160
-667.047	800.000	-0.050	0.168
-666.032	29.938	0.137	0.119
-665.018	180.496	0.113	-0.169
-664.003	72.221	0.104	-0.110
-662.989	-147.997	-0.253	0.021
-661.974	-54.121	-0.070	-0.032
-660.959	-22.230	-0.146	-0.090
-659.945	108.513	0.061	0.074
-658.930	-36.388	0.208	0.114
-657.916	113.065	-0.018	0.022
-656.901	-27.350	-0.171	-0.101
-655.886	-200.000	0.180	-0.000
-654.872	94.502	-0.096	-0.111
-653.857	301.535	0.065	-0.123
-652.843	-39.600	-0.063	0.033
-651.828	-28.315	-0.087	-0.051
-650.814	-147.393	0.200	-0.017
-649.799	-200.000	-0.007	0.190
-648.784	-172.640	-0.136	-0.004
-647.770	285.118	0.137	-0.251
-646.755	-200.000	-0.014	-0.318
-645.741	13.124	0.242	-0.191
-644.726	579.229	0.012	0.029
-643.711	-200.000	0.000	0.019
-642.697	-52.505	0.164	-0.077
-641.682	33.659	-0.096	-0.085
-640.668	-48.970	-0.192	-0.094
-639.653	-105.785	-0.093	0.021
-638.638	552.597	-0.062	0.152
-637.624	341.562	-0.100	-0.199
-636.609	-200.000	-0.001	-0.004
-635.595	-60.482	0.137	-0.059
-634.580	800.000	-0.026	-0.108
-633.565	269.384	-0.139	-0.249
-632.551	800.000	0.040	0.156
-631.536	-200.000	-0.008	-0.082
-630.522	-200.000	-0.012	0.229
-629.507	120.422	-0.055	0.070
-628.492	-66.451	-0.159	-0.064
-627.478	-51.813	0.141	-0.067
-626.463	-129.965	0.377	-0.053
-625.449	85.533	-0.157	-0.176
-624.434	105.474	-0.071	0.085
-623.419	-43.303	-0.341	0.175
-622.405	-200.000	-0.010	0.125
-621.390	-102.544	-0.227	-0.055
-620.376	55.828	-0.251	0.248
-619.361	32.229	-0.218	-0.191
-618.346	-127.945	-0.084	0.012
-617.332	-124.566	-0.385	0.061
-616.317	-178.555	-0.084	-0.002
-615.303	538.006	-0.098	-0.237
-614.288	177.404	-0.081	-0.121
-613.273	127.264	0.213	-0.275
-612.259	201.923	-0.052	0.081
-611.244	-200.000	0.011	0.435
-610.230	-140.039	-0.218	-0.023
-609.215	-178.954	-0.030	-0.001
-608.201	800.000	-0.043	-0.124
-607.186	-200.000	-0.009	0.097
-606.171	-89.880	0.455	-0.135
-605.157	-15.650	-0.237	0.154
-604.142	170.232	0.122	0.177
-603.128	-200.000	-0.014	-0.138
-602.113	-141.587	-0.235	0.024
-601.098	382.827	-0.092	0.192
-600.084	-155.029	0.159	-0.011
-599.069	-110.248	-0.129	-0.027
-598.055	-80.198	0.231	0.079
-597.040	50.880	0.146	-0.140
-596.025	800.000	0.088	-0.254
-595.011	378.913	0.067	-0.139
-593.996	-200.000	0.055	-0.407
-592.982	523.754	0.089	0.212
-591.967	-32.770	-0.235	-0.133
-590.952	800.000	-0.061	-0.172
-589.938	572.691	0.074	-0.182
-588.923	-126.203	-0.184	0.028
-587.909	2.805	0.074	0.055
-586.894	-137.135	-0.297	-0.034
-585.879	-194.388	-0.393	0.003
-584.865	-200.000	0.028	0.149
-583.850	40.319	0.124	-0.113
-582.836	-200.000	0.005	-0.123
-581.821	162.030	-0.098	0.140
-580.806	49.545	-0.463	0.443
-579.792	-74.141	0.241	-0.089
-578.777	266.708	0.086	0.154
-577.763	214.699	0.192	-0.309
-576.748	-200.000	-0.036	0.330
-575.733	-141.860	0.114	-0.012
-574.719	-106.196	0.262	0.060
-573.704	309.071	0.222	0.421
-572.690	800.000	0.087	0.265
-571.675	-83.715	0.275	-0.089
-570.661	800.000	0.033	0.104
-569.646	-50.250	0.414	0.199
-568.631	-141.997	-0.190	0.019
-567.617	626.371	-0.057	0.146
-566.602	-200.000	0.012	-0.337
-565.588	3.846	-0.360	-0.267
-564.573	107.500	0.186	-0.225
-563.558	147.791	0.168	0.230
-562.544	211.306	0.109	-0.175
-561.529	661.425	0.101	0.264
-560.515	-78.291	-0.105	-0.037
-559.500	71.184	-0.133	-0.140
-558.485	221.003	0.045	0.073
-557.471	136.762	-0.147	-0.195
-556.456	800.000	0.061	-0.186
-555.442	-64.027	0.304	0.126
-554.427	800.000	0.026	0.107
-553.412	139.190	-0.132	-0.176
-552.398	250.071	-0.098	0.168
-551.383	81.732	-0.252	-0.277
-550.369	162.880	0.118	0.168
-549.354	-200.000	0.009	-0.121
-548.339	91.442	0.128	0.146
-547.325	-6.008	-0.170	0.118
-546.310	-179.304	0.240	0.005
-545.296	25.943	0.061	-0.052
-544.281	-32.687	0.152	-0.086
-543.266	-13.771	0.247	0.162
-542.252	800.000	-0.083	-0.239
-541.237	555.250	0.058	0.141
-540.223	-3.831	-0.108	-0.076
-539.208	321.111	-0.027	-0.052
-538.193	1.262	-0.179	0.130
-537.179	-165.578	-0.277	-0.012
-536.164	-135.008	0.210	0.026
-535.150	800.000	0.029	0.084
-534.135	-0.423	0.328	-0.236
-533.121	-136.573	-0.016	-0.002
-532.106	506.153	0.088	-0.206
-531.091	76.793	0.077	-0.083
-530.077	317.305	-0.159	-0.305
-529.062	250.451	-0.015	0.026
-528.048	16.496	-0.088	-0.070
-527.033	-108.895	-0.112	-0.024
-526.018	329.530	0.052	-0.101
-525.004	100.638	-0.075	-0.089
-523.989	-120.434	0.148	-0.025
-522.975	-200.000	0.005	0.029
-521.960	287.911	-0.034	-0.063
-520.945	-55.520	0.168	0.076
-519.931	597.540	0.052	-0.131
-518.916	-164.407	-0.470	0.022
-517.902	-127.250	0.229	0.034
-516.887	-200.000	0.024	-0.107
-515.872	-200.000	0.020	-0.109
-514.858	-26.976	-0.120	-0.071
-513.843	42.067	0.108	0.099
-512.829	220.435	-0.109	0.177
-511.814	-89.105	-0.180	-0.054
-510.799	800.000	-0.094	0.292
-509.785	800.000	-0.058	0.173
-508.770	745.523	-0.040	-0.110
-507.756	28.454	0.089	-0.076
-506.741	205.530	0.099	0.157
-505.726	-152.449	-0.040	-0.003
-504.712	-200.000	0.014	0.104
-503.697	236.434	-0.196	-0.328
-502.683	616.960	-0.083	-0.212
-501.668	10.753	0.237	0.184
-500.653	-122.385	0.080	0.013
-499.639	-122.985	0.267	-0.043
-498.624	4.177	-0.113	0.084
-497.610	215.684	-0.085	0.136
-496.595	552.728	0.043	-0.105
-495.581	-92.845	0.172	0.049
-494.566	132.042	0.114	-0.148
-493.551	368.460	0.029	0.060
-492.537	-134.639	-0.102	0.013
-491.522	-66.779	-0.089	-0.036
-490.508	48.075	0.163	-0.154
-489.493	-200.000	0.002	0.050
-488.478	-116.309	0.267	0.050
-487.464	-57.403	0.123	-0.055
-486.449	-11.513	0.095	0.063
-485.435	-200.000	0.068	-0.405
-484.420	-25.633	0.183	-0.109
-483.405	39.690	0.127	-0.116
-482.391	-102.171	-0.227	-0.055
-481.376	193.252	-0.152	0.232
-480.362	-132.764	0.172	0.022
-479.347	-52.226	-0.437	-0.205
-478.332	484.495	-0.145	0.334
-477.318	-200.000	0.006	0.338
-476.303	-5.996	-0.126	-0.087
-475.289	-145.361	0.222	-0.020
-474.274	-46.853	0.166	0.082
-473.259	262.712	-0.160	-0.281
-472.245	-72.470	0.107	-0.040
-471.230	-179.479	0.070	0.002
-470.216	-200.000	-0.010	0.342
-469.201	-34.402	-0.129	0.072
-468.186	-103.563	-0.404	-0.096
-467.172	539.756	-0.165	0.397
-466.157	88.803	-0.069	0.078
-465.143	22.584	-0.111	0.092
-464.128	338.519	-0.110	-0.218
-463.113	-93.181	-0.063	0.018
-462.099	153.385	-0.035	-0.049
-461.084	-83.182	-0.135	0.044
-460.070	-119.218	-0.238	-0.042
-459.055	738.045	0.098	0.265
-458.040	-200.000	-0.024	-0.124
-457.026	-87.726	-0.297	0.091
-456.011	800.000	-0.009	0.031
-454.997	498.448	-0.140	-0.327
-453.982	-153.401	-0.195	-0.014
-452.968	800.000	-0.027	-0.098
-451.953	47.314	-0.045	0.042
-450.938	-200.000	0.013	0.373
-449.924	-49.294	0.142	-0.069
-448.909	60.969	-0.197	-0.197
-447.895	800.000	-0.056	0.220
-446.880	-200.000	-0.007	0.035
-445.865	341.703	0.039	-0.078
-444.851	555.074	0.053	-0.130
-443.836	800.000	-0.079	-0.342
-442.822	-97.393	-0.190	0.050
-441.807	201.310	0.135	0.210
-440.792	5.432	-0.266	-0.199
-439.778	-125.356	0.159	0.024
-438.763	-24.029	0.169	-0.102
-437.749	-140.520	-0.515	-0.054
-436.734	-200.000	0.009	0.107
-435.719	800.000	-0.077	-0.278
-434.705	-200.000	-0.023	0.230
-433.690	800.000	-0.099	0.342
-432.676	-7.645	-0.384	0.262
-431.661	-58.096	0.275	0.121
-430.646	699.506	-0.027	-0.071
-429.632	178.300	0.129	0.190
-428.617	-200.000	-0.001	-0.029
-427.603	243.750	0.083	-0.140
-426.588	149.910	0.173	-0.237
-425.573	-200.000	0.004	0.059
-424.559	800.000	-0.013	-0.049
-423.544	-151.129	0.210	-0.016
-422.530	-110.432	0.192	-0.040
-421.515	182.564	0.048	-0.071
-420.500	-200.000	0.046	-0.475
-419.486	800.000	-0.100	-0.344
-418.471	800.000	0.050	0.177
-417.457	-153.344	0.161	-0.011
-416.442	-200.000	-0.004	-0.067
-415.428	-200.000	0.026	0.359
-414.413	210.319	0.097	0.154
-413.398	45.347	-0.214	-0.199
-412.384	-61.627	0.145	-0.061
-411.369	-200.000	0.012	0.081
-410.355	469.374	-0.105	-0.238
-409.340	169.243	-0.256	-0.369
-408.325	800.000	-0.109	-0.323
-407.311	-200.000	-0.010	0.243
-406.296	-68.972	0.069	0.027
-405.282	-200.000	0.024	0.170
-404.267	-84.846	-0.411	0.130
-403.252	618.191	-0.087	0.219
-402.238	157.620	0.257	0.359
-401.223	50.435	0.094	0.090
-400.209	483.347	-0.015	0.035
-399.194	201.820	0.051	0.079
-398.179	97.596	-0.044	0.051
-397.165	31.873	-0.045	0.039
-396.150	27.822	0.145	-0.124
-395.136	88.614	-0.098	-0.110
-394.121	-103.642	0.067	-0.016
-393.106	-9.784	-0.406	0.273
-392.092	-64.733	-0.041	0.017
-391.077	466.198	-0.110	-0.248
-390.063	-200.000	0.003	0.124
-389.048	800.000	-0.046	0.197
-388.033	800.000	0.089	0.257
-387.019	-127.596	0.160	-0.023
-386.004	-62.349	-0.307	-0.129
-384.990	222.645	-0.137	-0.222
-383.975	1.223	-0.202	0.146
-382.960	463.018	0.067	0.151
-381.946	10.926	0.163	-0.126
-380.931	-147.595	0.080	0.007
-379.917	-200.000	0.024	-0.154
-378.902	-101.900	-0.068	-0.017
-377.888	64.485	-0.122	-0.124
-376.873	-77.106	-0.319	0.112
-375.858	396.582	-0.044	0.093
-374.844	238.912	0.090	-0.151
-373.829	-64.267	0.118	-0.048
-372.815	-114.136	0.114	0.022
-371.800	118.547	-0.093	0.116
-370.785	-78.401	-0.195	0.067
-369.771	239.401	0.188	0.316
-368.756	-65.488	-0.438	-0.177
-367.742	51.151	0.222	-0.213
-366.727	-200.000	-0.020	0.155
-365.712	-200.000	-0.097	0.000
-364.698	-98.066	-0.222	0.058
-363.683	13.858	0.187	0.147
-362.669	-79.978	0.311	0.105
-361.654	44.963	0.267	-0.248
-360.639	158.097	0.099	0.138
-359.625	-69.405	-0.344	0.133
-358.610	433.495	0.079	-0.173
-357.596	49.459	0.105	-0.100
-356.581	413.931	-0.139	-0.297
-355.566	128.740	-0.082	-0.106
-354.552	-151.394	0.257	0.019
-353.537	-72.762	0.102	0.038
-352.523	-200.000	-0.000	-0.033
-351.508	-200.000	-0.006	0.132
-350.493	532.937	-0.139	0.332
-349.479	800.000	-0.141	0.414
-348.464	-153.315	-0.215	0.015
-347.450	25.079	-0.130	0.109
-346.435	-200.000	-0.005	-0.034
-345.420	-200.000	-0.009	0.284
-344.406	-74.103	0.229	-0.084
-343.391	-45.671	-0.264	-0.131
-342.377	-110.961	-0.189	0.039
-341.362	-73.560	-0.099	0.036
-340.348	-3.223	-0.193	0.136
-339.333	-18.521	0.127	-0.080
-338.318	800.000	0.037	-0.131
-337.304	501.807	-0.129	-0.299
-336.289	16.895	0.128	0.102
-335.275	-23.033	0.209	0.127
-334.260	-114.506	-0.196	0.038
-333.245	-200.000	-0.016	-0.096
-332.231	0.492	0.223	-0.160
-331.216	-200.000	-0.011	-0.250
-330.202	163.698	0.095	-0.135
-329.187	-78.834	-0.178	0.061
-328.172	-125.954	-0.065	-0.010
-327.158	-56.994	0.020	-0.009
-326.143	-74.083	-0.009	0.003
-325.129	-108.187	-0.246	0.054
-324.114	-200.000	0.012	-0.272
-323.099	-48.749	0.266	-0.129
-322.085	-200.000	-0.007	0.190
-321.070	597.250	0.156	-0.390
-320.056	-103.548	0.123	-0.029
-319.041	-87.110	0.082	0.025
-318.026	-60.879	-0.241	-0.102
-317.012	239.710	-0.199	0.334
-315.997	-84.727	-0.150	0.048
-314.983	-200.000	-0.037	-0.250
-313.968	314.579	-0.072	0.137
-312.953	-200.000	-0.027	0.396
-311.939	800.000	0.181	-0.584
-310.924	171.845	0.182	-0.263
-309.910	145.805	0.033	-0.045
-308.895	-200.000	-0.054	0.287
-307.880	-0.785	-0.113	0.081
-306.866	174.296	-0.027	-0.040
-305.851	184.035	-0.169	-0.251
-304.837	-89.089	-0.130	-0.039
-303.822	92.028	0.132	-0.150
-302.807	32.506	0.245	-0.213
-301.793	-173.543	-0.092	0.003
-300.778	18.439	0.345	0.277
-299.764	385.648	0.022	0.046
-298.749	102.278	-0.094	0.111
-297.735	689.670	0.042	0.110
-296.720	312.555	-0.231	0.436
-295.705	-198.243	0.314	-0.002
-294.691	-74.581	-0.335	-0.121
-293.676	791.676	-0.109	0.300
-292.662	78.659	0.403	0.433
-291.647	800.000	-0.029	-0.116
-290.632	-40.650	0.180	-0.094
-289.618	142.735	0.171	0.229
-288.603	-200.000	0.003	-0.070
-287.589	-0.523	0.223	-0.159
-286.574	547.661	-0.041	-0.099
-285.559	1.377	0.326	-0.235
-284.545	169.487	-0.013	-0.018
-283.530	130.960	-0.098	-0.126
-282.516	-87.886	0.287	-0.087
-281.501	-200.000	-0.146	0.001
-280.486	-200.000	-0.019	0.289
-279.472	-164.185	-0.041	0.002
-278.457	-84.411	-0.080	-0.025
-277.443	-144.773	0.031	-0.003
-276.428	-99.163	-0.233	-0.059
-275.413	-59.903	-0.028	-0.012
-274.399	-2.104	-0.246	0.173
-273.384	37.044	-0.118	0.105
-272.370	34.725	0.014	-0.013
-271.355	-77.073	0.157	-0.055
-270.340	800.000	-0.103	-0.292
-269.326	234.248	0.123	-0.204
-268.311	-106.990	0.375	-0.083
-267.297	-42.915	-0.105	-0.053
-266.282	-114.352	-0.447	-0.086
-265.267	-200.000	-0.008	0.327
-264.253	469.566	0.064	0.145
-263.238	-49.276	-0.157	0.075
-262.224	-200.000	-0.038	0.414
-261.209	-200.000	0.026	-0.118
-260.195	-167.525	0.272	0.011
-259.180	800.000	0.080	-0.335
-258.165	-72.109	-0.122	0.045
-257.151	-200.000	-0.006	0.092
-256.136	-115.811	0.117	-0.022
-255.122	-56.586	-0.074	-0.033
-254.107	-20.729	0.210	-0.130
-253.092	-200.000	-0.044	-0.271
-252.078	127.280	-0.003	-0.004
-251.063	-127.280	0.188	-0.028
-250.049	186.523	0.148	-0.221
-249.034	800.000	0.107	-0.345
-248.019	-147.795	0.059	-0.005
-247.005	-69.637	0.246	-0.094
-245.990	475.925	0.042	0.095
-244.976	195.745	0.168	0.256
-243.961	-110.158	0.293	-0.061
-242.946	42.846	0.024	0.022
-241.932	-80.004	0.449	-0.151
-240.917	203.877	0.016	-0.024
-239.903	14.873	0.096	0.075
-238.888	-100.589	0.233	-0.058
-237.873	-33.830	0.058	0.032
-236.859	123.413	0.221	0.278
-235.844	-73.476	0.071	0.026
-234.830	797.951	-0.037	-0.103
-233.815	-60.299	0.010	0.004
-232.800	160.018	-0.074	0.104
-231.786	-177.148	0.217	-0.005
-230.771	-196.813	-0.397	0.003
-229.757	118.152	-0.128	0.159
-228.742	-131.360	-0.226	0.030
-227.727	-44.955	0.396	0.198
-226.713	-122.067	0.125	0.021
-225.698	-200.000	0.007	-0.175
-224.684	-200.000	0.021	0.159
-223.669	678.317	0.109	0.284
-222.655	280.051	0.126	-0.226
-221.640	-17.395	0.008	0.005
-220.625	2.504	0.134	-0.097
-219.611	-29.343	-0.249	-0.143
-218.596	117.743	-0.056	0.069
-217.582	-142.607	-0.111	-0.011
-216.567	800.000	0.072	0.285
-215.552	-200.000	-0.052	-0.281
-214.538	113.146	0.186	-0.226
-213.523	133.125	-0.247	0.320
-212.509	321.777	-0.042	-0.081
-211.494	-55.461	-0.183	-0.082
-210.479	175.206	0.214	0.310
-209.465	40.585	0.102	0.092
-208.450	277.315	0.093	-0.165
-207.436	259.937	0.079	-0.137
-206.421	-102.815	-0.072	-0.017
-205.406	-76.355	0.180	0.063
-204.392	325.683	-0.160	-0.307
-203.377	-28.408	0.289	-0.167
-202.363	-83.892	-0.211	0.067
-201.348	18.237	0.275	-0.220
-200.333	-80.292	0.326	-0.109
-199.319	-64.761	-0.163	0.066
-198.304	286.161	0.135	0.244
-197.290	-38.863	-0.051	-0.027
-196.275	-200.000	-0.047	0.376
-195.260	-70.297	0.137	-0.052
-194.246	-70.419	0.170	0.065
-193.231	-200.000	0.054	-0.335
-192.217	278.897	-0.031	0.056
-191.202	35.468	0.166	-0.146
-190.187	-200.000	0.012	-0.089
-189.173	-200.000	-0.005	-0.104
-188.158	-200.000	-0.036	-0.328
-187.144	-106.887	-0.073	0.016
-186.129	56.098	-0.173	0.168
-185.114	800.000	-0.073	0.209
-184.100	-25.787	0.038	0.023
-183.085	800.000	0.065	-0.217
-182.071	16.245	-0.407	0.321
-181.056	-200.000	-0.027	0.228
-180.042	57.713	-0.201	0.197
-179.027	-157.372	0.093	-0.006
-178.012	-200.000	-0.079	-0.345
-176.998	68.416	0.158	0.162
-175.983	-24.415	0.184	0.110
-174.969	-13.312	-0.099	-0.064
-173.954	-42.514	0.129	-0.066
-172.939	67.228	-0.187	0.190
-171.925	-61.775	0.103	0.043
-170.910	-200.000	-0.034	0.261
-169.896	-9.580	0.132	0.088
-168.881	-52.633	-0.004	-0.002
-167.866	118.807	0.170	0.210
-166.852	-200.000	0.039	-0.361
-165.837	692.036	0.022	-0.058
-164.823	4.890	-0.035	0.026
-163.808	628.786	-0.060	0.151
-162.793	-85.631	-0.149	0.046
-161.779	221.516	0.278	0.446
-160.764	384.739	-0.034	-0.070
-159.750	-200.000	-0.057	0.266
-158.735	-200.000	0.067	0.388
-157.720	-200.000	-0.029	-0.266
-156.706	-62.179	0.080	-0.033
-155.691	252.628	0.274	-0.466
-154.677	-80.583	-0.164	-0.055
-153.662	-200.000	-0.032	0.182
-152.647	800.000	0.122	0.425
-151.633	800.000	0.084	0.348
-150.618	800.000	-0.029	-0.121
-149.604	-184.117	-0.128	-0.002
-148.589	-196.953	-0.105	-0.001
-147.574	-40.377	-0.332	0.172
-146.560	319.436	-0.103	-0.196
-145.545	73.497	0.216	0.226
-144.531	-46.049	0.210	0.103
-143.516	-107.227	0.193	-0.043
-142.502	-32.143	0.195	-0.109
-141.487	-127.460	0.096	-0.014
-140.472	478.618	0.078	-0.176
-139.458	-61.995	0.249	0.104
-138.443	-89.008	0.148	-0.044
-137.429	-200.000	0.020	-0.366
-136.414	-37.636	-0.200	0.106
-135.399	-200.000	0.037	0.167
-134.385	40.590	0.259	-0.233
-133.370	-200.000	0.017	-0.092
-132.356	-184.105	-0.068	-0.001
-131.341	-16.344	-0.230	-0.146
-130.326	-80.659	-0.227	0.075
-129.312	-200.000	0.005	-0.082
-128.297	-158.265	0.075	-0.004
-127.283	-19.555	-0.109	0.068
-126.268	37.677	-0.082	-0.073
-125.253	-200.000	-0.002	-0.031
-124.239	-12.942	-0.105	-0.068
-123.224	-200.000	-0.035	0.342
