DTS Sentinel unit serial number:	SN413079Multiplexer serial number:	ORYXHardware model number:	OX4-SRSoftware version number:	ORYX F/W v4.00 Oryx Data Collector v3.7.2.0data status	okinstallation	princeton_trtdifferential loss correction	single-endedforward channel	channel 1reverse channel	N/Adate	2019/09/11time	03:12:11forward acquisition time	60.00reverse acquisition time	0.00gamma	496.2192k internal	0.2332k external	0.2332temperature offset calibration	0.9924default loss term (dB/km)	0.3790temperature slope calibration	1.0000multiplexer offset coefficient	1.0000multiplexer slope coefficient	1.0000fibre end	0.00T internal ref (°C)	29.34T ext. ref 1 (°C)	-0.32T ext. ref 2 (°C)	24.09length (m)	temperature (°C)	Stokes	anti-Stokes-747.200	79.045	-0.026	-0.028
-746.185	-109.816	0.093	-0.020
-745.171	185.902	0.066	0.098
-744.156	800.000	0.041	0.144
-743.142	72.449	-0.318	0.333
-742.127	176.670	0.111	0.162
-741.112	-200.000	0.068	-0.402
-740.098	-200.000	-0.019	0.385
-739.083	174.607	0.317	-0.461
-738.069	-67.718	-0.355	-0.140
-737.054	378.780	0.124	0.255
-736.039	-71.548	-0.301	-0.113
-735.025	800.000	0.062	-0.178
-734.010	152.032	0.227	-0.311
-732.996	142.745	0.085	-0.114
-731.981	-157.223	-0.613	-0.037
-730.966	381.854	-0.047	0.097
-729.952	-18.403	-0.299	0.188
-728.937	38.025	-0.201	-0.180
-727.923	800.000	-0.065	-0.263
-726.908	556.233	0.042	-0.103
-725.894	-105.202	-0.171	-0.039
-724.879	-200.000	0.040	0.306
-723.864	-32.042	0.076	0.043
-722.850	-200.000	-0.003	-0.099
-721.835	263.810	-0.145	-0.254
-720.821	-143.750	0.180	0.017
-719.806	-138.969	-0.087	-0.009
-718.791	-92.068	0.341	-0.097
-717.777	275.170	-0.106	-0.190
-716.762	64.722	0.219	-0.222
-715.748	-150.694	-0.230	-0.018
-714.733	-27.743	0.217	-0.126
-713.718	-200.000	-0.006	-0.169
-712.704	-200.000	-0.008	-0.127
-711.689	-26.583	0.209	-0.123
-710.675	52.589	-0.189	-0.181
-709.660	-200.000	0.002	0.016
-708.645	-103.748	0.173	-0.041
-707.631	-148.117	-0.264	0.022
-706.616	-200.000	0.017	0.138
-705.602	167.347	-0.234	-0.334
-704.587	-20.927	0.202	0.124
-703.572	-54.911	0.181	-0.082
-702.558	-138.529	-0.239	-0.026
-701.543	-26.651	-0.095	0.056
-700.529	33.174	-0.098	0.086
-699.514	77.677	0.127	-0.135
-698.499	-163.416	0.256	0.012
-697.485	-200.000	-0.043	-0.260
-696.470	-84.244	-0.343	-0.109
-695.456	-61.571	0.319	-0.134
-694.441	-111.274	-0.074	0.015
-693.426	-200.000	-0.017	0.226
-692.412	-134.299	-0.304	0.037
-691.397	800.000	0.045	0.168
-690.383	-143.533	0.136	0.013
-689.368	-61.224	0.267	0.113
-688.354	187.703	0.222	0.332
-687.339	292.093	0.049	0.089
-686.324	16.743	-0.210	-0.167
-685.310	136.390	0.104	-0.136
-684.295	-55.914	-0.222	-0.099
-683.281	-107.820	-0.182	0.040
-682.266	-200.000	-0.001	0.277
-681.251	-130.334	-0.294	0.040
-680.237	-200.000	0.024	-0.324
-679.222	800.000	-0.082	-0.237
-678.208	524.211	0.041	-0.096
-677.193	800.000	0.170	-0.488
-676.178	155.258	-0.297	0.410
-675.164	63.766	0.063	-0.063
-674.149	-64.151	-0.196	0.080
-673.135	-176.917	0.195	0.005
-672.120	-98.409	-0.057	0.015
-671.105	-13.882	-0.105	-0.068
-670.091	78.167	0.154	0.165
-669.076	-137.400	0.187	0.021
-668.062	-200.000	0.006	0.225
-667.047	-40.399	0.150	0.078
-666.032	173.029	0.133	0.192
-665.018	800.000	0.068	-0.276
-664.003	-116.309	-0.294	0.055
-662.989	-12.563	0.128	-0.084
-661.974	-105.020	-0.190	-0.044
-660.959	-200.000	-0.014	-0.212
-659.945	619.580	0.126	-0.317
-658.930	-200.000	-0.044	-0.241
-657.916	276.662	-0.082	-0.147
-656.901	535.568	0.056	-0.134
-655.886	-200.000	0.019	0.155
-654.872	155.975	-0.237	-0.327
-653.857	-61.989	0.201	0.084
-652.843	-123.590	0.197	-0.031
-651.828	55.663	0.240	-0.233
-650.814	800.000	0.186	-0.565
-649.799	-200.000	0.011	0.258
-648.784	23.077	-0.377	0.310
-647.770	-200.000	0.015	-0.184
-646.755	-200.000	0.045	-0.348
-645.741	-132.760	-0.163	-0.021
-644.726	326.420	0.066	-0.127
-643.711	-121.765	-0.069	-0.011
-642.697	425.992	0.209	0.451
-641.682	-65.498	-0.331	-0.133
-640.668	-62.212	0.161	0.067
-639.653	-29.909	-0.150	-0.086
-638.638	28.559	-0.267	-0.226
-637.624	800.000	0.105	-0.297
-636.609	567.520	0.104	-0.254
-635.595	-14.983	0.181	0.116
-634.580	301.182	-0.160	-0.296
-633.565	-114.172	-0.317	-0.061
-632.551	6.130	-0.110	0.082
-631.536	-58.854	0.141	0.061
-630.522	100.726	-0.147	-0.171
-629.507	-31.548	-0.123	0.069
-628.492	-200.000	0.011	-0.282
-627.478	-120.003	-0.086	-0.015
-626.463	70.633	-0.202	-0.209
-625.449	105.445	0.049	-0.058
-624.434	800.000	0.117	-0.408
-623.419	-200.000	-0.003	-0.225
-622.405	800.000	0.008	-0.024
-621.390	193.670	0.116	0.176
-620.376	146.770	0.108	0.145
-619.361	22.223	0.141	0.116
-618.346	437.373	0.115	0.252
-617.332	261.484	-0.098	-0.170
-616.317	-200.000	0.026	-0.302
-615.303	-193.710	-0.129	0.001
-614.288	800.000	-0.021	0.071
-613.273	183.724	-0.162	0.240
-612.259	-150.645	0.379	0.029
-611.244	145.551	0.056	-0.074
-610.230	-79.713	-0.338	-0.114
-609.215	183.455	0.104	-0.154
-608.201	-80.935	0.189	-0.063
-607.186	31.949	-0.260	0.224
-606.171	800.000	-0.020	0.057
-605.157	156.050	0.089	0.123
-604.142	-63.301	-0.142	-0.058
-603.128	-200.000	0.032	-0.184
-602.113	-49.686	-0.176	0.084
-601.098	52.572	0.109	-0.104
-600.084	-96.447	-0.287	-0.076
-599.069	-98.660	-0.171	-0.044
-598.055	147.386	0.141	-0.190
-597.040	800.000	0.067	0.225
-596.025	663.837	-0.036	0.093
-595.011	459.847	0.073	0.163
-593.996	364.298	-0.060	0.121
-592.982	30.096	-0.263	-0.225
-591.967	-110.536	0.155	0.032
-590.952	-36.519	-0.228	-0.123
-589.938	-163.987	0.133	-0.006
-588.923	-200.000	0.059	0.289
-587.909	111.903	-0.171	0.206
-586.894	800.000	-0.048	0.137
-585.879	800.000	0.135	-0.400
-584.865	-50.126	0.123	-0.058
-583.850	34.653	-0.227	-0.198
-582.836	800.000	-0.009	-0.031
-581.821	54.158	0.075	0.072
-580.806	187.313	-0.057	0.085
-579.792	197.061	0.043	-0.066
-578.777	-200.000	-0.032	-0.191
-577.763	623.483	-0.110	0.278
-576.748	-200.000	0.007	0.212
-575.733	85.046	0.158	0.173
-574.719	-200.000	-0.031	0.193
-573.704	-200.000	0.023	0.153
-572.690	-200.000	0.027	0.228
-571.675	-59.628	0.143	-0.061
-570.661	19.825	0.240	0.193
-569.646	-200.000	-0.113	-0.497
-568.631	-200.000	0.041	0.495
-567.617	-109.281	-0.282	0.060
-566.602	635.359	0.105	-0.267
-565.588	634.776	-0.055	-0.138
-564.573	-42.871	-0.392	-0.199
-563.558	-161.919	-0.093	-0.005
-562.544	449.931	-0.059	0.129
-561.529	-21.654	-0.171	0.104
-560.515	-123.681	0.445	-0.070
-559.500	-124.253	-0.169	0.026
-558.485	-53.045	0.374	0.172
-557.471	-200.000	-0.030	0.152
-556.456	-124.811	-0.148	-0.023
-555.442	-200.000	0.010	0.135
-554.427	246.728	0.230	0.388
-553.412	-200.000	-0.066	0.338
-552.398	-63.720	-0.112	0.046
-551.383	288.614	-0.085	0.155
-550.369	-124.971	-0.224	0.034
-549.354	-33.374	-0.021	-0.012
-548.339	800.000	-0.079	0.253
-547.325	-200.000	0.024	-0.212
-546.310	-94.483	0.232	0.063
-545.296	-141.524	0.253	-0.025
-544.281	28.910	0.288	0.244
-543.266	17.275	-0.373	-0.295
-542.252	-133.852	0.420	0.052
-541.237	274.650	0.211	-0.373
-540.223	210.332	0.182	-0.286
-539.208	418.532	0.052	-0.111
-538.193	-123.629	0.243	-0.039
-537.179	105.027	-0.109	-0.128
-536.164	-114.113	0.117	0.023
-535.150	-200.000	-0.024	0.165
-534.135	146.561	0.216	-0.290
-533.121	274.741	-0.221	-0.391
-532.106	-200.000	-0.017	-0.343
-531.091	688.809	-0.106	0.277
-530.077	-200.000	0.014	0.133
-529.062	-58.727	-0.189	-0.082
-528.048	-200.000	-0.012	0.059
-527.033	-103.724	0.265	0.062
-526.018	66.383	0.114	-0.116
-525.004	375.778	-0.189	0.384
-523.989	53.894	-0.126	-0.121
-522.975	-30.272	-0.187	-0.106
-521.960	1.310	-0.109	-0.078
-520.945	-200.000	-0.035	-0.305
-519.931	7.190	-0.144	0.107
-518.916	-200.000	-0.047	-0.226
-517.902	4.888	0.197	-0.144
-516.887	-200.000	-0.001	-0.053
-515.872	-54.503	0.374	-0.169
-514.858	-77.175	0.259	0.090
-513.843	352.744	-0.131	-0.259
-512.829	-200.000	0.046	-0.454
-511.814	-200.000	-0.027	0.372
-510.799	-200.000	-0.000	-0.230
-509.785	-200.000	-0.018	0.148
-508.770	-136.689	0.351	-0.040
-507.756	-99.820	0.244	0.061
-506.741	10.196	-0.309	0.235
-505.726	-200.000	0.017	0.109
-504.712	-80.822	-0.252	-0.083
-503.697	72.375	-0.033	0.034
-502.683	0.044	0.274	0.195
-501.668	-36.355	-0.177	-0.095
-500.653	-115.254	0.078	0.015
-499.639	1.689	0.255	0.183
-498.624	-200.000	0.037	-0.336
-497.610	581.885	0.195	-0.476
-496.595	57.848	0.158	-0.154
-495.581	-140.761	0.313	-0.032
-494.566	147.622	0.059	-0.079
-493.551	-200.000	-0.045	-0.217
-492.537	459.821	-0.085	0.189
-491.522	-200.000	0.043	0.232
-490.508	-112.449	-0.110	0.022
-489.493	124.508	0.055	-0.069
-488.478	-162.322	-0.207	0.010
-487.464	-21.112	0.243	-0.148
-486.449	-200.000	-0.003	-0.140
-485.435	169.532	-0.046	0.065
-484.420	-28.215	-0.361	0.208
-483.405	90.448	-0.125	-0.140
-482.391	-100.630	0.184	0.045
-481.376	800.000	-0.069	0.201
-480.362	-169.381	-0.147	0.005
-479.347	231.066	-0.183	0.299
-478.332	-200.000	-0.015	-0.150
-477.318	800.000	0.028	-0.092
-476.303	-200.000	-0.010	0.082
-475.289	200.593	0.195	0.299
-474.274	-136.739	0.389	-0.045
-473.259	-128.234	0.130	-0.019
-472.245	800.000	-0.077	-0.281
-471.230	-124.102	-0.225	0.035
-470.216	800.000	0.039	0.123
-469.201	-48.938	-0.287	0.137
-468.186	80.040	0.005	-0.005
-467.172	35.992	-0.102	-0.089
-466.157	-111.420	0.294	0.060
-465.143	-37.787	0.299	-0.158
-464.128	800.000	0.130	0.389
-463.113	630.191	-0.113	0.284
-462.099	174.119	0.319	-0.459
-461.084	-200.000	-0.040	-0.548
-460.070	85.476	0.185	-0.202
-459.055	185.932	0.065	-0.096
-458.040	-200.000	-0.031	-0.387
-457.026	-96.969	0.312	-0.081
-456.011	647.737	-0.102	-0.260
-454.997	-200.000	0.021	-0.107
-453.982	-200.000	-0.033	-0.317
-452.968	-200.000	0.002	-0.147
-451.953	-18.602	-0.081	-0.050
-450.938	215.186	0.081	-0.128
-449.924	26.807	-0.278	-0.232
-448.909	800.000	0.061	0.201
-447.895	172.482	-0.178	-0.255
-446.880	-30.447	0.256	0.144
-445.865	800.000	-0.086	-0.336
-444.851	-73.400	0.277	0.101
-443.836	400.072	0.081	-0.168
-442.822	-179.988	0.276	0.006
-441.807	62.119	0.021	0.020
-440.792	-125.069	-0.109	0.017
-439.778	-86.822	0.249	0.076
-438.763	-35.561	-0.168	-0.090
-437.749	-200.000	-0.019	-0.406
-436.734	-142.872	-0.084	0.008
-435.719	-46.968	-0.170	-0.083
-434.705	590.214	0.071	-0.174
-433.690	17.951	0.490	0.388
-432.676	504.603	-0.078	0.179
-431.661	268.068	0.035	-0.061
-430.646	225.186	-0.121	0.194
-429.632	-78.204	0.090	-0.031
-428.617	190.138	-0.141	-0.211
-427.603	-200.000	-0.043	0.197
-426.588	10.103	-0.057	-0.043
-425.573	-12.737	0.328	0.212
-424.559	-83.941	0.305	0.097
-423.544	148.143	0.161	-0.216
-422.530	87.701	-0.109	-0.120
-421.515	-76.462	-0.100	0.035
-420.500	800.000	-0.119	-0.363
-419.486	91.784	-0.188	0.210
-418.471	633.887	0.115	0.290
-417.457	314.932	0.068	-0.128
-416.442	180.242	-0.074	0.107
-415.428	-90.763	0.208	-0.060
-414.413	-41.779	-0.180	-0.092
-413.398	800.000	0.032	0.096
-412.384	51.151	-0.203	-0.192
-411.369	2.969	0.155	0.112
-410.355	-90.182	-0.150	-0.043
-409.340	800.000	-0.090	-0.313
-408.325	26.076	-0.318	0.264
-407.311	-5.287	-0.215	0.147
-406.296	800.000	0.066	0.219
-405.282	-90.890	-0.357	-0.102
-404.267	-135.047	0.084	-0.010
-403.252	-17.960	-0.117	-0.073
-402.238	614.004	-0.084	0.210
-401.223	20.116	-0.199	0.159
-400.209	-64.328	-0.062	-0.025
-399.194	224.181	-0.318	0.509
-398.179	-200.000	0.007	0.257
-397.165	-42.471	0.148	0.075
-396.150	38.036	-0.148	-0.131
-395.136	21.636	-0.150	-0.121
-394.121	-130.168	-0.288	0.039
-393.106	-118.778	0.061	0.011
-392.092	-140.081	-0.210	-0.022
-391.077	-46.790	0.221	0.107
-390.063	-102.634	-0.305	0.072
-389.048	38.884	0.111	0.099
-388.033	-200.000	0.028	0.498
-387.019	64.885	0.170	0.170
-386.004	-67.016	-0.234	0.092
-384.990	800.000	0.043	0.177
-383.975	-200.000	-0.012	0.301
-382.960	-10.261	-0.133	0.088
-381.946	-102.677	-0.134	0.032
-380.931	-183.773	0.187	0.003
-379.917	46.819	0.134	0.124
-378.902	-37.430	-0.080	-0.043
-377.888	158.519	0.148	-0.203
-376.873	800.000	0.043	0.131
-375.858	-161.675	-0.080	0.004
-374.844	61.549	0.117	-0.116
-373.829	-200.000	0.040	-0.213
-372.815	71.707	0.109	-0.112
-371.800	-123.988	0.440	-0.069
-370.785	241.704	-0.124	-0.206
-369.771	-200.000	-0.053	-0.306
-368.756	298.034	0.073	-0.132
-367.742	73.273	0.289	0.300
-366.727	43.498	-0.118	0.107
-365.712	-78.435	0.239	-0.081
-364.698	-4.256	0.238	-0.163
-363.683	-85.437	-0.291	-0.090
-362.669	610.512	0.108	-0.267
-361.654	800.000	0.041	0.166
-360.639	-178.747	-0.254	-0.006
-359.625	258.357	-0.080	0.137
-358.610	284.552	0.086	0.154
-357.596	398.999	-0.031	0.064
-356.581	385.429	0.106	0.217
-355.566	-200.000	0.013	0.341
-354.552	240.199	-0.130	-0.214
-353.537	-180.072	-0.490	0.010
-352.523	-158.162	-0.095	0.006
-351.508	-2.566	0.179	-0.124
-350.493	129.470	-0.072	0.092
-349.479	-103.242	0.078	0.018
-348.464	411.496	-0.056	-0.117
-347.450	800.000	-0.115	-0.314
-346.435	54.567	0.157	-0.149
-345.420	-8.188	-0.149	-0.100
-344.406	-78.724	0.178	0.060
-343.391	762.840	0.057	-0.152
-342.377	-200.000	0.003	-0.050
-341.362	-194.136	0.140	-0.001
-340.348	514.634	0.086	0.198
-339.333	-66.329	0.355	0.140
-338.318	-37.421	-0.082	0.044
-337.304	-200.000	0.081	0.361
-336.289	-84.367	0.235	0.074
-335.275	-200.000	0.037	0.295
-334.260	263.845	-0.153	0.263
-333.245	270.259	0.078	-0.136
-332.231	86.857	-0.101	0.111
-331.216	151.724	0.107	-0.145
-330.202	-43.818	0.037	-0.018
-329.187	-66.593	-0.346	-0.136
-328.172	800.000	0.036	0.133
-327.158	-145.715	-0.245	-0.022
-326.143	1.603	-0.231	0.165
-325.129	356.135	-0.063	0.125
-324.114	-200.000	-0.004	0.191
-323.099	-69.995	-0.348	-0.131
-322.085	30.730	-0.085	-0.072
-321.070	88.276	-0.137	-0.150
-320.056	800.000	-0.108	-0.313
-319.041	-200.000	0.002	0.038
-318.026	443.364	-0.233	0.504
-317.012	72.842	0.198	0.204
-315.997	-200.000	0.001	0.363
-314.983	-4.073	-0.267	0.183
-313.968	-68.486	0.277	-0.106
-312.953	-200.000	-0.005	0.047
-311.939	-73.651	-0.344	-0.124
-310.924	55.564	0.323	-0.309
-309.910	800.000	0.072	0.304
-308.895	-56.699	0.292	-0.128
-307.880	-89.303	-0.168	-0.049
-306.866	-200.000	0.029	-0.452
-305.851	154.559	0.121	-0.164
-304.837	336.867	-0.068	-0.130
-303.822	800.000	0.044	0.124
-302.807	192.293	0.105	-0.156
-301.793	722.305	0.048	0.125
-300.778	-135.172	0.058	0.007
-299.764	75.965	-0.196	0.205
-298.749	-56.658	0.200	0.087
-297.735	93.560	0.151	0.169
-296.720	-130.129	-0.181	-0.024
-295.705	190.980	0.102	0.152
-294.691	-173.619	0.169	-0.005
-293.676	-6.300	-0.077	0.052
-292.662	-48.757	-0.141	-0.067
-291.647	800.000	0.124	-0.376
-290.632	-179.399	-0.168	-0.004
-289.618	-114.656	0.429	0.081
-288.603	225.434	-0.181	-0.290
-287.589	-138.402	0.285	0.031
-286.574	177.371	-0.228	-0.328
-285.559	-200.000	-0.021	0.159
-284.545	-89.949	0.328	-0.095
-283.530	-115.333	-0.274	-0.051
-282.516	-173.951	-0.100	-0.003
-281.501	-4.740	0.144	-0.098
-280.486	38.334	0.069	-0.061
-279.472	-62.557	0.318	-0.131
-278.457	800.000	-0.051	-0.216
-277.443	-142.038	0.129	-0.013
-276.428	-9.283	0.418	0.276
-275.413	-200.000	-0.020	0.250
-274.399	-176.958	-0.372	0.009
-273.384	-18.364	0.115	0.071
-272.370	465.124	0.099	0.219
-271.355	74.703	0.222	0.231
-270.340	467.396	0.179	0.396
-269.326	-1.942	-0.093	0.065
-268.311	-200.000	-0.026	-0.143
-267.297	-49.450	-0.229	-0.108
-266.282	-53.795	-0.176	0.079
-265.267	420.317	-0.023	0.049
-264.253	-200.000	-0.008	-0.074
-263.238	124.184	-0.161	0.199
-262.224	800.000	0.043	0.177
-261.209	800.000	-0.078	-0.295
-260.195	-200.000	0.061	0.301
-259.180	-63.171	-0.262	0.106
-258.165	375.642	0.117	-0.235
-257.151	257.525	0.109	0.185
-256.136	65.314	-0.199	-0.198
-255.122	227.337	0.151	-0.243
-254.107	800.000	0.012	0.045
-253.092	-200.000	0.012	0.255
-252.078	-180.653	0.340	0.007
-251.063	-15.457	0.137	0.086
-250.049	40.021	-0.140	-0.124
-249.034	784.125	0.115	0.312
-248.019	-137.058	-0.077	-0.009
-247.005	-47.362	-0.330	0.158
-245.990	800.000	-0.047	0.175
-244.976	-138.926	-0.096	0.010
-243.961	-76.841	-0.047	0.016
-242.946	800.000	0.102	0.314
-241.932	63.567	-0.049	-0.048
-240.917	-83.601	-0.218	-0.069
-239.903	-200.000	-0.046	0.371
-238.888	330.951	-0.122	-0.232
-237.873	38.138	0.278	0.244
-236.859	-66.537	0.214	-0.084
-235.844	-200.000	-0.034	-0.189
-234.830	-200.000	0.001	0.182
-233.815	-200.000	0.008	-0.288
-232.800	-126.759	0.299	0.044
-231.786	47.886	0.082	0.076
-230.771	261.974	0.065	-0.112
-229.757	190.225	-0.259	-0.384
-228.742	679.567	0.120	0.308
-227.727	-200.000	-0.002	0.335
-226.713	139.804	-0.104	-0.135
-225.698	-147.713	-0.290	-0.024
-224.684	92.921	0.161	-0.179
-223.669	-200.000	-0.026	0.197
-222.655	108.147	-0.318	-0.374
-221.640	-143.309	-0.145	-0.014
-220.625	-141.074	0.170	0.017
-219.611	81.911	0.049	0.052
-218.596	-48.250	0.063	-0.030
-217.582	-200.000	0.010	0.164
-216.567	-200.000	0.155	-0.001
-215.552	-60.420	0.145	-0.061
-214.538	-43.128	0.320	-0.160
-213.523	666.820	0.072	-0.183
-212.509	18.941	0.200	0.158
-211.494	-101.373	-0.203	0.049
-210.479	-85.844	0.411	-0.125
-209.465	-54.000	-0.113	-0.051
-208.450	-17.194	0.259	0.161
-207.436	800.000	0.128	0.366
-206.421	328.955	-0.141	0.266
-205.406	-103.579	-0.142	0.033
-204.392	-96.133	0.260	0.068
-203.377	-107.720	0.386	-0.083
-202.363	-164.430	-0.536	0.024
-201.348	-200.000	-0.035	-0.381
-200.333	247.464	0.073	0.122
-199.319	87.054	0.129	-0.140
-198.304	-108.267	-0.330	0.070
-197.290	375.453	0.119	-0.239
-196.275	-104.206	0.387	-0.088
-195.260	151.137	0.056	-0.075
-194.246	-89.032	-0.061	-0.018
-193.231	210.869	0.133	-0.207
-192.217	-173.003	0.162	0.005
-191.202	-86.355	-0.147	0.045
-190.187	503.966	0.051	0.116
-189.173	613.884	0.143	-0.353
-188.158	602.316	-0.047	-0.116
-187.144	-200.000	-0.011	-0.194
-186.129	-14.767	-0.091	0.057
-185.114	99.740	0.191	0.218
-184.100	-200.000	-0.028	0.203
-183.085	-102.245	0.238	-0.056
-182.071	-200.000	0.035	0.388
-181.056	-153.097	0.162	0.011
-180.042	800.000	0.058	0.184
-179.027	-200.000	0.031	-0.190
-178.012	-110.600	-0.231	0.047
-176.998	-27.268	-0.366	-0.210
-175.983	149.525	-0.087	0.116
-174.969	-154.064	-0.278	0.019
-173.954	386.353	0.136	-0.277
-172.939	34.833	-0.074	0.064
-171.925	-21.903	0.179	0.107
-170.910	-7.102	-0.117	-0.078
-169.896	50.158	-0.091	0.084
-168.881	-153.488	-0.168	0.011
-167.866	293.907	0.081	0.146
-166.852	95.632	-0.217	-0.244
-165.837	153.507	-0.236	0.318
-164.823	-200.000	0.002	0.167
-163.808	-95.343	-0.252	0.067
-162.793	530.694	-0.072	-0.168
-161.779	-200.000	-0.023	-0.111
-160.764	76.408	-0.275	-0.286
-159.750	-88.980	-0.244	-0.071
-158.735	508.120	0.024	-0.054
-157.720	3.332	0.162	-0.116
-156.706	23.968	-0.264	0.214
-155.691	210.382	-0.187	0.289
-154.677	6.601	0.143	0.104
-153.662	29.752	-0.223	0.186
-152.647	-200.000	0.003	0.447
-151.633	252.425	-0.116	-0.195
-150.618	-106.783	-0.112	0.025
-149.604	148.016	-0.054	-0.072
-148.589	354.092	0.190	-0.370
-147.574	13.474	0.195	-0.149
-146.560	127.598	0.131	0.163
-145.545	-200.000	-0.000	-0.295
-144.531	95.191	0.144	0.162
-143.516	-67.991	-0.188	-0.072
-142.502	95.004	0.212	-0.237
-141.487	-150.485	0.354	-0.027
-140.472	-66.744	-0.116	0.045
-139.458	722.871	0.102	0.267
-138.443	800.000	-0.039	-0.122
-137.429	-66.564	0.191	-0.074
-136.414	63.964	0.227	-0.224
-135.399	-177.181	0.147	0.004
-134.385	262.810	-0.071	-0.121
-133.370	-123.395	-0.158	0.025
-132.356	297.388	-0.076	-0.138
-131.341	-200.000	0.003	-0.027
-130.326	52.370	-0.209	0.196
-129.312	134.685	-0.130	-0.166
-128.297	-200.000	-0.018	-0.260
-127.283	800.000	0.164	-0.538
-126.268	-200.000	-0.015	-0.187
-125.253	442.179	-0.133	0.287
-124.239	-199.219	0.379	0.002
-123.224	800.000	0.076	0.208
-122.210	85.018	0.206	0.222
