DTS Sentinel unit serial number:	SN413079Multiplexer serial number:	ORYXHardware model number:	OX4-SRSoftware version number:	ORYX F/W v4.00 Oryx Data Collector v3.7.2.0data status	okinstallation	princeton_trtdifferential loss correction	single-endedforward channel	channel 1reverse channel	N/Adate	2019/09/11time	06:40:11forward acquisition time	60.00reverse acquisition time	0.00gamma	496.2192k internal	0.2331k external	0.2331temperature offset calibration	0.9922default loss term (dB/km)	0.3790temperature slope calibration	1.0000multiplexer offset coefficient	1.0000multiplexer slope coefficient	1.0000fibre end	0.00T internal ref (°C)	29.75T ext. ref 1 (°C)	-0.15T ext. ref 2 (°C)	24.67length (m)	temperature (°C)	Stokes	anti-Stokes-747.200	-6.841	-0.068	0.046
-746.185	334.284	-0.082	0.160
-745.171	-81.700	0.097	0.032
-744.156	147.783	-0.181	-0.245
-743.142	-200.000	-0.041	-0.349
-742.127	48.727	-0.353	0.333
-741.112	-31.115	0.042	0.024
-740.098	-92.389	0.250	0.071
-739.083	800.000	0.062	-0.233
-738.069	-62.492	0.450	0.188
-737.054	-72.228	0.284	0.106
-736.039	-200.000	-0.039	-0.246
-735.025	-50.473	-0.131	0.062
-734.010	622.712	0.128	-0.324
-732.996	469.701	-0.191	-0.431
-731.981	-113.223	0.143	-0.028
-730.966	-200.000	0.014	-0.168
-729.952	318.294	0.039	0.075
-728.937	382.053	0.074	0.154
-727.923	-42.251	-0.125	0.064
-726.908	-200.000	0.083	0.498
-725.894	-200.000	0.010	0.136
-724.879	157.060	-0.100	-0.140
-723.864	-131.356	0.218	-0.029
-722.850	-82.112	-0.330	0.108
-721.835	-122.898	0.090	0.015
-720.821	-91.803	0.150	-0.043
-719.806	-200.000	0.016	-0.245
-718.791	-200.000	-0.061	-0.412
-717.777	-29.523	-0.108	-0.062
-716.762	800.000	0.088	-0.289
-715.748	328.008	0.038	0.074
-714.733	15.720	0.144	-0.114
-713.718	-200.000	-0.052	-0.232
-712.704	43.192	-0.114	0.105
-711.689	284.823	-0.168	0.303
-710.675	-41.963	0.142	-0.073
-709.660	-74.650	0.315	0.114
-708.645	-88.925	0.334	-0.099
-707.631	-67.969	-0.224	-0.088
-706.616	-47.173	-0.217	-0.106
-705.602	-101.159	-0.136	-0.033
-704.587	-35.026	0.158	0.087
-703.572	513.347	-0.078	-0.183
-702.558	40.463	-0.146	-0.132
-701.543	-200.000	-0.031	-0.432
-700.529	-88.528	0.167	-0.050
-699.514	-131.338	-0.167	0.022
-698.499	-99.092	0.194	-0.049
-697.485	214.536	-0.111	0.177
-696.470	-87.022	0.251	0.077
-695.456	238.094	0.114	-0.190
-694.441	-88.353	-0.140	0.042
-693.426	-200.000	-0.022	0.186
-692.412	348.441	0.015	-0.029
-691.397	-67.547	0.309	-0.122
-690.383	-7.946	0.222	0.150
-689.368	257.859	-0.166	-0.286
-688.354	-33.473	-0.097	-0.054
-687.339	-101.473	-0.234	-0.057
-686.324	800.000	0.073	0.223
-685.310	-144.760	-0.320	0.029
-684.295	-32.431	-0.149	-0.084
-683.281	590.771	0.029	-0.073
-682.266	20.298	0.027	-0.022
-681.251	-3.995	0.247	0.172
-680.237	-166.957	-0.117	-0.005
-679.222	-90.759	0.317	0.092
-678.208	-200.000	-0.012	-0.124
-677.193	-77.351	-0.212	-0.074
-676.178	-200.000	-0.007	-0.096
-675.164	-13.296	0.124	0.081
-674.149	43.049	-0.258	-0.236
-673.135	800.000	0.045	-0.179
-672.120	274.571	-0.158	-0.281
-671.105	568.961	-0.032	-0.078
-670.091	-83.586	-0.242	-0.078
-669.076	125.446	0.024	-0.031
-668.062	-33.715	0.255	-0.141
-667.047	655.096	-0.141	-0.364
-666.032	-200.000	0.013	-0.090
-665.018	-116.341	-0.221	0.041
-664.003	285.804	-0.108	-0.195
-662.989	-35.667	-0.381	0.207
-661.974	388.400	0.067	0.139
-660.959	-17.518	-0.211	0.133
-659.945	222.543	-0.103	-0.166
-658.930	-16.995	-0.314	0.199
-657.916	109.399	0.107	0.128
-656.901	-148.211	0.295	0.024
-655.886	-166.759	-0.306	-0.013
-654.872	-200.000	0.015	-0.345
-653.857	193.693	0.206	-0.312
-652.843	62.069	-0.321	-0.321
-651.828	-94.653	0.104	0.028
-650.814	245.991	-0.155	0.262
-649.799	-200.000	-0.050	-0.302
-648.784	-43.150	0.014	0.007
-647.770	-11.977	0.147	0.097
-646.755	-62.183	-0.366	0.153
-645.741	-75.197	-0.259	-0.093
-644.726	-200.000	-0.093	0.000
-643.711	162.718	-0.072	-0.101
-642.697	-153.729	0.091	-0.006
-641.682	-200.000	-0.023	-0.163
-640.668	-37.921	0.090	-0.048
-639.653	-17.477	-0.288	0.182
-638.638	-118.244	0.325	-0.058
-637.624	-88.873	0.332	0.099
-636.609	261.440	-0.020	0.036
-635.595	-200.000	-0.006	-0.032
-634.580	-200.000	0.004	-0.064
-633.565	800.000	-0.095	-0.289
-632.551	-33.414	-0.192	0.107
-631.536	-81.054	0.153	-0.051
-630.522	-191.252	0.048	-0.000
-629.507	104.435	-0.001	-0.001
-628.492	151.514	-0.198	0.271
-627.478	768.353	-0.058	0.158
-626.463	-200.000	0.019	0.088
-625.449	-6.051	0.263	-0.180
-624.434	-200.000	-0.022	-0.176
-623.419	-200.000	-0.018	0.151
-622.405	-21.593	0.222	0.135
-621.390	-66.924	-0.252	0.100
-620.376	-21.154	0.329	-0.202
-619.361	-38.464	0.186	-0.098
-618.346	-60.945	-0.236	-0.100
-617.332	-200.000	0.034	0.206
-616.317	-29.162	-0.190	0.109
-615.303	-122.534	-0.093	0.015
-614.288	368.864	0.147	-0.297
-613.273	-200.000	-0.015	0.186
-612.259	717.646	0.020	0.054
-611.244	219.830	0.082	0.131
-610.230	-69.534	-0.309	0.119
-609.215	-126.222	0.447	0.067
-608.201	342.813	0.038	0.074
-607.186	505.881	0.051	0.119
-606.171	-5.417	0.272	-0.187
-605.157	-111.175	0.153	-0.031
-604.142	134.952	-0.108	-0.141
-603.128	519.186	0.123	-0.288
-602.113	-138.007	0.067	-0.007
-601.098	-191.455	0.025	0.000
-600.084	41.710	-0.217	-0.196
-599.069	-150.330	-0.051	0.004
-598.055	72.466	-0.142	0.149
-597.040	120.745	0.115	-0.143
-596.025	-200.000	-0.018	-0.094
-595.011	-18.461	0.140	0.087
-593.996	-121.318	0.122	0.020
-592.982	68.739	0.262	0.269
-591.967	800.000	0.069	0.218
-590.952	800.000	0.117	-0.510
-589.938	-189.897	-0.141	0.002
-588.923	-5.159	-0.074	-0.051
-587.909	136.811	0.034	0.045
-586.894	-145.779	0.139	-0.012
-585.879	-107.739	0.374	-0.082
-584.865	-15.560	0.081	-0.052
-583.850	288.338	0.044	-0.079
-582.836	7.860	-0.182	0.136
-581.821	800.000	0.118	0.409
-580.806	-79.070	-0.076	-0.026
-579.792	34.165	0.082	-0.071
-578.777	-147.956	0.105	0.009
-577.763	128.876	-0.190	0.242
-576.748	199.174	-0.164	0.252
-575.733	800.000	-0.079	0.243
-574.719	495.741	0.103	-0.236
-573.704	30.578	-0.228	-0.195
-572.690	-200.000	-0.027	-0.148
-571.675	384.264	-0.063	-0.129
-570.661	-70.358	-0.320	0.121
-569.646	-28.599	-0.187	-0.108
-568.631	82.059	0.075	-0.081
-567.617	800.000	-0.010	-0.037
-566.602	52.788	-0.079	-0.075
-565.588	-200.000	-0.049	0.341
-564.573	-56.412	-0.122	0.054
-563.558	800.000	-0.065	-0.247
-562.544	2.409	0.252	0.182
-561.529	76.694	0.156	-0.166
-560.515	38.379	-0.263	0.234
-559.500	-53.823	-0.080	0.036
-558.485	-168.605	0.284	0.011
-557.471	-74.201	-0.410	0.148
-556.456	800.000	-0.014	-0.057
-555.442	-152.369	0.230	-0.017
-554.427	-78.828	-0.076	0.026
-553.412	-24.054	-0.184	0.110
-552.398	-148.383	-0.399	-0.033
-551.383	738.748	0.123	-0.331
-550.369	-200.000	-0.029	-0.188
-549.354	-71.447	0.288	-0.108
-548.339	-101.924	-0.356	-0.086
-547.325	-31.125	0.105	-0.059
-546.310	632.654	0.198	-0.501
-545.296	-96.061	-0.026	-0.007
-544.281	-43.133	-0.280	-0.142
-543.266	340.355	-0.125	-0.243
-542.252	245.568	0.077	0.130
-541.237	-79.371	0.087	0.029
-540.223	-73.170	0.279	-0.102
-539.208	800.000	-0.028	-0.103
-538.193	206.618	-0.150	0.234
-537.179	140.077	0.206	-0.271
-536.164	-103.390	-0.206	0.048
-535.150	-7.797	-0.059	0.040
-534.135	-46.305	-0.421	-0.206
-533.121	103.547	-0.043	0.050
-532.106	143.754	0.038	0.051
-531.091	388.829	-0.040	-0.083
-530.077	-45.454	-0.088	-0.044
-529.062	6.743	-0.192	0.143
-528.048	-54.439	-0.195	-0.088
-527.033	117.209	0.031	0.038
-526.018	-159.243	0.181	-0.010
-525.004	-29.170	-0.186	-0.106
-523.989	-85.330	-0.139	0.043
-522.975	51.049	0.112	-0.106
-521.960	-165.882	0.382	-0.016
-520.945	800.000	0.160	-0.477
-519.931	73.286	-0.199	0.208
-518.916	-14.690	0.164	-0.105
-517.902	90.911	-0.034	0.037
-516.887	157.680	0.210	-0.290
-515.872	-200.000	-0.020	0.178
-514.858	-27.197	-0.286	-0.166
-513.843	-100.306	-0.218	0.054
-512.829	128.100	0.241	0.306
-511.814	-58.633	0.181	-0.078
-510.799	-94.263	-0.151	0.041
-509.785	1.363	-0.093	0.067
-508.770	-64.257	-0.096	0.039
-507.756	99.072	0.069	0.079
-506.741	-155.096	-0.083	0.005
-505.726	-50.638	0.343	0.161
-504.712	-0.953	0.084	0.059
-503.697	126.224	-0.124	0.156
-502.683	-101.721	-0.031	-0.007
-501.668	42.845	0.042	-0.038
-500.653	-15.891	-0.271	-0.172
-499.639	2.173	-0.396	0.285
-498.624	7.456	0.327	0.244
-497.610	-174.300	-0.245	0.007
-496.595	-138.982	0.142	0.015
-495.581	197.989	-0.205	-0.313
-494.566	-83.421	-0.118	-0.038
-493.551	-42.605	0.062	0.031
-492.537	254.714	0.067	-0.115
-491.522	369.625	0.112	0.225
-490.508	43.870	-0.149	0.136
-489.493	-78.553	-0.240	-0.082
-488.478	800.000	-0.026	-0.101
-487.464	63.000	-0.013	0.013
-486.449	-30.498	-0.166	-0.094
-485.435	131.482	-0.057	0.073
-484.420	-200.000	0.032	-0.381
-483.405	-200.000	-0.007	-0.061
-482.391	-134.356	0.242	-0.030
-481.376	800.000	-0.060	0.197
-480.362	800.000	-0.125	-0.500
-479.347	-130.070	-0.388	0.053
-478.332	-49.714	-0.221	-0.105
-477.318	445.656	0.055	-0.121
-476.303	-99.873	-0.147	-0.037
-475.289	800.000	0.171	0.490
-474.274	800.000	0.055	0.157
-473.259	110.845	-0.056	-0.068
-472.245	57.036	-0.203	-0.197
-471.230	-47.655	0.290	0.140
-470.216	-62.968	0.191	-0.079
-469.201	-200.000	0.009	-0.327
-468.186	58.981	-0.099	-0.097
-467.172	71.017	0.197	-0.203
-466.157	800.000	-0.041	-0.151
-465.143	800.000	0.077	-0.261
-464.128	-200.000	0.073	0.401
-463.113	-200.000	0.013	-0.095
-462.099	-200.000	-0.022	0.178
-461.084	-200.000	0.029	-0.212
-460.070	-88.666	-0.124	0.037
-459.055	-200.000	-0.001	-0.132
-458.040	-200.000	0.061	-0.302
-457.026	28.865	-0.173	-0.146
-456.011	177.191	0.010	-0.015
-454.997	219.588	0.269	-0.429
-453.982	-200.000	-0.013	-0.569
-452.968	-200.000	-0.026	-0.413
-451.953	-200.000	-0.056	0.358
-450.938	51.672	0.388	0.367
-449.924	273.932	-0.140	0.246
-448.909	800.000	0.044	-0.169
-447.895	-2.191	-0.097	0.067
-446.880	190.948	0.104	0.155
-445.865	124.658	-0.097	-0.122
-444.851	-158.001	-0.463	0.027
-443.836	798.338	-0.069	-0.189
-442.822	-105.799	-0.193	-0.043
-441.807	-27.657	-0.257	0.149
-440.792	-39.923	0.044	0.023
-439.778	800.000	0.092	0.335
-438.763	15.127	-0.027	-0.021
-437.749	48.800	-0.119	-0.111
-436.734	38.012	0.110	0.097
-435.719	519.641	-0.040	0.093
-434.705	85.309	-0.257	-0.281
-433.690	-54.331	-0.045	-0.020
-432.676	-48.265	0.307	-0.147
-431.661	-65.371	0.104	0.042
-430.646	-200.000	-0.007	0.222
-429.632	-179.108	0.362	-0.008
-428.617	-133.773	-0.119	0.015
-427.603	-185.494	-0.130	-0.002
-426.588	-200.000	-0.039	0.233
-425.573	-200.000	0.058	0.262
-424.559	87.523	0.030	0.033
-423.544	-200.000	0.032	0.353
-422.530	227.695	0.046	0.075
-421.515	-96.019	-0.266	0.070
-420.500	800.000	0.031	-0.103
-419.486	-7.678	0.101	0.068
-418.471	566.012	0.110	0.264
-417.457	-142.525	0.167	0.016
-416.442	-200.000	0.074	-0.359
-415.428	-200.000	0.004	0.079
-414.413	-16.228	-0.340	-0.215
-413.398	-200.000	-0.034	-0.351
-412.384	30.151	0.095	0.081
-411.369	800.000	-0.039	0.109
-410.355	-200.000	0.025	-0.115
-409.340	-87.873	0.226	0.067
-408.325	-113.532	0.193	-0.037
-407.311	800.000	-0.081	-0.242
-406.296	150.671	0.071	-0.096
-405.282	129.546	0.076	-0.097
-404.267	800.000	0.119	-0.506
-403.252	238.525	0.100	-0.166
-402.238	233.755	-0.126	-0.206
-401.223	-91.657	0.157	-0.044
-400.209	292.811	-0.196	-0.354
-399.194	32.394	0.022	0.019
-398.179	-141.632	-0.325	0.032
-397.165	-200.000	-0.005	0.055
-396.150	-104.952	-0.183	0.042
-395.136	800.000	-0.084	0.240
-394.121	800.000	-0.097	0.311
-393.106	-59.522	0.119	0.051
-392.092	-107.272	-0.233	0.051
-391.077	120.963	0.196	-0.242
-390.063	800.000	0.008	-0.026
-389.048	800.000	0.045	0.185
-388.033	-29.352	-0.333	-0.189
-387.019	15.166	0.221	0.172
-386.004	-78.309	-0.264	0.090
-384.990	-200.000	-0.005	-0.226
-383.975	-200.000	-0.003	0.170
-382.960	28.561	-0.116	-0.098
-381.946	623.828	-0.100	0.249
-380.931	-111.252	0.568	0.115
-379.917	-76.690	-0.127	0.044
-378.902	800.000	0.032	-0.119
-377.888	800.000	-0.111	0.357
-376.873	333.005	-0.027	-0.051
-375.858	-200.000	0.003	0.102
-374.844	113.715	-0.175	0.211
-373.829	800.000	0.066	-0.231
-372.815	-200.000	-0.065	-0.403
-371.800	14.361	0.224	-0.173
-370.785	-138.299	0.074	0.008
-369.771	47.711	-0.128	0.119
-368.756	90.195	-0.093	-0.103
-367.742	-24.158	-0.245	0.145
-366.727	-45.996	0.206	0.101
-365.712	800.000	-0.062	0.263
-364.698	63.046	-0.052	0.051
-363.683	-76.399	0.407	0.142
-362.669	800.000	0.087	-0.243
-361.654	-200.000	-0.019	0.289
-360.639	-200.000	0.001	0.334
-359.625	160.658	-0.234	0.325
-358.610	-189.657	-0.257	0.003
-357.596	800.000	0.080	0.313
-356.581	149.812	0.127	-0.171
-355.566	15.895	-0.115	0.090
-354.552	420.550	-0.085	0.182
-353.537	-116.994	0.099	-0.018
-352.523	-156.560	0.457	0.028
-351.508	80.389	0.052	0.056
-350.493	160.779	0.126	-0.175
-349.479	-18.267	0.132	-0.082
-348.464	55.560	-0.226	0.217
-347.450	-200.000	0.016	0.290
-346.435	465.284	-0.148	-0.328
-345.420	175.959	-0.101	-0.145
-344.406	-12.750	-0.197	-0.127
-343.391	144.576	-0.247	0.326
-342.377	303.320	0.013	0.023
-341.362	59.265	0.090	-0.088
-340.348	-200.000	-0.021	0.102
-339.333	-21.046	0.320	0.194
-338.318	-59.897	0.223	-0.094
-337.304	800.000	-0.110	-0.393
-336.289	-145.522	0.340	0.030
-335.275	-200.000	0.001	-0.024
-334.260	-16.710	-0.084	0.053
-333.245	-59.828	0.315	0.133
-332.231	800.000	0.053	-0.212
-331.216	800.000	-0.055	0.184
-330.202	68.296	-0.200	0.203
-329.187	-37.328	0.052	-0.028
-328.172	28.914	-0.177	-0.149
-327.158	-53.831	0.157	-0.071
-326.143	-200.000	-0.007	-0.258
-325.129	271.659	0.074	0.128
-324.114	188.023	-0.035	0.052
-323.099	422.050	0.031	-0.066
-322.085	190.069	0.200	0.297
-321.070	288.357	-0.054	-0.097
-320.056	15.682	0.131	0.102
-319.041	-37.571	0.239	-0.126
-318.026	-21.315	-0.098	-0.059
-317.012	29.500	0.381	0.321
-315.997	55.073	0.114	-0.109
-314.983	-161.499	-0.285	0.014
-313.968	-164.513	0.133	-0.006
-312.953	36.591	0.327	0.286
-311.939	91.583	-0.098	-0.109
-310.924	-102.656	-0.159	-0.038
-309.910	376.735	0.104	-0.210
-308.895	209.487	0.088	0.136
-307.880	14.369	-0.225	0.174
-306.866	-41.268	-0.130	-0.066
-305.851	-166.061	-0.026	-0.001
-304.837	-200.000	-0.001	0.345
-303.822	-200.000	-0.062	-0.281
-302.807	800.000	-0.022	0.076
-301.793	-119.236	0.300	-0.052
-300.778	-28.412	0.200	-0.114
-299.764	-28.740	-0.184	-0.105
-298.749	38.895	0.021	0.019
-297.735	-14.405	-0.209	-0.133
-296.720	800.000	-0.057	-0.236
-295.705	-27.432	-0.190	0.109
-294.691	-126.725	-0.075	0.011
-293.676	800.000	-0.042	-0.115
-292.662	374.541	-0.094	0.189
-291.647	800.000	0.027	-0.077
-290.632	-170.511	-0.372	-0.013
-289.618	-14.807	-0.124	-0.079
-288.603	-200.000	-0.000	0.073
-287.589	-27.541	0.148	0.085
-286.574	-200.000	0.015	-0.426
-285.559	800.000	-0.064	0.238
-284.545	-68.158	-0.166	0.064
-283.530	51.110	-0.023	-0.022
-282.516	46.355	-0.111	0.101
-281.501	-133.428	0.102	0.013
-280.486	-6.178	0.023	0.015
-279.472	-134.750	0.206	-0.025
-278.457	-200.000	-0.004	0.210
-277.443	637.640	-0.020	-0.051
-276.428	-97.064	-0.279	0.072
-275.413	-64.965	0.325	0.130
-274.399	-200.000	-0.035	-0.238
-273.384	573.555	-0.088	-0.211
-272.370	-142.931	-0.210	0.020
-271.355	-174.588	-0.302	-0.009
-270.340	800.000	0.029	-0.094
-269.326	-34.916	-0.235	0.127
-268.311	-155.373	0.195	-0.013
-267.297	29.491	0.149	-0.125
-266.282	57.004	0.118	0.113
-265.267	503.259	0.024	-0.054
-264.253	37.683	0.379	-0.332
-263.238	166.602	-0.158	-0.221
-262.224	-200.000	-0.033	0.194
-261.209	673.671	-0.046	0.119
-260.195	-161.367	-0.132	-0.007
-259.180	-114.747	0.169	0.032
-258.165	14.326	-0.040	-0.031
-257.151	-53.077	0.232	-0.105
-256.136	22.963	0.363	-0.294
-255.122	-147.753	-0.410	0.034
-254.107	38.402	0.265	0.233
-253.092	-200.000	-0.081	0.495
-252.078	-200.000	-0.012	0.172
-251.063	800.000	-0.066	-0.209
-250.049	-88.815	-0.243	-0.071
-249.034	524.785	-0.090	0.209
-248.019	255.352	-0.065	-0.109
-247.005	168.098	-0.086	0.120
-245.990	-161.717	-0.350	0.018
-244.976	276.946	-0.151	-0.265
-243.961	-114.654	-0.191	0.036
-242.946	-125.241	0.206	0.031
-241.932	-200.000	0.082	-0.382
-240.917	-148.973	0.063	0.005
-239.903	-15.476	0.217	-0.137
-238.888	-97.509	0.162	0.042
-237.873	800.000	0.012	-0.039
-236.859	-200.000	0.021	0.342
-235.844	-200.000	0.039	-0.254
-234.830	800.000	-0.036	-0.132
-233.815	-83.001	0.268	0.085
-232.800	216.373	-0.102	0.159
-231.786	-5.263	-0.122	0.083
-230.771	-200.000	0.025	-0.151
-229.757	-93.402	-0.297	-0.081
-228.742	-105.760	0.476	-0.106
-227.727	-200.000	0.071	-0.417
-226.713	-68.966	-0.183	-0.069
-225.698	-200.000	0.444	0.002
-224.684	-200.000	0.076	0.355
-223.669	137.380	-0.089	-0.115
-222.655	-133.392	0.181	0.023
-221.640	147.774	-0.140	0.186
-220.625	-43.738	0.151	0.075
-219.611	1.542	0.323	-0.229
-218.596	-61.095	-0.245	0.102
-217.582	224.671	-0.046	-0.074
-216.567	134.433	0.058	-0.074
-215.552	-200.000	-0.038	0.410
-214.538	553.248	-0.150	0.356
-213.523	-118.660	-0.243	-0.042
-212.509	-64.037	-0.106	-0.043
-211.494	-57.750	-0.252	0.109
-210.479	-62.311	0.076	0.031
-209.465	3.119	0.227	-0.163
-208.450	-34.231	0.132	0.072
-207.436	-166.086	0.176	0.007
-206.421	-54.443	-0.299	0.133
-205.406	-200.000	-0.019	-0.185
-204.392	49.112	0.199	0.184
-203.377	-135.225	0.167	0.020
-202.363	-48.406	0.116	0.055
-201.348	-153.491	0.401	0.027
-200.333	19.032	-0.137	0.108
-199.319	800.000	0.095	0.328
-198.304	557.829	0.072	-0.172
-197.290	-200.000	0.020	0.163
-196.275	-200.000	0.317	0.001
-195.260	66.467	-0.265	-0.266
-194.246	-11.885	-0.157	-0.101
-193.231	-200.000	0.012	-0.330
-192.217	800.000	-0.078	0.314
-191.202	313.644	-0.124	0.230
-190.187	-54.083	-0.142	0.064
-189.173	-165.791	-0.134	-0.006
-188.158	-200.000	-0.007	0.241
-187.144	-200.000	0.033	0.319
-186.129	288.662	-0.225	0.401
-185.114	93.182	-0.112	0.125
-184.100	-11.492	0.044	-0.029
-183.085	162.605	0.060	0.083
-182.071	-162.636	0.278	0.013
-181.056	-167.431	-0.185	-0.007
-180.042	-200.000	0.020	-0.097
-179.027	-200.000	-0.013	0.144
-178.012	-56.520	0.226	0.099
-176.998	19.938	0.478	-0.379
-175.983	-117.286	-0.345	0.062
-174.969	-168.291	0.286	-0.011
-173.954	57.963	0.144	0.139
-172.939	36.288	0.169	0.146
-171.925	189.313	-0.194	-0.286
-170.910	800.000	-0.067	0.201
-169.896	-200.000	-0.035	0.200
-168.881	-134.233	0.158	0.019
-167.866	800.000	-0.054	0.186
-166.852	59.059	0.283	-0.274
-165.837	-200.000	-0.001	0.196
-164.823	51.810	-0.110	0.103
-163.808	-152.254	-0.211	-0.015
-162.793	-200.000	0.020	0.280
-161.779	-200.000	-0.002	-0.113
-160.764	-62.568	0.201	-0.082
-159.750	23.060	0.131	0.106
-158.735	800.000	0.102	-0.387
-157.720	-200.000	0.030	0.219
-156.706	0.573	0.195	0.137
-155.691	105.677	0.069	0.080
-154.677	195.586	-0.078	-0.116
-153.662	137.089	0.038	-0.049
-152.647	398.299	-0.030	0.063
-151.633	-21.927	0.194	0.116
-150.618	14.314	0.177	0.136
-149.604	400.700	-0.177	0.366
-148.589	76.912	0.191	0.199
-147.574	-27.907	-0.086	-0.049
-146.560	-22.792	-0.216	0.128
-145.545	-7.648	-0.032	-0.021
-144.531	561.473	0.037	-0.089
-143.516	145.396	-0.339	0.446
-142.502	205.795	0.222	-0.339
-141.487	-200.000	0.046	0.234
-140.472	35.411	-0.162	0.140
-139.458	-200.000	0.034	-0.349
-138.443	-200.000	-0.016	-0.140
-137.429	-88.272	-0.232	0.068
-136.414	-11.681	-0.030	0.019
-135.399	-55.720	0.314	-0.138
-134.385	22.766	0.059	-0.048
-133.370	800.000	0.100	0.353
-132.356	800.000	-0.063	-0.200
-131.341	-120.513	0.066	0.011
-130.326	800.000	-0.102	0.404
-129.312	800.000	-0.157	0.480
-128.297	95.149	0.071	0.079
-127.283	-108.593	-0.033	-0.007
-126.268	800.000	0.052	0.146
-125.253	-41.784	-0.263	-0.133
-124.239	117.864	0.127	-0.154
-123.224	49.019	0.047	-0.044
-122.210	53.771	0.049	-0.046
