DTS Sentinel unit serial number:	SN413079Multiplexer serial number:	ORYXHardware model number:	OX4-SRSoftware version number:	ORYX F/W v4.00 Oryx Data Collector v3.7.2.0data status	okinstallation	princeton_trtdifferential loss correction	single-endedforward channel	channel 1reverse channel	N/Adate	2019/09/11time	15:56:11forward acquisition time	60.00reverse acquisition time	0.00gamma	496.2192k internal	0.2291k external	0.2291temperature offset calibration	0.9988default loss term (dB/km)	0.3790temperature slope calibration	1.0000multiplexer offset coefficient	1.0000multiplexer slope coefficient	1.0000fibre end	0.00T internal ref (°C)	43.00T ext. ref 1 (°C)	0.99T ext. ref 2 (°C)	38.88length (m)	temperature (°C)	Stokes	anti-Stokes-747.200	-49.585	-0.099	0.048
-746.185	-24.889	0.186	-0.113
-745.171	800.000	-0.050	-0.148
-744.156	-200.000	-0.039	0.257
-743.142	-200.000	-0.033	0.371
-742.127	191.040	-0.162	0.250
-741.112	800.000	0.056	-0.235
-740.098	27.027	0.205	0.176
-739.083	-200.000	0.110	-0.544
-738.069	13.345	0.021	0.017
-737.054	-100.888	-0.156	-0.039
-736.039	-130.625	-0.280	0.039
-735.025	800.000	0.076	0.293
-734.010	-54.994	-0.141	-0.065
-732.996	-23.873	0.132	0.081
-731.981	-92.330	0.433	-0.125
-730.966	-17.459	-0.318	0.205
-729.952	172.585	-0.139	0.205
-728.937	52.327	0.100	0.098
-727.923	-60.854	-0.249	0.108
-726.908	23.672	0.193	-0.162
-725.894	-200.000	0.000	-0.335
-724.879	-63.516	-0.238	-0.100
-723.864	298.425	0.087	0.164
-722.850	800.000	-0.113	0.324
-721.835	-114.352	-0.051	0.010
-720.821	-24.396	0.206	-0.126
-719.806	271.984	0.206	-0.372
-718.791	-78.632	0.295	-0.103
-717.777	12.521	0.132	-0.104
-716.762	800.000	0.085	-0.247
-715.748	-200.000	0.003	-0.055
-714.733	-67.346	0.205	0.082
-713.718	262.174	0.066	-0.117
-712.704	571.532	-0.034	0.084
-711.689	-196.220	0.217	-0.002
-710.675	-105.359	0.118	-0.027
-709.660	-132.858	0.056	0.007
-708.645	-129.888	-0.160	-0.022
-707.631	-200.000	-0.010	0.181
-706.616	89.882	-0.053	0.060
-705.602	-133.739	-0.230	0.029
-704.587	-24.363	0.282	-0.172
-703.572	-200.000	0.006	-0.249
-702.558	-88.601	-0.485	-0.148
-701.543	-76.209	0.305	-0.110
-700.529	-49.321	0.211	0.103
-699.514	60.092	-0.188	-0.190
-698.499	86.856	0.103	0.116
-697.485	-47.617	-0.183	-0.091
-696.470	-66.510	0.058	0.023
-695.456	-130.046	-0.185	-0.026
-694.441	-200.000	-0.020	0.269
-693.426	-200.000	0.068	0.332
-692.412	-56.750	-0.341	0.154
-691.397	152.514	-0.206	0.287
-690.383	-38.728	-0.075	0.040
-689.368	121.133	-0.201	-0.256
-688.354	-200.000	0.024	0.179
-687.339	240.681	0.054	-0.091
-686.324	-200.000	0.029	-0.238
-685.310	147.400	-0.153	0.211
-684.295	408.804	-0.103	0.222
-683.281	-136.818	0.148	-0.017
-682.266	-105.617	-0.335	-0.078
-681.251	151.613	-0.190	-0.265
-680.237	285.994	-0.120	0.222
-679.222	-59.336	0.116	-0.051
-678.208	19.332	-0.246	0.202
-677.193	-20.313	-0.158	-0.099
-676.178	-200.000	0.003	-0.322
-675.164	-34.084	-0.061	-0.034
-674.149	-105.855	0.407	-0.094
-673.135	355.797	0.059	-0.121
-672.120	-54.453	-0.216	0.100
-671.105	91.681	0.179	0.206
-670.091	7.174	0.102	-0.078
-669.076	-200.000	0.005	0.037
-668.062	-77.544	0.051	0.018
-667.047	-200.000	0.032	0.194
-666.032	-77.943	0.278	-0.098
-665.018	26.637	0.315	0.269
-664.003	800.000	-0.107	0.355
-662.989	-200.000	-0.017	-0.187
-661.974	-118.121	0.134	-0.024
-660.959	-200.000	-0.045	-0.280
-659.945	-159.849	-0.287	-0.016
-658.930	-103.857	0.236	-0.056
-657.916	-200.000	-0.050	0.292
-656.901	-69.447	0.121	-0.047
-655.886	800.000	-0.082	0.336
-654.872	-91.878	0.367	-0.106
-653.857	-200.000	0.021	-0.385
-652.843	207.721	-0.154	0.245
-651.828	-94.601	-0.272	-0.075
-650.814	129.680	-0.104	-0.136
-649.799	-38.679	0.171	-0.092
-648.784	183.946	0.037	-0.056
-647.770	-61.682	-0.145	-0.062
-646.755	144.716	0.047	-0.064
-645.741	459.759	-0.180	-0.409
-644.726	-81.253	-0.235	-0.079
-643.711	800.000	-0.019	0.075
-642.697	-127.301	-0.175	0.026
-641.682	-8.507	-0.180	-0.123
-640.668	-54.981	-0.092	0.042
-639.653	-96.758	-0.306	-0.082
-638.638	-122.421	0.193	-0.032
-637.624	223.331	0.161	-0.265
-636.609	-95.128	-0.124	-0.034
-635.595	-120.986	0.249	-0.043
-634.580	-120.527	-0.027	-0.005
-633.565	-101.898	0.398	-0.098
-632.551	-88.058	0.193	-0.059
-631.536	-78.347	0.066	-0.023
-630.522	190.680	0.048	-0.073
-629.507	800.000	0.071	-0.294
-628.492	-85.200	-0.193	-0.061
-627.478	70.124	-0.060	-0.063
-626.463	36.582	-0.080	-0.072
-625.449	374.634	-0.119	-0.247
-624.434	-40.664	-0.165	0.087
-623.419	-200.000	-0.018	0.134
-622.405	800.000	-0.066	-0.282
-621.390	298.715	0.187	-0.350
-620.376	-126.669	0.201	-0.030
-619.361	-77.194	-0.067	0.024
-618.346	-29.021	-0.084	-0.049
-617.332	787.028	-0.080	0.225
-616.317	-92.384	-0.315	-0.090
-615.303	-153.531	-0.175	-0.012
-614.288	-34.363	-0.130	0.073
-613.273	-131.314	0.277	-0.037
-612.259	-200.000	0.001	0.041
-611.244	-43.807	-0.036	0.019
-610.230	-43.088	0.189	0.098
-609.215	-94.537	-0.257	0.071
-608.201	-45.458	-0.114	-0.058
-607.186	-200.000	0.042	-0.191
-606.171	-56.046	0.203	-0.092
-605.157	-200.000	-0.034	-0.224
-604.142	191.824	-0.107	0.165
-603.128	-101.487	-0.393	0.097
-602.113	-34.878	-0.082	0.046
-601.098	201.736	0.227	-0.357
-600.084	76.545	-0.199	0.214
-599.069	-200.000	0.010	-0.177
-598.055	79.671	-0.174	0.191
-597.040	-7.903	-0.345	-0.237
-596.025	-200.000	0.002	0.028
-595.011	-200.000	-0.012	-0.086
-593.996	72.357	0.098	0.104
-592.982	67.927	0.160	-0.167
-591.967	-176.027	-0.173	-0.005
-590.952	-134.930	0.153	0.019
-589.938	192.502	0.206	-0.316
-588.923	145.280	-0.210	0.286
-587.909	-55.093	0.135	0.062
-586.894	17.455	-0.203	0.164
-585.879	-154.567	0.495	0.034
-584.865	-35.576	-0.202	0.112
-583.850	-186.639	-0.295	0.004
-582.836	-74.413	-0.114	0.042
-581.821	104.659	0.240	0.287
-580.806	-85.279	0.158	-0.050
-579.792	-132.812	0.142	-0.018
-578.777	87.415	-0.092	0.103
-577.763	-66.785	0.359	-0.145
-576.748	183.733	-0.099	0.149
-575.733	-200.000	-0.058	-0.308
-574.719	800.000	-0.084	-0.289
-573.704	800.000	0.098	0.371
-572.690	-28.394	0.140	-0.082
-571.675	49.370	0.127	0.121
-570.661	105.301	0.045	-0.054
-569.646	182.871	0.100	0.149
-568.631	188.291	-0.081	0.123
-567.617	95.451	-0.089	-0.104
-566.602	-200.000	-0.049	-0.237
-565.588	-164.340	0.292	0.014
-564.573	-33.220	-0.383	-0.216
-563.558	-5.043	0.141	-0.099
-562.544	8.580	-0.254	-0.195
-561.529	-74.612	-0.155	-0.057
-560.515	247.676	-0.154	-0.265
-559.500	48.235	-0.200	-0.190
-558.485	38.288	0.136	-0.123
-557.471	36.549	0.146	0.131
-556.456	-200.000	0.032	-0.208
-555.442	-82.291	-0.321	0.106
-554.427	259.121	-0.104	0.183
-553.412	-200.000	-0.048	-0.394
-552.398	-54.268	0.124	-0.057
-551.383	-159.280	0.269	-0.015
-550.369	-91.874	-0.204	-0.059
-549.354	-116.673	0.183	0.034
-548.339	93.543	0.237	-0.273
-547.325	-75.813	-0.102	0.037
-546.310	154.920	-0.078	0.108
-545.296	-99.746	-0.157	0.040
-544.281	-87.947	0.159	0.048
-543.266	-200.000	0.019	-0.173
-542.252	4.305	-0.193	0.144
-541.237	-200.000	0.038	0.281
-540.223	800.000	0.047	0.157
-539.208	100.903	-0.024	-0.028
-538.193	219.828	0.114	0.186
-537.179	8.326	-0.167	0.128
-536.164	367.951	0.071	0.146
-535.150	800.000	0.016	0.055
-534.135	157.883	0.123	0.173
-533.121	73.813	0.215	-0.229
-532.106	800.000	0.069	0.270
-531.091	158.520	0.250	0.352
-530.077	62.458	-0.079	0.080
-529.062	-138.263	-0.669	0.075
-528.048	-138.596	0.116	-0.013
-527.033	144.238	0.217	-0.294
-526.018	-172.154	0.169	-0.006
-525.004	800.000	-0.088	0.288
-523.989	234.395	-0.157	-0.262
-522.975	-200.000	0.292	0.001
-521.960	800.000	-0.042	-0.180
-520.945	-50.804	-0.278	-0.133
-519.931	-100.830	0.264	0.066
-518.916	-200.000	-0.277	0.000
-517.902	-142.248	0.168	0.017
-516.887	116.098	-0.068	-0.084
-515.872	-76.330	0.340	-0.121
-514.858	-36.862	0.271	-0.147
-513.843	-190.520	0.281	0.003
-512.829	-200.000	0.024	-0.213
-511.814	32.227	0.119	0.104
-510.799	-140.134	0.126	-0.013
-509.785	-37.518	0.403	0.218
-508.770	-200.000	-0.035	0.218
-507.756	-148.031	0.362	-0.030
-506.741	143.681	0.250	-0.338
-505.726	-200.000	-0.012	-0.065
-504.712	800.000	0.026	0.094
-503.697	175.487	0.080	0.118
-502.683	75.843	-0.243	0.261
-501.668	111.352	-0.175	0.214
-500.653	800.000	-0.079	0.348
-499.639	555.785	0.060	0.146
-498.624	-131.113	-0.317	-0.043
-497.610	20.632	-0.079	0.065
-496.595	-89.153	0.203	-0.061
-495.581	15.919	0.192	-0.153
-494.566	-73.753	-0.064	-0.024
-493.551	329.053	0.180	0.350
-492.537	-50.754	0.066	0.032
-491.522	-75.312	-0.287	-0.104
-490.508	-88.521	-0.537	0.162
-489.493	-147.285	-0.235	-0.020
-488.478	-7.558	0.038	0.026
-487.464	241.640	0.224	-0.379
-486.449	-28.013	-0.118	-0.070
-485.435	38.482	0.187	-0.169
-484.420	34.886	0.075	-0.067
-483.405	57.927	0.067	-0.066
-482.391	-200.000	0.001	0.014
-481.376	800.000	0.085	-0.330
-480.362	800.000	0.104	-0.360
-479.347	80.245	-0.227	-0.247
-478.332	-6.983	-0.249	-0.171
-477.318	57.070	0.075	0.074
-476.303	-111.133	0.380	-0.079
-475.289	548.958	-0.073	0.178
-474.274	-179.052	0.302	-0.007
-473.259	-14.857	-0.275	0.179
-472.245	-166.794	0.374	-0.016
-471.230	800.000	-0.074	0.230
-470.216	-48.875	-0.236	-0.115
-469.201	54.882	0.168	0.164
-468.186	2.499	0.174	0.128
-467.172	1.491	-0.144	0.105
-466.157	-63.040	-0.096	-0.040
-465.143	-121.275	0.299	-0.051
-464.128	-102.498	-0.167	-0.041
-463.113	-19.762	0.222	-0.139
-462.099	-125.321	0.137	-0.021
-461.084	-61.803	0.280	-0.119
-460.070	800.000	-0.083	-0.279
-459.055	800.000	-0.061	-0.246
-458.040	39.355	0.053	-0.048
-457.026	800.000	0.087	-0.252
-456.011	-200.000	0.022	-0.129
-454.997	99.266	0.126	-0.147
-453.982	-42.221	-0.224	-0.116
-452.968	69.445	-0.050	-0.052
-451.953	534.998	0.098	0.234
-450.938	-83.092	-0.265	0.086
-449.924	-140.748	-0.391	-0.041
-448.909	120.788	0.127	0.160
-447.895	-200.000	-0.024	0.155
-446.880	-116.346	0.026	0.005
-445.865	-200.000	0.042	-0.346
-444.851	-13.726	0.085	0.056
-443.836	-200.000	-0.006	-0.073
-442.822	555.959	-0.045	0.110
-441.807	-200.000	-0.076	-0.371
-440.792	-14.646	-0.168	-0.109
-439.778	-153.415	-0.178	-0.013
-438.763	162.080	0.295	0.418
-437.749	-34.316	-0.184	0.102
-436.734	-160.699	-0.310	-0.017
-435.719	-99.013	-0.087	0.022
-434.705	-90.998	-0.079	0.023
-433.690	152.191	0.178	0.246
-432.676	-151.684	0.226	0.017
-431.661	141.493	0.196	-0.263
-430.646	-178.121	0.228	0.005
-429.632	200.186	0.052	-0.082
-428.617	-65.576	0.184	0.075
-427.603	-200.000	-0.005	-0.095
-426.588	-94.233	-0.280	0.078
-425.573	301.685	-0.079	0.148
-424.559	-24.987	0.318	-0.191
-423.544	-64.664	-0.177	0.072
-422.530	-34.929	-0.085	0.047
-421.515	69.609	-0.194	0.202
-420.500	800.000	0.055	-0.229
-419.486	-200.000	-0.074	-0.328
-418.471	-144.633	-0.238	-0.022
-417.457	800.000	0.069	0.196
-416.442	67.523	0.164	-0.169
-415.428	-200.000	0.068	0.379
-414.413	800.000	0.070	-0.203
-413.398	13.586	-0.270	0.212
-412.384	9.284	-0.233	-0.178
-411.369	116.422	-0.044	0.055
-410.355	662.448	-0.109	0.285
-409.340	45.604	-0.040	0.037
-408.325	-144.436	0.226	0.021
-407.311	91.327	-0.074	0.084
-406.296	800.000	0.067	-0.293
-405.282	83.386	0.112	0.123
-404.267	800.000	0.128	0.498
-403.252	169.290	0.224	-0.323
-402.238	-53.367	-0.090	-0.041
-401.223	800.000	0.062	0.242
-400.209	-109.792	0.244	-0.052
-399.194	89.257	0.088	-0.099
-398.179	-75.881	-0.233	0.083
-397.165	-79.629	0.155	0.053
-396.150	230.789	-0.110	0.182
-395.136	-200.000	-0.162	-0.000
-394.121	-75.487	-0.061	0.022
-393.106	316.031	-0.046	-0.088
-392.092	49.477	-0.174	-0.165
-391.077	-77.873	-0.268	-0.094
-390.063	-88.733	-0.322	0.097
-389.048	-36.179	0.073	0.040
-388.033	-11.586	0.056	0.037
-387.019	389.509	-0.062	-0.130
-386.004	76.457	-0.062	-0.066
-384.990	-60.999	-0.176	0.075
-383.975	-136.942	0.122	-0.014
-382.960	74.715	0.130	-0.138
-381.946	504.499	0.214	-0.499
-380.931	800.000	0.056	-0.228
-379.917	-129.214	0.340	0.048
-378.902	-64.653	-0.248	-0.102
-377.888	86.215	-0.156	0.174
-376.873	14.122	0.262	-0.206
-375.858	-59.174	0.365	0.159
-374.844	-120.562	0.395	0.068
-373.829	-200.000	0.014	-0.197
-372.815	25.858	-0.210	0.177
-371.800	-109.009	0.232	0.050
-370.785	70.196	0.186	-0.194
-369.771	646.168	0.021	0.053
-368.756	-15.086	-0.233	0.150
-367.742	800.000	0.168	0.548
-366.727	502.192	-0.009	0.022
-365.712	800.000	-0.037	0.159
-364.698	-200.000	0.006	-0.153
-363.683	49.802	-0.198	0.188
-362.669	19.310	-0.084	-0.068
-361.654	6.947	0.217	-0.163
-360.639	-200.000	-0.032	-0.302
-359.625	800.000	0.068	-0.199
-358.610	-156.742	0.092	0.006
-357.596	80.632	0.161	-0.175
-356.581	310.015	-0.144	-0.271
-355.566	98.307	-0.121	-0.141
-354.552	-130.374	0.160	0.022
-353.537	-92.144	0.226	-0.064
-352.523	377.072	-0.146	-0.300
-351.508	505.740	-0.063	0.148
-350.493	-113.722	-0.165	0.032
-349.479	43.316	-0.369	0.340
-348.464	-114.698	0.395	-0.076
-347.450	448.752	-0.109	0.242
-346.435	-62.069	-0.145	0.061
-345.420	-200.000	0.002	0.199
-344.406	83.581	-0.110	0.121
-343.391	2.207	0.283	0.206
-342.377	210.837	0.084	-0.132
-341.362	133.460	-0.086	-0.112
-340.348	-78.940	0.190	-0.065
-339.333	-30.381	-0.284	0.162
-338.318	84.152	0.092	-0.101
-337.304	207.873	0.084	-0.133
-336.289	-42.893	0.118	0.060
-335.275	-69.544	0.262	-0.101
-334.260	108.047	-0.132	0.158
-333.245	81.442	-0.141	-0.154
-332.231	-107.767	-0.362	-0.080
-331.216	-200.000	0.011	0.282
-330.202	-200.000	0.038	-0.172
-329.187	-84.187	-0.349	0.111
-328.172	25.080	-0.313	0.262
-327.158	800.000	-0.086	0.310
-326.143	800.000	0.064	0.227
-325.129	-98.159	-0.317	0.082
-324.114	800.000	-0.096	0.278
-323.099	-88.027	-0.153	-0.046
-322.085	-186.060	-0.107	0.002
-321.070	-143.568	-0.082	0.008
-320.056	-58.245	0.431	0.189
-319.041	-79.480	-0.032	-0.011
-318.026	-43.177	0.420	0.214
-317.012	-200.000	-0.019	0.281
-315.997	157.850	0.066	-0.092
-314.983	-162.759	-0.257	-0.013
-313.968	-34.492	0.386	-0.213
-312.953	-200.000	-0.009	-0.155
-311.939	800.000	-0.033	0.125
-310.924	-200.000	-0.048	0.333
-309.910	-13.666	0.370	0.241
-308.895	48.019	0.085	0.080
-307.880	-13.334	-0.201	0.131
-306.866	-22.443	-0.348	-0.212
-305.851	-27.175	-0.069	-0.040
-304.837	260.305	-0.123	-0.213
-303.822	119.205	0.205	0.256
-302.807	76.944	-0.021	0.022
-301.793	-22.812	0.132	0.080
-300.778	110.051	-0.174	0.210
-299.764	102.749	0.224	0.264
-298.749	-9.618	-0.179	0.120
-297.735	218.367	-0.051	-0.083
-296.720	-118.245	-0.209	0.038
-295.705	666.821	0.056	0.146
-294.691	-92.079	0.219	0.062
-293.676	-200.000	-0.017	-0.095
-292.662	-200.000	0.020	-0.234
-291.647	-200.000	0.012	-0.062
-290.632	47.476	0.144	-0.135
-289.618	10.424	-0.287	-0.220
-288.603	159.711	-0.054	-0.076
-287.589	-99.106	-0.137	-0.035
-286.574	17.308	0.187	0.149
-285.559	-76.287	-0.334	-0.118
-284.545	-124.132	0.261	0.041
-283.530	-59.040	0.129	0.056
-282.516	83.596	0.222	0.243
-281.501	-71.460	-0.241	0.091
-280.486	-81.447	0.087	-0.029
-279.472	3.437	-0.261	-0.191
-278.457	-41.210	-0.193	-0.100
-277.443	78.345	0.252	0.270
-276.428	-79.935	-0.074	-0.025
-275.413	276.514	0.108	-0.193
-274.399	-38.635	0.151	-0.080
-273.384	800.000	0.034	-0.121
-272.370	-10.236	-0.153	-0.102
-271.355	-200.000	0.009	0.130
-270.340	-165.509	-0.143	-0.006
-269.326	-200.000	0.077	-0.357
-268.311	-200.000	-0.004	-0.112
-267.297	-85.149	0.188	0.059
-266.282	-200.000	-0.026	0.158
-265.267	-92.470	-0.040	-0.011
-264.253	141.599	0.030	-0.040
-263.238	800.000	0.073	-0.236
-262.224	-200.000	-0.010	-0.073
-261.209	86.955	0.291	0.322
-260.195	800.000	0.122	0.464
-259.180	41.155	-0.198	0.179
-258.165	-118.154	0.175	0.031
-257.151	-186.680	-0.339	-0.005
-256.136	-200.000	-0.022	0.105
-255.122	182.148	0.032	0.048
-254.107	-52.549	-0.215	0.100
-253.092	-200.000	0.000	0.330
-252.078	31.657	0.263	0.227
-251.063	-152.385	-0.143	0.010
-250.049	-143.285	-0.221	-0.021
-249.034	-200.000	0.002	-0.201
-248.019	351.452	0.167	-0.332
-247.005	800.000	0.035	0.109
-245.990	-200.000	0.004	-0.126
-244.976	283.136	0.097	0.175
-243.961	385.797	0.141	0.291
-242.946	800.000	0.071	0.236
-241.932	172.222	-0.065	0.093
-240.917	68.445	0.361	0.372
-239.903	-200.000	-0.037	-0.220
-238.888	52.864	0.042	-0.040
-237.873	-68.786	-0.183	-0.071
-236.859	151.802	-0.103	0.141
-235.844	15.609	0.092	-0.073
-234.830	126.265	0.193	0.245
-233.815	-39.537	-0.035	0.019
-232.800	226.721	-0.139	0.226
-231.786	-29.580	-0.204	0.117
-230.771	142.134	-0.127	0.168
-229.757	91.967	-0.115	-0.129
-228.742	-200.000	0.073	-0.400
-227.727	382.050	-0.031	-0.064
-226.713	-200.000	-0.032	0.148
-225.698	253.873	-0.053	0.091
-224.684	-200.000	0.011	0.174
-223.669	65.945	-0.208	0.212
-222.655	-102.781	-0.365	0.087
-221.640	-131.447	0.396	0.053
-220.625	39.369	-0.020	-0.018
-219.611	-100.470	-0.113	-0.028
-218.596	-200.000	-0.029	0.265
-217.582	-102.151	0.124	0.030
-216.567	-154.333	0.205	-0.014
-215.552	283.146	-0.046	-0.083
-214.538	-200.000	0.051	-0.232
-213.523	315.300	0.090	0.169
-212.509	653.983	-0.037	-0.094
-211.494	326.985	-0.034	-0.066
-210.479	432.322	0.101	0.221
-209.465	390.505	-0.041	0.086
-208.450	-174.462	0.270	-0.008
-207.436	800.000	-0.035	0.121
-206.421	0.100	-0.102	0.073
-205.406	283.000	-0.131	-0.236
-204.392	-11.446	0.254	0.168
-203.377	-122.421	-0.034	-0.006
-202.363	-47.440	-0.110	-0.053
-201.348	-200.000	-0.004	-0.166
-200.333	103.279	0.093	-0.109
-199.319	188.143	-0.035	-0.053
-198.304	173.284	-0.196	-0.284
-197.290	174.746	0.146	0.212
-196.275	22.165	-0.186	0.152
-195.260	-80.924	-0.365	0.121
-194.246	-200.000	-0.025	0.153
-193.231	-84.228	-0.229	0.073
-192.217	-98.601	0.524	-0.134
-191.202	429.389	0.160	0.346
-190.187	270.904	0.046	0.082
-189.173	264.313	0.083	0.144
-188.158	500.615	0.059	-0.135
-187.144	364.877	-0.096	-0.194
-186.129	133.229	-0.061	-0.080
-185.114	-200.000	-0.002	-0.213
-184.100	-200.000	-0.001	-0.033
-183.085	-84.840	-0.225	-0.071
-182.071	49.271	-0.056	-0.053
-181.056	-78.938	-0.137	0.047
-180.042	-200.000	0.016	-0.153
-179.027	-108.661	0.171	-0.037
-178.012	-200.000	0.027	-0.204
-176.998	-199.442	0.291	-0.002
-175.983	-135.179	-0.092	0.011
-174.969	800.000	0.032	0.109
-173.954	236.992	-0.091	-0.150
-172.939	331.398	-0.116	-0.224
-171.925	-110.826	-0.209	-0.043
-170.910	-139.771	-0.268	0.028
-169.896	-133.018	-0.118	-0.015
-168.881	-103.514	-0.370	-0.087
-167.866	-18.450	-0.145	-0.091
-166.852	-82.726	0.450	-0.146
-165.837	47.854	-0.146	-0.136
-164.823	60.724	0.153	0.152
-163.808	800.000	0.134	0.435
-162.793	-148.764	-0.111	0.009
-161.779	-110.130	0.098	0.020
-160.764	4.907	0.156	0.115
-159.750	118.353	0.190	-0.234
-158.735	-40.044	0.180	0.094
-157.720	-200.000	-0.025	0.376
-156.706	752.567	-0.191	0.517
-155.691	-1.461	0.112	-0.079
-154.677	-200.000	0.023	0.160
-153.662	62.102	0.225	-0.224
-152.647	-200.000	0.066	-0.321
-151.633	-85.520	-0.390	-0.121
-150.618	103.101	0.187	-0.220
-149.604	-128.905	0.267	0.037
-148.589	-200.000	0.043	0.192
-147.574	39.372	-0.160	0.144
-146.560	-60.023	-0.111	0.047
-145.545	109.972	0.176	-0.212
-144.531	-31.406	0.260	-0.146
-143.516	226.650	-0.108	-0.175
-142.502	-56.280	-0.199	0.089
-141.487	123.474	-0.164	0.205
-140.472	331.862	-0.096	0.185
-139.458	23.186	-0.005	-0.004
-138.443	-101.740	-0.305	0.074
-137.429	55.619	-0.041	0.040
-136.414	800.000	0.116	0.443
-135.399	16.385	0.137	0.108
-134.385	40.475	0.185	0.166
-133.370	-114.288	0.269	-0.052
-132.356	18.354	-0.315	0.252
-131.341	-200.000	-0.011	0.075
-130.326	265.518	0.061	0.106
-129.312	523.441	-0.068	-0.159
-128.297	-200.000	0.005	0.488
-127.283	-43.193	0.104	0.053
-126.268	-47.564	-0.105	-0.051
-125.253	231.727	0.070	0.115
-124.239	-88.714	-0.160	0.047
-123.224	750.418	0.023	-0.061
-122.210	-92.853	0.227	-0.063
-121.195	-110.184	0.062	0.013
