DTS Sentinel unit serial number:	SN413079Multiplexer serial number:	ORYXHardware model number:	OX4-SRSoftware version number:	ORYX F/W v4.00 Oryx Data Collector v3.7.2.0data status	okinstallation	princeton_trtdifferential loss correction	single-endedforward channel	channel 1reverse channel	N/Adate	2019/09/11time	09:32:11forward acquisition time	60.00reverse acquisition time	0.00gamma	496.2192k internal	0.2305k external	0.2305temperature offset calibration	0.9949default loss term (dB/km)	0.3790temperature slope calibration	1.0000multiplexer offset coefficient	1.0000multiplexer slope coefficient	1.0000fibre end	0.00T internal ref (°C)	34.73T ext. ref 1 (°C)	0.12T ext. ref 2 (°C)	30.92length (m)	temperature (°C)	Stokes	anti-Stokes-747.200	-21.902	0.249	-0.154
-746.185	800.000	-0.126	0.411
-745.171	36.750	0.062	-0.055
-744.156	800.000	-0.148	0.423
-743.142	744.729	-0.120	0.329
-742.127	-7.442	-0.086	0.059
-741.112	-132.816	-0.369	0.048
-740.098	-111.522	0.031	0.006
-739.083	-111.792	-0.218	-0.045
-738.069	-60.442	-0.333	-0.144
-737.054	-61.456	-0.070	-0.030
-736.039	501.361	0.123	-0.289
-735.025	371.058	0.178	0.368
-734.010	63.598	-0.239	0.244
-732.996	-27.021	0.228	-0.136
-731.981	-200.000	-0.062	-0.399
-730.966	-200.000	0.077	-0.377
-729.952	-200.000	0.037	-0.211
-728.937	-25.451	-0.216	0.130
-727.923	64.668	0.156	-0.160
-726.908	-42.570	0.110	0.057
-725.894	-200.000	-0.002	0.211
-724.879	-132.463	0.056	-0.007
-723.864	800.000	-0.014	-0.060
-722.850	119.785	-0.091	-0.115
-721.835	193.959	-0.077	-0.118
-720.821	800.000	-0.048	-0.183
-719.806	-200.000	0.023	-0.260
-718.791	-7.754	0.079	-0.055
-717.777	31.960	-0.265	-0.232
-716.762	19.857	0.165	-0.135
-715.748	68.130	-0.250	-0.260
-714.733	48.622	-0.117	0.111
-713.718	-72.565	0.304	-0.114
-712.704	64.196	-0.178	-0.182
-711.689	180.384	-0.118	0.176
-710.675	42.617	0.128	0.118
-709.660	-86.933	-0.118	-0.036
-708.645	268.535	-0.147	-0.261
-707.631	-181.064	-0.375	0.008
-706.616	168.670	0.125	-0.181
-705.602	-181.644	-0.071	0.001
-704.587	-71.468	0.187	0.071
-703.572	-116.815	-0.074	-0.014
-702.558	-200.000	-0.014	-0.298
-701.543	800.000	0.014	-0.050
-700.529	-200.000	0.047	-0.215
-699.514	-93.333	-0.046	-0.013
-698.499	22.707	0.070	-0.058
-697.485	98.217	-0.251	0.293
-696.470	154.598	0.131	0.183
-695.456	-200.000	-0.006	0.230
-694.441	-200.000	-0.011	0.179
-693.426	-56.472	0.019	-0.008
-692.412	14.474	0.183	-0.145
-691.397	83.758	0.294	0.326
-690.383	-200.000	-0.005	-0.033
-689.368	260.749	0.115	0.201
-688.354	-114.147	0.236	-0.046
-687.339	-15.047	-0.254	0.165
-686.324	-99.790	-0.029	0.007
-685.310	-200.000	0.010	0.243
-684.295	62.489	-0.103	0.104
-683.281	-127.584	0.157	-0.023
-682.266	-140.242	0.121	-0.013
-681.251	-158.522	-0.262	0.015
-680.237	800.000	-0.069	0.272
-679.222	144.851	-0.079	-0.107
-678.208	-200.000	0.004	-0.106
-677.193	-117.503	-0.096	0.018
-676.178	-200.000	-0.052	-0.239
-675.164	148.949	-0.112	0.154
-674.149	-15.373	-0.231	0.150
-673.135	-200.000	0.026	-0.153
-672.120	-200.000	-0.032	0.295
-671.105	-116.634	0.380	0.071
-670.091	800.000	0.049	-0.170
-669.076	-82.305	0.335	0.111
-668.062	-43.985	0.194	-0.099
-667.047	-90.735	0.178	-0.052
-666.032	-60.428	-0.078	0.034
-665.018	172.740	-0.137	-0.201
-664.003	20.772	-0.117	-0.096
-662.989	-150.119	-0.217	0.017
-661.974	-95.555	0.027	-0.007
-660.959	54.782	-0.193	-0.189
-659.945	-160.685	-0.035	-0.002
-658.930	70.483	-0.184	-0.193
-657.916	-100.272	0.078	0.020
-656.901	15.493	0.251	0.200
-655.886	-36.615	0.330	0.180
-654.872	-28.020	0.258	0.151
-653.857	-200.000	-0.006	-0.158
-652.843	-200.000	-0.011	-0.059
-651.828	99.505	-0.160	-0.188
-650.814	158.541	-0.075	-0.106
-649.799	800.000	0.014	-0.044
-648.784	800.000	0.042	-0.139
-647.770	36.863	0.081	-0.073
-646.755	244.507	-0.191	-0.326
-645.741	-172.335	-0.225	0.007
-644.726	-141.431	-0.294	-0.030
-643.711	108.724	-0.065	-0.079
-642.697	-200.000	0.012	0.117
-641.682	800.000	0.045	0.195
-640.668	800.000	0.058	-0.222
-639.653	138.298	-0.124	-0.164
-638.638	-65.455	0.234	-0.095
-637.624	800.000	0.040	0.134
-636.609	359.966	-0.041	0.084
-635.595	800.000	0.062	0.202
-634.580	-29.358	-0.170	0.099
-633.565	-109.662	0.198	0.042
-632.551	-48.647	-0.144	0.070
-631.536	-103.545	0.317	0.075
-630.522	-108.035	0.075	0.017
-629.507	-200.000	-0.030	0.196
-628.492	-124.535	0.208	0.033
-627.478	-81.246	-0.246	-0.082
-626.463	-33.621	-0.285	0.160
-625.449	-200.000	0.036	0.160
-624.434	-176.798	-0.544	0.014
-623.419	102.431	-0.158	-0.187
-622.405	-200.000	-0.012	0.210
-621.390	-17.311	0.060	0.038
-620.376	-32.955	0.122	0.068
-619.361	800.000	-0.079	0.260
-618.346	-171.465	0.078	-0.003
-617.332	800.000	-0.029	0.081
-616.317	-200.000	-0.014	-0.227
-615.303	105.705	-0.225	-0.269
-614.288	-101.512	-0.288	-0.071
-613.273	123.258	0.100	-0.126
-612.259	-200.000	0.007	-0.072
-611.244	68.449	-0.176	0.183
-610.230	71.928	0.198	0.209
-609.215	6.800	0.056	-0.042
-608.201	114.316	0.215	-0.265
-607.186	86.256	0.191	-0.213
-606.171	162.973	0.050	0.071
-605.157	-15.374	-0.118	-0.076
-604.142	232.861	0.035	-0.058
-603.128	-97.491	-0.200	0.053
-602.113	-96.212	-0.343	-0.092
-601.098	313.695	0.028	-0.054
-600.084	-186.890	-0.046	0.001
-599.069	127.165	-0.174	0.223
-598.055	-112.196	0.269	-0.055
-597.040	62.211	0.065	-0.066
-596.025	181.683	0.149	0.222
-595.011	62.306	0.188	0.190
-593.996	10.042	-0.343	-0.264
-592.982	37.743	-0.179	-0.161
-591.967	218.834	-0.027	0.044
-590.952	800.000	-0.095	-0.351
-589.938	-200.000	-0.009	-0.129
-588.923	-0.402	-0.162	0.116
-587.909	76.980	0.176	-0.189
-586.894	382.366	0.210	-0.437
-585.879	378.646	-0.083	-0.172
-584.865	466.272	0.093	0.212
-583.850	108.958	0.252	0.304
-582.836	800.000	-0.054	0.179
-581.821	800.000	0.098	0.404
-580.806	-87.104	-0.191	0.059
-579.792	-23.164	0.217	0.132
-578.777	800.000	-0.007	-0.032
-577.763	800.000	-0.094	-0.276
-576.748	-158.238	-0.457	-0.027
-575.733	-60.192	-0.214	0.092
-574.719	96.152	0.188	0.218
-573.704	-68.802	-0.339	-0.132
-572.690	57.638	0.144	0.142
-571.675	7.157	-0.147	0.111
-570.661	279.273	-0.132	-0.238
-569.646	-200.000	-0.021	0.173
-568.631	149.435	-0.214	0.293
-567.617	-55.475	-0.128	-0.058
-566.602	-94.710	0.193	0.053
-565.588	-4.502	-0.280	0.195
-564.573	-200.000	0.014	-0.084
-563.558	-161.943	-0.220	-0.011
-562.544	-11.694	-0.320	-0.212
-561.529	382.980	-0.068	-0.142
-560.515	-176.114	0.211	-0.006
-559.500	-200.000	0.015	0.135
-558.485	-89.108	0.176	0.052
-557.471	-200.000	0.022	-0.134
-556.456	-130.395	-0.446	0.061
-555.442	-200.000	-0.009	0.304
-554.427	-81.102	0.053	0.018
-553.412	800.000	0.045	-0.148
-552.398	-24.858	-0.175	0.105
-551.383	800.000	0.007	-0.028
-550.369	-45.158	-0.014	-0.007
-549.354	-103.678	0.210	-0.050
-548.339	-47.033	0.215	0.106
-547.325	-76.390	-0.087	-0.031
-546.310	-200.000	-0.027	-0.172
-545.296	-102.698	-0.283	0.068
-544.281	-90.039	0.109	0.032
-543.266	800.000	0.061	-0.228
-542.252	245.144	-0.099	-0.168
-541.237	54.518	-0.190	-0.185
-540.223	-50.248	0.126	0.060
-539.208	-134.019	-0.217	-0.027
-538.193	-62.507	-0.097	-0.041
-537.179	-31.511	-0.218	-0.124
-536.164	-36.864	0.064	-0.035
-535.150	-200.000	0.004	-0.118
-534.135	153.535	-0.170	-0.235
-533.121	-59.360	0.267	0.116
-532.106	800.000	-0.059	0.177
-531.091	-200.000	0.021	-0.320
-530.077	21.713	0.364	0.299
-529.062	800.000	0.092	0.360
-528.048	353.289	0.119	0.238
-527.033	497.001	0.055	0.127
-526.018	-138.306	0.317	0.035
-525.004	-74.736	0.079	0.029
-523.989	384.534	-0.032	-0.067
-522.975	-73.362	0.224	0.083
-521.960	-200.000	-0.003	-0.161
-520.945	-33.947	-0.223	-0.124
-519.931	-200.000	-0.031	-0.151
-518.916	312.375	0.130	-0.245
-517.902	-59.702	-0.277	-0.120
-516.887	-67.092	-0.184	-0.073
-515.872	-200.000	0.022	0.100
-514.858	329.771	-0.060	0.117
-513.843	-2.134	0.315	0.223
-512.829	41.057	-0.135	0.123
-511.814	66.977	-0.070	0.072
-510.799	521.091	0.133	-0.314
-509.785	415.965	0.099	-0.213
-508.770	441.212	0.098	0.217
-507.756	239.017	0.130	0.219
-506.741	-112.121	-0.313	0.063
-505.726	-200.000	0.019	0.227
-504.712	-200.000	-0.033	-0.220
-503.697	-52.893	-0.168	0.078
-502.683	322.733	0.125	-0.240
-501.668	-200.000	-0.005	0.028
-500.653	345.669	-0.093	-0.184
-499.639	-200.000	-0.085	-0.482
-498.624	-176.532	0.311	0.008
-497.610	-200.000	0.062	-0.301
-496.595	800.000	-0.036	-0.152
-495.581	238.793	-0.046	-0.078
-494.566	271.038	0.167	0.296
-493.551	800.000	-0.043	-0.124
-492.537	-86.835	-0.075	-0.023
-491.522	191.320	0.297	0.450
-490.508	-52.174	-0.125	-0.059
-489.493	-200.000	-0.018	0.219
-488.478	-35.879	0.118	0.064
-487.464	332.936	-0.054	0.106
-486.449	-200.000	-0.008	-0.207
-485.435	18.474	-0.167	0.134
-484.420	156.004	-0.126	0.174
-483.405	546.208	0.082	0.198
-482.391	-60.181	0.355	0.152
-481.376	2.478	0.153	0.111
-480.362	-141.791	-0.255	0.026
-479.347	0.285	-0.197	0.142
-478.332	502.214	0.086	0.201
-477.318	-38.172	0.240	-0.128
-476.303	289.365	0.203	-0.371
-475.289	353.133	-0.119	-0.238
-474.274	-13.951	0.354	0.230
-473.259	113.710	-0.160	0.196
-472.245	667.281	0.113	-0.295
-471.230	-76.766	-0.142	-0.050
-470.216	754.368	-0.114	0.310
-469.201	-200.000	0.039	0.176
-468.186	-110.325	-0.157	-0.033
-467.172	79.451	-0.217	-0.234
-466.157	99.441	0.203	-0.236
-465.143	24.254	-0.049	0.041
-464.128	6.499	0.077	0.058
-463.113	-200.000	-0.029	0.251
-462.099	7.708	-0.037	0.028
-461.084	182.079	0.177	0.262
-460.070	486.415	-0.044	-0.101
-459.055	37.309	-0.153	-0.136
-458.040	-88.313	-0.226	0.068
-457.026	-61.017	-0.378	0.161
-456.011	216.977	-0.102	-0.164
-454.997	-35.830	0.292	-0.159
-453.982	44.589	-0.128	-0.118
-452.968	-200.000	-0.079	-0.526
-451.953	800.000	0.053	0.155
-450.938	-109.256	-0.375	-0.080
-449.924	8.388	0.154	-0.116
-448.909	95.630	-0.226	-0.259
-447.895	187.585	0.142	-0.213
-446.880	110.717	-0.133	-0.160
-445.865	178.603	0.243	-0.357
-444.851	-42.089	-0.229	0.118
-443.836	96.401	-0.116	-0.133
-442.822	202.958	0.230	-0.358
-441.807	4.786	-0.087	-0.064
-440.792	-55.252	-0.114	-0.051
-439.778	800.000	0.052	0.177
-438.763	-155.126	-0.156	0.010
-437.749	-8.346	0.270	0.182
-436.734	-175.019	-0.080	0.002
-435.719	85.894	-0.093	-0.103
-434.705	-78.218	-0.233	-0.081
-433.690	-141.353	-0.231	-0.024
-432.676	-200.000	-0.022	-0.098
-431.661	-127.487	0.165	-0.024
-430.646	800.000	-0.022	-0.086
-429.632	98.083	-0.067	0.078
-428.617	-200.000	-0.002	-0.035
-427.603	7.539	0.463	0.348
-426.588	361.271	-0.150	0.303
-425.573	-200.000	-0.089	0.549
-424.559	464.528	0.111	0.249
-423.544	278.727	0.085	-0.153
-422.530	-18.554	0.228	0.143
-421.515	106.894	0.047	0.057
-420.500	-177.352	-0.139	0.003
-419.486	-31.837	0.251	0.142
-418.471	800.000	0.078	-0.330
-417.457	-41.901	0.264	0.136
-416.442	233.572	0.162	-0.268
-415.428	202.484	-0.052	0.081
-414.413	800.000	0.105	-0.303
-413.398	0.882	0.115	0.082
-412.384	389.489	-0.082	-0.172
-411.369	192.719	0.148	0.225
-410.355	81.873	0.082	0.089
-409.340	-22.349	-0.125	0.076
-408.325	-143.163	-0.299	0.029
-407.311	-200.000	0.002	-0.138
-406.296	-200.000	0.018	-0.241
-405.282	305.963	-0.146	0.273
-404.267	-157.351	-0.155	0.009
-403.252	61.153	-0.103	0.103
-402.238	-159.471	-0.141	0.008
-401.223	-112.496	-0.109	0.022
-400.209	566.856	-0.030	0.072
-399.194	800.000	-0.009	0.031
-398.179	800.000	-0.070	0.251
-397.165	-85.253	0.097	-0.031
-396.150	-70.431	0.039	0.015
-395.136	-200.000	-0.014	0.203
-394.121	95.150	-0.077	-0.088
-393.106	800.000	-0.015	0.052
-392.092	461.570	0.053	-0.118
-391.077	-174.396	-0.296	-0.009
-390.063	-200.000	0.040	-0.349
-389.048	-13.100	0.287	0.187
-388.033	-70.116	0.186	0.071
-387.019	-85.786	0.286	0.089
-386.004	-132.700	-0.083	-0.011
-384.990	800.000	-0.024	-0.080
-383.975	800.000	-0.036	0.102
-382.960	-173.861	-0.278	-0.008
-381.946	-200.000	0.026	0.442
-380.931	243.473	-0.210	-0.353
-379.917	-24.546	0.089	0.053
-378.902	731.723	-0.167	0.447
-377.888	10.210	0.139	-0.106
-376.873	-113.734	-0.350	-0.069
-375.858	-108.662	-0.050	0.011
-374.844	800.000	0.055	0.192
-373.829	-33.298	0.211	0.117
-372.815	-200.000	0.019	-0.156
-371.800	13.139	-0.540	-0.419
-370.785	43.074	0.361	-0.330
-369.771	400.797	-0.080	0.169
-368.756	800.000	0.076	-0.269
-367.742	1.535	0.216	0.156
-366.727	108.082	-0.162	0.193
-365.712	18.567	-0.255	-0.204
-364.698	-49.237	0.181	-0.087
-363.683	-121.914	0.169	-0.028
-362.669	-200.000	0.011	0.140
-361.654	-200.000	-0.009	-0.221
-360.639	800.000	-0.057	-0.157
-359.625	62.388	-0.082	-0.082
-358.610	-136.020	0.372	0.044
-357.596	800.000	0.037	-0.150
-356.581	-200.000	0.013	0.273
-355.566	185.775	0.159	0.237
-354.552	17.002	-0.267	0.212
-353.537	80.900	0.258	-0.279
-352.523	-26.028	0.204	0.120
-351.508	-36.161	-0.215	0.117
-350.493	-80.506	-0.100	-0.033
-349.479	128.645	-0.225	0.287
-348.464	-134.903	-0.352	-0.043
-347.450	-28.773	-0.126	0.073
-346.435	106.442	0.092	-0.109
-345.420	-72.720	-0.481	-0.177
-344.406	-200.000	-0.065	0.321
-343.391	7.673	-0.118	0.088
-342.377	-96.968	0.245	-0.064
-341.362	-200.000	0.037	-0.193
-340.348	-200.000	-0.002	0.081
-339.333	42.014	0.200	0.182
-338.318	279.030	-0.142	-0.254
-337.304	-108.531	-0.243	-0.052
-336.289	-71.203	-0.230	-0.087
-335.275	303.791	0.121	-0.224
-334.260	508.550	-0.250	-0.582
-333.245	147.964	0.147	-0.199
-332.231	800.000	0.057	0.174
-331.216	-139.781	-0.057	0.006
-330.202	414.424	0.163	0.348
-329.187	194.867	0.119	0.181
-328.172	168.369	0.257	-0.366
-327.158	-149.566	-0.148	0.012
-326.143	-39.505	-0.044	0.023
-325.129	-163.871	0.092	-0.004
-324.114	117.347	0.087	0.107
-323.099	309.618	-0.085	0.159
-322.085	-118.730	0.047	0.008
-321.070	-61.684	0.162	0.068
-320.056	162.178	-0.227	0.318
-319.041	-61.344	0.286	0.120
-318.026	-11.595	0.140	-0.092
-317.012	-148.041	-0.237	-0.020
-315.997	-59.571	-0.112	0.048
-314.983	-106.679	0.506	0.113
-313.968	800.000	-0.026	0.098
-312.953	42.027	0.186	0.169
-311.939	374.469	0.095	0.194
-310.924	131.173	0.071	0.091
-309.910	-95.041	0.124	-0.033
-308.895	695.708	-0.059	-0.156
-307.880	-49.428	0.229	0.109
-306.866	33.187	0.273	-0.237
-305.851	-200.000	-0.048	0.212
-304.837	129.555	0.074	-0.094
-303.822	330.961	0.061	-0.117
-302.807	-122.213	-0.233	0.038
-301.793	50.097	-0.124	-0.117
-300.778	-200.000	-0.037	-0.468
-299.764	672.081	-0.096	-0.249
-298.749	800.000	0.057	0.190
-297.735	-74.474	0.193	-0.070
-296.720	-131.994	-0.147	0.019
-295.705	-200.000	-0.002	-0.401
-294.691	800.000	-0.035	-0.105
-293.676	800.000	-0.044	0.143
-292.662	215.366	-0.258	0.409
-291.647	-200.000	-0.032	0.293
-290.632	205.068	0.072	0.112
-289.618	-200.000	0.029	0.255
-288.603	187.195	0.190	-0.283
-287.589	208.830	-0.022	-0.035
-286.574	-107.844	-0.119	-0.026
-285.559	164.655	0.107	-0.151
-284.545	-61.427	-0.128	0.054
-283.530	800.000	0.098	-0.399
-282.516	-200.000	0.032	0.264
-281.501	-89.704	-0.035	-0.010
-280.486	14.613	-0.130	-0.102
-279.472	-122.227	0.238	-0.039
-278.457	35.586	0.335	-0.294
-277.443	-39.574	0.191	-0.100
-276.428	-38.970	-0.251	0.132
-275.413	-54.597	-0.176	0.079
-274.399	-134.447	0.256	-0.031
-273.384	-200.000	-0.029	-0.127
-272.370	-96.679	-0.220	0.058
-271.355	-200.000	0.005	0.186
-270.340	-94.427	0.211	-0.057
-269.326	-58.548	-0.229	0.099
-268.311	-39.577	0.228	0.119
-267.297	-200.000	-0.067	0.296
-266.282	10.437	0.313	0.238
-265.267	76.383	-0.149	-0.158
-264.253	746.957	0.109	0.294
-263.238	-22.566	-0.297	0.179
-262.224	93.591	0.196	-0.222
-261.209	255.569	-0.164	-0.281
-260.195	-75.914	0.137	-0.049
-259.180	-19.211	0.371	0.230
-258.165	-82.566	0.212	0.069
-257.151	408.096	-0.122	0.258
-256.136	-87.950	0.209	0.063
-255.122	25.690	0.061	0.051
-254.107	-200.000	-0.078	0.397
-253.092	8.598	0.177	0.133
-252.078	-43.214	0.180	-0.091
-251.063	105.421	0.252	-0.297
-250.049	-116.642	0.269	0.049
-249.034	-50.980	-0.097	-0.046
-248.019	110.776	0.202	-0.242
-247.005	-19.664	-0.191	-0.118
-245.990	178.427	-0.155	0.226
-244.976	-54.076	-0.113	-0.051
-243.961	800.000	0.045	-0.131
-242.946	-12.971	-0.144	-0.094
-241.932	23.563	-0.341	-0.280
-240.917	-137.492	-0.082	0.009
-239.903	214.303	0.025	-0.039
-238.888	-144.477	0.081	-0.008
-237.873	-119.120	-0.307	-0.054
-236.859	519.174	0.137	-0.321
-235.844	29.766	0.138	0.117
-234.830	-101.024	0.132	0.032
-233.815	182.050	0.177	-0.260
-232.800	443.737	-0.037	0.081
-231.786	41.769	-0.101	-0.092
-230.771	-200.000	-0.018	-0.081
-229.757	-118.885	0.167	-0.029
-228.742	470.682	0.155	-0.348
-227.727	15.978	-0.135	0.106
-226.713	-43.661	0.232	-0.116
-225.698	700.463	0.132	-0.348
-224.684	-162.394	0.238	0.012
-223.669	800.000	-0.022	0.068
-222.655	11.058	-0.168	0.128
-221.640	119.889	0.149	-0.184
-220.625	-200.000	-0.013	0.113
-219.611	105.186	-0.097	0.114
-218.596	-200.000	-0.000	-0.342
-217.582	228.716	-0.145	0.236
-216.567	-166.829	-0.085	-0.004
-215.552	177.181	-0.083	0.120
-214.538	496.943	-0.104	-0.239
-213.523	-200.000	0.037	0.285
-212.509	408.534	-0.093	-0.195
-211.494	416.773	0.059	0.126
-210.479	-200.000	0.012	-0.079
-209.465	-5.199	0.099	0.068
-208.450	33.259	0.038	-0.033
-207.436	-53.582	-0.204	0.093
-206.421	212.762	0.075	0.117
-205.406	358.113	-0.079	-0.158
-204.392	369.794	0.101	0.204
-203.377	-200.000	0.018	0.110
-202.363	-49.451	0.272	0.129
-201.348	-122.267	-0.496	-0.081
-200.333	71.690	-0.191	-0.198
-199.319	-200.000	-0.003	0.019
-198.304	-200.000	-0.052	-0.236
-197.290	199.534	-0.084	0.129
-196.275	-91.026	0.048	-0.014
-195.260	800.000	0.032	0.109
-194.246	330.141	-0.076	0.145
-193.231	-88.499	0.289	0.086
-192.217	-6.633	-0.197	-0.134
-191.202	415.352	0.046	-0.097
-190.187	-18.071	0.291	0.182
-189.173	-124.897	0.353	0.054
-188.158	800.000	0.051	0.175
-187.144	-154.438	0.273	-0.018
-186.129	5.851	-0.211	-0.156
-185.114	0.309	-0.299	-0.213
-184.100	-73.191	0.103	-0.037
-183.085	-186.745	0.094	-0.001
-182.071	-9.626	-0.199	0.132
-181.056	-165.821	0.240	0.010
-180.042	-12.727	0.385	0.250
-179.027	203.171	0.223	0.343
-178.012	-128.523	0.220	-0.031
-176.998	-130.783	-0.202	0.027
-175.983	-70.240	-0.162	0.061
-174.969	157.226	0.075	-0.104
-173.954	52.871	0.022	0.021
-172.939	52.063	0.076	0.072
-171.925	143.951	0.148	0.196
-170.910	15.635	0.062	-0.048
-169.896	337.783	0.020	0.040
-168.881	49.364	0.275	-0.257
-167.866	468.590	0.068	-0.153
-166.852	-103.047	0.292	0.069
-165.837	800.000	-0.083	-0.290
-164.823	-200.000	0.063	0.368
-163.808	0.206	0.378	0.268
-162.793	800.000	0.054	-0.232
-161.779	1.434	-0.272	-0.195
-160.764	-89.746	-0.247	0.072
-159.750	-200.000	0.019	0.343
-158.735	-0.069	-0.105	0.074
-157.720	212.569	-0.104	0.164
-156.706	308.098	0.062	-0.115
-155.691	41.800	-0.128	0.115
-154.677	-76.383	0.134	0.047
-153.662	99.377	-0.164	0.189
-152.647	-200.000	0.065	-0.370
-151.633	-200.000	0.030	-0.227
-150.618	-6.457	0.095	-0.064
-149.604	-130.336	-0.267	0.036
-148.589	-189.515	0.131	0.002
-147.574	86.376	0.149	-0.163
-146.560	113.279	-0.068	0.081
-145.545	53.943	-0.096	0.092
-144.531	-200.000	-0.017	0.132
-143.516	-92.723	0.620	0.173
-142.502	26.734	-0.210	-0.175
-141.487	800.000	0.111	0.435
-140.472	62.228	0.086	-0.085
-139.458	-200.000	0.021	0.129
-138.443	-200.000	0.008	0.247
-137.429	785.084	0.075	0.203
-136.414	99.674	-0.158	-0.182
-135.399	48.742	-0.224	-0.209
-134.385	800.000	0.115	0.375
-133.370	800.000	0.035	0.138
-132.356	227.650	-0.174	-0.280
-131.341	8.779	0.144	0.108
-130.326	800.000	-0.076	-0.250
-129.312	800.000	0.019	-0.069
-128.297	202.786	0.086	-0.131
-127.283	-76.083	-0.303	-0.106
-126.268	7.364	0.181	-0.134
-125.253	-0.275	0.257	-0.182
-124.239	370.406	0.133	-0.268
-123.224	-28.040	0.225	-0.129
-122.210	800.000	0.087	-0.342
-121.195	32.553	0.169	0.145
-120.180	-26.133	-0.091	0.053
