DTS Sentinel unit serial number:	SN413079Multiplexer serial number:	ORYXHardware model number:	OX4-SRSoftware version number:	ORYX F/W v4.00 Oryx Data Collector v3.7.2.0data status	okinstallation	princeton_trtdifferential loss correction	single-endedforward channel	channel 1reverse channel	N/Adate	2019/09/10time	16:28:11forward acquisition time	60.00reverse acquisition time	0.00gamma	496.2192k internal	0.2299k external	0.2299temperature offset calibration	0.9920default loss term (dB/km)	0.3790temperature slope calibration	1.0000multiplexer offset coefficient	1.0000multiplexer slope coefficient	1.0000fibre end	0.00T internal ref (°C)	38.12T ext. ref 1 (°C)	-0.29T ext. ref 2 (°C)	30.90length (m)	temperature (°C)	Stokes	anti-Stokes-747.200	10.887	0.227	0.177
-746.185	79.028	-0.205	0.224
-745.171	-200.000	-0.013	-0.329
-744.156	-200.000	-0.003	0.034
-743.142	-200.000	0.031	-0.215
-742.127	378.712	-0.136	0.284
-741.112	800.000	-0.062	0.269
-740.098	19.218	-0.084	0.069
-739.083	159.513	0.238	-0.338
-738.069	-122.852	-0.198	-0.033
-737.054	-117.652	0.462	0.085
-736.039	-6.820	-0.201	0.139
-735.025	-54.056	-0.108	-0.050
-734.010	-61.815	0.218	0.093
-732.996	-200.000	0.060	-0.313
-731.981	-94.700	-0.452	-0.125
-730.966	-90.045	-0.400	-0.119
-729.952	800.000	-0.032	0.109
-728.937	381.643	-0.007	0.015
-727.923	800.000	0.065	-0.266
-726.908	177.696	0.195	-0.290
-725.894	107.127	0.082	0.099
-724.879	-200.000	0.023	0.289
-723.864	13.409	0.320	-0.253
-722.850	476.444	-0.130	-0.300
-721.835	-200.000	0.108	0.000
-720.821	-200.000	0.028	0.180
-719.806	-180.755	-0.097	0.002
-718.791	-186.925	0.190	-0.003
-717.777	126.638	-0.192	-0.248
-716.762	800.000	0.066	0.225
-715.748	403.874	0.201	0.432
-714.733	800.000	0.053	-0.187
-713.718	-161.386	0.430	0.023
-712.704	-116.064	-0.254	0.048
-711.689	-57.713	-0.180	-0.080
-710.675	329.058	0.210	-0.411
-709.660	800.000	-0.007	-0.029
-708.645	-101.890	-0.153	0.038
-707.631	-51.354	0.219	-0.104
-706.616	-200.000	0.002	-0.238
-705.602	-22.534	-0.150	0.092
-704.587	407.865	-0.071	0.153
-703.572	177.084	0.081	0.119
-702.558	-81.715	-0.103	0.034
-701.543	483.309	0.032	-0.073
-700.529	-61.078	-0.216	0.093
-699.514	120.528	-0.182	-0.230
-698.499	-200.000	0.032	0.161
-697.485	49.036	-0.080	0.076
-696.470	-173.517	0.305	0.009
-695.456	198.035	0.168	-0.261
-694.441	-200.000	-0.012	-0.204
-693.426	800.000	0.074	-0.270
-692.412	-39.541	0.225	0.120
-691.397	-200.000	-0.040	0.418
-690.383	-72.711	-0.091	0.034
-689.368	727.210	-0.048	0.130
-688.354	-113.874	0.155	0.031
-687.339	-87.040	0.139	0.043
-686.324	134.945	0.085	-0.113
-685.310	10.587	0.134	0.104
-684.295	-200.000	0.001	0.456
-683.281	-24.994	-0.336	0.203
-682.266	305.990	-0.141	0.267
-681.251	800.000	-0.108	0.356
-680.237	271.327	-0.096	-0.172
-679.222	-166.082	-0.180	0.008
-678.208	17.174	0.064	0.052
-677.193	159.063	0.271	-0.384
-676.178	-200.000	-0.006	0.031
-675.164	-30.878	0.206	-0.118
-674.149	-22.637	-0.174	0.107
-673.135	800.000	0.053	0.159
-672.120	-200.000	-0.027	0.296
-671.105	-106.703	-0.242	0.055
-670.091	-31.526	-0.261	-0.149
-669.076	37.842	-0.149	-0.135
-668.062	85.627	0.073	-0.082
-667.047	290.971	-0.204	0.376
-666.032	469.133	0.049	0.113
-665.018	-158.996	-0.269	0.016
-664.003	-164.847	0.183	-0.008
-662.989	-200.000	0.065	0.353
-661.974	672.896	-0.125	-0.330
-660.959	92.498	0.161	-0.185
-659.945	662.382	0.039	0.104
-658.930	-200.000	0.031	0.153
-657.916	-128.162	0.097	-0.014
-656.901	-200.000	0.061	0.319
-655.886	-155.731	0.119	-0.008
-654.872	-200.000	0.031	0.383
-653.857	-51.722	-0.460	0.218
-652.843	-105.267	-0.305	0.071
-651.828	-106.324	0.062	-0.014
-650.814	95.044	0.165	-0.191
-649.799	800.000	-0.053	-0.221
-648.784	16.287	0.177	0.142
-647.770	-36.399	-0.162	-0.089
-646.755	-168.755	-0.071	-0.003
-645.741	-183.637	0.247	0.004
-644.726	-49.572	0.255	-0.124
-643.711	-92.281	0.362	-0.104
-642.697	156.364	0.058	0.081
-641.682	-200.000	-0.069	-0.371
-640.668	-67.331	0.187	0.075
-639.653	122.101	-0.208	-0.264
-638.638	-102.741	0.415	0.100
-637.624	348.810	-0.055	-0.110
-636.609	800.000	-0.027	-0.109
-635.595	800.000	-0.038	-0.112
-634.580	228.789	-0.053	0.088
-633.565	-135.052	0.148	0.018
-632.551	-200.000	-0.024	-0.123
-631.536	260.071	0.120	-0.211
-630.522	-3.195	-0.170	-0.120
-629.507	159.629	-0.168	-0.237
-628.492	-120.945	0.146	-0.025
-627.478	-55.519	-0.316	-0.144
-626.463	97.628	-0.191	0.223
-625.449	800.000	-0.114	-0.472
-624.434	144.438	-0.099	-0.134
-623.419	-200.000	0.020	-0.157
-622.405	-200.000	0.026	0.143
-621.390	148.869	0.032	-0.044
-620.376	546.418	-0.017	0.042
-619.361	-184.950	-0.056	-0.001
-618.346	-200.000	-0.059	0.328
-617.332	-153.619	0.357	-0.025
-616.317	-86.046	-0.249	0.078
-615.303	24.698	-0.090	-0.075
-614.288	216.901	-0.102	-0.165
-613.273	207.381	-0.125	0.197
-612.259	-200.000	0.005	0.160
-611.244	250.706	0.046	0.079
-610.230	-63.985	0.230	0.095
-609.215	276.027	-0.187	-0.338
-608.201	-200.000	-0.032	-0.192
-607.186	-104.534	0.053	0.012
-606.171	-56.300	-0.137	-0.062
-605.157	51.446	-0.252	-0.243
-604.142	29.599	0.037	-0.032
-603.128	353.878	-0.076	0.152
-602.113	-93.570	-0.193	0.054
-601.098	17.806	-0.143	0.116
-600.084	800.000	-0.041	0.179
-599.069	100.861	0.113	0.134
-598.055	18.429	-0.313	0.254
-597.040	53.084	0.246	0.239
-596.025	118.439	0.135	0.170
-595.011	699.862	0.183	-0.488
-593.996	-171.742	-0.257	0.009
-592.982	-200.000	-0.027	0.236
-591.967	-200.000	-0.007	0.095
-590.952	-200.000	0.013	0.187
-589.938	-200.000	0.044	-0.457
-588.923	800.000	0.067	-0.223
-587.909	87.963	0.160	-0.180
-586.894	-200.000	-0.023	0.131
-585.879	1.240	0.259	0.188
-584.865	-200.000	0.089	0.482
-583.850	6.466	-0.147	-0.110
-582.836	-200.000	-0.025	-0.264
-581.821	28.787	-0.133	-0.114
-580.806	1.496	0.151	-0.110
-579.792	-67.204	0.110	-0.044
-578.777	-200.000	0.033	0.304
-577.763	83.738	0.193	0.214
-576.748	-200.000	0.016	-0.133
-575.733	311.485	0.171	0.325
-574.719	39.540	-0.104	0.095
-573.704	92.448	-0.016	-0.018
-572.690	-49.088	0.236	0.114
-571.675	28.922	-0.079	-0.068
-570.661	49.554	0.206	-0.197
-569.646	-6.169	-0.202	0.140
-568.631	135.404	0.055	-0.073
-567.617	-80.081	0.078	-0.027
-566.602	-27.285	-0.174	0.103
-565.588	-10.761	0.196	0.131
-564.573	224.126	0.165	-0.269
-563.558	107.935	-0.025	-0.031
-562.544	-200.000	0.007	-0.389
-561.529	-50.445	0.093	-0.044
-560.515	471.341	0.045	0.102
-559.500	-51.325	-0.253	0.120
-558.485	111.717	0.128	-0.157
-557.471	14.681	-0.084	-0.066
-556.456	-47.062	-0.195	-0.097
-555.442	-16.787	-0.191	-0.122
-554.427	-135.825	-0.158	-0.019
-553.412	291.038	-0.079	-0.146
-552.398	-27.788	-0.114	-0.067
-551.383	-178.278	0.354	0.008
-550.369	-23.142	-0.077	-0.047
-549.354	123.886	0.037	0.047
-548.339	735.145	0.053	-0.143
-547.325	-200.000	-0.021	-0.124
-546.310	-123.419	-0.268	-0.043
-545.296	-115.321	-0.278	-0.053
-544.281	800.000	0.030	-0.101
-543.266	-23.754	0.196	0.119
-542.252	70.381	-0.179	0.188
-541.237	-124.902	0.120	-0.019
-540.223	249.889	-0.142	0.243
-539.208	-96.012	-0.116	0.031
-538.193	195.192	-0.069	0.106
-537.179	71.303	0.105	-0.110
-536.164	-132.284	-0.491	-0.064
-535.150	-122.843	0.279	-0.046
-534.135	234.213	0.112	0.187
-533.121	-143.545	0.271	0.026
-532.106	-100.948	0.295	0.073
-531.091	-200.000	-0.027	0.302
-530.077	256.158	-0.036	0.062
-529.062	125.643	-0.179	0.228
-528.048	527.020	-0.041	-0.097
-527.033	171.465	0.144	-0.210
-526.018	-200.000	-0.038	0.242
-525.004	-28.559	0.388	-0.226
-523.989	2.354	-0.362	-0.265
-522.975	127.370	-0.076	0.098
-521.960	-39.641	-0.228	0.120
-520.945	-94.705	0.221	0.061
-519.931	-154.416	0.203	0.014
-518.916	24.463	0.308	-0.257
-517.902	-12.774	-0.138	0.091
-516.887	-200.000	0.034	0.236
-515.872	477.985	0.089	0.203
-514.858	86.739	0.028	0.031
-513.843	152.312	-0.107	-0.148
-512.829	-159.660	-0.049	-0.003
-511.814	-45.510	-0.083	-0.042
-510.799	195.121	0.151	-0.232
-509.785	-75.673	-0.276	-0.099
-508.770	187.846	0.139	0.210
-507.756	-111.178	0.317	0.066
-506.741	203.378	0.270	-0.422
-505.726	-132.306	0.081	0.011
-504.712	-137.952	0.347	0.039
-503.697	333.272	0.221	0.433
-502.683	33.193	-0.077	-0.067
-501.668	170.693	0.093	-0.135
-500.653	800.000	0.040	-0.137
-499.639	336.217	0.091	0.179
-498.624	-9.201	-0.211	-0.143
-497.610	-123.865	0.471	-0.075
-496.595	117.392	0.059	0.073
-495.581	-146.448	-0.356	-0.031
-494.566	-64.357	0.067	0.027
-493.551	-60.391	0.017	-0.007
-492.537	-200.000	0.091	0.492
-491.522	7.435	-0.140	0.106
-490.508	33.493	0.456	-0.400
-489.493	-30.834	-0.179	-0.102
-488.478	-200.000	0.024	-0.206
-487.464	474.791	-0.073	0.167
-486.449	38.456	-0.269	-0.242
-485.435	400.147	0.095	-0.201
-484.420	-101.856	0.140	0.034
-483.405	-200.000	-0.019	0.223
-482.391	-200.000	0.103	-0.468
-481.376	14.927	0.193	0.152
-480.362	128.230	0.122	0.156
-479.347	-177.116	-0.206	0.005
-478.332	250.048	-0.089	0.153
-477.318	349.386	-0.076	-0.152
-476.303	-72.980	0.259	-0.096
-475.289	-128.178	-0.153	0.022
-474.274	-200.000	0.007	-0.225
-473.259	-8.320	-0.160	0.109
-472.245	800.000	-0.025	-0.108
-471.230	13.332	0.238	-0.186
-470.216	127.448	0.072	0.092
-469.201	800.000	0.084	-0.313
-468.186	-64.694	0.322	-0.132
-467.172	36.071	-0.242	0.215
-466.157	107.227	-0.285	0.341
-465.143	-47.686	0.085	0.042
-464.128	-200.000	0.001	0.123
-463.113	-103.773	-0.181	0.043
-462.099	-80.873	0.061	0.020
-461.084	-88.927	-0.139	-0.041
-460.070	100.400	-0.120	0.141
-459.055	-200.000	0.007	0.187
-458.040	-104.388	-0.273	-0.064
-457.026	707.935	0.083	-0.221
-456.011	-131.107	0.154	0.021
-454.997	-200.000	-0.028	0.386
-453.982	-200.000	-0.000	-0.129
-452.968	-163.095	0.070	-0.003
-451.953	800.000	-0.043	0.134
-450.938	-185.701	-0.216	-0.003
-449.924	-200.000	0.042	0.267
-448.909	-84.289	0.184	0.059
-447.895	-200.000	0.055	0.559
-446.880	115.144	0.284	0.350
-445.865	-55.931	0.037	0.017
-444.851	800.000	-0.043	0.183
-443.836	800.000	0.132	-0.420
-442.822	-55.258	0.279	0.126
-441.807	-200.000	0.006	0.185
-440.792	-200.000	0.001	-0.286
-439.778	-200.000	0.011	0.139
-438.763	-200.000	-0.033	-0.253
-437.749	-200.000	0.003	-0.183
-436.734	-77.430	0.242	-0.085
-435.719	372.911	-0.096	0.197
-434.705	800.000	0.022	0.083
-433.690	167.034	0.187	-0.268
-432.676	800.000	0.051	-0.156
-431.661	-0.907	-0.220	-0.157
-430.646	128.362	-0.237	-0.304
-429.632	38.220	0.145	-0.130
-428.617	289.936	-0.080	0.145
-427.603	513.365	0.147	-0.345
-426.588	800.000	0.048	-0.198
-425.573	123.346	-0.119	-0.150
-424.559	-97.202	-0.071	-0.019
-423.544	-115.693	-0.346	-0.065
-422.530	202.692	-0.131	0.203
-421.515	-90.353	-0.547	-0.160
-420.500	-200.000	0.042	-0.252
-419.486	12.538	-0.087	0.068
-418.471	800.000	0.046	0.182
-417.457	-200.000	-0.005	0.058
-416.442	-200.000	0.041	-0.232
-415.428	70.759	0.201	0.209
-414.413	-97.093	0.244	-0.064
-413.398	93.631	0.174	-0.198
-412.384	5.494	-0.096	0.072
-411.369	260.892	0.156	-0.272
-410.355	82.675	0.196	-0.215
-409.340	-64.061	0.248	0.102
-408.325	-200.000	0.020	0.122
-407.311	158.388	0.138	0.193
-406.296	-15.124	-0.091	-0.059
-405.282	65.508	0.111	-0.113
-404.267	-200.000	-0.017	-0.255
-403.252	11.146	-0.155	-0.119
-402.238	-200.000	-0.275	-0.000
-401.223	160.382	0.188	0.265
-400.209	-87.927	-0.340	0.103
-399.194	45.887	0.200	-0.186
-398.179	461.311	-0.180	-0.404
-397.165	-93.603	0.263	-0.073
-396.150	800.000	-0.150	-0.567
-395.136	-200.000	-0.025	0.156
-394.121	38.567	-0.164	0.147
-393.106	-142.023	-0.148	0.015
-392.092	262.407	-0.108	0.188
-391.077	-200.000	-0.063	0.465
-390.063	-200.000	-0.016	-0.233
-389.048	-129.946	-0.313	0.043
-388.033	800.000	-0.136	0.388
-387.019	8.526	-0.143	-0.108
-386.004	38.469	0.056	-0.050
-384.990	-154.885	-0.030	0.002
-383.975	-21.806	-0.169	-0.103
-382.960	-200.000	-0.026	-0.293
-381.946	53.414	0.091	-0.088
-380.931	150.014	-0.016	-0.022
-379.917	-200.000	-0.025	-0.383
-378.902	198.804	-0.121	0.187
-377.888	-6.816	0.252	-0.172
-376.873	-123.972	-0.316	-0.050
-375.858	-176.458	-0.125	0.003
-374.844	331.407	0.116	0.225
-373.829	-28.922	-0.187	0.108
-372.815	667.904	0.115	0.300
-371.800	-5.647	-0.043	0.029
-370.785	164.331	-0.186	0.264
-369.771	-200.000	0.024	-0.170
-368.756	-151.129	-0.261	-0.020
-367.742	-200.000	-0.018	-0.211
-366.727	-200.000	0.037	0.203
-365.712	113.145	-0.060	0.073
-364.698	800.000	-0.011	0.032
-363.683	-24.813	0.061	0.037
-362.669	-87.582	-0.311	-0.095
-361.654	-97.595	0.282	0.074
-360.639	-70.534	-0.176	0.067
-359.625	800.000	-0.123	-0.342
-358.610	-122.197	-0.190	-0.031
-357.596	202.425	-0.181	0.280
-356.581	232.290	-0.134	0.221
-355.566	-105.787	-0.179	0.041
-354.552	-0.184	-0.432	0.309
-353.537	-119.483	-0.083	0.014
-352.523	210.451	-0.048	0.076
-351.508	-8.231	0.240	0.162
-350.493	460.435	-0.092	0.206
-349.479	69.028	0.147	0.152
-348.464	188.319	0.146	-0.219
-347.450	-169.619	-0.077	0.003
-346.435	217.959	0.131	0.209
-345.420	-62.354	0.067	-0.028
-344.406	-93.048	0.300	-0.084
-343.391	-44.786	0.513	0.257
-342.377	-200.000	0.008	-0.102
-341.362	-200.000	0.012	-0.075
-340.348	485.722	0.043	-0.098
-339.333	159.959	-0.179	0.250
-338.318	38.458	0.152	0.136
-337.304	12.202	0.166	0.128
-336.289	-200.000	-0.016	0.260
-335.275	-200.000	0.026	-0.133
-334.260	-200.000	0.003	-0.388
-333.245	397.653	0.008	0.016
-332.231	-82.920	-0.263	-0.085
-331.216	1.977	-0.205	0.149
-330.202	-98.084	0.288	0.075
-329.187	-88.849	-0.263	0.078
-328.172	132.910	0.020	-0.026
-327.158	-200.000	0.001	-0.149
-326.143	-66.614	-0.057	0.023
-325.129	-200.000	-0.012	0.142
-324.114	17.550	-0.105	0.084
-323.099	800.000	0.083	-0.242
-322.085	-31.929	-0.268	-0.151
-321.070	-96.374	-0.313	0.083
-320.056	-191.793	-0.220	0.002
-319.041	-116.442	0.058	-0.011
-318.026	-123.799	0.029	0.005
-317.012	-200.000	0.001	-0.239
-315.997	-102.399	-0.173	0.042
-314.983	106.188	-0.095	0.113
-313.968	800.000	0.012	0.046
-312.953	33.577	-0.103	-0.090
-311.939	288.695	0.184	0.335
-310.924	-200.000	-0.028	0.291
-309.910	-200.000	-0.063	0.308
-308.895	107.231	0.033	0.039
-307.880	208.497	0.128	0.201
-306.866	9.013	-0.108	-0.082
-305.851	-140.352	0.053	-0.006
-304.837	-72.317	-0.386	0.143
-303.822	-200.000	-0.072	-0.341
-302.807	-104.418	-0.176	-0.041
-301.793	109.961	-0.161	-0.194
-300.778	-117.519	0.085	-0.015
-299.764	-99.672	-0.040	-0.010
-298.749	-70.324	0.352	0.134
-297.735	-200.000	-0.051	-0.353
-296.720	88.145	0.176	0.196
-295.705	-145.533	-0.265	-0.024
-294.691	800.000	0.093	0.332
-293.676	22.970	0.254	-0.208
-292.662	105.126	-0.049	0.058
-291.647	65.526	-0.216	-0.219
-290.632	-15.824	0.292	0.186
-289.618	155.769	-0.097	0.133
-288.603	800.000	-0.041	0.127
-287.589	-76.241	0.262	0.093
-286.574	-200.000	0.014	0.086
-285.559	223.969	0.073	-0.118
-284.545	-200.000	-0.002	-0.022
-283.530	-200.000	-0.025	-0.145
-282.516	202.301	0.067	-0.104
-281.501	42.614	-0.129	0.118
-280.486	-122.500	0.287	-0.047
-279.472	-57.861	-0.210	0.092
-278.457	165.794	-0.180	-0.255
-277.443	53.007	-0.070	-0.068
-276.428	-65.894	0.119	0.048
-275.413	-133.007	0.189	0.024
-274.399	-46.676	-0.130	0.064
-273.384	-200.000	0.016	-0.334
-272.370	66.770	0.055	-0.056
-271.355	-19.714	0.316	-0.196
-270.340	-200.000	0.026	0.320
-269.326	-200.000	0.014	-0.196
-268.311	377.147	0.114	0.234
-267.297	425.163	-0.054	-0.116
-266.282	-200.000	0.016	0.362
-265.267	-1.970	0.279	-0.197
-264.253	-89.437	0.243	0.071
-263.238	7.736	0.130	0.098
-262.224	-53.086	-0.099	-0.045
-261.209	-93.023	-0.260	-0.073
-260.195	-31.368	0.119	-0.067
-259.180	180.468	0.097	-0.142
-258.165	30.900	-0.061	-0.052
-257.151	800.000	0.057	0.200
-256.136	800.000	0.052	-0.164
-255.122	178.855	-0.042	-0.062
-254.107	800.000	0.086	-0.293
-253.092	358.507	0.112	-0.224
-252.078	-85.199	-0.507	0.159
-251.063	800.000	-0.097	0.392
-250.049	-58.561	-0.155	0.067
-249.034	157.390	0.069	0.095
-248.019	378.089	0.103	0.211
-247.005	-37.309	0.127	0.068
-245.990	-108.651	-0.147	0.031
-244.976	-200.000	-0.017	-0.321
-243.961	59.955	0.137	-0.135
-242.946	325.114	-0.162	-0.311
-241.932	800.000	0.037	-0.155
-240.917	-156.915	0.636	0.039
-239.903	122.408	0.111	0.138
-238.888	-44.067	0.223	0.112
-237.873	-27.025	0.203	0.119
-236.859	74.082	-0.183	-0.192
-235.844	-200.000	-0.008	0.168
-234.830	62.257	-0.266	0.265
-233.815	800.000	0.026	0.093
-232.800	706.691	-0.097	0.257
-231.786	800.000	0.193	0.694
-230.771	214.014	0.054	-0.085
-229.757	411.791	0.088	0.188
-228.742	-56.849	-0.143	0.063
-227.727	-136.542	0.251	-0.029
-226.713	-83.944	-0.175	-0.056
-225.698	73.349	0.332	0.347
-224.684	-200.000	-0.002	0.392
-223.669	-78.678	-0.126	0.043
-222.655	-84.619	-0.322	-0.102
-221.640	-200.000	0.066	0.452
-220.625	-14.151	0.327	-0.211
-219.611	-95.770	0.167	-0.045
-218.596	-96.957	0.221	-0.058
-217.582	-200.000	0.015	0.168
-216.567	333.668	-0.203	-0.393
-215.552	531.033	0.166	0.391
-214.538	424.614	-0.052	-0.111
-213.523	23.232	0.173	-0.142
-212.509	475.469	-0.077	0.175
-211.494	-52.579	0.305	-0.141
-210.479	417.868	-0.139	-0.297
-209.465	682.262	0.079	0.207
-208.450	-132.071	0.308	0.040
-207.436	-200.000	0.064	0.301
-206.421	88.466	-0.082	0.091
-205.406	40.863	-0.172	0.155
-204.392	-200.000	0.001	-0.109
-203.377	47.815	-0.232	0.217
-202.363	-200.000	-0.014	0.297
-201.348	667.092	0.094	-0.243
-200.333	-191.238	0.154	0.002
-199.319	8.104	0.196	0.147
-198.304	-132.941	0.106	0.013
-197.290	-200.000	0.029	-0.238
-196.275	183.742	-0.154	0.227
-195.260	-200.000	0.024	0.435
-194.246	-200.000	0.001	0.304
-193.231	30.763	0.264	0.226
-192.217	-199.411	-0.324	-0.002
-191.202	-200.000	0.007	0.148
-190.187	16.344	-0.316	-0.249
-189.173	-200.000	-0.015	-0.230
-188.158	57.975	0.070	-0.068
-187.144	250.775	-0.163	-0.277
-186.129	800.000	-0.097	-0.312
-185.114	-63.846	-0.146	-0.060
-184.100	366.519	-0.107	0.215
-183.085	800.000	-0.073	-0.253
-182.071	-23.499	-0.448	-0.268
-181.056	-82.603	0.231	0.075
-180.042	359.861	0.204	0.408
-179.027	-200.000	-0.036	-0.210
-178.012	246.755	-0.064	0.109
-176.998	28.616	0.310	-0.262
-175.983	171.793	-0.195	-0.280
-174.969	-25.793	0.283	-0.166
-173.954	-200.000	-0.026	0.173
-172.939	-137.322	-0.303	0.034
-171.925	800.000	-0.045	0.173
-170.910	139.967	0.191	-0.251
-169.896	-130.021	0.153	-0.021
-168.881	-53.383	0.130	0.059
-167.866	338.170	-0.117	0.227
-166.852	-200.000	-0.034	-0.231
-165.837	-139.172	-0.074	0.008
-164.823	-118.564	-0.039	-0.007
-163.808	-94.922	-0.493	0.133
-162.793	29.568	-0.245	-0.208
-161.779	800.000	-0.085	-0.283
-160.764	-108.926	0.317	0.068
-159.750	-200.000	0.038	-0.213
-158.735	205.170	-0.193	-0.299
-157.720	133.876	0.088	0.114
-156.706	-170.326	-0.186	0.007
-155.691	181.551	0.203	-0.297
-154.677	-131.299	-0.307	-0.041
-153.662	-149.055	0.161	0.013
-152.647	-165.897	-0.087	-0.004
-151.633	347.852	-0.060	0.118
-150.618	-168.982	0.103	0.004
-149.604	4.749	-0.128	0.094
-148.589	124.908	0.190	0.239
-147.574	-90.777	0.224	0.064
-146.560	-200.000	0.003	0.286
-145.545	800.000	0.078	-0.249
-144.531	-132.310	-0.186	-0.024
-143.516	-46.165	-0.175	-0.086
-142.502	-7.154	-0.052	-0.035
-141.487	192.999	0.089	0.134
-140.472	-189.389	0.052	-0.001
-139.458	800.000	-0.069	-0.226
-138.443	56.773	-0.186	0.180
-137.429	-40.159	-0.390	0.202
-136.414	-30.408	0.178	0.100
-135.399	800.000	0.130	0.379
-134.385	-25.324	0.297	0.175
-133.370	-173.745	0.193	0.006
-132.356	30.276	-0.115	0.097
-131.341	-102.828	0.235	-0.056
-130.326	-114.338	0.290	-0.056
-129.312	269.414	0.107	0.187
-128.297	-67.894	0.158	-0.061
-127.283	-1.985	-0.075	0.053
-126.268	638.871	-0.053	-0.135
-125.253	-103.568	0.087	0.020
-124.239	46.968	0.108	-0.100
-123.224	520.876	-0.045	0.105
-122.210	-98.352	0.095	-0.024
-121.195	-76.126	-0.040	0.014
