DTS Sentinel unit serial number:	SN413079Multiplexer serial number:	ORYXHardware model number:	OX4-SRSoftware version number:	ORYX F/W v4.00 Oryx Data Collector v3.7.2.0data status	okinstallation	princeton_trtdifferential loss correction	single-endedforward channel	channel 1reverse channel	N/Adate	2019/09/11time	12:08:11forward acquisition time	60.00reverse acquisition time	0.00gamma	496.2192k internal	0.2291k external	0.2291temperature offset calibration	0.9938default loss term (dB/km)	0.3790temperature slope calibration	1.0000multiplexer offset coefficient	1.0000multiplexer slope coefficient	1.0000fibre end	0.00T internal ref (°C)	39.61T ext. ref 1 (°C)	0.22T ext. ref 2 (°C)	37.79length (m)	temperature (°C)	Stokes	anti-Stokes-747.200	86.029	0.213	0.240
-746.185	800.000	0.156	0.548
-745.171	236.079	0.041	-0.070
-744.156	161.038	-0.064	0.091
-743.142	-147.698	-0.220	0.019
-742.127	299.425	-0.169	0.319
-741.112	-94.746	-0.085	0.024
-740.098	367.582	0.191	0.395
-739.083	-200.000	-0.136	0.616
-738.069	-95.062	-0.268	0.074
-737.054	-38.370	0.363	-0.196
-736.039	104.759	-0.082	0.099
-735.025	106.349	0.023	0.027
-734.010	81.995	0.212	0.235
-732.996	800.000	0.075	0.286
-731.981	-157.382	-0.348	0.021
-730.966	-18.164	-0.387	-0.248
-729.952	-144.731	-0.149	-0.014
-728.937	-116.249	-0.302	0.057
-727.923	-200.000	0.043	-0.286
-726.908	-26.217	-0.285	0.171
-725.894	-200.000	-0.011	0.190
-724.879	275.453	0.022	0.040
-723.864	-134.289	-0.282	-0.036
-722.850	-85.695	-0.150	-0.048
-721.835	800.000	-0.072	-0.319
-720.821	-74.926	-0.395	0.145
-719.806	32.771	-0.023	0.020
-718.791	215.603	-0.088	-0.143
-717.777	39.405	-0.112	-0.102
-716.762	307.608	0.115	-0.219
-715.748	108.933	-0.122	-0.150
-714.733	-200.000	0.065	0.302
-713.718	800.000	0.041	-0.160
-712.704	21.614	-0.241	0.200
-711.689	253.368	-0.154	-0.269
-710.675	-80.836	0.299	0.101
-709.660	275.734	-0.116	0.210
-708.645	-200.000	-0.019	-0.196
-707.631	-200.000	0.039	-0.249
-706.616	693.129	-0.107	-0.287
-705.602	-200.000	-0.020	-0.113
-704.587	52.883	-0.172	-0.168
-703.572	-147.468	0.218	0.019
-702.558	-116.724	-0.238	-0.045
-701.543	599.788	-0.038	-0.095
-700.529	-193.299	0.024	0.000
-699.514	284.609	0.132	-0.244
-698.499	749.390	-0.088	-0.242
-697.485	-200.000	0.046	-0.227
-696.470	174.644	0.057	0.084
-695.456	800.000	-0.059	-0.264
-694.441	800.000	0.030	-0.098
-693.426	31.724	0.199	0.175
-692.412	-200.000	-0.016	0.163
-691.397	-175.935	0.321	0.009
-690.383	-200.000	0.006	-0.276
-689.368	160.909	0.042	0.060
-688.354	145.804	0.125	-0.172
-687.339	-200.000	-0.007	-0.065
-686.324	-200.000	0.066	0.315
-685.310	-200.000	0.003	0.074
-684.295	68.654	-0.072	0.075
-683.281	72.873	0.088	0.094
-682.266	565.733	0.034	0.084
-681.251	-22.521	0.219	-0.135
-680.237	219.180	-0.110	-0.180
-679.222	318.294	0.195	0.377
-678.208	-200.000	0.001	0.242
-677.193	719.643	0.067	0.183
-676.178	-147.821	0.222	-0.019
-675.164	264.044	0.159	0.283
-674.149	65.347	-0.159	-0.164
-673.135	-59.664	-0.496	-0.217
-672.120	6.398	0.180	0.137
-671.105	756.804	-0.022	0.062
-670.091	-79.782	0.278	-0.096
-669.076	229.205	0.045	0.076
-668.062	-113.016	0.259	-0.052
-667.047	-116.402	-0.516	0.097
-666.032	-200.000	0.026	-0.199
-665.018	-32.688	0.041	-0.023
-664.003	84.217	-0.225	-0.251
-662.989	-76.610	-0.149	0.053
-661.974	-79.194	-0.333	-0.115
-660.959	713.631	-0.090	-0.243
-659.945	536.503	-0.041	-0.098
-658.930	800.000	0.037	-0.118
-657.916	-200.000	-0.069	0.385
-656.901	800.000	0.057	0.174
-655.886	7.888	0.108	0.082
-654.872	243.640	-0.166	-0.285
-653.857	63.644	0.141	-0.145
-652.843	-113.681	0.113	0.023
-651.828	-200.000	-0.003	-0.050
-650.814	-179.716	-0.159	0.004
-649.799	236.126	0.146	-0.247
-648.784	268.849	-0.129	0.231
-647.770	761.362	-0.115	0.319
-646.755	96.663	0.064	-0.075
-645.741	-72.549	0.185	-0.070
-644.726	-38.626	0.164	0.088
-643.711	-112.589	0.047	0.010
-642.697	0.554	0.146	-0.107
-641.682	-12.845	-0.176	-0.117
-640.668	-91.804	-0.288	0.083
-639.653	-200.000	0.413	-0.000
-638.638	-178.198	0.319	0.008
-637.624	20.190	-0.154	-0.127
-636.609	13.999	0.028	-0.023
-635.595	-60.181	0.225	-0.098
-634.580	-131.322	-0.153	-0.021
-633.565	-17.680	-0.073	0.047
-632.551	180.998	0.088	-0.132
-631.536	-121.597	-0.422	-0.071
-630.522	-10.091	-0.196	-0.133
-629.507	-129.523	-0.455	-0.064
-628.492	-151.510	-0.426	0.032
-627.478	237.442	-0.106	-0.179
-626.463	40.875	-0.378	-0.348
-625.449	264.578	-0.080	-0.142
-624.434	19.481	-0.189	-0.155
-623.419	-82.843	0.187	-0.062
-622.405	86.455	-0.170	0.191
-621.390	89.655	-0.204	0.232
-620.376	82.718	-0.118	0.131
-619.361	-111.625	-0.023	0.005
-618.346	5.154	0.119	-0.089
-617.332	105.609	-0.175	-0.211
-616.317	38.732	0.096	0.087
-615.303	53.216	-0.265	0.258
-614.288	53.454	0.092	0.090
-613.273	-200.000	-0.017	-0.145
-612.259	215.550	0.225	0.364
-611.244	-183.295	0.187	0.003
-610.230	-78.066	-0.212	0.074
-609.215	-56.057	0.244	0.111
-608.201	740.281	-0.019	0.053
-607.186	-19.317	-0.135	0.085
-606.171	-91.266	0.230	0.067
-605.157	-98.132	0.148	0.039
-604.142	-200.000	-0.051	-0.317
-603.128	-200.000	-0.017	-0.151
-602.113	-110.902	0.169	0.035
-601.098	-200.000	-0.008	0.345
-600.084	-34.326	-0.304	0.170
-599.069	-34.563	0.164	-0.091
-598.055	288.608	-0.074	-0.136
-597.040	130.024	0.143	-0.187
-596.025	-41.133	-0.212	0.112
-595.011	-200.000	-0.021	-0.192
-593.996	-200.000	-0.004	0.091
-592.982	-58.023	-0.253	-0.112
-591.967	-200.000	-0.019	0.253
-590.952	-38.479	-0.296	0.159
-589.938	317.791	0.154	-0.297
-588.923	45.572	-0.230	0.216
-587.909	-200.000	0.181	-0.000
-586.894	197.756	-0.177	0.275
-585.879	-3.961	0.273	0.193
-584.865	68.527	-0.107	-0.112
-583.850	350.370	0.153	-0.308
-582.836	129.801	0.264	-0.343
-581.821	-200.000	-0.014	0.133
-580.806	-27.190	-0.067	0.040
-579.792	-200.000	0.037	0.223
-578.777	399.893	-0.091	0.194
-577.763	456.638	0.187	0.424
-576.748	-18.138	0.209	0.133
-575.733	800.000	0.096	0.299
-574.719	-200.000	0.019	0.098
-573.704	800.000	0.012	-0.048
-572.690	-123.037	-0.337	0.055
-571.675	-95.005	0.116	-0.032
-570.661	221.833	0.194	0.318
-569.646	42.135	-0.048	-0.045
-568.631	196.431	-0.109	0.168
-567.617	193.497	0.067	-0.103
-566.602	-78.853	-0.243	0.084
-565.588	19.026	0.417	-0.340
-564.573	-114.096	0.082	0.016
-563.558	123.589	-0.129	-0.165
-562.544	140.690	0.036	0.048
-561.529	-24.565	0.100	-0.060
-560.515	800.000	-0.026	0.099
-559.500	-83.080	-0.142	0.046
-558.485	202.133	0.089	0.139
-557.471	-200.000	-0.044	-0.199
-556.456	-200.000	-0.039	0.287
-555.442	800.000	0.014	-0.049
-554.427	61.780	-0.065	0.066
-553.412	22.045	-0.220	0.182
-552.398	-113.404	0.186	0.037
-551.383	11.076	0.082	0.064
-550.369	27.424	0.166	-0.142
-549.354	-25.168	0.126	-0.076
-548.339	-200.000	0.069	0.336
-547.325	20.892	0.229	0.189
-546.310	-94.817	0.167	-0.046
-545.296	-119.689	0.142	-0.025
-544.281	-42.677	-0.204	0.105
-543.266	-38.299	0.372	0.200
-542.252	800.000	-0.099	-0.291
-541.237	249.761	0.072	-0.124
-540.223	-200.000	-0.003	-0.408
-539.208	800.000	-0.033	-0.122
-538.193	-22.117	0.150	0.093
-537.179	-66.310	-0.320	-0.129
-536.164	243.591	-0.044	0.076
-535.150	-200.000	0.042	0.303
-534.135	800.000	-0.045	0.184
-533.121	2.577	-0.336	-0.247
-532.106	-160.798	-0.236	0.013
-531.091	-200.000	0.007	-0.083
-530.077	-200.000	0.010	-0.126
-529.062	797.521	0.054	0.151
-528.048	19.647	0.271	-0.221
-527.033	-200.000	0.053	-0.259
-526.018	-84.522	0.180	0.058
-525.004	-88.056	-0.238	0.072
-523.989	75.352	0.332	0.356
-522.975	-18.476	-0.159	-0.101
-521.960	25.852	-0.113	0.095
-520.945	-94.310	-0.291	0.081
-519.931	0.544	-0.028	0.020
-518.916	168.120	0.101	-0.146
-517.902	149.487	-0.073	-0.101
-516.887	61.041	-0.218	-0.220
-515.872	-111.441	0.447	-0.092
-514.858	-106.655	0.174	-0.039
-513.843	800.000	-0.048	0.164
-512.829	-200.000	-0.012	-0.201
-511.814	60.259	0.286	-0.287
-510.799	-37.317	0.154	-0.083
-509.785	27.010	-0.064	0.055
-508.770	-200.000	-0.004	0.096
-507.756	800.000	-0.049	0.164
-506.741	-103.290	0.057	0.014
-505.726	-132.352	0.165	0.022
-504.712	80.864	0.361	0.395
-503.697	-153.498	-0.196	-0.014
-502.683	405.820	0.037	-0.078
-501.668	426.669	-0.156	0.342
-500.653	-35.945	-0.036	-0.020
-499.639	233.257	-0.105	-0.175
-498.624	-200.000	-0.021	-0.224
-497.610	24.512	0.167	-0.141
-496.595	192.448	-0.013	-0.019
-495.581	95.000	-0.109	0.126
-494.566	-32.866	-0.342	0.193
-493.551	15.137	0.097	-0.077
-492.537	800.000	-0.031	0.119
-491.522	-200.000	-0.004	0.202
-490.508	242.960	-0.090	0.153
-489.493	-200.000	-0.030	0.434
-488.478	17.177	-0.140	0.112
-487.464	-52.794	-0.339	-0.158
-486.449	0.735	0.175	-0.127
-485.435	-200.000	-0.255	-0.001
-484.420	-156.897	0.251	-0.016
-483.405	418.387	-0.146	0.316
-482.391	180.629	-0.163	0.243
-481.376	72.873	-0.196	0.208
-480.362	-77.455	0.185	-0.065
-479.347	37.670	0.066	0.059
-478.332	-34.269	0.337	-0.187
-477.318	-54.759	0.202	-0.093
-476.303	-106.095	-0.096	0.022
-475.289	-18.247	0.266	-0.169
-474.274	47.074	0.060	0.057
-473.259	-200.000	0.012	-0.061
-472.245	-200.000	-0.016	-0.093
-471.230	-131.498	0.500	0.067
-470.216	-157.114	-0.283	0.017
-469.201	199.381	-0.106	0.164
-468.186	-113.336	0.072	0.014
-467.172	800.000	0.102	-0.330
-466.157	22.149	-0.147	-0.122
-465.143	-59.934	-0.161	-0.070
-464.128	-200.000	0.039	-0.338
-463.113	33.833	0.058	0.051
-462.099	376.728	0.030	0.063
-461.084	420.317	-0.125	-0.272
-460.070	800.000	0.095	-0.335
-459.055	-91.036	-0.235	0.069
-458.040	490.262	0.083	0.193
-457.026	422.398	0.073	-0.158
-456.011	-63.022	0.199	0.083
-454.997	-113.604	0.247	0.049
-453.982	800.000	0.068	-0.238
-452.968	-200.000	0.010	0.121
-451.953	-200.000	0.067	-0.000
-450.938	-56.713	0.310	-0.139
-449.924	-157.541	0.111	-0.007
-448.909	432.072	0.112	-0.247
-447.895	-110.357	0.189	0.040
-446.880	-200.000	0.034	-0.196
-445.865	-200.000	0.027	0.171
-444.851	-200.000	-0.011	-0.101
-443.836	621.103	-0.059	-0.151
-442.822	11.446	0.225	-0.174
-441.807	-44.786	-0.175	-0.088
-440.792	-45.792	-0.342	-0.171
-439.778	-102.267	0.209	0.051
-438.763	-200.000	0.067	0.366
-437.749	-98.441	0.274	-0.071
-436.734	109.978	-0.239	-0.291
-435.719	800.000	0.107	-0.418
-434.705	-141.559	-0.207	0.021
-433.690	69.561	-0.089	-0.093
-432.676	259.407	0.187	-0.327
-431.661	-61.662	0.323	-0.137
-430.646	-66.785	-0.215	0.086
-429.632	800.000	0.072	-0.298
-428.617	139.891	-0.131	-0.174
-427.603	-95.028	-0.229	-0.063
-426.588	-128.270	-0.289	0.042
-425.573	-57.335	0.092	-0.041
-424.559	141.277	-0.056	-0.075
-423.544	800.000	0.049	0.195
-422.530	159.345	-0.053	0.074
-421.515	-200.000	0.027	-0.258
-420.500	12.195	-0.068	-0.053
-419.486	174.520	-0.135	0.197
-418.471	-9.561	0.092	0.062
-417.457	800.000	0.085	-0.257
-416.442	191.314	-0.155	-0.235
-415.428	-59.091	-0.012	0.005
-414.413	-63.949	-0.054	0.022
-413.398	-139.545	0.136	0.015
-412.384	-161.503	0.058	0.003
-411.369	800.000	0.102	-0.362
-410.355	800.000	-0.053	-0.195
-409.340	320.564	-0.115	-0.221
-408.325	-92.136	-0.171	0.049
-407.311	131.853	0.152	0.198
-406.296	208.895	0.064	0.101
-405.282	201.018	-0.172	0.268
-404.267	-33.357	0.147	0.082
-403.252	323.501	0.072	0.139
-402.238	-129.282	-0.265	-0.037
-401.223	-167.950	-0.145	0.006
-400.209	-99.397	0.195	-0.050
-399.194	-157.276	0.320	0.020
-398.179	199.878	0.094	-0.145
-397.165	13.239	0.129	0.101
-396.150	-136.081	-0.171	-0.020
-395.136	237.269	-0.219	0.367
-394.121	305.431	-0.229	0.429
-393.106	504.026	-0.062	0.144
-392.092	-85.136	0.219	-0.069
-391.077	-200.000	0.013	-0.374
-390.063	159.666	0.158	-0.223
-389.048	-64.710	-0.166	0.068
-388.033	314.519	0.049	0.094
-387.019	-18.139	-0.450	0.284
-386.004	25.449	-0.172	-0.144
-384.990	-101.604	-0.078	-0.019
-383.975	-190.909	0.078	-0.001
-382.960	107.437	0.099	0.119
-381.946	5.103	-0.101	0.075
-380.931	-200.000	-0.005	0.047
-379.917	-40.700	-0.303	-0.159
-378.902	25.715	-0.165	-0.139
-377.888	-200.000	0.008	-0.149
-376.873	-200.000	-0.021	-0.221
-375.858	-155.315	0.327	0.021
-374.844	-87.162	0.127	-0.039
-373.829	-105.112	0.238	0.055
-372.815	12.981	0.142	0.111
-371.800	66.686	-0.014	0.014
-370.785	265.953	0.034	0.059
-369.771	23.406	-0.239	0.198
-368.756	89.954	0.055	-0.062
-367.742	-200.000	-0.008	0.058
-366.727	-13.412	-0.143	0.093
-365.712	-30.641	0.084	-0.048
-364.698	168.498	-0.211	-0.303
-363.683	-50.984	-0.282	-0.134
-362.669	123.621	-0.183	0.232
-361.654	49.760	0.050	-0.047
-360.639	40.102	0.340	-0.309
-359.625	4.761	-0.315	0.233
-358.610	800.000	-0.193	-0.563
-357.596	-7.643	-0.264	-0.180
-356.581	800.000	-0.041	-0.150
-355.566	800.000	-0.050	0.189
-354.552	125.831	0.133	-0.169
-353.537	800.000	-0.051	0.175
-352.523	-13.287	-0.162	0.106
-351.508	-85.648	-0.024	0.007
-350.493	-188.281	-0.217	0.003
-349.479	800.000	-0.115	0.403
-348.464	-158.106	0.061	-0.004
-347.450	252.538	-0.065	-0.111
-346.435	-67.193	0.116	0.046
-345.420	-44.605	0.384	0.194
-344.406	-121.915	0.285	-0.047
-343.391	153.611	0.114	-0.157
-342.377	-145.752	0.042	0.004
-341.362	671.956	-0.073	0.192
-340.348	366.080	-0.048	0.097
-339.333	-88.584	0.143	-0.043
-338.318	-71.276	0.234	0.088
-337.304	129.016	-0.072	-0.093
-336.289	76.094	-0.161	-0.172
-335.275	52.897	-0.192	-0.185
-334.260	-103.915	-0.137	0.032
-333.245	170.194	-0.137	0.197
-332.231	-110.151	-0.090	0.019
-331.216	762.348	-0.064	-0.175
-330.202	-55.305	-0.259	-0.117
-329.187	173.373	-0.224	-0.325
-328.172	97.178	-0.125	-0.144
-327.158	-85.637	0.321	-0.100
-326.143	-200.000	-0.191	0.001
-325.129	800.000	-0.103	0.298
-324.114	800.000	0.038	-0.161
-323.099	-200.000	-0.040	-0.198
-322.085	-200.000	-0.032	0.303
-321.070	105.001	-0.205	0.244
-320.056	257.728	0.099	0.171
-319.041	-37.696	-0.212	-0.114
-318.026	800.000	-0.129	0.415
-317.012	42.502	0.120	0.110
-315.997	-2.113	-0.245	-0.174
-314.983	-21.189	0.236	0.145
-313.968	249.052	-0.135	0.230
-312.953	20.111	-0.141	0.114
-311.939	-200.000	0.071	0.444
-310.924	26.842	-0.069	-0.058
-309.910	719.717	0.110	0.294
-308.895	108.370	-0.079	0.095
-307.880	-200.000	-0.033	-0.302
-306.866	-157.860	0.094	-0.006
-305.851	13.108	-0.178	-0.139
-304.837	-72.245	0.246	-0.092
-303.822	35.589	0.214	0.189
-302.807	2.436	0.484	0.353
-301.793	374.982	0.071	-0.146
-300.778	-92.357	-0.055	0.016
-299.764	138.377	-0.088	-0.116
-298.749	-85.823	0.203	0.063
-297.735	431.065	0.056	0.122
-296.720	135.158	0.058	0.076
-295.705	98.994	0.221	-0.257
-294.691	162.426	-0.061	0.086
-293.676	-174.090	-0.074	0.002
-292.662	134.365	-0.200	0.261
-291.647	800.000	0.033	-0.132
-290.632	114.136	-0.125	-0.153
-289.618	98.145	0.260	-0.301
-288.603	-118.911	0.141	0.025
-287.589	-127.534	-0.466	0.068
-286.574	-122.969	0.133	-0.022
-285.559	127.331	-0.188	0.239
-284.545	-100.763	-0.248	-0.061
-283.530	42.116	0.220	0.201
-282.516	-200.000	0.068	-0.334
-281.501	-95.440	-0.465	0.126
-280.486	623.758	0.054	0.136
-279.472	501.662	0.098	-0.228
-278.457	79.142	-0.247	-0.266
-277.443	-12.944	0.266	0.174
-276.428	196.237	-0.045	0.070
-275.413	-185.608	0.163	0.002
-274.399	72.627	0.068	-0.072
-273.384	206.740	0.176	-0.276
-272.370	114.654	0.118	-0.144
-271.355	-32.265	-0.285	0.160
-270.340	327.821	0.028	-0.054
-269.326	-200.000	-0.016	-0.144
-268.311	-200.000	-0.003	-0.107
-267.297	-77.219	-0.152	0.053
-266.282	498.696	-0.133	-0.308
-265.267	-19.489	0.171	-0.106
-264.253	-116.089	0.174	-0.032
-263.238	800.000	0.052	0.147
-262.224	800.000	0.017	0.065
-261.209	-116.569	0.121	-0.022
-260.195	-178.702	0.204	-0.005
-259.180	-94.363	0.279	-0.077
-258.165	138.554	0.209	0.276
-257.151	-177.267	0.261	0.006
-256.136	-129.831	0.089	-0.012
-255.122	-200.000	-0.055	0.312
-254.107	272.174	0.194	0.344
-253.092	-65.361	-0.360	-0.146
-252.078	800.000	-0.099	0.330
-251.063	-200.000	0.016	0.152
-250.049	800.000	0.072	-0.298
-249.034	-82.727	0.219	-0.071
-248.019	476.650	-0.147	-0.334
-247.005	-60.142	-0.263	-0.113
-245.990	13.548	0.262	-0.205
-244.976	-98.724	-0.143	0.037
-243.961	-59.491	0.061	0.026
-242.946	-66.817	-0.286	-0.114
-241.932	65.430	0.086	0.088
-240.917	-59.564	-0.231	0.100
-239.903	-40.439	0.412	-0.215
-238.888	800.000	0.090	0.355
-237.873	597.953	-0.086	-0.215
-236.859	99.040	-0.247	0.286
-235.844	-79.574	-0.065	0.022
-234.830	10.468	0.061	0.046
-233.815	-200.000	-0.040	-0.222
-232.800	178.506	0.191	-0.280
-231.786	-131.425	0.428	0.057
-230.771	154.486	0.078	0.107
-229.757	-2.902	-0.304	0.213
-228.742	616.477	-0.053	0.135
-227.727	-135.570	0.130	-0.016
-226.713	2.989	0.179	0.131
-225.698	162.443	0.101	-0.142
-224.684	-200.000	0.001	-0.225
-223.669	800.000	0.011	0.037
-222.655	-86.047	0.072	0.022
-221.640	572.892	0.135	-0.331
-220.625	-94.510	0.183	-0.050
-219.611	103.936	-0.125	0.148
-218.596	317.968	0.108	-0.205
-217.582	199.163	0.076	-0.116
-216.567	164.208	0.104	-0.147
-215.552	-75.036	-0.060	0.022
-214.538	-22.237	-0.268	0.163
-213.523	307.552	0.230	-0.431
-212.509	346.487	0.225	-0.443
-211.494	-119.701	0.226	0.039
-210.479	-48.850	-0.140	0.067
-209.465	198.415	-0.056	0.086
-208.450	-129.432	0.169	-0.024
-207.436	-200.000	-0.025	-0.284
-206.421	15.694	-0.098	0.077
-205.406	31.212	-0.300	-0.258
-204.392	800.000	0.075	0.305
-203.377	-182.627	0.060	0.001
-202.363	-18.248	-0.346	-0.217
-201.348	-146.879	0.130	0.011
-200.333	-93.935	0.177	-0.049
-199.319	10.854	-0.193	0.148
-198.304	-24.673	-0.253	0.151
-197.290	-200.000	-0.092	0.453
-196.275	679.261	0.126	0.328
-195.260	800.000	-0.069	0.236
-194.246	172.079	-0.104	0.150
-193.231	95.051	0.217	0.248
-192.217	800.000	0.094	0.341
-191.202	-18.151	0.163	0.102
-190.187	-200.000	0.022	-0.194
-189.173	711.973	0.056	0.147
-188.158	-200.000	-0.053	0.297
-187.144	189.231	-0.064	-0.096
-186.129	-141.065	-0.307	-0.032
-185.114	-94.315	-0.150	-0.041
-184.100	800.000	0.046	0.129
-183.085	-96.851	-0.059	0.016
-182.071	-68.199	-0.214	0.084
-181.056	-200.000	-0.037	-0.210
-180.042	-1.324	0.163	0.116
-179.027	-70.111	0.148	-0.056
-178.012	403.563	-0.065	0.137
-176.998	14.879	0.055	-0.043
-175.983	-148.558	0.193	-0.016
-174.969	-172.265	-0.178	-0.006
-173.954	154.261	-0.181	-0.249
-172.939	-106.177	0.171	-0.039
-171.925	800.000	0.051	0.168
-170.910	320.435	0.113	-0.215
-169.896	120.591	-0.068	-0.084
-168.881	-106.373	-0.128	-0.029
-167.866	100.232	0.177	-0.205
-166.852	-43.324	0.091	0.046
-165.837	800.000	-0.070	0.270
-164.823	23.880	0.122	0.101
-163.808	-200.000	-0.033	0.249
-162.793	-29.599	0.199	0.114
-161.779	-53.225	-0.188	-0.086
-160.764	60.701	-0.141	-0.140
-159.750	-200.000	0.007	-0.085
-158.735	50.340	-0.130	-0.123
-157.720	-16.572	0.092	-0.059
-156.706	-83.913	-0.217	0.069
-155.691	61.178	0.165	-0.164
-154.677	159.947	0.208	0.290
-153.662	-62.608	-0.167	-0.069
-152.647	-200.000	-0.013	0.124
-151.633	117.794	0.175	0.216
-150.618	95.816	0.168	0.192
-149.604	-55.388	-0.159	-0.072
-148.589	75.245	-0.241	0.254
-147.574	448.556	0.129	0.285
-146.560	-8.966	0.281	0.188
-145.545	257.740	-0.130	0.224
-144.531	143.390	-0.222	0.295
-143.516	-29.726	-0.301	0.172
-142.502	304.355	-0.108	0.200
-141.487	7.409	-0.222	0.166
-140.472	800.000	-0.074	0.322
-139.458	-177.359	0.046	0.001
-138.443	-200.000	0.013	0.326
-137.429	315.702	0.165	0.312
-136.414	-164.740	0.358	-0.016
-135.399	800.000	-0.062	-0.224
-134.385	-57.347	-0.125	-0.055
-133.370	8.374	0.250	-0.188
-132.356	147.181	0.090	0.121
-131.341	-200.000	-0.019	-0.167
-130.326	-83.926	-0.132	-0.042
-129.312	-35.090	-0.171	0.093
-128.297	-58.778	-0.076	0.033
-127.283	800.000	0.066	0.288
-126.268	-200.000	-0.002	0.158
-125.253	-112.268	0.114	-0.023
-124.239	728.098	-0.129	0.343
-123.224	85.321	-0.086	-0.094
-122.210	-18.325	0.154	-0.096
-121.195	36.189	-0.255	0.225
-120.180	185.655	0.084	0.125
