DTS Sentinel unit serial number:	SN413079Multiplexer serial number:	ORYXHardware model number:	OX4-SRSoftware version number:	ORYX F/W v4.00 Oryx Data Collector v3.7.2.0data status	okinstallation	princeton_trtdifferential loss correction	single-endedforward channel	channel 1reverse channel	N/Adate	2019/09/11time	00:32:11forward acquisition time	60.00reverse acquisition time	0.00gamma	496.2192k internal	0.2332k external	0.2332temperature offset calibration	0.9927default loss term (dB/km)	0.3790temperature slope calibration	1.0000multiplexer offset coefficient	1.0000multiplexer slope coefficient	1.0000fibre end	0.00T internal ref (°C)	29.25T ext. ref 1 (°C)	-0.32T ext. ref 2 (°C)	23.00length (m)	temperature (°C)	Stokes	anti-Stokes-747.200	-69.427	0.497	-0.192
-746.185	-70.470	0.311	0.119
-745.171	-2.134	-0.133	-0.094
-744.156	-149.501	0.237	0.019
-743.142	-100.836	0.092	-0.023
-742.127	-144.422	-0.170	-0.016
-741.112	-200.000	0.018	0.115
-740.098	-200.000	-0.036	0.231
-739.083	195.659	-0.167	-0.255
-738.069	47.041	-0.273	0.255
-737.054	20.620	-0.219	0.179
-736.039	678.975	0.063	-0.164
-735.025	319.372	-0.113	0.215
-734.010	-29.203	0.060	-0.035
-732.996	190.224	-0.240	-0.363
-731.981	-19.108	0.169	0.105
-730.966	-22.499	-0.371	-0.226
-729.952	239.287	0.215	-0.360
-728.937	-96.420	-0.440	-0.117
-727.923	-122.465	-0.491	-0.080
-726.908	114.673	-0.138	0.170
-725.894	-1.687	0.221	-0.157
-724.879	-106.164	-0.448	-0.101
-723.864	-87.954	-0.125	0.038
-722.850	149.462	0.241	-0.328
-721.835	800.000	-0.099	0.412
-720.821	582.723	-0.054	0.134
-719.806	-200.000	-0.017	-0.194
-718.791	230.908	-0.204	0.336
-717.777	94.963	-0.156	0.178
-716.762	-131.461	-0.172	-0.023
-715.748	293.899	-0.152	0.279
-714.733	-200.000	-0.002	-0.129
-713.718	1.325	0.064	0.046
-712.704	-200.000	0.012	-0.250
-711.689	25.749	0.141	-0.118
-710.675	-166.656	-0.133	-0.006
-709.660	-200.000	0.013	0.444
-708.645	564.606	-0.077	0.187
-707.631	-90.186	0.283	-0.083
-706.616	-127.510	0.290	0.042
-705.602	86.993	-0.057	0.063
-704.587	-118.202	0.180	0.032
-703.572	-200.000	-0.002	-0.242
-702.558	-138.046	-0.247	-0.028
-701.543	-200.000	-0.010	0.240
-700.529	-131.196	0.012	-0.002
-699.514	104.660	0.060	-0.071
-698.499	15.026	0.256	-0.201
-697.485	-29.077	-0.135	-0.078
-696.470	-84.419	0.319	-0.101
-695.456	317.929	-0.032	-0.061
-694.441	185.295	0.189	-0.282
-693.426	-144.786	-0.063	-0.006
-692.412	-31.838	0.090	-0.051
-691.397	448.877	0.067	0.149
-690.383	-94.704	0.356	0.097
-689.368	-36.035	-0.147	0.080
-688.354	-77.888	0.265	-0.092
-687.339	-200.000	-0.046	-0.304
-686.324	-41.999	-0.164	-0.085
-685.310	800.000	-0.057	0.195
-684.295	187.942	0.089	-0.134
-683.281	-66.631	-0.213	-0.085
-682.266	-17.305	-0.172	0.109
-681.251	-51.097	0.143	-0.067
-680.237	800.000	0.062	0.199
-679.222	800.000	0.059	-0.168
-678.208	-143.283	-0.260	-0.025
-677.193	185.281	0.237	-0.353
-676.178	14.629	0.079	0.062
-675.164	800.000	-0.076	-0.266
-674.149	-1.369	-0.271	-0.192
-673.135	-42.229	0.232	-0.119
-672.120	292.300	0.162	-0.296
-671.105	800.000	0.078	0.232
-670.091	-106.492	0.071	0.016
-669.076	753.568	0.036	-0.097
-668.062	-200.000	-0.012	-0.078
-667.047	-126.860	0.283	-0.042
-666.032	-33.298	0.344	-0.191
-665.018	581.589	0.018	-0.045
-664.003	-200.000	-0.002	0.044
-662.989	58.621	0.144	0.142
-661.974	800.000	-0.021	0.073
-660.959	-145.211	-0.458	0.042
-659.945	-200.000	-0.010	0.180
-658.930	18.852	0.078	-0.062
-657.916	-67.787	0.234	0.092
-656.901	800.000	-0.098	0.359
-655.886	80.591	-0.101	-0.109
-654.872	-86.742	-0.137	0.042
-653.857	-200.000	-0.032	-0.437
-652.843	-101.046	0.337	0.083
-651.828	-110.893	-0.219	0.045
-650.814	-200.000	0.019	0.227
-649.799	-156.460	-0.070	0.004
-648.784	565.692	-0.058	0.142
-647.770	-99.748	0.197	-0.050
-646.755	-3.294	-0.272	-0.190
-645.741	-35.813	-0.118	-0.064
-644.726	-200.000	0.009	0.046
-643.711	-27.730	0.177	-0.103
-642.697	27.498	-0.076	-0.064
-641.682	52.205	-0.201	-0.192
-640.668	-119.591	-0.070	0.012
-639.653	-97.210	-0.243	0.064
-638.638	170.378	0.157	0.226
-637.624	214.481	-0.041	0.065
-636.609	-67.436	-0.305	0.120
-635.595	-200.000	-0.117	-0.546
-634.580	102.299	0.095	-0.111
-633.565	2.771	0.107	-0.078
-632.551	105.948	-0.049	0.058
-631.536	-200.000	-0.079	-0.497
-630.522	346.748	0.158	0.311
-629.507	14.191	0.175	-0.137
-628.492	74.366	0.407	-0.429
-627.478	-154.143	-0.377	-0.026
-626.463	53.543	0.014	0.014
-625.449	-114.073	-0.113	0.022
-624.434	-44.822	-0.420	-0.210
-623.419	800.000	-0.084	0.274
-622.405	-73.630	-0.415	0.152
-621.390	-60.922	-0.198	0.084
-620.376	-61.755	0.029	0.012
-619.361	-50.173	0.043	0.020
-618.346	-82.928	-0.085	-0.027
-617.332	800.000	-0.048	0.142
-616.317	93.373	0.103	-0.116
-615.303	44.294	-0.205	-0.189
-614.288	558.619	-0.028	0.068
-613.273	77.020	0.064	0.068
-612.259	-67.130	0.182	-0.072
-611.244	-31.801	0.281	0.158
-610.230	127.854	0.105	0.133
-609.215	21.983	-0.311	0.254
-608.201	-84.984	-0.149	0.047
-607.186	380.420	0.078	-0.160
-606.171	-182.461	0.297	-0.005
-605.157	118.903	-0.137	0.169
-604.142	313.061	0.108	-0.204
-603.128	-62.700	-0.433	-0.180
-602.113	745.181	0.060	0.162
-601.098	-56.614	0.274	0.121
-600.084	-8.388	-0.172	0.115
-599.069	-200.000	0.040	-0.196
-598.055	-64.790	0.054	-0.022
-597.040	698.170	-0.170	0.447
-596.025	585.409	0.151	0.372
-595.011	308.896	-0.066	0.123
-593.996	-9.672	0.164	-0.110
-592.982	-135.305	0.230	-0.028
-591.967	273.399	0.166	0.293
-590.952	83.438	-0.268	-0.292
-589.938	172.804	-0.103	-0.148
-588.923	143.907	0.288	-0.384
-587.909	-49.483	0.334	-0.159
-586.894	-92.297	-0.124	0.035
-585.879	280.010	-0.151	-0.269
-584.865	19.877	-0.239	-0.192
-583.850	169.252	0.049	-0.070
-582.836	-200.000	-0.011	-0.055
-581.821	8.543	0.236	0.178
-580.806	800.000	-0.047	0.203
-579.792	-200.000	-0.055	0.251
-578.777	11.151	-0.032	-0.025
-577.763	344.125	-0.049	0.096
-576.748	-139.690	-0.047	-0.005
-575.733	-154.578	-0.158	-0.011
-574.719	47.416	0.310	-0.289
-573.704	-36.632	-0.116	0.062
-572.690	-22.535	-0.331	0.200
-571.675	22.923	0.372	0.305
-570.661	56.953	-0.142	0.138
-569.646	379.678	-0.031	0.064
-568.631	-65.868	-0.062	0.025
-567.617	-105.037	0.070	0.016
-566.602	534.205	0.090	-0.213
-565.588	-200.000	0.044	-0.299
-564.573	800.000	0.060	0.183
-563.558	86.885	-0.146	-0.161
-562.544	-200.000	-0.004	0.047
-561.529	79.108	-0.169	-0.181
-560.515	-87.842	-0.151	-0.045
-559.500	-159.431	0.034	-0.002
-558.485	-129.540	0.297	-0.041
-557.471	800.000	0.015	-0.054
-556.456	-85.781	-0.121	-0.037
-555.442	6.949	-0.236	0.175
-554.427	-149.205	0.381	0.030
-553.412	-62.248	-0.088	-0.037
-552.398	-61.519	0.281	0.118
-551.383	36.102	0.069	0.060
-550.369	800.000	-0.037	-0.107
-549.354	-200.000	-0.018	-0.318
-548.339	-62.406	-0.303	0.126
-547.325	61.916	0.091	-0.090
-546.310	-193.936	0.399	-0.003
-545.296	-113.654	-0.332	0.065
-544.281	214.559	0.097	0.153
-543.266	483.946	-0.030	-0.069
-542.252	471.064	0.122	-0.274
-541.237	-110.541	0.402	-0.083
-540.223	134.737	0.016	0.020
-539.208	-92.638	-0.118	-0.033
-538.193	68.037	-0.027	-0.027
-537.179	-200.000	-0.022	-0.246
-536.164	-30.972	-0.224	0.126
-535.150	790.948	0.057	-0.157
-534.135	-124.985	0.092	0.014
-533.121	-6.661	-0.276	0.188
-532.106	-89.462	-0.111	-0.033
-531.091	294.285	0.163	0.297
-530.077	-68.710	0.204	-0.079
-529.062	-200.000	-0.039	0.498
-528.048	-114.458	-0.223	0.043
-527.033	402.369	0.153	-0.321
-526.018	-152.448	0.086	0.006
-525.004	-46.353	-0.051	0.025
-523.989	173.508	0.191	0.276
-522.975	35.128	-0.218	0.190
-521.960	-111.416	-0.198	0.040
-520.945	-16.046	0.281	0.178
-519.931	-38.030	0.158	0.084
-518.916	-126.496	-0.190	0.028
-517.902	-44.103	-0.082	0.041
-516.887	-133.835	0.220	-0.027
-515.872	121.011	0.123	0.153
-514.858	-200.000	0.005	-0.269
-513.843	160.843	-0.163	0.227
-512.829	-200.000	0.029	0.255
-511.814	21.678	0.080	0.065
-510.799	102.706	-0.143	0.166
-509.785	-200.000	0.001	-0.216
-508.770	-200.000	-0.001	-0.071
-507.756	800.000	-0.027	0.087
-506.741	800.000	-0.098	-0.282
-505.726	64.253	-0.201	-0.202
-504.712	480.266	0.022	-0.049
-503.697	342.816	-0.130	0.253
-502.683	-200.000	0.009	0.080
-501.668	-133.801	-0.416	-0.052
-500.653	-42.974	0.149	0.075
-499.639	-13.017	0.378	-0.245
-498.624	297.388	-0.087	-0.159
-497.610	28.508	-0.171	-0.144
-496.595	23.785	-0.274	-0.225
-495.581	-16.442	0.193	0.122
-494.566	151.528	-0.148	-0.201
-493.551	33.889	-0.249	0.216
-492.537	-200.000	-0.006	0.064
-491.522	389.251	0.027	0.056
-490.508	19.310	-0.218	0.174
-489.493	-149.187	-0.155	-0.012
-488.478	-111.343	0.210	-0.043
-487.464	108.585	-0.050	-0.059
-486.449	222.744	0.142	0.228
-485.435	-200.000	0.000	-0.078
-484.420	543.635	-0.041	0.096
-483.405	-21.303	0.143	-0.087
-482.391	35.729	-0.229	0.200
-481.376	7.791	-0.152	-0.114
-480.362	-86.414	0.311	0.095
-479.347	-69.618	0.308	-0.117
-478.332	-200.000	0.065	-0.321
-477.318	-200.000	-0.026	0.188
-476.303	-133.578	0.185	0.023
-475.289	463.968	-0.062	0.137
-474.274	-12.963	0.072	0.046
-473.259	283.762	0.152	-0.272
-472.245	-200.000	0.016	-0.157
-471.230	-85.501	-0.183	-0.057
-470.216	-71.679	-0.293	0.109
-469.201	-153.716	-0.250	-0.017
-468.186	800.000	0.097	-0.278
-467.172	-200.000	-0.016	-0.233
-466.157	596.304	-0.126	0.310
-465.143	-17.432	-0.151	-0.095
-464.128	395.995	-0.060	0.124
-463.113	800.000	-0.034	-0.094
-462.099	42.277	-0.244	-0.221
-461.084	20.017	-0.081	-0.065
-460.070	-52.065	-0.101	0.047
-459.055	108.327	-0.134	-0.159
-458.040	-10.320	0.282	0.186
-457.026	-109.387	0.061	0.013
-456.011	237.140	-0.191	-0.315
-454.997	-50.694	0.318	0.149
-453.982	-19.121	0.142	0.088
-452.968	-200.000	-0.006	0.037
-451.953	-85.469	0.274	0.085
-450.938	-200.000	0.019	-0.281
-449.924	-32.246	0.166	0.092
-448.909	800.000	0.074	-0.320
-447.895	-88.985	0.170	0.050
-446.880	-200.000	0.031	-0.184
-445.865	185.829	-0.190	0.281
-444.851	-100.096	0.066	-0.016
-443.836	326.651	-0.159	-0.302
-442.822	158.863	-0.084	0.116
-441.807	-99.229	-0.065	-0.016
-440.792	-200.000	0.009	0.050
-439.778	800.000	-0.115	-0.403
-438.763	225.593	0.084	0.136
-437.749	745.995	-0.037	0.100
-436.734	374.127	-0.115	-0.232
-435.719	-159.888	-0.190	-0.010
-434.705	800.000	-0.063	0.208
-433.690	77.180	-0.107	-0.113
-432.676	2.375	0.263	-0.189
-431.661	800.000	0.043	0.141
-430.646	-6.179	0.053	-0.036
-429.632	69.333	0.301	-0.308
-428.617	-39.166	-0.234	-0.122
-427.603	137.141	-0.159	0.207
-426.588	-50.345	-0.193	0.091
-425.573	505.421	0.143	0.330
-424.559	-200.000	-0.043	-0.353
-423.544	-58.525	0.106	0.046
-422.530	800.000	-0.109	0.337
-421.515	-200.000	0.115	0.000
-420.500	-112.166	0.055	-0.011
-419.486	260.881	-0.085	-0.147
-418.471	-200.000	0.015	-0.117
-417.457	123.026	-0.096	0.120
-416.442	291.401	-0.049	-0.089
-415.428	298.258	0.066	0.121
-414.413	-9.071	-0.154	-0.103
-413.398	-200.000	0.028	-0.196
-412.384	160.306	-0.302	-0.418
-411.369	-24.620	0.054	-0.032
-410.355	-71.687	0.075	-0.028
-409.340	724.346	-0.065	-0.173
-408.325	-200.000	-0.018	-0.347
-407.311	-125.046	0.128	-0.020
-406.296	45.478	-0.103	0.095
-405.282	800.000	-0.063	0.240
-404.267	330.331	0.093	0.178
-403.252	308.659	-0.112	-0.208
-402.238	-200.000	-0.074	-0.407
-401.223	-200.000	-0.072	0.392
-400.209	-111.783	-0.324	0.065
-399.194	46.158	0.127	-0.117
-398.179	-2.776	-0.293	0.203
-397.165	800.000	-0.049	0.153
-396.150	800.000	0.036	0.106
-395.136	800.000	0.065	-0.205
-394.121	-17.612	0.378	0.236
-393.106	-200.000	0.008	-0.286
-392.092	48.212	0.110	0.102
-391.077	-24.516	0.462	-0.273
-390.063	360.501	-0.031	-0.062
-389.048	-200.000	-0.020	0.340
-388.033	-152.262	0.142	0.010
-387.019	-176.533	-0.074	-0.002
-386.004	800.000	0.094	0.399
-384.990	-200.000	-0.062	0.306
-383.975	126.532	-0.259	0.325
-382.960	-31.031	-0.131	0.073
-381.946	-16.954	-0.258	-0.162
-380.931	-125.369	0.276	-0.042
-379.917	83.264	0.036	0.038
-378.902	184.472	0.169	0.248
-377.888	-67.803	0.233	0.090
-376.873	388.153	-0.073	-0.150
-375.858	800.000	-0.056	0.170
-374.844	-0.019	-0.246	0.174
-373.829	-9.102	-0.175	0.116
-372.815	-105.128	0.243	-0.055
-371.800	800.000	0.031	-0.109
-370.785	-139.193	-0.339	0.036
-369.771	190.908	0.213	0.318
-368.756	-200.000	0.024	-0.188
-367.742	-89.733	0.335	0.097
-366.727	-174.156	0.071	-0.002
-365.712	-114.893	0.594	-0.112
-364.698	258.002	-0.098	-0.167
-363.683	41.368	0.152	0.136
-362.669	-51.394	-0.284	0.132
-361.654	-78.961	-0.081	-0.027
-360.639	-64.164	0.115	-0.046
-359.625	29.912	-0.263	-0.222
-358.610	800.000	-0.078	-0.234
-357.596	-20.139	-0.028	-0.017
-356.581	-111.249	-0.080	-0.016
-355.566	606.268	0.111	0.273
-354.552	113.750	0.097	-0.117
-353.537	-132.081	0.387	0.050
-352.523	80.748	0.192	0.205
-351.508	-111.081	-0.150	-0.030
-350.493	-64.147	0.196	0.079
-349.479	-133.532	-0.177	-0.022
-348.464	-0.561	-0.147	-0.103
-347.450	-90.916	-0.127	-0.036
-346.435	-38.530	0.112	-0.059
-345.420	-200.000	-0.008	0.034
-344.406	-55.849	-0.287	-0.127
-343.391	-128.432	-0.466	0.066
-342.377	-200.000	0.027	0.228
-341.362	341.920	0.125	0.243
-340.348	-119.134	0.291	0.050
-339.333	-200.000	-0.008	-0.244
-338.318	97.441	0.118	-0.134
-337.304	-96.811	-0.240	-0.062
-336.289	198.559	-0.040	-0.061
-335.275	-137.663	-0.163	-0.018
-334.260	-200.000	-0.021	0.314
-333.245	800.000	-0.059	0.177
-332.231	24.512	-0.077	-0.063
-331.216	-71.179	0.133	0.050
-330.202	-163.981	-0.032	-0.001
-329.187	459.082	-0.077	-0.170
-328.172	56.432	-0.037	-0.035
-327.158	-200.000	-0.002	-0.099
-326.143	135.548	0.108	-0.139
-325.129	6.114	0.079	0.058
-324.114	145.885	0.151	-0.200
-323.099	161.808	0.206	-0.285
-322.085	68.649	0.128	0.130
-321.070	-142.276	0.382	0.037
-320.056	38.767	-0.127	-0.112
-319.041	-115.795	-0.262	-0.048
-318.026	-23.405	0.215	-0.128
-317.012	-140.130	0.485	-0.050
-315.997	-183.949	-0.073	0.001
-314.983	-84.673	0.395	0.123
-313.968	-74.131	-0.126	-0.045
-312.953	-200.000	-0.009	-0.089
-311.939	-29.169	-0.127	-0.072
-310.924	-77.855	0.094	-0.032
-309.910	-52.936	0.097	0.044
-308.895	-200.000	-0.033	-0.205
-307.880	800.000	-0.064	-0.268
-306.866	-200.000	0.012	-0.134
-305.851	-36.204	0.243	0.130
-304.837	294.565	0.149	0.269
-303.822	-49.704	-0.192	0.090
-302.807	0.650	0.218	-0.154
-301.793	-14.240	-0.267	-0.170
-300.778	535.600	-0.025	0.058
-299.764	121.977	-0.134	-0.165
-298.749	9.053	-0.284	0.212
-297.735	50.904	0.148	-0.139
-296.720	-141.453	-0.201	0.020
-295.705	128.092	-0.183	0.231
-294.691	84.442	0.108	0.117
-293.676	-107.002	-0.270	-0.059
-292.662	-59.929	-0.032	0.013
-291.647	-200.000	0.016	0.190
-290.632	23.485	0.254	0.207
-289.618	-200.000	0.046	-0.233
-288.603	200.880	0.259	0.393
-287.589	-140.174	-0.361	0.037
-286.574	294.071	-0.134	-0.242
-285.559	403.713	-0.081	-0.168
-284.545	-125.839	0.284	0.042
-283.530	800.000	0.083	0.244
-282.516	-52.183	-0.123	0.057
-281.501	136.436	0.157	0.202
-280.486	800.000	0.109	0.342
-279.472	800.000	-0.036	-0.101
-278.457	-40.297	0.580	0.298
-277.443	214.362	0.246	-0.384
-276.428	87.240	-0.171	0.186
-275.413	-14.382	0.172	0.109
-274.399	-200.000	0.014	0.135
-273.384	-200.000	0.030	-0.324
-272.370	-34.508	0.234	-0.126
-271.355	-125.015	-0.109	0.017
-270.340	-6.606	-0.385	-0.259
-269.326	-148.207	-0.127	-0.010
-268.311	75.765	-0.088	-0.092
-267.297	205.439	0.172	0.265
-266.282	-200.000	0.046	0.294
-265.267	-136.663	0.024	-0.003
-264.253	800.000	-0.019	0.065
-263.238	-200.000	0.027	-0.216
-262.224	-144.573	-0.122	0.011
-261.209	103.202	0.134	0.155
-260.195	711.745	0.143	-0.374
-259.180	82.238	-0.165	-0.177
-258.165	762.359	0.054	0.145
-257.151	-6.592	0.156	0.105
-256.136	588.508	0.200	0.487
-255.122	800.000	0.082	-0.264
-254.107	-104.367	-0.221	0.050
-253.092	-169.879	-0.200	-0.007
-252.078	685.284	-0.104	-0.269
-251.063	-140.881	-0.251	-0.026
-250.049	14.763	0.113	-0.087
-249.034	240.389	0.067	-0.111
-248.019	2.823	0.176	0.126
-247.005	-200.000	0.008	0.207
-245.990	140.702	0.023	0.030
-244.976	-160.086	-0.310	0.017
-243.961	-200.000	0.015	-0.194
-242.946	303.264	0.107	-0.195
-241.932	9.090	-0.070	-0.052
-240.917	800.000	-0.048	-0.139
-239.903	800.000	-0.049	0.162
-238.888	71.649	-0.135	-0.139
-237.873	800.000	-0.058	-0.190
-236.859	800.000	0.033	0.114
-235.844	104.724	-0.057	0.066
-234.830	9.928	0.106	-0.080
-233.815	-200.000	-0.028	-0.249
-232.800	277.685	0.112	0.197
-231.786	37.708	-0.098	0.086
-230.771	176.535	-0.242	0.346
-229.757	408.354	0.110	0.229
-228.742	-200.000	0.000	0.007
-227.727	-200.000	0.094	0.479
-226.713	-118.912	-0.112	0.019
-225.698	-119.254	0.189	-0.032
-224.684	-41.618	-0.252	-0.128
-223.669	11.402	0.084	-0.063
-222.655	137.117	-0.052	0.067
-221.640	800.000	-0.078	-0.324
-220.625	-157.338	0.233	0.014
-219.611	-22.257	-0.415	-0.248
-218.596	-122.769	-0.213	0.034
-217.582	42.957	-0.027	-0.024
-216.567	-145.929	0.306	-0.027
-215.552	-196.372	0.103	0.001
-214.538	-200.000	0.012	-0.126
-213.523	-119.153	0.138	-0.024
-212.509	-21.296	-0.367	-0.221
-211.494	-200.000	-0.019	0.160
-210.479	626.385	0.103	0.257
-209.465	-200.000	0.045	0.212
-208.450	-200.000	0.017	0.232
-207.436	-67.719	0.242	-0.093
-206.421	284.437	0.194	0.344
-205.406	-200.000	-0.043	0.367
-204.392	-200.000	0.005	-0.185
-203.377	161.927	-0.059	-0.081
-202.363	-200.000	0.079	0.368
-201.348	-71.849	-0.163	0.060
-200.333	32.777	-0.267	-0.227
-199.319	-200.000	-0.042	0.338
-198.304	83.016	0.204	0.219
-197.290	-38.286	-0.095	0.050
-196.275	800.000	-0.042	-0.177
-195.260	-56.340	0.521	-0.228
-194.246	-19.989	-0.211	-0.128
-193.231	800.000	0.059	0.180
-192.217	-41.883	0.199	-0.100
-191.202	242.761	-0.038	-0.063
-190.187	-200.000	-0.030	0.135
-189.173	190.618	0.050	-0.075
-188.158	-133.314	0.232	-0.029
-187.144	1.328	0.142	0.100
-186.129	-116.520	-0.105	-0.019
-185.114	103.937	0.146	-0.168
-184.100	91.457	0.203	-0.225
-183.085	168.198	-0.103	-0.144
-182.071	-90.843	0.100	-0.028
-181.056	114.434	-0.104	-0.124
-180.042	-13.166	-0.207	-0.132
-179.027	-173.346	0.131	-0.004
-178.012	237.549	-0.113	-0.184
-176.998	-161.032	-0.128	-0.007
-175.983	-23.563	0.124	-0.073
-174.969	-45.978	0.147	0.071
-173.954	-68.959	0.284	0.108
-172.939	-101.627	0.347	0.083
-171.925	-200.000	0.016	0.091
-170.910	-59.826	-0.277	0.117
-169.896	138.317	-0.261	0.336
-168.881	455.805	-0.070	-0.153
-167.866	800.000	0.068	0.205
-166.852	112.553	0.119	0.141
-165.837	-6.150	0.259	0.174
-164.823	-120.199	-0.168	-0.028
-163.808	39.996	0.145	0.128
-162.793	-200.000	-0.001	0.211
-161.779	-200.000	-0.024	0.221
-160.764	752.002	-0.150	-0.398
-159.750	-56.281	0.305	-0.133
-158.735	-14.205	-0.162	-0.103
-157.720	15.593	-0.055	0.042
-156.706	800.000	0.108	0.424
-155.691	-200.000	0.046	-0.207
-154.677	29.499	0.235	-0.196
-153.662	152.212	-0.174	0.233
-152.647	177.839	-0.163	-0.234
-151.633	-200.000	-0.025	-0.213
-150.618	800.000	0.140	-0.382
-149.604	-112.601	0.250	0.049
-148.589	-200.000	-0.015	0.162
-147.574	147.427	-0.178	-0.236
-146.560	228.082	0.286	-0.458
-145.545	-118.622	-0.164	0.029
-144.531	32.394	-0.159	0.135
-143.516	41.341	0.162	-0.144
-142.502	208.017	0.095	-0.146
-141.487	8.567	-0.182	-0.134
-140.472	800.000	-0.111	0.345
-139.458	-132.797	-0.246	0.031
-138.443	734.324	0.170	0.448
-137.429	-138.238	0.247	-0.027
-136.414	162.902	-0.156	-0.215
-135.399	63.066	0.127	0.125
-134.385	157.256	0.171	0.233
-133.370	152.699	0.093	0.125
-132.356	-200.000	0.035	-0.294
-131.341	-70.068	-0.325	-0.122
-130.326	800.000	0.027	0.092
-129.312	-67.137	-0.159	-0.061
-128.297	-135.798	0.171	-0.020
-127.283	45.660	-0.164	-0.149
-126.268	-125.695	0.043	-0.006
-125.253	-135.965	0.275	-0.032
-124.239	-200.000	-0.005	-0.140
-123.224	150.907	0.129	0.172
-122.210	213.476	0.076	-0.118
