DTS Sentinel unit serial number:	SN413079Multiplexer serial number:	ORYXHardware model number:	OX4-SRSoftware version number:	ORYX F/W v4.00 Oryx Data Collector v3.7.2.0data status	okinstallation	princeton_trtdifferential loss correction	single-endedforward channel	channel 1reverse channel	N/Adate	2019/09/11time	06:24:11forward acquisition time	60.00reverse acquisition time	0.00gamma	496.2192k internal	0.2331k external	0.2331temperature offset calibration	0.9918default loss term (dB/km)	0.3790temperature slope calibration	1.0000multiplexer offset coefficient	1.0000multiplexer slope coefficient	1.0000fibre end	0.00T internal ref (°C)	29.56T ext. ref 1 (°C)	-0.20T ext. ref 2 (°C)	24.06length (m)	temperature (°C)	Stokes	anti-Stokes-747.200	-144.965	0.399	0.037
-746.185	-122.787	-0.065	-0.011
-745.171	612.441	-0.011	-0.028
-744.156	-53.584	-0.354	0.163
-743.142	65.793	-0.090	0.092
-742.127	-26.202	0.373	0.221
-741.112	63.284	-0.087	0.087
-740.098	-17.930	-0.250	0.157
-739.083	208.711	0.180	0.283
-738.069	-7.936	0.164	-0.111
-737.054	-23.943	-0.076	-0.046
-736.039	123.133	-0.213	-0.269
-735.025	-28.399	0.350	0.203
-734.010	51.032	0.029	-0.027
-732.996	366.538	0.113	0.230
-731.981	363.233	0.014	-0.027
-730.966	1.687	-0.198	0.144
-729.952	-200.000	-0.046	-0.225
-728.937	141.456	0.136	-0.181
-727.923	-59.236	0.072	-0.031
-726.908	94.627	-0.160	-0.183
-725.894	-86.730	-0.236	0.073
-724.879	281.666	-0.155	-0.279
-723.864	800.000	-0.052	-0.150
-722.850	-200.000	-0.015	-0.268
-721.835	-64.768	-0.205	0.083
-720.821	75.429	-0.073	-0.077
-719.806	-200.000	-0.041	-0.275
-718.791	-200.000	0.003	0.033
-717.777	-71.042	-0.387	0.146
-716.762	170.069	-0.184	0.265
-715.748	-147.392	-0.358	0.031
-714.733	-19.211	0.183	0.114
-713.718	-32.887	0.214	-0.119
-712.704	-7.674	-0.149	0.101
-711.689	-49.636	-0.266	0.127
-710.675	-61.584	0.181	-0.076
-709.660	161.154	0.125	0.176
-708.645	31.586	0.042	-0.036
-707.631	-4.127	0.031	-0.022
-706.616	-159.652	-0.163	-0.009
-705.602	-95.177	-0.376	-0.102
-704.587	-200.000	0.019	-0.117
-703.572	800.000	-0.063	-0.248
-702.558	800.000	-0.062	-0.190
-701.543	-187.219	-0.428	-0.006
-700.529	-0.620	0.246	-0.175
-699.514	-126.277	-0.063	0.009
-698.499	800.000	0.059	-0.221
-697.485	38.130	0.220	-0.197
-696.470	-200.000	0.027	-0.211
-695.456	137.867	-0.167	0.219
-694.441	-29.591	-0.139	0.080
-693.426	34.932	-0.119	-0.104
-692.412	158.584	-0.061	-0.085
-691.397	16.129	-0.216	-0.171
-690.383	-73.069	-0.118	-0.043
-689.368	-9.437	-0.212	0.142
-688.354	46.237	0.176	0.164
-687.339	51.110	-0.186	-0.177
-686.324	9.124	-0.095	-0.072
-685.310	-52.928	-0.200	0.092
-684.295	262.787	0.104	-0.181
-683.281	399.653	-0.218	-0.460
-682.266	-200.000	-0.062	-0.312
-681.251	721.267	-0.051	-0.138
-680.237	-86.172	-0.269	-0.083
-679.222	-76.324	-0.374	0.132
-678.208	-200.000	0.014	-0.132
-677.193	-150.453	-0.151	-0.012
-676.178	-200.000	-0.024	-0.138
-675.164	498.986	-0.044	0.101
-674.149	-200.000	-0.038	-0.182
-673.135	-25.501	-0.126	-0.075
-672.120	439.028	0.121	0.265
-671.105	207.872	-0.058	0.091
-670.091	176.524	0.087	0.127
-669.076	-40.353	0.255	0.133
-668.062	-96.667	0.200	0.053
-667.047	300.064	0.069	0.128
-666.032	-74.602	-0.075	0.027
-665.018	-200.000	0.049	-0.443
-664.003	-200.000	-0.005	0.131
-662.989	270.622	0.078	-0.137
-661.974	37.023	0.171	-0.152
-660.959	2.066	-0.272	0.197
-659.945	800.000	-0.073	0.281
-658.930	301.681	-0.144	0.266
-657.916	800.000	0.072	0.311
-656.901	-14.916	-0.240	0.154
-655.886	43.469	0.156	-0.143
-654.872	-29.072	-0.304	-0.175
-653.857	-200.000	-0.061	-0.269
-652.843	-150.172	-0.243	-0.019
-651.828	-63.999	0.085	0.035
-650.814	-69.977	0.115	0.044
-649.799	348.794	-0.102	0.201
-648.784	800.000	-0.011	-0.049
-647.770	800.000	0.030	-0.118
-646.755	20.841	-0.283	0.230
-645.741	256.439	-0.070	-0.121
-644.726	-137.061	0.227	0.026
-643.711	-41.218	0.121	0.063
-642.697	-200.000	0.002	-0.026
-641.682	52.647	0.166	-0.159
-640.668	-141.461	-0.137	0.014
-639.653	656.004	-0.231	-0.595
-638.638	124.558	0.027	0.035
-637.624	-80.478	-0.344	-0.115
-636.609	534.014	-0.005	-0.013
-635.595	-64.682	-0.298	0.121
-634.580	-125.747	0.107	0.016
-633.565	-200.000	-0.006	-0.110
-632.551	-200.000	-0.044	0.296
-631.536	502.803	0.060	0.139
-630.522	501.498	0.101	-0.234
-629.507	3.137	0.105	0.077
-628.492	-36.513	-0.061	0.033
-627.478	27.451	0.119	0.100
-626.463	-49.193	-0.329	0.158
-625.449	109.769	0.010	-0.012
-624.434	5.214	0.147	-0.109
-623.419	236.065	0.046	-0.076
-622.405	41.137	-0.179	-0.162
-621.390	-200.000	-0.065	-0.424
-620.376	-200.000	-0.024	-0.120
-619.361	-75.634	0.303	0.108
-618.346	264.094	0.118	-0.205
-617.332	-7.322	-0.042	-0.028
-616.317	800.000	0.090	0.283
-615.303	-96.573	-0.229	0.061
-614.288	-147.883	0.360	0.030
-613.273	620.017	0.055	0.139
-612.259	-44.101	-0.330	0.166
-611.244	800.000	-0.042	0.155
-610.230	283.965	0.064	0.115
-609.215	-156.642	-0.340	0.021
-608.201	-154.916	0.262	0.017
-607.186	261.150	-0.164	0.284
-606.171	-31.123	0.225	0.127
-605.157	-52.319	0.099	-0.046
-604.142	-53.653	-0.072	-0.033
-603.128	800.000	0.042	-0.176
-602.113	-123.603	-0.108	0.017
-601.098	-200.000	-0.007	0.052
-600.084	127.359	-0.097	-0.123
-599.069	752.776	-0.042	0.114
-598.055	-200.000	-0.051	-0.253
-597.040	-14.585	-0.198	-0.128
-596.025	343.924	-0.127	-0.248
-595.011	-121.163	-0.222	0.037
-593.996	-200.000	0.011	0.208
-592.982	-200.000	-0.038	-0.300
-591.967	-200.000	-0.004	-0.115
-590.952	-106.258	-0.126	0.028
-589.938	243.087	-0.069	0.116
-588.923	-51.538	-0.447	-0.209
-587.909	-61.627	-0.360	0.151
-586.894	239.608	0.033	0.055
-585.879	-122.007	-0.299	0.049
-584.865	86.909	0.092	0.102
-583.850	-7.267	-0.094	-0.064
-582.836	-200.000	0.030	-0.318
-581.821	391.270	-0.247	-0.513
-580.806	-79.570	-0.131	0.044
-579.792	466.844	0.137	-0.307
-578.777	-103.050	-0.003	-0.001
-577.763	-142.680	0.498	0.049
-576.748	-15.953	-0.184	0.117
-575.733	-3.462	-0.339	0.236
-574.719	-9.624	0.334	-0.223
-573.704	800.000	-0.032	0.099
-572.690	-200.000	-0.017	-0.400
-571.675	-200.000	-0.030	-0.144
-570.661	-34.235	-0.196	0.108
-569.646	-6.795	-0.184	0.125
-568.631	800.000	0.070	0.291
-567.617	478.301	-0.063	-0.143
-566.602	-130.320	-0.411	0.056
-565.588	52.552	0.064	0.061
-564.573	-22.651	-0.244	-0.148
-563.558	-38.734	0.113	-0.059
-562.544	-6.519	-0.176	-0.120
-561.529	-182.549	-0.151	0.003
-560.515	94.465	-0.200	0.227
-559.500	800.000	-0.047	-0.131
-558.485	800.000	-0.081	0.250
-557.471	83.430	0.031	0.033
-556.456	800.000	-0.091	-0.292
-555.442	-17.703	0.383	0.240
-554.427	-40.684	-0.171	0.089
-553.412	-124.456	-0.392	-0.061
-552.398	-14.037	0.156	-0.101
-551.383	-27.424	0.081	-0.047
-550.369	20.084	0.194	0.156
-549.354	206.045	-0.027	0.042
-548.339	-116.306	0.203	-0.038
-547.325	172.503	-0.030	0.043
-546.310	11.250	-0.221	-0.169
-545.296	-94.989	-0.136	0.037
-544.281	-200.000	0.022	0.169
-543.266	800.000	0.059	-0.252
-542.252	78.473	0.097	-0.103
-541.237	-169.169	0.215	0.008
-540.223	627.258	-0.120	0.302
-539.208	-200.000	-0.005	0.312
-538.193	-37.740	-0.031	-0.016
-537.179	55.403	-0.172	0.166
-536.164	-200.000	-0.321	-0.001
-535.150	-105.554	0.273	-0.062
-534.135	-200.000	0.046	0.246
-533.121	45.954	0.196	-0.181
-532.106	147.423	-0.061	-0.082
-531.091	269.087	0.157	0.275
-530.077	-24.486	-0.110	0.065
-529.062	-40.485	-0.166	-0.086
-528.048	139.860	-0.133	-0.175
-527.033	800.000	0.029	-0.086
-526.018	615.651	-0.093	-0.233
-525.004	-200.000	0.023	-0.396
-523.989	412.889	0.199	-0.421
-522.975	800.000	-0.084	0.259
-521.960	-103.836	0.191	0.045
-520.945	-76.889	0.072	0.025
-519.931	-200.000	-0.021	-0.140
-518.916	-26.102	-0.267	0.157
-517.902	-200.000	0.006	0.121
-516.887	162.613	-0.187	-0.261
-515.872	-200.000	0.043	-0.192
-514.858	-75.015	-0.226	0.081
-513.843	-133.107	0.096	-0.012
-512.829	-40.736	-0.293	0.152
-511.814	-200.000	-0.021	-0.316
-510.799	59.245	0.055	0.054
-509.785	44.848	0.225	0.206
-508.770	-56.181	-0.330	0.146
-507.756	-200.000	-0.002	-0.203
-506.741	-193.917	-0.314	0.003
-505.726	162.347	-0.040	0.056
-504.712	-200.000	-0.005	0.217
-503.697	-200.000	0.000	-0.238
-502.683	-140.594	0.388	-0.040
-501.668	444.215	-0.068	0.150
-500.653	160.679	-0.104	0.145
-499.639	-138.334	-0.123	-0.013
-498.624	-131.735	-0.217	-0.028
-497.610	-32.570	-0.168	0.093
-496.595	-115.665	-0.160	-0.030
-495.581	9.745	0.250	-0.189
-494.566	-174.919	-0.209	-0.006
-493.551	-200.000	-0.061	0.304
-492.537	60.162	0.170	0.168
-491.522	26.029	0.119	0.099
-490.508	800.000	-0.071	-0.219
-489.493	470.401	-0.043	0.096
-488.478	-49.380	0.313	-0.149
-487.464	-200.000	-0.027	0.182
-486.449	-58.944	-0.182	-0.078
-485.435	481.968	-0.055	-0.124
-484.420	-51.254	-0.233	-0.109
-483.405	143.241	0.137	0.182
-482.391	-24.419	-0.193	0.114
-481.376	-115.914	0.126	-0.023
-480.362	-39.238	-0.263	0.138
-479.347	54.411	-0.164	0.158
-478.332	34.373	-0.408	0.355
-477.318	-200.000	0.051	-0.287
-476.303	-105.730	0.410	0.092
-475.289	800.000	0.080	0.273
-474.274	62.846	0.212	-0.211
-473.259	-182.601	-0.457	0.008
-472.245	107.892	-0.215	0.255
-471.230	10.433	0.135	0.102
-470.216	-200.000	0.068	0.311
-469.201	32.253	-0.138	0.119
-468.186	-88.490	-0.279	0.083
-467.172	-119.392	0.360	0.062
-466.157	13.866	0.163	0.126
-465.143	254.070	-0.048	0.081
-464.128	126.222	-0.201	-0.253
-463.113	-114.736	-0.180	-0.034
-462.099	-15.187	0.176	0.112
-461.084	-166.994	0.441	-0.018
-460.070	-200.000	0.054	0.234
-459.055	-101.170	-0.204	0.050
-458.040	205.033	-0.112	0.172
-457.026	186.585	0.246	0.365
-456.011	31.620	-0.060	-0.052
-454.997	-22.991	0.152	0.091
-453.982	256.765	-0.168	0.287
-452.968	-200.000	0.043	-0.216
-451.953	-15.626	-0.163	0.104
-450.938	134.928	0.093	-0.121
-449.924	-66.449	0.046	0.018
-448.909	-133.977	0.238	0.029
-447.895	-8.931	0.135	-0.090
-446.880	68.077	-0.220	-0.224
-445.865	-122.306	0.153	-0.025
-444.851	778.291	-0.068	0.186
-443.836	91.715	0.228	0.255
-442.822	-27.643	-0.386	-0.223
-441.807	265.746	0.241	0.418
-440.792	529.757	0.064	0.151
-439.778	-200.000	-0.003	0.229
-438.763	800.000	-0.081	0.245
-437.749	159.934	0.141	0.195
-436.734	-76.433	-0.093	-0.033
-435.719	800.000	0.049	-0.159
-434.705	379.652	-0.081	0.164
-433.690	66.937	-0.090	0.092
-432.676	-200.000	-0.064	0.313
-431.661	800.000	-0.128	-0.353
-430.646	-55.111	-0.255	0.114
-429.632	702.439	-0.084	-0.219
-428.617	-29.560	-0.216	0.123
-427.603	20.575	0.146	0.118
-426.588	-200.000	0.014	-0.436
-425.573	683.401	0.058	0.149
-424.559	-72.531	0.194	0.071
-423.544	-37.219	-0.134	-0.071
-422.530	-200.000	-0.046	-0.229
-421.515	259.678	0.101	-0.173
-420.500	641.870	0.044	0.112
-419.486	236.823	0.095	-0.157
-418.471	-121.845	-0.201	-0.033
-417.457	-31.163	0.198	0.111
-416.442	-82.111	-0.201	-0.065
-415.428	-200.000	0.000	-0.073
-414.413	-200.000	0.023	-0.159
-413.398	39.164	-0.075	-0.067
-412.384	90.265	0.025	-0.028
-411.369	-30.245	-0.224	-0.127
-410.355	233.217	0.097	-0.159
-409.340	-21.509	-0.299	-0.181
-408.325	552.556	-0.022	-0.053
-407.311	-200.000	-0.019	-0.236
-406.296	136.001	0.135	-0.174
-405.282	65.583	0.207	-0.208
-404.267	296.772	0.035	-0.063
-403.252	800.000	-0.071	-0.233
-402.238	-64.725	0.445	0.179
-401.223	-200.000	0.003	0.317
-400.209	-152.162	-0.255	-0.018
-399.194	-57.686	-0.086	0.038
-398.179	-200.000	0.037	0.312
-397.165	-27.526	0.176	-0.101
-396.150	-32.464	0.056	-0.031
-395.136	-129.154	-0.159	0.022
-394.121	800.000	-0.060	0.260
-393.106	-200.000	0.036	0.276
-392.092	289.001	-0.106	-0.190
-391.077	-40.062	-0.108	0.056
-390.063	-152.346	0.079	-0.006
-389.048	-200.000	-0.024	-0.462
-388.033	-76.773	-0.252	0.087
-387.019	-80.928	0.432	-0.142
-386.004	-200.000	-0.013	-0.109
-384.990	309.123	0.073	-0.135
-383.975	54.776	0.138	-0.132
-382.960	217.344	-0.075	0.118
-381.946	788.593	0.135	0.369
-380.931	-200.000	0.049	0.234
-379.917	641.195	-0.120	-0.303
-378.902	302.067	0.215	-0.395
-377.888	-200.000	-0.003	-0.127
-376.873	661.143	-0.011	0.028
-375.858	-149.446	-0.090	-0.007
-374.844	94.408	0.039	-0.044
-373.829	-99.950	0.186	-0.046
-372.815	168.280	-0.143	-0.202
-371.800	-46.251	-0.068	-0.033
-370.785	-175.876	-0.092	-0.002
-369.771	-136.419	0.238	-0.027
-368.756	-200.000	-0.012	0.272
-367.742	-162.171	-0.248	0.012
-366.727	-54.033	0.470	0.212
-365.712	51.368	0.100	0.094
-364.698	5.424	0.222	0.162
-363.683	80.449	0.226	-0.242
-362.669	243.974	-0.064	-0.107
-361.654	140.626	-0.120	-0.158
-360.639	342.842	-0.092	-0.178
-359.625	-200.000	-0.007	-0.049
-358.610	-200.000	-0.019	-0.318
-357.596	-200.000	0.006	0.086
-356.581	-120.003	0.047	0.008
-355.566	800.000	-0.011	0.034
-354.552	-94.477	-0.342	-0.093
-353.537	800.000	0.037	-0.128
-352.523	566.400	0.094	0.226
-351.508	-200.000	-0.069	0.322
-350.493	-119.849	0.381	-0.065
-349.479	184.303	0.077	0.114
-348.464	-68.060	-0.184	0.071
-347.450	-200.000	-0.012	-0.354
-346.435	-55.046	0.129	0.057
-345.420	-200.000	-0.037	-0.328
-344.406	607.119	-0.119	-0.293
-343.391	-155.399	0.113	-0.007
-342.377	116.226	-0.147	-0.178
-341.362	-56.415	0.264	0.116
-340.348	332.506	0.036	-0.069
-339.333	666.038	-0.107	0.275
-338.318	56.040	0.111	-0.107
-337.304	-200.000	0.009	0.042
-336.289	659.834	0.120	0.306
-335.275	-87.365	0.127	-0.038
-334.260	143.204	-0.094	-0.124
-333.245	14.063	-0.141	0.109
-332.231	106.549	-0.151	0.177
-331.216	800.000	0.096	0.291
-330.202	-102.304	-0.019	-0.005
-329.187	-180.779	0.139	-0.003
-328.172	-72.630	0.334	-0.122
-327.158	-89.480	0.392	0.114
-326.143	-103.929	-0.077	-0.018
-325.129	59.464	0.075	0.073
-324.114	210.644	-0.190	-0.295
-323.099	350.651	-0.030	0.060
-322.085	-39.551	-0.310	0.161
-321.070	-90.105	0.334	-0.096
-320.056	-200.000	0.048	-0.449
-319.041	-200.000	-0.028	0.354
-318.026	24.196	0.220	-0.180
-317.012	88.970	-0.147	-0.162
-315.997	602.707	-0.155	0.382
-314.983	-136.659	0.083	0.010
-313.968	-115.976	-0.242	-0.045
-312.953	342.293	0.164	0.318
-311.939	80.113	0.127	-0.135
-310.924	-5.717	0.153	-0.104
-309.910	208.955	-0.163	-0.253
-308.895	800.000	0.042	-0.150
-307.880	-200.000	-0.030	0.209
-306.866	157.953	-0.127	0.174
-305.851	800.000	0.088	-0.338
-304.837	-42.717	0.128	-0.064
-303.822	-22.076	-0.141	-0.085
-302.807	-31.962	-0.098	0.054
-301.793	-86.011	-0.163	-0.050
-300.778	16.131	0.179	0.139
-299.764	-33.291	0.316	-0.173
-298.749	-200.000	0.024	0.140
-297.735	-21.133	-0.104	0.063
-296.720	99.634	0.118	-0.136
-295.705	-4.775	-0.270	-0.184
-294.691	208.340	0.073	0.113
-293.676	-88.122	-0.098	-0.029
-292.662	333.642	0.186	0.356
-291.647	-200.000	-0.014	-0.207
-290.632	300.949	-0.184	-0.337
-289.618	800.000	-0.110	-0.306
-288.603	-148.572	-0.305	0.025
-287.589	-90.208	0.140	-0.040
-286.574	-21.612	-0.390	-0.235
-285.559	800.000	0.043	-0.171
-284.545	-141.198	0.267	0.027
-283.530	383.674	0.140	-0.284
-282.516	3.576	0.050	-0.036
-281.501	6.627	0.115	0.085
-280.486	-200.000	0.045	-0.289
-279.472	-76.827	-0.095	0.033
-278.457	691.999	0.081	0.210
-277.443	-7.573	-0.115	0.077
-276.428	-145.114	0.124	-0.011
-275.413	323.304	0.190	0.358
-274.399	-200.000	-0.005	-0.099
-273.384	346.668	0.080	0.155
-272.370	452.107	-0.071	-0.155
-271.355	31.643	0.258	0.219
-270.340	-39.844	0.137	-0.071
-269.326	800.000	-0.084	-0.285
-268.311	-200.000	0.030	0.179
-267.297	-118.989	0.074	0.013
-266.282	14.187	0.043	-0.033
-265.267	554.388	0.059	0.140
-264.253	140.859	-0.109	0.142
-263.238	98.173	-0.102	-0.116
-262.224	-16.933	0.068	-0.042
-261.209	-126.992	-0.227	0.033
-260.195	-200.000	0.018	0.101
-259.180	-11.390	0.162	-0.105
-258.165	-107.043	-0.075	-0.016
-257.151	-48.031	0.206	-0.098
-256.136	23.551	-0.140	-0.114
-255.122	91.663	0.171	-0.190
-254.107	-51.205	-0.341	-0.158
-253.092	300.207	-0.201	0.367
-252.078	-56.675	0.116	-0.051
-251.063	430.057	-0.050	0.107
-250.049	-146.361	0.242	0.021
-249.034	-200.000	-0.096	0.448
-248.019	-83.959	0.236	0.074
-247.005	68.215	0.124	-0.125
-245.990	40.172	-0.499	-0.443
-244.976	160.710	0.156	0.214
-243.961	-133.055	0.343	0.043
-242.946	364.860	0.112	0.223
-241.932	52.465	0.024	-0.022
-240.917	-32.398	-0.074	0.041
-239.903	-164.936	0.418	0.018
-238.888	624.720	0.075	0.186
-237.873	800.000	-0.045	0.148
-236.859	11.446	-0.114	-0.086
-235.844	40.773	-0.136	-0.121
-234.830	35.313	-0.246	0.213
-233.815	-168.552	0.462	0.017
-232.800	335.675	0.218	0.417
-231.786	237.066	-0.106	0.174
-230.771	-200.000	-0.005	0.180
-229.757	479.640	0.031	0.068
-228.742	-11.528	0.252	0.163
-227.727	-194.367	-0.375	0.003
-226.713	89.258	0.162	0.178
-225.698	266.955	0.025	0.043
-224.684	-200.000	-0.006	-0.242
-223.669	-75.321	-0.270	-0.095
-222.655	126.215	0.182	-0.228
-221.640	800.000	0.107	0.296
-220.625	-32.656	0.081	-0.045
-219.611	-110.255	0.259	0.053
-218.596	-200.000	0.052	-0.328
-217.582	800.000	-0.099	-0.297
-216.567	-64.103	-0.218	0.088
-215.552	93.705	0.237	0.265
-214.538	-200.000	0.055	-0.305
-213.523	285.564	0.019	0.034
-212.509	-144.960	0.339	0.031
-211.494	-77.820	-0.275	-0.094
-210.479	281.815	-0.121	0.214
-209.465	-28.451	0.211	0.120
-208.450	201.157	0.033	0.050
-207.436	-200.000	0.063	0.431
-206.421	-132.454	-0.135	-0.017
-205.406	-200.000	-0.055	-0.260
-204.392	-200.000	0.028	0.191
-203.377	-12.401	-0.107	0.069
-202.363	-89.586	0.420	-0.121
-201.348	-75.987	0.182	0.064
-200.333	-27.269	0.214	0.123
-199.319	-200.000	-0.011	0.050
-198.304	-109.041	0.269	0.057
-197.290	686.568	0.037	-0.095
-196.275	-23.012	0.229	-0.136
-195.260	-184.751	-0.254	-0.004
-194.246	217.896	-0.036	-0.056
-193.231	-200.000	0.096	-0.608
-192.217	-107.358	0.048	-0.010
-191.202	-118.554	-0.274	0.048
-190.187	-143.263	0.116	0.011
-189.173	490.464	-0.048	-0.107
-188.158	107.347	0.118	0.138
-187.144	193.813	0.130	0.194
-186.129	284.695	-0.228	-0.404
-185.114	-95.239	0.468	-0.124
-184.100	-200.000	-0.022	-0.273
-183.085	-59.014	0.314	0.133
-182.071	20.270	-0.089	-0.071
-181.056	-131.808	0.239	-0.031
-180.042	800.000	-0.069	0.292
-179.027	-200.000	-0.034	-0.315
-178.012	2.273	0.147	-0.105
-176.998	800.000	0.031	-0.086
-175.983	18.791	-0.107	-0.084
-174.969	-9.189	-0.173	0.114
-173.954	43.510	0.164	0.148
-172.939	12.754	-0.377	-0.286
-171.925	-200.000	0.003	0.031
-170.910	246.566	0.124	0.206
-169.896	14.132	0.111	-0.085
-168.881	-105.659	0.329	-0.073
-167.866	-48.042	-0.045	0.021
-166.852	15.421	0.165	0.127
-165.837	-53.876	-0.152	0.068
-164.823	-56.461	0.228	0.100
-163.808	-12.433	0.319	-0.205
-162.793	13.179	-0.198	-0.151
-161.779	-54.927	0.138	-0.061
-160.764	-56.519	0.079	0.035
-159.750	-200.000	-0.016	-0.148
-158.735	112.904	0.222	0.265
-157.720	-200.000	0.003	0.194
-156.706	-44.531	-0.263	0.129
-155.691	335.482	0.065	0.125
-154.677	-5.774	-0.172	0.116
-153.662	140.623	0.107	0.139
-152.647	106.544	0.254	0.296
-151.633	-155.844	-0.190	-0.012
-150.618	-39.353	-0.399	-0.206
-149.604	-51.549	-0.294	-0.135
-148.589	-82.071	-0.364	0.117
-147.574	74.165	0.285	0.295
-146.560	-49.392	0.370	-0.174
-145.545	-152.053	-0.144	0.010
-144.531	-14.290	-0.179	0.113
-143.516	522.278	-0.062	0.142
-142.502	-112.087	0.279	-0.055
-141.487	438.046	-0.077	0.166
-140.472	13.875	0.186	-0.142
-139.458	-73.894	-0.253	0.090
-138.443	-122.608	-0.314	-0.050
-137.429	-42.180	-0.176	-0.089
-136.414	15.515	0.156	0.121
-135.399	82.859	-0.244	-0.260
-134.385	18.662	0.109	-0.086
-133.370	800.000	-0.143	-0.423
-132.356	-157.133	0.151	-0.009
-131.341	82.094	-0.202	-0.215
-130.326	-200.000	0.072	0.369
-129.312	-200.000	-0.038	-0.216
-128.297	-42.684	0.215	0.107
-127.283	50.199	0.183	0.169
-126.268	14.414	-0.356	-0.273
-125.253	-63.755	-0.168	-0.067
-124.239	160.628	0.095	0.131
-123.224	-27.168	-0.172	-0.098
-122.210	564.889	0.205	-0.489
-121.195	16.405	-0.116	-0.090
