DTS Sentinel unit serial number:	SN413079Multiplexer serial number:	ORYXHardware model number:	OX4-SRSoftware version number:	ORYX F/W v4.00 Oryx Data Collector v3.7.2.0data status	okinstallation	princeton_trtdifferential loss correction	single-endedforward channel	channel 1reverse channel	N/Adate	2019/09/10time	23:12:11forward acquisition time	60.00reverse acquisition time	0.00gamma	496.2192k internal	0.2331k external	0.2331temperature offset calibration	0.9941default loss term (dB/km)	0.3790temperature slope calibration	1.0000multiplexer offset coefficient	1.0000multiplexer slope coefficient	1.0000fibre end	0.00T internal ref (°C)	29.87T ext. ref 1 (°C)	-0.32T ext. ref 2 (°C)	23.20length (m)	temperature (°C)	Stokes	anti-Stokes-747.200	-11.547	0.129	0.085
-746.185	-88.056	-0.212	-0.064
-745.171	-50.651	0.412	0.195
-744.156	43.272	-0.234	0.215
-743.142	189.481	-0.158	0.238
-742.127	-124.519	-0.200	0.031
-741.112	-122.177	0.250	-0.041
-740.098	348.563	-0.126	0.251
-739.083	800.000	-0.010	-0.041
-738.069	-28.429	0.218	0.127
-737.054	-112.908	0.092	-0.018
-736.039	293.357	-0.143	-0.262
-735.025	-125.311	0.452	0.070
-734.010	-115.417	-0.173	0.033
-732.996	-176.663	-0.291	-0.007
-731.981	114.038	-0.095	0.116
-730.966	800.000	-0.009	-0.027
-729.952	-84.127	-0.199	0.064
-728.937	-133.832	-0.384	0.048
-727.923	-121.055	-0.254	-0.043
-726.908	69.988	-0.255	0.265
-725.894	-200.000	0.005	0.078
-724.879	-125.373	0.154	-0.024
-723.864	-81.600	-0.355	-0.117
-722.850	-163.388	0.094	0.005
-721.835	-78.058	0.262	-0.091
-720.821	63.645	0.181	-0.183
-719.806	-87.942	-0.360	-0.109
-718.791	-200.000	-0.012	-0.696
-717.777	-200.000	0.003	-0.378
-716.762	-130.133	-0.089	-0.012
-715.748	16.678	0.138	0.110
-714.733	-80.274	-0.155	0.052
-713.718	-145.270	-0.172	-0.016
-712.704	-96.788	0.194	0.051
-711.689	-200.000	0.067	-0.514
-710.675	-200.000	-0.014	-0.373
-709.660	800.000	-0.121	0.517
-708.645	-200.000	0.003	-0.134
-707.631	250.692	0.099	-0.169
-706.616	800.000	0.051	0.209
-705.602	-200.000	-0.033	0.166
-704.587	-138.589	-0.355	-0.039
-703.572	-61.151	-0.099	0.042
-702.558	800.000	0.022	0.077
-701.543	-151.931	-0.178	-0.013
-700.529	-200.000	0.032	0.188
-699.514	-162.265	-0.292	0.015
-698.499	-99.981	-0.225	-0.056
-697.485	-200.000	-0.052	-0.384
-696.470	-123.191	-0.178	-0.029
-695.456	6.720	0.175	-0.131
-694.441	-35.952	-0.215	-0.117
-693.426	-200.000	0.013	0.170
-692.412	-39.084	-0.224	0.118
-691.397	38.957	0.158	0.142
-690.383	-200.000	-0.003	-0.052
-689.368	-82.925	-0.677	0.220
-688.354	87.014	0.096	-0.106
-687.339	-200.000	-0.009	0.188
-686.324	-200.000	-0.003	-0.204
-685.310	-91.284	-0.305	-0.088
-684.295	800.000	-0.033	-0.097
-683.281	-22.207	0.298	0.181
-682.266	-200.000	0.003	0.143
-681.251	-200.000	-0.014	0.262
-680.237	208.428	0.042	0.065
-679.222	800.000	0.010	0.040
-678.208	105.783	-0.102	0.121
-677.193	52.548	-0.026	-0.025
-676.178	-24.228	0.125	-0.075
-675.164	8.261	-0.163	0.123
-674.149	6.861	-0.359	-0.268
-673.135	113.996	-0.250	0.305
-672.120	800.000	-0.046	0.138
-671.105	-166.935	0.252	0.010
-670.091	-145.970	0.138	0.012
-669.076	-139.682	-0.243	0.026
-668.062	162.177	0.152	0.214
-667.047	33.880	0.067	0.058
-666.032	-6.875	-0.175	-0.120
-665.018	-3.699	-0.186	0.130
-664.003	-135.898	-0.241	0.029
-662.989	-200.000	0.018	0.119
-661.974	4.226	0.109	-0.080
-660.959	-21.496	-0.239	0.147
-659.945	101.985	0.061	-0.071
-658.930	-132.681	0.151	-0.019
-657.916	87.630	-0.353	-0.392
-656.901	-26.246	0.147	0.086
-655.886	81.840	0.039	-0.043
-654.872	83.431	-0.155	-0.169
-653.857	-200.000	0.002	-0.248
-652.843	-145.997	-0.091	-0.008
-651.828	188.534	0.100	-0.149
-650.814	-135.851	-0.154	-0.018
-649.799	306.792	0.089	0.167
-648.784	-99.439	0.339	-0.085
-647.770	-56.150	-0.302	0.135
-646.755	-200.000	-0.026	0.200
-645.741	517.175	-0.122	0.286
-644.726	-200.000	0.036	-0.208
-643.711	-132.339	-0.121	-0.016
-642.697	-152.997	0.287	0.020
-641.682	455.327	0.025	0.055
-640.668	-116.309	-0.437	-0.081
-639.653	400.619	0.081	0.171
-638.638	83.452	-0.088	-0.096
-637.624	800.000	-0.078	-0.275
-636.609	-109.492	0.090	0.019
-635.595	-54.397	0.239	-0.109
-634.580	139.762	0.162	0.214
-633.565	-139.069	-0.105	0.011
-632.551	-200.000	-0.051	-0.288
-631.536	-122.239	-0.020	0.003
-630.522	-151.207	0.259	-0.019
-629.507	469.438	-0.107	-0.242
-628.492	-125.294	-0.376	0.058
-627.478	-200.000	0.051	0.227
-626.463	17.984	-0.055	0.044
-625.449	-47.731	0.102	-0.050
-624.434	435.004	0.062	-0.135
-623.419	186.934	0.134	-0.199
-622.405	69.002	-0.166	-0.171
-621.390	-131.229	0.230	0.031
-620.376	-109.054	-0.180	0.038
-619.361	-122.436	-0.129	-0.021
-618.346	-69.426	-0.238	-0.091
-617.332	800.000	0.074	-0.210
-616.317	800.000	-0.032	0.133
-615.303	294.548	-0.164	-0.301
-614.288	-200.000	-0.021	0.231
-613.273	-55.204	-0.048	0.022
-612.259	-4.425	-0.249	0.172
-611.244	343.953	0.116	-0.228
-610.230	15.697	0.219	-0.173
-609.215	-150.558	-0.226	-0.017
-608.201	640.570	-0.107	0.273
-607.186	-200.000	0.040	-0.217
-606.171	34.074	-0.021	0.019
-605.157	274.473	0.044	-0.078
-604.142	187.760	-0.146	-0.218
-603.128	281.566	-0.133	0.238
-602.113	391.218	-0.041	-0.085
-601.098	800.000	0.101	-0.400
-600.084	-106.226	-0.280	-0.063
-599.069	-125.743	-0.028	0.004
-598.055	-176.164	-0.407	-0.011
-597.040	-102.598	0.141	-0.034
-596.025	180.637	-0.121	-0.178
-595.011	-48.991	-0.187	-0.090
-593.996	172.604	-0.251	-0.361
-592.982	466.185	-0.024	-0.053
-591.967	12.069	0.187	-0.144
-590.952	800.000	-0.023	-0.064
-589.938	-200.000	-0.008	-0.151
-588.923	-33.610	0.171	-0.094
-587.909	-110.703	-0.197	0.041
-586.894	-200.000	0.003	0.232
-585.879	-200.000	0.006	-0.230
-584.865	3.184	-0.037	-0.027
-583.850	-21.281	0.239	-0.146
-582.836	-108.477	-0.208	0.045
-581.821	-70.690	-0.081	-0.031
-580.806	392.139	-0.060	-0.124
-579.792	-121.968	0.344	-0.057
-578.777	-200.000	-0.013	0.128
-577.763	-120.850	-0.318	0.054
-576.748	-200.000	0.037	0.293
-575.733	412.805	-0.089	0.189
-574.719	66.080	0.070	0.071
-573.704	-110.285	-0.065	0.014
-572.690	-14.260	0.221	0.143
-571.675	-94.157	-0.193	0.053
-570.661	14.586	-0.104	-0.081
-569.646	46.159	-0.265	0.246
-568.631	17.268	0.274	0.218
-567.617	21.791	-0.070	-0.057
-566.602	385.006	0.084	-0.173
-565.588	-48.634	0.236	-0.113
-564.573	-21.842	-0.301	-0.183
-563.558	143.835	-0.072	0.096
-562.544	-200.000	0.033	0.445
-561.529	-171.382	0.272	-0.009
-560.515	133.884	0.080	-0.104
-559.500	222.345	-0.355	-0.571
-558.485	464.760	0.171	0.383
-557.471	-50.180	0.148	0.070
-556.456	-200.000	-0.016	-0.088
-555.442	-149.659	-0.168	-0.013
-554.427	-67.127	-0.192	-0.076
-553.412	-136.356	0.068	-0.008
-552.398	-111.337	0.168	0.034
-551.383	800.000	0.016	-0.061
-550.369	-200.000	-0.031	0.157
-549.354	152.891	-0.238	-0.325
-548.339	7.133	0.122	-0.091
-547.325	-182.756	0.338	-0.006
-546.310	-168.148	0.258	-0.010
-545.296	85.086	-0.121	-0.133
-544.281	-58.410	0.274	-0.119
-543.266	800.000	0.061	-0.266
-542.252	-6.306	0.081	-0.055
-541.237	-122.357	-0.231	-0.038
-540.223	260.569	-0.072	-0.124
-539.208	-146.584	-0.161	-0.014
-538.193	500.208	-0.086	-0.198
-537.179	-70.184	0.253	-0.096
-536.164	92.978	0.099	-0.112
-535.150	705.013	0.123	-0.325
-534.135	-200.000	0.019	0.308
-533.121	93.134	0.171	0.193
-532.106	28.732	-0.057	-0.049
-531.091	110.106	-0.102	-0.122
-530.077	22.138	-0.237	0.193
-529.062	-43.132	0.253	-0.128
-528.048	-200.000	0.000	-0.270
-527.033	365.868	0.069	0.138
-526.018	-159.519	0.295	0.016
-525.004	-66.227	-0.149	-0.059
-523.989	233.566	-0.178	-0.292
-522.975	-44.487	-0.180	-0.090
-521.960	466.843	-0.047	0.105
-520.945	-94.690	-0.382	0.104
-519.931	-107.321	-0.132	0.029
-518.916	800.000	0.060	-0.237
-517.902	337.738	-0.133	-0.257
-516.887	20.231	-0.171	-0.138
-515.872	38.739	0.194	0.173
-514.858	204.827	-0.188	0.290
-513.843	484.554	-0.196	-0.445
-512.829	154.732	0.145	-0.199
-511.814	-97.186	-0.365	-0.095
-510.799	56.914	-0.229	0.222
-509.785	9.965	-0.286	0.217
-508.770	-154.290	-0.194	0.013
-507.756	-200.000	-0.007	0.329
-506.741	-45.703	-0.118	-0.058
-505.726	-200.000	0.003	0.077
-504.712	-25.899	0.121	0.071
-503.697	800.000	0.101	-0.314
-502.683	-60.031	-0.173	0.074
-501.668	7.695	-0.181	0.135
-500.653	-32.262	0.312	0.174
-499.639	-136.751	0.281	-0.032
-498.624	495.510	-0.059	0.136
-497.610	-167.534	-0.244	-0.010
-496.595	-49.335	-0.066	0.031
-495.581	-200.000	-0.017	0.141
-494.566	-55.345	0.445	0.199
-493.551	800.000	-0.037	-0.133
-492.537	127.557	-0.182	0.231
-491.522	-26.245	-0.227	-0.133
-490.508	247.388	-0.084	0.141
-489.493	-200.000	0.010	-0.046
-488.478	-33.756	0.283	0.156
-487.464	106.637	-0.270	0.319
-486.449	-158.323	0.220	-0.013
-485.435	25.264	-0.205	0.170
-484.420	-53.777	-0.345	-0.157
-483.405	-22.259	-0.141	0.085
-482.391	-28.840	-0.428	-0.245
-481.376	-200.000	0.008	-0.121
-480.362	37.719	-0.170	-0.150
-479.347	-6.168	0.228	0.155
-478.332	262.309	0.085	0.147
-477.318	-31.833	0.297	-0.166
-476.303	-166.127	0.105	0.004
-475.289	262.789	-0.090	0.156
-474.274	192.957	-0.007	-0.011
-473.259	55.714	-0.238	-0.230
-472.245	-6.687	-0.160	0.108
-471.230	800.000	-0.083	-0.273
-470.216	800.000	-0.078	0.293
-469.201	117.167	0.113	0.138
-468.186	-47.304	0.271	-0.131
-467.172	-60.818	0.295	0.125
-466.157	316.976	0.111	0.209
-465.143	114.271	-0.074	-0.090
-464.128	-70.246	0.221	-0.083
-463.113	-84.193	0.311	-0.098
-462.099	800.000	-0.035	-0.132
-461.084	22.285	-0.098	0.080
-460.070	800.000	0.079	0.264
-459.055	-200.000	0.024	0.178
-458.040	-12.679	-0.109	0.071
-457.026	315.381	0.101	-0.189
-456.011	290.626	-0.074	-0.134
-454.997	800.000	-0.049	0.175
-453.982	74.494	-0.069	0.072
-452.968	579.863	-0.084	-0.205
-451.953	-161.744	-0.049	0.002
-450.938	-200.000	0.073	0.369
-449.924	-144.308	0.245	0.023
-448.909	-19.390	-0.285	-0.176
-447.895	-200.000	0.041	0.570
-446.880	-200.000	-0.043	0.284
-445.865	-200.000	0.000	0.018
-444.851	107.876	-0.388	0.460
-443.836	-87.989	0.168	0.050
-442.822	141.243	0.092	-0.121
-441.807	-77.105	-0.218	0.075
-440.792	469.231	-0.176	-0.392
-439.778	-43.817	0.400	0.200
-438.763	-190.940	-0.249	-0.003
-437.749	529.461	0.034	0.080
-436.734	-114.385	-0.162	-0.031
-435.719	-200.000	-0.001	-0.276
-434.705	-33.209	0.193	-0.106
-433.690	-121.495	0.258	0.043
-432.676	486.641	-0.077	0.174
-431.661	10.406	-0.253	0.192
-430.646	-3.670	-0.105	-0.073
-429.632	-200.000	0.020	-0.147
-428.617	800.000	-0.092	0.374
-427.603	-105.423	0.112	0.025
-426.588	-56.729	0.284	-0.125
-425.573	396.340	0.105	-0.218
-424.559	-2.987	-0.124	-0.086
-423.544	299.555	0.084	-0.153
-422.530	147.221	0.138	0.184
-421.515	-143.936	-0.182	0.017
-420.500	75.100	-0.138	-0.144
-419.486	53.363	0.125	0.119
-418.471	-136.967	0.176	-0.020
-417.457	800.000	-0.110	-0.316
-416.442	59.812	-0.101	0.099
-415.428	457.708	-0.030	0.067
-414.413	71.236	-0.078	0.080
-413.398	-19.123	-0.099	-0.061
-412.384	-121.418	-0.128	-0.021
-411.369	-200.000	-0.002	0.079
-410.355	-45.595	-0.175	-0.086
-409.340	-190.742	-0.293	0.003
-408.325	-200.000	0.047	0.223
-407.311	-54.068	-0.239	0.108
-406.296	447.740	-0.072	-0.157
-405.282	188.587	-0.145	-0.215
-404.267	58.785	0.044	-0.043
-403.252	-133.657	0.246	0.031
-402.238	-117.869	-0.179	-0.032
-401.223	62.004	0.024	-0.023
-400.209	403.634	0.040	0.084
-399.194	-95.043	0.182	-0.049
-398.179	728.325	-0.053	0.141
-397.165	-200.000	-0.034	-0.224
-396.150	-85.043	0.285	0.089
-395.136	-200.000	-0.002	-0.055
-394.121	140.817	0.102	0.133
-393.106	-164.240	-0.159	0.007
-392.092	800.000	-0.077	0.227
-391.077	800.000	0.017	-0.058
-390.063	67.804	0.019	-0.019
-389.048	200.493	0.071	0.108
-388.033	-137.496	-0.227	0.025
-387.019	-200.000	0.081	0.355
-386.004	208.785	-0.205	0.318
-384.990	-129.173	0.048	0.007
-383.975	-200.000	0.023	-0.140
-382.960	-115.671	-0.139	0.026
-381.946	681.760	-0.115	-0.298
-380.931	-200.000	0.029	-0.167
-379.917	567.456	-0.127	0.306
-378.902	-200.000	0.011	0.198
-377.888	143.125	0.177	0.233
-376.873	591.624	-0.083	-0.204
-375.858	134.163	-0.061	0.079
-374.844	21.826	-0.192	0.155
-373.829	72.511	0.133	0.138
-372.815	136.189	0.093	0.120
-371.800	44.141	-0.227	-0.206
-370.785	-21.478	-0.333	0.201
-369.771	-140.405	0.292	0.030
-368.756	-134.353	0.043	-0.005
-367.742	800.000	0.027	-0.084
-366.727	84.198	0.076	0.083
-365.712	257.866	-0.126	-0.215
-364.698	79.892	-0.121	0.129
-363.683	800.000	0.168	0.463
-362.669	-200.000	-0.034	0.235
-361.654	84.881	-0.146	-0.158
-360.639	-200.000	0.050	0.234
-359.625	-59.037	-0.284	0.121
-358.610	158.685	-0.173	-0.238
-357.596	-18.768	0.043	-0.027
-356.581	-54.134	0.175	0.079
-355.566	553.490	0.078	-0.185
-354.552	127.487	0.130	0.163
-353.537	237.584	0.151	0.248
-352.523	-104.472	-0.173	0.040
-351.508	159.891	0.083	-0.115
-350.493	-111.935	0.394	-0.079
-349.479	800.000	0.125	-0.421
-348.464	-200.000	0.095	-0.471
-347.450	-152.023	0.283	0.020
-346.435	392.759	-0.089	-0.183
-345.420	800.000	0.134	0.373
-344.406	104.438	-0.125	-0.145
-343.391	-170.798	-0.172	-0.006
-342.377	99.445	-0.049	0.057
-341.362	188.349	-0.096	0.143
-340.348	800.000	-0.083	0.240
-339.333	-49.085	0.336	-0.159
-338.318	268.489	-0.156	-0.271
-337.304	-200.000	0.004	-0.138
-336.289	714.590	-0.045	-0.119
-335.275	800.000	-0.065	-0.214
-334.260	293.290	-0.055	0.100
-333.245	532.754	0.045	-0.105
-332.231	28.968	0.086	0.072
-331.216	-91.448	-0.298	-0.084
-330.202	-91.875	-0.109	0.031
-329.187	-200.000	0.028	-0.160
-328.172	800.000	-0.091	0.322
-327.158	800.000	-0.039	-0.167
-326.143	682.294	-0.102	-0.264
-325.129	345.721	0.065	-0.127
-324.114	28.345	0.070	0.058
-323.099	91.392	0.055	-0.062
-322.085	800.000	-0.122	0.349
-321.070	-142.942	0.291	-0.028
-320.056	-153.123	0.090	-0.006
-319.041	800.000	-0.100	0.299
-318.026	37.338	-0.192	0.168
-317.012	800.000	-0.027	0.082
-315.997	-131.237	0.253	-0.033
-314.983	213.047	0.224	0.350
-313.968	-200.000	-0.020	0.181
-312.953	-200.000	0.030	-0.145
-311.939	64.253	-0.222	0.221
-310.924	69.731	0.207	0.211
-309.910	-121.392	0.281	-0.046
-308.895	357.540	0.084	0.166
-307.880	45.223	0.123	0.113
-306.866	-100.199	-0.293	0.072
-305.851	800.000	-0.070	-0.284
-304.837	18.736	0.139	0.110
-303.822	-44.516	0.220	-0.109
-302.807	425.064	0.122	0.259
-301.793	153.120	0.150	-0.203
-300.778	-130.295	0.381	-0.051
-299.764	-22.379	0.125	-0.075
-298.749	-33.884	0.264	-0.144
-297.735	-140.320	0.402	0.042
-296.720	-86.416	-0.064	0.019
-295.705	67.792	0.207	-0.209
-294.691	-66.809	0.280	-0.110
-293.676	196.643	0.112	0.169
-292.662	-55.060	-0.268	0.119
-291.647	262.006	0.066	0.114
-290.632	-200.000	0.025	0.132
-289.618	-91.305	-0.186	0.053
-288.603	5.239	-0.281	0.205
-287.589	-200.000	0.031	-0.148
-286.574	-143.189	0.498	0.047
-285.559	292.154	-0.157	-0.284
-284.545	106.507	-0.202	-0.236
-283.530	-178.027	0.108	-0.003
-282.516	-200.000	-0.001	-0.088
-281.501	800.000	-0.014	-0.041
-280.486	31.967	0.277	0.236
-279.472	-106.658	0.219	-0.048
-278.457	-200.000	-0.003	0.235
-277.443	74.041	-0.027	-0.029
-276.428	36.117	0.121	-0.106
-275.413	55.145	0.141	-0.135
-274.399	800.000	0.032	0.122
-273.384	-7.813	0.262	0.175
-272.370	800.000	0.068	0.210
-271.355	208.177	0.109	-0.169
-270.340	-200.000	0.024	-0.291
-269.326	315.262	0.190	-0.353
-268.311	215.828	0.148	0.233
-267.297	-134.449	-0.108	0.013
-266.282	57.592	-0.034	-0.033
-265.267	-39.101	-0.240	-0.125
-264.253	375.836	-0.155	-0.313
-263.238	-200.000	-0.061	-0.323
-262.224	-90.353	-0.372	-0.107
-261.209	775.409	0.110	0.297
-260.195	-107.404	-0.195	0.042
-259.180	-96.182	0.241	0.063
-258.165	-130.867	-0.174	0.023
-257.151	770.115	-0.047	0.126
-256.136	381.029	-0.060	0.121
-255.122	495.785	0.072	0.164
-254.107	-200.000	-0.013	-0.172
-253.092	-200.000	0.038	0.226
-252.078	-3.260	-0.085	-0.058
-251.063	70.548	-0.222	0.226
-250.049	5.725	-0.349	0.255
-249.034	382.748	0.150	0.305
-248.019	800.000	0.071	0.195
-247.005	-97.190	-0.181	0.047
-245.990	144.514	0.089	-0.117
-244.976	800.000	0.131	-0.416
-243.961	-20.199	-0.070	-0.042
-242.946	-73.406	0.509	0.183
-241.932	800.000	0.106	-0.321
-240.917	-107.931	0.435	0.093
-239.903	13.793	-0.196	-0.151
-238.888	310.033	-0.127	-0.235
-237.873	-149.395	0.300	-0.024
-236.859	59.076	-0.292	-0.283
-235.844	-200.000	0.019	-0.146
-234.830	67.787	0.214	-0.215
-233.815	-108.838	-0.265	-0.056
-232.800	-82.473	0.427	-0.137
-231.786	4.169	0.087	-0.063
-230.771	24.817	0.151	0.124
-229.757	111.906	0.225	-0.269
-228.742	-200.000	-0.007	-0.063
-227.727	-56.810	-0.204	-0.089
-226.713	207.384	0.230	0.353
-225.698	-1.780	0.171	0.119
-224.684	-157.870	-0.251	0.015
-223.669	-149.058	-0.117	-0.009
-222.655	36.756	0.121	0.105
-221.640	-103.339	0.211	0.049
-220.625	-24.155	0.086	0.051
-219.611	191.867	-0.171	-0.253
-218.596	6.085	-0.167	0.122
-217.582	-197.329	0.156	0.001
-216.567	-166.379	0.076	-0.003
-215.552	-200.000	0.035	-0.191
-214.538	-200.000	0.013	-0.229
-213.523	-200.000	-0.025	-0.233
-212.509	-82.595	0.312	0.100
-211.494	226.942	-0.172	-0.275
-210.479	-85.277	0.076	-0.023
-209.465	302.897	0.043	0.078
-208.450	-129.574	-0.426	0.058
-207.436	-200.000	-0.023	0.124
-206.421	-123.788	-0.139	0.022
-205.406	629.291	-0.129	-0.321
-204.392	-8.954	0.196	-0.129
-203.377	-200.000	0.018	-0.203
-202.363	-100.022	-0.200	0.049
-201.348	-200.000	0.092	0.532
-200.333	-134.627	0.332	0.040
-199.319	-200.000	0.010	-0.224
-198.304	-200.000	0.020	-0.119
-197.290	75.269	0.110	-0.114
-196.275	800.000	-0.107	0.329
-195.260	-19.595	0.235	0.143
-194.246	-107.169	0.221	0.048
-193.231	-72.877	-0.114	-0.041
-192.217	-200.000	0.051	0.265
-191.202	-200.000	-0.013	0.414
-190.187	266.270	0.183	-0.315
-189.173	110.689	0.163	-0.193
-188.158	369.842	-0.131	0.261
-187.144	800.000	-0.106	0.346
-186.129	55.256	0.294	-0.280
-185.114	800.000	-0.106	-0.371
-184.100	-185.913	-0.303	0.004
-183.085	39.321	-0.126	-0.111
-182.071	52.999	0.207	-0.195
-181.056	31.867	0.100	-0.084
-180.042	99.695	-0.185	0.211
-179.027	140.697	-0.035	-0.046
-178.012	-7.974	0.166	0.110
-176.998	508.563	-0.108	-0.247
-175.983	-2.522	-0.134	-0.093
-174.969	-133.559	0.205	-0.025
-173.954	40.478	-0.146	0.129
-172.939	-87.706	0.189	-0.056
-171.925	-133.617	-0.206	-0.025
-170.910	395.612	-0.060	0.124
-169.896	800.000	0.101	-0.331
-168.881	-2.597	-0.184	-0.126
-167.866	62.918	0.038	0.038
-166.852	-200.000	0.015	0.138
-165.837	800.000	0.090	0.384
-164.823	98.261	0.156	0.176
-163.808	-200.000	-0.037	0.161
-162.793	-75.190	0.239	-0.084
-161.779	-125.803	-0.206	0.031
-160.764	-200.000	-0.009	-0.077
-159.750	-46.217	-0.158	-0.077
-158.735	17.831	0.205	0.161
-157.720	471.028	0.175	0.388
-156.706	461.493	0.064	0.140
-155.691	15.483	0.186	-0.144
-154.677	19.976	0.062	0.049
-153.662	244.295	-0.109	0.181
-152.647	255.022	0.182	0.306
-151.633	131.137	-0.102	-0.128
-150.618	215.714	-0.048	-0.075
-149.604	-108.535	0.342	-0.072
-148.589	-61.637	0.308	-0.127
-147.574	-200.000	-0.032	-0.225
-146.560	-30.616	0.203	-0.113
-145.545	294.184	-0.220	0.395
-144.531	197.984	-0.269	0.404
-143.516	163.554	-0.106	-0.147
-142.502	709.580	0.128	-0.332
-141.487	-200.000	0.010	-0.471
-140.472	119.006	0.118	0.144
-139.458	53.796	0.281	-0.265
-138.443	385.925	0.121	-0.245
-137.429	800.000	0.042	0.175
-136.414	48.735	0.152	-0.140
-135.399	460.650	-0.074	0.161
-134.385	-9.448	-0.325	0.213
-133.370	-174.987	0.145	0.004
-132.356	-200.000	-0.007	-0.261
-131.341	-65.111	0.402	0.159
-130.326	-200.000	-0.019	0.312
-129.312	-75.494	-0.161	0.056
-128.297	3.364	0.094	0.068
-127.283	772.027	0.173	0.464
-126.268	308.330	-0.166	0.305
-125.253	-51.780	-0.370	0.169
-124.239	-121.676	0.402	0.065
-123.224	49.202	0.148	-0.137
-122.210	149.086	-0.116	-0.155
