DTS Sentinel unit serial number:	SN413079Multiplexer serial number:	ORYXHardware model number:	OX4-SRSoftware version number:	ORYX F/W v4.00 Oryx Data Collector v3.7.2.0data status	okinstallation	princeton_trtdifferential loss correction	single-endedforward channel	channel 1reverse channel	N/Adate	2019/09/12time	05:00:11forward acquisition time	60.00reverse acquisition time	0.00gamma	496.2192k internal	0.2323k external	0.2323temperature offset calibration	1.0054default loss term (dB/km)	0.3790temperature slope calibration	1.0000multiplexer offset coefficient	1.0000multiplexer slope coefficient	1.0000fibre end	0.00T internal ref (°C)	31.75T ext. ref 1 (°C)	1.76T ext. ref 2 (°C)	27.05length (m)	temperature (°C)	Stokes	anti-Stokes-747.200	-25.238	0.245	0.147
-746.185	-200.000	0.047	0.256
-745.171	154.044	0.093	-0.129
-744.156	251.355	-0.034	0.058
-743.142	98.398	0.189	-0.220
-742.127	138.430	0.074	0.099
-741.112	-84.114	-0.181	0.058
-740.098	108.254	-0.139	0.167
-739.083	314.882	-0.045	-0.085
-738.069	387.621	-0.139	0.290
-737.054	-113.810	0.162	-0.032
-736.039	-51.506	-0.208	0.098
-735.025	-38.877	-0.379	0.202
-734.010	-58.218	0.091	0.040
-732.996	9.989	-0.194	0.149
-731.981	276.291	-0.053	-0.095
-730.966	50.320	0.090	-0.086
-729.952	-92.545	-0.436	0.124
-728.937	-114.723	-0.309	-0.060
-727.923	190.406	0.213	-0.322
-726.908	-123.092	-0.183	0.030
-725.894	301.728	0.051	-0.094
-724.879	-200.000	0.009	0.241
-723.864	800.000	-0.058	-0.200
-722.850	-23.151	0.092	-0.056
-721.835	-200.000	0.002	-0.048
-720.821	443.829	0.085	-0.189
-719.806	-200.000	-0.013	0.060
-718.791	60.619	-0.088	-0.088
-717.777	-200.000	-0.003	0.018
-716.762	248.150	0.101	-0.172
-715.748	800.000	0.050	0.162
-714.733	-25.413	-0.163	-0.097
-713.718	130.015	0.056	-0.072
-712.704	14.094	0.246	0.193
-711.689	97.639	0.118	-0.136
-710.675	133.732	0.167	0.218
-709.660	7.947	0.386	0.292
-708.645	-200.000	-0.033	0.167
-707.631	141.228	-0.204	-0.273
-706.616	-200.000	0.015	0.275
-705.602	296.785	-0.164	-0.303
-704.587	-200.000	-0.001	0.168
-703.572	252.639	-0.060	-0.103
-702.558	127.090	0.068	0.087
-701.543	800.000	0.059	-0.219
-700.529	90.427	0.277	-0.312
-699.514	393.690	0.071	-0.148
-698.499	338.114	0.175	0.343
-697.485	10.653	-0.224	0.172
-696.470	-200.000	0.040	0.325
-695.456	-200.000	0.020	-0.139
-694.441	-42.218	-0.345	0.178
-693.426	-200.000	-0.003	0.185
-692.412	-117.905	0.148	-0.027
-691.397	-115.721	-0.450	0.085
-690.383	137.999	0.113	-0.149
-689.368	-43.156	0.214	-0.109
-688.354	122.904	0.077	-0.098
-687.339	-59.145	-0.310	-0.135
-686.324	669.707	-0.022	0.058
-685.310	-55.332	0.194	0.088
-684.295	-84.585	0.206	-0.065
-683.281	-54.781	0.295	0.134
-682.266	800.000	-0.099	-0.297
-681.251	-83.467	-0.139	0.045
-680.237	237.486	-0.164	-0.274
-679.222	296.682	-0.144	-0.266
-678.208	46.972	-0.254	-0.238
-677.193	160.759	0.142	0.200
-676.178	385.850	0.101	-0.210
-675.164	-6.765	-0.195	-0.133
-674.149	-63.787	0.193	0.080
-673.135	264.653	-0.088	0.154
-672.120	-200.000	-0.020	0.167
-671.105	-200.000	0.016	-0.289
-670.091	99.583	-0.036	-0.042
-669.076	122.191	-0.295	-0.371
-668.062	-33.358	-0.236	-0.132
-667.047	200.799	0.118	0.182
-666.032	-3.442	-0.142	-0.099
-665.018	-200.000	-0.005	0.239
-664.003	-119.732	0.378	-0.066
-662.989	90.362	0.029	0.033
-661.974	-34.351	-0.366	0.202
-660.959	90.294	0.236	-0.265
-659.945	488.019	0.077	0.178
-658.930	267.904	0.081	0.143
-657.916	-18.981	0.176	-0.110
-656.901	-171.353	0.102	-0.003
-655.886	800.000	-0.038	-0.134
-654.872	-152.790	-0.129	0.009
-653.857	-200.000	0.009	0.174
-652.843	-139.875	-0.346	0.037
-651.828	800.000	0.023	-0.091
-650.814	-200.000	-0.002	0.199
-649.799	77.611	0.106	-0.114
-648.784	183.183	0.058	-0.086
-647.770	-200.000	-0.006	-0.116
-646.755	-93.420	-0.457	0.127
-645.741	198.515	-0.182	-0.280
-644.726	725.914	0.143	-0.384
-643.711	-200.000	0.011	-0.121
-642.697	-200.000	-0.013	0.262
-641.682	-92.635	0.383	-0.108
-640.668	-200.000	0.006	-0.109
-639.653	-44.708	-0.348	-0.175
-638.638	-49.652	0.177	0.084
-637.624	114.975	-0.083	0.102
-636.609	129.871	0.118	-0.151
-635.595	800.000	0.065	-0.247
-634.580	-103.292	-0.039	0.009
-633.565	-77.798	0.077	-0.027
-632.551	-200.000	-0.004	0.027
-631.536	60.868	-0.058	0.057
-630.522	-33.704	0.272	-0.151
-629.507	368.758	-0.087	-0.177
-628.492	159.024	-0.174	0.243
-627.478	-90.886	-0.291	-0.084
-626.463	-200.000	0.068	0.422
-625.449	-42.663	-0.313	-0.160
-624.434	-200.000	0.009	0.158
-623.419	-65.578	0.044	-0.018
-622.405	89.590	-0.141	-0.158
-621.390	800.000	-0.070	-0.303
-620.376	-150.351	-0.230	-0.018
-619.361	-200.000	0.023	-0.101
-618.346	45.536	0.229	-0.212
-617.332	-90.815	-0.274	0.079
-616.317	-4.795	0.470	-0.326
-615.303	-200.000	0.011	0.342
-614.288	324.877	0.126	-0.243
-613.273	-18.396	-0.092	-0.058
-612.259	-200.000	-0.044	-0.335
-611.244	-87.885	0.277	-0.084
-610.230	-23.783	-0.201	0.121
-609.215	-78.756	-0.221	0.076
-608.201	-108.945	-0.259	-0.056
-607.186	277.942	0.088	0.158
-606.171	-200.000	0.013	-0.194
-605.157	127.345	-0.103	0.131
-604.142	-200.000	-0.009	0.130
-603.128	-200.000	0.012	0.155
-602.113	-163.569	-0.378	-0.018
-601.098	147.995	-0.039	0.053
-600.084	-47.340	-0.238	0.116
-599.069	-200.000	0.023	-0.135
-598.055	76.735	-0.041	0.043
-597.040	278.118	0.166	-0.297
-596.025	522.685	-0.070	0.164
-595.011	53.163	-0.143	0.137
-593.996	-15.754	-0.073	-0.047
-592.982	-78.540	0.267	-0.092
-591.967	-45.617	-0.088	-0.044
-590.952	-118.426	-0.168	-0.030
-589.938	-91.014	0.245	-0.071
-588.923	800.000	-0.073	0.214
-587.909	-126.982	-0.398	-0.059
-586.894	-185.004	0.377	0.006
-585.879	349.031	-0.162	0.321
-584.865	-84.259	0.130	0.041
-583.850	-90.631	-0.278	0.081
-582.836	800.000	-0.087	-0.290
-581.821	-200.000	-0.001	0.096
-580.806	-200.000	-0.023	-0.123
-579.792	118.528	-0.044	-0.054
-578.777	92.319	-0.176	-0.199
-577.763	44.426	0.214	-0.197
-576.748	220.404	-0.162	-0.260
-575.733	-60.707	-0.224	-0.095
-574.719	-200.000	-0.043	-0.275
-573.704	-63.904	0.233	0.095
-572.690	14.621	-0.245	0.192
-571.675	46.144	-0.132	0.122
-570.661	-114.012	0.348	0.068
-569.646	800.000	0.029	0.097
-568.631	-200.000	-0.018	-0.302
-567.617	-200.000	0.003	-0.046
-566.602	-200.000	0.024	0.411
-565.588	-111.635	0.369	0.075
-564.573	-94.406	-0.183	-0.050
-563.558	-87.620	-0.258	-0.078
-562.544	-62.330	-0.102	0.043
-561.529	-200.000	-0.055	-0.421
-560.515	-190.943	-0.182	-0.002
-559.500	-117.126	0.122	0.022
-558.485	23.545	-0.031	-0.025
-557.471	62.724	0.112	0.112
-556.456	215.399	-0.054	-0.086
-555.442	-88.390	-0.106	-0.032
-554.427	-33.462	-0.166	0.092
-553.412	800.000	0.044	0.189
-552.398	297.184	-0.131	-0.241
-551.383	216.613	-0.117	0.187
-550.369	-135.608	0.196	-0.023
-549.354	-200.000	-0.013	0.128
-548.339	-75.865	0.160	-0.057
-547.325	-132.562	0.161	0.021
-546.310	-200.000	-0.013	0.302
-545.296	-200.000	0.037	-0.230
-544.281	-200.000	-0.056	-0.287
-543.266	-72.872	-0.147	-0.054
-542.252	-137.725	-0.199	0.022
-541.237	-49.596	-0.250	-0.119
-540.223	-115.862	-0.157	-0.029
-539.208	-200.000	0.003	-0.127
-538.193	254.078	-0.084	-0.144
-537.179	302.142	0.064	-0.119
-536.164	800.000	0.071	-0.277
-535.150	-104.301	0.278	-0.065
-534.135	-91.490	-0.142	0.041
-533.121	-200.000	-0.005	-0.136
-532.106	-25.395	-0.076	-0.045
-531.091	-200.000	-0.026	0.146
-530.077	-200.000	-0.002	0.121
-529.062	110.774	0.088	-0.106
-528.048	800.000	0.094	0.314
-527.033	-131.116	0.293	0.039
-526.018	-110.238	-0.249	0.052
-525.004	60.218	-0.120	-0.118
-523.989	-149.360	0.425	-0.034
-522.975	-18.611	-0.209	0.130
-521.960	800.000	0.033	-0.101
-520.945	70.655	-0.129	-0.134
-519.931	74.758	0.067	-0.070
-518.916	-71.634	0.318	-0.119
-517.902	-81.120	-0.157	-0.052
-516.887	160.465	-0.085	0.119
-515.872	197.890	-0.170	-0.260
-514.858	-58.913	0.108	-0.047
-513.843	613.827	0.110	0.275
-512.829	175.956	0.044	-0.063
-511.814	-24.289	0.336	0.201
-510.799	-200.000	-0.005	0.028
-509.785	-79.221	0.238	-0.081
-508.770	34.433	-0.100	-0.087
-507.756	-150.696	-0.263	-0.020
-506.741	-89.082	-0.083	-0.025
-505.726	278.385	-0.073	-0.130
-504.712	-200.000	0.053	-0.298
-503.697	335.192	0.081	0.158
-502.683	800.000	0.070	0.267
-501.668	-42.083	-0.312	-0.159
-500.653	561.204	-0.070	-0.170
-499.639	-11.756	-0.089	0.058
-498.624	-200.000	0.030	-0.184
-497.610	-14.859	-0.132	-0.085
-496.595	-200.000	0.296	0.000
-495.581	64.283	0.134	0.135
-494.566	-13.256	0.159	-0.103
-493.551	124.068	0.038	-0.048
-492.537	-200.000	0.032	0.314
-491.522	389.492	0.077	0.160
-490.508	250.420	-0.078	-0.132
-489.493	365.441	0.108	-0.217
-488.478	-200.000	0.007	0.157
-487.464	-200.000	0.012	-0.236
-486.449	-138.662	0.023	-0.003
-485.435	249.176	0.098	0.166
-484.420	110.802	0.227	0.273
-483.405	800.000	-0.136	-0.446
-482.391	-119.666	-0.169	-0.029
-481.376	-200.000	0.052	0.294
-480.362	-67.036	-0.143	0.056
-479.347	138.184	-0.272	-0.357
-478.332	15.877	0.236	0.186
-477.318	22.461	0.397	0.324
-476.303	-21.457	-0.269	0.164
-475.289	725.202	0.004	0.010
-474.274	2.550	-0.277	0.200
-473.259	-43.007	0.026	0.013
-472.245	-110.195	0.279	-0.058
-471.230	738.251	0.106	-0.284
-470.216	-117.579	-0.308	0.056
-469.201	-124.974	0.298	0.046
-468.186	322.224	0.159	0.303
-467.172	-36.710	0.129	-0.069
-466.157	153.821	0.075	-0.102
-465.143	-24.515	-0.029	0.017
-464.128	180.816	0.180	0.264
-463.113	-73.947	-0.196	-0.071
-462.099	-84.432	-0.140	0.044
-461.084	144.742	0.110	0.146
-460.070	800.000	-0.025	-0.101
-459.055	800.000	-0.025	-0.072
-458.040	221.710	0.312	-0.501
-457.026	-140.727	0.183	-0.019
-456.011	800.000	0.100	0.393
-454.997	-105.824	0.047	0.011
-453.982	-200.000	0.028	-0.201
-452.968	-135.719	-0.318	0.038
-451.953	191.530	-0.065	-0.098
-450.938	-184.863	-0.254	0.004
-449.924	800.000	-0.058	-0.211
-448.909	385.807	-0.187	-0.386
-447.895	-31.038	-0.058	0.033
-446.880	-30.122	-0.169	0.096
-445.865	578.274	-0.106	0.258
-444.851	-57.591	-0.285	0.125
-443.836	-200.000	-0.020	-0.182
-442.822	264.013	0.054	0.094
-441.807	-149.099	-0.167	0.013
-440.792	-150.619	-0.134	-0.010
-439.778	50.602	0.223	-0.211
-438.763	72.550	0.162	0.168
-437.749	50.433	0.092	0.087
-436.734	-200.000	0.069	-0.406
-435.719	-185.763	-0.317	0.005
-434.705	-81.122	-0.343	0.113
-433.690	-70.983	0.047	0.018
-432.676	800.000	0.054	0.168
-431.661	-132.923	0.209	0.027
-430.646	-200.000	0.032	0.468
-429.632	370.014	-0.029	0.058
-428.617	121.702	-0.176	0.219
-427.603	493.644	-0.064	-0.146
-426.588	112.767	0.043	0.052
-425.573	48.061	-0.140	-0.131
-424.559	-200.000	-0.006	0.172
-423.544	-17.742	0.247	0.155
-422.530	-13.223	0.165	0.107
-421.515	-177.393	0.193	0.005
-420.500	97.662	-0.401	0.460
-419.486	-153.260	0.249	0.017
-418.471	153.251	-0.227	0.310
-417.457	-200.000	0.087	0.384
-416.442	85.124	-0.150	-0.165
-415.428	800.000	-0.027	-0.076
-414.413	800.000	-0.032	0.132
-413.398	108.365	-0.136	-0.161
-412.384	-14.747	0.457	0.293
-411.369	419.249	-0.026	-0.055
-410.355	61.616	0.068	0.068
-409.340	76.824	0.282	-0.299
-408.325	63.031	0.069	-0.069
-407.311	-159.944	0.351	0.019
-406.296	-64.671	0.028	0.011
-405.282	25.558	0.106	0.088
-404.267	123.018	0.243	-0.304
-403.252	-69.990	-0.043	-0.016
-402.238	800.000	0.035	-0.120
-401.223	-200.000	-0.003	0.064
-400.209	9.753	-0.159	0.120
-399.194	114.486	-0.150	-0.181
-398.179	-200.000	-0.020	0.162
-397.165	-34.572	0.394	0.215
-396.150	69.741	0.107	0.110
-395.136	-200.000	-0.028	-0.162
-394.121	-183.009	0.151	0.003
-393.106	-89.782	-0.042	-0.012
-392.092	-200.000	0.084	-0.426
-391.077	-136.623	0.237	-0.027
-390.063	-12.756	-0.025	0.016
-389.048	191.543	0.159	-0.239
-388.033	164.697	-0.062	0.087
-387.019	-77.536	0.223	0.077
-386.004	-200.000	-0.002	0.039
-384.990	21.704	-0.074	0.060
-383.975	-200.000	-0.020	-0.159
-382.960	15.395	0.070	-0.055
-381.946	111.855	0.048	0.058
-380.931	-200.000	0.023	0.258
-379.917	-66.742	0.243	0.096
-378.902	14.197	0.199	0.154
-377.888	131.450	0.041	-0.052
-376.873	-168.423	-0.350	-0.013
-375.858	-14.818	0.282	0.180
-374.844	-110.367	0.040	-0.008
-373.829	-70.201	0.297	0.112
-372.815	60.027	-0.063	0.062
-371.800	200.644	0.171	-0.262
-370.785	-200.000	-0.110	0.000
-369.771	-123.112	-0.108	0.017
-368.756	-27.214	-0.435	0.252
-367.742	-128.043	0.178	-0.025
-366.727	782.028	0.021	0.057
-365.712	-122.183	-0.065	-0.011
-364.698	800.000	-0.070	-0.267
-363.683	170.740	-0.141	0.200
-362.669	24.455	-0.186	-0.153
-361.654	-28.029	-0.225	-0.130
-360.639	-99.773	0.114	-0.028
-359.625	800.000	0.069	0.215
-358.610	25.179	0.126	0.104
-357.596	2.867	0.190	-0.137
-356.581	-54.652	-0.145	-0.065
-355.566	-46.575	0.257	0.125
-354.552	800.000	-0.063	-0.218
-353.537	566.671	0.103	0.248
-352.523	135.610	-0.096	0.125
-351.508	316.659	-0.043	-0.082
-350.493	107.154	0.073	0.086
-349.479	-200.000	0.015	-0.275
-348.464	-135.519	-0.097	-0.011
-347.450	-200.000	-0.028	0.262
-346.435	-56.385	-0.142	-0.063
-345.420	-200.000	0.007	0.106
-344.406	117.226	-0.078	0.096
-343.391	103.998	-0.230	-0.268
-342.377	12.023	0.440	0.336
-341.362	-142.311	0.184	-0.018
-340.348	-13.023	-0.123	0.080
-339.333	-29.007	0.173	-0.098
-338.318	89.798	0.008	-0.009
-337.304	-90.719	0.252	-0.072
-336.289	37.373	0.219	-0.193
-335.275	395.774	-0.023	-0.048
-334.260	222.626	0.270	-0.432
-333.245	-24.555	0.197	0.117
-332.231	-96.642	0.358	0.094
-331.216	800.000	0.069	0.209
-330.202	-200.000	0.009	-0.119
-329.187	-44.342	0.422	-0.210
-328.172	184.330	-0.065	0.096
-327.158	281.271	-0.144	0.256
-326.143	-200.000	0.056	-0.446
-325.129	-200.000	0.004	0.253
-324.114	-124.965	-0.320	-0.049
-323.099	-5.420	0.277	-0.189
-322.085	2.680	0.186	0.134
-321.070	-150.484	-0.152	0.012
-320.056	-200.000	0.022	0.144
-319.041	800.000	0.106	0.376
-318.026	-200.000	0.071	0.328
-317.012	-200.000	0.037	-0.189
-315.997	-200.000	0.019	-0.262
-314.983	747.315	0.071	0.190
-313.968	100.940	0.310	-0.358
-312.953	-96.621	-0.169	0.044
-311.939	4.038	-0.163	0.118
-310.924	-200.000	0.043	0.342
-309.910	100.566	0.067	-0.077
-308.895	3.242	-0.165	-0.120
-307.880	165.958	0.130	-0.182
-306.866	14.040	-0.197	0.152
-305.851	800.000	0.115	0.422
-304.837	800.000	0.051	0.148
-303.822	-154.524	-0.121	0.008
-302.807	122.580	-0.111	0.138
-301.793	-200.000	0.089	0.472
-300.778	-200.000	0.020	-0.177
-299.764	-66.369	-0.090	0.035
-298.749	-24.958	-0.075	-0.044
-297.735	-110.724	0.174	0.036
-296.720	-46.185	-0.057	0.028
-295.705	-18.024	0.065	-0.040
-294.691	-90.243	0.071	0.021
-293.676	157.870	-0.024	0.033
-292.662	-200.000	0.304	-0.001
-291.647	-3.760	-0.089	-0.061
-290.632	-66.057	0.354	0.140
-289.618	345.770	-0.135	-0.264
-288.603	56.612	0.213	-0.206
-287.589	-200.000	-0.012	-0.066
-286.574	139.177	-0.139	-0.182
-285.559	165.914	0.124	0.174
-284.545	202.765	0.120	0.184
-283.530	66.200	0.105	0.105
-282.516	167.341	0.040	-0.057
-281.501	-21.312	-0.162	-0.098
-280.486	-168.915	0.168	0.006
-279.472	-101.292	0.041	-0.010
-278.457	-40.724	-0.224	-0.115
-277.443	59.881	-0.150	0.147
-276.428	-50.536	0.040	0.019
-275.413	4.091	-0.226	0.164
-274.399	80.000	-0.038	0.041
-273.384	-200.000	0.049	0.297
-272.370	247.297	-0.137	-0.230
-271.355	230.201	0.056	-0.091
-270.340	14.149	0.156	-0.120
-269.326	-64.852	0.127	0.051
-268.311	561.311	0.075	-0.181
-267.297	-78.820	-0.192	0.065
-266.282	-25.344	-0.050	0.029
-265.267	310.451	-0.234	-0.435
-264.253	323.184	0.162	-0.307
-263.238	347.054	0.033	-0.065
-262.224	-159.741	0.286	0.016
-261.209	91.240	-0.071	0.079
-260.195	14.389	0.116	-0.090
-259.180	268.443	0.154	-0.267
-258.165	114.005	0.152	0.183
-257.151	-200.000	-0.055	0.258
-256.136	-66.917	-0.404	-0.158
-255.122	158.918	-0.198	-0.273
-254.107	-200.000	0.006	-0.103
-253.092	108.823	0.140	0.166
-252.078	117.254	0.144	-0.175
-251.063	-200.000	0.029	-0.131
-250.049	153.744	0.066	0.090
-249.034	224.231	0.250	0.400
-248.019	134.436	-0.091	-0.117
-247.005	800.000	0.065	-0.193
-245.990	-200.000	-0.007	0.288
-244.976	-163.311	0.232	0.011
-243.961	624.790	-0.134	0.335
-242.946	-32.064	-0.067	0.037
-241.932	-200.000	-0.069	-0.409
-240.917	122.804	-0.255	-0.316
-239.903	578.072	-0.140	0.340
-238.888	82.866	0.146	-0.157
-237.873	-11.142	-0.132	0.086
-236.859	-13.006	-0.204	-0.132
-235.844	12.933	-0.117	-0.090
-234.830	-168.256	-0.194	0.007
-233.815	-200.000	0.019	-0.143
-232.800	-104.829	-0.227	-0.052
-231.786	-76.984	0.245	-0.085
-230.771	-52.438	0.154	0.070
-229.757	-137.192	-0.151	-0.017
-228.742	800.000	-0.089	0.315
-227.727	-200.000	0.009	-0.154
-226.713	-151.315	-0.229	0.017
-225.698	14.170	-0.245	-0.189
-224.684	800.000	-0.004	-0.017
-223.669	98.846	-0.035	-0.040
-222.655	-156.294	-0.342	0.021
-221.640	241.556	0.270	0.447
-220.625	31.125	-0.216	0.183
-219.611	-200.000	-0.056	-0.411
-218.596	-200.000	0.031	0.215
-217.582	-200.000	0.003	0.038
-216.567	-200.000	0.026	0.277
-215.552	195.247	0.141	0.211
-214.538	387.368	-0.070	0.143
-213.523	800.000	-0.080	-0.324
-212.509	143.866	0.098	0.129
-211.494	26.116	0.217	0.179
-210.479	256.604	0.069	-0.117
-209.465	-66.778	0.072	-0.028
-208.450	284.224	0.230	-0.410
-207.436	68.541	0.223	-0.226
-206.421	-39.981	-0.212	-0.109
-205.406	46.012	0.124	0.113
-204.392	5.290	0.058	-0.042
-203.377	39.351	0.089	-0.079
-202.363	-200.000	-0.014	-0.399
-201.348	800.000	0.043	-0.122
-200.333	105.103	0.168	0.196
-199.319	-133.313	0.121	-0.015
-198.304	508.995	0.113	-0.260
-197.290	-45.780	-0.297	-0.145
-196.275	800.000	0.095	0.286
-195.260	-81.788	-0.235	0.076
-194.246	51.528	-0.174	0.163
-193.231	571.211	0.033	0.080
-192.217	-19.803	-0.121	0.074
-191.202	289.411	-0.244	0.437
-190.187	282.229	0.082	0.146
-189.173	-167.268	0.294	0.012
-188.158	-168.217	0.031	-0.001
-187.144	363.117	-0.142	-0.281
-186.129	-200.000	-0.019	0.086
-185.114	-180.652	0.036	-0.001
-184.100	-200.000	0.012	-0.212
-183.085	-200.000	-0.014	0.260
-182.071	800.000	0.062	-0.265
-181.056	-87.605	-0.536	0.160
-180.042	-171.713	-0.211	-0.007
-179.027	-105.546	-0.083	0.019
-178.012	-148.901	-0.447	0.036
-176.998	-152.265	0.073	0.005
-175.983	31.793	-0.038	0.032
-174.969	-15.477	-0.261	0.164
-173.954	-200.000	-0.006	0.210
-172.939	-60.469	-0.150	0.063
-171.925	-200.000	-0.023	0.240
-170.910	-20.058	-0.174	0.106
-169.896	540.932	0.044	0.104
-168.881	622.704	0.032	0.079
-167.866	512.307	0.079	-0.181
-166.852	-169.674	-0.299	0.011
-165.837	-200.000	-0.041	0.491
-164.823	-66.171	-0.112	0.044
-163.808	-200.000	0.049	0.243
-162.793	-87.778	0.373	0.111
-161.779	800.000	-0.131	-0.381
-160.764	745.642	-0.080	0.214
-159.750	-200.000	-0.059	0.347
-158.735	-200.000	-0.022	-0.246
-157.720	750.139	0.056	0.149
-156.706	-157.300	0.171	-0.010
-155.691	121.073	-0.160	-0.197
-154.677	-4.873	-0.294	0.200
-153.662	414.692	-0.116	-0.243
-152.647	-12.777	0.334	0.215
-151.633	-56.596	0.265	-0.116
-150.618	-144.073	0.381	0.035
-149.604	38.067	-0.194	-0.170
-148.589	53.384	0.166	0.157
-147.574	121.602	-0.155	-0.191
-146.560	-75.986	-0.335	-0.117
-145.545	-38.895	-0.109	0.057
-144.531	-200.000	0.052	-0.307
-143.516	-71.704	0.057	-0.021
-142.502	-8.648	0.198	0.131
-141.487	102.800	-0.181	-0.209
-140.472	598.111	-0.174	-0.426
-139.458	-71.044	-0.516	0.191
-138.443	-144.111	0.262	0.024
-137.429	-40.538	-0.403	-0.206
-136.414	-168.518	0.316	0.012
-135.399	-183.389	0.572	-0.010
-134.385	-14.656	-0.163	0.104
-133.370	7.347	0.081	0.060
-132.356	-81.962	0.421	0.136
-131.341	45.854	-0.143	-0.130
-130.326	171.999	-0.113	0.160
-129.312	-0.019	-0.170	0.119
-128.297	33.163	0.359	0.307
-127.283	-34.250	-0.153	0.083
-126.268	220.925	-0.190	0.300
-125.253	800.000	0.061	0.225
-124.239	-200.000	0.026	0.223
-123.224	-44.004	0.140	-0.070
-122.210	-100.532	0.284	-0.069
-121.195	35.568	0.182	0.158
