DTS Sentinel unit serial number:	SN413079Multiplexer serial number:	ORYXHardware model number:	OX4-SRSoftware version number:	ORYX F/W v4.00 Oryx Data Collector v3.7.2.0data status	okinstallation	princeton_trtdifferential loss correction	single-endedforward channel	channel 1reverse channel	N/Adate	2019/09/11time	09:00:11forward acquisition time	60.00reverse acquisition time	0.00gamma	496.2192k internal	0.2309k external	0.2309temperature offset calibration	0.9956default loss term (dB/km)	0.3790temperature slope calibration	1.0000multiplexer offset coefficient	1.0000multiplexer slope coefficient	1.0000fibre end	0.00T internal ref (°C)	34.06T ext. ref 1 (°C)	0.11T ext. ref 2 (°C)	30.56length (m)	temperature (°C)	Stokes	anti-Stokes-747.200	-129.935	0.600	0.083
-746.185	96.048	0.056	-0.065
-745.171	-91.514	0.329	0.095
-744.156	-31.729	-0.215	-0.123
-743.142	800.000	-0.086	0.274
-742.127	466.625	0.039	0.089
-741.112	410.762	0.104	0.225
-740.098	-200.000	-0.039	0.380
-739.083	-40.783	0.144	-0.076
-738.069	-200.000	-0.003	0.012
-737.054	-81.895	-0.057	-0.019
-736.039	-33.020	-0.121	0.068
-735.025	-164.793	0.492	0.022
-734.010	-200.000	-0.078	0.350
-732.996	-32.180	-0.509	0.289
-731.981	-200.000	-0.064	-0.289
-730.966	-74.381	0.096	0.035
-729.952	-200.000	-0.011	-0.178
-728.937	-84.150	-0.167	0.054
-727.923	125.443	-0.368	-0.471
-726.908	320.193	0.212	-0.408
-725.894	800.000	-0.030	-0.107
-724.879	-50.929	0.150	-0.071
-723.864	-200.000	0.028	0.422
-722.850	67.561	-0.099	0.103
-721.835	-109.912	-0.308	-0.066
-720.821	-133.441	-0.082	0.010
-719.806	-157.828	-0.442	-0.027
-718.791	-200.000	-0.008	-0.262
-717.777	423.005	-0.033	0.071
-716.762	-116.478	0.264	-0.049
-715.748	-29.244	-0.280	0.163
-714.733	61.555	-0.084	0.085
-713.718	-166.200	0.198	-0.009
-712.704	-38.585	-0.118	-0.063
-711.689	9.187	-0.201	0.154
-710.675	-95.241	-0.471	-0.129
-709.660	117.620	0.075	0.094
-708.645	-98.423	-0.372	-0.097
-707.631	-157.166	-0.121	-0.007
-706.616	-70.026	0.567	0.219
-705.602	-139.460	-0.024	0.003
-704.587	-200.000	0.003	0.103
-703.572	69.561	0.284	-0.297
-702.558	-23.036	-0.250	0.153
-701.543	-75.056	0.132	-0.048
-700.529	800.000	-0.072	0.320
-699.514	-21.437	-0.138	-0.085
-698.499	9.244	-0.299	0.229
-697.485	-120.369	-0.374	0.065
-696.470	-94.680	0.168	-0.046
-695.456	22.173	-0.132	-0.109
-694.441	25.044	0.063	0.053
-693.426	-177.271	0.345	-0.009
-692.412	-200.000	-0.004	-0.075
-691.397	50.694	-0.264	-0.253
-690.383	154.169	0.093	-0.129
-689.368	-73.303	0.064	0.024
-688.354	800.000	-0.058	0.169
-687.339	256.868	0.117	0.203
-686.324	-200.000	-0.143	0.000
-685.310	-97.125	0.024	0.006
-684.295	398.771	0.098	-0.208
-683.281	-141.947	0.287	-0.029
-682.266	-92.322	-0.314	-0.090
-681.251	225.533	-0.067	0.110
-680.237	-11.584	0.143	0.095
-679.222	800.000	0.030	-0.085
-678.208	50.992	0.103	-0.099
-677.193	-200.000	0.014	0.174
-676.178	-191.755	0.674	0.007
-675.164	-151.259	0.199	0.015
-674.149	20.948	0.058	-0.048
-673.135	231.788	-0.189	0.314
-672.120	-200.000	0.029	-0.271
-671.105	-17.213	-0.284	0.181
-670.091	-200.000	-0.012	0.105
-669.076	218.252	0.083	0.134
-668.062	-30.814	-0.304	0.174
-667.047	-200.000	0.008	-0.186
-666.032	-168.357	-0.159	-0.006
-665.018	-105.284	-0.227	-0.052
-664.003	46.691	0.195	-0.184
-662.989	-101.196	0.081	0.020
-661.974	800.000	0.105	-0.348
-660.959	569.702	-0.103	0.253
-659.945	-101.028	-0.276	-0.069
-658.930	-7.264	0.086	0.059
-657.916	-155.125	-0.178	-0.012
-656.901	532.499	0.159	0.381
-655.886	109.591	0.223	-0.271
-654.872	-73.066	-0.081	0.030
-653.857	-9.212	-0.058	-0.039
-652.843	-200.000	0.011	-0.070
-651.828	44.221	0.189	0.175
-650.814	-119.162	0.301	-0.053
-649.799	10.725	0.120	0.092
-648.784	-71.100	-0.083	-0.032
-647.770	-33.777	-0.075	-0.042
-646.755	-132.978	-0.212	0.027
-645.741	24.300	0.023	-0.019
-644.726	65.989	0.375	0.384
-643.711	800.000	0.089	-0.369
-642.697	-102.799	-0.316	0.076
-641.682	-200.000	-0.019	0.157
-640.668	-94.847	0.136	0.037
-639.653	772.381	0.091	0.251
-638.638	567.765	-0.098	-0.240
-637.624	-159.411	0.107	-0.006
-636.609	237.411	0.110	-0.184
-635.595	-92.510	0.088	0.025
-634.580	374.168	-0.155	0.318
-633.565	-75.836	0.475	-0.170
-632.551	-86.622	-0.245	-0.076
-631.536	40.678	-0.234	-0.214
-630.522	-95.345	0.065	-0.018
-629.507	44.299	-0.049	0.045
-628.492	53.865	-0.086	0.083
-627.478	-112.849	0.122	-0.024
-626.463	800.000	-0.105	0.305
-625.449	-120.321	-0.285	0.049
-624.434	-149.847	-0.076	0.006
-623.419	-200.000	0.031	-0.345
-622.405	800.000	-0.064	-0.195
-621.390	219.339	0.149	-0.241
-620.376	74.740	-0.134	0.142
-619.361	154.758	0.152	-0.212
-618.346	-40.286	-0.124	0.065
-617.332	117.446	0.143	-0.177
-616.317	-200.000	-0.077	-0.391
-615.303	51.647	0.281	0.270
-614.288	-66.307	-0.048	0.019
-613.273	17.066	0.133	0.106
-612.259	-200.000	0.005	-0.142
-611.244	800.000	0.070	0.244
-610.230	-23.653	-0.241	0.146
-609.215	-91.441	-0.326	-0.094
-608.201	111.568	0.132	-0.161
-607.186	-200.000	-0.028	0.619
-606.171	-154.893	0.288	-0.019
-605.157	800.000	0.093	0.338
-604.142	22.418	0.059	0.049
-603.128	274.712	-0.115	-0.206
-602.113	-96.299	0.156	0.042
-601.098	288.359	-0.102	-0.187
-600.084	-200.000	0.005	0.154
-599.069	669.006	-0.071	-0.186
-598.055	-164.762	0.226	-0.010
-597.040	259.284	0.109	0.191
-596.025	10.640	0.461	-0.355
-595.011	-0.208	0.306	0.220
-593.996	-105.569	-0.428	0.098
-592.982	800.000	0.067	0.290
-591.967	86.369	-0.129	-0.144
-590.952	34.270	-0.212	-0.187
-589.938	-107.818	0.304	-0.067
-588.923	17.747	-0.184	0.148
-587.909	791.311	-0.137	-0.380
-586.894	800.000	-0.108	-0.397
-585.879	85.436	-0.095	0.106
-584.865	-200.000	0.015	0.170
-583.850	-148.064	0.141	-0.012
-582.836	-79.882	0.075	0.025
-581.821	-20.448	-0.147	0.091
-580.806	-200.000	-0.032	0.159
-579.792	800.000	-0.103	0.329
-578.777	-142.740	0.314	0.031
-577.763	-70.844	0.310	0.118
-576.748	176.580	-0.139	-0.204
-575.733	-113.924	-0.276	-0.054
-574.719	800.000	-0.071	-0.202
-573.704	-135.613	-0.590	0.071
-572.690	76.489	-0.159	-0.170
-571.675	-43.461	0.065	0.033
-570.661	136.822	0.080	0.105
-569.646	-139.342	0.117	-0.013
-568.631	-200.000	0.042	0.197
-567.617	131.251	0.281	0.365
-566.602	-200.000	-0.003	-0.034
-565.588	800.000	0.059	-0.214
-564.573	34.246	-0.051	0.045
-563.558	-134.518	0.061	-0.007
-562.544	-9.088	-0.107	-0.072
-561.529	-200.000	0.018	0.164
-560.515	93.738	0.137	0.156
-559.500	71.053	-0.112	-0.117
-558.485	171.753	-0.083	0.120
-557.471	-52.943	0.202	-0.094
-556.456	280.227	-0.299	-0.538
-555.442	387.907	0.149	-0.312
-554.427	19.684	-0.180	-0.146
-553.412	369.926	0.100	-0.203
-552.398	-109.238	-0.216	-0.046
-551.383	-200.000	0.004	-0.018
-550.369	696.766	0.137	-0.362
-549.354	-200.000	-0.060	0.424
-548.339	-200.000	-0.017	0.187
-547.325	-114.965	-0.269	-0.052
-546.310	-62.330	0.110	0.046
-545.296	-130.585	-0.170	-0.023
-544.281	636.241	0.119	-0.305
-543.266	241.562	0.170	-0.287
-542.252	800.000	-0.087	-0.323
-541.237	-167.168	0.262	-0.011
-540.223	-12.975	-0.136	-0.089
-539.208	778.455	-0.075	0.206
-538.193	492.744	0.029	0.068
-537.179	-63.327	0.191	-0.079
-536.164	-29.337	0.249	-0.143
-535.150	-136.390	0.154	0.018
-534.135	-156.928	0.258	0.016
-533.121	-89.091	-0.443	-0.132
-532.106	-200.000	0.013	0.129
-531.091	800.000	-0.086	0.356
-530.077	44.898	0.218	0.202
-529.062	30.095	0.109	0.094
-528.048	-23.116	-0.166	0.101
-527.033	-200.000	0.072	0.453
-526.018	272.150	0.034	0.061
-525.004	800.000	-0.106	0.364
-523.989	-22.660	-0.181	0.110
-522.975	-200.000	-0.009	0.047
-521.960	108.283	0.139	0.167
-520.945	800.000	0.046	0.141
-519.931	-115.126	-0.059	-0.011
-518.916	800.000	-0.008	0.028
-517.902	-200.000	-0.064	0.311
-516.887	-68.125	0.154	-0.060
-515.872	-96.459	0.096	0.026
-514.858	286.680	-0.092	0.167
-513.843	-100.983	0.133	0.033
-512.829	338.387	0.006	-0.012
-511.814	-200.000	-0.013	0.171
-510.799	159.310	0.131	0.184
-509.785	173.264	-0.175	0.255
-508.770	-143.596	-0.257	0.025
-507.756	88.700	0.099	-0.111
-506.741	241.706	-0.191	0.322
-505.726	-134.138	0.026	-0.003
-504.712	-89.645	0.311	0.092
-503.697	-88.362	0.208	-0.063
-502.683	-88.313	-0.192	0.058
-501.668	181.618	-0.024	0.035
-500.653	-101.886	0.379	0.092
-499.639	800.000	0.065	0.263
-498.624	-78.389	-0.369	-0.127
-497.610	10.985	-0.251	-0.193
-496.595	-51.731	-0.080	-0.037
-495.581	-138.690	-0.129	-0.014
-494.566	-141.932	0.276	0.028
-493.551	123.518	0.117	0.147
-492.537	13.290	0.083	-0.065
-491.522	295.947	-0.038	-0.070
-490.508	800.000	0.048	0.150
-489.493	22.501	0.109	0.089
-488.478	-200.000	0.018	-0.210
-487.464	772.511	0.034	-0.094
-486.449	48.118	-0.073	0.069
-485.435	9.530	-0.104	0.079
-484.420	144.582	-0.114	0.153
-483.405	800.000	0.046	-0.171
-482.391	155.114	0.102	-0.141
-481.376	78.143	-0.079	-0.084
-480.362	-200.000	0.004	-0.145
-479.347	188.070	0.194	0.292
-478.332	-151.713	-0.192	0.014
-477.318	800.000	0.027	0.081
-476.303	153.943	-0.091	0.126
-475.289	11.655	0.246	-0.190
-474.274	800.000	-0.056	-0.197
-473.259	-200.000	0.069	0.312
-472.245	42.251	-0.162	-0.148
-471.230	-90.847	0.092	0.027
-470.216	101.856	-0.108	0.127
-469.201	-52.417	0.323	0.150
-468.186	306.129	-0.116	-0.217
-467.172	121.005	0.060	0.075
-466.157	84.361	-0.102	-0.113
-465.143	-200.000	0.039	-0.336
-464.128	179.342	0.066	-0.097
-463.113	800.000	0.050	0.144
-462.099	-200.000	0.000	-0.016
-461.084	575.218	-0.113	0.278
-460.070	-200.000	-0.006	-0.277
-459.055	-44.856	-0.358	0.179
-458.040	-20.551	0.257	-0.159
-457.026	-7.351	0.043	0.030
-456.011	-200.000	0.005	-0.128
-454.997	18.130	0.132	-0.105
-453.982	21.787	-0.183	0.150
-452.968	-41.319	-0.132	-0.068
-451.953	75.883	-0.272	-0.288
-450.938	-96.123	-0.362	0.097
-449.924	-3.260	-0.340	0.238
-448.909	-124.440	0.200	0.031
-447.895	356.884	0.124	-0.248
-446.880	-148.324	0.213	-0.018
-445.865	635.320	-0.081	-0.207
-444.851	24.621	-0.081	-0.067
-443.836	-200.000	-0.009	0.321
-442.822	205.559	-0.159	0.248
-441.807	136.261	-0.129	0.168
-440.792	-67.326	0.090	0.036
-439.778	-200.000	-0.036	0.191
-438.763	171.170	-0.098	-0.141
-437.749	71.961	0.083	0.087
-436.734	800.000	0.048	0.189
-435.719	800.000	0.073	-0.235
-434.705	-200.000	0.044	-0.393
-433.690	-65.732	0.159	0.064
-432.676	16.164	-0.155	-0.123
-431.661	-78.431	0.038	0.013
-430.646	800.000	-0.052	-0.165
-429.632	-200.000	0.006	0.264
-428.617	-84.727	-0.232	-0.073
-427.603	-200.000	0.006	0.110
-426.588	-172.779	-0.248	0.008
-425.573	-152.460	0.236	-0.017
-424.559	-3.590	0.237	0.166
-423.544	-26.112	0.192	0.113
-422.530	-185.263	-0.118	0.002
-421.515	94.841	0.112	0.128
-420.500	-152.642	-0.277	0.020
-419.486	727.282	0.093	-0.249
-418.471	-114.925	0.076	0.014
-417.457	125.529	-0.062	0.079
-416.442	-163.397	0.443	-0.021
-415.428	49.191	0.226	0.213
-414.413	-200.000	-0.038	-0.181
-413.398	-200.000	-0.003	0.064
-412.384	800.000	0.107	0.333
-411.369	-200.000	-0.047	0.208
-410.355	86.554	0.077	-0.085
-409.340	50.671	-0.168	-0.160
-408.325	180.324	-0.035	-0.051
-407.311	297.480	-0.099	-0.182
-406.296	707.624	-0.088	-0.232
-405.282	-46.417	0.351	-0.173
-404.267	-200.000	0.010	-0.335
-403.252	7.940	0.075	-0.056
-402.238	58.386	-0.092	-0.090
-401.223	133.893	-0.133	-0.172
-400.209	203.454	-0.134	-0.208
-399.194	34.423	0.164	0.144
-398.179	468.029	-0.070	0.158
-397.165	435.552	-0.057	-0.124
-396.150	299.120	0.077	0.142
-395.136	214.717	-0.223	-0.353
-394.121	-200.000	-0.029	-0.193
-393.106	256.382	0.039	-0.067
-392.092	49.006	0.119	-0.112
-391.077	-87.861	-0.403	0.122
-390.063	800.000	0.072	0.295
-389.048	60.617	0.153	-0.152
-388.033	-200.000	0.003	-0.172
-387.019	470.721	-0.135	-0.305
-386.004	47.244	0.158	0.147
-384.990	-88.993	-0.318	-0.094
-383.975	-103.988	-0.057	0.013
-382.960	-200.000	0.031	0.384
-381.946	-200.000	0.003	-0.134
-380.931	-28.599	0.371	-0.214
-379.917	-200.000	-0.042	0.252
-378.902	166.410	-0.092	0.131
-377.888	-104.331	0.144	0.033
-376.873	-44.374	-0.170	0.085
-375.858	197.292	0.117	-0.179
-374.844	-189.946	0.128	0.001
-373.829	65.952	0.092	-0.094
-372.815	-107.659	0.292	0.064
-371.800	61.580	-0.131	-0.130
-370.785	-200.000	-0.024	0.108
-369.771	-50.899	0.075	-0.035
-368.756	-118.433	-0.160	0.028
-367.742	-9.924	-0.189	-0.126
-366.727	117.515	0.105	-0.130
-365.712	8.445	-0.390	0.293
-364.698	88.043	0.033	-0.036
-363.683	25.652	-0.217	0.181
-362.669	-13.393	-0.048	0.031
-361.654	186.359	-0.147	0.219
-360.639	35.655	-0.057	-0.051
-359.625	-196.435	-0.144	-0.001
-358.610	-97.353	-0.276	-0.072
-357.596	-200.000	-0.084	0.435
-356.581	-200.000	0.300	-0.001
-355.566	334.644	-0.149	0.289
-354.552	-200.000	-0.014	0.061
-353.537	457.339	0.122	-0.271
-352.523	-91.879	0.053	-0.015
-351.508	-67.581	0.186	0.073
-350.493	-200.000	-0.018	0.137
-349.479	1.090	-0.269	-0.193
-348.464	-158.185	-0.223	0.013
-347.450	149.887	-0.154	-0.208
-346.435	11.740	-0.054	-0.042
-345.420	800.000	0.102	-0.362
-344.406	-29.383	0.250	-0.143
-343.391	101.947	-0.331	-0.386
-342.377	8.189	0.266	-0.200
-341.362	149.931	-0.199	0.270
-340.348	-25.780	0.209	0.123
-339.333	560.446	0.152	-0.366
-338.318	546.364	0.067	0.160
-337.304	219.980	0.148	0.237
-336.289	-84.202	-0.163	0.052
-335.275	-55.233	0.206	-0.093
-334.260	-49.167	0.315	0.150
-333.245	290.939	-0.106	-0.193
-332.231	223.268	0.121	-0.195
-331.216	329.234	-0.096	-0.184
-330.202	-17.305	0.107	0.067
-329.187	99.426	0.220	0.254
-328.172	-59.435	-0.124	0.053
-327.158	317.970	0.046	-0.086
-326.143	280.314	-0.125	-0.223
-325.129	-200.000	0.027	-0.120
-324.114	-153.375	-0.106	0.007
-323.099	411.246	-0.057	-0.122
-322.085	-137.204	-0.416	0.047
-321.070	177.702	-0.246	0.358
-320.056	722.947	0.081	0.215
-319.041	800.000	-0.061	0.202
-318.026	202.037	-0.132	-0.204
-317.012	-200.000	-0.011	0.567
-315.997	-63.423	0.089	-0.037
-314.983	-34.637	-0.239	-0.131
-313.968	586.819	0.081	-0.200
-312.953	181.119	-0.084	0.124
-311.939	-139.195	-0.280	-0.030
-310.924	177.166	-0.093	-0.135
-309.910	-72.839	-0.191	0.070
-308.895	24.448	-0.142	0.117
-307.880	5.082	0.217	-0.160
-306.866	161.255	-0.196	0.274
-305.851	471.096	0.208	0.467
-304.837	-81.637	0.129	-0.042
-303.822	-151.398	0.203	0.015
-302.807	-111.767	0.167	0.034
-301.793	-180.261	0.357	-0.007
-300.778	800.000	0.122	0.344
-299.764	-67.547	-0.297	-0.116
-298.749	53.175	0.110	-0.105
-297.735	-200.000	-0.006	0.066
-296.720	152.120	-0.083	-0.113
-295.705	-161.613	0.498	0.025
-294.691	-16.625	-0.166	-0.105
-293.676	-65.224	-0.103	-0.041
-292.662	86.374	-0.036	0.040
-291.647	-200.000	0.017	-0.150
-290.632	-55.932	0.220	0.098
-289.618	404.854	-0.041	-0.085
-288.603	-160.619	-0.049	0.003
-287.589	800.000	-0.052	-0.168
-286.574	157.504	-0.106	-0.147
-285.559	-122.088	0.157	0.026
-284.545	800.000	-0.062	-0.192
-283.530	-71.889	0.195	-0.072
-282.516	-128.891	-0.173	-0.024
-281.501	-200.000	0.047	0.258
-280.486	299.138	0.027	-0.049
-279.472	-110.468	-0.450	0.093
-278.457	-95.692	-0.324	0.086
-277.443	71.078	0.251	-0.259
-276.428	-200.000	0.029	-0.334
-275.413	-45.801	0.342	0.169
-274.399	-54.230	-0.232	0.105
-273.384	451.575	0.119	0.262
-272.370	-28.233	-0.060	-0.034
-271.355	-176.831	0.424	-0.011
-270.340	63.199	0.086	-0.086
-269.326	350.937	-0.101	0.198
-268.311	96.567	0.126	-0.144
-267.297	-141.512	0.157	-0.016
-266.282	204.583	0.164	-0.254
-265.267	117.977	0.103	0.127
-264.253	-113.068	-0.206	-0.040
-263.238	-2.040	0.067	-0.047
-262.224	136.834	0.119	0.154
-261.209	6.459	0.286	0.212
-260.195	213.317	-0.140	0.220
-259.180	110.347	0.148	-0.177
-258.165	-149.992	0.163	0.013
-257.151	-97.920	-0.303	-0.078
-256.136	-31.897	-0.074	-0.041
-255.122	231.640	0.104	0.170
-254.107	-200.000	-0.043	0.316
-253.092	-200.000	0.029	-0.228
-252.078	260.614	0.111	-0.191
-251.063	6.260	0.193	-0.143
-250.049	-101.183	0.323	-0.079
-249.034	145.197	-0.076	0.101
-248.019	-63.752	-0.155	0.063
-247.005	-45.463	-0.244	-0.120
-245.990	-200.000	-0.052	0.240
-244.976	-77.760	0.174	-0.060
-243.961	-184.827	0.163	0.003
-242.946	-29.820	0.230	-0.131
-241.932	-200.000	0.007	0.144
-240.917	-200.000	0.004	0.298
-239.903	-54.336	-0.442	-0.200
-238.888	132.084	-0.138	-0.177
-237.873	-168.433	0.352	-0.013
-236.859	162.855	0.223	-0.312
-235.844	-200.000	0.004	0.164
-234.830	-200.000	0.043	0.243
-233.815	-46.166	0.059	-0.029
-232.800	-200.000	0.000	0.067
-231.786	800.000	-0.093	0.277
-230.771	-105.908	-0.192	0.043
-229.757	293.516	0.069	-0.125
-228.742	-108.221	0.220	-0.047
-227.727	-200.000	-0.019	0.104
-226.713	800.000	0.087	0.307
-225.698	-59.987	0.202	0.086
-224.684	210.279	-0.132	0.206
-223.669	164.219	-0.203	0.284
-222.655	41.255	-0.265	-0.238
-221.640	-200.000	-0.013	-0.320
-220.625	297.524	-0.162	-0.296
-219.611	20.200	0.044	-0.035
-218.596	714.214	-0.028	0.074
-217.582	50.950	-0.064	-0.060
-216.567	-200.000	-0.013	-0.070
-215.552	207.875	-0.175	-0.271
-214.538	133.227	0.145	-0.186
-213.523	-19.066	0.198	-0.123
-212.509	800.000	0.021	-0.079
-211.494	-26.687	-0.464	-0.270
-210.479	-142.633	0.122	-0.012
-209.465	112.725	0.174	-0.210
-208.450	-9.400	-0.099	0.066
-207.436	-85.956	0.272	-0.084
-206.421	-70.150	-0.117	-0.044
-205.406	-200.000	0.012	-0.086
-204.392	-200.000	-0.042	-0.187
-203.377	33.016	0.229	-0.198
-202.363	140.178	0.204	0.268
-201.348	800.000	0.065	0.234
-200.333	140.217	-0.093	-0.122
-199.319	800.000	0.122	0.462
-198.304	-151.289	-0.239	0.018
-197.290	-123.253	-0.238	-0.038
-196.275	-200.000	0.000	-0.158
-195.260	53.728	0.106	-0.101
-194.246	94.880	0.100	-0.113
-193.231	-200.000	0.006	-0.123
-192.217	-169.662	-0.213	0.008
-191.202	-200.000	0.045	0.379
-190.187	205.675	0.085	0.131
-189.173	-3.888	0.094	-0.065
-188.158	207.722	0.113	-0.175
-187.144	-52.378	0.080	0.037
-186.129	307.362	-0.058	0.107
-185.114	170.239	0.096	0.137
-184.100	-179.261	-0.224	-0.005
-183.085	-107.163	0.155	0.034
-182.071	-200.000	-0.035	0.363
-181.056	-25.264	-0.134	0.079
-180.042	-137.161	-0.384	-0.044
-179.027	472.022	0.036	-0.081
-178.012	111.992	-0.188	-0.225
-176.998	-53.010	-0.085	0.039
-175.983	-109.958	-0.288	0.060
-174.969	744.923	-0.092	0.246
-173.954	-184.292	-0.106	0.002
-172.939	-106.980	0.379	-0.083
-171.925	-181.852	-0.112	-0.002
-170.910	-78.770	-0.016	-0.006
-169.896	71.396	0.171	0.177
-168.881	-127.470	-0.362	-0.052
-167.866	-144.526	0.296	-0.027
-166.852	36.745	-0.120	0.105
-165.837	-30.206	-0.157	-0.089
-164.823	-46.380	0.439	-0.214
-163.808	-32.396	0.067	0.037
-162.793	31.945	-0.155	-0.132
-161.779	623.750	-0.221	0.554
-160.764	-144.666	0.139	-0.013
-159.750	354.792	-0.067	-0.133
-158.735	-44.128	0.101	0.051
-157.720	800.000	0.095	-0.322
-156.706	-200.000	-0.003	-0.344
-155.691	57.098	-0.062	0.060
-154.677	-102.576	-0.152	-0.036
-153.662	201.404	0.059	-0.090
-152.647	-97.208	0.180	-0.047
-151.633	-200.000	-0.098	-0.618
-150.618	-110.973	0.164	0.033
-149.604	-200.000	0.077	0.363
-148.589	155.030	0.112	0.153
-147.574	800.000	0.053	0.157
-146.560	-44.806	-0.252	0.125
-145.545	55.158	0.068	-0.065
-144.531	-142.976	-0.123	0.012
-143.516	-35.325	-0.291	-0.157
-142.502	450.605	-0.015	0.033
-141.487	-48.333	-0.094	0.045
-140.472	6.007	-0.166	-0.122
-139.458	99.960	0.336	0.386
-138.443	800.000	-0.005	0.022
-137.429	127.344	0.099	-0.125
-136.414	94.118	-0.231	-0.260
-135.399	320.988	0.117	-0.221
-134.385	800.000	0.030	0.094
-133.370	282.785	0.178	-0.317
-132.356	179.971	-0.058	0.084
-131.341	394.599	0.065	-0.135
-130.326	72.108	0.080	0.082
-129.312	-36.265	0.231	-0.124
-128.297	141.621	-0.224	0.294
-127.283	138.646	0.142	0.185
-126.268	107.322	-0.091	-0.107
-125.253	-110.708	0.233	0.048
-124.239	-2.263	0.137	0.095
-123.224	-200.000	0.022	0.177
-122.210	800.000	0.096	-0.291
-121.195	656.637	0.060	0.154
