DTS Sentinel unit serial number:	SN413079Multiplexer serial number:	ORYXHardware model number:	OX4-SRSoftware version number:	ORYX F/W v4.00 Oryx Data Collector v3.7.2.0data status	okinstallation	princeton_trtdifferential loss correction	single-endedforward channel	channel 1reverse channel	N/Adate	2019/09/10time	22:40:11forward acquisition time	60.00reverse acquisition time	0.00gamma	496.2192k internal	0.2332k external	0.2332temperature offset calibration	0.9937default loss term (dB/km)	0.3790temperature slope calibration	1.0000multiplexer offset coefficient	1.0000multiplexer slope coefficient	1.0000fibre end	0.00T internal ref (°C)	30.25T ext. ref 1 (°C)	-0.32T ext. ref 2 (°C)	23.74length (m)	temperature (°C)	Stokes	anti-Stokes-747.200	-200.000	0.025	0.214
-746.185	-20.981	-0.363	0.223
-745.171	-113.982	0.202	0.039
-744.156	57.202	0.223	0.219
-743.142	-115.515	0.286	0.054
-742.127	54.402	-0.194	0.188
-741.112	-18.633	-0.132	0.083
-740.098	-189.559	-0.076	0.001
-739.083	53.576	0.136	0.131
-738.069	146.667	-0.117	0.158
-737.054	-22.879	-0.106	0.064
-736.039	-200.000	-0.002	0.239
-735.025	-83.769	0.179	0.057
-734.010	-113.230	0.112	0.022
-732.996	-80.257	-0.217	-0.073
-731.981	-200.000	-0.005	0.080
-730.966	-52.794	0.159	0.074
-729.952	4.392	-0.085	0.063
-728.937	112.036	0.299	-0.363
-727.923	124.001	-0.130	-0.164
-726.908	800.000	0.032	0.114
-725.894	66.263	-0.096	0.098
-724.879	-71.601	0.186	0.070
-723.864	389.554	-0.130	0.272
-722.850	-200.000	-0.034	-0.230
-721.835	15.975	-0.179	-0.142
-720.821	-18.022	-0.044	-0.028
-719.806	-200.000	-0.036	-0.204
-718.791	-123.228	-0.247	0.040
-717.777	-105.873	0.261	0.059
-716.762	-160.486	0.216	-0.012
-715.748	349.449	0.030	-0.060
-714.733	800.000	-0.098	-0.354
-713.718	156.001	-0.056	-0.078
-712.704	-152.885	0.172	-0.012
-711.689	-88.906	0.128	0.038
-710.675	-200.000	0.049	0.236
-709.660	544.557	0.147	-0.353
-708.645	-200.000	-0.004	0.385
-707.631	800.000	0.156	0.455
-706.616	-200.000	0.089	-0.439
-705.602	109.015	0.074	-0.089
-704.587	-36.319	0.246	0.133
-703.572	213.803	-0.097	-0.154
-702.558	-68.581	0.265	-0.103
-701.543	-35.274	-0.269	0.147
-700.529	-105.652	0.294	-0.067
-699.514	800.000	-0.062	-0.261
-698.499	438.771	0.181	-0.396
-697.485	139.025	-0.233	0.307
-696.470	28.160	-0.057	0.049
-695.456	-29.393	0.251	0.144
-694.441	-108.528	-0.062	0.013
-693.426	12.104	-0.273	0.211
-692.412	-27.517	0.154	0.090
-691.397	-104.257	-0.215	-0.050
-690.383	108.920	-0.084	-0.101
-689.368	181.889	0.071	0.105
-688.354	-200.000	-0.006	-0.333
-687.339	-87.822	0.189	-0.057
-686.324	82.043	-0.201	-0.219
-685.310	187.181	0.149	-0.223
-684.295	-200.000	0.027	-0.361
-683.281	128.592	0.157	-0.201
-682.266	59.182	-0.071	0.070
-681.251	83.778	-0.270	-0.295
-680.237	-158.015	0.422	0.025
-679.222	72.411	0.066	-0.069
-678.208	-10.184	-0.203	0.135
-677.193	170.376	0.163	-0.234
-676.178	-52.017	0.352	0.164
-675.164	378.659	0.097	-0.199
-674.149	374.189	-0.037	-0.075
-673.135	191.065	-0.132	-0.199
-672.120	-200.000	0.007	0.087
-671.105	710.439	-0.117	0.310
-670.091	-200.000	-0.072	0.320
-669.076	55.559	-0.142	0.138
-668.062	-200.000	0.029	0.242
-667.047	236.299	0.196	-0.326
-666.032	-200.000	-0.058	-0.268
-665.018	-57.202	0.217	-0.096
-664.003	-53.381	-0.117	-0.054
-662.989	-200.000	0.011	0.067
-661.974	238.082	-0.130	-0.216
-660.959	-154.494	0.401	-0.027
-659.945	-81.700	-0.289	0.095
-658.930	-200.000	-0.046	-0.226
-657.916	-200.000	-0.031	-0.300
-656.901	59.980	0.229	-0.227
-655.886	-134.933	0.270	0.033
-654.872	-200.000	0.004	0.184
-653.857	-18.136	0.350	0.219
-652.843	800.000	0.092	-0.317
-651.828	-148.379	0.159	-0.013
-650.814	-200.000	-0.005	-0.052
-649.799	-200.000	0.024	-0.274
-648.784	-154.719	-0.076	0.005
-647.770	-27.842	-0.146	-0.085
-646.755	800.000	-0.074	0.254
-645.741	207.385	-0.132	0.207
-644.726	27.926	0.092	0.077
-643.711	-164.867	-0.011	-0.000
-642.697	250.925	0.227	0.387
-641.682	800.000	0.051	0.163
-640.668	-82.399	0.196	-0.064
-639.653	-42.719	-0.346	0.176
-638.638	142.094	-0.244	0.325
-637.624	-84.954	0.358	-0.113
-636.609	240.739	-0.042	-0.071
-635.595	48.120	0.146	-0.137
-634.580	-200.000	-0.048	0.224
-633.565	106.075	-0.115	0.137
-632.551	-79.459	0.133	0.045
-631.536	-50.412	-0.164	-0.078
-630.522	-15.928	-0.454	-0.289
-629.507	-180.740	0.121	0.002
-628.492	-200.000	-0.024	-0.238
-627.478	-128.316	-0.153	-0.022
-626.463	-200.000	-0.007	0.132
-625.449	-105.680	-0.284	-0.064
-624.434	-85.290	0.265	-0.083
-623.419	-200.000	0.004	-0.378
-622.405	800.000	-0.092	-0.304
-621.390	-176.020	-0.284	0.008
-620.376	800.000	-0.013	-0.040
-619.361	407.404	0.093	0.197
-618.346	800.000	-0.045	-0.125
-617.332	-64.220	0.165	-0.067
-616.317	-141.196	0.192	-0.020
-615.303	-200.000	0.046	0.291
-614.288	-200.000	0.001	0.268
-613.273	25.554	-0.179	-0.149
-612.259	800.000	-0.078	-0.217
-611.244	-109.877	-0.260	0.055
-610.230	800.000	-0.086	-0.345
-609.215	-105.075	-0.435	-0.100
-608.201	-200.000	0.030	0.255
-607.186	-36.850	-0.197	0.106
-606.171	-119.871	0.268	-0.046
-605.157	200.653	-0.047	-0.073
-604.142	-72.122	-0.182	-0.067
-603.128	-74.124	0.119	0.043
-602.113	292.390	-0.236	0.430
-601.098	800.000	0.064	0.206
-600.084	26.946	-0.128	0.107
-599.069	800.000	-0.098	-0.293
-598.055	516.747	-0.040	-0.093
-597.040	385.189	0.055	-0.113
-596.025	-10.240	0.089	-0.059
-595.011	662.003	0.023	-0.060
-593.996	79.713	-0.252	-0.271
-592.982	800.000	-0.032	-0.127
-591.967	-169.378	-0.198	-0.007
-590.952	800.000	-0.043	-0.154
-589.938	86.668	0.131	-0.145
-588.923	-69.344	0.132	-0.051
-587.909	-200.000	0.028	-0.176
-586.894	-54.020	0.085	0.039
-585.879	800.000	-0.072	0.289
-584.865	135.784	-0.100	0.130
-583.850	100.965	-0.168	0.196
-582.836	219.298	-0.068	-0.109
-581.821	-95.001	-0.131	-0.035
-580.806	-200.000	0.062	-0.326
-579.792	450.633	-0.043	-0.095
-578.777	259.897	-0.054	0.093
-577.763	-108.687	-0.032	0.007
-576.748	-79.085	-0.156	0.053
-575.733	86.335	0.097	-0.107
-574.719	800.000	-0.077	0.240
-573.704	379.267	0.018	0.038
-572.690	149.250	-0.137	0.186
-571.675	395.621	-0.151	-0.314
-570.661	8.348	0.349	-0.262
-569.646	-69.800	-0.310	-0.118
-568.631	-33.651	-0.066	0.037
-567.617	800.000	-0.060	-0.190
-566.602	198.605	0.172	0.264
-565.588	216.243	0.214	-0.340
-564.573	-96.017	-0.095	0.025
-563.558	-69.640	0.256	0.098
-562.544	139.007	0.031	-0.040
-561.529	800.000	-0.051	0.144
-560.515	-17.537	0.157	0.099
-559.500	-85.329	-0.207	0.065
-558.485	-95.209	-0.131	0.035
-557.471	579.802	-0.070	-0.171
-556.456	-200.000	-0.004	-0.103
-555.442	-101.896	-0.220	-0.053
-554.427	167.407	-0.090	-0.128
-553.412	-200.000	-0.038	-0.295
-552.398	800.000	-0.134	-0.423
-551.383	-67.443	0.256	0.101
-550.369	-200.000	0.016	0.099
-549.354	139.522	0.250	0.329
-548.339	-6.525	-0.416	0.283
-547.325	165.610	0.249	0.351
-546.310	-54.720	0.383	-0.173
-545.296	77.362	0.193	-0.205
-544.281	-176.176	0.211	-0.006
-543.266	19.523	-0.125	0.100
-542.252	10.534	0.150	0.114
-541.237	-95.410	0.215	0.058
-540.223	231.171	0.065	0.107
-539.208	10.712	0.222	0.169
-538.193	-200.000	0.026	-0.197
-537.179	-113.100	-0.175	-0.034
-536.164	59.238	0.225	-0.221
-535.150	340.540	0.123	-0.239
-534.135	456.339	0.012	0.027
-533.121	-200.000	-0.146	0.000
-532.106	-200.000	0.001	-0.046
-531.091	530.616	-0.053	-0.124
-530.077	161.079	0.148	0.207
-529.062	320.027	-0.043	0.082
-528.048	-46.178	0.100	-0.049
-527.033	90.101	0.069	0.077
-526.018	800.000	0.047	0.132
-525.004	349.639	-0.064	0.127
-523.989	526.774	0.090	0.212
-522.975	-51.633	0.072	-0.033
-521.960	-6.593	-0.174	0.118
-520.945	-42.351	-0.145	-0.074
-519.931	-93.409	0.359	0.099
-518.916	-200.000	0.039	-0.222
-517.902	-92.510	-0.443	0.124
-516.887	-136.973	0.114	-0.013
-515.872	53.537	0.145	-0.138
-514.858	-97.805	-0.103	-0.027
-513.843	-29.183	0.134	0.076
-512.829	63.809	0.194	0.194
-511.814	800.000	-0.083	0.240
-510.799	-200.000	-0.013	0.123
-509.785	-71.137	-0.188	0.070
-508.770	76.536	0.092	0.098
-507.756	368.078	0.093	-0.187
-506.741	-10.556	0.032	0.021
-505.726	-0.299	0.160	0.114
-504.712	159.504	0.087	-0.121
-503.697	-200.000	0.001	-0.124
-502.683	174.304	-0.129	-0.186
-501.668	-77.340	-0.119	-0.041
-500.653	800.000	0.095	0.340
-499.639	184.662	-0.164	-0.242
-498.624	800.000	0.053	0.156
-497.610	800.000	-0.141	0.406
-496.595	-127.082	0.220	-0.032
-495.581	63.525	-0.147	-0.147
-494.566	800.000	0.033	0.106
-493.551	-126.184	0.318	-0.047
-492.537	233.625	-0.189	0.310
-491.522	165.927	-0.189	0.267
-490.508	-156.088	-0.109	-0.007
-489.493	800.000	-0.067	-0.209
-488.478	-12.221	-0.336	0.219
-487.464	-200.000	0.009	-0.278
-486.449	132.877	-0.205	-0.264
-485.435	222.315	0.167	-0.268
-484.420	-200.000	-0.016	-0.416
-483.405	-200.000	-0.011	0.131
-482.391	-200.000	-0.003	0.129
-481.376	-84.368	0.150	-0.047
-480.362	-114.601	0.174	0.033
-479.347	284.802	0.111	-0.199
-478.332	128.970	-0.068	0.086
-477.318	800.000	0.028	0.082
-476.303	-71.427	0.395	0.147
-475.289	114.405	0.120	0.145
-474.274	-22.991	0.327	0.196
-473.259	-92.811	-0.287	0.080
-472.245	-30.894	-0.066	0.037
-471.230	-50.988	0.330	0.154
-470.216	-66.341	-0.192	-0.076
-469.201	-200.000	-0.001	0.250
-468.186	800.000	0.027	0.086
-467.172	66.096	-0.013	-0.013
-466.157	-97.828	0.436	0.112
-465.143	53.743	-0.133	0.127
-464.128	205.447	0.183	-0.282
-463.113	20.715	0.132	-0.106
-462.099	800.000	-0.044	-0.133
-461.084	-200.000	-0.034	0.286
-460.070	-200.000	-0.019	0.295
-459.055	-44.140	0.228	-0.114
-458.040	-120.221	-0.319	-0.054
-457.026	-200.000	0.071	0.356
-456.011	-100.149	-0.177	0.044
-454.997	-200.000	-0.032	-0.179
-453.982	-90.427	0.060	0.017
-452.968	123.521	0.122	0.152
-451.953	159.051	-0.162	0.224
-450.938	298.794	-0.041	0.075
-449.924	-200.000	-0.023	-0.204
-448.909	344.798	0.105	-0.205
-447.895	-168.334	0.229	-0.009
-446.880	-149.663	-0.092	-0.007
-445.865	-45.533	0.314	0.155
-444.851	224.346	-0.090	-0.145
-443.836	-10.155	0.327	-0.216
-442.822	-35.943	-0.234	-0.126
-441.807	-70.902	0.201	0.075
-440.792	92.982	0.068	-0.077
-439.778	30.069	0.139	-0.118
-438.763	-200.000	-0.016	-0.160
-437.749	-48.945	0.012	0.005
-436.734	414.491	-0.193	-0.408
-435.719	-135.003	-0.239	0.029
-434.705	135.119	0.179	0.231
-433.690	3.854	-0.128	-0.093
-432.676	38.928	0.100	-0.089
-431.661	341.269	-0.079	-0.153
-430.646	-158.405	0.027	-0.002
-429.632	-142.390	-0.099	0.010
-428.617	-69.701	0.220	0.083
-427.603	800.000	0.036	0.139
-426.588	-200.000	-0.040	0.182
-425.573	409.333	0.144	-0.302
-424.559	-101.839	0.115	0.028
-423.544	-64.063	0.227	-0.092
-422.530	-200.000	-0.014	-0.087
-421.515	357.860	0.191	-0.378
-420.500	-93.100	-0.237	-0.066
-419.486	272.745	0.094	0.165
-418.471	13.684	0.104	-0.080
-417.457	106.139	0.085	-0.099
-416.442	-132.266	0.119	-0.015
-415.428	7.017	0.173	-0.128
-414.413	-87.088	0.208	-0.063
-413.398	134.237	0.111	-0.143
-412.384	576.565	0.024	-0.058
-411.369	-28.152	-0.226	-0.130
-410.355	-55.192	-0.087	-0.039
-409.340	800.000	-0.082	-0.271
-408.325	60.488	-0.165	0.163
-407.311	247.887	-0.153	0.257
-406.296	-200.000	-0.048	-0.242
-405.282	245.955	-0.066	0.111
-404.267	800.000	0.006	0.024
-403.252	19.839	-0.046	-0.036
-402.238	96.292	0.099	0.112
-401.223	-200.000	0.021	-0.329
-400.209	16.136	-0.336	-0.263
-399.194	-90.241	0.091	-0.026
-398.179	307.774	0.143	0.265
-397.165	147.401	-0.148	0.197
-396.150	-118.957	0.261	-0.045
-395.136	-103.075	-0.143	0.034
-394.121	-123.817	0.181	0.028
-393.106	-200.000	0.036	0.182
-392.092	125.004	-0.191	0.238
-391.077	328.564	0.161	-0.308
-390.063	-20.140	-0.093	-0.057
-389.048	-110.755	-0.181	-0.037
-388.033	800.000	-0.081	-0.231
-387.019	12.004	-0.314	-0.240
-386.004	-109.117	0.107	-0.023
-384.990	-53.672	-0.194	-0.088
-383.975	-70.017	0.057	-0.022
-382.960	-70.715	0.193	0.072
-381.946	800.000	0.009	-0.030
-380.931	8.850	0.166	0.124
-379.917	-41.344	0.080	0.041
-378.902	-170.982	0.260	-0.009
-377.888	-200.000	-0.036	-0.197
-376.873	469.798	0.021	0.048
-375.858	64.068	-0.104	0.104
-374.844	372.547	0.019	-0.038
-373.829	-28.371	0.329	0.188
-372.815	218.816	-0.105	0.166
-371.800	-200.000	0.007	-0.054
-370.785	-117.803	-0.208	0.037
-369.771	287.154	-0.240	0.430
-368.756	-188.004	-0.059	-0.001
-367.742	260.974	0.179	0.308
-366.727	-200.000	0.030	-0.182
-365.712	800.000	-0.015	0.045
-364.698	277.251	0.030	0.053
-363.683	-200.000	-0.044	-0.201
-362.669	-130.681	-0.078	0.010
-361.654	-83.213	-0.316	-0.101
-360.639	-174.779	-0.043	-0.001
-359.625	800.000	0.045	-0.142
-358.610	800.000	0.031	0.090
-357.596	-123.878	-0.181	-0.028
-356.581	-200.000	0.007	0.052
-355.566	299.626	-0.172	0.314
-354.552	-200.000	0.025	0.314
-353.537	-125.314	0.051	-0.008
-352.523	-161.616	-0.126	0.006
-351.508	800.000	0.055	-0.227
-350.493	-112.542	-0.089	-0.018
-349.479	-117.626	-0.101	0.018
-348.464	58.995	-0.066	-0.064
-347.450	-55.129	-0.356	0.159
-346.435	275.983	0.122	-0.215
-345.420	421.587	0.104	0.221
-344.406	-200.000	-0.007	0.268
-343.391	11.673	0.297	-0.226
-342.377	161.790	0.191	-0.265
-341.362	800.000	-0.152	0.416
-340.348	800.000	-0.086	-0.358
-339.333	25.382	0.287	-0.236
-338.318	8.117	0.295	0.219
-337.304	161.390	-0.099	-0.137
-336.289	-200.000	-0.028	0.179
-335.275	571.898	-0.030	0.072
-334.260	-200.000	-0.005	0.028
-333.245	-18.178	-0.139	-0.086
-332.231	-200.000	-0.055	0.270
-331.216	249.299	-0.185	0.311
-330.202	-101.395	-0.411	0.099
-329.187	-200.000	-0.042	0.342
-328.172	81.584	-0.073	-0.078
-327.158	-200.000	0.018	-0.181
-326.143	-200.000	-0.115	-0.000
-325.129	17.903	0.130	0.102
-324.114	590.951	-0.129	0.316
-323.099	345.477	-0.126	0.244
-322.085	-133.477	-0.120	-0.015
-321.070	57.054	0.227	0.219
-320.056	-200.000	-0.023	-0.298
-319.041	-0.383	-0.279	-0.196
-318.026	-56.788	0.092	0.040
-317.012	-95.502	-0.158	0.042
-315.997	-200.000	0.020	-0.152
-314.983	-200.000	-0.021	-0.232
-313.968	-200.000	0.006	-0.076
-312.953	-56.076	-0.228	0.100
-311.939	-200.000	0.012	0.294
-310.924	699.069	0.084	-0.220
-309.910	-128.178	-0.416	-0.059
-308.895	-49.373	-0.206	0.097
-307.880	188.152	-0.197	-0.291
-306.866	282.599	-0.069	-0.122
-305.851	176.398	-0.081	-0.117
-304.837	-85.494	0.083	-0.026
-303.822	522.654	-0.181	0.421
-302.807	111.147	0.166	0.198
-301.793	166.444	-0.172	-0.241
-300.778	62.296	-0.092	-0.091
-299.764	-75.349	0.073	0.026
-298.749	-200.000	0.004	0.038
-297.735	-124.381	0.230	0.035
-296.720	581.371	-0.077	-0.187
-295.705	281.750	0.088	0.157
-294.691	-200.000	0.024	0.120
-293.676	339.341	0.119	-0.230
-292.662	800.000	-0.072	0.207
-291.647	54.875	-0.076	-0.072
-290.632	-156.832	0.219	0.013
-289.618	7.584	0.294	-0.217
-288.603	800.000	0.030	-0.096
-287.589	-106.679	0.093	-0.020
-286.574	800.000	0.015	-0.064
-285.559	-20.268	-0.226	-0.138
-284.545	161.205	-0.107	-0.148
-283.530	15.722	0.101	-0.078
-282.516	-200.000	-0.008	0.053
-281.501	-173.321	0.188	0.006
-280.486	-96.741	-0.276	0.072
-279.472	-200.000	0.058	-0.520
-278.457	-70.552	-0.447	0.167
-277.443	95.649	-0.073	-0.082
-276.428	-89.990	0.430	-0.124
-275.413	22.946	-0.058	-0.047
-274.399	-200.000	-0.005	-0.184
-273.384	-200.000	-0.025	0.218
-272.370	-200.000	0.008	0.228
-271.355	205.574	-0.174	-0.267
-270.340	-200.000	0.081	-0.577
-269.326	179.142	0.147	0.212
-268.311	346.778	-0.066	0.128
-267.297	593.991	-0.102	0.248
-266.282	253.093	-0.046	0.077
-265.267	-149.716	-0.233	-0.018
-264.253	28.896	0.200	0.167
-263.238	91.170	-0.341	0.378
-262.224	-200.000	0.014	0.385
-261.209	31.262	-0.223	0.189
-260.195	-184.109	0.445	-0.007
-259.180	-75.187	-0.140	-0.049
-258.165	-78.823	-0.270	-0.091
-257.151	92.385	-0.203	0.226
-256.136	107.355	-0.120	-0.141
-255.122	160.731	-0.127	0.176
-254.107	-72.106	0.241	0.088
-253.092	-91.231	-0.193	-0.055
-252.078	-6.886	0.155	-0.104
-251.063	-53.237	0.216	-0.098
-250.049	800.000	-0.155	0.428
-249.034	575.789	0.115	0.278
-248.019	209.709	0.132	0.204
-247.005	-69.792	0.373	0.140
-245.990	456.489	-0.092	0.202
-244.976	370.484	0.114	0.228
-243.961	-56.150	0.112	-0.049
-242.946	59.209	0.226	0.219
-241.932	-51.265	-0.216	0.100
-240.917	800.000	0.051	0.191
-239.903	172.911	0.175	-0.248
-238.888	6.459	-0.220	0.161
-237.873	-15.094	-0.062	0.039
-236.859	197.005	0.129	0.193
-235.844	-81.001	-0.130	-0.042
-234.830	132.929	0.056	0.071
-233.815	-127.201	-0.211	0.030
-232.800	80.818	0.288	-0.307
-231.786	-99.268	0.214	0.053
-230.771	-200.000	-0.015	-0.194
-229.757	-200.000	-0.026	-0.323
-228.742	-200.000	0.002	-0.244
-227.727	774.699	0.096	-0.258
-226.713	317.567	-0.084	-0.157
-225.698	-200.000	0.027	0.455
-224.684	112.598	-0.102	0.121
-223.669	-92.707	-0.192	0.053
-222.655	-200.000	0.033	0.352
-221.640	301.770	0.089	-0.162
-220.625	800.000	-0.052	-0.143
-219.611	465.127	-0.215	-0.475
-218.596	501.274	0.068	-0.156
-217.582	-94.830	-0.211	-0.056
-216.567	-165.480	-0.252	0.011
-215.552	-200.000	-0.011	0.057
-214.538	439.530	0.036	0.077
-213.523	-61.163	0.178	0.074
-212.509	778.212	-0.027	0.073
-211.494	-36.103	-0.131	0.070
-210.479	-79.246	0.108	-0.036
-209.465	37.036	0.015	0.013
-208.450	800.000	0.072	0.255
-207.436	-39.483	0.123	-0.064
-206.421	275.664	-0.139	-0.244
-205.406	11.237	-0.151	-0.114
-204.392	-200.000	0.005	-0.304
-203.377	-67.530	0.196	0.076
-202.363	6.457	-0.077	-0.056
-201.348	-66.339	0.251	-0.098
-200.333	2.551	0.068	-0.048
-199.319	-200.000	0.032	0.343
-198.304	-200.000	0.012	0.129
-197.290	-200.000	0.060	-0.338
-196.275	-93.894	-0.193	0.052
-195.260	-116.748	0.332	0.060
-194.246	800.000	-0.068	-0.190
-193.231	102.628	-0.084	-0.097
-192.217	-180.683	-0.332	-0.007
-191.202	-86.262	-0.244	0.074
-190.187	-99.144	0.606	0.151
-189.173	-141.350	-0.359	0.036
-188.158	95.102	-0.114	-0.127
-187.144	-46.298	0.412	-0.200
-186.129	-200.000	-0.078	-0.347
-185.114	60.842	-0.138	-0.135
-184.100	667.819	0.070	0.179
-183.085	10.082	0.394	0.295
-182.071	-82.561	-0.085	-0.027
-181.056	-200.000	0.023	-0.185
-180.042	-88.544	0.242	0.071
-179.027	-200.000	0.013	0.162
-178.012	-68.704	-0.188	0.071
-176.998	66.397	-0.140	-0.140
-175.983	-200.000	0.012	0.199
-174.969	-71.516	0.288	0.106
-173.954	41.011	0.176	0.157
-172.939	96.461	-0.040	0.046
-171.925	10.431	0.408	-0.306
-170.910	-2.274	0.284	-0.196
-169.896	31.346	-0.155	-0.131
-168.881	800.000	-0.032	-0.135
-167.866	-200.000	0.016	-0.082
-166.852	-200.000	-0.005	0.208
-165.837	-34.919	0.257	-0.138
-164.823	80.414	0.183	-0.194
-163.808	800.000	0.063	0.179
-162.793	205.410	-0.174	0.266
-161.779	416.599	0.129	0.271
-160.764	-200.000	0.047	-0.262
-159.750	124.601	-0.075	0.093
-158.735	-115.843	0.275	0.051
-157.720	524.560	0.022	-0.050
-156.706	279.816	-0.062	-0.110
-155.691	89.496	0.068	-0.075
-154.677	-156.937	0.280	0.017
-153.662	159.584	0.178	0.244
-152.647	248.239	-0.177	-0.295
-151.633	800.000	0.047	-0.156
-150.618	189.002	-0.052	0.077
-149.604	-35.891	-0.125	-0.066
-148.589	-143.990	0.206	-0.019
-147.574	22.695	0.036	-0.029
-146.560	142.404	-0.068	0.089
-145.545	800.000	0.171	0.485
-144.531	31.317	0.301	0.254
-143.516	-66.372	0.102	-0.040
-142.502	-200.000	-0.019	-0.089
-141.487	-18.712	-0.311	-0.190
-140.472	-91.350	0.361	0.102
-139.458	-98.137	0.126	0.032
-138.443	-117.262	0.225	-0.040
-137.429	800.000	0.087	0.368
-136.414	-139.486	0.132	-0.014
-135.399	-171.558	-0.192	-0.006
-134.385	389.607	0.083	-0.169
-133.370	-0.923	0.220	-0.153
-132.356	800.000	-0.083	0.237
-131.341	-200.000	-0.023	0.146
-130.326	306.429	0.162	-0.295
-129.312	101.021	-0.133	-0.152
-128.297	133.908	-0.190	-0.242
-127.283	-9.480	0.207	0.135
-126.268	-200.000	0.011	0.596
-125.253	11.892	-0.191	0.144
-124.239	-200.000	0.375	-0.001
-123.224	44.330	0.150	0.135
-122.210	-14.037	0.246	0.156
-121.195	426.681	0.034	0.072
