DTS Sentinel unit serial number:	SN413079Multiplexer serial number:	ORYXHardware model number:	OX4-SRSoftware version number:	ORYX F/W v4.00 Oryx Data Collector v3.7.2.0data status	okinstallation	princeton_trtdifferential loss correction	single-endedforward channel	channel 1reverse channel	N/Adate	2019/09/12time	00:56:11forward acquisition time	60.00reverse acquisition time	0.00gamma	496.2192k internal	0.2320k external	0.2320temperature offset calibration	1.0075default loss term (dB/km)	0.3790temperature slope calibration	1.0000multiplexer offset coefficient	1.0000multiplexer slope coefficient	1.0000fibre end	0.00T internal ref (°C)	33.23T ext. ref 1 (°C)	2.09T ext. ref 2 (°C)	27.97length (m)	temperature (°C)	Stokes	anti-Stokes-747.200	-200.000	-0.059	0.365
-746.185	800.000	-0.088	0.365
-745.171	-56.652	-0.073	0.033
-744.156	-200.000	0.033	0.342
-743.142	333.233	-0.119	0.233
-742.127	-31.675	0.325	0.184
-741.112	242.128	-0.102	0.172
-740.098	69.628	0.120	0.125
-739.083	-200.000	-0.027	0.184
-738.069	2.431	-0.430	0.314
-737.054	374.555	-0.054	-0.111
-736.039	182.676	-0.140	0.209
-735.025	206.325	0.048	-0.075
-734.010	331.768	0.074	-0.144
-732.996	800.000	-0.072	-0.266
-731.981	-200.000	0.021	0.162
-730.966	197.118	0.055	0.085
-729.952	-136.389	0.132	-0.016
-728.937	-134.820	-0.381	0.047
-727.923	-84.157	-0.168	0.054
-726.908	33.605	0.224	0.197
-725.894	-200.000	-0.030	-0.333
-724.879	80.507	-0.139	-0.152
-723.864	-89.818	0.181	-0.053
-722.850	-171.750	-0.255	0.008
-721.835	32.238	-0.236	-0.206
-720.821	2.978	0.108	-0.079
-719.806	800.000	0.023	0.066
-718.791	-18.132	-0.353	-0.223
-717.777	-200.000	-0.033	-0.182
-716.762	-142.770	0.175	-0.017
-715.748	33.280	-0.036	0.031
-714.733	186.427	-0.202	-0.303
-713.718	63.614	0.320	-0.324
-712.704	240.679	-0.183	0.308
-711.689	-22.832	0.267	0.163
-710.675	800.000	-0.084	-0.239
-709.660	800.000	-0.035	0.144
-708.645	23.221	-0.255	0.212
-707.631	31.398	0.210	0.182
-706.616	-19.321	0.205	-0.129
-705.602	411.971	-0.045	-0.098
-704.587	-159.595	0.191	-0.011
-703.572	-79.182	-0.381	-0.131
-702.558	-102.664	-0.094	-0.023
-701.543	427.119	-0.153	-0.334
-700.529	179.626	0.168	-0.248
-699.514	255.118	-0.152	-0.262
-698.499	-200.000	-0.018	-0.279
-697.485	-85.509	0.409	-0.128
-696.470	-88.739	-0.023	0.007
-695.456	-129.851	0.077	-0.011
-694.441	-166.402	0.259	0.011
-693.426	189.402	0.043	0.066
-692.412	-57.466	-0.104	-0.046
-691.397	-200.000	-0.011	-0.175
-690.383	259.945	-0.022	-0.038
-689.368	-99.160	-0.103	-0.026
-688.354	800.000	-0.049	-0.161
-687.339	-200.000	0.002	0.142
-686.324	-96.938	0.397	-0.105
-685.310	37.964	-0.168	0.151
-684.295	-33.705	0.070	-0.039
-683.281	211.171	-0.106	-0.168
-682.266	-200.000	-0.011	0.125
-681.251	-142.540	0.300	-0.030
-680.237	-200.000	0.101	-0.632
-679.222	-109.478	-0.214	0.046
-678.208	-156.001	0.065	-0.004
-677.193	-58.627	-0.551	0.241
-676.178	42.820	-0.188	0.173
-675.164	685.307	0.070	-0.183
-674.149	280.838	-0.037	0.067
-673.135	114.229	-0.060	0.073
-672.120	-27.029	0.238	-0.140
-671.105	97.239	-0.166	0.192
-670.091	-89.398	0.225	0.067
-669.076	-148.581	-0.116	0.010
-668.062	-106.095	0.166	0.038
-667.047	79.365	0.086	0.093
-666.032	-200.000	-0.001	-0.022
-665.018	-101.793	-0.481	-0.117
-664.003	-108.396	-0.203	-0.044
-662.989	44.693	-0.112	-0.104
-661.974	-200.000	-0.013	-0.384
-660.959	25.733	0.326	-0.274
-659.945	108.358	-0.206	0.247
-658.930	60.426	0.216	0.215
-657.916	-64.396	-0.366	-0.150
-656.901	423.153	-0.157	0.341
-655.886	139.078	0.199	-0.264
-654.872	116.532	-0.011	-0.014
-653.857	133.373	-0.269	-0.351
-652.843	85.777	0.196	0.217
-651.828	154.364	-0.248	0.343
-650.814	-66.692	0.134	0.053
-649.799	-200.000	0.025	-0.194
-648.784	-41.145	0.281	0.146
-647.770	800.000	-0.023	0.084
-646.755	96.528	0.111	0.128
-645.741	491.041	0.071	0.165
-644.726	51.407	0.076	0.073
-643.711	-200.000	-0.029	-0.203
-642.697	121.474	0.190	-0.239
-641.682	63.375	0.155	0.157
-640.668	-61.159	-0.229	-0.097
-639.653	-200.000	0.017	-0.302
-638.638	-145.404	0.232	-0.021
-637.624	-200.000	0.040	-0.311
-636.609	9.449	-0.181	0.138
-635.595	-200.000	-0.008	-0.047
-634.580	-30.293	-0.175	-0.100
-633.565	-200.000	-0.005	-0.218
-632.551	800.000	0.028	0.113
-631.536	800.000	0.050	-0.177
-630.522	-159.087	0.232	0.013
-629.507	22.974	0.292	-0.241
-628.492	143.995	-0.114	0.153
-627.478	-145.121	-0.220	-0.020
-626.463	-200.000	-0.055	0.291
-625.449	132.532	0.272	-0.354
-624.434	-148.570	0.202	-0.017
-623.419	220.103	0.139	0.225
-622.405	-49.677	0.187	-0.090
-621.390	800.000	0.053	-0.233
-620.376	800.000	-0.057	0.248
-619.361	-3.921	-0.088	0.061
-618.346	-200.000	0.008	-0.457
-617.332	800.000	-0.020	-0.078
-616.317	133.118	-0.210	-0.273
-615.303	394.977	-0.057	-0.119
-614.288	-7.880	0.071	-0.048
-613.273	-200.000	-0.008	0.209
-612.259	800.000	0.099	0.326
-611.244	2.519	-0.206	0.150
-610.230	-48.541	-0.368	0.178
-609.215	238.952	-0.165	-0.276
-608.201	335.072	-0.046	-0.090
-607.186	52.364	0.211	0.203
-606.171	-200.000	0.027	-0.357
-605.157	90.242	-0.318	-0.358
-604.142	-200.000	0.022	0.098
-603.128	800.000	-0.057	-0.199
-602.113	514.636	0.093	0.219
-601.098	-70.669	0.181	-0.069
-600.084	303.284	-0.117	0.219
-599.069	-69.835	-0.196	-0.075
-598.055	-89.450	-0.094	-0.028
-597.040	15.680	-0.138	0.109
-596.025	-84.657	-0.093	-0.029
-595.011	219.811	-0.212	0.341
-593.996	-7.685	0.134	0.091
-592.982	-200.000	0.041	-0.311
-591.967	-121.868	0.221	-0.037
-590.952	-200.000	-0.055	-0.344
-589.938	-8.776	0.085	-0.058
-588.923	126.633	0.235	0.299
-587.909	47.757	-0.215	0.202
-586.894	-21.356	-0.251	-0.154
-585.879	800.000	0.014	-0.059
-584.865	-200.000	0.031	0.161
-583.850	800.000	-0.039	0.142
-582.836	-123.834	0.253	0.040
-581.821	156.528	0.221	-0.307
-580.806	150.822	-0.138	0.189
-579.792	-122.904	-0.178	0.029
-578.777	-200.000	0.004	-0.209
-577.763	150.372	-0.006	-0.008
-576.748	-84.817	0.247	-0.078
-575.733	227.122	0.182	-0.297
-574.719	786.109	0.095	-0.261
-573.704	-200.000	-0.012	0.314
-572.690	52.071	-0.297	-0.284
-571.675	-113.149	-0.369	-0.073
-570.661	371.973	-0.092	-0.188
-569.646	800.000	-0.075	-0.296
-568.631	380.586	0.124	0.255
-567.617	129.951	-0.092	0.118
-566.602	800.000	0.118	-0.509
-565.588	-67.784	0.018	-0.007
-564.573	87.193	0.202	-0.225
-563.558	-13.201	-0.058	-0.038
-562.544	237.437	-0.055	0.092
-561.529	39.898	0.266	-0.240
-560.515	480.886	-0.043	0.097
-559.500	-60.799	-0.076	0.032
-558.485	-62.720	0.128	-0.053
-557.471	-34.642	-0.135	-0.074
-556.456	455.941	0.085	0.189
-555.442	-72.956	-0.187	0.069
-554.427	-106.241	-0.312	0.070
-553.412	800.000	0.017	-0.060
-552.398	-82.755	-0.182	-0.059
-551.383	1.816	-0.161	0.117
-550.369	-26.866	-0.290	0.170
-549.354	-200.000	0.020	0.232
-548.339	-200.000	0.075	-0.330
-547.325	-9.189	-0.212	-0.143
-546.310	-200.000	0.017	-0.274
-545.296	70.765	-0.016	-0.016
-544.281	-200.000	-0.029	0.133
-543.266	-200.000	0.057	0.383
-542.252	800.000	0.063	0.203
-541.237	-200.000	0.058	-0.328
-540.223	-200.000	-0.073	0.374
-539.208	800.000	-0.009	-0.039
-538.193	198.880	0.192	0.294
-537.179	800.000	0.042	0.185
-536.164	79.361	0.160	-0.172
-535.150	800.000	0.017	-0.071
-534.135	-200.000	0.020	0.128
-533.121	103.871	0.348	-0.410
-532.106	28.820	0.346	0.294
-531.091	600.569	0.110	0.273
-530.077	-3.238	0.115	-0.080
-529.062	-200.000	0.038	-0.219
-528.048	72.737	-0.300	0.314
-527.033	-200.000	-0.023	-0.205
-526.018	-126.188	0.222	0.033
-525.004	73.809	-0.050	0.053
-523.989	-200.000	-0.035	0.404
-522.975	-137.622	0.178	-0.020
-521.960	-15.536	0.175	-0.112
-520.945	-200.000	-0.010	-0.047
-519.931	70.658	-0.124	-0.129
-518.916	800.000	-0.062	0.172
-517.902	319.400	-0.096	0.183
-516.887	124.436	0.120	0.152
-515.872	662.401	-0.032	0.082
-514.858	9.232	0.152	-0.115
-513.843	800.000	0.153	0.471
-512.829	92.818	0.173	-0.196
-511.814	-129.456	0.054	-0.008
-510.799	-138.586	-0.182	-0.020
-509.785	-62.441	-0.319	-0.133
-508.770	-5.724	0.288	-0.197
-507.756	-41.143	0.028	-0.014
-506.741	-167.863	-0.139	-0.005
-505.726	17.184	-0.046	0.037
-504.712	800.000	0.028	0.121
-503.697	152.766	0.102	0.139
-502.683	-117.609	0.171	-0.031
-501.668	-24.531	-0.295	0.176
-500.653	800.000	0.026	-0.081
-499.639	-200.000	-0.052	-0.234
-498.624	-36.364	-0.140	-0.075
-497.610	-76.888	0.120	0.042
-496.595	104.013	0.199	-0.234
-495.581	-109.060	0.192	0.041
-494.566	592.596	-0.088	-0.219
-493.551	-32.081	-0.049	-0.028
-492.537	-141.399	-0.308	0.031
-491.522	-12.610	0.070	-0.046
-490.508	357.524	0.112	-0.224
-489.493	800.000	-0.080	0.294
-488.478	86.933	0.064	-0.071
-487.464	23.104	0.159	0.131
-486.449	-27.696	0.038	0.022
-485.435	800.000	0.089	-0.315
-484.420	267.225	0.144	0.252
-483.405	-151.837	-0.398	-0.029
-482.391	17.984	0.118	-0.094
-481.376	-200.000	-0.041	0.000
-480.362	-39.638	0.250	-0.131
-479.347	38.589	0.205	0.183
-478.332	-56.496	-0.054	0.024
-477.318	287.605	0.158	0.287
-476.303	-200.000	-0.015	-0.092
-475.289	441.183	0.071	0.155
-474.274	-200.000	0.021	-0.210
-473.259	634.396	-0.080	0.203
-472.245	-65.051	-0.103	-0.042
-471.230	-106.265	-0.092	-0.021
-470.216	86.964	-0.201	0.222
-469.201	-200.000	0.032	-0.154
-468.186	-123.666	0.120	-0.019
-467.172	-63.345	0.014	0.006
-466.157	800.000	-0.105	-0.420
-465.143	-59.845	-0.232	-0.099
-464.128	209.336	0.087	-0.136
-463.113	-121.228	0.192	0.032
-462.099	-200.000	-0.018	-0.108
-461.084	46.782	0.379	-0.352
-460.070	12.430	-0.315	-0.243
-459.055	260.985	0.031	-0.053
-458.040	800.000	-0.066	0.217
-457.026	800.000	0.076	0.224
-456.011	-76.688	0.277	-0.097
-454.997	-85.992	-0.308	0.095
-453.982	86.042	0.124	0.136
-452.968	-18.176	0.059	-0.037
-451.953	-61.859	0.364	-0.152
-450.938	-128.304	0.152	0.022
-449.924	39.891	0.038	0.034
-448.909	119.894	-0.077	0.096
-447.895	-41.186	0.176	-0.091
-446.880	800.000	0.045	0.134
-445.865	-65.043	-0.287	-0.116
-444.851	310.013	-0.225	0.420
-443.836	-153.636	0.372	-0.026
-442.822	-200.000	0.050	-0.226
-441.807	-3.688	-0.206	0.143
-440.792	-200.000	0.026	0.442
-439.778	73.628	0.129	0.135
-438.763	20.632	-0.210	-0.170
-437.749	-116.172	-0.162	0.030
-436.734	67.802	-0.105	-0.107
-435.719	66.489	-0.389	0.395
-434.705	154.489	0.120	0.165
-433.690	800.000	0.136	0.403
-432.676	-113.405	0.132	-0.026
-431.661	-117.760	-0.178	0.032
-430.646	800.000	-0.061	0.239
-429.632	532.008	0.024	0.057
-428.617	156.783	0.072	-0.099
-427.603	99.596	-0.097	0.112
-426.588	44.945	-0.140	0.128
-425.573	-12.035	-0.060	0.039
-424.559	-200.000	-0.047	0.449
-423.544	313.918	0.045	-0.085
-422.530	-27.377	0.036	0.021
-421.515	-142.806	-0.241	-0.023
-420.500	-114.550	-0.049	-0.009
-419.486	112.633	0.129	0.156
-418.471	-62.383	0.343	-0.142
-417.457	-1.584	-0.294	-0.207
-416.442	-200.000	0.018	-0.341
-415.428	-14.409	-0.091	0.059
-414.413	517.041	0.098	0.229
-413.398	-200.000	-0.019	-0.089
-412.384	-170.340	-0.300	-0.011
-411.369	-15.918	-0.282	-0.179
-410.355	-85.467	-0.433	0.135
-409.340	102.953	-0.078	-0.091
-408.325	374.201	-0.091	0.186
-407.311	557.719	-0.083	-0.199
-406.296	-200.000	0.044	0.310
-405.282	-47.408	0.181	-0.088
-404.267	-119.526	-0.156	-0.027
-403.252	45.415	0.282	0.260
-402.238	251.595	0.060	-0.103
-401.223	169.038	-0.057	-0.081
-400.209	167.149	0.119	0.169
-399.194	-200.000	-0.034	0.231
-398.179	800.000	0.049	0.155
-397.165	-79.278	-0.090	0.030
-396.150	800.000	0.048	-0.166
-395.136	-141.970	0.171	-0.017
-394.121	-92.052	0.074	0.021
-393.106	12.452	-0.090	0.069
-392.092	-165.232	-0.229	-0.010
-391.077	800.000	-0.069	0.291
-390.063	-138.211	0.462	-0.051
-389.048	-29.314	-0.057	0.033
-388.033	-118.257	0.190	-0.034
-387.019	235.083	-0.085	0.140
-386.004	-80.780	0.172	0.057
-384.990	-147.896	-0.063	0.005
-383.975	-136.404	0.304	0.035
-382.960	-3.914	-0.271	0.188
-381.946	303.145	0.142	-0.263
-380.931	-200.000	0.034	-0.391
-379.917	-200.000	0.005	0.085
-378.902	800.000	0.086	0.259
-377.888	129.995	-0.238	-0.303
-376.873	239.674	-0.097	0.161
-375.858	-71.048	0.152	0.057
-374.844	-28.164	-0.114	-0.066
-373.829	-51.630	0.240	0.111
-372.815	-200.000	-0.014	0.266
-371.800	-92.880	-0.090	0.025
-370.785	800.000	0.019	-0.080
-369.771	-52.073	-0.053	-0.025
-368.756	76.946	-0.033	-0.035
-367.742	-193.026	-0.500	0.004
-366.727	284.498	-0.168	0.301
-365.712	-200.000	0.094	0.618
-364.698	800.000	-0.110	-0.392
-363.683	-23.352	-0.124	0.074
-362.669	-54.105	0.218	0.099
-361.654	800.000	-0.042	-0.167
-360.639	33.383	-0.113	0.097
-359.625	-117.424	0.443	0.080
-358.610	-200.000	-0.014	0.116
-357.596	6.416	-0.191	-0.141
-356.581	-103.369	-0.056	0.013
-355.566	-71.116	-0.177	0.066
-354.552	-11.052	-0.199	-0.131
-353.537	-90.650	0.272	-0.078
-352.523	800.000	-0.037	-0.131
-351.508	-13.017	0.135	0.087
-350.493	476.740	0.070	-0.157
-349.479	-73.719	0.040	-0.014
-348.464	-200.000	0.021	-0.263
-347.450	45.744	0.301	-0.277
-346.435	-96.666	-0.099	-0.026
-345.420	223.140	-0.187	-0.301
-344.406	-83.631	-0.242	-0.077
-343.391	-34.656	0.212	0.116
-342.377	337.494	0.117	-0.226
-341.362	-200.000	0.012	0.134
-340.348	-60.897	-0.239	-0.101
-339.333	-64.386	0.197	-0.080
-338.318	-35.177	0.170	-0.092
-337.304	18.845	-0.369	-0.294
-336.289	233.249	-0.104	0.170
-335.275	170.731	0.116	-0.166
-334.260	-139.417	-0.336	-0.036
-333.245	-162.391	-0.454	0.022
-332.231	722.224	0.038	0.100
-331.216	241.904	-0.080	-0.134
-330.202	272.145	0.120	0.211
-329.187	67.757	-0.290	0.295
-328.172	800.000	-0.059	-0.222
-327.158	242.808	0.132	0.220
-326.143	-86.190	0.133	-0.041
-325.129	-200.000	-0.007	0.099
-324.114	-90.402	0.201	0.058
-323.099	800.000	-0.055	-0.212
-322.085	-176.369	-0.315	-0.008
-321.070	-0.694	0.176	-0.124
-320.056	14.909	0.236	0.184
-319.041	-200.000	-0.006	-0.126
-318.026	520.737	0.032	0.074
-317.012	-200.000	-0.029	0.343
-315.997	800.000	-0.077	-0.229
-314.983	-142.047	0.235	0.023
-313.968	-77.944	-0.245	-0.084
-312.953	-173.017	-0.314	-0.010
-311.939	252.750	-0.082	0.139
-310.924	10.471	0.216	-0.164
-309.910	-2.230	0.257	0.180
-308.895	-200.000	0.003	-0.169
-307.880	477.060	-0.073	0.165
-306.866	-200.000	0.002	-0.179
-305.851	-140.354	-0.279	0.029
-304.837	198.286	-0.098	-0.148
-303.822	-200.000	-0.039	0.254
-302.807	-192.057	-0.107	-0.001
-301.793	-15.343	-0.119	0.076
-300.778	109.910	0.136	-0.162
-299.764	4.089	0.251	0.183
-298.749	-200.000	0.018	0.180
-297.735	314.684	0.022	-0.041
-296.720	-131.252	-0.115	-0.015
-295.705	-200.000	0.010	-0.115
-294.691	700.528	0.128	0.334
-293.676	-118.604	-0.064	0.011
-292.662	39.731	0.330	0.294
-291.647	800.000	0.055	0.172
-290.632	-200.000	0.063	0.376
-289.618	-73.457	-0.282	-0.102
-288.603	-3.956	0.210	-0.144
-287.589	-35.168	0.373	-0.202
-286.574	-200.000	-0.031	-0.209
-285.559	-29.123	-0.416	0.237
-284.545	-90.113	-0.203	0.059
-283.530	372.443	-0.052	-0.106
-282.516	-17.271	0.113	-0.071
-281.501	124.802	-0.098	0.122
-280.486	-200.000	-0.012	0.388
-279.472	-158.891	0.220	-0.012
-278.457	84.616	-0.138	-0.150
-277.443	188.180	-0.159	0.236
-276.428	127.878	-0.037	-0.047
-275.413	-200.000	0.012	0.101
-274.399	101.331	-0.151	0.175
-273.384	-8.761	0.218	0.145
-272.370	-200.000	-0.002	-0.099
-271.355	390.541	0.202	-0.416
-270.340	418.852	-0.022	-0.047
-269.326	168.324	-0.211	-0.298
-268.311	-22.153	-0.230	0.139
-267.297	147.199	0.238	0.318
-266.282	-53.109	0.263	-0.120
-265.267	364.952	0.066	-0.132
-264.253	237.313	-0.031	-0.051
-263.238	-7.029	0.041	-0.028
-262.224	-77.833	-0.124	0.042
-261.209	86.256	0.138	0.151
-260.195	-200.000	-0.034	0.204
-259.180	187.720	0.050	0.074
-258.165	-188.881	-0.173	0.002
-257.151	173.802	0.112	-0.161
-256.136	800.000	0.080	-0.229
-255.122	253.054	0.054	0.092
-254.107	-123.724	0.241	0.038
-253.092	-95.599	0.217	-0.058
-252.078	-133.765	-0.307	0.038
-251.063	171.571	-0.051	0.072
-250.049	86.285	-0.134	-0.147
-249.034	-81.953	0.263	0.085
-248.019	-200.000	-0.050	-0.361
-247.005	800.000	0.020	0.078
-245.990	21.869	-0.166	-0.134
-244.976	764.454	0.041	-0.110
-243.961	-103.698	-0.247	-0.057
-242.946	-127.190	0.265	-0.038
-241.932	-167.616	0.064	0.003
-240.917	21.748	-0.092	0.074
-239.903	732.689	0.037	-0.098
-238.888	-54.010	-0.340	-0.154
-237.873	-130.036	0.101	0.014
-236.859	85.569	0.096	-0.104
-235.844	-200.000	-0.002	-0.053
-234.830	-37.697	-0.240	0.127
-233.815	-200.000	-0.017	-0.193
-232.800	-200.000	-0.054	0.267
-231.786	222.221	-0.078	-0.124
-230.771	123.852	0.120	0.149
-229.757	-133.682	-0.210	0.026
-228.742	-200.000	-0.031	0.156
-227.727	-102.222	-0.149	0.035
-226.713	800.000	-0.074	0.205
-225.698	127.448	-0.207	-0.260
-224.684	307.967	-0.088	-0.163
-223.669	-200.000	-0.017	-0.075
-222.655	-200.000	0.050	-0.221
-221.640	800.000	-0.081	0.254
-220.625	155.180	-0.115	0.157
-219.611	-137.874	0.245	0.027
-218.596	360.182	-0.129	-0.256
-217.582	372.451	0.129	-0.260
-216.567	172.973	-0.022	0.032
-215.552	-60.700	-0.409	-0.172
-214.538	800.000	-0.085	0.330
-213.523	8.599	-0.083	-0.062
-212.509	-128.307	-0.184	-0.026
-211.494	125.250	0.214	0.268
-210.479	482.358	0.137	0.308
-209.465	-70.109	0.127	-0.048
-208.450	-200.000	-0.037	-0.221
-207.436	800.000	-0.015	-0.048
-206.421	642.304	0.067	-0.170
-205.406	-72.901	-0.100	-0.036
-204.392	-200.000	-0.008	0.038
-203.377	612.023	0.050	0.124
-202.363	438.129	-0.009	-0.019
-201.348	160.517	0.196	-0.270
-200.333	-129.787	0.305	0.042
-199.319	-51.087	-0.344	0.160
-198.304	85.436	0.146	0.159
-197.290	261.220	-0.121	-0.207
-196.275	-54.096	-0.186	-0.084
-195.260	-140.531	0.154	-0.016
-194.246	-20.023	0.184	-0.112
-193.231	800.000	0.016	0.049
-192.217	-33.226	0.217	-0.119
-191.202	-34.847	0.374	-0.202
-190.187	-157.977	0.267	0.016
-189.173	113.133	0.070	-0.084
-188.158	289.553	0.089	-0.160
-187.144	28.548	-0.230	-0.193
-186.129	800.000	0.154	0.460
-185.114	784.728	0.145	0.394
-184.100	8.340	0.115	0.085
-183.085	-111.959	0.123	-0.024
-182.071	-67.824	-0.092	-0.036
-181.056	14.229	-0.142	0.109
-180.042	21.017	0.201	-0.162
-179.027	-74.976	0.525	0.186
-178.012	-106.898	0.276	-0.060
-176.998	254.152	-0.068	0.116
-175.983	-89.740	0.056	0.016
-174.969	175.187	-0.041	0.058
-173.954	-200.000	0.041	-0.209
-172.939	14.259	0.142	0.109
-171.925	108.424	0.088	0.104
-170.910	-200.000	0.003	0.187
-169.896	-134.560	-0.121	-0.015
-168.881	-200.000	0.002	0.017
-167.866	-200.000	-0.072	-0.444
-166.852	-41.140	0.132	-0.067
-165.837	236.991	0.026	0.042
-164.823	-200.000	-0.053	-0.229
-163.808	-5.933	-0.243	0.165
-162.793	-27.975	-0.396	0.227
-161.779	-28.929	-0.219	0.124
-160.764	189.613	0.068	-0.101
-159.750	86.065	0.196	-0.213
-158.735	14.424	0.100	-0.077
-157.720	136.729	0.110	0.142
-156.706	204.168	-0.119	0.182
-155.691	424.266	-0.129	0.275
-154.677	400.113	-0.051	-0.105
-153.662	-146.406	-0.083	0.007
-152.647	116.360	-0.155	-0.187
-151.633	-200.000	-0.012	-0.329
-150.618	800.000	-0.049	-0.210
-149.604	140.965	0.115	-0.150
-148.589	230.617	0.067	-0.108
-147.574	-167.814	-0.236	-0.009
-146.560	102.374	-0.172	-0.198
-145.545	-200.000	0.021	-0.180
-144.531	2.079	-0.099	-0.070
-143.516	-121.837	-0.253	0.041
-142.502	270.395	0.067	-0.116
-141.487	-77.955	0.280	0.095
-140.472	13.165	0.118	0.090
-139.458	800.000	-0.044	0.124
-138.443	-200.000	0.006	-0.218
-137.429	-189.503	-0.450	-0.005
-136.414	49.398	-0.198	-0.184
-135.399	-15.277	-0.205	-0.129
-134.385	64.459	0.099	0.099
-133.370	421.039	0.062	0.130
-132.356	-50.415	0.051	0.024
-131.341	-122.609	0.158	0.025
-130.326	-150.138	-0.101	-0.008
-129.312	-71.604	0.237	0.087
-128.297	-120.146	-0.322	0.054
-127.283	-86.439	-0.456	-0.138
-126.268	-152.486	0.199	-0.014
-125.253	-86.833	-0.201	-0.061
-124.239	174.494	0.049	-0.071
-123.224	64.344	-0.150	-0.149
-122.210	-105.724	-0.182	0.041
