DTS Sentinel unit serial number:	SN413079Multiplexer serial number:	ORYXHardware model number:	OX4-SRSoftware version number:	ORYX F/W v4.00 Oryx Data Collector v3.7.2.0data status	okinstallation	princeton_trtdifferential loss correction	single-endedforward channel	channel 1reverse channel	N/Adate	2019/09/12time	01:00:11forward acquisition time	60.00reverse acquisition time	0.00gamma	496.2192k internal	0.2319k external	0.2319temperature offset calibration	1.0077default loss term (dB/km)	0.3790temperature slope calibration	1.0000multiplexer offset coefficient	1.0000multiplexer slope coefficient	1.0000fibre end	0.00T internal ref (°C)	33.19T ext. ref 1 (°C)	2.07T ext. ref 2 (°C)	27.08length (m)	temperature (°C)	Stokes	anti-Stokes-747.200	-200.000	0.033	-0.187
-746.185	-200.000	-0.083	0.382
-745.171	-60.605	-0.484	0.208
-744.156	-200.000	0.063	0.400
-743.142	-200.000	0.001	-0.030
-742.127	-173.518	-0.167	-0.005
-741.112	-77.949	-0.138	-0.048
-740.098	125.925	0.097	-0.124
-739.083	-78.792	0.194	0.067
-738.069	-164.647	-0.188	0.009
-737.054	716.386	-0.032	-0.087
-736.039	156.957	-0.093	-0.130
-735.025	-200.000	0.013	0.083
-734.010	-200.000	0.007	-0.119
-732.996	-200.000	0.006	-0.085
-731.981	-65.366	-0.188	-0.076
-730.966	-118.392	-0.153	0.027
-729.952	797.726	-0.037	-0.102
-728.937	10.099	-0.261	-0.201
-727.923	-200.000	0.003	-0.098
-726.908	72.857	0.152	0.160
-725.894	-148.879	-0.241	0.020
-724.879	-58.762	-0.206	-0.090
-723.864	-72.351	-0.123	-0.046
-722.850	6.553	0.276	-0.207
-721.835	175.806	-0.125	-0.184
-720.821	-37.876	0.122	0.065
-719.806	-200.000	-0.009	-0.274
-718.791	-200.000	-0.084	-0.395
-717.777	800.000	-0.063	0.230
-716.762	-144.061	-0.292	-0.028
-715.748	178.660	-0.131	-0.193
-714.733	-33.262	-0.111	-0.062
-713.718	-71.996	-0.396	0.149
-712.704	103.126	0.193	-0.228
-711.689	-200.000	-0.038	-0.180
-710.675	418.589	-0.045	0.096
-709.660	60.821	0.141	-0.141
-708.645	182.530	-0.069	-0.103
-707.631	-25.019	-0.248	-0.148
-706.616	186.292	-0.132	-0.199
-705.602	-16.213	-0.079	0.050
-704.587	15.392	0.102	0.081
-703.572	-34.597	-0.072	0.040
-702.558	-43.499	0.232	0.118
-701.543	126.981	0.168	-0.215
-700.529	-74.746	-0.070	0.025
-699.514	-200.000	0.045	-0.468
-698.499	287.653	0.101	0.184
-697.485	-174.463	-0.245	0.007
-696.470	-200.000	0.066	-0.349
-695.456	-151.492	-0.119	0.009
-694.441	732.704	0.116	-0.313
-693.426	94.390	-0.080	0.092
-692.412	-10.843	0.128	0.085
-691.397	403.224	-0.016	0.035
-690.383	-200.000	0.020	-0.216
-689.368	371.026	0.129	-0.265
-688.354	-142.439	-0.210	0.021
-687.339	-132.378	-0.253	-0.033
-686.324	-68.852	-0.189	-0.074
-685.310	-144.357	-0.393	-0.037
-684.295	-175.012	0.176	0.005
-683.281	609.906	-0.055	0.138
-682.266	403.697	-0.238	0.505
-681.251	154.615	-0.263	-0.365
-680.237	251.209	0.055	0.094
-679.222	87.224	0.209	0.234
-678.208	46.635	-0.280	0.262
-677.193	72.873	-0.147	0.155
-676.178	-200.000	-0.044	-0.370
-675.164	-200.000	-0.023	-0.161
-674.149	-122.112	0.097	-0.016
-673.135	69.974	-0.169	-0.176
-672.120	420.773	0.056	-0.122
-671.105	12.278	-0.253	0.197
-670.091	158.802	0.093	-0.130
-669.076	-53.048	-0.230	-0.107
-668.062	-19.666	0.238	0.148
-667.047	-200.000	0.021	-0.250
-666.032	36.829	-0.075	-0.067
-665.018	-200.000	-0.011	-0.073
-664.003	161.394	0.067	-0.095
-662.989	51.698	0.183	-0.175
-661.974	800.000	-0.082	-0.257
-660.959	-77.591	-0.058	0.020
-659.945	-200.000	0.000	-0.093
-658.930	300.825	-0.145	-0.271
-657.916	-119.803	-0.045	0.008
-656.901	-38.096	0.386	0.207
-655.886	-200.000	0.064	-0.551
-654.872	106.354	0.065	0.078
-653.857	130.656	0.025	-0.033
-652.843	123.687	-0.121	-0.153
-651.828	-174.283	-0.149	0.004
-650.814	-133.158	-0.232	-0.030
-649.799	-159.676	-0.183	-0.010
-648.784	-144.664	-0.211	-0.020
-647.770	-200.000	0.000	-0.162
-646.755	16.650	0.245	-0.195
-645.741	-20.936	-0.128	0.079
-644.726	38.779	0.260	0.234
-643.711	800.000	0.050	-0.201
-642.697	-39.657	-0.447	0.236
-641.682	800.000	-0.036	0.153
-640.668	201.463	0.024	0.036
-639.653	-101.339	-0.221	0.054
-638.638	5.417	0.082	-0.061
-637.624	-131.005	0.219	-0.029
-636.609	-59.904	0.177	0.076
-635.595	64.601	-0.132	-0.135
-634.580	-88.896	-0.212	0.063
-633.565	-54.488	-0.323	-0.147
-632.551	-74.602	0.210	0.076
-631.536	248.800	-0.067	-0.115
-630.522	-6.386	-0.299	-0.205
-629.507	784.145	-0.068	0.188
-628.492	-116.409	-0.134	-0.025
-627.478	-200.000	-0.389	-0.000
-626.463	-15.556	0.239	0.154
-625.449	800.000	0.046	0.169
-624.434	-66.268	0.328	0.131
-623.419	-119.163	0.164	0.029
-622.405	125.325	0.076	-0.096
-621.390	424.887	0.179	-0.388
-620.376	-200.000	-0.002	0.044
-619.361	36.552	0.195	0.173
-618.346	382.696	-0.193	-0.400
-617.332	70.877	-0.199	-0.207
-616.317	189.741	-0.101	-0.153
-615.303	-113.970	0.361	0.071
-614.288	-109.990	0.090	-0.019
-613.273	124.320	-0.076	0.096
-612.259	49.746	0.156	-0.148
-611.244	53.638	-0.113	-0.109
-610.230	-127.917	0.248	-0.036
-609.215	633.292	0.043	-0.108
-608.201	800.000	0.018	0.080
-607.186	-6.663	-0.137	-0.094
-606.171	-103.034	-0.245	-0.059
-605.157	-58.500	-0.176	-0.077
-604.142	249.659	0.126	-0.215
-603.128	800.000	-0.007	0.028
-602.113	-92.070	0.137	-0.039
-601.098	-21.316	0.108	0.066
-600.084	800.000	-0.064	-0.181
-599.069	181.377	-0.189	-0.280
-598.055	-40.786	0.388	0.202
-597.040	120.773	0.077	-0.096
-596.025	-153.140	0.200	-0.014
-595.011	497.418	-0.027	-0.062
-593.996	-41.397	0.308	0.159
-592.982	-200.000	-0.008	0.455
-591.967	328.717	-0.053	0.103
-590.952	-200.000	0.007	0.215
-589.938	94.118	0.074	0.085
-588.923	800.000	-0.076	0.315
-587.909	153.022	0.127	-0.174
-586.894	467.362	-0.180	-0.406
-585.879	23.449	0.148	-0.122
-584.865	-86.124	0.238	0.074
-583.850	-99.444	-0.174	0.044
-582.836	-112.947	0.322	-0.064
-581.821	-200.000	0.017	-0.239
-580.806	-95.563	-0.101	-0.027
-579.792	359.349	0.045	0.091
-578.777	-105.475	0.144	-0.033
-577.763	-200.000	-0.029	0.131
-576.748	-200.000	0.006	0.311
-575.733	-78.794	-0.089	-0.030
-574.719	-52.966	0.169	0.078
-573.704	800.000	-0.082	-0.317
-572.690	-200.000	0.024	-0.144
-571.675	-30.739	0.141	-0.080
-570.661	-74.516	-0.199	0.072
-569.646	-143.262	0.079	-0.008
-568.631	800.000	0.059	0.216
-567.617	101.482	-0.158	0.184
-566.602	147.901	-0.122	-0.165
-565.588	-200.000	-0.013	0.157
-564.573	164.235	-0.229	0.325
-563.558	800.000	-0.112	-0.426
-562.544	-45.302	0.282	-0.141
-561.529	800.000	0.046	-0.185
-560.515	-181.102	-0.195	0.004
-559.500	364.646	0.035	0.070
-558.485	-163.954	-0.169	0.008
-557.471	460.836	0.124	0.278
-556.456	800.000	0.078	0.281
-555.442	80.248	-0.089	-0.097
-554.427	-73.259	0.051	-0.019
-553.412	-200.000	-0.071	-0.399
-552.398	72.562	0.082	-0.086
-551.383	-113.195	0.322	0.064
-550.369	98.001	-0.288	0.333
-549.354	-68.556	-0.058	0.022
-548.339	0.626	0.177	-0.127
-547.325	2.759	-0.044	0.032
-546.310	-62.382	0.074	-0.031
-545.296	-200.000	0.014	0.124
-544.281	-200.000	0.018	-0.432
-543.266	800.000	0.025	0.101
-542.252	-200.000	0.020	0.132
-541.237	-44.670	-0.108	-0.054
-540.223	-119.650	-0.112	0.019
-539.208	800.000	0.154	0.634
-538.193	-148.879	0.215	0.017
-537.179	220.549	0.101	-0.162
-536.164	325.178	0.056	0.107
-535.150	268.874	-0.081	0.142
-534.135	89.360	0.243	-0.272
-533.121	-200.000	-0.009	-0.236
-532.106	308.661	-0.070	0.131
-531.091	-40.510	0.135	-0.070
-530.077	-200.000	0.058	-0.321
-529.062	800.000	0.085	0.294
-528.048	121.203	0.092	0.115
-527.033	104.047	0.315	0.371
-526.018	-86.850	0.322	-0.099
-525.004	-119.600	-0.457	-0.079
-523.989	-139.096	-0.176	-0.019
-522.975	-200.000	0.006	0.159
-521.960	297.205	-0.090	0.166
-520.945	-66.422	0.176	-0.070
-519.931	-81.053	-0.234	-0.078
-518.916	-18.756	-0.561	-0.350
-517.902	-64.978	0.174	-0.070
-516.887	466.343	0.053	-0.120
-515.872	-200.000	0.024	-0.168
-514.858	145.185	-0.155	-0.208
-513.843	329.284	0.134	-0.258
-512.829	-41.178	0.133	-0.069
-511.814	-200.000	-0.021	0.274
-510.799	-17.344	0.279	0.176
-509.785	-200.000	0.054	-0.314
-508.770	416.016	0.207	-0.443
-507.756	135.448	-0.254	-0.332
-506.741	-200.000	-0.061	-0.282
-505.726	-195.897	-0.071	0.001
-504.712	800.000	0.046	-0.134
-503.697	-147.449	-0.270	0.023
-502.683	618.937	0.244	-0.615
-501.668	703.234	0.062	0.163
-500.653	-200.000	-0.043	-0.251
-499.639	800.000	0.058	-0.213
-498.624	791.927	0.055	0.151
-497.610	-200.000	0.020	0.284
-496.595	-94.648	0.283	0.077
-495.581	-130.765	-0.086	0.012
-494.566	-106.783	0.205	-0.046
-493.551	344.645	-0.235	0.462
-492.537	-200.000	0.030	-0.225
-491.522	-97.252	-0.304	0.079
-490.508	800.000	0.061	0.240
-489.493	-38.331	0.302	-0.160
-488.478	136.360	-0.191	-0.250
-487.464	-82.214	-0.200	0.065
-486.449	800.000	-0.053	0.187
-485.435	22.243	0.334	-0.273
-484.420	-200.000	-0.032	-0.147
-483.405	57.274	0.123	-0.121
-482.391	-200.000	0.016	0.183
-481.376	17.534	0.013	0.010
-480.362	-87.225	0.263	-0.080
-479.347	58.463	-0.160	-0.158
-478.332	277.663	-0.107	0.190
-477.318	800.000	0.047	0.180
-476.303	38.006	-0.238	0.212
-475.289	-118.331	-0.245	-0.044
-474.274	497.257	-0.165	-0.380
-473.259	800.000	-0.018	-0.078
-472.245	10.260	-0.168	-0.128
-471.230	28.759	-0.147	0.125
-470.216	617.864	-0.038	0.096
-469.201	201.550	-0.248	-0.382
-468.186	800.000	0.099	0.314
-467.172	-191.828	-0.191	-0.002
-466.157	-73.906	-0.225	0.082
-465.143	302.941	0.132	0.244
-464.128	215.791	-0.055	-0.087
-463.113	-74.101	-0.247	0.090
-462.099	800.000	-0.039	-0.144
-461.084	123.548	-0.066	0.082
-460.070	83.105	-0.097	0.106
-459.055	263.002	-0.204	0.354
-458.040	800.000	0.021	-0.061
-457.026	92.690	-0.091	0.102
-456.011	14.124	0.079	0.062
-454.997	-114.086	0.090	-0.017
-453.982	18.219	-0.107	0.085
-452.968	764.016	0.049	0.132
-451.953	-99.920	0.162	-0.041
-450.938	-23.728	-0.213	-0.128
-449.924	191.448	-0.170	0.256
-448.909	-12.209	0.067	0.044
-447.895	-14.235	0.292	-0.189
-446.880	-93.648	0.262	-0.072
-445.865	304.945	-0.076	0.142
-444.851	800.000	-0.017	0.056
-443.836	-15.803	0.025	-0.016
-442.822	-55.003	-0.203	-0.091
-441.807	-69.713	0.261	0.100
-440.792	-200.000	-0.006	0.105
-439.778	-200.000	-0.171	-0.001
-438.763	185.598	0.032	0.048
-437.749	800.000	0.063	-0.195
-436.734	-200.000	0.025	-0.215
-435.719	418.385	-0.104	0.221
-434.705	43.806	0.379	-0.347
-433.690	800.000	0.023	0.092
-432.676	-200.000	-0.014	0.135
-431.661	155.932	0.164	0.226
-430.646	-168.658	-0.315	0.012
-429.632	-8.920	-0.111	-0.074
-428.617	-64.216	0.164	0.067
-427.603	-50.266	-0.127	0.060
-426.588	-200.000	-0.015	-0.257
-425.573	-200.000	-0.030	0.225
-424.559	-116.182	0.040	-0.007
-423.544	-132.866	0.017	-0.002
-422.530	139.578	-0.354	0.466
-421.515	101.220	-0.180	-0.209
-420.500	5.023	0.050	0.037
-419.486	225.878	0.115	0.187
-418.471	90.951	0.218	-0.244
-417.457	-42.248	-0.323	-0.165
-416.442	400.919	0.027	-0.057
-415.428	-200.000	-0.020	0.129
-414.413	800.000	-0.087	-0.352
-413.398	-59.057	-0.083	-0.036
-412.384	-109.068	-0.330	-0.070
-411.369	114.210	-0.032	0.039
-410.355	-200.000	-0.013	-0.114
-409.340	-200.000	-0.025	-0.491
-408.325	800.000	0.045	-0.180
-407.311	-129.854	-0.302	0.041
-406.296	-30.699	0.259	0.147
-405.282	77.838	0.109	-0.115
-404.267	-200.000	-0.028	-0.273
-403.252	-95.915	0.253	-0.067
-402.238	21.811	0.242	-0.196
-401.223	236.596	-0.085	0.140
-400.209	-78.998	0.350	0.119
-399.194	-149.281	-0.093	0.007
-398.179	770.641	0.090	0.245
-397.165	-200.000	0.014	-0.091
-396.150	-119.776	-0.238	0.041
-395.136	-200.000	-0.046	-0.239
-394.121	201.958	-0.095	-0.146
-393.106	-138.493	-0.071	-0.008
-392.092	-192.446	0.181	0.002
-391.077	3.725	0.286	0.208
-390.063	394.900	0.083	-0.172
-389.048	-31.374	-0.057	0.032
-388.033	-127.588	0.187	0.027
-387.019	378.726	-0.123	0.251
-386.004	295.650	0.109	-0.199
-384.990	-200.000	0.027	0.188
-383.975	8.986	-0.050	0.038
-382.960	-93.622	0.144	-0.040
-381.946	-129.427	0.157	-0.022
-380.931	-200.000	-0.032	0.182
-379.917	-153.909	-0.128	-0.009
-378.902	800.000	0.099	-0.322
-377.888	800.000	-0.070	-0.278
-376.873	-57.317	-0.296	-0.130
-375.858	-18.970	0.323	-0.200
-374.844	-92.974	0.069	-0.019
-373.829	800.000	-0.070	0.257
-372.815	-36.598	-0.301	-0.161
-371.800	800.000	0.042	-0.120
-370.785	33.424	0.043	0.037
-369.771	-59.334	0.181	0.078
-368.756	-72.179	0.189	0.070
-367.742	170.280	0.177	0.253
-366.727	191.926	0.172	0.258
-365.712	-200.000	0.033	0.163
-364.698	283.181	-0.169	0.302
-363.683	-64.071	-0.159	-0.065
-362.669	16.398	-0.257	-0.202
-361.654	-146.192	0.282	0.025
-360.639	44.793	0.036	-0.033
-359.625	-80.133	0.146	0.049
-358.610	81.103	-0.082	0.089
-357.596	-38.590	0.178	0.094
-356.581	-101.798	-0.226	0.054
-355.566	-154.358	-0.176	-0.012
-354.552	48.194	-0.192	0.179
-353.537	-83.465	-0.239	-0.076
-352.523	-122.787	-0.077	0.012
-351.508	7.230	-0.142	0.106
-350.493	-200.000	0.020	0.102
-349.479	-200.000	-0.090	0.467
-348.464	-14.449	-0.139	-0.089
-347.450	492.033	0.047	0.108
-346.435	-122.315	-0.413	-0.067
-345.420	-59.169	0.167	-0.072
-344.406	515.037	-0.109	0.254
-343.391	-46.213	-0.088	0.043
-342.377	-200.000	0.021	0.311
-341.362	-200.000	-0.028	0.440
-340.348	187.313	-0.143	-0.213
-339.333	155.164	0.175	-0.240
-338.318	-152.255	0.231	0.017
-337.304	261.278	-0.075	0.129
-336.289	108.215	0.156	0.185
-335.275	-7.429	-0.251	-0.169
-334.260	-97.134	-0.319	-0.083
-333.245	108.263	0.086	-0.102
-332.231	267.596	0.162	-0.282
-331.216	185.942	0.030	-0.044
-330.202	-200.000	-0.075	-0.521
-329.187	-77.507	-0.148	0.051
-328.172	800.000	0.095	-0.265
-327.158	-97.100	0.317	-0.082
-326.143	-56.287	-0.227	-0.101
-325.129	-68.344	-0.258	-0.100
-324.114	-99.495	-0.068	0.017
-323.099	-102.734	0.336	0.080
-322.085	-10.296	-0.257	0.169
-321.070	24.993	-0.178	-0.147
-320.056	-181.026	-0.172	-0.003
-319.041	125.350	0.177	-0.222
-318.026	167.524	-0.184	0.260
-317.012	-23.678	0.120	-0.071
-315.997	-20.563	-0.233	0.142
-314.983	-97.928	0.292	-0.075
-313.968	189.475	-0.165	-0.245
-312.953	489.361	-0.074	0.169
-311.939	-111.180	0.211	0.043
-310.924	479.382	-0.070	0.158
-309.910	-200.000	-0.028	-0.124
-308.895	-27.340	0.134	0.078
-307.880	-200.000	-0.006	-0.031
-306.866	-200.000	-0.041	0.265
-305.851	-17.082	0.091	-0.057
-304.837	-29.537	-0.051	0.029
-303.822	91.577	0.245	0.274
-302.807	-200.000	0.036	0.194
-301.793	10.367	-0.120	0.091
-300.778	310.773	0.114	-0.212
-299.764	800.000	-0.091	0.253
-298.749	-200.000	-0.017	0.133
-297.735	691.895	0.127	0.331
-296.720	22.338	0.166	-0.135
-295.705	-111.416	0.443	-0.090
-294.691	-200.000	0.007	-0.224
-293.676	800.000	0.074	-0.206
-292.662	-131.254	0.144	-0.019
-291.647	-200.000	0.010	0.065
-290.632	284.413	0.049	0.087
-289.618	800.000	0.073	-0.298
-288.603	131.233	0.098	-0.126
-287.589	21.627	0.285	0.230
-286.574	40.349	-0.258	-0.231
-285.559	-58.682	0.269	0.116
-284.545	-27.602	0.088	-0.051
-283.530	-46.232	-0.192	0.094
-282.516	-56.473	-0.343	0.151
-281.501	-3.180	-0.217	0.150
-280.486	22.485	0.287	0.233
-279.472	-200.000	0.006	0.033
-278.457	-200.000	-0.009	-0.281
-277.443	-94.746	-0.200	-0.054
-276.428	800.000	-0.078	0.316
-275.413	-77.827	-0.080	0.028
-274.399	23.914	-0.147	0.120
-273.384	589.489	0.101	0.247
-272.370	-119.415	-0.081	-0.014
-271.355	-124.449	0.053	0.008
-270.340	271.170	0.131	0.229
-269.326	-200.000	-0.053	0.479
-268.311	-175.661	-0.174	0.005
-267.297	-104.094	-0.124	0.029
-266.282	-16.437	-0.218	0.137
-265.267	800.000	0.036	-0.128
-264.253	348.966	-0.060	-0.118
-263.238	467.001	0.088	0.197
-262.224	-31.540	0.052	0.029
-261.209	-2.246	0.117	-0.082
-260.195	-156.835	0.212	0.013
-259.180	800.000	-0.033	0.121
-258.165	-146.947	0.180	0.015
-257.151	-138.973	0.212	-0.023
-256.136	-200.000	-0.008	-0.153
-255.122	-59.168	0.126	0.054
-254.107	122.415	0.157	0.194
-253.092	80.634	-0.060	0.064
-252.078	-200.000	0.007	-0.125
-251.063	800.000	-0.031	-0.118
-250.049	249.251	-0.118	-0.199
-249.034	-100.300	-0.160	-0.039
-248.019	-200.000	0.001	0.066
-247.005	-52.221	-0.152	0.070
-245.990	490.479	0.076	0.172
-244.976	70.999	0.108	0.111
-243.961	-60.825	0.342	-0.144
-242.946	-200.000	-0.088	0.419
-241.932	199.601	-0.108	-0.165
-240.917	455.293	0.151	-0.333
-239.903	-104.555	-0.168	-0.039
-238.888	272.654	0.062	0.108
-237.873	-8.146	-0.091	-0.061
-236.859	800.000	-0.050	-0.208
-235.844	373.101	-0.048	0.096
-234.830	34.512	-0.100	0.086
-233.815	219.927	-0.021	-0.034
-232.800	-111.098	0.256	-0.052
-231.786	596.332	0.207	0.509
-230.771	800.000	-0.073	0.254
-229.757	329.685	0.059	0.112
-228.742	-200.000	-0.003	0.095
-227.727	-45.089	-0.058	-0.028
-226.713	-105.555	0.366	-0.082
-225.698	-85.577	-0.013	-0.004
-224.684	-122.395	0.292	-0.047
-223.669	100.051	-0.356	0.409
-222.655	-118.595	-0.348	-0.061
-221.640	-136.789	-0.605	-0.069
-220.625	-137.218	0.423	0.048
-219.611	388.409	-0.041	0.085
-218.596	36.636	-0.131	0.114
-217.582	-143.947	0.155	-0.014
-216.567	304.381	-0.071	0.131
-215.552	47.149	-0.340	-0.314
-214.538	-163.525	0.257	-0.012
-213.523	391.152	-0.092	0.189
-212.509	-146.277	-0.251	-0.022
-211.494	240.745	0.055	0.090
-210.479	-200.000	0.003	-0.295
-209.465	132.791	-0.159	-0.204
-208.450	-200.000	0.010	-0.410
-207.436	149.728	-0.254	-0.341
-206.421	800.000	-0.071	-0.263
-205.406	91.288	-0.058	0.064
-204.392	-75.167	-0.234	-0.083
-203.377	-200.000	-0.015	-0.128
-202.363	-200.000	0.041	-0.296
-201.348	-110.529	0.365	0.075
-200.333	154.102	0.112	0.152
-199.319	252.140	0.163	-0.275
-198.304	-200.000	0.030	0.259
-197.290	-113.287	-0.344	-0.067
-196.275	-200.000	0.021	0.105
-195.260	-20.274	0.203	0.124
-194.246	183.841	0.124	-0.181
-193.231	-113.512	0.290	0.056
-192.217	-13.314	0.296	0.190
-191.202	11.159	0.062	0.047
-190.187	-76.613	0.078	-0.027
-189.173	-200.000	0.025	-0.231
-188.158	-105.043	-0.278	0.063
-187.144	31.854	0.157	0.134
-186.129	-141.597	-0.233	0.023
-185.114	-80.808	0.335	-0.110
-184.100	-200.000	-0.067	-0.381
-183.085	-107.444	0.088	-0.019
-182.071	88.166	-0.107	-0.117
-181.056	-53.792	0.111	0.050
-180.042	-50.183	-0.265	0.124
-179.027	110.481	0.165	0.196
-178.012	1.869	-0.232	0.166
-176.998	186.251	-0.121	-0.178
-175.983	-18.707	0.162	0.100
-174.969	311.301	0.018	0.033
-173.954	123.733	0.041	-0.051
-172.939	-182.689	0.352	-0.006
-171.925	-114.807	0.353	-0.067
-170.910	45.413	-0.459	0.419
-169.896	-200.000	0.025	0.135
-168.881	325.050	-0.127	0.241
-167.866	124.352	0.073	-0.091
-166.852	2.198	0.058	0.041
-165.837	33.327	-0.119	0.102
-164.823	-200.000	-0.084	-0.363
-163.808	282.036	0.204	-0.361
-162.793	-188.602	-0.092	-0.001
-161.779	-200.000	0.018	0.242
-160.764	3.429	0.344	0.247
-159.750	79.662	-0.329	0.349
-158.735	800.000	0.052	0.224
-157.720	-78.975	0.161	0.054
-156.706	-200.000	0.033	-0.292
-155.691	63.172	-0.102	-0.101
-154.677	-143.635	-0.279	-0.026
-153.662	-29.816	-0.197	-0.111
-152.647	337.547	0.094	0.181
-151.633	38.256	0.092	-0.081
-150.618	24.429	-0.085	-0.070
-149.604	104.278	0.150	0.174
-148.589	52.456	0.173	0.163
-147.574	-114.905	-0.481	-0.091
-146.560	18.371	-0.149	-0.117
-145.545	-20.366	-0.410	0.250
-144.531	800.000	-0.001	-0.004
-143.516	-29.662	-0.254	-0.143
-142.502	-109.045	-0.227	0.048
-141.487	-200.000	-0.042	0.261
-140.472	273.327	0.102	-0.178
-139.458	-39.066	-0.247	-0.129
-138.443	-27.389	0.218	-0.125
-137.429	268.661	0.068	0.118
-136.414	800.000	0.036	0.122
-135.399	-16.325	0.396	0.249
-134.385	-50.682	0.020	-0.009
-133.370	336.113	0.135	-0.259
-132.356	-11.577	-0.358	0.232
-131.341	-43.470	-0.081	-0.040
-130.326	388.008	0.140	-0.286
-129.312	513.970	0.051	0.117
-128.297	-27.888	-0.041	0.024
-127.283	-15.056	0.066	0.042
-126.268	800.000	0.065	-0.211
-125.253	773.573	-0.016	0.043
-124.239	163.030	0.048	0.067
-123.224	-103.688	0.261	-0.060
-122.210	-109.553	-0.122	0.025
