DTS Sentinel unit serial number:	SN413079Multiplexer serial number:	ORYXHardware model number:	OX4-SRSoftware version number:	ORYX F/W v4.00 Oryx Data Collector v3.7.2.0data status	okinstallation	princeton_trtdifferential loss correction	single-endedforward channel	channel 1reverse channel	N/Adate	2019/09/10time	22:44:11forward acquisition time	60.00reverse acquisition time	0.00gamma	496.2192k internal	0.2331k external	0.2331temperature offset calibration	0.9937default loss term (dB/km)	0.3790temperature slope calibration	1.0000multiplexer offset coefficient	1.0000multiplexer slope coefficient	1.0000fibre end	0.00T internal ref (°C)	30.19T ext. ref 1 (°C)	-0.31T ext. ref 2 (°C)	23.68length (m)	temperature (°C)	Stokes	anti-Stokes-747.200	800.000	0.069	0.231
-746.185	3.599	-0.278	0.204
-745.171	-48.927	0.167	-0.080
-744.156	-158.522	0.102	0.006
-743.142	82.066	-0.134	0.146
-742.127	-51.122	-0.165	0.078
-741.112	318.815	-0.080	0.153
-740.098	-200.000	-0.004	0.245
-739.083	-200.000	0.070	-0.405
-738.069	-141.918	0.130	-0.013
-737.054	-24.637	0.303	0.182
-736.039	-119.308	-0.223	0.039
-735.025	-200.000	0.009	0.290
-734.010	-94.974	-0.039	0.011
-732.996	-147.987	-0.021	-0.002
-731.981	33.588	0.176	-0.154
-730.966	-200.000	-0.018	-0.323
-729.952	289.412	0.241	-0.440
-728.937	-102.349	-0.414	-0.100
-727.923	81.464	0.345	0.375
-726.908	-200.000	-0.025	-0.161
-725.894	574.976	0.032	0.079
-724.879	367.586	0.035	-0.072
-723.864	-200.000	-0.057	-0.367
-722.850	-38.893	-0.241	-0.128
-721.835	275.509	0.188	-0.336
-720.821	-57.914	-0.163	-0.072
-719.806	-200.000	-0.005	0.080
-718.791	-200.000	0.002	0.277
-717.777	-105.256	0.167	0.038
-716.762	800.000	-0.055	-0.216
-715.748	187.809	0.173	-0.259
-714.733	-200.000	-0.007	-0.320
-713.718	208.807	-0.239	-0.375
-712.704	-200.000	0.026	-0.194
-711.689	407.135	-0.166	-0.353
-710.675	1.704	0.135	-0.098
-709.660	217.622	-0.194	0.311
-708.645	306.191	0.046	-0.087
-707.631	-10.438	0.249	-0.166
-706.616	-122.180	0.412	0.068
-705.602	-100.594	-0.325	0.081
-704.587	-5.103	-0.157	-0.109
-703.572	206.900	0.078	-0.122
-702.558	-16.770	-0.296	-0.188
-701.543	-200.000	-0.051	-0.362
-700.529	180.002	-0.165	0.243
-699.514	93.450	0.134	-0.153
-698.499	-200.000	0.055	-0.285
-697.485	-74.002	0.264	0.096
-696.470	800.000	-0.062	-0.206
-695.456	-185.515	-0.135	-0.002
-694.441	-155.874	-0.272	0.017
-693.426	-200.000	-0.028	0.139
-692.412	338.097	-0.030	0.059
-691.397	-200.000	0.008	0.176
-690.383	-126.684	0.459	-0.068
-689.368	602.279	0.152	0.380
-688.354	0.718	0.006	0.005
-687.339	-29.090	0.037	-0.021
-686.324	-56.639	0.111	-0.049
-685.310	-95.332	0.268	-0.072
-684.295	147.866	0.089	-0.120
-683.281	70.623	-0.089	0.093
-682.266	42.611	0.022	0.020
-681.251	-200.000	0.007	-0.098
-680.237	-200.000	-0.034	-0.212
-679.222	-2.784	-0.249	-0.174
-678.208	8.791	0.143	0.109
-677.193	-200.000	0.001	0.019
-676.178	-200.000	-0.036	-0.391
-675.164	150.679	-0.013	0.017
-674.149	-162.607	-0.465	-0.023
-673.135	554.948	-0.039	-0.094
-672.120	-171.534	0.265	0.009
-671.105	-108.069	-0.148	0.032
-670.091	-40.791	0.256	0.133
-669.076	-113.463	0.104	0.020
-668.062	-101.731	0.312	-0.076
-667.047	458.512	0.096	-0.215
-666.032	-136.253	-0.183	-0.022
-665.018	-86.083	-0.085	0.026
-664.003	162.706	-0.231	-0.325
-662.989	-14.138	0.193	0.125
-661.974	-79.362	-0.088	0.030
-660.959	46.476	-0.072	-0.067
-659.945	800.000	0.051	-0.199
-658.930	-200.000	-0.020	0.160
-657.916	188.368	-0.160	0.240
-656.901	-83.884	0.107	-0.034
-655.886	-200.000	-0.011	-0.195
-654.872	38.356	-0.102	-0.091
-653.857	-71.517	-0.061	-0.023
-652.843	-95.557	0.153	0.041
-651.828	8.679	0.178	0.135
-650.814	-200.000	-0.009	0.281
-649.799	-62.331	-0.347	0.145
-648.784	47.233	-0.355	0.331
-647.770	-25.640	-0.032	-0.019
-646.755	800.000	-0.027	-0.093
-645.741	-5.754	0.138	-0.095
-644.726	175.025	0.075	-0.108
-643.711	-200.000	-0.039	0.391
-642.697	133.898	0.108	0.140
-641.682	70.515	-0.112	0.116
-640.668	-200.000	0.027	-0.269
-639.653	-80.652	-0.077	-0.026
-638.638	395.031	-0.082	-0.171
-637.624	43.328	-0.350	-0.320
-636.609	-86.476	-0.253	-0.078
-635.595	115.272	0.009	0.011
-634.580	-200.000	0.016	0.092
-633.565	88.327	0.069	0.077
-632.551	73.946	0.200	-0.211
-631.536	800.000	0.061	0.232
-630.522	-25.610	-0.113	-0.067
-629.507	-200.000	-0.002	-0.084
-628.492	-40.207	0.071	-0.037
-627.478	800.000	-0.046	0.171
-626.463	741.364	-0.125	-0.336
-625.449	159.160	-0.145	-0.202
-624.434	410.729	-0.077	-0.163
-623.419	-173.828	0.119	-0.004
-622.405	14.526	-0.200	0.156
-621.390	157.924	-0.038	-0.053
-620.376	149.480	-0.074	-0.101
-619.361	-36.000	0.073	0.039
-618.346	143.003	0.134	0.178
-617.332	-63.247	0.172	-0.071
-616.317	207.205	0.183	0.285
-615.303	-40.416	-0.241	0.125
-614.288	16.923	-0.017	0.014
-613.273	-41.834	0.162	0.083
-612.259	-200.000	0.010	-0.054
-611.244	359.380	-0.084	-0.169
-610.230	-15.353	0.244	-0.156
-609.215	242.468	0.210	-0.351
-608.201	-57.021	0.080	-0.036
-607.186	529.321	0.089	-0.211
-606.171	800.000	-0.035	0.132
-605.157	13.208	-0.145	0.113
-604.142	17.261	-0.159	0.127
-603.128	-200.000	-0.010	-0.220
-602.113	495.678	0.161	-0.370
-601.098	-200.000	-0.028	-0.163
-600.084	-71.239	0.260	0.097
-599.069	-80.623	0.052	0.017
-598.055	23.587	-0.118	0.097
-597.040	-68.863	-0.111	0.043
-596.025	0.187	-0.108	-0.077
-595.011	-153.098	0.169	-0.012
-593.996	-200.000	-0.006	-0.257
-592.982	778.262	0.028	0.075
-591.967	-113.206	-0.281	0.055
-590.952	74.545	0.139	-0.146
-589.938	17.136	0.050	0.039
-588.923	62.471	-0.094	0.094
-587.909	-71.612	0.308	-0.115
-586.894	-49.018	-0.261	0.125
-585.879	800.000	0.047	0.135
-584.865	34.569	0.176	-0.154
-583.850	72.853	-0.141	-0.148
-582.836	162.591	0.101	0.142
-581.821	-92.326	-0.305	0.086
-580.806	-48.241	-0.260	-0.125
-579.792	-200.000	0.011	-0.062
-578.777	-182.772	-0.356	0.006
-577.763	-29.545	0.082	0.047
-576.748	193.771	-0.137	-0.207
-575.733	-87.646	-0.288	-0.087
-574.719	-200.000	-0.041	0.185
-573.704	197.103	-0.125	0.190
-572.690	21.252	0.138	-0.112
-571.675	527.756	-0.071	-0.167
-570.661	800.000	0.090	-0.270
-569.646	800.000	-0.066	0.190
-568.631	5.272	-0.165	0.121
-567.617	-121.118	-0.237	0.040
-566.602	-140.685	0.332	0.034
-565.588	-57.082	0.450	-0.198
-564.573	153.245	-0.298	0.408
-563.558	-161.681	0.495	0.025
-562.544	-50.451	0.125	0.059
-561.529	231.224	-0.094	-0.153
-560.515	-62.998	-0.081	-0.033
-559.500	86.184	-0.068	0.075
-558.485	40.195	-0.070	-0.063
-557.471	427.086	0.078	0.169
-556.456	341.466	0.133	-0.260
-555.442	353.831	0.049	-0.097
-554.427	800.000	-0.046	0.135
-553.412	95.582	0.068	0.078
-552.398	56.769	-0.082	-0.080
-551.383	-93.247	-0.351	0.097
-550.369	-121.091	0.065	-0.011
-549.354	-200.000	0.014	0.420
-548.339	-154.537	0.062	-0.004
-547.325	-99.791	-0.275	-0.069
-546.310	104.094	0.067	0.079
-545.296	336.897	0.119	-0.232
-544.281	-200.000	0.045	-0.281
-543.266	-23.873	-0.048	-0.029
-542.252	123.805	0.123	-0.154
-541.237	-37.805	0.161	-0.086
-540.223	241.164	-0.172	0.287
-539.208	11.626	0.142	0.109
-538.193	66.995	-0.121	-0.123
-537.179	-94.054	0.231	-0.063
-536.164	-200.000	-0.018	-0.270
-535.150	-200.000	0.013	0.167
-534.135	202.534	-0.020	0.031
-533.121	-43.590	0.315	0.158
-532.106	-172.646	0.193	-0.006
-531.091	-102.035	-0.317	-0.076
-530.077	-78.416	0.176	-0.060
-529.062	300.284	0.129	-0.237
-528.048	-200.000	0.038	-0.299
-527.033	100.809	0.127	0.148
-526.018	800.000	0.032	0.129
-525.004	-34.216	-0.343	0.188
-523.989	432.229	-0.127	0.275
-522.975	216.909	0.087	0.139
-521.960	800.000	-0.045	-0.185
-520.945	20.308	0.372	0.300
-519.931	231.358	-0.036	0.059
-518.916	-200.000	-0.015	-0.150
-517.902	196.395	0.214	-0.325
-516.887	-106.821	0.165	0.037
-515.872	50.269	-0.063	0.059
-514.858	-190.958	0.186	0.002
-513.843	186.610	-0.173	0.257
-512.829	23.136	-0.148	0.121
-511.814	-200.000	-0.014	-0.263
-510.799	-100.429	-0.268	0.066
-509.785	144.533	0.217	-0.288
-508.770	-53.132	0.112	0.051
-507.756	-200.000	-0.036	0.233
-506.741	36.713	-0.230	0.203
-505.726	39.935	-0.172	-0.154
-504.712	138.319	0.083	-0.109
-503.697	-160.397	-0.160	-0.009
-502.683	74.675	-0.205	0.215
-501.668	109.121	0.261	-0.311
-500.653	56.202	0.243	0.235
-499.639	599.910	0.058	0.143
-498.624	6.121	0.298	-0.220
-497.610	404.106	0.141	0.296
-496.595	109.010	-0.290	-0.345
-495.581	-89.988	0.124	-0.036
-494.566	-200.000	-0.096	-0.531
-493.551	212.629	0.087	-0.137
-492.537	94.243	0.192	0.218
-491.522	367.130	0.090	0.182
-490.508	800.000	-0.047	0.154
-489.493	43.510	-0.175	-0.160
-488.478	-200.000	-0.018	0.431
-487.464	800.000	0.022	-0.092
-486.449	285.726	-0.146	-0.263
-485.435	-200.000	-0.012	0.186
-484.420	-72.678	0.312	0.115
-483.405	-200.000	-0.013	-0.098
-482.391	59.501	-0.155	0.152
-481.376	-65.881	-0.140	0.056
-480.362	69.814	0.225	-0.231
-479.347	149.898	0.126	-0.170
-478.332	-31.467	-0.198	0.111
-477.318	371.710	0.125	0.252
-476.303	-200.000	-0.006	0.120
-475.289	-71.138	0.191	-0.071
-474.274	-200.000	-0.009	0.173
-473.259	180.186	0.102	0.150
-472.245	-19.090	0.105	-0.065
-471.230	-200.000	-0.013	-0.101
-470.216	800.000	-0.089	-0.322
-469.201	-115.753	-0.084	0.016
-468.186	-53.889	0.214	-0.097
-467.172	-93.166	-0.401	0.111
-466.157	169.575	0.184	0.262
-465.143	-132.301	-0.114	-0.015
-464.128	-127.331	0.126	-0.018
-463.113	-200.000	-0.045	-0.420
-462.099	27.263	0.191	-0.159
-461.084	-75.352	0.188	0.067
-460.070	56.997	-0.213	-0.207
-459.055	432.490	0.148	0.320
-458.040	-200.000	0.015	-0.122
-457.026	-148.297	0.395	-0.032
-456.011	-78.208	-0.311	0.106
-454.997	-200.000	0.003	-0.122
-453.982	-121.584	0.241	0.040
-452.968	-124.470	-0.304	-0.047
-451.953	-146.639	-0.136	-0.012
-450.938	58.005	-0.176	0.171
-449.924	-200.000	0.008	-0.119
-448.909	348.048	0.099	0.194
-447.895	-32.150	0.210	-0.117
-446.880	-46.501	-0.151	0.074
-445.865	47.435	0.062	-0.057
-444.851	91.849	-0.284	0.318
-443.836	81.610	-0.161	0.173
-442.822	-111.188	0.095	-0.019
-441.807	-11.967	0.129	-0.084
-440.792	-93.487	-0.097	-0.027
-439.778	46.239	-0.195	-0.179
-438.763	-200.000	0.068	0.364
-437.749	302.677	0.118	-0.217
-436.734	297.342	-0.161	0.295
-435.719	-85.432	0.166	0.052
-434.705	-36.088	0.321	-0.172
-433.690	-72.425	0.183	-0.067
-432.676	-59.474	0.034	0.015
-431.661	-200.000	-0.020	-0.362
-430.646	-200.000	-0.042	0.197
-429.632	13.281	-0.374	-0.288
-428.617	140.967	-0.173	-0.227
-427.603	-105.047	0.135	-0.031
-426.588	-124.971	-0.049	0.007
-425.573	-79.243	0.227	-0.077
-424.559	-79.142	-0.232	0.078
-423.544	170.913	-0.111	-0.158
-422.530	-200.000	-0.034	0.213
-421.515	-83.773	-0.120	0.038
-420.500	636.751	0.089	-0.226
-419.486	-135.194	-0.299	-0.036
-418.471	97.352	-0.157	0.179
-417.457	800.000	0.070	-0.216
-416.442	-99.038	-0.090	0.023
-415.428	98.687	0.132	-0.151
-414.413	89.696	-0.147	0.163
-413.398	-101.391	0.304	-0.074
-412.384	-71.182	-0.131	0.049
-411.369	-200.000	-0.025	0.154
-410.355	458.945	0.063	0.139
-409.340	-200.000	-0.010	0.121
-408.325	-200.000	0.009	0.172
-407.311	-200.000	0.018	0.118
-406.296	-200.000	-0.013	-0.100
-405.282	152.385	-0.165	0.224
-404.267	-97.816	0.097	-0.025
-403.252	-200.000	0.009	0.162
-402.238	800.000	-0.079	-0.238
-401.223	-24.666	-0.174	0.103
-400.209	-200.000	-0.003	-0.280
-399.194	-200.000	0.047	0.429
-398.179	-25.029	0.130	-0.076
-397.165	188.547	0.299	0.444
-396.150	800.000	-0.053	0.179
-395.136	-67.821	-0.196	-0.076
-394.121	293.153	0.096	-0.173
-393.106	-200.000	0.103	-0.521
-392.092	-200.000	-0.014	-0.180
-391.077	-47.561	-0.135	0.065
-390.063	-193.167	-0.140	0.001
-389.048	32.287	0.258	-0.221
-388.033	190.410	-0.082	-0.123
-387.019	4.894	-0.228	-0.167
-386.004	-6.981	0.364	-0.246
-384.990	258.683	-0.135	-0.230
-383.975	328.000	-0.117	-0.222
-382.960	-200.000	0.008	0.122
-381.946	94.207	0.113	0.128
-380.931	129.735	0.067	0.085
-379.917	708.660	-0.099	-0.260
-378.902	-19.043	-0.248	0.153
-377.888	-100.861	-0.318	0.077
-376.873	-200.000	-0.013	-0.214
-375.858	-136.747	0.123	-0.014
-374.844	-109.980	0.144	0.030
-373.829	792.691	0.084	-0.230
-372.815	-130.065	0.155	-0.021
-371.800	800.000	0.048	-0.195
-370.785	621.685	0.066	0.164
-369.771	0.665	0.143	-0.101
-368.756	-87.469	-0.493	0.148
-367.742	-146.179	0.267	-0.023
-366.727	485.735	-0.102	0.230
-365.712	-112.330	0.366	0.073
-364.698	-145.537	-0.147	0.013
-363.683	-22.400	0.328	-0.197
-362.669	631.764	-0.128	0.320
-361.654	20.239	0.117	0.094
-360.639	-200.000	0.022	0.112
-359.625	566.875	0.047	0.113
-358.610	44.527	-0.198	-0.181
-357.596	-200.000	0.004	-0.099
-356.581	800.000	0.005	-0.022
-355.566	-51.445	-0.140	0.065
-354.552	800.000	-0.126	-0.410
-353.537	-172.671	-0.123	-0.004
-352.523	29.059	-0.166	0.139
-351.508	-19.444	0.032	0.019
-350.493	88.835	0.084	0.093
-349.479	-200.000	-0.009	-0.115
-348.464	-189.663	0.065	-0.001
-347.450	-200.000	0.011	-0.176
-346.435	800.000	-0.048	0.147
-345.420	-200.000	-0.050	0.464
-344.406	240.261	-0.152	0.251
-343.391	-149.822	-0.190	0.015
-342.377	12.873	-0.075	0.057
-341.362	5.042	-0.123	-0.090
-340.348	-200.000	0.012	0.180
-339.333	800.000	0.046	-0.189
-338.318	-145.170	-0.122	-0.011
-337.304	-200.000	-0.028	-0.251
-336.289	-115.280	0.158	0.030
-335.275	-200.000	0.045	-0.317
-334.260	-12.688	-0.174	0.112
-333.245	-105.757	0.342	-0.076
-332.231	98.287	-0.122	-0.139
-331.216	427.249	-0.077	-0.165
-330.202	-34.684	-0.126	0.068
-329.187	-95.302	-0.255	-0.068
-328.172	616.003	0.034	-0.085
-327.158	331.709	-0.274	-0.523
-326.143	800.000	-0.021	0.083
-325.129	-200.000	0.032	-0.225
-324.114	-160.409	0.313	0.017
-323.099	-200.000	-0.052	0.229
-322.085	40.635	-0.266	0.237
-321.070	-131.852	0.303	0.039
-320.056	-53.327	-0.116	-0.052
-319.041	521.869	-0.063	0.147
-318.026	-154.476	0.096	-0.006
-317.012	-97.405	0.182	0.047
-315.997	-73.653	-0.101	0.036
-314.983	62.075	-0.092	-0.090
-313.968	325.792	0.038	-0.072
-312.953	368.170	0.119	0.238
-311.939	-87.649	0.188	0.056
-310.924	14.754	-0.332	0.257
-309.910	4.159	0.127	0.092
-308.895	-96.372	0.461	0.121
-307.880	43.777	0.404	-0.366
-306.866	22.491	-0.134	0.109
-305.851	-167.565	-0.109	0.004
-304.837	-115.445	-0.237	-0.044
-303.822	435.208	-0.085	-0.182
-302.807	-200.000	0.037	-0.234
-301.793	-3.490	0.099	0.068
-300.778	17.396	0.360	0.283
-299.764	-186.784	0.183	0.003
-298.749	-63.831	-0.196	-0.079
-297.735	-119.695	0.111	-0.019
-296.720	234.526	-0.175	0.285
-295.705	69.739	0.262	0.267
-294.691	-9.018	0.142	0.094
-293.676	-8.901	0.173	-0.114
-292.662	-200.000	0.045	-0.278
-291.647	358.083	-0.111	0.219
-290.632	722.863	0.026	-0.069
-289.618	-200.000	0.046	0.259
-288.603	800.000	0.085	0.291
-287.589	103.316	0.059	-0.068
-286.574	57.647	-0.208	-0.201
-285.559	43.828	0.254	-0.230
-284.545	-47.898	-0.291	-0.139
-283.530	-200.000	-0.093	-0.428
-282.516	-77.473	-0.093	0.032
-281.501	123.888	0.180	-0.223
-280.486	379.962	-0.097	0.196
-279.472	-200.000	0.019	-0.192
-278.457	800.000	-0.156	0.498
-277.443	-76.422	0.037	-0.013
-276.428	-170.356	0.054	-0.002
-275.413	496.199	0.040	-0.092
-274.399	-99.296	-0.267	0.067
-273.384	-115.513	-0.195	0.036
-272.370	131.285	-0.094	-0.120
-271.355	-119.744	0.102	-0.017
-270.340	608.928	-0.063	-0.156
-269.326	-71.207	-0.324	0.120
-268.311	-104.064	0.115	0.026
-267.297	112.070	0.020	-0.024
-266.282	800.000	0.029	0.092
-265.267	800.000	0.028	0.112
-264.253	800.000	-0.034	0.134
-263.238	287.016	-0.070	-0.125
-262.224	-200.000	0.033	-0.407
-261.209	-200.000	-0.045	0.221
-260.195	800.000	-0.070	0.277
-259.180	-37.570	0.379	0.200
-258.165	-200.000	0.000	0.190
-257.151	-150.927	0.171	0.013
-256.136	7.622	0.362	-0.267
-255.122	65.993	-0.227	0.227
-254.107	-64.712	0.070	0.028
-253.092	576.395	0.055	0.134
-252.078	-200.000	-0.060	-0.435
-251.063	306.237	0.141	0.260
-250.049	18.769	-0.221	0.175
-249.034	467.607	-0.215	-0.477
-248.019	-200.000	0.020	0.177
-247.005	-200.000	-0.020	-0.117
-245.990	-200.000	-0.041	-0.343
-244.976	-66.110	-0.297	0.117
-243.961	800.000	-0.033	-0.102
-242.946	-200.000	0.011	0.172
-241.932	2.114	-0.070	0.050
-240.917	144.735	0.262	-0.346
-239.903	800.000	-0.045	0.165
-238.888	-200.000	0.003	-0.028
-237.873	216.307	-0.075	-0.117
-236.859	239.172	-0.157	-0.258
-235.844	-200.000	0.043	-0.369
-234.830	-200.000	0.007	0.107
-233.815	-186.521	0.536	-0.008
-232.800	-85.384	0.143	-0.044
-231.786	119.714	0.022	0.027
-230.771	-47.936	-0.149	0.071
-229.757	40.474	0.151	0.134
-228.742	74.173	-0.185	0.192
-227.727	272.752	-0.145	0.253
-226.713	-138.197	-0.188	-0.020
-225.698	-59.937	-0.092	-0.039
-224.684	-72.719	0.254	0.092
-223.669	-200.000	0.013	0.137
-222.655	-117.791	0.069	0.012
-221.640	-5.792	0.241	0.162
-220.625	-59.098	-0.150	0.064
-219.611	-131.558	0.150	0.020
-218.596	800.000	0.067	0.257
-217.582	-170.737	-0.077	-0.003
-216.567	173.610	0.129	-0.184
-215.552	251.038	-0.078	0.131
-214.538	15.448	-0.379	-0.293
-213.523	-98.176	-0.132	-0.034
-212.509	186.807	-0.041	-0.061
-211.494	-59.821	0.086	0.036
-210.479	-110.319	0.381	-0.078
-209.465	222.366	0.188	-0.299
-208.450	-200.000	0.000	0.076
-207.436	-142.624	-0.320	-0.031
-206.421	39.902	0.363	-0.321
-205.406	-0.686	0.092	-0.065
-204.392	71.772	0.177	0.181
-203.377	97.432	0.165	0.187
-202.363	800.000	0.040	0.148
-201.348	-85.648	0.075	-0.023
-200.333	-56.643	-0.198	0.086
-199.319	649.697	-0.117	0.296
-198.304	331.049	0.173	0.329
-197.290	-49.821	0.209	0.098
-196.275	-55.006	-0.145	0.064
-195.260	-76.455	0.164	-0.057
-194.246	57.634	0.172	0.166
-193.231	800.000	0.023	0.084
-192.217	154.757	-0.136	0.185
-191.202	800.000	-0.044	0.131
-190.187	68.045	-0.079	-0.079
-189.173	79.618	0.120	0.127
-188.158	-77.357	-0.175	0.060
-187.144	-200.000	-0.027	0.279
-186.129	-184.572	-0.177	-0.003
-185.114	302.105	0.147	-0.268
-184.100	434.454	0.056	-0.120
-183.085	86.637	-0.201	0.218
-182.071	29.907	-0.055	-0.046
-181.056	-27.356	-0.086	0.050
-180.042	67.354	0.064	0.064
-179.027	-55.368	-0.173	0.076
-178.012	-139.073	0.042	0.004
-176.998	56.872	0.110	-0.105
-175.983	-200.000	-0.002	-0.182
-174.969	-5.082	0.096	0.065
-173.954	-200.000	-0.053	0.240
-172.939	-95.531	0.089	0.023
-171.925	112.561	0.127	-0.152
-170.910	-200.000	0.004	0.307
-169.896	-200.000	-0.022	0.169
-168.881	122.251	0.112	-0.138
-167.866	-126.055	-0.515	0.076
-166.852	-23.898	-0.154	0.091
-165.837	-200.000	0.008	-0.144
-164.823	-200.000	0.071	-0.321
-163.808	-200.000	0.015	-0.204
-162.793	-122.521	0.355	0.057
-161.779	-200.000	-0.056	-0.308
-160.764	-200.000	-0.041	0.408
-159.750	-83.625	-0.234	0.073
-158.735	314.464	-0.166	0.308
-157.720	38.640	0.123	0.108
-156.706	-200.000	0.032	0.270
-155.691	800.000	0.074	-0.295
-154.677	-2.190	0.184	0.127
-153.662	120.975	-0.164	0.201
-152.647	358.612	-0.087	-0.172
-151.633	-103.890	0.282	-0.065
-150.618	-94.855	-0.204	0.054
-149.604	-38.288	-0.326	0.170
-148.589	797.964	0.071	-0.192
-147.574	-61.739	0.154	0.063
-146.560	-162.873	-0.016	0.001
-145.545	47.640	0.140	0.128
-144.531	-168.977	0.213	-0.008
-143.516	28.480	-0.114	0.095
-142.502	186.044	0.075	0.110
-141.487	800.000	-0.040	0.142
-140.472	800.000	-0.032	-0.130
-139.458	-107.691	0.277	0.059
-138.443	16.996	-0.197	-0.154
-137.429	-130.671	0.271	0.036
-136.414	800.000	-0.009	0.027
-135.399	-19.195	0.258	-0.158
-134.385	800.000	-0.041	0.118
-133.370	-200.000	0.054	0.339
-132.356	-118.308	-0.478	-0.083
-131.341	-40.910	0.317	0.161
-130.326	-7.505	0.252	0.167
-129.312	-10.387	-0.247	0.161
-128.297	-141.152	0.146	0.015
-127.283	369.977	0.019	0.037
-126.268	-25.185	-0.222	0.129
-125.253	-200.000	-0.002	0.065
-124.239	-40.203	0.073	-0.038
-123.224	-200.000	0.018	0.274
-122.210	167.539	-0.078	0.109
-121.195	401.949	0.135	-0.279
