DTS Sentinel unit serial number:	SN413079Multiplexer serial number:	ORYXHardware model number:	OX4-SRSoftware version number:	ORYX F/W v4.00 Oryx Data Collector v3.7.2.0data status	okinstallation	princeton_trtdifferential loss correction	single-endedforward channel	channel 1reverse channel	N/Adate	2019/09/10time	16:16:11forward acquisition time	60.00reverse acquisition time	0.00gamma	496.2192k internal	0.2299k external	0.2299temperature offset calibration	0.9923default loss term (dB/km)	0.3790temperature slope calibration	1.0000multiplexer offset coefficient	1.0000multiplexer slope coefficient	1.0000fibre end	0.00T internal ref (°C)	38.25T ext. ref 1 (°C)	-0.28T ext. ref 2 (°C)	31.39length (m)	temperature (°C)	Stokes	anti-Stokes-747.200	800.000	-0.041	0.172
-746.185	-60.057	-0.422	0.184
-745.171	-82.055	0.104	0.035
-744.156	103.738	0.190	0.228
-743.142	-200.000	0.004	0.044
-742.127	59.659	-0.160	0.161
-741.112	548.935	-0.073	-0.178
-740.098	-62.820	0.155	-0.065
-739.083	471.677	-0.098	0.226
-738.069	-123.917	-0.356	0.057
-737.054	-18.216	0.033	-0.021
-736.039	106.770	-0.282	-0.341
-735.025	81.763	0.208	0.229
-734.010	-25.027	0.242	-0.146
-732.996	13.781	-0.246	0.195
-731.981	-3.227	0.204	0.145
-730.966	-9.960	0.116	0.079
-729.952	-130.704	-0.297	0.041
-728.937	800.000	0.083	-0.274
-727.923	-147.292	-0.281	-0.024
-726.908	-100.516	-0.242	-0.061
-725.894	-50.327	-0.387	-0.187
-724.879	313.724	0.062	-0.120
-723.864	-118.201	-0.187	-0.034
-722.850	0.612	-0.193	-0.141
-721.835	54.334	0.246	0.242
-720.821	340.576	-0.137	0.273
-719.806	214.012	-0.105	-0.170
-718.791	78.591	0.028	-0.031
-717.777	-195.356	-0.116	-0.001
-716.762	10.585	0.036	-0.028
-715.748	800.000	0.068	-0.208
-714.733	456.695	0.186	-0.420
-713.718	-82.148	0.211	0.070
-712.704	-200.000	-0.224	-0.001
-711.689	-200.000	-0.007	-0.083
-710.675	-95.673	0.208	0.057
-709.660	-179.380	-0.403	-0.009
-708.645	-200.000	0.017	-0.223
-707.631	6.246	-0.203	0.153
-706.616	26.135	0.107	0.091
-705.602	358.349	0.050	0.101
-704.587	-93.628	-0.359	0.101
-703.572	114.000	0.130	0.161
-702.558	38.053	0.031	-0.028
-701.543	650.338	-0.148	-0.387
-700.529	-38.045	0.112	-0.061
-699.514	324.369	0.051	-0.098
-698.499	800.000	0.087	-0.278
-697.485	-63.222	-0.024	0.010
-696.470	-14.098	0.196	-0.129
-695.456	800.000	0.020	-0.081
-694.441	800.000	0.067	-0.199
-693.426	-102.691	-0.246	-0.060
-692.412	163.488	-0.104	0.150
-691.397	619.840	-0.101	0.260
-690.383	800.000	0.057	-0.242
-689.368	297.372	-0.150	-0.281
-688.354	-65.703	-0.203	0.083
-687.339	-200.000	0.025	-0.118
-686.324	-6.661	0.301	-0.209
-685.310	800.000	-0.032	0.130
-684.295	342.975	0.102	-0.203
-683.281	-15.935	-0.263	-0.171
-682.266	-200.000	-0.015	0.124
-681.251	-200.000	0.010	0.076
-680.237	-200.000	0.061	-0.289
-679.222	180.027	0.065	-0.097
-678.208	-200.000	-0.038	-0.220
-677.193	425.990	0.142	-0.311
-676.178	-200.000	0.029	0.454
-675.164	800.000	-0.088	-0.355
-674.149	4.618	-0.046	-0.035
-673.135	77.573	-0.096	-0.104
-672.120	-99.922	-0.174	-0.044
-671.105	-116.932	0.279	-0.052
-670.091	49.428	0.161	0.154
-669.076	180.245	-0.120	0.180
-668.062	-46.208	0.289	-0.145
-667.047	41.647	0.131	-0.121
-666.032	-74.546	0.014	-0.005
-665.018	-72.181	-0.275	-0.104
-664.003	161.581	-0.057	0.082
-662.989	-105.061	-0.191	-0.044
-661.974	38.052	-0.189	-0.171
-660.959	-23.898	0.317	-0.193
-659.945	-200.000	0.012	-0.181
-658.930	154.606	-0.106	-0.148
-657.916	800.000	0.100	-0.318
-656.901	297.579	-0.125	-0.233
-655.886	-129.940	0.227	-0.032
-654.872	-194.321	-0.504	-0.004
-653.857	-62.669	-0.518	-0.218
-652.843	-124.278	0.183	-0.029
-651.828	-200.000	0.014	0.118
-650.814	-21.251	0.053	0.033
-649.799	4.300	0.192	-0.143
-648.784	-138.383	-0.148	-0.017
-647.770	-29.295	-0.150	-0.088
-646.755	-200.000	0.022	-0.474
-645.741	-200.000	-0.129	-0.596
-644.726	-105.797	-0.196	0.045
-643.711	-114.435	0.243	-0.047
-642.697	15.470	0.166	0.133
-641.682	800.000	-0.038	-0.140
-640.668	21.161	0.292	0.241
-639.653	-152.520	-0.154	0.011
-638.638	360.809	0.077	-0.156
-637.624	303.735	-0.129	-0.243
-636.609	-20.902	-0.215	-0.134
-635.595	306.418	-0.039	0.075
-634.580	-153.465	-0.171	0.012
-633.565	-200.000	-0.026	0.158
-632.551	21.106	-0.253	-0.209
-631.536	-200.000	0.018	0.364
-630.522	26.105	-0.087	0.074
-629.507	86.979	-0.266	-0.298
-628.492	800.000	-0.023	-0.099
-627.478	13.697	-0.217	-0.171
-626.463	339.313	-0.136	0.270
-625.449	431.157	-0.108	0.238
-624.434	-67.792	-0.066	-0.026
-623.419	-200.000	0.009	0.061
-622.405	61.757	0.297	0.301
-621.390	203.074	-0.064	-0.101
-620.376	169.789	0.075	-0.109
-619.361	800.000	-0.004	0.012
-618.346	-30.149	-0.161	0.093
-617.332	-66.445	-0.284	-0.115
-616.317	-52.936	0.148	0.069
-615.303	-29.608	-0.172	0.100
-614.288	4.948	0.126	-0.094
-613.273	15.339	-0.295	0.235
-612.259	-8.325	0.152	-0.104
-611.244	-200.000	0.031	0.145
-610.230	-183.987	0.332	0.006
-609.215	65.098	0.128	-0.131
-608.201	-71.895	0.087	-0.033
-607.186	61.219	-0.105	-0.106
-606.171	-200.000	-0.011	-0.292
-605.157	800.000	-0.084	0.245
-604.142	-145.244	-0.181	-0.017
-603.128	-83.287	-0.145	-0.047
-602.113	-200.000	0.046	-0.279
-601.098	-3.761	0.179	-0.126
-600.084	-200.000	-0.013	-0.246
-599.069	142.927	0.044	-0.060
-598.055	-200.000	0.006	-0.133
-597.040	800.000	-0.020	-0.071
-596.025	-63.048	-0.072	-0.030
-595.011	-129.873	0.125	-0.017
-593.996	167.352	-0.139	0.201
-592.982	-200.000	0.043	0.464
-591.967	-91.457	-0.467	-0.135
-590.952	-70.445	0.057	-0.022
-589.938	100.423	0.155	0.182
-588.923	-166.182	-0.178	-0.008
-587.909	-61.881	-0.269	0.114
-586.894	800.000	-0.087	-0.260
-585.879	-44.185	-0.059	-0.030
-584.865	-17.250	0.180	0.115
-583.850	189.596	-0.085	0.129
-582.836	-131.135	-0.389	-0.053
-581.821	33.954	0.149	-0.132
-580.806	60.850	-0.180	-0.181
-579.792	800.000	0.076	0.308
-578.777	26.112	0.075	-0.064
-577.763	66.331	-0.090	0.093
-576.748	362.994	0.113	-0.231
-575.733	800.000	-0.050	-0.148
-574.719	67.249	0.110	-0.114
-573.704	-38.490	0.148	0.079
-572.690	399.443	-0.062	0.133
-571.675	-106.078	0.095	0.022
-570.661	-136.984	-0.116	0.013
-569.646	-111.518	0.358	-0.074
-568.631	-49.720	0.210	-0.101
-567.617	-200.000	-0.068	0.480
-566.602	158.359	0.087	0.123
-565.588	800.000	0.039	0.124
-564.573	-200.000	-0.180	0.000
-563.558	-54.352	0.192	0.088
-562.544	-6.601	0.212	0.147
-561.529	206.390	-0.081	-0.127
-560.515	92.400	-0.259	0.296
-559.500	-66.790	0.135	-0.054
-558.485	-160.282	-0.186	0.010
-557.471	800.000	0.037	0.111
-556.456	-145.470	0.319	-0.029
-555.442	-100.884	-0.203	-0.051
-554.427	398.427	0.193	-0.408
-553.412	14.378	0.065	0.051
-552.398	-19.135	0.056	-0.035
-551.383	490.566	0.207	-0.479
-550.369	-110.743	-0.234	-0.049
-549.354	397.070	0.013	-0.028
-548.339	22.307	-0.177	0.146
-547.325	800.000	0.062	-0.269
-546.310	41.318	0.191	0.175
-545.296	-19.643	-0.031	0.020
-544.281	-155.552	0.491	-0.032
-543.266	289.938	-0.088	0.161
-542.252	800.000	-0.059	0.206
-541.237	18.775	-0.233	0.189
-540.223	-11.374	0.400	0.267
-539.208	307.627	-0.158	0.299
-538.193	-151.572	-0.423	0.032
-537.179	-85.534	0.201	-0.063
-536.164	-55.559	0.155	-0.070
-535.150	28.238	-0.206	0.176
-534.135	-66.081	0.368	0.149
-533.121	-116.017	-0.159	-0.030
-532.106	-93.056	0.040	0.011
-531.091	-159.046	0.239	0.014
-530.077	38.071	0.284	-0.256
-529.062	-32.632	0.168	-0.095
-528.048	-14.930	-0.191	0.124
-527.033	5.702	-0.079	0.059
-526.018	-0.569	0.174	-0.125
-525.004	294.952	0.088	-0.163
-523.989	-119.703	-0.058	-0.010
-522.975	800.000	0.065	0.274
-521.960	165.608	-0.121	-0.173
-520.945	-82.816	0.244	-0.080
-519.931	142.598	0.219	-0.295
-518.916	-200.000	-0.028	-0.217
-517.902	530.908	0.108	-0.258
-516.887	192.621	0.166	-0.254
-515.872	-200.000	0.027	0.242
-514.858	256.005	0.212	-0.367
-513.843	-200.000	0.075	0.336
-512.829	-14.305	-0.245	0.159
-511.814	-120.353	-0.204	-0.035
-510.799	-152.890	-0.156	0.011
-509.785	800.000	0.072	-0.276
-508.770	150.012	0.097	-0.133
-507.756	-200.000	-0.030	0.217
-506.741	-27.766	-0.293	0.172
-505.726	-200.000	0.053	0.259
-504.712	-74.983	-0.226	-0.082
-503.697	-15.144	0.112	0.072
-502.683	-154.972	-0.195	0.013
-501.668	-20.466	0.265	0.165
-500.653	800.000	0.052	0.219
-499.639	-76.782	-0.312	0.110
-498.624	68.513	-0.201	0.208
-497.610	-200.000	0.000	-0.184
-496.595	58.773	0.180	-0.179
-495.581	92.845	-0.282	0.322
-494.566	493.714	-0.122	0.284
-493.551	-68.531	-0.261	0.102
-492.537	-149.888	0.385	-0.030
-491.522	211.592	0.049	-0.078
-490.508	-42.625	-0.185	-0.095
-489.493	800.000	-0.014	-0.049
-488.478	-200.000	0.034	-0.166
-487.464	800.000	0.034	0.143
-486.449	5.023	-0.401	0.298
-485.435	-200.000	0.004	0.226
-484.420	-41.577	-0.193	0.100
-483.405	3.941	0.228	-0.168
-482.391	-13.874	-0.176	-0.115
-481.376	800.000	0.107	0.365
-480.362	288.681	0.041	-0.076
-479.347	-46.452	0.136	0.068
-478.332	-107.115	0.249	0.055
-477.318	-60.593	0.232	0.099
-476.303	-90.415	0.461	0.135
-475.289	640.791	0.138	-0.355
-474.274	-53.571	0.309	0.143
-473.259	-200.000	0.038	-0.169
-472.245	519.094	0.127	-0.300
-471.230	-159.332	-0.122	0.007
-470.216	800.000	-0.033	0.130
-469.201	800.000	-0.057	-0.163
-468.186	800.000	0.056	0.167
-467.172	31.045	-0.095	0.083
-466.157	-200.000	0.012	-0.099
-465.143	616.188	0.095	0.242
-464.128	-10.329	0.300	-0.201
-463.113	-183.747	0.280	0.005
-462.099	226.356	-0.097	-0.158
-461.084	-40.078	-0.161	-0.085
-460.070	-78.310	0.399	-0.138
-459.055	52.144	0.039	0.037
-458.040	-200.000	0.027	-0.218
-457.026	-23.893	-0.188	-0.113
-456.011	-151.022	0.242	0.018
-454.997	-51.376	-0.147	0.070
-453.982	716.070	0.089	-0.238
-452.968	15.204	0.091	0.072
-451.953	112.644	-0.203	-0.248
-450.938	800.000	0.078	-0.317
-449.924	-23.837	-0.124	-0.075
-448.909	800.000	-0.030	-0.108
-447.895	132.292	0.134	0.174
-446.880	-200.000	-0.047	0.387
-445.865	-67.801	0.271	-0.107
-444.851	309.204	0.046	-0.086
-443.836	-200.000	-0.026	0.118
-442.822	-110.149	-0.242	0.051
-441.807	-89.405	-0.091	-0.027
-440.792	-200.000	-0.011	-0.294
-439.778	-80.628	-0.250	-0.084
-438.763	-90.597	-0.104	-0.030
-437.749	-70.168	0.194	0.074
-436.734	-74.504	-0.356	-0.129
-435.719	-200.000	0.037	-0.295
-434.705	116.666	0.157	-0.194
-433.690	-63.544	0.275	0.114
-432.676	-139.753	0.138	0.015
-431.661	42.084	0.153	-0.140
-430.646	-35.140	0.095	-0.052
-429.632	-200.000	0.026	0.254
-428.617	-151.270	0.256	-0.019
-427.603	15.474	0.116	0.092
-426.588	12.067	-0.210	0.163
-425.573	-162.909	-0.200	-0.010
-424.559	99.008	0.253	-0.294
-423.544	473.388	-0.064	-0.144
-422.530	-76.867	-0.081	-0.028
-421.515	783.985	0.063	-0.173
-420.500	-18.999	0.119	-0.075
-419.486	26.401	-0.158	-0.133
-418.471	-103.182	-0.243	0.058
-417.457	224.978	0.175	0.285
-416.442	-125.450	0.028	-0.004
-415.428	-1.996	0.254	0.180
-414.413	-120.861	-0.232	0.039
-413.398	-125.016	-0.281	-0.044
-412.384	-106.042	-0.100	0.023
-411.369	-23.459	0.119	-0.072
-410.355	-57.219	-0.270	-0.120
-409.340	-47.561	0.182	-0.089
-408.325	800.000	-0.109	-0.329
-407.311	-157.578	0.173	0.010
-406.296	-101.884	-0.382	-0.093
-405.282	-200.000	0.003	-0.040
-404.267	46.729	0.301	-0.281
-403.252	294.203	0.211	-0.389
-402.238	-94.001	-0.347	-0.096
-401.223	-52.084	-0.214	0.100
-400.209	-74.657	-0.280	-0.101
-399.194	-54.719	-0.318	0.145
-398.179	163.019	-0.047	-0.067
-397.165	9.717	-0.250	-0.191
-396.150	57.156	-0.084	0.083
-395.136	152.230	0.135	0.186
-394.121	800.000	-0.114	0.367
-393.106	-200.000	0.012	-0.068
-392.092	-44.534	-0.102	-0.051
-391.077	-8.134	0.114	-0.077
-390.063	-92.751	0.096	0.027
-389.048	89.257	0.048	0.053
-388.033	-10.946	-0.058	-0.038
-387.019	66.545	-0.136	0.139
-386.004	349.308	0.036	-0.072
-384.990	-200.000	-0.001	-0.122
-383.975	-43.970	0.187	-0.095
-382.960	-11.687	-0.299	-0.198
-381.946	-21.368	0.126	-0.077
-380.931	-74.346	-0.186	0.067
-379.917	221.020	0.129	0.209
-378.902	800.000	-0.060	0.181
-377.888	-200.000	0.010	0.162
-376.873	328.869	-0.082	-0.158
-375.858	-23.298	-0.097	-0.059
-374.844	-121.066	0.149	0.025
-373.829	571.608	-0.117	0.286
-372.815	-200.000	-0.015	0.289
-371.800	75.099	0.096	0.102
-370.785	-200.000	0.004	-0.035
-369.771	-11.207	0.085	0.056
-368.756	800.000	-0.107	0.450
-367.742	-78.002	-0.268	0.093
-366.727	91.876	-0.202	-0.229
-365.712	37.836	-0.232	-0.207
-364.698	-97.134	-0.175	0.046
-363.683	500.177	0.062	0.143
-362.669	203.837	-0.095	0.148
-361.654	-97.176	-0.332	0.087
-360.639	139.325	-0.075	0.099
-359.625	800.000	-0.010	-0.043
-358.610	-41.743	0.253	-0.131
-357.596	-57.047	0.213	0.094
-356.581	54.410	0.160	0.155
-355.566	261.309	-0.096	0.167
-354.552	-200.000	0.003	-0.175
-353.537	-76.889	-0.010	0.003
-352.523	-200.000	0.010	0.299
-351.508	-60.010	-0.277	0.119
-350.493	197.067	-0.040	0.062
-349.479	63.224	-0.082	-0.083
-348.464	-26.536	-0.110	-0.065
-347.450	137.023	0.164	0.215
-346.435	-200.000	-0.001	0.059
-345.420	800.000	-0.054	0.158
-344.406	54.963	-0.184	-0.179
-343.391	800.000	0.030	0.097
-342.377	-200.000	0.030	-0.176
-341.362	-168.327	0.236	-0.009
-340.348	-31.016	-0.154	-0.087
-339.333	800.000	0.020	-0.084
-338.318	-74.062	-0.065	0.024
-337.304	-160.498	0.338	0.018
-336.289	187.648	0.080	-0.120
-335.275	-78.314	-0.262	-0.090
-334.260	13.071	0.364	0.283
-333.245	80.603	-0.056	0.060
-332.231	174.137	-0.151	0.219
-331.216	-35.165	0.376	-0.206
-330.202	-9.397	0.337	0.226
-329.187	-152.791	0.208	-0.015
-328.172	-10.812	-0.130	-0.086
-327.158	645.519	0.005	-0.013
-326.143	-28.265	0.154	-0.089
-325.129	800.000	0.053	0.190
-324.114	-200.000	-0.034	0.196
-323.099	-200.000	0.036	0.246
-322.085	-96.046	0.241	0.064
-321.070	25.202	-0.040	-0.034
-320.056	-93.284	-0.257	0.072
-319.041	-63.885	0.319	-0.131
-318.026	81.642	-0.107	-0.116
-317.012	-41.836	-0.306	-0.157
-315.997	-60.179	0.239	0.102
-314.983	-72.331	-0.256	-0.095
-313.968	-28.387	0.142	0.082
-312.953	121.972	0.087	0.109
-311.939	46.621	-0.061	-0.056
-310.924	252.766	-0.130	0.222
-309.910	-23.753	-0.504	-0.303
-308.895	-58.329	-0.222	-0.097
-307.880	-70.686	0.354	-0.134
-306.866	-50.471	0.298	0.141
-305.851	-87.196	-0.178	0.054
-304.837	800.000	0.019	-0.069
-303.822	16.620	-0.046	-0.036
-302.807	170.195	0.042	0.060
-301.793	-200.000	0.013	-0.209
-300.778	-129.915	0.393	0.054
-299.764	-46.242	-0.641	-0.316
-298.749	47.327	-0.099	-0.093
-297.735	-60.683	-0.266	-0.113
-296.720	-182.494	0.456	-0.008
-295.705	-200.000	0.037	0.167
-294.691	-200.000	0.044	-0.279
-293.676	106.432	0.163	0.194
-292.662	-200.000	-0.060	0.316
-291.647	-59.303	0.270	0.117
-290.632	-16.839	0.109	-0.069
-289.618	49.550	-0.326	-0.307
-288.603	-174.050	0.200	-0.006
-287.589	313.204	0.148	0.279
-286.574	-200.000	-0.013	0.113
-285.559	-88.855	-0.105	0.031
-284.545	19.254	-0.266	0.214
-283.530	-93.849	0.228	0.063
-282.516	-86.816	0.377	0.115
-281.501	-75.330	-0.353	-0.126
-280.486	800.000	0.048	0.186
-279.472	-95.673	0.353	-0.095
-278.457	-200.000	-0.016	-0.126
-277.443	60.513	0.021	0.021
-276.428	800.000	0.094	-0.365
-275.413	800.000	0.084	-0.318
-274.399	-200.000	-0.002	0.192
-273.384	672.569	0.028	0.071
-272.370	95.431	0.167	0.191
-271.355	144.207	0.035	0.047
-270.340	295.539	0.027	0.050
-269.326	38.862	-0.038	-0.034
-268.311	121.165	0.266	0.331
-267.297	-11.505	0.042	-0.028
-266.282	-2.387	0.266	-0.187
-265.267	-142.460	0.071	-0.007
-264.253	-167.392	0.187	-0.008
-263.238	-200.000	-0.022	0.177
-262.224	292.643	0.070	0.128
-261.209	-200.000	-0.022	0.130
-260.195	179.634	-0.075	-0.110
-259.180	280.515	0.042	0.075
-258.165	800.000	0.027	-0.083
-257.151	-200.000	-0.030	-0.252
-256.136	800.000	-0.079	0.286
-255.122	437.329	0.037	0.081
-254.107	-94.535	0.139	-0.038
-253.092	-167.896	-0.381	-0.015
-252.078	-61.339	-0.065	0.027
-251.063	-200.000	-0.040	-0.260
-250.049	-129.837	-0.189	-0.026
-249.034	170.177	0.222	0.319
-248.019	-200.000	0.010	-0.062
-247.005	-76.101	0.438	0.155
-245.990	302.874	-0.037	0.069
-244.976	-200.000	-0.023	0.188
-243.961	-50.623	-0.189	-0.089
-242.946	-27.969	0.094	-0.055
-241.932	-108.284	0.301	0.065
-240.917	-41.222	-0.283	0.146
-239.903	-200.000	0.008	0.086
-238.888	-33.893	-0.296	0.163
-237.873	-200.000	-0.006	0.167
-236.859	265.950	-0.091	-0.159
-235.844	167.612	-0.140	-0.199
-234.830	677.281	0.085	-0.220
-233.815	-128.140	0.288	0.041
-232.800	196.173	-0.192	0.293
-231.786	-135.776	-0.323	0.038
-230.771	-200.000	-0.024	0.283
-229.757	301.363	0.031	-0.058
-228.742	-200.000	0.030	0.276
-227.727	-2.635	0.244	-0.171
-226.713	-9.317	-0.170	-0.113
-225.698	10.523	0.059	-0.045
-224.684	-71.162	0.250	0.094
-223.669	399.601	0.136	-0.286
-222.655	228.994	-0.098	-0.159
-221.640	-200.000	0.003	0.252
-220.625	137.764	-0.137	-0.179
-219.611	-192.105	-0.117	-0.001
-218.596	800.000	0.106	0.379
-217.582	800.000	-0.080	0.325
-216.567	-153.902	-0.298	-0.020
-215.552	800.000	0.060	0.234
-214.538	-121.811	0.232	0.038
-213.523	-145.637	-0.137	0.012
-212.509	39.268	-0.184	0.165
-211.494	800.000	0.079	-0.270
-210.479	-83.467	0.059	0.019
-209.465	40.027	-0.070	0.063
-208.450	-19.108	-0.129	-0.080
-207.436	186.519	0.152	-0.226
-206.421	-200.000	-0.035	-0.310
-205.406	800.000	-0.066	0.188
-204.392	-158.465	-0.213	0.012
-203.377	98.034	-0.169	-0.195
-202.363	800.000	0.013	0.055
-201.348	-0.967	-0.158	0.112
-200.333	110.095	0.071	-0.086
-199.319	-55.170	-0.233	0.105
-198.304	-14.461	0.193	-0.124
-197.290	-200.000	0.006	0.133
-196.275	-39.277	-0.322	-0.169
-195.260	57.087	-0.166	-0.162
-194.246	-200.000	0.022	-0.216
-193.231	2.823	-0.207	0.150
-192.217	-60.450	0.239	-0.101
-191.202	-200.000	-0.007	0.104
-190.187	-35.569	0.114	-0.062
-189.173	39.048	-0.269	-0.240
-188.158	-37.664	-0.109	-0.058
-187.144	-166.650	0.117	-0.005
-186.129	800.000	-0.033	0.095
-185.114	-6.185	-0.154	-0.105
-184.100	180.279	-0.084	0.123
-183.085	209.407	0.192	-0.301
-182.071	-94.702	-0.038	0.010
-181.056	-26.277	-0.145	0.085
-180.042	79.424	0.109	0.117
-179.027	544.795	-0.147	-0.351
-178.012	-173.101	0.232	-0.007
-176.998	11.650	0.178	-0.136
-175.983	22.824	0.084	0.069
-174.969	800.000	0.135	-0.437
-173.954	-157.638	-0.125	0.007
-172.939	-200.000	0.003	0.187
-171.925	-58.284	-0.100	-0.043
-170.910	211.844	0.155	-0.244
-169.896	542.725	-0.167	-0.398
-168.881	-8.395	-0.223	-0.149
-167.866	416.091	0.122	0.261
-166.852	5.733	0.190	0.140
-165.837	410.796	0.014	0.029
-164.823	-159.952	0.105	-0.006
-163.808	154.061	0.188	-0.258
-162.793	800.000	-0.111	-0.322
-161.779	89.234	0.137	-0.152
-160.764	-200.000	0.011	0.262
-159.750	507.265	-0.035	0.080
-158.735	288.357	0.144	0.259
-157.720	800.000	0.130	0.385
-156.706	148.372	-0.165	-0.222
-155.691	800.000	0.016	-0.049
-154.677	-126.078	0.425	-0.064
-153.662	205.080	-0.189	0.293
-152.647	800.000	-0.092	0.307
-151.633	-200.000	-0.005	0.315
-150.618	-148.764	0.043	0.003
-149.604	800.000	-0.065	0.272
-148.589	-41.689	-0.201	-0.103
-147.574	-200.000	-0.002	-0.041
-146.560	-200.000	0.058	0.538
-145.545	10.741	0.077	-0.058
-144.531	101.420	0.234	0.272
-143.516	-66.357	-0.333	-0.132
-142.502	212.430	-0.161	-0.254
-141.487	472.196	-0.100	0.224
-140.472	138.021	0.165	0.215
-139.458	-138.311	-0.390	-0.043
-138.443	210.563	0.060	0.093
-137.429	-200.000	0.000	0.018
-136.414	96.381	-0.167	0.191
-135.399	-117.575	-0.439	-0.079
-134.385	124.082	0.100	-0.125
-133.370	-49.575	-0.128	-0.061
-132.356	473.065	0.131	-0.293
-131.341	224.826	-0.174	-0.280
-130.326	120.857	-0.148	0.183
-129.312	800.000	0.076	-0.298
-128.297	682.493	-0.032	-0.084
-127.283	-200.000	-0.004	-0.166
-126.268	800.000	0.028	0.092
-125.253	82.765	0.064	-0.070
-124.239	120.460	-0.228	0.282
-123.224	429.906	0.081	0.175
-122.210	800.000	0.066	0.224
-121.195	-35.890	-0.188	-0.102
