DTS Sentinel unit serial number:	SN413079Multiplexer serial number:	ORYXHardware model number:	OX4-SRSoftware version number:	ORYX F/W v4.00 Oryx Data Collector v3.7.2.0data status	okinstallation	princeton_trtdifferential loss correction	single-endedforward channel	channel 1reverse channel	N/Adate	2019/09/11time	21:00:11forward acquisition time	60.00reverse acquisition time	0.00gamma	496.2192k internal	0.2307k external	0.2307temperature offset calibration	1.0048default loss term (dB/km)	0.3790temperature slope calibration	1.0000multiplexer offset coefficient	1.0000multiplexer slope coefficient	1.0000fibre end	0.00T internal ref (°C)	36.69T ext. ref 1 (°C)	1.66T ext. ref 2 (°C)	30.75length (m)	temperature (°C)	Stokes	anti-Stokes-747.200	339.392	-0.125	0.248
-746.185	215.781	0.043	0.070
-745.171	91.022	-0.104	0.119
-744.156	-58.318	-0.184	0.082
-743.142	-89.358	-0.127	-0.038
-742.127	-200.000	0.028	0.134
-741.112	565.861	-0.145	-0.357
-740.098	-200.000	0.005	0.068
-739.083	-124.998	-0.018	-0.003
-738.069	-90.532	0.093	0.027
-737.054	800.000	0.031	0.095
-736.039	150.770	-0.047	-0.065
-735.025	-200.000	0.004	0.680
-734.010	-136.059	0.131	0.016
-732.996	-96.256	-0.271	0.073
-731.981	-156.846	-0.227	0.014
-730.966	-53.505	0.142	0.066
-729.952	-200.000	0.036	-0.166
-728.937	80.455	0.227	0.248
-727.923	-200.000	-0.001	0.352
-726.908	-55.259	0.138	-0.063
-725.894	-200.000	-0.019	0.132
-724.879	87.438	-0.039	-0.043
-723.864	-92.982	0.125	0.036
-722.850	-68.858	0.339	0.133
-721.835	113.824	-0.137	-0.169
-720.821	800.000	-0.084	0.299
-719.806	-118.718	-0.323	-0.058
-718.791	138.635	-0.086	-0.115
-717.777	-200.000	0.010	0.067
-716.762	-168.725	-0.279	-0.011
-715.748	12.596	0.096	0.076
-714.733	-49.789	0.362	-0.175
-713.718	101.444	0.327	0.386
-712.704	171.830	0.083	0.121
-711.689	521.368	0.108	0.258
-710.675	-6.850	-0.229	-0.158
-709.660	-55.607	0.065	0.030
-708.645	-200.000	0.060	0.297
-707.631	-190.066	0.150	0.002
-706.616	48.129	0.239	0.227
-705.602	30.373	0.364	-0.316
-704.587	95.192	0.248	-0.287
-703.572	-86.681	0.091	-0.028
-702.558	26.395	-0.159	-0.135
-701.543	41.912	-0.102	0.094
-700.529	-29.748	-0.359	0.208
-699.514	800.000	0.094	-0.275
-698.499	16.813	0.057	-0.045
-697.485	-200.000	-0.046	-0.269
-696.470	93.725	-0.193	-0.222
-695.456	36.181	-0.165	-0.147
-694.441	-55.878	-0.350	0.159
-693.426	38.589	0.062	-0.056
-692.412	-193.434	-0.148	0.001
-691.397	-7.383	-0.137	-0.094
-690.383	298.021	-0.032	-0.061
-689.368	71.498	-0.048	0.051
-688.354	175.302	-0.103	0.151
-687.339	115.302	0.058	0.072
-686.324	-28.002	0.197	-0.116
-685.310	-122.478	-0.338	-0.056
-684.295	-82.438	-0.124	0.041
-683.281	-117.645	-0.312	-0.057
-682.266	-140.526	-0.113	-0.012
-681.251	66.384	0.114	0.117
-680.237	113.151	0.071	-0.087
-679.222	68.317	-0.323	0.336
-678.208	157.786	-0.155	-0.218
-677.193	508.330	0.084	-0.197
-676.178	70.298	-0.128	-0.134
-675.164	800.000	-0.065	-0.238
-674.149	209.489	-0.167	-0.266
-673.135	134.131	-0.150	-0.198
-672.120	157.946	0.197	-0.277
-671.105	-100.395	0.169	0.042
-670.091	-185.715	-0.154	0.002
-669.076	-200.000	-0.071	-0.372
-668.062	238.795	0.100	-0.169
-667.047	-78.584	-0.230	-0.080
-666.032	-60.250	0.090	0.039
-665.018	416.345	-0.079	-0.170
-664.003	54.754	-0.183	0.179
-662.989	800.000	-0.103	-0.338
-661.974	-156.860	-0.103	-0.006
-660.959	-100.863	-0.109	0.027
-659.945	-200.000	-0.043	-0.205
-658.930	220.106	0.126	-0.205
-657.916	-160.732	-0.381	-0.021
-656.901	600.751	0.112	0.282
-655.886	-5.389	0.254	-0.177
-654.872	3.854	0.311	0.230
-653.857	-133.884	-0.039	-0.005
-652.843	107.121	0.159	-0.191
-651.828	-64.633	-0.109	-0.045
-650.814	-22.980	0.109	-0.067
-649.799	-96.841	0.166	0.044
-648.784	-169.404	0.090	-0.003
-647.770	-133.462	-0.179	0.023
-646.755	-5.964	-0.185	0.128
-645.741	67.776	-0.047	-0.049
-644.726	-200.000	0.011	-0.072
-643.711	207.992	-0.108	-0.171
-642.697	-200.000	-0.033	0.210
-641.682	-200.000	-0.008	-0.332
-640.668	-200.000	-0.048	0.318
-639.653	178.548	0.161	0.238
-638.638	-129.201	-0.206	-0.029
-637.624	199.216	0.074	0.115
-636.609	-2.524	-0.105	0.074
-635.595	-164.995	0.381	0.017
-634.580	23.233	0.112	-0.093
-633.565	800.000	-0.097	-0.291
-632.551	-81.510	0.081	0.027
-631.536	72.683	-0.084	0.089
-630.522	-141.067	-0.210	-0.022
-629.507	-30.142	0.080	0.046
-628.492	800.000	-0.036	0.123
-627.478	-73.704	0.400	0.147
-626.463	-200.000	0.016	0.474
-625.449	-200.000	0.002	0.084
-624.434	800.000	0.087	0.258
-623.419	-200.000	-0.019	0.129
-622.405	-40.039	0.233	-0.123
-621.390	-46.735	0.324	-0.161
-620.376	20.445	-0.443	0.362
-619.361	399.024	-0.145	-0.307
-618.346	-61.669	-0.232	-0.098
-617.332	-106.859	-0.541	-0.121
-616.317	-36.606	-0.141	-0.077
-615.303	-200.000	0.053	-0.237
-614.288	-144.873	0.294	0.027
-613.273	800.000	-0.051	0.222
-612.259	68.484	0.277	0.287
-611.244	-127.703	-0.149	0.022
-610.230	-15.570	0.453	-0.292
-609.215	152.643	0.043	-0.059
-608.201	-136.800	0.351	0.041
-607.186	448.088	-0.072	0.160
-606.171	-12.567	-0.028	0.018
-605.157	800.000	-0.019	0.064
-604.142	-28.589	0.178	0.104
-603.128	-134.256	0.293	0.036
-602.113	28.870	-0.263	-0.225
-601.098	-25.384	-0.144	0.086
-600.084	-133.647	0.120	0.015
-599.069	-200.000	-0.078	-0.383
-598.055	337.215	0.074	-0.145
-597.040	-200.000	0.004	-0.027
-596.025	-65.969	-0.249	-0.100
-595.011	-200.000	0.007	-0.150
-593.996	104.227	-0.190	-0.226
-592.982	60.108	0.077	0.077
-591.967	-200.000	0.001	0.233
-590.952	278.963	-0.159	-0.287
-589.938	800.000	-0.078	-0.260
-588.923	654.700	-0.096	-0.249
-587.909	-200.000	0.012	0.107
-586.894	-91.952	-0.219	0.063
-585.879	800.000	-0.024	0.092
-584.865	-200.000	0.004	0.082
-583.850	-59.654	-0.145	-0.063
-582.836	-200.000	0.024	0.288
-581.821	-107.332	-0.229	0.051
-580.806	-177.006	-0.159	-0.004
-579.792	170.464	-0.081	-0.117
-578.777	81.045	-0.107	-0.117
-577.763	-86.044	0.157	-0.049
-576.748	800.000	-0.025	0.072
-575.733	800.000	0.138	0.431
-574.719	-103.512	-0.130	0.031
-573.704	152.861	-0.078	0.108
-572.690	307.964	-0.050	0.094
-571.675	467.566	-0.003	0.007
-570.661	-84.295	-0.243	0.078
-569.646	-200.000	-0.005	-0.103
-568.631	-19.922	0.256	-0.160
-567.617	-19.113	-0.115	0.072
-566.602	135.721	-0.026	-0.034
-565.588	26.972	-0.363	0.307
-564.573	49.912	-0.175	0.166
-563.558	-52.516	0.239	0.111
-562.544	-50.827	-0.057	0.027
-561.529	-57.585	0.237	-0.105
-560.515	17.190	0.216	0.173
-559.500	243.650	-0.118	-0.200
-558.485	-179.600	-0.147	0.003
-557.471	-44.181	0.149	0.076
-556.456	14.764	-0.081	-0.064
-555.442	-200.000	-0.034	0.256
-554.427	-91.483	0.230	0.066
-553.412	-200.000	-0.004	0.186
-552.398	383.009	0.048	0.099
-551.383	38.557	-0.213	-0.192
-550.369	-200.000	-0.043	0.286
-549.354	-36.600	0.451	-0.245
-548.339	-54.546	-0.367	-0.168
-547.325	-200.000	0.033	-0.337
-546.310	-52.611	0.133	-0.062
-545.296	621.455	-0.085	-0.215
-544.281	-6.299	-0.043	-0.029
-543.266	557.763	-0.103	0.249
-542.252	-200.000	0.002	0.235
-541.237	-72.460	0.309	0.115
-540.223	59.486	0.117	0.117
-539.208	-100.584	0.190	-0.047
-538.193	419.656	0.165	0.356
-537.179	-200.000	0.002	-0.067
-536.164	262.457	0.213	0.373
-535.150	-200.000	-0.054	0.267
-534.135	82.278	-0.104	0.114
-533.121	-27.470	-0.271	-0.159
-532.106	-138.909	0.103	-0.011
-531.091	-200.000	-0.008	-0.396
-530.077	-2.250	0.143	-0.101
-529.062	-138.719	0.119	0.013
-528.048	87.382	0.151	-0.169
-527.033	-200.000	-0.058	0.000
-526.018	-200.000	-0.024	0.173
-525.004	170.034	-0.169	0.244
-523.989	60.448	0.074	-0.074
-522.975	53.413	-0.105	-0.101
-521.960	129.136	-0.130	0.168
-520.945	-11.027	-0.127	-0.084
-519.931	794.216	0.068	-0.189
-518.916	-200.000	-0.045	-0.267
-517.902	-15.004	-0.054	0.035
-516.887	-81.494	0.129	0.043
-515.872	-200.000	0.020	0.144
-514.858	800.000	-0.088	-0.267
-513.843	-44.879	-0.186	0.093
-512.829	-114.373	0.086	0.017
-511.814	56.141	0.298	0.292
-510.799	-136.862	-0.315	-0.036
-509.785	-46.812	-0.057	-0.028
-508.770	800.000	0.134	-0.413
-507.756	199.678	0.136	-0.211
-506.741	-110.288	0.093	0.020
-505.726	-57.658	-0.056	0.025
-504.712	47.210	0.054	-0.050
-503.697	-200.000	-0.024	0.121
-502.683	-66.923	-0.346	0.138
-501.668	327.713	0.071	-0.137
-500.653	800.000	-0.094	-0.335
-499.639	-200.000	0.009	0.196
-498.624	-74.884	-0.185	-0.067
-497.610	-109.365	0.196	0.042
-496.595	539.574	0.104	-0.248
-495.581	-136.990	-0.254	-0.029
-494.566	-116.726	0.203	-0.038
-493.551	-158.555	0.354	0.021
-492.537	48.184	-0.096	0.090
-491.522	581.923	0.066	-0.164
-490.508	-200.000	-0.030	-0.172
-489.493	-17.298	0.267	-0.169
-488.478	-61.535	0.180	0.076
-487.464	-173.716	-0.164	-0.005
-486.449	-108.967	0.311	0.067
-485.435	-98.946	-0.040	-0.010
-484.420	-38.168	0.165	-0.088
-483.405	-200.000	0.027	0.155
-482.391	348.792	-0.081	-0.161
-481.376	800.000	0.075	0.317
-480.362	-101.193	0.212	0.052
-479.347	-81.349	0.111	-0.037
-478.332	-200.000	0.001	0.235
-477.318	-58.470	-0.232	-0.101
-476.303	-137.810	-0.094	0.011
-475.289	39.703	-0.047	-0.042
-474.274	-44.469	-0.063	-0.032
-473.259	90.751	-0.331	-0.373
-472.245	289.279	-0.109	-0.198
-471.230	-66.061	-0.189	-0.076
-470.216	-200.000	0.010	0.216
-469.201	680.099	0.023	-0.061
-468.186	7.465	-0.172	0.129
-467.172	-84.909	-0.195	-0.062
-466.157	-112.660	-0.223	0.045
-465.143	193.093	0.080	0.122
-464.128	-92.871	-0.167	0.047
-463.113	-3.636	-0.290	0.203
-462.099	749.474	-0.124	0.337
-461.084	-49.281	-0.156	-0.075
-460.070	-37.633	0.170	0.091
-459.055	122.333	-0.128	-0.161
-458.040	588.451	-0.044	0.108
-457.026	800.000	-0.036	0.119
-456.011	-200.000	-0.021	0.198
-454.997	-41.738	0.191	0.098
-453.982	-59.153	0.280	0.121
-452.968	47.487	0.197	0.185
-451.953	166.238	-0.116	-0.166
-450.938	224.700	0.194	-0.315
-449.924	76.048	-0.199	0.212
-448.909	71.227	-0.137	-0.143
-447.895	-200.000	0.054	0.326
-446.880	800.000	0.027	-0.095
-445.865	-74.090	0.165	-0.060
-444.851	800.000	-0.058	0.250
-443.836	9.416	0.141	-0.107
-442.822	-200.000	0.037	-0.300
-441.807	158.824	0.219	-0.306
-440.792	226.539	-0.209	-0.340
-439.778	38.490	0.194	-0.174
-438.763	800.000	0.068	-0.236
-437.749	-37.316	-0.303	0.163
-436.734	-33.681	-0.169	-0.093
-435.719	202.541	0.132	-0.205
-434.705	29.757	-0.241	0.206
-433.690	260.044	-0.137	0.237
-432.676	-172.357	0.184	0.006
-431.661	-108.382	-0.254	-0.055
-430.646	506.716	-0.084	-0.195
-429.632	800.000	0.088	0.295
-428.617	-9.376	-0.116	0.078
-427.603	52.529	0.096	-0.092
-426.588	560.284	-0.031	0.075
-425.573	767.424	-0.038	-0.104
-424.559	800.000	-0.100	-0.338
-423.544	155.061	0.177	-0.244
-422.530	-142.508	-0.050	-0.005
-421.515	-123.962	-0.098	-0.016
-420.500	69.587	0.210	0.217
-419.486	364.493	-0.053	0.107
-418.471	800.000	0.087	-0.244
-417.457	800.000	0.025	-0.103
-416.442	-131.693	-0.106	-0.014
-415.428	-200.000	0.041	-0.288
-414.413	-44.814	-0.183	-0.091
-413.398	-101.359	-0.151	-0.037
-412.384	-200.000	-0.007	-0.320
-411.369	358.080	0.215	0.431
-410.355	89.779	-0.151	0.169
-409.340	-31.875	0.106	-0.060
-408.325	381.555	-0.166	0.341
-407.311	-115.496	0.124	0.024
-406.296	-36.087	0.191	-0.103
-405.282	23.733	-0.122	-0.101
-404.267	-114.374	0.087	0.017
-403.252	78.806	-0.295	-0.317
-402.238	188.997	-0.144	-0.217
-401.223	200.873	0.137	-0.212
-400.209	-64.613	-0.111	-0.045
-399.194	-53.647	0.353	-0.162
-398.179	336.849	0.125	-0.243
-397.165	-137.064	-0.030	-0.003
-396.150	14.675	0.200	-0.157
-395.136	177.241	-0.096	0.141
-394.121	-200.000	0.051	0.233
-393.106	-6.963	-0.210	0.143
-392.092	568.057	0.102	-0.248
-391.077	598.481	0.043	-0.108
-390.063	-54.852	-0.025	0.012
-389.048	-153.257	-0.226	0.016
-388.033	-200.000	-0.022	-0.360
-387.019	300.182	0.087	0.161
-386.004	-200.000	0.007	0.218
-384.990	-18.848	-0.246	-0.153
-383.975	-34.824	-0.492	-0.269
-382.960	-95.062	-0.125	-0.034
-381.946	-14.248	-0.141	0.091
-380.931	-45.464	0.261	0.130
-379.917	-83.426	-0.210	-0.067
-378.902	105.364	-0.188	-0.223
-377.888	184.458	0.059	0.088
-376.873	-138.906	0.152	0.017
-375.858	213.433	0.045	0.071
-374.844	137.087	0.071	0.093
-373.829	102.696	-0.070	0.082
-372.815	14.865	-0.054	0.042
-371.800	45.915	0.108	-0.100
-370.785	800.000	0.051	0.182
-369.771	16.226	-0.177	-0.140
-368.756	-200.000	0.004	0.047
-367.742	-74.552	0.346	0.125
-366.727	77.955	-0.112	-0.119
-365.712	146.568	-0.196	-0.263
-364.698	-28.152	0.352	-0.204
-363.683	-200.000	0.061	-0.423
-362.669	684.020	0.029	-0.076
-361.654	275.622	0.251	0.447
-360.639	182.310	-0.118	0.174
-359.625	315.831	0.072	0.137
-358.610	5.762	0.400	0.296
-357.596	18.732	0.193	0.155
-356.581	-7.432	0.231	0.157
-355.566	-89.298	0.381	0.113
-354.552	90.334	0.013	-0.015
-353.537	44.414	0.115	0.106
-352.523	-200.000	-0.003	0.273
-351.508	-16.394	0.393	0.250
-350.493	-200.000	0.008	-0.078
-349.479	-22.325	-0.194	-0.118
-348.464	196.527	-0.037	-0.057
-347.450	-200.000	-0.017	0.078
-346.435	11.176	0.218	0.167
-345.420	-28.599	0.173	-0.100
-344.406	-87.479	-0.201	-0.061
-343.391	800.000	-0.028	-0.077
-342.377	41.167	0.139	0.126
-341.362	24.163	-0.377	-0.311
-340.348	224.990	-0.127	-0.206
-339.333	110.577	-0.126	-0.152
-338.318	94.665	-0.035	-0.040
-337.304	-73.726	0.181	0.066
-336.289	800.000	-0.115	-0.327
-335.275	61.057	0.044	-0.044
-334.260	-165.390	-0.269	0.012
-333.245	332.952	0.031	-0.061
-332.231	322.811	-0.019	-0.035
-331.216	-71.606	0.204	0.076
-330.202	4.612	-0.094	-0.069
-329.187	562.028	0.040	0.097
-328.172	81.482	0.117	-0.127
-327.158	139.274	-0.067	0.088
-326.143	91.910	-0.125	0.141
-325.129	25.142	0.188	-0.156
-324.114	-200.000	0.020	-0.291
-323.099	-200.000	-0.093	0.431
-322.085	186.257	0.061	-0.091
-321.070	800.000	0.037	0.137
-320.056	171.626	-0.094	-0.136
-319.041	-200.000	-0.025	-0.211
-318.026	-21.572	0.245	0.149
-317.012	-200.000	-0.032	-0.163
-315.997	-138.791	-0.111	0.012
-314.983	800.000	-0.105	-0.362
-313.968	-171.150	0.586	-0.020
-312.953	-59.749	-0.084	-0.036
-311.939	129.923	-0.078	-0.100
-310.924	261.378	0.064	-0.111
-309.910	-176.342	0.402	0.010
-308.895	-41.255	-0.276	-0.142
-307.880	22.372	-0.305	-0.250
-306.866	-49.971	-0.222	-0.105
-305.851	177.530	-0.139	0.202
-304.837	-122.313	0.299	-0.049
-303.822	-138.566	-0.206	0.023
-302.807	-124.694	-0.477	-0.074
-301.793	-20.533	0.085	-0.052
-300.778	-70.984	-0.296	-0.111
-299.764	124.059	0.089	0.112
-298.749	-87.033	-0.098	0.030
-297.735	98.000	0.057	-0.066
-296.720	-11.517	0.227	0.149
-295.705	76.090	-0.453	0.479
-294.691	-166.439	-0.139	-0.006
-293.676	768.740	-0.100	-0.271
-292.662	15.205	0.166	0.130
-291.647	74.662	-0.236	0.248
-290.632	121.406	-0.146	0.181
-289.618	15.409	0.187	0.147
-288.603	166.535	0.161	0.229
-287.589	111.234	0.200	-0.241
-286.574	270.763	0.072	-0.126
-285.559	-96.863	-0.169	0.044
-284.545	371.094	-0.112	-0.226
-283.530	193.428	0.022	0.033
-282.516	-20.025	0.016	0.010
-281.501	171.506	-0.195	-0.279
-280.486	295.966	0.068	0.124
-279.472	-125.385	-0.093	0.014
-278.457	-200.000	-0.017	0.111
-277.443	556.099	0.109	-0.262
-276.428	-1.259	0.253	-0.178
-275.413	576.469	0.136	0.332
-274.399	23.980	0.178	0.147
-273.384	-200.000	-0.018	0.164
-272.370	4.044	-0.226	0.165
-271.355	-187.695	0.073	0.001
-270.340	800.000	-0.047	-0.192
-269.326	-67.228	0.274	-0.108
-268.311	763.106	-0.219	-0.594
-267.297	125.788	-0.136	0.172
-266.282	-59.265	0.266	0.114
-265.267	800.000	-0.043	0.147
-264.253	-200.000	0.003	-0.322
-263.238	86.281	0.344	-0.378
-262.224	-81.618	-0.242	-0.079
-261.209	6.975	-0.102	0.076
-260.195	-58.937	0.299	0.129
-259.180	298.443	-0.085	-0.156
-258.165	91.897	0.182	0.204
-257.151	136.746	0.130	-0.170
-256.136	254.216	-0.077	-0.131
-255.122	-83.647	-0.151	0.048
-254.107	183.741	0.115	-0.169
-253.092	-152.125	-0.255	-0.018
-252.078	224.944	-0.112	-0.181
-251.063	359.654	-0.084	0.167
-250.049	216.605	-0.047	0.075
-249.034	-111.159	-0.366	-0.075
-248.019	-21.118	-0.142	-0.087
-247.005	-37.344	-0.246	-0.131
-245.990	139.890	0.122	-0.161
-244.976	706.180	0.084	-0.221
-243.961	145.175	-0.140	0.187
-242.946	96.774	0.272	-0.311
-241.932	-200.000	-0.003	0.216
-240.917	-114.159	-0.471	-0.091
-239.903	-101.105	0.128	0.031
-238.888	258.500	0.180	-0.308
-237.873	-152.355	0.130	0.009
-236.859	-136.819	0.486	-0.056
-235.844	93.906	-0.199	0.225
-234.830	-200.000	0.031	-0.539
-233.815	-200.000	0.031	0.317
-232.800	-200.000	-0.071	-0.316
-231.786	800.000	0.057	0.244
-230.771	52.229	-0.044	0.041
-229.757	519.652	0.056	0.132
-228.742	-76.546	0.329	-0.115
-227.727	-62.316	-0.129	0.054
-226.713	-30.419	0.119	0.067
-225.698	-121.970	-0.257	-0.042
-224.684	68.835	0.183	0.187
-223.669	-82.739	0.228	0.074
-222.655	-200.000	-0.030	0.181
-221.640	411.089	-0.044	-0.092
-220.625	63.944	-0.214	-0.214
-219.611	131.270	-0.062	0.079
-218.596	-176.457	0.227	-0.006
-217.582	-20.683	-0.146	0.089
-216.567	89.850	-0.043	0.048
-215.552	-31.252	-0.156	0.088
-214.538	137.493	0.103	0.135
-213.523	-200.000	0.008	0.105
-212.509	74.822	-0.108	-0.114
-211.494	777.251	0.057	-0.155
-210.479	800.000	-0.123	0.425
-209.465	-9.654	-0.102	-0.068
-208.450	800.000	0.047	-0.172
-207.436	-200.000	0.011	-0.164
-206.421	266.245	-0.075	0.131
-205.406	-103.582	-0.252	-0.059
-204.392	15.025	0.212	0.166
-203.377	800.000	-0.066	0.225
-202.363	145.864	0.026	0.035
-201.348	75.825	0.145	-0.152
-200.333	800.000	-0.093	-0.258
-199.319	444.688	0.122	0.267
-198.304	800.000	-0.077	-0.332
-197.290	-200.000	0.038	0.167
-196.275	-81.421	0.219	0.072
-195.260	543.771	0.074	-0.176
-194.246	-87.205	0.149	-0.045
-193.231	-8.829	0.565	0.377
-192.217	-200.000	0.083	0.405
-191.202	-200.000	-0.021	-0.162
-190.187	-200.000	-0.093	0.000
-189.173	-133.748	-0.342	0.042
-188.158	32.421	-0.154	0.132
-187.144	-200.000	-0.013	0.142
-186.129	31.411	0.080	-0.068
-185.114	-8.801	0.257	-0.172
-184.100	-153.214	-0.129	0.009
-183.085	-177.406	0.193	0.005
-182.071	-169.113	-0.191	0.007
-181.056	142.655	0.135	0.178
-180.042	246.534	0.013	-0.023
-179.027	-200.000	0.007	0.107
-178.012	-200.000	0.088	0.408
-176.998	-164.191	0.143	-0.007
-175.983	-122.875	0.122	-0.020
-174.969	217.444	-0.041	0.065
-173.954	149.746	-0.072	0.097
-172.939	236.969	0.098	0.161
-171.925	-200.000	0.032	0.314
-170.910	-57.763	0.358	0.156
-169.896	-200.000	0.055	0.247
-168.881	-200.000	-0.033	0.230
-167.866	159.751	-0.141	0.195
-166.852	-48.787	-0.296	-0.141
-165.837	-200.000	-0.010	0.122
-164.823	-110.631	-0.138	0.028
-163.808	-25.215	0.161	0.095
-162.793	-81.929	-0.202	0.066
-161.779	-17.785	0.150	0.093
-160.764	-200.000	0.031	0.153
-159.750	63.410	-0.127	0.127
-158.735	15.981	0.275	0.215
-157.720	599.096	0.076	-0.188
-156.706	148.153	0.149	-0.200
-155.691	-21.366	-0.195	-0.118
-154.677	-9.583	0.097	0.064
-153.662	-4.394	0.159	0.109
-152.647	-73.172	0.136	-0.049
-151.633	-192.966	-0.241	-0.002
-150.618	230.501	-0.069	-0.112
-149.604	-200.000	0.000	0.052
-148.589	144.528	0.033	0.043
-147.574	234.283	-0.134	-0.219
-146.560	60.334	0.235	-0.231
-145.545	-111.556	0.273	0.055
-144.531	-200.000	-0.021	-0.125
-143.516	169.319	0.210	-0.297
-142.502	-200.000	0.005	-0.167
-141.487	245.846	0.167	-0.280
-140.472	-162.318	0.143	0.007
-139.458	-21.874	0.246	-0.148
-138.443	150.954	0.066	-0.090
-137.429	40.956	-0.062	0.056
-136.414	373.006	0.071	-0.143
-135.399	113.063	-0.274	-0.330
-134.385	23.203	0.184	0.150
-133.370	436.582	0.123	-0.266
-132.356	-200.000	-0.020	0.120
-131.341	-115.852	0.551	-0.102
-130.326	33.617	-0.128	-0.111
-129.312	-157.911	0.325	0.019
-128.297	22.948	0.178	0.145
-127.283	-82.070	0.210	-0.068
-126.268	63.319	0.137	0.136
-125.253	800.000	0.037	-0.123
-124.239	-200.000	0.018	0.109
-123.224	-52.434	0.025	0.012
-122.210	41.236	-0.262	-0.235
-121.195	-200.000	-0.003	-0.235
