DTS Sentinel unit serial number:	SN413079Multiplexer serial number:	ORYXHardware model number:	OX4-SRSoftware version number:	ORYX F/W v4.00 Oryx Data Collector v3.7.2.0data status	okinstallation	princeton_trtdifferential loss correction	single-endedforward channel	channel 1reverse channel	N/Adate	2019/09/12time	04:52:11forward acquisition time	60.00reverse acquisition time	0.00gamma	496.2192k internal	0.2323k external	0.2323temperature offset calibration	1.0066default loss term (dB/km)	0.3790temperature slope calibration	1.0000multiplexer offset coefficient	1.0000multiplexer slope coefficient	1.0000fibre end	0.00T internal ref (°C)	31.69T ext. ref 1 (°C)	1.91T ext. ref 2 (°C)	27.21length (m)	temperature (°C)	Stokes	anti-Stokes-747.200	179.618	-0.061	-0.090
-746.185	-169.315	-0.183	-0.007
-745.171	-121.241	0.069	-0.012
-744.156	20.831	-0.140	0.114
-743.142	-200.000	0.034	0.306
-742.127	119.983	-0.198	0.248
-741.112	-123.101	-0.107	-0.017
-740.098	-50.496	-0.417	0.199
-739.083	349.858	-0.048	0.096
-738.069	521.570	0.069	0.164
-737.054	-169.628	-0.195	0.007
-736.039	-200.000	0.036	-0.283
-735.025	118.905	0.154	0.192
-734.010	90.718	0.202	-0.229
-732.996	-200.000	-0.012	-0.063
-731.981	-108.268	-0.308	-0.067
-730.966	170.678	-0.207	-0.299
-729.952	-200.000	-0.036	-0.243
-728.937	-55.220	-0.304	-0.138
-727.923	371.085	-0.104	-0.213
-726.908	349.162	0.090	0.180
-725.894	116.558	-0.165	-0.205
-724.879	-58.135	-0.066	-0.029
-723.864	-71.125	0.191	-0.072
-722.850	45.855	0.023	-0.021
-721.835	95.413	0.174	-0.201
-720.821	151.401	-0.120	-0.165
-719.806	62.668	0.177	-0.179
-718.791	800.000	0.106	-0.341
-717.777	-59.856	-0.228	0.098
-716.762	-6.193	-0.146	-0.101
-715.748	-200.000	-0.014	-0.123
-714.733	-26.141	-0.230	-0.137
-713.718	86.709	-0.029	0.032
-712.704	-128.509	0.163	0.023
-711.689	59.261	0.124	-0.123
-710.675	-200.000	0.003	0.358
-709.660	-200.000	-0.022	-0.114
-708.645	58.160	0.086	0.085
-707.631	800.000	0.137	-0.461
-706.616	587.018	0.135	0.335
-705.602	634.000	-0.097	-0.249
-704.587	800.000	0.021	0.088
-703.572	800.000	-0.070	-0.281
-702.558	104.793	-0.222	-0.263
-701.543	-13.548	-0.389	0.254
-700.529	-122.878	0.279	-0.045
-699.514	-200.000	0.038	0.197
-698.499	-166.065	-0.290	-0.012
-697.485	20.277	-0.172	-0.140
-696.470	304.133	0.093	0.174
-695.456	400.602	0.097	-0.205
-694.441	53.435	0.151	-0.146
-693.426	253.614	-0.194	-0.334
-692.412	-136.145	-0.404	-0.048
-691.397	-200.000	-0.023	0.201
-690.383	-1.713	0.165	-0.117
-689.368	-61.916	0.030	-0.013
-688.354	800.000	-0.163	-0.528
-687.339	-180.629	-0.142	-0.003
-686.324	-113.877	-0.162	-0.032
-685.310	-117.140	0.311	0.057
-684.295	-102.670	0.089	0.021
-683.281	-95.291	0.170	-0.046
-682.266	33.673	0.068	0.060
-681.251	800.000	-0.241	0.683
-680.237	-99.336	-0.168	-0.043
-679.222	557.106	-0.090	0.219
-678.208	557.807	0.043	0.104
-677.193	7.070	-0.127	-0.095
-676.178	800.000	-0.067	-0.225
-675.164	-200.000	0.016	0.256
-674.149	9.154	0.132	0.101
-673.135	6.653	0.478	-0.358
-672.120	11.276	-0.171	0.132
-671.105	305.792	-0.099	-0.186
-670.091	-200.000	-0.017	0.155
-669.076	-200.000	0.028	-0.166
-668.062	-6.521	-0.168	0.115
-667.047	-114.142	-0.063	0.012
-666.032	-150.819	0.132	-0.010
-665.018	-49.837	0.007	0.003
-664.003	62.927	-0.352	-0.354
-662.989	-115.845	0.167	-0.031
-661.974	-200.000	-0.052	0.374
-660.959	-22.541	-0.286	-0.174
-659.945	12.349	-0.392	-0.304
-658.930	-200.000	-0.040	0.398
-657.916	370.532	0.040	-0.082
-656.901	-115.988	-0.107	-0.020
-655.886	11.657	0.224	0.173
-654.872	158.434	-0.187	-0.261
-653.857	-152.090	-0.419	0.031
-652.843	-83.626	-0.461	0.148
-651.828	69.839	0.082	-0.085
-650.814	-147.883	0.304	-0.026
-649.799	5.774	0.541	-0.402
-648.784	68.367	0.117	-0.120
-647.770	160.593	0.212	-0.297
-646.755	5.213	-0.152	-0.113
-645.741	800.000	-0.128	-0.415
-644.726	408.790	-0.159	0.339
-643.711	738.460	-0.037	-0.100
-642.697	2.582	0.151	-0.110
-641.682	-200.000	0.019	-0.110
-640.668	119.873	-0.142	-0.177
-639.653	-200.000	0.014	0.324
-638.638	-114.169	0.108	-0.021
-637.624	-86.831	-0.234	-0.072
-636.609	433.552	0.110	0.241
-635.595	800.000	-0.135	0.476
-634.580	157.183	-0.071	0.098
-633.565	48.668	-0.054	0.051
-632.551	-82.929	-0.488	-0.158
-631.536	66.289	-0.206	0.210
-630.522	-200.000	-0.054	0.285
-629.507	139.093	-0.100	-0.132
-628.492	800.000	-0.029	0.097
-627.478	800.000	0.040	-0.112
-626.463	-200.000	0.011	0.301
-625.449	535.447	0.070	0.168
-624.434	-111.534	-0.127	0.026
-623.419	110.827	0.135	-0.164
-622.405	59.036	-0.127	-0.126
-621.390	-168.365	-0.028	0.001
-620.376	-89.146	0.214	0.064
-619.361	-200.000	-0.000	0.313
-618.346	-141.559	0.214	-0.022
-617.332	11.433	0.269	-0.207
-616.317	101.041	-0.035	-0.041
-615.303	101.527	-0.078	-0.091
-614.288	-11.923	0.294	0.194
-613.273	800.000	-0.077	0.314
-612.259	121.166	0.097	0.121
-611.244	-200.000	0.007	0.118
-610.230	-200.000	-0.002	0.296
-609.215	-156.631	-0.069	-0.004
-608.201	-20.650	0.288	0.177
-607.186	316.664	-0.235	-0.445
-606.171	-121.269	-0.207	0.035
-605.157	-200.000	-0.044	0.211
-604.142	800.000	-0.028	-0.100
-603.128	800.000	0.083	-0.268
-602.113	46.609	0.293	-0.273
-601.098	344.277	0.031	-0.061
-600.084	17.377	-0.180	-0.144
-599.069	-84.651	-0.231	-0.073
-598.055	-66.140	-0.023	0.009
-597.040	276.412	0.091	-0.163
-596.025	-120.502	0.098	0.017
-595.011	-200.000	-0.031	0.167
-593.996	540.246	-0.037	0.089
-592.982	71.363	-0.129	0.134
-591.967	-138.965	0.342	-0.037
-590.952	-18.094	-0.067	-0.042
-589.938	220.142	-0.200	-0.321
-588.923	-91.729	-0.367	0.105
-587.909	-57.590	-0.234	0.103
-586.894	800.000	0.022	0.075
-585.879	-200.000	-0.044	0.506
-584.865	598.186	-0.052	0.128
-583.850	6.689	-0.026	-0.019
-582.836	-80.507	0.349	0.117
-581.821	-59.019	-0.083	0.036
-580.806	85.039	-0.048	0.053
-579.792	316.269	0.196	0.372
-578.777	-25.869	0.218	0.129
-577.763	-67.870	0.320	0.126
-576.748	-71.423	0.105	0.039
-575.733	292.111	0.092	0.168
-574.719	4.796	-0.195	-0.143
-573.704	345.378	-0.172	-0.338
-572.690	122.035	-0.144	0.180
-571.675	307.639	-0.059	0.111
-570.661	-200.000	-0.007	0.217
-569.646	135.422	0.056	-0.073
-568.631	-200.000	0.043	-0.202
-567.617	-200.000	0.051	0.444
-566.602	-128.717	-0.136	0.019
-565.588	-200.000	-0.040	0.266
-564.573	-72.029	0.202	-0.075
-563.558	-193.958	-0.360	0.003
-562.544	338.984	-0.029	-0.056
-561.529	-200.000	-0.004	0.232
-560.515	800.000	-0.062	0.178
-559.500	-125.972	-0.083	0.013
-558.485	99.723	0.061	-0.071
-557.471	202.716	-0.026	0.041
-556.456	-200.000	0.006	-0.228
-555.442	204.197	0.155	-0.241
-554.427	-110.138	-0.164	0.034
-553.412	594.323	0.052	0.129
-552.398	-200.000	-0.037	-0.168
-551.383	303.789	-0.070	-0.131
-550.369	9.181	0.423	-0.320
-549.354	-84.160	-0.343	-0.109
-548.339	-84.644	-0.288	-0.091
-547.325	666.725	-0.140	0.363
-546.310	800.000	-0.114	0.355
-545.296	-54.999	-0.165	0.075
-544.281	-200.000	-0.062	-0.290
-543.266	-200.000	-0.003	-0.036
-542.252	408.169	-0.225	-0.476
-541.237	-1.372	-0.154	-0.109
-540.223	-12.668	-0.131	-0.085
-539.208	800.000	-0.091	-0.301
-538.193	-168.424	0.167	0.006
-537.179	-76.162	0.265	-0.094
-536.164	-61.435	0.191	0.080
-535.150	-38.954	-0.152	-0.080
-534.135	76.946	0.095	-0.101
-533.121	53.964	-0.019	-0.018
-532.106	-200.000	0.067	-0.411
-531.091	-200.000	0.040	-0.194
-530.077	-130.653	0.176	-0.024
-529.062	-200.000	0.010	-0.074
-528.048	-37.372	-0.097	0.052
-527.033	59.109	-0.083	0.082
-526.018	31.535	-0.196	-0.169
-525.004	387.025	-0.222	-0.460
-523.989	424.173	-0.056	0.120
-522.975	-94.750	0.321	0.087
-521.960	-49.881	-0.370	0.176
-520.945	-35.770	0.199	-0.108
-519.931	3.304	-0.081	-0.059
-518.916	3.112	-0.296	0.215
-517.902	-86.871	0.122	-0.037
-516.887	6.339	-0.091	-0.068
-515.872	-200.000	0.010	0.141
-514.858	39.539	0.190	-0.170
-513.843	31.098	-0.197	0.169
-512.829	-200.000	-0.030	0.153
-511.814	-70.765	-0.278	0.105
-510.799	131.198	-0.135	-0.174
-509.785	-200.000	-0.001	-0.348
-508.770	-34.012	0.091	0.050
-507.756	7.178	0.070	0.052
-506.741	38.598	0.250	-0.223
-505.726	431.198	0.134	0.291
-504.712	-18.105	0.239	-0.150
-503.697	35.709	0.264	-0.232
-502.683	41.400	-0.218	0.197
-501.668	671.526	0.120	0.310
-500.653	12.088	0.088	0.068
-499.639	-93.746	0.153	0.042
-498.624	86.294	-0.266	0.294
-497.610	-136.919	-0.298	0.034
-496.595	-200.000	-0.021	-0.108
-495.581	150.187	0.105	-0.143
-494.566	-23.492	0.291	0.175
-493.551	166.649	-0.310	0.440
-492.537	265.305	0.086	0.150
-491.522	-45.592	0.215	0.106
-490.508	-5.730	-0.271	-0.186
-489.493	-200.000	0.001	-0.063
-488.478	227.314	-0.049	0.079
-487.464	-200.000	-0.005	-0.110
-486.449	-146.903	0.011	0.001
-485.435	69.422	-0.083	0.086
-484.420	-130.500	0.341	-0.046
-483.405	261.674	0.145	-0.251
-482.391	-78.668	-0.191	0.065
-481.376	-173.143	0.164	-0.005
-480.362	-125.692	-0.453	-0.069
-479.347	483.743	-0.032	0.073
-478.332	69.446	0.278	0.286
-477.318	92.226	-0.118	-0.133
-476.303	-130.400	-0.122	0.017
-475.289	-137.904	0.233	0.026
-474.274	156.072	-0.209	-0.287
-473.259	20.430	-0.274	-0.222
-472.245	-189.859	-0.147	0.002
-471.230	112.404	0.079	-0.095
-470.216	36.538	-0.059	0.052
-469.201	-108.727	0.387	0.083
-468.186	-132.180	-0.271	0.035
-467.172	-109.288	0.211	-0.045
-466.157	-80.113	-0.131	-0.044
-465.143	-104.799	0.258	0.059
-464.128	-126.084	0.389	-0.058
-463.113	-80.359	-0.080	-0.027
-462.099	-200.000	-0.043	-0.201
-461.084	-124.411	0.104	-0.016
-460.070	-164.655	-0.197	-0.009
-459.055	135.168	0.173	0.224
-458.040	-72.636	0.260	-0.096
-457.026	-65.066	0.304	0.122
-456.011	-64.860	-0.167	0.067
-454.997	800.000	0.183	0.512
-453.982	87.048	-0.136	0.151
-452.968	-200.000	-0.032	0.303
-451.953	-110.501	0.253	-0.052
-450.938	363.129	-0.053	-0.106
-449.924	138.303	0.085	-0.111
-448.909	800.000	-0.016	0.051
-447.895	-147.731	0.174	-0.015
-446.880	110.903	-0.156	0.187
-445.865	-85.544	-0.142	-0.044
-444.851	31.066	-0.241	-0.206
-443.836	-200.000	-0.019	-0.201
-442.822	-200.000	0.024	-0.259
-441.807	192.935	-0.104	0.157
-440.792	-13.519	-0.028	0.018
-439.778	-199.505	0.165	-0.001
-438.763	51.672	0.193	-0.183
-437.749	-200.000	-0.066	-0.383
-436.734	251.034	-0.208	-0.353
-435.719	-67.867	-0.255	0.100
-434.705	263.798	-0.163	-0.282
-433.690	627.935	0.110	-0.278
-432.676	408.674	0.051	0.108
-431.661	-54.461	-0.158	-0.071
-430.646	-129.813	0.326	-0.045
-429.632	-92.789	-0.189	0.053
-428.617	33.479	-0.268	-0.232
-427.603	-152.540	0.073	0.005
-426.588	529.820	0.135	0.317
-425.573	-99.338	0.233	-0.059
-424.559	191.953	0.119	-0.179
-423.544	224.917	0.135	-0.218
-422.530	141.199	-0.036	-0.048
-421.515	313.213	0.133	-0.249
-420.500	166.192	0.120	-0.170
-419.486	350.783	0.122	0.240
-418.471	275.372	-0.045	-0.079
-417.457	-94.404	-0.078	0.021
-416.442	102.652	0.105	0.122
-415.428	43.820	-0.165	-0.150
-414.413	-121.694	-0.088	-0.015
-413.398	800.000	0.055	0.156
-412.384	-70.029	0.177	0.067
-411.369	-101.443	-0.120	-0.029
-410.355	-152.168	0.352	0.025
-409.340	46.730	0.035	0.032
-408.325	-200.000	-0.002	0.356
-407.311	-180.583	-0.114	-0.002
-406.296	261.014	0.099	0.170
-405.282	145.959	-0.046	0.061
-404.267	800.000	-0.145	-0.430
-403.252	63.702	0.053	-0.053
-402.238	-200.000	0.005	-0.289
-401.223	80.922	-0.185	-0.199
-400.209	-106.860	-0.121	0.027
-399.194	151.766	0.049	-0.067
-398.179	214.627	0.009	0.014
-397.165	-147.393	0.125	-0.011
-396.150	579.787	0.098	-0.238
-395.136	-55.235	0.085	-0.038
-394.121	485.761	-0.224	0.508
-393.106	536.217	0.058	0.138
-392.092	405.009	0.106	0.223
-391.077	-200.000	-0.010	-0.247
-390.063	56.192	-0.080	0.078
-389.048	800.000	0.038	0.161
-388.033	194.385	-0.089	0.134
-387.019	-66.628	-0.108	-0.043
-386.004	-16.461	0.131	-0.083
-384.990	30.200	-0.302	-0.256
-383.975	96.556	0.098	0.112
-382.960	130.651	0.107	-0.137
-381.946	-75.743	-0.036	-0.013
-380.931	24.103	-0.221	0.182
-379.917	293.071	-0.138	-0.251
-378.902	-71.226	-0.351	0.131
-377.888	5.195	-0.213	-0.156
-376.873	-30.868	0.233	-0.131
-375.858	649.244	-0.048	-0.121
-374.844	-130.168	0.170	0.023
-373.829	35.029	-0.114	-0.099
-372.815	-200.000	0.058	0.350
-371.800	-51.196	0.247	-0.115
-370.785	-200.000	0.020	-0.198
-369.771	15.220	0.056	-0.043
-368.756	-121.062	-0.205	-0.034
-367.742	-52.629	0.296	-0.136
-366.727	-164.439	0.174	0.008
-365.712	156.016	0.040	-0.055
-364.698	800.000	0.127	-0.365
-363.683	-105.368	-0.218	0.049
-362.669	106.239	0.154	-0.182
-361.654	59.403	-0.156	0.153
-360.639	277.633	-0.036	-0.063
-359.625	-148.479	0.115	0.009
-358.610	-36.874	0.086	-0.046
-357.596	-5.398	0.274	-0.187
-356.581	-168.976	-0.129	0.005
-355.566	16.349	0.198	0.156
-354.552	459.178	-0.006	0.014
-353.537	-200.000	-0.060	-0.303
-352.523	107.303	-0.076	0.089
-351.508	-60.893	0.176	0.074
-350.493	150.705	-0.099	0.134
-349.479	513.911	-0.022	0.050
-348.464	-105.113	0.410	-0.093
-347.450	-200.000	-0.054	-0.321
-346.435	-200.000	0.052	-0.276
-345.420	-78.759	-0.165	0.056
-344.406	590.682	-0.075	-0.183
-343.391	-200.000	-0.053	0.367
-342.377	527.795	-0.140	0.327
-341.362	-106.756	0.271	0.060
-340.348	-75.156	-0.165	0.059
-339.333	-16.598	0.101	-0.063
-338.318	-200.000	-0.074	0.598
-337.304	800.000	0.103	0.408
-336.289	43.486	-0.056	-0.051
-335.275	42.941	-0.129	0.117
-334.260	-76.867	-0.170	-0.059
-333.245	800.000	-0.072	-0.263
-332.231	79.282	-0.233	-0.249
-331.216	-200.000	0.014	0.134
-330.202	98.524	0.100	0.114
-329.187	800.000	-0.056	0.226
-328.172	-200.000	-0.019	0.289
-327.158	589.918	0.162	0.396
-326.143	120.551	0.170	-0.210
-325.129	-200.000	-0.042	0.188
-324.114	-200.000	-0.001	-0.309
-323.099	-18.322	-0.354	0.220
-322.085	-123.947	0.155	0.024
-321.070	507.292	-0.065	0.150
-320.056	-156.597	0.265	-0.016
-319.041	-24.641	0.169	0.100
-318.026	800.000	-0.035	-0.102
-317.012	-200.000	0.039	-0.250
-315.997	632.542	0.066	-0.167
-314.983	27.795	0.093	0.077
-313.968	14.592	0.143	0.111
-312.953	138.651	0.139	-0.181
-311.939	211.185	-0.055	0.087
-310.924	800.000	0.014	-0.051
-309.910	-200.000	-0.011	-0.533
-308.895	112.021	-0.033	-0.039
-307.880	-121.221	-0.107	0.018
-306.866	83.950	0.113	-0.123
-305.851	7.274	0.107	-0.079
-304.837	93.829	0.155	0.174
-303.822	800.000	-0.115	0.363
-302.807	-76.764	-0.211	0.073
-301.793	-78.436	0.178	0.061
-300.778	800.000	0.111	-0.390
-299.764	-86.182	0.346	-0.106
-298.749	21.061	0.200	0.161
-297.735	800.000	-0.029	0.120
-296.720	412.940	0.091	-0.191
-295.705	128.060	0.075	0.094
-294.691	92.194	-0.044	-0.049
-293.676	-166.700	-0.095	0.004
-292.662	414.703	-0.211	0.445
-291.647	-200.000	-0.012	0.247
-290.632	-54.279	-0.115	0.052
-289.618	-200.000	0.003	0.080
-288.603	-98.463	-0.190	-0.048
-287.589	800.000	0.014	-0.057
-286.574	-103.298	0.147	0.034
-285.559	-38.366	-0.160	-0.084
-284.545	-81.461	-0.039	0.013
-283.530	-200.000	0.031	0.440
-282.516	-12.096	-0.044	0.029
-281.501	379.250	-0.136	0.277
-280.486	-31.882	0.166	0.092
-279.472	800.000	0.097	-0.278
-278.457	106.222	-0.248	0.291
-277.443	3.546	0.243	-0.176
-276.428	-66.721	0.270	0.106
-275.413	80.320	-0.058	-0.062
-274.399	-91.052	-0.304	-0.087
-273.384	100.199	-0.095	-0.110
-272.370	53.332	0.160	0.152
-271.355	-200.000	-0.028	-0.188
-270.340	-21.452	-0.076	-0.046
-269.326	800.000	-0.040	-0.162
-268.311	-200.000	-0.016	-0.458
-267.297	-73.358	0.235	-0.085
-266.282	-200.000	0.091	-0.474
-265.267	800.000	-0.037	-0.143
-264.253	-200.000	-0.056	-0.305
-263.238	136.235	0.208	0.269
-262.224	-54.969	0.103	0.046
-261.209	-94.781	0.273	-0.074
-260.195	-55.774	-0.282	-0.125
-259.180	-200.000	0.009	0.136
-258.165	-71.256	0.251	-0.093
-257.151	-129.648	-0.177	-0.024
-256.136	-30.514	0.218	-0.122
-255.122	78.908	-0.216	0.229
-254.107	-104.486	0.114	0.026
-253.092	-64.364	0.404	0.163
-252.078	482.321	-0.079	-0.178
-251.063	9.299	-0.172	0.129
-250.049	-72.805	-0.261	0.095
-249.034	94.119	0.071	0.079
-248.019	800.000	-0.053	0.194
-247.005	224.959	-0.028	0.045
-245.990	-140.516	-0.166	0.017
-244.976	-70.513	0.226	0.085
-243.961	-200.000	0.003	0.238
-242.946	42.770	-0.113	0.102
-241.932	450.570	0.073	0.159
-240.917	670.754	0.051	0.130
-239.903	800.000	0.059	0.236
-238.888	-49.369	-0.075	0.036
-237.873	271.467	0.113	-0.197
-236.859	-200.000	-0.020	-0.210
-235.844	-114.789	-0.560	0.106
-234.830	-13.012	0.320	0.206
-233.815	-103.290	-0.261	0.061
-232.800	-92.140	0.125	-0.035
-231.786	2.257	0.155	-0.111
-230.771	800.000	-0.060	0.217
-229.757	800.000	0.044	0.172
-228.742	30.624	0.265	-0.224
-227.727	-15.295	-0.294	0.186
-226.713	-39.170	0.252	0.131
-225.698	138.990	0.052	0.068
-224.684	-7.819	0.186	-0.124
-223.669	-104.843	-0.320	-0.073
-222.655	424.061	-0.074	0.157
-221.640	-16.720	-0.161	-0.101
-220.625	-64.961	0.305	-0.122
-219.611	-200.000	-0.048	-0.275
-218.596	-28.115	-0.057	0.032
-217.582	-9.476	-0.116	-0.077
-216.567	800.000	0.025	0.085
-215.552	382.489	-0.122	0.248
-214.538	89.425	-0.305	0.336
-213.523	655.858	0.078	-0.199
-212.509	-62.870	-0.390	0.159
-211.494	-63.170	-0.281	-0.115
-210.479	-200.000	-0.009	-0.050
-209.465	-200.000	0.010	0.296
-208.450	-200.000	0.070	0.391
-207.436	-96.537	0.305	0.080
-206.421	6.830	0.109	-0.080
-205.406	-200.000	-0.029	-0.418
-204.392	37.062	0.220	-0.192
-203.377	-182.725	-0.101	0.002
-202.363	6.039	-0.085	-0.063
-201.348	68.267	-0.128	-0.130
-200.333	-200.000	-0.004	0.246
-199.319	-49.471	-0.104	0.049
-198.304	-58.996	0.036	0.015
-197.290	-200.000	-0.038	0.378
-196.275	316.413	0.087	0.162
-195.260	-169.498	0.157	0.006
-194.246	276.424	-0.093	-0.163
-193.231	800.000	0.017	0.059
-192.217	41.105	0.098	-0.087
-191.202	31.687	0.159	0.135
-190.187	61.602	-0.180	0.177
-189.173	-126.793	0.143	0.021
-188.158	241.472	0.192	-0.317
-187.144	95.305	0.183	0.206
-186.129	-91.391	-0.058	0.016
-185.114	111.661	0.164	-0.195
-184.100	-47.015	-0.118	-0.057
-183.085	-104.862	-0.305	0.069
-182.071	24.940	-0.254	-0.208
-181.056	800.000	0.067	0.195
-180.042	174.040	0.175	0.249
-179.027	106.520	-0.105	0.123
-178.012	-200.000	-0.017	-0.281
-176.998	11.678	-0.075	0.057
-175.983	-126.546	-0.198	0.029
-174.969	-200.000	-0.027	0.129
-173.954	47.410	-0.043	0.040
-172.939	-93.557	0.090	0.025
-171.925	303.490	-0.119	-0.218
-170.910	-200.000	-0.074	-0.453
-169.896	-183.016	0.247	0.004
-168.881	94.902	-0.122	0.137
-167.866	61.910	-0.208	-0.204
-166.852	-200.000	-0.004	0.136
-165.837	176.919	0.151	-0.217
-164.823	646.768	0.058	0.146
-163.808	3.274	-0.025	-0.018
-162.793	48.707	0.146	-0.135
-161.779	369.786	-0.027	-0.054
-160.764	-29.005	0.334	-0.189
-159.750	163.275	-0.196	-0.272
-158.735	-98.256	-0.409	0.104
-157.720	-200.000	0.009	-0.156
-156.706	-50.826	0.198	0.092
-155.691	-200.000	-0.002	0.180
-154.677	-152.088	0.089	0.006
-153.662	-28.398	0.184	-0.105
-152.647	130.534	-0.088	-0.111
-151.633	41.466	-0.111	0.099
-150.618	336.973	-0.161	-0.308
-149.604	800.000	0.056	0.228
-148.589	-200.000	0.016	0.153
-147.574	61.536	-0.185	0.182
-146.560	-94.966	-0.307	-0.082
-145.545	23.465	0.217	0.176
-144.531	800.000	-0.058	0.249
-143.516	-120.381	0.345	0.058
-142.502	2.107	-0.213	-0.152
-141.487	-117.724	-0.317	-0.056
-140.472	-147.948	-0.158	0.013
-139.458	29.194	-0.207	0.174
-138.443	-200.000	-0.018	-0.235
-137.429	-115.133	-0.140	-0.026
-136.414	558.740	-0.151	-0.360
-135.399	-104.371	0.190	-0.043
-134.385	-22.337	-0.103	0.061
-133.370	165.071	-0.181	0.251
-132.356	124.822	-0.035	0.044
-131.341	194.248	0.101	0.151
-130.326	260.159	-0.049	0.084
-129.312	-41.562	0.065	0.033
-128.297	-61.872	0.348	0.143
-127.283	-200.000	0.030	0.191
-126.268	-107.917	0.087	0.019
-125.253	587.672	-0.150	-0.363
-124.239	-200.000	0.048	0.502
-123.224	161.752	-0.283	-0.391
-122.210	87.200	0.265	-0.289
-121.195	70.549	-0.095	-0.097
