DTS Sentinel unit serial number:	SN413079Multiplexer serial number:	ORYXHardware model number:	OX4-SRSoftware version number:	ORYX F/W v4.00 Oryx Data Collector v3.7.2.0data status	okinstallation	princeton_trtdifferential loss correction	single-endedforward channel	channel 1reverse channel	N/Adate	2019/09/11time	16:08:11forward acquisition time	60.00reverse acquisition time	0.00gamma	496.2192k internal	0.2291k external	0.2291temperature offset calibration	0.9993default loss term (dB/km)	0.3790temperature slope calibration	1.0000multiplexer offset coefficient	1.0000multiplexer slope coefficient	1.0000fibre end	0.00T internal ref (°C)	43.19T ext. ref 1 (°C)	1.04T ext. ref 2 (°C)	39.00length (m)	temperature (°C)	Stokes	anti-Stokes-747.200	-43.070	0.136	-0.071
-746.185	91.152	0.098	0.113
-745.171	52.967	-0.279	-0.273
-744.156	20.671	0.172	-0.143
-743.142	361.685	0.127	-0.261
-742.127	-45.649	-0.201	0.102
-741.112	-3.949	0.193	0.137
-740.098	465.496	0.148	0.339
-739.083	-200.000	0.047	0.249
-738.069	361.762	-0.068	0.139
-737.054	-99.004	-0.247	-0.064
-736.039	36.755	-0.135	-0.122
-735.025	-110.634	-0.159	-0.034
-734.010	123.796	-0.135	0.174
-732.996	-169.009	0.215	0.008
-731.981	96.365	-0.222	-0.259
-730.966	569.992	0.018	0.044
-729.952	-200.000	0.057	-0.276
-728.937	200.724	0.139	0.218
-727.923	-110.508	0.054	-0.011
-726.908	-156.984	-0.499	-0.031
-725.894	0.286	-0.131	0.096
-724.879	-158.912	-0.126	0.007
-723.864	-130.618	-0.069	0.010
-722.850	-200.000	-0.027	-0.324
-721.835	233.309	-0.110	-0.186
-720.821	-95.632	-0.055	0.015
-719.806	-99.450	-0.267	-0.069
-718.791	13.413	0.089	0.070
-717.777	-76.507	-0.172	0.062
-716.762	-94.762	-0.348	0.097
-715.748	78.326	0.393	-0.429
-714.733	-60.754	0.318	0.138
-713.718	-200.000	0.034	0.260
-712.704	-31.903	-0.112	-0.064
-711.689	-200.000	0.002	-0.076
-710.675	-200.000	-0.009	0.128
-709.660	383.644	0.142	-0.298
-708.645	309.525	0.053	0.101
-707.631	-200.000	-0.035	0.162
-706.616	147.683	-0.079	0.109
-705.602	273.989	0.167	-0.302
-704.587	-106.081	-0.065	0.015
-703.572	122.220	-0.199	0.254
-702.558	42.936	0.196	0.183
-701.543	-40.894	0.115	-0.061
-700.529	800.000	0.085	0.276
-699.514	62.985	-0.159	-0.163
-698.499	800.000	-0.057	-0.251
-697.485	-200.000	0.022	0.102
-696.470	-200.000	-0.027	0.270
-695.456	-16.600	0.209	0.135
-694.441	46.174	-0.074	-0.070
-693.426	35.401	-0.312	0.279
-692.412	364.943	0.112	0.231
-691.397	-47.523	0.197	-0.098
-690.383	548.045	-0.226	-0.553
-689.368	61.422	-0.196	-0.199
-688.354	-200.000	0.011	-0.245
-687.339	661.526	0.043	-0.113
-686.324	-55.670	-0.373	-0.171
-685.310	-165.030	0.159	0.007
-684.295	530.426	-0.148	0.356
-683.281	68.965	0.232	0.243
-682.266	-142.734	-0.360	0.036
-681.251	16.395	-0.268	-0.217
-680.237	-26.315	-0.262	-0.157
-679.222	95.665	-0.188	-0.219
-678.208	-31.497	0.216	-0.124
-677.193	193.093	-0.188	0.291
-676.178	-197.334	0.129	-0.001
-675.164	10.907	0.141	-0.110
-674.149	-200.000	-0.047	0.231
-673.135	161.751	-0.334	-0.477
-672.120	310.460	0.047	-0.091
-671.105	-200.000	-0.013	-0.197
-670.091	55.195	0.166	-0.164
-669.076	9.159	0.172	-0.133
-668.062	-200.000	-0.012	-0.160
-667.047	178.866	-0.102	0.152
-666.032	4.598	-0.072	0.054
-665.018	-100.385	-0.415	-0.105
-664.003	800.000	0.043	-0.153
-662.989	61.821	-0.064	-0.066
-661.974	-92.812	-0.426	-0.122
-660.959	800.000	0.079	0.259
-659.945	55.282	0.236	-0.233
-658.930	-104.817	0.196	-0.046
-657.916	0.075	-0.092	-0.067
-656.901	-20.150	0.081	0.051
-655.886	360.112	-0.209	0.426
-654.872	653.605	-0.078	-0.203
-653.857	208.182	-0.240	0.383
-652.843	-200.000	-0.003	0.220
-651.828	198.484	0.064	-0.099
-650.814	-200.000	0.023	-0.318
-649.799	800.000	0.047	0.192
-648.784	-15.072	-0.055	0.036
-647.770	-11.374	-0.078	0.052
-646.755	-200.000	0.008	-0.166
-645.741	136.729	0.051	0.068
-644.726	-87.416	-0.169	-0.052
-643.711	-105.327	0.258	-0.060
-642.697	-103.181	-0.092	0.022
-641.682	-200.000	0.003	0.123
-640.668	-120.591	-0.190	-0.033
-639.653	-64.963	-0.158	0.065
-638.638	-32.717	-0.256	-0.145
-637.624	-200.000	0.006	-0.058
-636.609	144.429	-0.140	0.190
-635.595	-46.959	-0.249	-0.124
-634.580	-27.345	-0.074	-0.044
-633.565	-137.200	-0.136	0.016
-632.551	556.434	-0.166	-0.407
-631.536	-87.438	-0.395	0.122
-630.522	131.482	0.069	-0.090
-629.507	-34.563	0.266	-0.148
-628.492	-37.083	0.073	0.040
-627.478	-67.245	0.221	-0.089
-626.463	631.319	-0.058	0.149
-625.449	-93.549	0.197	-0.056
-624.434	-104.172	0.157	-0.037
-623.419	-58.746	0.172	0.076
-622.405	-25.924	-0.115	0.069
-621.390	68.512	0.302	-0.315
-620.376	-153.660	0.155	-0.011
-619.361	800.000	-0.036	0.146
-618.346	-150.255	-0.331	0.026
-617.332	-69.755	0.333	0.130
-616.317	201.664	-0.073	0.114
-615.303	-200.000	0.045	-0.241
-614.288	50.150	-0.030	-0.029
-613.273	-200.000	0.007	0.193
-612.259	800.000	-0.063	0.216
-611.244	-123.950	-0.198	0.032
-610.230	-200.000	0.018	-0.106
-609.215	484.474	-0.079	0.183
-608.201	52.848	-0.222	0.216
-607.186	156.829	0.171	0.241
-606.171	59.741	0.126	-0.127
-605.157	-43.825	-0.302	-0.155
-604.142	315.276	-0.255	-0.490
-603.128	-11.132	0.438	-0.294
-602.113	-119.111	-0.352	0.063
-601.098	-44.353	0.208	-0.106
-600.084	6.511	0.123	0.093
-599.069	48.734	-0.151	0.145
-598.055	172.750	0.116	0.170
-597.040	70.767	0.081	0.085
-596.025	-50.996	0.108	-0.052
-595.011	-161.322	-0.136	0.007
-593.996	-200.000	-0.018	-0.238
-592.982	306.803	-0.134	0.255
-591.967	-44.458	-0.181	0.092
-590.952	-56.614	0.262	-0.118
-589.938	58.495	-0.242	0.242
-588.923	-200.000	-0.007	-0.107
-587.909	-200.000	0.059	-0.314
-586.894	-83.837	0.325	-0.105
-585.879	292.209	-0.015	0.028
-584.865	-200.000	-0.009	0.099
-583.850	280.910	-0.135	0.246
-582.836	32.924	0.131	0.115
-581.821	-200.000	-0.031	0.138
-580.806	-200.000	0.024	0.225
-579.792	-200.000	-0.048	0.239
-578.777	-24.204	0.089	0.054
-577.763	93.562	0.140	-0.161
-576.748	-174.479	0.119	0.003
-575.733	-200.000	-0.048	0.271
-574.719	-142.135	-0.314	-0.032
-573.704	-127.896	-0.342	0.050
-572.690	524.270	0.032	0.077
-571.675	9.923	-0.062	0.048
-570.661	204.857	0.060	-0.095
-569.646	-137.886	0.253	-0.029
-568.631	473.415	-0.141	-0.323
-567.617	800.000	-0.069	-0.196
-566.602	95.419	0.089	0.103
-565.588	-124.802	-0.181	0.028
-564.573	-200.000	0.003	-0.078
-563.558	-120.797	-0.285	-0.049
-562.544	-107.742	0.139	0.031
-561.529	-73.872	0.219	0.081
-560.515	-130.156	0.128	-0.018
-559.500	-151.590	-0.272	0.020
-558.485	-195.670	-0.173	-0.001
-557.471	-200.000	0.004	0.288
-556.456	-200.000	0.024	-0.239
-555.442	34.444	-0.131	0.117
-554.427	26.787	-0.212	0.181
-553.412	2.178	-0.235	-0.173
-552.398	-200.000	0.047	-0.350
-551.383	-13.803	0.247	-0.162
-550.369	-124.255	-0.121	-0.019
-549.354	-95.544	-0.321	0.087
-548.339	437.666	-0.187	0.415
-547.325	800.000	0.085	0.345
-546.310	-66.337	0.318	0.128
-545.296	350.357	0.058	-0.117
-544.281	-182.702	-0.383	-0.007
-543.266	-147.363	0.178	0.015
-542.252	-94.465	-0.333	-0.092
-541.237	249.502	-0.248	0.427
-540.223	-66.307	-0.317	-0.128
-539.208	-32.168	0.136	0.077
-538.193	800.000	0.052	-0.153
-537.179	800.000	-0.090	0.343
-536.164	-101.893	-0.447	-0.110
-535.150	-170.286	0.234	-0.008
-534.135	-200.000	-0.007	0.137
-533.121	37.197	-0.036	0.033
-532.106	228.968	0.193	0.319
-531.091	-132.429	0.287	-0.038
-530.077	117.188	0.037	-0.046
-529.062	21.166	-0.094	0.078
-528.048	800.000	-0.022	0.085
-527.033	104.721	0.105	-0.126
-526.018	-134.120	-0.145	0.018
-525.004	100.990	-0.114	0.135
-523.989	-200.000	-0.002	0.163
-522.975	22.444	-0.216	0.180
-521.960	-200.000	-0.035	0.316
-520.945	-200.000	-0.034	-0.346
-519.931	27.920	-0.307	0.263
-518.916	189.507	0.088	-0.134
-517.902	163.168	0.183	-0.261
-516.887	209.959	0.060	-0.096
-515.872	191.213	0.168	-0.256
-514.858	-20.843	0.260	0.162
-513.843	227.355	0.126	0.208
-512.829	-200.000	0.009	-0.325
-511.814	504.473	-0.139	0.328
-510.799	-59.279	-0.060	-0.026
-509.785	-80.054	-0.252	0.086
-508.770	371.591	0.121	-0.249
-507.756	-153.392	0.138	-0.010
-506.741	21.221	0.243	0.200
-505.726	-145.950	-0.357	0.032
-504.712	-200.000	0.053	-0.332
-503.697	-146.724	0.311	-0.027
-502.683	73.107	-0.160	-0.170
-501.668	800.000	-0.061	0.203
-500.653	-27.458	-0.346	-0.204
-499.639	54.229	-0.254	-0.248
-498.624	593.558	-0.137	-0.344
-497.610	154.783	0.205	-0.285
-496.595	390.745	-0.135	-0.284
-495.581	-148.671	0.206	-0.017
-494.566	800.000	0.090	0.307
-493.551	-5.596	-0.033	-0.023
-492.537	87.941	-0.203	-0.229
-491.522	-139.215	0.234	-0.026
-490.508	-86.322	0.178	-0.056
-489.493	-61.508	-0.098	0.042
-488.478	-200.000	0.278	0.001
-487.464	162.381	0.267	0.379
-486.449	121.812	-0.063	0.079
-485.435	352.273	-0.243	-0.488
-484.420	224.836	0.065	0.106
-483.405	-200.000	-0.009	0.184
-482.391	635.122	0.067	-0.173
-481.376	140.724	-0.026	-0.035
-480.362	262.487	0.133	-0.233
-479.347	-200.000	-0.022	-0.196
-478.332	-79.646	0.078	-0.027
-477.318	171.375	-0.135	0.196
-476.303	716.670	-0.154	-0.415
-475.289	197.041	0.263	-0.406
-474.274	3.138	0.321	-0.237
-473.259	800.000	0.107	-0.348
-472.245	-162.862	-0.458	-0.023
-471.230	124.936	-0.079	-0.101
-470.216	800.000	0.019	-0.069
-469.201	-33.270	0.055	-0.031
-468.186	-152.374	-0.251	-0.018
-467.172	192.399	-0.098	0.150
-466.157	39.612	-0.160	0.145
-465.143	-36.691	0.232	0.127
-464.128	327.753	0.032	0.063
-463.113	-163.527	-0.098	-0.005
-462.099	-200.000	0.045	0.385
-461.084	51.540	-0.265	-0.255
-460.070	-106.118	0.372	-0.085
-459.055	-169.886	-0.170	-0.006
-458.040	-111.188	-0.040	0.008
-457.026	-80.591	-0.176	0.059
-456.011	800.000	-0.089	0.267
-454.997	61.413	-0.291	-0.293
-453.982	800.000	-0.064	0.231
-452.968	800.000	0.112	0.486
-451.953	124.828	0.209	0.267
-450.938	-74.899	-0.074	-0.027
-449.924	107.545	0.211	-0.255
-448.909	30.904	0.196	-0.170
-447.895	157.617	-0.168	-0.236
-446.880	3.163	0.140	0.103
-445.865	-1.505	0.083	0.059
-444.851	244.679	-0.074	-0.127
-443.836	-30.612	0.140	0.080
-442.822	31.206	0.162	0.141
-441.807	-200.000	-0.007	0.042
-440.792	338.069	-0.144	0.284
-439.778	-42.564	0.138	-0.071
-438.763	200.050	-0.173	0.268
-437.749	-45.365	0.155	0.078
-436.734	-13.759	0.180	-0.118
-435.719	-200.000	-0.025	0.130
-434.705	-72.066	0.141	0.053
-433.690	425.030	-0.094	0.204
-432.676	717.896	0.035	0.094
-431.661	228.779	0.219	0.361
-430.646	-139.436	-0.477	0.052
-429.632	91.436	-0.096	-0.109
-428.617	-200.000	0.014	0.321
-427.603	249.090	0.174	0.298
-426.588	734.424	0.053	0.142
-425.573	227.811	0.155	0.256
-424.559	-69.434	0.240	0.093
-423.544	124.091	0.022	-0.028
-422.530	-200.000	-0.015	-0.152
-421.515	57.633	-0.335	-0.332
-420.500	160.736	0.112	-0.158
-419.486	-35.645	-0.231	-0.127
-418.471	-71.381	-0.213	0.081
-417.457	-88.742	0.137	-0.041
-416.442	132.038	-0.106	0.138
-415.428	-64.143	-0.107	0.044
-414.413	-200.000	0.009	-0.058
-413.398	-137.040	-0.251	-0.029
-412.384	173.945	-0.131	0.192
-411.369	708.909	-0.026	0.069
-410.355	-200.000	-0.014	0.407
-409.340	-116.444	-0.161	0.030
-408.325	1.448	0.443	-0.322
-407.311	137.458	0.127	-0.168
-406.296	-169.146	0.449	0.017
-405.282	800.000	-0.130	0.376
-404.267	215.004	0.273	0.437
-403.252	-60.158	0.127	0.055
-402.238	-98.249	-0.445	0.116
-401.223	-147.577	0.161	-0.014
-400.209	408.066	-0.065	0.139
-399.194	309.764	0.083	0.156
-398.179	-85.834	-0.217	0.068
-397.165	43.282	-0.013	-0.012
-396.150	-200.000	-0.007	-0.039
-395.136	-59.657	0.314	0.136
-394.121	-142.169	0.012	0.001
-393.106	800.000	0.033	-0.131
-392.092	-86.764	-0.081	0.025
-391.077	-119.648	0.213	0.037
-390.063	-125.285	0.222	-0.034
-389.048	787.887	0.064	-0.176
-388.033	-200.000	-0.064	-0.304
-387.019	-74.398	0.357	-0.130
-386.004	-37.135	-0.159	0.086
-384.990	-200.000	0.037	0.279
-383.975	48.843	0.200	0.189
-382.960	130.603	0.114	-0.148
-381.946	174.497	0.152	-0.222
-380.931	-48.255	-0.467	-0.227
-379.917	-63.269	-0.104	0.043
-378.902	65.053	-0.389	0.397
-377.888	-200.000	0.046	-0.327
-376.873	-96.816	0.133	-0.035
-375.858	-200.000	0.007	-0.514
-374.844	-174.991	-0.218	-0.006
-373.829	3.286	0.109	0.080
-372.815	800.000	-0.045	0.153
-371.800	-49.793	-0.150	0.072
-370.785	-5.906	0.110	-0.076
-369.771	-200.000	0.022	-0.257
-368.756	-57.376	0.287	0.127
-367.742	-200.000	0.180	0.001
-366.727	52.561	0.047	-0.045
-365.712	-183.384	-0.400	0.007
-364.698	-8.818	-0.176	-0.119
-363.683	-39.549	0.287	0.151
-362.669	-188.653	-0.126	0.002
-361.654	800.000	0.034	-0.115
-360.639	-36.636	0.177	-0.096
-359.625	-96.579	-0.373	0.099
-358.610	-200.000	-0.063	-0.308
-357.596	-200.000	-0.066	-0.293
-356.581	-200.000	0.137	-0.001
-355.566	-184.986	-0.286	-0.005
-354.552	-200.000	0.072	0.323
-353.537	-8.520	0.317	0.215
-352.523	-119.758	-0.120	0.021
-351.508	-100.364	-0.091	-0.023
-350.493	215.960	0.130	-0.208
-349.479	800.000	-0.063	-0.199
-348.464	340.450	0.030	-0.059
-347.450	-4.212	-0.050	0.035
-346.435	-200.000	-0.017	-0.122
-345.420	3.915	0.216	-0.159
-344.406	-96.709	-0.354	-0.094
-343.391	800.000	-0.017	-0.068
-342.377	27.434	0.091	0.077
-341.362	-52.145	-0.155	0.073
-340.348	-95.941	0.217	-0.058
-339.333	800.000	0.025	-0.107
-338.318	-113.522	0.208	0.041
-337.304	800.000	-0.018	-0.059
-336.289	85.734	-0.121	0.135
-335.275	130.822	-0.011	-0.014
-334.260	136.891	-0.095	-0.126
-333.245	-200.000	0.015	0.086
-332.231	-195.206	-0.243	-0.002
-331.216	316.171	0.096	-0.183
-330.202	-200.000	-0.015	0.344
-329.187	411.374	-0.138	-0.296
-328.172	-26.876	-0.331	-0.195
-327.158	30.710	-0.144	0.124
-326.143	-96.736	0.215	0.057
-325.129	-189.707	0.239	-0.003
-324.114	-171.916	0.192	-0.006
-323.099	9.920	0.318	0.244
-322.085	-5.832	-0.143	0.099
-321.070	-164.257	-0.117	-0.005
-320.056	243.392	-0.045	0.076
-319.041	-5.120	0.143	-0.099
-318.026	33.088	0.127	-0.111
-317.012	-121.077	0.227	0.038
-315.997	-85.884	0.136	0.043
-314.983	-149.071	0.436	0.035
-313.968	-29.654	-0.348	0.200
-312.953	685.671	0.107	-0.283
-311.939	26.617	0.065	-0.055
-310.924	800.000	-0.055	-0.182
-309.910	-96.729	-0.140	0.037
-308.895	20.562	-0.232	0.189
-307.880	-78.817	-0.108	0.037
-306.866	-200.000	-0.035	-0.362
-305.851	-200.000	0.068	-0.360
-304.837	-200.000	-0.039	-0.200
-303.822	-200.000	0.046	0.245
-302.807	-106.251	0.422	-0.095
-301.793	-200.000	-0.009	-0.080
-300.778	640.531	-0.080	-0.206
-299.764	417.764	-0.136	0.293
-298.749	-200.000	-0.041	-0.225
-297.735	-134.729	0.170	-0.021
-296.720	64.355	0.182	-0.185
-295.705	64.880	0.174	0.176
-294.691	-200.000	0.002	0.479
-293.676	770.965	0.032	-0.087
-292.662	283.216	-0.085	0.153
-291.647	-66.411	-0.251	-0.100
-290.632	-161.475	-0.328	-0.017
-289.618	800.000	-0.091	-0.288
-288.603	800.000	-0.076	0.277
-287.589	350.727	0.197	-0.393
-286.574	586.270	-0.054	-0.134
-285.559	35.426	-0.024	-0.021
-284.545	-200.000	-0.047	0.257
-283.530	-58.409	0.144	0.063
-282.516	770.076	-0.140	-0.385
-281.501	-139.508	-0.218	0.023
-280.486	-115.839	0.406	0.076
-279.472	281.285	0.070	0.126
-278.457	-181.047	-0.255	-0.005
-277.443	-15.546	-0.213	0.137
-276.428	-53.506	0.132	0.061
-275.413	84.590	0.104	0.115
-274.399	-200.000	0.027	0.440
-273.384	-200.000	-0.036	0.166
-272.370	-200.000	-0.011	-0.096
-271.355	800.000	0.020	0.056
-270.340	-81.727	-0.412	0.136
-269.326	318.365	-0.055	0.105
-268.311	-103.992	-0.223	0.052
-267.297	-177.960	0.343	-0.008
-266.282	-118.893	-0.209	-0.037
-265.267	-117.456	-0.216	-0.039
-264.253	-63.180	0.189	0.078
-263.238	-114.575	0.332	-0.064
-262.224	72.653	-0.261	-0.273
-261.209	-200.000	-0.042	-0.393
-260.195	-35.573	-0.067	-0.037
-259.180	271.904	-0.195	-0.345
-258.165	54.036	0.068	0.066
-257.151	-82.646	0.010	-0.003
-256.136	-94.371	-0.260	-0.071
-255.122	-127.160	0.166	0.024
-254.107	417.322	0.053	0.113
-253.092	229.943	0.130	-0.213
-252.078	-156.764	-0.210	-0.013
-251.063	800.000	0.022	-0.077
-250.049	174.823	-0.269	0.391
-249.034	800.000	0.103	0.347
-248.019	-200.000	0.016	0.424
-247.005	369.149	0.062	-0.126
-245.990	-145.041	-0.128	-0.012
-244.976	-108.593	0.256	0.055
-243.961	287.113	-0.172	-0.311
-242.946	-20.653	-0.214	-0.132
-241.932	55.554	-0.247	0.240
-240.917	-145.807	-0.544	-0.049
-239.903	78.422	0.324	-0.348
-238.888	85.614	-0.072	0.080
-237.873	-200.000	-0.003	-0.163
-236.859	-102.344	-0.103	-0.025
-235.844	161.521	-0.200	-0.281
-234.830	52.251	-0.180	0.172
-233.815	800.000	-0.012	0.036
-232.800	-48.501	0.207	-0.100
-231.786	-91.477	0.226	0.065
-230.771	-169.471	-0.337	-0.012
-229.757	-200.000	0.011	0.056
-228.742	35.883	-0.103	0.091
-227.727	-200.000	0.009	-0.099
-226.713	-200.000	0.138	0.001
-225.698	-81.333	0.238	0.079
-224.684	11.170	0.162	0.124
-223.669	-200.000	-0.003	0.134
-222.655	-87.070	0.247	-0.075
-221.640	800.000	0.087	0.267
-220.625	-60.265	-0.309	0.132
-219.611	53.971	0.135	-0.130
-218.596	65.984	0.406	-0.413
-217.582	-200.000	0.002	-0.156
-216.567	-0.356	0.281	0.200
-215.552	250.120	-0.097	0.166
-214.538	-200.000	-0.035	0.307
-213.523	-44.873	0.168	0.084
-212.509	-27.228	0.224	0.131
-211.494	-120.384	0.156	0.027
-210.479	206.036	-0.069	0.107
-209.465	800.000	0.059	-0.233
-208.450	19.288	0.112	0.090
-207.436	800.000	0.058	-0.239
-206.421	55.422	0.325	-0.315
-205.406	66.324	0.157	-0.160
-204.392	-200.000	-0.003	-0.229
-203.377	691.977	-0.145	-0.380
-202.363	800.000	0.030	-0.123
-201.348	7.547	-0.132	-0.099
-200.333	-69.898	-0.046	0.018
-199.319	-78.080	-0.285	0.098
-198.304	-86.922	0.439	-0.134
-197.290	88.844	0.059	-0.066
-196.275	-44.175	0.156	0.078
-195.260	-200.000	0.018	0.444
-194.246	11.084	-0.239	0.183
-193.231	85.166	0.177	-0.195
-192.217	387.948	-0.094	0.195
-191.202	-106.351	0.341	-0.077
-190.187	-15.127	0.359	-0.230
-189.173	800.000	-0.079	0.277
-188.158	-64.342	0.053	0.022
-187.144	-133.377	0.184	-0.023
-186.129	-26.944	-0.093	0.054
-185.114	-125.724	-0.049	-0.007
-184.100	-123.931	0.232	0.037
-183.085	5.448	0.294	0.217
-182.071	230.206	0.207	-0.338
-181.056	-117.293	0.280	-0.051
-180.042	-200.000	-0.004	0.193
-179.027	-127.995	-0.159	-0.023
-178.012	275.403	-0.065	-0.115
-176.998	800.000	0.098	-0.287
-175.983	-47.007	-0.116	0.057
-174.969	-52.875	0.063	-0.029
-173.954	-153.794	0.334	-0.023
-172.939	462.871	0.041	-0.091
-171.925	-32.102	-0.126	0.071
-170.910	528.800	0.015	-0.035
-169.896	145.825	-0.138	0.185
-168.881	-200.000	-0.018	0.184
-167.866	177.018	-0.245	-0.357
-166.852	-200.000	-0.055	-0.281
-165.837	-17.389	-0.194	0.122
-164.823	-200.000	0.020	0.175
-163.808	800.000	0.078	0.268
-162.793	310.180	-0.047	0.088
-161.779	-92.096	0.173	-0.049
-160.764	-2.376	-0.163	-0.114
-159.750	-30.976	0.118	-0.067
-158.735	-200.000	-0.055	0.466
-157.720	-18.438	0.245	0.153
-156.706	9.661	0.086	0.066
-155.691	28.741	-0.012	0.010
-154.677	737.906	0.087	-0.232
-153.662	-41.930	0.423	-0.217
-152.647	-14.459	-0.126	-0.081
-151.633	6.829	-0.073	-0.054
-150.618	-31.915	0.128	0.071
-149.604	69.349	-0.077	-0.079
-148.589	800.000	-0.042	-0.142
-147.574	-39.632	0.157	-0.082
-146.560	93.478	0.068	0.077
-145.545	-14.589	-0.205	-0.132
-144.531	-200.000	-0.032	0.204
-143.516	97.170	0.195	-0.224
-142.502	94.097	0.047	-0.053
-141.487	376.624	0.111	-0.226
-140.472	-81.025	0.116	-0.038
-139.458	124.209	0.212	-0.267
-138.443	-55.133	0.271	-0.122
-137.429	323.333	-0.041	0.078
-136.414	66.960	0.147	0.150
-135.399	158.494	-0.083	-0.115
-134.385	-200.000	0.038	0.239
-133.370	-96.776	-0.283	0.074
-132.356	-111.492	-0.382	-0.078
-131.341	148.575	-0.139	-0.187
-130.326	800.000	0.057	0.163
-129.312	-113.416	0.255	-0.050
-128.297	-200.000	-0.006	0.112
-127.283	-85.712	0.261	0.081
-126.268	604.813	-0.069	0.172
-125.253	418.162	-0.110	0.235
-124.239	800.000	0.039	-0.147
-123.224	-200.000	-0.042	-0.188
-122.210	-25.528	0.144	-0.085
-121.195	761.826	0.026	-0.072
