DTS Sentinel unit serial number:	SN413079Multiplexer serial number:	ORYXHardware model number:	OX4-SRSoftware version number:	ORYX F/W v4.00 Oryx Data Collector v3.7.2.0data status	okinstallation	princeton_trtdifferential loss correction	single-endedforward channel	channel 1reverse channel	N/Adate	2019/09/12time	06:40:11forward acquisition time	60.00reverse acquisition time	0.00gamma	496.2192k internal	0.2320k external	0.2320temperature offset calibration	1.0048default loss term (dB/km)	0.3790temperature slope calibration	1.0000multiplexer offset coefficient	1.0000multiplexer slope coefficient	1.0000fibre end	0.00T internal ref (°C)	32.14T ext. ref 1 (°C)	1.59T ext. ref 2 (°C)	27.16length (m)	temperature (°C)	Stokes	anti-Stokes-747.200	82.904	0.133	-0.146
-746.185	800.000	-0.124	0.418
-745.171	-79.964	0.295	0.100
-744.156	-42.790	-0.014	0.007
-743.142	232.446	0.109	-0.181
-742.127	800.000	0.066	0.205
-741.112	-68.271	-0.350	-0.138
-740.098	32.717	-0.200	0.175
-739.083	-51.085	0.249	-0.118
-738.069	170.232	0.162	0.234
-737.054	-44.281	0.250	0.127
-736.039	-66.976	-0.306	0.122
-735.025	20.632	0.400	0.327
-734.010	-200.000	-0.018	-0.193
-732.996	-145.070	0.172	0.016
-731.981	-144.233	-0.214	-0.020
-730.966	-200.000	-0.010	-0.372
-729.952	-22.039	-0.342	-0.210
-728.937	713.665	-0.058	-0.155
-727.923	-105.077	0.063	0.015
-726.908	124.335	0.208	-0.264
-725.894	298.674	-0.220	-0.409
-724.879	18.567	-0.069	-0.055
-723.864	33.472	-0.220	-0.193
-722.850	800.000	-0.077	-0.325
-721.835	-200.000	0.012	0.184
-720.821	800.000	-0.036	-0.109
-719.806	-71.547	-0.298	0.113
-718.791	-116.279	-0.160	-0.030
-717.777	-117.041	-0.207	-0.038
-716.762	342.619	0.054	0.107
-715.748	-164.909	-0.508	-0.023
-714.733	-51.867	-0.068	0.032
-713.718	-123.658	-0.102	0.016
-712.704	800.000	-0.014	-0.045
-711.689	92.938	-0.130	-0.149
-710.675	-67.358	-0.519	0.206
-709.660	-177.459	-0.082	-0.002
-708.645	615.811	-0.084	-0.212
-707.631	-20.304	-0.136	-0.084
-706.616	800.000	-0.017	-0.065
-705.602	-80.998	0.094	-0.031
-704.587	800.000	0.027	-0.114
-703.572	800.000	0.041	-0.148
-702.558	-25.915	0.257	0.153
-701.543	68.822	0.186	-0.192
-700.529	75.950	0.248	0.264
-699.514	-147.000	-0.223	0.019
-698.499	-200.000	0.022	-0.160
-697.485	-59.561	-0.171	-0.074
-696.470	518.696	0.084	0.199
-695.456	-57.608	0.265	0.117
-694.441	531.651	0.144	-0.343
-693.426	-121.646	-0.118	-0.020
-692.412	-79.279	0.368	0.126
-691.397	800.000	0.066	-0.228
-690.383	183.823	-0.102	0.153
-689.368	124.786	-0.113	-0.144
-688.354	-31.759	-0.069	0.039
-687.339	-140.527	0.109	0.011
-686.324	-133.472	0.239	0.030
-685.310	11.425	-0.178	0.138
-684.295	-137.123	-0.153	0.018
-683.281	157.110	-0.074	-0.104
-682.266	-104.842	0.297	0.069
-681.251	-82.281	0.337	-0.111
-680.237	800.000	0.084	0.360
-679.222	62.936	0.242	-0.244
-678.208	241.038	0.062	-0.104
-677.193	800.000	0.051	0.207
-676.178	-200.000	0.000	0.028
-675.164	-200.000	-0.035	-0.426
-674.149	73.245	0.124	0.131
-673.135	129.850	-0.079	-0.102
-672.120	88.297	-0.107	0.119
-671.105	188.247	-0.081	-0.122
-670.091	502.954	0.063	-0.147
-669.076	24.174	-0.166	0.138
-668.062	628.456	0.057	-0.146
-667.047	-28.743	0.307	-0.178
-666.032	-8.148	-0.047	-0.032
-665.018	-50.772	0.354	-0.168
-664.003	-200.000	-0.015	-0.251
-662.989	800.000	0.068	0.190
-661.974	48.097	-0.107	-0.101
-660.959	-70.337	-0.085	0.032
-659.945	-46.367	-0.113	0.056
-658.930	800.000	0.053	0.181
-657.916	82.109	-0.084	-0.092
-656.901	-37.552	0.162	-0.087
-655.886	-30.702	0.185	-0.106
-654.872	-200.000	-0.026	-0.155
-653.857	-35.094	-0.409	-0.225
-652.843	800.000	-0.049	-0.168
-651.828	-200.000	0.009	0.198
-650.814	-28.756	0.278	-0.161
-649.799	-116.497	0.090	-0.017
-648.784	-200.000	-0.027	-0.265
-647.770	-1.577	-0.320	-0.227
-646.755	800.000	-0.077	-0.320
-645.741	-61.724	0.321	0.136
-644.726	-147.785	0.316	0.027
-643.711	-6.118	-0.121	-0.083
-642.697	563.320	-0.153	0.373
-641.682	35.965	-0.188	0.167
-640.668	-55.659	-0.220	-0.099
-639.653	-47.002	-0.138	0.068
-638.638	800.000	-0.101	-0.382
-637.624	-200.000	0.043	-0.295
-636.609	-24.542	-0.244	-0.146
-635.595	68.530	0.133	-0.137
-634.580	800.000	0.073	-0.304
-633.565	-130.766	-0.143	0.019
-632.551	-128.260	-0.115	-0.017
-631.536	-159.918	-0.164	0.009
-630.522	181.720	0.076	0.113
-629.507	-120.826	-0.347	0.059
-628.492	-200.000	0.014	-0.200
-627.478	628.986	-0.058	-0.148
-626.463	-120.994	-0.362	-0.061
-625.449	83.843	-0.048	0.053
-624.434	246.000	-0.206	0.349
-623.419	446.337	-0.171	-0.378
-622.405	-200.000	0.002	-0.204
-621.390	51.170	-0.196	-0.187
-620.376	800.000	-0.065	0.226
-619.361	-1.939	0.405	-0.287
-618.346	800.000	-0.125	-0.357
-617.332	-200.000	-0.035	-0.276
-616.317	142.480	-0.144	-0.192
-615.303	-96.008	-0.132	0.035
-614.288	93.620	0.178	-0.203
-613.273	800.000	0.122	0.377
-612.259	56.565	0.027	0.026
-611.244	30.667	-0.147	0.127
-610.230	-82.883	-0.465	-0.151
-609.215	-200.000	0.000	-0.048
-608.201	379.368	-0.042	-0.086
-607.186	-90.849	0.139	0.040
-606.171	-200.000	-0.000	-0.277
-605.157	-122.913	0.117	-0.019
-604.142	-5.112	-0.041	0.029
-603.128	800.000	-0.047	0.199
-602.113	47.973	0.191	0.180
-601.098	24.662	-0.055	0.046
-600.084	-100.838	0.211	0.052
-599.069	7.365	0.110	-0.082
-598.055	-200.000	-0.030	0.150
-597.040	-54.215	-0.042	-0.019
-596.025	-94.429	0.076	-0.021
-595.011	-88.888	-0.249	0.074
-593.996	-200.000	-0.035	0.164
-592.982	304.078	-0.060	-0.112
-591.967	800.000	-0.017	-0.059
-590.952	-200.000	0.030	0.136
-589.938	174.675	-0.086	-0.125
-588.923	800.000	-0.090	0.311
-587.909	-70.938	-0.191	-0.072
-586.894	-176.109	0.197	-0.005
-585.879	293.360	0.048	-0.088
-584.865	-153.187	-0.445	0.031
-583.850	-46.949	0.120	-0.059
-582.836	680.727	-0.004	0.010
-581.821	774.928	0.123	0.338
-580.806	-105.077	0.122	-0.028
-579.792	31.434	0.213	-0.184
-578.777	115.147	0.209	-0.257
-577.763	-98.377	-0.281	-0.072
-576.748	-6.364	-0.023	-0.016
-575.733	-177.517	-0.536	-0.013
-574.719	300.450	-0.207	0.384
-573.704	279.174	-0.124	-0.222
-572.690	-142.810	-0.125	-0.012
-571.675	86.290	0.060	0.067
-570.661	97.580	-0.124	-0.143
-569.646	13.628	-0.198	-0.154
-568.631	97.829	0.073	-0.084
-567.617	-65.052	0.310	-0.126
-566.602	95.665	-0.165	0.189
-565.588	-36.662	-0.184	-0.099
-564.573	-31.814	0.252	-0.142
-563.558	-200.000	0.040	0.343
-562.544	-129.094	-0.186	-0.026
-561.529	-200.000	0.089	0.421
-560.515	-47.673	-0.374	0.182
-559.500	0.235	0.191	0.137
-558.485	-200.000	-0.005	-0.306
-557.471	800.000	0.110	0.428
-556.456	-200.000	-0.039	-0.238
-555.442	-200.000	-0.046	-0.232
-554.427	-163.698	-0.290	-0.014
-553.412	-182.892	-0.258	0.005
-552.398	299.284	-0.114	-0.211
-551.383	-103.794	0.591	0.139
-550.369	-200.000	0.002	-0.074
-549.354	800.000	0.039	-0.149
-548.339	1.138	0.136	-0.098
-547.325	-132.136	-0.253	-0.033
-546.310	117.112	0.051	-0.063
-545.296	-200.000	0.041	-0.248
-544.281	160.913	-0.194	0.272
-543.266	88.468	0.083	0.093
-542.252	-200.000	0.042	0.372
-541.237	1.668	-0.391	0.282
-540.223	284.648	-0.010	-0.017
-539.208	390.137	-0.083	0.172
-538.193	-136.880	-0.116	-0.013
-537.179	-55.180	-0.114	0.052
-536.164	-23.912	0.300	-0.180
-535.150	-152.640	-0.261	-0.019
-534.135	-30.174	-0.081	0.046
-533.121	256.253	-0.129	0.221
-532.106	156.455	-0.209	0.289
-531.091	-137.392	-0.281	-0.032
-530.077	-200.000	-0.020	-0.121
-529.062	-76.780	0.252	-0.088
-528.048	193.490	-0.205	0.311
-527.033	311.678	-0.234	0.441
-526.018	-12.571	0.185	-0.121
-525.004	-134.933	0.144	-0.017
-523.989	742.238	-0.056	-0.150
-522.975	792.137	-0.062	0.171
-521.960	800.000	0.064	0.251
-520.945	93.696	0.338	-0.384
-519.931	-4.770	-0.043	0.030
-518.916	24.750	-0.155	-0.129
-517.902	645.878	0.091	0.234
-516.887	77.365	-0.121	-0.129
-515.872	-200.000	-0.008	-0.173
-514.858	311.950	0.088	0.166
-513.843	-200.000	0.015	-0.289
-512.829	1.992	-0.151	0.109
-511.814	-52.375	0.094	-0.044
-510.799	-168.471	0.181	-0.007
-509.785	135.653	-0.166	-0.217
-508.770	19.461	0.150	0.121
-507.756	-117.684	0.311	0.056
-506.741	-200.000	0.008	0.080
-505.726	-18.381	-0.056	0.035
-504.712	-91.739	-0.280	-0.080
-503.697	-30.384	-0.185	-0.105
-502.683	-83.481	0.358	0.115
-501.668	-168.232	-0.242	-0.009
-500.653	-200.000	0.001	0.109
-499.639	-49.245	0.305	0.146
-498.624	200.708	-0.135	-0.208
-497.610	800.000	0.016	-0.053
-496.595	-200.000	-0.020	-0.335
-495.581	47.448	-0.143	0.133
-494.566	160.146	0.134	0.187
-493.551	800.000	-0.149	0.528
-492.537	-44.456	0.177	0.089
-491.522	61.616	0.299	0.298
-490.508	0.554	-0.177	-0.126
-489.493	-181.471	-0.158	0.003
-488.478	-200.000	0.000	-0.007
-487.464	-200.000	-0.036	0.164
-486.449	7.111	0.095	-0.071
-485.435	-199.332	0.343	-0.002
-484.420	27.323	0.132	0.111
-483.405	-200.000	0.030	-0.202
-482.391	429.269	-0.053	-0.116
-481.376	-1.621	0.115	-0.081
-480.362	47.670	-0.170	0.158
-479.347	-11.565	-0.030	0.020
-478.332	-200.000	0.014	-0.090
-477.318	117.739	0.113	-0.139
-476.303	9.922	0.283	-0.215
-475.289	-11.185	-0.210	-0.139
-474.274	24.802	0.269	-0.223
-473.259	-200.000	0.035	0.209
-472.245	273.618	-0.057	0.101
-471.230	-200.000	-0.015	0.224
-470.216	-107.638	0.179	0.039
-469.201	-26.932	0.267	-0.156
-468.186	800.000	-0.058	0.192
-467.172	19.068	0.103	-0.083
-466.157	-59.836	-0.025	-0.011
-465.143	-32.848	-0.159	-0.088
-464.128	298.102	0.094	0.172
-463.113	-86.401	0.196	0.060
-462.099	-135.861	0.139	-0.016
-461.084	178.332	0.092	-0.135
-460.070	-200.000	0.030	0.365
-459.055	-200.000	0.026	-0.147
-458.040	-116.307	0.135	-0.025
-457.026	29.379	-0.178	-0.152
-456.011	-34.535	0.072	-0.040
-454.997	49.471	0.239	-0.225
-453.982	-120.329	0.444	-0.076
-452.968	21.700	0.358	0.291
-451.953	714.396	0.102	0.271
-450.938	153.925	0.092	-0.126
-449.924	-200.000	-0.034	-0.153
-448.909	-64.463	-0.096	0.039
-447.895	72.030	0.242	-0.252
-446.880	116.798	0.322	-0.395
-445.865	800.000	-0.034	0.095
-444.851	-135.979	0.089	-0.010
-443.836	-61.082	0.143	0.060
-442.822	90.486	-0.087	0.098
-441.807	-99.633	0.447	-0.112
-440.792	-43.300	0.072	-0.036
-439.778	208.609	-0.095	-0.149
-438.763	385.443	0.077	0.159
-437.749	327.385	-0.055	-0.105
-436.734	-200.000	0.026	-0.121
-435.719	-32.521	-0.087	0.049
-434.705	-200.000	-0.039	0.229
-433.690	222.598	-0.147	0.237
-432.676	-200.000	-0.011	0.093
-431.661	-143.451	0.201	0.019
-430.646	-29.297	0.078	-0.044
-429.632	1.590	0.124	0.089
-428.617	488.233	-0.130	0.296
-427.603	-200.000	0.042	0.211
-426.588	134.447	0.216	0.279
-425.573	-86.721	0.009	0.003
-424.559	-161.279	0.197	0.010
-423.544	800.000	0.061	0.201
-422.530	398.236	-0.018	0.038
-421.515	-39.107	-0.284	0.149
-420.500	196.373	0.171	-0.260
-419.486	-120.905	-0.402	-0.068
-418.471	72.050	-0.136	0.142
-417.457	800.000	0.048	0.158
-416.442	-61.715	-0.013	-0.006
-415.428	-44.714	-0.057	0.029
-414.413	-153.824	0.344	-0.023
-413.398	-31.591	-0.291	-0.163
-412.384	26.567	0.135	0.113
-411.369	-114.545	0.294	0.056
-410.355	583.835	-0.130	-0.319
-409.340	-200.000	-0.014	-0.072
-408.325	-23.620	0.172	0.103
-407.311	800.000	-0.023	-0.095
-406.296	800.000	0.067	-0.217
-405.282	-159.297	-0.389	-0.022
-404.267	-125.947	0.203	0.031
-403.252	-124.387	0.091	-0.014
-402.238	-200.000	0.006	-0.139
-401.223	650.467	-0.206	0.526
-400.209	-66.539	0.139	0.055
-399.194	-84.676	-0.237	-0.074
-398.179	-200.000	-0.039	-0.221
-397.165	-9.721	-0.060	-0.040
-396.150	-26.597	0.064	0.037
-395.136	491.073	-0.060	-0.138
-394.121	-109.607	-0.046	0.010
-393.106	227.887	0.086	0.140
-392.092	43.301	0.358	-0.326
-391.077	-95.287	-0.156	0.042
-390.063	-47.801	-0.117	-0.057
-389.048	467.860	-0.028	-0.063
-388.033	121.479	0.146	0.182
-387.019	673.789	-0.095	0.245
-386.004	-200.000	0.004	0.195
-384.990	800.000	-0.057	-0.247
-383.975	-200.000	0.037	0.468
-382.960	800.000	-0.091	0.325
-381.946	-100.300	-0.069	0.017
-380.931	-39.195	0.373	0.195
-379.917	-90.435	0.113	-0.033
-378.902	-199.539	-0.353	0.002
-377.888	454.464	-0.050	-0.111
-376.873	657.025	-0.127	-0.326
-375.858	-103.331	-0.343	-0.081
-374.844	-44.613	0.246	-0.122
-373.829	800.000	0.083	-0.324
-372.815	-200.000	0.003	0.201
-371.800	97.383	0.162	0.186
-370.785	-24.819	-0.222	-0.132
-369.771	122.518	0.249	0.310
-368.756	498.634	-0.050	0.115
-367.742	800.000	0.115	0.353
-366.727	-200.000	-0.000	-0.020
-365.712	-33.671	0.162	0.089
-364.698	-200.000	-0.047	0.219
-363.683	-197.263	-0.264	-0.002
-362.669	-200.000	0.025	-0.150
-361.654	388.177	0.101	0.208
-360.639	-200.000	0.036	-0.310
-359.625	104.983	0.014	-0.016
-358.610	102.481	0.093	-0.108
-357.596	-140.619	-0.331	-0.034
-356.581	353.518	0.051	0.101
-355.566	331.382	0.042	0.080
-354.552	76.185	-0.202	-0.213
-353.537	46.386	0.120	-0.111
-352.523	-90.128	-0.221	0.064
-351.508	-200.000	-0.053	0.251
-350.493	72.389	0.201	0.209
-349.479	29.953	0.131	0.111
-348.464	800.000	0.083	0.351
-347.450	89.174	0.069	0.077
-346.435	800.000	0.028	0.111
-345.420	-1.873	-0.032	0.022
-344.406	306.424	0.288	0.535
-343.391	-200.000	0.043	0.550
-342.377	324.010	-0.063	0.120
-341.362	670.920	-0.022	-0.056
-340.348	16.406	-0.242	0.190
-339.333	-200.000	0.001	-0.581
-338.318	-106.358	-0.030	-0.007
-337.304	250.752	0.157	0.265
-336.289	-87.294	0.130	0.039
-335.275	32.824	-0.241	-0.207
-334.260	800.000	0.055	-0.167
-333.245	-200.000	0.015	0.136
-332.231	-56.743	0.186	-0.082
-331.216	-93.775	-0.304	-0.083
-330.202	-134.486	0.241	0.029
-329.187	194.406	0.224	-0.338
-328.172	-113.302	-0.155	-0.030
-327.158	135.509	-0.031	0.040
-326.143	17.621	-0.110	-0.087
-325.129	-200.000	0.033	0.239
-324.114	-132.180	0.360	-0.046
-323.099	4.315	0.311	-0.227
-322.085	9.499	-0.114	0.086
-321.070	-22.003	-0.213	-0.129
-320.056	-41.192	0.303	0.156
-319.041	80.061	0.203	0.217
-318.026	300.483	0.099	-0.182
-317.012	788.361	-0.082	0.224
-315.997	-60.516	0.093	-0.039
-314.983	-164.703	-0.201	0.009
-313.968	-53.451	0.102	-0.047
-312.953	28.125	0.177	0.148
-311.939	-85.629	-0.047	0.014
-310.924	-145.532	0.262	-0.023
-309.910	80.188	0.042	-0.045
-308.895	-101.595	-0.291	0.070
-307.880	-25.229	0.018	0.011
-306.866	-75.547	-0.132	-0.047
-305.851	456.433	0.035	0.076
-304.837	601.817	-0.070	-0.172
-303.822	-200.000	0.001	0.156
-302.807	-32.287	-0.331	0.183
-301.793	71.247	0.116	0.120
-300.778	102.849	0.145	-0.169
-299.764	-155.072	-0.256	0.017
-298.749	-200.000	0.068	-0.409
-297.735	21.905	0.044	0.036
-296.720	-76.268	0.104	0.036
-295.705	800.000	0.048	0.185
-294.691	434.984	0.108	-0.232
-293.676	800.000	0.080	0.250
-292.662	-141.153	-0.189	-0.019
-291.647	800.000	0.118	-0.451
-290.632	800.000	0.033	0.110
-289.618	-5.911	0.189	-0.129
-288.603	116.442	0.163	0.198
-287.589	514.008	-0.104	0.241
-286.574	-200.000	0.058	0.264
-285.559	76.451	-0.189	-0.199
-284.545	-200.000	0.014	-0.204
-283.530	-8.488	-0.166	-0.111
-282.516	-55.118	-0.156	-0.070
-281.501	139.523	0.115	-0.150
-280.486	-50.901	0.670	-0.313
-279.472	-124.920	0.380	-0.058
-278.457	-200.000	-0.052	0.396
-277.443	800.000	-0.038	-0.156
-276.428	-200.000	-0.011	-0.334
-275.413	18.594	0.064	-0.051
-274.399	448.119	0.037	-0.080
-273.384	37.419	-0.052	-0.046
-272.370	-130.635	-0.432	0.058
-271.355	-200.000	-0.053	0.269
-270.340	-200.000	0.004	0.325
-269.326	-151.877	0.186	0.014
-268.311	504.207	0.108	0.248
-267.297	-125.245	-0.348	0.053
-266.282	-200.000	0.036	-0.294
-265.267	-167.681	-0.201	0.008
-264.253	-136.100	0.300	-0.035
-263.238	800.000	-0.042	0.167
-262.224	-92.571	-0.086	0.024
-261.209	-84.654	0.095	-0.030
-260.195	800.000	-0.045	0.183
-259.180	-93.212	0.278	0.077
-258.165	187.259	0.316	-0.467
-257.151	77.152	-0.090	-0.095
-256.136	-80.752	0.347	0.114
-255.122	-48.597	-0.262	0.125
-254.107	116.002	-0.049	-0.059
-253.092	-200.000	-0.020	-0.253
-252.078	-200.000	-0.042	0.235
-251.063	-200.000	-0.018	-0.256
-250.049	800.000	-0.055	-0.218
-249.034	800.000	0.013	0.054
-248.019	-96.335	-0.189	-0.050
-247.005	318.621	0.089	0.168
-245.990	-200.000	0.007	0.279
-244.976	800.000	0.076	0.220
-243.961	323.607	-0.125	0.236
-242.946	-5.672	0.266	0.181
-241.932	8.716	-0.121	0.090
-240.917	139.806	-0.283	-0.370
-239.903	-200.000	0.005	0.080
-238.888	-170.769	0.262	0.009
-237.873	42.107	-0.194	-0.175
-236.859	78.214	0.201	-0.213
-235.844	-44.462	-0.083	-0.041
-234.830	162.376	0.095	-0.132
-233.815	-200.000	-0.003	0.181
-232.800	-37.887	-0.186	-0.098
-231.786	-200.000	-0.041	-0.182
-230.771	-70.941	0.175	-0.065
-229.757	-200.000	-0.014	0.110
-228.742	800.000	0.055	-0.202
-227.727	-76.069	-0.182	-0.064
-226.713	-32.222	0.278	0.154
-225.698	-54.149	-0.173	0.078
-224.684	-31.376	0.198	0.110
-223.669	238.437	0.178	0.293
-222.655	-200.000	-0.062	0.368
-221.640	800.000	-0.101	0.311
-220.625	-200.000	0.001	0.057
-219.611	293.964	-0.169	0.306
-218.596	-21.802	-0.170	0.103
-217.582	-200.000	0.032	-0.177
-216.567	491.215	-0.084	-0.191
-215.552	176.098	-0.064	0.092
-214.538	96.249	-0.136	-0.155
-213.523	87.438	0.122	0.133
-212.509	-69.550	0.080	-0.030
-211.494	133.559	-0.204	-0.261
-210.479	61.545	0.304	-0.300
-209.465	373.727	0.121	-0.243
-208.450	14.076	0.155	-0.119
-207.436	-30.540	-0.081	-0.045
-206.421	-186.346	0.055	0.001
-205.406	54.066	-0.058	-0.055
-204.392	168.831	-0.140	-0.197
-203.377	800.000	-0.057	-0.201
-202.363	252.824	0.128	-0.215
-201.348	-51.857	0.360	0.166
-200.333	-106.589	-0.040	0.009
-199.319	25.983	0.060	0.049
-198.304	-200.000	0.012	-0.109
-197.290	-10.360	-0.561	0.368
-196.275	-159.488	0.162	0.009
-195.260	19.435	-0.152	-0.121
-194.246	-20.751	0.083	0.051
-193.231	46.981	-0.066	-0.061
-192.217	-75.146	0.142	0.050
-191.202	-146.368	-0.318	-0.027
-190.187	-117.794	-0.170	-0.030
-189.173	-186.962	-0.078	-0.001
-188.158	-86.136	0.097	0.030
-187.144	48.055	0.184	-0.170
-186.129	-200.000	-0.026	0.376
-185.114	492.478	-0.079	-0.179
-184.100	-200.000	-0.022	0.177
-183.085	14.758	-0.070	-0.054
-182.071	77.665	-0.159	0.168
-181.056	-120.176	-0.391	-0.066
-180.042	-166.099	0.238	0.010
-179.027	178.308	0.052	0.076
-178.012	-113.453	-0.323	-0.063
-176.998	-117.601	-0.144	-0.026
-175.983	-200.000	0.007	0.056
-174.969	645.289	-0.082	-0.207
-173.954	800.000	-0.071	-0.212
-172.939	20.943	-0.025	-0.020
-171.925	88.327	-0.161	0.177
-170.910	658.843	-0.014	0.035
-169.896	-96.143	0.234	0.061
-168.881	-200.000	-0.021	-0.309
-167.866	225.936	0.200	-0.321
-166.852	-75.842	0.165	-0.058
-165.837	42.522	-0.093	-0.084
-164.823	244.185	0.171	-0.285
-163.808	-132.196	0.104	-0.013
-162.793	800.000	0.075	-0.249
-161.779	-200.000	0.013	-0.388
-160.764	-150.872	0.282	-0.021
-159.750	10.878	-0.292	-0.221
-158.735	-98.402	0.333	-0.084
-157.720	-200.000	0.025	0.167
-156.706	-127.937	-0.269	0.038
-155.691	-121.903	-0.201	-0.033
-154.677	-56.501	-0.017	0.008
-153.662	-165.339	-0.281	0.012
-152.647	800.000	0.060	0.176
-151.633	-99.498	-0.177	-0.044
-150.618	-200.000	0.008	0.463
-149.604	-200.000	-0.026	-0.315
-148.589	68.156	-0.069	-0.070
-147.574	-200.000	-0.020	0.340
-146.560	-5.804	0.184	0.124
-145.545	-200.000	-0.027	0.141
-144.531	-135.531	-0.401	0.047
-143.516	28.591	-0.051	-0.042
-142.502	-102.296	0.040	0.009
-141.487	-90.312	0.075	0.021
-140.472	-9.423	-0.055	-0.036
-139.458	592.834	-0.132	-0.321
-138.443	-56.416	-0.287	-0.126
-137.429	-125.552	0.029	-0.004
-136.414	-200.000	-0.035	0.268
-135.399	-200.000	0.024	0.456
-134.385	-64.329	0.060	0.024
-133.370	-200.000	0.063	0.358
-132.356	-102.904	-0.187	0.044
-131.341	-50.705	-0.251	0.117
-130.326	439.103	-0.120	0.258
-129.312	-182.515	0.117	0.002
-128.297	-138.942	-0.148	-0.016
-127.283	-97.055	0.303	0.078
-126.268	27.053	0.034	-0.029
-125.253	-76.493	-0.254	-0.088
-124.239	460.378	0.082	-0.181
-123.224	-131.991	0.266	-0.034
-122.210	434.206	-0.090	0.192
