DTS Sentinel unit serial number:	SN413079Multiplexer serial number:	ORYXHardware model number:	OX4-SRSoftware version number:	ORYX F/W v4.00 Oryx Data Collector v3.7.2.0data status	okinstallation	princeton_trtdifferential loss correction	single-endedforward channel	channel 1reverse channel	N/Adate	2019/09/11time	16:36:11forward acquisition time	60.00reverse acquisition time	0.00gamma	496.2192k internal	0.2290k external	0.2290temperature offset calibration	0.9992default loss term (dB/km)	0.3790temperature slope calibration	1.0000multiplexer offset coefficient	1.0000multiplexer slope coefficient	1.0000fibre end	0.00T internal ref (°C)	43.75T ext. ref 1 (°C)	1.08T ext. ref 2 (°C)	38.83length (m)	temperature (°C)	Stokes	anti-Stokes-747.200	277.392	0.027	0.050
-746.185	169.521	-0.093	-0.136
-745.171	84.411	-0.156	-0.175
-744.156	740.975	-0.118	0.325
-743.142	-61.226	0.136	-0.059
-742.127	-125.904	-0.081	0.013
-741.112	-80.979	-0.185	-0.063
-740.098	800.000	-0.061	0.203
-739.083	-37.347	0.057	-0.031
-738.069	-200.000	-0.018	0.130
-737.054	-23.895	-0.072	0.044
-736.039	-200.000	0.036	-0.184
-735.025	416.521	0.108	0.235
-734.010	40.027	0.156	-0.143
-732.996	-200.000	-0.054	-0.524
-731.981	-200.000	-0.004	-0.147
-730.966	-200.000	-0.018	-0.187
-729.952	58.693	0.121	0.121
-728.937	196.405	-0.170	-0.266
-727.923	-200.000	-0.012	-0.406
-726.908	-200.000	-0.004	-0.187
-725.894	105.175	-0.201	0.243
-724.879	-135.164	0.143	0.018
-723.864	-64.548	0.365	0.152
-722.850	423.432	-0.035	-0.078
-721.835	-34.173	-0.232	0.131
-720.821	800.000	-0.035	-0.155
-719.806	800.000	0.023	0.096
-718.791	-141.703	-0.327	0.034
-717.777	15.552	-0.269	-0.216
-716.762	-200.000	-0.031	-0.195
-715.748	-93.502	0.205	-0.058
-714.733	-200.000	-0.046	-0.313
-713.718	-17.457	0.293	-0.188
-712.704	97.210	-0.307	-0.360
-711.689	800.000	-0.042	-0.163
-710.675	223.747	0.149	-0.247
-709.660	123.974	-0.088	0.114
-708.645	800.000	-0.010	-0.029
-707.631	-100.894	-0.299	-0.075
-706.616	54.700	0.084	-0.083
-705.602	-200.000	-0.017	0.160
-704.587	79.754	0.016	0.017
-703.572	353.780	0.073	0.147
-702.558	133.948	0.140	0.185
-701.543	-200.000	0.019	0.127
-700.529	284.878	-0.019	-0.035
-699.514	-39.518	-0.324	-0.174
-698.499	-156.186	-0.610	0.039
-697.485	111.975	-0.308	0.381
-696.470	-89.895	0.160	-0.048
-695.456	397.573	0.126	-0.269
-694.441	-200.000	0.064	-0.348
-693.426	-179.780	-0.224	0.005
-692.412	289.416	-0.053	-0.099
-691.397	-86.488	0.349	-0.109
-690.383	-58.712	0.174	0.077
-689.368	-34.847	0.194	-0.108
-688.354	-128.335	0.300	0.044
-687.339	155.537	0.267	-0.376
-686.324	-119.599	-0.199	0.035
-685.310	-90.371	0.304	-0.090
-684.295	-84.277	-0.110	0.036
-683.281	-88.977	-0.273	-0.083
-682.266	-95.122	-0.161	-0.044
-681.251	-61.866	-0.280	-0.120
-680.237	152.590	-0.083	-0.115
-679.222	8.083	0.315	-0.241
-678.208	-123.060	0.275	0.045
-677.193	86.122	0.182	-0.205
-676.178	-200.000	-0.009	-0.081
-675.164	800.000	-0.038	-0.108
-674.149	145.887	0.288	-0.394
-673.135	-30.445	0.361	-0.209
-672.120	-190.704	-0.102	0.001
-671.105	-38.206	-0.221	0.120
-670.091	800.000	0.036	0.111
-669.076	95.101	0.053	0.062
-668.062	-200.000	0.043	-0.433
-667.047	-200.000	-0.043	0.214
-666.032	195.045	-0.031	0.048
-665.018	-68.496	0.349	-0.138
-664.003	311.331	-0.157	-0.301
-662.989	-70.011	0.253	0.098
-661.974	800.000	-0.034	0.113
-660.959	171.009	0.068	0.100
-659.945	-190.681	-0.252	0.003
-658.930	283.177	-0.115	0.211
-657.916	-5.378	-0.367	-0.257
-656.901	800.000	0.044	0.194
-655.886	74.665	-0.127	0.137
-654.872	87.524	0.083	0.094
-653.857	-200.000	0.014	0.067
-652.843	-156.246	-0.289	-0.019
-651.828	-142.589	-0.167	0.017
-650.814	85.716	0.172	-0.193
-649.799	800.000	-0.063	-0.273
-648.784	151.946	-0.168	0.234
-647.770	-52.822	-0.320	0.151
-646.755	-200.000	0.027	0.321
-645.741	233.185	0.193	0.324
-644.726	457.584	0.166	-0.377
-643.711	22.482	-0.292	0.244
-642.697	800.000	0.086	0.324
-641.682	-143.791	-0.178	0.017
-640.668	-25.839	0.213	0.128
-639.653	384.222	-0.062	0.131
-638.638	190.209	-0.040	-0.061
-637.624	78.863	-0.014	0.015
-636.609	-193.660	0.140	0.001
-635.595	553.209	-0.093	-0.227
-634.580	-200.000	-0.029	0.148
-633.565	134.889	-0.163	-0.216
-632.551	-200.000	-0.046	0.298
-631.536	800.000	-0.124	-0.404
-630.522	268.362	0.145	0.258
-629.507	-200.000	-0.008	-0.096
-628.492	592.587	0.035	-0.088
-627.478	57.454	-0.017	-0.017
-626.463	800.000	0.151	0.470
-625.449	800.000	-0.083	0.284
-624.434	692.328	0.038	0.102
-623.419	-122.658	0.123	0.020
-622.405	-148.143	0.325	-0.027
-621.390	-200.000	-0.003	-0.088
-620.376	-28.626	-0.183	0.108
-619.361	-200.000	0.019	0.413
-618.346	800.000	0.019	0.073
-617.332	101.433	-0.274	-0.326
-616.317	191.007	0.106	-0.163
-615.303	-37.758	-0.175	0.095
-614.288	-32.991	-0.039	-0.022
-613.273	639.031	0.054	-0.139
-612.259	-102.774	0.301	-0.073
-611.244	35.426	-0.165	0.148
-610.230	-200.000	-0.068	-0.605
-609.215	-68.357	0.062	0.025
-608.201	66.000	-0.045	-0.047
-607.186	102.580	0.025	0.030
-606.171	-115.434	0.170	-0.033
-605.157	-69.466	0.331	0.129
-604.142	-19.411	-0.056	-0.035
-603.128	-74.450	0.303	0.111
-602.113	800.000	0.063	0.195
-601.098	176.029	0.113	0.168
-600.084	-142.772	-0.331	0.033
-599.069	-166.035	-0.087	0.004
-598.055	-110.605	-0.057	0.012
-597.040	163.298	0.119	-0.170
-596.025	-3.429	-0.276	-0.196
-595.011	-8.969	-0.162	-0.110
-593.996	-9.077	-0.082	0.056
-592.982	310.824	-0.076	0.146
-591.967	-90.680	-0.223	0.066
-590.952	-92.466	-0.268	0.077
-589.938	-200.000	0.020	0.108
-588.923	-155.751	-0.359	-0.023
-587.909	362.446	0.065	0.133
-586.894	-158.618	0.285	-0.017
-585.879	-97.267	-0.108	0.029
-584.865	1.966	-0.240	0.177
-583.850	-105.782	0.384	-0.088
-582.836	172.377	0.147	-0.215
-581.821	525.076	-0.094	-0.225
-580.806	279.229	-0.192	-0.349
-579.792	64.440	-0.178	0.182
-578.777	167.768	0.028	-0.041
-577.763	-72.522	-0.167	-0.063
-576.748	-200.000	0.029	0.237
-575.733	-19.928	-0.170	0.107
-574.719	-200.000	0.026	0.115
-573.704	373.486	-0.142	-0.293
-572.690	552.567	0.104	0.254
-571.675	439.660	-0.045	-0.101
-570.661	77.693	-0.116	-0.126
-569.646	81.412	-0.283	-0.311
-568.631	6.393	0.180	0.136
-567.617	800.000	-0.070	-0.300
-566.602	800.000	-0.060	-0.168
-565.588	1.459	0.276	0.202
-564.573	88.503	-0.216	0.244
-563.558	-80.321	0.348	-0.118
-562.544	-200.000	-0.024	-0.151
-561.529	-109.204	-0.460	-0.099
-560.515	800.000	-0.073	0.275
-559.500	-61.810	0.096	0.041
-558.485	-200.000	-0.052	-0.251
-557.471	-200.000	0.038	-0.257
-556.456	-33.774	-0.054	0.030
-555.442	-60.243	0.108	0.047
-554.427	-200.000	-0.005	0.025
-553.412	-200.000	0.006	0.472
-552.398	800.000	-0.021	-0.091
-551.383	-121.701	-0.106	0.018
-550.369	-200.000	0.009	0.049
-549.354	-19.317	0.259	-0.163
-548.339	-54.360	-0.357	-0.165
-547.325	-112.430	0.236	-0.048
-546.310	800.000	-0.089	0.269
-545.296	52.572	-0.114	0.110
-544.281	183.996	-0.088	-0.132
-543.266	30.073	0.435	0.377
-542.252	-11.805	-0.091	-0.061
-541.237	-67.084	-0.385	0.154
-540.223	800.000	0.043	0.163
-539.208	-79.902	-0.193	0.066
-538.193	-10.665	-0.100	0.067
-537.179	-200.000	-0.026	-0.234
-536.164	-108.361	0.101	-0.022
-535.150	-200.000	0.043	-0.250
-534.135	-3.732	0.325	0.230
-533.121	478.013	-0.062	-0.142
-532.106	53.275	-0.171	-0.166
-531.091	800.000	-0.088	-0.252
-530.077	98.783	0.144	-0.169
-529.062	-114.633	-0.182	0.035
-528.048	33.390	0.116	-0.103
-527.033	230.600	0.155	-0.257
-526.018	-176.932	0.328	-0.008
-525.004	64.144	0.099	0.101
-523.989	506.634	-0.022	0.052
-522.975	10.924	-0.124	0.096
-521.960	-200.000	-0.067	0.303
-520.945	-43.545	-0.029	0.015
-519.931	-200.000	0.007	0.279
-518.916	167.967	0.184	0.266
-517.902	0.665	-0.024	0.017
-516.887	-77.572	0.155	0.055
-515.872	325.292	-0.057	-0.111
-514.858	-79.255	-0.095	-0.033
-513.843	-200.000	0.033	-0.250
-512.829	-56.941	-0.163	-0.073
-511.814	214.930	-0.113	0.181
-510.799	-200.000	-0.009	0.060
-509.785	482.871	-0.123	-0.283
-508.770	-101.128	0.296	0.074
-507.756	-200.000	0.010	-0.357
-506.741	-84.749	-0.279	0.089
-505.726	-125.849	-0.358	-0.055
-504.712	-59.015	0.229	0.100
-503.697	-200.000	-0.046	0.316
-502.683	-116.843	-0.113	0.021
-501.668	-120.505	0.018	-0.003
-500.653	-96.196	-0.246	0.066
-499.639	259.401	-0.194	0.339
-498.624	11.283	0.282	-0.219
-497.610	-200.000	-0.116	0.000
-496.595	-62.657	-0.234	-0.098
-495.581	-200.000	-0.026	0.147
-494.566	-96.786	-0.152	0.041
-493.551	-200.000	0.009	0.271
-492.537	-129.803	-0.069	0.010
-491.522	196.157	0.109	0.169
-490.508	-11.398	-0.241	0.161
-489.493	178.864	-0.098	-0.146
-488.478	-129.018	0.343	0.049
-487.464	-200.000	-0.012	-0.126
-486.449	129.054	-0.071	0.092
-485.435	-91.804	0.143	0.041
-484.420	96.339	0.274	-0.318
-483.405	-64.680	0.164	0.067
-482.391	-144.654	0.323	0.030
-481.376	-200.000	-0.014	0.290
-480.362	17.808	-0.173	0.139
-479.347	800.000	0.112	0.475
-478.332	-200.000	-0.024	-0.118
-477.318	-9.866	0.244	0.164
-476.303	-120.123	-0.377	-0.065
-475.289	356.077	-0.084	-0.169
-474.274	59.134	0.086	0.086
-473.259	-66.823	-0.211	-0.085
-472.245	-200.000	-0.017	0.097
-471.230	-200.000	-0.021	-0.284
-470.216	800.000	-0.108	0.381
-469.201	-200.000	-0.032	-0.299
-468.186	-190.665	-0.222	0.002
-467.172	326.582	-0.161	-0.312
-466.157	-28.498	-0.313	-0.183
-465.143	-50.679	0.117	-0.056
-464.128	123.236	0.046	0.058
-463.113	-134.055	0.116	-0.014
-462.099	800.000	0.053	0.151
-461.084	-105.742	0.260	0.059
-460.070	143.783	0.130	0.175
-459.055	-24.701	0.286	-0.172
-458.040	350.969	0.105	0.211
-457.026	209.782	0.031	-0.049
-456.011	-99.097	-0.430	0.110
-454.997	-4.784	0.046	0.032
-453.982	800.000	-0.048	0.160
-452.968	654.092	0.057	0.148
-451.953	47.129	-0.140	0.132
-450.938	28.065	0.175	-0.150
-449.924	309.911	-0.189	-0.359
-448.909	-89.900	-0.187	-0.055
-447.895	609.148	-0.131	-0.330
-446.880	-96.424	-0.092	-0.025
-445.865	19.441	-0.075	0.061
-444.851	383.659	-0.091	-0.189
-443.836	-113.674	-0.226	0.045
-442.822	-200.000	0.028	-0.136
-441.807	800.000	0.041	0.147
-440.792	-81.505	-0.073	-0.024
-439.778	-3.385	-0.108	-0.076
-438.763	-38.917	-0.134	0.072
-437.749	-200.000	-0.003	0.025
-436.734	-137.982	0.352	-0.040
-435.719	637.899	-0.050	0.129
-434.705	-7.978	-0.206	0.141
-433.690	-200.000	-0.038	-0.189
-432.676	800.000	-0.169	0.524
-431.661	84.267	-0.184	0.204
-430.646	354.047	-0.140	-0.282
-429.632	251.413	0.072	-0.123
-428.617	-200.000	0.015	0.110
-427.603	-16.725	0.153	-0.098
-426.588	-87.674	-0.072	0.022
-425.573	-91.879	0.339	-0.097
-424.559	800.000	-0.027	0.092
-423.544	-113.803	-0.159	-0.031
-422.530	800.000	0.043	-0.123
-421.515	-32.913	-0.222	-0.125
-420.500	-12.033	-0.055	-0.037
-419.486	-92.153	0.249	0.071
-418.471	-66.581	0.133	0.053
-417.457	-127.622	0.035	0.005
-416.442	-200.000	0.009	0.223
-415.428	43.988	0.076	0.070
-414.413	341.464	-0.009	0.018
-413.398	800.000	0.121	-0.467
-412.384	800.000	-0.012	-0.042
-411.369	28.475	-0.151	0.129
-410.355	800.000	-0.113	-0.378
-409.340	-200.000	-0.010	0.054
-408.325	605.967	0.037	0.094
-407.311	800.000	-0.091	0.337
-406.296	-164.391	0.085	0.004
-405.282	102.782	0.084	-0.100
-404.267	-123.031	0.255	-0.041
-403.252	-138.581	0.207	0.023
-402.238	-200.000	-0.051	0.384
-401.223	508.130	-0.099	0.233
-400.209	22.018	0.051	0.042
-399.194	-200.000	0.014	0.124
-398.179	-23.570	0.038	0.023
-397.165	-200.000	-0.007	-0.068
-396.150	-83.041	0.316	0.103
-395.136	335.288	-0.051	-0.101
-394.121	-71.507	-0.282	-0.107
-393.106	-200.000	-0.013	-0.142
-392.092	-116.762	-0.115	-0.021
-391.077	-98.136	-0.088	0.023
-390.063	-115.384	-0.042	-0.008
-389.048	7.983	-0.182	0.138
-388.033	665.277	-0.113	0.296
-387.019	-200.000	-0.001	0.128
-386.004	405.187	0.023	0.050
-384.990	-108.625	0.064	-0.014
-383.975	82.577	0.203	0.222
-382.960	-138.515	-0.212	-0.024
-381.946	800.000	0.050	-0.169
-380.931	800.000	0.094	-0.304
-379.917	163.001	-0.234	0.332
-378.902	-73.746	-0.231	0.085
-377.888	237.420	-0.101	-0.170
-376.873	271.476	0.054	0.096
-375.858	-135.591	-0.216	-0.026
-374.844	-141.141	0.183	-0.019
-373.829	124.069	0.069	0.088
-372.815	-200.000	-0.041	0.298
-371.800	-200.000	-0.048	0.343
-370.785	-81.662	0.101	0.034
-369.771	636.861	0.072	-0.186
-368.756	-200.000	0.014	-0.199
-367.742	219.151	-0.167	-0.270
-366.727	-104.549	0.122	-0.028
-365.712	12.119	0.254	0.197
-364.698	44.017	0.087	-0.080
-363.683	-200.000	-0.014	-0.219
-362.669	-200.000	0.001	0.135
-361.654	-129.959	0.251	0.035
-360.639	130.051	-0.100	-0.130
-359.625	-200.000	-0.049	-0.219
-358.610	-200.000	-0.028	-0.125
-357.596	79.445	-0.032	-0.034
-356.581	43.820	0.185	-0.171
-355.566	-94.865	-0.397	0.108
-354.552	124.201	-0.143	-0.181
-353.537	-65.922	0.049	0.020
-352.523	-48.555	0.202	0.098
-351.508	-200.000	-0.004	-0.529
-350.493	301.795	0.121	-0.226
-349.479	-96.604	-0.152	-0.040
-348.464	168.906	-0.068	-0.097
-347.450	31.943	-0.202	-0.176
-346.435	-19.320	-0.236	0.148
-345.420	-200.000	0.082	-0.000
-344.406	-123.848	-0.268	-0.043
-343.391	-200.000	-0.023	0.112
-342.377	-200.000	-0.028	-0.204
-341.362	136.590	0.147	-0.194
-340.348	293.012	0.073	0.134
-339.333	800.000	0.096	-0.368
-338.318	-110.255	0.173	-0.036
-337.304	91.453	0.089	0.101
-336.289	-200.000	-0.001	0.128
-335.275	-200.000	-0.029	-0.173
-334.260	-121.430	0.094	-0.016
-333.245	431.792	-0.094	-0.204
-332.231	800.000	0.093	0.354
-331.216	-144.551	0.163	-0.015
-330.202	45.246	0.048	-0.045
-329.187	-200.000	-0.019	-0.127
-328.172	-106.845	0.303	-0.068
-327.158	259.753	-0.073	-0.127
-326.143	-51.544	0.080	-0.038
-325.129	308.792	0.054	-0.101
-324.114	-34.305	-0.268	-0.148
-323.099	-96.021	-0.365	-0.098
-322.085	199.698	-0.171	-0.265
-321.070	659.863	0.031	0.079
-320.056	84.844	-0.080	-0.089
-319.041	-200.000	0.025	-0.443
-318.026	-58.260	0.271	0.119
-317.012	-65.835	0.091	-0.037
-315.997	-67.338	-0.159	0.063
-314.983	-132.471	0.327	0.042
-313.968	-105.406	-0.177	-0.041
-312.953	296.987	-0.077	0.142
-311.939	-142.929	-0.203	-0.020
-310.924	-200.000	0.058	0.291
-309.910	23.411	0.265	-0.219
-308.895	-115.179	-0.034	0.006
-307.880	254.759	-0.149	0.257
-306.866	722.595	0.035	-0.094
-305.851	-200.000	-0.046	-0.249
-304.837	-69.627	-0.108	0.042
-303.822	-30.451	-0.168	0.096
-302.807	-17.834	0.349	-0.220
-301.793	-83.779	-0.190	-0.061
-300.778	68.840	0.072	-0.075
-299.764	18.812	0.090	0.073
-298.749	39.627	0.111	-0.100
-297.735	-38.497	0.108	0.057
-296.720	-28.324	-0.143	0.083
-295.705	0.229	0.174	0.125
-294.691	-94.493	0.308	-0.085
-293.676	14.997	0.120	-0.095
-292.662	-47.428	0.191	-0.094
-291.647	245.705	0.119	-0.202
-290.632	-40.990	0.169	-0.088
-289.618	29.031	-0.443	0.378
-288.603	380.534	-0.106	-0.218
-287.589	800.000	-0.053	-0.152
-286.574	771.617	0.161	0.440
-285.559	-51.753	0.095	0.045
-284.545	506.764	0.045	-0.105
-283.530	289.991	-0.118	0.216
-282.516	0.862	-0.126	-0.091
-281.501	-153.519	0.091	-0.006
-280.486	-70.815	0.240	0.091
-279.472	397.610	-0.117	-0.247
-278.457	642.736	-0.133	-0.342
-277.443	-150.882	-0.086	0.007
-276.428	84.448	-0.229	-0.252
-275.413	64.595	-0.248	0.252
-274.399	648.354	0.072	0.185
-273.384	33.438	0.240	0.209
-272.370	-61.247	-0.427	0.181
-271.355	800.000	0.022	-0.097
-270.340	-120.518	0.203	0.035
-269.326	16.184	0.182	0.144
-268.311	499.919	0.082	-0.190
-267.297	-200.000	-0.033	-0.276
-266.282	800.000	0.137	-0.394
-265.267	153.841	-0.070	-0.097
-264.253	-85.056	0.104	0.033
-263.238	800.000	-0.041	-0.147
-262.224	36.473	0.257	0.228
-261.209	-119.096	0.121	0.021
-260.195	-81.668	-0.168	-0.055
-259.180	16.154	-0.123	0.097
-258.165	-72.201	0.102	0.038
-257.151	-114.754	0.173	-0.033
-256.136	-98.877	0.403	0.103
-255.122	-76.542	0.144	0.051
-254.107	299.431	-0.064	0.119
-253.092	5.292	0.225	-0.167
-252.078	-57.560	0.191	0.084
-251.063	439.357	0.009	-0.020
-250.049	141.724	-0.059	-0.079
-249.034	417.190	0.021	-0.045
-248.019	800.000	0.121	0.493
-247.005	-143.532	-0.152	-0.015
-245.990	-85.888	-0.232	-0.072
-244.976	-200.000	0.008	0.060
-243.961	-155.099	-0.164	0.011
-242.946	-174.082	-0.120	-0.004
-241.932	63.313	0.071	0.072
-240.917	-138.594	0.317	-0.035
-239.903	181.936	-0.110	0.163
-238.888	-200.000	-0.027	-0.381
-237.873	-200.000	0.032	0.208
-236.859	-70.212	0.334	-0.128
-235.844	800.000	0.058	-0.253
-234.830	-200.000	0.011	-0.161
-233.815	-22.994	-0.065	-0.039
-232.800	-47.708	0.207	0.101
-231.786	-24.111	-0.141	-0.085
-230.771	-50.808	-0.275	-0.130
-229.757	-158.919	-0.188	0.011
-228.742	-200.000	-0.001	-0.212
-227.727	8.811	-0.140	-0.106
-226.713	117.300	-0.191	0.235
-225.698	97.202	0.179	-0.207
-224.684	-106.965	0.253	-0.056
-223.669	201.695	0.147	-0.227
-222.655	747.507	0.046	-0.124
-221.640	34.640	-0.119	0.104
-220.625	-65.329	-0.107	0.043
-219.611	800.000	0.010	-0.044
-218.596	488.769	0.095	0.219
-217.582	492.359	-0.080	0.184
-216.567	89.887	0.205	-0.230
-215.552	-119.696	-0.354	0.061
-214.538	-200.000	0.002	0.014
-213.523	-153.516	0.217	0.015
-212.509	-79.657	0.285	-0.097
-211.494	-9.789	0.087	-0.058
-210.479	-24.132	0.156	0.094
-209.465	5.945	-0.291	-0.216
-208.450	76.916	0.138	0.147
-207.436	-200.000	-0.021	0.288
-206.421	788.863	0.155	0.426
-205.406	800.000	0.031	-0.111
-204.392	-7.210	0.200	0.136
-203.377	-200.000	-0.043	0.306
-202.363	284.535	-0.095	-0.172
-201.348	-29.332	0.256	0.147
-200.333	139.831	-0.077	0.102
-199.319	-117.462	0.158	0.029
-198.304	-81.328	-0.315	0.104
-197.290	-6.709	0.184	-0.126
-196.275	-2.516	-0.245	-0.172
-195.260	-100.431	0.137	-0.034
-194.246	-136.619	0.055	0.006
-193.231	-177.396	-0.244	-0.006
-192.217	-121.031	0.125	-0.021
-191.202	-166.411	0.164	-0.007
-190.187	608.841	0.079	0.198
-189.173	77.876	0.135	0.145
-188.158	-200.000	-0.005	-0.183
-187.144	97.751	0.265	0.306
-186.129	423.586	-0.109	0.234
-185.114	-70.094	-0.096	0.037
-184.100	-200.000	-0.016	-0.140
-183.085	223.275	0.234	0.379
-182.071	-98.133	0.232	-0.060
-181.056	-200.000	-0.014	0.109
-180.042	22.005	-0.019	0.015
-179.027	800.000	-0.129	-0.377
-178.012	642.159	-0.158	0.403
-176.998	525.826	0.096	-0.226
-175.983	4.523	-0.219	0.161
-174.969	38.641	-0.114	0.102
-173.954	60.362	-0.292	-0.289
-172.939	-76.223	-0.155	-0.055
-171.925	277.378	0.098	-0.175
-170.910	-106.140	0.234	0.053
-169.896	-159.486	0.272	0.015
-168.881	800.000	0.043	-0.160
-167.866	71.603	0.160	0.167
-166.852	32.586	-0.079	0.069
-165.837	-107.261	0.327	-0.072
-164.823	182.612	-0.101	0.149
-163.808	87.214	0.226	-0.250
-162.793	-200.000	-0.028	-0.369
-161.779	85.379	0.017	0.019
-160.764	-29.539	0.333	-0.190
-159.750	94.925	-0.022	0.025
-158.735	-200.000	0.054	0.238
-157.720	90.444	-0.154	0.172
-156.706	-165.794	0.088	0.004
-155.691	800.000	-0.072	-0.263
-154.677	28.568	0.177	0.150
-153.662	-56.581	0.265	-0.117
-152.647	67.694	0.113	0.116
-151.633	800.000	-0.036	-0.142
-150.618	457.305	0.085	0.188
-149.604	-200.000	-0.051	0.287
-148.589	674.900	-0.039	0.102
-147.574	-160.256	0.170	-0.009
-146.560	41.847	-0.155	0.141
-145.545	-200.000	0.062	0.425
-144.531	-6.234	0.058	0.040
-143.516	-200.000	-0.038	-0.204
-142.502	-38.309	0.257	0.136
-141.487	-200.000	0.032	0.406
-140.472	12.208	-0.183	0.141
-139.458	411.254	-0.122	0.259
-138.443	-52.497	0.242	0.112
-137.429	-41.578	0.150	0.077
-136.414	370.251	-0.140	0.284
-135.399	-200.000	-0.010	-0.211
-134.385	48.910	-0.067	0.063
-133.370	27.588	0.234	0.197
-132.356	-200.000	-0.003	-0.223
-131.341	229.527	0.139	0.227
-130.326	-117.357	0.230	-0.042
-129.312	-64.940	0.258	0.104
-128.297	23.231	0.113	0.093
-127.283	-134.773	0.186	0.023
-126.268	-147.228	-0.074	0.006
-125.253	52.536	-0.351	-0.335
-124.239	9.693	-0.172	-0.130
-123.224	218.829	0.060	0.096
-122.210	415.642	-0.083	0.177
-121.195	360.717	0.103	-0.206
