DTS Sentinel unit serial number:	SN413079Multiplexer serial number:	ORYXHardware model number:	OX4-SRSoftware version number:	ORYX F/W v4.00 Oryx Data Collector v3.7.2.0data status	okinstallation	princeton_trtdifferential loss correction	single-endedforward channel	channel 1reverse channel	N/Adate	2019/09/12time	01:56:11forward acquisition time	60.00reverse acquisition time	0.00gamma	496.2192k internal	0.2321k external	0.2321temperature offset calibration	1.0079default loss term (dB/km)	0.3790temperature slope calibration	1.0000multiplexer offset coefficient	1.0000multiplexer slope coefficient	1.0000fibre end	0.00T internal ref (°C)	32.78T ext. ref 1 (°C)	2.06T ext. ref 2 (°C)	27.44length (m)	temperature (°C)	Stokes	anti-Stokes-747.200	53.413	0.128	0.124
-746.185	170.766	-0.129	-0.187
-745.171	-129.757	0.462	-0.064
-744.156	-22.032	-0.348	0.214
-743.142	137.361	0.097	-0.128
-742.127	-98.444	-0.088	-0.023
-741.112	168.269	0.128	-0.184
-740.098	331.184	0.127	0.248
-739.083	-78.263	0.294	0.102
-738.069	-5.643	-0.371	0.257
-737.054	-200.000	-0.018	0.339
-736.039	69.305	-0.133	0.138
-735.025	320.862	0.114	-0.218
-734.010	131.619	0.058	0.076
-732.996	-200.000	0.012	-0.055
-731.981	-161.726	-0.299	-0.015
-730.966	-22.743	0.309	0.189
-729.952	800.000	0.095	-0.370
-728.937	-200.000	0.008	0.065
-727.923	12.503	-0.181	0.141
-726.908	-94.632	-0.259	-0.071
-725.894	-200.000	-0.001	-0.258
-724.879	-200.000	0.017	-0.207
-723.864	298.122	0.121	-0.225
-722.850	53.395	-0.158	-0.153
-721.835	-29.047	0.260	-0.151
-720.821	800.000	-0.036	-0.115
-719.806	118.801	-0.141	-0.176
-718.791	-200.000	-0.015	-0.180
-717.777	-49.762	0.161	0.077
-716.762	51.698	-0.035	0.034
-715.748	20.202	0.091	-0.074
-714.733	-200.000	-0.006	0.237
-713.718	62.869	0.163	-0.164
-712.704	82.251	-0.105	-0.115
-711.689	21.105	0.156	-0.128
-710.675	-70.916	0.107	0.041
-709.660	-75.082	-0.111	0.040
-708.645	-31.793	-0.219	-0.124
-707.631	18.038	0.183	-0.147
-706.616	-63.607	-0.201	0.083
-705.602	-92.230	-0.115	0.033
-704.587	31.232	-0.161	0.140
-703.572	-42.213	-0.455	0.235
-702.558	504.349	0.025	0.057
-701.543	328.279	0.117	0.227
-700.529	-200.000	0.020	-0.169
-699.514	-200.000	0.004	-0.213
-698.499	143.497	0.078	0.105
-697.485	270.866	0.090	-0.160
-696.470	-200.000	0.019	0.142
-695.456	800.000	-0.086	-0.315
-694.441	676.758	0.030	0.078
-693.426	-129.888	-0.295	-0.041
-692.412	229.705	-0.065	0.107
-691.397	212.891	0.018	-0.029
-690.383	800.000	-0.143	-0.432
-689.368	-118.504	-0.246	0.044
-688.354	-200.000	-0.003	0.113
-687.339	163.803	-0.311	-0.442
-686.324	11.399	-0.158	-0.122
-685.310	-30.494	-0.116	-0.066
-684.295	93.809	-0.104	-0.119
-683.281	-102.693	0.244	-0.059
-682.266	-127.661	-0.241	-0.035
-681.251	479.035	-0.132	-0.301
-680.237	-200.000	0.019	-0.322
-679.222	351.707	0.250	0.499
-678.208	51.531	0.119	0.114
-677.193	70.447	0.043	0.044
-676.178	94.464	-0.219	0.251
-675.164	-51.489	-0.028	0.013
-674.149	17.173	0.325	0.260
-673.135	136.327	-0.241	0.317
-672.120	-200.000	0.011	0.069
-671.105	800.000	-0.101	-0.359
-670.091	800.000	0.059	-0.212
-669.076	-90.393	-0.057	-0.017
-668.062	685.613	-0.078	0.205
-667.047	-200.000	0.020	0.105
-666.032	40.263	-0.139	-0.126
-665.018	-72.045	0.090	0.034
-664.003	337.740	-0.139	-0.272
-662.989	17.167	0.115	0.092
-661.974	-139.308	-0.617	0.067
-660.959	1.239	-0.250	0.181
-659.945	-110.763	0.345	-0.072
-658.930	-139.742	0.198	0.021
-657.916	-133.061	-0.429	-0.055
-656.901	800.000	-0.068	-0.213
-655.886	800.000	-0.053	0.227
-654.872	800.000	0.004	-0.018
-653.857	227.957	-0.041	-0.068
-652.843	-119.492	0.254	-0.044
-651.828	-35.593	0.240	-0.131
-650.814	118.746	-0.270	0.337
-649.799	48.867	0.075	-0.071
-648.784	498.896	-0.119	0.276
-647.770	20.816	0.241	0.196
-646.755	-90.334	0.205	0.060
-645.741	-116.845	-0.483	-0.089
-644.726	566.230	-0.216	-0.528
-643.711	800.000	-0.069	0.258
-642.697	-200.000	-0.029	0.216
-641.682	-146.209	-0.303	-0.027
-640.668	-200.000	0.004	0.145
-639.653	504.095	0.106	-0.248
-638.638	-200.000	0.071	0.374
-637.624	214.582	-0.029	0.047
-636.609	-103.695	0.379	-0.090
-635.595	-57.961	-0.121	-0.053
-634.580	-59.021	-0.225	-0.098
-633.565	-134.028	0.098	-0.012
-632.551	-200.000	-0.011	0.066
-631.536	-76.301	-0.339	-0.120
-630.522	22.176	0.180	-0.148
-629.507	-3.524	-0.208	-0.145
-628.492	-200.000	-0.001	-0.099
-627.478	-200.000	-0.066	-0.327
-626.463	-200.000	-0.009	-0.128
-625.449	508.928	-0.130	-0.305
-624.434	-62.678	-0.355	-0.148
-623.419	-93.078	-0.180	0.050
-622.405	3.973	-0.346	-0.254
-621.390	212.941	0.156	0.248
-620.376	-128.824	0.196	0.028
-619.361	-25.999	-0.148	-0.087
-618.346	800.000	0.006	0.019
-617.332	25.367	-0.223	-0.186
-616.317	308.535	-0.073	0.138
-615.303	-83.476	-0.101	-0.032
-614.288	131.813	-0.106	0.138
-613.273	-137.638	0.191	-0.022
-612.259	-3.142	-0.173	-0.121
-611.244	-80.155	-0.421	-0.142
-610.230	136.307	-0.100	0.131
-609.215	284.918	0.065	-0.118
-608.201	-70.663	0.173	0.066
-607.186	11.010	-0.156	0.120
-606.171	23.336	0.231	-0.191
-605.157	169.895	-0.063	-0.091
-604.142	-89.874	-0.184	-0.054
-603.128	2.376	-0.249	-0.181
-602.113	425.317	-0.074	-0.160
-601.098	-145.829	0.205	0.018
-600.084	545.665	0.079	-0.189
-599.069	86.560	-0.195	-0.216
-598.055	42.477	0.158	0.144
-597.040	510.448	0.088	0.206
-596.025	65.267	-0.198	-0.201
-595.011	571.233	0.034	0.083
-593.996	-200.000	0.014	0.152
-592.982	53.300	0.070	0.068
-591.967	353.131	-0.119	-0.237
-590.952	-68.614	-0.178	-0.069
-589.938	-40.398	-0.309	-0.161
-588.923	-129.130	0.438	0.061
-587.909	800.000	-0.013	0.052
-586.894	-200.000	-0.023	-0.283
-585.879	-193.008	-0.274	-0.002
-584.865	-82.749	0.095	0.031
-583.850	511.553	0.039	-0.091
-582.836	-34.324	0.245	-0.135
-581.821	448.229	0.064	0.141
-580.806	-29.667	-0.270	0.155
-579.792	328.397	0.073	0.141
-578.777	283.678	0.114	-0.205
-577.763	238.719	-0.175	0.292
-576.748	21.305	-0.354	0.289
-575.733	676.214	-0.041	0.106
-574.719	-183.463	-0.140	-0.002
-573.704	413.921	0.045	0.097
-572.690	-200.000	0.026	0.243
-571.675	160.298	-0.264	-0.370
-570.661	-16.224	-0.094	-0.060
-569.646	-44.323	0.111	0.056
-568.631	-200.000	0.024	0.208
-567.617	-34.689	-0.292	0.160
-566.602	-200.000	-0.007	0.172
-565.588	-25.374	-0.304	-0.180
-564.573	-200.000	-0.023	0.465
-563.558	-28.585	0.120	-0.069
-562.544	800.000	0.044	0.135
-561.529	-200.000	-0.001	-0.196
-560.515	-74.548	-0.069	-0.025
-559.500	-115.653	-0.142	0.027
-558.485	-200.000	-0.041	0.458
-557.471	-200.000	0.019	0.144
-556.456	249.644	0.170	0.290
-555.442	385.524	0.096	-0.198
-554.427	-200.000	-0.008	0.058
-553.412	24.215	0.125	-0.104
-552.398	-200.000	-0.015	0.102
-551.383	-86.710	-0.214	0.066
-550.369	12.339	0.152	-0.117
-549.354	214.506	-0.118	0.187
-548.339	-200.000	0.070	-0.454
-547.325	-121.014	-0.358	-0.060
-546.310	-200.000	0.019	-0.200
-545.296	53.532	-0.174	-0.168
-544.281	-200.000	0.029	-0.131
-543.266	-200.000	-0.010	-0.185
-542.252	336.025	0.145	0.282
-541.237	-126.000	0.380	-0.057
-540.223	315.547	-0.088	-0.167
-539.208	-161.060	-0.270	-0.014
-538.193	106.484	-0.037	-0.044
-537.179	178.044	-0.199	-0.291
-536.164	-138.565	0.122	-0.013
-535.150	66.421	-0.038	-0.038
-534.135	-200.000	0.017	-0.228
-533.121	29.314	-0.161	-0.138
-532.106	-148.439	0.254	-0.021
-531.091	-58.770	-0.031	-0.013
-530.077	-131.710	-0.140	0.018
-529.062	-83.871	0.317	0.101
-528.048	-142.414	0.121	0.012
-527.033	417.393	0.048	0.104
-526.018	133.507	-0.058	-0.076
-525.004	-109.480	0.329	-0.070
-523.989	178.346	0.128	-0.188
-522.975	134.561	0.078	-0.101
-521.960	-175.781	-0.186	0.005
-520.945	-95.331	0.297	-0.080
-519.931	-200.000	0.014	0.106
-518.916	-160.297	-0.092	-0.005
-517.902	13.798	-0.233	0.182
-516.887	47.793	-0.082	0.076
-515.872	86.367	0.072	0.080
-514.858	30.854	0.346	-0.297
-513.843	236.084	0.172	-0.285
-512.829	-175.287	-0.078	0.002
-511.814	-166.424	-0.331	0.014
-510.799	435.942	0.083	-0.180
-509.785	20.816	0.068	-0.055
-508.770	94.329	0.039	0.044
-507.756	94.618	-0.094	0.107
-506.741	-200.000	0.001	-0.016
-505.726	-200.000	0.040	-0.357
-504.712	-200.000	0.044	-0.264
-503.697	94.466	0.210	0.239
-502.683	-163.172	-0.223	0.011
-501.668	263.989	0.240	0.419
-500.653	-132.821	0.065	-0.008
-499.639	800.000	0.091	-0.333
-498.624	800.000	0.091	0.307
-497.610	-74.885	0.305	-0.110
-496.595	-200.000	-0.011	0.181
-495.581	621.818	0.103	-0.259
-494.566	-200.000	-0.028	-0.435
-493.551	-200.000	-0.001	0.416
-492.537	-114.998	0.359	0.068
-491.522	-85.212	-0.358	-0.112
-490.508	-133.054	0.073	0.009
-489.493	-97.000	-0.340	-0.089
-488.478	-166.281	0.315	0.013
-487.464	-30.092	0.130	0.074
-486.449	46.369	-0.186	0.173
-485.435	-180.624	-0.330	0.007
-484.420	-74.759	0.250	0.090
-483.405	-53.400	0.295	-0.135
-482.391	-0.697	0.262	0.186
-481.376	-19.360	0.218	-0.135
-480.362	-52.948	0.296	0.136
-479.347	800.000	0.126	-0.365
-478.332	-200.000	-0.011	0.097
-477.318	-134.673	0.059	-0.007
-476.303	800.000	-0.032	0.089
-475.289	108.535	0.187	-0.224
-474.274	-84.836	0.360	0.113
-473.259	13.648	-0.095	-0.074
-472.245	392.354	-0.107	-0.222
-471.230	542.420	0.079	0.188
-470.216	23.611	0.159	0.131
-469.201	180.405	0.011	0.017
-468.186	800.000	0.065	0.206
-467.172	-0.126	-0.245	0.174
-466.157	-17.418	-0.277	0.174
-465.143	800.000	0.086	0.326
-464.128	-47.158	-0.185	0.090
-463.113	-1.464	0.123	0.087
-462.099	-45.609	0.086	-0.043
-461.084	510.679	-0.078	0.182
-460.070	-200.000	-0.041	-0.289
-459.055	-200.000	0.001	-0.133
-458.040	-135.491	0.225	0.027
-457.026	-200.000	-0.038	0.400
-456.011	-126.944	-0.333	0.049
-454.997	-65.606	-0.278	-0.112
-453.982	100.860	-0.250	0.290
-452.968	-14.035	0.086	-0.055
-451.953	800.000	-0.046	-0.133
-450.938	71.044	0.044	0.045
-449.924	494.418	0.099	-0.227
-448.909	-200.000	0.001	-0.244
-447.895	800.000	-0.073	0.295
-446.880	800.000	0.004	0.016
-445.865	-144.926	0.276	-0.025
-444.851	-168.111	0.143	-0.006
-443.836	-1.525	-0.163	0.115
-442.822	110.021	0.098	0.118
-441.807	-200.000	-0.048	-0.217
-440.792	50.199	0.302	-0.285
-439.778	-23.721	-0.192	0.115
-438.763	35.055	0.117	-0.103
-437.749	-45.547	0.173	0.086
-436.734	584.447	0.086	0.210
-435.719	632.947	0.087	-0.220
-434.705	800.000	0.055	0.226
-433.690	-114.646	0.318	0.061
-432.676	-156.260	-0.285	-0.018
-431.661	-104.382	-0.128	-0.030
-430.646	362.241	-0.069	0.138
-429.632	-100.041	-0.259	-0.064
-428.617	73.572	-0.333	0.348
-427.603	489.292	0.035	-0.081
-426.588	800.000	-0.113	0.313
-425.573	53.170	0.210	0.200
-424.559	0.975	-0.140	-0.100
-423.544	800.000	0.096	-0.273
-422.530	-103.515	-0.273	0.064
-421.515	63.491	0.037	-0.037
-420.500	-200.000	-0.007	-0.120
-419.486	-200.000	0.054	-0.252
-418.471	3.256	-0.110	0.080
-417.457	-61.551	0.398	0.167
-416.442	-71.749	0.175	-0.065
-415.428	214.240	-0.080	0.127
-414.413	-99.729	-0.272	0.068
-413.398	30.739	0.159	0.136
-412.384	29.756	0.091	0.078
-411.369	-124.068	0.050	0.008
-410.355	-200.000	0.078	0.362
-409.340	-166.882	-0.070	0.003
-408.325	43.053	0.355	0.323
-407.311	-90.820	0.080	-0.023
-406.296	-70.847	-0.307	-0.115
-405.282	23.946	-0.090	0.074
-404.267	10.051	0.085	-0.065
-403.252	113.136	-0.044	-0.053
-402.238	-191.265	0.049	-0.000
-401.223	248.106	0.082	-0.139
-400.209	-200.000	-0.008	-0.138
-399.194	664.137	-0.091	0.235
-398.179	-35.009	0.297	-0.162
-397.165	-34.144	0.150	-0.082
-396.150	301.443	0.109	-0.201
-395.136	7.831	0.366	-0.273
-394.121	-126.729	-0.119	0.017
-393.106	-200.000	0.005	0.136
-392.092	-200.000	0.011	-0.154
-391.077	-20.510	-0.200	0.123
-390.063	-23.670	-0.133	-0.079
-389.048	-200.000	-0.004	0.021
-388.033	-109.801	-0.124	0.026
-387.019	579.699	-0.077	-0.187
-386.004	-138.096	0.402	0.045
-384.990	-151.371	-0.025	0.002
-383.975	-200.000	-0.039	-0.295
-382.960	-61.395	0.069	0.029
-381.946	590.883	0.132	-0.326
-380.931	-33.919	-0.251	-0.138
-379.917	-62.604	0.291	-0.120
-378.902	-200.000	0.004	-0.034
-377.888	50.210	0.179	-0.168
-376.873	240.065	-0.133	0.221
-375.858	221.434	-0.120	0.191
-374.844	-200.000	0.033	-0.192
-373.829	-77.163	-0.112	-0.039
-372.815	-200.000	-0.002	-0.022
-371.800	-82.323	0.474	0.154
-370.785	225.673	-0.150	0.243
-369.771	800.000	0.030	-0.087
-368.756	115.575	0.068	0.082
-367.742	-200.000	-0.035	0.159
-366.727	437.287	0.022	0.047
-365.712	560.201	-0.066	-0.158
-364.698	85.154	0.058	-0.064
-363.683	-57.085	-0.068	-0.030
-362.669	-30.480	-0.154	-0.087
-361.654	-95.312	0.077	-0.021
-360.639	-148.935	-0.389	0.031
-359.625	8.432	0.178	0.134
-358.610	159.913	0.135	-0.187
-357.596	171.903	-0.032	0.045
-356.581	-47.751	-0.273	-0.132
-355.566	-50.414	0.441	-0.207
-354.552	586.723	-0.037	0.091
-353.537	-19.226	0.205	-0.127
-352.523	-200.000	0.049	0.275
-351.508	-30.825	-0.200	0.113
-350.493	79.191	-0.207	-0.221
-349.479	-200.000	0.057	0.285
-348.464	-52.433	-0.144	-0.066
-347.450	-200.000	-0.037	-0.222
-346.435	-42.428	0.326	0.165
-345.420	407.048	0.061	-0.128
-344.406	8.526	0.044	-0.033
-343.391	-4.156	-0.197	0.136
-342.377	574.751	0.021	0.051
-341.362	-93.751	0.176	0.048
-340.348	-200.000	-0.069	0.307
-339.333	101.666	-0.079	0.091
-338.318	-200.000	0.005	-0.109
-337.304	26.303	0.280	-0.233
-336.289	-200.000	-0.065	-0.362
-335.275	-200.000	0.046	0.211
-334.260	-16.810	-0.187	-0.117
-333.245	-87.818	0.306	-0.092
-332.231	800.000	0.058	0.188
-331.216	8.774	0.146	-0.109
-330.202	-101.084	0.205	-0.050
-329.187	207.798	-0.089	-0.139
-328.172	64.326	-0.142	0.142
-327.158	800.000	-0.114	-0.419
-326.143	53.454	0.056	-0.054
-325.129	-62.492	0.181	0.075
-324.114	528.783	-0.079	0.185
-323.099	6.529	0.043	0.032
-322.085	403.151	0.060	0.125
-321.070	220.578	0.062	-0.098
-320.056	-200.000	0.015	0.111
-319.041	800.000	-0.049	0.204
-318.026	268.578	-0.102	-0.178
-317.012	93.857	-0.159	0.179
-315.997	-140.883	-0.238	-0.024
-314.983	86.302	-0.233	-0.255
-313.968	753.185	-0.154	-0.412
-312.953	-166.826	-0.064	0.003
-311.939	-59.263	0.417	0.179
-310.924	800.000	-0.079	0.266
-309.910	77.317	-0.119	-0.126
-308.895	153.188	-0.053	-0.072
-307.880	-119.741	-0.098	-0.017
-306.866	-130.698	0.446	-0.060
-305.851	0.736	0.168	0.120
-304.837	-72.315	-0.069	-0.025
-303.822	680.519	0.026	-0.066
-302.807	-200.000	-0.052	-0.386
-301.793	13.757	0.038	0.030
-300.778	64.839	-0.128	-0.129
-299.764	272.195	0.167	-0.293
-298.749	-125.212	-0.268	0.041
-297.735	800.000	0.071	-0.205
-296.720	-32.785	-0.198	0.109
-295.705	-93.756	0.189	-0.052
-294.691	22.442	0.043	-0.035
-293.676	660.661	0.042	0.107
-292.662	-29.413	-0.233	0.133
-291.647	69.615	0.073	-0.075
-290.632	-200.000	0.026	-0.171
-289.618	86.565	-0.140	0.153
-288.603	-70.412	0.181	-0.068
-287.589	-200.000	-0.028	-0.235
-286.574	795.811	0.086	0.236
-285.559	800.000	-0.027	0.077
-284.545	-13.044	0.128	0.083
-283.530	-157.174	0.356	0.021
-282.516	73.977	0.037	-0.038
-281.501	-106.445	-0.096	-0.021
-280.486	-34.556	0.190	0.103
-279.472	34.125	0.062	0.053
-278.457	-200.000	-0.016	-0.123
-277.443	-200.000	-0.001	-0.062
-276.428	112.324	0.143	-0.172
-275.413	-200.000	0.017	-0.246
-274.399	551.038	0.012	-0.028
-273.384	-48.630	-0.228	-0.109
-272.370	-200.000	-0.033	-0.206
-271.355	800.000	0.104	-0.347
-270.340	-111.990	-0.254	0.051
-269.326	-69.957	0.229	-0.087
-268.311	-119.585	0.227	0.039
-267.297	219.827	0.083	0.132
-266.282	-90.659	-0.153	0.044
-265.267	-104.644	0.361	-0.083
-264.253	800.000	0.097	-0.356
-263.238	151.682	0.089	0.121
-262.224	-56.645	-0.360	-0.158
-261.209	-128.627	0.370	-0.052
-260.195	396.814	-0.186	0.386
-259.180	401.904	-0.097	0.202
-258.165	73.835	0.039	0.041
-257.151	-200.000	-0.022	0.335
-256.136	-49.180	-0.368	-0.174
-255.122	26.824	0.041	0.034
-254.107	-56.154	0.081	0.036
-253.092	683.231	-0.048	-0.125
-252.078	-77.724	-0.272	0.093
-251.063	-200.000	-0.000	-0.085
-250.049	151.991	0.106	0.143
-249.034	100.064	0.120	-0.138
-248.019	-200.000	0.016	-0.294
-247.005	-71.934	-0.299	-0.110
-245.990	-150.571	0.212	-0.016
-244.976	-200.000	0.038	0.328
-243.961	36.946	0.147	-0.129
-242.946	48.236	-0.144	0.134
-241.932	-41.254	-0.072	-0.037
-240.917	800.000	-0.093	0.340
-239.903	-83.466	0.334	0.106
-238.888	-89.912	0.174	0.050
-237.873	23.019	0.144	-0.117
-236.859	-30.789	0.058	0.033
-235.844	800.000	-0.098	0.359
-234.830	-183.921	-0.406	-0.007
-233.815	-66.605	-0.284	0.112
-232.800	0.862	0.120	-0.085
-231.786	89.006	0.348	-0.384
-230.771	-70.086	-0.116	0.044
-229.757	-130.105	-0.260	0.035
-228.742	-163.927	-0.098	0.005
-227.727	-200.000	-0.044	-0.201
-226.713	-200.000	0.047	0.257
-225.698	-200.000	-0.045	0.416
-224.684	-20.765	-0.231	-0.141
-223.669	-200.000	-0.008	0.037
-222.655	322.168	-0.043	-0.081
-221.640	83.300	0.106	-0.115
-220.625	-21.491	-0.148	0.089
-219.611	133.875	0.319	0.409
-218.596	195.460	-0.079	0.119
-217.582	120.589	-0.200	0.246
-216.567	186.048	-0.118	0.174
-215.552	-71.468	0.293	0.108
-214.538	-44.559	-0.008	-0.004
-213.523	357.581	0.100	0.198
-212.509	95.174	-0.251	0.283
-211.494	-200.000	0.010	0.167
-210.479	-112.063	-0.120	0.024
-209.465	270.607	-0.195	-0.340
-208.450	350.168	0.086	0.168
-207.436	76.714	-0.088	0.092
-206.421	-161.446	-0.089	-0.005
-205.406	-74.060	-0.043	0.015
-204.392	-147.035	-0.074	0.006
-203.377	-91.052	-0.298	0.085
-202.363	-200.000	0.037	0.308
-201.348	135.324	-0.143	0.184
-200.333	390.374	0.073	0.150
-199.319	17.195	0.177	-0.139
-198.304	607.426	0.039	-0.097
-197.290	90.491	-0.169	0.187
-196.275	61.096	0.168	0.165
-195.260	-46.997	-0.219	0.106
-194.246	-94.962	0.266	0.071
-193.231	-16.427	0.267	0.167
-192.217	83.610	-0.105	0.113
-191.202	-200.000	-0.004	0.086
-190.187	800.000	0.039	-0.136
-189.173	36.146	0.205	-0.179
-188.158	734.128	0.139	0.368
-187.144	-200.000	-0.025	0.113
-186.129	-79.589	0.370	-0.124
-185.114	309.260	0.106	-0.196
-184.100	-200.000	-0.006	-0.294
-183.085	800.000	-0.026	-0.113
-182.071	800.000	-0.052	0.222
-181.056	20.829	-0.038	0.031
-180.042	-81.306	-0.138	-0.045
-179.027	63.185	-0.253	-0.251
-178.012	268.091	-0.035	-0.061
-176.998	657.602	0.065	0.165
-175.983	330.047	-0.124	-0.236
-174.969	800.000	-0.004	0.011
-173.954	-200.000	0.040	-0.190
-172.939	742.569	-0.019	0.050
-171.925	95.841	0.080	0.090
-170.910	-121.348	-0.134	0.022
-169.896	-52.330	0.200	0.091
-168.881	-74.712	-0.106	-0.038
-167.866	504.471	-0.087	0.198
-166.852	-97.333	0.263	-0.068
-165.837	800.000	-0.032	-0.108
-164.823	101.723	0.134	-0.154
-163.808	298.031	-0.091	-0.165
-162.793	-39.876	-0.472	-0.244
-161.779	-200.000	-0.025	0.123
-160.764	-200.000	0.026	0.262
-159.750	-50.321	-0.116	-0.054
-158.735	104.645	0.123	0.143
-157.720	120.852	0.144	0.177
-156.706	800.000	-0.080	0.251
-155.691	800.000	-0.031	0.128
-154.677	84.507	0.188	0.203
-153.662	61.849	-0.004	0.004
-152.647	-29.817	0.124	0.070
-151.633	-29.843	0.098	-0.055
-150.618	-27.561	-0.078	-0.045
-149.604	223.420	-0.063	0.101
-148.589	6.448	-0.042	-0.031
-147.574	472.898	-0.014	0.032
-146.560	-200.000	0.032	-0.155
-145.545	499.950	0.163	-0.372
-144.531	800.000	0.078	-0.225
-143.516	-184.428	-0.218	-0.004
-142.502	34.594	-0.171	0.148
-141.487	-200.000	0.027	-0.349
-140.472	800.000	0.007	-0.021
-139.458	-25.694	-0.237	-0.138
-138.443	52.657	0.184	0.174
-137.429	-12.209	0.282	0.182
-136.414	286.440	-0.079	-0.140
-135.399	248.031	0.230	0.383
-134.385	-149.595	0.085	-0.007
-133.370	2.086	0.377	0.269
-132.356	-15.914	0.365	0.229
-131.341	5.040	0.154	-0.112
-130.326	-62.541	0.102	0.042
-129.312	71.157	-0.214	0.219
-128.297	93.890	-0.123	0.138
-127.283	102.011	-0.098	0.113
-126.268	-58.426	-0.181	0.078
-125.253	353.336	-0.124	-0.243
-124.239	43.751	0.124	-0.112
-123.224	53.549	0.253	0.239
-122.210	118.180	0.140	-0.170
-121.195	295.817	0.034	-0.061
-120.180	41.282	0.247	0.220
