DTS Sentinel unit serial number:	SN413079Multiplexer serial number:	ORYXHardware model number:	OX4-SRSoftware version number:	ORYX F/W v4.00 Oryx Data Collector v3.7.2.0data status	okinstallation	princeton_trtdifferential loss correction	single-endedforward channel	channel 1reverse channel	N/Adate	2019/09/11time	12:28:11forward acquisition time	60.00reverse acquisition time	0.00gamma	496.2192k internal	0.2294k external	0.2294temperature offset calibration	0.9940default loss term (dB/km)	0.3790temperature slope calibration	1.0000multiplexer offset coefficient	1.0000multiplexer slope coefficient	1.0000fibre end	0.00T internal ref (°C)	40.42T ext. ref 1 (°C)	0.22T ext. ref 2 (°C)	38.37length (m)	temperature (°C)	Stokes	anti-Stokes-747.200	198.783	0.026	0.041
-746.185	-6.815	-0.348	0.242
-745.171	76.706	-0.094	-0.102
-744.156	230.337	0.129	0.216
-743.142	-139.725	-0.147	-0.016
-742.127	-200.000	0.007	0.118
-741.112	-39.548	-0.175	0.094
-740.098	800.000	0.154	0.562
-739.083	-22.345	-0.283	0.175
-738.069	800.000	-0.165	0.500
-737.054	800.000	-0.035	0.122
-736.039	-200.000	0.049	0.376
-735.025	740.346	0.045	-0.122
-734.010	523.658	-0.128	-0.307
-732.996	99.821	-0.131	0.155
-731.981	-200.000	0.028	0.216
-730.966	-73.187	0.335	0.125
-729.952	800.000	-0.028	-0.109
-728.937	-44.511	-0.537	-0.275
-727.923	2.944	-0.179	-0.133
-726.908	-151.017	0.146	0.011
-725.894	-117.174	-0.271	-0.050
-724.879	158.508	0.274	-0.388
-723.864	800.000	-0.045	-0.146
-722.850	-92.255	-0.251	-0.072
-721.835	167.638	-0.180	0.261
-720.821	-13.257	0.249	0.165
-719.806	-200.000	0.057	-0.333
-718.791	-36.625	-0.213	0.117
-717.777	800.000	0.031	0.137
-716.762	481.741	-0.161	0.374
-715.748	-3.114	0.240	-0.171
-714.733	363.350	0.224	-0.459
-713.718	-110.150	-0.424	0.090
-712.704	691.419	-0.083	-0.222
-711.689	-87.879	-0.356	0.109
-710.675	-200.000	-0.003	-0.121
-709.660	-15.539	0.156	-0.102
-708.645	316.679	0.084	-0.162
-707.631	-10.221	-0.137	0.093
-706.616	-199.180	-0.260	0.001
-705.602	93.958	-0.235	0.272
-704.587	45.153	-0.131	-0.124
-703.572	50.356	-0.078	0.075
-702.558	26.246	-0.238	0.203
-701.543	56.926	-0.125	-0.124
-700.529	709.929	-0.119	-0.322
-699.514	-53.793	-0.194	0.091
-698.499	-54.577	0.106	-0.049
-697.485	147.449	-0.228	-0.313
-696.470	-94.830	-0.218	-0.060
-695.456	225.309	-0.046	0.076
-694.441	800.000	0.060	0.236
-693.426	-85.408	0.115	-0.037
-692.412	-13.582	-0.161	0.106
-691.397	-117.613	0.150	-0.028
-690.383	-63.241	-0.243	0.102
-689.368	241.511	0.046	0.078
-688.354	800.000	-0.030	-0.118
-687.339	-200.000	0.027	0.311
-686.324	-200.000	0.018	0.186
-685.310	-109.294	0.183	0.040
-684.295	491.198	0.080	0.188
-683.281	-44.242	0.343	0.175
-682.266	269.115	-0.088	0.158
-681.251	-110.334	0.143	0.030
-680.237	-51.307	-0.120	-0.057
-679.222	77.748	-0.099	0.107
-678.208	-200.000	-0.012	-0.138
-677.193	87.901	0.194	0.219
-676.178	107.870	0.167	-0.203
-675.164	-200.000	0.030	0.245
-674.149	117.971	0.171	0.215
-673.135	800.000	-0.122	0.476
-672.120	74.463	-0.124	-0.132
-671.105	291.387	-0.058	-0.107
-670.091	227.640	-0.166	0.276
-669.076	693.998	-0.109	-0.293
-668.062	800.000	-0.023	0.102
-667.047	33.647	-0.126	0.111
-666.032	202.030	0.187	0.293
-665.018	130.956	-0.164	-0.214
-664.003	-126.621	0.169	-0.026
-662.989	188.467	-0.119	-0.182
-661.974	-32.597	0.113	-0.064
-660.959	-42.245	-0.118	-0.062
-659.945	800.000	-0.057	-0.210
-658.930	115.854	-0.022	0.027
-657.916	189.669	0.023	-0.035
-656.901	124.752	0.083	0.107
-655.886	-138.437	0.083	-0.009
-654.872	-101.309	0.143	0.036
-653.857	15.032	0.175	-0.139
-652.843	-200.000	0.001	-0.302
-651.828	800.000	-0.052	-0.226
-650.814	-200.000	-0.013	0.144
-649.799	153.395	-0.142	0.198
-648.784	-172.936	-0.275	-0.009
-647.770	33.780	-0.356	0.316
-646.755	79.553	0.248	0.271
-645.741	19.913	0.153	-0.126
-644.726	-32.424	-0.165	0.094
-643.711	-93.437	0.175	0.049
-642.697	-46.749	0.103	0.051
-641.682	-155.143	-0.130	-0.009
-640.668	-200.000	0.017	0.307
-639.653	453.088	0.125	-0.281
-638.638	-91.826	0.236	-0.068
-637.624	-43.954	0.297	0.152
-636.609	45.241	0.030	0.029
-635.595	800.000	-0.054	-0.177
-634.580	800.000	0.083	-0.253
-633.565	-158.235	-0.184	0.011
-632.551	-200.000	-0.022	-0.121
-631.536	-54.920	-0.334	0.153
-630.522	-41.674	-0.046	-0.024
-629.507	59.369	-0.201	0.202
-628.492	362.503	-0.163	0.334
-627.478	800.000	-0.048	-0.204
-626.463	-7.842	-0.149	0.102
-625.449	52.720	0.335	0.326
-624.434	258.774	-0.163	-0.286
-623.419	21.959	0.150	-0.124
-622.405	64.697	0.064	0.066
-621.390	-84.251	0.167	-0.054
-620.376	800.000	-0.051	-0.172
-619.361	-71.448	0.262	0.100
-618.346	-169.852	-0.302	-0.011
-617.332	-200.000	-0.000	-0.242
-616.317	185.770	-0.081	-0.123
-615.303	-122.695	0.101	0.017
-614.288	776.545	0.045	0.126
-613.273	79.394	-0.223	-0.244
-612.259	-24.693	-0.124	-0.075
-611.244	7.520	0.094	0.072
-610.230	-200.000	-0.013	0.110
-609.215	-200.000	0.002	0.103
-608.201	800.000	-0.111	0.355
-607.186	362.676	0.123	0.252
-606.171	-53.698	-0.296	-0.138
-605.157	-8.972	0.246	-0.168
-604.142	-200.000	-0.035	-0.380
-603.128	800.000	-0.043	-0.135
-602.113	-200.000	-0.040	0.399
-601.098	74.165	0.042	0.045
-600.084	-200.000	0.002	0.217
-599.069	154.965	-0.277	-0.388
-598.055	-178.529	-0.161	0.004
-597.040	74.079	-0.133	0.142
-596.025	-200.000	0.046	-0.293
-595.011	517.157	0.175	-0.417
-593.996	522.011	-0.139	0.331
-592.982	-120.282	0.184	0.032
-591.967	45.576	0.040	0.038
-590.952	445.587	0.083	-0.186
-589.938	667.355	-0.057	-0.150
-588.923	245.653	-0.124	-0.212
-587.909	23.378	0.202	-0.169
-586.894	109.807	0.075	-0.091
-585.879	800.000	-0.153	0.491
-584.865	-60.681	0.206	-0.089
-583.850	800.000	0.046	-0.181
-582.836	81.307	0.138	0.152
-581.821	-87.463	-0.026	0.008
-580.806	-67.873	0.278	0.110
-579.792	48.951	0.079	-0.075
-578.777	422.013	0.060	0.131
-577.763	-116.320	-0.096	-0.018
-576.748	800.000	-0.074	0.309
-575.733	341.234	0.092	0.183
-574.719	16.764	-0.261	0.210
-573.704	-186.401	-0.066	0.001
-572.690	-197.951	-0.109	-0.001
-571.675	-174.730	0.188	-0.005
-570.661	-130.581	0.284	-0.039
-569.646	-104.670	0.404	-0.094
-568.631	326.261	-0.058	0.113
-567.617	539.244	-0.046	0.110
-566.602	431.900	0.093	-0.204
-565.588	50.015	-0.129	0.124
-564.573	-200.000	-0.015	-0.074
-563.558	800.000	0.070	-0.256
-562.544	-118.430	0.052	-0.009
-561.529	800.000	-0.145	0.411
-560.515	-107.690	0.085	-0.019
-559.500	92.213	0.149	-0.171
-558.485	-200.000	-0.055	0.268
-557.471	102.234	-0.297	0.352
-556.456	393.172	-0.096	0.202
-555.442	78.208	-0.126	0.136
-554.427	3.741	-0.091	-0.067
-553.412	800.000	-0.027	-0.077
-552.398	15.316	-0.143	0.114
-551.383	-109.364	0.222	0.048
-550.369	-200.000	-0.089	0.425
-549.354	-2.888	0.287	-0.204
-548.339	187.971	0.151	0.229
-547.325	-29.674	-0.377	-0.219
-546.310	-200.000	0.027	-0.131
-545.296	-25.221	0.248	-0.149
-544.281	800.000	0.107	-0.342
-543.266	800.000	-0.049	-0.212
-542.252	-200.000	-0.029	-0.397
-541.237	47.150	0.097	-0.092
-540.223	-164.666	0.070	0.003
-539.208	157.597	0.228	0.320
-538.193	141.912	0.058	0.078
-537.179	-136.927	0.124	0.014
-536.164	-200.000	0.039	0.184
-535.150	-50.800	0.197	-0.094
-534.135	-5.166	0.083	0.058
-533.121	-148.668	0.314	0.026
-532.106	-200.000	-0.003	0.363
-531.091	-200.000	-0.032	0.346
-530.077	-200.000	-0.018	0.182
-529.062	239.691	0.132	0.222
-528.048	-22.954	-0.317	-0.194
-527.033	-163.229	0.169	0.008
-526.018	173.692	0.064	0.094
-525.004	106.868	0.166	-0.200
-523.989	138.149	-0.046	0.062
-522.975	37.270	-0.135	0.121
-521.960	334.075	0.059	0.115
-520.945	-37.367	0.082	-0.045
-519.931	-107.619	-0.436	0.097
-518.916	194.602	-0.056	-0.086
-517.902	758.197	0.104	0.285
-516.887	294.852	-0.080	-0.147
-515.872	-24.830	-0.271	0.163
-514.858	416.991	-0.149	0.321
-513.843	-200.000	-0.090	-0.450
-512.829	-200.000	0.005	-0.406
-511.814	112.411	0.051	-0.062
-510.799	289.779	-0.117	-0.215
-509.785	528.575	-0.139	0.333
-508.770	-69.611	-0.305	0.118
-507.756	-155.530	-0.156	0.010
-506.741	417.466	0.073	0.158
-505.726	-200.000	0.045	-0.279
-504.712	-54.885	0.191	-0.087
-503.697	-112.297	-0.334	-0.068
-502.683	800.000	-0.086	0.265
-501.668	34.312	0.015	0.013
-500.653	18.722	0.326	-0.264
-499.639	-200.000	0.009	-0.041
-498.624	33.502	0.050	0.044
-497.610	552.880	0.087	-0.211
-496.595	37.771	0.038	-0.034
-495.581	-110.163	-0.257	-0.054
-494.566	-200.000	-0.012	-0.068
-493.551	800.000	-0.076	0.212
-492.537	-200.000	-0.023	0.268
-491.522	627.434	-0.015	-0.039
-490.508	248.234	0.076	-0.130
-489.493	542.347	-0.080	-0.194
-488.478	-200.000	0.007	-0.038
-487.464	-14.346	-0.091	-0.059
-486.449	49.601	0.024	0.023
-485.435	-200.000	0.018	0.152
-484.420	-103.466	0.147	-0.035
-483.405	800.000	-0.022	0.077
-482.391	800.000	0.061	0.263
-481.376	-10.454	-0.213	-0.143
-480.362	-11.612	0.076	0.051
-479.347	49.403	0.105	0.100
-478.332	274.166	-0.116	0.207
-477.318	800.000	-0.060	-0.239
-476.303	180.507	-0.098	-0.146
-475.289	251.451	-0.128	0.221
-474.274	-110.431	0.176	-0.037
-473.259	-172.563	0.100	0.003
-472.245	-200.000	0.069	-0.353
-471.230	-144.931	-0.303	0.028
-470.216	620.767	-0.051	0.129
-469.201	-84.711	-0.142	0.045
-468.186	800.000	0.034	-0.144
-467.172	-180.860	-0.213	-0.004
-466.157	-200.000	0.033	-0.177
-465.143	149.291	0.281	0.385
-464.128	-72.073	0.165	-0.062
-463.113	-167.946	0.121	-0.005
-462.099	413.442	-0.081	-0.175
-461.084	137.685	0.195	-0.258
-460.070	-162.509	0.046	-0.002
-459.055	5.910	0.109	-0.081
-458.040	-161.602	0.256	-0.013
-457.026	165.321	0.102	-0.146
-456.011	-200.000	-0.009	0.090
-454.997	-200.000	-0.024	-0.213
-453.982	91.323	-0.279	-0.317
-452.968	800.000	-0.064	-0.197
-451.953	-150.360	-0.264	-0.021
-450.938	-109.690	-0.056	0.012
-449.924	-163.020	-0.138	-0.007
-448.909	59.638	-0.210	-0.209
-447.895	-134.605	-0.126	0.016
-446.880	29.500	-0.144	-0.124
-445.865	-91.672	0.108	-0.031
-444.851	-200.000	0.002	0.188
-443.836	-95.233	-0.200	-0.055
-442.822	350.449	-0.063	-0.125
-441.807	-120.187	0.073	-0.013
-440.792	-200.000	-0.028	0.301
-439.778	44.769	-0.125	-0.116
-438.763	77.248	0.248	-0.267
-437.749	73.987	-0.227	0.240
-436.734	131.082	0.192	-0.249
-435.719	435.663	0.057	0.124
-434.705	-191.294	-0.166	0.002
-433.690	-41.626	-0.156	0.081
-432.676	-200.000	0.011	0.239
-431.661	-159.803	-0.231	-0.013
-430.646	-153.954	-0.229	-0.016
-429.632	-122.257	0.126	0.021
-428.617	66.574	0.171	0.176
-427.603	800.000	0.103	-0.390
-426.588	-155.561	0.316	-0.021
-425.573	42.814	-0.207	-0.190
-424.559	76.095	-0.099	0.106
-423.544	80.999	-0.097	-0.105
-422.530	84.980	0.122	-0.135
-421.515	-77.238	-0.053	-0.019
-420.500	156.803	0.129	0.179
-419.486	425.222	-0.139	0.302
-418.471	78.647	0.058	-0.063
-417.457	10.038	-0.252	0.194
-416.442	-65.287	0.528	0.215
-415.428	-106.973	0.206	-0.046
-414.413	39.917	-0.071	0.065
-413.398	43.268	0.211	-0.195
-412.384	22.548	-0.064	-0.053
-411.369	800.000	0.051	0.183
-410.355	-200.000	0.045	0.203
-409.340	-84.997	-0.288	-0.091
-408.325	800.000	0.021	-0.081
-407.311	1.204	-0.309	0.224
-406.296	-200.000	0.031	-0.144
-405.282	800.000	0.075	-0.225
-404.267	-26.520	0.189	0.112
-403.252	166.712	0.243	0.348
-402.238	482.377	0.135	-0.309
-401.223	58.937	0.234	0.232
-400.209	-200.000	-0.031	-0.378
-399.194	-106.003	-0.200	0.045
-398.179	308.784	-0.051	-0.096
-397.165	41.998	-0.153	0.140
-396.150	-14.627	0.149	-0.097
-395.136	112.665	-0.100	0.122
-394.121	-200.000	-0.026	0.120
-393.106	-66.682	-0.291	-0.116
-392.092	124.586	-0.100	-0.127
-391.077	-200.000	-0.055	0.375
-390.063	-126.122	-0.232	0.035
-389.048	-42.599	0.060	-0.031
-388.033	-200.000	0.034	-0.269
-387.019	428.275	0.082	0.179
-386.004	-156.901	-0.241	-0.015
-384.990	-86.457	0.235	-0.073
-383.975	-200.000	-0.059	0.306
-382.960	167.160	0.134	-0.192
-381.946	-8.606	-0.170	-0.115
-380.931	30.399	0.093	0.080
-379.917	-42.655	0.157	-0.080
-378.902	800.000	0.020	0.080
-377.888	-200.000	0.007	0.067
-376.873	-168.961	0.364	0.014
-375.858	-200.000	-0.040	-0.493
-374.844	55.510	-0.137	0.134
-373.829	800.000	0.042	-0.175
-372.815	-65.555	-0.276	-0.111
-371.800	-116.004	-0.327	0.061
-370.785	247.848	-0.090	-0.153
-369.771	61.091	0.073	0.074
-368.756	-100.077	0.140	-0.035
-367.742	-200.000	0.078	0.404
-366.727	-76.040	-0.342	-0.122
-365.712	-200.000	-0.038	-0.289
-364.698	-68.505	-0.043	-0.017
-363.683	430.453	0.088	-0.191
-362.669	800.000	-0.049	-0.137
-361.654	800.000	0.033	0.141
-360.639	800.000	-0.053	0.202
-359.625	-200.000	-0.006	-0.193
-358.610	514.618	-0.105	0.247
-357.596	-200.000	0.041	0.211
-356.581	-200.000	0.014	-0.068
-355.566	295.695	0.124	0.229
-354.552	368.743	0.050	0.102
-353.537	800.000	0.043	0.132
-352.523	800.000	0.020	-0.070
-351.508	347.947	0.194	-0.386
-350.493	-114.049	-0.402	0.078
-349.479	-46.285	-0.173	0.086
-348.464	-61.948	0.401	0.169
-347.450	134.379	-0.186	-0.243
-346.435	-22.818	-0.126	-0.077
-345.420	-200.000	0.006	0.294
-344.406	15.862	0.113	-0.090
-343.391	-5.672	-0.096	-0.066
-342.377	213.783	0.210	-0.334
-341.362	256.799	-0.085	0.147
-340.348	-42.875	0.046	0.024
-339.333	0.975	-0.172	0.124
-338.318	-200.000	0.072	-0.338
-337.304	383.821	-0.015	-0.031
-336.289	9.901	0.375	-0.286
-335.275	78.286	0.210	0.226
-334.260	73.995	0.180	-0.190
-333.245	-55.460	0.353	-0.159
-332.231	-15.641	-0.315	-0.202
-331.216	-200.000	0.014	-0.245
-330.202	-200.000	-0.063	-0.303
-329.187	-75.093	0.210	-0.076
-328.172	-53.693	-0.090	-0.041
-327.158	-96.690	-0.139	0.037
-326.143	-71.652	-0.332	-0.125
-325.129	186.011	0.119	0.178
-324.114	-200.000	0.028	0.142
-323.099	-200.000	0.053	-0.248
-322.085	-200.000	0.040	-0.193
-321.070	-50.922	0.302	0.143
-320.056	105.653	0.285	-0.339
-319.041	-85.528	-0.503	-0.157
-318.026	800.000	0.075	-0.215
-317.012	-95.811	-0.129	-0.035
-315.997	-57.995	-0.124	-0.054
-314.983	-37.477	-0.011	-0.006
-313.968	-77.561	-0.371	0.129
-312.953	-92.303	0.213	0.060
-311.939	3.906	-0.296	0.217
-310.924	-72.396	0.094	0.035
-309.910	-200.000	-0.006	-0.132
-308.895	-200.000	0.010	0.079
-307.880	800.000	-0.112	0.357
-306.866	-51.415	-0.078	0.036
-305.851	-41.551	0.357	-0.184
-304.837	79.924	0.239	-0.258
-303.822	800.000	-0.034	-0.144
-302.807	-200.000	-0.065	-0.366
-301.793	93.246	0.142	-0.161
-300.778	192.236	0.088	0.134
-299.764	-29.482	-0.086	-0.049
-298.749	148.623	-0.149	0.202
-297.735	-79.730	-0.265	-0.090
-296.720	-137.796	-0.114	-0.013
-295.705	-148.210	-0.291	-0.024
-294.691	10.809	-0.077	-0.059
-293.676	133.627	0.317	-0.413
-292.662	-16.401	0.060	0.039
-291.647	-66.047	-0.248	-0.099
-290.632	-200.000	0.004	0.025
-289.618	564.694	0.067	-0.163
-288.603	800.000	0.022	-0.084
-287.589	78.753	0.129	-0.138
-286.574	-129.930	-0.154	0.021
-285.559	352.271	-0.099	-0.197
-284.545	719.576	-0.041	-0.108
-283.530	69.850	0.273	0.283
-282.516	299.139	0.004	-0.008
-281.501	-200.000	0.022	0.097
-280.486	-3.765	0.516	-0.360
-279.472	27.966	-0.173	-0.146
-278.457	-34.447	-0.094	0.052
-277.443	6.679	0.095	0.071
-276.428	-128.514	-0.277	-0.039
-275.413	800.000	-0.066	0.258
-274.399	306.750	0.200	0.374
-273.384	60.280	-0.095	0.094
-272.370	-200.000	0.041	0.242
-271.355	-22.733	-0.206	0.125
-270.340	-102.577	-0.103	0.025
-269.326	19.294	0.275	-0.222
-268.311	5.012	0.091	0.067
-267.297	-200.000	-0.002	-0.153
-266.282	-149.352	-0.112	-0.009
-265.267	424.273	-0.169	-0.365
-264.253	800.000	-0.068	-0.268
-263.238	472.639	-0.120	-0.271
-262.224	-8.869	-0.068	-0.046
-261.209	-200.000	-0.020	-0.305
-260.195	-200.000	0.006	0.222
-259.180	-200.000	-0.034	0.402
-258.165	-200.000	0.005	0.056
-257.151	4.655	0.187	0.138
-256.136	800.000	-0.054	0.187
-255.122	-200.000	-0.007	0.200
-254.107	-25.041	-0.330	-0.196
-253.092	-200.000	-0.021	0.134
-252.078	800.000	-0.049	-0.139
-251.063	696.004	0.072	0.188
-250.049	800.000	0.063	-0.183
-249.034	564.413	0.112	0.273
-248.019	432.139	-0.131	0.284
-247.005	215.060	-0.160	0.254
-245.990	304.319	-0.078	0.146
-244.976	800.000	0.023	-0.083
-243.961	-6.721	0.162	0.110
-242.946	134.468	0.193	0.251
-241.932	64.590	-0.285	-0.288
-240.917	-87.789	-0.471	-0.142
-239.903	-172.777	0.055	0.002
-238.888	-200.000	-0.049	-0.329
-237.873	-45.568	0.211	-0.105
-236.859	60.775	-0.227	0.226
-235.844	32.982	0.156	0.136
-234.830	-136.573	0.171	-0.020
-233.815	800.000	-0.059	-0.211
-232.800	-118.898	0.273	-0.048
-231.786	203.570	-0.139	0.216
-230.771	139.224	-0.158	0.208
-229.757	-76.906	-0.266	0.093
-228.742	94.043	-0.231	0.262
-227.727	-110.976	-0.287	0.059
-226.713	-200.000	-0.012	0.334
-225.698	-79.540	0.284	-0.096
-224.684	-200.000	0.023	0.192
-223.669	-107.884	-0.313	0.068
-222.655	800.000	0.038	-0.133
-221.640	-45.063	0.197	0.098
-220.625	-169.321	0.082	0.003
-219.611	-152.257	0.397	0.029
-218.596	-142.470	0.067	0.007
-217.582	-43.161	-0.133	-0.068
-216.567	99.821	-0.205	-0.238
-215.552	-200.000	0.002	0.442
-214.538	26.556	-0.123	0.103
-213.523	-200.000	0.001	-0.065
-212.509	800.000	0.165	0.459
-211.494	522.715	0.123	-0.289
-210.479	-63.799	-0.173	0.071
-209.465	299.793	0.172	0.317
-208.450	-133.212	0.328	0.041
-207.436	-24.640	0.145	0.086
-206.421	131.381	0.003	-0.004
-205.406	-177.865	-0.244	0.006
-204.392	173.078	-0.124	-0.179
-203.377	130.594	0.073	-0.094
-202.363	-200.000	0.058	-0.485
-201.348	234.167	0.131	0.216
-200.333	-22.603	-0.310	0.188
-199.319	-200.000	-0.021	0.264
-198.304	-11.450	-0.371	0.244
-197.290	716.910	-0.063	-0.168
-196.275	-200.000	-0.004	-0.133
-195.260	527.009	0.098	0.232
-194.246	-64.183	0.283	-0.115
-193.231	266.185	-0.071	0.124
-192.217	50.366	-0.171	-0.162
-191.202	-200.000	0.001	-0.125
-190.187	800.000	-0.054	-0.195
-189.173	-92.732	0.144	0.040
-188.158	-161.553	0.438	0.022
-187.144	-200.000	0.043	0.223
-186.129	-112.263	0.466	-0.094
-185.114	-83.275	-0.265	0.085
-184.100	362.692	0.131	-0.263
-183.085	800.000	0.115	-0.337
-182.071	106.986	-0.135	0.160
-181.056	-109.630	-0.069	0.015
-180.042	29.910	0.061	-0.052
-179.027	-200.000	-0.012	-0.155
-178.012	-63.285	0.442	0.182
-176.998	83.798	-0.172	-0.188
-175.983	91.011	0.251	0.281
-174.969	-159.607	0.304	0.017
-173.954	132.381	0.172	0.221
-172.939	24.538	-0.159	0.132
-171.925	426.389	-0.084	0.180
-170.910	-75.962	0.238	0.084
-169.896	193.587	0.114	0.173
-168.881	-32.318	-0.077	-0.043
-167.866	-200.000	-0.022	0.177
-166.852	-169.745	0.105	0.004
-165.837	57.876	0.222	-0.217
-164.823	-176.765	0.142	-0.004
-163.808	-51.905	0.140	0.065
-162.793	572.880	-0.144	0.351
-161.779	800.000	-0.079	0.224
-160.764	800.000	0.048	0.144
-159.750	9.751	0.193	0.146
-158.735	214.701	-0.109	-0.173
-157.720	156.840	0.186	-0.256
-156.706	-200.000	0.025	-0.479
-155.691	-17.103	0.225	-0.142
-154.677	800.000	-0.093	-0.329
-153.662	50.808	-0.231	-0.218
-152.647	174.161	0.204	0.295
-151.633	-105.083	0.249	0.057
-150.618	335.469	0.057	-0.111
-149.604	-200.000	-0.106	0.468
-148.589	-200.000	0.064	0.294
-147.574	800.000	-0.051	-0.200
-146.560	-39.186	0.055	-0.029
-145.545	-83.959	-0.081	0.026
-144.531	334.120	0.120	-0.232
-143.516	-82.568	0.200	0.065
-142.502	141.907	-0.106	-0.141
-141.487	-200.000	-0.008	-0.046
-140.472	51.439	0.193	-0.183
-139.458	-97.585	0.158	0.041
-138.443	110.773	-0.129	0.155
-137.429	-200.000	0.008	0.106
-136.414	41.761	-0.270	-0.245
-135.399	-103.917	0.031	-0.007
-134.385	116.733	-0.146	0.179
-133.370	-66.029	-0.388	-0.155
-132.356	-143.330	0.365	-0.035
-131.341	800.000	-0.036	0.151
-130.326	-92.549	-0.278	-0.078
-129.312	-200.000	0.017	-0.320
-128.297	-38.758	-0.073	-0.039
-127.283	800.000	-0.060	0.198
-126.268	510.804	-0.125	-0.291
-125.253	428.795	0.109	-0.236
-124.239	-162.930	0.078	0.004
-123.224	331.260	0.075	0.145
-122.210	-131.030	-0.045	0.006
-121.195	495.015	0.091	0.209
