DTS Sentinel unit serial number:	SN413079Multiplexer serial number:	ORYXHardware model number:	OX4-SRSoftware version number:	ORYX F/W v4.00 Oryx Data Collector v3.7.2.0data status	okinstallation	princeton_trtdifferential loss correction	single-endedforward channel	channel 1reverse channel	N/Adate	2019/09/10time	17:00:11forward acquisition time	60.00reverse acquisition time	0.00gamma	496.2192k internal	0.2299k external	0.2299temperature offset calibration	0.9923default loss term (dB/km)	0.3790temperature slope calibration	1.0000multiplexer offset coefficient	1.0000multiplexer slope coefficient	1.0000fibre end	0.00T internal ref (°C)	37.62T ext. ref 1 (°C)	-0.33T ext. ref 2 (°C)	32.20length (m)	temperature (°C)	Stokes	anti-Stokes-747.200	157.681	-0.013	-0.018
-746.185	772.066	0.067	0.187
-745.171	-147.741	-0.129	0.011
-744.156	109.667	0.151	0.185
-743.142	125.747	0.193	-0.249
-742.127	-74.421	-0.296	0.109
-741.112	-64.238	0.034	-0.014
-740.098	-59.321	0.439	0.193
-739.083	-111.961	0.329	-0.068
-738.069	-200.000	-0.016	-0.126
-737.054	-18.818	-0.065	-0.041
-736.039	800.000	0.047	0.146
-735.025	-100.817	-0.380	0.095
-734.010	104.698	0.088	-0.106
-732.996	82.910	0.108	-0.119
-731.981	-200.000	-0.048	0.232
-730.966	-200.000	0.002	0.204
-729.952	15.395	-0.397	0.318
-728.937	448.700	-0.120	-0.269
-727.923	-200.000	-0.003	0.057
-726.908	-24.226	0.202	-0.123
-725.894	689.163	0.115	0.308
-724.879	-76.327	-0.205	-0.074
-723.864	-200.000	0.029	-0.435
-722.850	-90.410	-0.172	0.051
-721.835	-200.000	0.024	-0.201
-720.821	237.172	-0.030	-0.050
-719.806	-14.882	0.247	-0.161
-718.791	244.359	-0.075	-0.128
-717.777	-118.110	0.240	0.044
-716.762	72.625	0.115	-0.122
-715.748	195.687	0.153	-0.237
-714.733	446.867	-0.069	-0.154
-713.718	762.965	-0.011	-0.031
-712.704	-45.461	-0.197	0.100
-711.689	6.853	-0.130	-0.099
-710.675	-200.000	0.012	-0.280
-709.660	231.167	-0.132	-0.220
-708.645	-200.000	-0.052	-0.245
-707.631	-39.943	-0.370	0.197
-706.616	-200.000	0.001	0.208
-705.602	37.750	-0.220	0.199
-704.587	800.000	-0.088	0.325
-703.572	250.530	-0.056	-0.097
-702.558	-97.906	-0.443	-0.117
-701.543	54.388	-0.115	-0.113
-700.529	618.321	-0.070	0.179
-699.514	-44.117	0.114	-0.058
-698.499	165.328	-0.043	0.062
-697.485	-8.910	0.093	0.063
-696.470	-19.301	-0.127	-0.080
-695.456	-64.942	-0.365	0.150
-694.441	450.197	-0.067	-0.151
-693.426	-200.000	-0.069	-0.532
-692.412	67.605	-0.119	-0.124
-691.397	-0.608	0.159	0.115
-690.383	-115.368	-0.394	0.076
-689.368	35.844	-0.150	-0.134
-688.354	22.666	0.153	0.127
-687.339	295.582	-0.063	-0.117
-686.324	-132.765	0.062	-0.008
-685.310	111.739	-0.066	-0.081
-684.295	-82.553	-0.125	0.041
-683.281	-105.519	-0.203	0.047
-682.266	-38.617	0.066	-0.036
-681.251	-92.100	-0.201	0.058
-680.237	-200.000	-0.013	-0.135
-679.222	-200.000	0.001	-0.254
-678.208	-54.375	-0.039	-0.018
-677.193	-200.000	-0.041	-0.400
-676.178	-75.880	-0.055	-0.020
-675.164	-83.414	-0.064	-0.021
-674.149	800.000	-0.081	-0.231
-673.135	50.420	-0.249	0.240
-672.120	-200.000	0.030	-0.524
-671.105	-200.000	-0.031	0.185
-670.091	781.732	-0.077	0.213
-669.076	-129.268	-0.084	-0.012
-668.062	-156.349	0.069	-0.004
-667.047	-200.000	0.053	0.307
-666.032	-86.566	-0.092	-0.029
-665.018	195.699	-0.071	-0.110
-664.003	-77.848	-0.153	-0.054
-662.989	634.913	-0.077	0.199
-661.974	5.547	-0.446	-0.335
-660.959	-200.000	-0.055	0.251
-659.945	-200.000	-0.013	-0.072
-658.930	-200.000	0.002	-0.168
-657.916	-200.000	-0.100	-0.499
-656.901	-31.937	0.182	-0.104
-655.886	-200.000	0.026	0.174
-654.872	-6.830	-0.181	-0.125
-653.857	-200.000	0.014	0.088
-652.843	-200.000	-0.016	0.075
-651.828	800.000	-0.107	-0.393
-650.814	138.242	-0.076	0.101
-649.799	517.459	0.070	-0.167
-648.784	-49.889	0.194	-0.093
-647.770	-37.419	-0.154	-0.084
-646.755	37.683	-0.206	-0.186
-645.741	-147.199	0.171	-0.015
-644.726	18.182	-0.136	0.110
-643.711	-126.345	0.089	-0.013
-642.697	26.539	0.143	0.122
-641.682	4.931	-0.055	0.041
-640.668	-91.291	-0.389	0.113
-639.653	-13.038	-0.148	0.098
-638.638	-67.962	-0.256	-0.101
-637.624	-200.000	-0.019	-0.116
-636.609	189.712	-0.115	0.176
-635.595	800.000	-0.055	0.193
-634.580	800.000	0.107	0.368
-633.565	185.103	0.145	0.219
-632.551	-30.887	0.190	-0.109
-631.536	98.884	-0.212	-0.249
-630.522	-19.522	0.087	0.054
-629.507	-200.000	-0.054	0.387
-628.492	-125.599	0.217	-0.033
-627.478	-58.890	-0.191	0.084
-626.463	227.193	-0.144	-0.238
-625.449	-200.000	0.010	0.243
-624.434	-112.014	-0.376	0.077
-623.419	-142.225	0.216	0.022
-622.405	-6.024	-0.145	0.100
-621.390	125.357	-0.107	-0.138
-620.376	-200.000	0.033	-0.169
-619.361	-161.925	-0.311	-0.016
-618.346	-51.401	-0.239	-0.113
-617.332	-7.925	-0.346	-0.237
-616.317	-142.561	0.149	0.015
-615.303	-200.000	0.017	0.379
-614.288	392.483	-0.067	0.142
-613.273	-79.651	0.366	-0.125
-612.259	800.000	0.070	0.266
-611.244	-49.272	-0.098	-0.048
-610.230	-200.000	0.026	-0.131
-609.215	-200.000	0.020	-0.096
-608.201	295.685	0.088	-0.164
-607.186	319.141	0.134	0.257
-606.171	800.000	-0.072	0.202
-605.157	-109.116	-0.326	-0.070
-604.142	-200.000	0.047	0.227
-603.128	-25.931	-0.160	0.095
-602.113	126.455	-0.125	-0.160
-601.098	79.856	-0.074	-0.081
-600.084	-37.767	-0.429	0.232
-599.069	-200.000	0.009	-0.124
-598.055	-200.000	0.107	-0.540
-597.040	540.935	-0.073	-0.176
-596.025	315.265	-0.086	0.165
-595.011	-200.000	-0.013	0.185
-593.996	21.892	-0.107	-0.088
-592.982	-200.000	-0.034	-0.167
-591.967	-76.827	0.217	0.077
-590.952	-65.018	-0.286	-0.117
-589.938	142.514	-0.022	0.029
-588.923	800.000	0.021	0.077
-587.909	-200.000	0.002	-0.322
-586.894	800.000	0.038	0.141
-585.879	331.650	-0.143	-0.280
-584.865	800.000	-0.098	-0.358
-583.850	197.837	-0.109	0.169
-582.836	-146.407	0.259	0.023
-581.821	34.484	-0.283	-0.250
-580.806	-95.770	-0.069	-0.019
-579.792	341.376	0.101	-0.201
-578.777	11.647	0.031	0.024
-577.763	-28.616	0.160	-0.093
-576.748	-200.000	-0.044	0.394
-575.733	-47.443	0.294	0.145
-574.719	-77.544	-0.211	0.074
-573.704	-200.000	-0.039	-0.359
-572.690	469.889	-0.137	-0.312
-571.675	-200.000	0.034	0.199
-570.661	-112.830	0.461	-0.093
-569.646	24.900	-0.086	-0.072
-568.631	350.282	0.024	-0.048
-567.617	-79.496	0.161	0.055
-566.602	-82.265	-0.067	-0.022
-565.588	-200.000	0.020	0.209
-564.573	-13.586	-0.164	0.107
-563.558	-200.000	-0.027	0.119
-562.544	257.768	-0.124	-0.217
-561.529	-200.000	0.051	0.250
-560.515	359.540	0.117	0.236
-559.500	-200.000	-0.009	0.106
-558.485	-104.194	0.217	0.051
-557.471	-13.315	-0.219	-0.144
-556.456	-101.660	-0.050	0.012
-555.442	-86.477	0.445	-0.139
-554.427	-200.000	-0.003	-0.104
-553.412	168.378	-0.052	-0.075
-552.398	-78.727	0.127	0.044
-551.383	-200.000	-0.028	0.212
-550.369	-93.560	0.029	-0.008
-549.354	-200.000	-0.005	0.257
-548.339	291.891	0.036	-0.066
-547.325	800.000	0.018	0.062
-546.310	-116.294	-0.394	0.074
-545.296	800.000	0.067	-0.286
-544.281	-87.934	0.326	-0.099
-543.266	-200.000	-0.019	-0.238
-542.252	-29.904	0.035	0.020
-541.237	-26.169	0.244	0.145
-540.223	-152.280	0.042	-0.003
-539.208	-200.000	0.063	-0.280
-538.193	129.372	0.096	0.124
-537.179	34.177	0.160	-0.141
-536.164	-150.389	-0.403	-0.031
-535.150	-37.755	0.108	-0.058
-534.135	-181.299	-0.189	0.004
-533.121	-200.000	0.053	-0.506
-532.106	-65.363	0.288	-0.117
-531.091	-200.000	-0.011	0.223
-530.077	-159.418	-0.243	0.014
-529.062	800.000	0.040	0.132
-528.048	88.838	-0.131	0.148
-527.033	-62.139	0.174	0.073
-526.018	-73.196	0.263	-0.098
-525.004	84.959	0.080	0.089
-523.989	148.308	0.167	-0.229
-522.975	-90.148	-0.131	0.039
-521.960	-47.658	-0.133	0.065
-520.945	-200.000	-0.038	0.347
-519.931	767.002	0.134	-0.368
-518.916	-72.927	0.185	-0.069
-517.902	-88.784	0.189	-0.057
-516.887	-60.713	-0.165	0.071
-515.872	-18.721	0.240	0.151
-514.858	60.021	0.213	0.213
-513.843	70.271	0.180	-0.188
-512.829	98.053	-0.078	-0.091
-511.814	-44.102	0.270	-0.137
-510.799	-176.102	-0.272	0.007
-509.785	236.762	-0.068	0.115
-508.770	-200.000	-0.036	-0.305
-507.756	81.735	-0.068	0.074
-506.741	280.398	0.093	0.167
-505.726	-125.968	-0.346	0.053
-504.712	117.281	-0.118	-0.147
-503.697	-124.900	0.276	-0.043
-502.683	185.816	-0.058	-0.088
-501.668	459.507	0.088	0.197
-500.653	230.164	0.054	-0.090
-499.639	397.572	0.149	0.315
-498.624	193.036	-0.084	0.129
-497.610	395.105	-0.031	0.066
-496.595	800.000	0.082	-0.301
-495.581	516.674	0.078	-0.184
-494.566	-191.213	-0.203	-0.002
-493.551	475.477	0.089	0.204
-492.537	-72.906	-0.150	0.056
-491.522	-115.667	-0.196	0.037
-490.508	-200.000	-0.047	0.214
-489.493	-139.515	0.324	-0.035
-488.478	74.741	-0.081	-0.086
-487.464	-200.000	-0.052	-0.398
-486.449	-13.665	0.183	-0.120
-485.435	-200.000	0.007	0.091
-484.420	1.915	-0.092	-0.067
-483.405	10.917	0.298	-0.230
-482.391	681.824	-0.074	0.196
-481.376	-131.140	-0.324	0.044
-480.362	-37.150	-0.259	0.140
-479.347	800.000	-0.051	-0.153
-478.332	211.317	-0.076	-0.121
-477.318	66.039	-0.245	-0.250
-476.303	72.052	0.259	0.273
-475.289	800.000	-0.056	-0.195
-474.274	599.687	-0.087	0.217
-473.259	-116.856	0.152	0.028
-472.245	741.361	0.057	0.156
-471.230	-200.000	0.008	-0.088
-470.216	20.595	-0.277	-0.226
-469.201	355.616	0.243	0.488
-468.186	-13.664	0.069	0.045
-467.172	195.124	0.162	0.249
-466.157	-200.000	-0.022	-0.112
-465.143	-200.000	0.105	-0.500
-464.128	-200.000	0.016	-0.434
-463.113	60.986	-0.228	-0.228
-462.099	-91.174	-0.084	0.024
-461.084	91.555	-0.079	0.089
-460.070	759.180	-0.110	-0.301
-459.055	394.776	0.042	0.089
-458.040	13.786	-0.232	0.182
-457.026	-127.921	-0.350	0.051
-456.011	-4.369	-0.263	0.183
-454.997	-114.116	0.222	0.043
-453.982	-151.027	0.133	-0.010
-452.968	10.782	-0.311	-0.239
-451.953	464.552	0.124	0.280
-450.938	292.072	0.080	0.147
-449.924	-200.000	-0.008	-0.193
-448.909	-175.777	0.183	0.005
-447.895	-116.453	0.187	0.035
-446.880	51.849	-0.221	-0.212
-445.865	193.333	-0.186	0.284
-444.851	90.713	-0.134	0.151
-443.836	-31.609	-0.154	-0.087
-442.822	-25.105	-0.065	0.039
-441.807	-34.042	0.254	0.141
-440.792	219.175	0.131	-0.211
-439.778	-34.841	-0.221	0.122
-438.763	-137.092	-0.386	0.044
-437.749	-16.556	0.072	-0.046
-436.734	-128.394	-0.071	-0.010
-435.719	-33.297	-0.109	-0.061
-434.705	83.037	0.130	0.143
-433.690	-39.925	0.070	0.037
-432.676	535.362	0.131	-0.314
-431.661	101.047	0.137	-0.160
-430.646	-6.494	0.126	0.086
-429.632	-75.106	0.141	-0.051
-428.617	-149.019	-0.402	0.033
-427.603	84.880	0.089	0.099
-426.588	104.181	0.123	0.146
-425.573	-200.000	-0.087	0.398
-424.559	-127.092	0.255	0.038
-423.544	-14.452	-0.161	-0.104
-422.530	-200.000	-0.006	0.112
-421.515	57.036	-0.222	-0.218
-420.500	-141.802	-0.540	0.055
-419.486	-17.471	-0.171	-0.108
-418.471	-79.903	-0.098	-0.033
-417.457	104.223	0.205	-0.243
-416.442	-200.000	-0.031	0.140
-415.428	158.698	-0.148	-0.206
-414.413	-200.000	-0.008	-0.166
-413.398	313.805	0.095	-0.179
-412.384	-44.797	0.041	0.021
-411.369	-128.198	-0.112	-0.016
-410.355	-122.624	-0.073	-0.012
-409.340	-55.700	0.239	0.107
-408.325	41.645	0.054	0.049
-407.311	-123.018	0.326	-0.053
-406.296	85.046	-0.179	-0.197
-405.282	-121.053	-0.221	-0.037
-404.267	306.528	-0.030	0.056
-403.252	-102.617	-0.317	0.076
-402.238	-25.557	0.148	0.088
-401.223	800.000	0.053	0.232
-400.209	75.977	0.076	-0.081
-399.194	-127.868	-0.260	-0.038
-398.179	-200.000	-0.026	-0.289
-397.165	-181.494	-0.152	-0.003
-396.150	467.017	0.084	0.189
-395.136	800.000	-0.035	-0.139
-394.121	55.570	0.198	-0.193
-393.106	148.025	0.208	-0.282
-392.092	273.991	0.129	-0.230
-391.077	2.276	0.134	0.098
-390.063	-200.000	0.031	0.140
-389.048	-85.440	-0.128	0.040
-388.033	-121.714	-0.302	-0.050
-387.019	-155.315	0.411	0.027
-386.004	-200.000	-0.010	0.203
-384.990	107.164	0.032	-0.038
-383.975	-200.000	0.023	0.243
-382.960	-11.786	0.021	0.014
-381.946	-174.744	-0.106	0.003
-380.931	-200.000	-0.040	0.333
-379.917	-96.539	-0.241	0.064
-378.902	-200.000	-0.021	-0.176
-377.888	-126.012	-0.236	-0.036
-376.873	-92.884	0.095	0.027
-375.858	49.437	0.116	-0.110
-374.844	58.864	-0.113	-0.111
-373.829	43.519	0.072	0.066
-372.815	-200.000	0.001	0.237
-371.800	-200.000	0.025	0.217
-370.785	36.396	-0.136	-0.121
-369.771	800.000	0.054	0.175
-368.756	306.178	0.241	0.451
-367.742	800.000	-0.090	0.265
-366.727	41.618	-0.018	-0.016
-365.712	-135.445	0.355	-0.043
-364.698	161.156	0.079	0.112
-363.683	427.911	0.032	0.069
-362.669	-103.887	0.124	0.029
-361.654	-9.454	-0.268	0.180
-360.639	-200.000	-0.091	0.436
-359.625	-91.897	0.294	-0.084
-358.610	-134.017	0.182	-0.023
-357.596	800.000	-0.028	0.121
-356.581	-63.194	0.296	-0.123
-355.566	-14.612	0.231	0.149
-354.552	27.777	-0.279	-0.236
-353.537	-200.000	0.043	0.261
-352.523	-200.000	-0.004	0.324
-351.508	800.000	0.074	0.221
-350.493	82.777	-0.139	-0.152
-349.479	166.936	0.043	-0.062
-348.464	800.000	-0.003	-0.008
-347.450	-200.000	-0.004	-0.242
-346.435	737.456	-0.109	-0.293
-345.420	-63.227	-0.323	-0.134
-344.406	-196.916	0.132	0.001
-343.391	-155.702	-0.213	-0.014
-342.377	524.693	0.118	0.278
-341.362	444.318	-0.043	0.094
-340.348	-160.464	0.441	0.024
-339.333	-200.000	-0.027	-0.194
-338.318	-28.242	0.266	-0.154
-337.304	-200.000	0.032	-0.175
-336.289	800.000	-0.113	-0.375
-335.275	-88.061	-0.242	0.073
-334.260	-109.218	-0.273	0.058
-333.245	-132.149	-0.237	0.031
-332.231	-64.829	-0.217	-0.088
-331.216	-69.001	-0.193	0.075
-330.202	126.319	0.057	0.072
-329.187	-200.000	0.039	-0.205
-328.172	-200.000	-0.022	-0.407
-327.158	169.653	-0.075	0.107
-326.143	-60.803	-0.194	0.082
-325.129	800.000	0.025	0.086
-324.114	-160.670	0.241	0.013
-323.099	4.337	0.223	-0.164
-322.085	32.938	-0.098	0.085
-321.070	-21.861	-0.180	-0.110
-320.056	-200.000	0.020	0.248
-319.041	-68.304	-0.112	0.044
-318.026	-200.000	0.014	0.068
-317.012	589.332	0.136	-0.336
-315.997	433.165	-0.127	-0.276
-314.983	-128.701	0.285	0.040
-313.968	-56.605	0.173	-0.077
-312.953	-1.814	0.190	0.134
-311.939	-200.000	0.004	0.198
-310.924	-200.000	-0.019	0.091
-309.910	-200.000	-0.015	0.088
-308.895	-140.491	-0.176	-0.018
-307.880	168.343	0.235	-0.335
-306.866	-200.000	-0.018	-0.145
-305.851	155.718	0.057	0.079
-304.837	65.525	-0.205	0.208
-303.822	-23.524	-0.053	0.032
-302.807	192.643	-0.219	-0.331
-301.793	-64.874	0.247	-0.100
-300.778	-82.483	-0.276	-0.090
-299.764	181.709	0.037	-0.054
-298.749	276.557	0.127	0.226
-297.735	-200.000	0.023	0.157
-296.720	194.357	0.170	0.258
-295.705	-55.356	-0.201	0.090
-294.691	89.750	0.076	-0.085
-293.676	-51.776	0.328	0.153
-292.662	-200.000	-0.010	-0.096
-291.647	800.000	-0.048	0.177
-290.632	189.888	0.099	0.149
-289.618	-191.166	0.113	0.001
-288.603	-200.000	0.035	0.243
-287.589	45.368	0.196	0.181
-286.574	-53.153	0.367	-0.169
-285.559	-200.000	-0.015	-0.148
-284.545	-127.204	0.107	-0.016
-283.530	-51.940	0.041	-0.019
-282.516	109.128	-0.116	0.140
-281.501	-200.000	-0.142	0.000
-280.486	-200.000	-0.014	-0.088
-279.472	-176.701	0.326	-0.008
-278.457	468.555	0.037	-0.084
-277.443	-38.287	0.172	-0.091
-276.428	-28.857	0.161	-0.093
-275.413	180.671	0.081	-0.119
-274.399	800.000	-0.065	0.232
-273.384	800.000	-0.052	-0.156
-272.370	-76.254	0.288	0.102
-271.355	-150.799	0.049	-0.004
-270.340	-151.850	-0.207	0.015
-269.326	-118.889	-0.115	0.020
-268.311	12.638	-0.309	0.239
-267.297	-165.610	-0.100	-0.004
-266.282	-142.059	0.028	-0.003
-265.267	-76.628	-0.234	-0.082
-264.253	-200.000	0.044	-0.195
-263.238	78.469	-0.074	0.080
-262.224	3.196	0.105	-0.076
-261.209	182.150	0.077	-0.114
-260.195	-8.927	-0.433	-0.290
-259.180	-33.650	0.360	-0.199
-258.165	53.142	-0.365	-0.350
-257.151	546.284	-0.116	0.279
-256.136	-83.549	-0.387	-0.124
-255.122	226.997	0.052	-0.085
-254.107	116.669	0.115	0.141
-253.092	-70.297	-0.159	-0.060
-252.078	-57.448	0.163	0.071
-251.063	800.000	0.023	0.092
-250.049	12.516	0.159	0.123
-249.034	800.000	-0.067	-0.273
-248.019	-25.853	0.103	0.061
-247.005	-101.111	-0.420	-0.103
-245.990	-200.000	-0.072	-0.470
-244.976	633.535	0.041	0.105
-243.961	-157.287	-0.148	0.009
-242.946	-43.877	0.315	-0.159
-241.932	185.310	0.117	-0.173
-240.917	-39.172	-0.181	0.095
-239.903	250.349	0.090	0.154
-238.888	800.000	-0.056	-0.242
-237.873	-200.000	0.005	-0.119
-236.859	781.991	0.113	0.310
-235.844	-200.000	-0.004	-0.249
-234.830	3.724	-0.180	-0.132
-233.815	-200.000	0.003	-0.392
-232.800	17.396	0.130	-0.104
-231.786	-17.687	-0.107	0.067
-230.771	20.046	0.196	0.158
-229.757	-159.749	-0.147	-0.008
-228.742	526.246	0.079	-0.187
-227.727	-5.475	0.136	-0.093
-226.713	361.019	-0.094	0.188
-225.698	7.009	0.198	-0.148
-224.684	473.718	-0.120	0.271
-223.669	-166.680	0.148	0.006
-222.655	365.068	0.100	0.201
-221.640	-200.000	-0.072	0.388
-220.625	779.151	0.056	0.154
-219.611	-26.921	0.262	0.153
-218.596	298.465	-0.031	-0.057
-217.582	507.366	0.084	0.196
-216.567	323.743	0.166	0.317
-215.552	-200.000	0.084	0.398
-214.538	156.654	0.270	0.373
-213.523	206.254	-0.079	0.122
-212.509	16.920	0.018	0.014
-211.494	-122.712	0.235	-0.038
-210.479	-200.000	0.177	0.001
-209.465	-18.727	-0.308	-0.192
-208.450	321.717	0.046	-0.088
-207.436	-67.766	0.316	0.123
-206.421	800.000	-0.019	-0.056
-205.406	-14.762	-0.142	0.091
-204.392	-104.197	-0.214	-0.050
-203.377	-200.000	0.019	0.306
-202.363	800.000	0.042	0.121
-201.348	-123.087	-0.156	-0.025
-200.333	284.660	-0.097	0.174
-199.319	-75.647	0.060	-0.021
-198.304	-200.000	0.043	0.351
-197.290	10.365	0.093	-0.071
-196.275	-111.609	-0.118	-0.024
-195.260	228.731	-0.113	0.185
-194.246	-0.609	0.289	-0.204
-193.231	-57.166	0.219	0.096
-192.217	-7.601	-0.248	-0.168
-191.202	-69.912	0.146	-0.056
-190.187	-200.000	0.048	-0.256
-189.173	18.653	0.097	-0.078
-188.158	28.989	0.123	0.104
-187.144	-200.000	-0.017	0.078
-186.129	-198.285	-0.329	0.002
-185.114	-129.998	0.229	0.031
-184.100	17.227	-0.130	0.103
-183.085	0.677	0.110	-0.079
-182.071	-90.283	-0.198	-0.057
-181.056	21.078	-0.236	0.191
-180.042	-91.603	0.217	-0.062
-179.027	-200.000	0.033	-0.231
-178.012	428.041	0.134	-0.289
-176.998	109.641	-0.227	-0.271
-175.983	-53.168	-0.113	-0.052
-174.969	323.817	0.128	-0.243
-173.954	-8.912	-0.184	0.123
-172.939	743.178	-0.045	0.120
-171.925	-5.938	0.197	0.135
-170.910	283.539	0.023	0.042
-169.896	449.161	-0.083	0.182
-168.881	-136.546	0.162	0.019
-167.866	-200.000	0.015	0.126
-166.852	-27.520	0.087	0.050
-165.837	800.000	0.042	0.169
-164.823	-104.478	-0.050	-0.012
-163.808	-200.000	0.007	0.239
-162.793	204.343	0.161	0.249
-161.779	355.749	0.159	-0.316
-160.764	-64.946	-0.097	-0.039
-159.750	252.532	0.031	-0.053
-158.735	-93.022	0.337	-0.094
-157.720	-95.088	0.063	-0.017
-156.706	-120.447	0.371	0.063
-155.691	-200.000	-0.073	-0.392
-154.677	399.266	0.116	0.243
-153.662	13.712	0.052	-0.040
-152.647	103.019	0.075	-0.088
-151.633	-58.850	-0.216	-0.093
-150.618	800.000	-0.064	-0.188
-149.604	-37.560	-0.202	0.107
-148.589	96.127	-0.140	-0.159
-147.574	261.582	-0.059	0.101
-146.560	-79.149	0.260	-0.088
-145.545	242.475	-0.209	0.348
-144.531	143.915	-0.129	-0.172
-143.516	6.722	0.090	-0.067
-142.502	-124.814	-0.099	-0.015
-141.487	372.463	-0.201	0.407
-140.472	-81.636	-0.251	0.082
-139.458	-107.418	-0.121	0.027
-138.443	408.626	0.038	-0.079
-137.429	-33.373	-0.306	0.169
-136.414	-77.527	0.322	0.111
-135.399	-76.854	0.139	0.048
-134.385	-56.612	-0.079	0.035
-133.370	-200.000	0.040	0.273
-132.356	-200.000	-0.011	0.191
-131.341	-98.539	-0.244	-0.062
-130.326	558.420	-0.044	-0.107
-129.312	403.628	-0.145	0.304
-128.297	-200.000	-0.032	0.504
-127.283	-86.363	0.363	-0.111
-126.268	-200.000	0.024	0.247
-125.253	-191.613	0.182	-0.002
-124.239	58.755	0.137	-0.134
-123.224	-131.029	-0.223	0.030
-122.210	720.184	-0.073	0.193
