DTS Sentinel unit serial number:	SN413079Multiplexer serial number:	ORYXHardware model number:	OX4-SRSoftware version number:	ORYX F/W v4.00 Oryx Data Collector v3.7.2.0data status	okinstallation	princeton_trtdifferential loss correction	single-endedforward channel	channel 1reverse channel	N/Adate	2019/09/11time	20:40:11forward acquisition time	60.00reverse acquisition time	0.00gamma	496.2192k internal	0.2305k external	0.2305temperature offset calibration	1.0044default loss term (dB/km)	0.3790temperature slope calibration	1.0000multiplexer offset coefficient	1.0000multiplexer slope coefficient	1.0000fibre end	0.00T internal ref (°C)	37.27T ext. ref 1 (°C)	1.55T ext. ref 2 (°C)	30.80length (m)	temperature (°C)	Stokes	anti-Stokes-747.200	141.918	-0.111	0.150
-746.185	-200.000	-0.070	0.424
-745.171	800.000	0.028	-0.125
-744.156	581.392	-0.033	0.081
-743.142	-159.728	-0.186	0.010
-742.127	227.016	-0.166	0.275
-741.112	413.948	0.101	-0.219
-740.098	58.567	0.102	0.101
-739.083	-4.360	0.174	-0.122
-738.069	179.730	0.190	0.283
-737.054	131.126	-0.012	0.015
-736.039	122.308	-0.167	-0.213
-735.025	-116.346	0.243	-0.046
-734.010	-200.000	-0.014	-0.361
-732.996	524.503	0.151	0.360
-731.981	135.650	0.113	0.149
-730.966	-50.368	0.121	0.058
-729.952	269.403	0.037	0.067
-728.937	195.346	-0.129	-0.199
-727.923	36.250	-0.151	-0.135
-726.908	-167.561	-0.294	0.012
-725.894	-90.188	-0.243	-0.072
-724.879	769.938	-0.099	-0.274
-723.864	111.409	0.078	0.095
-722.850	300.610	0.187	-0.352
-721.835	74.426	0.151	-0.161
-720.821	-101.674	-0.064	-0.016
-719.806	-13.256	-0.059	-0.039
-718.791	41.760	-0.069	0.063
-717.777	-93.795	0.199	0.056
-716.762	-40.799	0.087	-0.046
-715.748	800.000	0.071	-0.256
-714.733	-82.268	-0.300	-0.099
-713.718	770.127	-0.045	0.123
-712.704	-200.000	-0.021	-0.189
-711.689	-85.355	0.374	-0.119
-710.675	100.382	-0.294	-0.347
-709.660	-200.000	-0.004	-0.299
-708.645	234.478	-0.126	-0.212
-707.631	800.000	0.034	-0.110
-706.616	-200.000	0.020	-0.252
-705.602	452.358	0.041	-0.093
-704.587	-200.000	-0.015	0.186
-703.572	-74.589	-0.250	-0.092
-702.558	-11.817	0.330	0.220
-701.543	-200.000	0.010	-0.196
-700.529	-154.950	-0.238	0.016
-699.514	75.937	0.188	0.202
-698.499	-84.107	0.148	-0.048
-697.485	428.096	-0.129	-0.282
-696.470	76.494	-0.132	-0.142
-695.456	-47.650	-0.087	0.043
-694.441	-64.596	0.418	-0.172
-693.426	-10.027	0.093	0.063
-692.412	-92.800	0.049	0.014
-691.397	-63.445	-0.123	-0.051
-690.383	-26.519	-0.193	-0.115
-689.368	-85.868	-0.092	0.029
-688.354	-200.000	-0.095	-0.436
-687.339	-162.392	0.122	0.006
-686.324	-200.000	0.009	0.056
-685.310	198.147	-0.145	-0.226
-684.295	130.864	-0.166	-0.217
-683.281	530.367	0.141	-0.338
-682.266	-24.018	-0.093	0.056
-681.251	-200.000	-0.011	-0.076
-680.237	-26.474	-0.192	-0.114
-679.222	-200.000	0.009	-0.139
-678.208	800.000	0.097	0.318
-677.193	-200.000	-0.174	0.001
-676.178	144.925	-0.126	-0.172
-675.164	-109.727	-0.094	-0.020
-674.149	-116.302	-0.245	-0.046
-673.135	-112.434	-0.331	-0.067
-672.120	800.000	-0.088	-0.377
-671.105	-28.706	-0.110	-0.064
-670.091	-161.088	0.240	-0.013
-669.076	33.445	-0.172	0.152
-668.062	-50.365	-0.373	0.179
-667.047	-69.880	0.217	-0.084
-666.032	99.823	-0.108	-0.127
-665.018	800.000	-0.028	-0.080
-664.003	-96.429	-0.380	-0.102
-662.989	-49.441	0.089	-0.043
-661.974	-84.219	-0.258	-0.083
-660.959	-147.025	0.094	0.008
-659.945	-140.580	-0.180	0.019
-658.930	-75.797	-0.384	0.138
-657.916	619.301	-0.100	0.256
-656.901	800.000	0.073	-0.216
-655.886	-85.094	0.045	0.014
-654.872	302.148	0.091	-0.171
-653.857	61.784	-0.211	-0.213
-652.843	6.577	0.093	-0.070
-651.828	-125.440	-0.136	-0.021
-650.814	734.917	-0.098	-0.267
-649.799	-171.631	-0.331	-0.011
-648.784	-78.455	0.198	-0.069
-647.770	-106.166	-0.440	0.100
-646.755	120.811	-0.271	0.341
-645.741	-38.700	0.201	-0.108
-644.726	72.676	0.084	-0.089
-643.711	-74.661	-0.243	-0.089
-642.697	-107.209	-0.121	0.027
-641.682	53.926	0.292	-0.284
-640.668	36.948	-0.096	0.086
-639.653	171.807	-0.112	-0.163
-638.638	-68.304	-0.394	-0.155
-637.624	-28.150	-0.251	-0.147
-636.609	252.127	-0.219	0.377
-635.595	45.102	-0.199	-0.186
-634.580	-200.000	-0.021	0.140
-633.565	255.406	-0.109	-0.190
-632.551	800.000	-0.084	0.241
-631.536	-200.000	-0.008	-0.074
-630.522	-59.639	-0.287	0.125
-629.507	22.951	-0.084	-0.070
-628.492	37.111	-0.156	-0.140
-627.478	254.056	-0.157	-0.273
-626.463	-93.716	0.175	-0.049
-625.449	-200.000	-0.003	0.075
-624.434	512.444	-0.070	-0.164
-623.419	-110.515	-0.137	-0.029
-622.405	-114.136	-0.304	0.060
-621.390	-68.224	0.391	0.154
-620.376	-43.881	-0.136	-0.069
-619.361	-0.622	0.293	0.210
-618.346	800.000	-0.074	-0.251
-617.332	-200.000	-0.042	0.256
-616.317	-200.000	-0.041	-0.258
-615.303	694.577	-0.109	0.289
-614.288	598.030	0.135	-0.338
-613.273	800.000	-0.023	0.073
-612.259	246.647	-0.157	-0.268
-611.244	-200.000	0.030	-0.170
-610.230	-98.256	0.157	-0.041
-609.215	480.290	-0.030	0.069
-608.201	-145.908	-0.070	0.006
-607.186	-47.640	0.179	-0.088
-606.171	-153.185	0.138	-0.010
-605.157	108.726	-0.235	-0.284
-604.142	-8.215	-0.134	-0.092
-603.128	-5.391	0.217	-0.150
-602.113	-87.606	0.235	-0.072
-601.098	-200.000	0.012	-0.114
-600.084	-18.973	-0.270	0.170
-599.069	-200.000	-0.024	-0.130
-598.055	114.279	0.104	0.128
-597.040	42.862	0.104	-0.096
-596.025	-12.350	0.020	0.014
-595.011	371.645	0.066	-0.136
-593.996	125.622	-0.044	0.056
-592.982	-161.408	-0.070	-0.004
-591.967	-34.398	-0.026	-0.015
-590.952	97.806	-0.340	-0.396
-589.938	9.599	-0.070	-0.054
-588.923	216.167	-0.039	0.063
-587.909	800.000	-0.059	0.217
-586.894	-200.000	0.036	-0.196
-585.879	-66.000	-0.212	0.086
-584.865	-2.958	-0.041	0.029
-583.850	-59.145	-0.253	0.110
-582.836	-80.380	-0.150	0.051
-581.821	-200.000	-0.038	0.172
-580.806	-79.676	-0.285	-0.097
-579.792	113.230	-0.075	-0.091
-578.777	-40.213	0.434	0.229
-577.763	-76.538	-0.144	-0.051
-576.748	-126.513	0.091	0.014
-575.733	-200.000	0.003	-0.156
-574.719	-77.044	0.348	-0.123
-573.704	-23.582	-0.112	0.068
-572.690	-135.869	-0.100	-0.012
-571.675	300.132	-0.103	0.192
-570.661	594.052	-0.127	-0.318
-569.646	-200.000	-0.003	-0.085
-568.631	-48.643	-0.390	-0.190
-567.617	-7.744	0.347	0.237
-566.602	-145.975	0.092	-0.008
-565.588	777.046	-0.050	-0.137
-564.573	231.785	0.039	0.064
-563.558	-200.000	-0.028	-0.269
-562.544	170.828	0.120	0.173
-561.529	-8.490	-0.048	0.033
-560.515	-200.000	0.114	-0.641
-559.500	64.229	-0.276	-0.281
-558.485	87.282	-0.142	-0.159
-557.471	520.609	-0.075	0.178
-556.456	198.076	0.144	-0.223
-555.442	-184.242	0.118	0.002
-554.427	-44.435	-0.091	-0.046
-553.412	-36.081	0.272	-0.148
-552.398	-131.376	-0.277	0.037
-551.383	-200.000	-0.047	-0.358
-550.369	314.739	-0.073	0.139
-549.354	-18.081	0.400	-0.253
-548.339	60.509	0.358	-0.358
-547.325	-107.027	0.079	0.018
-546.310	-31.259	0.160	0.091
-545.296	-200.000	0.046	-0.293
-544.281	287.367	0.200	0.364
-543.266	87.385	0.082	-0.092
-542.252	-39.182	0.282	0.150
-541.237	-200.000	0.009	0.182
-540.223	-37.095	0.244	0.132
-539.208	185.521	-0.189	-0.284
-538.193	-88.717	-0.428	-0.129
-537.179	-19.321	0.053	-0.033
-536.164	152.958	-0.047	0.065
-535.150	-147.777	0.166	0.014
-534.135	-180.826	0.104	0.002
-533.121	-11.040	-0.208	-0.138
-532.106	-200.000	-0.002	-0.176
-531.091	40.355	-0.074	0.067
-530.077	117.753	-0.244	-0.304
-529.062	800.000	0.121	0.343
-528.048	157.544	-0.296	0.414
-527.033	-151.728	0.153	-0.011
-526.018	800.000	0.068	-0.207
-525.004	265.023	0.013	0.022
-523.989	-23.290	-0.307	0.187
-522.975	-123.254	-0.435	0.070
-521.960	113.772	-0.094	0.115
-520.945	-85.015	0.116	0.037
-519.931	-80.273	0.142	-0.048
-518.916	105.376	-0.124	0.147
-517.902	-54.544	-0.062	0.028
-516.887	-200.000	-0.018	-0.314
-515.872	-180.247	0.290	0.006
-514.858	45.077	-0.054	0.050
-513.843	-200.000	0.015	-0.109
-512.829	381.572	-0.062	-0.129
-511.814	-52.753	-0.259	0.120
-510.799	-200.000	0.031	0.138
-509.785	-200.000	0.022	-0.389
-508.770	-200.000	0.009	-0.064
-507.756	65.220	0.132	-0.134
-506.741	193.660	-0.235	-0.359
-505.726	-114.133	-0.236	0.046
-504.712	643.177	-0.024	0.062
-503.697	-73.365	-0.199	0.073
-502.683	-200.000	-0.001	-0.366
-501.668	-132.791	0.500	-0.064
-500.653	82.934	0.251	-0.275
-499.639	-32.760	0.101	0.056
-498.624	-59.263	-0.110	0.048
-497.610	30.895	0.045	0.039
-496.595	-70.519	-0.429	-0.164
-495.581	-95.492	-0.353	-0.096
-494.566	102.742	-0.152	0.180
-493.551	-200.000	-0.038	0.347
-492.537	800.000	-0.089	0.369
-491.522	-83.178	-0.077	-0.025
-490.508	800.000	-0.055	-0.179
-489.493	218.452	0.158	0.255
-488.478	731.825	-0.161	0.433
-487.464	-82.659	-0.375	-0.122
-486.449	605.793	-0.087	0.218
-485.435	-113.378	0.141	0.028
-484.420	-200.000	-0.007	0.108
-483.405	300.732	0.097	-0.181
-482.391	-39.066	-0.178	-0.094
-481.376	-28.500	0.115	-0.067
-480.362	-200.000	-0.009	0.340
-479.347	-200.000	-0.050	-0.258
-478.332	-93.838	-0.072	0.020
-477.318	-164.662	-0.338	-0.015
-476.303	5.509	0.052	0.039
-475.289	275.225	-0.092	-0.163
-474.274	-119.093	-0.095	-0.017
-473.259	-120.839	0.286	0.049
-472.245	-49.847	0.067	-0.032
-471.230	-43.882	-0.148	0.075
-470.216	-95.898	-0.049	0.013
-469.201	164.766	-0.083	0.118
-468.186	-200.000	-0.013	-0.123
-467.172	800.000	-0.102	-0.423
-466.157	-21.477	-0.248	0.152
-465.143	-143.767	-0.208	0.020
-464.128	-118.817	0.321	0.057
-463.113	45.012	0.143	0.132
-462.099	209.594	0.032	0.050
-461.084	-57.349	-0.072	-0.032
-460.070	111.703	-0.105	0.127
-459.055	-200.000	0.026	0.272
-458.040	-200.000	-0.035	-0.366
-457.026	-18.905	-0.086	-0.054
-456.011	243.940	0.140	0.236
-454.997	-153.898	-0.230	0.016
-453.982	-38.050	0.075	-0.040
-452.968	143.882	-0.184	-0.247
-451.953	80.107	0.114	0.124
-450.938	-200.000	0.006	0.142
-449.924	800.000	-0.048	0.209
-448.909	-25.240	0.086	0.051
-447.895	85.791	0.148	-0.163
-446.880	299.629	0.116	0.215
-445.865	-200.000	0.032	-0.153
-444.851	51.295	0.389	0.371
-443.836	158.310	-0.192	0.267
-442.822	-200.000	-0.030	-0.136
-441.807	160.774	-0.142	-0.200
-440.792	-200.000	0.003	-0.343
-439.778	-152.235	-0.185	-0.013
-438.763	91.479	0.180	-0.203
-437.749	-79.621	0.158	0.054
-436.734	-200.000	0.043	0.193
-435.719	-129.140	0.177	0.025
-434.705	-52.980	0.333	-0.154
-433.690	-200.000	-0.032	-0.316
-432.676	-113.384	0.228	0.045
-431.661	168.579	0.173	0.248
-430.646	45.788	0.160	0.149
-429.632	132.592	0.257	-0.333
-428.617	800.000	0.091	0.253
-427.603	69.617	-0.298	0.309
-426.588	0.958	-0.262	-0.189
-425.573	-200.000	-0.004	0.022
-424.559	44.077	0.189	-0.174
-423.544	24.326	-0.178	0.147
-422.530	21.756	0.100	-0.082
-421.515	68.092	0.284	-0.292
-420.500	-200.000	0.013	-0.139
-419.486	35.277	0.238	0.210
-418.471	26.865	-0.035	-0.029
-417.457	-200.000	-0.035	0.231
-416.442	-200.000	-0.033	-0.183
-415.428	-81.820	0.244	-0.080
-414.413	800.000	-0.042	-0.152
-413.398	-56.493	0.248	0.110
-412.384	-68.194	0.159	-0.062
-411.369	115.618	-0.085	-0.104
-410.355	-200.000	-0.022	-0.153
-409.340	-76.209	0.166	-0.059
-408.325	-136.351	-0.188	0.022
-407.311	800.000	0.111	0.422
-406.296	74.109	0.104	0.109
-405.282	-200.000	0.051	-0.236
-404.267	-20.103	0.455	0.282
-403.252	537.127	0.221	0.526
-402.238	626.635	0.043	-0.109
-401.223	800.000	-0.029	-0.123
-400.209	497.504	0.038	0.088
-399.194	-130.064	0.153	-0.021
-398.179	757.427	0.031	0.085
-397.165	19.344	0.140	-0.113
-396.150	800.000	-0.098	-0.330
-395.136	-189.577	-0.298	0.003
-394.121	-16.926	-0.139	-0.088
-393.106	0.278	0.131	-0.093
-392.092	504.561	0.138	-0.322
-391.077	-47.126	0.373	0.182
-390.063	800.000	0.081	-0.284
-389.048	-59.306	-0.157	-0.068
-388.033	-200.000	-0.052	0.295
-387.019	-177.477	0.334	0.008
-386.004	-78.197	-0.155	0.053
-384.990	800.000	0.082	0.235
-383.975	-79.779	-0.181	0.061
-382.960	-98.095	0.194	0.050
-381.946	119.208	-0.171	0.212
-380.931	438.622	0.075	-0.164
-379.917	30.732	-0.062	0.053
-378.902	-142.168	0.200	-0.020
-377.888	-14.725	0.217	0.140
-376.873	800.000	0.054	-0.170
-375.858	-14.540	-0.309	0.199
-374.844	367.020	-0.141	0.286
-373.829	-165.581	0.236	0.010
-372.815	31.602	-0.067	-0.058
-371.800	409.539	0.117	-0.248
-370.785	-117.126	-0.368	0.067
-369.771	-90.878	0.237	0.068
-368.756	62.200	0.172	-0.172
-367.742	-23.134	-0.085	0.051
-366.727	274.931	0.160	-0.284
-365.712	-6.638	0.223	0.152
-364.698	788.804	-0.094	0.258
-363.683	10.013	-0.076	0.058
-362.669	-75.225	-0.190	0.068
-361.654	130.649	0.248	0.319
-360.639	164.953	-0.233	-0.330
-359.625	541.676	0.068	-0.163
-358.610	296.574	-0.162	0.298
-357.596	-200.000	0.021	0.240
-356.581	-92.443	0.340	0.096
-355.566	291.451	-0.221	-0.403
-354.552	-200.000	0.074	0.354
-353.537	-98.533	-0.301	0.077
-352.523	115.602	0.065	0.079
-351.508	-176.661	-0.502	-0.013
-350.493	-81.520	-0.342	-0.113
-349.479	161.558	-0.118	-0.165
-348.464	4.067	-0.182	-0.133
-347.450	5.527	-0.188	-0.139
-346.435	800.000	0.103	-0.348
-345.420	-14.113	-0.125	0.081
-344.406	38.312	0.252	0.225
-343.391	-65.057	0.159	0.064
-342.377	800.000	-0.091	0.376
-341.362	577.093	-0.043	-0.104
-340.348	-35.679	-0.182	0.099
-339.333	134.166	0.036	0.047
-338.318	-60.081	-0.387	0.166
-337.304	800.000	-0.062	-0.257
-336.289	-20.690	0.282	0.174
-335.275	-200.000	-0.014	0.146
-334.260	-125.932	0.365	-0.055
-333.245	-80.988	-0.236	0.078
-332.231	-124.431	0.253	-0.039
-331.216	19.561	0.120	-0.096
-330.202	403.136	-0.242	-0.510
-329.187	473.088	-0.048	0.109
-328.172	407.282	-0.057	-0.122
-327.158	-200.000	-0.012	-0.392
-326.143	-200.000	-0.060	0.287
-325.129	-200.000	0.076	0.575
-324.114	-162.043	0.202	-0.010
-323.099	-200.000	-0.010	0.139
-322.085	84.904	-0.190	0.209
-321.070	-200.000	-0.016	0.157
-320.056	-90.653	-0.141	0.041
-319.041	800.000	0.041	0.117
-318.026	38.856	0.343	-0.307
-317.012	-153.581	-0.188	-0.013
-315.997	-126.561	0.097	-0.014
-314.983	495.506	0.095	-0.218
-313.968	92.629	-0.043	0.048
-312.953	59.423	0.023	0.023
-311.939	78.493	0.069	0.074
-310.924	85.031	0.125	0.137
-309.910	57.191	-0.076	-0.074
-308.895	400.428	-0.035	0.073
-307.880	-183.261	0.327	-0.006
-306.866	800.000	-0.089	0.276
-305.851	-18.930	-0.271	0.169
-304.837	800.000	0.055	-0.179
-303.822	362.672	0.057	0.115
-302.807	-112.310	-0.303	0.061
-301.793	369.449	-0.047	-0.095
-300.778	102.739	-0.116	-0.136
-299.764	800.000	-0.067	0.287
-298.749	98.313	-0.163	0.187
-297.735	11.924	-0.050	0.039
-296.720	-90.329	-0.300	0.087
-295.705	-89.877	0.038	-0.011
-294.691	-200.000	0.045	0.208
-293.676	564.905	0.096	0.232
-292.662	47.330	-0.072	0.067
-291.647	146.205	0.151	0.203
-290.632	-45.493	-0.255	0.126
-289.618	-167.098	0.322	0.013
-288.603	-34.507	0.098	0.054
-287.589	-85.280	-0.184	-0.058
-286.574	800.000	0.015	-0.046
-285.559	146.971	0.053	0.071
-284.545	-200.000	-0.083	0.482
-283.530	-200.000	0.020	-0.149
-282.516	-16.197	0.203	0.129
-281.501	-83.713	-0.238	0.076
-280.486	3.303	0.160	0.117
-279.472	-96.764	-0.187	0.049
-278.457	37.879	-0.276	-0.245
-277.443	-50.239	-0.115	-0.055
-276.428	800.000	0.062	-0.237
-275.413	712.001	0.107	0.284
-274.399	-50.690	0.027	0.013
-273.384	45.878	0.244	0.226
-272.370	800.000	-0.037	-0.122
-271.355	-99.939	0.279	0.070
-270.340	-16.423	0.127	-0.080
-269.326	-157.516	-0.273	0.016
-268.311	-138.758	-0.266	-0.029
-267.297	-57.592	0.308	-0.135
-266.282	-21.875	0.477	-0.290
-265.267	-141.550	-0.184	-0.019
-264.253	-197.325	-0.102	0.001
-263.238	-49.844	-0.298	0.141
-262.224	714.682	-0.046	0.122
-261.209	-88.765	0.352	-0.104
-260.195	-32.100	0.212	0.119
-259.180	20.294	-0.076	-0.061
-258.165	-41.156	0.209	0.108
-257.151	348.840	-0.051	-0.100
-256.136	-200.000	-0.034	-0.356
-255.122	-107.883	0.414	-0.090
-254.107	413.394	0.140	0.297
-253.092	189.162	0.158	-0.236
-252.078	-36.932	0.026	0.014
-251.063	-69.268	-0.140	-0.054
-250.049	206.785	-0.072	0.113
-249.034	-181.488	-0.292	0.006
-248.019	-52.497	0.349	-0.161
-247.005	147.844	0.141	-0.190
-245.990	189.759	0.177	-0.265
-244.976	-99.648	0.358	0.090
-243.961	-131.539	0.288	0.038
-242.946	-200.000	-0.011	-0.064
-241.932	522.858	-0.087	0.204
-240.917	-200.000	0.079	-0.386
-239.903	483.092	-0.050	-0.114
-238.888	227.712	0.109	-0.176
-237.873	-135.734	0.168	0.020
-236.859	-68.680	-0.333	-0.129
-235.844	-200.000	0.017	0.199
-234.830	409.470	0.069	0.145
-233.815	800.000	0.082	-0.228
-232.800	363.639	-0.098	0.197
-231.786	-89.042	-0.121	-0.036
-230.771	678.130	0.086	0.224
-229.757	529.719	0.071	0.167
-228.742	226.259	0.098	-0.158
-227.727	-200.000	-0.014	-0.121
-226.713	-136.063	-0.104	0.012
-225.698	800.000	0.071	0.239
-224.684	499.904	0.193	-0.443
-223.669	-200.000	-0.031	0.157
-222.655	-3.005	-0.138	-0.096
-221.640	-200.000	0.001	0.092
-220.625	145.961	0.276	-0.368
-219.611	-48.685	0.039	-0.019
-218.596	117.023	-0.210	0.257
-217.582	348.878	0.143	0.281
-216.567	800.000	0.053	-0.227
-215.552	-98.376	0.198	0.051
-214.538	-70.021	-0.213	-0.081
-213.523	-10.005	0.231	-0.153
-212.509	-200.000	0.002	0.062
-211.494	140.278	0.192	0.252
-210.479	-101.969	0.311	0.075
-209.465	-103.302	-0.251	0.059
-208.450	-122.627	-0.362	0.059
-207.436	-55.382	0.214	0.096
-206.421	-37.269	0.189	-0.101
-205.406	337.775	0.120	-0.233
-204.392	173.057	0.188	0.270
-203.377	-200.000	0.016	0.355
-202.363	800.000	0.113	-0.437
-201.348	-75.224	-0.146	0.052
-200.333	35.447	-0.065	0.056
-199.319	293.380	0.037	-0.067
-198.304	465.571	0.012	-0.027
-197.290	-42.516	0.176	0.090
-196.275	-142.428	-0.294	0.029
-195.260	26.550	0.204	0.170
-194.246	-114.730	0.254	-0.048
-193.231	-20.657	0.148	0.090
-192.217	6.651	0.216	0.160
-191.202	265.080	0.085	0.148
-190.187	12.849	0.259	-0.200
-189.173	121.389	0.352	0.437
-188.158	205.500	0.070	0.108
-187.144	-51.836	-0.439	0.203
-186.129	-91.570	-0.703	-0.199
-185.114	183.346	0.262	0.386
-184.100	-200.000	-0.030	0.244
-183.085	77.405	-0.148	-0.157
-182.071	-19.994	0.069	-0.042
-181.056	-29.617	-0.150	-0.085
-180.042	154.247	-0.173	0.236
-179.027	111.733	0.115	0.138
-178.012	-0.012	0.193	-0.137
-176.998	800.000	0.136	-0.437
-175.983	628.114	-0.065	0.163
-174.969	-36.089	-0.098	-0.053
-173.954	144.908	-0.167	0.222
-172.939	-138.388	-0.324	0.036
-171.925	11.722	-0.273	0.209
-170.910	-125.741	-0.236	-0.036
-169.896	485.732	-0.130	0.294
-168.881	-20.888	-0.160	0.098
-167.866	800.000	-0.086	-0.295
-166.852	100.792	0.248	0.287
-165.837	800.000	0.053	0.164
-164.823	55.704	-0.272	-0.262
-163.808	-73.194	0.279	-0.102
-162.793	87.216	0.142	0.157
-161.779	149.043	0.125	-0.168
-160.764	-53.806	0.103	0.047
-159.750	-200.000	-0.026	-0.197
-158.735	-54.539	-0.246	0.111
-157.720	-166.183	0.306	-0.013
-156.706	-159.456	0.129	0.007
-155.691	-200.000	0.057	-0.277
-154.677	-200.000	0.021	0.100
-153.662	-71.798	0.193	-0.071
-152.647	-90.747	0.071	-0.020
-151.633	-117.794	0.163	-0.029
-150.618	293.182	0.128	0.233
-149.604	-200.000	-0.001	-0.021
-148.589	140.668	-0.040	0.053
-147.574	-65.120	0.126	0.050
-146.560	43.018	0.086	-0.078
-145.545	262.348	0.005	-0.009
-144.531	-132.688	0.486	0.062
-143.516	-162.574	0.068	0.003
-142.502	-40.319	0.202	0.105
-141.487	-200.000	0.033	-0.269
-140.472	122.936	0.107	-0.133
-139.458	-50.936	0.176	0.082
-138.443	-200.000	0.035	-0.279
-137.429	-48.423	-0.182	-0.087
-136.414	-200.000	-0.036	0.309
-135.399	-17.608	-0.178	-0.111
-134.385	359.893	-0.106	-0.211
-133.370	-25.236	-0.057	0.033
-132.356	-200.000	-0.032	0.223
-131.341	-136.331	-0.075	-0.009
-130.326	800.000	0.041	-0.168
-129.312	-200.000	0.009	-0.167
-128.297	800.000	0.019	-0.065
-127.283	16.894	0.137	0.108
-126.268	-122.285	0.405	0.066
-125.253	800.000	-0.096	-0.264
-124.239	-140.918	-0.360	0.037
-123.224	155.520	0.027	-0.037
-122.210	800.000	0.081	0.291
