DTS Sentinel unit serial number:	SN413079Multiplexer serial number:	ORYXHardware model number:	OX4-SRSoftware version number:	ORYX F/W v4.00 Oryx Data Collector v3.7.2.0data status	okinstallation	princeton_trtdifferential loss correction	single-endedforward channel	channel 1reverse channel	N/Adate	2019/09/11time	23:36:11forward acquisition time	60.00reverse acquisition time	0.00gamma	496.2192k internal	0.2318k external	0.2318temperature offset calibration	1.0066default loss term (dB/km)	0.3790temperature slope calibration	1.0000multiplexer offset coefficient	1.0000multiplexer slope coefficient	1.0000fibre end	0.00T internal ref (°C)	34.16T ext. ref 1 (°C)	1.85T ext. ref 2 (°C)	28.60length (m)	temperature (°C)	Stokes	anti-Stokes-747.200	-2.397	-0.153	-0.109
-746.185	-130.607	0.120	-0.016
-745.171	-200.000	0.013	0.112
-744.156	104.000	0.264	0.314
-743.142	121.409	0.312	-0.394
-742.127	800.000	-0.024	0.092
-741.112	-73.423	-0.116	0.043
-740.098	22.620	0.081	-0.067
-739.083	-200.000	0.007	-0.205
-738.069	-200.000	0.005	0.131
-737.054	-39.638	0.201	-0.106
-736.039	571.604	-0.158	0.388
-735.025	199.452	0.083	-0.129
-734.010	800.000	-0.090	-0.337
-732.996	-176.105	-0.420	-0.011
-731.981	-200.000	-0.039	0.284
-730.966	800.000	0.023	0.094
-729.952	800.000	-0.096	-0.319
-728.937	-90.770	-0.240	0.070
-727.923	608.731	-0.072	0.181
-726.908	-200.000	-0.038	0.271
-725.894	20.371	-0.112	-0.091
-724.879	-159.299	-0.082	-0.005
-723.864	-6.059	-0.296	-0.205
-722.850	-58.731	-0.183	-0.080
-721.835	-200.000	0.044	0.347
-720.821	171.097	-0.072	-0.104
-719.806	14.919	-0.110	-0.087
-718.791	-128.682	0.267	0.038
-717.777	-76.490	-0.168	-0.060
-716.762	171.991	-0.166	-0.241
-715.748	-97.836	0.171	0.045
-714.733	-200.000	-0.019	-0.181
-713.718	-70.740	0.160	-0.061
-712.704	232.028	0.085	0.140
-711.689	-200.000	0.051	-0.229
-710.675	-133.453	-0.173	0.022
-709.660	-200.000	-0.007	-0.157
-708.645	34.757	0.038	-0.034
-707.631	22.169	0.065	-0.054
-706.616	16.837	0.162	-0.130
-705.602	-104.163	-0.211	-0.050
-704.587	-26.203	-0.186	-0.110
-703.572	43.541	-0.159	-0.147
-702.558	-200.000	-0.043	-0.464
-701.543	800.000	0.088	-0.257
-700.529	-131.025	-0.116	-0.016
-699.514	32.140	-0.388	-0.338
-698.499	-79.922	-0.166	-0.056
-697.485	136.860	0.101	-0.133
-696.470	-95.539	-0.237	-0.064
-695.456	-110.856	0.278	0.058
-694.441	391.099	-0.118	0.248
-693.426	-147.921	0.298	0.025
-692.412	-200.000	0.003	-0.145
-691.397	-60.175	-0.062	-0.027
-690.383	-123.312	0.238	0.038
-689.368	197.847	-0.067	0.103
-688.354	9.663	-0.272	-0.208
-687.339	309.016	0.131	-0.247
-686.324	766.714	-0.048	-0.131
-685.310	-200.000	0.010	-0.085
-684.295	-108.840	-0.253	0.055
-683.281	-200.000	-0.091	-0.438
-682.266	-10.886	-0.149	-0.099
-681.251	556.904	-0.054	0.130
-680.237	73.268	-0.063	0.067
-679.222	-200.000	0.027	0.302
-678.208	549.216	0.081	-0.195
-677.193	-74.420	-0.467	0.170
-676.178	-200.000	-0.008	0.127
-675.164	101.580	-0.229	-0.270
-674.149	-66.955	-0.477	0.190
-673.135	800.000	-0.065	0.190
-672.120	346.618	0.163	-0.324
-671.105	174.645	-0.075	-0.110
-670.091	185.122	0.129	-0.193
-669.076	304.047	-0.168	-0.314
-668.062	130.790	-0.170	0.220
-667.047	-48.527	-0.308	-0.150
-666.032	730.521	0.144	0.389
-665.018	259.318	-0.093	0.162
-664.003	-81.672	0.332	-0.110
-662.989	634.602	0.007	-0.018
-661.974	280.522	-0.014	0.026
-660.959	441.008	0.128	0.282
-659.945	765.791	0.032	-0.088
-658.930	-172.234	-0.335	0.011
-657.916	-114.751	-0.149	-0.029
-656.901	608.216	-0.052	0.130
-655.886	800.000	-0.036	0.124
-654.872	-112.722	0.136	0.027
-653.857	-71.134	-0.170	0.064
-652.843	800.000	-0.040	-0.159
-651.828	800.000	-0.066	0.276
-650.814	142.403	-0.069	0.092
-649.799	-200.000	-0.003	0.297
-648.784	433.586	-0.085	0.186
-647.770	13.736	0.212	-0.166
-646.755	15.426	-0.173	-0.137
-645.741	-188.055	-0.131	-0.002
-644.726	689.655	0.115	0.303
-643.711	-2.656	0.175	0.123
-642.697	-200.000	-0.002	-0.069
-641.682	-118.167	0.069	0.012
-640.668	-29.708	-0.256	-0.147
-639.653	277.867	-0.208	-0.373
-638.638	-200.000	-0.010	0.149
-637.624	78.680	0.121	-0.130
-636.609	72.745	-0.233	-0.245
-635.595	-200.000	0.041	0.276
-634.580	-200.000	-0.049	-0.235
-633.565	136.450	-0.164	-0.215
-632.551	-41.209	0.220	-0.114
-631.536	-200.000	-0.128	-0.566
-630.522	-200.000	-0.034	0.328
-629.507	-116.571	-0.140	-0.026
-628.492	-1.822	-0.059	0.042
-627.478	-142.717	0.178	0.017
-626.463	-9.072	0.042	0.028
-625.449	-104.031	0.300	0.070
-624.434	414.046	0.113	0.242
-623.419	150.631	0.075	0.102
-622.405	-62.548	0.298	-0.125
-621.390	473.938	0.129	0.292
-620.376	-86.490	-0.299	0.093
-619.361	-128.881	-0.194	-0.028
-618.346	-146.997	0.189	-0.016
-617.332	-103.080	-0.027	0.006
-616.317	-26.946	-0.185	0.109
-615.303	0.473	-0.173	0.124
-614.288	96.750	0.340	-0.392
-613.273	118.613	0.270	0.336
-612.259	-45.488	0.170	-0.085
-611.244	98.751	-0.144	-0.167
-610.230	55.391	0.312	-0.304
-609.215	800.000	-0.071	0.254
-608.201	800.000	0.056	0.166
-607.186	-200.000	-0.009	-0.183
-606.171	-28.565	0.156	-0.091
-605.157	452.646	0.076	0.170
-604.142	5.213	-0.220	0.163
-603.128	-33.722	-0.243	0.135
-602.113	30.070	-0.021	-0.018
-601.098	194.428	-0.085	-0.130
-600.084	-200.000	-0.067	-0.306
-599.069	-34.710	-0.118	-0.065
-598.055	-200.000	-0.026	-0.273
-597.040	-200.000	0.335	0.000
-596.025	800.000	-0.060	-0.177
-595.011	152.458	0.139	-0.191
-593.996	168.919	-0.042	-0.060
-592.982	-58.942	0.188	-0.082
-591.967	-58.834	-0.129	0.056
-590.952	-41.460	-0.366	-0.189
-589.938	56.470	-0.282	-0.276
-588.923	510.220	0.164	0.383
-587.909	-34.101	0.102	0.056
-586.894	-87.759	-0.115	0.035
-585.879	-136.348	0.006	0.001
-584.865	-71.820	0.150	-0.056
-583.850	-70.445	0.173	-0.066
-582.836	369.992	-0.161	0.327
-581.821	-200.000	-0.001	-0.033
-580.806	-200.000	-0.096	-0.487
-579.792	-200.000	0.023	0.132
-578.777	-99.625	-0.243	0.061
-577.763	-74.143	-0.154	-0.056
-576.748	24.519	-0.117	-0.097
-575.733	33.338	0.187	0.163
-574.719	66.152	-0.093	0.095
-573.704	71.104	-0.182	0.190
-572.690	-200.000	0.043	-0.227
-571.675	-14.672	-0.053	-0.034
-570.661	-74.671	0.252	-0.091
-569.646	-144.179	-0.175	-0.016
-568.631	800.000	-0.057	-0.178
-567.617	-195.946	0.106	0.001
-566.602	-200.000	0.039	0.278
-565.588	109.309	0.180	-0.217
-564.573	92.169	0.187	-0.212
-563.558	800.000	-0.087	-0.370
-562.544	-131.315	0.332	0.044
-561.529	-61.662	0.098	-0.041
-560.515	800.000	-0.013	-0.040
-559.500	40.400	0.171	0.155
-558.485	-91.812	0.056	0.016
-557.471	-89.662	-0.162	-0.048
-556.456	-200.000	0.004	0.057
-555.442	122.526	0.278	0.350
-554.427	-111.629	0.336	-0.069
-553.412	-200.000	0.001	0.237
-552.398	334.082	0.153	0.297
-551.383	308.872	0.188	-0.353
-550.369	-200.000	-0.027	-0.203
-549.354	800.000	0.131	0.432
-548.339	17.833	-0.154	-0.123
-547.325	-0.836	-0.117	-0.083
-546.310	-98.441	0.144	0.037
-545.296	-22.092	-0.179	0.109
-544.281	800.000	0.026	-0.109
-543.266	-68.108	0.297	-0.116
-542.252	-65.609	0.094	0.038
-541.237	800.000	0.075	0.223
-540.223	-1.423	-0.093	-0.066
-539.208	26.706	-0.118	0.099
-538.193	368.103	0.073	0.149
-537.179	-90.170	-0.287	-0.084
-536.164	-68.206	0.314	0.123
-535.150	-104.144	-0.206	0.048
-534.135	158.555	0.055	-0.076
-533.121	-90.028	-0.145	0.042
-532.106	54.476	-0.308	-0.297
-531.091	127.922	0.059	-0.075
-530.077	-118.691	-0.081	0.014
-529.062	10.953	0.020	0.015
-528.048	755.653	-0.061	0.165
-527.033	-7.068	0.065	-0.044
-526.018	291.279	-0.079	-0.144
-525.004	424.070	-0.122	-0.264
-523.989	-200.000	0.022	-0.483
-522.975	-24.884	0.102	-0.061
-521.960	-92.960	0.178	-0.050
-520.945	83.427	-0.200	0.219
-519.931	-76.068	-0.196	-0.069
-518.916	-200.000	-0.020	0.227
-517.902	18.931	0.128	-0.103
-516.887	-200.000	0.010	0.197
-515.872	162.876	0.143	0.201
-514.858	-200.000	-0.029	-0.264
-513.843	-200.000	-0.013	-0.147
-512.829	404.467	0.065	-0.136
-511.814	111.544	-0.281	0.340
-510.799	-200.000	0.035	-0.203
-509.785	352.283	0.102	0.204
-508.770	592.574	0.078	-0.194
-507.756	20.867	0.155	-0.126
-506.741	143.634	-0.182	-0.243
-505.726	207.519	-0.121	-0.190
-504.712	-200.000	-0.044	-0.285
-503.697	452.791	0.168	0.373
-502.683	57.575	0.201	-0.197
-501.668	-57.539	-0.121	0.053
-500.653	106.362	0.122	0.145
-499.639	-101.368	0.110	-0.027
-498.624	296.539	0.166	-0.305
-497.610	-38.770	-0.158	-0.084
-496.595	-109.770	0.154	-0.032
-495.581	1.345	0.273	-0.197
-494.566	27.990	-0.199	0.168
-493.551	-200.000	0.079	0.505
-492.537	-113.661	-0.121	-0.024
-491.522	-200.000	0.011	-0.071
-490.508	-111.176	0.360	0.074
-489.493	-200.000	-0.005	-0.026
-488.478	-15.152	0.169	-0.109
-487.464	64.234	-0.188	0.190
-486.449	36.445	-0.265	0.234
-485.435	-200.000	0.006	-0.069
-484.420	-200.000	0.083	-0.645
-483.405	-86.041	0.142	0.044
-482.391	-193.183	0.250	-0.002
-481.376	-24.003	0.181	0.108
-480.362	-100.695	-0.200	0.049
-479.347	33.791	0.149	-0.130
-478.332	-52.033	0.204	-0.095
-477.318	800.000	-0.095	-0.406
-476.303	-16.205	-0.090	-0.057
-475.289	-200.000	0.017	0.206
-474.274	182.384	0.133	-0.196
-473.259	-31.066	0.052	-0.029
-472.245	-65.266	-0.097	-0.039
-471.230	-49.443	-0.280	0.134
-470.216	-200.000	0.000	0.221
-469.201	66.945	-0.112	0.114
-468.186	152.302	-0.200	-0.273
-467.172	68.831	-0.180	0.185
-466.157	-42.198	0.296	-0.151
-465.143	684.087	-0.004	0.011
-464.128	-200.000	0.028	-0.145
-463.113	106.596	-0.150	-0.179
-462.099	210.024	0.163	0.257
-461.084	-7.587	0.230	0.156
-460.070	-83.579	0.618	0.198
-459.055	800.000	0.047	-0.193
-458.040	267.700	0.069	-0.121
-457.026	529.612	-0.094	-0.223
-456.011	-10.114	0.229	-0.152
-454.997	-107.166	0.249	0.055
-453.982	-96.434	-0.272	-0.072
-452.968	191.198	-0.135	-0.203
-451.953	142.754	-0.120	-0.160
-450.938	-21.070	0.186	-0.114
-449.924	241.992	0.211	-0.352
-448.909	-132.005	-0.129	0.017
-447.895	736.019	-0.089	0.240
-446.880	-4.238	-0.142	-0.098
-445.865	-128.496	-0.157	-0.022
-444.851	69.363	-0.094	-0.097
-443.836	-200.000	0.025	-0.138
-442.822	-200.000	-0.017	-0.099
-441.807	-56.302	0.407	0.181
-440.792	17.213	-0.157	0.124
-439.778	-30.818	0.298	0.169
-438.763	-14.226	-0.092	0.059
-437.749	-114.706	0.111	-0.021
-436.734	137.748	0.151	-0.197
-435.719	-45.954	0.178	0.088
-434.705	-148.921	-0.168	-0.014
-433.690	65.480	0.181	-0.183
-432.676	-200.000	-0.020	-0.208
-431.661	-129.038	0.442	0.062
-430.646	-14.045	0.226	0.146
-429.632	38.576	-0.125	-0.112
-428.617	-18.437	-0.145	-0.091
-427.603	-41.516	-0.254	-0.131
-426.588	-79.298	0.081	0.027
-425.573	737.020	-0.125	-0.336
-424.559	100.669	0.102	0.118
-423.544	23.898	-0.275	-0.227
-422.530	9.736	0.195	0.148
-421.515	-6.318	-0.095	0.065
-420.500	-115.093	0.512	-0.097
-419.486	-112.488	-0.234	-0.047
-418.471	800.000	-0.019	0.062
-417.457	-89.954	0.184	0.054
-416.442	-200.000	0.011	0.185
-415.428	-200.000	-0.001	0.169
-414.413	502.155	0.079	-0.181
-413.398	-41.228	0.236	-0.122
-412.384	800.000	-0.121	-0.362
-411.369	100.084	0.279	0.324
-410.355	208.824	-0.168	0.262
-409.340	800.000	0.088	0.283
-408.325	-200.000	0.070	0.322
-407.311	-200.000	0.037	-0.270
-406.296	126.958	-0.048	-0.060
-405.282	155.584	-0.132	0.182
-404.267	131.497	-0.189	-0.243
-403.252	-9.213	-0.198	-0.132
-402.238	-24.513	-0.289	-0.172
-401.223	16.125	-0.120	-0.095
-400.209	101.563	-0.118	-0.137
-399.194	-21.256	-0.126	-0.077
-398.179	173.410	0.196	-0.282
-397.165	183.224	0.100	0.148
-396.150	-200.000	0.001	-0.064
-395.136	-200.000	0.002	0.060
-394.121	-48.440	-0.294	0.141
-393.106	19.573	0.049	-0.039
-392.092	-4.733	0.124	-0.085
-391.077	-22.564	0.106	0.064
-390.063	0.888	0.071	-0.051
-389.048	36.137	0.093	-0.081
-388.033	-39.550	-0.111	-0.058
-387.019	-27.301	-0.328	0.191
-386.004	-200.000	0.002	0.361
-384.990	-200.000	-0.002	0.419
-383.975	-116.070	-0.024	0.005
-382.960	51.405	-0.243	-0.230
-381.946	180.344	0.211	0.309
-380.931	-54.627	0.360	0.162
-379.917	-200.000	-0.033	0.166
-378.902	-191.438	-0.414	0.004
-377.888	361.542	-0.030	0.059
-376.873	-76.858	0.076	0.026
-375.858	111.583	0.024	0.029
-374.844	-161.514	-0.072	-0.004
-373.829	-100.717	-0.157	0.039
-372.815	-200.000	0.001	-0.060
-371.800	-53.506	-0.382	0.174
-370.785	-9.240	0.181	-0.121
-369.771	184.520	0.134	0.198
-368.756	357.972	0.076	0.151
-367.742	23.389	0.103	0.084
-366.727	-108.882	0.086	0.018
-365.712	-172.130	0.400	0.013
-364.698	687.889	0.062	0.163
-363.683	-166.918	0.085	-0.003
-362.669	632.725	-0.063	-0.160
-361.654	-200.000	0.017	0.089
-360.639	-90.454	0.307	0.089
-359.625	-29.474	-0.109	-0.062
-358.610	-131.094	0.103	0.014
-357.596	-200.000	0.042	-0.216
-356.581	-12.658	-0.094	0.061
-355.566	-42.334	0.270	0.138
-354.552	86.283	-0.058	-0.064
-353.537	800.000	-0.054	0.198
-352.523	-200.000	-0.021	0.265
-351.508	-200.000	0.018	-0.118
-350.493	0.536	-0.146	-0.104
-349.479	-93.170	-0.107	0.030
-348.464	380.325	-0.048	0.099
-347.450	141.160	-0.071	-0.093
-346.435	41.318	-0.119	-0.108
-345.420	5.025	-0.113	-0.083
-344.406	800.000	-0.066	0.286
-343.391	133.290	0.081	-0.104
-342.377	-200.000	-0.028	-0.176
-341.362	-139.685	-0.345	-0.037
-340.348	-200.000	0.018	0.256
-339.333	-200.000	-0.004	0.249
-338.318	-63.898	-0.158	0.064
-337.304	-200.000	-0.055	0.255
-336.289	224.426	-0.174	0.280
-335.275	-97.425	0.055	-0.014
-334.260	-200.000	0.050	0.352
-333.245	25.857	-0.198	-0.164
-332.231	-8.450	0.283	0.189
-331.216	158.834	0.093	0.129
-330.202	800.000	-0.090	0.365
-329.187	-6.562	-0.221	-0.150
-328.172	-200.000	0.026	-0.154
-327.158	63.384	0.060	0.060
-326.143	-106.763	-0.126	-0.028
-325.129	800.000	0.129	0.445
-324.114	-190.616	-0.238	0.003
-323.099	499.535	0.121	0.279
-322.085	-112.743	-0.040	-0.008
-321.070	39.097	-0.264	-0.235
-320.056	42.702	-0.218	-0.198
-319.041	-200.000	-0.018	-0.215
-318.026	330.349	0.096	0.183
-317.012	575.488	0.127	-0.310
-315.997	800.000	-0.134	0.491
-314.983	-198.024	0.065	0.000
-313.968	-105.990	-0.072	0.016
-312.953	-109.055	0.094	-0.020
-311.939	-38.821	0.429	0.225
-310.924	422.638	-0.066	0.142
-309.910	800.000	0.056	-0.186
-308.895	-92.257	0.251	-0.070
-307.880	-200.000	-0.010	-0.216
-306.866	87.223	0.262	0.288
-305.851	-200.000	-0.043	0.378
-304.837	168.239	-0.145	-0.205
-303.822	-99.804	-0.385	-0.096
-302.807	-18.516	-0.347	0.216
-301.793	-142.712	-0.242	0.023
-300.778	-200.000	0.008	-0.093
-299.764	-59.341	-0.635	0.272
-298.749	62.604	-0.133	-0.132
-297.735	-68.022	0.276	-0.107
-296.720	95.991	0.090	-0.102
-295.705	-200.000	-0.015	-0.078
-294.691	-38.428	-0.109	0.058
-293.676	-200.000	0.028	0.165
-292.662	125.211	-0.277	-0.347
-291.647	-45.030	-0.238	-0.118
-290.632	-121.650	0.107	0.018
-289.618	116.374	-0.212	0.259
-288.603	800.000	-0.013	0.054
-287.589	576.857	-0.160	0.390
-286.574	-200.000	-0.005	0.197
-285.559	-200.000	-0.067	-0.617
-284.545	144.375	-0.185	-0.245
-283.530	-115.628	-0.133	0.025
-282.516	-106.661	0.198	-0.044
-281.501	-200.000	-0.034	-0.243
-280.486	117.486	-0.242	-0.296
-279.472	800.000	-0.121	-0.366
-278.457	429.266	-0.060	0.129
-277.443	-200.000	-0.011	-0.338
-276.428	23.697	-0.438	-0.358
-275.413	800.000	0.018	0.063
-274.399	27.832	-0.146	0.122
-273.384	121.507	-0.187	0.232
-272.370	161.952	0.183	-0.255
-271.355	293.203	-0.155	-0.281
-270.340	-34.945	-0.287	0.155
-269.326	-52.517	0.241	-0.111
-268.311	-115.095	-0.252	0.047
-267.297	57.011	-0.278	-0.270
-266.282	-200.000	0.000	0.304
-265.267	-200.000	-0.017	-0.237
-264.253	-7.061	0.164	-0.111
-263.238	32.141	-0.248	0.212
-262.224	-87.098	0.124	-0.037
-261.209	-200.000	-0.035	-0.166
-260.195	-6.069	0.242	-0.164
-259.180	22.071	-0.217	0.176
-258.165	610.074	0.062	-0.153
-257.151	-13.080	0.263	0.170
-256.136	334.141	-0.085	-0.164
-255.122	-200.000	0.032	0.223
-254.107	-98.935	-0.338	0.085
-253.092	-200.000	0.033	0.207
-252.078	149.306	-0.119	-0.160
-251.063	-68.807	-0.277	0.106
-250.049	209.171	0.420	0.653
-249.034	800.000	-0.017	-0.062
-248.019	800.000	0.052	0.216
-247.005	145.484	-0.151	0.201
-245.990	-163.782	0.091	-0.004
-244.976	-141.169	-0.180	0.018
-243.961	386.675	0.010	0.020
-242.946	-143.357	0.322	0.031
-241.932	186.703	-0.149	-0.221
-240.917	-116.428	0.046	0.008
-239.903	-53.921	0.425	0.192
-238.888	-115.706	0.169	0.031
-237.873	-200.000	-0.032	0.243
-236.859	-136.340	0.293	-0.034
-235.844	800.000	-0.100	-0.353
-234.830	88.348	0.210	0.231
-233.815	-200.000	-0.010	-0.102
-232.800	-31.237	-0.220	-0.123
-231.786	800.000	0.105	-0.322
-230.771	11.033	0.310	0.235
-229.757	800.000	0.049	0.154
-228.742	30.354	0.406	0.344
-227.727	658.680	0.069	-0.177
-226.713	142.512	-0.105	0.138
-225.698	-174.996	-0.115	-0.003
-224.684	5.588	-0.261	-0.191
-223.669	-75.819	-0.157	-0.055
-222.655	800.000	-0.047	-0.178
-221.640	664.441	-0.024	0.062
-220.625	-159.680	-0.353	0.019
-219.611	-200.000	-0.014	-0.156
-218.596	58.076	-0.254	0.246
-217.582	-200.000	0.027	0.184
-216.567	-200.000	0.001	-0.007
-215.552	54.523	-0.211	-0.201
-214.538	37.980	-0.256	-0.226
-213.523	320.105	0.129	0.243
-212.509	132.644	-0.236	-0.302
-211.494	517.169	0.145	0.336
-210.479	-106.374	-0.076	-0.017
-209.465	-116.578	-0.188	-0.034
-208.450	800.000	0.072	0.309
-207.436	-200.000	-0.012	-0.145
-206.421	58.052	-0.104	-0.101
-205.406	-96.615	0.307	0.080
-204.392	-15.673	0.155	0.098
-203.377	800.000	-0.042	-0.134
-202.363	-168.549	0.455	-0.017
-201.348	149.031	-0.185	-0.247
-200.333	59.689	-0.070	-0.068
-199.319	-200.000	-0.022	0.200
-198.304	-200.000	-0.001	0.043
-197.290	195.856	-0.199	0.299
-196.275	-200.000	0.042	0.197
-195.260	398.863	0.106	-0.221
-194.246	-18.697	0.141	-0.087
-193.231	143.956	0.222	0.293
-192.217	142.850	-0.154	0.203
-191.202	314.256	0.225	0.420
-190.187	-164.606	-0.133	0.006
-189.173	-112.505	-0.350	0.069
-188.158	-15.299	0.131	0.083
-187.144	67.427	0.160	0.162
-186.129	-105.522	0.202	0.045
-185.114	395.188	0.046	-0.095
-184.100	-13.386	-0.086	0.056
-183.085	335.899	0.087	0.168
-182.071	800.000	-0.063	-0.245
-181.056	-200.000	0.002	-0.163
-180.042	233.230	0.226	0.368
-179.027	-151.677	0.278	0.020
-178.012	-38.553	0.059	-0.031
-176.998	800.000	0.047	0.184
-175.983	800.000	-0.025	-0.095
-174.969	-88.718	-0.121	0.036
-173.954	48.247	0.220	-0.203
-172.939	-147.436	-0.139	0.012
-171.925	67.374	0.101	0.102
-170.910	20.603	-0.133	0.106
-169.896	800.000	-0.102	-0.317
-168.881	63.901	-0.175	-0.174
-167.866	-31.713	0.212	-0.118
-166.852	-106.945	0.231	-0.051
-165.837	-78.443	-0.402	0.136
-164.823	-200.000	-0.034	0.161
-163.808	-200.000	-0.006	0.077
-162.793	393.821	-0.077	-0.158
-161.779	-40.677	0.218	-0.112
-160.764	391.709	-0.065	0.134
-159.750	56.429	-0.141	0.135
-158.735	-95.939	-0.247	0.065
-157.720	-85.132	0.388	-0.120
-156.706	800.000	-0.047	-0.206
-155.691	52.719	-0.085	0.080
-154.677	-137.097	0.337	0.038
-153.662	-51.120	0.035	0.016
-152.647	-110.237	0.068	-0.014
-151.633	-27.069	0.147	0.085
-150.618	46.824	0.239	-0.220
-149.604	101.314	-0.066	0.076
-148.589	129.727	-0.125	0.158
-147.574	317.919	-0.090	-0.168
-146.560	736.353	-0.083	0.219
-145.545	51.977	0.161	-0.152
-144.531	-152.940	0.265	-0.018
-143.516	-49.697	0.207	-0.098
-142.502	-200.000	0.095	0.421
-141.487	-200.000	-0.032	-0.238
-140.472	-110.447	0.155	0.032
-139.458	107.601	0.103	0.121
-138.443	334.054	-0.148	0.282
-137.429	307.501	-0.135	0.250
-136.414	89.569	0.298	-0.328
-135.399	-200.000	0.020	0.193
-134.385	15.448	-0.170	0.132
-133.370	-56.650	0.318	0.139
-132.356	-200.000	-0.023	0.185
-131.341	-200.000	-0.004	0.264
-130.326	98.430	0.131	-0.149
-129.312	39.754	-0.194	0.172
-128.297	800.000	-0.100	0.348
-127.283	-121.002	0.233	-0.039
-126.268	-200.000	-0.035	0.381
-125.253	-200.000	-0.022	0.180
-124.239	57.975	-0.276	-0.267
-123.224	-7.842	0.190	0.127
-122.210	-200.000	0.052	0.358
