DTS Sentinel unit serial number:	SN413079Multiplexer serial number:	ORYXHardware model number:	OX4-SRSoftware version number:	ORYX F/W v4.00 Oryx Data Collector v3.7.2.0data status	okinstallation	princeton_trtdifferential loss correction	single-endedforward channel	channel 1reverse channel	N/Adate	2019/09/11time	05:20:11forward acquisition time	60.00reverse acquisition time	0.00gamma	496.2192k internal	0.2330k external	0.2330temperature offset calibration	0.9925default loss term (dB/km)	0.3790temperature slope calibration	1.0000multiplexer offset coefficient	1.0000multiplexer slope coefficient	1.0000fibre end	0.00T internal ref (°C)	29.44T ext. ref 1 (°C)	-0.25T ext. ref 2 (°C)	23.37length (m)	temperature (°C)	Stokes	anti-Stokes-747.200	-200.000	0.026	-0.353
-746.185	22.278	0.108	0.088
-745.171	-34.961	0.168	0.092
-744.156	767.456	-0.082	0.224
-743.142	-15.122	0.120	0.078
-742.127	-200.000	0.036	0.218
-741.112	14.549	0.265	-0.209
-740.098	38.596	-0.063	-0.057
-739.083	-66.147	-0.179	-0.072
-738.069	-102.821	-0.011	-0.003
-737.054	112.191	0.179	-0.218
-736.039	-1.269	0.103	0.073
-735.025	-70.625	0.382	0.145
-734.010	-96.159	0.199	0.053
-732.996	64.214	-0.143	0.145
-731.981	-127.422	-0.264	0.039
-730.966	-178.817	0.063	0.001
-729.952	-75.106	-0.105	-0.038
-728.937	-48.543	0.160	0.077
-727.923	-1.209	0.142	0.101
-726.908	-177.671	-0.246	-0.006
-725.894	52.219	-0.060	-0.057
-724.879	261.081	-0.101	0.176
-723.864	-150.972	-0.103	-0.008
-722.850	-68.204	-0.217	-0.085
-721.835	180.213	-0.196	-0.289
-720.821	-200.000	-0.014	0.241
-719.806	-131.190	0.290	0.039
-718.791	-136.230	0.094	-0.011
-717.777	277.188	-0.025	-0.044
-716.762	-103.857	-0.307	-0.072
-715.748	-200.000	-0.032	-0.226
-714.733	157.035	0.012	0.017
-713.718	541.333	0.054	0.129
-712.704	-7.152	-0.114	-0.078
-711.689	800.000	-0.103	-0.411
-710.675	151.839	-0.091	-0.124
-709.660	263.623	0.164	-0.286
-708.645	348.756	-0.091	-0.180
-707.631	800.000	-0.029	0.084
-706.616	19.629	-0.301	-0.243
-705.602	296.179	0.083	0.152
-704.587	-200.000	0.051	0.279
-703.572	129.506	-0.112	0.143
-702.558	23.087	-0.114	-0.094
-701.543	800.000	0.040	-0.131
-700.529	800.000	0.103	-0.307
-699.514	521.233	-0.088	-0.207
-698.499	524.436	-0.105	0.248
-697.485	-42.319	0.513	0.263
-696.470	433.917	0.097	-0.211
-695.456	-135.565	0.323	-0.039
-694.441	301.694	0.107	-0.199
-693.426	101.952	0.178	-0.209
-692.412	158.195	0.120	0.167
-691.397	579.942	-0.104	0.255
-690.383	138.520	-0.108	-0.142
-689.368	181.041	-0.148	-0.219
-688.354	232.569	-0.130	-0.215
-687.339	162.422	0.109	0.154
-686.324	-200.000	-0.049	-0.232
-685.310	27.570	0.158	-0.133
-684.295	-178.492	-0.098	-0.002
-683.281	-149.691	-0.195	0.015
-682.266	-200.000	0.005	-0.098
-681.251	-110.189	0.156	0.033
-680.237	-93.593	0.371	-0.103
-679.222	210.387	0.144	-0.227
-678.208	-175.500	0.502	-0.014
-677.193	30.752	-0.308	-0.265
-676.178	-181.664	0.210	-0.004
-675.164	-200.000	0.053	-0.265
-674.149	-117.386	-0.286	-0.052
-673.135	-20.930	0.199	-0.123
-672.120	-54.736	-0.140	-0.063
-671.105	-39.083	-0.300	-0.159
-670.091	-200.000	0.043	-0.329
-669.076	47.117	-0.120	-0.112
-668.062	-200.000	0.005	-0.129
-667.047	-154.075	-0.178	0.012
-666.032	-104.263	0.244	-0.057
-665.018	-121.053	0.268	-0.045
-664.003	129.301	0.178	-0.228
-662.989	552.960	0.030	-0.072
-661.974	37.759	0.024	-0.021
-660.959	394.537	0.108	-0.226
-659.945	-87.367	-0.089	-0.027
-658.930	-200.000	0.007	-0.090
-657.916	800.000	0.040	-0.117
-656.901	-200.000	-0.004	0.024
-655.886	480.088	0.064	-0.146
-654.872	-200.000	0.023	-0.174
-653.857	79.040	-0.257	0.276
-652.843	-110.559	-0.113	-0.023
-651.828	368.693	-0.104	0.212
-650.814	-97.383	0.086	-0.022
-649.799	382.295	0.104	-0.214
-648.784	621.115	0.149	-0.376
-647.770	-12.989	0.131	0.085
-646.755	28.830	-0.287	0.244
-645.741	50.649	-0.169	-0.160
-644.726	-65.639	-0.214	0.086
-643.711	52.340	0.182	0.174
-642.697	-47.787	0.222	0.108
-641.682	-69.553	-0.108	0.042
-640.668	800.000	0.097	0.373
-639.653	-32.747	-0.148	0.083
-638.638	-200.000	0.019	-0.158
-637.624	-34.334	-0.109	-0.060
-636.609	-163.785	0.055	-0.003
-635.595	121.683	0.062	0.078
-634.580	-56.183	-0.390	-0.174
-633.565	-164.879	-0.269	-0.012
-632.551	97.528	-0.151	-0.173
-631.536	-99.330	0.128	-0.032
-630.522	-200.000	0.060	-0.405
-629.507	-59.156	-0.151	0.065
-628.492	-37.002	-0.125	0.067
-627.478	-200.000	0.022	-0.330
-626.463	479.496	-0.096	-0.218
-625.449	-200.000	-0.104	-0.508
-624.434	65.951	-0.281	0.286
-623.419	-200.000	0.049	-0.543
-622.405	800.000	-0.046	-0.147
-621.390	-100.606	-0.401	0.099
-620.376	-200.000	0.063	-0.284
-619.361	-22.751	0.266	0.161
-618.346	-200.000	0.008	-0.255
-617.332	-98.012	0.167	-0.043
-616.317	312.039	0.033	0.062
-615.303	-26.672	0.187	0.109
-614.288	-14.530	-0.120	-0.077
-613.273	-0.563	0.139	-0.099
-612.259	-63.876	-0.093	-0.038
-611.244	-200.000	-0.001	0.202
-610.230	29.912	0.125	0.107
-609.215	42.355	0.182	0.166
-608.201	-52.754	-0.524	0.242
-607.186	-152.150	-0.251	0.018
-606.171	-86.347	0.368	0.113
-605.157	-200.000	0.002	-0.259
-604.142	56.158	0.233	0.226
-603.128	-92.108	-0.032	0.009
-602.113	-7.315	-0.318	0.216
-601.098	-17.523	-0.185	0.117
-600.084	116.963	0.238	0.293
-599.069	-200.000	0.007	0.171
-598.055	-32.658	-0.292	0.162
-597.040	238.801	0.129	-0.214
-596.025	462.009	0.017	0.039
-595.011	-200.000	-0.016	0.072
-593.996	-162.013	0.228	0.012
-592.982	51.348	-0.313	-0.298
-591.967	417.914	0.122	0.260
-590.952	-56.969	0.207	0.091
-589.938	-70.524	0.050	0.019
-588.923	-50.563	0.047	-0.022
-587.909	800.000	-0.079	0.223
-586.894	-200.000	-0.037	0.166
-585.879	-200.000	0.023	0.147
-584.865	-72.583	-0.240	-0.088
-583.850	64.333	-0.309	-0.311
-582.836	-200.000	-0.003	-0.338
-581.821	-200.000	0.025	0.182
-580.806	114.581	-0.059	0.072
-579.792	80.852	-0.203	-0.219
-578.777	-169.797	-0.283	0.010
-577.763	-68.584	0.422	-0.163
-576.748	-200.000	-0.008	0.344
-575.733	-142.508	-0.160	-0.016
-574.719	-64.912	-0.162	0.065
-573.704	-200.000	-0.030	0.162
-572.690	-200.000	0.001	0.319
-571.675	-59.782	-0.072	-0.031
-570.661	-57.474	0.333	-0.146
-569.646	-170.803	0.279	-0.010
-568.631	751.999	0.102	-0.275
-567.617	-200.000	0.013	-0.165
-566.602	377.818	0.054	-0.110
-565.588	-122.790	0.310	-0.050
-564.573	800.000	0.085	-0.353
-563.558	378.148	-0.083	-0.169
-562.544	48.472	-0.156	-0.146
-561.529	-53.729	-0.423	0.193
-560.515	-200.000	-0.002	-0.019
-559.500	32.704	0.075	-0.065
-558.485	145.566	-0.182	0.243
-557.471	334.089	-0.077	-0.149
-556.456	-121.444	0.303	0.050
-555.442	-32.677	-0.201	-0.112
-554.427	24.603	-0.202	-0.167
-553.412	646.643	-0.194	-0.495
-552.398	-200.000	-0.014	-0.371
-551.383	715.330	0.044	-0.116
-550.369	-200.000	0.001	0.176
-549.354	162.712	0.095	0.133
-548.339	-50.449	-0.351	-0.166
-547.325	-91.585	0.143	0.041
-546.310	-131.387	0.188	0.025
-545.296	800.000	0.050	0.163
-544.281	209.767	0.040	-0.062
-543.266	800.000	0.056	0.163
-542.252	-1.127	-0.160	-0.113
-541.237	176.767	-0.064	-0.092
-540.223	-24.113	0.239	0.143
-539.208	-200.000	-0.013	0.113
-538.193	-133.517	-0.142	-0.018
-537.179	-200.000	-0.030	0.379
-536.164	199.638	-0.151	0.231
-535.150	-50.501	-0.161	0.076
-534.135	99.416	0.114	0.132
-533.121	-77.418	-0.206	-0.071
-532.106	126.613	-0.136	-0.171
-531.091	-36.307	-0.200	-0.108
-530.077	3.138	0.120	0.087
-529.062	604.657	-0.087	0.216
-528.048	687.199	0.099	0.257
-527.033	800.000	0.061	0.232
-526.018	270.015	0.146	0.256
-525.004	-15.851	0.080	-0.051
-523.989	93.505	0.089	0.101
-522.975	-185.434	-0.142	0.002
-521.960	-45.937	-0.204	0.101
-520.945	-39.270	0.183	0.096
-519.931	168.024	-0.280	-0.397
-518.916	158.017	-0.177	-0.244
-517.902	204.975	0.082	-0.126
-516.887	-95.409	-0.397	-0.106
-515.872	-104.121	-0.230	-0.053
-514.858	175.303	-0.023	-0.033
-513.843	-200.000	0.039	0.306
-512.829	-200.000	0.044	-0.278
-511.814	-48.680	-0.202	-0.097
-510.799	90.432	0.067	0.075
-509.785	800.000	0.040	-0.155
-508.770	240.070	-0.028	0.047
-507.756	-107.730	0.255	0.056
-506.741	287.130	0.116	0.210
-505.726	800.000	-0.074	0.207
-504.712	207.444	0.116	-0.180
-503.697	-15.020	-0.134	-0.085
-502.683	-200.000	0.002	0.266
-501.668	-138.305	-0.176	0.019
-500.653	238.782	-0.053	-0.089
-499.639	-97.547	0.253	0.066
-498.624	14.520	-0.124	0.096
-497.610	-200.000	-0.065	0.290
-496.595	-146.258	0.108	-0.009
-495.581	54.887	-0.259	0.250
-494.566	-200.000	0.015	-0.414
-493.551	-59.497	0.291	-0.124
-492.537	-1.543	-0.180	0.126
-491.522	37.909	-0.110	0.098
-490.508	166.605	0.082	-0.117
-489.493	774.140	-0.020	0.053
-488.478	-101.241	0.213	0.052
-487.464	54.400	-0.121	0.116
-486.449	-29.897	0.234	0.133
-485.435	800.000	0.139	-0.464
-484.420	-52.039	0.224	0.104
-483.405	-111.808	-0.259	-0.052
-482.391	351.856	-0.019	-0.037
-481.376	484.716	-0.051	-0.115
-480.362	280.511	0.077	0.137
-479.347	-200.000	-0.106	-0.000
-478.332	241.633	0.120	-0.200
-477.318	-200.000	-0.006	-0.261
-476.303	-109.177	-0.087	-0.018
-475.289	52.812	0.157	-0.150
-474.274	-56.549	0.342	-0.151
-473.259	3.063	0.412	0.298
-472.245	22.771	-0.307	-0.251
-471.230	-87.582	0.121	0.036
-470.216	-200.000	0.035	-0.308
-469.201	187.782	-0.121	-0.179
-468.186	25.595	0.166	-0.137
-467.172	306.585	0.087	-0.160
-466.157	800.000	0.060	-0.210
-465.143	-73.982	-0.318	-0.115
-464.128	-16.794	0.241	0.151
-463.113	114.693	0.079	-0.096
-462.099	-130.694	-0.105	0.014
-461.084	103.248	0.146	0.170
-460.070	800.000	-0.054	0.154
-459.055	23.213	0.167	-0.137
-458.040	-97.982	-0.096	0.025
-457.026	-115.961	0.211	-0.039
-456.011	-95.389	-0.166	0.045
-454.997	29.857	0.257	-0.218
-453.982	625.072	-0.058	0.145
-452.968	220.784	0.251	-0.401
-451.953	-181.812	0.183	-0.003
-450.938	-31.111	-0.231	-0.130
-449.924	-79.375	-0.305	-0.103
-448.909	-91.604	0.261	-0.074
-447.895	515.971	0.084	0.195
-446.880	147.033	-0.125	0.167
-445.865	21.285	-0.100	-0.081
-444.851	800.000	0.033	-0.107
-443.836	37.100	-0.195	0.171
-442.822	-8.663	-0.248	0.166
-441.807	-17.904	0.315	0.197
-440.792	55.789	-0.154	-0.148
-439.778	-34.834	0.293	0.159
-438.763	72.507	-0.044	-0.046
-437.749	-109.184	0.275	-0.058
-436.734	54.605	-0.136	0.131
-435.719	800.000	-0.065	0.272
-434.705	-163.946	0.194	0.009
-433.690	-198.343	-0.170	0.001
-432.676	144.776	0.144	0.191
-431.661	17.446	-0.367	0.290
-430.646	103.858	-0.231	0.269
-429.632	-79.207	0.153	-0.051
-428.617	46.152	0.093	-0.085
-427.603	1.605	0.323	0.231
-426.588	-136.192	0.168	0.020
-425.573	683.514	0.029	-0.075
-424.559	171.404	-0.036	0.051
-423.544	-186.117	-0.118	0.002
-422.530	-200.000	0.002	0.100
-421.515	800.000	-0.098	-0.273
-420.500	174.871	-0.136	-0.196
-419.486	54.797	-0.172	0.165
-418.471	268.792	-0.220	0.383
-417.457	-107.997	0.230	0.050
-416.442	-62.323	0.203	-0.084
-415.428	20.908	0.141	0.114
-414.413	800.000	0.018	-0.064
-413.398	-5.353	-0.210	-0.143
-412.384	215.913	-0.245	-0.387
-411.369	-100.462	0.133	-0.033
-410.355	-71.149	-0.071	0.027
-409.340	334.641	0.060	-0.116
-408.325	3.495	0.264	0.191
-407.311	-200.000	0.013	-0.109
-406.296	-70.422	-0.113	-0.043
-405.282	-2.121	-0.225	-0.157
-404.267	77.099	0.340	0.358
-403.252	16.247	0.095	-0.074
-402.238	-155.122	0.184	0.012
-401.223	92.210	-0.255	0.286
-400.209	121.013	-0.266	0.329
-399.194	-129.476	0.281	0.039
-398.179	-200.000	0.001	-0.077
-397.165	173.859	0.129	0.184
-396.150	1.378	-0.195	0.139
-395.136	-200.000	-0.053	-0.373
-394.121	-154.241	0.021	0.001
-393.106	573.818	-0.043	0.104
-392.092	800.000	-0.029	0.125
-391.077	40.008	-0.149	-0.133
-390.063	-200.000	0.000	0.016
-389.048	324.603	0.083	-0.158
-388.033	318.101	-0.127	0.238
-387.019	28.417	-0.078	-0.065
-386.004	-200.000	0.020	0.208
-384.990	83.088	0.132	0.143
-383.975	567.291	-0.168	-0.404
-382.960	-73.956	-0.049	-0.018
-381.946	257.935	-0.111	0.190
-380.931	-200.000	0.015	-0.156
-379.917	-86.702	-0.194	-0.059
-378.902	-200.000	0.031	-0.302
-377.888	-200.000	0.004	0.042
-376.873	-139.723	-0.029	0.003
-375.858	-63.482	-0.116	-0.047
-374.844	800.000	-0.073	-0.276
-373.829	67.073	0.142	-0.143
-372.815	-200.000	-0.002	-0.108
-371.800	69.790	0.173	-0.177
-370.785	159.117	-0.053	-0.073
-369.771	-88.148	-0.273	0.081
-368.756	239.747	-0.037	-0.061
-367.742	-43.115	-0.055	0.028
-366.727	-200.000	-0.096	0.436
-365.712	-160.702	-0.137	0.007
-364.698	-133.327	-0.185	-0.023
-363.683	119.999	0.079	-0.097
-362.669	217.361	-0.023	0.036
-361.654	-200.000	0.011	0.375
-360.639	399.801	0.165	0.343
-359.625	-96.978	-0.076	0.020
-358.610	-58.708	0.273	-0.117
-357.596	654.238	0.048	0.122
-356.581	194.300	-0.168	0.252
-355.566	-200.000	0.223	-0.001
-354.552	-119.907	0.245	-0.042
-353.537	-64.265	0.313	-0.126
-352.523	-37.756	0.196	0.103
-351.508	344.913	0.022	-0.044
-350.493	800.000	0.047	0.130
-349.479	747.958	-0.138	0.369
-348.464	288.267	0.054	-0.097
-347.450	190.341	-0.060	-0.089
-346.435	-163.230	-0.255	0.012
-345.420	-50.664	0.312	0.146
-344.406	0.965	0.338	-0.240
-343.391	478.184	-0.043	0.097
-342.377	-200.000	-0.018	-0.166
-341.362	-41.955	0.224	-0.114
-340.348	687.019	0.104	-0.269
-339.333	800.000	-0.038	-0.134
-338.318	-14.482	-0.173	0.111
-337.304	153.542	-0.092	-0.125
-336.289	-86.545	0.412	-0.125
-335.275	-200.000	-0.048	-0.420
-334.260	-92.157	0.260	-0.073
-333.245	800.000	-0.109	-0.362
-332.231	-100.561	0.208	0.051
-331.216	0.087	-0.084	-0.059
-330.202	800.000	-0.031	-0.103
-329.187	-90.328	-0.069	0.020
-328.172	-54.144	0.084	-0.038
-327.158	-127.239	0.262	-0.038
-326.143	71.011	0.189	0.194
-325.129	161.613	-0.154	-0.213
-324.114	43.439	0.042	-0.038
-323.099	-141.882	0.095	0.009
-322.085	-163.843	0.265	0.012
-321.070	-200.000	-0.028	0.322
-320.056	-69.945	0.242	-0.091
-319.041	239.964	-0.106	-0.176
-318.026	-88.520	-0.034	0.010
-317.012	175.764	0.042	0.060
-315.997	203.572	0.224	0.343
-314.983	-200.000	-0.076	0.507
-313.968	23.438	0.247	0.201
-312.953	130.392	-0.091	0.115
-311.939	35.826	-0.099	0.086
-310.924	-27.531	0.117	0.067
-309.910	150.862	-0.037	0.050
-308.895	-200.000	-0.010	-0.293
-307.880	85.475	-0.157	0.170
-306.866	48.964	0.147	-0.137
-305.851	-200.000	-0.011	-0.247
-304.837	168.679	-0.151	0.213
-303.822	-29.093	-0.352	0.200
-302.807	800.000	0.095	0.309
-301.793	110.218	-0.227	0.270
-300.778	365.638	-0.113	0.225
-299.764	444.815	-0.029	0.064
-298.749	-200.000	0.028	-0.410
-297.735	-89.440	0.079	0.023
-296.720	-118.407	0.354	0.062
-295.705	-176.570	-0.084	-0.002
-294.691	-200.000	-0.060	-0.383
-293.676	60.222	-0.043	0.042
-292.662	800.000	0.009	0.031
-291.647	800.000	0.085	-0.279
-290.632	43.679	-0.048	0.043
-289.618	15.111	-0.145	-0.113
-288.603	-200.000	-0.018	0.255
-287.589	-61.639	-0.061	-0.025
-286.574	-142.819	0.158	0.015
-285.559	430.766	0.073	-0.156
-284.545	42.235	-0.043	0.039
-283.530	-200.000	0.009	-0.366
-282.516	410.944	-0.051	0.106
-281.501	-73.508	-0.199	-0.072
-280.486	-94.004	0.225	0.061
-279.472	287.269	0.123	0.220
-278.457	-51.322	-0.132	-0.061
-277.443	389.449	-0.074	0.151
-276.428	-200.000	0.043	0.391
-275.413	213.098	-0.192	0.300
-274.399	-117.892	-0.321	-0.057
-273.384	-138.525	-0.162	-0.018
-272.370	343.436	0.067	0.131
-271.355	-95.699	-0.106	-0.028
-270.340	198.731	-0.063	-0.096
-269.326	9.028	-0.212	-0.158
-268.311	-200.000	-0.013	0.129
-267.297	-138.767	0.207	-0.022
-266.282	89.745	0.148	-0.163
-265.267	-89.941	-0.049	-0.014
-264.253	10.270	0.144	0.108
-263.238	-67.227	-0.378	-0.147
-262.224	-167.865	-0.278	0.011
-261.209	800.000	-0.072	-0.204
-260.195	-200.000	-0.048	-0.255
-259.180	345.010	0.225	-0.437
-258.165	525.689	0.151	-0.350
-257.151	-200.000	0.029	-0.296
-256.136	116.803	-0.118	0.143
-255.122	430.954	0.097	-0.207
-254.107	212.623	0.063	0.098
-253.092	211.964	-0.131	0.204
-252.078	193.948	-0.192	0.287
-251.063	-200.000	-0.042	0.244
-250.049	145.102	0.072	0.095
-249.034	800.000	-0.056	-0.232
-248.019	-92.378	0.139	-0.039
-247.005	-200.000	0.009	0.121
-245.990	79.655	0.074	0.079
-244.976	-81.681	-0.172	-0.056
-243.961	181.349	-0.114	-0.165
-242.946	-200.000	-0.031	0.174
-241.932	800.000	-0.090	-0.303
-240.917	-79.150	-0.214	-0.072
-239.903	571.915	-0.071	-0.170
-238.888	35.236	-0.210	-0.182
-237.873	800.000	-0.078	-0.217
-236.859	-47.884	0.278	-0.133
-235.844	264.286	0.128	0.219
-234.830	800.000	0.036	0.107
-233.815	-200.000	0.004	0.025
-232.800	0.637	0.062	0.044
-231.786	-200.000	-0.000	0.072
-230.771	533.622	0.074	0.173
-229.757	117.868	0.199	0.242
-228.742	-22.961	-0.152	-0.090
-227.727	127.880	-0.177	-0.222
-226.713	68.469	0.148	-0.150
-225.698	217.855	0.084	-0.132
-224.684	110.605	0.173	-0.205
-223.669	-79.247	-0.361	-0.121
-222.655	-122.946	0.261	0.042
-221.640	-19.909	0.249	0.152
-220.625	-200.000	-0.015	0.079
-219.611	24.401	0.176	0.144
-218.596	37.388	-0.088	0.077
-217.582	435.843	0.099	-0.212
-216.567	129.636	0.194	0.244
-215.552	-77.662	-0.134	0.046
-214.538	-84.185	-0.142	0.044
-213.523	228.884	-0.117	0.189
-212.509	274.307	0.071	-0.124
-211.494	-81.014	0.106	-0.035
-210.479	-103.949	0.253	0.058
-209.465	-168.768	0.177	-0.007
-208.450	-171.528	-0.379	0.012
-207.436	111.057	0.075	0.088
-206.421	800.000	0.037	0.120
-205.406	46.814	0.285	-0.261
-204.392	30.524	0.294	-0.248
-203.377	-200.000	-0.017	-0.332
-202.363	76.231	-0.063	-0.066
-201.348	-200.000	-0.007	-0.093
-200.333	89.739	-0.158	0.174
-199.319	-48.132	0.251	0.120
-198.304	130.897	-0.111	0.140
-197.290	21.702	0.344	-0.276
-196.275	216.933	0.092	0.144
-195.260	-87.553	0.077	0.023
-194.246	800.000	-0.049	0.161
-193.231	605.748	-0.124	0.305
-192.217	-82.042	0.339	0.109
-191.202	-200.000	0.042	0.181
-190.187	-46.665	-0.346	-0.167
-189.173	-37.056	-0.234	0.124
-188.158	-200.000	-0.026	-0.111
-187.144	-97.970	-0.215	0.055
-186.129	-96.257	-0.191	-0.050
-185.114	-34.084	0.348	0.189
-184.100	-19.803	-0.201	-0.122
-183.085	800.000	0.014	0.044
-182.071	137.149	0.095	-0.123
-181.056	-48.310	-0.149	-0.071
-180.042	110.340	0.127	-0.150
-179.027	-99.805	0.222	-0.055
-178.012	541.640	0.092	-0.215
-176.998	-152.708	0.078	0.005
-175.983	-103.008	0.246	-0.057
-174.969	16.526	-0.338	0.263
-173.954	-54.451	-0.490	0.219
-172.939	800.000	0.033	0.118
-171.925	230.400	0.192	0.308
-170.910	37.932	-0.046	-0.040
-169.896	76.116	-0.081	0.084
-168.881	-161.303	0.191	0.010
-167.866	111.980	-0.067	-0.080
-166.852	-200.000	0.031	0.267
-165.837	7.292	0.216	-0.159
-164.823	-200.000	0.036	-0.157
-163.808	-83.648	0.223	0.070
-162.793	114.258	-0.224	-0.268
-161.779	-54.651	-0.016	0.007
-160.764	-200.000	-0.038	0.252
-159.750	-65.657	0.067	0.026
-158.735	335.440	0.233	-0.445
-157.720	113.590	0.047	0.056
-156.706	800.000	0.061	0.201
-155.691	-129.248	0.194	-0.027
-154.677	712.057	0.034	0.090
-153.662	-200.000	-0.011	0.093
-152.647	-200.000	-0.074	0.413
-151.633	-200.000	-0.044	0.549
-150.618	-26.222	-0.130	-0.075
-149.604	800.000	-0.036	-0.151
-148.589	-200.000	0.003	-0.314
-147.574	-28.780	-0.034	-0.019
-146.560	-35.554	0.105	0.056
-145.545	-71.927	-0.198	-0.073
-144.531	286.906	0.130	-0.230
-143.516	355.206	-0.014	0.028
-142.502	-100.710	-0.151	0.036
-141.487	42.198	0.090	0.080
-140.472	34.947	0.178	0.153
-139.458	800.000	0.040	0.165
-138.443	-139.300	-0.159	-0.017
-137.429	-117.581	-0.085	-0.015
-136.414	-102.901	-0.096	0.023
-135.399	-39.015	0.073	0.038
-134.385	-112.426	0.343	0.067
-133.370	763.273	-0.056	0.148
-132.356	800.000	-0.044	-0.163
-131.341	20.697	0.265	0.211
-130.326	-200.000	-0.012	0.307
-129.312	271.084	0.007	0.012
-128.297	-170.198	-0.228	-0.008
-127.283	356.310	-0.070	0.138
-126.268	143.302	0.176	-0.231
-125.253	-79.050	-0.336	-0.112
-124.239	-200.000	0.024	-0.300
-123.224	-43.537	0.059	-0.029
-122.210	-200.000	0.045	-0.325
-121.195	-46.553	0.259	-0.125
