DTS Sentinel unit serial number:	SN413079Multiplexer serial number:	ORYXHardware model number:	OX4-SRSoftware version number:	ORYX F/W v4.00 Oryx Data Collector v3.7.2.0data status	okinstallation	princeton_trtdifferential loss correction	single-endedforward channel	channel 1reverse channel	N/Adate	2019/09/10time	18:52:11forward acquisition time	60.00reverse acquisition time	0.00gamma	496.2192k internal	0.2312k external	0.2312temperature offset calibration	0.9923default loss term (dB/km)	0.3790temperature slope calibration	1.0000multiplexer offset coefficient	1.0000multiplexer slope coefficient	1.0000fibre end	0.00T internal ref (°C)	34.91T ext. ref 1 (°C)	-0.44T ext. ref 2 (°C)	27.24length (m)	temperature (°C)	Stokes	anti-Stokes-747.200	800.000	-0.105	-0.334
-746.185	-200.000	-0.047	0.262
-745.171	-200.000	-0.020	0.422
-744.156	800.000	-0.165	0.539
-743.142	800.000	-0.128	0.438
-742.127	-52.468	-0.057	-0.027
-741.112	-200.000	-0.014	0.218
-740.098	-60.578	0.167	0.072
-739.083	800.000	-0.121	-0.500
-738.069	-200.000	0.026	0.176
-737.054	-130.055	0.468	0.065
-736.039	-200.000	-0.014	-0.337
-735.025	69.396	0.194	-0.202
-734.010	-59.446	-0.349	0.152
-732.996	8.217	0.136	-0.104
-731.981	482.733	0.084	0.194
-730.966	-88.782	0.023	0.007
-729.952	-116.987	-0.249	0.046
-728.937	10.036	-0.204	0.157
-727.923	-200.000	0.063	0.353
-726.908	-112.559	0.204	0.041
-725.894	-200.000	-0.018	-0.396
-724.879	-200.000	0.008	-0.068
-723.864	19.331	0.257	-0.209
-722.850	359.977	-0.177	-0.358
-721.835	7.540	0.378	-0.287
-720.821	-59.195	-0.433	-0.189
-719.806	-160.697	-0.081	-0.004
-718.791	44.742	-0.240	0.224
-717.777	-200.000	-0.036	-0.310
-716.762	-200.000	-0.071	-0.464
-715.748	521.045	-0.012	0.029
-714.733	-188.462	-0.085	-0.001
-713.718	115.223	-0.202	0.250
-712.704	214.230	-0.025	-0.040
-711.689	42.857	0.126	0.116
-710.675	-84.611	0.276	0.088
-709.660	27.770	-0.157	-0.134
-708.645	29.004	-0.235	-0.202
-707.631	-10.704	-0.211	-0.142
-706.616	145.419	0.069	0.094
-705.602	800.000	-0.021	-0.070
-704.587	578.971	0.087	-0.216
-703.572	800.000	0.109	-0.317
-702.558	800.000	-0.071	0.307
-701.543	-128.815	0.107	-0.015
-700.529	-114.596	0.157	0.030
-699.514	-137.245	-0.186	-0.021
-698.499	-147.467	-0.217	-0.019
-697.485	743.141	0.030	-0.083
-696.470	-158.729	-0.420	-0.024
-695.456	112.783	0.088	0.108
-694.441	350.637	0.106	0.212
-693.426	67.337	-0.071	0.074
-692.412	789.001	0.112	-0.312
-691.397	-124.202	0.162	0.026
-690.383	-192.241	0.166	0.002
-689.368	-49.974	-0.216	-0.104
-688.354	225.262	-0.127	-0.208
-687.339	-105.661	-0.138	-0.032
-686.324	3.678	0.463	0.342
-685.310	652.555	0.066	-0.171
-684.295	800.000	-0.044	0.159
-683.281	-89.448	-0.095	-0.028
-682.266	800.000	0.064	-0.212
-681.251	7.347	-0.257	0.194
-680.237	64.722	0.229	-0.233
-679.222	410.825	0.123	0.265
-678.208	800.000	0.048	-0.157
-677.193	687.117	0.056	0.149
-676.178	288.166	-0.024	-0.044
-675.164	-85.636	0.279	0.088
-674.149	-81.651	-0.297	0.099
-673.135	167.825	0.200	0.288
-672.120	37.901	0.115	0.104
-671.105	-14.055	-0.385	-0.251
-670.091	-89.219	-0.265	-0.079
-669.076	32.160	-0.257	-0.224
-668.062	-200.000	-0.019	-0.243
-667.047	-200.000	-0.015	0.166
-666.032	-200.000	-0.042	0.217
-665.018	581.725	-0.085	-0.211
-664.003	784.919	-0.118	-0.326
-662.989	-11.085	0.166	-0.111
-661.974	272.561	-0.013	-0.023
-660.959	-49.590	0.106	-0.051
-659.945	-176.933	0.095	-0.002
-658.930	668.689	-0.110	-0.288
-657.916	-144.401	-0.381	0.036
-656.901	-200.000	0.017	0.128
-655.886	52.097	-0.256	-0.246
-654.872	-22.110	-0.454	-0.279
-653.857	490.934	-0.077	-0.177
-652.843	-141.697	0.388	0.039
-651.828	85.018	-0.073	0.081
-650.814	203.135	-0.038	-0.059
-649.799	-111.890	0.206	0.042
-648.784	-68.061	0.069	0.027
-647.770	-43.924	0.139	0.070
-646.755	1.240	-0.227	-0.165
-645.741	-130.651	-0.363	-0.049
-644.726	-53.227	0.138	0.064
-643.711	-200.000	-0.054	-0.262
-642.697	-3.328	-0.146	-0.103
-641.682	-99.115	-0.325	-0.083
-640.668	264.023	-0.126	-0.222
-639.653	267.759	0.061	-0.109
-638.638	-70.010	-0.167	-0.064
-637.624	-200.000	-0.031	0.146
-636.609	717.265	-0.117	0.314
-635.595	-34.778	0.323	-0.178
-634.580	-200.000	-0.038	-0.366
-633.565	-168.106	-0.360	-0.014
-632.551	-97.651	0.348	-0.091
-631.536	73.842	0.074	-0.078
-630.522	-85.614	0.257	0.081
-629.507	234.857	-0.134	-0.224
-628.492	-107.385	0.174	-0.039
-627.478	-137.801	0.194	-0.022
-626.463	-4.178	-0.159	-0.111
-625.449	-125.312	0.069	-0.011
-624.434	-53.795	0.095	0.044
-623.419	32.442	0.198	0.173
-622.405	431.636	0.105	-0.229
-621.390	31.715	0.053	-0.046
-620.376	298.855	0.059	-0.109
-619.361	213.347	-0.013	0.020
-618.346	-200.000	0.005	0.060
-617.332	56.171	-0.423	-0.414
-616.317	-161.907	-0.164	0.008
-615.303	71.114	0.119	-0.125
-614.288	193.358	-0.121	-0.185
-613.273	129.698	0.119	0.154
-612.259	67.472	-0.326	0.336
-611.244	70.351	-0.221	-0.231
-610.230	-113.971	-0.548	-0.107
-609.215	800.000	0.011	0.039
-608.201	20.717	-0.089	0.072
-607.186	-54.431	0.189	-0.086
-606.171	-90.559	0.147	-0.043
-605.157	51.291	-0.167	0.160
-604.142	284.226	-0.022	-0.039
-603.128	-200.000	0.002	0.076
-602.113	508.216	-0.129	-0.302
-601.098	-200.000	0.029	-0.141
-600.084	-10.909	-0.335	-0.223
-599.069	109.840	0.032	-0.039
-598.055	-116.840	-0.285	-0.053
-597.040	-200.000	-0.005	0.291
-596.025	-171.561	-0.450	-0.015
-595.011	-99.122	0.301	0.077
-593.996	-112.629	-0.194	-0.039
-592.982	-74.870	-0.281	-0.102
-591.967	-200.000	0.021	0.305
-590.952	-200.000	0.028	0.262
-589.938	150.394	0.059	-0.081
-588.923	49.618	0.113	0.107
-587.909	403.579	-0.073	0.155
-586.894	217.284	-0.174	-0.279
-585.879	-24.073	0.078	0.047
-584.865	15.083	0.149	0.118
-583.850	-200.000	-0.029	-0.458
-582.836	-200.000	0.016	0.325
-581.821	-200.000	-0.009	0.331
-580.806	-200.000	0.017	0.230
-579.792	800.000	0.056	-0.226
-578.777	642.986	-0.123	0.317
-577.763	128.436	0.085	-0.109
-576.748	-114.546	-0.209	-0.040
-575.733	-200.000	-0.000	-0.167
-574.719	-200.000	-0.021	0.182
-573.704	800.000	-0.042	-0.166
-572.690	-0.994	0.230	0.164
-571.675	-56.814	-0.143	-0.064
-570.661	-102.948	0.265	-0.063
-569.646	158.335	0.114	0.160
-568.631	-36.675	-0.224	-0.121
-567.617	-110.847	-0.095	0.020
-566.602	0.630	-0.361	0.260
-565.588	800.000	0.037	0.109
-564.573	63.314	0.246	0.248
-563.558	-140.791	0.354	0.037
-562.544	-34.801	-0.208	0.115
-561.529	-200.000	-0.055	0.246
-560.515	-200.000	0.028	0.142
-559.500	-175.342	0.163	-0.005
-558.485	29.223	0.129	-0.110
-557.471	-200.000	-0.008	-0.041
-556.456	-102.936	-0.264	0.063
-555.442	-120.813	0.132	0.022
-554.427	25.929	0.158	0.132
-553.412	-105.204	0.203	0.047
-552.398	-23.420	-0.087	0.052
-551.383	200.612	0.159	0.247
-550.369	-200.000	0.001	-0.173
-549.354	-200.000	0.027	-0.130
-548.339	-200.000	-0.019	0.164
-547.325	-200.000	-0.040	-0.256
-546.310	-200.000	-0.043	0.197
-545.296	-78.690	0.146	-0.050
-544.281	26.545	0.154	0.130
-543.266	344.750	-0.097	0.192
-542.252	5.555	-0.230	-0.171
-541.237	-108.504	0.200	-0.043
-540.223	-200.000	-0.082	0.367
-539.208	-200.000	-0.021	-0.252
-538.193	800.000	-0.049	0.160
-537.179	119.353	-0.085	0.106
-536.164	117.723	0.140	-0.173
-535.150	216.358	0.088	0.141
-534.135	-200.000	0.013	0.170
-533.121	-96.982	-0.097	0.025
-532.106	-15.372	0.343	-0.221
-531.091	229.125	-0.105	-0.172
-530.077	103.130	-0.095	-0.112
-529.062	-47.369	0.017	-0.009
-528.048	800.000	0.118	-0.358
-527.033	451.290	0.094	0.209
-526.018	-161.742	0.153	0.008
-525.004	69.507	-0.244	0.253
-523.989	270.392	0.046	0.082
-522.975	133.067	-0.165	0.215
-521.960	-27.280	0.124	0.073
-520.945	-24.924	0.166	-0.099
-519.931	82.776	0.160	-0.175
-518.916	270.984	-0.057	0.102
-517.902	800.000	-0.019	0.058
-516.887	621.827	0.133	0.337
-515.872	-200.000	0.003	0.019
-514.858	-18.952	-0.139	0.087
-513.843	-61.072	-0.408	-0.173
-512.829	-200.000	-0.045	0.401
-511.814	-189.050	-0.366	0.004
-510.799	800.000	-0.028	-0.088
-509.785	-46.040	0.172	0.085
-508.770	263.833	0.055	-0.096
-507.756	800.000	0.105	-0.315
-506.741	-35.409	0.131	0.072
-505.726	-45.930	0.136	0.067
-504.712	300.563	-0.114	0.212
-503.697	281.830	0.133	-0.240
-502.683	-65.044	-0.367	0.149
-501.668	91.121	-0.109	0.123
-500.653	-72.241	0.109	-0.040
-499.639	800.000	0.094	-0.308
-498.624	-15.386	0.215	0.138
-497.610	-61.650	-0.009	0.004
-496.595	0.888	-0.288	0.207
-495.581	-95.111	-0.326	0.088
-494.566	389.895	0.155	-0.323
-493.551	-48.983	-0.212	0.102
-492.537	246.272	0.192	0.326
-491.522	-139.099	0.128	0.014
-490.508	-200.000	0.037	0.285
-489.493	-102.906	0.235	0.056
-488.478	-200.000	0.002	0.215
-487.464	-200.000	-0.004	-0.055
-486.449	-200.000	0.034	-0.250
-485.435	-88.335	-0.131	0.039
-484.420	-200.000	-0.048	-0.256
-483.405	249.787	0.111	-0.189
-482.391	-61.249	-0.192	0.081
-481.376	84.766	0.332	0.366
-480.362	-86.210	0.323	0.100
-479.347	104.982	-0.097	0.115
-478.332	115.558	0.164	-0.202
-477.318	-200.000	-0.002	0.086
-476.303	163.899	-0.266	0.376
-475.289	5.795	0.282	-0.210
-474.274	397.438	-0.012	-0.025
-473.259	-200.000	-0.001	-0.118
-472.245	-200.000	-0.001	0.028
-471.230	-57.879	-0.270	-0.118
-470.216	-75.824	0.290	0.103
-469.201	-200.000	-0.036	-0.260
-468.186	49.293	0.174	-0.164
-467.172	128.422	0.280	0.358
-466.157	-22.145	0.303	-0.184
-465.143	-2.392	0.250	0.176
-464.128	-75.018	0.311	0.112
-463.113	-140.226	-0.041	-0.004
-462.099	-67.983	0.205	-0.080
-461.084	-61.546	0.158	0.067
-460.070	-200.000	-0.032	0.194
-459.055	63.797	-0.149	-0.150
-458.040	-200.000	-0.064	0.410
-457.026	12.119	-0.288	0.222
-456.011	-200.000	0.011	-0.157
-454.997	29.396	-0.126	0.108
-453.982	539.876	-0.151	0.360
-452.968	229.017	-0.246	0.402
-451.953	-95.388	-0.259	0.070
-450.938	-200.000	-0.022	-0.128
-449.924	243.546	-0.071	0.120
-448.909	221.271	-0.096	0.154
-447.895	-15.326	0.059	-0.038
-446.880	-200.000	0.037	-0.431
-445.865	-96.779	-0.072	0.019
-444.851	800.000	-0.096	0.342
-443.836	800.000	-0.049	0.141
-442.822	-200.000	-0.039	-0.302
-441.807	143.163	0.152	-0.203
-440.792	24.254	0.049	-0.041
-439.778	159.392	0.239	-0.333
-438.763	800.000	0.061	-0.232
-437.749	800.000	-0.125	0.411
-436.734	64.778	-0.227	0.229
-435.719	277.364	-0.190	0.338
-434.705	53.384	-0.247	-0.237
-433.690	-200.000	-0.014	-0.400
-432.676	-66.942	0.260	0.103
-431.661	-12.851	-0.240	0.157
-430.646	328.129	0.007	-0.013
-429.632	53.548	-0.051	0.049
-428.617	-37.716	-0.387	-0.207
-427.603	800.000	0.051	-0.213
-426.588	-200.000	0.009	-0.052
-425.573	483.116	0.045	-0.102
-424.559	-66.793	0.217	0.086
-423.544	800.000	0.037	-0.107
-422.530	111.692	-0.277	-0.335
-421.515	-148.782	-0.520	0.042
-420.500	107.837	-0.029	-0.034
-419.486	-122.092	0.331	0.054
-418.471	31.911	0.170	-0.146
-417.457	90.040	-0.117	0.131
-416.442	-58.208	-0.238	-0.104
-415.428	-200.000	0.015	-0.095
-414.413	-200.000	0.015	0.083
-413.398	-59.048	0.246	-0.106
-412.384	-200.000	-0.010	-0.220
-411.369	210.702	-0.191	0.300
-410.355	64.068	-0.174	0.175
-409.340	-119.240	0.119	-0.021
-408.325	-161.586	-0.115	0.006
-407.311	-177.531	-0.166	-0.004
-406.296	-98.104	-0.188	0.048
-405.282	485.015	-0.051	-0.117
-404.267	547.321	-0.049	0.116
-403.252	-60.757	0.200	-0.085
-402.238	34.343	0.170	0.149
-401.223	-46.970	-0.274	0.134
-400.209	403.435	-0.053	-0.112
-399.194	404.286	-0.062	-0.130
-398.179	-34.602	0.086	-0.047
-397.165	87.878	0.136	-0.151
-396.150	33.228	0.067	0.058
-395.136	90.518	-0.111	-0.124
-394.121	800.000	-0.138	0.517
-393.106	62.024	-0.073	0.073
-392.092	425.051	0.074	-0.160
-391.077	105.773	-0.277	-0.328
-390.063	48.002	-0.105	-0.098
-389.048	371.624	-0.058	-0.118
-388.033	-200.000	-0.006	0.101
-387.019	-200.000	0.020	0.090
-386.004	0.531	0.111	0.079
-384.990	276.371	-0.132	0.234
-383.975	-200.000	-0.034	0.310
-382.960	-4.862	0.297	0.205
-381.946	133.283	0.227	-0.294
-380.931	309.105	-0.231	-0.432
-379.917	-200.000	-0.073	-0.371
-378.902	33.705	0.114	-0.099
-377.888	-200.000	-0.015	0.151
-376.873	38.564	0.191	0.170
-375.858	800.000	0.071	-0.253
-374.844	-62.336	0.131	0.055
-373.829	-78.004	0.212	0.073
-372.815	9.494	-0.204	0.155
-371.800	56.971	0.036	0.035
-370.785	374.646	0.068	0.139
-369.771	-66.593	0.167	-0.066
-368.756	800.000	0.046	-0.160
-367.742	-83.247	-0.099	-0.032
-366.727	-200.000	0.025	0.150
-365.712	-200.000	0.000	0.050
-364.698	-151.391	0.188	-0.014
-363.683	-200.000	-0.067	0.321
-362.669	-177.413	0.129	-0.003
-361.654	-96.441	-0.267	0.070
-360.639	-98.549	0.494	-0.126
-359.625	-16.554	0.103	0.065
-358.610	-82.814	-0.207	-0.067
-357.596	-200.000	0.053	-0.294
-356.581	182.596	0.240	-0.354
-355.566	-84.466	0.403	-0.127
-354.552	-14.908	0.170	-0.109
-353.537	80.391	0.224	-0.241
-352.523	-99.873	0.193	0.048
-351.508	-174.422	0.223	-0.006
-350.493	-173.393	-0.282	-0.009
-349.479	800.000	-0.057	-0.244
-348.464	800.000	-0.058	0.193
-347.450	-64.837	0.180	0.073
-346.435	169.763	0.027	-0.038
-345.420	-200.000	0.021	-0.138
-344.406	762.281	-0.080	0.216
-343.391	-165.858	-0.259	0.011
-342.377	-124.290	0.465	-0.073
-341.362	-19.455	-0.288	0.178
-340.348	80.241	0.014	-0.015
-339.333	0.229	-0.113	-0.080
-338.318	100.554	-0.145	0.168
-337.304	-56.013	0.292	0.130
-336.289	-200.000	-0.033	-0.206
-335.275	800.000	0.041	-0.118
-334.260	-191.611	-0.038	0.000
-333.245	94.173	0.048	0.054
-332.231	-61.619	-0.200	-0.084
-331.216	800.000	-0.049	-0.186
-330.202	124.005	-0.116	-0.145
-329.187	-200.000	-0.009	-0.071
-328.172	-55.575	0.217	-0.097
-327.158	95.873	-0.176	0.200
-326.143	568.209	-0.079	-0.191
-325.129	800.000	0.110	-0.331
-324.114	-200.000	0.018	-0.314
-323.099	-115.341	-0.096	0.018
-322.085	154.400	0.100	0.138
-321.070	-131.102	-0.110	-0.015
-320.056	-12.032	-0.248	0.162
-319.041	425.085	-0.087	0.186
-318.026	-101.796	0.031	0.008
-317.012	252.002	-0.118	-0.201
-315.997	-20.637	-0.231	0.142
-314.983	-200.000	-0.030	0.230
-313.968	-45.335	-0.414	0.205
-312.953	83.476	-0.158	0.171
-311.939	53.730	0.155	-0.148
-310.924	294.681	-0.042	0.076
-309.910	64.867	-0.062	0.062
-308.895	-17.423	-0.327	0.205
-307.880	-81.026	-0.198	-0.065
-306.866	44.614	0.276	-0.253
-305.851	278.145	-0.096	-0.171
-304.837	101.255	0.227	0.264
-303.822	370.702	-0.090	0.181
-302.807	149.987	-0.179	-0.242
-301.793	-12.643	-0.325	-0.212
-300.778	111.424	-0.046	-0.056
-299.764	-39.171	0.292	-0.153
-298.749	-57.057	-0.062	-0.027
-297.735	-96.537	0.153	0.040
-296.720	64.636	0.297	0.299
-295.705	57.592	-0.094	-0.092
-294.691	-99.489	-0.133	0.033
-293.676	-129.647	-0.192	0.026
-292.662	-13.971	0.154	-0.099
-291.647	-200.000	-0.005	0.128
-290.632	137.511	-0.096	-0.125
-289.618	-200.000	0.026	-0.269
-288.603	-200.000	-0.010	-0.093
-287.589	-40.689	0.334	-0.173
-286.574	102.994	-0.188	0.219
-285.559	284.882	0.223	-0.400
-284.545	102.781	0.105	0.123
-283.530	800.000	-0.116	-0.453
-282.516	-200.000	-0.080	-0.497
-281.501	-49.571	0.233	0.111
-280.486	137.100	-0.226	0.294
-279.472	406.353	-0.050	-0.106
-278.457	618.341	-0.038	-0.094
-277.443	-120.863	0.366	-0.061
-276.428	351.173	0.034	-0.068
-275.413	18.220	0.203	0.162
-274.399	-128.247	-0.099	-0.014
-273.384	-120.128	-0.298	0.051
-272.370	41.440	-0.262	0.236
-271.355	-200.000	-0.003	-0.052
-270.340	378.389	-0.115	-0.234
-269.326	-200.000	0.013	0.070
-268.311	-67.431	-0.130	-0.051
-267.297	-14.429	0.277	-0.177
-266.282	56.428	-0.167	-0.162
-265.267	-25.933	-0.146	-0.086
-264.253	52.622	0.162	0.154
-263.238	2.917	0.346	0.250
-262.224	6.666	-0.301	0.223
-261.209	-65.035	-0.057	-0.023
-260.195	121.849	-0.147	-0.182
-259.180	-200.000	-0.019	0.354
-258.165	164.428	0.108	0.151
-257.151	-83.582	-0.201	0.064
-256.136	-200.000	0.031	0.247
-255.122	-10.500	-0.177	-0.116
-254.107	87.616	0.308	0.339
-253.092	-149.523	-0.244	0.019
-252.078	-200.000	0.059	0.495
-251.063	664.176	0.067	0.172
-250.049	-200.000	-0.029	0.322
-249.034	-200.000	-0.018	0.162
-248.019	-200.000	0.287	-0.000
-247.005	-64.716	-0.136	-0.055
-245.990	251.365	0.207	-0.350
-244.976	8.725	-0.115	0.086
-243.961	-200.000	0.211	0.000
-242.946	-25.465	-0.044	-0.026
-241.932	-45.778	0.145	-0.071
-240.917	91.230	0.095	-0.107
-239.903	-154.058	0.150	-0.010
-238.888	12.206	-0.352	0.269
-237.873	-87.503	0.276	0.083
-236.859	711.145	0.085	0.225
-235.844	-94.741	-0.330	-0.089
-234.830	-105.101	-0.118	-0.027
-233.815	207.795	-0.135	0.209
-232.800	-200.000	0.003	0.238
-231.786	106.629	-0.081	-0.096
-230.771	-200.000	0.007	0.122
-229.757	48.036	0.233	-0.216
-228.742	-16.139	0.139	-0.088
-227.727	469.150	0.117	0.260
-226.713	-80.968	0.046	0.015
-225.698	391.945	0.044	-0.090
-224.684	-98.995	-0.096	0.024
-223.669	-200.000	0.025	-0.170
-222.655	85.894	-0.184	-0.201
-221.640	-200.000	-0.028	-0.242
-220.625	-200.000	-0.016	0.112
-219.611	-99.839	0.325	-0.081
-218.596	-56.164	0.182	-0.081
-217.582	800.000	-0.087	0.310
-216.567	401.631	0.081	0.170
-215.552	70.683	-0.186	0.191
-214.538	-200.000	-0.013	-0.124
-213.523	-174.901	0.446	0.012
-212.509	800.000	0.044	-0.140
-211.494	10.719	-0.146	0.110
-210.479	-56.023	0.092	-0.041
-209.465	157.383	-0.188	-0.259
-208.450	578.694	0.049	0.120
-207.436	800.000	0.054	-0.149
-206.421	-142.855	0.422	0.041
-205.406	123.764	0.186	0.232
-204.392	88.053	-0.046	-0.051
-203.377	-39.916	-0.018	0.009
-202.363	800.000	0.047	-0.188
-201.348	120.445	0.164	0.203
-200.333	181.467	-0.052	-0.076
-199.319	559.482	-0.166	-0.398
-198.304	166.603	0.215	-0.302
-197.290	-33.955	0.200	-0.109
-196.275	126.951	-0.099	0.125
-195.260	-200.000	-0.066	-0.345
-194.246	-200.000	-0.005	0.374
-193.231	376.615	0.051	-0.104
-192.217	72.589	-0.078	0.081
-191.202	800.000	-0.030	-0.123
-190.187	44.720	-0.077	0.070
-189.173	-52.717	0.241	0.110
-188.158	-200.000	-0.033	0.250
-187.144	-48.617	0.070	0.033
-186.129	-163.544	0.229	0.011
-185.114	476.176	-0.106	-0.238
-184.100	40.651	-0.298	-0.266
-183.085	115.494	0.253	-0.307
-182.071	-200.000	-0.056	-0.277
-181.056	-7.661	-0.065	-0.044
-180.042	-96.625	0.204	-0.053
-179.027	62.031	-0.131	0.130
-178.012	34.151	-0.123	-0.107
-176.998	14.884	0.113	-0.087
-175.983	-200.000	0.011	0.184
-174.969	272.765	-0.221	-0.388
-173.954	-105.075	0.080	-0.018
-172.939	-200.000	0.065	0.357
-171.925	54.673	-0.128	0.122
-170.910	389.066	-0.022	-0.045
-169.896	180.305	0.021	0.031
-168.881	61.371	0.184	0.181
-167.866	26.699	0.084	-0.070
-166.852	-200.000	-0.015	-0.110
-165.837	301.674	0.195	0.357
-164.823	-200.000	-0.037	-0.187
-163.808	-200.000	0.014	-0.093
-162.793	-76.314	0.015	-0.005
-161.779	313.937	0.035	-0.065
-160.764	110.317	-0.126	0.150
-159.750	-200.000	-0.006	0.085
-158.735	-200.000	-0.026	-0.160
-157.720	800.000	-0.071	-0.226
-156.706	306.168	0.210	0.387
-155.691	-17.708	0.382	-0.238
-154.677	-200.000	-0.015	-0.071
-153.662	-91.997	0.228	-0.064
-152.647	71.521	-0.041	-0.042
-151.633	-129.631	0.033	0.005
-150.618	99.479	-0.050	0.058
-149.604	-54.269	-0.172	0.077
-148.589	-200.000	0.104	0.463
-147.574	-139.521	0.333	0.035
-146.560	440.335	0.123	-0.267
-145.545	800.000	0.011	-0.033
-144.531	-200.000	0.031	-0.236
-143.516	-200.000	-0.006	-0.076
-142.502	20.189	0.170	-0.136
-141.487	-189.935	0.258	-0.003
-140.472	-79.917	-0.259	0.086
-139.458	-125.198	-0.232	0.035
-138.443	204.416	0.037	-0.056
-137.429	-200.000	-0.011	-0.253
-136.414	800.000	0.019	0.062
-135.399	800.000	0.078	0.235
-134.385	800.000	0.116	0.380
-133.370	-150.939	-0.035	0.003
-132.356	-104.634	-0.077	-0.018
-131.341	-200.000	-0.010	0.283
-130.326	196.680	0.124	0.187
-129.312	61.532	0.109	0.107
-128.297	-37.709	-0.223	0.118
-127.283	492.152	0.018	0.041
-126.268	-56.542	0.205	0.090
-125.253	-175.024	0.207	0.006
-124.239	800.000	0.056	0.238
-123.224	4.371	-0.063	-0.046
-122.210	-200.000	-0.311	-0.001
