DTS Sentinel unit serial number:	SN413079Multiplexer serial number:	ORYXHardware model number:	OX4-SRSoftware version number:	ORYX F/W v4.00 Oryx Data Collector v3.7.2.0data status	okinstallation	princeton_trtdifferential loss correction	single-endedforward channel	channel 1reverse channel	N/Adate	2019/09/11time	13:52:11forward acquisition time	60.00reverse acquisition time	0.00gamma	496.2192k internal	0.2294k external	0.2294temperature offset calibration	0.9983default loss term (dB/km)	0.3790temperature slope calibration	1.0000multiplexer offset coefficient	1.0000multiplexer slope coefficient	1.0000fibre end	0.00T internal ref (°C)	41.87T ext. ref 1 (°C)	0.81T ext. ref 2 (°C)	35.72length (m)	temperature (°C)	Stokes	anti-Stokes-747.200	800.000	0.079	-0.232
-746.185	-165.753	-0.136	0.006
-745.171	15.222	-0.458	0.367
-744.156	-45.002	-0.152	-0.077
-743.142	695.699	0.079	-0.211
-742.127	-200.000	0.084	0.640
-741.112	16.394	0.136	0.110
-740.098	800.000	0.044	0.193
-739.083	800.000	-0.025	0.092
-738.069	1.845	0.146	0.108
-737.054	-38.081	-0.179	0.097
-736.039	-189.960	0.175	-0.002
-735.025	-59.206	0.390	0.172
-734.010	19.046	-0.354	-0.290
-732.996	-33.269	-0.358	-0.202
-731.981	57.804	-0.090	-0.090
-730.966	-200.000	-0.014	-0.134
-729.952	144.172	0.055	0.076
-728.937	-101.276	-0.136	0.034
-727.923	111.862	-0.075	0.093
-726.908	50.938	-0.161	-0.156
-725.894	129.222	0.248	-0.324
-724.879	-200.000	0.035	0.393
-723.864	-200.000	0.127	0.570
-722.850	-132.838	0.230	0.030
-721.835	-115.646	-0.067	-0.013
-720.821	52.616	-0.192	-0.188
-719.806	-200.000	-0.030	0.185
-718.791	-200.000	0.026	-0.213
-717.777	-30.706	0.110	-0.064
-716.762	339.698	0.016	-0.033
-715.748	35.924	-0.109	0.098
-714.733	256.747	-0.081	0.142
-713.718	103.410	-0.058	-0.070
-712.704	556.894	0.179	-0.439
-711.689	-38.186	-0.058	-0.032
-710.675	-36.533	-0.161	0.089
-709.660	163.950	-0.066	-0.096
-708.645	451.298	-0.156	0.352
-707.631	270.644	0.125	0.225
-706.616	800.000	-0.015	0.064
-705.602	137.362	-0.199	-0.266
-704.587	-33.305	-0.040	-0.023
-703.572	-102.283	-0.325	-0.080
-702.558	-57.484	-0.213	-0.096
-701.543	-65.615	-0.081	-0.033
-700.529	108.569	0.388	-0.473
-699.514	126.178	-0.091	-0.117
-698.499	24.107	-0.445	-0.375
-697.485	800.000	-0.059	-0.186
-696.470	-20.185	0.171	0.108
-695.456	-131.904	-0.315	0.042
-694.441	-200.000	-0.055	-0.325
-693.426	246.996	-0.037	-0.064
-692.412	-200.000	0.026	0.218
-691.397	-200.000	0.002	-0.205
-690.383	-28.580	-0.376	0.221
-689.368	-200.000	-0.035	0.193
-688.354	138.359	-0.119	0.159
-687.339	800.000	-0.108	0.340
-686.324	-130.614	-0.199	-0.027
-685.310	110.007	0.185	0.227
-684.295	90.681	0.146	-0.167
-683.281	-200.000	-0.024	-0.118
-682.266	-88.180	-0.355	0.109
-681.251	-171.414	-0.207	0.007
-680.237	800.000	-0.057	0.233
-679.222	-4.077	0.144	0.102
-678.208	-70.800	-0.131	-0.050
-677.193	5.011	-0.262	-0.197
-676.178	800.000	0.029	0.084
-675.164	268.808	-0.069	-0.124
-674.149	800.000	-0.025	0.098
-673.135	-54.660	-0.079	-0.036
-672.120	32.639	-0.083	0.073
-671.105	-83.953	-0.213	0.069
-670.091	3.378	0.275	-0.204
-669.076	-20.010	0.340	0.214
-668.062	-200.000	-0.005	0.064
-667.047	96.342	0.110	-0.128
-666.032	-200.000	-0.027	-0.337
-665.018	-143.147	-0.228	-0.022
-664.003	47.549	0.079	0.075
-662.989	-200.000	0.003	0.019
-661.974	377.109	-0.084	0.175
-660.959	-93.278	0.321	-0.091
-659.945	114.177	-0.127	0.158
-658.930	91.381	0.120	0.137
-657.916	286.953	-0.063	-0.116
-656.901	471.579	0.190	-0.437
-655.886	70.271	0.127	-0.133
-654.872	219.854	-0.048	0.078
-653.857	-162.252	0.263	-0.013
-652.843	-200.000	0.026	-0.426
-651.828	-186.100	0.089	0.001
-650.814	-200.000	0.007	-0.039
-649.799	-82.661	-0.122	0.040
-648.784	416.534	0.039	0.084
-647.770	11.869	-0.231	0.181
-646.755	-200.000	0.000	0.042
-645.741	-200.000	0.053	-0.367
-644.726	-96.322	0.137	0.037
-643.711	800.000	0.043	-0.190
-642.697	-135.866	0.194	0.023
-641.682	755.130	-0.128	-0.352
-640.668	189.692	0.216	-0.330
-639.653	15.359	-0.072	-0.057
-638.638	-60.189	-0.360	-0.156
-637.624	-68.610	-0.256	-0.101
-636.609	-40.143	-0.042	0.022
-635.595	-128.618	0.169	0.024
-634.580	-200.000	-0.035	-0.295
-633.565	179.508	0.137	-0.205
-632.551	266.259	0.165	-0.294
-631.536	153.099	-0.285	-0.397
-630.522	-200.000	0.091	0.446
-629.507	102.066	0.086	0.102
-628.492	-200.000	-0.009	-0.356
-627.478	108.466	0.294	0.358
-626.463	-146.179	-0.202	-0.018
-625.449	-149.104	0.387	0.032
-624.434	111.188	-0.177	0.217
-623.419	-140.197	0.170	0.018
-622.405	-30.091	-0.089	0.051
-621.390	-170.941	0.158	0.005
-620.376	275.497	-0.077	0.138
-619.361	-200.000	0.012	0.165
-618.346	-200.000	-0.005	-0.169
-617.332	177.769	-0.155	-0.230
-616.317	800.000	0.074	0.232
-615.303	-25.619	-0.149	-0.090
-614.288	25.542	0.297	0.251
-613.273	-51.544	0.124	-0.059
-612.259	-62.666	0.189	-0.080
-611.244	-200.000	-0.041	0.224
-610.230	58.518	-0.309	-0.308
-609.215	-200.000	0.039	-0.249
-608.201	-104.640	-0.317	0.074
-607.186	-47.444	0.223	0.110
-606.171	-200.000	0.011	0.084
-605.157	-27.038	-0.112	0.066
-604.142	339.444	0.074	0.146
-603.128	-200.000	0.043	-0.287
-602.113	29.814	-0.268	-0.232
-601.098	800.000	-0.116	-0.388
-600.084	638.577	0.028	-0.073
-599.069	-180.469	-0.500	0.011
-598.055	-99.799	0.293	-0.074
-597.040	-200.000	0.035	-0.314
-596.025	800.000	0.036	-0.123
-595.011	800.000	-0.094	0.296
-593.996	-200.000	-0.035	0.218
-592.982	124.362	-0.094	0.121
-591.967	153.483	-0.231	0.322
-590.952	394.504	0.038	0.080
-589.938	-8.584	-0.115	0.078
-588.923	-94.460	-0.088	0.024
-587.909	389.201	0.040	-0.085
-586.894	800.000	-0.095	0.345
-585.879	-200.000	-0.007	0.111
-584.865	-74.764	0.273	-0.100
-583.850	-101.846	-0.377	-0.093
-582.836	800.000	-0.148	-0.467
-581.821	-18.486	0.094	-0.060
-580.806	416.158	-0.090	-0.196
-579.792	-75.286	0.087	0.032
-578.777	-8.796	0.337	-0.230
-577.763	-200.000	-0.000	-0.312
-576.748	-92.043	0.267	-0.077
-575.733	-200.000	-0.082	-0.493
-574.719	800.000	0.011	-0.038
-573.704	118.917	-0.183	-0.230
-572.690	800.000	0.078	0.250
-571.675	45.749	-0.229	-0.215
-570.661	58.869	0.314	-0.314
-569.646	35.038	0.078	-0.069
-568.631	-200.000	0.026	0.323
-567.617	-23.522	-0.041	-0.025
-566.602	-85.563	0.383	-0.121
-565.588	800.000	-0.048	-0.198
-564.573	-125.432	0.325	0.050
-563.558	51.081	-0.141	-0.136
-562.544	-174.092	-0.280	0.008
-561.529	-200.000	0.019	-0.166
-560.515	-61.322	-0.192	0.082
-559.500	12.946	-0.218	0.171
-558.485	-127.610	0.425	0.063
-557.471	-200.000	-0.010	0.119
-556.456	587.394	-0.127	0.318
-555.442	-17.139	0.131	0.084
-554.427	54.045	-0.300	-0.293
-553.412	-107.589	-0.330	-0.073
-552.398	-200.000	0.014	-0.313
-551.383	-14.616	0.197	-0.128
-550.369	573.137	0.099	0.245
-549.354	-200.000	0.116	-0.565
-548.339	-167.473	0.234	-0.010
-547.325	800.000	-0.092	-0.286
-546.310	-124.990	-0.189	0.030
-545.296	-81.166	0.139	0.047
-544.281	-99.851	-0.163	0.041
-543.266	-135.712	0.285	0.034
-542.252	-115.352	-0.258	0.049
-541.237	-132.856	-0.153	-0.020
-540.223	-127.235	-0.174	-0.026
-539.208	103.329	-0.133	-0.158
-538.193	-117.929	0.255	0.046
-537.179	100.829	-0.146	-0.172
-536.164	354.485	0.130	-0.261
-535.150	199.788	0.201	0.313
-534.135	-91.985	0.495	-0.142
-533.121	-33.707	-0.492	0.275
-532.106	800.000	-0.067	0.240
-531.091	661.375	-0.163	-0.426
-530.077	-107.718	-0.109	0.024
-529.062	54.864	-0.100	0.097
-528.048	800.000	0.097	0.281
-527.033	-200.000	0.002	0.214
-526.018	179.678	-0.171	-0.255
-525.004	26.112	0.146	-0.124
-523.989	-7.444	-0.235	-0.162
-522.975	282.622	-0.051	0.094
-521.960	-92.626	-0.229	0.065
-520.945	-200.000	0.029	0.179
-519.931	-59.270	0.143	0.062
-518.916	-64.013	0.296	-0.123
-517.902	321.435	0.097	0.187
-516.887	-200.000	0.017	0.392
-515.872	-102.949	-0.293	-0.070
-514.858	800.000	-0.010	0.032
-513.843	-57.156	0.218	0.097
-512.829	-91.559	0.099	0.029
-511.814	-27.265	0.092	0.054
-510.799	-118.203	0.037	0.007
-509.785	-59.875	0.192	0.083
-508.770	389.398	0.217	0.455
-507.756	4.093	0.066	0.049
-506.741	-157.665	0.387	-0.023
-505.726	-200.000	0.034	0.185
-504.712	800.000	0.042	0.138
-503.697	70.238	0.201	0.210
-502.683	191.460	0.207	-0.316
-501.668	434.060	0.101	-0.222
-500.653	-61.394	-0.304	-0.130
-499.639	788.585	-0.055	-0.153
-498.624	169.444	-0.308	-0.445
-497.610	4.418	0.126	-0.093
-496.595	-21.667	-0.172	0.106
-495.581	51.334	-0.245	0.236
-494.566	800.000	-0.086	0.243
-493.551	-46.009	0.236	0.118
-492.537	245.090	-0.142	-0.242
-491.522	-36.527	-0.098	-0.053
-490.508	108.878	0.073	-0.088
-489.493	-131.905	-0.055	0.007
-488.478	-155.381	-0.071	0.005
-487.464	21.016	-0.104	-0.085
-486.449	-77.796	-0.176	0.062
-485.435	-31.006	-0.078	0.044
-484.420	304.567	-0.048	-0.091
-483.405	316.697	0.087	0.166
-482.391	-64.335	0.081	-0.034
-481.376	-16.186	0.356	0.229
-480.362	-11.607	-0.077	-0.051
-479.347	348.761	0.096	-0.192
-478.332	-96.148	-0.188	-0.050
-477.318	49.766	0.187	0.179
-476.303	111.927	0.063	-0.078
-475.289	231.956	-0.136	0.227
-474.274	104.423	0.250	0.298
-473.259	-28.382	-0.119	0.070
-472.245	39.687	-0.044	0.040
-471.230	43.847	0.061	0.056
-470.216	-200.000	-0.012	0.392
-469.201	-148.079	-0.018	-0.001
-468.186	-103.661	0.195	0.046
-467.172	453.312	-0.094	0.210
-466.157	31.957	-0.208	-0.182
-465.143	-107.596	0.294	0.065
-464.128	-200.000	-0.077	0.421
-463.113	29.648	0.146	-0.126
-462.099	-98.807	-0.403	-0.104
-461.084	59.484	-0.203	-0.203
-460.070	-200.000	-0.033	0.277
-459.055	590.522	0.088	0.219
-458.040	-200.000	0.035	-0.212
-457.026	800.000	-0.039	0.110
-456.011	287.175	-0.143	-0.261
-454.997	-48.932	-0.150	0.073
-453.982	-108.786	-0.225	-0.049
-452.968	-45.175	-0.228	0.115
-451.953	-38.905	0.227	-0.121
-450.938	-200.000	-0.068	0.466
-449.924	-59.757	-0.117	-0.051
-448.909	134.895	-0.259	0.340
-447.895	-14.549	0.147	0.095
-446.880	173.516	0.064	0.094
-445.865	743.691	-0.028	0.075
-444.851	48.027	0.372	0.351
-443.836	-55.243	-0.112	0.051
-442.822	-95.632	-0.176	0.048
-441.807	-48.559	-0.207	0.101
-440.792	562.480	0.080	-0.196
-439.778	-57.860	-0.223	0.099
-438.763	800.000	0.027	-0.083
-437.749	260.874	0.052	-0.091
-436.734	145.132	-0.111	-0.151
-435.719	400.607	0.137	0.290
-434.705	-76.919	-0.043	-0.015
-433.690	-200.000	-0.002	-0.153
-432.676	-1.115	-0.072	0.052
-431.661	800.000	0.067	0.209
-430.646	466.303	0.062	-0.141
-429.632	-101.826	-0.227	0.055
-428.617	-188.664	0.178	0.002
-427.603	-37.134	-0.277	-0.150
-426.588	234.110	0.118	0.196
-425.573	-200.000	0.035	0.227
-424.559	-200.000	-0.024	0.218
-423.544	-173.338	-0.191	0.006
-422.530	-200.000	0.068	0.329
-421.515	-59.907	0.287	0.124
-420.500	258.775	-0.072	0.125
-419.486	-106.054	-0.096	-0.022
-418.471	161.408	0.250	0.353
-417.457	41.379	0.103	-0.094
-416.442	-39.544	0.103	-0.055
-415.428	-37.993	0.390	-0.209
-414.413	800.000	-0.050	-0.219
-413.398	419.685	0.148	0.321
-412.384	-200.000	-0.409	-0.002
-411.369	-190.388	0.275	0.003
-410.355	-13.068	0.350	-0.229
-409.340	154.101	0.213	0.296
-408.325	232.964	-0.130	0.215
-407.311	107.939	0.201	0.241
-406.296	800.000	0.075	-0.280
-405.282	-200.000	-0.005	0.032
-404.267	244.908	-0.011	0.018
-403.252	-93.152	-0.074	0.021
-402.238	52.428	-0.230	0.222
-401.223	-200.000	-0.068	0.394
-400.209	236.611	0.084	-0.141
-399.194	-126.730	-0.153	-0.023
-398.179	-84.069	-0.292	-0.094
-397.165	-200.000	-0.002	0.336
-396.150	175.259	-0.109	-0.159
-395.136	-152.151	-0.336	-0.025
-394.121	120.313	0.134	0.168
-393.106	-136.770	0.177	-0.021
-392.092	-104.588	-0.163	-0.038
-391.077	75.716	0.205	-0.219
-390.063	35.218	-0.063	0.056
-389.048	544.435	-0.121	0.292
-388.033	-141.815	0.253	-0.026
-387.019	398.381	-0.046	0.097
-386.004	184.616	-0.074	0.110
-384.990	50.911	0.185	0.176
-383.975	-33.937	0.019	0.010
-382.960	101.325	0.132	0.155
-381.946	-200.000	0.003	0.083
-380.931	-92.941	0.090	0.025
-379.917	-129.163	0.148	-0.021
-378.902	566.988	0.058	-0.143
-377.888	208.324	-0.117	0.184
-376.873	619.125	0.137	0.348
-375.858	800.000	-0.065	0.254
-374.844	-165.200	-0.309	-0.014
-373.829	-144.260	0.174	-0.016
-372.815	184.898	0.093	-0.139
-371.800	84.120	0.035	-0.039
-370.785	-98.547	0.395	0.102
-369.771	800.000	-0.063	-0.188
-368.756	-137.792	-0.203	-0.023
-367.742	-60.021	0.250	0.108
-366.727	-200.000	0.018	-0.123
-365.712	-39.464	-0.382	-0.202
-364.698	-148.594	0.254	0.021
-363.683	3.944	-0.191	-0.140
-362.669	-199.652	-0.391	-0.002
-361.654	38.445	0.294	0.264
-360.639	-45.719	0.305	0.152
-359.625	800.000	-0.073	0.248
-358.610	34.176	0.100	0.088
-357.596	-54.587	0.237	0.108
-356.581	-171.122	0.307	0.010
-355.566	-62.763	0.273	-0.114
-354.552	-80.935	-0.062	0.021
-353.537	287.058	-0.161	-0.293
-352.523	-200.000	0.007	-0.092
-351.508	184.150	-0.077	0.114
-350.493	800.000	0.093	-0.263
-349.479	-200.000	0.020	-0.206
-348.464	-82.757	-0.070	-0.023
-347.450	76.531	0.160	0.171
-346.435	-200.000	0.012	-0.184
-345.420	-162.741	-0.193	0.009
-344.406	-156.849	-0.198	0.012
-343.391	800.000	-0.151	-0.437
-342.377	17.534	0.248	0.199
-341.362	-77.016	0.066	-0.023
-340.348	-175.177	0.302	-0.008
-339.333	83.394	-0.068	-0.074
-338.318	236.654	-0.097	0.161
-337.304	-117.950	-0.130	0.023
-336.289	-19.422	0.117	-0.073
-335.275	-107.769	-0.474	0.104
-334.260	800.000	-0.080	0.267
-333.245	-73.395	-0.418	-0.154
-332.231	169.570	0.152	0.219
-331.216	800.000	-0.117	0.415
-330.202	-124.123	-0.270	0.043
-329.187	-200.000	-0.018	-0.117
-328.172	-157.382	-0.155	0.009
-327.158	144.422	-0.183	0.246
-326.143	246.091	0.050	-0.085
-325.129	-109.910	-0.439	0.093
-324.114	-138.381	0.022	-0.002
-323.099	-61.733	0.035	-0.015
-322.085	50.747	-0.157	0.149
-321.070	800.000	0.089	0.301
-320.056	-139.286	0.142	0.015
-319.041	-200.000	-0.036	0.328
-318.026	-46.862	0.212	-0.104
-317.012	353.199	0.104	0.208
-315.997	553.909	-0.068	0.165
-314.983	-32.059	-0.043	-0.024
-313.968	-43.798	0.171	-0.086
-312.953	-110.093	-0.127	-0.027
-311.939	754.554	0.148	-0.402
-310.924	-82.862	0.209	0.068
-309.910	-200.000	-0.035	-0.212
-308.895	-54.587	0.173	-0.079
-307.880	399.413	0.077	-0.163
-306.866	-28.395	0.168	-0.097
-305.851	44.625	0.243	-0.225
-304.837	456.271	0.032	-0.072
-303.822	-47.172	0.355	-0.174
-302.807	560.829	-0.089	-0.215
-301.793	-0.667	-0.217	-0.155
-300.778	-78.549	-0.384	-0.132
-299.764	-59.969	-0.150	-0.064
-298.749	-28.944	0.053	-0.031
-297.735	-40.510	0.366	0.191
-296.720	71.669	-0.074	-0.077
-295.705	-57.182	0.201	0.089
-294.691	37.137	-0.182	0.162
-293.676	800.000	-0.028	-0.116
-292.662	800.000	-0.139	-0.562
-291.647	14.253	-0.156	-0.122
-290.632	-63.637	0.218	0.090
-289.618	-200.000	0.032	-0.160
-288.603	800.000	-0.022	-0.087
-287.589	74.017	0.220	-0.231
-286.574	800.000	-0.071	-0.225
-285.559	800.000	-0.021	0.087
-284.545	-24.494	0.217	0.130
-283.530	-29.941	0.153	-0.088
-282.516	-62.574	-0.089	-0.037
-281.501	142.704	0.011	0.014
-280.486	96.302	0.168	0.193
-279.472	800.000	-0.028	-0.122
-278.457	320.511	-0.037	-0.071
-277.443	800.000	0.077	0.217
-276.428	114.918	0.041	-0.050
-275.413	-103.301	0.359	-0.085
-274.399	-102.235	0.108	0.026
-273.384	-65.773	0.372	0.149
-272.370	-91.180	-0.155	-0.045
-271.355	-48.013	-0.273	-0.132
-270.340	-44.853	-0.016	-0.008
-269.326	-169.959	0.275	0.010
-268.311	-136.136	0.316	0.037
-267.297	534.747	-0.137	0.325
-266.282	-55.037	-0.231	-0.104
-265.267	550.943	-0.167	0.403
-264.253	141.561	0.209	0.278
-263.238	-59.849	-0.134	-0.058
-262.224	-19.079	0.004	-0.003
-261.209	-200.000	-0.031	-0.180
-260.195	17.994	0.272	-0.218
-259.180	-122.776	0.188	-0.031
-258.165	53.402	-0.134	0.129
-257.151	92.484	-0.065	0.074
-256.136	104.158	0.109	-0.128
-255.122	-99.781	0.388	-0.098
-254.107	-200.000	0.026	0.169
-253.092	-81.274	-0.412	-0.136
-252.078	67.608	0.174	-0.179
-251.063	37.403	-0.070	-0.062
-250.049	800.000	0.068	-0.208
-249.034	744.653	-0.049	-0.133
-248.019	-114.330	-0.217	0.042
-247.005	5.740	0.161	0.119
-245.990	45.040	-0.117	-0.108
-244.976	770.820	-0.053	-0.144
-243.961	800.000	0.010	0.039
-242.946	42.675	-0.197	0.180
-241.932	-200.000	-0.040	0.352
-240.917	-135.940	-0.096	-0.011
-239.903	183.025	0.118	-0.174
-238.888	-200.000	-0.031	-0.155
-237.873	-200.000	0.026	0.170
-236.859	144.215	0.045	0.061
-235.844	6.341	-0.196	0.146
-234.830	-58.440	-0.344	-0.150
-233.815	212.893	0.091	-0.144
-232.800	52.248	0.246	-0.235
-231.786	206.845	0.044	0.069
-230.771	284.664	0.076	0.138
-229.757	343.385	-0.219	-0.429
-228.742	800.000	-0.062	-0.182
-227.727	90.693	0.099	-0.111
-226.713	165.489	0.100	0.141
-225.698	800.000	0.033	0.127
-224.684	-200.000	-0.066	0.307
-223.669	-31.225	0.174	-0.098
-222.655	-200.000	0.031	0.360
-221.640	-200.000	0.007	0.251
-220.625	-145.896	-0.224	0.020
-219.611	-200.000	0.013	0.226
-218.596	-9.831	-0.341	-0.227
-217.582	583.720	-0.088	-0.216
-216.567	-13.250	0.197	-0.128
-215.552	50.980	-0.219	0.208
-214.538	-36.712	-0.322	-0.173
-213.523	349.262	0.059	-0.117
-212.509	-200.000	-0.013	-0.350
-211.494	88.745	0.176	0.196
-210.479	-125.283	0.055	0.008
-209.465	-200.000	0.009	-0.371
-208.450	-111.077	-0.118	-0.024
-207.436	-200.000	-0.006	-0.118
-206.421	8.844	0.220	-0.166
-205.406	800.000	-0.038	0.129
-204.392	-193.452	0.164	-0.001
-203.377	800.000	0.069	-0.222
-202.363	-200.000	-0.011	0.074
-201.348	375.056	-0.180	-0.367
-200.333	800.000	0.052	-0.192
-199.319	-200.000	0.037	-0.184
-198.304	-91.552	0.119	-0.034
-197.290	-2.345	-0.201	0.141
-196.275	-200.000	-0.008	0.091
-195.260	-13.773	0.209	-0.135
-194.246	-116.555	0.341	0.063
-193.231	800.000	0.027	-0.092
-192.217	-47.053	-0.218	0.107
-191.202	-140.176	0.116	0.012
-190.187	88.162	-0.208	0.231
-189.173	485.857	-0.114	-0.259
-188.158	-150.131	-0.293	0.023
-187.144	137.599	-0.060	0.079
-186.129	595.890	-0.021	-0.051
-185.114	-9.952	-0.119	-0.079
-184.100	800.000	-0.006	-0.022
-183.085	-145.228	0.103	-0.009
-182.071	-102.797	0.222	0.053
-181.056	188.878	0.057	-0.085
-180.042	130.237	-0.044	-0.056
-179.027	-128.675	-0.048	0.007
-178.012	52.974	0.066	-0.063
-176.998	-137.796	-0.093	-0.010
-175.983	-106.889	-0.223	0.050
-174.969	800.000	-0.025	-0.098
-173.954	279.880	0.090	0.161
-172.939	15.139	-0.111	0.087
-171.925	260.514	0.054	0.093
-170.910	305.007	-0.111	-0.205
-169.896	-200.000	-0.039	0.172
-168.881	800.000	0.064	-0.218
-167.866	-77.036	0.096	-0.034
-166.852	-200.000	-0.201	-0.000
-165.837	-149.775	-0.183	-0.014
-164.823	11.003	0.162	0.124
-163.808	-200.000	-0.006	-0.075
-162.793	-200.000	-0.035	0.190
-161.779	-76.432	0.166	-0.058
-160.764	-20.078	0.101	-0.063
-159.750	800.000	0.083	0.291
-158.735	-117.611	-0.099	-0.018
-157.720	201.697	-0.117	0.179
-156.706	-25.503	0.190	-0.112
-155.691	307.684	-0.050	-0.092
-154.677	18.223	-0.204	0.163
-153.662	-174.422	-0.338	0.010
-152.647	-103.145	0.151	0.036
-151.633	-143.672	0.217	-0.021
-150.618	800.000	0.054	-0.222
-149.604	-132.026	-0.134	0.017
-148.589	80.874	-0.076	-0.082
-147.574	-200.000	-0.008	-0.472
-146.560	-200.000	-0.023	-0.115
-145.545	266.319	-0.133	-0.232
-144.531	-117.039	0.235	0.043
-143.516	52.333	0.149	0.142
-142.502	-200.000	-0.047	-0.379
-141.487	42.786	-0.160	0.146
-140.472	800.000	0.044	0.135
-139.458	43.821	0.280	0.256
-138.443	800.000	0.056	-0.169
-137.429	256.727	-0.100	-0.172
-136.414	584.224	-0.121	0.297
-135.399	-139.147	-0.339	0.037
-134.385	-167.004	-0.353	0.014
-133.370	417.665	-0.042	-0.089
-132.356	-157.708	0.312	0.019
-131.341	-148.786	-0.179	0.014
-130.326	-42.904	-0.062	0.031
-129.312	-104.785	0.100	0.023
-128.297	-200.000	0.016	0.073
-127.283	-200.000	0.003	-0.053
-126.268	-200.000	-0.067	0.301
-125.253	-200.000	0.120	0.599
-124.239	-74.768	0.343	0.123
-123.224	-79.159	0.332	0.112
-122.210	-117.573	0.237	-0.043
