DTS Sentinel unit serial number:	SN413079Multiplexer serial number:	ORYXHardware model number:	OX4-SRSoftware version number:	ORYX F/W v4.00 Oryx Data Collector v3.7.2.0data status	okinstallation	princeton_trtdifferential loss correction	single-endedforward channel	channel 1reverse channel	N/Adate	2019/09/11time	18:36:11forward acquisition time	60.00reverse acquisition time	0.00gamma	496.2192k internal	0.2290k external	0.2290temperature offset calibration	1.0005default loss term (dB/km)	0.3790temperature slope calibration	1.0000multiplexer offset coefficient	1.0000multiplexer slope coefficient	1.0000fibre end	0.00T internal ref (°C)	43.66T ext. ref 1 (°C)	1.19T ext. ref 2 (°C)	36.45length (m)	temperature (°C)	Stokes	anti-Stokes-747.200	369.825	0.043	-0.089
-746.185	229.489	-0.144	0.241
-745.171	35.858	-0.146	-0.131
-744.156	268.855	-0.143	0.257
-743.142	-92.976	-0.280	-0.080
-742.127	-200.000	0.014	-0.152
-741.112	103.629	-0.151	-0.181
-740.098	-4.439	-0.360	0.255
-739.083	800.000	-0.024	-0.070
-738.069	-200.000	-0.034	0.208
-737.054	-68.742	-0.630	0.250
-736.039	-131.040	-0.300	0.041
-735.025	-24.672	0.110	-0.067
-734.010	546.063	-0.092	-0.226
-732.996	58.257	-0.420	-0.422
-731.981	64.710	-0.172	0.177
-730.966	-106.308	0.358	0.082
-729.952	800.000	0.123	0.448
-728.937	-136.309	-0.063	-0.008
-727.923	-122.246	-0.080	-0.013
-726.908	324.252	0.093	0.182
-725.894	-153.072	-0.210	-0.015
-724.879	43.279	0.093	0.087
-723.864	352.570	0.039	-0.079
-722.850	-200.000	0.042	-0.332
-721.835	17.742	0.079	-0.064
-720.821	-200.000	0.054	-0.504
-719.806	-63.265	-0.053	-0.022
-718.791	-162.018	-0.206	-0.011
-717.777	-73.834	0.205	0.076
-716.762	323.717	0.148	-0.289
-715.748	800.000	0.019	0.080
-714.733	-30.299	-0.383	0.222
-713.718	-177.200	0.245	0.006
-712.704	191.714	-0.249	-0.384
-711.689	144.154	-0.065	0.088
-710.675	800.000	0.039	0.176
-709.660	-168.898	-0.185	0.007
-708.645	-77.402	-0.034	-0.012
-707.631	-32.484	-0.291	-0.166
-706.616	-200.000	0.009	-0.310
-705.602	-169.763	0.209	-0.008
-704.587	-200.000	-0.014	-0.088
-703.572	54.472	0.227	-0.224
-702.558	-200.000	0.016	0.075
-701.543	195.668	-0.075	-0.117
-700.529	207.983	-0.074	0.118
-699.514	800.000	0.021	-0.090
-698.499	800.000	0.057	-0.193
-697.485	-63.570	0.077	0.032
-696.470	-200.000	0.002	0.123
-695.456	-20.551	0.115	-0.072
-694.441	254.922	-0.081	0.142
-693.426	223.961	-0.140	-0.231
-692.412	-185.248	0.109	-0.002
-691.397	116.015	0.023	0.029
-690.383	-61.456	-0.129	-0.056
-689.368	-68.810	0.095	-0.038
-688.354	-33.118	-0.255	0.144
-687.339	-81.144	0.205	-0.069
-686.324	800.000	0.062	0.214
-685.310	-76.151	0.179	-0.064
-684.295	-172.717	-0.150	0.005
-683.281	-139.851	-0.239	-0.026
-682.266	-100.630	0.149	0.038
-681.251	504.537	-0.095	-0.225
-680.237	-68.516	-0.409	0.162
-679.222	-73.100	0.193	-0.072
-678.208	-200.000	-0.103	-0.506
-677.193	185.446	-0.127	-0.192
-676.178	800.000	-0.012	0.039
-675.164	-200.000	-0.019	0.175
-674.149	-16.762	0.148	-0.096
-673.135	-33.332	0.130	-0.074
-672.120	-3.609	-0.094	0.067
-671.105	280.444	0.018	0.033
-670.091	-154.464	-0.231	0.016
-669.076	528.492	-0.135	-0.327
-668.062	-200.000	-0.018	-0.175
-667.047	-200.000	-0.021	-0.558
-666.032	49.542	-0.182	-0.175
-665.018	-99.649	0.193	0.050
-664.003	215.751	-0.122	-0.197
-662.989	-135.404	0.352	0.043
-661.974	12.491	0.135	0.106
-660.959	126.386	0.149	-0.192
-659.945	132.521	0.264	-0.348
-658.930	91.686	0.247	-0.284
-657.916	-15.336	0.157	-0.103
-656.901	800.000	0.071	0.272
-655.886	164.615	-0.171	0.246
-654.872	800.000	0.061	0.229
-653.857	-63.337	-0.310	0.130
-652.843	646.181	-0.014	-0.036
-651.828	49.909	0.147	-0.141
-650.814	-112.684	-0.294	0.060
-649.799	-86.604	-0.065	-0.020
-648.784	-32.574	-0.102	-0.058
-647.770	-174.261	0.373	0.011
-646.755	-110.914	-0.417	0.088
-645.741	26.851	-0.446	-0.382
-644.726	88.125	0.130	-0.147
-643.711	-120.815	0.156	0.027
-642.697	182.886	-0.211	0.319
-641.682	6.639	0.265	-0.201
-640.668	86.020	-0.192	0.216
-639.653	97.671	0.108	-0.127
-638.638	-138.387	-0.170	-0.019
-637.624	-32.896	0.177	-0.100
-636.609	-156.169	0.127	-0.008
-635.595	-107.946	-0.200	-0.044
-634.580	272.719	-0.155	-0.279
-633.565	-200.000	-0.027	-0.280
-632.551	36.579	-0.126	-0.114
-631.536	-88.945	-0.235	-0.071
-630.522	333.760	0.073	0.145
-629.507	-200.000	-0.029	0.292
-628.492	800.000	-0.055	0.217
-627.478	3.511	-0.040	0.030
-626.463	-94.551	0.337	-0.094
-625.449	137.471	-0.261	0.349
-624.434	51.641	-0.233	-0.226
-623.419	-114.391	0.221	-0.043
-622.405	664.629	0.056	-0.147
-621.390	800.000	0.060	0.231
-620.376	-200.000	-0.021	-0.171
-619.361	41.929	-0.186	0.172
-618.346	358.039	-0.069	-0.141
-617.332	-200.000	0.004	-0.059
-616.317	24.412	0.176	-0.148
-615.303	-15.512	-0.205	-0.133
-614.288	-200.000	0.084	-0.392
-613.273	800.000	0.058	-0.258
-612.259	800.000	0.102	-0.401
-611.244	536.062	-0.122	0.296
-610.230	-30.058	-0.153	-0.088
-609.215	86.588	-0.252	-0.284
-608.201	-27.808	-0.340	-0.201
-607.186	-185.956	-0.467	0.007
-606.171	-200.000	0.020	-0.093
-605.157	-42.332	-0.148	0.077
-604.142	800.000	-0.074	0.237
-603.128	37.262	-0.105	-0.095
-602.113	463.694	-0.043	0.097
-601.098	-70.555	-0.074	-0.029
-600.084	-200.000	0.017	-0.194
-599.069	218.802	0.042	-0.069
-598.055	414.564	-0.053	-0.115
-597.040	-120.562	-0.176	0.030
-596.025	261.995	0.135	-0.237
-595.011	-178.378	-0.121	0.003
-593.996	76.560	0.119	-0.128
-592.982	-200.000	0.015	0.135
-591.967	-90.453	-0.257	0.076
-590.952	-200.000	0.043	0.310
-589.938	-40.084	-0.274	-0.145
-588.923	90.974	0.124	-0.141
-587.909	-20.236	0.072	-0.045
-586.894	800.000	0.077	-0.229
-585.879	-171.511	-0.329	-0.011
-584.865	-200.000	-0.006	-0.208
-583.850	-200.000	0.043	0.331
-582.836	-20.031	-0.172	0.108
-581.821	50.321	-0.300	-0.288
-580.806	-200.000	-0.058	-0.282
-579.792	-70.679	-0.163	-0.062
-578.777	307.089	0.046	0.088
-577.763	-125.729	0.426	0.066
-576.748	-3.611	0.255	-0.181
-575.733	-10.241	-0.414	-0.280
-574.719	12.972	0.217	-0.171
-573.704	-69.287	0.280	-0.109
-572.690	75.986	-0.109	-0.117
-571.675	-128.928	0.111	-0.016
-570.661	-46.272	0.322	-0.161
-569.646	-20.567	0.123	0.077
-568.631	-114.731	0.126	-0.024
-567.617	-126.426	0.217	-0.033
-566.602	145.369	-0.100	0.136
-565.588	73.426	0.045	0.048
-564.573	-11.966	-0.020	0.013
-563.558	-49.988	0.258	0.124
-562.544	-131.836	0.111	-0.015
-561.529	355.641	-0.209	-0.422
-560.515	43.599	-0.094	0.088
-559.500	-57.639	0.265	0.118
-558.485	108.801	0.089	-0.108
-557.471	-200.000	0.052	0.305
-556.456	-87.455	0.207	0.064
-555.442	160.663	-0.254	0.361
-554.427	-26.562	-0.263	0.156
-553.412	-169.961	-0.102	0.004
-552.398	-200.000	0.003	-0.073
-551.383	-18.694	-0.012	0.007
-550.369	58.774	0.153	0.153
-549.354	129.060	0.097	-0.126
-548.339	-24.611	0.131	0.079
-547.325	-75.863	-0.076	0.027
-546.310	800.000	0.087	0.314
-545.296	-200.000	-0.314	0.001
-544.281	48.298	-0.269	0.256
-543.266	-18.943	-0.184	-0.116
-542.252	389.486	-0.247	-0.519
-541.237	-122.640	-0.190	-0.031
-540.223	169.043	0.197	0.286
-539.208	37.356	-0.099	0.089
-538.193	-33.108	0.172	-0.097
-537.179	168.819	0.117	-0.169
-536.164	-139.951	0.092	-0.010
-535.150	800.000	0.018	0.053
-534.135	-200.000	-0.080	0.392
-533.121	-200.000	-0.011	-0.108
-532.106	-200.000	-0.027	0.146
-531.091	-200.000	0.045	0.325
-530.077	294.346	-0.167	0.309
-529.062	-13.654	0.135	0.088
-528.048	-6.818	0.232	-0.160
-527.033	-116.349	-0.340	0.064
-526.018	572.020	-0.109	-0.271
-525.004	241.775	0.043	0.073
-523.989	-81.364	-0.214	-0.071
-522.975	-90.936	0.116	0.034
-521.960	-85.230	0.092	-0.029
-520.945	322.534	0.123	-0.238
-519.931	95.723	-0.058	0.067
-518.916	-21.723	-0.255	0.158
-517.902	-45.716	0.089	0.044
-516.887	800.000	-0.054	0.153
-515.872	-88.029	-0.231	-0.070
-514.858	620.731	-0.038	0.098
-513.843	-42.582	-0.062	0.032
-512.829	-151.637	-0.347	0.026
-511.814	800.000	-0.059	0.182
-510.799	41.058	-0.253	-0.232
-509.785	522.935	-0.046	-0.109
-508.770	-113.910	0.369	0.073
-507.756	373.614	-0.131	-0.271
-506.741	272.819	0.100	-0.180
-505.726	-67.990	0.189	0.075
-504.712	-39.518	0.161	-0.086
-503.697	-200.000	0.027	0.160
-502.683	283.795	0.095	-0.173
-501.668	-83.320	-0.193	-0.063
-500.653	800.000	-0.066	-0.217
-499.639	143.679	-0.026	0.035
-498.624	-123.038	-0.343	0.056
-497.610	13.388	-0.104	-0.082
-496.595	-165.778	0.166	-0.007
-495.581	167.678	0.202	0.292
-494.566	-79.838	-0.281	0.096
-493.551	-200.000	0.023	0.143
-492.537	124.433	-0.016	-0.020
-491.522	-29.773	0.224	-0.129
-490.508	-200.000	-0.025	-0.172
-489.493	-195.032	-0.337	-0.003
-488.478	-200.000	-0.019	-0.238
-487.464	-200.000	-0.050	-0.479
-486.449	-200.000	-0.066	-0.316
-485.435	-200.000	0.033	0.191
-484.420	-200.000	-0.042	0.253
-483.405	-32.622	0.142	0.080
-482.391	109.427	0.136	-0.165
-481.376	-123.014	-0.110	0.018
-480.362	-200.000	0.005	-0.074
-479.347	127.389	0.101	-0.131
-478.332	-63.040	-0.306	0.128
-477.318	157.654	0.097	-0.137
-476.303	-7.492	0.134	0.092
-475.289	351.179	0.089	-0.179
-474.274	-83.519	-0.150	0.049
-473.259	-61.805	-0.082	0.035
-472.245	-13.529	-0.249	-0.164
-471.230	-10.945	-0.086	-0.057
-470.216	228.774	-0.011	0.019
-469.201	-38.866	-0.199	0.106
-468.186	-81.714	-0.264	-0.088
-467.172	-151.800	-0.019	0.001
-466.157	-200.000	-0.026	0.125
-465.143	86.479	-0.055	0.062
-464.128	-200.000	0.026	0.133
-463.113	-200.000	-0.026	-0.200
-462.099	366.609	0.076	-0.156
-461.084	678.457	-0.035	-0.093
-460.070	107.455	-0.113	-0.136
-459.055	-104.936	-0.228	-0.053
-458.040	154.654	0.100	-0.139
-457.026	-121.833	0.217	0.036
-456.011	11.559	0.031	-0.024
-454.997	-108.345	0.030	-0.006
-453.982	-4.542	-0.362	-0.253
-452.968	-56.813	0.285	0.128
-451.953	-17.676	0.202	-0.129
-450.938	133.106	0.076	0.099
-449.924	-85.433	-0.064	0.020
-448.909	17.028	-0.088	-0.071
-447.895	223.904	-0.079	0.129
-446.880	-200.000	0.001	0.049
-445.865	46.942	0.049	0.046
-444.851	192.777	-0.155	-0.237
-443.836	800.000	-0.102	0.319
-442.822	-101.649	0.235	-0.058
-441.807	-55.177	0.286	-0.130
-440.792	282.115	-0.062	-0.113
-439.778	-78.327	0.485	0.168
-438.763	290.379	0.150	-0.276
-437.749	20.602	-0.127	0.104
-436.734	-200.000	-0.091	0.407
-435.719	800.000	-0.043	-0.131
-434.705	800.000	0.075	0.261
-433.690	52.763	-0.136	0.132
-432.676	233.644	-0.210	0.350
-431.661	-122.641	-0.262	-0.043
-430.646	93.649	0.130	-0.149
-429.632	90.757	-0.132	-0.150
-428.617	-158.217	-0.245	-0.014
-427.603	-152.113	0.089	-0.007
-426.588	222.301	-0.035	0.056
-425.573	426.221	0.111	-0.243
-424.559	38.387	-0.146	0.132
-423.544	53.379	-0.161	-0.157
-422.530	-4.722	-0.069	-0.048
-421.515	-93.242	-0.325	-0.091
-420.500	109.175	0.135	0.163
-419.486	-68.701	0.372	0.145
-418.471	126.689	-0.116	0.149
-417.457	-200.000	-0.005	-0.101
-416.442	-0.944	-0.116	-0.083
-415.428	27.378	0.419	0.356
-414.413	41.329	0.157	0.143
-413.398	24.208	-0.274	0.229
-412.384	-161.930	0.335	0.017
-411.369	-145.063	-0.211	0.019
-410.355	-36.718	-0.139	0.076
-409.340	22.512	0.149	-0.124
-408.325	273.066	-0.118	0.210
-407.311	-178.559	-0.343	0.008
-406.296	-200.000	0.005	-0.033
-405.282	-200.000	-0.043	0.322
-404.267	800.000	-0.043	0.131
-403.252	-200.000	-0.041	-0.322
-402.238	800.000	0.118	-0.343
-401.223	-200.000	-0.024	-0.213
-400.209	15.366	0.123	0.098
-399.194	96.068	0.104	-0.120
-398.179	72.464	-0.036	-0.038
-397.165	-52.534	-0.108	-0.050
-396.150	120.806	-0.097	-0.122
-395.136	97.460	-0.048	-0.056
-394.121	-113.249	0.609	0.121
-393.106	-37.178	0.332	0.179
-392.092	-98.252	0.181	-0.047
-391.077	-172.869	-0.057	0.002
-390.063	319.541	-0.097	0.187
-389.048	114.247	-0.222	0.273
-388.033	708.715	-0.011	-0.030
-387.019	-138.324	0.307	-0.034
-386.004	-160.117	-0.174	0.010
-384.990	-176.932	0.332	0.008
-383.975	138.340	-0.200	-0.265
-382.960	-200.000	-0.002	-0.036
-381.946	186.301	0.194	0.292
-380.931	800.000	0.066	0.192
-379.917	513.666	-0.118	-0.278
-378.902	-40.232	-0.258	0.136
-377.888	-200.000	-0.036	0.203
-376.873	161.631	0.262	0.371
-375.858	358.234	-0.040	-0.080
-374.844	-167.636	-0.200	0.008
-373.829	-179.196	0.102	0.002
-372.815	6.951	-0.222	0.167
-371.800	639.708	0.010	0.025
-370.785	33.657	0.194	-0.171
-369.771	800.000	-0.042	0.127
-368.756	366.882	-0.200	0.408
-367.742	346.025	0.177	-0.350
-366.727	-185.636	-0.321	0.005
-365.712	-75.481	0.331	0.119
-364.698	800.000	-0.052	-0.206
-363.683	-26.406	-0.445	0.263
-362.669	-200.000	0.026	-0.404
-361.654	-158.805	-0.269	0.015
-360.639	37.986	0.330	0.296
-359.625	-43.685	-0.039	-0.020
-358.610	-82.375	0.190	0.062
-357.596	-12.682	0.071	0.047
-356.581	-122.523	0.176	-0.029
-355.566	-200.000	0.028	0.241
-354.552	-29.141	0.510	0.295
-353.537	202.254	0.078	0.122
-352.523	412.565	-0.104	0.224
-351.508	104.390	-0.128	-0.152
-350.493	92.661	0.156	-0.178
-349.479	-200.000	0.039	-0.206
-348.464	515.192	-0.100	-0.235
-347.450	-200.000	-0.022	0.125
-346.435	48.643	0.251	0.238
-345.420	-129.685	-0.373	0.052
-344.406	113.981	0.084	0.103
-343.391	-10.617	-0.061	0.041
-342.377	-161.694	-0.049	-0.003
-341.362	623.058	0.056	-0.142
-340.348	-200.000	0.002	0.123
-339.333	567.860	-0.082	0.201
-338.318	145.350	-0.220	0.297
-337.304	-200.000	-0.002	-0.030
-336.289	-94.727	0.157	0.043
-335.275	56.980	0.152	-0.150
-334.260	318.697	0.110	0.209
-333.245	-52.395	0.147	-0.069
-332.231	-200.000	-0.006	-0.042
-331.216	-21.278	-0.060	-0.037
-330.202	-41.824	0.235	0.121
-329.187	-14.427	0.219	-0.142
-328.172	589.707	0.132	-0.328
-327.158	694.315	0.065	-0.172
-326.143	800.000	0.086	0.360
-325.129	800.000	0.055	0.179
-324.114	31.702	0.154	0.134
-323.099	27.900	0.059	0.050
-322.085	-200.000	0.018	0.149
-321.070	-200.000	-0.027	0.386
-320.056	-108.086	-0.133	-0.029
-319.041	-16.055	0.138	-0.088
-318.026	7.618	-0.184	-0.139
-317.012	-76.841	0.129	0.045
-315.997	-44.823	0.154	-0.077
-314.983	-176.157	-0.030	0.001
-313.968	-122.700	0.131	-0.021
-312.953	-80.998	0.376	-0.125
-311.939	57.519	-0.129	-0.127
-310.924	-21.781	0.027	0.017
-309.910	604.408	-0.121	0.304
-308.895	-53.320	0.055	0.026
-307.880	24.386	-0.164	-0.136
-306.866	800.000	-0.048	0.160
-305.851	-158.433	-0.267	-0.016
-304.837	-113.854	0.223	-0.044
-303.822	119.253	0.158	-0.197
-302.807	476.036	0.213	-0.485
-301.793	715.480	0.043	0.114
-300.778	561.154	-0.055	-0.134
-299.764	100.482	0.118	-0.138
-298.749	35.143	-0.141	-0.124
-297.735	242.219	-0.031	-0.052
-296.720	-88.957	0.170	-0.051
-295.705	155.651	0.148	-0.205
-294.691	70.131	0.253	0.263
-293.676	-9.535	-0.284	0.191
-292.662	-137.742	0.203	-0.023
-291.647	90.557	-0.048	0.054
-290.632	94.720	0.062	0.071
-289.618	303.934	0.056	-0.104
-288.603	800.000	0.056	-0.200
-287.589	-200.000	0.031	0.139
-286.574	-101.171	0.299	0.074
-285.559	-27.639	0.089	-0.052
-284.545	94.043	-0.141	-0.161
-283.530	-11.147	0.049	-0.033
-282.516	85.538	-0.245	0.271
-281.501	46.675	0.111	0.104
-280.486	-117.822	0.129	0.023
-279.472	-200.000	-0.009	0.109
-278.457	111.431	-0.101	-0.123
-277.443	-47.869	-0.137	-0.067
-276.428	-145.438	-0.147	-0.013
-275.413	-98.165	-0.138	0.036
-274.399	800.000	0.015	0.051
-273.384	-47.178	0.224	0.110
-272.370	211.748	-0.071	-0.113
-271.355	800.000	-0.047	-0.200
-270.340	567.384	0.039	-0.096
-269.326	-76.132	0.086	0.031
-268.311	-200.000	-0.015	-0.416
-267.297	-15.544	0.245	0.157
-266.282	800.000	-0.030	0.084
-265.267	-200.000	0.104	0.615
-264.253	40.970	-0.212	0.193
-263.238	-87.321	0.274	0.084
-262.224	-69.878	-0.272	-0.104
-261.209	-7.393	0.311	-0.212
-260.195	-179.324	0.343	0.008
-259.180	-152.917	0.073	0.005
-258.165	161.239	-0.121	-0.170
-257.151	157.696	-0.068	0.094
-256.136	-149.976	0.196	-0.015
-255.122	106.477	0.161	0.192
-254.107	485.976	0.030	-0.069
-253.092	-200.000	-0.002	-0.064
-252.078	-18.480	0.295	-0.185
-251.063	-11.921	0.066	0.044
-250.049	-200.000	-0.021	-0.131
-249.034	-68.701	0.044	0.017
-248.019	-99.075	-0.039	-0.010
-247.005	-200.000	-0.030	-0.249
-245.990	-195.770	-0.214	0.002
-244.976	-112.346	0.131	-0.026
-243.961	227.796	-0.177	-0.289
-242.946	39.753	0.232	0.209
-241.932	-200.000	-0.000	0.057
-240.917	-144.400	-0.250	0.023
-239.903	-200.000	0.007	0.047
-238.888	-29.074	-0.285	-0.164
-237.873	341.413	0.113	0.222
-236.859	-25.945	-0.234	-0.139
-235.844	9.299	-0.136	0.104
-234.830	-83.585	0.283	-0.091
-233.815	49.001	0.286	0.270
-232.800	50.815	0.119	0.113
-231.786	33.783	-0.078	0.068
-230.771	-200.000	-0.006	-0.156
-229.757	-68.976	-0.310	0.120
-228.742	204.757	-0.128	-0.200
-227.727	531.277	-0.140	0.333
-226.713	-193.735	0.348	0.003
-225.698	-17.831	0.157	0.099
-224.684	-33.974	0.117	0.065
-223.669	364.819	0.184	0.372
-222.655	800.000	0.011	0.035
-221.640	-200.000	-0.013	0.000
-220.625	-96.643	0.252	-0.067
-219.611	117.599	-0.241	-0.298
-218.596	-105.201	0.034	0.008
-217.582	800.000	-0.077	-0.228
-216.567	-101.582	0.102	-0.025
-215.552	161.940	0.168	0.236
-214.538	-80.104	0.310	-0.104
-213.523	61.665	0.240	0.240
-212.509	-70.657	0.225	-0.086
-211.494	63.154	0.090	-0.090
-210.479	-99.928	0.416	0.104
-209.465	-90.689	0.220	-0.064
-208.450	-4.840	0.079	-0.055
-207.436	-27.452	-0.158	0.092
-206.421	-58.625	0.181	0.079
-205.406	-105.251	-0.123	-0.028
-204.392	524.177	-0.111	-0.263
-203.377	330.464	-0.154	0.297
-202.363	-148.649	-0.120	0.010
-201.348	-42.399	0.295	0.151
-200.333	-200.000	-0.049	-0.391
-199.319	-200.000	-0.056	-0.440
-198.304	-115.869	0.653	-0.122
-197.290	122.951	-0.305	-0.382
-196.275	169.042	0.175	-0.251
-195.260	255.453	0.125	0.214
-194.246	8.746	-0.127	0.096
-193.231	50.100	-0.195	0.184
-192.217	-91.039	-0.256	-0.074
-191.202	97.207	-0.129	0.148
-190.187	-200.000	-0.051	0.273
-189.173	-114.710	-0.344	-0.066
-188.158	-74.488	0.252	0.091
-187.144	133.142	-0.164	0.212
-186.129	-123.105	-0.310	0.050
-185.114	-149.039	0.078	0.006
-184.100	356.035	-0.060	0.119
-183.085	-73.790	0.102	0.037
-182.071	800.000	0.019	0.074
-181.056	-163.361	0.266	-0.013
-180.042	-200.000	-0.017	0.168
-179.027	-200.000	-0.035	-0.171
-178.012	-109.370	-0.186	-0.039
-176.998	80.910	0.220	-0.238
-175.983	225.406	-0.052	-0.084
-174.969	-50.761	-0.196	-0.092
-173.954	-92.482	0.152	0.043
-172.939	538.614	-0.069	-0.163
-171.925	99.983	0.250	0.290
-170.910	77.811	0.128	-0.137
-169.896	-183.483	-0.274	-0.005
-168.881	-9.321	-0.229	-0.153
-167.866	-34.031	0.376	0.207
-166.852	-200.000	0.020	0.115
-165.837	282.945	-0.156	0.280
-164.823	-200.000	-0.055	-0.441
-163.808	-5.252	-0.208	-0.143
-162.793	349.655	0.212	0.420
-161.779	-200.000	-0.017	-0.259
-160.764	-131.669	-0.222	-0.029
-159.750	-200.000	-0.017	0.382
-158.735	66.847	0.207	0.211
-157.720	-1.753	-0.328	0.231
-156.706	-36.657	-0.061	-0.033
-155.691	18.253	-0.168	-0.134
-154.677	28.824	0.173	0.147
-153.662	-200.000	-0.034	0.255
-152.647	-96.664	0.131	0.035
-151.633	44.814	-0.124	0.114
-150.618	716.871	0.043	-0.113
-149.604	-141.516	0.255	0.026
-148.589	-61.741	0.144	0.060
-147.574	214.238	-0.084	-0.133
-146.560	21.565	-0.082	-0.067
-145.545	354.873	0.151	-0.300
-144.531	-61.017	0.088	0.037
-143.516	800.000	0.049	-0.166
-142.502	-26.080	0.208	-0.122
-141.487	800.000	-0.076	0.213
-140.472	-80.916	0.225	0.075
-139.458	-200.000	-0.071	0.318
-138.443	-80.727	-0.122	-0.040
-137.429	369.802	0.032	0.065
-136.414	-107.328	-0.120	-0.026
-135.399	800.000	-0.058	-0.211
-134.385	800.000	-0.027	-0.084
-133.370	-200.000	-0.161	-0.001
-132.356	68.638	-0.101	0.104
-131.341	87.180	-0.037	-0.041
-130.326	55.400	0.115	0.111
-129.312	-54.096	0.023	-0.011
-128.297	800.000	-0.025	-0.077
-127.283	306.776	-0.065	0.122
-126.268	387.740	-0.083	0.172
-125.253	-183.384	0.085	0.001
-124.239	-200.000	-0.025	-0.138
-123.224	800.000	-0.088	0.302
-122.210	-56.438	0.127	-0.056
