DTS Sentinel unit serial number:	SN413079Multiplexer serial number:	ORYXHardware model number:	OX4-SRSoftware version number:	ORYX F/W v4.00 Oryx Data Collector v3.7.2.0data status	okinstallation	princeton_trtdifferential loss correction	single-endedforward channel	channel 1reverse channel	N/Adate	2019/09/10time	18:08:11forward acquisition time	60.00reverse acquisition time	0.00gamma	496.2192k internal	0.2303k external	0.2303temperature offset calibration	0.9929default loss term (dB/km)	0.3790temperature slope calibration	1.0000multiplexer offset coefficient	1.0000multiplexer slope coefficient	1.0000fibre end	0.00T internal ref (°C)	36.83T ext. ref 1 (°C)	-0.32T ext. ref 2 (°C)	28.99length (m)	temperature (°C)	Stokes	anti-Stokes-747.200	30.521	-0.030	0.027
-746.185	800.000	-0.053	0.168
-745.171	75.743	0.162	-0.174
-744.156	-66.769	0.132	-0.053
-743.142	13.565	-0.227	0.179
-742.127	-80.645	-0.211	-0.071
-741.112	108.562	0.112	0.136
-740.098	-76.703	-0.266	-0.095
-739.083	236.977	0.256	0.431
-738.069	17.138	-0.272	0.220
-737.054	-133.590	0.287	0.037
-736.039	401.388	-0.144	-0.309
-735.025	800.000	0.074	0.236
-734.010	800.000	-0.105	-0.337
-732.996	48.420	0.367	-0.350
-731.981	-41.320	0.149	0.078
-730.966	-139.366	0.120	-0.013
-729.952	-200.000	0.018	-0.164
-728.937	-157.317	-0.301	-0.019
-727.923	39.530	0.291	0.265
-726.908	-112.388	-0.417	0.085
-725.894	-110.661	-0.496	0.104
-724.879	-93.657	-0.343	0.096
-723.864	93.322	-0.057	0.066
-722.850	-200.000	0.051	-0.310
-721.835	800.000	0.026	-0.080
-720.821	-15.931	0.214	0.139
-719.806	32.653	0.392	-0.345
-718.791	-200.000	-0.009	-0.176
-717.777	-1.113	0.227	0.163
-716.762	-39.583	0.436	0.232
-715.748	-108.061	0.100	-0.022
-714.733	-13.279	-0.196	-0.130
-713.718	9.188	-0.116	0.089
-712.704	-150.268	0.371	0.029
-711.689	167.240	0.143	-0.206
-710.675	-2.819	0.121	0.086
-709.660	-84.711	0.100	-0.032
-708.645	-25.993	-0.140	0.084
-707.631	352.246	0.114	-0.229
-706.616	-73.567	0.041	-0.015
-705.602	-61.384	0.185	-0.079
-704.587	2.413	-0.421	-0.310
-703.572	139.114	-0.205	0.274
-702.558	-71.417	-0.388	-0.148
-701.543	-194.770	-0.168	-0.001
-700.529	125.781	-0.046	0.059
-699.514	28.363	0.255	-0.219
-698.499	800.000	-0.012	-0.036
-697.485	153.072	-0.201	-0.280
-696.470	-25.007	-0.166	0.100
-695.456	52.356	0.275	-0.267
-694.441	-72.194	-0.297	-0.112
-693.426	-200.000	-0.006	-0.053
-692.412	-200.000	0.028	-0.209
-691.397	-76.583	0.260	-0.093
-690.383	225.707	-0.097	-0.159
-689.368	-200.000	-0.081	-0.436
-688.354	211.802	0.186	-0.297
-687.339	482.171	-0.014	0.032
-686.324	37.694	0.254	-0.229
-685.310	-119.812	-0.450	0.079
-684.295	-200.000	0.010	0.319
-683.281	693.720	0.015	0.040
-682.266	-46.574	0.149	0.074
-681.251	127.332	0.270	-0.349
-680.237	266.667	0.044	0.078
-679.222	-200.000	0.004	-0.544
-678.208	201.415	0.082	-0.128
-677.193	222.159	0.198	-0.323
-676.178	330.044	-0.024	-0.046
-675.164	43.251	0.274	-0.254
-674.149	-200.000	0.017	-0.105
-673.135	-30.914	0.324	-0.186
-672.120	101.877	0.112	-0.133
-671.105	-42.644	-0.192	-0.099
-670.091	-30.448	0.096	-0.055
-669.076	29.649	0.298	-0.258
-668.062	261.857	-0.190	-0.334
-667.047	232.708	-0.015	0.026
-666.032	27.765	0.081	-0.069
-665.018	212.763	0.200	0.320
-664.003	603.103	0.117	0.296
-662.989	-135.813	0.129	-0.015
-661.974	-101.924	-0.342	0.084
-660.959	-140.268	-0.179	-0.019
-659.945	-200.000	-0.064	-0.304
-658.930	168.642	-0.129	0.187
-657.916	800.000	0.096	0.299
-656.901	113.178	0.228	-0.280
-655.886	-92.178	0.209	-0.060
-654.872	-28.779	-0.323	0.188
-653.857	800.000	-0.071	0.271
-652.843	-112.429	0.097	-0.020
-651.828	-151.071	-0.235	-0.018
-650.814	-127.888	-0.182	0.027
-649.799	-200.000	-0.011	0.271
-648.784	37.317	0.139	-0.125
-647.770	800.000	0.047	-0.135
-646.755	-163.387	0.181	0.009
-645.741	-93.906	0.094	0.026
-644.726	63.124	0.175	-0.178
-643.711	433.207	-0.048	0.106
-642.697	800.000	-0.106	-0.393
-641.682	-73.452	-0.187	0.069
-640.668	559.853	0.137	0.336
-639.653	-151.565	0.256	0.019
-638.638	2.235	0.231	-0.170
-637.624	-98.389	-0.195	0.051
-636.609	286.204	0.182	0.333
-635.595	800.000	-0.090	-0.275
-634.580	-164.291	-0.242	-0.011
-633.565	-11.453	0.166	-0.111
-632.551	-200.000	0.013	-0.229
-631.536	-79.066	-0.361	-0.124
-630.522	224.427	-0.146	0.239
-629.507	132.681	-0.095	-0.124
-628.492	768.904	-0.125	0.344
-627.478	-75.385	-0.175	0.063
-626.463	-37.211	0.206	-0.112
-625.449	-74.629	0.156	-0.057
-624.434	-1.112	-0.148	0.106
-623.419	232.219	0.219	-0.364
-622.405	-58.586	-0.083	0.037
-621.390	-126.894	-0.282	-0.042
-620.376	-62.189	0.039	0.016
-619.361	314.229	0.099	-0.189
-618.346	-28.635	-0.193	-0.112
-617.332	108.423	0.177	-0.214
-616.317	-46.208	-0.165	0.082
-615.303	-200.000	0.076	-0.359
-614.288	-97.190	0.262	0.069
-613.273	48.532	-0.142	-0.135
-612.259	17.675	-0.173	0.139
-611.244	-54.114	0.361	-0.166
-610.230	70.786	-0.073	0.077
-609.215	800.000	0.107	-0.340
-608.201	90.694	0.152	0.173
-607.186	39.525	-0.384	-0.349
-606.171	32.996	0.188	-0.165
-605.157	-68.775	-0.227	-0.089
-604.142	-48.751	0.046	-0.022
-603.128	23.396	0.224	-0.186
-602.113	44.278	0.130	-0.121
-601.098	65.749	-0.093	0.095
-600.084	800.000	0.061	0.245
-599.069	-200.000	0.002	-0.131
-598.055	-200.000	0.029	0.243
-597.040	413.770	0.082	-0.178
-596.025	-142.159	0.195	0.020
-595.011	387.508	0.122	0.255
-593.996	800.000	-0.007	-0.029
-592.982	-200.000	0.000	0.187
-591.967	257.885	-0.074	0.128
-590.952	-25.579	-0.167	-0.100
-589.938	-200.000	-0.027	0.126
-588.923	-91.508	0.188	0.054
-587.909	-37.857	-0.303	-0.163
-586.894	800.000	-0.042	0.141
-585.879	146.212	0.159	-0.216
-584.865	-200.000	-0.003	-0.191
-583.850	-133.119	-0.147	0.019
-582.836	800.000	0.086	-0.345
-581.821	-200.000	-0.020	-0.115
-580.806	179.811	0.222	-0.329
-579.792	-111.624	-0.035	0.007
-578.777	-115.368	0.431	-0.082
-577.763	636.757	-0.056	-0.144
-576.748	-150.653	-0.309	-0.024
-575.733	179.512	-0.045	0.066
-574.719	-31.027	-0.292	0.167
-573.704	800.000	0.060	-0.186
-572.690	-200.000	-0.010	-0.099
-571.675	-150.577	-0.349	0.027
-570.661	95.396	0.114	0.132
-569.646	-48.793	-0.055	-0.027
-568.631	63.972	0.259	-0.264
-567.617	800.000	0.029	-0.095
-566.602	55.169	-0.184	-0.180
-565.588	-200.000	0.013	0.061
-564.573	-63.980	-0.062	-0.026
-563.558	-200.000	0.010	-0.182
-562.544	65.138	-0.151	-0.155
-561.529	98.401	0.121	-0.141
-560.515	60.720	-0.099	-0.099
-559.500	227.675	0.059	0.098
-558.485	20.278	0.188	0.154
-557.471	729.384	0.096	-0.259
-556.456	157.877	0.204	-0.286
-555.442	-154.471	0.379	-0.026
-554.427	22.286	0.077	0.063
-553.412	115.145	0.018	0.022
-552.398	-200.000	0.015	-0.100
-551.383	-65.495	0.117	-0.048
-550.369	800.000	-0.055	-0.197
-549.354	-111.163	-0.121	0.025
-548.339	274.723	-0.130	0.233
-547.325	58.716	-0.254	-0.252
-546.310	163.792	-0.112	-0.159
-545.296	159.917	-0.131	-0.184
-544.281	800.000	-0.024	0.105
-543.266	-200.000	-0.048	-0.213
-542.252	124.769	-0.162	0.206
-541.237	800.000	-0.028	-0.093
-540.223	118.683	0.054	-0.067
-539.208	9.549	0.236	0.180
-538.193	-200.000	-0.024	0.111
-537.179	53.384	0.106	-0.103
-536.164	350.273	-0.075	0.150
-535.150	567.385	0.113	-0.277
-534.135	793.979	-0.053	-0.147
-533.121	-48.291	-0.102	0.050
-532.106	84.062	-0.133	-0.147
-531.091	-115.651	-0.277	-0.052
-530.077	-73.631	-0.083	0.031
-529.062	160.422	-0.130	-0.183
-528.048	-173.092	-0.270	-0.008
-527.033	-200.000	0.034	-0.255
-526.018	-81.133	-0.589	0.197
-525.004	227.781	-0.106	-0.175
-523.989	13.077	0.207	-0.162
-522.975	-142.598	-0.400	0.040
-521.960	-144.534	-0.276	0.026
-520.945	-115.977	0.290	-0.055
-519.931	-161.441	0.055	0.003
-518.916	-93.838	-0.280	-0.078
-517.902	83.626	0.031	0.034
-516.887	-80.493	-0.270	0.091
-515.872	16.299	-0.128	0.102
-514.858	-162.676	-0.030	0.001
-513.843	-26.677	0.438	0.259
-512.829	49.227	-0.142	0.135
-511.814	-123.446	0.184	-0.030
-510.799	74.016	-0.064	0.067
-509.785	-27.655	-0.372	0.218
-508.770	163.195	0.035	0.050
-507.756	-200.000	-0.014	-0.224
-506.741	-200.000	0.044	0.462
-505.726	-200.000	-0.009	0.162
-504.712	56.440	-0.196	-0.193
-503.697	107.182	-0.140	-0.168
-502.683	800.000	0.115	-0.325
-501.668	-126.208	-0.415	0.063
-500.653	91.331	-0.241	0.273
-499.639	3.289	0.113	-0.083
-498.624	800.000	0.048	-0.214
-497.610	-200.000	-0.052	-0.327
-496.595	395.518	-0.142	-0.300
-495.581	476.168	0.075	-0.172
-494.566	308.533	-0.124	0.234
-493.551	-111.226	-0.188	-0.039
-492.537	-26.581	-0.180	0.107
-491.522	173.845	-0.103	-0.150
-490.508	164.824	-0.039	-0.056
-489.493	-110.224	0.234	-0.049
-488.478	-200.000	-0.080	-0.446
-487.464	25.004	-0.090	-0.076
-486.449	-200.000	0.023	0.193
-485.435	47.214	0.143	0.134
-484.420	47.107	0.167	-0.157
-483.405	541.288	0.075	-0.179
-482.391	98.960	-0.155	0.180
-481.376	-200.000	0.013	-0.256
-480.362	-39.604	0.226	0.119
-479.347	48.494	0.176	0.166
-478.332	-117.948	0.382	-0.069
-477.318	800.000	-0.041	-0.129
-476.303	433.457	0.088	-0.194
-475.289	-200.000	0.027	0.251
-474.274	-200.000	0.018	0.169
-473.259	133.284	-0.204	-0.266
-472.245	-75.538	0.074	-0.026
-471.230	32.869	0.233	-0.203
-470.216	3.802	0.225	-0.165
-469.201	-200.000	-0.021	-0.174
-468.186	-111.113	-0.023	-0.005
-467.172	137.580	0.096	0.127
-466.157	-48.969	-0.188	-0.091
-465.143	-4.848	0.264	0.183
-464.128	-137.886	-0.232	0.026
-463.113	-35.116	-0.397	-0.218
-462.099	-124.623	0.153	0.024
-461.084	-200.000	-0.043	-0.214
-460.070	374.997	0.057	-0.117
-459.055	-146.893	0.206	0.018
-458.040	-123.665	0.410	0.066
-457.026	185.580	-0.075	0.112
-456.011	-200.000	-0.029	0.202
-454.997	-73.028	0.093	0.034
-453.982	-200.000	0.088	0.488
-452.968	72.179	-0.230	-0.241
-451.953	777.500	-0.059	-0.163
-450.938	276.273	0.058	0.104
-449.924	-84.799	-0.043	0.014
-448.909	800.000	-0.017	-0.065
-447.895	-19.708	0.156	0.097
-446.880	800.000	-0.034	0.121
-445.865	-124.386	-0.140	0.022
-444.851	206.994	-0.061	-0.096
-443.836	92.614	-0.192	-0.218
-442.822	-19.884	-0.140	-0.087
-441.807	-200.000	-0.019	0.112
-440.792	800.000	-0.063	0.189
-439.778	94.212	-0.031	0.035
-438.763	28.391	-0.050	0.043
-437.749	-100.505	-0.290	0.072
-436.734	-200.000	0.024	-0.287
-435.719	-200.000	-0.009	0.202
-434.705	-200.000	-0.029	0.408
-433.690	-26.828	0.185	-0.109
-432.676	-200.000	0.019	0.136
-431.661	181.200	-0.181	0.267
-430.646	752.459	-0.019	0.052
-429.632	-200.000	-0.010	-0.159
-428.617	-200.000	-0.009	-0.053
-427.603	-55.717	0.384	0.173
-426.588	-25.792	0.104	0.062
-425.573	-200.000	0.063	0.336
-424.559	-200.000	-0.042	-0.324
-423.544	800.000	-0.040	-0.129
-422.530	-108.189	0.355	-0.077
-421.515	-7.130	-0.254	-0.173
-420.500	49.936	-0.088	-0.083
-419.486	128.635	0.221	-0.283
-418.471	458.342	-0.050	-0.112
-417.457	552.264	0.041	-0.100
-416.442	-64.024	0.137	0.056
-415.428	40.521	-0.161	0.145
-414.413	-74.788	-0.126	-0.046
-413.398	-200.000	0.027	0.212
-412.384	-104.610	-0.399	-0.092
-411.369	-81.274	0.279	-0.093
-410.355	246.465	0.066	0.112
-409.340	-129.128	0.430	-0.060
-408.325	265.229	0.026	-0.046
-407.311	-46.321	-0.164	-0.081
-406.296	144.892	0.166	0.223
-405.282	159.023	0.090	0.125
-404.267	-118.260	0.223	-0.040
-403.252	-200.000	0.089	0.427
-402.238	229.348	0.051	0.083
-401.223	-200.000	0.013	-0.086
-400.209	26.871	-0.160	-0.135
-399.194	-171.761	-0.405	0.013
-398.179	60.447	0.232	0.231
-397.165	-106.328	-0.338	0.076
-396.150	-49.291	-0.139	-0.067
-395.136	-156.262	-0.252	-0.016
-394.121	-164.000	-0.202	-0.009
-393.106	80.314	0.096	0.104
-392.092	110.710	-0.231	-0.279
-391.077	12.568	0.105	0.081
-390.063	-200.000	-0.016	-0.123
-389.048	325.055	-0.102	-0.196
-388.033	-57.374	0.167	0.074
-387.019	63.752	-0.231	0.233
-386.004	-200.000	-0.051	0.321
-384.990	-59.313	-0.291	-0.126
-383.975	36.985	-0.113	0.100
-382.960	159.452	-0.127	0.178
-381.946	99.358	-0.137	0.159
-380.931	-49.718	0.124	-0.059
-379.917	213.131	-0.173	0.275
-378.902	150.730	0.083	0.113
-377.888	-88.389	0.176	0.053
-376.873	336.903	-0.246	-0.480
-375.858	-154.224	-0.349	0.024
-374.844	-92.034	-0.188	-0.053
-373.829	-78.455	-0.208	-0.072
-372.815	-101.965	-0.131	-0.032
-371.800	216.052	0.049	-0.079
-370.785	-200.000	-0.036	0.207
-369.771	-200.000	-0.031	0.289
-368.756	-6.772	-0.161	-0.110
-367.742	113.037	-0.172	0.209
-366.727	800.000	-0.080	0.264
-365.712	514.378	0.099	0.233
-364.698	-77.959	0.339	-0.117
-363.683	-50.657	-0.321	-0.152
-362.669	388.014	0.013	0.026
-361.654	-60.630	-0.352	0.150
-360.639	800.000	-0.012	0.035
-359.625	54.820	0.107	0.104
-358.610	-126.801	0.266	0.039
-357.596	800.000	-0.046	0.197
-356.581	800.000	0.005	0.015
-355.566	-200.000	0.047	-0.353
-354.552	-149.044	0.221	0.018
-353.537	-200.000	-0.080	-0.364
-352.523	-62.102	0.131	0.055
-351.508	-145.440	0.129	-0.012
-350.493	301.934	-0.067	-0.124
-349.479	-126.193	0.191	0.029
-348.464	-10.254	-0.378	-0.252
-347.450	1.607	0.213	0.154
-346.435	-131.988	0.164	-0.021
-345.420	40.864	0.092	-0.083
-344.406	-26.150	0.041	0.024
-343.391	-103.119	-0.150	0.036
-342.377	378.196	-0.135	0.277
-341.362	-98.763	0.283	0.072
-340.348	-14.146	0.201	0.130
-339.333	172.087	0.149	0.215
-338.318	448.796	0.107	0.237
-337.304	-57.342	0.291	0.128
-336.289	800.000	0.013	-0.056
-335.275	-57.945	0.199	0.087
-334.260	800.000	-0.032	0.096
-333.245	733.869	0.041	-0.111
-332.231	-39.592	0.080	0.042
-331.216	800.000	0.041	-0.143
-330.202	-48.628	-0.285	-0.137
-329.187	73.214	-0.239	-0.251
-328.172	-70.572	0.025	-0.010
-327.158	-200.000	0.013	0.084
-326.143	-200.000	0.008	-0.124
-325.129	36.237	-0.170	0.150
-324.114	78.715	0.082	0.088
-323.099	-102.921	0.093	-0.022
-322.085	-72.392	-0.291	-0.108
-321.070	-2.471	-0.078	-0.055
-320.056	-15.077	0.145	0.093
-319.041	434.008	-0.096	0.208
-318.026	247.559	0.232	0.393
-317.012	-43.868	0.210	0.106
-315.997	80.248	0.245	0.264
-314.983	237.667	-0.117	0.195
-313.968	-25.631	-0.105	0.062
-312.953	3.747	0.185	0.135
-311.939	58.127	0.155	-0.152
-310.924	-169.447	-0.192	0.007
-309.910	-142.881	0.195	-0.019
-308.895	7.233	0.093	0.069
-307.880	-62.771	-0.175	0.073
-306.866	800.000	-0.051	0.219
-305.851	800.000	-0.051	0.186
-304.837	423.548	-0.114	-0.245
-303.822	328.679	0.141	0.272
-302.807	119.546	0.047	-0.059
-301.793	589.566	0.107	0.263
-300.778	605.014	0.067	0.168
-299.764	108.815	0.023	0.028
-298.749	-145.501	-0.188	-0.017
-297.735	-200.000	-0.054	-0.292
-296.720	-76.156	0.058	-0.021
-295.705	-97.786	0.328	0.085
-294.691	57.477	0.259	-0.253
-293.676	-145.855	-0.200	-0.018
-292.662	180.175	-0.213	-0.313
-291.647	800.000	0.033	-0.124
-290.632	-145.134	0.055	-0.005
-289.618	274.099	-0.076	-0.135
-288.603	-64.113	0.230	0.094
-287.589	89.584	0.038	0.042
-286.574	391.456	-0.022	0.047
-285.559	800.000	0.025	-0.105
-284.545	-200.000	0.048	0.375
-283.530	305.289	-0.084	0.156
-282.516	-88.428	-0.127	0.038
-281.501	276.692	-0.041	-0.073
-280.486	-200.000	0.023	0.315
-279.472	-9.874	-0.166	0.111
-278.457	-143.231	0.351	-0.034
-277.443	179.463	0.263	0.384
-276.428	327.034	-0.115	-0.221
-275.413	100.000	0.226	-0.262
-274.399	8.619	0.234	0.176
-273.384	-69.484	-0.046	-0.018
-272.370	800.000	0.062	0.230
-271.355	434.349	0.104	0.226
-270.340	-52.094	-0.093	-0.043
-269.326	-58.619	0.062	-0.027
-268.311	13.583	-0.227	0.177
-267.297	325.009	-0.083	-0.158
-266.282	211.323	-0.097	0.152
-265.267	-114.552	0.334	-0.064
-264.253	-79.914	0.096	0.032
-263.238	-106.419	0.317	-0.071
-262.224	-34.897	0.199	0.109
-261.209	-200.000	-0.033	-0.243
-260.195	392.829	0.148	-0.309
-259.180	-25.978	-0.036	-0.021
-258.165	48.316	-0.128	0.119
-257.151	-101.472	-0.081	0.020
-256.136	32.335	0.114	0.098
-255.122	-7.710	0.195	-0.132
-254.107	-200.000	0.013	0.404
-253.092	-118.992	-0.265	-0.046
-252.078	-79.425	0.308	0.104
-251.063	62.190	0.261	0.261
-250.049	282.431	0.123	0.220
-249.034	-167.817	0.313	0.012
-248.019	-200.000	0.006	0.166
-247.005	-200.000	-0.002	-0.187
-245.990	800.000	-0.103	0.398
-244.976	755.673	-0.062	-0.169
-243.961	220.845	0.064	0.102
-242.946	-200.000	-0.054	0.304
-241.932	-27.063	0.305	0.178
-240.917	-58.129	0.375	0.163
-239.903	800.000	0.038	0.109
-238.888	208.332	0.125	0.194
-237.873	-161.365	-0.151	0.008
-236.859	91.397	0.245	-0.274
-235.844	28.543	-0.176	0.148
-234.830	-200.000	-0.008	0.092
-233.815	800.000	0.048	-0.185
-232.800	36.777	-0.195	0.172
-231.786	-92.452	0.170	-0.048
-230.771	300.872	-0.113	-0.209
-229.757	800.000	-0.041	0.143
-228.742	433.604	0.172	-0.373
-227.727	-94.676	0.251	-0.068
-226.713	365.324	0.127	-0.255
-225.698	-200.000	-0.050	0.259
-224.684	732.924	0.119	0.317
-223.669	262.038	0.126	0.218
-222.655	14.941	-0.354	0.276
-221.640	427.192	0.261	0.563
-220.625	-79.443	-0.239	-0.081
-219.611	-200.000	0.010	0.090
-218.596	-134.369	-0.228	0.028
-217.582	-200.000	0.003	-0.079
-216.567	174.031	-0.228	-0.328
-215.552	416.154	0.212	-0.450
-214.538	154.649	-0.040	-0.055
-213.523	-127.596	0.109	0.016
-212.509	-200.000	0.009	0.268
-211.494	83.228	0.181	0.197
-210.479	74.478	0.181	-0.190
-209.465	24.245	0.159	0.131
-208.450	800.000	0.061	0.185
-207.436	260.176	-0.198	-0.341
-206.421	-200.000	-0.010	-0.296
-205.406	-15.461	0.309	-0.197
-204.392	126.266	0.155	-0.195
-203.377	-26.869	-0.132	-0.077
-202.363	-97.885	-0.262	0.067
-201.348	-149.789	-0.303	-0.024
-200.333	-104.918	-0.191	-0.044
-199.319	152.356	-0.223	-0.303
-198.304	108.754	0.102	0.122
-197.290	-60.036	-0.127	-0.054
-196.275	800.000	-0.079	0.298
-195.260	486.226	-0.072	-0.164
-194.246	393.943	0.044	0.090
-193.231	99.078	-0.067	0.077
-192.217	-65.429	-0.213	-0.085
-191.202	800.000	-0.079	0.276
-190.187	171.769	0.072	-0.103
-189.173	192.209	0.127	-0.192
-188.158	800.000	0.041	0.119
-187.144	-44.984	0.127	0.063
-186.129	318.823	-0.095	-0.180
-185.114	-200.000	-0.057	0.296
-184.100	-178.125	-0.170	-0.004
-183.085	29.185	-0.170	-0.144
-182.071	-4.272	-0.100	0.069
-181.056	-200.000	-0.008	-0.186
-180.042	267.783	0.085	0.149
-179.027	-61.079	0.420	0.177
-178.012	160.637	0.203	0.282
-176.998	-200.000	-0.006	-0.167
-175.983	-112.206	-0.163	-0.033
-174.969	-200.000	0.009	0.074
-173.954	800.000	0.022	-0.063
-172.939	505.028	0.106	0.244
-171.925	123.512	-0.082	0.102
-170.910	-129.696	0.284	0.039
-169.896	-114.373	-0.249	0.048
-168.881	800.000	-0.061	0.204
-167.866	-3.991	-0.180	-0.125
-166.852	-62.638	0.168	0.069
-165.837	14.707	-0.060	0.047
-164.823	-200.000	-0.000	-0.111
-163.808	189.157	-0.020	-0.029
-162.793	169.060	-0.233	0.331
-161.779	-200.000	-0.070	-0.343
-160.764	-200.000	0.013	0.108
-159.750	-200.000	-0.000	-0.059
-158.735	-84.708	-0.391	-0.123
-157.720	-143.341	0.508	0.048
-156.706	800.000	0.101	-0.441
-155.691	-34.532	-0.168	-0.091
-154.677	272.974	-0.143	0.251
-153.662	-85.683	0.130	-0.040
-152.647	-88.247	0.169	0.050
-151.633	132.020	0.141	-0.181
-150.618	-80.464	0.368	-0.122
-149.604	-200.000	-0.016	0.111
-148.589	-48.110	-0.375	0.180
-147.574	-200.000	-0.034	0.168
-146.560	685.962	0.059	0.153
-145.545	-50.761	0.150	0.070
-144.531	-64.534	0.119	-0.048
-143.516	800.000	-0.105	-0.371
-142.502	-141.943	0.186	-0.019
-141.487	-146.519	0.148	0.013
-140.472	101.857	-0.198	0.230
-139.458	-23.374	0.233	-0.139
-138.443	-200.000	-0.291	-0.001
-137.429	-200.000	-0.054	0.381
-136.414	-153.817	0.376	0.026
-135.399	147.599	0.169	-0.227
-134.385	-97.798	-0.107	0.028
-133.370	345.017	-0.112	-0.219
-132.356	-50.374	0.048	0.022
-131.341	-9.727	-0.102	-0.068
-130.326	800.000	0.030	0.097
-129.312	285.074	0.137	-0.245
-128.297	-149.363	-0.106	-0.008
-127.283	43.405	-0.281	-0.256
-126.268	48.794	-0.071	-0.067
-125.253	120.970	0.050	0.062
-124.239	95.053	0.062	0.070
-123.224	-93.381	-0.241	0.066
-122.210	191.953	-0.102	-0.152
-121.195	-200.000	0.047	-0.315
