DTS Sentinel unit serial number:	SN413079Multiplexer serial number:	ORYXHardware model number:	OX4-SRSoftware version number:	ORYX F/W v4.00 Oryx Data Collector v3.7.2.0data status	okinstallation	princeton_trtdifferential loss correction	single-endedforward channel	channel 1reverse channel	N/Adate	2019/09/11time	09:40:11forward acquisition time	60.00reverse acquisition time	0.00gamma	496.2192k internal	0.2305k external	0.2305temperature offset calibration	0.9956default loss term (dB/km)	0.3790temperature slope calibration	1.0000multiplexer offset coefficient	1.0000multiplexer slope coefficient	1.0000fibre end	0.00T internal ref (°C)	34.87T ext. ref 1 (°C)	0.12T ext. ref 2 (°C)	31.52length (m)	temperature (°C)	Stokes	anti-Stokes-747.200	-132.362	0.400	0.053
-746.185	-200.000	-0.005	0.301
-745.171	-200.000	0.070	0.446
-744.156	-200.000	0.043	0.313
-743.142	-200.000	0.039	-0.197
-742.127	800.000	-0.053	0.200
-741.112	173.155	0.210	0.308
-740.098	-200.000	-0.059	0.321
-739.083	-14.659	0.140	0.091
-738.069	-121.382	0.226	-0.038
-737.054	75.524	0.088	0.094
-736.039	108.092	0.108	-0.131
-735.025	264.230	0.199	0.352
-734.010	86.619	-0.069	-0.077
-732.996	-200.000	0.029	-0.421
-731.981	-57.370	-0.407	0.182
-730.966	-200.000	0.018	0.089
-729.952	-104.439	-0.446	-0.105
-728.937	-32.558	-0.290	-0.164
-727.923	-0.556	-0.090	0.065
-726.908	208.129	-0.155	-0.246
-725.894	800.000	-0.068	0.286
-724.879	-20.522	0.081	0.051
-723.864	30.511	-0.096	-0.083
-722.850	15.444	-0.091	-0.072
-721.835	-112.644	-0.121	-0.024
-720.821	-200.000	-0.056	0.317
-719.806	-200.000	-0.013	0.187
-718.791	-3.365	-0.215	-0.152
-717.777	145.799	0.190	-0.259
-716.762	388.162	-0.090	0.190
-715.748	-57.990	-0.231	-0.102
-714.733	-200.000	0.055	-0.278
-713.718	-49.488	0.013	-0.006
-712.704	800.000	-0.109	-0.466
-711.689	-78.461	-0.018	-0.006
-710.675	-15.824	-0.121	-0.078
-709.660	-108.454	-0.203	0.044
-708.645	-156.463	0.351	-0.022
-707.631	-109.064	0.311	-0.067
-706.616	-126.741	-0.275	0.041
-705.602	-98.731	0.357	-0.092
-704.587	-118.302	-0.315	0.057
-703.572	-200.000	0.023	-0.260
-702.558	800.000	-0.022	0.091
-701.543	-200.000	-0.028	-0.356
-700.529	-200.000	0.355	-0.001
-699.514	288.888	0.153	0.282
-698.499	115.589	-0.109	0.136
-697.485	-40.040	-0.216	-0.114
-696.470	91.340	0.285	0.326
-695.456	-200.000	0.023	0.160
-694.441	-74.113	0.188	0.069
-693.426	-145.887	0.162	0.015
-692.412	39.305	0.087	-0.079
-691.397	38.538	-0.197	-0.179
-690.383	-71.551	0.262	-0.099
-689.368	-200.000	-0.049	0.249
-688.354	46.528	-0.241	-0.227
-687.339	13.089	0.327	-0.257
-686.324	56.184	-0.099	-0.098
-685.310	275.300	0.117	-0.212
-684.295	-23.438	-0.114	0.070
-683.281	91.897	-0.104	0.119
-682.266	-28.315	-0.264	-0.155
-681.251	-62.962	0.118	0.050
-680.237	-29.693	-0.187	0.108
-679.222	-186.431	0.375	-0.005
-678.208	612.790	0.091	0.230
-677.193	77.143	-0.117	0.127
-676.178	-68.119	-0.584	0.231
-675.164	-60.412	-0.317	0.137
-674.149	232.420	-0.197	0.328
-673.135	-79.904	0.538	0.184
-672.120	105.869	0.196	-0.236
-671.105	7.178	-0.027	0.021
-670.091	-77.653	-0.325	-0.114
-669.076	87.226	-0.263	-0.296
-668.062	-42.710	-0.181	-0.094
-667.047	335.652	-0.091	0.179
-666.032	686.867	0.023	0.061
-665.018	-200.000	-0.001	0.095
-664.003	-44.699	-0.126	0.064
-662.989	-80.372	-0.155	-0.052
-661.974	-24.474	0.195	-0.118
-660.959	419.273	-0.178	-0.386
-659.945	26.204	0.128	-0.108
-658.930	-62.029	0.269	-0.114
-657.916	-200.000	-0.034	-0.190
-656.901	-104.538	0.533	0.125
-655.886	65.137	-0.158	-0.162
-654.872	-86.379	0.090	-0.028
-653.857	800.000	-0.174	-0.576
-652.843	-146.115	-0.103	-0.009
-651.828	-97.057	0.080	-0.021
-650.814	-32.407	-0.202	-0.114
-649.799	-153.517	-0.117	0.008
-648.784	640.210	0.061	0.157
-647.770	-31.362	-0.068	0.039
-646.755	-18.184	0.183	0.116
-645.741	-115.590	0.189	0.036
-644.726	-7.608	-0.101	-0.069
-643.711	-38.921	0.208	-0.111
-642.697	-77.490	-0.168	-0.059
-641.682	-30.603	-0.139	0.080
-640.668	800.000	-0.058	-0.258
-639.653	645.299	-0.066	-0.170
-638.638	800.000	0.054	-0.210
-637.624	96.703	0.203	-0.235
-636.609	15.661	-0.126	-0.101
-635.595	169.447	-0.165	0.239
-634.580	800.000	0.064	-0.183
-633.565	616.678	0.095	0.243
-632.551	-97.950	-0.544	0.142
-631.536	8.903	0.075	-0.057
-630.522	800.000	0.059	0.217
-629.507	171.659	0.106	0.154
-628.492	-117.012	-0.312	0.058
-627.478	241.262	-0.101	0.171
-626.463	-200.000	0.089	-0.424
-625.449	83.855	0.029	-0.032
-624.434	598.996	-0.103	-0.258
-623.419	-73.113	-0.080	-0.030
-622.405	81.857	0.282	-0.309
-621.390	-68.102	0.200	0.079
-620.376	66.656	0.136	0.140
-619.361	109.047	-0.189	0.229
-618.346	-86.179	0.231	-0.072
-617.332	297.343	-0.298	-0.554
-616.317	-200.000	-0.045	-0.247
-615.303	-154.174	0.273	-0.019
-614.288	-45.323	-0.272	-0.137
-613.273	-22.060	0.177	-0.109
-612.259	164.891	-0.338	-0.483
-611.244	106.693	0.044	0.053
-610.230	-200.000	-0.004	0.077
-609.215	-84.330	-0.159	-0.051
-608.201	-109.248	0.089	-0.019
-607.186	632.146	-0.105	0.269
-606.171	-200.000	-0.030	-0.298
-605.157	-116.894	0.106	0.020
-604.142	-200.000	-0.046	0.213
-603.128	-70.710	-0.334	-0.128
-602.113	800.000	0.038	0.120
-601.098	-140.246	0.143	0.015
-600.084	49.814	-0.244	-0.233
-599.069	-56.014	-0.186	-0.084
-598.055	388.984	-0.099	-0.208
-597.040	-52.239	-0.087	-0.041
-596.025	4.642	0.101	-0.075
-595.011	-98.052	0.464	0.121
-593.996	6.925	0.041	-0.031
-592.982	-14.803	-0.048	0.031
-591.967	283.397	-0.160	0.291
-590.952	-200.000	-0.001	0.046
-589.938	-41.274	-0.201	-0.105
-588.923	-17.457	-0.181	0.115
-587.909	-89.326	-0.072	0.021
-586.894	-175.948	0.144	0.004
-585.879	-200.000	0.041	-0.375
-584.865	132.636	-0.110	-0.144
-583.850	-25.542	0.146	0.087
-582.836	93.645	-0.117	-0.134
-581.821	-152.293	-0.126	-0.009
-580.806	800.000	0.077	-0.308
-579.792	-74.761	-0.313	0.114
-578.777	70.504	0.097	-0.101
-577.763	-31.684	0.276	0.157
-576.748	96.825	-0.049	0.056
-575.733	800.000	0.024	0.097
-574.719	-160.786	-0.147	-0.008
-573.704	-91.450	-0.155	-0.045
-572.690	-145.395	0.556	-0.051
-571.675	800.000	-0.021	0.080
-570.661	-86.149	0.406	0.127
-569.646	50.727	0.227	-0.218
-568.631	-123.638	-0.292	-0.047
-567.617	160.289	0.292	-0.411
-566.602	275.688	-0.150	-0.268
-565.588	800.000	0.057	0.198
-564.573	-92.936	0.169	0.048
-563.558	-26.096	-0.075	0.044
-562.544	-200.000	0.051	0.236
-561.529	62.666	-0.133	0.134
-560.515	149.745	0.189	0.259
-559.500	-200.000	0.014	0.076
-558.485	189.520	-0.235	-0.355
-557.471	-19.682	0.242	-0.151
-556.456	800.000	-0.086	0.326
-555.442	31.310	0.186	-0.161
-554.427	-105.945	0.230	0.052
-553.412	800.000	-0.091	0.330
-552.398	-10.728	-0.204	0.136
-551.383	-152.096	-0.267	0.020
-550.369	-34.896	-0.115	-0.063
-549.354	-200.000	0.015	0.164
-548.339	-200.000	0.016	-0.406
-547.325	-126.975	-0.284	-0.042
-546.310	247.749	-0.088	0.151
-545.296	-200.000	0.013	-0.362
-544.281	-92.793	0.345	0.097
-543.266	-66.433	-0.265	0.106
-542.252	167.789	0.257	0.369
-541.237	-109.451	-0.037	-0.008
-540.223	46.759	-0.237	0.223
-539.208	-200.000	-0.004	0.243
-538.193	-200.000	0.024	-0.303
-537.179	-92.978	-0.249	-0.070
-536.164	145.009	0.272	0.367
-535.150	48.168	0.029	0.028
-534.135	739.383	-0.089	-0.240
-533.121	-200.000	-0.015	0.275
-532.106	-200.000	-0.005	0.116
-531.091	186.657	-0.111	-0.167
-530.077	48.101	0.182	0.172
-529.062	-200.000	0.022	0.112
-528.048	-200.000	0.021	0.130
-527.033	301.833	0.029	0.054
-526.018	-145.324	0.153	-0.014
-525.004	-78.215	0.346	0.120
-523.989	-173.198	0.302	-0.009
-522.975	-7.078	0.068	0.047
-521.960	-200.000	0.040	-0.392
-520.945	132.387	0.214	0.279
-519.931	-83.546	-0.473	-0.153
-518.916	6.470	-0.156	0.117
-517.902	431.317	-0.066	-0.145
-516.887	-146.700	-0.051	-0.004
-515.872	612.997	-0.168	0.424
-514.858	-200.000	-0.028	0.218
-513.843	64.265	0.093	-0.095
-512.829	-73.823	0.193	-0.071
-511.814	800.000	-0.081	0.315
-510.799	-141.383	0.026	0.003
-509.785	800.000	0.013	-0.046
-508.770	-200.000	-0.007	0.128
-507.756	68.162	0.132	0.136
-506.741	-200.000	0.011	-0.080
-505.726	59.539	-0.216	-0.215
-504.712	96.818	-0.133	0.154
-503.697	232.832	-0.107	-0.177
-502.683	-200.000	0.016	-0.231
-501.668	56.667	-0.081	-0.079
-500.653	52.207	0.067	-0.064
-499.639	-31.806	0.147	0.083
-498.624	-161.989	0.212	-0.011
-497.610	800.000	-0.120	-0.477
-496.595	-133.630	0.135	0.017
-495.581	-173.296	-0.178	-0.005
-494.566	-200.000	-0.004	0.083
-493.551	-200.000	0.003	-0.034
-492.537	41.328	-0.134	0.122
-491.522	-49.221	-0.114	-0.055
-490.508	-5.521	0.169	0.117
-489.493	-3.568	-0.070	0.049
-488.478	-58.807	-0.241	-0.105
-487.464	-84.530	0.082	-0.026
-486.449	800.000	0.056	0.171
-485.435	800.000	0.039	0.114
-484.420	695.800	-0.161	0.426
-483.405	8.805	-0.048	-0.037
-482.391	-34.727	-0.379	-0.209
-481.376	-76.564	0.282	0.100
-480.362	219.741	0.161	0.260
-479.347	-200.000	-0.073	0.378
-478.332	-98.524	0.216	0.056
-477.318	-200.000	0.010	0.298
-476.303	-200.000	-0.022	-0.106
-475.289	103.593	0.060	0.071
-474.274	28.856	-0.274	-0.234
-473.259	-158.992	0.626	-0.036
-472.245	800.000	0.026	-0.106
-471.230	-57.424	-0.395	0.175
-470.216	800.000	-0.032	-0.106
-469.201	-106.509	-0.170	-0.038
-468.186	-35.632	-0.184	-0.101
-467.172	-68.860	0.039	-0.015
-466.157	-123.220	0.076	0.012
-465.143	52.990	0.118	0.113
-464.128	-124.628	0.247	0.039
-463.113	516.091	0.019	-0.045
-462.099	-154.539	0.328	-0.022
-461.084	-200.000	0.035	-0.166
-460.070	182.526	-0.164	0.244
-459.055	-98.193	-0.126	-0.033
-458.040	99.761	0.081	-0.095
-457.026	-58.384	-0.094	0.041
-456.011	-69.242	0.446	-0.173
-454.997	-71.890	0.190	-0.071
-453.982	200.921	0.144	0.223
-452.968	-167.092	-0.184	-0.008
-451.953	-38.261	0.184	0.098
-450.938	-61.990	0.160	0.067
-449.924	800.000	0.045	0.157
-448.909	-200.000	-0.023	0.195
-447.895	-64.488	0.184	0.075
-446.880	-53.455	-0.153	-0.071
-445.865	42.290	-0.248	-0.227
-444.851	7.242	0.016	-0.012
-443.836	249.240	0.110	0.188
-442.822	-200.000	-0.053	0.253
-441.807	210.707	-0.136	0.215
-440.792	243.649	-0.125	-0.212
-439.778	51.499	0.325	-0.310
-438.763	117.012	-0.047	0.059
-437.749	3.662	0.170	-0.125
-436.734	-26.604	-0.039	0.023
-435.719	177.350	-0.017	0.025
-434.705	44.555	0.134	-0.124
-433.690	-17.569	-0.249	0.157
-432.676	764.231	-0.088	0.240
-431.661	-84.575	-0.267	0.085
-430.646	-92.211	-0.242	-0.069
-429.632	33.527	-0.102	-0.089
-428.617	23.141	-0.270	0.223
-427.603	-200.000	-0.053	-0.352
-426.588	575.788	0.032	-0.079
-425.573	-136.658	0.032	0.004
-424.559	55.237	-0.074	0.072
-423.544	320.856	-0.239	-0.456
-422.530	-200.000	0.082	-0.416
-421.515	87.181	-0.163	-0.181
-420.500	-43.623	-0.322	0.163
-419.486	244.903	0.061	0.103
-418.471	-9.956	0.243	-0.163
-417.457	800.000	-0.151	0.434
-416.442	269.031	-0.068	-0.121
-415.428	488.757	-0.120	0.276
-414.413	145.086	-0.183	-0.246
-413.398	-51.068	0.155	0.073
-412.384	-20.601	-0.255	-0.157
-411.369	-32.852	-0.412	-0.230
-410.355	-36.880	-0.197	-0.106
-409.340	292.834	0.089	-0.163
-408.325	-3.331	-0.217	0.152
-407.311	303.526	-0.115	-0.214
-406.296	-36.199	0.182	0.098
-405.282	624.650	0.019	0.049
-404.267	-200.000	0.017	-0.706
-403.252	800.000	0.056	-0.171
-402.238	255.817	-0.160	-0.276
-401.223	-137.236	0.437	0.050
-400.209	-158.292	-0.396	-0.023
-399.194	-200.000	0.033	0.188
-398.179	-77.841	0.256	-0.089
-397.165	800.000	-0.095	0.276
-396.150	-181.238	0.395	-0.008
-395.136	-4.223	0.325	0.226
-394.121	5.604	0.090	0.067
-393.106	4.616	0.129	0.095
-392.092	-200.000	-0.024	-0.262
-391.077	-76.371	-0.290	-0.103
-390.063	551.626	0.061	0.147
-389.048	-1.599	-0.071	-0.050
-388.033	-200.000	0.008	0.167
-387.019	-200.000	-0.043	-0.190
-386.004	-43.588	0.083	0.042
-384.990	800.000	0.109	0.352
-383.975	263.295	-0.045	-0.079
-382.960	-6.972	-0.209	-0.143
-381.946	82.995	-0.031	-0.033
-380.931	129.995	-0.145	-0.186
-379.917	549.267	-0.095	0.228
-378.902	110.170	-0.066	-0.079
-377.888	83.674	0.236	-0.258
-376.873	-103.907	0.285	0.067
-375.858	-106.706	0.324	0.072
-374.844	-10.070	0.216	0.144
-373.829	143.249	0.120	-0.161
-372.815	-39.433	-0.227	0.120
-371.800	295.227	0.151	-0.278
-370.785	-79.763	-0.419	0.142
-369.771	-108.055	-0.107	0.023
-368.756	98.554	-0.189	-0.219
-367.742	800.000	-0.062	0.192
-366.727	30.001	0.334	-0.286
-365.712	-200.000	0.004	-0.126
-364.698	-177.570	0.275	0.007
-363.683	-200.000	0.027	0.294
-362.669	-21.105	0.093	0.057
-361.654	-37.802	0.222	0.118
-360.639	800.000	0.044	-0.141
-359.625	-44.087	0.267	-0.134
-358.610	-109.816	0.524	-0.110
-357.596	-200.000	-0.074	-0.325
-356.581	-109.402	0.313	-0.066
-355.566	116.792	0.060	-0.074
-354.552	-69.332	0.291	0.112
-353.537	-200.000	0.012	0.195
-352.523	118.516	-0.209	-0.258
-351.508	800.000	-0.044	0.132
-350.493	770.088	0.024	-0.066
-349.479	-200.000	0.050	-0.309
-348.464	-102.359	0.181	-0.044
-347.450	-132.806	0.057	-0.007
-346.435	-27.062	0.152	0.089
-345.420	-100.790	0.201	-0.050
-344.406	495.291	0.084	0.193
-343.391	-184.486	0.364	-0.006
-342.377	26.393	-0.159	0.133
-341.362	-200.000	-0.011	0.142
-340.348	-63.066	0.096	-0.040
-339.333	-168.065	-0.172	0.007
-338.318	137.030	-0.148	0.194
-337.304	800.000	0.061	0.180
-336.289	175.637	0.067	0.097
-335.275	800.000	-0.054	-0.211
-334.260	211.753	0.050	0.078
-333.245	-200.000	0.029	0.303
-332.231	-200.000	0.045	-0.401
-331.216	800.000	-0.019	0.054
-330.202	-200.000	-0.035	-0.163
-329.187	-49.351	-0.186	-0.089
-328.172	-42.751	-0.094	-0.048
-327.158	194.359	-0.103	0.156
-326.143	-8.092	0.168	-0.113
-325.129	89.260	-0.238	0.266
-324.114	-200.000	-0.007	-0.116
-323.099	800.000	-0.060	0.202
-322.085	-170.018	-0.359	0.013
-321.070	89.201	-0.163	-0.182
-320.056	800.000	-0.070	0.236
-319.041	26.295	0.244	0.204
-318.026	-200.000	-0.008	0.169
-317.012	-200.000	-0.020	-0.244
-315.997	-32.813	-0.220	0.123
-314.983	-63.614	0.133	-0.055
-313.968	-142.161	-0.154	0.015
-312.953	-200.000	0.016	0.204
-311.939	-31.070	0.244	0.138
-310.924	-169.373	-0.198	0.007
-309.910	-109.118	-0.044	-0.009
-308.895	247.653	-0.211	-0.357
-307.880	2.527	-0.072	0.052
-306.866	38.375	0.119	-0.106
-305.851	194.356	-0.118	0.180
-304.837	2.774	-0.072	-0.052
-303.822	252.079	-0.091	0.155
-302.807	-200.000	-0.020	-0.210
-301.793	-96.419	0.247	0.065
-300.778	-37.846	0.181	0.096
-299.764	-74.908	-0.458	0.164
-298.749	-59.850	-0.286	0.122
-297.735	72.963	0.071	-0.074
-296.720	611.800	-0.131	0.329
-295.705	58.295	-0.039	-0.038
-294.691	-3.305	0.231	-0.161
-293.676	-200.000	-0.008	-0.061
-292.662	-44.573	-0.216	-0.108
-291.647	-56.099	-0.334	0.149
-290.632	-88.731	0.242	0.072
-289.618	50.804	0.259	0.245
-288.603	40.190	-0.357	-0.321
-287.589	317.773	0.096	-0.181
-286.574	49.447	0.060	0.057
-285.559	-200.000	-0.499	-0.002
-284.545	-72.903	-0.183	-0.067
-283.530	-35.935	0.260	-0.141
-282.516	-62.835	0.228	-0.094
-281.501	24.083	0.149	0.123
-280.486	239.493	-0.292	-0.486
-279.472	-117.861	0.192	-0.034
-278.457	714.992	-0.036	0.096
-277.443	-110.104	-0.224	0.047
-276.428	-64.599	0.353	0.143
-275.413	183.473	0.089	-0.131
-274.399	800.000	0.045	0.188
-273.384	12.239	-0.221	0.170
-272.370	-200.000	0.037	0.187
-271.355	-133.728	-0.289	-0.036
-270.340	-128.826	0.204	0.029
-269.326	15.850	-0.208	-0.163
-268.311	-200.000	-0.038	-0.180
-267.297	-164.197	-0.302	-0.014
-266.282	84.547	0.046	-0.050
-265.267	203.482	-0.127	-0.196
-264.253	-188.878	-0.097	-0.001
-263.238	-200.000	-0.006	0.133
-262.224	-171.689	0.130	-0.004
-261.209	-128.933	0.199	0.028
-260.195	422.851	-0.088	0.189
-259.180	30.460	-0.116	-0.099
-258.165	-194.225	-0.253	-0.002
-257.151	12.597	-0.110	-0.085
-256.136	-92.413	-0.107	-0.030
-255.122	128.570	0.221	-0.281
-254.107	-95.928	-0.220	-0.059
-253.092	466.645	-0.098	0.219
-252.078	800.000	-0.049	0.138
-251.063	-198.891	0.156	-0.001
-250.049	-200.000	-0.005	-0.085
-249.034	-64.213	0.337	0.137
-248.019	210.784	0.057	0.090
-247.005	800.000	-0.057	-0.219
-245.990	143.716	0.177	0.235
-244.976	800.000	0.039	-0.159
-243.961	-62.951	0.431	0.178
-242.946	-45.619	-0.103	0.051
-241.932	-200.000	0.007	0.270
-240.917	-200.000	-0.023	-0.223
-239.903	-81.394	-0.168	-0.055
-238.888	-200.000	-0.003	0.025
-237.873	28.902	0.119	0.101
-236.859	-113.635	0.076	0.015
-235.844	-200.000	-0.031	0.251
-234.830	-46.230	-0.192	0.094
-233.815	-59.987	-0.186	-0.079
-232.800	42.448	0.201	-0.183
-231.786	-92.418	0.243	0.068
-230.771	-200.000	-0.018	0.229
-229.757	800.000	-0.029	-0.105
-228.742	-200.000	0.054	-0.238
-227.727	-200.000	0.014	-0.284
-226.713	-176.117	0.493	0.013
-225.698	56.885	0.222	-0.216
-224.684	767.330	0.133	-0.362
-223.669	190.217	-0.263	0.394
-222.655	39.129	0.104	-0.093
-221.640	54.944	-0.140	0.135
-220.625	-102.121	0.282	-0.068
-219.611	745.019	0.103	-0.277
-218.596	-132.568	0.354	-0.045
-217.582	29.382	0.182	0.154
-216.567	-33.976	-0.235	0.129
-215.552	800.000	0.063	0.263
-214.538	800.000	0.060	0.176
-213.523	-127.527	0.216	0.031
-212.509	-200.000	0.017	0.145
-211.494	-46.861	-0.266	0.130
-210.479	35.988	-0.219	-0.192
-209.465	800.000	0.060	0.230
-208.450	356.069	0.112	0.221
-207.436	-134.583	0.094	0.011
-206.421	49.614	0.227	-0.213
-205.406	-135.234	-0.095	-0.011
-204.392	-200.000	-0.020	0.406
-203.377	-19.129	-0.128	0.079
-202.363	224.198	0.218	0.350
-201.348	-125.774	-0.112	0.017
-200.333	-10.220	0.192	-0.127
-199.319	-35.392	0.291	0.158
-198.304	-35.558	0.228	-0.123
-197.290	-200.000	0.015	0.174
-196.275	467.944	0.022	0.049
-195.260	-200.000	0.006	0.257
-194.246	-200.000	0.014	0.226
-193.231	-200.000	-0.007	0.159
-192.217	47.353	-0.324	0.300
-191.202	800.000	-0.064	0.205
-190.187	458.067	0.057	-0.126
-189.173	-71.341	-0.420	-0.157
-188.158	516.959	0.043	0.101
-187.144	-51.367	0.235	-0.110
-186.129	-59.310	-0.213	-0.091
-185.114	-200.000	0.053	0.301
-184.100	265.473	0.196	0.341
-183.085	36.366	-0.274	-0.241
-182.071	6.092	0.166	-0.123
-181.056	319.053	0.135	-0.255
-180.042	-200.000	-0.000	-0.138
-179.027	-149.468	-0.273	0.022
-178.012	-194.372	-0.014	-0.000
-176.998	5.944	-0.213	-0.157
-175.983	-4.006	0.157	-0.108
-174.969	-200.000	-0.016	-0.160
-173.954	-88.430	-0.164	0.049
-172.939	-34.956	0.091	-0.049
-171.925	-93.333	-0.332	-0.092
-170.910	-200.000	-0.026	-0.191
-169.896	10.718	-0.347	0.263
-168.881	-101.204	0.031	0.008
-167.866	800.000	-0.130	-0.404
-166.852	-188.166	0.186	-0.002
-165.837	-26.321	0.374	0.218
-164.823	-127.644	0.436	-0.063
-163.808	-58.652	0.397	0.171
-162.793	-200.000	-0.096	-0.574
-161.779	-101.673	-0.193	-0.047
-160.764	-200.000	-0.008	-0.317
-159.750	44.087	-0.124	-0.113
-158.735	-200.000	0.015	0.273
-157.720	800.000	-0.076	0.219
-156.706	-200.000	0.008	-0.043
-155.691	270.484	0.067	0.116
-154.677	-155.249	-0.165	0.011
-153.662	506.197	-0.094	-0.217
-152.647	-140.032	-0.160	-0.017
-151.633	-200.000	-0.010	0.371
-150.618	478.129	0.037	-0.084
-149.604	5.782	-0.037	-0.027
-148.589	-146.772	0.263	-0.023
-147.574	-13.822	-0.325	-0.209
-146.560	228.617	0.228	-0.370
-145.545	199.550	-0.154	0.234
-144.531	-9.182	-0.096	-0.064
-143.516	127.821	0.117	0.148
-142.502	800.000	0.038	0.139
-141.487	229.434	-0.062	-0.101
-140.472	-70.102	0.046	-0.017
-139.458	68.307	0.184	0.188
-138.443	800.000	0.056	0.182
-137.429	86.650	0.244	0.268
-136.414	-200.000	0.005	-0.318
-135.399	422.178	0.120	-0.257
-134.385	400.419	-0.096	-0.200
-133.370	70.791	0.069	-0.071
-132.356	13.291	0.103	0.080
-131.341	-118.729	0.083	-0.015
-130.326	78.569	0.310	0.330
-129.312	-200.000	0.012	0.428
-128.297	202.900	-0.114	0.175
-127.283	-39.622	0.419	-0.218
-126.268	-200.000	-0.001	0.018
-125.253	468.277	0.052	0.117
-124.239	-139.992	0.173	0.018
-123.224	-5.684	0.091	0.062
-122.210	-200.000	-0.009	-0.081
-121.195	-48.180	0.126	0.061
