DTS Sentinel unit serial number:	SN413079Multiplexer serial number:	ORYXHardware model number:	OX4-SRSoftware version number:	ORYX F/W v4.00 Oryx Data Collector v3.7.2.0data status	okinstallation	princeton_trtdifferential loss correction	single-endedforward channel	channel 1reverse channel	N/Adate	2019/09/11time	06:20:11forward acquisition time	60.00reverse acquisition time	0.00gamma	496.2192k internal	0.2331k external	0.2331temperature offset calibration	0.9920default loss term (dB/km)	0.3790temperature slope calibration	1.0000multiplexer offset coefficient	1.0000multiplexer slope coefficient	1.0000fibre end	0.00T internal ref (°C)	29.55T ext. ref 1 (°C)	-0.19T ext. ref 2 (°C)	23.96length (m)	temperature (°C)	Stokes	anti-Stokes-747.200	195.543	-0.164	0.251
-746.185	-200.000	-0.013	0.126
-745.171	99.763	-0.052	0.060
-744.156	800.000	-0.061	0.224
-743.142	20.828	0.126	0.103
-742.127	800.000	0.125	0.455
-741.112	184.296	0.183	0.273
-740.098	-179.509	0.193	0.004
-739.083	176.448	-0.031	0.045
-738.069	15.004	-0.300	0.237
-737.054	103.688	-0.143	-0.169
-736.039	-114.855	-0.155	0.030
-735.025	192.015	-0.263	0.399
-734.010	-144.323	-0.095	0.009
-732.996	-200.000	-0.001	-0.371
-731.981	-68.374	0.049	0.019
-730.966	-72.169	0.094	-0.035
-729.952	-88.111	-0.197	-0.059
-728.937	269.770	0.073	0.130
-727.923	80.824	0.104	-0.113
-726.908	-54.477	-0.040	-0.018
-725.894	-41.892	-0.336	0.173
-724.879	443.730	-0.092	-0.203
-723.864	-108.472	-0.133	-0.029
-722.850	182.662	-0.246	-0.364
-721.835	-179.213	0.157	0.004
-720.821	800.000	0.091	-0.318
-719.806	58.952	0.310	-0.307
-718.791	800.000	-0.066	0.240
-717.777	-9.472	-0.207	0.139
-716.762	-54.428	-0.399	0.182
-715.748	30.143	-0.218	-0.187
-714.733	33.120	0.268	0.233
-713.718	-69.530	-0.125	0.048
-712.704	-12.138	0.042	-0.027
-711.689	-200.000	-0.006	-0.100
-710.675	-159.727	0.405	-0.022
-709.660	-200.000	-0.000	-0.074
-708.645	800.000	-0.032	0.094
-707.631	-90.760	0.024	-0.007
-706.616	-171.604	0.042	0.001
-705.602	244.658	0.115	0.195
-704.587	-149.803	-0.152	0.012
-703.572	-200.000	-0.013	-0.175
-702.558	204.866	0.076	0.119
-701.543	471.235	0.046	0.103
-700.529	-200.000	0.036	-0.182
-699.514	118.783	0.133	-0.165
-698.499	495.713	0.040	-0.093
-697.485	-87.128	0.422	-0.129
-696.470	-117.146	0.175	0.032
-695.456	-200.000	0.001	-0.113
-694.441	750.854	-0.104	-0.283
-693.426	-34.633	0.062	0.034
-692.412	285.230	0.056	0.102
-691.397	-200.000	0.028	-0.185
-690.383	23.228	0.224	0.184
-689.368	-109.558	0.180	0.038
-688.354	103.981	-0.178	0.210
-687.339	228.501	0.084	0.137
-686.324	303.092	0.013	-0.024
-685.310	800.000	0.040	0.115
-684.295	81.432	-0.371	-0.403
-683.281	342.528	-0.155	0.304
-682.266	-55.524	-0.291	0.131
-681.251	95.405	0.238	-0.272
-680.237	105.535	-0.243	-0.289
-679.222	-7.093	-0.125	-0.085
-678.208	-37.647	0.268	-0.143
-677.193	-84.376	-0.122	-0.039
-676.178	-146.490	-0.098	0.009
-675.164	-55.038	-0.118	-0.053
-674.149	800.000	0.093	0.396
-673.135	609.863	0.106	0.265
-672.120	-128.560	-0.060	0.009
-671.105	-67.860	0.271	-0.106
-670.091	-6.824	-0.156	-0.106
-669.076	189.308	-0.191	-0.287
-668.062	71.538	0.124	-0.129
-667.047	-200.000	-0.050	-0.243
-666.032	-79.900	0.077	-0.026
-665.018	28.342	-0.306	-0.259
-664.003	-82.476	-0.416	-0.136
-662.989	-51.327	0.238	-0.112
-661.974	-200.000	-0.013	0.088
-660.959	59.266	0.101	0.099
-659.945	173.711	0.053	0.076
-658.930	653.122	-0.089	0.229
-657.916	800.000	-0.053	-0.178
-656.901	-200.000	-0.013	-0.186
-655.886	316.963	0.103	-0.194
-654.872	537.545	0.087	-0.208
-653.857	34.591	0.192	-0.168
-652.843	-200.000	-0.035	0.230
-651.828	607.507	0.078	0.195
-650.814	-60.159	-0.275	0.118
-649.799	112.232	-0.166	-0.201
-648.784	-160.324	-0.340	0.018
-647.770	76.728	0.124	-0.132
-646.755	42.323	0.106	-0.097
-645.741	169.971	-0.184	-0.264
-644.726	-200.000	-0.001	-0.025
-643.711	38.600	-0.051	-0.045
-642.697	-35.019	0.267	-0.146
-641.682	212.975	-0.093	0.147
-640.668	-200.000	-0.026	-0.306
-639.653	66.912	0.029	-0.030
-638.638	89.798	-0.078	0.087
-637.624	229.725	0.154	-0.253
-636.609	-113.461	-0.321	-0.063
-635.595	800.000	-0.048	-0.133
-634.580	86.550	0.146	-0.161
-633.565	163.446	0.033	0.046
-632.551	-66.737	0.293	0.116
-631.536	-200.000	-0.074	-0.354
-630.522	-118.963	0.063	0.011
-629.507	-138.378	0.305	-0.034
-628.492	-108.551	-0.161	-0.035
-627.478	312.710	-0.078	0.146
-626.463	250.185	0.168	0.286
-625.449	-125.843	0.100	-0.015
-624.434	-142.858	0.058	-0.006
-623.419	-200.000	0.000	-0.116
-622.405	-26.955	-0.282	-0.165
-621.390	152.621	0.136	-0.186
-620.376	-87.005	0.325	-0.099
-619.361	-74.350	-0.147	0.053
-618.346	-141.137	-0.138	-0.014
-617.332	412.720	-0.057	0.121
-616.317	54.022	0.169	0.162
-615.303	-27.387	0.231	0.134
-614.288	-109.709	-0.089	0.019
-613.273	292.477	0.149	-0.272
-612.259	-200.000	-0.001	0.227
-611.244	-34.634	-0.089	-0.049
-610.230	172.866	-0.065	0.094
-609.215	221.950	0.043	0.069
-608.201	366.502	0.176	0.356
-607.186	-200.000	0.004	-0.212
-606.171	-91.345	0.111	-0.032
-605.157	-84.224	-0.218	0.069
-604.142	800.000	0.038	0.146
-603.128	338.692	-0.150	-0.293
-602.113	34.333	0.245	-0.214
-601.098	-17.755	0.370	-0.233
-600.084	-66.351	-0.250	0.100
-599.069	149.772	-0.017	-0.023
-598.055	-94.419	0.341	-0.093
-597.040	75.049	-0.174	0.184
-596.025	-200.000	0.015	-0.189
-595.011	-148.128	-0.237	-0.020
-593.996	800.000	0.063	-0.261
-592.982	-144.973	0.266	-0.024
-591.967	-34.831	0.188	0.102
-590.952	-200.000	-0.009	0.114
-589.938	213.421	-0.102	0.161
-588.923	-198.349	0.322	0.002
-587.909	61.606	0.274	-0.273
-586.894	800.000	-0.056	0.185
-585.879	83.176	0.123	-0.134
-584.865	-12.465	-0.175	-0.114
-583.850	-200.000	-0.016	0.187
-582.836	266.460	0.094	0.164
-581.821	60.831	-0.068	-0.067
-580.806	-28.452	-0.170	0.098
-579.792	-78.753	0.051	0.017
-578.777	-131.373	0.231	0.030
-577.763	-114.498	0.124	0.024
-576.748	17.952	-0.079	0.063
-575.733	47.411	0.118	0.110
-574.719	503.971	0.069	0.160
-573.704	-200.000	-0.006	-0.477
-572.690	5.973	-0.153	0.113
-571.675	-200.000	-0.005	0.182
-570.661	115.472	0.072	-0.088
-569.646	442.913	0.142	-0.312
-568.631	800.000	-0.057	-0.224
-567.617	-130.410	-0.127	0.017
-566.602	44.002	0.228	-0.209
-565.588	28.294	0.013	0.011
-564.573	40.169	-0.098	0.088
-563.558	50.474	-0.128	0.121
-562.544	-200.000	0.009	-0.286
-561.529	-200.000	-0.030	0.165
-560.515	-22.575	-0.315	0.191
-559.500	-88.385	-0.329	-0.098
-558.485	-51.179	-0.255	0.120
-557.471	278.421	-0.135	0.240
-556.456	-200.000	0.044	0.236
-555.442	195.586	0.047	0.071
-554.427	52.622	0.058	0.055
-553.412	-129.196	-0.210	-0.029
-552.398	441.430	-0.129	-0.282
-551.383	-200.000	0.005	0.072
-550.369	695.403	0.058	0.152
-549.354	800.000	0.063	-0.210
-548.339	-200.000	0.046	-0.267
-547.325	-63.895	-0.066	0.027
-546.310	-200.000	0.008	-0.085
-545.296	-200.000	0.193	0.001
-544.281	-200.000	-0.030	-0.135
-543.266	59.182	-0.137	-0.135
-542.252	-157.959	-0.127	0.007
-541.237	785.971	-0.108	-0.297
-540.223	800.000	-0.057	-0.170
-539.208	-48.014	0.050	0.024
-538.193	-0.001	-0.380	0.270
-537.179	61.676	-0.302	-0.300
-536.164	-43.845	0.172	-0.086
-535.150	96.941	-0.261	-0.299
-534.135	161.522	0.078	0.108
-533.121	59.637	-0.296	-0.292
-532.106	94.324	-0.077	0.087
-531.091	7.940	-0.182	-0.136
-530.077	341.167	0.107	0.208
-529.062	-200.000	-0.011	0.211
-528.048	101.597	0.163	0.189
-527.033	69.594	-0.022	-0.023
-526.018	-200.000	-0.026	0.191
-525.004	800.000	0.056	0.204
-523.989	-200.000	-0.001	-0.683
-522.975	-200.000	0.004	0.072
-521.960	75.839	-0.092	0.097
-520.945	150.952	-0.126	-0.171
-519.931	55.505	0.160	0.154
-518.916	93.940	0.164	0.185
-517.902	724.715	-0.086	-0.229
-516.887	46.716	0.102	-0.094
-515.872	523.713	-0.096	0.225
-514.858	-144.975	-0.302	-0.028
-513.843	-62.422	-0.412	-0.171
-512.829	-97.409	-0.262	0.068
-511.814	-200.000	-0.016	0.251
-510.799	800.000	0.087	-0.259
-509.785	-164.225	-0.289	0.013
-508.770	51.109	-0.019	-0.018
-507.756	-103.908	-0.146	-0.034
-506.741	229.934	-0.054	0.088
-505.726	1.776	0.307	0.221
-504.712	85.094	-0.088	-0.096
-503.697	71.483	-0.113	0.117
-502.683	-4.354	-0.073	-0.050
-501.668	88.430	0.080	-0.089
-500.653	-41.468	0.096	-0.049
-499.639	36.309	-0.266	0.234
-498.624	-200.000	0.006	-0.036
-497.610	87.377	-0.110	0.121
-496.595	280.301	0.106	0.189
-495.581	-34.607	0.166	-0.090
-494.566	-200.000	-0.016	-0.168
-493.551	51.550	0.199	0.189
-492.537	-131.299	0.064	0.008
-491.522	-47.885	-0.518	-0.250
-490.508	321.921	0.199	0.378
-489.493	-200.000	-0.029	-0.255
-488.478	31.193	-0.311	-0.266
-487.464	69.507	0.161	-0.165
-486.449	-103.241	0.095	-0.022
-485.435	246.473	0.212	0.356
-484.420	89.892	-0.292	0.325
-483.405	792.541	0.093	0.256
-482.391	174.117	-0.161	0.232
-481.376	-200.000	-0.077	0.510
-480.362	-50.234	-0.073	-0.034
-479.347	-28.298	-0.165	-0.095
-478.332	458.111	0.013	-0.029
-477.318	800.000	-0.027	0.114
-476.303	-165.428	0.383	-0.017
-475.289	11.018	0.170	0.129
-474.274	800.000	-0.040	-0.155
-473.259	127.853	-0.231	0.292
-472.245	4.331	-0.205	-0.149
-471.230	-157.237	0.063	-0.004
-470.216	19.961	-0.155	0.124
-469.201	-49.074	-0.077	0.037
-468.186	418.380	0.218	-0.463
-467.172	-4.484	-0.103	0.071
-466.157	-200.000	-0.002	0.114
-465.143	391.195	0.042	0.086
-464.128	-200.000	0.010	-0.172
-463.113	-1.528	-0.238	-0.167
-462.099	146.741	-0.083	0.111
-461.084	365.586	0.075	-0.150
-460.070	-5.201	-0.122	-0.084
-459.055	-23.646	0.183	-0.109
-458.040	154.646	0.018	-0.025
-457.026	-112.144	0.239	-0.048
-456.011	-26.132	0.173	-0.101
-454.997	-97.494	0.097	-0.025
-453.982	-169.148	-0.324	0.012
-452.968	-40.829	-0.076	-0.039
-451.953	744.244	0.063	0.168
-450.938	84.786	-0.183	0.200
-449.924	11.438	-0.058	0.044
-448.909	-102.040	-0.459	-0.110
-447.895	-15.269	-0.183	-0.117
-446.880	16.831	0.061	-0.048
-445.865	26.566	0.109	-0.091
-444.851	278.929	-0.118	0.209
-443.836	30.552	-0.204	0.174
-442.822	10.872	0.109	0.083
-441.807	545.373	-0.040	0.095
-440.792	4.865	-0.218	-0.160
-439.778	-89.510	0.233	-0.068
-438.763	-105.228	-0.141	-0.032
-437.749	-200.000	0.054	0.408
-436.734	-200.000	0.010	-0.445
-435.719	800.000	0.009	-0.037
-434.705	-108.974	-0.179	-0.038
-433.690	319.786	-0.145	-0.274
-432.676	104.115	0.130	-0.152
-431.661	-77.020	-0.123	0.043
-430.646	106.404	0.096	0.113
-429.632	12.533	-0.119	0.092
-428.617	559.208	-0.088	-0.211
-427.603	-99.041	0.202	-0.051
-426.588	800.000	0.011	0.039
-425.573	91.680	-0.176	0.197
-424.559	-20.121	-0.090	-0.055
-423.544	-28.427	-0.103	-0.059
-422.530	-135.752	-0.319	-0.037
-421.515	252.200	0.200	0.339
-420.500	800.000	0.036	-0.154
-419.486	110.888	-0.272	0.326
-418.471	-74.810	-0.251	0.090
-417.457	93.212	-0.101	-0.114
-416.442	-200.000	0.063	-0.277
-415.428	385.755	0.056	0.115
-414.413	241.899	0.083	-0.138
-413.398	-200.000	-0.034	0.407
-412.384	121.722	-0.223	0.276
-411.369	-121.004	-0.265	-0.044
-410.355	291.184	-0.080	0.145
-409.340	-59.613	-0.169	0.072
-408.325	-200.000	-0.006	-0.214
-407.311	-68.937	0.252	-0.097
-406.296	-28.150	-0.037	-0.021
-405.282	-33.170	-0.201	-0.111
-404.267	-14.702	0.133	-0.085
-403.252	-200.000	0.032	-0.196
-402.238	-81.901	0.187	0.061
-401.223	-6.389	-0.187	-0.126
-400.209	-100.306	0.309	-0.076
-399.194	-132.279	0.126	0.016
-398.179	104.686	-0.194	0.227
-397.165	125.654	0.223	0.279
-396.150	59.491	0.083	-0.081
-395.136	-200.000	-0.016	0.089
-394.121	-28.158	0.235	0.135
-393.106	-200.000	0.005	-0.038
-392.092	601.552	-0.126	-0.311
-391.077	-14.902	0.046	0.029
-390.063	49.031	-0.013	-0.013
-389.048	-26.607	-0.140	0.081
-388.033	130.008	0.150	-0.191
-387.019	-65.585	0.345	-0.137
-386.004	370.984	-0.085	-0.171
-384.990	-200.000	0.000	-0.166
-383.975	-175.300	-0.258	0.007
-382.960	-19.282	0.250	0.154
-381.946	212.369	-0.104	-0.162
-380.931	-26.844	-0.144	0.084
-379.917	-200.000	-0.070	0.335
-378.902	-47.116	-0.110	0.053
-377.888	-166.134	-0.108	0.005
-376.873	15.793	-0.232	-0.181
-375.858	-200.000	0.022	-0.131
-374.844	-200.000	0.059	-0.402
-373.829	67.122	-0.226	-0.228
-372.815	13.674	0.322	-0.248
-371.800	-5.370	0.104	-0.071
-370.785	693.468	-0.123	0.319
-369.771	-116.393	0.132	0.024
-368.756	112.267	0.144	0.173
-367.742	7.953	0.171	-0.127
-366.727	61.865	-0.104	0.103
-365.712	241.311	0.189	0.312
-364.698	-47.099	-0.271	-0.131
-363.683	800.000	-0.081	0.322
-362.669	-133.188	0.371	0.047
-361.654	101.701	0.297	0.343
-360.639	-123.227	0.030	-0.005
-359.625	800.000	0.060	0.202
-358.610	55.039	0.163	-0.156
-357.596	493.736	-0.027	0.061
-356.581	-89.445	0.329	-0.096
-355.566	18.634	0.213	0.169
-354.552	-200.000	0.004	-0.131
-353.537	-200.000	0.031	0.137
-352.523	-76.691	-0.116	0.040
-351.508	0.830	0.245	0.174
-350.493	91.419	0.192	0.214
-349.479	800.000	0.027	0.102
-348.464	-104.223	-0.139	0.032
-347.450	-63.672	-0.109	0.044
-346.435	-9.914	-0.330	-0.217
-345.420	-200.000	-0.020	0.098
-344.406	7.632	-0.230	0.170
-343.391	80.592	-0.092	-0.098
-342.377	-84.046	0.231	-0.073
-341.362	-68.544	-0.203	0.078
-340.348	-93.761	0.462	0.126
-339.333	515.655	0.089	0.205
-338.318	412.019	0.089	0.186
-337.304	280.657	0.257	0.455
-336.289	-96.746	0.005	-0.001
-335.275	-200.000	0.031	-0.140
-334.260	-116.575	-0.213	-0.039
-333.245	-48.570	0.129	0.062
-332.231	-148.811	0.256	-0.021
-331.216	-25.691	-0.158	-0.092
-330.202	-142.325	-0.149	-0.015
-329.187	-71.416	0.075	-0.028
-328.172	-98.733	0.461	-0.116
-327.158	-154.621	-0.039	0.003
-326.143	133.828	0.108	-0.138
-325.129	-197.172	0.410	-0.003
-324.114	-200.000	0.015	-0.179
-323.099	-200.000	0.041	-0.247
-322.085	30.883	-0.122	0.103
-321.070	-12.440	0.210	-0.136
-320.056	800.000	0.109	0.411
-319.041	-200.000	-0.031	0.156
-318.026	-136.651	-0.321	0.037
-317.012	155.197	0.298	-0.405
-315.997	800.000	-0.084	0.275
-314.983	-110.205	-0.178	0.037
-313.968	-200.000	0.006	0.100
-312.953	377.823	-0.130	-0.262
-311.939	26.473	-0.201	0.166
-310.924	-87.510	-0.130	0.039
-309.910	91.488	0.204	-0.227
-308.895	800.000	-0.019	0.065
-307.880	-29.369	-0.183	0.104
-306.866	30.862	-0.158	0.134
-305.851	-117.188	-0.236	-0.042
-304.837	247.942	0.174	0.291
-303.822	29.513	-0.064	-0.054
-302.807	92.297	0.167	-0.186
-301.793	-66.231	0.129	0.051
-300.778	800.000	-0.079	-0.264
-299.764	-111.508	-0.225	0.045
-298.749	-200.000	0.072	0.339
-297.735	-113.200	-0.299	0.058
-296.720	-103.610	0.235	0.055
-295.705	789.791	-0.044	-0.118
-294.691	800.000	0.041	-0.122
-293.676	-200.000	-0.021	-0.167
-292.662	800.000	0.067	-0.187
-291.647	263.248	0.189	-0.326
-290.632	175.187	0.152	-0.218
-289.618	-200.000	0.052	-0.254
-288.603	-109.433	-0.108	0.022
-287.589	-73.999	-0.202	0.072
-286.574	8.613	0.191	0.143
-285.559	69.615	-0.134	0.136
-284.545	-102.477	-0.178	-0.042
-283.530	48.860	-0.194	-0.180
-282.516	-164.443	0.357	0.016
-281.501	-14.654	-0.149	0.095
-280.486	31.596	-0.179	0.152
-279.472	-48.249	-0.263	-0.125
-278.457	-184.410	-0.234	-0.004
-277.443	-200.000	0.043	-0.192
-276.428	-117.187	0.355	0.064
-275.413	-163.761	-0.271	0.013
-274.399	52.905	0.278	-0.263
-273.384	295.488	0.068	0.122
-272.370	-52.171	-0.119	-0.054
-271.355	-64.510	0.409	-0.164
-270.340	-140.142	0.214	-0.022
-269.326	710.846	-0.091	0.239
-268.311	58.380	-0.101	-0.098
-267.297	-200.000	-0.044	-0.246
-266.282	436.792	-0.096	0.207
-265.267	-83.399	0.171	-0.054
-264.253	78.974	0.135	0.143
-263.238	-170.265	-0.173	0.006
-262.224	-31.316	0.544	-0.302
-261.209	-6.060	0.296	0.200
-260.195	162.502	-0.297	0.411
-259.180	-16.146	0.079	0.050
-258.165	12.301	-0.307	0.234
-257.151	-47.646	-0.120	0.058
-256.136	-200.000	0.018	0.494
-255.122	-127.082	-0.641	-0.093
-254.107	800.000	-0.141	0.389
-253.092	-71.441	0.348	0.129
-252.078	-131.232	0.189	0.025
-251.063	-118.043	-0.270	-0.048
-250.049	-55.338	0.228	-0.101
-249.034	-58.985	-0.017	0.007
-248.019	-120.772	0.116	0.019
-247.005	-81.042	0.388	0.127
-245.990	-70.317	0.162	-0.061
-244.976	127.155	-0.096	0.121
-243.961	-200.000	-0.022	-0.236
-242.946	-200.000	0.009	0.078
-241.932	-200.000	0.047	-0.225
-240.917	56.290	0.077	-0.074
-239.903	-200.000	-0.007	-0.083
-238.888	-145.752	0.573	0.050
-237.873	-200.000	-0.023	0.122
-236.859	-165.115	0.259	-0.011
-235.844	15.345	-0.185	0.143
-234.830	-161.741	0.240	-0.012
-233.815	-200.000	-0.020	0.139
-232.800	-46.867	-0.205	0.099
-231.786	-10.710	0.227	-0.148
-230.771	-21.382	0.179	-0.108
-229.757	-119.754	0.398	0.068
-228.742	20.381	0.147	-0.117
-227.727	-36.626	-0.366	0.194
-226.713	-8.386	-0.147	-0.098
-225.698	42.413	-0.135	0.121
-224.684	-200.000	0.002	0.112
-223.669	-98.601	-0.181	0.046
-222.655	52.595	-0.158	-0.148
-221.640	-200.000	-0.018	0.402
-220.625	311.731	-0.175	-0.324
-219.611	-75.038	0.179	-0.063
-218.596	-125.020	-0.195	-0.030
-217.582	-200.000	0.067	-0.383
-216.567	-200.000	0.031	-0.216
-215.552	-25.444	-0.349	-0.203
-214.538	44.724	0.288	0.261
-213.523	-130.513	0.158	0.021
-212.509	-200.000	0.021	-0.099
-211.494	279.920	-0.092	0.161
-210.479	132.391	0.308	0.391
-209.465	49.438	-0.211	0.196
-208.450	-54.761	0.171	0.076
-207.436	-106.865	0.396	-0.087
-206.421	-24.861	-0.263	0.154
-205.406	-36.016	-0.276	0.147
-204.392	101.385	0.141	0.162
-203.377	500.341	-0.039	0.089
-202.363	274.414	0.076	0.132
-201.348	-63.044	-0.315	0.128
-200.333	-34.470	0.334	0.180
-199.319	229.156	-0.026	-0.041
-198.304	25.837	-0.322	-0.265
-197.290	800.000	0.019	0.063
-196.275	-96.739	0.479	0.124
-195.260	-98.874	0.178	-0.044
-194.246	-55.528	0.296	-0.131
-193.231	170.594	-0.191	-0.269
-192.217	800.000	0.120	0.336
-191.202	-97.582	0.197	0.050
-190.187	222.665	-0.107	0.169
-189.173	-152.977	0.255	-0.018
-188.158	-74.252	-0.183	0.065
-187.144	-200.000	0.024	-0.226
-186.129	-47.315	-0.102	-0.049
-185.114	-148.202	-0.143	0.012
-184.100	-81.941	-0.079	0.025
-183.085	-200.000	-0.040	-0.192
-182.071	800.000	0.025	-0.073
-181.056	-100.808	-0.177	0.043
-180.042	-136.487	0.350	0.040
-179.027	-200.000	-0.100	-0.604
-178.012	14.952	-0.038	-0.029
-176.998	-200.000	-0.017	-0.137
-175.983	-40.429	0.225	0.115
-174.969	-166.003	-0.348	0.015
-173.954	108.640	0.097	-0.114
-172.939	-200.000	0.004	0.089
-171.925	-146.549	-0.157	0.013
-170.910	199.308	0.236	-0.355
-169.896	108.708	-0.220	-0.258
-168.881	293.394	-0.043	0.077
-167.866	-82.978	0.076	-0.024
-166.852	-126.529	0.342	-0.050
-165.837	800.000	0.033	-0.093
-164.823	-118.082	0.138	-0.024
-163.808	118.863	0.157	0.191
-162.793	-200.000	0.018	0.147
-161.779	73.191	0.142	-0.146
-160.764	365.833	-0.117	-0.233
-159.750	-164.412	0.160	-0.007
-158.735	5.421	0.016	-0.011
-157.720	-66.496	0.247	-0.096
-156.706	800.000	0.044	0.136
-155.691	-200.000	0.002	0.276
-154.677	267.329	0.057	-0.099
-153.662	-167.220	-0.292	-0.012
-152.647	-200.000	0.006	0.213
-151.633	195.788	-0.165	0.247
-150.618	136.069	-0.111	-0.142
-149.604	87.290	-0.061	-0.067
-148.589	43.544	-0.140	0.126
-147.574	-200.000	0.416	0.001
-146.560	56.653	-0.141	0.135
-145.545	-125.586	0.289	0.043
-144.531	95.283	0.337	0.378
-143.516	-78.838	0.204	-0.068
-142.502	800.000	0.057	-0.178
-141.487	174.828	-0.082	-0.117
-140.472	702.589	-0.149	0.387
-139.458	185.843	-0.245	0.358
-138.443	-23.302	0.252	0.149
-137.429	-129.573	-0.341	0.046
-136.414	-142.493	-0.218	-0.021
-135.399	53.896	0.247	-0.233
-134.385	163.888	0.227	-0.314
-133.370	-70.509	0.365	-0.136
-132.356	-52.866	0.156	-0.070
-131.341	-84.629	0.152	0.047
-130.326	-200.000	0.007	-0.055
-129.312	546.922	-0.118	0.277
-128.297	-200.000	0.004	0.127
-127.283	-95.935	-0.039	0.010
-126.268	-200.000	-0.013	0.086
-125.253	-200.000	0.040	0.213
-124.239	-81.570	-0.175	-0.057
-123.224	-200.000	-0.010	-0.136
-122.210	-117.610	0.323	0.057
-121.195	-200.000	-0.044	-0.294
