DTS Sentinel unit serial number:	SN413079Multiplexer serial number:	ORYXHardware model number:	OX4-SRSoftware version number:	ORYX F/W v4.00 Oryx Data Collector v3.7.2.0data status	okinstallation	princeton_trtdifferential loss correction	single-endedforward channel	channel 1reverse channel	N/Adate	2019/09/12time	01:20:11forward acquisition time	60.00reverse acquisition time	0.00gamma	496.2192k internal	0.2321k external	0.2321temperature offset calibration	1.0075default loss term (dB/km)	0.3790temperature slope calibration	1.0000multiplexer offset coefficient	1.0000multiplexer slope coefficient	1.0000fibre end	0.00T internal ref (°C)	33.00T ext. ref 1 (°C)	2.09T ext. ref 2 (°C)	27.89length (m)	temperature (°C)	Stokes	anti-Stokes-747.200	-96.298	-0.140	0.038
-746.185	655.447	0.038	0.098
-745.171	-126.949	0.077	-0.012
-744.156	-12.702	-0.171	0.113
-743.142	-104.534	0.075	-0.017
-742.127	800.000	0.092	0.363
-741.112	-86.384	0.169	-0.052
-740.098	-25.224	-0.201	0.121
-739.083	-26.104	0.211	0.125
-738.069	-141.886	-0.149	0.015
-737.054	-46.565	0.042	0.021
-736.039	-162.172	-0.298	0.015
-735.025	-200.000	-0.001	-0.223
-734.010	66.900	-0.389	-0.400
-732.996	34.729	0.059	0.052
-731.981	-200.000	0.019	0.120
-730.966	17.919	0.151	-0.122
-729.952	189.764	0.143	-0.217
-728.937	506.064	0.134	-0.313
-727.923	-200.000	0.002	-0.121
-726.908	-59.067	-0.285	-0.124
-725.894	800.000	-0.114	-0.386
-724.879	-92.338	-0.404	0.115
-723.864	455.258	-0.153	-0.343
-722.850	800.000	-0.033	-0.117
-721.835	17.637	-0.195	0.157
-720.821	110.425	-0.142	-0.173
-719.806	258.899	-0.090	-0.156
-718.791	125.610	0.302	-0.385
-717.777	-53.133	0.194	-0.090
-716.762	419.502	-0.052	-0.112
-715.748	-131.709	-0.245	0.032
-714.733	42.837	0.329	0.303
-713.718	29.279	0.169	0.145
-712.704	800.000	-0.081	-0.259
-711.689	168.026	0.142	-0.204
-710.675	-200.000	0.021	0.108
-709.660	-23.582	-0.194	-0.117
-708.645	45.811	0.179	0.167
-707.631	-200.000	-0.039	-0.358
-706.616	-200.000	0.000	0.199
-705.602	351.126	0.086	-0.172
-704.587	-200.000	0.068	-0.428
-703.572	800.000	0.097	0.318
-702.558	384.411	-0.055	0.114
-701.543	-200.000	0.022	0.144
-700.529	-102.187	-0.390	-0.095
-699.514	50.171	0.032	0.031
-698.499	-200.000	0.016	0.182
-697.485	103.681	0.100	0.119
-696.470	-1.930	-0.385	0.273
-695.456	-2.009	0.238	0.169
-694.441	-177.018	0.167	-0.004
-693.426	-200.000	-0.061	0.285
-692.412	-158.014	-0.279	0.017
-691.397	74.265	-0.238	0.252
-690.383	-133.217	-0.249	0.032
-689.368	800.000	0.060	0.222
-688.354	167.527	0.232	-0.333
-687.339	131.551	-0.021	-0.027
-686.324	-34.797	0.142	-0.078
-685.310	39.795	0.226	0.205
-684.295	65.364	-0.248	-0.253
-683.281	84.383	-0.050	0.055
-682.266	-129.858	-0.104	0.014
-681.251	18.423	-0.234	-0.188
-680.237	-200.000	-0.002	0.065
-679.222	-134.402	0.056	-0.007
-678.208	-104.981	0.175	-0.040
-677.193	64.279	-0.080	-0.081
-676.178	-30.099	-0.186	-0.107
-675.164	11.585	0.048	0.037
-674.149	800.000	-0.045	-0.131
-673.135	70.037	0.208	-0.216
-672.120	584.070	0.083	-0.206
-671.105	552.295	0.111	0.270
-670.091	800.000	-0.021	-0.081
-669.076	-36.248	-0.189	0.103
-668.062	37.342	0.305	-0.272
-667.047	-200.000	0.003	0.062
-666.032	12.453	-0.033	-0.026
-665.018	160.943	-0.114	0.160
-664.003	-143.857	-0.207	-0.020
-662.989	-88.508	-0.297	-0.089
-661.974	-108.908	-0.377	0.081
-660.959	-23.416	0.150	-0.091
-659.945	800.000	0.034	-0.114
-658.930	-200.000	-0.011	0.059
-657.916	-12.651	-0.174	-0.114
-656.901	-75.920	0.043	0.015
-655.886	22.873	0.091	-0.075
-654.872	154.618	0.111	-0.153
-653.857	800.000	0.059	-0.208
-652.843	-88.151	-0.308	0.093
-651.828	-22.543	0.106	-0.065
-650.814	25.738	-0.032	0.027
-649.799	-91.764	-0.309	0.088
-648.784	428.033	0.021	-0.046
-647.770	89.258	-0.156	-0.175
-646.755	450.106	-0.159	-0.354
-645.741	97.633	0.325	-0.376
-644.726	800.000	-0.113	-0.424
-643.711	87.949	-0.089	0.099
-642.697	104.364	0.076	0.090
-641.682	-145.520	0.220	-0.020
-640.668	-26.701	-0.185	0.109
-639.653	474.033	0.068	0.155
-638.638	-200.000	-0.038	-0.172
-637.624	-100.234	0.152	-0.038
-636.609	13.638	0.188	0.147
-635.595	-200.000	-0.001	-0.121
-634.580	-58.221	0.101	-0.044
-633.565	-200.000	0.156	0.000
-632.551	-200.000	0.026	0.231
-631.536	800.000	-0.078	0.272
-630.522	-124.411	0.184	0.029
-629.507	-200.000	-0.052	0.246
-628.492	1.325	-0.052	0.038
-627.478	-114.992	-0.142	0.027
-626.463	800.000	-0.006	0.020
-625.449	81.245	0.239	0.260
-624.434	-48.966	-0.266	-0.128
-623.419	395.581	-0.117	0.246
-622.405	800.000	0.044	-0.132
-621.390	-200.000	-0.036	-0.197
-620.376	-51.742	-0.441	-0.207
-619.361	46.083	0.266	-0.248
-618.346	-132.122	-0.342	0.045
-617.332	-4.521	0.095	0.066
-616.317	-200.000	0.020	-0.314
-615.303	253.235	0.127	0.218
-614.288	-108.884	-0.240	0.052
-613.273	-173.658	-0.333	0.010
-612.259	-11.224	0.327	0.216
-611.244	-200.000	-0.015	-0.130
-610.230	-32.973	0.208	-0.116
-609.215	458.837	0.179	-0.399
-608.201	-42.970	0.401	0.204
-607.186	-101.123	0.348	0.086
-606.171	-121.412	-0.362	0.061
-605.157	36.085	-0.135	-0.119
-604.142	-24.465	0.096	0.057
-603.128	351.583	-0.107	-0.213
-602.113	-75.124	0.133	-0.048
-601.098	-56.417	-0.268	0.120
-600.084	800.000	-0.048	0.165
-599.069	-200.000	-0.025	0.119
-598.055	-37.487	0.066	0.036
-597.040	-121.434	0.199	-0.033
-596.025	-200.000	0.026	-0.115
-595.011	-200.000	-0.034	0.154
-593.996	-79.863	0.429	0.145
-592.982	-24.961	-0.223	0.133
-591.967	62.868	0.285	0.287
-590.952	184.788	-0.094	-0.140
-589.938	-105.235	-0.053	-0.012
-588.923	-200.000	0.006	-0.358
-587.909	-200.000	0.017	0.174
-586.894	42.254	0.095	0.087
-585.879	-200.000	0.028	0.255
-584.865	-200.000	0.021	0.131
-583.850	19.646	0.104	-0.084
-582.836	-20.506	0.162	0.100
-581.821	-200.000	-0.011	0.360
-580.806	175.218	0.155	0.226
-579.792	12.028	0.116	0.089
-578.777	-136.310	-0.075	0.009
-577.763	-200.000	-0.002	0.305
-576.748	800.000	-0.016	0.061
-575.733	-181.955	0.169	0.003
-574.719	3.497	0.195	0.142
-573.704	765.827	0.045	-0.123
-572.690	265.813	-0.064	-0.112
-571.675	-149.450	-0.335	0.027
-570.661	120.028	-0.282	-0.351
-569.646	280.449	-0.154	-0.276
-568.631	178.530	-0.150	-0.220
-567.617	66.677	-0.105	-0.108
-566.602	671.803	-0.075	-0.195
-565.588	-6.295	-0.074	-0.051
-564.573	-23.998	-0.289	-0.174
-563.558	-40.490	0.400	0.209
-562.544	121.937	-0.082	0.103
-561.529	-200.000	-0.006	-0.199
-560.515	79.642	0.184	-0.199
-559.500	800.000	0.103	-0.322
-558.485	800.000	-0.018	0.061
-557.471	423.953	0.066	-0.143
-556.456	110.614	0.149	0.180
-555.442	800.000	0.114	-0.418
-554.427	73.043	-0.122	0.128
-553.412	233.410	-0.159	0.262
-552.398	-5.812	0.208	-0.143
-551.383	-180.159	0.255	-0.005
-550.369	-200.000	-0.005	-0.063
-549.354	460.348	0.054	0.121
-548.339	800.000	0.040	-0.118
-547.325	142.496	-0.145	-0.193
-546.310	55.811	-0.114	0.111
-545.296	168.130	0.148	-0.211
-544.281	56.241	-0.139	-0.136
-543.266	275.973	-0.101	0.180
-542.252	150.541	-0.032	0.044
-541.237	158.490	-0.103	0.144
-540.223	-150.874	0.410	-0.031
-539.208	-200.000	0.035	0.160
-538.193	129.554	-0.180	-0.231
-537.179	201.199	-0.144	-0.222
-536.164	-168.406	-0.060	0.002
-535.150	-200.000	-0.003	-0.130
-534.135	32.688	-0.192	0.166
-533.121	-188.583	0.207	-0.003
-532.106	800.000	0.098	-0.271
-531.091	268.744	-0.084	-0.147
-530.077	-184.553	-0.187	0.003
-529.062	-200.000	0.018	0.334
-528.048	182.326	0.107	0.158
-527.033	95.817	-0.086	0.098
-526.018	68.426	-0.102	0.105
-525.004	-200.000	-0.011	0.099
-523.989	25.263	-0.099	-0.083
-522.975	-200.000	-0.022	0.215
-521.960	800.000	0.024	-0.084
-520.945	-0.158	0.199	-0.142
-519.931	-200.000	0.024	-0.244
-518.916	707.092	0.022	-0.058
-517.902	-200.000	-0.012	-0.127
-516.887	-71.519	-0.176	-0.066
-515.872	171.081	0.081	0.117
-514.858	444.282	-0.139	-0.305
-513.843	-200.000	-0.063	0.384
-512.829	-115.413	-0.100	-0.019
-511.814	-14.467	0.129	-0.083
-510.799	89.222	-0.201	-0.225
-509.785	-27.835	-0.063	-0.037
-508.770	-152.445	-0.210	0.015
-507.756	-200.000	-0.014	0.212
-506.741	800.000	0.035	0.144
-505.726	-200.000	-0.009	-0.258
-504.712	800.000	0.069	-0.302
-503.697	-143.155	0.287	0.028
-502.683	101.973	0.133	0.155
-501.668	292.341	-0.155	0.282
-500.653	299.221	-0.062	0.115
-499.639	-70.572	0.428	0.162
-498.624	39.564	0.345	0.310
-497.610	-179.288	-0.030	-0.001
-496.595	-72.557	-0.147	0.054
-495.581	-122.426	-0.181	-0.029
-494.566	-165.889	0.185	-0.008
-493.551	-200.000	0.006	0.146
-492.537	508.531	-0.011	-0.027
-491.522	-168.897	-0.314	-0.012
-490.508	307.763	0.103	0.192
-489.493	-200.000	0.006	-0.169
-488.478	103.473	0.160	-0.188
-487.464	800.000	-0.131	-0.492
-486.449	-200.000	0.044	-0.296
-485.435	-155.371	-0.138	0.009
-484.420	800.000	0.014	-0.053
-483.405	582.524	-0.058	0.143
-482.391	-200.000	-0.021	0.102
-481.376	96.447	0.146	0.167
-480.362	-6.084	-0.025	0.017
-479.347	151.311	0.080	-0.109
-478.332	-200.000	0.035	-0.293
-477.318	-154.415	0.165	0.011
-476.303	403.704	0.108	0.227
-475.289	177.323	0.057	-0.083
-474.274	483.426	-0.038	0.087
-473.259	249.691	0.178	-0.302
-472.245	-200.000	0.068	-0.446
-471.230	-200.000	-0.019	-0.182
-470.216	-52.356	0.047	0.022
-469.201	1.948	-0.122	0.088
-468.186	55.796	-0.028	-0.027
-467.172	38.139	0.042	-0.037
-466.157	24.899	0.066	-0.054
-465.143	366.058	-0.123	0.248
-464.128	14.969	0.198	-0.155
-463.113	-30.473	-0.065	-0.037
-462.099	-90.660	-0.070	0.020
-461.084	-3.052	0.341	0.238
-460.070	800.000	0.070	-0.254
-459.055	-200.000	-0.028	-0.159
-458.040	-200.000	0.006	0.236
-457.026	84.012	-0.180	-0.196
-456.011	-200.000	0.020	-0.240
-454.997	-106.620	-0.037	-0.008
-453.982	-19.226	-0.396	-0.246
-452.968	54.943	0.174	-0.168
-451.953	-35.283	0.132	-0.072
-450.938	-77.166	-0.317	-0.110
-449.924	-42.287	0.464	-0.237
-448.909	-169.073	-0.209	0.008
-447.895	157.448	-0.298	-0.412
-446.880	363.289	-0.101	0.202
-445.865	-162.104	0.171	0.009
-444.851	513.680	-0.077	0.179
-443.836	33.968	-0.116	0.101
-442.822	-62.691	0.383	-0.159
-441.807	-73.944	0.087	-0.031
-440.792	177.246	-0.188	0.273
-439.778	13.671	0.273	-0.212
-438.763	509.660	-0.100	-0.232
-437.749	-51.472	0.070	-0.032
-436.734	-16.656	0.338	0.214
-435.719	30.959	-0.099	0.084
-434.705	102.712	0.074	-0.087
-433.690	475.915	-0.079	0.178
-432.676	23.095	-0.145	0.119
-431.661	168.493	-0.072	-0.102
-430.646	-200.000	0.039	-0.301
-429.632	-129.872	0.202	0.028
-428.617	-200.000	-0.007	-0.060
-427.603	410.014	0.107	0.227
-426.588	-200.000	0.071	0.317
-425.573	732.920	-0.030	-0.080
-424.559	-200.000	0.035	0.340
-423.544	-200.000	-0.003	0.179
-422.530	63.349	-0.265	-0.265
-421.515	343.785	0.073	0.142
-420.500	69.178	0.079	0.081
-419.486	324.974	-0.153	0.291
-418.471	35.259	0.219	-0.191
-417.457	800.000	0.067	-0.225
-416.442	-153.887	0.138	0.009
-415.428	-58.137	-0.311	0.135
-414.413	800.000	0.068	-0.231
-413.398	56.404	-0.138	-0.134
-412.384	-21.793	0.170	-0.103
-411.369	-49.589	0.129	-0.061
-410.355	-106.045	0.286	-0.064
-409.340	-148.194	-0.369	0.030
-408.325	46.301	0.245	0.227
-407.311	27.858	0.207	0.174
-406.296	27.787	0.145	0.122
-405.282	-200.000	-0.010	0.116
-404.267	124.216	0.208	0.261
-403.252	-32.184	0.049	-0.027
-402.238	-126.886	0.220	-0.032
-401.223	-118.346	-0.200	-0.035
-400.209	-68.855	0.187	-0.072
-399.194	453.994	-0.027	0.059
-398.179	800.000	-0.015	0.045
-397.165	-200.000	-0.010	0.147
-396.150	189.836	-0.017	0.026
-395.136	-200.000	-0.003	-0.140
-394.121	19.795	-0.133	0.107
-393.106	0.514	0.309	0.220
-392.092	-200.000	-0.020	-0.233
-391.077	548.493	-0.175	-0.418
-390.063	218.527	0.119	-0.189
-389.048	-145.460	-0.150	0.013
-388.033	18.091	0.023	-0.018
-387.019	-200.000	0.012	0.316
-386.004	-200.000	-0.033	-0.256
-384.990	-200.000	0.012	-0.227
-383.975	0.890	0.121	-0.086
-382.960	800.000	-0.095	-0.287
-381.946	-152.581	-0.368	-0.026
-380.931	-100.790	-0.198	0.049
-379.917	266.540	0.203	-0.353
-378.902	-8.003	-0.192	-0.129
-377.888	220.075	-0.049	0.079
-376.873	-163.065	0.220	-0.011
-375.858	67.283	0.019	0.019
-374.844	-74.842	-0.218	-0.078
-373.829	800.000	-0.062	0.229
-372.815	84.848	-0.091	-0.099
-371.800	-131.814	-0.217	0.028
-370.785	-123.051	0.224	0.036
-369.771	325.428	-0.053	0.101
-368.756	250.066	0.028	-0.047
-367.742	-200.000	-0.024	-0.195
-366.727	-85.551	0.156	-0.048
-365.712	83.141	-0.088	0.095
-364.698	39.379	0.070	-0.062
-363.683	-129.399	0.321	0.044
-362.669	-66.266	0.076	-0.030
-361.654	-91.170	0.114	-0.032
-360.639	108.453	-0.126	0.150
-359.625	-200.000	0.028	0.224
-358.610	800.000	0.069	-0.247
-357.596	-92.471	-0.148	-0.042
-356.581	-9.676	0.388	-0.257
-355.566	564.706	0.098	-0.237
-354.552	-120.957	0.139	0.023
-353.537	-200.000	-0.011	0.127
-352.523	-149.268	-0.269	0.021
-351.508	800.000	0.120	0.376
-350.493	-200.000	-0.019	-0.102
-349.479	232.127	0.159	-0.261
-348.464	40.395	0.143	0.128
-347.450	-91.643	0.341	-0.097
-346.435	800.000	0.038	-0.150
-345.420	-51.004	-0.151	-0.070
-344.406	235.026	0.089	-0.146
-343.391	800.000	0.102	0.347
-342.377	654.750	-0.032	0.082
-341.362	-62.431	-0.081	-0.033
-340.348	21.518	-0.290	0.235
-339.333	101.828	-0.272	-0.316
-338.318	-200.000	-0.032	0.161
-337.304	602.769	0.086	0.214
-336.289	15.974	-0.060	0.047
-335.275	-186.311	-0.388	-0.006
-334.260	-166.086	-0.367	0.016
-333.245	-56.753	-0.295	0.130
-332.231	-200.000	-0.013	-0.114
-331.216	119.891	-0.264	0.326
-330.202	11.630	-0.127	-0.097
-329.187	-200.000	-0.040	-0.436
-328.172	556.907	0.040	0.097
-327.158	673.768	-0.091	-0.236
-326.143	-73.469	0.391	-0.142
-325.129	-48.972	-0.137	-0.065
-324.114	2.696	0.260	-0.187
-323.099	-141.816	0.186	0.018
-322.085	66.506	-0.252	0.255
-321.070	552.211	-0.071	0.168
-320.056	-10.801	-0.233	0.153
-319.041	-24.106	-0.052	0.031
-318.026	800.000	-0.046	0.130
-317.012	64.346	-0.106	-0.106
-315.997	-127.440	-0.290	0.042
-314.983	108.539	0.121	-0.143
-313.968	759.882	0.041	-0.112
-312.953	-88.670	-0.098	0.029
-311.939	-121.427	-0.325	-0.054
-310.924	-200.000	-0.004	0.129
-309.910	-3.977	-0.368	0.254
-308.895	-200.000	0.102	0.486
-307.880	-127.140	0.170	-0.025
-306.866	800.000	-0.011	0.039
-305.851	-200.000	0.004	0.026
-304.837	738.500	-0.040	0.107
-303.822	-158.344	-0.271	-0.016
-302.807	800.000	-0.051	0.172
-301.793	176.631	-0.313	0.453
-300.778	323.712	0.136	-0.257
-299.764	-200.000	0.011	0.190
-298.749	-6.695	0.103	0.069
-297.735	-154.208	-0.275	-0.018
-296.720	4.876	-0.258	0.188
-295.705	19.062	-0.087	-0.069
-294.691	800.000	0.079	0.323
-293.676	-89.635	-0.133	0.039
-292.662	-200.000	0.025	-0.143
-291.647	100.818	0.088	-0.102
-290.632	151.902	-0.172	0.232
-289.618	90.024	0.251	0.279
-288.603	96.666	-0.054	-0.061
-287.589	58.695	0.128	0.125
-286.574	-200.000	-0.105	0.516
-285.559	45.243	-0.174	-0.159
-284.545	-200.000	0.029	0.259
-283.530	244.116	-0.054	0.090
-282.516	-182.514	0.127	-0.002
-281.501	-200.000	-0.016	-0.250
-280.486	-192.484	-0.184	0.002
-279.472	-200.000	-0.022	0.168
-278.457	-37.572	-0.232	-0.123
-277.443	-135.467	-0.232	0.027
-276.428	800.000	-0.037	0.157
-275.413	241.286	0.067	-0.112
-274.399	-33.191	-0.038	0.021
-273.384	191.145	0.141	0.210
-272.370	-79.502	0.197	0.066
-271.355	-109.605	0.198	0.041
-270.340	79.385	0.192	-0.205
-269.326	18.547	-0.245	0.194
-268.311	-200.000	0.041	0.240
-267.297	0.496	0.202	-0.143
-266.282	-200.000	-0.066	0.305
-265.267	192.778	-0.116	0.173
-264.253	-84.737	-0.232	0.073
-263.238	-95.066	0.273	0.073
-262.224	-200.000	0.010	-0.047
-261.209	-48.242	0.139	-0.067
-260.195	128.189	-0.070	-0.088
-259.180	91.497	-0.078	-0.087
-258.165	-66.122	-0.189	-0.075
-257.151	-90.261	-0.463	-0.133
-256.136	-28.408	0.101	0.058
-255.122	394.451	0.086	-0.178
-254.107	191.821	-0.137	-0.205
-253.092	800.000	0.054	-0.214
-252.078	-200.000	0.042	-0.273
-251.063	-95.413	-0.090	0.024
-250.049	-200.000	0.018	0.331
-249.034	11.422	-0.222	0.169
-248.019	-200.000	-0.015	-0.187
-247.005	239.433	-0.047	-0.077
-245.990	-110.303	-0.163	0.034
-244.976	-200.000	0.039	-0.260
-243.961	755.081	-0.034	-0.091
-242.946	-51.681	0.309	0.143
-241.932	398.121	-0.169	0.351
-240.917	-171.763	-0.327	0.011
-239.903	67.689	0.176	-0.178
-238.888	9.002	0.327	-0.245
-237.873	-27.917	0.184	-0.106
-236.859	74.925	-0.039	0.041
-235.844	-132.277	-0.283	0.036
-234.830	21.051	-0.173	0.139
-233.815	800.000	0.041	0.129
-232.800	117.333	0.101	-0.123
-231.786	800.000	0.169	-0.558
-230.771	399.335	-0.135	-0.281
-229.757	-25.296	-0.183	-0.107
-228.742	26.051	0.202	0.167
-227.727	102.762	0.266	0.309
-226.713	133.787	-0.143	-0.184
-225.698	-200.000	0.009	-0.220
-224.684	320.827	0.058	0.110
-223.669	800.000	0.060	0.197
-222.655	-200.000	0.054	0.313
-221.640	-81.870	0.071	0.023
-220.625	-200.000	0.050	0.302
-219.611	-153.882	-0.157	0.011
-218.596	-200.000	-0.025	-0.177
-217.582	362.073	0.094	0.187
-216.567	461.689	0.093	-0.205
-215.552	-200.000	-0.167	0.000
-214.538	-200.000	-0.055	-0.241
-213.523	137.050	0.096	-0.124
-212.509	437.000	0.096	0.208
-211.494	20.742	0.206	-0.165
-210.479	79.141	-0.085	0.090
-209.465	437.018	0.094	-0.202
-208.450	-104.708	0.119	-0.027
-207.436	75.462	-0.221	0.231
-206.421	-117.993	0.142	0.025
-205.406	-82.318	-0.254	-0.082
-204.392	-200.000	0.017	0.128
-203.377	-200.000	0.006	0.045
-202.363	75.418	0.122	-0.127
-201.348	800.000	-0.034	-0.106
-200.333	-65.357	-0.167	-0.067
-199.319	146.193	0.139	-0.185
-198.304	171.459	0.082	0.117
-197.290	705.061	0.076	-0.198
-196.275	800.000	0.015	-0.052
-195.260	63.947	0.084	0.084
-194.246	368.743	-0.131	-0.262
-193.231	-57.710	0.229	0.099
-192.217	-14.963	-0.189	0.120
-191.202	87.948	0.230	-0.253
-190.187	-12.391	-0.189	0.122
-189.173	9.075	-0.221	-0.165
-188.158	-3.234	0.253	0.174
-187.144	-122.430	-0.339	-0.055
-186.129	338.865	0.084	-0.161
-185.114	800.000	-0.171	0.479
-184.100	183.725	0.090	0.132
-183.085	-36.305	0.162	0.086
-182.071	443.808	0.043	-0.093
-181.056	94.259	0.126	0.142
-180.042	16.708	0.113	-0.088
-179.027	66.139	-0.115	0.116
-178.012	54.677	0.085	-0.081
-176.998	34.760	0.138	0.120
-175.983	44.180	0.111	0.100
-174.969	-200.000	0.013	0.153
-173.954	-79.420	0.144	0.048
-172.939	-200.000	-0.012	0.113
-171.925	90.979	0.113	-0.125
-170.910	-200.000	-0.038	-0.330
-169.896	-200.000	-0.015	0.151
-168.881	-200.000	-0.021	0.246
-167.866	780.973	-0.074	0.200
-166.852	-200.000	0.026	-0.120
-165.837	636.366	0.124	0.312
-164.823	-22.421	-0.077	-0.046
-163.808	45.383	0.204	0.186
-162.793	-200.000	-0.048	-0.210
-161.779	51.929	-0.108	-0.101
-160.764	-123.311	-0.151	0.024
-159.750	315.644	0.030	0.055
-158.735	-176.808	0.009	-0.000
-157.720	-200.000	0.020	0.119
-156.706	394.353	0.025	0.051
-155.691	-200.000	0.034	0.265
-154.677	-83.347	0.163	0.052
-153.662	-131.548	-0.081	-0.011
-152.647	413.086	0.158	-0.332
-151.633	800.000	-0.125	0.500
-150.618	21.727	-0.145	-0.117
-149.604	34.923	-0.182	0.158
-148.589	261.265	0.267	-0.457
-147.574	-10.082	0.235	0.154
-146.560	-22.359	-0.106	-0.064
-145.545	154.595	0.278	0.378
-144.531	-0.686	0.126	0.088
-143.516	81.464	-0.201	0.215
-142.502	228.405	0.103	0.166
-141.487	-51.592	0.110	-0.051
-140.472	-200.000	-0.046	-0.198
-139.458	64.240	0.306	-0.304
-138.443	800.000	-0.042	-0.157
-137.429	34.098	-0.057	-0.049
-136.414	-185.201	0.199	-0.003
-135.399	-200.000	0.007	0.044
-134.385	117.431	-0.044	0.053
-133.370	-4.909	-0.293	0.199
-132.356	247.737	-0.110	0.183
-131.341	-150.123	-0.100	-0.008
-130.326	0.297	0.177	-0.125
-129.312	-39.097	-0.091	0.047
-128.297	55.518	-0.241	0.230
-127.283	114.684	0.170	-0.205
-126.268	800.000	-0.094	0.272
-125.253	-200.000	-0.021	-0.133
-124.239	-49.475	-0.172	0.081
-123.224	356.330	-0.218	0.428
-122.210	352.546	-0.114	-0.223
-121.195	-200.000	-0.020	0.208
-120.180	-42.884	-0.321	-0.161
