DTS Sentinel unit serial number:	SN413079Multiplexer serial number:	ORYXHardware model number:	OX4-SRSoftware version number:	ORYX F/W v4.00 Oryx Data Collector v3.7.2.0data status	okinstallation	princeton_trtdifferential loss correction	single-endedforward channel	channel 1reverse channel	N/Adate	2019/09/12time	03:08:11forward acquisition time	60.00reverse acquisition time	0.00gamma	496.2192k internal	0.2322k external	0.2322temperature offset calibration	1.0082default loss term (dB/km)	0.3790temperature slope calibration	1.0000multiplexer offset coefficient	1.0000multiplexer slope coefficient	1.0000fibre end	0.00T internal ref (°C)	32.28T ext. ref 1 (°C)	2.12T ext. ref 2 (°C)	27.41length (m)	temperature (°C)	Stokes	anti-Stokes-747.200	-200.000	-0.025	-0.171
-746.185	50.647	-0.196	0.188
-745.171	-37.136	-0.315	0.171
-744.156	800.000	-0.032	0.106
-743.142	-59.886	-0.074	0.032
-742.127	-79.254	-0.218	0.075
-741.112	-10.233	-0.117	-0.079
-740.098	800.000	-0.122	0.479
-739.083	96.968	0.069	0.080
-738.069	-200.000	0.051	0.241
-737.054	-10.215	-0.156	-0.105
-736.039	367.426	-0.223	-0.454
-735.025	-200.000	0.015	-0.562
-734.010	-70.084	-0.280	-0.108
-732.996	-69.091	-0.242	-0.094
-731.981	-76.647	-0.042	0.015
-730.966	14.537	0.128	-0.101
-729.952	539.455	0.100	0.239
-728.937	405.870	0.070	-0.150
-727.923	800.000	0.049	-0.172
-726.908	404.987	-0.149	-0.316
-725.894	-110.750	0.154	-0.032
-724.879	-64.201	-0.246	0.101
-723.864	688.055	-0.010	-0.027
-722.850	10.571	0.103	0.079
-721.835	-136.922	-0.350	-0.041
-720.821	-54.960	-0.491	-0.224
-719.806	-200.000	-0.024	-0.268
-718.791	-84.313	-0.218	0.070
-717.777	800.000	0.016	0.050
-716.762	-102.384	0.242	0.058
-715.748	800.000	-0.069	0.232
-714.733	-79.604	0.080	-0.027
-713.718	-141.313	0.193	-0.020
-712.704	187.255	0.102	-0.153
-711.689	332.963	0.128	-0.249
-710.675	-71.230	-0.066	0.025
-709.660	-49.776	-0.231	-0.111
-708.645	137.762	0.117	0.155
-707.631	171.141	-0.037	0.054
-706.616	-110.267	-0.290	0.061
-705.602	-121.166	0.139	-0.023
-704.587	68.625	-0.163	-0.169
-703.572	309.318	-0.078	-0.147
-702.558	-192.661	0.101	-0.001
-701.543	14.984	-0.056	-0.044
-700.529	19.625	0.244	-0.198
-699.514	-178.604	0.077	0.002
-698.499	374.882	0.089	-0.182
-697.485	105.722	0.127	0.151
-696.470	-200.000	0.055	-0.455
-695.456	-31.605	-0.065	-0.037
-694.441	-34.018	-0.115	-0.064
-693.426	71.600	0.204	0.214
-692.412	-60.054	-0.171	-0.074
-691.397	-83.431	-0.482	0.156
-690.383	-200.000	-0.009	-0.176
-689.368	-94.090	0.180	-0.050
-688.354	404.370	0.019	-0.040
-687.339	458.884	-0.032	-0.071
-686.324	5.924	-0.306	0.229
-685.310	167.329	-0.036	0.051
-684.295	-76.200	-0.076	0.027
-683.281	103.825	-0.207	-0.246
-682.266	-72.999	0.235	0.087
-681.251	-200.000	0.025	-0.126
-680.237	-200.000	0.022	-0.190
-679.222	-200.000	0.021	-0.096
-678.208	-65.624	0.128	-0.052
-677.193	109.149	-0.232	-0.280
-676.178	-200.000	-0.031	-0.264
-675.164	54.607	-0.280	-0.272
-674.149	408.122	0.137	-0.291
-673.135	168.216	0.055	-0.079
-672.120	504.021	-0.020	-0.046
-671.105	800.000	0.058	-0.174
-670.091	489.727	0.233	-0.537
-669.076	800.000	0.052	-0.172
-668.062	269.532	-0.104	-0.184
-667.047	-165.223	0.377	-0.017
-666.032	26.912	0.082	0.069
-665.018	800.000	0.032	-0.133
-664.003	-200.000	-0.024	-0.417
-662.989	-200.000	-0.049	-0.301
-661.974	800.000	0.022	0.080
-660.959	712.936	-0.115	-0.306
-659.945	-200.000	0.013	-0.285
-658.930	442.658	0.062	0.137
-657.916	62.312	-0.070	-0.070
-656.901	800.000	-0.068	-0.242
-655.886	-200.000	0.022	0.213
-654.872	-200.000	-0.006	0.031
-653.857	492.388	0.050	0.116
-652.843	-183.409	0.254	-0.004
-651.828	-200.000	0.011	-0.082
-650.814	-200.000	0.037	0.279
-649.799	-78.192	-0.083	0.029
-648.784	-109.010	0.032	0.007
-647.770	-126.447	-0.253	0.038
-646.755	-6.572	-0.185	0.127
-645.741	-200.000	0.032	-0.180
-644.726	56.749	-0.250	-0.245
-643.711	170.193	-0.198	-0.285
-642.697	498.277	-0.106	-0.245
-641.682	-105.806	-0.203	0.046
-640.668	-87.898	0.228	-0.069
-639.653	-47.683	0.187	0.091
-638.638	-200.000	-0.005	-0.107
-637.624	-92.756	-0.103	0.029
-636.609	-68.469	0.449	0.175
-635.595	57.244	-0.086	-0.085
-634.580	31.828	0.262	0.227
-633.565	-200.000	-0.009	-0.100
-632.551	344.460	0.136	0.269
-631.536	800.000	0.062	0.190
-630.522	-116.134	-0.222	-0.042
-629.507	-134.209	0.409	0.051
-628.492	8.955	-0.332	-0.252
-627.478	32.716	0.120	-0.104
-626.463	-183.094	-0.166	-0.003
-625.449	-200.000	0.010	0.093
-624.434	140.082	-0.135	-0.179
-623.419	56.337	-0.062	-0.061
-622.405	655.538	0.020	-0.053
-621.390	-99.581	0.107	0.027
-620.376	-148.114	0.273	0.023
-619.361	99.454	0.099	-0.115
-618.346	170.364	0.069	0.099
-617.332	-98.584	0.259	-0.066
-616.317	30.049	0.206	0.176
-615.303	518.234	0.103	-0.242
-614.288	-200.000	-0.040	-0.269
-613.273	-200.000	-0.011	-0.061
-612.259	-200.000	-0.018	-0.315
-611.244	45.034	0.336	0.311
-610.230	-200.000	0.025	0.241
-609.215	44.046	0.158	0.145
-608.201	-28.235	-0.073	0.042
-607.186	-49.623	0.154	0.073
-606.171	-200.000	-0.052	-0.382
-605.157	-132.298	-0.452	0.059
-604.142	164.617	-0.014	0.020
-603.128	-79.428	-0.144	-0.049
-602.113	-128.895	-0.134	0.019
-601.098	370.823	0.035	-0.072
-600.084	-39.744	0.289	-0.152
-599.069	-50.387	0.294	-0.139
-598.055	800.000	-0.040	-0.174
-597.040	34.239	-0.107	-0.094
-596.025	-89.088	-0.110	-0.033
-595.011	457.503	0.065	-0.146
-593.996	-200.000	-0.022	-0.413
-592.982	-71.909	-0.212	0.079
-591.967	-200.000	0.050	-0.283
-590.952	-92.868	0.241	-0.068
-589.938	68.250	0.204	0.210
-588.923	-88.872	-0.344	-0.102
-587.909	-156.099	-0.276	-0.018
-586.894	-200.000	-0.016	-0.112
-585.879	223.318	0.141	-0.229
-584.865	147.666	-0.171	-0.232
-583.850	97.168	-0.315	0.363
-582.836	549.602	-0.041	0.099
-581.821	-200.000	-0.014	-0.453
-580.806	-111.720	-0.067	-0.014
-579.792	-40.215	-0.149	-0.078
-578.777	656.531	-0.058	0.150
-577.763	-19.926	0.237	-0.147
-576.748	-168.937	-0.230	-0.009
-575.733	12.986	-0.167	0.130
-574.719	75.828	-0.166	-0.177
-573.704	-200.000	-0.002	0.046
-572.690	16.232	-0.271	-0.214
-571.675	368.843	0.118	0.240
-570.661	-125.113	0.206	-0.032
-569.646	712.265	-0.141	0.374
-568.631	146.470	-0.109	0.147
-567.617	-21.905	0.265	-0.162
-566.602	-5.653	0.209	0.144
-565.588	30.046	0.102	0.088
-564.573	-84.358	0.212	0.067
-563.558	-132.275	-0.118	0.015
-562.544	-113.768	0.160	0.031
-561.529	205.899	0.149	0.232
-560.515	163.162	-0.180	0.254
-559.500	566.444	0.229	-0.559
-558.485	-200.000	0.004	-0.134
-557.471	-28.091	-0.392	-0.227
-556.456	800.000	-0.017	0.053
-555.442	310.607	-0.112	0.211
-554.427	-200.000	-0.072	-0.341
-553.412	-7.170	-0.428	0.291
-552.398	-80.488	-0.354	-0.118
-551.383	-200.000	-0.000	-0.009
-550.369	263.376	-0.095	0.166
-549.354	800.000	-0.044	-0.190
-548.339	-106.276	0.179	0.040
-547.325	9.677	0.333	-0.253
-546.310	61.327	0.256	-0.255
-545.296	-108.846	0.357	0.076
-544.281	-2.955	-0.353	0.247
-543.266	152.794	0.178	-0.244
-542.252	800.000	0.158	-0.492
-541.237	-105.889	-0.076	-0.017
-540.223	-48.031	0.071	-0.034
-539.208	235.157	-0.032	0.053
-538.193	-1.466	0.188	0.133
-537.179	98.275	0.136	0.157
-536.164	-125.083	-0.162	0.025
-535.150	-200.000	-0.023	-0.156
-534.135	800.000	0.073	-0.279
-533.121	-34.249	-0.169	-0.093
-532.106	-200.000	0.009	0.104
-531.091	800.000	-0.073	0.277
-530.077	8.046	0.189	-0.142
-529.062	-200.000	0.005	-0.446
-528.048	-85.298	-0.024	-0.007
-527.033	-69.072	0.202	0.078
-526.018	-124.144	-0.198	0.031
-525.004	-38.806	-0.125	0.066
-523.989	-18.642	-0.156	0.098
-522.975	-185.115	0.123	-0.002
-521.960	-54.558	-0.114	0.052
-520.945	-200.000	0.010	-0.242
-519.931	265.755	0.248	-0.433
-518.916	-7.450	-0.195	-0.132
-517.902	28.933	0.105	-0.089
-516.887	140.954	-0.150	-0.199
-515.872	-200.000	0.087	-0.467
-514.858	-28.249	0.190	0.110
-513.843	800.000	0.030	-0.111
-512.829	183.081	-0.083	-0.122
-511.814	722.923	-0.125	-0.332
-510.799	-109.763	-0.315	-0.066
-509.785	46.721	0.172	-0.160
-508.770	-120.467	0.019	0.003
-507.756	-141.553	-0.215	-0.022
-506.741	235.163	-0.186	-0.308
-505.726	-200.000	-0.021	-0.116
-504.712	26.329	0.167	0.139
-503.697	91.070	-0.360	-0.405
-502.683	250.540	-0.132	0.225
-501.668	173.571	-0.053	-0.077
-500.653	13.819	0.072	-0.056
-499.639	-163.680	-0.134	0.006
-498.624	28.867	-0.273	-0.232
-497.610	-148.678	-0.182	0.015
-496.595	-110.495	-0.077	0.016
-495.581	-84.131	-0.187	0.059
-494.566	56.425	0.101	-0.098
-493.551	71.513	0.418	-0.435
-492.537	-168.838	-0.201	-0.008
-491.522	800.000	-0.117	-0.362
-490.508	-178.056	0.150	0.004
-489.493	32.420	-0.236	0.204
-488.478	800.000	0.152	-0.442
-487.464	800.000	0.016	0.069
-486.449	-154.863	-0.425	0.028
-485.435	4.796	0.027	0.020
-484.420	600.374	-0.066	-0.165
-483.405	552.679	-0.111	0.266
-482.391	365.895	-0.009	0.017
-481.376	-200.000	-0.072	-0.346
-480.362	-200.000	-0.014	-0.128
-479.347	-136.799	0.323	-0.037
-478.332	45.268	0.045	0.041
-477.318	378.519	-0.044	-0.090
-476.303	800.000	-0.075	0.298
-475.289	505.928	-0.156	0.362
-474.274	733.536	-0.102	-0.272
-473.259	187.968	-0.170	-0.254
-472.245	46.455	0.124	0.115
-471.230	800.000	0.064	0.243
-470.216	644.449	0.148	0.376
-469.201	-200.000	-0.063	-0.401
-468.186	-200.000	0.002	0.151
-467.172	-200.000	-0.073	0.481
-466.157	233.056	-0.091	-0.149
-465.143	-156.590	-0.109	0.007
-464.128	-91.151	-0.088	-0.025
-463.113	-200.000	0.114	-0.000
-462.099	-200.000	0.013	0.118
-461.084	-50.333	-0.150	-0.071
-460.070	-68.009	0.177	0.069
-459.055	-200.000	-0.060	-0.274
-458.040	272.273	0.119	0.210
-457.026	-59.092	-0.371	0.160
-456.011	-119.276	0.375	-0.065
-454.997	-200.000	-0.001	-0.061
-453.982	-48.372	-0.158	0.076
-452.968	-15.738	0.082	-0.052
-451.953	120.806	0.086	0.107
-450.938	392.516	0.130	0.269
-449.924	138.892	0.148	0.194
-448.909	23.386	-0.220	-0.180
-447.895	-200.000	-0.042	0.231
-446.880	-2.080	-0.231	0.162
-445.865	-110.938	0.262	-0.054
-444.851	98.935	0.160	0.185
-443.836	-200.000	0.007	-0.338
-442.822	-70.083	-0.149	0.057
-441.807	-131.376	0.242	0.032
-440.792	18.531	-0.172	0.138
-439.778	-200.000	-0.029	0.146
-438.763	-111.749	0.058	-0.012
-437.749	14.969	0.089	-0.069
-436.734	-118.753	0.236	-0.041
-435.719	-55.612	-0.242	0.108
-434.705	-119.893	0.037	-0.006
-433.690	2.210	-0.155	-0.112
-432.676	-79.849	-0.515	-0.173
-431.661	-200.000	0.001	-0.023
-430.646	-108.418	0.073	-0.016
-429.632	-131.097	0.224	-0.030
-428.617	-78.201	0.127	0.043
-427.603	-200.000	-0.015	0.322
-426.588	-76.872	-0.345	-0.120
-425.573	-193.670	0.315	0.003
-424.559	-93.370	-0.174	0.048
-423.544	800.000	-0.033	-0.125
-422.530	-160.721	-0.109	0.006
-421.515	800.000	-0.037	0.104
-420.500	-119.332	0.526	0.091
-419.486	788.215	0.061	0.167
-418.471	441.958	0.084	-0.183
-417.457	-200.000	-0.007	-0.244
-416.442	800.000	0.113	0.326
-415.428	141.239	0.069	-0.092
-414.413	180.741	-0.164	-0.240
-413.398	-49.537	0.073	-0.035
-412.384	800.000	-0.021	0.089
-411.369	-200.000	0.018	-0.184
-410.355	-64.520	-0.268	0.108
-409.340	-65.111	0.079	0.032
-408.325	238.283	0.206	0.342
-407.311	-141.666	-0.255	0.026
-406.296	800.000	-0.066	-0.267
-405.282	-15.082	0.216	-0.138
-404.267	-200.000	-0.018	0.104
-403.252	219.912	-0.162	0.258
-402.238	463.544	-0.007	0.016
-401.223	-200.000	-0.010	0.188
-400.209	-181.662	-0.298	0.006
-399.194	-200.000	0.055	0.346
-398.179	800.000	0.147	-0.484
-397.165	800.000	0.055	0.174
-396.150	800.000	-0.026	0.088
-395.136	379.479	0.117	0.240
-394.121	-88.256	-0.012	0.004
-393.106	71.371	0.071	-0.074
-392.092	104.846	0.113	-0.133
-391.077	-189.884	-0.303	-0.003
-390.063	-41.869	-0.323	0.165
-389.048	232.326	0.060	-0.099
-388.033	800.000	0.091	-0.381
-387.019	800.000	0.109	-0.357
-386.004	15.453	-0.092	-0.072
-384.990	-200.000	0.009	0.204
-383.975	-200.000	0.008	-0.113
-382.960	244.641	-0.054	0.090
-381.946	87.196	0.140	0.154
-380.931	-34.949	-0.081	0.044
-379.917	128.095	-0.195	-0.247
-378.902	-116.951	0.216	0.039
-377.888	-120.621	-0.201	0.034
-376.873	27.907	-0.036	-0.030
-375.858	-102.373	-0.099	0.024
-374.844	-200.000	-0.047	-0.260
-373.829	81.671	-0.095	0.103
-372.815	62.818	-0.105	-0.105
-371.800	-86.078	-0.017	-0.005
-370.785	39.511	-0.050	0.045
-369.771	67.607	0.247	0.251
-368.756	-124.529	-0.199	-0.031
-367.742	-101.573	0.113	0.027
-366.727	-200.000	0.013	-0.115
-365.712	294.995	-0.133	0.242
-364.698	-156.395	-0.241	0.015
-363.683	63.604	-0.026	0.026
-362.669	-200.000	0.003	-0.137
-361.654	49.757	0.134	-0.126
-360.639	105.644	-0.078	-0.091
-359.625	-139.092	0.189	-0.020
-358.610	82.558	0.063	0.069
-357.596	264.700	-0.042	0.073
-356.581	72.169	0.133	-0.138
-355.566	262.575	0.093	-0.160
-354.552	-97.860	-0.201	0.052
-353.537	-31.251	0.286	0.160
-352.523	306.654	0.226	-0.419
-351.508	41.211	-0.188	-0.169
-350.493	800.000	-0.024	-0.074
-349.479	82.218	-0.075	0.081
-348.464	155.885	-0.169	-0.232
-347.450	355.058	0.105	-0.209
-346.435	-86.316	-0.183	-0.056
-345.420	319.020	-0.121	0.228
-344.406	49.938	-0.045	0.042
-343.391	-24.068	0.196	0.116
-342.377	-21.396	-0.109	0.066
-341.362	-200.000	-0.004	0.119
-340.348	35.774	0.157	0.137
-339.333	220.690	0.101	0.161
-338.318	77.123	0.124	-0.131
-337.304	-128.323	-0.246	0.035
-336.289	-76.765	0.075	0.026
-335.275	26.415	0.225	-0.187
-334.260	469.414	-0.189	-0.423
-333.245	-200.000	-0.005	-0.133
-332.231	-159.834	0.027	0.001
-331.216	-149.593	0.028	0.002
-330.202	-200.000	-0.003	0.295
-329.187	-200.000	0.014	0.119
-328.172	-145.682	0.191	-0.017
-327.158	250.316	0.097	-0.163
-326.143	-200.000	-0.021	0.145
-325.129	518.246	-0.086	0.200
-324.114	-31.223	-0.060	0.034
-323.099	-48.774	-0.036	-0.017
-322.085	54.700	0.110	-0.105
-321.070	131.853	0.152	0.194
-320.056	-61.448	0.206	-0.086
-319.041	-83.597	0.331	-0.105
-318.026	-79.614	0.215	-0.072
-317.012	12.148	0.137	-0.105
-315.997	-0.018	-0.181	0.128
-314.983	183.144	0.172	0.252
-313.968	62.257	-0.133	0.132
-312.953	-200.000	0.002	0.012
-311.939	178.900	0.116	0.169
-310.924	160.185	0.160	0.221
-309.910	26.870	0.204	0.170
-308.895	-155.137	0.225	-0.015
-307.880	800.000	-0.027	-0.093
-306.866	274.450	0.063	-0.111
-305.851	-200.000	-0.001	-0.034
-304.837	-139.872	0.069	0.007
-303.822	619.344	0.131	0.327
-302.807	800.000	-0.040	0.158
-301.793	-200.000	0.033	0.278
-300.778	373.815	-0.090	-0.183
-299.764	320.083	-0.191	0.361
-298.749	-200.000	0.063	0.449
-297.735	38.258	-0.071	0.063
-296.720	-90.153	-0.228	-0.066
-295.705	191.788	0.152	-0.227
-294.691	-79.058	-0.100	0.034
-293.676	157.429	0.023	-0.032
-292.662	-200.000	0.014	0.236
-291.647	-133.035	-0.024	-0.003
-290.632	787.774	-0.080	-0.219
-289.618	88.547	0.048	0.053
-288.603	58.980	-0.176	0.172
-287.589	185.901	-0.108	0.160
-286.574	-200.000	0.053	0.296
-285.559	93.648	-0.121	-0.136
-284.545	119.700	-0.198	0.243
-283.530	678.476	-0.140	0.362
-282.516	-7.488	0.057	0.038
-281.501	-143.178	-0.121	0.012
-280.486	372.624	0.044	-0.089
-279.472	800.000	0.028	-0.106
-278.457	368.696	-0.155	0.312
-277.443	-73.605	0.159	0.057
-276.428	-70.092	0.037	0.014
-275.413	62.469	-0.042	0.042
-274.399	-130.002	0.185	-0.025
-273.384	-14.155	-0.059	0.038
-272.370	800.000	0.041	0.162
-271.355	-93.461	-0.059	0.016
-270.340	-200.000	-0.015	0.083
-269.326	-95.882	0.055	-0.015
-268.311	-155.700	0.427	0.027
-267.297	209.819	0.026	0.041
-266.282	-119.148	-0.227	0.039
-265.267	30.894	0.239	0.203
-264.253	-32.025	-0.357	0.198
-263.238	52.798	-0.310	-0.294
-262.224	-200.000	0.010	0.066
-261.209	-58.023	-0.151	0.065
-260.195	800.000	0.140	0.406
-259.180	-200.000	-0.052	0.228
-258.165	80.007	0.093	-0.099
-257.151	-44.875	-0.045	-0.022
-256.136	611.775	0.085	0.211
-255.122	-200.000	0.024	0.120
-254.107	-52.012	0.171	0.079
-253.092	-75.625	-0.211	-0.074
-252.078	123.555	0.112	0.139
-251.063	800.000	0.058	-0.208
-250.049	-200.000	-0.015	-0.204
-249.034	401.338	0.145	-0.302
-248.019	-200.000	0.007	0.178
-247.005	-104.578	0.229	0.052
-245.990	-17.127	0.084	0.052
-244.976	-122.972	-0.280	0.045
-243.961	-200.000	-0.027	0.211
-242.946	-83.707	0.120	0.038
-241.932	264.112	0.049	0.085
-240.917	-59.263	-0.126	0.054
-239.903	-112.150	-0.306	-0.061
-238.888	55.492	0.147	0.141
-237.873	-88.785	-0.430	0.126
-236.859	-82.091	0.126	-0.041
-235.844	-169.257	-0.311	0.011
-234.830	-8.164	-0.270	-0.180
-233.815	-55.934	-0.030	-0.013
-232.800	-50.938	0.088	0.041
-231.786	13.139	0.140	-0.107
-230.771	800.000	-0.073	0.292
-229.757	-173.231	0.173	-0.005
-228.742	800.000	-0.054	0.167
-227.727	-200.000	0.010	-0.300
-226.713	-119.092	-0.149	-0.026
-225.698	-136.320	0.149	0.017
-224.684	282.441	0.169	-0.300
-223.669	-100.944	-0.255	0.062
-222.655	17.527	-0.051	-0.040
-221.640	110.054	0.159	0.189
-220.625	215.815	-0.043	-0.068
-219.611	-141.458	-0.093	0.009
-218.596	800.000	-0.065	0.208
-217.582	-94.074	-0.164	0.045
-216.567	-16.063	-0.193	-0.121
-215.552	0.111	0.246	-0.174
-214.538	120.529	0.112	-0.137
-213.523	800.000	0.045	-0.140
-212.509	402.456	0.129	0.269
-211.494	-41.591	0.183	-0.093
-210.479	-84.499	0.212	-0.066
-209.465	-200.000	-0.015	0.092
-208.450	-58.898	-0.255	0.109
-207.436	-149.501	0.361	0.028
-206.421	800.000	0.068	0.214
-205.406	-12.525	0.125	-0.081
-204.392	-164.538	0.135	-0.006
-203.377	126.031	-0.076	-0.095
-202.363	47.442	-0.115	0.106
-201.348	253.559	0.170	-0.287
-200.333	219.065	0.090	0.142
-199.319	482.603	0.045	-0.101
-198.304	800.000	-0.053	-0.207
-197.290	-126.211	0.358	0.053
-196.275	-110.550	0.051	-0.011
-195.260	800.000	0.033	-0.094
-194.246	-10.954	0.148	0.097
-193.231	90.296	0.158	-0.175
-192.217	-45.062	0.144	-0.071
-191.202	-77.863	0.164	-0.056
-190.187	363.911	0.138	0.274
-189.173	-32.211	0.132	0.073
-188.158	-94.706	0.141	-0.038
-187.144	-200.000	-0.021	0.228
-186.129	-184.401	-0.055	0.001
-185.114	175.296	-0.111	0.159
-184.100	97.649	-0.263	0.299
-183.085	-200.000	0.013	0.205
-182.071	365.550	0.104	0.208
-181.056	800.000	-0.050	0.200
-180.042	130.536	0.195	0.247
-179.027	-175.403	-0.114	0.003
-178.012	377.427	0.046	-0.092
-176.998	220.422	0.077	-0.122
-175.983	-96.463	-0.088	-0.023
-174.969	46.338	-0.252	0.231
-173.954	800.000	0.118	0.361
-172.939	-71.509	0.134	0.049
-171.925	-70.936	0.330	-0.123
-170.910	443.635	0.153	0.331
-169.896	-166.165	-0.394	0.016
-168.881	159.269	0.099	0.136
-167.866	378.245	-0.177	0.358
-166.852	112.699	-0.026	0.032
-165.837	800.000	-0.016	-0.063
-164.823	-106.835	0.317	-0.069
-163.808	-36.039	-0.240	0.128
-162.793	-84.740	-0.125	0.039
-161.779	-25.368	0.194	0.113
-160.764	28.132	0.157	-0.131
-159.750	715.785	-0.194	-0.509
-158.735	6.988	0.215	-0.158
-157.720	800.000	-0.019	0.059
-156.706	-69.949	-0.069	0.026
-155.691	134.687	-0.134	0.172
-154.677	11.672	-0.160	0.121
-153.662	-107.441	0.158	-0.034
-152.647	-8.467	0.086	0.057
-151.633	152.414	0.101	-0.137
-150.618	-200.000	-0.047	-0.319
-149.604	-116.468	-0.165	0.030
-148.589	-1.349	0.189	0.132
-147.574	-67.251	0.121	0.047
-146.560	606.466	0.037	0.091
-145.545	-136.343	0.090	-0.010
-144.531	14.376	-0.124	-0.096
-143.516	-72.999	-0.091	0.033
-142.502	-45.116	0.198	-0.097
-141.487	-153.473	0.080	-0.005
-140.472	-35.900	0.520	-0.278
-139.458	-118.337	-0.156	0.027
-138.443	-113.469	0.252	-0.049
-137.429	800.000	-0.066	0.194
-136.414	-150.500	-0.176	0.013
-135.399	239.903	-0.177	0.291
-134.385	56.118	0.192	0.184
-133.370	-15.544	0.157	0.099
-132.356	800.000	0.027	0.076
-131.341	-70.215	-0.249	0.093
-130.326	800.000	0.050	-0.211
-129.312	-200.000	0.020	-0.127
-128.297	32.850	0.141	-0.121
-127.283	-93.810	0.243	0.066
-126.268	98.673	0.270	0.307
-125.253	-97.969	-0.242	0.062
-124.239	-144.260	0.193	-0.018
-123.224	800.000	-0.025	-0.104
-122.210	-16.122	0.309	0.193
-121.195	-200.000	0.007	-0.326
