DTS Sentinel unit serial number:	SN413079Multiplexer serial number:	ORYXHardware model number:	OX4-SRSoftware version number:	ORYX F/W v4.00 Oryx Data Collector v3.7.2.0data status	okinstallation	princeton_trtdifferential loss correction	single-endedforward channel	channel 1reverse channel	N/Adate	2019/09/11time	05:56:11forward acquisition time	60.00reverse acquisition time	0.00gamma	496.2192k internal	0.2331k external	0.2331temperature offset calibration	0.9922default loss term (dB/km)	0.3790temperature slope calibration	1.0000multiplexer offset coefficient	1.0000multiplexer slope coefficient	1.0000fibre end	0.00T internal ref (°C)	29.42T ext. ref 1 (°C)	-0.22T ext. ref 2 (°C)	23.49length (m)	temperature (°C)	Stokes	anti-Stokes-747.200	-127.175	0.107	-0.016
-746.185	-105.376	-0.377	0.086
-745.171	-80.254	-0.191	0.064
-744.156	-200.000	0.006	0.075
-743.142	-63.973	-0.299	0.123
-742.127	-128.068	-0.130	-0.019
-741.112	-7.685	0.092	0.063
-740.098	85.480	-0.138	-0.153
-739.083	-200.000	0.222	0.001
-738.069	800.000	-0.097	-0.388
-737.054	-200.000	-0.001	0.323
-736.039	293.245	0.104	0.190
-735.025	-200.000	0.060	-0.550
-734.010	-200.000	-0.024	-0.213
-732.996	657.629	-0.198	-0.512
-731.981	-110.135	0.157	0.033
-730.966	800.000	-0.082	0.317
-729.952	-90.723	-0.423	0.123
-728.937	-113.908	-0.245	-0.048
-727.923	-200.000	-0.029	0.153
-726.908	43.621	0.113	0.104
-725.894	-27.355	0.071	0.041
-724.879	41.442	-0.250	-0.228
-723.864	316.926	0.138	-0.262
-722.850	347.517	-0.053	-0.105
-721.835	502.933	-0.098	0.227
-720.821	624.310	-0.108	0.274
-719.806	160.750	-0.162	-0.227
-718.791	-47.482	-0.267	-0.131
-717.777	129.542	0.247	0.317
-716.762	96.715	-0.284	-0.328
-715.748	178.810	-0.036	0.053
-714.733	135.080	-0.159	0.208
-713.718	-110.748	-0.239	0.050
-712.704	314.941	0.147	0.278
-711.689	-139.643	-0.098	0.010
-710.675	-2.055	-0.186	0.131
-709.660	-30.071	-0.329	0.188
-708.645	106.848	0.047	-0.056
-707.631	-64.206	0.035	-0.015
-706.616	406.493	0.154	-0.327
-705.602	363.386	0.063	0.128
-704.587	-18.373	-0.140	-0.088
-703.572	-144.255	-0.134	0.013
-702.558	390.075	-0.178	-0.371
-701.543	-200.000	-0.029	-0.213
-700.529	-86.638	0.239	0.074
-699.514	150.479	-0.098	0.134
-698.499	-120.612	0.121	0.021
-697.485	-200.000	-0.036	-0.160
-696.470	742.183	0.201	-0.543
-695.456	28.484	0.125	-0.106
-694.441	-200.000	-0.000	-0.069
-693.426	-31.065	0.171	0.097
-692.412	565.513	0.113	0.276
-691.397	31.032	-0.178	-0.154
-690.383	-140.704	0.289	-0.030
-689.368	-55.458	0.133	0.060
-688.354	-8.637	0.244	0.165
-687.339	-153.434	0.240	-0.017
-686.324	15.770	0.151	-0.119
-685.310	-64.930	0.148	0.060
-684.295	27.223	0.106	0.089
-683.281	445.771	0.110	0.242
-682.266	800.000	-0.071	-0.221
-681.251	-56.409	-0.396	-0.176
-680.237	43.545	-0.216	0.198
-679.222	-62.328	0.095	-0.040
-678.208	69.079	0.245	0.252
-677.193	-200.000	-0.002	-0.256
-676.178	23.843	-0.218	0.180
-675.164	54.226	-0.179	-0.173
-674.149	67.910	0.152	-0.156
-673.135	-200.000	-0.002	-0.146
-672.120	-47.181	0.269	-0.132
-671.105	-56.141	-0.163	0.073
-670.091	181.099	-0.042	-0.063
-669.076	120.551	0.170	-0.212
-668.062	58.124	0.254	-0.250
-667.047	-97.857	-0.201	-0.052
-666.032	11.592	-0.078	-0.060
-665.018	-41.490	-0.096	0.050
-664.003	-156.397	-0.156	-0.010
-662.989	800.000	-0.028	0.090
-661.974	282.145	0.134	-0.241
-660.959	-200.000	-0.046	0.209
-659.945	-89.700	-0.127	0.037
-658.930	293.294	-0.235	-0.430
-657.916	-200.000	-0.067	-0.312
-656.901	-76.144	0.047	-0.017
-655.886	-33.908	-0.078	0.043
-654.872	670.566	-0.053	0.138
-653.857	-101.012	-0.195	-0.048
-652.843	-45.099	-0.117	0.059
-651.828	-138.191	0.131	0.015
-650.814	-200.000	-0.020	0.175
-649.799	42.364	-0.080	-0.073
-648.784	-85.745	-0.355	0.111
-647.770	689.843	0.024	0.064
-646.755	-28.947	0.081	-0.047
-645.741	-36.594	0.272	0.147
-644.726	-200.000	-0.068	-0.387
-643.711	88.177	-0.079	0.088
-642.697	-200.000	-0.010	-0.076
-641.682	167.516	-0.039	-0.055
-640.668	-200.000	0.164	0.000
-639.653	25.044	-0.085	-0.071
-638.638	-150.312	-0.307	-0.024
-637.624	53.800	0.325	0.313
-636.609	26.271	0.382	0.320
-635.595	-200.000	0.007	0.098
-634.580	45.606	-0.155	0.143
-633.565	-21.660	-0.171	-0.104
-632.551	331.159	-0.114	-0.220
-631.536	800.000	0.018	0.074
-630.522	-74.564	0.176	-0.063
-629.507	-75.676	-0.100	-0.035
-628.492	275.699	-0.061	0.109
-627.478	-185.091	0.068	0.001
-626.463	49.016	0.110	-0.103
-625.449	291.200	-0.061	-0.111
-624.434	691.827	0.051	-0.133
-623.419	206.117	0.133	0.208
-622.405	-113.594	0.280	-0.055
-621.390	36.062	-0.110	0.097
-620.376	571.918	-0.020	0.048
-619.361	-19.524	0.062	-0.038
-618.346	-158.709	-0.337	0.019
-617.332	380.806	0.206	0.423
-616.317	228.301	-0.136	-0.222
-615.303	-112.415	0.216	-0.043
-614.288	-117.613	-0.425	0.077
-613.273	-200.000	-0.035	0.338
-612.259	158.236	0.077	-0.107
-611.244	-200.000	0.055	-0.422
-610.230	283.544	-0.074	0.133
-609.215	263.422	0.222	-0.386
-608.201	800.000	-0.070	0.193
-607.186	800.000	0.135	0.433
-606.171	800.000	-0.095	-0.393
-605.157	368.588	0.095	-0.192
-604.142	-110.079	0.401	-0.084
-603.128	-22.152	-0.178	-0.108
-602.113	538.472	0.060	0.144
-601.098	168.373	0.084	-0.120
-600.084	220.620	-0.075	0.120
-599.069	9.448	-0.130	-0.099
-598.055	-60.665	0.200	-0.085
-597.040	-149.208	-0.247	-0.020
-596.025	728.058	-0.086	0.231
-595.011	-106.624	-0.065	-0.015
-593.996	14.381	0.065	-0.051
-592.982	344.984	0.253	-0.497
-591.967	251.501	0.205	-0.349
-590.952	91.634	0.106	-0.119
-589.938	-95.923	0.198	-0.053
-588.923	-200.000	0.007	-0.196
-587.909	-200.000	-0.046	-0.238
-586.894	-9.703	0.199	0.132
-585.879	722.632	0.052	0.137
-584.865	-48.144	0.087	-0.042
-583.850	-41.266	-0.222	-0.115
-582.836	64.017	0.081	-0.081
-581.821	-200.000	-0.002	0.027
-580.806	58.112	-0.121	-0.118
-579.792	800.000	-0.018	0.069
-578.777	-141.628	0.161	0.016
-577.763	323.653	-0.191	0.365
-576.748	52.638	-0.055	-0.052
-575.733	-200.000	0.004	0.114
-574.719	29.978	0.111	-0.095
-573.704	-120.945	0.130	-0.022
-572.690	194.657	-0.158	0.239
-571.675	-200.000	-0.037	0.308
-570.661	166.867	0.012	0.016
-569.646	-92.920	-0.179	0.050
-568.631	-91.906	0.485	0.138
-567.617	544.019	0.007	-0.017
-566.602	800.000	-0.059	-0.169
-565.588	230.291	0.062	-0.101
-564.573	143.691	0.281	0.374
-563.558	-171.415	-0.137	-0.005
-562.544	-200.000	-0.001	0.269
-561.529	366.684	0.031	0.062
-560.515	-200.000	0.004	-0.074
-559.500	800.000	-0.047	-0.154
-558.485	403.132	0.063	-0.133
-557.471	-185.449	0.188	0.003
-556.456	-200.000	-0.003	0.447
-555.442	-12.084	0.103	-0.068
-554.427	68.834	-0.107	-0.109
-553.412	-200.000	0.003	-0.208
-552.398	-26.961	0.146	-0.085
-551.383	183.543	0.111	0.164
-550.369	-95.004	0.063	0.017
-549.354	4.865	-0.135	0.099
-548.339	4.883	0.104	0.077
-547.325	-176.076	0.224	-0.006
-546.310	-200.000	-0.051	0.236
-545.296	-200.000	-0.062	-0.290
-544.281	61.498	0.151	-0.150
-543.266	-157.947	-0.105	-0.006
-542.252	-173.142	0.166	0.005
-541.237	800.000	-0.031	-0.129
-540.223	-45.734	-0.332	-0.164
-539.208	-200.000	-0.064	0.432
-538.193	9.821	-0.191	0.145
-537.179	220.910	-0.082	0.131
-536.164	-125.876	-0.281	-0.042
-535.150	800.000	-0.072	0.200
-534.135	272.180	-0.166	-0.292
-533.121	800.000	-0.044	-0.194
-532.106	-200.000	-0.003	-0.322
-531.091	97.685	-0.146	0.167
-530.077	182.819	-0.023	-0.034
-529.062	-5.327	-0.176	0.121
-528.048	-17.414	0.235	-0.148
-527.033	43.972	-0.205	-0.187
-526.018	-84.770	-0.173	0.054
-525.004	-140.685	-0.153	-0.016
-523.989	-42.321	-0.082	-0.042
-522.975	46.508	-0.384	-0.356
-521.960	-14.482	0.050	0.032
-520.945	-112.201	-0.095	-0.019
-519.931	-90.444	-0.076	0.022
-518.916	-200.000	-0.276	-0.000
-517.902	800.000	0.070	0.230
-516.887	-42.251	-0.055	0.028
-515.872	800.000	-0.076	-0.274
-514.858	-90.746	0.366	-0.105
-513.843	164.078	-0.223	-0.313
-512.829	800.000	-0.057	0.165
-511.814	800.000	0.100	0.391
-510.799	-88.312	-0.140	-0.042
-509.785	-126.475	0.390	0.058
-508.770	123.894	-0.278	0.348
-507.756	-65.320	0.231	0.093
-506.741	181.065	-0.071	0.104
-505.726	52.249	-0.258	0.245
-504.712	800.000	-0.037	0.125
-503.697	-200.000	0.052	-0.265
-502.683	302.205	0.144	-0.266
-501.668	-66.824	0.061	0.024
-500.653	31.931	-0.159	0.137
-499.639	285.071	-0.096	-0.172
-498.624	482.759	0.057	0.128
-497.610	-82.259	0.194	0.063
-496.595	-200.000	0.044	0.234
-495.581	191.629	-0.196	0.295
-494.566	240.031	-0.235	0.391
-493.551	69.638	-0.187	0.192
-492.537	183.086	0.294	0.432
-491.522	-58.212	0.163	-0.071
-490.508	21.466	0.114	0.092
-489.493	-200.000	-0.012	-0.101
-488.478	-6.524	-0.161	-0.110
-487.464	800.000	0.080	0.292
-486.449	-98.346	-0.245	0.063
-485.435	-108.474	-0.375	-0.080
-484.420	-200.000	0.057	0.250
-483.405	-145.746	-0.096	0.008
-482.391	800.000	0.141	-0.593
-481.376	-18.505	-0.175	0.109
-480.362	349.068	0.056	0.109
-479.347	425.196	-0.058	-0.124
-478.332	142.064	-0.117	-0.154
-477.318	0.068	0.159	-0.113
-476.303	760.102	-0.074	0.201
-475.289	439.880	-0.084	0.183
-474.274	15.047	0.051	-0.040
-473.259	-200.000	-0.023	-0.181
-472.245	0.038	0.293	-0.208
-471.230	71.439	-0.108	-0.112
-470.216	-200.000	0.006	0.214
-469.201	16.473	-0.235	-0.185
-468.186	152.424	0.106	-0.144
-467.172	-19.270	-0.020	-0.013
-466.157	-170.564	0.265	-0.009
-465.143	800.000	-0.020	0.087
-464.128	-15.207	-0.191	0.122
-463.113	800.000	-0.135	0.513
-462.099	138.030	0.172	0.224
-461.084	-108.552	0.170	0.036
-460.070	-200.000	0.004	-0.132
-459.055	-61.040	0.227	0.095
-458.040	-142.220	-0.087	-0.009
-457.026	-61.714	0.071	-0.030
-456.011	800.000	0.048	0.169
-454.997	800.000	0.042	0.133
-453.982	302.585	-0.138	-0.255
-452.968	-200.000	-0.021	0.138
-451.953	-21.192	0.291	-0.177
-450.938	-145.631	-0.357	-0.032
-449.924	145.243	0.139	-0.185
-448.909	29.821	0.125	0.106
-447.895	-155.844	-0.083	0.005
-446.880	64.584	0.269	0.270
-445.865	-200.000	-0.072	-0.330
-444.851	-2.479	0.218	0.152
-443.836	-179.899	0.253	0.005
-442.822	-25.167	-0.088	-0.052
-441.807	-2.744	-0.123	0.086
-440.792	-44.248	0.166	-0.083
-439.778	-200.000	-0.016	-0.273
-438.763	-97.448	0.188	-0.049
-437.749	-167.890	0.199	0.008
-436.734	-155.246	0.114	-0.007
-435.719	33.943	0.122	0.106
-434.705	-145.064	-0.165	-0.015
-433.690	-44.308	0.209	0.104
-432.676	-142.987	0.121	0.012
-431.661	-200.000	0.003	-0.063
-430.646	115.010	-0.104	-0.126
-429.632	-61.438	-0.072	-0.030
-428.617	-96.248	0.372	-0.098
-427.603	-68.050	0.235	-0.091
-426.588	653.618	-0.164	-0.417
-425.573	-200.000	-0.036	-0.229
-424.559	800.000	0.035	0.132
-423.544	381.559	0.093	-0.190
-422.530	178.072	0.199	0.288
-421.515	-125.881	-0.165	-0.025
-420.500	166.300	-0.062	0.087
-419.486	-52.438	0.063	-0.029
-418.471	-200.000	-0.033	0.307
-417.457	-7.203	0.213	0.143
-416.442	-82.215	0.305	-0.099
-415.428	126.000	-0.186	0.234
-414.413	-200.000	0.066	0.316
-413.398	25.890	-0.080	-0.066
-412.384	-147.128	-0.120	-0.010
-411.369	206.662	-0.120	-0.186
-410.355	-138.047	0.153	-0.017
-409.340	79.827	-0.025	-0.026
-408.325	2.552	-0.289	-0.208
-407.311	-71.350	0.301	-0.112
-406.296	596.035	0.044	0.107
-405.282	-52.385	-0.186	0.086
-404.267	350.449	-0.081	-0.160
-403.252	-149.508	-0.130	-0.010
-402.238	800.000	-0.040	0.160
-401.223	-100.714	-0.170	-0.042
-400.209	217.921	-0.194	-0.308
-399.194	683.315	-0.033	-0.085
-398.179	50.710	-0.085	0.080
-397.165	-200.000	0.003	0.096
-396.150	-148.541	0.359	-0.029
-395.136	301.915	-0.078	0.144
-394.121	-27.615	-0.061	0.035
-393.106	263.878	0.052	-0.089
-392.092	-33.236	0.017	0.010
-391.077	38.927	-0.247	-0.219
-390.063	-200.000	0.006	-0.107
-389.048	-29.086	-0.076	-0.043
-388.033	-100.242	-0.164	-0.041
-387.019	-9.990	-0.197	-0.130
-386.004	-200.000	-0.033	-0.262
-384.990	-75.830	0.141	0.050
-383.975	-65.263	0.225	0.090
-382.960	125.106	-0.146	-0.182
-381.946	800.000	0.004	-0.015
-380.931	-25.017	-0.163	-0.096
-379.917	408.475	-0.091	-0.192
-378.902	-23.297	0.088	-0.053
-377.888	-88.982	-0.210	0.062
-376.873	41.935	-0.209	-0.188
-375.858	-109.741	0.026	-0.005
-374.844	-52.798	-0.402	-0.184
-373.829	69.692	-0.132	0.135
-372.815	-112.162	-0.381	-0.076
-371.800	800.000	0.073	-0.243
-370.785	93.853	0.086	0.096
-369.771	-95.488	0.120	0.032
-368.756	-150.369	-0.293	-0.022
-367.742	-38.153	-0.212	-0.112
-366.727	331.379	0.169	0.323
-365.712	-200.000	-0.061	0.309
-364.698	-67.431	-0.193	0.075
-363.683	198.129	-0.080	0.121
-362.669	800.000	0.073	-0.243
-361.654	800.000	0.086	0.307
-360.639	-117.831	-0.207	-0.037
-359.625	78.349	0.180	-0.190
-358.610	-136.504	-0.197	-0.023
-357.596	-200.000	0.012	0.240
-356.581	157.306	0.087	0.119
-355.566	800.000	-0.010	-0.038
-354.552	-115.929	0.087	0.016
-353.537	-200.000	-0.002	-0.413
-352.523	392.665	-0.141	0.291
-351.508	800.000	-0.012	-0.041
-350.493	-62.530	0.149	0.061
-349.479	62.881	0.105	-0.104
-348.464	-80.269	0.333	0.110
-347.450	800.000	-0.057	0.233
-346.435	0.631	0.352	0.250
-345.420	-160.732	0.111	0.006
-344.406	169.677	-0.103	0.146
-343.391	-200.000	-0.010	-0.051
-342.377	131.805	-0.124	-0.159
-341.362	118.404	-0.045	0.055
-340.348	337.357	0.069	-0.132
-339.333	-84.645	-0.112	0.035
-338.318	-162.028	-0.130	-0.006
-337.304	-62.010	-0.179	-0.074
-336.289	-200.000	-0.042	0.234
-335.275	11.209	-0.235	-0.178
-334.260	516.944	-0.027	-0.063
-333.245	-87.926	0.169	0.050
-332.231	354.145	-0.090	0.177
-331.216	-141.110	-0.399	0.040
-330.202	268.074	-0.160	-0.278
-329.187	-63.857	0.260	-0.105
-328.172	800.000	0.054	0.173
-327.158	-41.912	-0.049	0.025
-326.143	-200.000	0.002	0.257
-325.129	-130.447	-0.291	-0.039
-324.114	-114.539	0.372	-0.071
-323.099	-200.000	-0.015	0.202
-322.085	-143.257	0.168	-0.016
-321.070	513.800	-0.054	-0.126
-320.056	-135.276	0.242	0.029
-319.041	69.772	-0.149	-0.152
-318.026	436.312	0.073	-0.156
-317.012	-51.839	-0.109	-0.050
-315.997	763.779	-0.064	-0.172
-314.983	-200.000	-0.071	0.320
-313.968	-114.061	0.142	-0.027
-312.953	-200.000	0.004	-0.292
-311.939	-200.000	-0.053	0.332
-310.924	154.138	-0.234	-0.318
-309.910	-123.129	0.134	-0.021
-308.895	-34.597	0.086	-0.046
-307.880	75.686	0.088	0.092
-306.866	-200.000	-0.025	0.285
-305.851	-165.479	-0.126	-0.005
-304.837	-200.000	0.008	-0.121
-303.822	68.490	0.210	-0.213
-302.807	-200.000	-0.046	0.214
-301.793	105.557	0.103	0.120
-300.778	4.922	-0.278	-0.203
-299.764	-10.841	-0.148	-0.097
-298.749	-200.000	0.016	0.378
-297.735	800.000	0.053	0.176
-296.720	9.006	-0.212	-0.158
-295.705	71.444	0.249	0.256
-294.691	163.156	0.141	-0.196
-293.676	246.291	-0.058	0.097
-292.662	800.000	-0.049	0.160
-291.647	-200.000	-0.007	0.102
-290.632	111.371	-0.231	-0.275
-289.618	515.057	-0.071	-0.163
-288.603	-136.735	-0.205	0.023
-287.589	151.898	-0.128	0.172
-286.574	289.067	0.210	-0.376
-285.559	236.171	0.063	-0.103
-284.545	91.137	0.115	0.127
-283.530	-31.803	0.140	-0.077
-282.516	800.000	0.125	0.458
-281.501	-56.611	-0.099	0.043
-280.486	6.783	-0.181	-0.133
-279.472	-85.295	0.221	-0.068
-278.457	-200.000	-0.050	-0.282
-277.443	-147.391	0.439	0.037
-276.428	-38.510	-0.203	-0.106
-275.413	-130.356	0.131	0.018
-274.399	-17.659	-0.319	0.198
-273.384	533.245	0.050	-0.117
-272.370	13.892	0.137	-0.105
-271.355	-110.169	0.145	-0.030
-270.340	-87.226	-0.556	-0.167
-269.326	40.400	-0.265	0.235
-268.311	-114.335	0.172	-0.033
-267.297	-78.724	0.198	-0.067
-266.282	-200.000	0.007	-0.046
-265.267	-200.000	0.003	-0.062
-264.253	-129.002	-0.305	-0.042
-263.238	-113.087	0.329	0.064
-262.224	-128.049	0.095	-0.013
-261.209	-41.315	0.250	0.127
-260.195	23.961	-0.252	-0.205
-259.180	113.439	-0.270	0.324
-258.165	128.402	-0.148	0.186
-257.151	322.661	-0.177	-0.333
-256.136	11.933	0.093	-0.071
-255.122	61.334	-0.130	0.127
-254.107	15.206	-0.082	-0.064
-253.092	-64.907	0.332	-0.133
-252.078	173.549	0.132	0.189
-251.063	-152.788	-0.325	0.023
-250.049	320.234	0.141	-0.265
-249.034	-200.000	-0.033	0.244
-248.019	-7.481	0.279	0.187
-247.005	-88.243	0.369	-0.109
-245.990	-197.380	0.260	-0.002
-244.976	-71.016	0.169	-0.063
-243.961	-200.000	0.079	0.397
-242.946	-78.863	0.441	0.148
-241.932	-200.000	0.031	-0.152
-240.917	-200.000	0.019	-0.474
-239.903	279.489	-0.080	-0.140
-238.888	462.776	0.031	-0.067
-237.873	-120.296	0.143	0.024
-236.859	-86.901	0.073	-0.022
-235.844	14.326	-0.100	-0.077
-234.830	-200.000	-0.004	-0.084
-233.815	164.793	0.133	0.185
-232.800	32.689	-0.151	0.129
-231.786	398.431	-0.107	0.220
-230.771	800.000	-0.083	-0.310
-229.757	-17.605	0.268	0.166
-228.742	-146.293	-0.122	0.011
-227.727	558.926	-0.108	-0.258
-226.713	161.601	-0.027	0.038
-225.698	-120.025	-0.145	0.025
-224.684	-3.090	0.192	-0.132
-223.669	23.677	-0.186	0.151
-222.655	309.359	0.095	-0.175
-221.640	-59.903	0.166	0.070
-220.625	-57.627	0.081	0.035
-219.611	263.471	-0.079	0.135
-218.596	800.000	0.070	0.210
-217.582	-162.054	0.174	0.009
-216.567	103.912	-0.072	-0.084
-215.552	-200.000	0.016	-0.202
-214.538	14.627	0.220	-0.169
-213.523	28.626	0.152	-0.127
-212.509	-169.363	0.280	0.010
-211.494	-34.789	0.153	0.082
-210.479	-200.000	0.009	-0.363
-209.465	660.416	0.134	0.340
-208.450	-61.871	0.075	0.031
-207.436	207.867	0.141	-0.218
-206.421	-93.840	-0.255	-0.069
-205.406	433.214	-0.050	0.106
-204.392	445.580	0.029	-0.064
-203.377	-200.000	0.014	-0.066
-202.363	-129.338	-0.255	0.035
-201.348	800.000	-0.041	-0.157
-200.333	-200.000	-0.005	-0.046
-199.319	-200.000	0.025	0.163
-198.304	157.401	-0.034	0.047
-197.290	-124.232	-0.110	0.017
-196.275	800.000	0.073	0.271
-195.260	-116.981	-0.146	0.026
-194.246	800.000	0.055	0.164
-193.231	57.263	0.094	0.090
-192.217	-145.385	-0.272	-0.024
-191.202	-4.076	0.262	-0.179
-190.187	172.151	-0.212	0.301
-189.173	-200.000	0.015	-0.150
-188.158	146.847	0.063	-0.083
-187.144	-76.488	-0.171	0.059
-186.129	-44.761	-0.353	-0.173
-185.114	596.514	0.044	0.106
-184.100	325.922	-0.081	-0.154
-183.085	21.832	-0.204	-0.164
-182.071	-200.000	-0.044	-0.249
-181.056	322.526	0.167	-0.314
-180.042	-55.414	-0.190	-0.084
-179.027	800.000	-0.039	0.148
-178.012	-46.490	0.347	0.168
-176.998	-200.000	-0.011	0.169
-175.983	-200.000	0.044	0.198
-174.969	23.644	0.118	0.096
-173.954	3.810	0.192	-0.138
-172.939	462.568	0.059	-0.130
-171.925	-200.000	0.006	0.124
-170.910	-26.988	0.031	0.018
-169.896	8.183	0.120	0.088
-168.881	-200.000	-0.015	-0.180
-167.866	-123.510	-0.281	-0.044
-166.852	-91.967	0.181	0.050
-165.837	-43.209	0.119	0.059
-164.823	-200.000	-0.000	-0.285
-163.808	-153.520	0.241	-0.016
-162.793	178.138	-0.255	0.366
-161.779	559.699	0.080	0.190
-160.764	-23.293	-0.172	-0.102
-159.750	-200.000	-0.030	0.171
-158.735	65.453	0.126	-0.126
-157.720	116.263	-0.076	0.091
-156.706	342.552	0.092	0.176
-155.691	-61.988	0.184	0.076
-154.677	-6.694	0.076	0.051
-153.662	-85.037	-0.208	0.064
-152.647	800.000	-0.061	-0.180
-151.633	220.958	-0.100	-0.158
-150.618	-68.772	-0.380	-0.144
-149.604	-0.481	0.304	0.212
-148.589	140.237	0.092	0.120
-147.574	-22.384	0.093	0.056
-146.560	-88.230	-0.199	-0.059
-145.545	-127.711	-0.208	-0.030
-144.531	-118.909	0.223	-0.038
-143.516	-151.522	-0.279	-0.020
-142.502	-13.978	0.207	-0.131
-141.487	210.114	0.202	-0.311
-140.472	-96.410	-0.143	0.037
-139.458	-31.963	-0.086	0.047
-138.443	84.345	-0.178	-0.191
-137.429	-200.000	-0.010	-0.231
-136.414	287.889	0.330	0.588
-135.399	-37.792	0.071	-0.037
-134.385	71.304	-0.059	0.060
-133.370	-30.298	0.325	0.181
-132.356	138.050	-0.121	-0.156
-131.341	800.000	-0.038	0.112
-130.326	105.677	0.066	0.076
-129.312	-137.404	-0.261	-0.029
-128.297	-100.305	0.280	0.068
-127.283	-200.000	0.022	0.160
-126.268	9.475	0.175	0.130
-125.253	-200.000	-0.003	0.037
-124.239	-200.000	0.027	0.417
-123.224	-131.435	-0.547	0.071
-122.210	-200.000	0.028	0.220
