DTS Sentinel unit serial number:	SN413079Multiplexer serial number:	ORYXHardware model number:	OX4-SRSoftware version number:	ORYX F/W v4.00 Oryx Data Collector v3.7.2.0data status	okinstallation	princeton_trtdifferential loss correction	single-endedforward channel	channel 1reverse channel	N/Adate	2019/09/11time	22:36:11forward acquisition time	60.00reverse acquisition time	0.00gamma	496.2192k internal	0.2315k external	0.2315temperature offset calibration	1.0057default loss term (dB/km)	0.3790temperature slope calibration	1.0000multiplexer offset coefficient	1.0000multiplexer slope coefficient	1.0000fibre end	0.00T internal ref (°C)	35.00T ext. ref 1 (°C)	1.79T ext. ref 2 (°C)	28.72length (m)	temperature (°C)	Stokes	anti-Stokes-747.200	-100.082	-0.111	-0.028
-746.185	47.923	0.101	0.096
-745.171	468.914	-0.083	-0.188
-744.156	-156.765	-0.277	0.017
-743.142	-200.000	0.057	-0.262
-742.127	263.525	-0.149	0.262
-741.112	22.817	-0.058	0.048
-740.098	71.237	0.277	0.291
-739.083	91.280	0.185	-0.211
-738.069	567.519	-0.052	-0.127
-737.054	-110.189	0.224	0.047
-736.039	-81.485	-0.180	-0.060
-735.025	-200.000	-0.031	0.145
-734.010	800.000	0.194	-0.749
-732.996	61.632	-0.367	0.370
-731.981	49.980	0.222	0.212
-730.966	140.002	0.046	0.062
-729.952	-27.483	-0.230	0.135
-728.937	81.211	0.129	-0.141
-727.923	-6.910	-0.230	-0.158
-726.908	-200.000	-0.013	-0.181
-725.894	-200.000	-0.043	-0.372
-724.879	345.296	-0.220	-0.438
-723.864	-95.813	0.197	0.053
-722.850	-163.063	-0.352	-0.017
-721.835	-124.757	0.265	0.041
-720.821	13.615	0.092	0.072
-719.806	-81.252	0.213	-0.071
-718.791	-100.230	-0.294	-0.074
-717.777	800.000	-0.067	-0.272
-716.762	-112.952	0.110	-0.022
-715.748	-200.000	0.018	-0.293
-714.733	800.000	0.140	-0.501
-713.718	-19.627	0.031	-0.019
-712.704	-200.000	-0.044	0.286
-711.689	157.180	-0.033	-0.046
-710.675	-200.000	0.005	0.149
-709.660	800.000	0.012	0.046
-708.645	-76.554	0.132	0.047
-707.631	-11.750	-0.257	0.170
-706.616	509.823	0.110	0.258
-705.602	81.512	-0.204	-0.224
-704.587	67.493	0.233	0.240
-703.572	-200.000	-0.000	0.219
-702.558	-200.000	-0.011	-0.243
-701.543	142.573	-0.086	0.116
-700.529	-118.956	-0.452	-0.080
-699.514	562.881	0.086	-0.210
-698.499	-124.424	0.085	-0.013
-697.485	-91.748	0.105	-0.030
-696.470	-200.000	-0.016	-0.088
-695.456	232.462	0.123	0.204
-694.441	-39.478	0.053	0.028
-693.426	-92.116	-0.086	0.025
-692.412	-114.154	-0.273	-0.053
-691.397	574.853	0.086	-0.212
-690.383	-200.000	-0.005	-0.047
-689.368	-200.000	-0.009	-0.233
-688.354	9.551	0.228	-0.175
-687.339	-100.007	0.581	-0.146
-686.324	-10.886	0.195	-0.130
-685.310	-82.115	0.218	-0.072
-684.295	480.351	-0.101	-0.231
-683.281	-131.648	0.186	0.025
-682.266	800.000	-0.006	0.021
-681.251	159.269	0.172	0.242
-680.237	192.437	0.105	-0.160
-679.222	-200.000	-0.015	-0.388
-678.208	89.332	0.231	0.260
-677.193	-10.877	0.229	0.153
-676.178	99.587	-0.050	0.058
-675.164	-3.110	-0.091	-0.064
-674.149	646.476	0.174	0.448
-673.135	-123.319	-0.428	0.069
-672.120	161.085	-0.148	0.209
-671.105	505.096	-0.157	0.367
-670.091	-145.476	0.342	-0.031
-669.076	800.000	-0.084	0.295
-668.062	-120.158	0.186	0.032
-667.047	-99.282	0.181	0.046
-666.032	-94.336	-0.416	-0.115
-665.018	439.714	0.105	-0.231
-664.003	-100.437	0.248	-0.062
-662.989	800.000	-0.033	0.112
-661.974	-91.404	-0.253	0.073
-660.959	141.925	0.116	0.155
-659.945	800.000	0.094	-0.335
-658.930	-23.475	-0.314	-0.191
-657.916	-167.033	-0.353	0.015
-656.901	-200.000	-0.020	-0.101
-655.886	-72.312	-0.189	-0.071
-654.872	-200.000	0.042	-0.196
-653.857	-200.000	0.010	-0.138
-652.843	-117.991	-0.230	-0.042
-651.828	-62.744	-0.292	0.122
-650.814	33.097	-0.112	-0.098
-649.799	-187.154	-0.333	-0.005
-648.784	532.440	0.089	-0.213
-647.770	135.112	0.054	-0.071
-646.755	182.309	0.095	-0.142
-645.741	731.217	0.140	-0.377
-644.726	220.499	-0.108	-0.175
-643.711	-78.592	0.202	-0.070
-642.697	-200.000	0.026	0.232
-641.682	224.782	-0.004	-0.007
-640.668	348.574	-0.224	0.446
-639.653	4.725	0.130	-0.096
-638.638	-163.596	-0.376	-0.018
-637.624	-73.735	-0.252	-0.093
-636.609	-50.041	-0.156	-0.075
-635.595	-200.000	0.004	0.331
-634.580	230.938	0.179	-0.295
-633.565	356.095	-0.315	-0.633
-632.551	297.930	-0.077	-0.143
-631.536	-126.674	-0.524	0.078
-630.522	-105.950	-0.105	0.024
-629.507	-200.000	-0.001	0.158
-628.492	-200.000	-0.002	0.011
-627.478	-98.256	0.213	-0.055
-626.463	-200.000	-0.014	0.200
-625.449	-40.018	-0.190	-0.100
-624.434	-138.159	0.160	-0.018
-623.419	-200.000	0.036	-0.326
-622.405	22.841	-0.194	-0.160
-621.390	30.978	-0.351	0.303
-620.376	-200.000	-0.042	0.286
-619.361	159.153	0.091	0.127
-618.346	40.041	0.218	-0.198
-617.332	52.390	-0.100	-0.096
-616.317	450.711	0.168	0.375
-615.303	-72.276	-0.209	0.078
-614.288	800.000	-0.050	0.157
-613.273	800.000	-0.035	0.141
-612.259	-61.843	-0.294	0.124
-611.244	348.859	0.058	-0.116
-610.230	-103.194	0.104	-0.025
-609.215	238.566	0.156	0.261
-608.201	-71.038	0.046	0.017
-607.186	-76.359	0.392	0.139
-606.171	-200.000	0.009	0.081
-605.157	-200.000	-0.016	0.082
-604.142	-34.419	-0.226	-0.125
-603.128	-59.816	0.239	-0.103
-602.113	-128.879	0.292	0.041
-601.098	-200.000	-0.097	-0.436
-600.084	-71.959	0.108	-0.041
-599.069	-30.331	-0.278	-0.159
-598.055	13.357	-0.183	0.143
-597.040	-25.093	-0.216	0.129
-596.025	-200.000	-0.059	0.412
-595.011	-200.000	-0.012	-0.434
-593.996	-200.000	0.075	-0.353
-592.982	800.000	-0.061	-0.263
-591.967	74.632	-0.132	0.140
-590.952	29.725	-0.149	0.128
-589.938	77.166	0.017	-0.018
-588.923	-200.000	0.033	0.159
-587.909	800.000	0.043	-0.178
-586.894	5.930	-0.124	0.092
-585.879	800.000	0.027	-0.115
-584.865	800.000	0.123	-0.446
-583.850	-83.144	-0.211	-0.068
-582.836	49.858	-0.072	-0.068
-581.821	800.000	-0.034	-0.146
-580.806	56.297	0.174	0.171
-579.792	-200.000	0.002	0.078
-578.777	63.826	0.081	-0.082
-577.763	180.456	-0.167	-0.247
-576.748	-5.263	0.099	-0.069
-575.733	-200.000	0.025	0.227
-574.719	800.000	0.028	-0.124
-573.704	268.705	-0.052	-0.091
-572.690	-109.343	-0.140	-0.030
-571.675	-14.420	-0.325	-0.211
-570.661	542.982	-0.037	0.089
-569.646	71.736	-0.179	-0.187
-568.631	-200.000	0.011	0.322
-567.617	-13.224	0.397	0.260
-566.602	-56.879	0.288	0.128
-565.588	-190.434	0.105	-0.001
-564.573	-25.250	0.323	0.193
-563.558	34.653	-0.038	-0.033
-562.544	-200.000	-0.014	0.256
-561.529	115.576	-0.156	-0.192
-560.515	192.603	0.040	0.061
-559.500	76.262	0.032	-0.034
-558.485	-3.165	0.199	0.140
-557.471	47.033	-0.099	0.093
-556.456	800.000	0.104	0.378
-555.442	-48.503	-0.133	0.065
-554.427	800.000	-0.048	0.140
-553.412	-4.422	-0.039	0.027
-552.398	-58.885	0.219	0.095
-551.383	-100.273	0.265	-0.066
-550.369	50.182	0.197	-0.187
-549.354	120.440	-0.137	0.171
-548.339	-28.670	-0.193	-0.112
-547.325	125.968	-0.094	0.120
-546.310	-137.824	-0.081	0.009
-545.296	303.024	0.013	-0.023
-544.281	-95.082	-0.207	0.056
-543.266	800.000	-0.063	-0.178
-542.252	-200.000	-0.003	-0.068
-541.237	800.000	0.055	0.177
-540.223	159.141	-0.209	0.292
-539.208	-200.000	0.034	-0.196
-538.193	65.801	0.066	-0.067
-537.179	66.368	-0.302	0.308
-536.164	800.000	-0.095	0.267
-535.150	0.034	-0.201	-0.144
-534.135	774.092	-0.014	-0.040
-533.121	93.168	-0.116	-0.132
-532.106	800.000	-0.047	-0.137
-531.091	178.341	-0.053	-0.077
-530.077	-103.707	0.275	-0.065
-529.062	800.000	0.114	0.372
-528.048	-49.182	0.138	-0.066
-527.033	-5.747	0.058	0.040
-526.018	-128.247	0.295	-0.042
-525.004	-25.682	-0.114	-0.068
-523.989	-125.658	0.489	0.074
-522.975	-200.000	0.008	-0.166
-521.960	-19.556	0.219	-0.136
-520.945	-200.000	0.005	-0.340
-519.931	137.538	0.200	-0.263
-518.916	-40.997	-0.180	-0.093
-517.902	89.251	0.038	0.042
-516.887	-104.990	0.101	-0.023
-515.872	800.000	0.080	0.296
-514.858	-200.000	-0.038	0.248
-513.843	2.319	-0.037	-0.027
-512.829	-200.000	-0.017	-0.296
-511.814	155.743	-0.052	0.072
-510.799	387.698	0.130	0.270
-509.785	32.024	-0.355	0.307
-508.770	-152.230	-0.192	-0.014
-507.756	737.655	-0.085	-0.228
-506.741	81.498	0.123	0.133
-505.726	667.813	-0.015	-0.038
-504.712	800.000	-0.069	0.197
-503.697	-200.000	0.044	0.272
-502.683	-200.000	-0.029	0.509
-501.668	-163.974	0.010	0.000
-500.653	91.630	0.091	-0.103
-499.639	171.289	0.187	0.270
-498.624	107.983	-0.144	-0.172
-497.610	-136.893	0.168	-0.019
-496.595	-31.735	0.167	-0.094
-495.581	-7.141	-0.139	0.094
-494.566	-174.266	0.274	-0.008
-493.551	-9.476	-0.225	-0.151
-492.537	167.421	0.213	0.303
-491.522	-200.000	0.069	-0.328
-490.508	498.387	0.135	-0.311
-489.493	-5.856	0.142	-0.098
-488.478	-132.387	-0.201	0.026
-487.464	163.109	-0.162	0.228
-486.449	429.336	-0.130	-0.281
-485.435	-44.018	0.190	-0.096
-484.420	-78.406	0.147	0.051
-483.405	82.028	-0.206	-0.224
-482.391	-158.361	-0.296	0.017
-481.376	-200.000	0.054	-0.393
-480.362	281.122	-0.025	0.045
-479.347	-125.710	0.223	0.034
-478.332	190.493	-0.173	-0.260
-477.318	102.633	0.250	0.293
-476.303	-33.049	0.301	-0.167
-475.289	323.743	-0.049	-0.094
-474.274	304.772	0.043	-0.079
-473.259	800.000	-0.090	0.300
-472.245	-186.038	-0.319	-0.005
-471.230	-160.324	-0.203	-0.011
-470.216	-200.000	0.009	0.123
-469.201	99.106	0.121	-0.141
-468.186	-200.000	-0.121	-0.000
-467.172	-84.274	0.252	-0.080
-466.157	-3.716	0.228	0.159
-465.143	176.043	-0.281	-0.408
-464.128	-141.300	-0.350	0.036
-463.113	-200.000	0.012	-0.091
-462.099	263.208	0.146	0.254
-461.084	179.191	0.082	0.121
-460.070	35.525	0.159	-0.140
-459.055	7.114	0.046	-0.034
-458.040	-135.338	0.147	0.018
-457.026	-110.782	-0.479	0.099
-456.011	72.566	0.230	0.240
-454.997	103.309	0.106	0.124
-453.982	-200.000	-0.001	0.127
-452.968	40.605	0.126	0.114
-451.953	-60.584	0.275	0.117
-450.938	-170.442	-0.064	0.002
-449.924	211.218	0.068	-0.107
-448.909	-53.526	0.033	-0.015
-447.895	-116.637	-0.070	0.013
-446.880	800.000	-0.010	-0.041
-445.865	266.609	-0.072	-0.126
-444.851	78.075	0.227	-0.242
-443.836	308.408	-0.201	-0.376
-442.822	800.000	-0.019	-0.072
-441.807	527.397	0.085	0.201
-440.792	124.611	0.131	-0.165
-439.778	-85.790	0.417	0.129
-438.763	44.716	0.331	0.305
-437.749	43.039	-0.206	-0.188
-436.734	-200.000	0.039	-0.195
-435.719	118.168	0.242	-0.298
-434.705	-77.109	-0.148	0.052
-433.690	-88.658	0.185	-0.055
-432.676	-148.901	-0.154	-0.012
-431.661	-36.797	0.419	0.225
-430.646	-200.000	-0.022	0.378
-429.632	-114.214	-0.113	-0.022
-428.617	-200.000	-0.018	-0.374
-427.603	800.000	-0.121	-0.399
-426.588	711.020	0.087	-0.232
-425.573	112.117	0.105	0.127
-424.559	-143.379	-0.077	-0.007
-423.544	351.797	-0.072	-0.143
-422.530	508.429	0.216	-0.502
-421.515	-48.496	0.065	-0.031
-420.500	-119.070	-0.354	0.062
-419.486	382.662	-0.091	0.186
-418.471	72.340	-0.107	-0.112
-417.457	683.861	-0.074	0.194
-416.442	163.629	0.256	0.361
-415.428	-200.000	-0.039	0.206
-414.413	158.374	0.151	-0.210
-413.398	-87.753	-0.416	0.126
-412.384	217.410	0.044	-0.071
-411.369	-200.000	-0.025	0.194
-410.355	54.867	-0.186	-0.180
-409.340	-96.612	0.309	-0.082
-408.325	32.642	0.236	0.204
-407.311	-200.000	0.003	0.015
-406.296	-92.093	-0.384	0.108
-405.282	800.000	-0.039	-0.157
-404.267	88.138	-0.039	0.043
-403.252	800.000	-0.035	-0.110
-402.238	-137.773	0.095	-0.011
-401.223	-58.129	-0.095	-0.041
-400.209	69.610	0.102	0.105
-399.194	359.114	0.141	-0.283
-398.179	-63.930	-0.327	-0.134
-397.165	-200.000	-0.007	0.215
-396.150	-189.518	-0.217	-0.003
-395.136	-95.578	0.082	0.022
-394.121	-138.842	-0.064	0.007
-393.106	-130.553	-0.151	-0.020
-392.092	-200.000	-0.000	-0.178
-391.077	667.529	-0.123	0.319
-390.063	187.901	0.097	0.144
-389.048	68.672	0.188	-0.193
-388.033	-78.383	0.273	-0.093
-387.019	800.000	-0.127	-0.461
-386.004	-92.803	0.220	-0.061
-384.990	159.731	-0.097	-0.134
-383.975	-82.356	0.081	-0.026
-382.960	251.271	0.213	-0.362
-381.946	26.563	0.139	-0.116
-380.931	437.945	0.203	0.443
-379.917	-3.547	-0.290	0.202
-378.902	37.642	0.234	0.207
-377.888	-200.000	0.002	0.197
-376.873	-36.742	-0.129	-0.069
-375.858	26.954	-0.242	-0.202
-374.844	252.705	0.033	-0.057
-373.829	217.199	0.107	0.170
-372.815	-123.784	-0.208	-0.033
-371.800	-17.891	-0.141	-0.088
-370.785	51.287	-0.031	0.030
-369.771	-162.791	-0.079	0.004
-368.756	-200.000	-0.061	-0.365
-367.742	-165.331	0.129	0.006
-366.727	-93.096	0.092	0.026
-365.712	-14.060	-0.235	-0.152
-364.698	-13.948	0.103	-0.066
-363.683	-46.871	-0.103	-0.050
-362.669	141.735	0.069	0.092
-361.654	-200.000	0.004	0.054
-360.639	31.217	0.379	0.324
-359.625	-200.000	-0.016	0.239
-358.610	-200.000	0.035	-0.398
-357.596	71.852	-0.168	0.174
-356.581	-200.000	0.018	-0.119
-355.566	-99.790	0.291	0.073
-354.552	4.660	-0.203	-0.149
-353.537	-105.080	0.189	0.043
-352.523	-111.951	-0.211	0.043
-351.508	-84.485	-0.322	-0.101
-350.493	-95.147	0.445	-0.120
-349.479	800.000	-0.107	0.338
-348.464	-30.603	-0.061	-0.034
-347.450	-200.000	-0.006	0.118
-346.435	276.049	0.055	-0.097
-345.420	-200.000	0.022	0.147
-344.406	-200.000	-0.027	-0.313
-343.391	-135.014	-0.363	-0.044
-342.377	-200.000	-0.073	-0.327
-341.362	-200.000	0.013	0.142
-340.348	132.330	0.227	-0.291
-339.333	113.362	0.034	-0.041
-338.318	235.945	0.143	0.235
-337.304	-6.255	-0.076	0.051
-336.289	52.269	0.135	0.128
-335.275	-79.021	-0.228	-0.077
-334.260	186.212	-0.064	-0.095
-333.245	4.123	0.309	-0.226
-332.231	-44.564	-0.265	0.132
-331.216	-200.000	-0.012	0.092
-330.202	-200.000	0.028	-0.137
-329.187	-8.630	0.087	-0.058
-328.172	81.175	0.131	0.141
-327.158	250.717	-0.044	-0.074
-326.143	-200.000	-0.007	-0.102
-325.129	-38.191	0.239	0.126
-324.114	-61.877	0.201	-0.084
-323.099	-134.053	-0.171	-0.021
-322.085	-200.000	0.024	0.115
-321.070	61.941	-0.097	-0.096
-320.056	585.777	-0.094	0.231
-319.041	-126.432	-0.402	-0.060
-318.026	458.789	0.060	0.134
-317.012	160.627	0.195	0.271
-315.997	-100.645	0.361	0.089
-314.983	-200.000	0.001	0.169
-313.968	-200.000	0.003	0.081
-312.953	9.323	-0.212	0.160
-311.939	71.245	-0.071	0.074
-310.924	25.543	0.276	-0.229
-309.910	-200.000	-0.007	-0.117
-308.895	-26.670	-0.149	0.087
-307.880	525.737	-0.017	-0.041
-306.866	-200.000	0.015	-0.151
-305.851	800.000	0.126	0.389
-304.837	-124.221	0.110	-0.017
-303.822	-53.744	-0.088	-0.040
-302.807	498.612	-0.067	0.155
-301.793	19.294	0.119	-0.095
-300.778	153.664	0.124	-0.169
-299.764	-200.000	-0.033	-0.187
-298.749	-200.000	0.043	0.458
-297.735	-105.665	-0.225	-0.051
-296.720	91.326	0.180	-0.202
-295.705	800.000	-0.063	0.216
-294.691	191.949	-0.083	0.125
-293.676	676.144	-0.085	0.221
-292.662	1.407	0.253	-0.181
-291.647	800.000	0.024	-0.085
-290.632	-87.159	-0.238	0.072
-289.618	221.989	-0.187	0.299
-288.603	-130.021	0.098	0.013
-287.589	-200.000	0.001	-0.064
-286.574	14.034	0.142	-0.110
-285.559	34.879	-0.050	-0.044
-284.545	153.359	0.047	0.064
-283.530	-51.894	0.052	0.024
-282.516	-200.000	0.019	0.231
-281.501	287.747	0.042	0.076
-280.486	15.361	-0.178	0.139
-279.472	67.975	-0.083	0.084
-278.457	12.831	-0.167	0.129
-277.443	-116.119	-0.343	-0.063
-276.428	-200.000	-0.003	0.163
-275.413	-97.597	-0.146	0.038
-274.399	-165.970	-0.353	0.015
-273.384	-118.181	0.148	-0.026
-272.370	-200.000	0.036	-0.230
-271.355	441.266	0.156	-0.340
-270.340	518.064	0.041	-0.095
-269.326	394.933	-0.125	0.259
-268.311	80.946	0.027	0.029
-267.297	432.652	0.127	-0.274
-266.282	76.305	0.007	0.007
-265.267	-100.003	-0.176	0.044
-264.253	35.590	-0.134	0.117
-263.238	-79.570	-0.139	0.047
-262.224	-101.877	-0.404	-0.097
-261.209	800.000	0.047	-0.151
-260.195	-200.000	0.005	-0.081
-259.180	171.831	0.072	-0.103
-258.165	-134.324	0.219	0.027
-257.151	-73.279	0.283	0.103
-256.136	-156.670	-0.348	0.021
-255.122	148.323	0.019	-0.026
-254.107	800.000	-0.050	0.182
-253.092	49.173	0.174	-0.162
-252.078	37.786	0.123	-0.108
-251.063	-59.885	-0.145	-0.061
-250.049	207.649	0.058	-0.090
-249.034	800.000	0.116	0.341
-248.019	800.000	-0.054	0.214
-247.005	540.250	0.076	0.181
-245.990	31.871	-0.089	0.076
-244.976	42.846	0.124	-0.112
-243.961	356.418	0.176	-0.348
-242.946	-103.805	-0.115	-0.027
-241.932	-200.000	0.019	-0.112
-240.917	172.230	-0.035	-0.050
-239.903	53.299	-0.280	-0.266
-238.888	85.920	-0.206	0.225
-237.873	800.000	0.083	-0.339
-236.859	-89.150	0.290	0.085
-235.844	463.365	-0.051	0.114
-234.830	-112.211	-0.313	-0.062
-233.815	23.491	0.081	-0.066
-232.800	304.439	0.185	0.341
-231.786	-200.000	-0.004	0.026
-230.771	-59.284	0.105	0.045
-229.757	308.363	0.029	0.053
-228.742	24.338	0.096	0.078
-227.727	282.560	0.047	0.084
-226.713	18.073	0.190	-0.151
-225.698	362.739	0.028	0.056
-224.684	36.530	-0.295	-0.258
-223.669	-25.667	-0.175	0.102
-222.655	-48.167	-0.279	0.134
-221.640	-200.000	0.016	-0.115
-220.625	211.463	0.176	-0.274
-219.611	167.438	0.118	0.167
-218.596	384.371	0.071	-0.144
-217.582	-135.241	0.397	0.047
-216.567	-50.026	0.033	-0.016
-215.552	-12.921	-0.147	0.095
-214.538	-58.280	0.247	0.107
-213.523	11.755	0.042	0.032
-212.509	599.349	0.047	-0.117
-211.494	223.755	-0.157	0.251
-210.479	-34.144	0.165	-0.090
-209.465	264.567	0.182	0.315
-208.450	183.731	-0.231	0.339
-207.436	-62.244	0.055	0.023
-206.421	-151.157	-0.144	0.011
-205.406	411.960	0.169	0.357
-204.392	-72.370	-0.292	0.107
-203.377	-21.317	-0.139	-0.084
-202.363	-29.635	-0.150	0.085
-201.348	9.228	-0.249	-0.187
-200.333	-200.000	-0.002	0.036
-199.319	-172.005	-0.180	0.006
-198.304	46.310	-0.361	0.332
-197.290	-153.013	-0.064	0.004
-196.275	-200.000	-0.018	-0.227
-195.260	-55.159	0.310	-0.138
-194.246	186.982	0.123	-0.182
-193.231	800.000	0.016	0.051
-192.217	-103.325	0.188	-0.044
-191.202	-123.148	0.113	0.018
-190.187	-155.590	-0.181	-0.012
-189.173	-26.227	0.117	0.068
-188.158	-93.671	0.294	-0.080
-187.144	189.907	0.060	-0.089
-186.129	56.339	-0.215	0.207
-185.114	-96.724	-0.096	0.025
-184.100	28.081	-0.346	-0.289
-183.085	75.174	-0.028	-0.030
-182.071	583.994	0.099	0.242
-181.056	69.561	0.096	0.098
-180.042	-75.136	0.093	-0.033
-179.027	284.873	0.097	-0.173
-178.012	800.000	0.050	-0.146
-176.998	-200.000	0.016	0.170
-175.983	-6.103	0.206	-0.140
-174.969	507.126	-0.163	-0.374
-173.954	800.000	0.030	-0.108
-172.939	-81.041	0.295	-0.097
-171.925	-31.463	0.242	0.135
-170.910	17.600	0.324	0.255
-169.896	33.170	0.231	0.199
-168.881	-92.269	-0.248	0.069
-167.866	-200.000	0.023	0.126
-166.852	3.401	0.077	0.055
-165.837	479.290	0.129	0.290
-164.823	-200.000	-0.073	0.348
-163.808	-147.229	0.069	0.006
-162.793	-88.670	-0.335	-0.099
-161.779	103.123	-0.213	0.247
-160.764	-94.164	-0.216	0.059
-159.750	724.528	-0.102	-0.268
-158.735	156.593	0.251	-0.343
-157.720	-75.527	0.314	0.111
-156.706	660.188	0.100	-0.255
-155.691	-75.401	-0.220	0.078
-154.677	-117.561	0.180	-0.032
-153.662	-70.616	-0.173	-0.065
-152.647	-200.000	0.019	-0.212
-151.633	277.635	-0.074	0.131
-150.618	-200.000	-0.089	0.450
-149.604	-46.944	0.023	0.011
-148.589	-31.039	0.040	0.022
-147.574	-200.000	0.004	0.253
-146.560	-120.635	-0.227	-0.038
-145.545	8.309	-0.218	-0.162
-144.531	683.576	-0.175	-0.453
-143.516	800.000	0.033	-0.128
-142.502	51.803	0.228	0.215
-141.487	-118.145	-0.154	0.027
-140.472	-108.568	-0.106	0.022
-139.458	-8.027	-0.436	0.291
-138.443	-119.143	0.430	-0.074
-137.429	-200.000	-0.081	0.401
-136.414	-200.000	-0.049	0.235
-135.399	-85.096	-0.179	0.056
-134.385	-80.050	-0.221	-0.073
-133.370	-38.531	0.103	0.054
-132.356	-94.705	-0.305	-0.082
-131.341	-78.887	-0.570	-0.192
-130.326	155.960	0.192	0.262
-129.312	-129.471	-0.177	-0.024
-128.297	19.401	-0.107	-0.085
-127.283	295.972	-0.026	0.048
-126.268	334.349	0.060	-0.115
-125.253	-200.000	0.038	0.346
-124.239	-200.000	0.002	-0.111
-123.224	-16.314	-0.366	-0.230
-122.210	-13.551	0.120	0.077
-121.195	800.000	0.026	-0.075
