DTS Sentinel unit serial number:	SN413079Multiplexer serial number:	ORYXHardware model number:	OX4-SRSoftware version number:	ORYX F/W v4.00 Oryx Data Collector v3.7.2.0data status	okinstallation	princeton_trtdifferential loss correction	single-endedforward channel	channel 1reverse channel	N/Adate	2019/09/11time	07:56:11forward acquisition time	60.00reverse acquisition time	0.00gamma	496.2192k internal	0.2322k external	0.2322temperature offset calibration	1.1030default loss term (dB/km)	0.3790temperature slope calibration	1.0000multiplexer offset coefficient	1.0000multiplexer slope coefficient	1.0000fibre end	0.00T internal ref (°C)	31.97T ext. ref 1 (°C)	16.49T ext. ref 2 (°C)	28.38length (m)	temperature (°C)	Stokes	anti-Stokes-747.200	-83.234	0.095	-0.031
-746.185	-184.507	0.230	-0.004
-745.171	-23.147	0.151	-0.092
-744.156	43.170	-0.253	0.233
-743.142	55.632	-0.256	0.250
-742.127	-200.000	0.088	0.410
-741.112	748.595	-0.025	-0.068
-740.098	800.000	-0.028	0.094
-739.083	-141.332	0.164	-0.017
-738.069	42.245	0.225	-0.207
-737.054	95.430	0.102	-0.118
-736.039	-85.463	-0.113	-0.036
-735.025	-200.000	0.018	-0.090
-734.010	-54.989	-0.308	-0.140
-732.996	45.312	0.246	-0.229
-731.981	-26.178	0.230	0.137
-730.966	270.015	-0.123	0.219
-729.952	-139.013	0.203	-0.022
-728.937	91.647	0.157	0.178
-727.923	483.437	-0.156	0.357
-726.908	-48.730	-0.457	-0.222
-725.894	-106.176	-0.194	0.044
-724.879	-94.915	0.363	-0.099
-723.864	31.966	-0.260	0.226
-722.850	-200.000	-0.048	-0.291
-721.835	-42.471	0.186	-0.096
-720.821	-200.000	0.018	-0.094
-719.806	406.515	0.048	0.102
-718.791	800.000	-0.080	-0.239
-717.777	-79.520	0.183	-0.062
-716.762	143.608	0.075	0.101
-715.748	-103.943	-0.317	0.075
-714.733	-58.455	0.320	0.140
-713.718	132.930	0.108	0.141
-712.704	30.311	0.179	-0.154
-711.689	-105.304	0.034	-0.008
-710.675	-68.131	-0.144	-0.057
-709.660	-120.665	0.327	-0.056
-708.645	800.000	0.059	-0.205
-707.631	-200.000	0.000	-0.177
-706.616	-122.861	-0.255	-0.041
-705.602	4.532	0.231	-0.171
-704.587	15.016	0.109	0.086
-703.572	189.179	-0.199	0.301
-702.558	800.000	0.054	0.188
-701.543	-0.569	-0.341	0.244
-700.529	472.514	0.052	0.119
-699.514	59.347	0.107	-0.107
-698.499	-11.870	0.110	-0.073
-697.485	-131.025	0.113	-0.015
-696.470	-200.000	-0.021	-0.230
-695.456	-73.521	0.204	0.075
-694.441	162.142	-0.153	0.216
-693.426	-200.000	0.024	0.412
-692.412	-200.000	0.015	-0.089
-691.397	309.208	0.098	-0.185
-690.383	215.006	0.105	0.168
-689.368	344.359	-0.037	0.073
-688.354	-73.930	-0.298	-0.109
-687.339	-200.000	-0.011	-0.235
-686.324	800.000	-0.032	0.130
-685.310	800.000	0.066	-0.266
-684.295	-78.441	-0.105	0.036
-683.281	-42.740	-0.064	-0.033
-682.266	-109.559	0.134	0.029
-681.251	-155.045	-0.286	-0.019
-680.237	171.342	-0.146	-0.212
-679.222	25.407	0.030	-0.025
-678.208	382.820	-0.086	0.178
-677.193	-33.594	-0.148	-0.083
-676.178	-200.000	-0.041	-0.196
-675.164	22.980	0.077	-0.064
-674.149	-182.717	-0.030	0.001
-673.135	102.042	0.093	-0.109
-672.120	-63.201	0.223	0.093
-671.105	18.811	0.222	-0.179
-670.091	-104.856	0.190	-0.044
-669.076	17.977	0.137	-0.110
-668.062	-103.373	0.231	-0.055
-667.047	800.000	0.077	-0.230
-666.032	800.000	0.073	-0.211
-665.018	-31.648	-0.334	-0.189
-664.003	0.924	-0.192	-0.139
-662.989	513.765	-0.049	0.115
-661.974	16.574	0.038	-0.030
-660.959	266.461	-0.042	-0.074
-659.945	228.300	-0.093	-0.152
-658.930	-85.545	-0.078	-0.025
-657.916	-110.471	-0.282	-0.059
-656.901	-32.329	-0.326	-0.183
-655.886	605.496	-0.124	0.311
-654.872	373.099	0.121	-0.247
-653.857	-102.216	-0.334	-0.081
-652.843	80.998	0.018	0.020
-651.828	-33.375	-0.089	0.049
-650.814	-200.000	-0.015	-0.108
-649.799	-51.644	-0.323	-0.151
-648.784	329.852	-0.107	-0.208
-647.770	526.787	0.042	-0.100
-646.755	107.193	0.057	-0.068
-645.741	-104.241	0.205	0.048
-644.726	81.922	-0.211	-0.230
-643.711	800.000	0.039	0.108
-642.697	-42.804	0.343	0.175
-641.682	-39.358	0.219	0.116
-640.668	5.289	0.152	0.113
-639.653	-125.341	-0.224	-0.034
-638.638	41.529	-0.394	-0.359
-637.624	-9.334	-0.130	0.087
-636.609	-87.008	0.426	0.131
-635.595	-72.030	-0.051	-0.019
-634.580	-200.000	0.020	-0.102
-633.565	800.000	-0.094	-0.392
-632.551	800.000	-0.006	-0.022
-631.536	-200.000	-0.029	-0.312
-630.522	-200.000	0.030	0.218
-629.507	34.996	0.106	-0.094
-628.492	27.953	0.250	0.212
-627.478	273.424	-0.202	0.360
-626.463	-69.965	-0.183	-0.070
-625.449	-200.000	-0.030	-0.392
-624.434	-200.000	-0.029	0.134
-623.419	-45.418	0.219	-0.109
-622.405	-149.397	-0.363	0.029
-621.390	-60.892	0.064	0.027
-620.376	-177.470	-0.148	0.004
-619.361	-197.414	-0.228	0.001
-618.346	270.946	-0.158	0.279
-617.332	-58.905	0.099	0.043
-616.317	-179.597	-0.037	-0.001
-615.303	278.912	0.192	-0.343
-614.288	739.441	0.032	0.087
-613.273	-200.000	-0.045	-0.200
-612.259	94.098	0.108	-0.123
-611.244	132.547	-0.064	0.083
-610.230	-130.066	0.138	0.019
-609.215	-200.000	-0.019	-0.238
-608.201	-75.505	0.041	-0.015
-607.186	-96.191	-0.132	-0.035
-606.171	-9.815	-0.111	-0.075
-605.157	-92.454	0.271	-0.076
-604.142	135.965	-0.057	-0.074
-603.128	-200.000	-0.013	0.092
-602.113	-35.769	0.554	0.302
-601.098	148.319	-0.079	-0.107
-600.084	-53.921	0.526	0.241
-599.069	162.726	0.284	0.401
-598.055	-150.033	0.039	0.003
-597.040	38.332	-0.230	-0.206
-596.025	116.491	-0.059	0.072
-595.011	-199.174	0.203	-0.001
-593.996	87.050	-0.269	0.299
-592.982	-200.000	-0.005	-0.217
-591.967	333.135	0.055	-0.106
-590.952	-116.671	-0.078	-0.014
-589.938	266.803	0.152	-0.267
-588.923	-200.000	-0.034	-0.333
-587.909	-200.000	0.032	-0.156
-586.894	309.166	-0.149	-0.281
-585.879	-140.757	-0.167	-0.017
-584.865	7.326	0.206	-0.155
-583.850	800.000	-0.070	-0.287
-582.836	-91.623	-0.102	-0.029
-581.821	-118.578	0.182	-0.032
-580.806	-177.507	0.342	0.008
-579.792	453.410	-0.149	0.332
-578.777	800.000	0.117	0.360
-577.763	-15.140	-0.136	-0.087
-576.748	131.385	-0.124	-0.160
-575.733	-169.456	0.042	-0.002
-574.719	30.780	0.187	0.161
-573.704	-196.674	-0.121	-0.001
-572.690	116.022	-0.064	0.079
-571.675	-200.000	-0.024	0.230
-570.661	800.000	-0.081	0.228
-569.646	800.000	0.068	-0.203
-568.631	222.819	-0.072	-0.116
-567.617	-59.929	0.156	0.067
-566.602	-127.402	-0.207	0.030
-565.588	218.060	0.093	-0.149
-564.573	-200.000	-0.037	-0.194
-563.558	-102.436	0.049	0.012
-562.544	325.793	0.194	0.372
-561.529	-160.547	-0.259	-0.014
-560.515	-105.268	-0.103	-0.024
-559.500	-1.594	0.175	-0.123
-558.485	327.120	-0.094	0.181
-557.471	104.623	0.037	-0.044
-556.456	800.000	-0.079	0.288
-555.442	66.307	0.123	0.125
-554.427	79.996	-0.069	0.074
-553.412	-200.000	0.011	-0.217
-552.398	296.642	0.160	-0.294
-551.383	360.088	-0.136	-0.273
-550.369	-12.508	-0.262	-0.172
-549.354	800.000	-0.136	0.442
-548.339	-174.662	-0.090	-0.003
-547.325	105.346	0.198	0.234
-546.310	-104.486	0.176	-0.041
-545.296	-114.410	0.177	-0.034
-544.281	800.000	-0.086	0.339
-543.266	38.633	-0.089	-0.080
-542.252	-200.000	-0.002	0.257
-541.237	128.952	-0.147	-0.188
-540.223	147.454	-0.074	0.100
-539.208	800.000	-0.085	-0.250
-538.193	-102.938	-0.184	0.044
-537.179	398.809	0.089	-0.188
-536.164	-122.040	-0.315	-0.052
-535.150	-200.000	0.019	-0.139
-534.135	-200.000	-0.049	-0.235
-533.121	-94.121	-0.071	0.020
-532.106	-60.653	-0.139	0.059
-531.091	-7.267	-0.159	-0.108
-530.077	800.000	0.038	-0.143
-529.062	-200.000	0.027	0.127
-528.048	-133.388	0.179	-0.023
-527.033	309.523	0.102	0.192
-526.018	-163.736	0.343	0.016
-525.004	13.582	0.053	-0.041
-523.989	-177.698	-0.304	0.007
-522.975	188.745	-0.091	-0.137
-521.960	-63.636	-0.265	0.109
-520.945	-82.377	-0.297	0.097
-519.931	-115.732	0.163	-0.031
-518.916	188.805	-0.089	-0.133
-517.902	-54.246	-0.187	0.085
-516.887	-200.000	0.050	-0.239
-515.872	-200.000	0.012	-0.285
-514.858	160.084	0.121	0.169
-513.843	54.835	0.151	0.146
-512.829	-116.589	0.259	0.048
-511.814	124.847	0.087	-0.109
-510.799	-147.021	0.079	0.007
-509.785	-200.000	-0.001	0.095
-508.770	493.070	0.028	0.064
-507.756	-172.162	0.223	-0.007
-506.741	800.000	-0.064	-0.209
-505.726	29.927	0.144	0.123
-504.712	-100.270	-0.233	0.058
-503.697	201.054	-0.086	0.132
-502.683	-157.205	-0.067	0.004
-501.668	-30.054	0.106	-0.060
-500.653	-108.899	-0.041	-0.009
-499.639	-156.927	-0.148	-0.009
-498.624	-172.153	-0.196	0.006
-497.610	153.793	-0.068	0.094
-496.595	424.441	-0.076	0.164
-495.581	-189.140	0.154	-0.002
-494.566	17.277	-0.268	0.213
-493.551	-75.225	0.192	0.069
-492.537	-145.025	-0.216	0.020
-491.522	346.763	0.214	0.421
-490.508	157.148	-0.165	0.228
-489.493	800.000	-0.093	0.290
-488.478	74.299	-0.232	-0.243
-487.464	-200.000	0.050	-0.397
-486.449	230.044	0.091	0.149
-485.435	-99.279	0.174	0.044
-484.420	668.171	-0.080	0.208
-483.405	-200.000	0.003	-0.049
-482.391	-34.931	0.157	0.086
-481.376	-160.102	-0.408	0.022
-480.362	532.384	0.084	-0.198
-479.347	-143.088	0.104	-0.010
-478.332	99.181	0.041	-0.048
-477.318	693.594	0.050	0.131
-476.303	49.602	0.136	-0.128
-475.289	4.449	-0.209	0.153
-474.274	800.000	0.017	-0.052
-473.259	-46.748	-0.144	-0.071
-472.245	-63.214	-0.201	0.083
-471.230	146.499	0.164	0.220
-470.216	-59.171	0.119	-0.051
-469.201	-200.000	0.011	0.088
-468.186	607.000	-0.147	-0.366
-467.172	265.736	-0.138	-0.241
-466.157	-55.559	0.256	-0.114
-465.143	126.412	0.047	-0.059
-464.128	676.044	0.129	0.334
-463.113	-110.781	0.277	-0.057
-462.099	189.231	0.102	0.153
-461.084	189.620	-0.076	0.114
-460.070	17.970	-0.121	0.096
-459.055	-4.250	-0.387	0.268
-458.040	21.536	-0.151	-0.123
-457.026	-122.166	-0.266	0.044
-456.011	182.784	-0.142	-0.209
-454.997	424.951	-0.062	0.134
-453.982	-32.945	0.210	-0.117
-452.968	-82.446	-0.364	0.118
-451.953	-123.050	0.247	0.040
-450.938	76.402	0.060	-0.064
-449.924	800.000	0.056	-0.230
-448.909	332.716	0.077	0.149
-447.895	-200.000	-0.002	0.308
-446.880	-162.037	-0.211	0.011
-445.865	226.069	-0.070	-0.113
-444.851	599.269	0.033	-0.082
-443.836	79.088	0.082	-0.088
-442.822	-47.093	-0.162	0.079
-441.807	800.000	-0.031	-0.122
-440.792	-200.000	-0.027	-0.151
-439.778	800.000	0.019	-0.062
-438.763	-107.469	-0.148	0.032
-437.749	-141.310	0.027	0.003
-436.734	-51.048	-0.242	0.113
-435.719	-11.097	-0.348	-0.229
-434.705	20.934	0.264	0.214
-433.690	-141.847	-0.271	-0.027
-432.676	-157.453	-0.197	0.012
-431.661	-93.733	-0.061	0.017
-430.646	-43.217	-0.070	0.035
-429.632	800.000	-0.081	-0.301
-428.617	-46.766	-0.223	-0.109
-427.603	-57.262	-0.246	-0.108
-426.588	-85.381	-0.151	0.047
-425.573	-83.307	0.123	0.039
-424.559	759.211	-0.106	0.287
-423.544	-39.845	0.116	0.060
-422.530	268.706	-0.195	-0.342
-421.515	23.717	0.238	-0.195
-420.500	800.000	-0.060	-0.225
-419.486	269.371	-0.184	0.322
-418.471	98.149	-0.117	0.135
-417.457	82.056	0.182	-0.197
-416.442	42.064	-0.132	-0.119
-415.428	800.000	0.078	-0.241
-414.413	191.026	-0.106	-0.158
-413.398	-170.868	-0.184	-0.006
-412.384	-22.268	0.080	-0.048
-411.369	-30.729	0.286	0.162
-410.355	5.632	0.099	-0.073
-409.340	-90.582	0.164	-0.047
-408.325	-65.599	0.185	-0.074
-407.311	-132.862	-0.092	0.012
-406.296	-105.519	-0.076	0.017
-405.282	242.132	-0.152	0.254
-404.267	113.369	0.153	0.185
-403.252	13.266	0.064	-0.049
-402.238	218.485	-0.076	0.121
-401.223	265.262	0.077	0.133
-400.209	111.209	0.218	0.262
-399.194	439.978	0.014	0.030
-398.179	-178.015	-0.084	-0.002
-397.165	-123.418	-0.138	0.022
-396.150	-123.390	-0.599	-0.095
-395.136	-200.000	-0.014	0.125
-394.121	-200.000	0.013	-0.070
-393.106	279.282	0.121	0.215
-392.092	106.477	0.289	-0.341
-391.077	58.737	0.195	0.191
-390.063	244.257	-0.142	0.237
-389.048	-67.073	-0.185	-0.073
-388.033	-200.000	0.041	0.297
-387.019	-93.402	0.009	0.002
-386.004	800.000	0.024	-0.095
-384.990	136.347	-0.409	-0.532
-383.975	-152.463	0.035	0.002
-382.960	-15.560	-0.283	0.180
-381.946	1.595	0.206	-0.148
-380.931	-38.533	-0.411	-0.216
-379.917	-114.688	0.420	-0.080
-378.902	329.827	-0.076	0.145
-377.888	367.581	-0.086	-0.172
-376.873	-87.436	0.174	-0.053
-375.858	800.000	0.038	0.141
-374.844	-3.078	0.188	-0.131
-373.829	-126.105	0.250	-0.037
-372.815	-100.708	-0.376	-0.092
-371.800	454.247	-0.247	-0.545
-370.785	-66.652	0.117	0.046
-369.771	-22.823	0.366	-0.220
-368.756	-200.000	0.017	-0.306
-367.742	-133.295	0.348	0.044
-366.727	-78.327	-0.302	0.103
-365.712	-200.000	0.008	-0.057
-364.698	180.340	0.057	-0.083
-363.683	128.311	0.180	-0.228
-362.669	100.885	0.173	-0.200
-361.654	-142.304	0.126	0.012
-360.639	-200.000	0.001	0.393
-359.625	-57.691	-0.060	-0.026
-358.610	-200.000	0.026	-0.639
-357.596	58.287	0.229	-0.224
-356.581	800.000	0.035	-0.099
-355.566	15.797	0.170	-0.133
-354.552	-67.903	0.327	0.127
-353.537	-101.497	0.340	0.082
-352.523	544.956	-0.046	0.109
-351.508	-134.809	-0.139	0.017
-350.493	-73.686	0.324	0.117
-349.479	-148.633	-0.264	-0.021
-348.464	-200.000	0.027	0.195
-347.450	-53.110	0.239	-0.109
-346.435	186.657	0.264	0.392
-345.420	1.390	-0.027	0.019
-344.406	-95.260	-0.188	0.050
-343.391	157.437	0.206	0.284
-342.377	31.595	-0.084	-0.072
-341.362	398.808	-0.102	-0.213
-340.348	-29.737	-0.038	0.021
-339.333	-140.453	0.178	-0.018
-338.318	32.012	-0.194	0.166
-337.304	420.629	-0.016	-0.033
-336.289	-79.871	-0.178	0.059
-335.275	-128.439	-0.287	-0.041
-334.260	264.211	0.306	0.529
-333.245	440.590	0.089	-0.193
-332.231	-200.000	0.030	-0.134
-331.216	100.883	0.045	0.052
-330.202	-83.239	-0.218	0.070
-329.187	-19.578	-0.050	-0.031
-328.172	-200.000	0.041	-0.246
-327.158	-200.000	-0.030	0.416
-326.143	476.600	-0.109	0.245
-325.129	-200.000	0.043	0.286
-324.114	-120.338	0.089	-0.015
-323.099	12.513	-0.182	0.140
-322.085	-192.568	-0.409	-0.004
-321.070	-9.420	-0.334	0.221
-320.056	800.000	-0.069	0.262
-319.041	-1.836	-0.104	-0.073
-318.026	250.193	0.120	-0.202
-317.012	-64.131	0.344	-0.140
-315.997	-200.000	-0.001	0.034
-314.983	-92.334	0.186	0.052
-313.968	-200.000	0.075	-0.348
-312.953	-200.000	-0.014	-0.192
-311.939	-188.476	-0.270	0.003
-310.924	-55.005	-0.304	-0.136
-309.910	-118.710	0.133	0.023
-308.895	-86.579	0.053	0.016
-307.880	-149.564	0.103	0.008
-306.866	-24.085	-0.161	-0.096
-305.851	-117.193	0.038	-0.007
-304.837	714.172	-0.113	-0.296
-303.822	-57.576	0.135	-0.059
-302.807	66.975	0.139	0.140
-301.793	22.531	0.156	-0.126
-300.778	800.000	-0.046	0.179
-299.764	53.895	-0.219	0.209
-298.749	-200.000	0.024	0.109
-297.735	666.989	-0.051	-0.131
-296.720	-16.602	0.027	0.017
-295.705	-105.840	-0.200	-0.045
-294.691	800.000	0.048	0.143
-293.676	-200.000	-0.039	0.372
-292.662	194.178	0.106	0.159
-291.647	756.019	0.027	-0.072
-290.632	-81.268	-0.253	0.083
-289.618	112.344	-0.200	0.240
-288.603	290.726	-0.051	0.091
-287.589	-80.164	0.369	-0.123
-286.574	117.864	0.243	-0.297
-285.559	800.000	-0.083	-0.351
-284.545	-200.000	0.056	-0.333
-283.530	-24.516	0.055	-0.033
-282.516	-200.000	0.001	0.257
-281.501	-131.222	0.157	-0.021
-280.486	-160.060	0.413	-0.022
-279.472	-60.703	0.189	0.079
-278.457	800.000	0.070	-0.262
-277.443	47.016	0.026	0.024
-276.428	-98.347	0.076	0.019
-275.413	33.424	0.182	0.156
-274.399	35.120	0.205	0.178
-273.384	-133.038	-0.193	-0.024
-272.370	96.536	-0.282	0.320
-271.355	-123.425	0.254	0.040
-270.340	800.000	0.059	0.247
-269.326	-37.005	0.439	0.233
-268.311	-200.000	-0.011	-0.238
-267.297	66.471	0.121	0.121
-266.282	-54.662	0.083	0.037
-265.267	-200.000	-0.002	-0.435
-264.253	177.856	0.073	-0.106
-263.238	-200.000	0.031	-0.135
-262.224	-200.000	0.075	0.340
-261.209	800.000	0.107	0.456
-260.195	211.953	0.232	0.363
-259.180	134.907	0.191	0.246
-258.165	254.152	-0.071	0.120
-257.151	-200.000	0.002	0.074
-256.136	800.000	0.032	0.098
-255.122	-2.421	-0.190	0.132
-254.107	-200.000	0.002	0.210
-253.092	-161.607	-0.372	-0.019
-252.078	-163.121	0.176	0.008
-251.063	332.513	0.193	-0.369
-250.049	-200.000	0.025	0.132
-249.034	-26.692	0.075	0.044
-248.019	207.989	0.149	-0.230
-247.005	192.336	-0.081	-0.122
-245.990	-200.000	-0.002	-0.089
-244.976	-144.237	0.180	-0.017
-243.961	204.540	-0.122	-0.188
-242.946	-32.940	0.232	-0.128
-241.932	-200.000	0.002	0.217
-240.917	-122.221	0.310	-0.050
-239.903	800.000	-0.074	0.315
-238.888	-51.178	-0.106	-0.049
-237.873	139.397	0.085	0.111
-236.859	800.000	-0.034	-0.097
-235.844	-200.000	0.017	0.268
-234.830	8.683	-0.065	0.049
-233.815	-128.035	0.135	-0.019
-232.800	35.963	-0.062	-0.054
-231.786	-43.053	-0.083	-0.042
-230.771	-200.000	0.081	0.380
-229.757	202.074	-0.204	-0.311
-228.742	-200.000	0.045	0.360
-227.727	-164.033	0.269	-0.012
-226.713	800.000	-0.008	0.027
-225.698	-78.773	0.136	0.046
-224.684	20.584	-0.091	-0.073
-223.669	-14.317	0.083	0.053
-222.655	394.526	0.109	-0.225
-221.640	-109.098	-0.479	-0.101
-220.625	-88.895	-0.138	0.041
-219.611	-163.523	0.217	0.010
-218.596	236.835	0.188	0.308
-217.582	800.000	-0.099	0.344
-216.567	175.948	0.069	-0.099
-215.552	-37.303	-0.083	-0.044
-214.538	-83.864	-0.068	-0.021
-213.523	-172.042	-0.377	-0.012
-212.509	-200.000	-0.025	-0.120
-211.494	17.355	0.239	-0.188
-210.479	-161.920	0.064	-0.003
-209.465	-19.174	0.134	-0.082
-208.450	-79.830	0.359	0.120
-207.436	-128.344	-0.083	-0.012
-206.421	-79.416	0.099	0.033
-205.406	-40.521	0.069	0.035
-204.392	624.197	-0.105	-0.262
-203.377	101.732	0.103	-0.119
-202.363	218.677	0.106	0.168
-201.348	212.380	-0.025	-0.038
-200.333	-58.370	0.213	0.092
-199.319	800.000	-0.037	0.127
-198.304	-200.000	0.018	0.125
-197.290	-200.000	-0.050	-0.458
-196.275	247.549	-0.066	0.110
-195.260	-161.819	0.185	0.009
-194.246	735.396	0.086	0.228
-193.231	24.238	-0.212	0.173
-192.217	-105.690	-0.197	-0.044
-191.202	-86.865	-0.136	0.041
-190.187	800.000	0.018	0.069
-189.173	-102.465	-0.088	0.021
-188.158	-114.474	-0.139	0.026
-187.144	-200.000	0.026	-0.554
-186.129	-18.953	0.281	-0.173
-185.114	123.009	-0.152	0.188
-184.100	-72.633	0.056	0.021
-183.085	200.987	0.079	0.120
-182.071	3.851	-0.236	-0.170
-181.056	154.891	-0.068	-0.093
-180.042	-18.440	-0.311	-0.192
-179.027	-163.844	0.185	0.009
-178.012	-81.636	0.038	-0.012
-176.998	-179.468	-0.105	-0.002
-175.983	-131.413	-0.298	-0.039
-174.969	-37.140	0.105	-0.056
-173.954	-83.327	-0.327	0.104
-172.939	-18.980	-0.040	0.024
-171.925	-165.471	0.283	-0.012
-170.910	800.000	0.065	-0.190
-169.896	239.798	-0.242	0.398
-168.881	-3.112	-0.094	-0.064
-167.866	36.285	-0.117	-0.102
-166.852	240.649	-0.111	-0.183
-165.837	-200.000	0.004	-0.039
-164.823	770.099	0.022	-0.059
-163.808	90.877	0.078	0.087
-162.793	800.000	0.060	-0.200
-161.779	-177.578	0.041	0.001
-160.764	-200.000	-0.094	0.423
-159.750	282.474	-0.095	0.169
-158.735	-98.634	-0.288	-0.072
-157.720	382.682	0.051	-0.103
-156.706	-60.723	0.445	0.186
-155.691	800.000	-0.086	-0.345
-154.677	-43.994	-0.020	0.010
-153.662	-200.000	-0.028	-0.171
-152.647	-200.000	0.259	0.001
-151.633	-7.621	0.040	0.027
-150.618	-200.000	-0.017	-0.131
-149.604	-62.957	0.250	-0.102
-148.589	800.000	0.022	0.079
-147.574	800.000	0.071	-0.235
-146.560	-106.543	0.402	-0.088
-145.545	111.551	-0.077	0.091
-144.531	-75.455	0.307	-0.108
-143.516	136.508	0.068	-0.088
-142.502	125.872	0.169	0.211
-141.487	-200.000	-0.020	-0.202
-140.472	-200.000	-0.023	0.132
-139.458	-43.905	-0.324	0.161
-138.443	800.000	0.023	0.064
-137.429	368.416	-0.105	-0.209
-136.414	-65.245	0.239	-0.095
-135.399	135.747	-0.037	-0.048
-134.385	57.395	0.138	0.133
-133.370	363.170	-0.045	0.089
-132.356	-183.903	0.175	0.003
-131.341	73.169	-0.077	-0.080
-130.326	508.258	0.111	0.254
-129.312	253.480	0.051	-0.085
-128.297	2.196	0.047	-0.033
-127.283	-200.000	-0.000	-0.166
-126.268	-26.073	0.128	0.074
-125.253	-130.163	0.286	-0.039
-124.239	76.809	0.257	0.269
-123.224	342.201	-0.083	-0.160
-122.210	162.317	0.183	-0.253
