DTS Sentinel unit serial number:	SN413079Multiplexer serial number:	ORYXHardware model number:	OX4-SRSoftware version number:	ORYX F/W v4.00 Oryx Data Collector v3.7.2.0data status	okinstallation	princeton_trtdifferential loss correction	single-endedforward channel	channel 1reverse channel	N/Adate	2019/09/10time	16:56:11forward acquisition time	60.00reverse acquisition time	0.00gamma	496.2192k internal	0.2300k external	0.2300temperature offset calibration	0.9921default loss term (dB/km)	0.3790temperature slope calibration	1.0000multiplexer offset coefficient	1.0000multiplexer slope coefficient	1.0000fibre end	0.00T internal ref (°C)	37.62T ext. ref 1 (°C)	-0.32T ext. ref 2 (°C)	32.35length (m)	temperature (°C)	Stokes	anti-Stokes-747.200	91.766	-0.201	0.231
-746.185	-56.976	0.327	0.147
-745.171	293.940	0.049	0.091
-744.156	-76.855	0.173	0.062
-743.142	-5.752	0.202	0.141
-742.127	64.919	0.137	-0.141
-741.112	-200.000	0.030	-0.252
-740.098	452.793	0.038	-0.087
-739.083	255.949	-0.206	0.360
-738.069	137.985	0.223	0.298
-737.054	16.950	-0.445	-0.360
-736.039	51.273	-0.352	-0.341
-735.025	-135.608	-0.164	-0.020
-734.010	-200.000	-0.016	-0.361
-732.996	-5.283	0.106	0.074
-731.981	25.482	-0.242	0.205
-730.966	-200.000	0.030	0.267
-729.952	-34.855	0.176	0.098
-728.937	-188.465	-0.361	-0.005
-727.923	-161.799	-0.217	-0.011
-726.908	-164.278	-0.063	-0.003
-725.894	456.930	-0.114	-0.258
-724.879	-162.729	0.080	-0.004
-723.864	92.281	0.220	0.253
-722.850	-50.322	0.032	-0.015
-721.835	718.780	0.039	-0.106
-720.821	237.255	-0.141	-0.239
-719.806	800.000	-0.032	-0.132
-718.791	-39.079	0.124	0.066
-717.777	-76.560	0.335	-0.120
-716.762	-121.929	0.246	0.041
-715.748	-164.356	0.286	0.013
-714.733	-200.000	-0.002	-0.149
-713.718	-151.854	-0.296	-0.022
-712.704	-95.996	-0.143	-0.039
-711.689	-37.931	-0.159	-0.086
-710.675	800.000	-0.082	-0.234
-709.660	-47.288	-0.036	-0.018
-708.645	398.367	0.047	-0.101
-707.631	174.462	-0.099	0.147
-706.616	-26.740	-0.298	0.178
-705.602	-200.000	0.031	-0.346
-704.587	-37.690	-0.043	-0.024
-703.572	-158.065	0.218	-0.013
-702.558	-95.951	-0.256	0.069
-701.543	42.671	-0.171	-0.159
-700.529	-137.780	-0.252	-0.029
-699.514	-200.000	0.040	-0.282
-698.499	25.031	0.224	0.189
-697.485	-103.162	0.124	-0.030
-696.470	34.338	0.085	0.076
-695.456	35.869	0.199	0.178
-694.441	-43.177	-0.184	-0.095
-693.426	12.114	-0.212	0.166
-692.412	-112.125	-0.138	0.028
-691.397	-166.309	-0.384	0.016
-690.383	-104.665	0.183	0.043
-689.368	800.000	0.074	-0.264
-688.354	-200.000	0.002	0.096
-687.339	-43.356	-0.274	-0.141
-686.324	-200.000	-0.008	-0.072
-685.310	-200.000	0.018	0.101
-684.295	133.270	-0.182	-0.240
-683.281	-200.000	0.003	-0.543
-682.266	-200.000	0.017	-0.248
-681.251	-146.774	0.069	0.006
-680.237	-200.000	-0.017	0.094
-679.222	-200.000	-0.020	0.169
-678.208	39.226	0.113	0.102
-677.193	-200.000	-0.010	-0.146
-676.178	594.479	0.075	0.189
-675.164	-200.000	0.041	0.306
-674.149	-27.616	0.073	-0.043
-673.135	762.372	-0.143	-0.395
-672.120	-24.300	0.249	-0.151
-671.105	-200.000	-0.003	0.072
-670.091	347.626	-0.178	0.357
-669.076	88.762	-0.224	-0.253
-668.062	376.415	-0.202	0.420
-667.047	-127.505	-0.262	0.039
-666.032	90.190	0.303	-0.344
-665.018	-200.000	0.062	-0.360
-664.003	49.552	0.055	0.053
-662.989	-200.000	-0.001	-0.159
-661.974	156.377	0.059	-0.083
-660.959	-43.949	-0.338	0.173
-659.945	439.733	0.073	-0.163
-658.930	-54.885	-0.209	0.096
-657.916	-65.304	-0.416	0.170
-656.901	4.893	-0.286	-0.214
-655.886	-80.860	0.174	0.059
-654.872	-63.135	-0.249	-0.105
-653.857	569.180	-0.092	-0.227
-652.843	-27.675	-0.411	-0.242
-651.828	-45.258	-0.263	-0.133
-650.814	-137.364	-0.042	-0.005
-649.799	188.104	0.171	0.260
-648.784	-98.960	0.416	0.107
-647.770	28.395	0.076	-0.065
-646.755	-200.000	-0.027	0.207
-645.741	49.704	-0.185	-0.177
-644.726	98.551	0.159	-0.187
-643.711	-93.169	-0.208	0.059
-642.697	-77.853	-0.198	-0.069
-641.682	55.813	-0.070	-0.069
-640.668	-67.519	-0.172	0.068
-639.653	-13.639	-0.264	-0.173
-638.638	-135.476	0.390	0.047
-637.624	-127.319	-0.331	0.049
-636.609	649.027	0.159	0.413
-635.595	-109.420	0.195	-0.042
-634.580	216.065	0.127	-0.206
-633.565	-172.808	0.337	0.011
-632.551	-123.497	-0.293	0.047
-631.536	-134.782	-0.337	0.042
-630.522	0.710	-0.158	-0.115
-629.507	-18.108	0.006	-0.004
-628.492	-200.000	-0.007	0.130
-627.478	61.131	0.196	0.197
-626.463	-200.000	-0.026	0.268
-625.449	-151.393	0.436	-0.033
-624.434	-23.543	-0.086	0.052
-623.419	-19.076	0.125	-0.079
-622.405	743.293	-0.055	0.149
-621.390	-48.146	0.358	0.175
-620.376	192.950	-0.186	-0.286
-619.361	55.794	0.139	-0.137
-618.346	-76.193	0.053	-0.019
-617.332	-10.145	0.061	-0.041
-616.317	436.917	-0.101	0.223
-615.303	-98.110	0.266	-0.069
-614.288	602.955	0.079	-0.198
-613.273	-149.220	-0.225	0.018
-612.259	341.196	0.047	0.093
-611.244	-24.312	0.180	-0.109
-610.230	275.936	0.138	-0.248
-609.215	436.621	-0.092	0.203
-608.201	-102.891	0.220	-0.053
-607.186	795.108	-0.083	0.232
-606.171	-200.000	-0.027	0.173
-605.157	800.000	0.039	0.116
-604.142	316.422	0.133	0.255
-603.128	-98.211	0.088	-0.023
-602.113	-12.109	0.138	-0.091
-601.098	-133.060	0.202	-0.026
-600.084	65.918	0.185	-0.190
-599.069	-200.000	0.013	-0.164
-598.055	-200.000	0.009	0.171
-597.040	43.742	0.257	-0.238
-596.025	-200.000	-0.003	0.098
-595.011	-69.591	0.251	-0.098
-593.996	-200.000	-0.002	0.080
-592.982	-200.000	0.000	-0.110
-591.967	-5.056	-0.208	0.145
-590.952	59.242	0.189	-0.189
-589.938	34.173	0.265	-0.234
-588.923	-114.033	-0.488	0.096
-587.909	180.031	0.226	0.335
-586.894	41.828	-0.232	0.213
-585.879	-152.788	-0.379	-0.027
-584.865	199.663	-0.257	0.400
-583.850	52.324	0.168	-0.163
-582.836	-200.000	0.018	-0.196
-581.821	-18.310	0.041	0.026
-580.806	60.779	-0.086	-0.086
-579.792	-154.411	-0.201	-0.014
-578.777	-185.739	0.273	0.004
-577.763	684.208	-0.049	0.129
-576.748	-200.000	-0.064	0.286
-575.733	-82.018	0.154	0.051
-574.719	-68.561	0.386	-0.151
-573.704	137.442	-0.177	-0.234
-572.690	45.404	0.112	-0.105
-571.675	800.000	-0.041	0.126
-570.661	50.752	0.098	-0.094
-569.646	3.883	0.069	-0.051
-568.631	-142.176	0.069	0.007
-567.617	-70.258	0.189	0.073
-566.602	-164.289	-0.220	0.010
-565.588	-200.000	-0.043	-0.263
-564.573	-173.898	-0.144	0.004
-563.558	368.561	0.137	0.280
-562.544	509.676	0.118	0.277
-561.529	800.000	0.070	0.302
-560.515	-200.000	-0.011	-0.147
-559.500	800.000	-0.097	-0.295
-558.485	-108.558	0.282	-0.061
-557.471	-32.410	-0.270	-0.152
-556.456	-200.000	0.035	0.254
-555.442	-102.659	0.104	-0.025
-554.427	-62.970	0.312	0.131
-553.412	409.275	-0.036	-0.078
-552.398	-39.210	0.219	0.116
-551.383	-57.065	0.098	0.044
-550.369	-200.000	-0.082	0.536
-549.354	-102.024	0.168	-0.041
-548.339	-95.528	0.061	0.016
-547.325	-126.178	-0.160	0.024
-546.310	-24.775	-0.126	0.076
-545.296	-200.000	-0.028	0.259
-544.281	-88.224	-0.110	-0.033
-543.266	33.576	-0.109	-0.096
-542.252	-149.009	-0.027	0.002
-541.237	-48.135	-0.328	0.160
-540.223	505.696	-0.120	-0.281
-539.208	-141.531	-0.067	0.007
-538.193	182.038	0.037	-0.055
-537.179	-129.503	-0.118	-0.017
-536.164	-69.981	0.133	-0.051
-535.150	-200.000	-0.035	0.290
-534.135	-96.780	-0.134	-0.036
-533.121	182.934	-0.256	-0.382
-532.106	-173.642	-0.162	0.005
-531.091	-60.222	0.023	0.010
-530.077	157.362	-0.179	0.250
-529.062	-200.000	-0.064	-0.332
-528.048	-109.867	-0.310	-0.066
-527.033	63.845	0.015	-0.015
-526.018	-200.000	0.029	-0.332
-525.004	-200.000	-0.050	-0.257
-523.989	-153.593	-0.106	-0.007
-522.975	-32.165	-0.154	0.087
-521.960	67.870	0.157	0.162
-520.945	71.966	0.147	-0.155
-519.931	364.168	-0.086	-0.176
-518.916	-195.131	0.154	-0.001
-517.902	-17.056	-0.297	-0.190
-516.887	-94.617	-0.259	-0.071
-515.872	-200.000	-0.006	0.056
-514.858	587.562	0.104	-0.259
-513.843	-54.246	-0.323	0.148
-512.829	371.628	-0.125	0.256
-511.814	502.819	-0.074	-0.173
-510.799	-172.158	-0.136	-0.004
-509.785	-100.776	0.207	-0.051
-508.770	780.084	-0.070	0.192
-507.756	-200.000	0.037	0.168
-506.741	800.000	-0.099	0.307
-505.726	-105.770	0.338	0.077
-504.712	-79.991	-0.200	-0.068
-503.697	71.115	-0.283	-0.296
-502.683	-62.724	-0.132	-0.055
-501.668	-46.108	0.128	0.064
-500.653	434.962	-0.045	-0.098
-499.639	102.679	-0.122	0.144
-498.624	-200.000	0.056	0.342
-497.610	-200.000	0.037	-0.204
-496.595	148.058	-0.025	0.035
-495.581	-69.523	0.201	-0.078
-494.566	507.913	0.131	-0.307
-493.551	800.000	-0.038	0.121
-492.537	800.000	-0.072	-0.293
-491.522	800.000	-0.079	-0.307
-490.508	88.862	0.092	-0.103
-489.493	424.144	-0.117	0.254
-488.478	-101.922	0.173	0.042
-487.464	11.427	-0.091	-0.071
-486.449	-200.000	0.019	-0.204
-485.435	25.085	0.163	-0.137
-484.420	800.000	0.020	0.056
-483.405	-49.939	0.209	0.100
-482.391	-200.000	0.013	0.077
-481.376	19.776	0.101	-0.082
-480.362	-21.360	-0.277	0.171
-479.347	53.019	0.175	-0.169
-478.332	-156.660	0.285	-0.018
-477.318	-110.843	-0.335	-0.070
-476.303	800.000	0.119	0.367
-475.289	172.068	0.235	-0.340
-474.274	312.795	-0.061	-0.116
-473.259	800.000	-0.033	-0.132
-472.245	-70.544	-0.313	0.119
-471.230	771.569	0.019	-0.053
-470.216	344.769	0.113	0.224
-469.201	356.344	0.117	0.235
-468.186	-21.102	-0.050	0.031
-467.172	-28.527	0.074	0.043
-466.157	800.000	0.031	0.119
-465.143	-118.039	-0.191	0.034
-464.128	267.138	0.111	-0.195
-463.113	-117.416	0.173	-0.032
-462.099	249.453	-0.151	-0.258
-461.084	-200.000	0.000	-0.025
-460.070	269.432	0.111	-0.197
-459.055	-200.000	-0.023	-0.386
-458.040	-200.000	-0.015	-0.509
-457.026	37.209	0.120	0.107
-456.011	795.381	-0.074	-0.205
-454.997	112.773	0.229	-0.280
-453.982	59.735	0.139	-0.138
-452.968	-117.813	-0.242	-0.044
-451.953	133.460	0.192	-0.250
-450.938	119.928	-0.119	-0.149
-449.924	-200.000	-0.006	0.029
-448.909	169.113	-0.151	-0.217
-447.895	83.328	0.164	-0.180
-446.880	189.155	-0.055	0.082
-445.865	800.000	0.054	-0.162
-444.851	-18.880	-0.039	-0.025
-443.836	-200.000	-0.039	-0.210
-442.822	-161.535	-0.229	0.012
-441.807	68.050	-0.244	-0.252
-440.792	162.495	-0.222	-0.314
-439.778	-76.723	-0.200	0.071
-438.763	281.418	0.052	-0.093
-437.749	7.204	0.381	-0.287
-436.734	-30.470	-0.100	-0.057
-435.719	-157.410	-0.044	0.003
-434.705	193.791	0.216	0.329
-433.690	-115.259	-0.253	-0.048
-432.676	264.766	0.046	0.081
-431.661	-14.673	0.195	-0.127
-430.646	-89.933	0.263	-0.077
-429.632	-171.690	-0.219	0.007
-428.617	-183.093	0.423	0.008
-427.603	50.075	-0.169	0.160
-426.588	-120.844	-0.125	0.021
-425.573	-28.323	0.022	0.013
-424.559	-155.170	0.113	-0.007
-423.544	-36.829	-0.046	-0.025
-422.530	16.910	-0.337	0.269
-421.515	-200.000	-0.024	-0.211
-420.500	76.041	0.406	0.433
-419.486	-200.000	-0.027	0.343
-418.471	800.000	0.078	-0.227
-417.457	224.282	-0.214	-0.349
-416.442	348.931	0.021	-0.042
-415.428	76.822	-0.093	-0.099
-414.413	-49.217	-0.273	0.131
-413.398	-178.848	0.085	0.002
-412.384	-200.000	0.050	0.273
-411.369	-142.834	0.105	0.010
-410.355	-117.693	0.171	-0.031
-409.340	-50.903	0.251	0.119
-408.325	-99.562	0.212	-0.054
-407.311	-69.557	-0.224	0.086
-406.296	-116.069	-0.305	0.057
-405.282	-115.794	0.143	0.027
-404.267	416.985	0.046	-0.099
-403.252	426.005	-0.079	0.172
-402.238	-108.844	-0.109	0.023
-401.223	-200.000	-0.003	-0.061
-400.209	800.000	-0.026	0.084
-399.194	-141.589	-0.040	0.004
-398.179	-94.902	-0.151	-0.041
-397.165	-122.631	0.260	-0.042
-396.150	-51.824	0.294	-0.138
-395.136	-200.000	0.045	0.219
-394.121	666.923	-0.094	-0.244
-393.106	-78.777	0.259	0.089
-392.092	-30.169	0.235	0.134
-391.077	-57.278	0.226	0.100
-390.063	-138.181	-0.279	-0.031
-389.048	-200.000	0.043	-0.254
-388.033	246.129	-0.179	-0.303
-387.019	-5.484	0.236	-0.163
-386.004	-121.045	-0.356	0.060
-384.990	800.000	-0.042	-0.142
-383.975	92.159	-0.223	0.252
-382.960	-200.000	-0.013	0.122
-381.946	48.465	0.284	0.267
-380.931	119.009	-0.321	0.399
-379.917	204.645	0.025	-0.039
-378.902	79.301	0.201	0.217
-377.888	-126.734	-0.069	0.010
-376.873	-47.995	0.295	-0.143
-375.858	-116.611	0.083	0.015
-374.844	221.680	-0.157	0.255
-373.829	-52.856	0.018	0.008
-372.815	-190.233	-0.121	0.001
-371.800	331.306	-0.068	-0.132
-370.785	102.807	0.316	-0.372
-369.771	78.222	0.201	-0.216
-368.756	-112.445	0.071	0.014
-367.742	-31.024	0.430	0.244
-366.727	115.975	0.197	0.243
-365.712	239.640	0.091	0.153
-364.698	-28.912	0.330	-0.191
-363.683	-132.139	0.329	-0.043
-362.669	-27.696	-0.159	0.093
-361.654	-125.312	-0.392	-0.060
-360.639	-55.863	-0.071	-0.032
-359.625	-56.644	-0.381	-0.169
-358.610	-74.846	0.030	-0.011
-357.596	-95.567	-0.173	0.047
-356.581	-200.000	-0.002	0.147
-355.566	-200.000	0.036	0.266
-354.552	-200.000	0.044	-0.300
-353.537	-101.830	-0.274	-0.067
-352.523	135.468	0.213	0.278
-351.508	127.603	0.090	-0.115
-350.493	83.178	-0.137	-0.150
-349.479	97.374	0.183	-0.211
-348.464	160.860	0.110	-0.154
-347.450	14.483	-0.069	-0.054
-346.435	-90.385	-0.316	0.092
-345.420	274.856	-0.155	-0.277
-344.406	0.098	-0.158	-0.113
-343.391	-90.155	0.190	0.056
-342.377	-28.107	-0.083	-0.048
-341.362	-89.133	-0.286	0.085
-340.348	131.977	0.064	0.083
-339.333	444.895	-0.093	-0.204
-338.318	198.635	0.145	-0.223
-337.304	26.700	-0.144	-0.121
-336.289	63.138	0.299	0.301
-335.275	-112.426	0.309	-0.062
-334.260	-103.683	-0.054	0.013
-333.245	-87.732	0.284	0.086
-332.231	7.596	-0.139	0.104
-331.216	46.719	0.361	0.337
-330.202	14.901	0.192	-0.151
-329.187	800.000	0.046	0.189
-328.172	800.000	-0.093	-0.263
-327.158	169.372	0.044	0.063
-326.143	-105.868	-0.337	-0.076
-325.129	313.557	-0.042	-0.080
-324.114	6.095	-0.077	0.057
-323.099	90.177	0.075	0.085
-322.085	97.240	-0.086	-0.099
-321.070	-38.954	0.223	0.118
-320.056	1.066	-0.153	0.110
-319.041	349.181	-0.109	0.215
-318.026	-200.000	0.001	0.070
-317.012	114.261	-0.111	-0.136
-315.997	405.961	-0.119	0.251
-314.983	8.127	-0.081	-0.061
-313.968	800.000	-0.052	0.148
-312.953	-15.363	0.167	-0.107
-311.939	-77.313	0.038	0.013
-310.924	-53.327	-0.157	0.072
-309.910	-96.235	0.275	-0.073
-308.895	19.377	-0.199	0.160
-307.880	340.870	-0.126	0.248
-306.866	-64.860	-0.242	0.098
-305.851	16.231	0.132	-0.105
-304.837	-66.900	0.212	-0.084
-303.822	-3.416	0.064	-0.044
-302.807	-61.730	-0.140	0.059
-301.793	253.224	-0.132	0.226
-300.778	-18.698	-0.148	0.093
-299.764	800.000	-0.175	0.537
-298.749	800.000	-0.095	0.299
-297.735	197.672	-0.071	-0.108
-296.720	140.150	0.091	-0.120
-295.705	280.952	0.145	-0.260
-294.691	-150.796	-0.193	-0.015
-293.676	25.506	-0.255	-0.213
-292.662	-34.743	-0.201	0.110
-291.647	-92.498	0.296	-0.083
-290.632	-104.086	-0.189	-0.044
-289.618	800.000	0.039	-0.121
-288.603	-187.946	0.160	-0.002
-287.589	161.588	0.155	-0.217
-286.574	-95.642	0.157	-0.042
-285.559	84.620	-0.144	0.158
-284.545	150.504	0.031	0.043
-283.530	-67.329	0.055	0.022
-282.516	-200.000	0.015	-0.185
-281.501	800.000	-0.051	-0.172
-280.486	-42.973	0.321	-0.163
-279.472	-33.603	0.230	-0.127
-278.457	-4.102	0.163	-0.113
-277.443	77.922	0.236	0.252
-276.428	777.737	-0.049	0.135
-275.413	18.233	-0.122	0.098
-274.399	-200.000	-0.008	0.187
-273.384	86.752	-0.043	0.047
-272.370	40.158	-0.070	0.063
-271.355	-99.527	-0.144	-0.036
-270.340	-106.967	-0.417	0.092
-269.326	-80.002	-0.161	-0.054
-268.311	-19.282	0.139	0.087
-267.297	392.597	0.084	0.175
-266.282	179.344	0.213	0.312
-265.267	-30.184	-0.196	0.111
-264.253	102.535	-0.271	0.317
-263.238	-68.325	-0.202	-0.079
-262.224	84.313	-0.254	-0.278
-261.209	139.330	0.065	-0.085
-260.195	-158.055	0.098	-0.006
-259.180	254.185	-0.144	0.246
-258.165	-98.786	0.220	-0.056
-257.151	800.000	0.070	-0.207
-256.136	442.604	0.007	-0.016
-255.122	-200.000	0.012	0.086
-254.107	-13.517	0.100	0.065
-253.092	4.862	0.126	-0.093
-252.078	-48.571	0.079	0.038
-251.063	-170.788	0.272	0.009
-250.049	-78.186	-0.134	-0.046
-249.034	-52.873	-0.255	0.117
-248.019	-200.000	-0.002	-0.122
-247.005	-188.510	0.261	-0.003
-245.990	123.152	0.278	-0.348
-244.976	42.021	0.044	0.040
-243.961	261.936	0.112	-0.194
-242.946	-200.000	0.046	0.223
-241.932	-19.985	0.209	-0.129
-240.917	-161.858	0.114	-0.006
-239.903	-200.000	-0.010	0.161
-238.888	234.115	-0.140	0.230
-237.873	505.654	0.075	-0.174
-236.859	146.402	-0.186	-0.250
-235.844	-200.000	-0.013	0.129
-234.830	-67.358	-0.161	-0.063
-233.815	-157.774	-0.272	-0.016
-232.800	-200.000	-0.017	0.280
-231.786	77.809	-0.208	0.222
-230.771	-89.337	0.290	-0.085
-229.757	156.099	0.127	0.174
-228.742	-2.180	-0.211	-0.148
-227.727	800.000	0.032	-0.130
-226.713	72.706	0.085	0.089
-225.698	-200.000	0.041	0.219
-224.684	21.139	-0.059	0.048
-223.669	-181.665	0.223	-0.004
-222.655	105.930	0.187	-0.221
-221.640	-13.142	-0.188	0.122
-220.625	17.769	-0.208	0.165
-219.611	67.835	-0.407	-0.416
-218.596	-47.823	-0.297	0.144
-217.582	-200.000	0.001	-0.032
-216.567	-115.121	-0.267	0.051
-215.552	-49.893	0.516	0.245
-214.538	-3.789	0.202	0.140
-213.523	795.355	-0.084	0.232
-212.509	800.000	-0.019	0.061
-211.494	343.342	-0.074	-0.145
-210.479	-78.717	0.383	0.131
-209.465	-158.312	-0.250	-0.015
-208.450	-29.728	-0.277	0.158
-207.436	-7.807	0.152	-0.103
-206.421	800.000	0.081	0.287
-205.406	-200.000	0.016	0.278
-204.392	335.431	0.092	0.178
-203.377	-23.451	-0.288	-0.173
-202.363	-5.053	-0.044	0.031
-201.348	198.872	0.155	-0.237
-200.333	60.004	-0.154	-0.152
-199.319	291.181	0.252	-0.459
-198.304	-200.000	-0.001	0.100
-197.290	-94.678	-0.177	-0.048
-196.275	384.880	0.118	-0.243
-195.260	-57.406	-0.485	0.213
-194.246	-194.419	0.038	0.000
-193.231	566.241	-0.016	-0.038
-192.217	19.962	0.066	-0.053
-191.202	420.499	0.198	-0.423
-190.187	393.627	-0.088	0.184
-189.173	64.929	-0.223	-0.224
-188.158	156.971	0.211	0.291
-187.144	181.853	-0.123	0.181
-186.129	800.000	-0.019	0.055
-185.114	656.857	0.141	0.362
-184.100	-200.000	-0.030	-0.171
-183.085	155.101	0.030	-0.040
-182.071	687.449	-0.079	-0.207
-181.056	52.948	-0.226	0.216
-180.042	-5.034	0.247	-0.169
-179.027	800.000	0.069	0.220
-178.012	-124.714	0.340	-0.052
-176.998	-200.000	-0.004	-0.161
-175.983	-125.575	-0.267	0.041
-174.969	-63.891	0.103	-0.042
-173.954	-56.302	-0.245	0.108
-172.939	175.025	-0.066	0.095
-171.925	-194.186	0.253	-0.002
-170.910	-53.478	-0.267	-0.122
-169.896	-161.142	0.310	-0.016
-168.881	3.490	0.276	0.201
-167.866	123.290	0.053	0.066
-166.852	-50.800	0.048	-0.022
-165.837	616.996	0.055	0.138
-164.823	215.649	-0.114	0.180
-163.808	47.878	-0.214	-0.199
-162.793	612.635	-0.024	0.061
-161.779	-200.000	0.001	0.029
-160.764	-145.952	0.225	0.020
-159.750	-200.000	-0.001	-0.083
-158.735	-45.830	-0.206	0.102
-157.720	-80.044	-0.416	0.139
-156.706	800.000	-0.047	0.176
-155.691	583.981	0.045	-0.110
-154.677	-123.351	-0.350	-0.056
-153.662	14.810	-0.207	-0.162
-152.647	-14.408	-0.159	-0.102
-151.633	-200.000	-0.023	-0.211
-150.618	7.352	-0.195	0.145
-149.604	80.463	0.222	-0.238
-148.589	2.356	0.265	0.191
-147.574	171.703	-0.055	-0.079
-146.560	-107.825	0.179	0.039
-145.545	70.566	-0.180	0.186
-144.531	198.332	0.124	0.189
-143.516	1.558	0.135	0.097
-142.502	-200.000	0.012	0.267
-141.487	17.270	0.113	-0.089
-140.472	-200.000	0.046	-0.214
-139.458	800.000	0.081	0.348
-138.443	-177.766	-0.198	-0.005
-137.429	-200.000	-0.009	-0.084
-136.414	-84.008	-0.335	-0.106
-135.399	-160.125	0.080	0.004
-134.385	13.901	0.117	-0.091
-133.370	241.119	0.173	0.287
-132.356	-61.903	-0.160	-0.067
-131.341	98.729	0.065	-0.075
-130.326	584.035	0.045	0.109
-129.312	249.011	0.045	-0.076
-128.297	-59.947	0.250	-0.107
-127.283	-200.000	0.018	0.180
-126.268	800.000	0.032	0.107
-125.253	-30.223	0.111	-0.063
-124.239	-68.726	0.449	-0.173
-123.224	21.146	0.130	-0.105
-122.210	-9.948	-0.144	0.096
-121.195	-156.193	0.137	-0.009
