DTS Sentinel unit serial number:	SN413079Multiplexer serial number:	ORYXHardware model number:	OX4-SRSoftware version number:	ORYX F/W v4.00 Oryx Data Collector v3.7.2.0data status	okinstallation	princeton_trtdifferential loss correction	single-endedforward channel	channel 1reverse channel	N/Adate	2019/09/11time	08:16:11forward acquisition time	60.00reverse acquisition time	0.00gamma	496.2192k internal	0.2319k external	0.2319temperature offset calibration	0.9954default loss term (dB/km)	0.3790temperature slope calibration	1.0000multiplexer offset coefficient	1.0000multiplexer slope coefficient	1.0000fibre end	0.00T internal ref (°C)	32.58T ext. ref 1 (°C)	0.09T ext. ref 2 (°C)	29.64length (m)	temperature (°C)	Stokes	anti-Stokes-747.200	192.746	0.107	0.163
-746.185	-41.624	-0.098	-0.051
-745.171	209.901	0.118	0.187
-744.156	31.487	-0.170	0.148
-743.142	-102.014	0.213	-0.052
-742.127	402.193	0.060	0.128
-741.112	95.275	0.274	0.316
-740.098	72.765	-0.217	0.229
-739.083	115.255	-0.280	0.346
-738.069	60.687	0.078	0.078
-737.054	20.532	-0.169	-0.138
-736.039	-5.948	0.309	-0.214
-735.025	-95.972	-0.247	0.067
-734.010	-46.966	-0.355	-0.175
-732.996	93.270	-0.112	-0.128
-731.981	800.000	0.038	0.137
-730.966	-136.832	0.108	-0.013
-729.952	-200.000	-0.030	0.177
-728.937	-110.628	0.061	0.013
-727.923	-10.712	-0.049	-0.033
-726.908	800.000	0.025	0.095
-725.894	-28.192	-0.234	0.137
-724.879	-114.397	0.106	-0.021
-723.864	-119.233	-0.382	-0.067
-722.850	-28.361	-0.100	0.059
-721.835	-122.137	-0.090	-0.015
-720.821	800.000	0.011	0.032
-719.806	-84.856	-0.029	-0.009
-718.791	-200.000	0.007	-0.490
-717.777	391.739	0.102	-0.213
-716.762	-55.207	0.323	0.147
-715.748	305.971	0.063	-0.118
-714.733	-149.820	-0.508	-0.040
-713.718	469.965	-0.069	-0.156
-712.704	-128.544	0.179	-0.026
-711.689	-110.535	0.252	0.053
-710.675	113.272	-0.025	0.031
-709.660	800.000	0.041	0.143
-708.645	-70.356	-0.186	0.071
-707.631	-158.327	0.206	0.012
-706.616	-98.140	-0.043	0.011
-705.602	25.703	-0.251	0.211
-704.587	-121.681	0.230	0.039
-703.572	64.232	-0.405	0.412
-702.558	178.327	-0.324	0.477
-701.543	641.039	-0.131	0.336
-700.529	800.000	-0.018	0.074
-699.514	-54.195	0.118	-0.054
-698.499	118.631	0.059	0.073
-697.485	-109.149	0.142	-0.031
-696.470	-75.802	-0.121	-0.043
-695.456	13.605	-0.029	0.023
-694.441	204.383	0.063	-0.099
-693.426	-200.000	0.003	-0.393
-692.412	177.927	0.161	-0.237
-691.397	-200.000	0.037	-0.374
-690.383	-200.000	0.052	-0.402
-689.368	71.438	-0.191	0.200
-688.354	546.503	0.109	-0.264
-687.339	-85.484	-0.386	-0.121
-686.324	177.163	0.104	-0.152
-685.310	-115.355	0.169	0.032
-684.295	70.725	-0.194	0.203
-683.281	2.817	0.231	0.169
-682.266	52.442	-0.256	-0.246
-681.251	42.469	-0.196	-0.180
-680.237	-122.709	-0.223	0.036
-679.222	-164.248	0.213	0.010
-678.208	92.976	0.082	-0.094
-677.193	-7.221	-0.107	0.073
-676.178	-99.083	-0.230	0.059
-675.164	800.000	0.022	0.094
-674.149	45.844	0.164	0.153
-673.135	-200.000	-0.007	-0.092
-672.120	-200.000	0.004	-0.027
-671.105	162.840	0.117	-0.165
-670.091	-57.747	0.074	0.033
-669.076	800.000	-0.080	0.246
-668.062	-79.679	0.155	-0.053
-667.047	-104.191	0.241	0.056
-666.032	306.127	-0.146	-0.274
-665.018	49.794	-0.091	-0.087
-664.003	-18.233	-0.108	0.068
-662.989	-77.329	-0.183	-0.064
-661.974	-116.451	0.343	0.064
-660.959	-200.000	-0.007	0.034
-659.945	15.087	0.091	-0.072
-658.930	632.233	-0.058	-0.149
-657.916	-200.000	0.019	-0.201
-656.901	-200.000	-0.003	0.214
-655.886	16.912	0.273	-0.218
-654.872	-40.794	-0.375	0.196
-653.857	-200.000	-0.012	-0.289
-652.843	-40.892	0.186	-0.097
-651.828	446.477	-0.107	0.238
-650.814	-81.498	-0.121	-0.040
-649.799	278.281	0.057	-0.102
-648.784	326.564	-0.180	-0.348
-647.770	30.166	0.126	-0.108
-646.755	207.189	-0.098	-0.154
-645.741	-200.000	-0.009	-0.192
-644.726	-200.000	0.022	-0.350
-643.711	740.198	-0.103	0.278
-642.697	-176.649	-0.262	-0.007
-641.682	-200.000	-0.014	-0.386
-640.668	160.277	-0.200	-0.281
-639.653	-98.710	-0.412	-0.106
-638.638	737.245	0.139	0.375
-637.624	84.268	-0.068	-0.075
-636.609	-74.299	-0.272	0.099
-635.595	800.000	-0.018	-0.065
-634.580	158.880	0.086	0.120
-633.565	477.015	0.065	0.149
-632.551	153.940	-0.187	0.259
-631.536	129.326	0.013	-0.016
-630.522	-113.868	-0.207	0.040
-629.507	-200.000	-0.036	0.461
-628.492	382.840	-0.082	-0.169
-627.478	-200.000	0.136	0.000
-626.463	-200.000	-0.021	0.155
-625.449	102.201	0.105	0.123
-624.434	-102.501	0.106	-0.026
-623.419	-60.009	0.202	0.087
-622.405	-95.578	-0.130	-0.035
-621.390	-24.574	-0.147	-0.088
-620.376	30.445	-0.282	-0.243
-619.361	71.792	0.014	0.014
-618.346	-161.487	-0.194	-0.010
-617.332	42.451	-0.094	0.086
-616.317	7.006	-0.183	-0.137
-615.303	-17.701	-0.162	0.103
-614.288	-200.000	0.013	-0.065
-613.273	142.463	-0.198	0.265
-612.259	800.000	0.081	0.250
-611.244	27.710	-0.426	0.361
-610.230	-200.000	0.044	-0.287
-609.215	224.174	0.095	-0.154
-608.201	256.736	-0.025	-0.043
-607.186	73.233	-0.056	-0.059
-606.171	244.480	0.088	-0.149
-605.157	103.000	-0.098	0.115
-604.142	60.268	-0.260	-0.258
-603.128	-79.317	0.286	-0.097
-602.113	-135.506	-0.410	0.049
-601.098	349.853	0.105	0.209
-600.084	451.713	0.095	-0.210
-599.069	65.005	-0.050	0.051
-598.055	-47.022	0.160	-0.079
-597.040	-200.000	0.022	-0.119
-596.025	267.001	-0.084	0.147
-595.011	-69.201	-0.188	-0.073
-593.996	-18.250	-0.434	-0.273
-592.982	-59.323	-0.321	0.139
-591.967	-11.022	-0.330	-0.219
-590.952	-100.748	-0.138	-0.034
-589.938	-90.243	-0.207	-0.060
-588.923	-64.058	0.251	-0.103
-587.909	81.827	0.181	-0.197
-586.894	-42.439	-0.532	-0.273
-585.879	-20.675	0.129	0.080
-584.865	-161.656	0.114	0.006
-583.850	800.000	-0.026	0.092
-582.836	-42.242	0.178	0.091
-581.821	-63.503	0.198	0.082
-580.806	416.204	-0.119	0.255
-579.792	-99.655	-0.053	0.013
-578.777	-108.591	0.152	-0.033
-577.763	78.121	0.132	-0.142
-576.748	-200.000	0.003	0.015
-575.733	-73.106	0.267	-0.099
-574.719	-61.052	-0.182	-0.077
-573.704	-200.000	0.012	0.229
-572.690	112.930	0.035	-0.043
-571.675	-200.000	0.013	-0.073
-570.661	-15.041	0.191	-0.123
-569.646	-200.000	0.017	0.084
-568.631	147.327	-0.085	0.115
-567.617	60.006	-0.086	-0.086
-566.602	-1.720	0.180	0.127
-565.588	-113.501	-0.254	0.050
-564.573	159.241	0.108	0.151
-563.558	800.000	-0.070	0.196
-562.544	178.918	-0.096	-0.141
-561.529	-48.549	0.159	-0.077
-560.515	175.064	0.150	-0.219
-559.500	-200.000	-0.004	0.149
-558.485	-6.612	-0.052	0.036
-557.471	72.070	-0.157	-0.164
-556.456	800.000	-0.070	0.224
-555.442	800.000	0.052	-0.221
-554.427	69.182	0.143	0.147
-553.412	-173.630	0.156	0.005
-552.398	-167.274	0.166	0.007
-551.383	800.000	0.064	0.195
-550.369	-41.956	0.091	0.047
-549.354	-92.887	0.162	0.045
-548.339	646.086	0.097	-0.248
-547.325	21.149	-0.109	-0.089
-546.310	84.274	-0.065	0.071
-545.296	145.020	-0.169	-0.226
-544.281	-12.937	-0.332	0.217
-543.266	-200.000	-0.005	-0.167
-542.252	-113.883	0.032	0.006
-541.237	-120.972	-0.580	-0.098
-540.223	-108.889	0.106	-0.023
-539.208	-52.287	0.525	0.244
-538.193	16.160	0.023	-0.018
-537.179	-40.856	0.322	0.167
-536.164	9.012	-0.156	0.118
-535.150	58.216	-0.065	-0.064
-534.135	-115.963	0.248	-0.046
-533.121	307.596	0.107	0.200
-532.106	-18.789	-0.121	-0.076
-531.091	-200.000	-0.056	-0.330
-530.077	-200.000	-0.014	0.490
-529.062	243.381	-0.090	0.151
-528.048	46.753	0.190	-0.178
-527.033	-82.254	0.102	0.033
-526.018	-50.687	-0.186	0.088
-525.004	-51.553	-0.093	-0.043
-523.989	78.921	-0.094	-0.101
-522.975	-87.936	0.272	-0.082
-521.960	800.000	-0.087	-0.250
-520.945	-14.929	-0.314	-0.202
-519.931	-200.000	-0.015	0.184
-518.916	182.675	0.060	0.089
-517.902	349.109	-0.095	-0.188
-516.887	281.808	0.032	-0.058
-515.872	800.000	0.071	-0.284
-514.858	-13.520	-0.255	0.165
-513.843	-176.382	-0.255	-0.007
-512.829	643.443	0.096	0.245
-511.814	-60.793	-0.171	0.072
-510.799	-160.506	0.314	0.017
-509.785	88.354	-0.076	-0.084
-508.770	416.192	0.063	-0.136
-507.756	-48.681	-0.246	0.118
-506.741	-99.624	0.112	-0.028
-505.726	291.220	-0.199	-0.363
-504.712	13.950	-0.068	-0.053
-503.697	17.116	-0.052	-0.042
-502.683	800.000	-0.108	0.330
-501.668	157.801	0.085	0.119
-500.653	13.714	0.085	-0.066
-499.639	-200.000	0.060	-0.362
-498.624	85.698	-0.112	-0.124
-497.610	-192.487	-0.228	0.002
-496.595	-64.171	0.181	0.074
-495.581	-93.982	-0.210	-0.058
-494.566	278.543	-0.275	0.492
-493.551	184.904	0.186	-0.277
-492.537	216.624	0.057	-0.091
-491.522	-9.331	0.119	-0.079
-490.508	-200.000	0.060	0.264
-489.493	454.837	0.081	0.180
-488.478	-10.687	0.146	0.097
-487.464	-31.520	0.278	0.157
-486.449	-200.000	-0.020	-0.118
-485.435	-117.999	-0.057	0.010
-484.420	538.593	-0.092	0.220
-483.405	354.126	0.079	0.158
-482.391	518.516	-0.064	-0.151
-481.376	-150.478	-0.139	-0.011
-480.362	-103.036	0.215	0.051
-479.347	116.002	0.172	-0.211
-478.332	344.709	0.136	0.267
-477.318	-200.000	0.015	-0.202
-476.303	249.004	0.126	-0.214
-475.289	-81.369	0.290	-0.096
-474.274	412.646	-0.118	-0.251
-473.259	-64.736	0.387	-0.157
-472.245	-81.351	-0.106	-0.035
-471.230	-200.000	-0.010	-0.421
-470.216	-164.758	-0.144	-0.006
-469.201	449.174	-0.094	-0.208
-468.186	-101.659	-0.233	0.057
-467.172	-155.646	0.070	0.005
-466.157	-169.250	0.091	-0.003
-465.143	-200.000	0.043	-0.450
-464.128	-134.652	0.477	0.058
-463.113	-43.412	0.214	-0.108
-462.099	-80.844	-0.369	0.123
-461.084	372.210	-0.095	0.192
-460.070	-125.247	-0.172	0.026
-459.055	-89.314	-0.279	-0.082
-458.040	-200.000	-0.051	-0.380
-457.026	800.000	-0.160	-0.487
-456.011	-200.000	-0.034	-0.332
-454.997	-66.388	0.247	-0.098
-453.982	36.455	-0.045	-0.039
-452.968	59.479	0.215	-0.212
-451.953	108.732	-0.037	0.044
-450.938	-200.000	-0.063	-0.288
-449.924	10.887	-0.401	0.307
-448.909	800.000	-0.084	0.336
-447.895	-110.998	-0.064	0.013
-446.880	274.818	-0.048	-0.086
-445.865	502.430	-0.072	-0.166
-444.851	-26.252	0.247	-0.145
-443.836	-74.222	-0.325	0.118
-442.822	-168.213	-0.128	0.005
-441.807	287.826	0.117	-0.212
-440.792	-137.122	0.149	-0.017
-439.778	-97.160	-0.263	-0.069
-438.763	174.884	-0.099	0.143
-437.749	-200.000	-0.002	0.014
-436.734	-200.000	0.017	-0.375
-435.719	217.375	0.225	-0.358
-434.705	-99.163	-0.177	0.045
-433.690	51.141	0.105	0.100
-432.676	-83.790	-0.111	0.035
-431.661	-49.487	-0.159	0.076
-430.646	-111.600	-0.085	-0.017
-429.632	-21.952	0.250	0.152
-428.617	-22.753	0.361	-0.218
-427.603	501.011	0.154	-0.356
-426.588	5.239	0.194	-0.143
-425.573	-200.000	0.007	0.170
-424.559	800.000	-0.068	0.280
-423.544	-200.000	-0.000	0.333
-422.530	177.028	0.088	0.127
-421.515	86.427	0.065	0.072
-420.500	800.000	0.072	0.307
-419.486	-32.992	0.139	0.077
-418.471	-200.000	0.016	0.071
-417.457	6.930	-0.212	-0.158
-416.442	169.880	0.160	-0.229
-415.428	-119.120	0.030	0.005
-414.413	-200.000	0.007	0.033
-413.398	-107.445	-0.146	0.032
-412.384	-62.472	0.157	0.065
-411.369	238.233	-0.192	-0.318
-410.355	-42.311	0.093	-0.047
-409.340	800.000	-0.072	0.237
-408.325	800.000	0.085	-0.245
-407.311	800.000	0.022	-0.086
-406.296	-178.966	0.127	0.003
-405.282	156.087	-0.123	0.169
-404.267	50.481	0.036	0.034
-403.252	-167.208	0.259	0.010
-402.238	-63.997	0.209	-0.085
-401.223	-200.000	-0.019	-0.134
-400.209	88.255	-0.145	-0.161
-399.194	766.057	0.080	0.217
-398.179	-200.000	0.020	0.511
-397.165	-115.909	-0.187	-0.035
-396.150	-110.111	-0.273	-0.057
-395.136	563.204	0.093	0.224
-394.121	29.339	0.149	-0.126
-393.106	5.330	-0.252	-0.185
-392.092	-6.039	0.265	0.181
-391.077	-159.169	0.017	0.001
-390.063	53.592	-0.048	0.046
-389.048	-107.447	0.198	-0.043
-388.033	800.000	-0.023	0.082
-387.019	-157.750	0.141	0.008
-386.004	-100.696	-0.294	0.072
-384.990	-33.493	-0.305	0.168
-383.975	-81.423	-0.327	-0.108
-382.960	800.000	0.098	-0.280
-381.946	643.095	-0.067	0.172
-380.931	-144.153	0.158	0.015
-379.917	-8.596	0.064	0.043
-378.902	75.498	-0.210	0.221
-377.888	160.414	-0.099	-0.138
-376.873	89.828	0.089	-0.099
-375.858	800.000	0.006	0.018
-374.844	-42.706	0.274	0.139
-373.829	-200.000	0.038	0.487
-372.815	611.327	0.065	0.163
-371.800	-200.000	0.006	-0.145
-370.785	-116.897	-0.048	-0.009
-369.771	3.563	-0.057	-0.041
-368.756	88.250	-0.175	-0.194
-367.742	116.545	0.127	0.155
-366.727	800.000	0.002	0.009
-365.712	-42.861	0.148	0.075
-364.698	-101.941	0.313	0.075
-363.683	-200.000	-0.007	0.089
-362.669	19.057	0.061	0.049
-361.654	-50.595	-0.146	-0.069
-360.639	-167.353	0.272	-0.011
-359.625	800.000	-0.026	0.092
-358.610	572.469	0.081	0.196
-357.596	-89.996	-0.194	-0.056
-356.581	-106.618	0.074	-0.016
-355.566	-200.000	0.003	-0.275
-354.552	191.384	0.121	0.181
-353.537	148.155	-0.252	0.339
-352.523	213.552	-0.195	-0.308
-351.508	288.972	-0.210	-0.380
-350.493	298.602	-0.116	0.213
-349.479	787.123	-0.130	-0.355
-348.464	800.000	-0.045	-0.127
-347.450	-175.026	0.308	-0.009
-346.435	-78.826	0.074	-0.025
-345.420	15.057	-0.222	-0.173
-344.406	-200.000	0.019	0.186
-343.391	550.094	-0.199	-0.474
-342.377	38.899	-0.200	-0.178
-341.362	-27.899	-0.251	-0.145
-340.348	-200.000	0.299	0.000
-339.333	-200.000	0.051	0.264
-338.318	191.699	0.086	-0.128
-337.304	-65.057	-0.089	0.036
-336.289	15.458	-0.274	0.214
-335.275	-200.000	0.034	-0.348
-334.260	-200.000	-0.009	-0.239
-333.245	109.311	0.062	-0.074
-332.231	-76.446	0.271	-0.095
-331.216	105.287	0.143	0.169
-330.202	-200.000	-0.026	0.177
-329.187	-200.000	0.017	-0.428
-328.172	-200.000	-0.020	-0.319
-327.158	223.326	-0.069	0.111
-326.143	-200.000	-0.018	0.109
-325.129	-200.000	0.004	0.233
-324.114	752.257	0.037	0.099
-323.099	-200.000	-0.044	-0.255
-322.085	-200.000	-0.013	0.074
-321.070	59.535	-0.104	-0.102
-320.056	-198.224	0.244	-0.001
-319.041	-4.180	0.155	-0.107
-318.026	578.717	-0.115	0.280
-317.012	-188.987	-0.330	-0.004
-315.997	800.000	0.108	0.433
-314.983	-200.000	0.017	0.098
-313.968	579.818	0.105	-0.256
-312.953	318.050	-0.108	-0.204
-311.939	800.000	0.104	0.411
-310.924	342.486	-0.109	-0.212
-309.910	362.631	0.139	0.277
-308.895	-109.538	0.168	-0.035
-307.880	248.285	-0.224	-0.376
-306.866	28.019	0.165	-0.139
-305.851	800.000	0.018	0.069
-304.837	-8.567	0.201	0.134
-303.822	-73.256	0.239	0.087
-302.807	30.992	0.290	0.248
-301.793	-66.895	0.311	0.122
-300.778	204.276	0.228	-0.351
-299.764	-161.572	0.252	0.013
-298.749	151.077	0.142	-0.193
-297.735	-14.543	0.245	0.157
-296.720	-158.733	0.241	0.014
-295.705	-200.000	0.051	0.239
-294.691	-30.794	-0.250	0.140
-293.676	800.000	-0.021	-0.085
-292.662	29.280	0.281	0.237
-291.647	-13.810	-0.416	0.267
-290.632	-18.405	-0.169	-0.105
-289.618	-200.000	0.009	0.207
-288.603	108.459	0.143	-0.170
-287.589	172.838	-0.102	0.146
-286.574	195.369	-0.019	-0.028
-285.559	-200.000	0.011	-0.118
-284.545	70.434	0.210	0.215
-283.530	-86.716	-0.310	-0.094
-282.516	-62.861	-0.094	-0.039
-281.501	-20.410	0.015	0.009
-280.486	136.013	0.186	0.241
-279.472	161.539	0.056	-0.079
-278.457	-28.899	0.089	0.051
-277.443	116.709	-0.127	-0.155
-276.428	-66.790	-0.227	0.089
-275.413	218.832	-0.133	0.212
-274.399	-200.000	-0.079	0.379
-273.384	24.897	0.155	0.128
-272.370	232.371	0.057	0.092
-271.355	443.093	0.063	-0.138
-270.340	12.983	-0.250	0.192
-269.326	-200.000	0.017	0.083
-268.311	652.415	-0.084	-0.215
-267.297	26.666	-0.170	-0.142
-266.282	-48.961	0.254	0.121
-265.267	78.148	0.106	-0.112
-264.253	-141.723	-0.033	0.003
-263.238	800.000	-0.035	-0.123
-262.224	-181.977	0.374	0.007
-261.209	800.000	-0.097	0.347
-260.195	684.134	-0.055	-0.142
-259.180	74.413	-0.119	0.124
-258.165	62.019	-0.180	0.178
-257.151	179.103	0.244	-0.354
-256.136	-133.325	-0.207	0.026
-255.122	-103.801	-0.171	0.040
-254.107	161.546	0.125	-0.174
-253.092	4.286	0.009	-0.007
-252.078	534.142	0.100	-0.234
-251.063	-200.000	-0.021	-0.109
-250.049	-200.000	0.008	0.074
-249.034	176.469	-0.068	-0.098
-248.019	-200.000	-0.002	-0.138
-247.005	15.010	0.118	0.091
-245.990	451.220	-0.051	0.111
-244.976	-200.000	-0.038	-0.193
-243.961	-107.528	-0.106	0.023
-242.946	800.000	0.056	-0.172
-241.932	-60.718	0.231	0.097
-240.917	-200.000	-0.317	0.002
-239.903	800.000	0.040	-0.135
-238.888	-155.085	0.390	-0.025
-237.873	800.000	-0.024	-0.085
-236.859	800.000	-0.064	-0.223
-235.844	-14.660	-0.207	0.132
-234.830	12.316	0.123	0.094
-233.815	9.548	-0.257	0.193
-232.800	348.899	-0.041	-0.081
-231.786	-99.141	0.109	-0.027
-230.771	-128.317	-0.187	-0.026
-229.757	80.025	0.230	0.246
-228.742	-92.440	0.148	-0.041
-227.727	-200.000	0.010	-0.073
-226.713	800.000	-0.096	0.345
-225.698	40.130	-0.197	0.176
-224.684	34.683	0.080	-0.069
-223.669	-43.224	0.135	-0.068
-222.655	-200.000	-0.050	-0.425
-221.640	54.964	0.252	0.242
-220.625	800.000	0.061	0.174
-219.611	157.632	-0.086	0.118
-218.596	-85.331	-0.165	-0.051
-217.582	-200.000	0.064	-0.304
-216.567	-2.398	-0.134	0.093
-215.552	462.010	-0.143	0.317
-214.538	-81.321	0.096	-0.031
-213.523	-51.261	-0.071	0.033
-212.509	-141.297	0.361	-0.036
-211.494	458.426	-0.086	0.189
-210.479	93.913	0.087	-0.098
-209.465	-200.000	-0.003	0.175
-208.450	800.000	0.050	-0.187
-207.436	-200.000	0.007	0.218
-206.421	-55.775	0.031	-0.014
-205.406	3.420	0.255	0.184
-204.392	-200.000	0.123	-0.000
-203.377	-132.584	0.483	-0.061
-202.363	-26.507	-0.156	-0.090
-201.348	-139.005	-0.217	-0.023
-200.333	0.247	0.167	-0.118
-199.319	-200.000	0.056	0.477
-198.304	-19.206	0.288	0.177
-197.290	800.000	0.029	-0.107
-196.275	-7.849	-0.334	0.223
-195.260	-3.721	-0.213	0.147
-194.246	613.522	0.022	-0.054
-193.231	-7.362	0.148	0.099
-192.217	-126.072	-0.153	0.023
-191.202	800.000	-0.051	0.196
-190.187	-16.481	-0.110	0.069
-189.173	-82.143	-0.132	-0.043
-188.158	-97.398	0.067	-0.017
-187.144	-75.392	-0.337	-0.119
-186.129	-24.103	-0.307	0.181
-185.114	-16.957	0.408	0.255
-184.100	-117.263	-0.100	0.018
-183.085	138.775	0.024	-0.031
-182.071	247.705	0.053	0.089
-181.056	66.614	0.189	0.190
-180.042	-32.166	0.263	0.145
-179.027	-159.369	0.155	-0.009
-178.012	-90.567	0.356	0.102
-176.998	-19.403	0.222	-0.136
-175.983	-148.541	0.398	0.032
-174.969	18.780	-0.106	0.084
-173.954	25.400	0.099	-0.081
-172.939	-200.000	-0.010	0.327
-171.925	-89.717	0.369	-0.107
-170.910	-121.647	-0.212	0.035
-169.896	800.000	0.080	-0.240
-168.881	118.130	-0.187	-0.228
-167.866	-200.000	-0.002	-0.103
-166.852	385.190	-0.084	0.172
-165.837	299.930	0.057	0.104
-164.823	800.000	-0.039	-0.137
-163.808	800.000	-0.071	0.202
-162.793	769.583	0.036	0.097
-161.779	-82.518	0.078	-0.025
-160.764	-75.385	-0.135	0.048
-159.750	-167.043	0.241	-0.010
-158.735	-131.455	0.061	-0.008
-157.720	-200.000	-0.011	-0.084
-156.706	800.000	-0.015	0.056
-155.691	-74.034	0.326	0.117
-154.677	21.933	-0.123	0.099
-153.662	-200.000	0.006	0.187
-152.647	97.212	0.199	0.226
-151.633	-145.304	-0.264	-0.024
-150.618	57.401	-0.151	-0.146
-149.604	104.808	-0.123	0.143
-148.589	523.588	-0.052	-0.120
-147.574	800.000	0.038	-0.135
-146.560	800.000	-0.049	-0.168
-145.545	800.000	0.038	-0.120
-144.531	-109.086	0.242	-0.051
-143.516	-200.000	-0.020	-0.291
-142.502	57.015	0.103	-0.099
-141.487	-49.746	0.067	-0.031
-140.472	181.566	-0.142	0.206
-139.458	800.000	-0.008	-0.032
-138.443	443.254	-0.163	0.353
-137.429	148.660	-0.172	-0.229
-136.414	-123.757	-0.342	-0.053
-135.399	38.858	-0.075	0.066
-134.385	800.000	-0.072	0.309
-133.370	800.000	0.029	-0.097
-132.356	800.000	-0.018	0.069
-131.341	-79.949	0.400	0.133
-130.326	-100.748	-0.041	-0.010
-129.312	32.614	-0.126	0.108
-128.297	101.332	-0.270	-0.311
-127.283	225.784	-0.133	0.213
-126.268	31.885	0.053	-0.045
-125.253	-200.000	0.009	0.376
-124.239	-128.733	0.145	-0.020
-123.224	-45.039	0.346	0.170
-122.210	143.085	-0.098	0.129
-121.195	50.107	0.135	0.126
