DTS Sentinel unit serial number:	SN413079Multiplexer serial number:	ORYXHardware model number:	OX4-SRSoftware version number:	ORYX F/W v4.00 Oryx Data Collector v3.7.2.0data status	okinstallation	princeton_trtdifferential loss correction	single-endedforward channel	channel 1reverse channel	N/Adate	2019/09/10time	17:40:11forward acquisition time	60.00reverse acquisition time	0.00gamma	496.2192k internal	0.2299k external	0.2299temperature offset calibration	0.9922default loss term (dB/km)	0.3790temperature slope calibration	1.0000multiplexer offset coefficient	1.0000multiplexer slope coefficient	1.0000fibre end	0.00T internal ref (°C)	37.62T ext. ref 1 (°C)	-0.34T ext. ref 2 (°C)	31.27length (m)	temperature (°C)	Stokes	anti-Stokes-747.200	49.073	0.199	0.191
-746.185	278.219	0.126	0.229
-745.171	-159.377	-0.389	-0.022
-744.156	123.895	-0.291	0.373
-743.142	-86.047	-0.425	0.134
-742.127	247.696	0.159	0.274
-741.112	164.594	-0.116	-0.167
-740.098	742.784	-0.087	0.240
-739.083	-44.798	0.108	-0.055
-738.069	198.478	0.227	0.354
-737.054	217.295	-0.071	0.115
-736.039	-127.859	-0.587	-0.086
-735.025	-200.000	-0.083	0.527
-734.010	-200.000	0.068	0.606
-732.996	-47.204	0.224	0.111
-731.981	294.731	-0.179	-0.335
-730.966	678.669	-0.034	-0.090
-729.952	-71.548	-0.291	-0.111
-728.937	-200.000	-0.002	0.423
-727.923	258.197	-0.100	0.175
-726.908	-46.040	-0.363	0.182
-725.894	10.853	-0.141	0.110
-724.879	800.000	-0.008	-0.030
-723.864	-76.368	0.233	-0.084
-722.850	-80.950	-0.169	-0.057
-721.835	-200.000	0.022	-0.206
-720.821	-5.648	-0.126	-0.088
-719.806	-200.000	-0.013	0.129
-718.791	-81.034	-0.394	-0.133
-717.777	-200.000	0.061	0.281
-716.762	800.000	0.075	-0.217
-715.748	-45.624	-0.117	0.059
-714.733	-94.613	-0.213	0.059
-713.718	21.619	0.267	-0.221
-712.704	473.413	0.183	-0.421
-711.689	452.608	0.042	0.094
-710.675	222.963	-0.061	0.101
-709.660	94.565	-0.128	-0.148
-708.645	511.901	-0.122	0.289
-707.631	-127.490	0.264	0.039
-706.616	800.000	0.063	0.238
-705.602	-200.000	0.072	0.388
-704.587	134.817	0.112	-0.148
-703.572	340.656	-0.174	-0.347
-702.558	-1.017	0.158	-0.114
-701.543	92.508	-0.164	-0.188
-700.529	-185.273	-0.155	-0.002
-699.514	-200.000	-0.012	-0.094
-698.499	-200.000	0.070	-0.419
-697.485	-103.429	0.051	-0.012
-696.470	-200.000	0.008	0.055
-695.456	-119.290	-0.228	-0.040
-694.441	-39.007	-0.145	-0.078
-693.426	448.863	-0.127	-0.285
-692.412	-97.055	-0.156	0.042
-691.397	65.147	0.094	-0.097
-690.383	773.785	-0.029	-0.082
-689.368	168.376	-0.107	-0.155
-688.354	-17.623	0.454	0.290
-687.339	361.011	0.095	0.194
-686.324	3.928	-0.083	0.061
-685.310	-153.489	0.023	-0.002
-684.295	621.929	0.077	0.198
-683.281	800.000	0.128	-0.362
-682.266	-146.785	-0.263	-0.023
-681.251	-200.000	-0.013	0.110
-680.237	-125.236	0.107	-0.017
-679.222	66.533	-0.189	-0.196
-678.208	112.733	0.182	0.225
-677.193	44.194	0.267	-0.249
-676.178	162.870	0.091	0.130
-675.164	-23.606	0.106	-0.065
-674.149	-200.000	-0.042	0.392
-673.135	800.000	-0.052	-0.161
-672.120	-169.752	-0.306	0.011
-671.105	-41.271	-0.048	0.025
-670.091	-132.663	0.397	0.052
-669.076	3.225	0.232	0.171
-668.062	50.232	0.260	0.250
-667.047	-122.467	-0.140	0.023
-666.032	800.000	-0.077	-0.262
-665.018	-200.000	0.209	-0.001
-664.003	-81.914	-0.284	-0.094
-662.989	35.213	0.415	0.370
-661.974	-200.000	0.035	-0.231
-660.959	-29.813	-0.265	0.154
-659.945	160.035	0.202	0.286
-658.930	-200.000	-0.079	-0.392
-657.916	25.538	-0.153	0.129
-656.901	-200.000	0.046	0.209
-655.886	88.651	-0.059	0.067
-654.872	37.592	0.114	0.103
-653.857	-51.916	-0.128	0.060
-652.843	-41.361	0.263	0.138
-651.828	250.648	-0.065	-0.113
-650.814	282.140	0.058	0.106
-649.799	-200.000	-0.030	-0.135
-648.784	694.358	0.067	-0.179
-647.770	16.506	0.146	-0.117
-646.755	72.525	0.195	0.207
-645.741	47.300	-0.260	-0.246
-644.726	800.000	-0.072	-0.226
-643.711	-200.000	-0.042	0.213
-642.697	289.837	0.193	-0.355
-641.682	252.504	0.080	-0.139
-640.668	5.013	0.274	0.205
-639.653	49.427	0.104	-0.099
-638.638	-91.819	0.080	0.023
-637.624	800.000	0.062	-0.178
-636.609	-56.259	0.054	0.024
-635.595	122.977	0.170	0.216
-634.580	800.000	0.073	0.279
-633.565	-9.739	-0.125	0.084
-632.551	-98.651	0.155	-0.040
-631.536	800.000	-0.152	0.524
-630.522	800.000	0.016	0.063
-629.507	37.848	0.089	-0.081
-628.492	223.597	0.083	0.136
-627.478	800.000	0.056	0.197
-626.463	205.186	-0.088	0.139
-625.449	411.268	-0.044	0.095
-624.434	-200.000	0.013	-0.162
-623.419	-150.872	0.487	-0.037
-622.405	25.542	-0.058	-0.049
-621.390	118.241	-0.150	-0.188
-620.376	-159.988	-0.319	0.018
-619.361	-200.000	0.015	-0.072
-618.346	800.000	0.089	-0.325
-617.332	-141.182	-0.275	0.028
-616.317	-77.463	-0.300	-0.106
-615.303	-92.095	-0.320	-0.092
-614.288	-132.892	0.340	0.044
-613.273	-64.131	-0.153	-0.063
-612.259	127.855	0.065	-0.083
-611.244	212.305	-0.210	0.336
-610.230	39.530	-0.169	-0.153
-609.215	-16.695	-0.436	0.280
-608.201	-200.000	0.028	-0.268
-607.186	-37.147	0.268	-0.146
-606.171	-79.068	-0.025	-0.009
-605.157	-92.159	0.229	0.066
-604.142	-88.207	-0.444	0.135
-603.128	-127.871	-0.081	-0.012
-602.113	-107.031	0.255	-0.057
-601.098	-38.421	-0.231	0.124
-600.084	41.016	0.228	-0.208
-599.069	-12.037	-0.190	0.126
-598.055	-48.785	-0.219	-0.107
-597.040	46.097	0.175	0.164
-596.025	23.439	0.097	0.081
-595.011	800.000	0.062	-0.195
-593.996	34.486	0.434	0.384
-592.982	9.001	0.159	0.122
-591.967	-91.227	-0.109	-0.032
-590.952	-28.550	-0.129	0.075
-589.938	205.701	-0.127	0.200
-588.923	-98.895	0.490	-0.126
-587.909	335.567	-0.053	0.104
-586.894	325.684	-0.119	0.231
-585.879	-200.000	0.050	-0.295
-584.865	-96.189	-0.254	0.068
-583.850	328.391	0.062	-0.120
-582.836	-77.569	-0.298	-0.105
-581.821	-99.063	0.184	-0.047
-580.806	800.000	-0.073	-0.228
-579.792	430.630	0.258	0.567
-578.777	-96.289	-0.121	0.032
-577.763	-67.234	-0.181	0.072
-576.748	-125.881	0.364	0.056
-575.733	128.085	0.101	0.131
-574.719	800.000	-0.090	0.385
-573.704	-200.000	0.044	-0.226
-572.690	-200.000	0.038	0.178
-571.675	-141.966	0.025	-0.002
-570.661	-86.260	-0.435	-0.136
-569.646	-142.632	-0.401	-0.040
-568.631	745.471	0.089	0.242
-567.617	800.000	-0.064	-0.259
-566.602	25.827	-0.270	0.228
-565.588	-200.000	0.067	0.332
-564.573	-200.000	-0.010	-0.250
-563.558	-15.813	-0.181	-0.117
-562.544	-18.006	0.036	-0.023
-561.529	800.000	-0.043	0.143
-560.515	800.000	-0.055	0.207
-559.500	-74.149	0.064	-0.023
-558.485	-132.217	0.165	0.022
-557.471	-200.000	0.009	0.063
-556.456	33.217	-0.334	-0.293
-555.442	81.617	0.116	0.127
-554.427	-29.438	0.262	-0.152
-553.412	-200.000	0.067	-0.345
-552.398	9.775	-0.259	0.199
-551.383	-109.923	0.276	0.059
-550.369	-159.002	0.167	-0.010
-549.354	-131.582	0.094	-0.013
-548.339	-137.663	0.238	-0.027
-547.325	-62.562	-0.237	0.100
-546.310	-200.000	-0.008	0.082
-545.296	67.059	0.182	0.188
-544.281	-200.000	-0.016	0.199
-543.266	33.342	0.148	-0.130
-542.252	460.112	0.181	0.407
-541.237	-113.961	0.251	0.049
-540.223	62.420	-0.037	0.038
-539.208	94.716	0.207	-0.238
-538.193	-160.948	0.202	0.011
-537.179	-86.607	-0.051	0.016
-536.164	-47.334	0.110	0.054
-535.150	-145.339	0.239	-0.022
-534.135	30.803	0.134	-0.116
-533.121	738.561	-0.049	0.134
-532.106	-99.767	-0.163	-0.041
-531.091	66.375	0.108	-0.111
-530.077	428.858	-0.046	-0.101
-529.062	-200.000	-0.002	0.227
-528.048	354.667	-0.066	0.132
-527.033	-200.000	-0.017	0.131
-526.018	50.731	0.115	-0.110
-525.004	-90.821	-0.094	-0.027
-523.989	-92.682	-0.192	-0.054
-522.975	-61.314	0.234	0.100
-521.960	-63.475	-0.220	0.091
-520.945	-36.679	-0.177	0.096
-519.931	94.759	-0.246	0.283
-518.916	-200.000	0.025	-0.330
-517.902	-175.421	-0.223	-0.006
-516.887	160.916	-0.081	-0.114
-515.872	71.540	0.327	0.343
-514.858	-138.954	-0.323	0.036
-513.843	111.187	-0.017	0.021
-512.829	35.299	0.116	-0.103
-511.814	-86.798	0.211	-0.065
-510.799	62.096	0.025	-0.026
-509.785	-200.000	-0.051	-0.373
-508.770	800.000	0.065	0.212
-507.756	800.000	0.026	0.091
-506.741	-68.035	-0.193	-0.076
-505.726	136.275	-0.158	0.208
-504.712	-9.693	-0.127	0.086
-503.697	367.365	-0.171	0.348
-502.683	44.523	0.139	-0.129
-501.668	-71.164	0.329	0.125
-500.653	-94.981	-0.029	0.008
-499.639	173.887	0.168	0.245
-498.624	-14.566	0.030	0.020
-497.610	5.869	0.239	0.179
-496.595	-143.113	0.160	-0.016
-495.581	-200.000	0.032	-0.220
-494.566	31.012	-0.288	0.249
-493.551	382.246	0.113	-0.235
-492.537	800.000	-0.059	-0.182
-491.522	-116.775	-0.109	-0.020
-490.508	-14.349	-0.360	-0.234
-489.493	800.000	0.041	0.128
-488.478	328.976	-0.081	0.157
-487.464	322.681	0.049	0.093
-486.449	-109.429	0.337	-0.072
-485.435	216.394	0.088	0.141
-484.420	-65.493	0.212	-0.086
-483.405	742.328	0.122	-0.332
-482.391	-1.405	0.321	-0.228
-481.376	-200.000	0.084	0.454
-480.362	-200.000	-0.008	-0.094
-479.347	335.368	-0.109	-0.214
-478.332	204.522	-0.179	-0.280
-477.318	-58.981	0.177	-0.077
-476.303	-200.000	-0.017	-0.138
-475.289	800.000	0.030	0.097
-474.274	800.000	-0.102	0.300
-473.259	-70.473	0.246	-0.094
-472.245	62.237	0.191	-0.192
-471.230	800.000	0.040	-0.141
-470.216	99.856	0.140	-0.163
-469.201	-63.289	0.077	0.032
-468.186	-200.000	0.016	-0.305
-467.172	-37.093	0.055	0.030
-466.157	346.958	-0.169	-0.335
-465.143	800.000	-0.121	-0.404
-464.128	-200.000	-0.103	0.000
-463.113	-122.972	0.120	0.020
-462.099	58.399	-0.050	0.049
-461.084	800.000	0.055	-0.243
-460.070	-94.274	-0.257	0.071
-459.055	-39.874	-0.468	0.247
-458.040	-67.938	0.558	-0.220
-457.026	29.521	0.055	0.047
-456.011	128.938	0.128	-0.164
-454.997	-200.000	-0.008	0.311
-453.982	800.000	-0.032	0.088
-452.968	714.447	-0.090	-0.240
-451.953	-101.198	-0.092	-0.023
-450.938	-66.575	-0.230	-0.092
-449.924	20.613	-0.304	-0.248
-448.909	-200.000	0.011	0.133
-447.895	35.731	0.176	-0.156
-446.880	661.880	0.035	0.090
-445.865	-49.432	-0.105	0.051
-444.851	333.851	-0.218	-0.426
-443.836	-80.555	-0.564	-0.189
-442.822	39.242	0.115	-0.104
-441.807	-200.000	-0.021	-0.222
-440.792	-200.000	0.015	-0.176
-439.778	78.347	0.195	-0.209
-438.763	-200.000	-0.067	0.318
-437.749	-171.323	-0.175	-0.006
-436.734	-25.246	0.186	-0.111
-435.719	-19.054	0.182	-0.114
-434.705	-177.144	0.245	0.006
-433.690	-105.096	0.043	0.010
-432.676	-39.484	-0.204	0.108
-431.661	123.553	-0.126	0.159
-430.646	43.000	-0.127	-0.117
-429.632	-14.640	-0.325	-0.210
-428.617	-17.748	-0.095	0.060
-427.603	21.106	0.078	0.063
-426.588	-142.236	-0.130	-0.013
-425.573	-94.822	-0.158	-0.043
-424.559	800.000	0.064	0.233
-423.544	464.255	0.107	0.242
-422.530	-93.869	0.098	0.027
-421.515	171.969	0.153	0.222
-420.500	128.155	0.209	-0.268
-419.486	-159.086	0.505	-0.029
-418.471	148.697	0.098	0.133
-417.457	54.106	0.216	0.209
-416.442	-111.242	0.225	-0.046
-415.428	800.000	0.148	0.437
-414.413	-104.794	-0.325	0.075
-413.398	-118.344	0.157	-0.028
-412.384	-200.000	0.036	-0.200
-411.369	-104.568	-0.297	-0.069
-410.355	-200.000	0.009	0.098
-409.340	-20.162	0.044	-0.028
-408.325	153.683	0.077	-0.106
-407.311	34.923	0.228	-0.201
-406.296	-29.754	-0.164	-0.094
-405.282	-200.000	-0.010	-0.126
-404.267	-12.150	0.178	0.117
-403.252	800.000	0.127	0.402
-402.238	800.000	-0.154	-0.474
-401.223	-200.000	0.004	-0.165
-400.209	-133.740	-0.281	0.035
-399.194	800.000	0.041	-0.117
-398.179	-141.466	0.356	-0.036
-397.165	5.584	-0.229	0.170
-396.150	-200.000	0.071	-0.475
-395.136	-71.224	-0.381	0.144
-394.121	-85.845	0.201	0.063
-393.106	-114.371	-0.134	-0.026
-392.092	430.582	-0.103	-0.224
-391.077	113.709	-0.096	-0.117
-390.063	73.976	-0.178	-0.188
-389.048	79.613	0.092	0.100
-388.033	28.158	-0.143	-0.122
-387.019	137.288	0.207	0.273
-386.004	-165.893	-0.377	0.016
-384.990	-200.000	0.044	0.221
-383.975	-133.309	0.127	-0.016
-382.960	-149.997	0.309	0.024
-381.946	-131.135	-0.123	0.016
-380.931	-11.759	0.234	0.154
-379.917	-48.670	-0.268	0.130
-378.902	-53.593	-0.121	0.055
-377.888	-139.892	-0.034	0.004
-376.873	-156.846	-0.051	0.003
-375.858	261.926	0.104	-0.181
-374.844	-200.000	0.004	0.064
-373.829	800.000	0.030	-0.089
-372.815	140.162	0.134	-0.178
-371.800	-30.964	0.323	-0.183
-370.785	-69.567	0.166	0.064
-369.771	93.144	0.083	-0.094
-368.756	-160.881	-0.037	0.002
-367.742	346.220	-0.239	0.473
-366.727	58.225	-0.048	-0.047
-365.712	23.213	-0.254	0.210
-364.698	27.291	-0.145	0.122
-363.683	-14.776	0.067	-0.043
-362.669	-98.410	-0.167	0.043
-361.654	474.914	-0.024	-0.055
-360.639	-200.000	-0.014	0.099
-359.625	800.000	0.022	0.084
-358.610	-47.166	-0.186	0.091
-357.596	-200.000	-0.032	0.333
-356.581	-118.075	0.285	0.051
-355.566	-11.923	-0.170	0.112
-354.552	17.254	-0.115	0.092
-353.537	-109.665	-0.090	0.019
-352.523	-96.585	0.252	0.067
-351.508	108.911	-0.053	-0.063
-350.493	-92.823	-0.192	-0.054
-349.479	-58.557	-0.259	-0.113
-348.464	-200.000	-0.025	0.256
-347.450	-0.298	-0.175	0.125
-346.435	281.923	0.125	0.226
-345.420	-76.067	0.376	0.133
-344.406	800.000	-0.111	0.396
-343.391	283.036	-0.114	-0.206
-342.377	201.338	-0.100	0.155
-341.362	-3.738	0.174	0.121
-340.348	-51.150	-0.299	0.141
-339.333	800.000	0.031	-0.089
-338.318	-10.372	-0.092	0.061
-337.304	-73.814	0.230	0.084
-336.289	-112.055	0.187	0.038
-335.275	-14.075	0.196	-0.127
-334.260	425.821	-0.159	-0.344
-333.245	800.000	0.043	-0.175
-332.231	-83.658	0.230	-0.074
-331.216	-200.000	-0.021	-0.212
-330.202	-152.525	-0.043	-0.003
-329.187	28.238	-0.117	0.099
-328.172	-200.000	-0.014	-0.068
-327.158	-190.918	0.262	0.003
-326.143	7.189	0.154	-0.115
-325.129	-60.880	-0.211	-0.089
-324.114	800.000	0.065	-0.182
-323.099	-44.539	0.291	0.146
-322.085	800.000	0.112	-0.317
-321.070	800.000	0.103	-0.329
-320.056	-111.618	-0.100	-0.020
-319.041	-58.595	0.335	-0.146
-318.026	-63.063	0.062	0.026
-317.012	-200.000	-0.042	0.296
-315.997	-200.000	-0.072	-0.376
-314.983	-77.347	0.455	-0.159
-313.968	397.294	0.121	-0.254
-312.953	-131.675	0.254	-0.033
-311.939	-200.000	0.000	-0.107
-310.924	800.000	-0.105	-0.308
-309.910	60.040	0.105	0.105
-308.895	-90.823	0.221	-0.064
-307.880	-73.530	0.110	0.040
-306.866	484.935	-0.121	0.276
-305.851	-176.051	-0.163	0.004
-304.837	-130.286	0.136	-0.018
-303.822	800.000	0.036	-0.135
-302.807	148.907	-0.173	-0.235
-301.793	-200.000	-0.020	0.177
-300.778	3.405	0.034	0.025
-299.764	-200.000	0.023	-0.111
-298.749	643.623	-0.046	0.116
-297.735	157.500	-0.044	-0.061
-296.720	-200.000	-0.041	0.246
-295.705	-34.044	0.276	0.152
-294.691	-56.425	0.137	-0.061
-293.676	-85.525	0.208	0.065
-292.662	796.104	0.131	-0.362
-291.647	202.740	0.050	-0.077
-290.632	494.056	-0.023	0.052
-289.618	584.979	0.050	0.123
-288.603	-200.000	-0.017	-0.093
-287.589	-200.000	-0.013	-0.230
-286.574	-107.698	-0.110	-0.024
-285.559	-200.000	0.033	0.277
-284.545	632.712	-0.076	0.194
-283.530	172.658	-0.259	0.373
-282.516	-200.000	0.018	0.132
-281.501	355.439	-0.162	0.323
-280.486	800.000	0.011	0.050
-279.472	326.858	0.035	-0.068
-278.457	-24.607	0.398	0.237
-277.443	141.759	0.118	0.157
-276.428	-84.486	-0.048	-0.015
-275.413	-143.742	0.177	-0.017
-274.399	-40.200	-0.136	0.071
-273.384	-107.731	-0.385	0.084
-272.370	-57.227	0.271	-0.120
-271.355	-84.888	-0.268	-0.084
-270.340	-68.370	-0.223	0.087
-269.326	18.143	0.196	0.156
-268.311	26.606	-0.124	0.104
-267.297	224.174	-0.123	0.199
-266.282	-156.948	-0.117	-0.007
-265.267	494.254	0.136	0.312
-264.253	638.230	-0.034	0.087
-263.238	800.000	0.091	0.276
-262.224	-115.740	-0.117	0.022
-261.209	-84.839	0.090	-0.028
-260.195	55.350	0.045	0.044
-259.180	4.744	0.097	-0.072
-258.165	-39.329	-0.300	0.158
-257.151	-85.644	-0.080	0.025
-256.136	800.000	-0.051	-0.204
-255.122	-131.370	-0.087	-0.012
-254.107	642.287	-0.053	-0.134
-253.092	-23.888	0.122	-0.073
-252.078	-41.963	-0.166	0.085
-251.063	-200.000	0.064	-0.282
-250.049	-200.000	-0.022	-0.176
-249.034	-200.000	0.062	-0.287
-248.019	105.099	-0.092	-0.109
-247.005	25.390	-0.209	0.174
-245.990	350.930	0.144	-0.285
-244.976	-53.950	-0.421	0.192
-243.961	-75.222	0.227	-0.081
-242.946	56.297	-0.124	0.121
-241.932	208.314	0.184	0.288
-240.917	42.342	-0.261	0.237
-239.903	800.000	0.010	0.040
-238.888	-174.434	0.161	0.005
-237.873	19.381	0.301	-0.242
-236.859	245.281	-0.149	0.251
-235.844	-96.601	-0.471	0.124
-234.830	-142.652	0.219	0.021
-233.815	-31.039	0.038	0.021
-232.800	-88.840	-0.199	-0.059
-231.786	800.000	0.037	0.152
-230.771	-78.467	-0.205	-0.070
-229.757	174.954	0.158	-0.229
-228.742	22.249	-0.188	0.154
-227.727	108.521	-0.023	-0.028
-226.713	-109.128	-0.092	0.020
-225.698	27.582	-0.100	0.084
-224.684	-200.000	-0.016	-0.143
-223.669	-200.000	-0.008	-0.130
-222.655	-200.000	0.036	0.327
-221.640	228.110	0.092	-0.149
-220.625	-98.339	-0.155	0.040
-219.611	8.521	-0.215	0.161
-218.596	-169.306	0.041	0.002
-217.582	-88.564	0.047	-0.014
-216.567	501.660	0.153	-0.354
-215.552	800.000	0.060	-0.253
-214.538	-108.550	-0.195	0.042
-213.523	621.701	-0.033	-0.084
-212.509	-50.352	-0.251	0.118
-211.494	-104.239	-0.115	-0.027
-210.479	-31.660	-0.212	-0.119
-209.465	-119.909	0.269	-0.046
-208.450	800.000	-0.078	-0.232
-207.436	65.205	0.034	-0.035
-206.421	-117.090	0.255	0.046
-205.406	-166.766	0.293	-0.012
-204.392	402.243	-0.076	0.160
-203.377	-87.555	0.523	0.158
-202.363	-71.336	0.223	-0.084
-201.348	-98.535	0.082	-0.021
-200.333	-99.175	0.186	-0.047
-199.319	-200.000	-0.005	0.261
-198.304	-170.578	-0.095	0.003
-197.290	427.132	-0.151	-0.325
-196.275	-28.729	-0.176	0.101
-195.260	800.000	0.018	0.074
-194.246	-165.985	0.139	-0.006
-193.231	-35.350	0.057	0.031
-192.217	209.196	0.135	-0.212
-191.202	206.232	0.122	0.190
-190.187	-200.000	0.025	-0.114
-189.173	-78.199	-0.017	-0.006
-188.158	188.992	-0.119	0.177
-187.144	356.620	-0.112	0.222
-186.129	-133.054	-0.246	0.031
-185.114	354.366	0.087	0.173
-184.100	-200.000	0.043	-0.212
-183.085	800.000	-0.075	0.262
-182.071	48.296	0.138	0.129
-181.056	-70.051	0.204	-0.078
-180.042	-200.000	-0.018	-0.079
-179.027	-200.000	0.016	-0.093
-178.012	106.090	-0.030	0.035
-176.998	-200.000	-0.064	0.484
-175.983	-120.417	-0.175	0.030
-174.969	15.156	-0.151	0.118
-173.954	-47.332	0.233	0.113
-172.939	-86.192	-0.192	0.059
-171.925	-47.554	0.057	-0.027
-170.910	-97.431	-0.294	0.076
-169.896	-36.068	-0.204	-0.110
-168.881	800.000	-0.177	-0.735
-167.866	295.161	0.033	-0.061
-166.852	-57.344	0.049	-0.021
-165.837	52.603	-0.222	-0.212
-164.823	800.000	0.085	-0.277
-163.808	-135.585	-0.095	0.011
-162.793	764.159	-0.104	-0.281
-161.779	340.525	-0.039	0.076
-160.764	82.688	-0.168	-0.182
-159.750	-200.000	-0.029	0.157
-158.735	-200.000	-0.008	0.062
-157.720	30.509	-0.219	0.187
-156.706	-143.427	0.107	-0.010
-155.691	179.161	-0.100	-0.146
-154.677	-13.283	-0.278	-0.180
-153.662	-7.939	-0.247	-0.166
-152.647	306.450	-0.118	-0.220
-151.633	244.651	0.164	-0.274
-150.618	-53.032	0.193	0.088
-149.604	-200.000	-0.002	-0.104
-148.589	125.177	-0.180	0.227
-147.574	-200.000	0.022	0.229
-146.560	14.884	0.122	0.095
-145.545	-188.653	-0.183	0.002
-144.531	-42.682	0.113	-0.057
-143.516	105.805	-0.084	0.098
-142.502	800.000	0.082	0.277
-141.487	278.714	-0.069	-0.122
-140.472	-200.000	0.015	-0.123
-139.458	-107.443	0.016	-0.003
-138.443	-83.007	0.212	0.068
-137.429	-66.714	-0.316	-0.125
-136.414	-13.573	0.189	0.122
-135.399	255.627	-0.200	-0.342
-134.385	71.555	0.156	0.161
-133.370	332.842	0.024	-0.046
-132.356	-107.470	-0.312	0.068
-131.341	-200.000	0.022	-0.200
-130.326	800.000	0.079	0.218
-129.312	50.040	0.088	-0.083
-128.297	-186.640	0.068	-0.001
-127.283	-200.000	-0.041	0.264
-126.268	-200.000	-0.010	-0.375
-125.253	-200.000	0.024	-0.447
-124.239	-200.000	0.025	-0.227
-123.224	-43.762	0.141	0.071
-122.210	-200.000	0.009	-0.042
-121.195	-49.732	0.072	-0.034
