DTS Sentinel unit serial number:	SN413079Multiplexer serial number:	ORYXHardware model number:	OX4-SRSoftware version number:	ORYX F/W v4.00 Oryx Data Collector v3.7.2.0data status	okinstallation	princeton_trtdifferential loss correction	single-endedforward channel	channel 1reverse channel	N/Adate	2019/09/11time	13:44:11forward acquisition time	60.00reverse acquisition time	0.00gamma	496.2192k internal	0.2294k external	0.2294temperature offset calibration	0.9981default loss term (dB/km)	0.3790temperature slope calibration	1.0000multiplexer offset coefficient	1.0000multiplexer slope coefficient	1.0000fibre end	0.00T internal ref (°C)	41.94T ext. ref 1 (°C)	0.83T ext. ref 2 (°C)	36.38length (m)	temperature (°C)	Stokes	anti-Stokes-747.200	-129.229	0.341	-0.049
-746.185	398.628	0.118	0.253
-745.171	-200.000	0.036	-0.297
-744.156	800.000	0.002	0.008
-743.142	210.207	0.205	0.329
-742.127	238.733	-0.161	0.274
-741.112	-161.567	0.126	0.007
-740.098	800.000	0.084	0.280
-739.083	-92.121	-0.229	-0.066
-738.069	-38.678	0.462	0.249
-737.054	-82.086	-0.311	0.104
-736.039	106.651	0.050	-0.060
-735.025	5.623	-0.040	-0.030
-734.010	-200.000	0.024	0.191
-732.996	74.190	-0.192	0.206
-731.981	800.000	-0.009	0.028
-730.966	-38.602	-0.047	0.026
-729.952	-130.514	-0.345	0.048
-728.937	-94.919	0.184	0.051
-727.923	-166.240	0.080	0.003
-726.908	-79.896	0.166	-0.057
-725.894	-69.892	-0.177	0.069
-724.879	-159.362	-0.159	0.009
-723.864	-200.000	0.011	0.182
-722.850	129.719	0.074	-0.097
-721.835	-172.372	0.061	0.002
-720.821	-200.000	-0.008	0.174
-719.806	121.158	-0.104	0.132
-718.791	-61.847	0.082	-0.035
-717.777	-142.061	0.161	0.016
-716.762	-77.274	0.243	-0.086
-715.748	-200.000	-0.040	-0.185
-714.733	-10.068	0.096	0.065
-713.718	275.549	-0.042	-0.076
-712.704	231.575	-0.106	-0.178
-711.689	258.887	0.052	-0.091
-710.675	431.549	-0.042	0.093
-709.660	-200.000	-0.025	-0.302
-708.645	72.012	0.168	-0.179
-707.631	-69.410	-0.370	-0.145
-706.616	106.752	0.061	0.074
-705.602	-149.925	0.408	-0.033
-704.587	-67.287	0.317	0.127
-703.572	10.684	-0.055	-0.043
-702.558	-200.000	-0.370	0.000
-701.543	-182.712	0.374	-0.007
-700.529	-138.632	-0.308	-0.034
-699.514	-145.834	-0.195	0.018
-698.499	-97.665	-0.218	-0.058
-697.485	24.303	0.127	-0.107
-696.470	-200.000	-0.049	-0.259
-695.456	152.204	0.151	0.210
-694.441	42.615	0.125	-0.116
-693.426	-99.401	0.033	-0.008
-692.412	-15.478	0.327	-0.213
-691.397	-96.194	0.047	-0.013
-690.383	682.517	0.014	0.037
-689.368	-30.985	0.086	-0.049
-688.354	9.355	0.580	0.448
-687.339	-112.034	-0.157	-0.032
-686.324	37.097	0.187	-0.169
-685.310	226.980	0.248	-0.411
-684.295	90.527	-0.095	-0.108
-683.281	-200.000	-0.011	0.062
-682.266	-200.000	0.063	0.617
-681.251	22.267	-0.026	-0.021
-680.237	197.102	0.108	0.168
-679.222	-4.743	-0.040	-0.028
-678.208	-43.731	0.153	-0.078
-677.193	48.643	-0.141	-0.135
-676.178	296.630	-0.133	-0.249
-675.164	-200.000	0.036	-0.181
-674.149	-72.089	-0.200	-0.076
-673.135	3.084	0.069	0.051
-672.120	187.538	0.107	0.163
-671.105	-68.245	0.083	-0.033
-670.091	-147.045	0.089	-0.008
-669.076	94.483	0.209	0.242
-668.062	800.000	0.084	0.245
-667.047	-81.567	-0.216	-0.072
-666.032	89.089	0.138	0.157
-665.018	-95.596	0.091	-0.025
-664.003	10.622	-0.284	0.221
-662.989	800.000	0.085	0.298
-661.974	151.266	-0.132	0.184
-660.959	335.186	0.183	-0.362
-659.945	800.000	0.151	-0.487
-658.930	-46.106	-0.146	-0.074
-657.916	29.208	0.092	0.080
-656.901	226.420	0.091	0.150
-655.886	45.763	0.085	0.080
-654.872	-154.548	-0.079	0.005
-653.857	72.286	-0.051	0.054
-652.843	-101.102	0.062	-0.015
-651.828	543.372	0.077	-0.188
-650.814	-148.107	0.163	-0.014
-649.799	-200.000	0.025	-0.173
-648.784	75.230	0.161	0.173
-647.770	-67.837	0.252	0.100
-646.755	216.860	-0.028	-0.045
-645.741	128.202	-0.107	-0.139
-644.726	12.170	-0.201	-0.158
-643.711	194.629	-0.222	-0.343
-642.697	-14.097	-0.255	-0.168
-641.682	-185.217	-0.061	0.001
-640.668	-200.000	0.017	-0.096
-639.653	141.816	0.140	0.189
-638.638	111.336	0.087	0.106
-637.624	-0.920	-0.048	0.034
-636.609	800.000	-0.095	-0.304
-635.595	-51.842	0.212	0.100
-634.580	-65.451	0.089	0.036
-633.565	239.241	-0.090	-0.152
-632.551	-39.260	-0.411	-0.220
-631.536	-200.000	-0.008	0.241
-630.522	-129.279	-0.291	0.041
-629.507	-200.000	-0.018	-0.184
-628.492	-99.112	0.230	0.059
-627.478	-91.490	0.087	0.025
-626.463	-200.000	-0.058	0.332
-625.449	800.000	0.058	0.187
-624.434	785.168	-0.058	-0.163
-623.419	-69.981	0.183	-0.071
-622.405	-35.056	-0.336	0.186
-621.390	800.000	0.131	-0.402
-620.376	216.370	-0.052	0.085
-619.361	-200.000	0.006	-0.193
-618.346	133.697	0.128	-0.168
-617.332	226.949	0.123	0.203
-616.317	168.343	-0.107	0.155
-615.303	800.000	0.031	0.093
-614.288	-159.772	0.138	0.008
-613.273	170.317	-0.103	0.151
-612.259	-118.430	-0.153	-0.028
-611.244	325.751	0.190	0.369
-610.230	262.020	0.076	0.134
-609.215	-76.175	0.261	0.094
-608.201	-31.057	-0.165	0.095
-607.186	-200.000	-0.068	0.306
-606.171	-116.049	0.153	0.029
-605.157	-200.000	0.003	0.048
-604.142	106.382	0.068	0.082
-603.128	-67.413	-0.083	0.033
-602.113	-6.451	-0.223	0.155
-601.098	251.953	-0.183	-0.317
-600.084	294.999	0.103	-0.192
-599.069	-200.000	-0.000	0.124
-598.055	-51.894	-0.173	-0.082
-597.040	212.186	-0.107	-0.171
-596.025	-200.000	-0.014	-0.192
-595.011	-52.853	0.212	0.099
-593.996	145.244	-0.228	-0.310
-592.982	-200.000	0.001	-0.003
-591.967	800.000	0.075	-0.239
-590.952	-49.323	0.368	-0.178
-589.938	-76.120	-0.433	-0.155
-588.923	79.387	-0.292	-0.318
-587.909	-140.182	0.211	-0.022
-586.894	-8.022	-0.268	0.184
-585.879	179.938	-0.167	-0.249
-584.865	-79.152	-0.298	0.103
-583.850	404.295	-0.109	0.234
-582.836	-19.251	-0.211	0.133
-581.821	800.000	-0.025	0.081
-580.806	800.000	-0.029	0.105
-579.792	800.000	-0.084	0.291
-578.777	617.166	0.086	-0.219
-577.763	-140.734	0.145	-0.015
-576.748	-200.000	-0.006	0.065
-575.733	-82.068	0.134	0.045
-574.719	131.909	0.245	-0.320
-573.704	37.316	-0.120	-0.108
-572.690	-107.010	-0.191	-0.043
-571.675	-107.252	-0.146	0.033
-570.661	800.000	0.075	-0.225
-569.646	-34.274	0.418	-0.233
-568.631	-200.000	-0.026	-0.162
-567.617	288.451	-0.091	-0.168
-566.602	800.000	-0.088	-0.272
-565.588	508.600	-0.071	-0.167
-564.573	-89.891	0.130	0.038
-563.558	-9.882	-0.361	-0.244
-562.544	21.251	0.190	-0.157
-561.529	-199.158	0.281	0.002
-560.515	40.999	0.182	0.166
-559.500	111.263	-0.126	-0.154
-558.485	-60.202	0.386	0.167
-557.471	800.000	-0.058	0.186
-556.456	25.751	0.223	0.188
-555.442	-50.553	0.101	-0.048
-554.427	-200.000	0.016	0.079
-553.412	-145.676	0.422	0.038
-552.398	800.000	-0.080	-0.240
-551.383	800.000	0.091	0.312
-550.369	140.894	0.114	-0.153
-549.354	-144.315	0.219	0.021
-548.339	32.749	-0.191	-0.167
-547.325	800.000	0.028	0.082
-546.310	-87.833	-0.395	0.121
-545.296	-109.922	-0.159	-0.034
-544.281	-200.000	0.040	-0.204
-543.266	12.191	-0.022	0.018
-542.252	-100.774	-0.090	-0.022
-541.237	-23.274	0.052	-0.032
-540.223	396.387	0.038	-0.081
-539.208	3.058	0.095	-0.070
-538.193	-200.000	-0.027	0.252
-537.179	-55.224	0.116	-0.053
-536.164	5.090	-0.054	0.040
-535.150	374.586	-0.081	-0.167
-534.135	800.000	0.030	-0.111
-533.121	-91.221	-0.190	0.055
-532.106	39.584	-0.083	-0.076
-531.091	-147.652	0.145	0.012
-530.077	265.239	0.099	-0.175
-529.062	129.187	-0.130	-0.168
-528.048	-175.521	0.498	-0.014
-527.033	49.478	-0.334	0.319
-526.018	86.163	-0.162	0.181
-525.004	-200.000	0.001	-0.057
-523.989	-83.460	0.241	0.078
-522.975	-96.621	-0.234	-0.063
-521.960	125.076	-0.205	0.262
-520.945	-200.000	0.007	-0.109
-519.931	-75.161	0.039	0.014
-518.916	-38.885	-0.235	-0.126
-517.902	8.632	-0.294	0.225
-516.887	800.000	0.110	0.477
-515.872	-47.270	-0.330	0.163
-514.858	800.000	0.064	0.219
-513.843	109.772	0.234	-0.285
-512.829	-81.739	0.304	-0.101
-511.814	-129.975	0.205	-0.028
-510.799	148.868	-0.146	0.200
-509.785	-167.095	-0.548	-0.023
-508.770	-123.525	0.368	-0.059
-507.756	-200.000	-0.021	-0.110
-506.741	-61.945	-0.340	0.144
-505.726	-200.000	0.020	-0.178
-504.712	19.690	0.190	-0.155
-503.697	-200.000	-0.026	-0.315
-502.683	-155.940	-0.154	-0.010
-501.668	4.633	0.109	-0.081
-500.653	241.374	0.018	0.031
-499.639	-100.249	0.168	0.042
-498.624	646.073	0.071	0.184
-497.610	35.418	0.237	-0.211
-496.595	-105.934	-0.282	-0.064
-495.581	-162.296	-0.078	0.004
-494.566	-157.804	0.419	-0.025
-493.551	6.748	-0.070	-0.053
-492.537	-93.119	0.219	0.062
-491.522	-117.237	0.085	-0.016
-490.508	-121.476	0.366	-0.062
-489.493	71.549	0.052	0.054
-488.478	-69.584	-0.415	-0.161
-487.464	-26.831	0.207	0.122
-486.449	715.863	-0.110	0.295
-485.435	798.752	0.047	0.131
-484.420	-76.761	0.326	0.116
-483.405	21.345	0.150	0.123
-482.391	155.982	-0.088	-0.123
-481.376	-200.000	-0.005	0.271
-480.362	-134.623	0.145	-0.018
-479.347	325.370	-0.155	0.299
-478.332	13.993	-0.325	0.256
-477.318	578.777	0.071	-0.176
-476.303	312.857	0.076	-0.144
-475.289	92.717	-0.196	0.224
-474.274	-166.276	-0.095	0.004
-473.259	58.279	0.093	0.092
-472.245	-200.000	0.026	-0.167
-471.230	320.552	-0.094	-0.180
-470.216	-93.889	0.131	-0.037
-469.201	800.000	0.057	-0.161
-468.186	91.256	0.245	-0.278
-467.172	800.000	0.087	-0.255
-466.157	205.681	0.128	0.202
-465.143	-68.695	0.148	-0.058
-464.128	-200.000	-0.040	0.212
-463.113	-69.424	0.195	-0.076
-462.099	36.123	-0.018	0.016
-461.084	800.000	-0.042	-0.160
-460.070	-151.377	0.404	0.030
-459.055	-200.000	0.051	0.253
-458.040	-24.174	-0.227	-0.137
-457.026	-47.144	-0.059	0.029
-456.011	800.000	-0.072	0.250
-454.997	-37.216	0.290	-0.157
-453.982	484.762	-0.037	0.084
-452.968	-200.000	-0.005	0.316
-451.953	-48.112	0.235	0.115
-450.938	-114.855	-0.290	0.056
-449.924	81.048	0.332	-0.362
-448.909	-102.668	0.327	-0.079
-447.895	-162.666	0.229	-0.011
-446.880	-88.753	0.343	0.103
-445.865	41.943	0.157	0.144
-444.851	-37.151	-0.066	0.036
-443.836	57.667	-0.263	0.260
-442.822	-12.074	0.344	0.228
-441.807	-179.683	0.239	0.005
-440.792	800.000	0.021	-0.082
-439.778	-102.443	-0.066	0.016
-438.763	-200.000	-0.062	0.369
-437.749	-34.882	0.218	0.120
-436.734	-200.000	0.005	-0.282
-435.719	-28.844	-0.146	-0.085
-434.705	800.000	0.140	0.396
-433.690	-193.229	-0.171	0.002
-432.676	-95.744	0.133	0.036
-431.661	-180.232	0.026	-0.001
-430.646	640.574	-0.012	0.031
-429.632	-200.000	-0.025	0.367
-428.617	800.000	0.027	-0.076
-427.603	-27.527	-0.115	-0.068
-426.588	-34.430	0.136	0.075
-425.573	-84.122	0.353	0.113
-424.559	-68.038	-0.060	0.023
-423.544	-8.830	-0.102	-0.069
-422.530	258.971	-0.019	0.032
-421.515	290.320	-0.174	-0.320
-420.500	72.290	-0.252	0.265
-419.486	-16.021	0.099	-0.064
-418.471	-103.378	-0.388	0.092
-417.457	478.829	-0.133	-0.305
-416.442	228.190	0.155	0.255
-415.428	-60.098	-0.250	0.108
-414.413	575.860	0.083	0.205
-413.398	233.811	-0.231	-0.384
-412.384	800.000	0.089	0.276
-411.369	-200.000	-0.026	0.416
-410.355	-140.785	-0.532	-0.055
-409.340	326.688	-0.162	0.314
-408.325	-50.038	0.179	-0.086
-407.311	64.768	0.270	-0.274
-406.296	394.067	0.108	-0.228
-405.282	-19.287	-0.017	0.011
-404.267	-30.349	0.067	0.038
-403.252	-92.319	0.150	0.043
-402.238	-60.521	0.174	0.075
-401.223	-44.561	-0.156	0.078
-400.209	-72.805	-0.320	0.119
-399.194	-38.175	-0.047	0.025
-398.179	-200.000	-0.002	-0.178
-397.165	552.244	-0.034	-0.081
-396.150	-200.000	-0.015	0.320
-395.136	0.966	-0.261	0.189
-394.121	81.133	-0.080	0.087
-393.106	188.361	0.195	0.293
-392.092	-27.948	0.286	-0.167
-391.077	228.208	-0.060	0.099
-390.063	800.000	-0.040	0.147
-389.048	-133.621	0.197	0.025
-388.033	-128.836	-0.245	0.035
-387.019	132.424	-0.106	-0.138
-386.004	77.130	0.168	-0.180
-384.990	-97.697	-0.291	0.076
-383.975	89.950	-0.088	0.099
-382.960	145.119	0.115	-0.155
-381.946	800.000	0.047	0.204
-380.931	347.693	-0.121	-0.240
-379.917	346.725	-0.068	0.135
-378.902	3.272	0.208	-0.153
-377.888	-91.954	-0.110	0.031
-376.873	-25.637	-0.212	-0.126
-375.858	-74.834	-0.192	-0.069
-374.844	-200.000	0.027	0.154
-373.829	-64.521	-0.126	-0.052
-372.815	-200.000	-0.052	0.255
-371.800	65.680	0.170	0.174
-370.785	111.905	0.049	-0.060
-369.771	-38.057	-0.303	-0.162
-368.756	800.000	-0.053	-0.179
-367.742	-66.454	-0.320	0.128
-366.727	246.652	-0.198	-0.337
-365.712	-200.000	0.014	-0.176
-364.698	35.305	-0.181	0.160
-363.683	37.695	-0.149	0.133
-362.669	-118.078	0.401	0.072
-361.654	291.805	-0.190	-0.348
-360.639	517.794	-0.107	-0.251
-359.625	467.306	-0.087	-0.195
-358.610	-200.000	0.014	-0.210
-357.596	366.492	0.124	-0.252
-356.581	110.130	0.160	-0.194
-355.566	-51.752	-0.350	-0.164
-354.552	610.852	-0.087	-0.218
-353.537	321.373	0.064	-0.122
-352.523	-200.000	0.055	0.341
-351.508	121.261	0.079	0.099
-350.493	491.082	-0.065	0.150
-349.479	-57.018	-0.270	-0.120
-348.464	-119.857	-0.225	0.039
-347.450	-52.298	0.070	0.033
-346.435	-81.708	-0.122	0.040
-345.420	409.796	-0.120	0.256
-344.406	-200.000	0.032	0.221
-343.391	-0.858	0.223	-0.159
-342.377	-36.971	0.159	0.086
-341.362	116.328	-0.145	-0.179
-340.348	-200.000	-0.025	-0.120
-339.333	124.736	-0.092	0.117
-338.318	-33.762	0.273	-0.151
-337.304	-173.075	0.390	0.012
-336.289	126.571	0.127	-0.162
-335.275	-200.000	-0.016	-0.144
-334.260	-87.364	-0.104	0.032
-333.245	258.047	-0.093	0.162
-332.231	800.000	0.054	-0.232
-331.216	-200.000	-0.019	-0.093
-330.202	162.407	-0.139	-0.196
-329.187	-49.575	0.228	-0.109
-328.172	61.081	0.151	0.151
-327.158	417.769	0.072	0.154
-326.143	-157.150	0.133	-0.008
-325.129	-112.296	-0.242	0.049
-324.114	94.780	-0.158	-0.180
-323.099	-142.680	-0.289	0.028
-322.085	432.310	-0.123	0.269
-321.070	-200.000	-0.016	-0.209
-320.056	119.349	0.080	0.099
-319.041	-115.379	0.194	0.037
-318.026	-86.381	0.265	0.082
-317.012	-200.000	0.020	0.126
-315.997	446.592	-0.115	-0.254
-314.983	-104.879	-0.249	0.057
-313.968	118.030	0.071	-0.088
-312.953	6.601	0.357	-0.267
-311.939	-120.631	-0.277	-0.047
-310.924	36.318	-0.093	0.082
-309.910	-111.808	0.168	-0.034
-308.895	337.627	0.090	0.177
-307.880	-189.363	-0.273	-0.003
-306.866	-110.030	-0.055	0.011
-305.851	-12.711	0.170	0.111
-304.837	-55.590	0.053	0.024
-303.822	-200.000	0.011	-0.072
-302.807	800.000	0.114	0.386
-301.793	-126.200	-0.243	0.037
-300.778	40.307	-0.193	-0.175
-299.764	20.391	-0.220	0.178
-298.749	191.073	-0.154	-0.232
-297.735	-24.695	0.240	-0.143
-296.720	-21.967	-0.269	-0.164
-295.705	-92.883	-0.278	0.078
-294.691	-94.102	-0.181	0.050
-293.676	89.486	-0.044	0.049
-292.662	5.029	-0.153	-0.113
-291.647	-143.956	0.400	-0.038
-290.632	-134.741	-0.261	-0.032
-289.618	-57.360	0.086	0.038
-288.603	28.298	-0.089	-0.076
-287.589	-79.230	0.357	-0.122
-286.574	-143.966	0.224	-0.021
-285.559	-115.701	0.109	0.021
-284.545	-13.891	-0.114	0.074
-283.530	22.152	-0.116	0.095
-282.516	7.848	-0.284	-0.214
-281.501	800.000	-0.026	0.093
-280.486	800.000	-0.028	-0.083
-279.472	-73.478	0.079	0.029
-278.457	155.871	0.055	-0.076
-277.443	-41.916	0.306	0.158
-276.428	-200.000	0.004	-0.161
-275.413	-183.598	-0.166	0.003
-274.399	-77.501	-0.265	0.092
-273.384	-49.192	0.298	-0.143
-272.370	-28.401	0.201	0.116
-271.355	-58.090	-0.057	0.025
-270.340	-102.861	0.381	0.091
-269.326	-200.000	-0.022	0.182
-268.311	-92.765	-0.313	-0.088
-267.297	-118.237	-0.211	-0.038
-266.282	-200.000	0.046	0.336
-265.267	-145.737	0.227	-0.020
-264.253	800.000	0.132	0.378
-263.238	-152.075	0.277	0.020
-262.224	-200.000	0.016	-0.146
-261.209	-200.000	-0.055	0.316
-260.195	-200.000	-0.019	0.330
-259.180	-139.572	-0.070	-0.008
-258.165	-125.307	-0.244	0.037
-257.151	-78.955	-0.051	0.018
-256.136	-30.818	0.177	-0.100
-255.122	-108.707	-0.120	-0.026
-254.107	-3.273	0.079	-0.055
-253.092	303.948	0.155	-0.289
-252.078	-53.577	-0.157	0.072
-251.063	-145.370	-0.227	-0.021
-250.049	776.278	0.206	0.565
-249.034	-200.000	-0.040	0.282
-248.019	71.298	0.110	0.114
-247.005	-200.000	0.003	0.044
-245.990	-200.000	-0.005	0.218
-244.976	124.507	0.171	-0.215
-243.961	58.779	-0.171	-0.168
-242.946	-106.104	-0.495	0.112
-241.932	373.998	-0.119	0.242
-240.917	639.020	-0.085	-0.216
-239.903	318.012	0.135	-0.257
-238.888	-200.000	-0.032	0.248
-237.873	-61.095	-0.024	0.010
-236.859	-200.000	-0.002	0.057
-235.844	-175.692	-0.173	0.005
-234.830	-200.000	0.009	-0.097
-233.815	-10.972	0.236	0.156
-232.800	-6.755	0.293	0.200
-231.786	82.619	0.171	0.186
-230.771	-12.856	0.172	-0.113
-229.757	-132.936	-0.240	-0.031
-228.742	80.401	-0.294	0.318
-227.727	185.659	-0.089	0.133
-226.713	-71.486	-0.274	-0.103
-225.698	119.005	-0.126	-0.155
-224.684	-26.917	0.086	0.050
-223.669	-130.355	-0.486	0.066
-222.655	-87.063	-0.137	-0.042
-221.640	-72.342	0.067	0.025
-220.625	177.584	0.162	0.237
-219.611	-200.000	-0.003	0.169
-218.596	-51.465	-0.353	-0.165
-217.582	-74.982	0.326	-0.117
-216.567	199.911	-0.149	-0.228
-215.552	97.663	-0.153	0.176
-214.538	463.486	0.077	-0.173
-213.523	-147.649	0.017	0.001
-212.509	-72.398	0.227	-0.084
-211.494	800.000	0.048	-0.184
-210.479	248.823	0.185	-0.314
-209.465	348.413	0.050	-0.099
-208.450	-26.797	0.144	0.084
-207.436	800.000	0.142	-0.470
-206.421	244.616	-0.040	-0.067
-205.406	800.000	-0.018	0.067
-204.392	-179.365	0.210	0.005
-203.377	4.830	-0.052	0.038
-202.363	152.426	0.124	-0.169
-201.348	8.489	0.145	-0.109
-200.333	-81.792	0.275	0.090
-199.319	800.000	-0.008	0.023
-198.304	357.776	0.137	-0.274
-197.290	11.023	0.088	-0.067
-196.275	-200.000	-0.014	0.476
-195.260	68.895	0.133	-0.137
-194.246	100.798	-0.204	-0.237
-193.231	274.993	-0.127	-0.224
-192.217	-101.775	-0.555	-0.135
-191.202	66.206	0.362	-0.368
-190.187	84.989	-0.116	0.127
-189.173	86.464	0.114	0.125
-188.158	800.000	0.071	0.304
-187.144	287.831	0.034	0.062
-186.129	-35.430	0.025	-0.014
-185.114	31.818	0.102	0.088
-184.100	-45.513	0.303	-0.150
-183.085	-137.470	-0.251	-0.028
-182.071	-5.960	-0.341	-0.233
-181.056	287.510	-0.131	-0.236
-180.042	28.412	-0.187	-0.158
-179.027	800.000	-0.141	-0.399
-178.012	426.219	0.120	0.259
-176.998	-88.869	0.187	-0.056
-175.983	383.235	-0.076	0.156
-174.969	610.682	0.064	-0.159
-173.954	-173.014	0.061	-0.002
-172.939	11.725	-0.082	-0.063
-171.925	-153.206	0.345	-0.024
-170.910	-131.228	-0.441	-0.059
-169.896	-89.342	0.205	0.060
-168.881	-92.653	0.022	0.006
-167.866	-33.007	-0.342	-0.190
-166.852	15.933	0.362	-0.285
-165.837	-190.396	0.010	-0.000
-164.823	-200.000	-0.015	0.389
-163.808	800.000	-0.076	0.229
-162.793	51.372	0.132	0.125
-161.779	88.944	0.120	0.133
-160.764	-70.082	0.353	-0.134
-159.750	-78.327	0.315	0.108
-158.735	606.898	0.024	0.060
-157.720	289.685	0.100	0.181
-156.706	46.725	-0.068	-0.063
-155.691	-200.000	0.065	-0.490
-154.677	800.000	0.028	-0.106
-153.662	-200.000	0.141	0.623
-152.647	800.000	-0.063	0.191
-151.633	152.840	0.050	-0.069
-150.618	-65.815	0.098	0.039
-149.604	800.000	0.034	0.111
-148.589	800.000	0.033	0.134
-147.574	189.450	0.112	0.168
-146.560	800.000	-0.051	-0.209
-145.545	-46.871	0.020	-0.010
-144.531	219.007	0.173	-0.276
-143.516	453.687	-0.073	-0.161
-142.502	800.000	0.093	-0.262
-141.487	-20.287	0.083	0.051
-140.472	124.267	0.112	-0.141
-139.458	-116.493	0.226	-0.042
-138.443	8.625	-0.181	-0.136
-137.429	-80.654	0.076	0.025
-136.414	-200.000	-0.006	0.124
-135.399	-200.000	-0.031	0.288
-134.385	-111.118	0.309	-0.063
-133.370	33.644	0.311	-0.270
-132.356	-103.519	0.245	-0.058
-131.341	219.071	0.107	-0.171
-130.326	-200.000	-0.026	-0.210
-129.312	188.681	0.084	-0.125
-128.297	-55.253	-0.507	-0.227
-127.283	-200.000	0.001	-0.049
-126.268	-200.000	-0.020	-0.341
-125.253	-200.000	0.053	-0.260
-124.239	105.454	0.118	-0.139
-123.224	-200.000	-0.015	-0.136
-122.210	-101.637	0.017	0.004
-121.195	-118.332	0.149	0.026
-120.180	-111.409	0.121	0.025
