DTS Sentinel unit serial number:	SN413079Multiplexer serial number:	ORYXHardware model number:	OX4-SRSoftware version number:	ORYX F/W v4.00 Oryx Data Collector v3.7.2.0data status	okinstallation	princeton_trtdifferential loss correction	single-endedforward channel	channel 1reverse channel	N/Adate	2019/09/11time	22:04:11forward acquisition time	60.00reverse acquisition time	0.00gamma	496.2192k internal	0.2312k external	0.2312temperature offset calibration	1.0059default loss term (dB/km)	0.3790temperature slope calibration	1.0000multiplexer offset coefficient	1.0000multiplexer slope coefficient	1.0000fibre end	0.00T internal ref (°C)	35.45T ext. ref 1 (°C)	1.80T ext. ref 2 (°C)	29.56length (m)	temperature (°C)	Stokes	anti-Stokes-747.200	800.000	0.053	0.233
-746.185	-46.209	-0.107	-0.053
-745.171	-72.219	-0.257	-0.097
-744.156	-200.000	-0.020	0.496
-743.142	-115.219	0.443	0.085
-742.127	-45.614	-0.173	-0.087
-741.112	-200.000	0.020	-0.162
-740.098	-68.309	0.285	-0.112
-739.083	-6.997	0.159	0.110
-738.069	357.404	-0.208	0.422
-737.054	38.600	0.109	0.098
-736.039	64.733	-0.168	0.172
-735.025	-200.000	0.021	0.125
-734.010	429.194	0.045	-0.099
-732.996	-14.266	0.065	-0.043
-731.981	-158.747	-0.513	0.030
-730.966	-83.214	-0.209	0.068
-729.952	22.351	-0.280	0.232
-728.937	-86.803	-0.328	0.102
-727.923	109.639	0.199	-0.242
-726.908	-200.000	-0.036	0.189
-725.894	61.420	-0.089	-0.090
-724.879	498.843	-0.150	-0.350
-723.864	-84.712	-0.205	0.066
-722.850	800.000	0.091	-0.286
-721.835	-198.751	0.241	-0.001
-720.821	-54.563	-0.052	-0.024
-719.806	-134.912	-0.252	-0.031
-718.791	168.155	0.191	-0.276
-717.777	-45.293	0.169	-0.085
-716.762	-83.829	-0.058	0.019
-715.748	132.164	-0.034	0.045
-714.733	10.957	0.383	-0.296
-713.718	-80.186	-0.035	0.012
-712.704	41.930	0.195	0.179
-711.689	-170.487	-0.490	0.017
-710.675	5.552	-0.040	-0.030
-709.660	-12.176	-0.187	0.124
-708.645	-177.708	-0.179	-0.004
-707.631	-92.610	-0.112	0.032
-706.616	99.916	0.147	-0.173
-705.602	-89.775	0.045	0.013
-704.587	800.000	-0.097	0.280
-703.572	-80.148	0.183	0.062
-702.558	442.739	-0.150	-0.332
-701.543	482.566	0.084	-0.193
-700.529	16.150	0.155	-0.124
-699.514	800.000	-0.021	0.065
-698.499	800.000	0.103	-0.443
-697.485	-194.467	0.290	0.002
-696.470	800.000	0.048	0.173
-695.456	-25.823	0.290	0.173
-694.441	662.471	0.129	-0.336
-693.426	213.110	-0.072	0.115
-692.412	-103.801	0.160	-0.038
-691.397	-100.927	-0.272	0.068
-690.383	86.545	-0.040	0.044
-689.368	-200.000	0.016	0.241
-688.354	-200.000	0.007	-0.098
-687.339	187.742	0.113	0.171
-686.324	-121.612	0.122	-0.020
-685.310	34.835	-0.084	0.074
-684.295	-80.061	0.174	-0.059
-683.281	-200.000	0.004	-0.065
-682.266	159.184	0.202	0.284
-681.251	-79.636	-0.166	0.057
-680.237	211.164	0.030	0.048
-679.222	-1.428	-0.237	-0.169
-678.208	49.950	0.157	0.149
-677.193	522.728	0.115	-0.272
-676.178	294.985	-0.106	-0.195
-675.164	800.000	0.122	-0.471
-674.149	-63.416	0.269	-0.112
-673.135	800.000	-0.016	0.056
-672.120	9.162	-0.067	0.051
-671.105	47.497	-0.037	-0.035
-670.091	-73.130	-0.218	-0.081
-669.076	-42.666	-0.135	-0.069
-668.062	-98.788	-0.279	-0.072
-667.047	-99.546	-0.116	-0.030
-666.032	49.939	0.121	-0.116
-665.018	-86.539	0.285	-0.088
-664.003	58.595	0.102	0.102
-662.989	16.331	-0.051	-0.041
-661.974	-200.000	-0.004	0.210
-660.959	227.832	0.069	-0.114
-659.945	-65.047	-0.057	-0.023
-658.930	-200.000	-0.007	0.141
-657.916	-94.677	0.305	0.084
-656.901	-200.000	0.041	0.244
-655.886	210.506	-0.194	0.309
-654.872	800.000	-0.088	0.305
-653.857	78.596	0.201	-0.217
-652.843	-141.451	-0.177	0.018
-651.828	800.000	-0.043	-0.147
-650.814	-200.000	0.022	0.160
-649.799	-23.168	0.121	-0.074
-648.784	-27.149	-0.043	0.025
-647.770	-98.491	-0.210	-0.054
-646.755	-200.000	0.018	-0.160
-645.741	-200.000	-0.003	-0.413
-644.726	536.494	0.029	0.070
-643.711	131.636	-0.077	0.101
-642.697	800.000	-0.036	-0.121
-641.682	-108.312	0.231	0.050
-640.668	-28.002	0.057	-0.033
-639.653	-139.722	0.185	-0.020
-638.638	-143.783	0.078	-0.007
-637.624	14.416	0.105	-0.083
-636.609	800.000	0.071	0.211
-635.595	-48.906	-0.035	0.017
-634.580	-6.652	-0.268	-0.184
-633.565	-200.000	-0.007	-0.034
-632.551	-200.000	-0.018	-0.226
-631.536	-200.000	-0.010	0.123
-630.522	15.816	0.125	0.100
-629.507	136.741	0.052	0.069
-628.492	761.987	-0.102	-0.280
-627.478	141.720	0.136	0.182
-626.463	165.304	0.067	0.096
-625.449	-86.698	0.080	-0.025
-624.434	267.474	0.108	0.191
-623.419	-103.783	0.042	0.010
-622.405	6.489	0.060	0.045
-621.390	-165.999	-0.353	-0.015
-620.376	207.890	0.072	0.113
-619.361	-95.453	-0.220	0.060
-618.346	126.629	-0.074	0.094
-617.332	-14.940	-0.098	0.064
-616.317	-22.199	0.252	0.155
-615.303	-200.000	0.028	0.273
-614.288	-42.316	0.284	-0.146
-613.273	-30.004	0.193	-0.111
-612.259	315.986	0.152	-0.289
-611.244	800.000	0.025	-0.092
-610.230	-179.443	-0.122	-0.003
-609.215	114.619	0.123	-0.151
-608.201	-145.151	-0.253	-0.023
-607.186	-62.977	-0.104	-0.043
-606.171	-77.343	0.129	0.045
-605.157	67.302	-0.072	0.074
-604.142	44.689	0.130	0.121
-603.128	-33.233	0.340	-0.190
-602.113	-42.609	-0.204	-0.105
-601.098	-175.123	-0.093	-0.003
-600.084	-116.573	0.157	0.029
-599.069	361.018	-0.200	-0.405
-598.055	-11.417	0.080	0.053
-597.040	498.943	-0.050	-0.115
-596.025	658.289	0.076	-0.196
-595.011	141.025	0.127	-0.170
-593.996	-34.605	0.180	0.100
-592.982	27.769	0.183	0.156
-591.967	-83.199	-0.009	0.003
-590.952	-38.707	0.130	0.069
-589.938	-81.640	-0.463	-0.153
-588.923	-75.146	-0.134	0.048
-587.909	457.903	0.096	-0.215
-586.894	-33.756	0.143	-0.080
-585.879	178.423	-0.198	0.292
-584.865	92.585	-0.093	-0.106
-583.850	-80.466	0.442	-0.149
-582.836	-64.393	-0.261	0.107
-581.821	478.630	0.040	0.092
-580.806	257.722	-0.014	0.025
-579.792	54.958	0.266	0.259
-578.777	482.000	-0.229	-0.525
-577.763	-200.000	-0.026	0.370
-576.748	27.087	0.085	-0.072
-575.733	-163.643	0.032	-0.002
-574.719	470.005	0.006	0.014
-573.704	32.522	0.135	0.117
-572.690	-143.403	-0.289	-0.028
-571.675	107.198	-0.279	-0.334
-570.661	-72.272	-0.275	0.103
-569.646	52.532	-0.091	-0.087
-568.631	-200.000	-0.044	-0.362
-567.617	17.596	-0.333	0.267
-566.602	262.617	-0.024	-0.043
-565.588	235.035	-0.089	-0.149
-564.573	372.995	0.154	-0.316
-563.558	154.115	-0.152	0.211
-562.544	3.239	-0.232	0.170
-561.529	-78.328	0.241	-0.083
-560.515	-200.000	0.081	-0.439
-559.500	-195.856	0.045	-0.000
-558.485	-8.270	0.169	0.115
-557.471	74.801	-0.053	0.056
-556.456	-127.130	-0.119	0.018
-555.442	479.098	0.064	-0.147
-554.427	-132.606	-0.414	-0.054
-553.412	201.702	0.119	-0.184
-552.398	530.071	0.091	0.217
-551.383	-39.920	-0.160	0.084
-550.369	794.637	-0.073	0.202
-549.354	526.255	-0.076	0.179
-548.339	-200.000	-0.089	-0.476
-547.325	-41.481	-0.141	0.073
-546.310	-76.769	0.346	0.122
-545.296	83.931	-0.132	0.146
-544.281	354.879	-0.020	0.040
-543.266	211.084	0.234	0.370
-542.252	-137.516	-0.141	0.016
-541.237	-86.002	0.157	-0.049
-540.223	192.586	-0.126	-0.192
-539.208	346.076	-0.218	-0.431
-538.193	338.340	-0.098	0.191
-537.179	-45.024	0.035	-0.018
-536.164	800.000	0.042	0.138
-535.150	-27.832	-0.328	-0.191
-534.135	-71.396	-0.240	0.091
-533.121	-29.403	-0.174	-0.100
-532.106	800.000	-0.032	0.122
-531.091	800.000	0.076	0.217
-530.077	118.148	-0.026	-0.033
-529.062	-140.561	-0.280	-0.029
-528.048	-155.449	-0.197	0.013
-527.033	-174.310	-0.149	-0.004
-526.018	800.000	0.117	-0.412
-525.004	159.146	-0.213	-0.298
-523.989	-55.877	0.081	0.036
-522.975	350.416	-0.154	-0.306
-521.960	-69.482	0.346	-0.133
-520.945	69.061	0.153	0.158
-519.931	800.000	0.055	-0.215
-518.916	-150.238	-0.313	0.024
-517.902	54.826	-0.154	-0.150
-516.887	-52.686	-0.105	-0.049
-515.872	268.109	-0.112	-0.197
-514.858	-111.122	0.268	0.055
-513.843	-151.560	-0.237	-0.018
-512.829	-0.976	0.294	-0.209
-511.814	492.689	0.021	0.048
-510.799	-74.543	0.170	-0.062
-509.785	-200.000	0.054	-0.312
-508.770	-96.266	-0.196	0.052
-507.756	800.000	-0.066	0.291
-506.741	201.397	-0.029	-0.045
-505.726	-200.000	0.007	0.042
-504.712	-200.000	-0.003	-0.021
-503.697	-56.797	-0.152	-0.068
-502.683	-80.804	-0.132	-0.044
-501.668	37.374	-0.223	0.199
-500.653	-200.000	-0.029	-0.218
-499.639	-17.211	-0.179	0.113
-498.624	-17.613	0.262	0.166
-497.610	36.035	0.055	0.049
-496.595	295.007	0.079	0.145
-495.581	-72.776	-0.175	0.065
-494.566	95.907	0.155	-0.178
-493.551	-111.461	0.467	0.096
-492.537	-90.513	0.336	0.098
-491.522	-200.000	-0.011	0.293
-490.508	339.770	0.097	-0.190
-489.493	132.254	-0.022	-0.028
-488.478	-136.823	-0.167	-0.019
-487.464	-70.924	-0.084	0.032
-486.449	-200.000	0.031	0.366
-485.435	656.254	-0.055	0.143
-484.420	115.657	-0.060	-0.074
-483.405	-200.000	0.008	-0.051
-482.391	330.095	-0.170	-0.329
-481.376	165.901	0.088	-0.124
-480.362	317.612	0.136	0.259
-479.347	-200.000	0.046	0.485
-478.332	203.534	0.224	-0.348
-477.318	800.000	0.097	-0.289
-476.303	-21.663	0.186	0.114
-475.289	-200.000	0.013	-0.553
-474.274	57.504	-0.055	-0.054
-473.259	-51.544	0.207	0.097
-472.245	88.658	0.182	0.204
-471.230	-200.000	0.024	-0.187
-470.216	-12.110	-0.138	0.091
-469.201	531.639	0.034	0.080
-468.186	536.720	-0.093	0.221
-467.172	-175.672	-0.064	-0.002
-466.157	-50.909	-0.169	0.080
-465.143	65.835	-0.140	-0.143
-464.128	800.000	-0.015	0.047
-463.113	-25.182	0.219	0.130
-462.099	1.520	0.132	0.096
-461.084	-200.000	0.039	0.240
-460.070	800.000	-0.024	-0.092
-459.055	-175.663	-0.058	-0.002
-458.040	50.096	0.132	0.126
-457.026	-200.000	0.009	-0.332
-456.011	-200.000	0.072	0.365
-454.997	695.762	-0.085	0.224
-453.982	-200.000	0.017	0.682
-452.968	29.307	-0.025	0.021
-451.953	-95.807	0.243	-0.065
-450.938	-151.961	-0.325	-0.024
-449.924	-128.006	-0.088	0.013
-448.909	-69.857	-0.147	0.056
-447.895	-50.893	-0.180	0.085
-446.880	43.040	0.173	-0.159
-445.865	183.522	-0.087	-0.129
-444.851	800.000	0.122	-0.407
-443.836	247.724	-0.062	0.105
-442.822	-41.697	0.051	-0.026
-441.807	-79.941	-0.475	-0.160
-440.792	-71.464	-0.065	-0.024
-439.778	-9.523	0.102	0.068
-438.763	37.556	0.335	0.298
-437.749	-33.209	0.232	-0.129
-436.734	-55.246	-0.087	-0.039
-435.719	-196.540	-0.114	-0.001
-434.705	-200.000	-0.032	0.326
-433.690	99.233	-0.109	0.126
-432.676	-146.755	-0.047	-0.004
-431.661	-18.300	0.248	-0.156
-430.646	55.067	0.338	0.328
-429.632	140.267	0.050	-0.066
-428.617	313.257	-0.046	0.086
-427.603	800.000	-0.104	-0.317
-426.588	-69.030	-0.203	-0.078
-425.573	144.718	0.090	0.121
-424.559	185.718	0.091	0.136
-423.544	800.000	0.165	-0.493
-422.530	102.860	0.227	-0.267
-421.515	-200.000	0.028	-0.141
-420.500	-200.000	0.008	-0.217
-419.486	20.872	-0.126	-0.103
-418.471	504.552	0.050	-0.116
-417.457	-200.000	0.021	0.395
-416.442	16.709	0.119	0.094
-415.428	-200.000	0.017	-0.219
-414.413	-200.000	-0.007	-0.067
-413.398	44.134	-0.194	0.178
-412.384	800.000	0.084	0.303
-411.369	198.108	0.158	-0.241
-410.355	-46.809	-0.144	0.071
-409.340	35.587	0.168	0.148
-408.325	-116.320	0.312	0.058
-407.311	-125.282	-0.135	-0.021
-406.296	800.000	0.128	0.373
-405.282	73.194	-0.185	-0.194
-404.267	-145.127	-0.394	-0.036
-403.252	197.248	0.108	-0.165
-402.238	-200.000	-0.011	-0.186
-401.223	-9.381	0.292	0.196
-400.209	-133.909	-0.238	-0.030
-399.194	800.000	-0.046	-0.197
-398.179	330.626	-0.053	-0.102
-397.165	138.379	0.148	-0.195
-396.150	-114.925	0.264	-0.050
-395.136	14.925	0.071	0.055
-394.121	78.500	0.077	0.083
-393.106	-91.168	-0.511	-0.147
-392.092	187.740	-0.145	-0.216
-391.077	59.971	0.089	-0.088
-390.063	-24.596	0.039	-0.023
-389.048	630.346	-0.122	0.309
-388.033	-40.284	-0.231	-0.120
-387.019	-91.712	0.388	-0.110
-386.004	537.680	-0.048	0.113
-384.990	-200.000	-0.008	-0.196
-383.975	-58.492	0.213	0.093
-382.960	800.000	-0.041	0.142
-381.946	-200.000	0.045	0.257
-380.931	472.193	-0.051	0.114
-379.917	715.808	-0.125	0.331
-378.902	72.840	0.229	0.239
-377.888	-160.895	0.424	-0.022
-376.873	-200.000	0.005	-0.178
-375.858	-29.092	-0.329	0.189
-374.844	-154.854	-0.112	0.007
-373.829	-9.206	0.050	0.033
-372.815	115.305	-0.131	-0.160
-371.800	0.566	0.114	0.082
-370.785	334.382	-0.108	0.210
-369.771	394.793	0.150	0.312
-368.756	-135.314	0.039	0.005
-367.742	53.072	0.352	-0.337
-366.727	-200.000	-0.006	-0.169
-365.712	800.000	0.090	-0.381
-364.698	-56.409	0.125	0.055
-363.683	13.316	0.249	-0.193
-362.669	163.659	-0.098	0.137
-361.654	121.935	-0.260	-0.325
-360.639	-83.838	0.051	-0.016
-359.625	-200.000	0.001	0.107
-358.610	800.000	0.123	0.354
-357.596	-200.000	0.001	-0.058
-356.581	-119.882	-0.042	-0.007
-355.566	102.824	-0.075	-0.087
-354.552	-91.388	0.115	-0.033
-353.537	212.372	0.111	-0.174
-352.523	-46.518	0.309	0.151
-351.508	133.889	0.022	0.029
-350.493	555.657	-0.034	-0.081
-349.479	182.082	0.032	0.048
-348.464	62.114	0.162	-0.162
-347.450	-115.298	0.079	-0.015
-346.435	-146.080	-0.115	-0.010
-345.420	270.840	0.122	-0.215
-344.406	-52.513	0.211	-0.098
-343.391	800.000	-0.051	0.148
-342.377	-200.000	-0.018	0.219
-341.362	-69.145	0.303	-0.116
-340.348	130.396	0.025	0.032
-339.333	-200.000	0.044	-0.442
-338.318	1.027	-0.202	0.145
-337.304	42.538	0.197	-0.179
-336.289	-147.310	-0.254	-0.022
-335.275	282.049	0.160	0.287
-334.260	-200.000	-0.004	0.218
-333.245	162.322	-0.083	0.116
-332.231	165.400	-0.062	-0.088
-331.216	-101.830	-0.095	-0.023
-330.202	-200.000	0.014	0.353
-329.187	-104.491	0.239	0.055
-328.172	-200.000	-0.051	0.295
-327.158	-6.431	0.165	-0.112
-326.143	102.496	0.120	-0.140
-325.129	220.536	-0.027	-0.044
-324.114	-64.682	-0.029	-0.012
-323.099	-48.466	0.109	-0.053
-322.085	3.955	-0.103	0.075
-321.070	-127.867	-0.085	-0.012
-320.056	-200.000	-0.013	-0.105
-319.041	379.829	-0.148	0.302
-318.026	-103.040	0.188	-0.045
-317.012	-200.000	0.016	0.082
-315.997	121.492	-0.301	0.374
-314.983	800.000	0.056	-0.167
-313.968	72.215	0.096	-0.099
-312.953	28.248	0.145	0.122
-311.939	800.000	0.040	-0.170
-310.924	-80.597	-0.423	-0.140
-309.910	-61.113	-0.400	-0.168
-308.895	-101.329	0.251	-0.061
-307.880	800.000	0.061	-0.212
-306.866	-171.241	-0.047	-0.002
-305.851	-69.109	-0.211	0.081
-304.837	323.671	-0.145	-0.276
-303.822	-200.000	-0.001	-0.102
-302.807	198.466	-0.110	0.167
-301.793	-54.500	0.297	0.134
-300.778	-76.468	0.287	0.101
-299.764	70.394	-0.101	-0.104
-298.749	290.609	0.188	-0.340
-297.735	-200.000	-0.229	0.001
-296.720	437.482	-0.056	0.121
-295.705	-11.359	-0.208	-0.137
-294.691	30.251	0.031	0.026
-293.676	800.000	0.046	0.199
-292.662	121.593	-0.187	0.233
-291.647	-200.000	0.015	-0.201
-290.632	-9.191	-0.136	0.091
-289.618	-65.787	-0.144	-0.057
-288.603	46.610	0.080	-0.074
-287.589	-200.000	0.029	-0.184
-286.574	-45.309	0.280	-0.139
-285.559	800.000	0.052	0.155
-284.545	800.000	-0.042	0.128
-283.530	-200.000	0.005	-0.209
-282.516	427.332	0.052	-0.112
-281.501	-74.512	0.164	-0.059
-280.486	128.734	0.188	0.239
-279.472	-77.546	-0.132	0.046
-278.457	-97.436	-0.348	-0.090
-277.443	-27.644	0.373	-0.216
-276.428	177.114	-0.076	-0.110
-275.413	-200.000	-0.079	0.387
-274.399	-121.591	0.124	-0.021
-273.384	526.179	0.028	-0.066
-272.370	-52.674	-0.076	0.035
-271.355	257.242	-0.071	0.121
-270.340	800.000	-0.118	0.359
-269.326	-141.845	0.261	-0.026
-268.311	167.502	0.030	-0.042
-267.297	503.429	-0.207	0.477
-266.282	64.061	-0.101	0.101
-265.267	-200.000	0.021	-0.257
-264.253	-200.000	-0.031	0.194
-263.238	800.000	-0.044	-0.161
-262.224	-200.000	0.011	0.090
-261.209	508.340	0.094	-0.217
-260.195	-74.863	0.262	-0.094
-259.180	12.345	-0.391	-0.300
-258.165	-30.920	0.122	0.069
-257.151	-200.000	0.070	-0.504
-256.136	-107.444	-0.418	-0.091
-255.122	114.087	0.024	0.029
-254.107	430.586	0.108	-0.232
-253.092	-190.568	0.081	0.001
-252.078	405.666	-0.143	0.300
-251.063	800.000	-0.043	0.132
-250.049	800.000	0.053	0.191
-249.034	-175.859	-0.196	-0.005
-248.019	27.774	0.369	0.309
-247.005	140.813	0.128	0.169
-245.990	-113.684	-0.225	0.044
-244.976	-92.064	0.331	-0.093
-243.961	-10.123	0.368	0.243
-242.946	-200.000	0.015	0.389
-241.932	-98.203	0.108	0.028
-240.917	507.824	0.026	-0.060
-239.903	231.057	-0.047	0.076
-238.888	-200.000	-0.004	0.165
-237.873	-92.102	-0.241	0.068
-236.859	-200.000	0.036	0.412
-235.844	-80.575	-0.203	0.067
-234.830	-86.032	-0.394	-0.121
-233.815	800.000	0.035	-0.131
-232.800	-193.700	0.091	-0.001
-231.786	87.297	-0.093	-0.102
-230.771	-4.364	0.267	0.184
-229.757	800.000	-0.092	-0.255
-228.742	626.639	-0.097	0.243
-227.727	-67.681	-0.186	0.072
-226.713	-200.000	0.026	0.252
-225.698	-200.000	-0.024	-0.315
-224.684	-33.543	0.374	-0.205
-223.669	-125.681	-0.168	-0.025
-222.655	-200.000	-0.013	-0.333
-221.640	-33.273	-0.268	0.148
-220.625	232.940	-0.097	-0.158
-219.611	649.550	0.101	-0.257
-218.596	-4.157	-0.305	-0.210
-217.582	530.053	-0.084	-0.197
-216.567	64.626	-0.301	-0.302
-215.552	351.599	0.086	-0.169
-214.538	-126.992	0.371	-0.054
-213.523	-200.000	0.003	0.156
-212.509	81.222	0.077	-0.083
-211.494	-120.468	0.115	0.019
-210.479	-119.143	-0.084	0.015
-209.465	800.000	0.071	0.299
-208.450	-108.037	-0.281	0.061
-207.436	195.523	0.041	0.062
-206.421	106.670	-0.068	-0.080
-205.406	338.964	-0.218	0.423
-204.392	-12.543	0.285	0.185
-203.377	-77.938	-0.359	-0.123
-202.363	145.993	0.124	0.166
-201.348	159.231	0.117	0.161
-200.333	347.171	-0.099	-0.193
-199.319	13.792	0.064	0.050
-198.304	658.861	-0.050	-0.127
-197.290	383.486	-0.155	0.316
-196.275	-92.464	-0.392	-0.110
-195.260	363.067	-0.169	-0.337
-194.246	26.151	0.128	-0.106
-193.231	6.467	-0.136	-0.100
-192.217	-128.013	-0.178	-0.025
-191.202	-128.660	0.071	0.010
-190.187	-34.289	0.158	0.086
-189.173	133.976	-0.161	0.208
-188.158	275.967	0.104	0.184
-187.144	324.961	0.063	0.120
-186.129	604.008	0.092	-0.228
-185.114	800.000	0.081	-0.300
-184.100	168.069	0.123	0.173
-183.085	-29.853	0.351	0.199
-182.071	5.581	-0.167	-0.122
-181.056	-20.962	0.078	-0.048
-180.042	-65.687	0.158	0.063
-179.027	125.804	0.260	0.326
-178.012	-144.399	-0.082	-0.008
-176.998	800.000	-0.053	0.167
-175.983	-200.000	-0.002	-0.196
-174.969	-200.000	0.003	-0.262
-173.954	649.433	-0.052	-0.131
-172.939	-200.000	0.040	0.494
-171.925	65.451	-0.023	0.024
-170.910	-54.932	-0.352	0.157
-169.896	-200.000	-0.004	0.154
-168.881	16.971	0.213	0.168
-167.866	800.000	-0.137	0.470
-166.852	-200.000	0.002	0.340
-165.837	6.492	0.154	0.114
-164.823	-200.000	0.005	-0.088
-163.808	3.434	-0.197	0.142
-162.793	-200.000	0.008	-0.304
-161.779	50.787	-0.059	-0.055
-160.764	7.261	-0.205	0.152
-159.750	-200.000	-0.005	0.085
-158.735	800.000	0.020	0.067
-157.720	-200.000	0.003	-0.034
-156.706	111.741	0.053	0.063
-155.691	-44.517	0.139	-0.069
-154.677	88.826	0.012	-0.014
-153.662	53.286	0.125	0.119
-152.647	-200.000	0.021	-0.122
-151.633	-85.540	-0.063	-0.019
-150.618	24.962	-0.092	0.076
-149.604	800.000	0.075	-0.245
-148.589	112.194	-0.191	-0.229
-147.574	-200.000	-0.021	0.396
-146.560	-120.242	-0.155	0.026
-145.545	-41.821	-0.205	0.104
-144.531	52.311	0.214	-0.202
-143.516	255.772	0.067	-0.115
-142.502	-66.109	0.356	0.141
-141.487	9.941	-0.248	-0.186
-140.472	-109.847	-0.276	0.057
-139.458	-44.608	0.148	-0.073
-138.443	-200.000	0.026	-0.162
-137.429	160.091	-0.086	-0.119
-136.414	800.000	0.040	0.150
-135.399	93.502	0.144	-0.162
-134.385	-200.000	-0.002	-0.144
-133.370	436.685	0.116	-0.250
-132.356	798.236	0.090	0.246
-131.341	468.003	-0.061	0.136
-130.326	-89.305	-0.200	0.058
-129.312	-49.781	-0.093	0.044
-128.297	87.811	-0.160	-0.176
-127.283	800.000	-0.042	0.121
-126.268	45.258	-0.123	0.112
-125.253	-200.000	-0.010	-0.127
-124.239	-200.000	0.059	-0.306
-123.224	-161.309	0.298	-0.015
-122.210	134.579	-0.026	-0.033
-121.195	4.986	0.113	0.082
-120.180	53.452	0.222	-0.211
