DTS Sentinel unit serial number:	SN413079Multiplexer serial number:	ORYXHardware model number:	OX4-SRSoftware version number:	ORYX F/W v4.00 Oryx Data Collector v3.7.2.0data status	okinstallation	princeton_trtdifferential loss correction	single-endedforward channel	channel 1reverse channel	N/Adate	2019/09/11time	12:36:11forward acquisition time	60.00reverse acquisition time	0.00gamma	496.2192k internal	0.2294k external	0.2294temperature offset calibration	0.9942default loss term (dB/km)	0.3790temperature slope calibration	1.0000multiplexer offset coefficient	1.0000multiplexer slope coefficient	1.0000fibre end	0.00T internal ref (°C)	40.69T ext. ref 1 (°C)	0.20T ext. ref 2 (°C)	38.15length (m)	temperature (°C)	Stokes	anti-Stokes-747.200	-200.000	0.028	0.128
-746.185	666.366	0.088	-0.231
-745.171	-153.865	-0.231	0.016
-744.156	239.473	-0.114	0.195
-743.142	570.931	-0.076	0.190
-742.127	800.000	0.056	-0.197
-741.112	745.278	-0.045	-0.124
-740.098	-69.425	0.404	-0.158
-739.083	471.058	0.209	0.481
-738.069	-200.000	-0.004	0.156
-737.054	800.000	0.044	-0.167
-736.039	-158.268	-0.485	0.029
-735.025	-21.198	0.282	0.176
-734.010	800.000	-0.047	-0.163
-732.996	800.000	-0.105	-0.455
-731.981	22.436	-0.079	0.066
-730.966	299.733	0.160	0.301
-729.952	-200.000	0.010	-0.316
-728.937	-46.607	0.222	-0.111
-727.923	800.000	-0.130	-0.419
-726.908	358.618	-0.073	0.149
-725.894	50.145	0.110	0.106
-724.879	-200.000	-0.003	-0.130
-723.864	-98.581	-0.258	0.067
-722.850	-86.461	-0.064	-0.020
-721.835	800.000	0.023	-0.077
-720.821	-82.433	0.115	0.038
-719.806	-200.000	0.024	-0.354
-718.791	-22.375	0.370	0.229
-717.777	-94.831	0.319	-0.088
-716.762	-29.040	-0.296	0.173
-715.748	506.364	0.041	-0.096
-714.733	132.751	0.059	-0.077
-713.718	469.832	0.138	-0.317
-712.704	165.057	0.101	-0.146
-711.689	-89.066	-0.540	-0.163
-710.675	-49.610	-0.408	-0.198
-709.660	-125.760	-0.330	0.051
-708.645	217.186	0.044	-0.072
-707.631	-48.381	-0.181	0.089
-706.616	-98.116	-0.192	-0.051
-705.602	800.000	0.043	-0.150
-704.587	-175.219	0.167	0.005
-703.572	-200.000	0.024	-0.141
-702.558	430.201	-0.098	-0.216
-701.543	-173.542	-0.129	0.004
-700.529	-77.596	-0.278	0.098
-699.514	111.285	0.189	-0.232
-698.499	-38.464	-0.237	0.128
-697.485	-141.699	0.159	0.016
-696.470	82.593	-0.153	-0.170
-695.456	-153.458	-0.076	-0.005
-694.441	301.676	0.137	-0.259
-693.426	318.545	0.041	-0.078
-692.412	293.797	0.135	-0.252
-691.397	113.254	-0.147	-0.182
-690.383	-200.000	-0.030	0.179
-689.368	-108.117	-0.428	0.095
-688.354	159.857	0.213	-0.302
-687.339	191.761	-0.121	-0.186
-686.324	345.595	0.008	0.015
-685.310	65.883	0.082	0.085
-684.295	106.704	-0.162	-0.196
-683.281	-153.365	-0.640	0.045
-682.266	-57.059	-0.471	0.212
-681.251	-119.200	0.174	0.031
-680.237	800.000	-0.013	-0.050
-679.222	-116.085	0.203	0.038
-678.208	339.732	0.043	-0.085
-677.193	30.923	0.054	-0.047
-676.178	322.868	-0.125	0.243
-675.164	-128.460	0.181	0.026
-674.149	614.470	0.107	-0.273
-673.135	800.000	0.064	0.188
-672.120	-140.887	0.184	-0.019
-671.105	-94.314	-0.297	0.083
-670.091	-68.189	0.082	0.032
-669.076	-96.197	-0.094	0.025
-668.062	303.567	-0.057	0.108
-667.047	105.798	-0.178	-0.214
-666.032	-200.000	-0.014	-0.304
-665.018	800.000	-0.156	-0.571
-664.003	681.066	-0.048	-0.127
-662.989	-16.067	0.201	0.130
-661.974	-8.744	0.253	0.173
-660.959	399.685	-0.099	0.211
-659.945	6.940	-0.219	0.167
-658.930	150.344	-0.117	-0.162
-657.916	115.020	0.056	-0.070
-656.901	-200.000	-0.073	0.413
-655.886	34.286	-0.227	-0.202
-654.872	-151.079	0.206	-0.016
-653.857	701.677	0.055	-0.147
-652.843	227.776	0.071	0.117
-651.828	-131.603	0.128	-0.017
-650.814	2.124	-0.250	-0.184
-649.799	203.945	-0.276	-0.436
-648.784	581.022	0.031	-0.078
-647.770	72.262	0.198	-0.210
-646.755	224.505	-0.099	0.162
-645.741	-84.775	0.442	-0.142
-644.726	-19.074	-0.007	-0.004
-643.711	253.994	-0.084	-0.147
-642.697	-45.211	0.221	-0.112
-641.682	-12.070	0.185	-0.124
-640.668	800.000	-0.068	-0.230
-639.653	337.362	-0.146	-0.288
-638.638	-153.199	0.160	0.011
-637.624	622.329	0.024	-0.062
-636.609	449.325	-0.071	-0.160
-635.595	-125.712	-0.019	0.003
-634.580	-200.000	-0.000	-0.193
-633.565	148.136	0.020	-0.028
-632.551	-199.545	-0.261	-0.001
-631.536	-200.000	0.012	-0.334
-630.522	441.359	-0.200	-0.445
-629.507	85.918	0.065	-0.073
-628.492	-27.264	-0.230	0.136
-627.478	800.000	0.050	-0.199
-626.463	-200.000	-0.039	-0.205
-625.449	-200.000	0.003	-0.043
-624.434	55.314	-0.214	0.210
-623.419	357.127	0.057	0.116
-622.405	-200.000	-0.042	0.264
-621.390	-27.594	0.210	0.124
-620.376	-75.648	-0.195	0.071
-619.361	40.456	-0.251	0.230
-618.346	800.000	-0.070	-0.304
-617.332	778.582	-0.119	0.332
-616.317	-124.434	-0.290	-0.046
-615.303	75.620	-0.189	-0.204
-614.288	40.604	0.186	-0.171
-613.273	-200.000	0.035	-0.410
-612.259	-41.625	0.248	-0.130
-611.244	3.965	-0.115	-0.086
-610.230	-31.691	-0.074	-0.042
-609.215	800.000	-0.072	-0.287
-608.201	96.733	-0.156	-0.181
-607.186	67.992	-0.169	-0.175
-606.171	9.964	-0.224	-0.173
-605.157	70.924	0.211	0.223
-604.142	-104.877	0.271	-0.063
-603.128	800.000	-0.050	-0.145
-602.113	293.086	0.074	-0.137
-601.098	800.000	-0.038	-0.122
-600.084	677.234	-0.036	-0.094
-599.069	-49.119	-0.080	0.039
-598.055	-122.279	-0.214	0.036
-597.040	-68.044	0.240	-0.095
-596.025	21.556	-0.100	-0.083
-595.011	320.819	0.071	0.138
-593.996	79.225	0.142	-0.155
-592.982	-200.000	0.011	-0.266
-591.967	-116.750	-0.096	0.018
-590.952	-23.240	-0.115	-0.071
-589.938	204.343	-0.124	-0.196
-588.923	-200.000	-0.040	-0.217
-587.909	800.000	-0.102	-0.301
-586.894	800.000	-0.048	0.144
-585.879	-159.449	-0.394	-0.022
-584.865	-117.254	-0.053	0.010
-583.850	9.058	-0.164	0.126
-582.836	-200.000	0.023	0.244
-581.821	-70.738	-0.094	0.036
-580.806	3.177	-0.103	0.076
-579.792	-88.768	0.193	-0.058
-578.777	386.425	0.108	0.227
-577.763	-30.343	0.318	0.183
-576.748	800.000	-0.064	-0.244
-575.733	-81.862	-0.089	-0.030
-574.719	98.314	0.294	-0.344
-573.704	-122.006	0.247	-0.041
-572.690	243.695	0.077	0.131
-571.675	-105.996	-0.393	0.090
-570.661	82.045	-0.051	0.056
-569.646	185.699	-0.107	0.161
-568.631	-56.062	-0.331	-0.150
-567.617	800.000	-0.022	-0.064
-566.602	800.000	-0.111	0.359
-565.588	-200.000	0.023	0.113
-564.573	353.337	0.132	0.266
-563.558	577.080	-0.039	0.097
-562.544	-110.382	0.258	0.054
-561.529	-162.221	-0.213	0.011
-560.515	652.777	-0.099	-0.258
-559.500	800.000	-0.145	-0.438
-558.485	-39.563	-0.276	0.147
-557.471	489.289	-0.031	0.071
-556.456	398.844	-0.140	-0.297
-555.442	-200.000	0.090	0.408
-554.427	8.167	0.171	-0.130
-553.412	-5.436	0.419	-0.292
-552.398	-4.632	-0.150	0.105
-551.383	-98.653	0.262	0.068
-550.369	-23.980	0.194	-0.118
-549.354	44.770	-0.092	-0.085
-548.339	188.551	0.277	-0.420
-547.325	800.000	-0.088	0.272
-546.310	800.000	0.026	-0.103
-545.296	30.512	0.182	-0.158
-544.281	800.000	0.061	0.230
-543.266	-137.263	-0.052	0.006
-542.252	-12.374	-0.182	-0.121
-541.237	-112.336	-0.290	0.059
-540.223	-130.497	-0.198	-0.027
-539.208	84.380	-0.182	-0.202
-538.193	-53.897	-0.133	0.062
-537.179	-11.800	-0.166	-0.110
-536.164	-154.923	-0.145	-0.010
-535.150	-152.498	-0.026	0.002
-534.135	750.658	0.161	-0.440
-533.121	15.726	-0.037	0.030
-532.106	-200.000	-0.040	-0.179
-531.091	-165.893	-0.312	-0.014
-530.077	-200.000	-0.029	0.281
-529.062	-38.924	-0.245	0.131
-528.048	118.098	0.225	0.281
-527.033	9.897	0.106	0.081
-526.018	-36.229	0.077	0.042
-525.004	-157.987	0.483	-0.029
-523.989	-83.096	-0.148	0.048
-522.975	-146.823	0.118	0.010
-521.960	7.643	0.085	0.064
-520.945	347.223	-0.042	-0.084
-519.931	50.201	-0.068	0.065
-518.916	18.281	-0.070	-0.057
-517.902	-200.000	-0.015	-0.166
-516.887	-113.484	0.197	0.039
-515.872	241.255	-0.053	-0.090
-514.858	272.422	-0.112	-0.200
-513.843	800.000	0.027	0.080
-512.829	-91.952	0.111	-0.032
-511.814	-51.885	0.131	-0.062
-510.799	-48.445	-0.157	-0.077
-509.785	-200.000	0.002	-0.112
-508.770	800.000	0.082	-0.295
-507.756	577.772	-0.148	-0.366
-506.741	800.000	-0.051	-0.223
-505.726	800.000	-0.075	-0.278
-504.712	800.000	-0.079	-0.294
-503.697	-200.000	0.012	0.240
-502.683	-65.329	-0.263	0.107
-501.668	24.981	0.149	-0.125
-500.653	-15.346	-0.124	0.081
-499.639	800.000	0.058	0.202
-498.624	213.534	0.100	0.161
-497.610	82.239	0.085	0.093
-496.595	-133.703	0.220	-0.028
-495.581	-94.239	0.205	-0.057
-494.566	-82.356	0.201	0.066
-493.551	-200.000	0.017	-0.156
-492.537	105.460	-0.245	-0.293
-491.522	-45.993	0.505	-0.252
-490.508	-3.354	-0.377	-0.266
-489.493	-127.473	0.188	0.028
-488.478	-21.466	0.182	-0.113
-487.464	-104.543	-0.275	0.064
-486.449	255.893	0.137	0.238
-485.435	800.000	-0.035	-0.114
-484.420	648.030	-0.137	0.355
-483.405	212.403	0.187	0.299
-482.391	800.000	-0.010	-0.041
-481.376	-135.909	0.431	0.051
-480.362	159.874	0.070	-0.098
-479.347	800.000	-0.122	-0.397
-478.332	-57.023	-0.138	0.062
-477.318	800.000	-0.033	-0.098
-476.303	-21.283	-0.231	-0.143
-475.289	557.647	0.154	-0.376
-474.274	-12.330	-0.077	0.051
-473.259	92.237	0.219	0.249
-472.245	-200.000	0.038	-0.346
-471.230	-118.954	-0.182	0.032
-470.216	800.000	-0.069	-0.230
-469.201	327.674	0.177	0.344
-468.186	-29.399	-0.207	0.120
-467.172	164.149	-0.219	0.312
-466.157	-125.952	0.447	0.068
-465.143	-163.540	-0.019	-0.001
-464.128	179.359	0.104	0.154
-463.113	-200.000	0.013	-0.134
-462.099	800.000	0.067	0.254
-461.084	-91.777	-0.270	0.077
-460.070	86.303	-0.096	0.107
-459.055	-200.000	-0.047	-0.300
-458.040	36.305	0.064	0.057
-457.026	178.872	0.110	-0.163
-456.011	-49.790	-0.279	0.134
-454.997	-200.000	-0.014	0.113
-453.982	-103.763	-0.204	-0.048
-452.968	-81.865	-0.020	0.006
-451.953	-106.913	-0.053	0.012
-450.938	-55.978	0.322	-0.145
-449.924	-82.522	0.234	0.077
-448.909	-200.000	0.001	0.193
-447.895	359.237	0.157	-0.316
-446.880	-200.000	0.023	-0.145
-445.865	-200.000	-0.030	0.416
-444.851	10.565	-0.303	-0.234
-443.836	63.045	-0.081	0.082
-442.822	-200.000	0.035	0.165
-441.807	-59.454	-0.159	-0.069
-440.792	49.652	-0.297	0.283
-439.778	-200.000	0.016	0.172
-438.763	466.137	0.098	0.222
-437.749	-200.000	0.059	0.340
-436.734	-144.516	-0.243	-0.023
-435.719	-71.711	-0.376	-0.142
-434.705	5.404	-0.142	0.106
-433.690	30.150	0.301	-0.259
-432.676	-30.219	0.227	0.130
-431.661	314.120	-0.052	0.099
-430.646	-200.000	-0.004	-0.152
-429.632	800.000	-0.056	-0.217
-428.617	17.674	-0.029	-0.023
-427.603	217.503	0.176	0.284
-426.588	-30.825	-0.261	-0.149
-425.573	284.619	-0.111	0.201
-424.559	94.315	0.053	0.060
-423.544	42.161	0.152	0.140
-422.530	-200.000	-0.013	0.117
-421.515	-200.000	0.021	-0.265
-420.500	-200.000	-0.002	0.050
-419.486	-122.442	0.208	0.034
-418.471	-4.476	-0.296	-0.206
-417.457	46.456	-0.239	0.224
-416.442	19.227	-0.128	-0.103
-415.428	-53.381	-0.099	0.046
-414.413	144.578	-0.146	0.198
-413.398	-200.000	-0.032	0.172
-412.384	800.000	0.114	0.491
-411.369	-103.516	0.428	-0.101
-410.355	-13.595	-0.141	0.092
-409.340	-200.000	0.020	-0.330
-408.325	301.689	0.135	0.252
-407.311	-64.263	-0.291	0.120
-406.296	-200.000	-0.080	0.785
-405.282	757.918	0.072	0.198
-404.267	281.453	-0.131	0.237
-403.252	49.374	-0.179	0.170
-402.238	42.583	0.202	0.185
-401.223	36.778	0.034	0.031
-400.209	244.505	-0.106	-0.180
-399.194	514.691	0.088	0.208
-398.179	800.000	0.053	-0.161
-397.165	5.647	0.141	-0.105
-396.150	53.431	-0.260	0.251
-395.136	-17.269	-0.258	0.164
-394.121	663.433	-0.002	-0.006
-393.106	-10.772	-0.160	-0.107
-392.092	-129.878	0.174	0.024
-391.077	-200.000	0.003	-0.016
-390.063	16.928	0.107	-0.085
-389.048	-158.083	-0.322	-0.019
-388.033	800.000	-0.147	-0.417
-387.019	-165.180	-0.266	0.012
-386.004	249.848	-0.026	0.045
-384.990	59.092	0.028	-0.028
-383.975	163.102	-0.093	-0.132
-382.960	-31.710	0.040	0.023
-381.946	-200.000	0.071	0.350
-380.931	-135.508	0.015	0.002
-379.917	-200.000	0.068	-0.402
-378.902	-43.401	0.258	-0.131
-377.888	161.150	0.087	-0.123
-376.873	-200.000	0.012	0.228
-375.858	95.467	-0.088	0.101
-374.844	-200.000	-0.000	-0.065
-373.829	37.232	-0.181	-0.162
-372.815	-39.250	0.243	-0.129
-371.800	-75.743	-0.150	-0.054
-370.785	-78.224	0.123	-0.043
-369.771	-153.116	-0.340	0.024
-368.756	-186.633	-0.320	0.005
-367.742	280.453	-0.055	0.099
-366.727	-200.000	0.055	0.290
-365.712	218.118	-0.032	-0.052
-364.698	-0.483	0.280	0.200
-363.683	8.289	-0.383	-0.290
-362.669	-200.000	0.021	0.195
-361.654	14.578	-0.174	0.137
-360.639	-19.706	0.156	0.097
-359.625	225.834	-0.135	0.220
-358.610	-51.622	0.143	0.067
-357.596	273.252	-0.092	0.164
-356.581	146.353	0.130	0.176
-355.566	-136.705	0.082	-0.010
-354.552	321.168	-0.186	-0.357
-353.537	401.666	0.139	0.293
-352.523	-57.210	0.329	-0.146
-351.508	-200.000	0.047	0.271
-350.493	-143.159	-0.242	0.023
-349.479	-161.905	0.152	-0.008
-348.464	800.000	0.081	-0.290
-347.450	-130.430	-0.226	-0.031
-346.435	120.513	-0.192	0.241
-345.420	-107.289	0.178	0.039
-344.406	404.651	0.119	0.253
-343.391	776.769	-0.085	0.233
-342.377	-200.000	0.030	-0.176
-341.362	-11.549	-0.151	0.100
-340.348	229.245	-0.041	0.067
-339.333	136.313	-0.173	0.227
-338.318	-136.407	0.208	0.024
-337.304	-200.000	-0.069	-0.306
-336.289	-37.149	-0.135	-0.073
-335.275	339.165	-0.052	0.101
-334.260	-46.393	0.223	-0.110
-333.245	800.000	0.081	-0.283
-332.231	-200.000	-0.017	0.193
-331.216	-200.000	0.056	-0.247
-330.202	-35.815	0.238	0.130
-329.187	85.333	-0.075	-0.083
-328.172	146.390	-0.084	0.113
-327.158	-41.878	-0.120	0.062
-326.143	-41.870	0.117	0.060
-325.129	-200.000	0.027	-0.177
-324.114	19.077	0.143	-0.116
-323.099	-113.390	0.401	0.079
-322.085	-200.000	0.065	0.344
-321.070	-90.592	0.398	0.116
-320.056	150.475	-0.210	0.286
-319.041	-34.702	0.125	-0.069
-318.026	27.964	0.083	-0.070
-317.012	387.408	-0.141	-0.293
-315.997	-200.000	-0.003	0.211
-314.983	201.339	-0.081	0.126
-313.968	65.661	0.258	0.263
-312.953	212.686	0.085	0.135
-311.939	-125.763	-0.318	-0.048
-310.924	-121.466	-0.355	0.059
-309.910	48.470	-0.177	0.166
-308.895	-111.314	-0.181	-0.037
-307.880	-3.838	-0.162	-0.113
-306.866	451.797	-0.031	0.069
-305.851	-127.851	0.090	-0.013
-304.837	315.987	0.267	0.507
-303.822	800.000	-0.124	0.481
-302.807	-136.993	-0.056	0.006
-301.793	-200.000	-0.023	-0.179
-300.778	-44.659	0.229	0.115
-299.764	-109.946	0.095	-0.020
-298.749	98.810	0.124	0.143
-297.735	-200.000	0.075	0.343
-296.720	161.585	-0.085	0.120
-295.705	-62.320	-0.279	-0.117
-294.691	128.467	-0.103	0.132
-293.676	-105.446	0.240	0.055
-292.662	-24.394	0.277	-0.166
-291.647	-68.306	-0.301	0.117
-290.632	800.000	-0.157	0.477
-289.618	-200.000	-0.058	0.357
-288.603	-200.000	-0.036	0.223
-287.589	-86.827	0.305	-0.093
-286.574	15.533	-0.118	0.093
-285.559	-90.350	0.301	0.088
-284.545	-37.317	0.376	-0.202
-283.530	-116.533	0.454	-0.084
-282.516	-99.824	0.247	0.062
-281.501	-200.000	-0.018	0.238
-280.486	-2.826	0.092	-0.064
-279.472	113.484	-0.150	-0.183
-278.457	193.685	0.163	-0.248
-277.443	-136.191	-0.129	0.015
-276.428	-200.000	0.052	0.413
-275.413	800.000	-0.025	0.097
-274.399	-200.000	0.043	0.367
-273.384	800.000	-0.075	-0.313
-272.370	28.429	-0.182	-0.155
-271.355	183.733	0.066	-0.098
-270.340	103.136	0.128	-0.151
-269.326	-200.000	-0.033	0.166
-268.311	-200.000	0.023	0.182
-267.297	535.187	-0.021	-0.051
-266.282	-200.000	-0.043	0.213
-265.267	-76.077	0.367	-0.130
-264.253	-71.407	0.092	0.034
-263.238	-58.505	0.033	0.014
-262.224	189.043	0.122	0.183
-261.209	-18.460	0.100	-0.062
-260.195	-200.000	-0.019	-0.366
-259.180	800.000	0.031	-0.116
-258.165	682.999	-0.066	0.173
-257.151	245.560	0.132	-0.223
-256.136	800.000	0.050	0.218
-255.122	52.046	-0.274	-0.262
-254.107	-110.330	0.234	0.049
-253.092	-200.000	-0.006	-0.132
-252.078	-39.887	0.172	-0.090
-251.063	35.231	0.308	-0.271
-250.049	-161.250	-0.072	-0.004
-249.034	-16.903	0.396	-0.251
-248.019	800.000	0.058	-0.221
-247.005	-25.441	0.150	0.089
-245.990	81.771	-0.029	0.031
-244.976	378.855	-0.110	-0.225
-243.961	-200.000	0.038	-0.167
-242.946	237.453	0.058	-0.097
-241.932	555.781	-0.111	0.267
-240.917	100.275	0.203	-0.237
-239.903	53.836	0.179	-0.172
-238.888	-200.000	-0.015	0.220
-237.873	800.000	-0.028	-0.101
-236.859	800.000	-0.067	-0.229
-235.844	-116.688	0.175	0.032
-234.830	138.342	0.140	0.184
-233.815	329.780	0.053	0.103
-232.800	-39.980	-0.268	-0.140
-231.786	-107.531	0.266	-0.058
-230.771	-126.876	-0.101	0.015
-229.757	27.556	0.149	0.125
-228.742	-32.700	-0.260	-0.145
-227.727	14.442	-0.240	-0.187
-226.713	-133.844	-0.053	-0.007
-225.698	286.938	0.079	0.143
-224.684	43.986	-0.274	-0.252
-223.669	-200.000	-0.001	-0.248
-222.655	471.343	-0.092	-0.207
-221.640	125.312	0.171	-0.216
-220.625	54.762	0.115	0.112
-219.611	218.270	-0.137	-0.219
-218.596	-84.536	-0.099	-0.031
-217.582	588.504	-0.118	0.290
-216.567	45.727	-0.127	0.118
-215.552	88.957	0.056	0.062
-214.538	-200.000	0.060	0.467
-213.523	-149.594	-0.269	-0.021
-212.509	-200.000	0.057	0.380
-211.494	-82.914	-0.168	-0.054
-210.479	176.820	0.155	0.226
-209.465	-162.258	0.255	0.013
-208.450	4.613	0.031	-0.022
-207.436	168.755	-0.299	-0.427
-206.421	-45.141	0.074	-0.037
-205.406	228.170	0.134	0.219
-204.392	-200.000	-0.038	0.312
-203.377	-29.967	-0.267	-0.152
-202.363	-13.094	-0.122	0.079
-201.348	-102.699	-0.050	-0.012
-200.333	-99.808	0.161	0.040
-199.319	223.020	0.049	0.079
-198.304	399.665	0.089	-0.187
-197.290	632.634	0.085	0.215
-196.275	146.141	0.351	0.472
-195.260	-200.000	-0.012	-0.196
-194.246	-85.242	-0.221	-0.069
-193.231	60.553	0.134	0.133
-192.217	457.954	-0.062	-0.137
-191.202	-103.324	0.111	-0.026
-190.187	36.059	0.103	-0.091
-189.173	1.935	-0.121	0.087
-188.158	-200.000	0.024	0.244
-187.144	-200.000	0.014	0.227
-186.129	-82.539	0.078	-0.025
-185.114	-90.490	0.139	-0.040
-184.100	-139.231	-0.628	0.068
-183.085	-128.449	-0.041	-0.006
-182.071	-44.380	-0.025	-0.013
-181.056	421.524	0.027	-0.059
-180.042	-86.954	0.473	0.144
-179.027	314.861	0.195	0.368
-178.012	-97.890	0.455	0.118
-176.998	-200.000	0.037	-0.244
-175.983	-200.000	-0.040	-0.258
-174.969	-30.633	0.079	-0.045
-173.954	201.024	-0.117	0.180
-172.939	5.135	-0.068	0.050
-171.925	-123.385	0.391	-0.062
-170.910	-88.392	0.083	0.025
-169.896	-98.612	0.332	0.085
-168.881	60.367	-0.140	-0.138
-167.866	-146.624	0.232	0.020
-166.852	293.697	-0.079	-0.145
-165.837	-200.000	-0.003	-0.319
-164.823	68.764	-0.191	0.196
-163.808	114.514	0.203	-0.247
-162.793	27.458	-0.091	-0.077
-161.779	143.348	-0.119	-0.159
-160.764	3.348	0.311	-0.226
-159.750	231.838	-0.045	0.073
-158.735	154.115	-0.221	0.303
-157.720	800.000	-0.061	-0.193
-156.706	-200.000	-0.013	0.156
-155.691	-54.299	0.139	0.063
-154.677	-174.066	-0.351	-0.010
-153.662	-200.000	0.030	0.167
-152.647	-9.689	0.090	-0.060
-151.633	800.000	-0.030	0.120
-150.618	-103.415	-0.006	0.001
-149.604	-130.246	0.278	0.038
-148.589	105.861	0.156	-0.185
-147.574	-194.075	-0.311	-0.003
-146.560	24.946	0.179	0.148
-145.545	194.366	-0.188	0.285
-144.531	-17.952	-0.066	0.041
-143.516	-132.456	0.242	-0.031
-142.502	-40.315	-0.208	0.108
-141.487	-125.101	-0.079	-0.012
-140.472	24.075	-0.256	0.211
-139.458	-177.538	-0.364	0.009
-138.443	182.268	0.167	0.246
-137.429	-200.000	0.058	0.347
-136.414	800.000	0.041	-0.160
-135.399	-171.954	-0.161	-0.005
-134.385	-61.450	-0.324	-0.136
-133.370	143.387	-0.163	-0.217
-132.356	-200.000	-0.003	0.041
-131.341	46.941	-0.189	0.176
-130.326	-200.000	0.042	0.326
-129.312	-93.105	0.226	0.063
-128.297	-85.170	-0.153	-0.048
-127.283	-200.000	-0.016	0.177
-126.268	323.877	-0.063	0.121
-125.253	-53.169	0.232	-0.106
-124.239	-65.434	0.357	0.143
-123.224	-199.002	-0.157	0.001
-122.210	-144.086	0.056	-0.005
