DTS Sentinel unit serial number:	SN413079Multiplexer serial number:	ORYXHardware model number:	OX4-SRSoftware version number:	ORYX F/W v4.00 Oryx Data Collector v3.7.2.0data status	okinstallation	princeton_trtdifferential loss correction	single-endedforward channel	channel 1reverse channel	N/Adate	2019/09/11time	16:32:11forward acquisition time	60.00reverse acquisition time	0.00gamma	496.2192k internal	0.2290k external	0.2290temperature offset calibration	0.9993default loss term (dB/km)	0.3790temperature slope calibration	1.0000multiplexer offset coefficient	1.0000multiplexer slope coefficient	1.0000fibre end	0.00T internal ref (°C)	43.69T ext. ref 1 (°C)	1.09T ext. ref 2 (°C)	39.45length (m)	temperature (°C)	Stokes	anti-Stokes-747.200	702.663	-0.059	-0.159
-746.185	-63.349	0.103	0.043
-745.171	-200.000	0.025	0.256
-744.156	678.635	0.061	0.164
-743.142	-97.066	-0.138	-0.037
-742.127	-108.339	-0.159	-0.035
-741.112	-51.359	-0.228	-0.109
-740.098	385.535	0.112	0.237
-739.083	-105.357	0.225	-0.053
-738.069	90.819	0.156	0.179
-737.054	113.165	-0.087	0.108
-736.039	-52.672	0.042	-0.020
-735.025	-42.862	-0.260	-0.135
-734.010	800.000	0.077	-0.228
-732.996	-194.192	0.198	-0.002
-731.981	-139.874	-0.315	-0.034
-730.966	-200.000	-0.020	-0.184
-729.952	-82.698	-0.051	-0.017
-728.937	-82.946	0.246	-0.081
-727.923	-30.930	-0.411	-0.238
-726.908	-17.351	-0.055	-0.035
-725.894	476.899	0.055	0.128
-724.879	-200.000	0.085	0.419
-723.864	-101.744	0.120	0.030
-722.850	56.681	-0.333	-0.332
-721.835	227.893	-0.170	-0.283
-720.821	-80.902	-0.156	0.053
-719.806	-42.528	-0.120	-0.062
-718.791	183.099	0.048	-0.072
-717.777	729.957	0.079	-0.216
-716.762	151.267	-0.145	-0.203
-715.748	160.627	0.155	-0.222
-714.733	25.836	-0.149	-0.127
-713.718	-27.293	0.147	-0.087
-712.704	639.852	0.090	0.234
-711.689	109.835	0.097	0.119
-710.675	-24.525	0.104	0.063
-709.660	121.416	-0.313	-0.399
-708.645	-200.000	0.027	0.140
-707.631	-52.422	0.155	-0.073
-706.616	80.021	0.247	0.272
-705.602	-43.718	0.113	-0.058
-704.587	17.805	0.263	-0.215
-703.572	-135.918	0.160	0.019
-702.558	800.000	-0.029	-0.121
-701.543	-200.000	-0.039	0.377
-700.529	-130.514	0.139	0.019
-699.514	-112.332	-0.041	-0.008
-698.499	-200.000	0.017	0.399
-697.485	285.148	-0.071	0.130
-696.470	-16.207	-0.212	-0.138
-695.456	155.167	0.102	0.143
-694.441	800.000	0.092	0.390
-693.426	517.595	0.066	0.158
-692.412	-69.611	0.162	-0.063
-691.397	-128.646	0.279	0.040
-690.383	-142.810	-0.288	0.029
-689.368	94.629	-0.120	0.139
-688.354	307.703	0.188	0.358
-687.339	-111.947	0.107	-0.022
-686.324	-76.102	-0.234	-0.085
-685.310	800.000	0.043	0.187
-684.295	-200.000	0.003	0.131
-683.281	69.362	-0.140	0.147
-682.266	247.773	0.021	0.037
-681.251	665.744	0.134	-0.354
-680.237	20.555	0.252	0.208
-679.222	-200.000	0.004	0.101
-678.208	121.676	-0.074	-0.094
-677.193	-200.000	0.040	-0.322
-676.178	332.895	0.191	-0.377
-675.164	127.951	-0.149	-0.194
-674.149	800.000	-0.098	0.396
-673.135	-200.000	-0.004	-0.082
-672.120	162.673	0.198	0.284
-671.105	-200.000	-0.008	-0.153
-670.091	-200.000	-0.011	0.062
-669.076	53.644	-0.161	0.158
-668.062	-174.999	0.119	0.003
-667.047	-138.825	-0.159	-0.018
-666.032	47.161	0.164	-0.156
-665.018	323.023	0.137	-0.266
-664.003	171.360	0.133	-0.194
-662.989	800.000	0.074	0.223
-661.974	346.850	0.024	0.048
-660.959	281.659	-0.084	0.154
-659.945	-57.924	-0.158	-0.071
-658.930	75.036	-0.071	-0.077
-657.916	213.771	-0.072	0.116
-656.901	-50.630	-0.096	0.046
-655.886	-112.314	-0.206	-0.042
-654.872	369.529	-0.006	-0.012
-653.857	-200.000	-0.035	0.181
-652.843	-200.000	-0.021	-0.112
-651.828	-200.000	-0.097	0.445
-650.814	3.443	-0.248	0.184
-649.799	65.312	0.236	-0.244
-648.784	-97.024	-0.345	-0.092
-647.770	128.056	-0.302	0.392
-646.755	40.427	0.182	0.167
-645.741	-48.360	0.220	-0.108
-644.726	-200.000	-0.017	-0.120
-643.711	-181.073	-0.088	-0.002
-642.697	-5.321	0.321	-0.225
-641.682	96.375	-0.150	-0.175
-640.668	109.692	-0.105	-0.129
-639.653	-152.457	0.345	-0.025
-638.638	-93.170	0.122	-0.035
-637.624	-200.000	-0.001	-0.132
-636.609	428.355	0.187	0.412
-635.595	-121.323	0.072	-0.012
-634.580	93.321	-0.147	0.170
-633.565	408.533	-0.106	0.229
-632.551	-139.663	0.233	-0.025
-631.536	-81.245	0.143	-0.048
-630.522	-107.591	-0.256	-0.057
-629.507	800.000	0.040	0.148
-628.492	-77.774	-0.142	-0.050
-627.478	370.529	-0.045	-0.093
-626.463	-47.201	-0.231	-0.115
-625.449	-52.293	-0.126	0.059
-624.434	368.798	-0.077	-0.159
-623.419	189.244	0.107	0.163
-622.405	-200.000	-0.032	0.187
-621.390	-152.276	0.125	-0.009
-620.376	-114.462	-0.364	0.071
-619.361	-184.323	-0.241	-0.004
-618.346	21.611	0.126	-0.105
-617.332	800.000	0.049	0.198
-616.317	-129.588	0.054	-0.008
-615.303	98.325	-0.208	-0.245
-614.288	-200.000	-0.002	-0.169
-613.273	-200.000	-0.038	0.261
-612.259	-44.431	0.222	0.113
-611.244	56.299	0.103	0.102
-610.230	-200.000	0.010	-0.114
-609.215	32.657	0.112	0.099
-608.201	334.245	-0.057	-0.112
-607.186	142.266	0.262	0.354
-606.171	350.119	-0.059	-0.119
-605.157	265.637	-0.081	-0.144
-604.142	-7.979	-0.240	0.165
-603.128	66.119	0.129	-0.133
-602.113	134.207	0.297	-0.392
-601.098	-16.691	-0.148	-0.095
-600.084	-200.000	-0.012	-0.147
-599.069	-200.000	0.017	-0.145
-598.055	13.118	0.237	0.187
-597.040	44.308	0.186	-0.174
-596.025	37.986	-0.262	-0.238
-595.011	-56.376	0.244	-0.110
-593.996	32.346	0.096	-0.084
-592.982	98.297	0.201	0.235
-591.967	436.346	-0.154	0.342
-590.952	177.460	-0.220	-0.326
-589.938	127.329	-0.028	0.037
-588.923	29.593	-0.180	0.156
-587.909	-200.000	0.002	-0.380
-586.894	90.901	-0.468	-0.535
-585.879	-200.000	-0.004	-0.109
-584.865	800.000	-0.085	-0.256
-583.850	85.180	0.198	-0.222
-582.836	73.945	0.175	0.187
-581.821	-200.000	0.009	0.108
-580.806	-35.368	-0.136	-0.075
-579.792	43.414	0.298	-0.277
-578.777	92.527	0.127	-0.146
-577.763	6.720	0.251	-0.190
-576.748	800.000	-0.044	0.128
-575.733	-79.784	-0.167	0.057
-574.719	175.366	-0.077	-0.113
-573.704	-200.000	0.010	0.084
-572.690	-100.325	0.486	0.123
-571.675	-200.000	-0.018	0.116
-570.661	-89.826	-0.202	0.060
-569.646	101.260	0.148	0.175
-568.631	-200.000	0.032	0.178
-567.617	-173.934	-0.142	0.004
-566.602	-129.851	0.113	-0.016
-565.588	220.973	0.077	0.126
-564.573	-27.141	0.097	0.057
-563.558	-200.000	0.006	-0.296
-562.544	800.000	0.012	0.037
-561.529	8.004	-0.164	-0.125
-560.515	-8.941	-0.275	-0.188
-559.500	-200.000	-0.007	-0.275
-558.485	800.000	0.082	0.255
-557.471	135.742	-0.229	-0.303
-556.456	800.000	-0.037	-0.160
-555.442	-200.000	0.025	0.124
-554.427	-200.000	-0.043	0.206
-553.412	116.603	0.089	-0.111
-552.398	159.497	-0.113	-0.159
-551.383	-105.951	-0.271	0.062
-550.369	324.931	-0.158	-0.308
-549.354	-113.627	-0.319	-0.063
-548.339	70.041	0.169	0.178
-547.325	-36.433	-0.204	0.112
-546.310	-78.046	-0.192	-0.067
-545.296	348.829	-0.167	-0.336
-544.281	43.254	0.189	-0.176
-543.266	80.521	-0.152	-0.167
-542.252	-24.366	0.157	-0.095
-541.237	196.676	-0.273	0.423
-540.223	-57.971	0.169	0.075
-539.208	-126.941	0.254	0.038
-538.193	-135.425	0.038	-0.005
-537.179	-200.000	0.011	0.152
-536.164	-103.929	0.157	0.037
-535.150	-47.178	-0.324	-0.161
-534.135	50.094	-0.426	-0.409
-533.121	15.195	0.177	-0.141
-532.106	800.000	0.090	-0.310
-531.091	637.105	-0.072	0.185
-530.077	800.000	0.069	0.209
-529.062	800.000	-0.060	-0.173
-528.048	-130.415	0.103	0.014
-527.033	-200.000	0.009	0.411
-526.018	409.613	-0.080	-0.171
-525.004	596.409	0.194	-0.488
-523.989	132.622	0.119	0.156
-522.975	48.035	-0.244	0.231
-521.960	-24.585	-0.228	0.138
-520.945	-114.178	0.500	-0.098
-519.931	-200.000	-0.061	0.299
-518.916	-41.532	-0.329	0.172
-517.902	-85.963	-0.121	-0.038
-516.887	-200.000	-0.034	-0.314
-515.872	130.524	-0.192	0.250
-514.858	110.096	0.211	-0.257
-513.843	109.132	-0.228	-0.277
-512.829	-89.107	-0.350	0.105
-511.814	-51.253	0.069	0.033
-510.799	22.386	0.150	0.125
-509.785	376.284	0.078	-0.162
-508.770	-90.980	-0.191	0.056
-507.756	-46.786	0.178	0.089
-506.741	-109.851	0.160	-0.034
-505.726	241.639	0.121	0.206
-504.712	-200.000	-0.030	-0.268
-503.697	-200.000	-0.017	-0.414
-502.683	-0.727	-0.156	-0.112
-501.668	253.537	-0.115	-0.199
-500.653	164.929	-0.056	-0.080
-499.639	516.427	0.051	-0.122
-498.624	92.646	0.200	0.229
-497.610	142.208	0.073	0.098
-496.595	800.000	0.174	0.515
-495.581	-197.035	0.343	-0.002
-494.566	-200.000	0.003	0.110
-493.551	-102.824	0.232	-0.056
-492.537	800.000	0.051	0.200
-491.522	-200.000	-0.020	0.246
-490.508	-86.556	-0.173	0.054
-489.493	-29.340	0.167	0.097
-488.478	-120.713	0.217	-0.037
-487.464	-129.964	0.149	-0.021
-486.449	197.569	0.226	-0.350
-485.435	-79.739	0.064	-0.022
-484.420	-141.946	-0.113	0.011
-483.405	42.574	0.057	-0.052
-482.391	14.391	-0.230	-0.182
-481.376	206.419	-0.226	-0.358
-480.362	-200.000	0.034	-0.159
-479.347	98.089	-0.172	0.201
-478.332	-200.000	-0.053	-0.238
-477.318	372.201	-0.010	0.022
-476.303	23.640	-0.075	0.062
-475.289	-200.000	0.005	-0.141
-474.274	-200.000	0.022	-0.386
-473.259	5.589	0.111	-0.083
-472.245	-33.633	-0.405	-0.227
-471.230	-114.374	-0.215	-0.042
-470.216	-200.000	0.036	-0.173
-469.201	217.998	-0.057	0.092
-468.186	-1.406	-0.183	-0.131
-467.172	-20.849	-0.242	-0.151
-466.157	800.000	0.030	0.114
-465.143	-200.000	0.028	0.184
-464.128	-93.530	0.157	-0.044
-463.113	32.648	-0.137	0.120
-462.099	-200.000	-0.147	0.000
-461.084	-18.837	0.344	0.217
-460.070	117.749	-0.268	0.334
-459.055	188.901	0.042	-0.063
-458.040	-100.491	-0.232	-0.058
-457.026	-38.304	0.134	0.072
-456.011	94.163	-0.041	0.047
-454.997	39.418	0.131	-0.118
-453.982	-62.596	0.134	0.056
-452.968	-200.000	-0.033	0.195
-451.953	800.000	-0.086	0.325
-450.938	800.000	0.087	-0.372
-449.924	365.858	0.025	-0.052
-448.909	-185.023	-0.244	-0.004
-447.895	-131.985	0.224	-0.030
-446.880	-200.000	-0.040	0.224
-445.865	-39.500	-0.024	-0.013
-444.851	800.000	-0.015	-0.058
-443.836	-99.114	-0.470	0.121
-442.822	102.918	0.142	0.169
-441.807	800.000	0.011	0.040
-440.792	-200.000	-0.054	-0.264
-439.778	-71.112	0.120	0.046
-438.763	25.551	0.076	-0.064
-437.749	-138.054	0.081	-0.009
-436.734	289.486	-0.226	0.416
-435.719	800.000	0.077	-0.309
-434.705	29.711	-0.178	-0.154
-433.690	485.133	0.167	0.385
-432.676	-200.000	-0.024	0.173
-431.661	292.851	0.163	-0.301
-430.646	-106.589	-0.176	0.040
-429.632	-90.509	0.363	-0.106
-428.617	-131.958	0.110	-0.015
-427.603	-122.372	0.242	-0.040
-426.588	54.689	-0.274	0.267
-425.573	-144.780	-0.296	-0.028
-424.559	-154.318	0.229	-0.016
-423.544	-109.924	0.166	-0.035
-422.530	800.000	0.118	0.466
-421.515	-200.000	0.007	-0.100
-420.500	-124.235	0.147	-0.023
-419.486	268.069	-0.050	0.089
-418.471	-200.000	-0.018	-0.104
-417.457	105.757	-0.143	0.171
-416.442	209.141	-0.058	-0.091
-415.428	-68.486	0.207	0.081
-414.413	473.503	-0.031	0.072
-413.398	405.811	0.052	-0.112
-412.384	-200.000	0.004	-0.070
-411.369	-5.526	-0.152	-0.105
-410.355	-132.750	0.140	0.018
-409.340	-71.087	-0.317	-0.121
-408.325	-60.025	0.277	-0.120
-407.311	-200.000	0.041	0.225
-406.296	17.172	-0.304	-0.244
-405.282	-48.396	-0.168	0.082
-404.267	174.720	-0.036	-0.052
-403.252	-103.774	0.164	0.039
-402.238	-75.462	0.189	-0.068
-401.223	616.442	-0.027	0.069
-400.209	800.000	-0.055	-0.182
-399.194	-45.993	-0.292	-0.146
-398.179	-60.280	-0.127	0.054
-397.165	-63.784	-0.262	-0.108
-396.150	386.263	-0.042	-0.087
-395.136	199.385	-0.228	-0.354
-394.121	-99.472	0.179	0.046
-393.106	38.083	-0.191	0.172
-392.092	-135.547	-0.317	0.038
-391.077	-105.500	-0.266	0.061
-390.063	-76.928	-0.221	-0.078
-389.048	-70.145	0.118	0.045
-388.033	-200.000	0.028	0.196
-387.019	-124.712	0.146	-0.023
-386.004	-200.000	0.026	0.222
-384.990	464.367	-0.150	0.340
-383.975	-200.000	0.019	0.134
-382.960	-156.688	0.185	0.012
-381.946	-39.148	-0.164	0.087
-380.931	142.949	0.101	0.136
-379.917	6.468	0.186	-0.139
-378.902	463.819	-0.106	0.240
-377.888	130.137	-0.136	-0.175
-376.873	800.000	0.083	0.313
-375.858	517.616	-0.110	-0.261
-374.844	75.556	-0.133	-0.142
-373.829	-37.076	0.064	0.035
-372.815	136.726	-0.108	0.142
-371.800	618.248	0.104	0.263
-370.785	-200.000	-0.032	-0.188
-369.771	86.354	0.254	-0.282
-368.756	203.356	-0.130	0.203
-367.742	520.195	-0.104	-0.247
-366.727	130.387	-0.109	0.141
-365.712	-200.000	-0.039	-0.409
-364.698	17.123	0.177	0.142
-363.683	435.407	0.142	-0.311
-362.669	-89.934	0.331	0.097
-361.654	259.275	0.047	-0.082
-360.639	-57.829	0.479	0.212
-359.625	-84.199	-0.021	0.007
-358.610	76.514	-0.140	0.150
-357.596	800.000	-0.067	-0.195
-356.581	-153.903	-0.248	-0.017
-355.566	-200.000	-0.005	-0.192
-354.552	11.298	-0.197	0.152
-353.537	122.140	-0.307	0.387
-352.523	568.867	0.065	0.161
-351.508	418.722	0.089	0.192
-350.493	731.882	0.138	0.372
-349.479	125.501	-0.138	0.175
-348.464	-45.733	0.250	-0.125
-347.450	800.000	-0.047	0.171
-346.435	636.727	0.064	-0.163
-345.420	197.430	-0.163	-0.252
-344.406	-200.000	-0.047	-0.227
-343.391	202.202	0.107	-0.166
-342.377	16.377	-0.231	-0.184
-341.362	-200.000	0.066	-0.345
-340.348	213.721	0.035	0.056
-339.333	79.630	-0.147	-0.159
-338.318	204.478	-0.085	-0.134
-337.304	263.392	0.118	0.207
-336.289	155.085	-0.088	-0.123
-335.275	-31.841	-0.146	-0.082
-334.260	24.195	-0.135	0.112
-333.245	613.059	-0.052	-0.132
-332.231	-99.705	0.192	-0.048
-331.216	400.093	0.114	0.242
-330.202	-200.000	-0.025	-0.185
-329.187	64.304	-0.252	0.256
-328.172	59.885	-0.166	0.165
-327.158	-95.517	-0.159	0.043
-326.143	49.659	-0.121	0.115
-325.129	29.124	-0.312	-0.267
-324.114	73.994	0.065	-0.069
-323.099	4.878	-0.336	0.249
-322.085	800.000	0.052	0.194
-321.070	41.828	0.239	0.218
-320.056	-17.603	0.183	0.116
-319.041	-200.000	-0.017	0.180
-318.026	-44.113	-0.122	0.062
-317.012	-87.542	-0.262	-0.080
-315.997	294.327	0.034	0.063
-314.983	800.000	-0.060	0.174
-313.968	-200.000	-0.015	0.400
-312.953	-121.413	0.098	-0.016
-311.939	344.661	-0.077	0.153
-310.924	800.000	-0.047	-0.160
-309.910	-200.000	0.001	0.050
-308.895	-48.493	-0.037	0.018
-307.880	592.457	0.065	-0.163
-306.866	-200.000	-0.045	0.202
-305.851	101.180	0.175	-0.205
-304.837	-200.000	-0.005	0.064
-303.822	-81.861	0.286	-0.094
-302.807	-200.000	-0.043	-0.216
-301.793	-5.435	0.120	0.083
-300.778	-61.310	-0.353	0.150
-299.764	-151.306	0.199	0.015
-298.749	800.000	-0.018	0.072
-297.735	160.773	0.224	-0.315
-296.720	-200.000	0.032	-0.143
-295.705	-168.494	0.234	0.009
-294.691	611.684	-0.147	-0.370
-293.676	-200.000	0.033	-0.278
-292.662	104.964	0.100	-0.119
-291.647	-200.000	0.029	-0.346
-290.632	77.768	-0.165	0.177
-289.618	-116.423	-0.134	0.025
-288.603	-75.136	0.297	-0.107
-287.589	66.795	0.278	0.285
-286.574	-200.000	-0.092	0.448
-285.559	558.888	-0.052	0.126
-284.545	-166.102	-0.187	0.008
-283.530	-30.302	-0.197	0.113
-282.516	800.000	0.091	0.258
-281.501	-64.056	0.125	0.051
-280.486	-88.861	0.266	-0.079
-279.472	-86.157	0.170	0.053
-278.457	800.000	-0.064	-0.222
-277.443	-69.924	-0.181	0.069
-276.428	-34.601	-0.046	0.025
-275.413	120.721	0.062	-0.077
-274.399	-107.309	-0.193	-0.043
-273.384	1.834	0.156	0.113
-272.370	-147.775	0.127	0.011
-271.355	-200.000	0.052	0.270
-270.340	-177.188	-0.155	-0.004
-269.326	800.000	0.085	0.294
-268.311	-200.000	0.025	-0.455
-267.297	-117.931	-0.463	0.083
-266.282	67.299	-0.257	0.264
-265.267	71.421	0.151	0.158
-264.253	92.021	-0.148	0.167
-263.238	-200.000	0.003	-0.222
-262.224	-6.636	0.189	-0.130
-261.209	800.000	-0.071	0.231
-260.195	331.931	0.052	-0.101
-259.180	-100.750	-0.059	-0.015
-258.165	-76.267	0.308	0.109
-257.151	-61.728	0.088	0.037
-256.136	-27.725	0.309	0.180
-255.122	-68.136	-0.153	0.060
-254.107	431.180	0.033	0.072
-253.092	-20.662	0.213	-0.132
-252.078	800.000	-0.069	0.239
-251.063	800.000	0.076	-0.257
-250.049	-200.000	0.006	-0.131
-249.034	-76.353	0.313	0.111
-248.019	425.250	-0.049	0.106
-247.005	49.193	0.036	0.034
-245.990	151.352	-0.118	0.161
-244.976	-79.644	0.288	0.098
-243.961	-200.000	0.023	0.264
-242.946	12.421	0.121	0.093
-241.932	-107.303	0.362	-0.080
-240.917	-200.000	-0.038	0.181
-239.903	94.507	-0.139	-0.159
-238.888	2.313	0.232	-0.169
-237.873	-103.429	0.231	0.055
-236.859	40.960	0.091	0.083
-235.844	-123.643	-0.361	0.057
-234.830	-200.000	0.092	-0.437
-233.815	-87.927	-0.241	-0.073
-232.800	745.696	-0.018	0.047
-231.786	-12.038	-0.045	0.030
-230.771	200.993	0.058	0.089
-229.757	-65.600	0.164	-0.066
-228.742	-200.000	0.030	-0.297
-227.727	-124.981	-0.194	-0.030
-226.713	64.674	0.026	-0.026
-225.698	499.039	-0.089	0.206
-224.684	241.903	-0.356	0.597
-223.669	800.000	0.115	-0.352
-222.655	421.706	-0.143	0.308
-221.640	-10.306	-0.126	0.084
-220.625	265.921	-0.076	0.133
-219.611	190.128	0.194	0.292
-218.596	-93.994	-0.208	-0.057
-217.582	-130.310	0.189	0.026
-216.567	-138.334	0.204	-0.023
-215.552	3.401	-0.130	-0.095
-214.538	-83.162	0.258	-0.083
-213.523	9.398	-0.062	-0.047
-212.509	-200.000	-0.036	-0.307
-211.494	127.086	0.028	0.036
-210.479	-87.619	-0.075	0.023
-209.465	-20.765	-0.089	0.055
-208.450	-150.696	0.089	0.007
-207.436	-99.258	0.076	0.019
-206.421	231.453	0.190	-0.313
-205.406	-96.091	-0.197	0.053
-204.392	-20.398	0.150	0.092
-203.377	700.354	-0.039	0.104
-202.363	49.875	-0.096	0.091
-201.348	-200.000	0.155	0.001
-200.333	-118.198	-0.123	-0.022
-199.319	-110.682	0.156	-0.032
-198.304	-74.983	-0.105	-0.038
-197.290	320.207	0.155	0.296
-196.275	-200.000	-0.038	-0.431
-195.260	-51.765	-0.187	-0.087
-194.246	-200.000	-0.008	0.089
-193.231	131.244	0.149	0.192
-192.217	-34.720	0.139	0.076
-191.202	800.000	0.089	-0.280
-190.187	351.585	-0.184	-0.365
-189.173	-67.646	0.392	-0.154
-188.158	-27.877	0.096	-0.056
-187.144	800.000	0.056	0.174
-186.129	426.587	-0.140	0.303
-185.114	176.430	0.226	-0.329
-184.100	-27.270	0.356	0.208
-183.085	29.056	0.148	0.126
-182.071	210.304	-0.111	0.175
-181.056	-109.311	-0.242	-0.051
-180.042	-65.015	0.121	-0.049
-179.027	725.881	0.172	0.461
-178.012	-127.935	0.089	-0.013
-176.998	498.257	-0.113	-0.261
-175.983	80.545	-0.117	0.127
-174.969	772.164	0.126	0.344
-173.954	35.786	0.357	0.314
-172.939	3.010	-0.250	0.182
-171.925	33.132	0.088	-0.076
-170.910	18.733	0.360	-0.289
-169.896	12.195	-0.101	-0.078
-168.881	-200.000	0.006	0.039
-167.866	65.919	0.081	0.082
-166.852	-200.000	0.016	-0.119
-165.837	-130.533	-0.151	0.020
-164.823	172.701	-0.156	0.225
-163.808	-200.000	-0.024	-0.275
-162.793	-31.965	0.239	0.134
-161.779	60.088	-0.096	-0.095
-160.764	-142.696	0.290	-0.028
-159.750	-4.849	0.258	0.178
-158.735	-128.209	0.205	0.029
-157.720	-90.073	-0.151	0.044
-156.706	-34.769	0.099	0.054
-155.691	-23.660	0.218	0.131
-154.677	800.000	-0.029	-0.090
-153.662	-12.952	-0.142	0.092
-152.647	-116.507	-0.253	-0.047
-151.633	800.000	-0.070	-0.237
-150.618	-15.971	0.138	-0.088
-149.604	-5.644	-0.482	-0.331
-148.589	-25.523	-0.077	0.045
-147.574	-144.406	-0.503	0.047
-146.560	-200.000	-0.039	-0.275
-145.545	800.000	-0.025	0.081
-144.531	-0.289	0.040	-0.028
-143.516	-106.685	-0.379	0.084
-142.502	123.809	0.256	-0.322
-141.487	800.000	0.034	-0.124
-140.472	-101.847	-0.293	0.071
-139.458	325.221	0.072	-0.137
-138.443	171.004	-0.068	0.098
-137.429	-31.253	-0.274	0.154
-136.414	315.131	-0.149	0.281
-135.399	-72.864	-0.061	-0.023
-134.385	-200.000	-0.033	-0.211
-133.370	169.210	0.149	-0.213
-132.356	-200.000	0.281	0.001
-131.341	-109.419	-0.124	-0.026
-130.326	-61.861	-0.011	0.004
-129.312	640.658	-0.069	0.176
-128.297	800.000	0.055	0.152
-127.283	-200.000	-0.016	0.224
-126.268	-119.161	0.399	0.070
-125.253	5.833	-0.266	-0.197
-124.239	113.040	-0.149	0.180
-123.224	-78.069	0.307	-0.106
-122.210	-4.945	0.052	-0.036
-121.195	-200.000	-0.056	-0.416
