DTS Sentinel unit serial number:	SN413079Multiplexer serial number:	ORYXHardware model number:	OX4-SRSoftware version number:	ORYX F/W v4.00 Oryx Data Collector v3.7.2.0data status	okinstallation	princeton_trtdifferential loss correction	single-endedforward channel	channel 1reverse channel	N/Adate	2019/09/11time	01:24:11forward acquisition time	60.00reverse acquisition time	0.00gamma	496.2192k internal	0.2331k external	0.2331temperature offset calibration	0.9930default loss term (dB/km)	0.3790temperature slope calibration	1.0000multiplexer offset coefficient	1.0000multiplexer slope coefficient	1.0000fibre end	0.00T internal ref (°C)	29.12T ext. ref 1 (°C)	-0.30T ext. ref 2 (°C)	23.29length (m)	temperature (°C)	Stokes	anti-Stokes-747.200	103.508	0.159	-0.188
-746.185	-200.000	-0.006	0.431
-745.171	-43.986	0.133	-0.067
-744.156	-42.476	0.108	0.055
-743.142	-53.469	-0.054	0.025
-742.127	800.000	0.057	-0.227
-741.112	-120.103	-0.352	-0.061
-740.098	144.057	0.258	0.347
-739.083	-39.954	0.049	-0.026
-738.069	-100.131	0.176	-0.044
-737.054	-200.000	-0.012	-0.249
-736.039	61.128	0.072	-0.072
-735.025	119.999	0.141	-0.176
-734.010	-114.735	0.308	-0.059
-732.996	800.000	-0.079	-0.339
-731.981	-111.052	0.443	-0.091
-730.966	800.000	0.102	0.316
-729.952	55.322	-0.094	-0.091
-728.937	2.319	-0.165	0.120
-727.923	280.860	-0.124	-0.223
-726.908	-98.251	-0.143	0.037
-725.894	-200.000	-0.048	-0.405
-724.879	328.467	-0.137	-0.264
-723.864	-200.000	0.006	0.181
-722.850	218.125	-0.068	0.109
-721.835	322.898	-0.157	-0.300
-720.821	-200.000	0.012	-0.293
-719.806	-86.407	0.350	-0.108
-718.791	-200.000	-0.056	-0.627
-717.777	200.425	0.118	-0.183
-716.762	16.628	-0.125	0.099
-715.748	-87.005	0.134	-0.041
-714.733	-92.913	0.053	-0.015
-713.718	-149.534	0.066	-0.005
-712.704	-143.827	-0.190	0.018
-711.689	800.000	-0.066	-0.284
-710.675	-112.895	-0.132	0.026
-709.660	-0.025	0.129	-0.093
-708.645	-200.000	-0.005	0.054
-707.631	-200.000	-0.054	-0.331
-706.616	86.555	0.313	-0.347
-705.602	-13.507	0.170	0.111
-704.587	-200.000	0.003	0.042
-703.572	-42.156	0.259	0.133
-702.558	-16.041	-0.224	0.143
-701.543	-126.718	-0.246	0.037
-700.529	-83.382	-0.092	-0.029
-699.514	-200.000	0.050	-0.365
-698.499	55.945	0.117	0.114
-697.485	-200.000	-0.033	-0.210
-696.470	-42.682	0.284	-0.145
-695.456	-127.773	-0.134	-0.019
-694.441	250.687	-0.148	-0.253
-693.426	800.000	0.055	-0.170
-692.412	166.863	0.131	-0.187
-691.397	-78.527	-0.083	-0.028
-690.383	-200.000	0.000	-0.065
-689.368	718.542	0.186	-0.496
-688.354	444.024	0.047	0.104
-687.339	180.367	-0.167	0.245
-686.324	486.087	0.074	0.170
-685.310	331.037	-0.150	-0.290
-684.295	800.000	0.055	-0.200
-683.281	130.071	0.279	-0.358
-682.266	25.107	0.185	0.154
-681.251	800.000	-0.059	-0.242
-680.237	131.167	-0.169	0.218
-679.222	336.800	0.243	-0.473
-678.208	85.910	0.193	0.214
-677.193	70.648	-0.187	0.194
-676.178	-98.547	0.255	0.065
-675.164	92.006	-0.121	-0.137
-674.149	11.593	0.316	-0.243
-673.135	-111.847	0.327	0.066
-672.120	221.924	-0.115	0.185
-671.105	252.859	-0.068	0.116
-670.091	-0.200	-0.224	-0.160
-669.076	-86.602	-0.061	0.019
-668.062	105.850	0.107	0.127
-667.047	-200.000	-0.009	0.124
-666.032	37.795	-0.162	-0.145
-665.018	800.000	0.020	0.075
-664.003	-110.094	0.152	-0.032
-662.989	252.469	0.184	-0.315
-661.974	800.000	-0.026	0.075
-660.959	157.880	-0.101	0.140
-659.945	-23.087	0.234	-0.141
-658.930	-92.492	0.138	-0.039
-657.916	22.251	0.137	0.113
-656.901	-15.873	-0.249	-0.159
-655.886	233.147	0.154	-0.253
-654.872	93.199	0.091	-0.104
-653.857	-42.173	0.148	0.076
-652.843	-118.393	-0.057	-0.010
-651.828	237.292	-0.078	0.129
-650.814	110.167	0.159	-0.192
-649.799	338.468	0.080	0.155
-648.784	124.896	0.154	-0.194
-647.770	-105.269	-0.184	-0.042
-646.755	-44.671	0.105	0.053
-645.741	168.082	0.082	-0.117
-644.726	38.330	0.352	-0.314
-643.711	-165.444	-0.056	-0.002
-642.697	-190.481	0.099	-0.001
-641.682	-137.722	-0.246	-0.028
-640.668	48.300	0.284	-0.266
-639.653	-136.950	-0.394	-0.045
-638.638	-83.083	0.090	0.029
-637.624	519.364	0.100	-0.235
-636.609	-63.809	-0.160	-0.066
-635.595	402.583	-0.099	-0.208
-634.580	-74.921	-0.150	-0.054
-633.565	128.677	-0.158	0.202
-632.551	-200.000	-0.005	-0.274
-631.536	81.407	-0.145	-0.157
-630.522	86.841	-0.139	0.154
-629.507	-115.491	0.456	-0.086
-628.492	-41.337	0.118	-0.061
-627.478	219.065	-0.044	0.070
-626.463	-73.180	-0.034	0.012
-625.449	-10.354	-0.144	-0.096
-624.434	-24.110	-0.281	0.168
-623.419	-53.964	0.215	0.098
-622.405	-200.000	0.021	-0.144
-621.390	-200.000	-0.001	-0.216
-620.376	111.569	-0.249	0.300
-619.361	583.242	0.171	0.421
-618.346	-200.000	0.045	0.225
-617.332	-112.566	-0.084	0.017
-616.317	-200.000	-0.042	-0.201
-615.303	-3.003	-0.114	0.080
-614.288	-137.314	0.226	-0.026
-613.273	-88.081	-0.204	0.061
-612.259	247.323	-0.174	0.295
-611.244	-200.000	0.038	0.320
-610.230	128.967	0.065	-0.083
-609.215	800.000	0.042	0.123
-608.201	20.299	0.214	-0.173
-607.186	-97.841	0.152	-0.039
-606.171	-149.789	-0.172	-0.014
-605.157	13.516	-0.175	0.136
-604.142	-60.575	-0.258	0.109
-603.128	384.292	-0.219	0.451
-602.113	73.878	0.230	-0.241
-601.098	729.016	-0.073	0.195
-600.084	-134.395	-0.128	0.016
-599.069	800.000	-0.159	0.502
-598.055	800.000	0.100	0.356
-597.040	105.491	0.098	-0.115
-596.025	137.196	0.155	0.202
-595.011	10.550	-0.107	-0.082
-593.996	-44.130	0.271	0.136
-592.982	3.681	0.034	0.025
-591.967	42.653	0.071	0.065
-590.952	46.956	0.183	-0.170
-589.938	467.220	-0.148	-0.332
-588.923	-93.312	-0.138	-0.038
-587.909	4.482	0.362	-0.266
-586.894	-200.000	0.058	-0.370
-585.879	505.540	0.038	0.088
-584.865	-75.339	0.080	0.029
-583.850	337.241	-0.083	-0.161
-582.836	-170.171	-0.103	-0.004
-581.821	-31.142	0.285	0.161
-580.806	485.112	-0.067	-0.152
-579.792	-114.132	-0.162	-0.031
-578.777	114.061	-0.025	-0.030
-577.763	251.128	-0.131	-0.224
-576.748	800.000	0.100	-0.421
-575.733	80.089	0.176	0.190
-574.719	48.835	-0.062	-0.058
-573.704	-111.775	0.259	-0.052
-572.690	-200.000	0.053	0.408
-571.675	-82.601	-0.162	-0.052
-570.661	-45.526	0.114	-0.057
-569.646	-200.000	0.006	0.065
-568.631	800.000	0.050	0.169
-567.617	13.606	0.192	0.149
-566.602	-87.109	-0.318	-0.097
-565.588	79.711	-0.176	0.189
-564.573	-77.655	-0.296	-0.102
-563.558	107.433	-0.094	0.112
-562.544	-86.754	0.219	-0.067
-561.529	-43.415	-0.352	0.178
-560.515	-200.000	-0.005	0.153
-559.500	-63.928	0.117	0.048
-558.485	-200.000	0.048	-0.321
-557.471	-200.000	-0.015	-0.183
-556.456	-200.000	-0.082	0.372
-555.442	-38.334	-0.270	0.143
-554.427	123.122	0.152	-0.190
-553.412	51.131	-0.038	0.036
-552.398	-200.000	-0.039	-0.439
-551.383	223.869	-0.060	0.098
-550.369	15.391	0.037	0.029
-549.354	-117.033	0.135	0.025
-548.339	-179.373	0.348	-0.008
-547.325	118.238	0.041	-0.051
-546.310	-61.761	0.119	-0.050
-545.296	-103.003	-0.110	0.026
-544.281	340.423	-0.221	-0.430
-543.266	-42.220	-0.038	0.020
-542.252	229.200	-0.147	-0.239
-541.237	166.222	0.225	0.318
-540.223	371.934	-0.032	-0.065
-539.208	-200.000	0.019	-0.118
-538.193	489.109	0.097	-0.221
-537.179	83.277	0.119	-0.129
-536.164	800.000	-0.013	0.055
-535.150	-200.000	-0.000	-0.081
-534.135	66.774	0.074	-0.075
-533.121	-7.655	-0.217	-0.146
-532.106	-187.531	-0.319	-0.004
-531.091	-21.043	0.033	-0.020
-530.077	-88.486	-0.130	0.039
-529.062	-95.451	0.251	-0.067
-528.048	-200.000	0.034	0.352
-527.033	-200.000	-0.005	0.046
-526.018	-66.894	-0.224	-0.088
-525.004	-77.590	-0.133	0.046
-523.989	-42.093	0.308	0.157
-522.975	-181.866	0.431	-0.008
-521.960	94.451	0.135	-0.153
-520.945	205.789	-0.088	0.137
-519.931	-21.953	-0.224	0.136
-518.916	-50.276	0.254	0.120
-517.902	228.086	-0.043	-0.070
-516.887	-37.548	-0.105	-0.056
-515.872	-80.233	0.088	0.029
-514.858	-122.038	-0.296	-0.048
-513.843	26.332	-0.322	-0.268
-512.829	-23.921	0.381	0.227
-511.814	431.340	0.054	0.116
-510.799	85.721	-0.180	0.197
-509.785	154.635	0.072	0.098
-508.770	-111.081	0.135	-0.028
-507.756	577.861	-0.119	0.291
-506.741	-92.934	-0.166	0.046
-505.726	55.153	0.237	-0.229
-504.712	139.603	-0.124	-0.163
-503.697	-200.000	-0.030	-0.162
-502.683	92.019	-0.178	0.200
-501.668	175.723	0.202	0.292
-500.653	-195.237	-0.163	-0.001
-499.639	93.293	0.116	0.131
-498.624	-200.000	0.017	-0.239
-497.610	304.962	-0.113	0.209
-496.595	267.222	0.231	0.402
-495.581	800.000	0.047	0.174
-494.566	175.091	0.073	0.105
-493.551	71.225	0.216	-0.224
-492.537	-123.674	0.293	0.046
-491.522	-142.602	0.098	0.010
-490.508	-96.740	0.298	-0.078
-489.493	-94.315	-0.418	-0.114
-488.478	41.844	0.239	-0.216
-487.464	-91.608	-0.092	0.026
-486.449	695.078	0.107	-0.279
-485.435	-105.008	-0.076	0.017
-484.420	-200.000	0.032	0.222
-483.405	545.349	-0.118	-0.281
-482.391	800.000	0.066	-0.251
-481.376	-49.754	0.161	-0.076
-480.362	-42.591	0.079	-0.040
-479.347	-200.000	-0.077	-0.492
-478.332	443.174	0.053	0.116
-477.318	-109.447	-0.439	-0.092
-476.303	800.000	0.084	0.250
-475.289	-200.000	0.019	0.139
-474.274	155.587	-0.156	-0.213
-473.259	-84.197	-0.218	-0.069
-472.245	800.000	-0.085	0.359
-471.230	13.580	0.189	0.146
-470.216	-150.975	0.089	-0.007
-469.201	800.000	0.074	-0.230
-468.186	90.912	-0.123	0.138
-467.172	95.404	0.182	-0.206
-466.157	-117.543	-0.211	0.038
-465.143	-103.814	-0.100	0.023
-464.128	23.998	0.072	0.059
-463.113	-171.964	-0.241	-0.008
-462.099	-175.596	0.398	-0.011
-461.084	800.000	0.174	0.499
-460.070	-110.034	-0.086	-0.018
-459.055	-114.746	0.295	-0.056
-458.040	-161.377	-0.462	-0.024
-457.026	-2.398	-0.138	-0.096
-456.011	-0.688	-0.056	-0.040
-454.997	-172.829	0.189	-0.006
-453.982	-200.000	0.004	0.389
-452.968	16.308	-0.042	0.033
-451.953	-16.446	0.232	0.146
-450.938	800.000	-0.018	-0.073
-449.924	-105.329	0.247	-0.056
-448.909	324.295	-0.039	0.074
-447.895	98.756	-0.111	0.127
-446.880	-19.005	0.263	0.163
-445.865	243.728	0.101	-0.168
-444.851	-42.470	0.162	-0.082
-443.836	-129.032	-0.071	-0.010
-442.822	-32.073	0.077	-0.043
-441.807	127.810	0.180	-0.228
-440.792	109.624	-0.160	0.190
-439.778	223.989	-0.023	0.037
-438.763	-80.370	-0.402	-0.133
-437.749	185.886	0.040	-0.059
-436.734	55.773	-0.118	-0.114
-435.719	-32.625	0.262	-0.145
-434.705	-11.432	0.067	0.044
-433.690	-199.207	0.146	-0.001
-432.676	800.000	-0.026	-0.109
-431.661	17.082	0.106	-0.084
-430.646	-200.000	-0.036	0.163
-429.632	-200.000	-0.032	0.261
-428.617	289.332	-0.111	-0.200
-427.603	-200.000	0.041	0.232
-426.588	174.149	0.126	0.180
-425.573	98.081	-0.140	-0.160
-424.559	-102.425	0.123	-0.029
-423.544	-121.084	-0.039	-0.006
-422.530	14.374	-0.053	0.041
-421.515	-200.000	-0.012	0.063
-420.500	266.715	0.149	0.258
-419.486	-2.388	-0.240	-0.167
-418.471	-58.357	0.359	-0.155
-417.457	568.645	0.141	-0.340
-416.442	800.000	0.083	-0.254
-415.428	-60.213	-0.223	-0.094
-414.413	-200.000	0.122	0.000
-413.398	-131.159	-0.411	0.054
-412.384	590.696	-0.084	0.206
-411.369	800.000	0.037	-0.135
-410.355	800.000	0.145	-0.425
-409.340	521.427	0.064	0.150
-408.325	306.036	-0.111	0.206
-407.311	128.341	-0.176	-0.222
-406.296	-63.148	0.302	-0.124
-405.282	86.367	-0.041	-0.045
-404.267	441.833	0.047	0.103
-403.252	-200.000	0.016	-0.161
-402.238	-33.646	0.288	0.158
-401.223	-45.889	0.061	0.030
-400.209	800.000	0.084	0.248
-399.194	-105.305	-0.215	-0.049
-398.179	0.656	-0.114	0.081
-397.165	64.938	0.248	0.249
-396.150	-148.814	0.064	-0.005
-395.136	50.152	-0.264	0.248
-394.121	77.743	0.077	0.081
-393.106	-200.000	0.021	-0.205
-392.092	-200.000	-0.011	0.088
-391.077	-76.177	0.078	0.027
-390.063	-200.000	0.054	0.258
-389.048	8.955	0.009	-0.007
-388.033	32.573	0.125	0.107
-387.019	-39.744	-0.135	0.070
-386.004	600.467	-0.077	-0.191
-384.990	240.138	0.076	0.126
-383.975	-200.000	-0.023	-0.139
-382.960	-85.764	-0.261	0.080
-381.946	-138.413	0.380	-0.042
-380.931	-32.085	-0.149	-0.083
-379.917	130.310	-0.235	0.298
-378.902	-129.363	0.229	0.032
-377.888	786.884	0.100	-0.272
-376.873	657.094	-0.103	-0.263
-375.858	-54.444	-0.368	-0.166
-374.844	800.000	-0.058	0.177
-373.829	-62.119	-0.108	0.045
-372.815	-200.000	-0.012	0.076
-371.800	30.415	0.203	-0.172
-370.785	-200.000	0.005	0.134
-369.771	-109.971	0.287	-0.060
-368.756	-143.155	0.229	-0.022
-367.742	313.802	0.117	0.218
-366.727	-132.538	-0.341	0.043
-365.712	477.586	0.061	0.137
-364.698	-87.906	-0.110	0.033
-363.683	176.221	-0.027	0.039
-362.669	643.255	0.051	-0.128
-361.654	-110.313	-0.170	0.035
-360.639	133.132	-0.240	-0.308
-359.625	-200.000	-0.040	-0.185
-358.610	465.990	0.113	-0.250
-357.596	800.000	-0.098	-0.275
-356.581	47.935	-0.053	0.049
-355.566	160.433	0.121	0.167
-354.552	-37.964	-0.227	-0.119
-353.537	-109.821	0.282	-0.059
-352.523	44.995	0.341	-0.312
-351.508	800.000	-0.066	-0.219
-350.493	97.113	-0.073	-0.083
-349.479	242.661	0.137	0.227
-348.464	86.536	-0.209	0.228
-347.450	-87.401	0.165	-0.049
-346.435	176.421	-0.125	-0.180
-345.420	-23.852	0.213	-0.126
-344.406	-52.550	0.032	-0.015
-343.391	-117.059	0.422	0.076
-342.377	-200.000	-0.033	-0.271
-341.362	-38.899	0.137	0.071
-340.348	800.000	-0.058	-0.232
-339.333	-134.476	-0.112	-0.014
-338.318	79.013	-0.206	-0.218
-337.304	343.891	-0.041	0.081
-336.289	624.912	-0.054	0.136
-335.275	-41.729	0.163	-0.083
-334.260	-115.277	0.183	0.034
-333.245	-200.000	-0.007	-0.468
-332.231	-200.000	-0.034	-0.201
-331.216	-169.443	-0.133	0.005
-330.202	675.548	-0.032	0.083
-329.187	-52.425	0.120	-0.055
-328.172	266.318	0.150	-0.259
-327.158	-200.000	-0.018	0.111
-326.143	-96.253	-0.200	0.052
-325.129	-6.467	0.159	0.107
-324.114	42.717	0.288	0.260
-323.099	370.130	0.059	0.118
-322.085	240.923	-0.020	-0.033
-321.070	-166.937	0.144	0.006
-320.056	-200.000	-0.036	0.316
-319.041	800.000	0.075	0.260
-318.026	-87.414	-0.414	0.124
-317.012	686.897	0.121	-0.314
-315.997	442.676	-0.055	0.119
-314.983	457.885	-0.119	0.262
-313.968	-137.690	-0.135	0.015
-312.953	19.036	0.031	-0.025
-311.939	26.857	-0.265	-0.219
-310.924	458.292	-0.106	0.233
-309.910	185.868	0.254	0.374
-308.895	-33.716	0.075	0.041
-307.880	5.326	-0.264	-0.193
-306.866	800.000	0.009	-0.031
-305.851	-37.469	-0.328	-0.173
-304.837	-174.889	-0.195	-0.005
-303.822	-200.000	0.012	0.199
-302.807	-147.776	-0.042	0.003
-301.793	680.253	-0.121	0.313
-300.778	-54.321	-0.280	0.126
-299.764	-200.000	-0.002	0.101
-298.749	-200.000	0.020	-0.131
-297.735	-189.819	-0.201	-0.002
-296.720	8.458	-0.208	0.155
-295.705	60.998	-0.056	-0.055
-294.691	-168.806	0.301	-0.011
-293.676	272.731	0.183	0.320
-292.662	-200.000	0.007	0.243
-291.647	128.719	0.100	-0.126
-290.632	-122.977	-0.208	0.033
-289.618	775.036	-0.049	0.132
-288.603	-156.868	0.177	-0.011
-287.589	-25.287	-0.363	0.212
-286.574	-127.098	-0.227	0.033
-285.559	-87.948	0.416	-0.124
-284.545	-92.888	-0.128	-0.035
-283.530	42.009	-0.153	0.138
-282.516	729.654	0.058	0.152
-281.501	-200.000	-0.009	-0.096
-280.486	-16.874	-0.200	-0.125
-279.472	-140.575	0.258	-0.026
-278.457	244.767	-0.065	0.107
-277.443	-200.000	-0.051	-0.284
-276.428	555.532	-0.076	0.181
-275.413	-200.000	-0.015	-0.253
-274.399	800.000	-0.061	-0.231
-273.384	-59.967	0.128	-0.054
-272.370	572.952	-0.005	-0.013
-271.355	-38.998	0.327	0.170
-270.340	-158.954	0.102	-0.006
-269.326	-53.717	0.228	-0.103
-268.311	-46.734	-0.124	0.060
-267.297	-63.202	0.056	-0.023
-266.282	-29.445	-0.062	0.035
-265.267	265.243	-0.045	-0.078
-264.253	519.606	-0.188	-0.434
-263.238	-200.000	-0.014	-0.268
-262.224	800.000	-0.065	-0.249
-261.209	-41.517	0.093	0.047
-260.195	95.228	0.205	0.231
-259.180	476.736	0.044	0.099
-258.165	800.000	-0.061	-0.182
-257.151	456.598	-0.099	0.216
-256.136	-44.009	0.376	-0.186
-255.122	282.943	0.060	0.107
-254.107	231.466	0.123	-0.199
-253.092	-82.552	-0.224	-0.072
-252.078	-200.000	0.002	-0.215
-251.063	4.484	0.052	-0.038
-250.049	-200.000	0.059	0.306
-249.034	65.885	-0.098	0.098
-248.019	70.298	0.112	0.114
-247.005	-96.759	0.072	0.019
-245.990	366.542	0.062	0.123
-244.976	800.000	-0.040	0.159
-243.961	617.618	-0.159	0.393
-242.946	53.990	-0.259	0.246
-241.932	694.918	0.066	0.171
-240.917	143.038	-0.145	0.191
-239.903	-128.726	0.322	0.045
-238.888	135.431	-0.119	-0.153
-237.873	800.000	0.113	-0.485
-236.859	58.503	-0.178	-0.172
-235.844	800.000	0.009	0.030
-234.830	26.856	-0.122	-0.101
-233.815	153.648	0.148	-0.200
-232.800	-36.617	0.244	-0.129
-231.786	128.915	0.207	0.261
-230.771	800.000	-0.148	0.521
-229.757	-11.260	-0.139	0.090
-228.742	-46.060	-0.164	-0.080
-227.727	800.000	-0.063	-0.230
-226.713	-15.385	-0.131	-0.082
-225.698	129.522	0.172	0.217
-224.684	234.367	-0.183	-0.297
-223.669	-134.079	-0.339	-0.041
-222.655	-36.108	0.435	-0.232
-221.640	-146.406	-0.270	-0.023
-220.625	684.082	-0.061	-0.158
-219.611	414.906	-0.152	-0.320
-218.596	-3.635	-0.136	-0.093
-217.582	20.629	-0.275	-0.219
-216.567	229.898	0.062	0.100
-215.552	12.549	-0.095	0.072
-214.538	-100.105	-0.332	-0.082
-213.523	430.832	-0.031	-0.066
-212.509	31.233	0.075	0.064
-211.494	76.171	-0.168	0.176
-210.479	246.378	0.085	-0.142
-209.465	-95.551	0.216	0.057
-208.450	6.041	-0.166	-0.121
-207.436	628.389	-0.013	-0.032
-206.421	148.115	0.236	0.314
-205.406	3.279	0.181	-0.130
-204.392	-10.084	0.185	0.121
-203.377	-200.000	0.013	0.121
-202.363	-3.527	0.204	0.140
-201.348	-153.935	-0.304	-0.020
-200.333	692.668	0.123	0.317
-199.319	-40.913	-0.114	0.058
-198.304	-129.564	0.161	-0.022
-197.290	-2.129	0.345	-0.238
-196.275	-200.000	-0.005	0.161
-195.260	53.452	-0.074	-0.070
-194.246	-61.318	-0.173	-0.072
-193.231	-25.755	-0.408	-0.237
-192.217	-98.582	0.263	0.066
-191.202	87.907	0.320	0.350
-190.187	-12.543	0.300	-0.193
-189.173	3.086	0.146	-0.105
-188.158	-173.780	-0.483	-0.014
-187.144	44.277	-0.188	-0.170
-186.129	-9.003	-0.053	-0.035
-185.114	-200.000	-0.010	0.182
-184.100	38.954	0.095	0.084
-183.085	388.152	-0.112	0.228
-182.071	526.611	-0.052	0.121
-181.056	-101.221	0.260	-0.062
-180.042	150.686	0.088	0.117
-179.027	142.405	0.199	0.261
-178.012	359.371	-0.114	-0.224
-176.998	262.343	-0.113	-0.193
-175.983	-85.860	0.129	-0.039
-174.969	800.000	0.071	0.230
-173.954	-58.033	0.233	-0.100
-172.939	-70.958	0.097	0.036
-171.925	-200.000	0.006	0.083
-170.910	5.094	-0.091	0.066
-169.896	-59.511	-0.220	-0.093
-168.881	127.990	-0.225	0.281
-167.866	269.997	-0.079	-0.136
-166.852	-140.716	0.033	-0.003
-165.837	-69.514	0.331	-0.125
-164.823	800.000	-0.092	-0.261
-163.808	-200.000	0.023	-0.163
-162.793	-131.169	-0.262	-0.034
-161.779	105.916	-0.022	0.026
-160.764	17.577	-0.272	0.213
-159.750	-81.468	0.264	0.086
-158.735	-93.793	0.251	-0.068
-157.720	-101.377	-0.293	-0.070
-156.706	-32.449	-0.082	-0.045
-155.691	130.240	-0.011	0.013
-154.677	222.956	-0.126	0.200
-153.662	-64.488	0.280	0.112
-152.647	154.402	-0.117	0.158
-151.633	37.439	-0.145	-0.126
-150.618	-31.662	-0.073	-0.040
-149.604	-103.588	-0.261	-0.060
-148.589	582.417	0.091	0.218
-147.574	162.093	-0.061	-0.084
-146.560	-188.606	-0.177	0.002
-145.545	-27.397	0.278	-0.159
-144.531	-200.000	-0.022	0.099
-143.516	800.000	0.078	-0.240
-142.502	165.149	0.045	-0.063
-141.487	-135.617	0.056	-0.007
-140.472	-109.178	-0.337	-0.070
-139.458	118.717	0.047	-0.057
-138.443	-200.000	-0.038	-0.178
-137.429	-120.484	-0.259	0.043
-136.414	84.042	0.066	0.071
-135.399	800.000	-0.005	-0.015
-134.385	-21.541	-0.046	-0.027
-133.370	-68.761	-0.300	0.114
-132.356	800.000	-0.058	-0.212
-131.341	-200.000	0.048	0.210
-130.326	-30.395	-0.175	-0.098
-129.312	-111.001	-0.128	0.026
-128.297	-48.852	-0.186	0.088
-127.283	-40.490	0.396	-0.202
-126.268	517.965	0.180	0.414
-125.253	256.942	0.241	0.407
-124.239	90.138	0.066	0.073
-123.224	-44.009	-0.285	0.141
-122.210	-200.000	-0.002	0.259
-121.195	29.053	0.210	-0.175
