DTS Sentinel unit serial number:	SN413079Multiplexer serial number:	ORYXHardware model number:	OX4-SRSoftware version number:	ORYX F/W v4.00 Oryx Data Collector v3.7.2.0data status	okinstallation	princeton_trtdifferential loss correction	single-endedforward channel	channel 1reverse channel	N/Adate	2019/09/11time	03:20:12forward acquisition time	60.00reverse acquisition time	0.00gamma	496.2192k internal	0.2331k external	0.2331temperature offset calibration	0.9925default loss term (dB/km)	0.3790temperature slope calibration	1.0000multiplexer offset coefficient	1.0000multiplexer slope coefficient	1.0000fibre end	0.00T internal ref (°C)	29.39T ext. ref 1 (°C)	-0.28T ext. ref 2 (°C)	24.14length (m)	temperature (°C)	Stokes	anti-Stokes-747.200	-108.166	-0.144	0.031
-746.185	-119.051	-0.069	-0.012
-745.171	79.093	0.128	0.138
-744.156	354.442	0.190	0.379
-743.142	-128.677	-0.172	-0.024
-742.127	53.362	-0.224	-0.216
-741.112	-58.171	0.100	-0.044
-740.098	315.833	-0.031	-0.059
-739.083	-100.791	-0.159	0.039
-738.069	-60.888	0.135	0.057
-737.054	56.575	-0.052	-0.051
-736.039	735.069	0.076	0.206
-735.025	-147.486	0.114	-0.010
-734.010	46.064	0.066	0.062
-732.996	-200.000	-0.038	-0.343
-731.981	43.374	0.207	-0.190
-730.966	192.788	0.140	-0.212
-729.952	-200.000	0.014	-0.216
-728.937	800.000	0.050	-0.143
-727.923	800.000	0.032	-0.124
-726.908	59.240	-0.083	-0.082
-725.894	-163.206	-0.112	-0.005
-724.879	184.590	0.111	-0.166
-723.864	-200.000	0.000	-0.167
-722.850	800.000	-0.033	-0.124
-721.835	800.000	0.007	-0.032
-720.821	800.000	-0.032	0.096
-719.806	25.211	-0.014	0.011
-718.791	-162.264	-0.297	-0.015
-717.777	-109.193	0.063	-0.013
-716.762	-121.694	-0.264	-0.044
-715.748	-83.065	0.434	-0.140
-714.733	27.624	0.113	-0.095
-713.718	-51.140	-0.059	-0.028
-712.704	379.673	-0.072	-0.147
-711.689	-65.714	0.214	0.086
-710.675	151.653	0.123	-0.169
-709.660	48.174	-0.231	0.217
-708.645	-170.578	-0.223	0.008
-707.631	23.699	0.306	-0.254
-706.616	-93.546	-0.572	0.159
-705.602	759.733	0.081	0.220
-704.587	-164.667	-0.126	0.006
-703.572	-85.934	0.278	-0.086
-702.558	-47.344	0.319	-0.156
-701.543	-14.765	-0.353	0.228
-700.529	-67.050	0.218	-0.086
-699.514	-48.237	0.098	0.047
-698.499	127.453	0.058	-0.074
-697.485	-151.228	0.052	-0.004
-696.470	-73.627	-0.409	-0.150
-695.456	222.346	-0.051	0.083
-694.441	800.000	0.081	-0.224
-693.426	-200.000	-0.018	0.159
-692.412	632.752	0.093	-0.237
-691.397	-127.197	0.183	0.027
-690.383	299.572	-0.057	0.105
-689.368	-108.238	0.239	-0.052
-688.354	458.263	-0.032	-0.072
-687.339	-1.945	0.093	0.066
-686.324	465.945	-0.134	-0.302
-685.310	146.365	0.290	0.392
-684.295	-35.719	-0.376	-0.205
-683.281	79.799	0.182	-0.196
-682.266	202.766	0.079	0.122
-681.251	-96.930	-0.070	-0.018
-680.237	119.456	0.067	-0.083
-679.222	254.168	0.173	0.297
-678.208	254.976	0.182	0.313
-677.193	682.333	0.037	-0.096
-676.178	800.000	-0.019	-0.063
-675.164	-200.000	-0.016	-0.181
-674.149	-14.883	0.084	-0.054
-673.135	-143.535	0.258	-0.025
-672.120	-200.000	0.007	-0.108
-671.105	112.959	0.227	0.276
-670.091	-80.896	-0.315	0.105
-669.076	800.000	-0.058	-0.234
-668.062	-200.000	-0.062	0.326
-667.047	-74.061	-0.454	0.165
-666.032	4.222	0.296	-0.217
-665.018	-200.000	-0.010	-0.210
-664.003	124.180	-0.163	0.206
-662.989	458.861	0.152	0.340
-661.974	-129.807	0.146	-0.020
-660.959	11.710	-0.170	-0.131
-659.945	37.723	-0.079	-0.071
-658.930	175.405	0.120	0.175
-657.916	506.179	0.021	-0.049
-656.901	-200.000	0.050	-0.372
-655.886	-30.308	0.424	0.241
-654.872	496.940	0.029	0.066
-653.857	579.282	0.016	0.039
-652.843	-72.394	-0.184	0.068
-651.828	-200.000	-0.045	-0.210
-650.814	-98.939	-0.225	0.057
-649.799	11.780	0.086	-0.066
-648.784	-174.315	-0.304	-0.009
-647.770	-114.054	-0.149	0.029
-646.755	151.646	-0.203	-0.278
-645.741	71.330	0.163	-0.170
-644.726	48.855	-0.111	0.104
-643.711	-113.599	-0.384	0.075
-642.697	-1.096	0.084	-0.060
-641.682	800.000	-0.049	0.184
-640.668	199.916	0.024	0.037
-639.653	167.691	0.071	-0.101
-638.638	800.000	-0.174	0.534
-637.624	131.862	-0.287	0.370
-636.609	8.789	0.295	0.223
-635.595	746.245	-0.113	-0.305
-634.580	800.000	0.080	-0.296
-633.565	-174.209	-0.231	-0.007
-632.551	382.646	-0.018	0.036
-631.536	-200.000	-0.039	-0.183
-630.522	-103.779	0.174	-0.041
-629.507	-99.744	-0.327	-0.082
-628.492	800.000	-0.034	0.111
-627.478	248.543	0.106	0.179
-626.463	-24.519	0.343	-0.205
-625.449	26.536	0.114	-0.096
-624.434	-134.591	-0.159	0.019
-623.419	-200.000	-0.052	-0.354
-622.405	220.940	-0.110	0.176
-621.390	-135.089	0.163	-0.020
-620.376	-44.966	0.242	0.121
-619.361	493.104	0.010	-0.023
-618.346	-113.226	-0.276	0.054
-617.332	299.787	-0.052	0.096
-616.317	-61.722	-0.042	-0.017
-615.303	-121.548	0.216	0.036
-614.288	271.548	0.051	-0.090
-613.273	82.746	0.122	0.133
-612.259	95.280	-0.075	-0.086
-611.244	800.000	0.110	0.365
-610.230	-138.265	0.080	-0.009
-609.215	-61.327	-0.347	-0.146
-608.201	308.510	0.060	0.112
-607.186	178.410	0.262	0.383
-606.171	231.198	-0.046	0.075
-605.157	-57.721	-0.110	0.048
-604.142	367.438	0.041	-0.083
-603.128	-200.000	-0.018	-0.156
-602.113	-134.585	0.138	0.017
-601.098	-170.981	-0.011	0.000
-600.084	500.259	-0.114	0.263
-599.069	-20.660	-0.206	-0.126
-598.055	-108.836	-0.208	0.045
-597.040	800.000	0.052	-0.150
-596.025	756.190	-0.131	-0.354
-595.011	-200.000	-0.023	-0.198
-593.996	184.683	-0.243	-0.360
-592.982	21.846	-0.111	0.091
-591.967	-200.000	0.018	0.365
-590.952	-200.000	0.039	0.236
-589.938	328.207	0.056	0.108
-588.923	-87.364	-0.145	0.044
-587.909	-200.000	-0.006	0.243
-586.894	466.909	-0.035	-0.079
-585.879	424.405	-0.129	-0.278
-584.865	42.307	0.047	-0.043
-583.850	130.704	0.056	0.072
-582.836	-130.082	-0.104	-0.014
-581.821	-2.202	-0.045	0.032
-580.806	-56.808	0.277	0.122
-579.792	-118.929	0.186	-0.033
-578.777	270.672	0.092	-0.161
-577.763	-9.841	0.266	-0.177
-576.748	-200.000	-0.053	-0.285
-575.733	-200.000	0.021	-0.265
-574.719	800.000	0.064	-0.244
-573.704	-104.373	0.036	-0.008
-572.690	-200.000	-0.006	0.046
-571.675	-16.560	0.200	0.127
-570.661	266.969	0.100	-0.175
-569.646	-171.605	0.159	-0.005
-568.631	536.456	-0.116	-0.275
-567.617	-200.000	0.024	0.195
-566.602	450.967	0.100	0.220
-565.588	-113.151	0.091	-0.018
-564.573	38.427	-0.066	-0.059
-563.558	72.699	0.035	-0.037
-562.544	-200.000	-0.020	-0.134
-561.529	-91.857	0.474	-0.134
-560.515	-39.000	0.197	-0.104
-559.500	83.685	-0.404	-0.441
-558.485	-178.475	-0.298	0.007
-557.471	800.000	0.020	0.065
-556.456	36.410	-0.154	0.136
-555.442	-43.114	-0.124	0.063
-554.427	800.000	0.051	0.167
-553.412	-95.425	0.293	-0.079
-552.398	11.177	0.268	0.205
-551.383	28.342	-0.326	0.276
-550.369	-4.800	0.386	0.266
-549.354	14.410	0.130	-0.102
-548.339	178.244	-0.098	-0.143
-547.325	-200.000	0.030	0.208
-546.310	-124.050	-0.362	0.057
-545.296	-79.957	-0.156	-0.052
-544.281	800.000	0.072	0.282
-543.266	800.000	-0.027	-0.114
-542.252	225.457	0.093	-0.151
-541.237	-21.758	0.104	0.063
-540.223	-92.935	-0.365	0.102
-539.208	-200.000	0.049	-0.445
-538.193	171.367	-0.103	-0.148
-537.179	155.205	0.091	-0.126
-536.164	-31.800	-0.276	-0.154
-535.150	-200.000	0.018	-0.202
-534.135	-16.979	-0.232	-0.146
-533.121	-200.000	0.021	-0.261
-532.106	103.636	0.191	-0.224
-531.091	-98.640	-0.134	0.034
-530.077	-200.000	-0.013	0.268
-529.062	-5.870	-0.373	-0.255
-528.048	72.710	0.109	-0.113
-527.033	236.285	-0.154	-0.255
-526.018	-36.204	-0.135	-0.073
-525.004	-178.982	-0.261	0.006
-523.989	-50.019	-0.128	0.061
-522.975	-40.617	-0.264	-0.136
-521.960	800.000	0.081	-0.319
-520.945	-41.687	-0.321	0.165
-519.931	-25.970	-0.189	0.111
-518.916	557.721	0.078	0.188
-517.902	275.920	0.162	0.287
-516.887	165.220	-0.097	0.137
-515.872	436.691	0.067	0.146
-514.858	57.790	-0.167	-0.163
-513.843	187.627	0.061	0.091
-512.829	-150.139	-0.333	0.026
-511.814	800.000	0.034	-0.131
-510.799	-41.732	-0.196	0.100
-509.785	544.228	0.125	-0.297
-508.770	514.400	-0.099	-0.230
-507.756	502.343	0.060	0.138
-506.741	34.355	0.160	0.139
-505.726	-200.000	0.004	-0.047
-504.712	-43.854	-0.088	-0.044
-503.697	131.987	-0.075	-0.096
-502.683	-34.493	0.130	0.071
-501.668	-66.365	-0.049	0.020
-500.653	-200.000	0.009	-0.059
-499.639	220.601	-0.170	-0.272
-498.624	746.463	0.083	-0.222
-497.610	140.717	0.119	0.157
-496.595	-76.198	-0.492	-0.173
-495.581	291.591	-0.132	-0.239
-494.566	318.177	-0.070	-0.131
-493.551	180.511	-0.092	0.135
-492.537	-21.453	-0.232	0.141
-491.522	-200.000	0.017	0.187
-490.508	-22.110	-0.091	-0.055
-489.493	602.342	-0.049	0.122
-488.478	-46.202	-0.199	-0.098
-487.464	800.000	-0.003	0.012
-486.449	-200.000	-0.024	0.161
-485.435	800.000	-0.112	0.367
-484.420	-200.000	0.027	0.409
-483.405	168.659	-0.054	-0.077
-482.391	-200.000	-0.022	0.434
-481.376	291.024	0.011	-0.020
-480.362	3.315	0.087	0.063
-479.347	-137.863	-0.483	0.054
-478.332	-29.296	0.139	0.079
-477.318	82.790	0.150	0.162
-476.303	-16.663	-0.227	-0.143
-475.289	428.203	-0.153	0.330
-474.274	800.000	0.093	0.300
-473.259	-16.893	0.160	0.100
-472.245	-113.984	0.126	0.024
-471.230	800.000	0.139	0.389
-470.216	800.000	0.028	0.077
-469.201	-5.029	0.012	0.008
-468.186	153.940	0.091	-0.124
-467.172	800.000	0.057	0.190
-466.157	2.186	0.158	-0.114
-465.143	-70.284	0.360	-0.136
-464.128	800.000	-0.120	-0.348
-463.113	-200.000	0.042	0.205
-462.099	111.298	0.155	-0.186
-461.084	-124.044	0.084	0.013
-460.070	262.150	-0.088	-0.152
-459.055	-59.398	-0.049	-0.021
-458.040	215.703	-0.055	-0.087
-457.026	-7.581	0.127	0.085
-456.011	-200.000	-0.021	0.138
-454.997	-200.000	0.099	0.000
-453.982	-132.958	0.185	0.023
-452.968	706.744	0.147	-0.387
-451.953	-114.535	-0.234	-0.045
-450.938	-76.291	0.214	0.075
-449.924	-79.984	0.181	0.060
-448.909	800.000	-0.035	0.120
-447.895	-200.000	-0.009	0.155
-446.880	800.000	0.027	0.103
-445.865	800.000	-0.100	-0.287
-444.851	-27.192	0.128	-0.074
-443.836	-176.396	0.061	0.002
-442.822	15.261	-0.232	-0.181
-441.807	-93.254	0.212	0.059
-440.792	800.000	-0.037	-0.108
-439.778	535.036	-0.051	0.120
-438.763	-200.000	-0.048	-0.321
-437.749	64.741	-0.176	0.176
-436.734	-41.518	-0.267	0.136
-435.719	-178.553	-0.274	-0.006
-434.705	51.428	-0.156	-0.148
-433.690	-60.014	-0.115	-0.049
-432.676	-2.397	-0.142	0.099
-431.661	800.000	-0.048	0.136
-430.646	-116.790	0.342	-0.062
-429.632	653.530	-0.101	-0.259
-428.617	800.000	-0.109	-0.337
-427.603	-200.000	0.034	-0.215
-426.588	-101.685	0.191	0.046
-425.573	129.184	-0.151	-0.191
-424.559	-0.116	-0.156	0.111
-423.544	800.000	-0.056	0.191
-422.530	222.098	0.020	-0.032
-421.515	-95.584	-0.274	-0.073
-420.500	-98.938	0.213	0.054
-419.486	68.027	0.144	0.146
-418.471	800.000	0.020	0.074
-417.457	-12.551	-0.139	-0.090
-416.442	-73.464	-0.211	-0.076
-415.428	-140.761	0.038	0.004
-414.413	-108.663	0.341	-0.073
-413.398	175.043	0.071	-0.103
-412.384	382.982	0.172	-0.351
-411.369	70.447	-0.120	0.124
-410.355	12.347	0.169	-0.130
-409.340	546.341	-0.149	0.353
-408.325	-200.000	0.000	0.177
-407.311	478.076	-0.197	-0.444
-406.296	66.775	0.086	-0.087
-405.282	-149.083	-0.215	0.017
-404.267	18.643	0.325	-0.258
-403.252	800.000	-0.039	-0.158
-402.238	-169.417	-0.120	0.004
-401.223	136.277	0.034	0.044
-400.209	387.491	-0.128	-0.263
-399.194	61.948	0.152	0.150
-398.179	800.000	-0.047	0.176
-397.165	68.535	0.207	0.211
-396.150	-116.579	0.218	-0.040
-395.136	-111.104	-0.197	0.040
-394.121	-71.183	0.314	-0.117
-393.106	800.000	0.088	-0.356
-392.092	-48.108	-0.304	-0.146
-391.077	-62.724	0.422	0.174
-390.063	800.000	-0.068	0.193
-389.048	-134.358	-0.400	0.049
-388.033	281.317	0.179	0.318
-387.019	157.253	-0.171	0.235
-386.004	-113.187	0.282	-0.055
-384.990	-200.000	-0.039	0.239
-383.975	570.283	-0.134	0.322
-382.960	288.085	-0.100	0.179
-381.946	-43.443	-0.059	-0.029
-380.931	-101.240	0.126	-0.031
-379.917	160.965	-0.176	0.244
-378.902	-70.102	-0.277	0.105
-377.888	765.215	-0.128	0.344
-376.873	-200.000	0.006	-0.128
-375.858	-14.421	-0.041	-0.026
-374.844	-23.017	0.067	0.040
-373.829	703.725	-0.061	0.159
-372.815	238.151	-0.059	0.097
-371.800	-200.000	-0.032	0.449
-370.785	182.681	0.052	0.076
-369.771	69.004	0.158	-0.161
-368.756	599.615	0.048	0.118
-367.742	-131.520	-0.161	-0.021
-366.727	-139.123	-0.038	-0.004
-365.712	-145.039	0.233	0.021
-364.698	-195.266	0.228	-0.002
-363.683	-103.238	0.048	-0.011
-362.669	-51.320	0.357	-0.166
-361.654	-200.000	-0.070	0.311
-360.639	495.011	-0.024	-0.054
-359.625	-77.569	0.078	-0.027
-358.610	27.977	0.104	0.087
-357.596	-200.000	-0.035	0.162
-356.581	-1.057	0.326	0.229
-355.566	-92.517	0.393	0.109
-354.552	-200.000	0.022	0.281
-353.537	-40.634	-0.324	-0.167
-352.523	93.982	-0.014	0.016
-351.508	-88.879	0.095	-0.028
-350.493	-84.740	0.358	0.112
-349.479	446.547	-0.054	-0.119
-348.464	800.000	0.104	0.368
-347.450	-200.000	0.008	-0.130
-346.435	606.503	-0.041	-0.102
-345.420	-153.699	0.097	-0.007
-344.406	-134.541	0.221	0.027
-343.391	34.295	-0.160	-0.138
-342.377	-103.762	0.427	0.099
-341.362	-143.346	0.107	-0.010
-340.348	161.282	-0.136	-0.188
-339.333	-94.649	0.210	0.056
-338.318	-200.000	0.016	0.285
-337.304	800.000	0.023	-0.094
-336.289	-117.382	0.224	-0.040
-335.275	-200.000	-0.094	0.443
-334.260	499.027	0.132	-0.302
-333.245	374.839	-0.015	0.031
-332.231	-1.823	0.142	-0.099
-331.216	337.152	-0.079	-0.152
-330.202	-77.505	0.347	-0.119
-329.187	84.425	0.186	0.202
-328.172	800.000	0.075	-0.270
-327.158	-145.194	0.272	0.024
-326.143	-129.363	0.190	-0.026
-325.129	383.020	0.062	-0.126
-324.114	-22.792	-0.106	-0.063
-323.099	-102.576	0.295	-0.070
-322.085	13.249	-0.245	0.188
-321.070	-200.000	-0.022	-0.329
-320.056	-123.768	0.097	-0.015
-319.041	-35.979	0.204	0.109
-318.026	214.450	0.059	0.092
-317.012	800.000	0.032	0.124
-315.997	17.891	0.081	-0.064
-314.983	14.649	-0.248	0.192
-313.968	-164.640	0.313	-0.014
-312.953	189.440	-0.101	-0.150
-311.939	-21.262	-0.196	0.119
-310.924	69.909	0.118	0.121
-309.910	-200.000	-0.003	0.147
-308.895	238.323	0.224	-0.368
-307.880	-28.053	-0.150	0.086
-306.866	-130.093	-0.302	-0.041
-305.851	-105.952	0.310	-0.069
-304.837	-200.000	0.026	-0.261
-303.822	627.693	-0.157	-0.392
-302.807	800.000	0.048	-0.164
-301.793	427.330	-0.106	-0.226
-300.778	-2.169	0.086	-0.060
-299.764	-200.000	0.045	0.291
-298.749	-110.493	0.144	0.029
-297.735	800.000	-0.058	-0.240
-296.720	800.000	-0.078	-0.311
-295.705	117.413	-0.093	0.113
-294.691	-82.580	0.166	-0.053
-293.676	648.164	-0.153	0.386
-292.662	-56.526	-0.224	0.098
-291.647	91.652	-0.260	0.289
-290.632	-200.000	0.025	0.114
-289.618	-106.412	-0.073	-0.016
-288.603	18.352	-0.215	0.170
-287.589	57.932	0.164	0.159
-286.574	305.951	0.043	-0.079
-285.559	-33.625	0.208	0.113
-284.545	-140.730	-0.088	0.009
-283.530	55.308	-0.089	-0.085
-282.516	-138.014	-0.164	0.018
-281.501	237.338	0.066	0.108
-280.486	-123.258	-0.093	0.015
-279.472	-9.316	0.344	0.227
-278.457	718.264	-0.061	0.160
-277.443	152.025	0.048	-0.065
-276.428	-64.658	-0.250	0.100
-275.413	380.638	-0.166	0.337
-274.399	205.111	-0.179	-0.275
-273.384	-78.626	0.085	0.029
-272.370	167.619	-0.052	0.074
-271.355	329.029	-0.053	0.100
-270.340	-119.736	-0.211	0.036
-269.326	-160.058	0.465	-0.025
-268.311	42.632	0.151	0.136
-267.297	-89.200	-0.103	-0.030
-266.282	800.000	0.068	0.233
-265.267	-21.233	0.154	-0.093
-264.253	-6.258	-0.122	-0.082
-263.238	229.348	-0.188	-0.303
-262.224	-1.067	0.163	-0.114
-261.209	-61.472	-0.255	-0.106
-260.195	267.682	-0.152	-0.263
-259.180	-104.292	0.302	-0.069
-258.165	-62.071	-0.278	0.115
-257.151	-75.299	-0.142	-0.050
-256.136	219.994	0.119	0.188
-255.122	800.000	0.102	0.335
-254.107	192.783	0.130	0.194
-253.092	-163.740	-0.270	-0.013
-252.078	51.788	0.215	-0.202
-251.063	361.831	0.090	-0.178
-250.049	10.341	0.205	-0.154
-249.034	-200.000	0.036	-0.171
-248.019	293.455	0.176	-0.318
-247.005	474.329	-0.122	-0.273
-245.990	800.000	0.144	0.431
-244.976	183.354	0.189	-0.275
-243.961	156.041	0.153	-0.208
-242.946	-169.928	-0.073	-0.003
-241.932	50.793	-0.289	0.270
-240.917	-200.000	0.020	0.251
-239.903	-138.946	0.026	0.003
-238.888	-174.236	-0.189	-0.005
-237.873	-200.000	-0.040	-0.189
-236.859	800.000	0.086	0.351
-235.844	36.186	-0.330	0.287
-234.830	331.234	-0.111	-0.210
-233.815	148.382	0.142	0.190
-232.800	-115.982	-0.163	-0.030
-231.786	-96.953	-0.183	0.047
-230.771	-109.905	-0.062	0.013
-229.757	91.898	0.079	-0.087
-228.742	165.632	0.097	-0.135
-227.727	552.721	0.172	-0.407
-226.713	-200.000	-0.194	-0.001
-225.698	125.424	0.155	-0.192
-224.684	-120.620	0.390	0.065
-223.669	-56.089	-0.365	-0.160
-222.655	-84.817	-0.225	-0.070
-221.640	-200.000	0.018	0.331
-220.625	463.152	-0.043	0.094
-219.611	161.130	-0.078	0.107
-218.596	178.950	0.145	-0.208
-217.582	302.947	0.054	0.099
-216.567	-58.004	-0.268	0.115
-215.552	-46.907	0.352	-0.170
-214.538	-42.660	-0.197	0.099
-213.523	228.020	-0.087	0.139
-212.509	-107.668	-0.378	0.081
-211.494	196.258	0.064	-0.095
-210.479	339.758	0.126	-0.242
-209.465	151.282	-0.238	0.319
-208.450	800.000	-0.020	-0.057
-207.436	-28.417	0.255	-0.145
-206.421	-200.000	0.064	0.307
-205.406	-54.747	-0.260	-0.116
-204.392	-97.263	-0.131	-0.034
-203.377	181.658	0.238	0.345
-202.363	-7.396	0.188	0.125
-201.348	-159.024	-0.333	-0.019
-200.333	223.600	0.109	0.173
-199.319	-200.000	-0.002	0.024
-198.304	64.241	-0.290	0.288
-197.290	270.465	-0.085	0.147
-196.275	-110.069	0.391	0.081
-195.260	601.421	-0.169	-0.415
-194.246	-200.000	-0.063	-0.317
-193.231	255.725	0.132	0.223
-192.217	-70.582	0.201	-0.075
-191.202	-77.718	0.211	-0.072
-190.187	800.000	0.082	-0.308
-189.173	-36.144	0.133	-0.071
-188.158	-52.434	0.233	-0.106
-187.144	159.691	0.147	0.201
-186.129	-3.251	0.216	0.148
-185.114	-12.229	0.325	-0.209
-184.100	536.734	0.043	0.100
-183.085	-7.913	0.140	0.093
-182.071	773.541	0.066	0.176
-181.056	-115.455	-0.272	0.050
-180.042	-104.367	0.207	-0.047
-179.027	-10.786	0.073	0.048
-178.012	-135.683	-0.199	0.023
-176.998	124.415	0.113	0.139
-175.983	713.813	-0.088	-0.230
-174.969	-200.000	0.009	-0.108
-173.954	159.548	0.111	-0.152
-172.939	444.618	-0.056	0.122
-171.925	-14.111	0.110	0.070
-170.910	-113.084	-0.137	-0.027
-169.896	-77.691	-0.128	-0.044
-168.881	313.693	-0.185	-0.342
-167.866	191.077	0.033	0.049
-166.852	-200.000	0.041	-0.258
-165.837	501.875	0.058	-0.131
-164.823	-81.296	-0.291	-0.094
-163.808	-200.000	0.025	0.245
-162.793	-36.399	-0.127	0.067
-161.779	-80.096	0.279	-0.092
-160.764	-200.000	0.007	-0.086
-159.750	-43.122	-0.139	-0.070
-158.735	-50.067	0.213	-0.099
-157.720	63.471	0.166	0.163
-156.706	-200.000	0.000	0.207
-155.691	25.126	0.414	-0.338
-154.677	-200.000	0.162	0.001
-153.662	58.073	-0.199	-0.192
-152.647	187.047	-0.201	-0.295
-151.633	-102.408	-0.085	-0.020
-150.618	-162.831	0.073	0.003
-149.604	-132.586	-0.204	-0.026
-148.589	340.622	-0.165	-0.316
-147.574	-49.626	-0.103	0.048
-146.560	-160.395	0.420	-0.022
-145.545	-2.496	0.187	0.129
-144.531	17.195	0.244	-0.191
-143.516	-123.588	-0.241	-0.038
-142.502	228.745	0.160	0.257
-141.487	-68.191	-0.203	-0.078
-140.472	800.000	-0.058	-0.240
-139.458	-43.883	0.141	-0.070
-138.443	-44.170	-0.365	0.180
-137.429	658.585	-0.073	0.183
-136.414	-135.808	0.108	-0.013
-135.399	210.861	0.117	0.181
-134.385	-146.369	-0.141	0.012
-133.370	-112.615	-0.095	0.019
-132.356	-11.496	0.096	0.062
-131.341	-200.000	-0.002	-0.117
-130.326	800.000	0.037	-0.124
-129.312	-91.688	-0.073	0.020
-128.297	800.000	-0.120	-0.357
-127.283	67.770	-0.173	0.174
-126.268	76.015	0.251	-0.261
-125.253	-39.539	0.202	-0.104
-124.239	687.880	-0.084	-0.216
-123.224	96.959	-0.257	-0.290
-122.210	-82.197	-0.120	0.039
-121.195	-116.842	0.122	0.022
