DTS Sentinel unit serial number:	SN413079Multiplexer serial number:	ORYXHardware model number:	OX4-SRSoftware version number:	ORYX F/W v4.00 Oryx Data Collector v3.7.2.0data status	okinstallation	princeton_trtdifferential loss correction	single-endedforward channel	channel 1reverse channel	N/Adate	2019/09/10time	21:44:11forward acquisition time	60.00reverse acquisition time	0.00gamma	496.2192k internal	0.2331k external	0.2331temperature offset calibration	0.9935default loss term (dB/km)	0.3790temperature slope calibration	1.0000multiplexer offset coefficient	1.0000multiplexer slope coefficient	1.0000fibre end	0.00T internal ref (°C)	30.94T ext. ref 1 (°C)	-0.31T ext. ref 2 (°C)	24.24length (m)	temperature (°C)	Stokes	anti-Stokes-747.200	800.000	0.078	-0.276
-746.185	7.645	0.216	0.163
-745.171	-200.000	-0.016	-0.140
-744.156	624.994	-0.101	0.258
-743.142	-200.000	0.017	0.180
-742.127	645.428	-0.139	0.358
-741.112	-63.358	0.175	-0.073
-740.098	49.337	0.280	0.265
-739.083	-67.112	-0.215	0.085
-738.069	79.848	-0.360	-0.389
-737.054	524.852	0.092	-0.217
-736.039	-104.010	-0.191	0.045
-735.025	-200.000	-0.041	-0.274
-734.010	-87.189	-0.469	0.144
-732.996	264.549	0.102	-0.178
-731.981	-103.601	-0.136	0.032
-730.966	530.769	-0.073	0.175
-729.952	800.000	0.084	-0.364
-728.937	110.637	0.213	0.258
-727.923	104.563	0.191	-0.226
-726.908	-80.468	-0.405	-0.136
-725.894	154.754	-0.146	0.201
-724.879	-1.563	0.224	-0.159
-723.864	-163.190	0.176	-0.009
-722.850	-99.373	-0.094	-0.024
-721.835	-87.034	0.126	-0.039
-720.821	-134.631	0.288	-0.035
-719.806	-200.000	-0.001	0.148
-718.791	-200.000	0.016	0.352
-717.777	-65.516	-0.103	0.042
-716.762	-83.536	-0.289	-0.093
-715.748	-36.408	-0.330	-0.179
-714.733	32.228	-0.136	-0.118
-713.718	-200.000	-0.041	0.334
-712.704	800.000	-0.115	-0.417
-711.689	-37.616	0.238	-0.127
-710.675	25.838	0.235	-0.197
-709.660	-104.399	-0.257	-0.060
-708.645	14.935	0.164	-0.129
-707.631	-200.000	-0.054	-0.238
-706.616	-107.828	0.209	0.046
-705.602	272.063	0.082	-0.146
-704.587	432.922	-0.035	0.075
-703.572	-18.190	0.141	0.089
-702.558	-176.611	0.174	0.004
-701.543	293.772	0.125	0.230
-700.529	-135.624	0.261	0.031
-699.514	-200.000	-0.069	-0.336
-698.499	42.444	0.072	0.066
-697.485	-130.010	-0.134	-0.018
-696.470	-200.000	-0.054	-0.355
-695.456	-148.032	0.373	-0.031
-694.441	59.581	0.092	0.091
-693.426	-200.000	0.000	-0.077
-692.412	-152.563	-0.059	-0.004
-691.397	-200.000	-0.008	0.119
-690.383	171.310	-0.170	0.245
-689.368	183.571	0.281	-0.418
-688.354	-200.000	-0.037	-0.272
-687.339	-136.444	0.124	-0.014
-686.324	800.000	0.026	0.086
-685.310	203.295	-0.120	0.187
-684.295	-72.899	0.186	-0.069
-683.281	86.990	0.175	0.194
-682.266	73.228	-0.249	0.261
-681.251	-200.000	0.026	0.124
-680.237	76.724	0.060	0.064
-679.222	206.341	-0.181	0.283
-678.208	-43.376	0.143	-0.073
-677.193	-200.000	0.047	0.343
-676.178	-108.003	-0.316	-0.069
-675.164	-143.339	0.459	-0.044
-674.149	-200.000	-0.025	-0.239
-673.135	286.110	0.034	-0.061
-672.120	-75.716	0.145	-0.052
-671.105	-121.493	0.101	-0.017
-670.091	-200.000	0.038	-0.273
-669.076	155.050	-0.221	-0.305
-668.062	59.742	0.089	0.088
-667.047	225.419	-0.103	0.167
-666.032	-50.763	-0.322	-0.152
-665.018	-85.370	-0.241	-0.075
-664.003	238.293	-0.095	0.158
-662.989	-24.027	0.121	-0.072
-661.974	68.527	-0.173	-0.178
-660.959	-192.427	-0.245	0.002
-659.945	-115.457	0.125	-0.024
-658.930	71.151	-0.180	0.187
-657.916	-200.000	-0.060	-0.400
-656.901	81.078	0.250	-0.271
-655.886	92.073	-0.174	-0.196
-654.872	800.000	0.098	-0.379
-653.857	-91.286	-0.189	-0.054
-652.843	13.986	0.201	-0.157
-651.828	289.975	0.172	-0.314
-650.814	-95.156	-0.089	-0.024
-649.799	65.445	-0.151	0.153
-648.784	60.638	-0.146	0.145
-647.770	693.920	-0.054	0.142
-646.755	-200.000	0.033	-0.177
-645.741	-109.248	0.031	0.007
-644.726	58.679	0.096	0.094
-643.711	800.000	-0.159	0.445
-642.697	179.117	-0.164	0.241
-641.682	311.887	-0.062	-0.116
-640.668	313.259	-0.156	0.293
-639.653	-200.000	-0.015	0.100
-638.638	-97.702	-0.109	0.028
-637.624	-104.360	-0.144	-0.033
-636.609	403.135	-0.123	-0.259
-635.595	-103.635	-0.223	-0.052
-634.580	800.000	0.052	0.202
-633.565	79.953	-0.109	-0.117
-632.551	-95.504	-0.176	-0.047
-631.536	800.000	0.132	-0.400
-630.522	800.000	0.021	-0.073
-629.507	-67.247	0.162	0.064
-628.492	-200.000	0.045	-0.209
-627.478	-200.000	0.054	-0.251
-626.463	740.671	-0.050	-0.135
-625.449	70.093	-0.103	-0.106
-624.434	-158.173	-0.153	-0.009
-623.419	260.416	-0.224	-0.388
-622.405	-181.585	-0.393	-0.008
-621.390	800.000	0.093	-0.310
-620.376	-139.846	-0.248	-0.026
-619.361	-59.178	0.241	0.104
-618.346	-90.375	0.173	0.050
-617.332	-200.000	0.010	0.342
-616.317	-200.000	-0.000	0.207
-615.303	1.267	0.088	-0.064
-614.288	97.589	-0.326	-0.376
-613.273	533.781	-0.016	0.037
-612.259	800.000	0.139	-0.455
-611.244	-28.090	0.300	-0.174
-610.230	-21.020	-0.201	-0.123
-609.215	-143.624	0.130	0.012
-608.201	-71.802	0.069	0.026
-607.186	-59.299	-0.364	-0.157
-606.171	-88.580	-0.193	0.058
-605.157	-154.014	0.097	-0.007
-604.142	800.000	0.051	0.168
-603.128	37.985	-0.115	0.102
-602.113	-77.475	-0.437	-0.152
-601.098	80.751	0.059	0.063
-600.084	77.562	0.120	-0.128
-599.069	-200.000	-0.001	-0.040
-598.055	23.798	0.327	0.270
-597.040	463.589	0.084	-0.188
-596.025	322.463	-0.164	-0.313
-595.011	800.000	0.097	-0.382
-593.996	-67.863	0.129	0.050
-592.982	-124.790	-0.207	-0.032
-591.967	-82.214	0.276	-0.090
-590.952	-200.000	0.007	0.262
-589.938	-113.633	0.147	-0.029
-588.923	-15.631	0.039	-0.025
-587.909	-200.000	0.004	-0.067
-586.894	499.618	-0.171	0.394
-585.879	-114.426	-0.195	-0.037
-584.865	-11.688	-0.281	-0.185
-583.850	10.414	-0.218	-0.166
-582.836	-200.000	-0.072	0.391
-581.821	-137.710	-0.116	-0.013
-580.806	45.805	-0.149	-0.138
-579.792	800.000	-0.045	-0.164
-578.777	-200.000	-0.026	0.207
-577.763	800.000	0.066	0.199
-576.748	743.492	-0.132	0.356
-575.733	68.270	0.050	0.051
-574.719	-168.987	-0.358	0.013
-573.704	-22.564	-0.220	0.133
-572.690	800.000	0.002	0.010
-571.675	67.307	-0.006	-0.006
-570.661	42.575	-0.123	0.112
-569.646	800.000	-0.033	0.120
-568.631	800.000	0.024	0.076
-567.617	-99.157	-0.287	0.073
-566.602	138.173	-0.075	-0.098
-565.588	15.410	-0.130	-0.102
-564.573	800.000	0.015	0.054
-563.558	-200.000	-0.016	-0.183
-562.544	-16.958	0.169	-0.106
-561.529	-200.000	0.017	-0.166
-560.515	-98.356	0.176	0.045
-559.500	-38.676	-0.103	-0.054
-558.485	-200.000	-0.001	-0.157
-557.471	37.787	-0.472	0.419
-556.456	-116.054	0.246	-0.046
-555.442	-28.370	-0.101	0.058
-554.427	-149.661	0.166	0.013
-553.412	71.011	-0.096	-0.099
-552.398	-188.352	0.027	0.000
-551.383	487.440	0.122	-0.279
-550.369	-110.505	-0.280	0.058
-549.354	-191.310	0.313	-0.003
-548.339	-84.423	0.238	-0.075
-547.325	-44.956	0.244	-0.121
-546.310	31.077	0.188	0.161
-545.296	712.953	0.033	-0.088
-544.281	-3.645	0.181	0.126
-543.266	-58.870	-0.143	0.062
-542.252	-24.591	0.114	0.068
-541.237	152.656	0.141	0.192
-540.223	-123.426	0.096	0.015
-539.208	-103.800	0.195	-0.046
-538.193	290.269	0.083	0.151
-537.179	-79.251	0.279	-0.095
-536.164	-200.000	0.003	0.182
-535.150	-149.466	0.286	0.023
-534.135	538.894	0.087	0.206
-533.121	-107.680	0.107	-0.023
-532.106	46.746	-0.112	0.104
-531.091	-200.000	-0.010	-0.073
-530.077	800.000	0.091	-0.262
-529.062	94.200	-0.256	-0.291
-528.048	117.426	0.184	-0.225
-527.033	-26.394	-0.085	0.049
-526.018	-10.843	-0.092	0.061
-525.004	-200.000	-0.020	0.322
-523.989	-66.895	-0.071	-0.028
-522.975	-12.015	-0.196	0.128
-521.960	-79.855	-0.048	-0.016
-520.945	-39.322	0.153	0.080
-519.931	-200.000	-0.023	0.125
-518.916	-2.046	-0.278	-0.195
-517.902	221.229	0.111	0.179
-516.887	-200.000	0.006	0.152
-515.872	483.760	-0.043	0.098
-514.858	-94.464	-0.028	0.007
-513.843	-14.880	-0.137	-0.088
-512.829	391.779	0.115	0.237
-511.814	-101.523	-0.346	0.084
-510.799	-106.259	-0.394	0.088
-509.785	-200.000	0.044	0.305
-508.770	240.046	0.111	0.185
-507.756	164.094	-0.098	0.138
-506.741	-85.938	0.163	0.050
-505.726	-42.078	-0.198	0.101
-504.712	201.347	0.123	-0.189
-503.697	87.271	0.197	-0.218
-502.683	-98.623	-0.169	-0.043
-501.668	-85.956	-0.180	-0.056
-500.653	-63.659	0.039	-0.016
-499.639	-84.857	0.254	0.079
-498.624	27.363	0.148	0.124
-497.610	-200.000	0.002	-0.066
-496.595	-56.911	-0.123	0.054
-495.581	-77.640	-0.256	-0.088
-494.566	-65.353	0.143	0.057
-493.551	800.000	0.055	-0.178
-492.537	-200.000	0.012	-0.208
-491.522	-106.301	0.131	0.029
-490.508	-154.142	0.236	-0.016
-489.493	800.000	0.074	-0.272
-488.478	-45.254	0.150	0.074
-487.464	-67.332	-0.362	0.142
-486.449	-99.959	-0.202	0.050
-485.435	-113.852	0.034	-0.007
-484.420	-138.911	-0.255	-0.028
-483.405	-64.245	0.303	-0.123
-482.391	-4.189	-0.219	0.151
-481.376	-88.505	0.186	0.055
-480.362	248.756	-0.063	0.107
-479.347	228.256	-0.021	0.034
-478.332	26.560	0.047	-0.039
-477.318	-42.486	0.034	-0.017
-476.303	205.929	-0.126	-0.196
-475.289	-125.544	0.307	0.046
-474.274	2.327	0.264	0.190
-473.259	-73.401	-0.387	0.141
-472.245	288.421	-0.244	0.440
-471.230	161.671	0.088	-0.122
-470.216	227.586	0.223	-0.361
-469.201	396.547	-0.012	-0.026
-468.186	7.019	0.242	0.180
-467.172	614.682	-0.174	0.434
-466.157	-2.692	0.299	-0.208
-465.143	-103.223	-0.209	0.049
-464.128	-146.316	-0.055	0.005
-463.113	-31.817	-0.165	0.092
-462.099	800.000	0.062	0.185
-461.084	-200.000	0.016	-0.156
-460.070	-66.595	0.193	0.076
-459.055	-200.000	-0.012	0.242
-458.040	-200.000	0.037	-0.194
-457.026	-154.056	-0.375	-0.025
-456.011	129.572	0.181	-0.230
-454.997	90.549	0.155	-0.173
-453.982	-10.634	0.229	0.151
-452.968	-200.000	-0.010	0.158
-451.953	-200.000	0.052	-0.264
-450.938	494.000	-0.030	0.069
-449.924	-20.735	0.142	-0.087
-448.909	-133.715	0.215	0.027
-447.895	-200.000	0.000	-0.060
-446.880	31.898	0.237	-0.203
-445.865	-93.983	0.065	0.018
-444.851	384.569	-0.119	0.244
-443.836	16.854	-0.087	-0.068
-442.822	-200.000	0.113	0.499
-441.807	150.325	0.018	0.025
-440.792	203.021	0.148	0.228
-439.778	473.914	0.102	-0.228
-438.763	-123.827	0.091	-0.014
-437.749	-200.000	-0.053	0.404
-436.734	-159.111	-0.220	0.012
-435.719	-66.575	-0.424	0.167
-434.705	346.165	-0.113	0.221
-433.690	238.267	-0.094	0.155
-432.676	-123.796	0.089	-0.014
-431.661	-7.235	-0.218	-0.147
-430.646	264.718	-0.031	0.054
-429.632	-21.200	0.183	0.112
-428.617	146.899	-0.098	-0.131
-427.603	-200.000	-0.024	0.227
-426.588	-95.589	-0.157	0.042
-425.573	287.639	0.124	0.223
-424.559	-6.959	0.019	-0.013
-423.544	-36.575	-0.202	0.108
-422.530	-146.872	-0.191	0.016
-421.515	-200.000	-0.051	0.244
-420.500	-200.000	-0.025	-0.232
-419.486	-61.202	0.094	0.039
-418.471	92.204	-0.143	0.160
-417.457	-200.000	-0.062	-0.334
-416.442	-128.396	-0.367	-0.052
-415.428	120.162	0.027	-0.034
-414.413	130.146	0.034	0.043
-413.398	-200.000	-0.003	-0.166
-412.384	800.000	0.044	0.172
-411.369	-200.000	0.002	0.145
-410.355	-200.000	0.038	0.184
-409.340	-38.082	0.200	0.106
-408.325	176.302	0.122	-0.176
-407.311	-26.823	-0.211	-0.122
-406.296	208.078	0.129	-0.200
-405.282	-200.000	-0.026	-0.238
-404.267	-113.056	-0.165	-0.032
-403.252	24.975	-0.100	-0.083
-402.238	9.332	0.239	-0.179
-401.223	-200.000	0.030	0.239
-400.209	-49.351	-0.084	-0.040
-399.194	-98.534	-0.042	0.011
-398.179	86.826	-0.205	0.225
-397.165	-118.800	0.253	0.044
-396.150	-22.930	-0.076	0.046
-395.136	80.306	0.128	-0.137
-394.121	65.112	-0.097	0.097
-393.106	496.802	0.089	-0.204
-392.092	115.732	0.155	-0.188
-391.077	-4.202	-0.058	0.040
-390.063	-105.332	-0.208	0.047
-389.048	-200.000	-0.013	-0.116
-388.033	800.000	-0.127	0.425
-387.019	116.587	0.162	-0.197
-386.004	112.539	0.068	-0.082
-384.990	194.116	-0.309	0.465
-383.975	-164.091	0.385	0.018
-382.960	-57.437	0.223	0.097
-381.946	800.000	-0.098	-0.300
-380.931	-200.000	0.041	-0.238
-379.917	223.435	-0.120	-0.192
-378.902	323.117	0.155	-0.293
-377.888	-112.485	-0.180	-0.036
-376.873	-88.329	0.269	0.080
-375.858	-100.983	0.091	-0.022
-374.844	-28.660	0.322	0.184
-373.829	-172.748	-0.169	0.005
-372.815	70.699	-0.160	-0.164
-371.800	75.518	-0.206	-0.216
-370.785	265.099	0.136	-0.235
-369.771	-15.253	0.205	-0.130
-368.756	800.000	0.088	0.267
-367.742	196.533	-0.170	0.257
-366.727	-200.000	-0.008	0.422
-365.712	-200.000	0.039	0.496
-364.698	800.000	0.074	-0.205
-363.683	529.595	-0.171	-0.401
-362.669	-38.020	0.342	0.180
-361.654	-9.640	0.279	0.184
-360.639	-70.953	0.056	0.021
-359.625	-180.090	0.111	-0.002
-358.610	180.364	0.069	-0.100
-357.596	-103.005	-0.205	-0.048
-356.581	-200.000	-0.013	-0.157
-355.566	800.000	-0.088	0.333
-354.552	-154.443	0.218	-0.014
-353.537	-3.963	0.233	-0.160
-352.523	157.791	0.092	-0.126
-351.508	-95.689	-0.125	0.033
-350.493	508.788	-0.099	0.227
-349.479	341.999	0.145	-0.281
-348.464	143.685	0.119	-0.158
-347.450	133.204	-0.093	-0.119
-346.435	-78.740	0.093	0.031
-345.420	394.745	0.096	0.198
-344.406	-110.320	-0.283	0.058
-343.391	-200.000	0.004	0.133
-342.377	-89.830	0.512	-0.148
-341.362	598.596	-0.081	0.199
-340.348	768.755	0.111	0.300
-339.333	59.307	0.124	-0.121
-338.318	-14.866	0.263	0.167
-337.304	-152.864	-0.203	-0.014
-336.289	-7.774	0.059	0.040
-335.275	702.644	0.066	0.172
-334.260	778.995	-0.115	-0.311
-333.245	-200.000	-0.059	0.404
-332.231	-51.463	0.033	-0.015
-331.216	-108.727	0.234	0.050
-330.202	167.251	-0.090	-0.126
-329.187	58.252	-0.142	0.138
-328.172	-108.019	0.139	-0.030
-327.158	-76.882	0.217	0.075
-326.143	176.007	-0.082	-0.118
-325.129	-200.000	0.009	0.124
-324.114	-118.211	-0.248	0.044
-323.099	175.977	0.054	-0.077
-322.085	443.065	0.092	-0.201
-321.070	184.539	-0.114	-0.168
-320.056	-139.021	-0.057	-0.006
-319.041	11.240	-0.317	0.240
-318.026	240.801	0.143	0.236
-317.012	800.000	0.046	0.129
-315.997	-200.000	0.015	0.118
-314.983	800.000	0.084	-0.350
-313.968	5.013	0.152	0.111
-312.953	-200.000	-0.018	-0.082
-311.939	398.093	0.103	0.213
-310.924	-82.935	0.200	-0.064
-309.910	47.212	0.115	-0.106
-308.895	-0.026	0.151	-0.106
-307.880	-191.622	-0.113	0.001
-306.866	89.406	-0.036	0.040
-305.851	-86.145	0.148	0.045
-304.837	-27.875	-0.239	0.137
-303.822	-119.479	-0.339	0.058
-302.807	-44.365	-0.125	0.062
-301.793	-177.744	-0.301	0.007
-300.778	-200.000	-0.019	-0.138
-299.764	-43.723	0.353	-0.176
-298.749	249.213	-0.107	-0.179
-297.735	800.000	-0.112	-0.324
-296.720	43.873	-0.099	0.090
-295.705	-200.000	0.011	0.145
-294.691	630.187	-0.115	-0.287
-293.676	-125.012	0.202	-0.031
-292.662	-143.128	-0.235	0.022
-291.647	-83.546	0.157	0.050
-290.632	23.449	-0.183	-0.149
-289.618	-106.250	-0.258	0.057
-288.603	-74.553	-0.252	-0.090
-287.589	-66.448	-0.288	-0.113
-286.574	-64.025	0.192	-0.077
-285.559	-65.036	0.263	0.105
-284.545	81.555	0.055	-0.059
-283.530	101.514	-0.078	-0.090
-282.516	130.911	0.252	-0.320
-281.501	800.000	-0.004	-0.011
-280.486	157.152	-0.105	0.143
-279.472	186.013	0.081	-0.119
-278.457	-200.000	-0.053	-0.462
-277.443	-31.615	0.235	-0.131
-276.428	111.719	0.153	0.182
-275.413	17.484	-0.324	0.254
-274.399	-100.312	0.424	0.104
-273.384	-105.601	-0.222	0.050
-272.370	-164.648	0.049	-0.002
-271.355	-8.022	-0.103	0.068
-270.340	-85.773	-0.086	-0.026
-269.326	0.540	0.091	0.064
-268.311	-200.000	-0.003	-0.052
-267.297	50.995	0.173	-0.162
-266.282	-19.289	0.139	-0.085
-265.267	174.560	0.195	-0.279
-264.253	-71.611	0.204	-0.075
-263.238	19.517	-0.183	0.146
-262.224	53.813	0.025	0.024
-261.209	-200.000	0.046	-0.235
-260.195	521.916	0.104	0.240
-259.180	124.385	0.162	0.201
-258.165	5.524	0.037	-0.027
-257.151	-65.136	-0.332	-0.132
-256.136	-88.093	-0.360	-0.107
-255.122	-32.690	-0.188	0.103
-254.107	-97.530	0.389	-0.100
-253.092	136.979	-0.161	-0.208
-252.078	42.250	0.109	0.098
-251.063	-118.555	-0.274	-0.048
-250.049	76.810	-0.238	-0.249
-249.034	28.338	0.237	0.198
-248.019	78.792	0.216	-0.228
-247.005	5.208	-0.154	0.112
-245.990	344.169	0.105	-0.203
-244.976	-200.000	0.008	0.058
-243.961	-14.070	0.229	0.146
-242.946	105.996	0.071	0.083
-241.932	262.005	0.133	-0.228
-240.917	-29.525	-0.300	-0.169
-239.903	19.261	0.189	0.150
-238.888	19.395	0.067	-0.053
-237.873	95.121	0.173	0.194
-236.859	-95.734	-0.319	0.084
-235.844	199.141	0.047	-0.071
-234.830	565.374	0.213	-0.509
-233.815	800.000	0.051	0.142
-232.800	664.964	-0.078	0.198
-231.786	-193.548	0.284	0.002
-230.771	-200.000	0.009	0.055
-229.757	-22.535	-0.192	-0.115
-228.742	553.251	0.033	-0.079
-227.727	54.632	0.359	-0.342
-226.713	73.842	0.144	0.149
-225.698	234.511	-0.108	-0.175
-224.684	-200.000	0.012	0.194
-223.669	97.631	0.103	-0.117
-222.655	800.000	-0.014	-0.044
-221.640	480.449	-0.064	0.143
-220.625	61.807	0.115	-0.113
-219.611	-84.744	0.483	0.150
-218.596	-142.261	-0.148	-0.014
-217.582	-133.670	0.232	-0.029
-216.567	104.931	-0.130	0.151
-215.552	183.304	0.068	-0.098
-214.538	192.438	-0.025	0.038
-213.523	-20.150	-0.288	-0.175
-212.509	242.818	0.099	-0.164
-211.494	84.403	-0.173	0.186
-210.479	-125.401	0.264	0.040
-209.465	-98.648	-0.357	-0.090
-208.450	470.502	0.127	0.281
-207.436	197.438	-0.149	0.224
-206.421	142.756	-0.343	-0.450
-205.406	800.000	0.006	0.021
-204.392	-200.000	0.032	-0.250
-203.377	-151.062	0.286	-0.021
-202.363	-200.000	-0.013	0.099
-201.348	-164.778	-0.315	0.014
-200.333	75.899	0.156	0.163
-199.319	118.720	0.268	0.326
-198.304	774.767	-0.084	-0.226
-197.290	-200.000	0.010	-0.172
-196.275	191.987	-0.067	-0.100
-195.260	-77.141	0.402	-0.138
-194.246	-21.402	0.058	0.035
-193.231	158.162	0.158	-0.215
-192.217	310.550	-0.101	0.187
-191.202	366.306	-0.059	-0.117
-190.187	53.149	0.203	0.192
-189.173	-4.957	0.450	-0.305
-188.158	-73.058	0.243	-0.088
-187.144	-200.000	-0.007	0.042
-186.129	664.647	-0.068	0.172
-185.114	-75.253	0.105	0.037
-184.100	-0.569	0.192	0.134
-183.085	306.105	-0.097	-0.177
-182.071	-49.743	-0.297	-0.139
-181.056	318.644	0.097	-0.181
-180.042	-57.799	0.272	0.117
-179.027	66.644	0.125	0.125
-178.012	-82.202	-0.155	-0.050
-176.998	-200.000	-0.002	0.086
-175.983	-1.073	-0.206	0.143
-174.969	-113.435	-0.035	-0.007
-173.954	-121.477	0.192	0.031
-172.939	3.460	-0.309	-0.221
-171.925	-200.000	0.034	0.164
-170.910	-52.877	-0.166	-0.075
-169.896	97.794	-0.089	-0.100
-168.881	-76.419	0.019	0.006
-167.866	-51.881	-0.396	0.181
-166.852	304.816	0.165	-0.302
-165.837	-5.400	0.151	-0.102
-164.823	800.000	0.104	0.327
-163.808	126.249	-0.122	0.152
-162.793	32.729	-0.172	0.147
-161.779	349.960	-0.098	0.191
-160.764	-200.000	-0.001	-0.235
-159.750	800.000	0.032	0.114
-158.735	-162.206	-0.406	-0.020
-157.720	-111.735	0.193	0.039
-156.706	153.196	-0.105	-0.142
-155.691	-147.210	-0.112	0.009
-154.677	-200.000	0.006	-0.042
-153.662	134.202	0.227	-0.289
-152.647	-200.000	-0.005	0.185
-151.633	-23.856	-0.251	-0.148
-150.618	-200.000	-0.069	-0.455
-149.604	-200.000	-0.038	0.226
-148.589	451.764	0.111	0.241
-147.574	-128.829	0.170	0.024
-146.560	-93.817	0.189	0.051
-145.545	41.366	-0.079	-0.071
-144.531	151.641	-0.141	-0.189
-143.516	-147.191	0.321	0.027
-142.502	-125.605	0.391	-0.058
-141.487	4.265	-0.249	-0.179
-140.472	-89.672	0.195	0.056
-139.458	-75.744	0.289	0.101
-138.443	91.832	-0.106	-0.117
-137.429	800.000	-0.017	-0.050
-136.414	-10.772	0.336	0.218
-135.399	-102.679	0.236	-0.055
-134.385	-70.664	0.329	-0.122
-133.370	-126.126	-0.179	0.026
-132.356	150.306	-0.165	0.220
-131.341	-50.396	-0.250	0.116
-130.326	800.000	-0.077	0.220
-129.312	271.562	-0.096	-0.166
-128.297	414.389	-0.049	0.102
-127.283	-200.000	-0.011	0.191
-126.268	-152.150	0.030	0.002
-125.253	800.000	0.047	0.197
-124.239	47.362	-0.194	0.178
-123.224	32.297	-0.018	0.015
-122.210	-200.000	-0.042	-0.221
-121.195	185.558	0.113	-0.164
