DTS Sentinel unit serial number:	SN413079Multiplexer serial number:	ORYXHardware model number:	OX4-SRSoftware version number:	ORYX F/W v4.00 Oryx Data Collector v3.7.2.0data status	okinstallation	princeton_trtdifferential loss correction	single-endedforward channel	channel 1reverse channel	N/Adate	2019/09/12time	07:04:11forward acquisition time	60.00reverse acquisition time	0.00gamma	496.2192k internal	0.2320k external	0.2320temperature offset calibration	1.0044default loss term (dB/km)	0.3790temperature slope calibration	1.0000multiplexer offset coefficient	1.0000multiplexer slope coefficient	1.0000fibre end	0.00T internal ref (°C)	32.19T ext. ref 1 (°C)	1.62T ext. ref 2 (°C)	27.42length (m)	temperature (°C)	Stokes	anti-Stokes-747.200	-40.881	0.236	0.123
-746.185	95.112	-0.138	-0.159
-745.171	800.000	0.144	0.432
-744.156	-85.485	0.237	-0.075
-743.142	14.266	-0.233	0.183
-742.127	-76.016	-0.188	0.067
-741.112	-119.604	-0.308	-0.054
-740.098	191.830	-0.151	0.230
-739.083	800.000	-0.056	-0.160
-738.069	-169.998	-0.140	0.005
-737.054	-125.613	-0.333	0.051
-736.039	779.980	0.076	0.210
-735.025	491.706	0.125	0.290
-734.010	67.012	0.023	0.024
-732.996	800.000	0.166	-0.655
-731.981	-17.488	0.474	-0.301
-730.966	-11.991	-0.081	-0.054
-729.952	-88.690	-0.152	0.046
-728.937	-101.090	-0.248	-0.061
-727.923	-45.909	-0.371	-0.185
-726.908	355.464	0.035	0.070
-725.894	82.153	-0.220	0.241
-724.879	-129.597	-0.228	-0.032
-723.864	-19.517	0.301	0.188
-722.850	587.142	-0.075	-0.186
-721.835	-51.569	0.053	-0.025
-720.821	-200.000	-0.028	0.185
-719.806	97.157	-0.065	0.075
-718.791	38.087	-0.197	-0.177
-717.777	-143.075	0.242	0.024
-716.762	-200.000	0.009	-0.052
-715.748	-99.432	-0.064	0.016
-714.733	-41.058	0.605	0.316
-713.718	141.255	-0.129	0.172
-712.704	-200.000	0.008	0.221
-711.689	137.422	-0.130	-0.172
-710.675	-90.420	-0.204	0.060
-709.660	-8.605	0.343	0.232
-708.645	800.000	0.175	-0.546
-707.631	-136.843	0.348	0.040
-706.616	670.593	0.054	-0.141
-705.602	-113.691	0.256	-0.050
-704.587	91.754	0.074	-0.085
-703.572	80.599	-0.173	-0.188
-702.558	138.709	0.165	0.219
-701.543	-49.050	-0.166	-0.080
-700.529	-116.397	0.283	-0.053
-699.514	-123.748	0.135	0.022
-698.499	-157.537	-0.248	-0.015
-697.485	-31.327	0.215	0.122
-696.470	-200.000	0.023	0.131
-695.456	-200.000	-0.033	-0.370
-694.441	-200.000	-0.102	-0.474
-693.426	35.360	0.197	-0.174
-692.412	323.309	0.034	0.066
-691.397	517.467	0.023	-0.054
-690.383	8.616	-0.023	0.018
-689.368	263.716	0.049	0.087
-688.354	800.000	0.060	-0.212
-687.339	-92.788	0.070	0.020
-686.324	-47.516	0.211	-0.104
-685.310	800.000	-0.045	-0.159
-684.295	-79.724	-0.326	0.111
-683.281	-18.583	-0.109	0.068
-682.266	-200.000	0.018	-0.278
-681.251	749.767	-0.051	-0.139
-680.237	800.000	0.039	-0.122
-679.222	-182.984	0.256	0.005
-678.208	-49.783	0.078	-0.038
-677.193	-29.859	0.097	-0.056
-676.178	530.908	0.141	0.335
-675.164	800.000	0.090	-0.261
-674.149	424.241	0.182	-0.394
-673.135	49.966	0.184	-0.175
-672.120	163.069	0.082	0.116
-671.105	-102.712	-0.136	0.033
-670.091	47.273	-0.170	0.159
-669.076	-120.750	-0.381	-0.065
-668.062	90.266	0.195	-0.220
-667.047	317.496	0.044	0.084
-666.032	-200.000	-0.023	-0.154
-665.018	800.000	-0.047	0.161
-664.003	-27.737	-0.332	-0.194
-662.989	75.017	0.119	-0.126
-661.974	54.197	-0.269	-0.261
-660.959	-186.508	-0.247	-0.004
-659.945	-200.000	-0.001	0.094
-658.930	-200.000	0.053	-0.233
-657.916	-200.000	-0.007	-0.375
-656.901	21.782	-0.141	-0.116
-655.886	-66.587	-0.156	-0.063
-654.872	130.387	0.062	0.080
-653.857	104.375	-0.237	0.281
-652.843	322.282	0.112	0.215
-651.828	-200.000	0.007	0.104
-650.814	129.828	-0.206	0.265
-649.799	262.018	0.227	-0.396
-648.784	800.000	-0.118	-0.359
-647.770	800.000	-0.041	-0.160
-646.755	-200.000	-0.003	-0.311
-645.741	342.381	0.200	-0.394
-644.726	-117.998	-0.289	-0.052
-643.711	-200.000	0.014	-0.242
-642.697	371.033	0.175	-0.358
-641.682	-1.868	-0.142	-0.101
-640.668	-200.000	-0.027	-0.161
-639.653	336.086	-0.122	0.238
-638.638	781.911	0.033	-0.091
-637.624	314.598	-0.090	-0.170
-636.609	36.999	-0.102	-0.090
-635.595	141.934	0.121	-0.162
-634.580	174.769	-0.191	0.279
-633.565	476.080	-0.086	-0.196
-632.551	71.825	-0.205	0.214
-631.536	95.407	0.126	-0.144
-630.522	-67.172	0.186	-0.074
-629.507	228.700	0.112	0.184
-628.492	-104.294	-0.139	-0.032
-627.478	-51.802	-0.118	0.056
-626.463	-200.000	0.001	0.374
-625.449	-103.447	-0.148	-0.035
-624.434	156.509	0.218	-0.302
-623.419	800.000	0.051	0.219
-622.405	255.709	0.120	-0.207
-621.390	24.216	-0.116	0.096
-620.376	2.081	-0.194	0.141
-619.361	-94.979	-0.249	-0.068
-618.346	800.000	0.037	-0.151
-617.332	800.000	0.039	-0.168
-616.317	-128.848	0.049	0.007
-615.303	-200.000	-0.023	0.421
-614.288	680.123	-0.035	0.093
-613.273	-7.374	-0.226	0.154
-612.259	-200.000	0.008	-0.269
-611.244	-16.643	-0.194	-0.124
-610.230	32.415	0.081	0.070
-609.215	-27.764	0.130	-0.076
-608.201	-137.476	-0.158	0.018
-607.186	-28.692	0.147	0.085
-606.171	-117.389	0.104	-0.019
-605.157	-11.330	0.261	0.173
-604.142	-17.324	-0.180	-0.114
-603.128	-200.000	0.017	0.182
-602.113	420.251	-0.107	0.230
-601.098	76.247	-0.145	0.154
-600.084	-170.954	-0.126	0.004
-599.069	-200.000	-0.065	0.454
-598.055	130.328	0.068	-0.087
-597.040	-84.934	0.144	-0.045
-596.025	-200.000	-0.061	0.315
-595.011	800.000	-0.141	-0.430
-593.996	-75.962	-0.249	-0.089
-592.982	-200.000	0.015	-0.073
-591.967	210.415	0.084	0.133
-590.952	252.340	-0.056	-0.096
-589.938	800.000	0.074	-0.239
-588.923	-111.251	0.242	-0.050
-587.909	20.882	0.164	0.134
-586.894	-168.925	-0.122	0.005
-585.879	14.463	0.243	-0.190
-584.865	-26.845	-0.199	-0.117
-583.850	176.752	0.073	-0.107
-582.836	-200.000	-0.013	-0.078
-581.821	-26.090	-0.262	0.155
-580.806	-66.137	-0.216	0.087
-579.792	-160.228	0.374	0.020
-578.777	800.000	0.048	0.141
-577.763	-161.439	0.083	0.004
-576.748	-200.000	0.012	-0.645
-575.733	56.938	-0.061	-0.060
-574.719	426.125	-0.129	0.280
-573.704	-200.000	-0.008	0.065
-572.690	94.878	-0.230	0.263
-571.675	-32.123	-0.286	0.161
-570.661	-41.332	-0.198	-0.102
-569.646	-185.161	-0.161	-0.003
-568.631	-200.000	0.002	0.136
-567.617	-200.000	0.004	-0.176
-566.602	-200.000	0.021	0.152
-565.588	-81.055	-0.121	0.040
-564.573	101.752	-0.308	0.361
-563.558	110.254	-0.068	0.082
-562.544	593.725	0.032	-0.079
-561.529	298.306	-0.097	0.178
-560.515	797.145	-0.104	-0.287
-559.500	5.727	0.148	0.110
-558.485	93.897	-0.101	0.115
-557.471	-115.335	-0.116	-0.022
-556.456	232.884	0.063	-0.104
-555.442	34.234	0.059	0.051
-554.427	800.000	-0.096	-0.272
-553.412	-116.470	-0.166	0.031
-552.398	224.327	0.089	0.144
-551.383	174.294	-0.183	-0.265
-550.369	40.004	-0.198	-0.179
-549.354	-98.017	-0.102	0.026
-548.339	267.139	0.092	-0.162
-547.325	89.033	0.133	0.148
-546.310	-200.000	0.016	-0.292
-545.296	-83.571	-0.189	-0.061
-544.281	800.000	-0.116	0.343
-543.266	-86.306	0.418	-0.129
-542.252	93.099	0.183	-0.207
-541.237	-199.192	0.054	-0.000
-540.223	767.804	0.026	0.070
-539.208	42.273	0.162	-0.147
-538.193	23.836	-0.131	0.108
-537.179	85.863	-0.274	-0.302
-536.164	25.723	-0.055	0.046
-535.150	348.897	-0.129	-0.256
-534.135	-51.460	-0.182	0.085
-533.121	22.775	-0.353	0.290
-532.106	-82.989	0.116	0.037
-531.091	13.167	-0.206	0.160
-530.077	-50.006	0.372	0.177
-529.062	-55.493	-0.184	0.083
-528.048	-91.513	0.121	-0.035
-527.033	-17.826	0.167	0.105
-526.018	260.273	-0.191	0.331
-525.004	71.908	-0.227	-0.237
-523.989	28.968	-0.202	-0.172
-522.975	-25.833	0.335	0.198
-521.960	356.751	0.149	-0.298
-520.945	130.300	0.184	0.236
-519.931	325.298	-0.079	-0.152
-518.916	-85.180	-0.114	-0.036
-517.902	390.256	0.126	0.261
-516.887	27.780	0.160	-0.135
-515.872	-32.491	0.120	-0.067
-514.858	-36.454	-0.091	0.049
-513.843	-119.046	-0.211	0.037
-512.829	-25.437	-0.073	-0.043
-511.814	-13.426	-0.242	0.158
-510.799	301.198	-0.189	-0.349
-509.785	302.552	0.088	-0.163
-508.770	-120.188	0.252	-0.043
-507.756	654.254	-0.056	0.143
-506.741	-87.058	-0.193	0.059
-505.726	-69.581	0.056	0.021
-504.712	-63.637	0.210	-0.086
-503.697	-134.340	-0.256	-0.031
-502.683	220.915	-0.050	-0.081
-501.668	800.000	-0.012	-0.036
-500.653	250.259	-0.151	0.256
-499.639	-62.775	0.052	-0.022
-498.624	-21.482	0.219	0.134
-497.610	800.000	0.053	0.187
-496.595	-200.000	-0.004	-0.129
-495.581	140.151	0.084	-0.111
-494.566	-53.528	-0.166	-0.076
-493.551	-200.000	-0.051	-0.351
-492.537	-144.254	0.138	-0.013
-491.522	518.250	0.056	0.130
-490.508	65.231	0.349	-0.353
-489.493	52.196	0.264	-0.252
-488.478	486.093	-0.060	-0.137
-487.464	-111.177	-0.174	-0.036
-486.449	156.770	-0.034	0.046
-485.435	34.448	0.133	0.117
-484.420	-200.000	0.035	0.226
-483.405	-62.000	-0.119	0.050
-482.391	-56.762	0.121	0.053
-481.376	-1.173	0.064	-0.046
-480.362	370.887	0.063	0.127
-479.347	461.959	-0.130	0.290
-478.332	-158.883	-0.063	0.004
-477.318	800.000	-0.038	0.113
-476.303	304.395	-0.052	0.097
-475.289	-62.452	-0.145	0.060
-474.274	-200.000	-0.006	-0.351
-473.259	-30.107	0.115	-0.065
-472.245	-200.000	-0.039	0.268
-471.230	295.538	0.044	0.080
-470.216	-200.000	-0.055	0.400
-469.201	-122.432	0.432	0.070
-468.186	144.321	0.095	-0.126
-467.172	1.987	0.112	0.081
-466.157	-114.077	-0.134	-0.026
-465.143	-33.407	-0.434	0.240
-464.128	151.268	0.205	-0.280
-463.113	150.251	-0.114	-0.155
-462.099	-143.366	0.090	-0.009
-461.084	53.769	-0.122	-0.117
-460.070	-100.949	0.388	-0.095
-459.055	-200.000	0.030	-0.145
-458.040	148.414	0.079	0.106
-457.026	310.057	0.054	-0.102
-456.011	-200.000	-0.079	0.400
-454.997	54.147	-0.143	0.138
-453.982	-58.768	0.104	-0.045
-452.968	34.931	0.151	-0.132
-451.953	248.119	0.056	-0.095
-450.938	-30.179	-0.094	-0.053
-449.924	-200.000	0.013	-0.166
-448.909	-81.619	0.005	0.002
-447.895	-200.000	-0.067	-0.399
-446.880	-200.000	0.021	-0.116
-445.865	-89.526	0.333	0.098
-444.851	44.098	-0.122	-0.112
-443.836	-200.000	-0.036	0.248
-442.822	-45.146	0.101	0.050
-441.807	-130.027	0.167	0.023
-440.792	-84.396	0.204	-0.064
-439.778	588.606	-0.002	-0.006
-438.763	-200.000	-0.020	0.189
-437.749	800.000	-0.066	0.258
-436.734	-138.943	0.248	-0.027
-435.719	-130.395	0.216	0.029
-434.705	-5.256	0.287	-0.197
-433.690	127.770	-0.106	-0.135
-432.676	800.000	0.073	-0.220
-431.661	-126.150	-0.439	0.066
-430.646	800.000	0.038	-0.148
-429.632	27.750	0.246	-0.207
-428.617	63.047	-0.331	-0.331
-427.603	-200.000	0.046	-0.232
-426.588	-76.515	-0.163	-0.057
-425.573	-108.458	0.078	-0.017
-424.559	286.542	0.039	-0.070
-423.544	-200.000	-0.019	-0.123
-422.530	-30.885	0.271	0.153
-421.515	800.000	0.059	0.190
-420.500	405.713	-0.013	-0.028
-419.486	69.009	-0.134	0.138
-418.471	103.118	0.139	-0.162
-417.457	654.516	0.155	0.397
-416.442	-57.317	-0.192	-0.084
-415.428	-200.000	0.012	-0.076
-414.413	-51.937	-0.432	0.201
-413.398	-200.000	0.063	0.314
-412.384	-58.556	-0.234	-0.101
-411.369	2.924	0.197	-0.143
-410.355	-200.000	0.023	-0.161
-409.340	-85.730	-0.202	-0.063
-408.325	800.000	-0.091	-0.344
-407.311	-84.325	-0.282	-0.089
-406.296	-156.923	0.163	-0.010
-405.282	-98.739	-0.103	0.026
-404.267	-200.000	0.029	-0.257
-403.252	-113.139	0.275	-0.054
-402.238	241.195	0.101	-0.168
-401.223	-45.521	-0.300	0.148
-400.209	-200.000	-0.013	0.076
-399.194	-106.564	-0.275	0.061
-398.179	-85.417	0.106	-0.033
-397.165	179.234	0.132	-0.192
-396.150	-88.949	-0.169	-0.050
-395.136	51.647	-0.114	0.108
-394.121	-37.573	0.215	-0.114
-393.106	496.759	0.009	0.021
-392.092	-91.446	-0.030	0.008
-391.077	-86.567	0.306	0.094
-390.063	-200.000	-0.005	0.227
-389.048	-200.000	-0.037	-0.179
-388.033	-66.080	0.241	0.096
-387.019	-152.521	-0.310	0.022
-386.004	451.367	-0.047	-0.104
-384.990	137.516	0.014	0.019
-383.975	-152.058	-0.150	-0.011
-382.960	-114.185	-0.286	0.055
-381.946	800.000	0.037	0.143
-380.931	-200.000	0.052	-0.237
-379.917	-170.672	0.107	0.004
-378.902	-200.000	0.014	-0.126
-377.888	-200.000	-0.010	0.087
-376.873	-43.659	-0.043	0.021
-375.858	69.655	0.215	-0.221
-374.844	176.950	-0.132	-0.192
-373.829	-97.642	-0.406	-0.105
-372.815	472.402	0.084	0.189
-371.800	137.516	0.139	0.182
-370.785	800.000	0.017	0.055
-369.771	168.552	-0.118	0.167
-368.756	-73.325	0.317	0.115
-367.742	330.059	0.098	0.189
-366.727	-11.405	0.160	0.105
-365.712	800.000	0.128	-0.363
-364.698	-67.341	0.099	-0.039
-363.683	131.465	-0.109	-0.140
-362.669	800.000	-0.058	0.242
-361.654	800.000	-0.058	-0.252
-360.639	-87.868	-0.167	0.050
-359.625	114.421	0.008	-0.009
-358.610	-21.908	-0.185	0.112
-357.596	4.030	0.210	-0.153
-356.581	-136.871	-0.230	-0.026
-355.566	161.013	0.149	0.207
-354.552	188.853	-0.101	0.151
-353.537	-38.392	0.032	0.017
-352.523	-101.924	0.155	-0.037
-351.508	97.085	-0.145	-0.165
-350.493	336.550	0.168	-0.326
-349.479	240.761	0.121	-0.200
-348.464	402.923	0.051	0.107
-347.450	-132.746	-0.260	-0.033
-346.435	-200.000	0.025	-0.172
-345.420	-96.382	0.093	-0.024
-344.406	76.010	0.033	0.034
-343.391	-25.222	-0.260	0.153
-342.377	-73.428	0.152	-0.055
-341.362	289.121	-0.161	0.290
-340.348	800.000	0.039	0.132
-339.333	232.544	0.100	-0.163
-338.318	-200.000	0.019	0.124
-337.304	-18.617	-0.273	-0.170
-336.289	-119.704	-0.371	-0.064
-335.275	173.670	0.088	0.126
-334.260	-29.472	0.319	0.182
-333.245	-89.940	-0.228	0.066
-332.231	81.053	0.210	0.226
-331.216	310.516	0.109	0.203
-330.202	30.989	0.072	0.061
-329.187	-36.125	0.215	-0.116
-328.172	-51.318	-0.319	0.149
-327.158	-26.540	0.100	0.058
-326.143	-106.097	-0.224	-0.050
-325.129	-134.238	0.351	-0.043
-324.114	164.998	0.178	-0.249
-323.099	-79.345	0.219	-0.074
-322.085	12.169	-0.321	0.246
-321.070	648.330	-0.091	0.231
-320.056	-6.347	0.224	-0.152
-319.041	-98.894	-0.208	0.053
-318.026	-200.000	-0.020	-0.175
-317.012	221.972	-0.155	0.248
-315.997	-139.546	0.204	-0.022
-314.983	-116.438	-0.068	0.012
-313.968	-167.627	0.218	0.009
-312.953	382.396	-0.121	-0.248
-311.939	604.149	-0.093	0.229
-310.924	171.611	-0.237	0.338
-309.910	-99.396	0.218	0.054
-308.895	-112.301	-0.085	0.017
-307.880	-146.215	0.167	0.015
-306.866	72.950	0.151	-0.157
-305.851	-6.406	-0.262	-0.177
-304.837	-47.307	0.154	0.075
-303.822	-89.244	-0.314	-0.092
-302.807	-61.626	0.093	-0.039
-301.793	-200.000	-0.049	-0.215
-300.778	431.577	-0.132	-0.285
-299.764	800.000	-0.062	0.242
-298.749	-49.792	0.194	-0.092
-297.735	-73.364	-0.231	0.084
-296.720	-119.624	0.297	0.051
-295.705	-113.345	0.058	-0.011
-294.691	-200.000	-0.042	0.267
-293.676	144.362	-0.121	0.161
-292.662	-148.556	-0.285	0.023
-291.647	-200.000	0.020	0.329
-290.632	348.547	0.108	0.211
-289.618	713.875	-0.137	-0.359
-288.603	56.916	0.038	0.037
-287.589	37.221	-0.134	0.118
-286.574	-164.348	0.228	0.010
-285.559	-21.759	0.206	0.124
-284.545	-19.872	0.117	-0.072
-283.530	-200.000	-0.026	-0.200
-282.516	-48.691	-0.155	0.074
-281.501	643.761	-0.096	0.243
-280.486	59.357	0.152	0.149
-279.472	-200.000	0.038	-0.243
-278.457	-41.112	-0.056	-0.029
-277.443	-64.029	-0.037	0.015
-276.428	112.949	-0.194	0.234
-275.413	-200.000	0.018	-0.129
-274.399	328.110	-0.069	0.131
-273.384	652.780	-0.076	0.193
-272.370	-106.307	0.347	0.077
-271.355	315.833	0.070	0.131
-270.340	-200.000	0.004	-0.278
-269.326	281.955	0.107	-0.191
-268.311	-140.922	-0.143	0.015
-267.297	800.000	0.071	0.297
-266.282	-71.639	-0.061	-0.022
-265.267	46.871	0.089	0.082
-264.253	234.404	0.027	-0.044
-263.238	-144.571	0.290	-0.027
-262.224	-200.000	-0.027	0.232
-261.209	139.530	0.159	0.208
-260.195	-200.000	0.011	-0.386
-259.180	-200.000	-0.004	-0.065
-258.165	95.431	0.294	-0.333
-257.151	-200.000	-0.010	0.143
-256.136	344.731	-0.086	0.167
-255.122	66.077	-0.032	0.032
-254.107	49.412	-0.218	0.203
-253.092	-200.000	-0.032	-0.292
-252.078	-147.224	0.361	-0.030
-251.063	10.335	0.113	-0.086
-250.049	251.756	0.181	0.306
-249.034	-139.329	0.240	0.026
-248.019	181.838	0.144	-0.210
-247.005	-27.041	0.186	-0.107
-245.990	6.640	-0.275	-0.203
-244.976	-20.120	0.258	0.158
-243.961	-33.128	0.134	0.074
-242.946	-66.889	0.082	0.032
-241.932	205.755	0.124	0.191
-240.917	800.000	0.063	0.187
-239.903	182.167	0.178	-0.260
-238.888	99.191	-0.106	0.122
-237.873	-49.313	-0.249	0.118
-236.859	111.819	-0.153	0.184
-235.844	-200.000	0.018	0.111
-234.830	52.699	-0.241	-0.228
-233.815	-174.658	0.169	-0.005
-232.800	677.746	0.013	-0.033
-231.786	285.738	0.158	-0.283
-230.771	-42.231	0.310	-0.157
-229.757	-200.000	0.034	0.294
-228.742	1.767	-0.204	-0.146
-227.727	260.650	0.172	-0.294
-226.713	-32.623	0.048	0.027
-225.698	29.908	-0.298	0.251
-224.684	-63.282	-0.459	0.187
-223.669	-200.000	0.001	0.326
-222.655	55.186	0.068	0.065
-221.640	-110.935	0.241	0.049
-220.625	-139.283	-0.255	-0.027
-219.611	-148.666	0.324	0.026
-218.596	117.026	0.216	0.262
-217.582	800.000	0.121	-0.343
-216.567	-64.292	-0.391	-0.158
-215.552	800.000	-0.076	0.210
-214.538	-12.976	-0.076	-0.049
-213.523	70.228	-0.236	-0.241
-212.509	276.137	-0.167	0.293
-211.494	1.217	-0.130	0.093
-210.479	-200.000	0.230	0.000
-209.465	64.906	0.043	-0.043
-208.450	-179.526	-0.261	0.006
-207.436	587.034	-0.106	0.257
-206.421	-200.000	0.007	0.060
-205.406	-200.000	-0.020	0.408
-204.392	572.475	-0.083	-0.200
-203.377	-23.490	-0.204	-0.121
-202.363	30.016	0.156	0.131
-201.348	-58.932	0.203	-0.087
-200.333	48.787	0.208	0.193
-199.319	-200.000	0.071	0.503
-198.304	-104.711	-0.426	-0.097
-197.290	-200.000	0.029	0.219
-196.275	-84.031	0.416	0.131
-195.260	185.219	0.115	-0.169
-194.246	-200.000	-0.015	-0.269
-193.231	-8.918	0.067	-0.045
-192.217	-157.750	0.043	-0.003
-191.202	-200.000	-0.018	0.337
-190.187	-147.891	0.284	-0.023
-189.173	-23.524	-0.222	-0.132
-188.158	-101.437	0.116	0.028
-187.144	-200.000	0.010	0.089
-186.129	69.516	-0.043	0.044
-185.114	-200.000	0.027	0.265
-184.100	425.368	0.140	0.297
-183.085	-71.651	0.341	-0.126
-182.071	70.361	-0.170	-0.173
-181.056	-75.753	0.072	0.025
-180.042	31.021	0.403	-0.341
-179.027	-9.828	-0.236	0.155
-178.012	511.112	-0.082	0.188
-176.998	-162.606	-0.247	0.012
-175.983	-64.276	-0.320	-0.129
-174.969	81.779	0.210	0.225
-173.954	-124.629	-0.258	0.040
-172.939	-48.813	-0.274	-0.130
-171.925	123.071	0.290	-0.359
-170.910	-69.908	-0.143	-0.054
-169.896	156.576	0.074	-0.101
-168.881	-9.977	-0.222	0.146
-167.866	-180.059	0.042	-0.001
-166.852	192.804	0.140	0.209
-165.837	-93.576	-0.101	-0.028
-164.823	-74.214	0.356	-0.127
-163.808	228.669	-0.136	-0.219
-162.793	506.862	-0.037	0.085
-161.779	124.064	0.124	-0.154
-160.764	708.149	-0.083	-0.216
-159.750	-130.021	0.124	0.017
-158.735	-41.918	0.169	0.086
-157.720	800.000	0.044	0.123
-156.706	-200.000	0.010	0.174
-155.691	-85.178	0.175	0.054
-154.677	62.895	0.190	0.188
-153.662	-200.000	-0.060	-0.342
-152.647	800.000	0.046	-0.153
-151.633	800.000	0.086	0.345
-150.618	12.562	0.097	-0.074
-149.604	800.000	-0.068	0.219
-148.589	-200.000	0.032	-0.156
-147.574	203.531	0.205	-0.313
-146.560	-23.525	0.172	0.102
-145.545	75.876	0.076	0.079
-144.531	-200.000	0.004	-0.036
-143.516	113.855	0.152	-0.183
-142.502	303.019	-0.228	0.417
-141.487	428.907	0.061	0.131
-140.472	-106.082	-0.213	-0.047
-139.458	351.020	0.154	-0.300
-138.443	-200.000	0.029	0.219
-137.429	-200.000	0.004	0.069
-136.414	-200.000	0.023	-0.109
-135.399	800.000	-0.043	0.122
-134.385	-6.642	-0.210	0.141
-133.370	132.656	0.201	0.256
-132.356	-175.335	-0.186	0.005
-131.341	171.675	-0.186	-0.264
-130.326	-106.208	0.180	-0.040
-129.312	800.000	0.104	0.305
-128.297	-200.000	0.045	0.248
-127.283	39.507	0.266	0.236
-126.268	23.752	0.098	-0.079
-125.253	-47.723	0.095	-0.045
-124.239	60.310	-0.300	-0.293
-123.224	-200.000	0.027	0.169
-122.210	-200.000	0.001	0.221
-121.195	264.207	0.052	0.090
-120.180	26.826	-0.063	0.052
