DTS Sentinel unit serial number:	SN413079Multiplexer serial number:	ORYXHardware model number:	OX4-SRSoftware version number:	ORYX F/W v4.00 Oryx Data Collector v3.7.2.0data status	okinstallation	princeton_trtdifferential loss correction	single-endedforward channel	channel 1reverse channel	N/Adate	2019/09/11time	05:08:11forward acquisition time	60.00reverse acquisition time	0.00gamma	496.2192k internal	0.2330k external	0.2330temperature offset calibration	0.9927default loss term (dB/km)	0.3790temperature slope calibration	1.0000multiplexer offset coefficient	1.0000multiplexer slope coefficient	1.0000fibre end	0.00T internal ref (°C)	29.44T ext. ref 1 (°C)	-0.24T ext. ref 2 (°C)	23.43length (m)	temperature (°C)	Stokes	anti-Stokes-747.200	76.976	-0.227	0.243
-746.185	800.000	0.026	-0.100
-745.171	415.442	0.082	0.177
-744.156	3.270	-0.228	0.167
-743.142	355.033	0.139	0.278
-742.127	-87.829	-0.543	0.165
-741.112	358.343	0.159	0.319
-740.098	23.106	-0.334	0.276
-739.083	-148.712	0.320	-0.026
-738.069	-160.227	0.081	-0.004
-737.054	139.350	0.138	0.183
-736.039	452.840	-0.056	0.124
-735.025	-122.959	0.325	-0.053
-734.010	800.000	-0.037	-0.135
-732.996	112.069	-0.220	0.268
-731.981	-200.000	-0.008	0.357
-730.966	13.389	-0.386	0.301
-729.952	-98.315	-0.094	0.024
-728.937	33.697	-0.100	0.087
-727.923	800.000	0.124	0.364
-726.908	73.152	-0.114	-0.120
-725.894	188.348	-0.131	0.198
-724.879	187.208	0.024	-0.036
-723.864	88.656	0.101	0.113
-722.850	83.411	-0.258	-0.283
-721.835	-200.000	-0.017	0.133
-720.821	-70.012	-0.337	0.129
-719.806	104.211	-0.053	0.063
-718.791	-200.000	-0.023	-0.168
-717.777	215.595	0.036	0.058
-716.762	-18.653	-0.106	0.067
-715.748	551.045	-0.101	-0.245
-714.733	-72.783	-0.016	-0.006
-713.718	800.000	0.033	0.101
-712.704	62.127	-0.150	-0.151
-711.689	326.568	-0.154	-0.297
-710.675	800.000	-0.029	0.097
-709.660	800.000	-0.049	0.204
-708.645	298.534	-0.071	0.131
-707.631	-86.891	-0.253	-0.078
-706.616	211.382	-0.036	0.057
-705.602	-105.454	-0.067	0.015
-704.587	-200.000	-0.009	-0.168
-703.572	171.421	0.061	-0.088
-702.558	13.847	-0.229	-0.179
-701.543	-85.850	0.111	-0.034
-700.529	673.738	-0.073	-0.191
-699.514	800.000	-0.070	-0.284
-698.499	-200.000	-0.056	0.316
-697.485	800.000	0.116	0.331
-696.470	37.126	-0.241	-0.214
-695.456	127.243	0.114	-0.146
-694.441	225.278	0.021	-0.034
-693.426	-122.670	-0.092	-0.015
-692.412	197.056	0.160	-0.246
-691.397	-65.526	-0.183	-0.074
-690.383	-56.261	0.188	0.084
-689.368	286.189	-0.148	0.267
-688.354	407.720	0.137	0.291
-687.339	74.550	-0.091	-0.096
-686.324	-133.158	0.053	-0.007
-685.310	200.363	-0.135	-0.209
-684.295	304.654	-0.119	-0.221
-683.281	-95.529	-0.147	0.040
-682.266	687.027	0.048	-0.127
-681.251	-60.644	-0.211	0.090
-680.237	-112.786	-0.095	-0.019
-679.222	-53.346	0.131	0.060
-678.208	217.504	0.078	0.124
-677.193	-139.706	0.116	0.012
-676.178	102.912	-0.021	-0.025
-675.164	-154.801	0.142	0.009
-674.149	-135.994	0.187	0.022
-673.135	295.677	-0.138	0.254
-672.120	32.324	-0.146	-0.127
-671.105	161.695	-0.098	-0.138
-670.091	-62.272	-0.211	0.088
-669.076	-20.236	-0.269	-0.166
-668.062	10.203	-0.139	-0.106
-667.047	-150.017	-0.263	-0.021
-666.032	800.000	-0.086	-0.256
-665.018	-104.567	0.041	0.010
-664.003	452.888	0.121	-0.268
-662.989	-200.000	0.004	-0.065
-661.974	-96.892	0.050	0.013
-660.959	-200.000	0.124	0.000
-659.945	800.000	0.057	-0.202
-658.930	46.417	0.234	0.218
-657.916	-200.000	-0.043	0.378
-656.901	-174.264	-0.478	-0.014
-655.886	-110.048	-0.085	0.018
-654.872	-105.071	-0.306	0.070
-653.857	493.497	-0.111	-0.255
-652.843	-200.000	0.049	0.234
-651.828	-200.000	0.045	0.198
-650.814	800.000	-0.027	0.107
-649.799	-200.000	-0.027	0.276
-648.784	-141.621	0.142	0.014
-647.770	-200.000	-0.030	0.247
-646.755	612.532	0.034	0.085
-645.741	643.686	-0.050	-0.128
-644.726	137.144	0.167	-0.218
-643.711	-17.118	0.112	0.071
-642.697	-94.179	0.254	0.070
-641.682	-8.684	-0.103	0.069
-640.668	-200.000	0.033	-0.243
-639.653	-200.000	-0.343	0.001
-638.638	13.737	-0.267	0.208
-637.624	-200.000	0.065	-0.395
-636.609	-21.798	-0.081	0.050
-635.595	6.253	-0.101	-0.075
-634.580	327.937	0.092	-0.177
-633.565	-73.559	-0.293	0.107
-632.551	114.560	-0.166	-0.203
-631.536	-188.555	-0.358	0.004
-630.522	-165.968	-0.082	-0.004
-629.507	-136.412	-0.317	-0.037
-628.492	-37.801	0.095	-0.050
-627.478	70.511	-0.310	0.322
-626.463	312.531	-0.162	0.305
-625.449	-102.393	0.109	-0.026
-624.434	-200.000	0.012	0.137
-623.419	-200.000	-0.023	-0.170
-622.405	-5.347	0.428	-0.294
-621.390	-200.000	0.081	-0.386
-620.376	59.018	-0.046	-0.046
-619.361	-168.486	0.198	0.008
-618.346	214.013	0.154	0.245
-617.332	800.000	-0.047	-0.204
-616.317	374.191	0.082	-0.168
-615.303	-3.562	-0.150	0.105
-614.288	138.847	-0.134	-0.177
-613.273	-200.000	0.020	0.162
-612.259	-145.424	0.167	-0.015
-611.244	-67.080	-0.200	-0.079
-610.230	333.650	0.100	0.194
-609.215	-173.273	-0.273	0.008
-608.201	800.000	0.069	-0.254
-607.186	409.534	0.179	-0.380
-606.171	19.528	0.071	0.057
-605.157	-200.000	0.009	0.065
-604.142	-100.897	0.118	-0.029
-603.128	28.685	-0.085	0.072
-602.113	800.000	0.021	0.060
-601.098	-63.088	0.233	0.096
-600.084	-200.000	0.011	0.088
-599.069	-106.371	-0.101	-0.023
-598.055	-76.500	-0.153	0.054
-597.040	-81.721	0.208	-0.068
-596.025	83.286	-0.226	0.247
-595.011	-60.075	-0.126	-0.054
-593.996	-200.000	-0.024	-0.118
-592.982	-200.000	0.043	0.261
-591.967	-54.355	0.287	0.130
-590.952	119.930	0.268	0.333
-589.938	-200.000	0.038	-0.249
-588.923	556.121	-0.040	-0.096
-587.909	141.422	0.084	-0.111
-586.894	-102.503	0.227	0.054
-585.879	318.717	0.187	-0.354
-584.865	432.824	0.062	0.134
-583.850	-200.000	-0.044	0.220
-582.836	-195.456	0.463	-0.003
-581.821	800.000	-0.018	-0.067
-580.806	249.138	-0.019	-0.032
-579.792	-17.040	0.102	-0.065
-578.777	-94.869	-0.509	0.138
-577.763	66.011	-0.154	0.156
-576.748	175.761	0.194	0.282
-575.733	-200.000	-0.012	-0.206
-574.719	-200.000	0.021	-0.281
-573.704	-45.006	0.330	-0.164
-572.690	85.068	-0.058	-0.064
-571.675	76.969	-0.135	-0.144
-570.661	505.614	0.063	0.146
-569.646	-22.733	-0.065	-0.039
-568.631	-4.435	0.145	-0.100
-567.617	-101.377	0.348	-0.085
-566.602	-21.638	0.205	0.125
-565.588	53.449	0.290	0.278
-564.573	403.946	-0.133	-0.280
-563.558	-200.000	-0.028	-0.147
-562.544	-84.892	0.270	-0.085
-561.529	-200.000	-0.026	0.180
-560.515	631.647	0.137	-0.347
-559.500	349.058	-0.069	-0.136
-558.485	728.514	0.056	0.149
-557.471	372.382	-0.100	-0.203
-556.456	-200.000	-0.129	-0.001
-555.442	174.698	-0.083	0.121
-554.427	182.506	0.211	0.312
-553.412	20.197	-0.020	0.016
-552.398	-90.473	0.073	-0.021
-551.383	-71.060	0.321	-0.121
-550.369	-112.649	0.369	0.073
-549.354	154.518	0.023	-0.032
-548.339	24.385	0.124	-0.102
-547.325	-75.672	-0.238	0.084
-546.310	3.588	-0.090	-0.066
-545.296	-200.000	-0.076	-0.403
-544.281	-8.641	-0.342	-0.229
-543.266	205.911	-0.179	-0.278
-542.252	-200.000	-0.049	0.323
-541.237	-43.092	-0.345	-0.175
-540.223	-91.956	0.426	0.120
-539.208	-200.000	0.004	0.155
-538.193	-120.863	-0.187	-0.031
-537.179	1.413	0.007	0.005
-536.164	177.559	0.055	0.079
-535.150	399.237	-0.068	0.143
-534.135	-161.179	-0.331	0.017
-533.121	-157.984	-0.135	-0.008
-532.106	-200.000	0.006	0.190
-531.091	-84.061	0.167	0.053
-530.077	-71.348	-0.197	-0.074
-529.062	-96.730	-0.251	0.066
-528.048	-41.289	0.265	-0.136
-527.033	-200.000	-0.071	0.397
-526.018	-60.418	-0.124	0.053
-525.004	800.000	-0.060	-0.241
-523.989	800.000	0.017	0.055
-522.975	212.461	0.076	-0.119
-521.960	-13.703	-0.177	-0.114
-520.945	24.665	0.025	0.021
-519.931	-81.548	-0.076	-0.025
-518.916	18.988	-0.293	-0.234
-517.902	-200.000	0.056	-0.434
-516.887	-64.764	-0.106	-0.043
-515.872	-200.000	0.149	0.001
-514.858	-200.000	0.023	0.325
-513.843	-147.844	0.257	0.021
-512.829	225.801	0.050	0.081
-511.814	32.271	-0.027	0.023
-510.799	800.000	-0.023	0.069
-509.785	-156.718	-0.188	0.012
-508.770	-200.000	-0.007	-0.095
-507.756	800.000	0.039	-0.141
-506.741	-154.140	0.603	0.041
-505.726	-200.000	0.015	0.317
-504.712	74.759	-0.031	-0.033
-503.697	-146.816	-0.216	0.019
-502.683	201.975	0.149	-0.228
-501.668	655.150	-0.104	0.267
-500.653	127.382	0.063	0.080
-499.639	112.033	-0.079	0.095
-498.624	-98.471	-0.302	-0.077
-497.610	-74.279	-0.223	-0.081
-496.595	-52.898	-0.291	0.134
-495.581	225.262	0.027	-0.044
-494.566	466.688	0.054	-0.120
-493.551	779.021	-0.033	0.089
-492.537	-54.344	0.078	0.035
-491.522	205.236	-0.120	-0.186
-490.508	-167.988	0.399	-0.016
-489.493	219.549	0.146	0.232
-488.478	171.921	-0.226	0.323
-487.464	-200.000	-0.033	-0.161
-486.449	-200.000	-0.014	0.287
-485.435	-59.522	-0.309	0.132
-484.420	336.017	-0.122	-0.237
-483.405	190.007	-0.157	-0.235
-482.391	-72.113	-0.319	-0.118
-481.376	323.295	-0.051	-0.096
-480.362	-200.000	-0.059	-0.265
-479.347	75.368	0.070	-0.073
-478.332	-33.800	-0.170	0.094
-477.318	-7.327	-0.106	-0.072
-476.303	-44.988	0.161	-0.080
-475.289	-37.113	-0.149	0.080
-474.274	800.000	-0.020	-0.076
-473.259	-101.644	-0.353	0.085
-472.245	-200.000	-0.037	-0.234
-471.230	-48.267	-0.171	-0.082
-470.216	-41.624	-0.070	-0.036
-469.201	273.122	0.043	0.076
-468.186	123.266	0.078	-0.097
-467.172	69.893	0.087	0.090
-466.157	9.702	0.096	0.072
-465.143	-107.807	-0.332	-0.072
-464.128	-29.905	0.046	0.026
-463.113	-135.521	0.410	0.049
-462.099	-34.452	0.333	0.182
-461.084	-114.862	0.198	-0.038
-460.070	237.401	-0.128	0.211
-459.055	269.615	0.152	0.267
-458.040	85.974	0.040	0.043
-457.026	737.769	-0.159	0.423
-456.011	-200.000	-0.039	0.183
-454.997	79.606	-0.156	0.167
-453.982	580.414	-0.216	0.526
-452.968	704.772	-0.015	-0.039
-451.953	-200.000	0.002	-0.405
-450.938	-8.186	0.123	-0.083
-449.924	800.000	0.073	0.266
-448.909	800.000	0.062	-0.270
-447.895	-80.393	-0.061	-0.020
-446.880	103.908	0.214	-0.250
-445.865	94.581	0.136	-0.154
-444.851	800.000	0.051	-0.144
-443.836	-133.768	0.125	-0.016
-442.822	800.000	0.074	0.287
-441.807	-67.184	0.302	0.118
-440.792	-136.908	0.187	-0.021
-439.778	69.986	-0.143	-0.147
-438.763	800.000	-0.053	0.215
-437.749	800.000	-0.074	0.202
-436.734	800.000	0.061	-0.233
-435.719	-57.215	0.236	0.103
-434.705	46.562	0.062	0.057
-433.690	-200.000	0.023	0.155
-432.676	800.000	-0.064	-0.206
-431.661	800.000	0.066	0.226
-430.646	-149.741	-0.352	0.027
-429.632	-200.000	0.006	0.261
-428.617	-77.354	-0.230	0.080
-427.603	-200.000	0.018	0.282
-426.588	-200.000	-0.004	0.083
-425.573	-200.000	0.072	0.336
-424.559	-200.000	-0.082	0.362
-423.544	73.170	-0.121	0.126
-422.530	204.293	0.190	0.292
-421.515	-200.000	0.018	-0.307
-420.500	-200.000	0.016	-0.354
-419.486	800.000	0.064	-0.271
-418.471	191.630	0.088	0.132
-417.457	261.941	0.192	-0.331
-416.442	-137.577	-0.227	-0.025
-415.428	12.871	0.207	-0.159
-414.413	7.743	0.163	-0.122
-413.398	-88.255	0.142	-0.042
-412.384	528.105	-0.082	-0.192
-411.369	743.440	-0.118	0.316
-410.355	-141.552	0.098	-0.010
-409.340	344.080	-0.005	0.010
-408.325	-139.936	-0.253	0.027
-407.311	-125.515	-0.316	-0.048
-406.296	119.652	0.217	0.267
-405.282	369.913	0.119	-0.239
-404.267	253.536	0.077	0.131
-403.252	538.502	-0.087	0.206
-402.238	-23.922	-0.133	-0.079
-401.223	119.324	0.156	-0.192
-400.209	-156.873	-0.168	-0.010
-399.194	-153.827	0.499	-0.034
-398.179	227.946	0.262	-0.423
-397.165	27.229	-0.207	0.172
-396.150	-200.000	-0.009	-0.225
-395.136	203.353	0.090	-0.138
-394.121	235.277	0.200	0.328
-393.106	219.113	0.091	-0.144
-392.092	-76.491	-0.079	-0.028
-391.077	56.382	-0.033	0.032
-390.063	-200.000	0.034	0.180
-389.048	248.441	0.247	0.415
-388.033	-33.739	-0.119	0.065
-387.019	-18.707	0.423	-0.262
-386.004	-200.000	-0.041	-0.340
-384.990	-2.039	-0.028	-0.020
-383.975	-200.000	0.017	0.348
-382.960	187.911	-0.184	-0.273
-381.946	-45.566	0.035	-0.017
-380.931	-36.976	-0.230	-0.122
-379.917	-117.074	-0.145	-0.026
-378.902	11.943	0.201	-0.154
-377.888	-46.396	0.006	0.003
-376.873	471.901	-0.062	-0.138
-375.858	-48.647	0.334	-0.159
-374.844	-17.482	0.304	-0.190
-373.829	-200.000	0.009	-0.082
-372.815	94.611	-0.172	0.194
-371.800	800.000	-0.024	-0.068
-370.785	800.000	0.090	0.266
-369.771	78.362	0.152	-0.161
-368.756	-54.343	-0.123	-0.056
-367.742	-200.000	0.030	0.300
-366.727	-94.865	-0.189	0.051
-365.712	-200.000	-0.029	-0.239
-364.698	35.126	0.120	0.104
-363.683	800.000	0.015	0.046
-362.669	-136.268	0.210	0.024
-361.654	-60.968	0.172	0.072
-360.639	-200.000	-0.017	-0.243
-359.625	-103.713	-0.137	0.032
-358.610	-75.563	-0.125	-0.044
-357.596	184.668	-0.042	0.062
-356.581	94.528	0.222	0.250
-355.566	498.126	-0.055	0.124
-354.552	264.953	0.129	-0.224
-353.537	-7.519	-0.117	0.079
-352.523	-200.000	0.040	0.422
-351.508	467.562	0.061	-0.135
-350.493	396.554	-0.091	0.188
-349.479	-32.531	-0.099	0.055
-348.464	20.590	-0.184	-0.148
-347.450	-74.807	-0.288	-0.102
-346.435	65.967	-0.007	0.007
-345.420	492.599	-0.093	0.212
-344.406	-75.313	-0.205	-0.072
-343.391	-31.329	-0.269	0.150
-342.377	-83.461	0.052	0.017
-341.362	431.331	-0.159	0.341
-340.348	-200.000	0.025	0.275
-339.333	-200.000	-0.006	0.227
-338.318	800.000	-0.040	-0.169
-337.304	70.060	-0.118	0.120
-336.289	215.011	0.107	0.168
-335.275	800.000	0.067	-0.188
-334.260	-136.499	0.118	0.014
-333.245	66.694	-0.055	0.056
-332.231	213.514	-0.094	0.147
-331.216	-63.250	0.073	0.030
-330.202	342.456	-0.157	0.304
-329.187	629.141	-0.068	0.170
-328.172	-200.000	-0.035	-0.221
-327.158	800.000	-0.033	-0.106
-326.143	98.874	0.168	-0.192
-325.129	-200.000	-0.005	0.334
-324.114	-200.000	0.167	-0.001
-323.099	-56.324	0.196	-0.086
-322.085	-37.587	0.211	-0.112
-321.070	342.740	-0.152	-0.295
-320.056	76.964	-0.235	-0.247
-319.041	223.345	0.186	-0.297
-318.026	218.856	-0.052	-0.083
-317.012	210.491	-0.124	0.193
-315.997	33.437	0.250	-0.215
-314.983	-83.322	0.098	-0.031
-313.968	-34.703	-0.210	-0.114
-312.953	73.775	0.245	0.254
-311.939	59.035	0.132	-0.129
-310.924	-200.000	0.044	0.282
-309.910	54.126	0.194	0.185
-308.895	-200.000	-0.090	-0.471
-307.880	98.172	-0.284	0.324
-306.866	10.044	0.117	-0.088
-305.851	-125.518	0.328	-0.049
-304.837	-37.889	-0.327	0.172
-303.822	-200.000	-0.036	-0.219
-302.807	-3.518	-0.148	0.102
-301.793	374.585	-0.098	0.198
-300.778	520.441	-0.030	-0.070
-299.764	-170.383	-0.371	-0.013
-298.749	-200.000	-0.077	-0.544
-297.735	-200.000	0.040	0.386
-296.720	16.342	0.229	0.179
-295.705	556.071	-0.057	-0.136
-294.691	0.500	-0.053	-0.037
-293.676	-200.000	0.018	0.244
-292.662	-44.022	-0.298	0.148
-291.647	-72.127	-0.167	-0.061
-290.632	-97.663	0.246	-0.063
-289.618	800.000	0.025	0.089
-288.603	-87.836	0.121	-0.036
-287.589	23.858	0.294	-0.239
-286.574	-200.000	-0.003	0.198
-285.559	76.569	0.210	0.220
-284.545	-178.234	0.294	-0.007
-283.530	800.000	-0.166	-0.503
-282.516	-200.000	-0.041	-0.212
-281.501	-93.870	-0.132	-0.036
-280.486	-200.000	-0.019	-0.136
-279.472	-200.000	0.007	0.120
-278.457	-32.846	0.208	0.114
-277.443	-200.000	-0.011	0.338
-276.428	-200.000	-0.024	0.213
-275.413	-200.000	0.096	0.489
-274.399	-72.263	0.219	0.080
-273.384	67.149	0.146	0.147
-272.370	-58.952	0.246	0.105
-271.355	800.000	-0.118	0.339
-270.340	-200.000	-0.004	-0.023
-269.326	-16.239	0.154	-0.097
-268.311	800.000	0.052	0.168
-267.297	-200.000	0.053	0.371
-266.282	-200.000	-0.034	-0.280
-265.267	-200.000	-0.009	-0.198
-264.253	73.743	-0.121	0.125
-263.238	800.000	-0.021	0.088
-262.224	5.623	0.314	-0.229
-261.209	-103.288	-0.361	0.084
-260.195	235.806	0.134	0.219
-259.180	79.276	0.100	-0.106
-258.165	-30.152	-0.184	0.104
-257.151	-200.000	0.030	-0.192
-256.136	-17.289	-0.208	0.129
-255.122	131.146	-0.156	-0.198
-254.107	-103.355	0.266	-0.062
-253.092	9.225	-0.180	0.134
-252.078	81.112	0.110	0.117
-251.063	-70.285	0.107	-0.040
-250.049	-200.000	-0.010	-0.372
-249.034	-109.539	-0.151	0.031
-248.019	-200.000	-0.016	-0.127
-247.005	-133.065	0.317	-0.040
-245.990	800.000	0.069	0.207
-244.976	-4.871	-0.211	0.144
-243.961	241.930	-0.081	-0.134
-242.946	-200.000	-0.007	0.168
-241.932	-132.518	-0.371	-0.047
-240.917	228.135	-0.052	0.084
-239.903	-54.553	0.056	0.025
-238.888	18.530	0.034	-0.027
-237.873	518.388	0.134	-0.311
-236.859	-116.831	-0.365	0.066
-235.844	-32.454	0.326	-0.180
-234.830	187.913	0.097	0.143
-233.815	-200.000	0.008	0.146
-232.800	40.187	-0.015	-0.013
-231.786	-200.000	0.010	0.122
-230.771	59.191	0.194	-0.188
-229.757	92.183	-0.262	-0.291
-228.742	-200.000	0.007	-0.142
-227.727	-141.740	0.141	-0.014
-226.713	-200.000	-0.010	-0.180
-225.698	13.595	0.168	-0.128
-224.684	236.715	-0.228	0.372
-223.669	84.019	0.060	0.064
-222.655	-200.000	-0.030	-0.189
-221.640	-58.666	-0.279	-0.119
-220.625	-200.000	-0.027	-0.150
-219.611	800.000	-0.131	0.402
-218.596	-65.187	-0.185	0.074
-217.582	800.000	-0.054	0.190
-216.567	-140.473	0.264	0.027
-215.552	-161.398	0.125	0.006
-214.538	-200.000	0.001	0.102
-213.523	-88.613	-0.100	0.029
-212.509	-78.070	-0.137	0.046
-211.494	-171.076	-0.191	0.006
-210.479	34.355	0.048	0.042
-209.465	-200.000	-0.000	-0.035
-208.450	800.000	-0.117	-0.351
-207.436	135.128	-0.165	-0.212
-206.421	265.409	0.090	0.154
-205.406	50.299	-0.204	0.190
-204.392	-111.255	-0.394	0.079
-203.377	-87.074	0.195	-0.059
-202.363	10.127	-0.138	-0.104
-201.348	9.164	0.148	-0.110
-200.333	-156.164	-0.121	0.007
-199.319	-151.621	0.525	-0.038
-198.304	258.223	0.129	0.219
-197.290	-125.223	0.264	-0.040
-196.275	-51.967	-0.276	-0.127
-195.260	-200.000	0.003	0.049
-194.246	-29.707	-0.290	-0.163
-193.231	18.988	0.312	-0.247
-192.217	-200.000	-0.011	-0.136
-191.202	202.906	0.164	-0.249
-190.187	-136.615	-0.170	-0.019
-189.173	-48.125	0.172	0.082
-188.158	-18.725	-0.138	-0.085
-187.144	-200.000	-0.083	-0.359
-186.129	41.076	-0.048	0.043
-185.114	321.615	0.145	-0.271
-184.100	-83.399	-0.231	0.073
-183.085	383.481	-0.132	-0.268
-182.071	97.941	-0.211	-0.240
-181.056	-119.420	0.208	0.036
-180.042	233.689	-0.134	-0.218
-179.027	-112.659	0.236	-0.046
-178.012	800.000	-0.047	-0.175
-176.998	2.764	0.185	0.132
-175.983	800.000	-0.045	0.154
-174.969	-4.045	-0.113	0.077
-173.954	-182.746	-0.328	0.006
-172.939	-6.217	-0.345	-0.232
-171.925	64.213	-0.144	0.142
-170.910	-141.594	0.256	-0.025
-169.896	800.000	-0.085	0.304
-168.881	800.000	0.072	0.287
-167.866	-51.815	0.253	0.116
-166.852	-123.543	0.164	-0.026
-165.837	-19.202	0.129	0.079
-164.823	318.535	-0.056	-0.104
-163.808	-69.328	0.270	0.102
-162.793	-112.512	-0.264	0.052
-161.779	145.001	0.192	-0.253
-160.764	-200.000	-0.003	0.069
-159.750	-3.572	-0.093	0.063
-158.735	800.000	-0.045	0.152
-157.720	-200.000	0.002	-0.076
-156.706	4.836	0.124	-0.090
-155.691	800.000	-0.047	-0.198
-154.677	-82.093	-0.388	-0.124
-153.662	-13.909	0.190	-0.121
-152.647	-37.802	-0.057	-0.030
-151.633	33.316	-0.139	-0.118
-150.618	-151.163	0.232	0.017
-149.604	-82.701	0.251	-0.080
-148.589	-51.928	0.138	0.063
-147.574	125.661	0.123	0.152
-146.560	327.974	-0.082	0.155
-145.545	800.000	0.128	0.486
-144.531	-200.000	-0.009	0.170
-143.516	800.000	0.115	0.381
-142.502	18.752	-0.246	0.193
-141.487	13.921	0.037	0.028
-140.472	470.107	-0.096	-0.211
-139.458	43.439	0.056	0.051
-138.443	50.496	-0.106	0.098
-137.429	-85.214	-0.164	0.050
-136.414	800.000	0.017	-0.049
-135.399	718.359	0.134	0.349
-134.385	-97.909	-0.305	0.077
-133.370	259.809	0.186	-0.316
-132.356	-200.000	0.005	0.030
-131.341	182.078	-0.122	-0.176
-130.326	-12.416	-0.087	0.056
-129.312	1.121	0.112	-0.079
-128.297	665.500	-0.062	-0.158
-127.283	800.000	0.087	-0.293
-126.268	22.745	-0.235	0.189
-125.253	412.830	-0.101	0.210
-124.239	-200.000	0.005	-0.210
-123.224	693.058	-0.113	0.292
-122.210	41.121	-0.187	-0.166
-121.195	52.010	-0.125	0.117
