DTS Sentinel unit serial number:	SN413079Multiplexer serial number:	ORYXHardware model number:	OX4-SRSoftware version number:	ORYX F/W v4.00 Oryx Data Collector v3.7.2.0data status	okinstallation	princeton_trtdifferential loss correction	single-endedforward channel	channel 1reverse channel	N/Adate	2019/09/11time	12:44:11forward acquisition time	60.00reverse acquisition time	0.00gamma	496.2192k internal	0.2295k external	0.2295temperature offset calibration	0.9943default loss term (dB/km)	0.3790temperature slope calibration	1.0000multiplexer offset coefficient	1.0000multiplexer slope coefficient	1.0000fibre end	0.00T internal ref (°C)	41.00T ext. ref 1 (°C)	0.20T ext. ref 2 (°C)	38.72length (m)	temperature (°C)	Stokes	anti-Stokes-747.200	800.000	-0.072	0.228
-746.185	-62.190	0.143	0.061
-745.171	166.210	0.087	0.126
-744.156	-37.726	0.064	0.035
-743.142	-200.000	0.032	0.169
-742.127	-22.142	-0.180	0.112
-741.112	-27.663	-0.246	0.146
-740.098	-142.102	-0.339	-0.034
-739.083	-43.762	0.253	0.130
-738.069	524.742	-0.079	0.189
-737.054	-200.000	-0.018	-0.106
-736.039	235.054	-0.054	-0.092
-735.025	800.000	0.100	-0.345
-734.010	-114.105	-0.429	-0.085
-732.996	60.450	-0.278	-0.281
-731.981	80.659	-0.254	-0.279
-730.966	296.183	0.130	-0.243
-729.952	237.510	0.171	0.290
-728.937	-200.000	-0.030	0.145
-727.923	29.494	-0.220	0.191
-726.908	8.813	0.193	0.149
-725.894	800.000	0.093	-0.265
-724.879	-3.736	-0.368	0.261
-723.864	44.143	0.204	-0.191
-722.850	474.815	0.210	0.485
-721.835	201.361	0.101	0.159
-720.821	705.085	-0.057	-0.154
-719.806	800.000	0.070	-0.254
-718.791	-118.910	0.351	0.063
-717.777	800.000	-0.097	-0.402
-716.762	800.000	-0.031	-0.123
-715.748	142.163	0.046	0.062
-714.733	-0.167	0.204	-0.148
-713.718	102.440	0.059	-0.071
-712.704	800.000	0.052	0.165
-711.689	-114.497	0.100	0.020
-710.675	-121.685	0.303	-0.051
-709.660	-113.673	0.168	0.033
-708.645	-200.000	-0.033	-0.308
-707.631	-200.000	-0.033	-0.179
-706.616	168.569	-0.131	0.191
-705.602	281.943	0.233	0.426
-704.587	8.555	-0.019	0.015
-703.572	56.385	0.140	0.139
-702.558	72.976	-0.142	0.151
-701.543	800.000	0.011	0.031
-700.529	-184.603	0.376	0.006
-699.514	-60.856	-0.085	0.037
-698.499	-119.691	0.180	0.032
-697.485	730.248	-0.109	0.297
-696.470	186.569	0.070	0.106
-695.456	171.144	-0.100	0.147
-694.441	-65.408	0.164	-0.067
-693.426	41.143	0.023	0.022
-692.412	800.000	-0.126	0.443
-691.397	-144.250	0.060	0.006
-690.383	-200.000	-0.016	0.088
-689.368	20.515	0.122	-0.101
-688.354	532.235	-0.083	-0.201
-687.339	130.746	0.053	-0.069
-686.324	116.373	-0.098	0.123
-685.310	-113.038	0.130	0.026
-684.295	-14.542	0.278	-0.182
-683.281	-117.059	-0.352	-0.065
-682.266	-8.124	-0.291	0.200
-681.251	800.000	0.039	0.152
-680.237	670.971	-0.033	0.087
-679.222	-200.000	-0.054	-0.253
-678.208	88.368	-0.122	0.138
-677.193	-200.000	0.014	0.264
-676.178	-70.313	-0.244	-0.094
-675.164	-200.000	-0.337	0.001
-674.149	-200.000	-0.004	-0.162
-673.135	-144.378	-0.145	0.014
-672.120	-75.505	0.252	-0.091
-671.105	-81.420	-0.088	0.029
-670.091	-157.453	-0.301	-0.018
-669.076	-69.457	-0.212	-0.083
-668.062	-133.795	-0.086	0.011
-667.047	-109.720	-0.126	-0.027
-666.032	107.544	-0.160	-0.193
-665.018	800.000	-0.064	-0.203
-664.003	-119.910	-0.131	-0.023
-662.989	6.180	-0.073	-0.055
-661.974	-48.970	0.114	0.056
-660.959	424.752	0.118	-0.260
-659.945	-16.109	0.142	0.092
-658.930	363.261	-0.111	-0.227
-657.916	-41.478	0.164	-0.086
-656.901	-69.026	-0.098	0.038
-655.886	-118.821	-0.227	-0.041
-654.872	-92.159	-0.205	-0.059
-653.857	-70.454	0.130	-0.050
-652.843	96.457	-0.212	-0.247
-651.828	52.557	-0.027	-0.027
-650.814	800.000	-0.060	-0.227
-649.799	-56.965	0.272	0.123
-648.784	-200.000	0.028	-0.228
-647.770	-40.787	-0.022	0.012
-646.755	-139.464	0.165	-0.018
-645.741	-74.625	-0.125	0.046
-644.726	-10.371	-0.399	0.269
-643.711	-14.940	0.021	-0.014
-642.697	-104.152	-0.323	0.076
-641.682	-130.058	0.225	0.031
-640.668	-171.588	0.232	0.008
-639.653	-200.000	0.010	0.065
-638.638	256.315	0.164	0.287
-637.624	-98.502	0.152	0.040
-636.609	-200.000	-0.002	-0.131
-635.595	-68.813	0.146	0.057
-634.580	800.000	0.018	0.054
-633.565	-74.366	0.221	0.081
-632.551	17.816	0.112	0.091
-631.536	622.794	0.062	0.158
-630.522	125.736	0.164	-0.211
-629.507	66.185	-0.125	-0.129
-628.492	483.611	0.053	-0.122
-627.478	-24.624	0.105	0.063
-626.463	-139.420	-0.143	-0.016
-625.449	-52.288	-0.150	-0.071
-624.434	-0.742	-0.159	0.114
-623.419	477.501	0.108	0.248
-622.405	-200.000	0.063	-0.385
-621.390	-200.000	0.052	0.245
-620.376	0.168	0.053	-0.039
-619.361	-136.212	0.429	0.051
-618.346	-109.198	0.234	-0.051
-617.332	91.661	0.157	-0.180
-616.317	-200.000	0.068	0.306
-615.303	200.617	-0.115	-0.179
-614.288	326.211	-0.092	-0.180
-613.273	-8.130	0.323	0.222
-612.259	-200.000	0.008	-0.145
-611.244	32.415	-0.033	-0.029
-610.230	109.286	0.132	-0.160
-609.215	482.397	-0.068	0.158
-608.201	86.094	-0.053	-0.059
-607.186	-200.000	-0.035	0.473
-606.171	800.000	-0.086	-0.332
-605.157	-84.810	-0.168	-0.054
-604.142	-200.000	-0.041	-0.398
-603.128	-110.608	-0.031	-0.007
-602.113	785.237	-0.097	-0.272
-601.098	-58.469	-0.086	0.038
-600.084	-112.058	-0.238	-0.049
-599.069	169.681	-0.188	-0.273
-598.055	85.978	-0.127	-0.142
-597.040	-140.912	-0.120	0.013
-596.025	26.212	-0.328	0.279
-595.011	162.839	-0.219	-0.312
-593.996	727.069	0.086	0.234
-592.982	800.000	-0.100	0.309
-591.967	-7.541	0.188	-0.130
-590.952	-145.574	0.053	0.005
-589.938	380.057	-0.096	0.200
-588.923	-36.823	0.391	-0.214
-587.909	124.025	0.123	0.157
-586.894	-113.033	-0.299	0.060
-585.879	593.734	0.026	0.065
-584.865	-200.000	0.006	0.161
-583.850	4.949	0.316	0.236
-582.836	525.511	-0.073	-0.175
-581.821	-200.000	-0.062	-0.387
-580.806	-200.000	-0.022	0.181
-579.792	-200.000	0.036	0.193
-578.777	-11.047	0.218	0.146
-577.763	-200.000	-0.007	-0.219
-576.748	-200.000	-0.004	-0.245
-575.733	123.200	-0.144	0.183
-574.719	-49.522	-0.256	-0.124
-573.704	800.000	0.170	0.583
-572.690	-200.000	0.060	-0.374
-571.675	-200.000	-0.027	-0.213
-570.661	-68.073	0.266	0.105
-569.646	-200.000	-0.024	0.118
-568.631	255.382	-0.117	-0.204
-567.617	82.627	0.209	-0.231
-566.602	147.511	-0.230	0.315
-565.588	-122.772	-0.218	0.036
-564.573	209.871	-0.135	-0.216
-563.558	132.084	0.118	0.154
-562.544	800.000	0.051	0.190
-561.529	800.000	-0.069	0.252
-560.515	20.266	-0.359	0.294
-559.500	-74.387	-0.130	-0.048
-558.485	271.235	0.239	0.428
-557.471	-65.033	-0.435	0.178
-556.456	-50.385	0.037	0.018
-555.442	588.393	-0.088	0.221
-554.427	-132.589	0.226	0.029
-553.412	-200.000	-0.032	0.412
-552.398	124.571	-0.189	-0.241
-551.383	243.339	0.097	-0.165
-550.369	91.138	-0.127	-0.145
-549.354	-58.695	0.152	0.067
-548.339	800.000	-0.128	0.417
-547.325	13.086	-0.257	-0.202
-546.310	381.343	0.107	-0.223
-545.296	54.591	-0.180	-0.176
-544.281	-75.880	-0.085	-0.030
-543.266	-84.910	0.283	-0.090
-542.252	768.273	-0.042	-0.117
-541.237	800.000	0.024	-0.085
-540.223	-95.537	0.132	0.036
-539.208	-167.452	0.107	-0.004
-538.193	-136.845	0.087	0.010
-537.179	-59.814	0.165	0.072
-536.164	-136.878	0.245	0.029
-535.150	-18.608	0.142	-0.090
-534.135	-200.000	-0.018	0.109
-533.121	-200.000	-0.044	-0.328
-532.106	-67.021	0.092	0.037
-531.091	13.292	-0.281	0.221
-530.077	-14.712	-0.128	-0.083
-529.062	-161.849	-0.053	-0.003
-528.048	-78.260	0.040	-0.014
-527.033	-46.463	0.392	-0.195
-526.018	-125.263	0.223	0.035
-525.004	-51.969	-0.132	0.062
-523.989	-168.225	0.135	0.005
-522.975	-88.350	0.249	0.075
-521.960	80.926	0.184	0.201
-520.945	800.000	-0.081	0.265
-519.931	78.465	0.098	-0.106
-518.916	-128.921	-0.107	0.015
-517.902	177.298	-0.129	0.190
-516.887	387.960	0.116	-0.243
-515.872	89.128	-0.150	-0.169
-514.858	-200.000	-0.064	-0.295
-513.843	800.000	-0.038	-0.134
-512.829	-200.000	0.025	0.209
-511.814	-200.000	-0.044	-0.294
-510.799	-200.000	0.004	0.257
-509.785	-200.000	0.000	-0.129
-508.770	-200.000	0.030	0.279
-507.756	-75.507	-0.228	0.082
-506.741	44.669	0.147	-0.137
-505.726	132.692	0.112	-0.147
-504.712	549.117	-0.123	-0.300
-503.697	-200.000	-0.044	-0.402
-502.683	441.255	-0.046	-0.101
-501.668	-127.800	-0.169	-0.025
-500.653	-52.930	-0.148	-0.069
-499.639	800.000	0.156	0.441
-498.624	-200.000	-0.024	0.189
-497.610	800.000	0.028	-0.114
-496.595	-126.805	-0.167	-0.025
-495.581	-200.000	0.033	-0.231
-494.566	800.000	0.070	-0.210
-493.551	-71.376	0.094	-0.035
-492.537	54.587	-0.137	0.134
-491.522	328.600	0.146	-0.283
-490.508	51.697	0.037	0.036
-489.493	-102.505	-0.100	0.024
-488.478	-200.000	-0.010	0.199
-487.464	-66.498	0.037	0.015
-486.449	745.123	-0.066	-0.181
-485.435	-101.308	0.247	0.061
-484.420	800.000	0.030	-0.132
-483.405	800.000	0.048	0.135
-482.391	-200.000	0.030	0.201
-481.376	-169.163	-0.179	-0.007
-480.362	309.162	0.071	-0.134
-479.347	79.637	0.187	-0.203
-478.332	-200.000	-0.048	0.416
-477.318	-69.423	0.265	-0.103
-476.303	211.991	0.041	-0.066
-475.289	-40.009	0.246	-0.130
-474.274	-200.000	-0.022	-0.194
-473.259	100.806	0.268	0.315
-472.245	619.216	-0.096	0.243
-471.230	-200.000	0.003	0.029
-470.216	39.357	0.023	0.020
-469.201	-104.029	-0.159	-0.037
-468.186	-116.770	-0.472	-0.088
-467.172	-136.375	0.318	0.037
-466.157	-52.697	0.155	0.072
-465.143	-152.934	-0.495	-0.035
-464.128	161.588	0.106	0.151
-463.113	278.299	0.125	-0.226
-462.099	-14.789	0.199	-0.129
-461.084	-114.115	0.078	-0.015
-460.070	745.013	0.026	-0.069
-459.055	-79.130	-0.437	0.150
-458.040	-66.690	-0.149	-0.060
-457.026	592.967	-0.093	-0.234
-456.011	329.823	0.046	-0.089
-454.997	-129.645	0.091	0.013
-453.982	-145.090	-0.262	-0.024
-452.968	-151.722	0.378	0.028
-451.953	550.068	0.018	0.045
-450.938	146.358	0.047	0.063
-449.924	375.107	-0.036	-0.074
-448.909	-154.867	-0.207	-0.014
-447.895	-200.000	-0.006	0.056
-446.880	9.155	0.082	0.062
-445.865	-71.976	-0.240	-0.090
-444.851	54.995	-0.229	-0.223
-443.836	-56.831	0.163	0.073
-442.822	-21.624	-0.004	0.002
-441.807	8.298	0.051	-0.039
-440.792	-19.144	-0.126	-0.079
-439.778	-92.270	-0.068	0.019
-438.763	800.000	-0.053	0.195
-437.749	343.540	0.204	-0.404
-436.734	800.000	0.028	-0.124
-435.719	51.021	0.275	0.263
-434.705	-200.000	0.018	0.119
-433.690	-14.477	0.190	-0.124
-432.676	-56.145	-0.123	0.055
-431.661	-200.000	0.045	-0.260
-430.646	245.148	-0.058	-0.098
-429.632	124.581	-0.149	-0.189
-428.617	-200.000	0.011	-0.206
-427.603	720.408	0.095	0.255
-426.588	-200.000	-0.033	-0.220
-425.573	-200.000	-0.049	0.361
-424.559	42.085	-0.340	-0.312
-423.544	-5.125	0.213	-0.148
-422.530	-63.012	-0.195	0.081
-421.515	10.675	-0.269	-0.207
-420.500	-42.004	-0.387	-0.200
-419.486	-104.981	0.298	-0.069
-418.471	-9.237	-0.133	0.090
-417.457	6.689	-0.125	0.094
-416.442	221.370	-0.068	0.110
-415.428	-200.000	0.038	-0.188
-414.413	56.968	0.390	0.384
-413.398	28.970	0.248	-0.212
-412.384	288.470	0.154	-0.281
-411.369	-49.543	-0.496	-0.239
-410.355	-48.574	0.283	-0.138
-409.340	228.211	-0.086	0.141
-408.325	185.690	-0.222	0.333
-407.311	-70.357	0.190	-0.073
-406.296	209.625	0.156	0.247
-405.282	-200.000	0.022	-0.165
-404.267	136.263	-0.051	-0.067
-403.252	-200.000	0.007	0.156
-402.238	263.249	0.053	0.092
-401.223	-200.000	0.001	0.331
-400.209	678.387	-0.045	0.117
-399.194	-6.036	0.263	0.181
-398.179	-200.000	0.011	-0.231
-397.165	-85.618	-0.460	0.144
-396.150	-92.836	-0.298	-0.084
-395.136	140.639	-0.113	-0.151
-394.121	-139.054	0.377	-0.041
-393.106	-200.000	-0.020	0.259
-392.092	110.277	0.152	-0.184
-391.077	-200.000	0.062	-0.358
-390.063	-71.443	-0.100	-0.038
-389.048	142.313	0.219	-0.293
-388.033	175.519	0.021	-0.031
-387.019	460.397	-0.031	0.070
-386.004	-124.165	0.089	0.014
-384.990	-200.000	0.062	-0.475
-383.975	-200.000	0.007	0.057
-382.960	110.054	-0.128	-0.155
-381.946	260.948	0.158	-0.276
-380.931	-181.139	0.168	0.003
-379.917	275.673	-0.045	-0.080
-378.902	12.132	-0.212	0.164
-377.888	241.752	-0.189	-0.318
-376.873	-200.000	-0.001	-0.034
-375.858	76.371	-0.248	-0.265
-374.844	-83.275	0.223	0.072
-373.829	403.718	-0.122	0.258
-372.815	222.237	-0.252	0.409
-371.800	-136.374	-0.114	0.013
-370.785	101.458	-0.072	-0.084
-369.771	800.000	0.081	0.253
-368.756	8.202	0.104	0.079
-367.742	260.610	0.136	0.236
-366.727	800.000	0.052	-0.176
-365.712	-200.000	-0.045	0.221
-364.698	64.708	-0.104	-0.106
-363.683	144.319	-0.065	-0.087
-362.669	800.000	-0.016	0.050
-361.654	132.542	0.085	-0.111
-360.639	201.551	0.080	0.123
-359.625	-200.000	-0.048	-0.259
-358.610	5.809	-0.274	-0.204
-357.596	40.081	-0.120	-0.109
-356.581	800.000	0.059	0.219
-355.566	-200.000	-0.003	0.096
-354.552	-61.077	-0.145	-0.062
-353.537	-58.087	0.210	-0.092
-352.523	-85.282	0.240	0.075
-351.508	800.000	0.079	0.309
-350.493	-100.776	-0.232	-0.058
-349.479	159.648	0.034	-0.047
-348.464	-74.325	0.106	0.039
-347.450	-59.585	0.222	-0.096
-346.435	-70.360	0.457	0.174
-345.420	48.186	-0.180	-0.170
-344.406	112.955	0.257	-0.313
-343.391	-200.000	0.009	0.251
-342.377	-68.480	-0.297	0.116
-341.362	112.407	0.072	0.087
-340.348	-200.000	0.020	-0.094
-339.333	426.418	0.108	0.234
-338.318	-48.933	-0.085	-0.041
-337.304	69.088	-0.134	-0.139
-336.289	208.846	-0.133	0.209
-335.275	575.273	0.041	0.102
-334.260	-200.000	-0.028	0.156
-333.245	-200.000	0.009	0.130
-332.231	800.000	0.149	0.415
-331.216	83.717	0.152	0.167
-330.202	-200.000	-0.034	-0.206
-329.187	61.846	0.214	0.214
-328.172	344.207	-0.157	-0.309
-327.158	12.184	-0.060	0.047
-326.143	-12.276	0.058	-0.038
-325.129	-200.000	-0.022	0.292
-324.114	-70.953	0.164	-0.062
-323.099	-80.289	-0.203	0.068
-322.085	-131.066	-0.217	0.029
-321.070	-200.000	-0.010	-0.063
-320.056	-7.599	0.167	0.114
-319.041	148.776	-0.229	-0.312
-318.026	90.445	0.100	0.113
-317.012	171.274	-0.057	-0.082
-315.997	-200.000	-0.006	-0.051
-314.983	-200.000	-0.027	-0.296
-313.968	94.648	0.182	0.208
-312.953	-44.697	0.344	0.173
-311.939	-200.000	-0.029	-0.449
-310.924	25.551	0.239	0.200
-309.910	123.807	0.090	0.113
-308.895	-12.537	-0.313	0.206
-307.880	-34.994	0.270	-0.148
-306.866	677.128	-0.121	0.316
-305.851	-200.000	0.024	0.125
-304.837	-96.716	0.154	-0.041
-303.822	446.798	0.123	-0.272
-302.807	240.500	0.074	0.123
-301.793	-130.388	-0.176	-0.024
-300.778	-54.400	-0.096	-0.044
-299.764	16.963	0.182	-0.145
-298.749	800.000	0.060	0.224
-297.735	-200.000	-0.015	0.192
-296.720	136.978	-0.054	-0.070
-295.705	499.191	-0.113	0.262
-294.691	-10.274	0.086	0.058
-293.676	-18.981	-0.046	-0.029
-292.662	-106.875	-0.286	0.064
-291.647	-49.178	0.107	0.051
-290.632	106.068	0.272	0.324
-289.618	800.000	-0.013	0.041
-288.603	390.480	-0.094	-0.195
-287.589	-200.000	-0.002	0.180
-286.574	-25.054	-0.299	0.178
-285.559	-11.430	-0.290	0.192
-284.545	800.000	-0.089	-0.259
-283.530	800.000	-0.015	0.046
-282.516	234.003	-0.171	-0.283
-281.501	54.686	0.257	-0.249
-280.486	-115.823	-0.255	-0.048
-279.472	10.047	0.479	0.365
-278.457	800.000	0.083	-0.297
-277.443	-173.150	0.155	-0.005
-276.428	-65.401	0.142	0.057
-275.413	-138.825	-0.425	-0.046
-274.399	340.077	0.208	0.408
-273.384	37.640	0.089	0.079
-272.370	-91.027	0.136	-0.039
-271.355	-109.131	-0.195	-0.042
-270.340	469.098	0.074	-0.166
-269.326	-200.000	-0.013	0.111
-268.311	105.168	-0.138	-0.164
-267.297	166.835	0.096	-0.136
-266.282	198.511	0.201	-0.309
-265.267	108.206	0.276	0.330
-264.253	34.094	-0.219	0.191
-263.238	25.155	0.064	-0.053
-262.224	168.836	-0.058	-0.083
-261.209	-7.315	-0.037	-0.025
-260.195	62.914	0.089	-0.090
-259.180	501.855	0.109	-0.253
-258.165	-138.374	-0.197	0.022
-257.151	87.591	0.015	-0.017
-256.136	231.279	-0.125	0.206
-255.122	184.239	0.164	-0.243
-254.107	-200.000	0.010	0.280
-253.092	14.192	-0.228	0.178
-252.078	-147.038	-0.196	0.017
-251.063	395.679	0.121	0.254
-250.049	-6.246	0.013	0.009
-249.034	281.585	0.050	-0.090
-248.019	-200.000	-0.017	-0.164
-247.005	32.886	-0.147	0.127
-245.990	-46.904	0.099	0.048
-244.976	-200.000	-0.001	0.023
-243.961	-88.671	-0.198	-0.059
-242.946	-6.012	0.083	-0.057
-241.932	77.908	-0.199	-0.212
-240.917	16.625	0.115	-0.091
-239.903	-195.715	0.251	-0.002
-238.888	-12.219	-0.089	0.059
-237.873	-200.000	-0.022	-0.187
-236.859	-200.000	-0.009	-0.100
-235.844	-50.950	0.142	0.067
-234.830	164.290	-0.130	0.183
-233.815	-179.809	0.077	-0.002
-232.800	-200.000	-0.000	0.028
-231.786	-91.904	0.218	0.062
-230.771	-27.715	0.305	-0.177
-229.757	-90.181	-0.200	0.058
-228.742	800.000	0.039	-0.152
-227.727	-115.557	0.218	-0.041
-226.713	161.457	0.100	0.140
-225.698	26.239	-0.102	0.086
-224.684	-145.405	-0.220	0.020
-223.669	-200.000	-0.019	-0.114
-222.655	-48.412	-0.231	0.111
-221.640	41.767	0.377	0.342
-220.625	217.680	-0.125	0.200
-219.611	39.604	-0.172	-0.154
-218.596	51.460	0.078	0.074
-217.582	0.765	-0.139	0.100
-216.567	94.983	0.131	-0.149
-215.552	-50.136	0.165	-0.078
-214.538	-140.637	0.350	0.036
-213.523	-69.806	-0.036	-0.014
-212.509	128.849	0.173	0.221
-211.494	-200.000	-0.006	0.455
-210.479	-73.146	-0.248	-0.091
-209.465	-200.000	-0.015	-0.307
-208.450	-41.610	-0.095	-0.049
-207.436	-125.507	-0.039	0.006
-206.421	492.460	0.165	-0.380
-205.406	35.515	-0.151	0.133
-204.392	58.342	-0.269	0.264
-203.377	-200.000	0.031	-0.421
-202.363	-9.747	-0.187	-0.125
-201.348	776.597	-0.085	-0.234
-200.333	800.000	-0.050	0.189
-199.319	800.000	0.087	0.305
-198.304	-87.754	-0.077	-0.023
-197.290	-107.545	-0.340	-0.075
-196.275	42.452	-0.088	0.080
-195.260	474.230	0.077	0.175
-194.246	-53.554	-0.230	-0.105
-193.231	429.318	0.143	-0.310
-192.217	800.000	0.038	-0.134
-191.202	89.919	-0.231	0.259
-190.187	-23.373	-0.164	0.098
-189.173	-70.442	0.260	0.099
-188.158	-53.782	-0.262	0.119
-187.144	-200.000	0.026	0.141
-186.129	100.633	0.065	0.075
-185.114	-128.226	0.055	-0.008
-184.100	184.240	-0.028	-0.042
-183.085	5.321	-0.278	-0.205
-182.071	35.072	-0.205	0.179
-181.056	63.420	0.160	-0.161
-180.042	800.000	0.041	-0.140
-179.027	153.489	-0.089	-0.122
-178.012	800.000	0.075	0.228
-176.998	47.533	-0.157	0.146
-175.983	612.590	-0.103	-0.258
-174.969	-65.701	0.169	-0.068
-173.954	25.963	0.051	0.043
-172.939	-68.516	-0.282	0.109
-171.925	119.048	0.087	0.107
-170.910	-200.000	-0.004	0.107
-169.896	-80.307	0.125	0.042
-168.881	86.420	0.143	0.157
-167.866	-75.775	0.040	0.014
-166.852	800.000	0.101	-0.296
-165.837	-23.476	-0.147	0.088
-164.823	327.977	-0.136	0.260
-163.808	512.558	0.019	-0.043
-162.793	-40.212	-0.407	-0.212
-161.779	141.406	-0.099	-0.131
-160.764	-200.000	-0.044	-0.207
-159.750	159.020	-0.098	0.137
-158.735	7.954	0.407	-0.305
-157.720	109.542	-0.295	0.353
-156.706	-192.381	-0.154	0.001
-155.691	5.892	0.252	-0.187
-154.677	37.117	0.049	0.043
-153.662	251.154	0.129	-0.219
-152.647	358.162	-0.074	0.147
-151.633	50.499	0.206	-0.195
-150.618	22.866	-0.194	0.159
-149.604	-178.097	0.397	-0.009
-148.589	15.481	-0.238	-0.187
-147.574	-67.485	0.191	0.075
-146.560	52.586	-0.043	0.041
-145.545	-200.000	0.062	-0.276
-144.531	-83.060	-0.110	0.035
-143.516	32.615	-0.195	-0.169
-142.502	-98.345	0.368	0.094
-141.487	800.000	0.057	-0.229
-140.472	307.707	0.098	-0.183
-139.458	-154.381	0.174	0.012
-138.443	-82.744	-0.112	-0.036
-137.429	800.000	-0.056	0.197
-136.414	-6.149	-0.309	0.210
-135.399	92.924	0.162	0.183
-134.385	-45.285	-0.130	0.065
-133.370	-111.189	-0.154	-0.031
-132.356	800.000	-0.075	-0.269
-131.341	-158.220	0.334	-0.019
-130.326	-132.486	-0.266	-0.034
-129.312	800.000	0.016	-0.064
-128.297	164.605	0.145	0.204
-127.283	-112.278	0.279	0.056
-126.268	142.781	0.227	-0.301
-125.253	308.795	-0.132	0.246
-124.239	-200.000	0.003	-0.077
-123.224	-146.589	-0.302	0.026
-122.210	-200.000	0.027	-0.127
-121.195	-200.000	0.015	-0.066
