DTS Sentinel unit serial number:	SN413079Multiplexer serial number:	ORYXHardware model number:	OX4-SRSoftware version number:	ORYX F/W v4.00 Oryx Data Collector v3.7.2.0data status	okinstallation	princeton_trtdifferential loss correction	single-endedforward channel	channel 1reverse channel	N/Adate	2019/09/12time	06:04:11forward acquisition time	60.00reverse acquisition time	0.00gamma	496.2192k internal	0.2321k external	0.2321temperature offset calibration	1.0041default loss term (dB/km)	0.3790temperature slope calibration	1.0000multiplexer offset coefficient	1.0000multiplexer slope coefficient	1.0000fibre end	0.00T internal ref (°C)	32.12T ext. ref 1 (°C)	1.58T ext. ref 2 (°C)	27.39length (m)	temperature (°C)	Stokes	anti-Stokes-747.200	-17.297	-0.237	0.151
-746.185	-30.517	0.119	0.068
-745.171	149.494	0.212	0.290
-744.156	-62.526	-0.295	0.124
-743.142	-67.539	-0.150	-0.060
-742.127	210.493	0.166	0.263
-741.112	174.714	-0.021	0.031
-740.098	401.842	-0.170	0.361
-739.083	316.306	0.050	0.096
-738.069	243.908	-0.058	-0.099
-737.054	800.000	0.074	-0.284
-736.039	35.226	-0.287	-0.254
-735.025	-124.578	-0.256	0.040
-734.010	-66.822	-0.267	-0.107
-732.996	-200.000	-0.005	0.367
-731.981	263.017	-0.037	0.066
-730.966	129.889	0.122	-0.158
-729.952	-88.379	-0.253	-0.076
-728.937	-200.000	-0.025	0.203
-727.923	242.453	0.039	-0.067
-726.908	14.552	-0.267	-0.211
-725.894	-200.000	0.034	-0.168
-724.879	132.415	-0.210	-0.273
-723.864	-87.369	-0.226	-0.069
-722.850	132.506	-0.113	0.147
-721.835	800.000	0.169	-0.534
-720.821	-163.535	-0.289	-0.014
-719.806	-200.000	0.031	-0.153
-718.791	186.861	-0.161	0.243
-717.777	-200.000	-0.002	0.092
-716.762	29.098	-0.188	-0.161
-715.748	572.617	-0.079	-0.195
-714.733	75.027	-0.201	0.214
-713.718	-112.831	0.184	0.037
-712.704	-200.000	-0.035	-0.280
-711.689	-99.430	-0.486	-0.124
-710.675	420.533	0.027	-0.059
-709.660	293.996	0.048	0.088
-708.645	20.489	-0.059	-0.048
-707.631	-200.000	0.002	0.337
-706.616	59.953	-0.129	-0.129
-705.602	-200.000	-0.007	-0.114
-704.587	-139.108	-0.159	0.017
-703.572	22.148	-0.292	0.240
-702.558	-200.000	0.034	-0.153
-701.543	-200.000	0.044	-0.241
-700.529	-97.772	0.322	0.084
-699.514	123.381	-0.133	-0.168
-698.499	112.132	-0.100	-0.122
-697.485	-153.821	-0.134	-0.009
-696.470	45.230	0.236	-0.219
-695.456	-93.723	-0.322	-0.089
-694.441	413.004	-0.158	0.338
-693.426	800.000	0.064	-0.268
-692.412	-43.942	-0.217	0.110
-691.397	204.973	0.074	0.116
-690.383	800.000	0.086	-0.268
-689.368	-200.000	0.008	0.395
-688.354	656.411	0.098	0.253
-687.339	206.644	-0.148	-0.232
-686.324	266.934	0.117	0.207
-685.310	193.512	-0.127	-0.194
-684.295	-156.790	-0.390	-0.024
-683.281	-200.000	0.019	0.304
-682.266	56.875	-0.106	-0.104
-681.251	30.345	-0.190	-0.164
-680.237	-150.887	0.411	-0.031
-679.222	-139.178	0.196	0.021
-678.208	-12.520	-0.146	-0.096
-677.193	82.410	-0.054	0.059
-676.178	-88.330	0.221	-0.067
-675.164	800.000	0.064	0.280
-674.149	800.000	-0.092	-0.278
-673.135	376.387	0.072	0.148
-672.120	184.555	0.163	0.243
-671.105	106.070	0.122	0.145
-670.091	258.390	-0.129	0.224
-669.076	-200.000	0.064	0.295
-668.062	-200.000	0.028	-0.249
-667.047	-70.326	0.149	-0.057
-666.032	90.952	0.180	0.203
-665.018	-200.000	-0.020	-0.286
-664.003	40.502	0.300	-0.272
-662.989	28.301	0.191	0.163
-661.974	-85.452	-0.094	0.029
-660.959	194.474	0.182	-0.278
-659.945	538.160	-0.090	-0.216
-658.930	428.472	-0.037	0.081
-657.916	112.688	-0.174	-0.212
-656.901	-200.000	-0.062	-0.276
-655.886	-200.000	0.001	-0.381
-654.872	-199.612	-0.272	-0.001
-653.857	735.259	-0.150	0.405
-652.843	-200.000	-0.008	-0.100
-651.828	378.791	-0.158	0.327
-650.814	489.839	0.097	0.224
-649.799	-200.000	0.007	0.091
-648.784	-17.511	-0.304	-0.193
-647.770	-21.296	0.080	-0.049
-646.755	48.135	-0.198	-0.187
-645.741	800.000	-0.071	-0.302
-644.726	-200.000	-0.056	-0.258
-643.711	335.475	0.221	-0.432
-642.697	98.311	-0.192	-0.223
-641.682	655.927	-0.090	-0.233
-640.668	280.040	-0.094	-0.169
-639.653	-158.342	0.142	0.008
-638.638	-63.827	-0.103	0.043
-637.624	-200.000	-0.002	-0.113
-636.609	27.653	0.174	0.147
-635.595	53.694	-0.131	0.127
-634.580	192.592	0.099	-0.151
-633.565	-101.066	0.441	-0.109
-632.551	7.270	-0.155	0.117
-631.536	-200.000	0.016	-0.119
-630.522	70.516	-0.100	-0.104
-629.507	-37.277	-0.287	-0.154
-628.492	-200.000	0.008	-0.065
-627.478	-151.814	0.169	-0.012
-626.463	800.000	-0.065	-0.197
-625.449	-144.217	0.245	-0.023
-624.434	-200.000	0.016	0.192
-623.419	7.605	0.199	0.150
-622.405	47.575	0.160	0.150
-621.390	-116.102	-0.288	-0.054
-620.376	-200.000	0.051	0.247
-619.361	800.000	0.054	-0.210
-618.346	-39.552	-0.207	0.109
-617.332	131.514	-0.155	-0.201
-616.317	0.185	0.118	-0.085
-615.303	16.362	0.185	-0.147
-614.288	-42.204	-0.163	0.084
-613.273	488.403	0.015	-0.035
-612.259	-200.000	0.010	-0.065
-611.244	-117.709	-0.212	0.038
-610.230	-63.109	0.197	-0.082
-609.215	-59.466	0.117	0.050
-608.201	-130.710	0.176	0.024
-607.186	-84.029	0.249	-0.079
-606.171	187.163	-0.134	0.201
-605.157	-46.815	-0.152	0.075
-604.142	-126.916	-0.327	-0.048
-603.128	-74.784	0.404	0.146
-602.113	379.955	0.054	0.110
-601.098	386.238	-0.086	0.179
-600.084	-200.000	-0.009	0.167
-599.069	-200.000	0.032	0.201
-598.055	-200.000	0.041	-0.376
-597.040	-106.573	-0.282	0.063
-596.025	-146.286	-0.441	0.039
-595.011	168.317	0.066	0.095
-593.996	93.002	-0.097	0.110
-592.982	605.787	0.035	-0.087
-591.967	-95.279	0.355	-0.096
-590.952	590.305	-0.143	-0.355
-589.938	800.000	-0.046	-0.135
-588.923	425.159	-0.172	0.372
-587.909	189.219	-0.147	-0.221
-586.894	800.000	-0.040	0.125
-585.879	149.612	0.160	-0.218
-584.865	-115.663	0.177	0.033
-583.850	-200.000	0.013	0.115
-582.836	-10.767	-0.237	-0.157
-581.821	-11.160	-0.134	-0.088
-580.806	800.000	-0.050	-0.141
-579.792	-71.193	-0.257	-0.097
-578.777	800.000	0.047	0.148
-577.763	71.339	-0.156	0.163
-576.748	800.000	0.007	-0.029
-575.733	11.136	-0.171	0.131
-574.719	-200.000	0.054	-0.483
-573.704	249.997	0.130	0.221
-572.690	144.892	-0.171	-0.230
-571.675	40.577	-0.115	0.104
-570.661	-24.836	-0.118	-0.071
-569.646	58.392	-0.125	-0.123
-568.631	-41.408	-0.265	-0.137
-567.617	257.899	-0.109	-0.188
-566.602	18.746	0.176	-0.141
-565.588	-200.000	-0.019	0.190
-564.573	58.749	0.275	-0.271
-563.558	-73.643	0.278	0.102
-562.544	-122.543	0.166	-0.027
-561.529	40.386	0.062	0.056
-560.515	800.000	-0.087	-0.323
-559.500	-200.000	-0.155	0.000
-558.485	225.153	0.062	0.100
-557.471	610.229	-0.071	-0.178
-556.456	-200.000	-0.012	0.071
-555.442	18.055	0.145	0.116
-554.427	32.484	0.249	0.215
-553.412	138.029	0.106	-0.140
-552.398	356.831	-0.070	-0.140
-551.383	10.385	0.066	0.050
-550.369	221.118	0.090	0.145
-549.354	800.000	0.021	0.084
-548.339	-200.000	-0.023	-0.118
-547.325	-64.039	-0.062	-0.025
-546.310	-200.000	0.008	-0.052
-545.296	-111.731	-0.272	-0.055
-544.281	-20.434	0.132	0.082
-543.266	-146.496	0.223	-0.020
-542.252	800.000	0.114	0.380
-541.237	-175.656	0.080	0.002
-540.223	120.474	0.190	-0.237
-539.208	-120.110	-0.226	-0.039
-538.193	26.751	0.287	0.241
-537.179	2.324	-0.068	0.050
-536.164	89.798	-0.146	-0.163
-535.150	228.360	-0.026	-0.042
-534.135	-200.000	0.037	-0.272
-533.121	524.511	-0.117	-0.277
-532.106	-200.000	0.063	0.411
-531.091	-125.402	-0.031	0.005
-530.077	41.610	-0.119	0.108
-529.062	-17.469	0.013	0.008
-528.048	100.994	-0.078	0.091
-527.033	800.000	0.039	-0.113
-526.018	800.000	-0.049	-0.159
-525.004	139.023	0.097	-0.128
-523.989	229.371	-0.148	0.242
-522.975	159.799	-0.113	-0.158
-521.960	188.957	0.073	0.109
-520.945	-96.564	-0.142	-0.038
-519.931	-28.525	0.158	0.091
-518.916	-200.000	0.020	0.169
-517.902	285.580	0.107	-0.194
-516.887	-87.558	0.119	-0.036
-515.872	-105.652	-0.083	-0.019
-514.858	34.360	0.180	0.157
-513.843	315.989	0.208	0.394
-512.829	36.070	0.153	-0.135
-511.814	348.389	0.316	0.624
-510.799	167.382	0.201	0.286
-509.785	425.996	-0.040	0.087
-508.770	800.000	0.061	-0.245
-507.756	71.424	0.080	0.083
-506.741	800.000	-0.081	0.301
-505.726	-174.301	0.200	0.006
-504.712	-65.258	0.123	-0.050
-503.697	-65.236	0.229	-0.092
-502.683	677.111	-0.033	0.085
-501.668	50.901	-0.115	0.109
-500.653	-200.000	-0.011	-0.144
-499.639	-200.000	-0.005	0.142
-498.624	-96.077	0.290	0.077
-497.610	117.696	-0.073	-0.090
-496.595	-12.296	0.285	-0.186
-495.581	-66.228	0.222	-0.088
-494.566	154.868	-0.110	-0.151
-493.551	-66.364	-0.378	-0.150
-492.537	-200.000	0.015	-0.229
-491.522	95.449	0.182	0.208
-490.508	336.142	-0.180	0.350
-489.493	-88.070	-0.163	-0.049
-488.478	21.804	0.131	0.107
-487.464	-36.905	0.159	-0.085
-486.449	103.063	0.134	0.157
-485.435	-36.527	0.303	0.163
-484.420	0.518	-0.226	0.162
-483.405	-69.228	0.178	-0.068
-482.391	-200.000	-0.008	-0.122
-481.376	-50.000	-0.164	-0.078
-480.362	-59.387	-0.088	-0.038
-479.347	800.000	-0.012	-0.045
-478.332	34.014	-0.075	-0.065
-477.318	800.000	-0.068	0.191
-476.303	-45.238	0.186	0.092
-475.289	355.514	-0.064	-0.127
-474.274	6.340	-0.182	-0.135
-473.259	18.675	-0.260	-0.208
-472.245	386.359	0.059	-0.121
-471.230	-67.743	0.174	-0.068
-470.216	113.727	0.054	0.065
-469.201	-200.000	0.049	0.380
-468.186	800.000	0.043	0.153
-467.172	104.136	0.194	0.229
-466.157	-197.000	0.034	-0.000
-465.143	-200.000	0.014	-0.227
-464.128	800.000	0.129	-0.437
-463.113	82.047	0.033	-0.036
-462.099	-144.132	-0.133	-0.012
-461.084	-91.451	-0.336	0.096
-460.070	338.752	-0.190	-0.370
-459.055	6.973	0.137	-0.102
-458.040	3.274	0.170	0.123
-457.026	-200.000	0.025	-0.126
-456.011	-119.679	0.042	-0.007
-454.997	-200.000	0.006	0.217
-453.982	800.000	0.066	0.265
-452.968	-134.364	-0.173	-0.021
-451.953	-168.835	-0.041	0.002
-450.938	-102.879	0.188	-0.045
-449.924	25.382	-0.163	-0.135
-448.909	392.901	-0.125	-0.259
-447.895	-101.717	-0.264	0.064
-446.880	-200.000	-0.037	0.211
-445.865	-200.000	-0.024	-0.119
-444.851	-200.000	0.003	0.135
-443.836	107.842	0.211	-0.251
-442.822	556.596	-0.073	-0.176
-441.807	26.881	0.090	0.075
-440.792	85.136	-0.191	0.210
-439.778	800.000	0.070	0.252
-438.763	498.729	-0.193	-0.443
-437.749	-200.000	-0.062	0.273
-436.734	200.103	-0.183	0.281
-435.719	462.009	-0.124	0.277
-434.705	-114.857	0.056	-0.011
-433.690	-122.005	0.383	0.063
-432.676	-12.963	-0.294	-0.191
-431.661	237.340	0.130	-0.216
-430.646	-96.668	0.182	-0.048
-429.632	657.326	0.040	-0.102
-428.617	-33.576	-0.196	0.108
-427.603	800.000	0.043	0.123
-426.588	-87.378	-0.027	0.008
-425.573	-54.032	0.055	0.025
-424.559	-171.352	-0.138	-0.005
-423.544	800.000	0.061	-0.197
-422.530	-200.000	0.065	0.332
-421.515	800.000	-0.097	-0.412
-420.500	211.906	0.052	0.081
-419.486	388.159	-0.144	0.297
-418.471	273.496	-0.089	-0.157
-417.457	399.545	-0.015	0.031
-416.442	-200.000	-0.040	0.360
-415.428	265.762	-0.138	0.241
-414.413	594.697	-0.096	-0.236
-413.398	1.476	0.433	0.311
-412.384	-100.510	-0.139	0.034
-411.369	-161.039	-0.246	0.013
-410.355	-65.259	-0.389	-0.156
-409.340	238.281	-0.225	-0.373
-408.325	-142.720	-0.157	-0.015
-407.311	265.688	-0.167	-0.290
-406.296	-200.000	-0.057	0.324
-405.282	-112.008	-0.214	0.043
-404.267	800.000	0.106	-0.314
-403.252	-200.000	0.005	0.136
-402.238	118.955	-0.135	0.166
-401.223	165.590	-0.081	0.114
-400.209	355.436	0.067	0.134
-399.194	-105.680	0.176	0.040
-398.179	-8.460	-0.122	-0.082
-397.165	800.000	0.059	-0.221
-396.150	-123.139	0.139	-0.022
-395.136	-200.000	0.017	0.235
-394.121	-79.484	0.373	-0.126
-393.106	169.130	-0.184	-0.262
-392.092	175.838	0.038	0.056
-391.077	-200.000	0.010	0.077
-390.063	-129.163	0.209	-0.029
-389.048	27.576	-0.054	0.045
-388.033	21.429	-0.174	0.141
-387.019	-37.262	0.169	-0.090
-386.004	-46.446	-0.031	-0.015
-384.990	5.344	0.198	-0.145
-383.975	-122.599	-0.186	-0.030
-382.960	-100.961	-0.332	-0.081
-381.946	-200.000	-0.087	-0.404
-380.931	157.236	-0.086	-0.119
-379.917	-200.000	-0.060	0.407
-378.902	-200.000	-0.051	-0.227
-377.888	69.090	0.277	0.284
-376.873	-103.464	0.136	0.032
-375.858	-28.304	0.111	-0.064
-374.844	-120.607	0.329	-0.055
-373.829	21.064	0.069	-0.056
-372.815	66.056	0.213	0.215
-371.800	243.480	-0.173	0.289
-370.785	217.495	-0.097	0.154
-369.771	-62.136	0.272	-0.113
-368.756	74.509	0.209	0.219
-367.742	-104.372	-0.458	0.106
-366.727	21.012	0.503	0.406
-365.712	663.532	0.032	0.081
-364.698	-48.265	-0.247	0.119
-363.683	800.000	0.079	-0.222
-362.669	-84.970	-0.058	0.018
-361.654	171.350	0.140	0.200
-360.639	95.644	0.098	-0.111
-359.625	800.000	0.070	-0.211
-358.610	-78.327	0.105	0.036
-357.596	60.936	0.215	-0.212
-356.581	-37.470	0.235	0.125
-355.566	-33.245	-0.291	0.160
-354.552	-20.434	-0.041	-0.025
-353.537	800.000	0.075	0.297
-352.523	110.485	-0.137	0.164
-351.508	-88.232	0.380	0.113
-350.493	-200.000	0.015	0.268
-349.479	-200.000	0.022	-0.319
-348.464	105.528	-0.237	-0.279
-347.450	237.280	0.165	0.273
-346.435	54.657	-0.187	-0.180
-345.420	-26.123	-0.130	-0.076
-344.406	34.098	0.216	-0.188
-343.391	-156.303	-0.343	-0.021
-342.377	-125.468	0.058	-0.009
-341.362	381.884	0.108	0.220
-340.348	287.636	0.229	-0.413
-339.333	-79.711	0.060	0.020
-338.318	-52.551	0.088	-0.041
-337.304	211.652	0.101	0.158
-336.289	511.309	0.103	0.238
-335.275	636.154	0.082	0.207
-334.260	539.038	0.067	0.159
-333.245	-92.101	0.030	0.008
-332.231	95.952	-0.198	-0.224
-331.216	8.805	0.336	0.252
-330.202	-200.000	-0.020	0.097
-329.187	492.346	0.170	0.387
-328.172	-200.000	-0.015	0.246
-327.158	-61.223	0.128	0.054
-326.143	252.956	0.033	-0.057
-325.129	-200.000	-0.016	-0.195
-324.114	-46.078	0.221	-0.108
-323.099	-130.595	-0.342	0.046
-322.085	-116.286	-0.365	-0.067
-321.070	79.869	-0.073	-0.078
-320.056	155.050	0.080	-0.110
-319.041	800.000	-0.025	-0.092
-318.026	200.716	-0.081	-0.124
-317.012	800.000	0.063	0.259
-315.997	-107.921	0.216	-0.047
-314.983	800.000	-0.141	-0.607
-313.968	-62.232	-0.281	-0.116
-312.953	-200.000	0.015	0.135
-311.939	342.958	0.286	0.556
-310.924	57.417	0.129	0.125
-309.910	265.306	-0.039	-0.068
-308.895	91.556	0.011	-0.012
-307.880	800.000	0.050	-0.206
-306.866	-130.150	-0.041	-0.006
-305.851	800.000	-0.063	0.196
-304.837	-56.057	0.043	-0.019
-303.822	-200.000	0.028	0.150
-302.807	-200.000	-0.095	-0.426
-301.793	-112.989	-0.216	0.042
-300.778	37.342	0.188	0.166
-299.764	47.733	0.178	0.165
-298.749	-87.637	-0.162	-0.049
-297.735	-156.436	-0.313	0.019
-296.720	149.877	-0.183	-0.247
-295.705	800.000	0.082	-0.259
-294.691	591.350	0.100	0.246
-293.676	170.260	-0.024	-0.034
-292.662	70.834	-0.138	-0.142
-291.647	581.824	0.046	0.113
-290.632	282.315	0.065	0.116
-289.618	279.332	0.076	0.136
-288.603	-11.958	-0.253	0.164
-287.589	-200.000	-0.044	0.271
-286.574	-22.618	-0.357	0.214
-285.559	800.000	0.033	0.125
-284.545	800.000	-0.054	0.223
-283.530	268.172	-0.064	0.112
-282.516	493.443	0.057	0.129
-281.501	76.042	0.188	0.197
-280.486	800.000	0.018	0.059
-279.472	-5.556	0.138	-0.094
-278.457	86.443	0.135	-0.147
-277.443	-93.871	0.305	0.083
-276.428	162.283	0.107	0.149
-275.413	-190.642	-0.287	0.003
-274.399	-76.353	0.288	0.101
-273.384	-200.000	0.048	-0.268
-272.370	586.149	0.078	0.192
-271.355	152.963	0.055	0.074
-270.340	-200.000	0.019	-0.292
-269.326	697.090	0.098	0.254
-268.311	368.509	0.096	-0.192
-267.297	505.368	-0.039	-0.091
-266.282	96.787	-0.186	-0.212
-265.267	1.294	0.111	-0.079
-264.253	800.000	-0.044	0.187
-263.238	118.913	-0.067	-0.082
-262.224	-95.482	-0.065	0.017
-261.209	-59.555	-0.461	-0.196
-260.195	-50.108	-0.299	-0.140
-259.180	-134.362	0.304	0.037
-258.165	-33.349	0.139	0.076
-257.151	629.939	0.118	-0.295
-256.136	664.343	-0.111	-0.285
-255.122	800.000	-0.021	0.070
-254.107	790.181	-0.044	-0.120
-253.092	-58.949	0.218	0.093
-252.078	343.023	0.059	0.114
-251.063	52.911	0.165	-0.157
-250.049	-200.000	-0.030	-0.442
-249.034	1.441	0.203	-0.144
-248.019	619.020	0.087	0.215
-247.005	-36.806	0.249	-0.133
-245.990	26.974	0.052	-0.044
-244.976	800.000	-0.033	0.123
-243.961	-12.849	-0.172	0.111
-242.946	-93.724	-0.144	-0.039
-241.932	182.317	0.243	0.356
-240.917	-160.781	-0.089	-0.005
-239.903	58.470	-0.122	-0.119
-238.888	504.352	-0.010	0.022
-237.873	-89.582	0.214	0.062
-236.859	111.885	-0.137	0.164
-235.844	66.526	0.168	-0.170
-234.830	-22.055	-0.332	0.200
-233.815	363.232	-0.035	0.069
-232.800	800.000	0.098	0.280
-231.786	236.586	0.251	0.412
-230.771	-11.053	-0.252	0.165
-229.757	518.546	-0.161	-0.373
-228.742	-99.186	-0.284	0.071
-227.727	60.687	-0.028	-0.028
-226.713	-64.719	0.058	-0.023
-225.698	-200.000	0.013	-0.246
-224.684	-26.618	-0.099	0.058
-223.669	100.252	-0.246	-0.283
-222.655	-85.230	0.113	0.035
-221.640	-200.000	-0.026	-0.129
-220.625	159.343	-0.074	0.103
-219.611	800.000	-0.030	-0.098
-218.596	38.455	-0.112	0.099
-217.582	-113.111	-0.249	0.049
-216.567	800.000	-0.077	-0.284
-215.552	64.207	-0.072	0.072
-214.538	-45.441	0.242	0.119
-213.523	211.883	0.048	0.075
-212.509	-13.276	-0.323	0.208
-211.494	-200.000	0.054	-0.394
-210.479	-63.102	0.093	-0.038
-209.465	800.000	-0.069	-0.222
-208.450	-200.000	-0.045	-0.228
-207.436	-9.597	-0.103	-0.068
-206.421	88.760	0.206	-0.226
-205.406	-200.000	-0.028	0.213
-204.392	-20.460	0.269	-0.164
-203.377	603.413	-0.117	-0.288
-202.363	-16.760	0.171	-0.107
-201.348	-200.000	0.032	0.180
-200.333	67.754	-0.146	0.148
-199.319	26.725	0.168	0.139
-198.304	800.000	-0.111	-0.324
-197.290	-117.366	-0.174	0.031
-196.275	233.358	-0.190	0.309
-195.260	-17.486	0.130	0.081
-194.246	-200.000	-0.027	-0.232
-193.231	-61.382	-0.248	0.103
-192.217	800.000	-0.050	0.163
-191.202	65.731	-0.095	-0.095
-190.187	-200.000	0.031	-0.212
-189.173	-66.150	-0.180	0.071
-188.158	-200.000	-0.029	-0.185
-187.144	-37.893	-0.447	-0.235
-186.129	116.782	-0.095	0.115
-185.114	570.873	-0.069	-0.165
-184.100	36.061	0.257	0.223
-183.085	306.371	0.179	0.329
-182.071	110.928	0.048	0.057
-181.056	-200.000	-0.003	-0.132
-180.042	800.000	0.076	-0.252
-179.027	-200.000	-0.007	0.169
-178.012	96.097	0.236	-0.267
-176.998	56.015	-0.112	0.108
-175.983	-193.172	0.433	0.004
-174.969	-200.000	0.009	0.062
-173.954	32.674	0.271	0.232
-172.939	-86.521	-0.213	-0.065
-171.925	140.138	-0.039	0.051
-170.910	312.028	0.086	-0.159
-169.896	800.000	0.147	0.409
-168.881	-200.000	0.038	-0.256
-167.866	-106.711	-0.399	0.088
-166.852	-200.000	0.081	0.368
-165.837	-155.620	-0.207	-0.013
-164.823	28.158	-0.102	-0.085
-163.808	-15.700	0.126	-0.080
-162.793	800.000	0.095	-0.279
-161.779	800.000	0.067	-0.226
-160.764	800.000	0.045	-0.174
-159.750	-118.915	0.041	-0.007
-158.735	-46.224	-0.292	0.142
-157.720	115.595	-0.133	-0.161
-156.706	33.928	0.104	0.089
-155.691	-32.687	-0.163	0.089
-154.677	-43.302	0.168	0.084
-153.662	-200.000	-0.013	0.164
-152.647	-38.875	0.157	0.082
-151.633	209.572	-0.207	0.320
-150.618	-70.343	0.170	-0.064
-149.604	90.129	-0.072	0.079
-148.589	283.093	-0.072	-0.128
-147.574	800.000	0.127	0.407
-146.560	161.846	-0.354	0.490
-145.545	800.000	0.144	0.415
-144.531	402.721	-0.085	-0.177
-143.516	-53.053	-0.308	-0.140
-142.502	800.000	-0.123	-0.386
-141.487	31.893	-0.103	0.088
-140.472	-33.429	-0.182	0.099
-139.458	189.926	-0.223	0.331
-138.443	-113.381	0.084	0.016
-137.429	105.850	-0.072	0.084
-136.414	185.584	-0.107	-0.157
-135.399	-93.747	0.183	-0.050
-134.385	531.235	0.162	-0.377
-133.370	565.890	-0.068	-0.163
-132.356	-20.014	0.271	0.165
-131.341	-105.777	-0.207	0.046
-130.326	800.000	-0.048	0.171
-129.312	61.681	-0.191	0.188
-128.297	397.818	0.128	0.263
-127.283	30.134	0.128	-0.108
-126.268	-96.731	-0.304	-0.079
-125.253	141.563	0.178	0.233
-124.239	-200.000	-0.066	-0.305
-123.224	-62.446	-0.384	0.158
-122.210	-200.000	0.027	-0.200
-121.195	-91.382	0.255	-0.072
-120.180	800.000	-0.084	0.254
