DTS Sentinel unit serial number:	SN413079Multiplexer serial number:	ORYXHardware model number:	OX4-SRSoftware version number:	ORYX F/W v4.00 Oryx Data Collector v3.7.2.0data status	okinstallation	princeton_trtdifferential loss correction	single-endedforward channel	channel 1reverse channel	N/Adate	2019/09/11time	11:28:11forward acquisition time	60.00reverse acquisition time	0.00gamma	496.2192k internal	0.2294k external	0.2294temperature offset calibration	0.9952default loss term (dB/km)	0.3790temperature slope calibration	1.0000multiplexer offset coefficient	1.0000multiplexer slope coefficient	1.0000fibre end	0.00T internal ref (°C)	37.94T ext. ref 1 (°C)	0.16T ext. ref 2 (°C)	35.90length (m)	temperature (°C)	Stokes	anti-Stokes-747.200	800.000	0.034	-0.131
-746.185	-200.000	-0.041	0.257
-745.171	-48.363	0.323	-0.159
-744.156	-200.000	0.031	0.575
-743.142	800.000	-0.029	0.129
-742.127	250.987	-0.161	0.279
-741.112	-44.518	-0.135	0.069
-740.098	-200.000	0.030	0.262
-739.083	555.745	-0.009	0.023
-738.069	103.429	-0.153	0.184
-737.054	197.678	-0.177	-0.276
-736.039	-29.066	-0.393	0.230
-735.025	145.032	0.109	0.149
-734.010	-164.871	-0.120	0.006
-732.996	-35.470	-0.156	-0.087
-731.981	800.000	-0.068	0.235
-730.966	51.059	-0.237	0.230
-729.952	4.203	0.120	-0.089
-728.937	-56.503	0.214	-0.097
-727.923	-200.000	-0.017	-0.165
-726.908	-6.498	-0.084	-0.059
-725.894	31.659	0.016	0.014
-724.879	-117.721	-0.199	-0.037
-723.864	-33.200	-0.132	-0.075
-722.850	231.288	-0.171	-0.286
-721.835	-113.640	0.310	0.062
-720.821	-200.000	0.050	0.349
-719.806	2.385	-0.197	-0.145
-718.791	-21.065	-0.026	-0.016
-717.777	-200.000	-0.002	-0.139
-716.762	-200.000	-0.031	-0.153
-715.748	-98.499	0.342	-0.089
-714.733	12.232	-0.091	0.071
-713.718	34.264	0.092	0.082
-712.704	244.833	-0.176	0.303
-711.689	2.466	-0.075	0.056
-710.675	59.007	-0.169	-0.170
-709.660	779.782	-0.069	0.194
-708.645	-55.498	0.182	-0.083
-707.631	-87.547	0.274	-0.084
-706.616	30.494	-0.175	-0.153
-705.602	-200.000	0.022	-0.137
-704.587	-200.000	-0.021	-0.120
-703.572	84.821	-0.087	0.098
-702.558	-200.000	0.003	0.029
-701.543	368.823	-0.088	-0.181
-700.529	47.758	-0.182	-0.174
-699.514	800.000	0.023	-0.094
-698.499	244.515	0.014	0.024
-697.485	800.000	0.144	0.444
-696.470	-41.791	-0.312	0.164
-695.456	-133.634	0.220	0.028
-694.441	83.611	0.096	0.107
-693.426	-200.000	-0.006	0.184
-692.412	-96.924	-0.281	-0.075
-691.397	-134.293	0.200	-0.025
-690.383	369.023	-0.099	-0.204
-689.368	153.564	0.058	0.081
-688.354	-200.000	0.003	0.262
-687.339	800.000	-0.021	-0.061
-686.324	-200.000	-0.006	-0.341
-685.310	-42.491	0.257	0.134
-684.295	800.000	0.078	-0.323
-683.281	647.169	-0.151	-0.394
-682.266	125.988	-0.224	-0.289
-681.251	128.283	-0.180	-0.234
-680.237	800.000	0.067	-0.200
-679.222	-26.625	-0.169	0.101
-678.208	-102.669	0.233	-0.057
-677.193	33.436	-0.039	-0.035
-676.178	-200.000	0.003	-0.259
-675.164	-200.000	0.019	-0.263
-674.149	-133.577	0.225	0.029
-673.135	-16.807	-0.057	0.037
-672.120	-76.037	0.125	0.045
-671.105	481.421	0.094	-0.217
-670.091	78.816	0.186	0.203
-669.076	-78.301	-0.049	-0.017
-668.062	159.598	-0.213	0.302
-667.047	800.000	-0.054	0.158
-666.032	15.238	-0.363	0.290
-665.018	363.044	0.176	-0.361
-664.003	153.213	-0.151	0.211
-662.989	-74.206	-0.087	0.032
-661.974	125.901	0.145	-0.187
-660.959	-200.000	-0.038	0.249
-659.945	199.679	0.086	-0.134
-658.930	-117.198	-0.142	0.026
-657.916	442.601	0.129	0.288
-656.901	36.157	0.153	-0.138
-655.886	454.423	0.029	0.065
-654.872	171.581	0.121	-0.177
-653.857	21.423	-0.164	-0.136
-652.843	-200.000	0.070	-0.327
-651.828	73.638	0.178	0.190
-650.814	800.000	-0.073	-0.235
-649.799	-102.674	-0.142	0.035
-648.784	-140.803	0.115	0.012
-647.770	51.101	0.210	-0.202
-646.755	46.385	-0.210	-0.198
-645.741	800.000	-0.125	-0.367
-644.726	174.842	-0.146	0.216
-643.711	-200.000	-0.006	-0.268
-642.697	234.814	-0.086	-0.145
-641.682	-29.405	-0.177	-0.103
-640.668	-46.492	0.284	-0.142
-639.653	476.892	0.144	0.331
-638.638	-200.000	-0.031	0.160
-637.624	800.000	0.084	-0.296
-636.609	-200.000	0.002	0.054
-635.595	-148.174	-0.382	0.032
-634.580	-70.781	0.150	-0.058
-633.565	-58.193	0.237	0.105
-632.551	-23.653	-0.361	0.221
-631.536	-46.791	-0.187	-0.093
-630.522	338.822	0.082	-0.162
-629.507	-200.000	0.000	0.088
-628.492	604.066	-0.057	-0.144
-627.478	-102.759	0.170	0.041
-626.463	-131.380	-0.400	0.054
-625.449	-116.396	-0.399	-0.075
-624.434	89.792	0.096	0.109
-623.419	-40.279	0.266	-0.141
-622.405	-200.000	-0.048	0.252
-621.390	-200.000	-0.031	0.423
-620.376	800.000	0.027	0.089
-619.361	-97.606	0.234	0.062
-618.346	177.601	-0.050	0.075
-617.332	800.000	-0.013	0.041
-616.317	-54.170	0.098	0.045
-615.303	-200.000	-0.016	-0.145
-614.288	800.000	0.099	0.407
-613.273	-111.694	0.067	-0.014
-612.259	-200.000	-0.029	0.188
-611.244	-16.083	-0.357	0.231
-610.230	318.427	-0.072	0.138
-609.215	-33.830	-0.131	0.073
-608.201	-43.594	0.234	0.120
-607.186	-200.000	-0.035	0.158
-606.171	-70.737	0.104	0.040
-605.157	-116.934	-0.042	-0.008
-604.142	0.621	-0.328	-0.239
-603.128	-164.358	0.108	0.005
-602.113	234.585	-0.027	-0.045
-601.098	-72.269	-0.087	-0.033
-600.084	-200.000	-0.060	-0.477
-599.069	800.000	-0.059	-0.192
-598.055	-75.775	-0.358	0.129
-597.040	275.697	-0.153	-0.277
-596.025	-200.000	0.024	0.159
-595.011	154.752	-0.224	-0.312
-593.996	125.390	-0.129	-0.165
-592.982	137.895	0.218	0.291
-591.967	-113.793	-0.321	0.064
-590.952	-200.000	0.008	0.141
-589.938	-4.440	0.058	-0.041
-588.923	286.555	-0.162	-0.297
-587.909	-200.000	-0.048	-0.430
-586.894	594.352	-0.041	0.102
-585.879	126.322	-0.033	0.043
-584.865	-87.568	-0.322	-0.099
-583.850	-54.409	0.255	-0.117
-582.836	-200.000	0.019	0.117
-581.821	-200.000	-0.047	0.312
-580.806	800.000	0.066	-0.227
-579.792	-26.127	0.165	-0.099
-578.777	-28.933	-0.340	0.198
-577.763	-200.000	0.043	-0.256
-576.748	277.032	0.107	-0.193
-575.733	-128.749	-0.071	-0.010
-574.719	-200.000	-0.007	-0.331
-573.704	-200.000	-0.017	0.184
-572.690	-39.998	-0.158	-0.084
-571.675	-200.000	-0.025	0.119
-570.661	-200.000	-0.014	-0.099
-569.646	799.981	0.072	0.202
-568.631	-98.357	0.173	-0.045
-567.617	45.440	-0.214	-0.201
-566.602	157.838	-0.186	0.261
-565.588	-17.591	0.130	0.083
-564.573	-12.415	0.243	-0.161
-563.558	53.718	-0.191	-0.186
-562.544	323.166	-0.058	-0.111
-561.529	-200.000	-0.008	-0.278
-560.515	59.684	-0.065	0.066
-559.500	-92.151	-0.140	-0.040
-558.485	-146.625	0.176	-0.015
-557.471	-200.000	-0.048	0.219
-556.456	46.149	-0.067	-0.063
-555.442	602.344	0.154	-0.388
-554.427	-78.878	-0.145	-0.050
-553.412	-35.227	0.166	0.092
-552.398	-128.202	0.177	0.026
-551.383	-146.036	-0.230	-0.021
-550.369	-5.142	-0.225	0.157
-549.354	-97.110	-0.273	0.072
-548.339	-200.000	0.006	-0.103
-547.325	-147.822	-0.108	-0.009
-546.310	800.000	-0.012	0.050
-545.296	-190.548	-0.109	0.001
-544.281	-79.270	-0.416	-0.143
-543.266	91.271	-0.082	0.093
-542.252	123.466	-0.110	-0.140
-541.237	-200.000	0.053	0.244
-540.223	-106.159	0.238	-0.054
-539.208	-200.000	-0.067	-0.382
-538.193	-200.000	-0.013	-0.106
-537.179	-72.046	0.152	0.057
-536.164	800.000	0.045	0.128
-535.150	117.477	0.100	0.125
-534.135	800.000	0.035	0.119
-533.121	-123.777	0.391	-0.063
-532.106	237.066	-0.192	-0.323
-531.091	800.000	-0.069	0.242
-530.077	289.939	-0.054	0.100
-529.062	800.000	-0.015	0.062
-528.048	91.109	0.143	0.163
-527.033	-176.922	-0.134	0.003
-526.018	-56.890	-0.251	-0.113
-525.004	233.604	-0.039	-0.065
-523.989	223.215	0.090	-0.147
-522.975	29.620	0.153	-0.132
-521.960	-75.409	0.115	0.041
-520.945	-24.109	0.098	-0.059
-519.931	-200.000	-0.008	0.177
-518.916	78.613	0.065	0.070
-517.902	-123.661	0.296	0.048
-516.887	-116.140	0.211	-0.040
-515.872	-92.891	-0.149	0.042
-514.858	-50.255	0.257	-0.123
-513.843	373.691	-0.086	0.177
-512.829	-200.000	-0.001	-0.045
-511.814	-200.000	-0.026	0.262
-510.799	800.000	0.047	-0.135
-509.785	-77.670	0.127	0.044
-508.770	234.316	0.279	0.466
-507.756	79.299	-0.052	-0.056
-506.741	54.367	-0.160	-0.157
-505.726	-200.000	0.022	-0.174
-504.712	74.710	-0.101	-0.107
-503.697	-31.190	-0.279	0.159
-502.683	68.940	-0.050	-0.052
-501.668	159.244	-0.043	-0.060
-500.653	17.593	-0.074	0.060
-499.639	-69.788	-0.054	-0.021
-498.624	-200.000	-0.005	0.065
-497.610	20.356	-0.204	0.167
-496.595	299.974	0.162	0.302
-495.581	-200.000	0.013	-0.067
-494.566	5.193	0.058	0.043
-493.551	-105.192	-0.225	-0.052
-492.537	19.734	-0.267	0.217
-491.522	-200.000	-0.010	0.157
-490.508	192.609	-0.132	-0.202
-489.493	564.769	-0.030	0.074
-488.478	-72.842	-0.253	-0.094
-487.464	-46.726	0.160	0.079
-486.449	191.174	0.130	0.198
-485.435	-200.000	-0.043	-0.273
-484.420	5.553	0.038	-0.028
-483.405	73.851	0.133	0.141
-482.391	152.112	-0.150	-0.207
-481.376	26.539	-0.127	-0.107
-480.362	97.634	0.061	0.071
-479.347	-200.000	0.008	0.164
-478.332	19.571	0.195	-0.159
-477.318	564.802	0.049	0.119
-476.303	134.335	0.056	-0.073
-475.289	189.724	-0.111	0.168
-474.274	-200.000	-0.002	-0.232
-473.259	-128.305	-0.214	-0.031
-472.245	632.431	-0.050	-0.129
-471.230	347.167	-0.061	0.122
-470.216	-105.484	-0.211	0.049
-469.201	-200.000	-0.003	-0.223
-468.186	132.890	0.072	0.093
-467.172	-200.000	-0.017	-0.235
-466.157	561.784	0.070	0.171
-465.143	-53.540	-0.142	-0.066
-464.128	54.972	-0.098	-0.096
-463.113	-200.000	-0.040	0.237
-462.099	6.414	-0.069	-0.052
-461.084	-76.761	0.384	-0.136
-460.070	15.054	-0.159	0.126
-459.055	-200.000	0.039	-0.241
-458.040	-72.593	0.079	0.029
-457.026	-62.410	0.171	-0.072
-456.011	72.825	-0.130	0.137
-454.997	733.375	0.114	-0.308
-453.982	-103.924	-0.060	-0.014
-452.968	-200.000	-0.050	0.236
-451.953	413.945	0.099	-0.212
-450.938	-53.053	0.182	0.084
-449.924	145.367	0.097	0.132
-448.909	-200.000	0.015	0.194
-447.895	110.214	-0.320	0.388
-446.880	29.344	0.136	0.116
-445.865	800.000	-0.056	0.234
-444.851	800.000	0.066	-0.217
-443.836	-70.531	0.333	0.127
-442.822	-39.849	-0.198	-0.105
-441.807	-46.523	0.255	0.126
-440.792	-156.248	0.180	-0.011
-439.778	-113.440	-0.116	-0.023
-438.763	-131.984	-0.390	-0.051
-437.749	800.000	0.105	-0.439
-436.734	475.614	0.058	-0.131
-435.719	800.000	0.052	0.181
-434.705	533.635	-0.191	0.458
-433.690	-163.460	0.195	-0.009
-432.676	-200.000	-0.044	0.419
-431.661	55.563	0.169	-0.165
-430.646	-200.000	-0.033	-0.411
-429.632	-200.000	-0.006	-0.193
-428.617	800.000	-0.065	0.203
-427.603	-200.000	-0.029	0.311
-426.588	-141.559	0.380	-0.039
-425.573	-200.000	-0.007	-0.146
-424.559	-200.000	-0.012	-0.072
-423.544	-105.373	0.187	0.043
-422.530	800.000	0.062	0.183
-421.515	-200.000	-0.006	-0.164
-420.500	218.005	0.289	-0.465
-419.486	-200.000	-0.013	-0.182
-418.471	187.855	0.056	0.084
-417.457	94.790	-0.110	0.126
-416.442	-200.000	-0.088	0.514
-415.428	-183.591	0.367	-0.006
-414.413	-47.782	-0.259	-0.127
-413.398	-27.226	-0.325	-0.191
-412.384	800.000	0.015	0.062
-411.369	-83.582	-0.376	-0.121
-410.355	-66.728	0.381	-0.152
-409.340	104.312	0.241	-0.286
-408.325	17.010	-0.113	-0.091
-407.311	-200.000	0.068	0.409
-406.296	365.361	0.145	0.295
-405.282	230.357	-0.131	-0.217
-404.267	150.466	0.087	0.119
-403.252	109.151	0.216	-0.260
-402.238	-200.000	0.017	-0.175
-401.223	800.000	0.025	0.083
-400.209	7.603	-0.076	0.057
-399.194	306.708	-0.051	0.095
-398.179	800.000	0.019	0.084
-397.165	-28.788	-0.235	0.136
-396.150	800.000	-0.027	0.079
-395.136	-42.141	0.077	0.040
-394.121	800.000	-0.073	-0.300
-393.106	-200.000	0.050	0.238
-392.092	137.884	-0.145	0.191
-391.077	264.835	0.157	0.275
-390.063	-200.000	0.059	-0.360
-389.048	800.000	0.080	-0.298
-388.033	-200.000	0.007	-0.335
-387.019	800.000	0.050	0.167
-386.004	410.326	0.058	0.124
-384.990	-133.083	-0.375	-0.048
-383.975	-200.000	-0.013	-0.137
-382.960	-14.938	0.198	-0.128
-381.946	-200.000	0.013	-0.124
-380.931	145.828	0.041	-0.055
-379.917	-152.450	-0.090	0.007
-378.902	800.000	-0.107	-0.349
-377.888	44.733	-0.210	0.195
-376.873	-200.000	0.020	-0.107
-375.858	420.895	-0.104	-0.224
-374.844	-15.654	0.240	0.154
-373.829	-117.783	0.637	0.115
-372.815	-200.000	-0.008	0.260
-371.800	19.729	0.169	-0.137
-370.785	-50.839	0.245	0.116
-369.771	-16.188	-0.203	0.130
-368.756	800.000	0.030	0.092
-367.742	259.297	-0.069	0.120
-366.727	-28.936	0.063	0.036
-365.712	-112.082	0.349	-0.071
-364.698	-43.103	0.078	-0.040
-363.683	15.481	0.242	0.191
-362.669	18.770	-0.211	0.170
-361.654	-200.000	-0.054	0.245
-360.639	2.535	0.366	0.267
-359.625	800.000	0.170	0.476
-358.610	112.700	0.114	0.140
-357.596	-54.956	-0.392	-0.178
-356.581	-81.490	0.150	-0.050
-355.566	498.259	0.151	-0.351
-354.552	33.890	0.072	0.063
-353.537	228.258	0.252	0.414
-352.523	-15.612	0.236	0.152
-351.508	-125.751	0.083	0.013
-350.493	430.604	0.013	0.028
-349.479	-76.985	-0.185	0.065
-348.464	-79.483	-0.092	0.031
-347.450	-100.588	-0.125	-0.031
-346.435	-52.142	0.178	-0.083
-345.420	-31.565	-0.286	0.162
-344.406	92.648	0.250	0.284
-343.391	436.117	0.014	-0.031
-342.377	522.863	0.042	-0.100
-341.362	21.950	-0.114	-0.094
-340.348	254.013	0.121	-0.209
-339.333	94.003	0.061	0.069
-338.318	304.520	0.109	0.205
-337.304	166.781	-0.097	-0.138
-336.289	-72.400	0.108	-0.040
-335.275	-59.598	0.119	0.051
-334.260	-26.762	-0.139	-0.082
-333.245	-189.661	0.182	-0.002
-332.231	1.113	-0.260	-0.188
-331.216	-20.135	-0.299	-0.185
-330.202	275.293	-0.020	-0.035
-329.187	800.000	-0.060	-0.229
-328.172	-79.877	0.216	0.073
-327.158	403.437	0.133	0.282
-326.143	114.073	-0.028	-0.034
-325.129	68.265	0.053	0.055
-324.114	800.000	0.008	-0.033
-323.099	-31.132	-0.154	-0.087
-322.085	314.481	0.085	0.160
-321.070	-200.000	-0.017	-0.363
-320.056	437.541	0.083	0.182
-319.041	-96.775	0.181	0.048
-318.026	-101.176	-0.112	0.027
-317.012	-122.084	-0.416	-0.069
-315.997	96.893	0.128	0.147
-314.983	-91.213	-0.342	-0.098
-313.968	24.165	-0.116	-0.096
-312.953	-97.696	0.401	-0.104
-311.939	-98.523	0.149	-0.038
-310.924	186.491	0.201	0.301
-309.910	99.629	-0.244	-0.283
-308.895	-141.936	-0.292	-0.029
-307.880	364.374	-0.075	-0.153
-306.866	-50.486	0.114	0.054
-305.851	-129.981	0.110	0.015
-304.837	-155.792	-0.213	-0.014
-303.822	-55.353	-0.226	-0.102
-302.807	-111.440	0.239	-0.049
-301.793	-76.115	-0.346	-0.123
-300.778	702.728	0.018	-0.049
-299.764	-149.273	0.061	-0.005
-298.749	647.294	0.126	-0.324
-297.735	-137.241	0.406	0.046
-296.720	-179.917	0.261	0.006
-295.705	-163.226	-0.111	-0.005
-294.691	-117.131	-0.452	-0.083
-293.676	-98.192	0.261	0.067
-292.662	-55.088	-0.203	0.092
-291.647	-200.000	0.012	-0.138
-290.632	-142.057	-0.456	-0.046
-289.618	-167.814	-0.398	0.016
-288.603	48.820	0.108	-0.101
-287.589	128.281	-0.112	-0.144
-286.574	-123.904	0.113	0.018
-285.559	-38.940	-0.095	0.050
-284.545	163.929	0.113	0.160
-283.530	-167.800	0.176	-0.007
-282.516	-200.000	-0.011	0.239
-281.501	-174.269	-0.122	-0.004
-280.486	800.000	0.049	0.162
-279.472	200.410	0.199	0.306
-278.457	-200.000	-0.160	0.000
-277.443	423.838	0.113	0.243
-276.428	14.545	0.179	-0.140
-275.413	-196.239	-0.215	0.001
-274.399	-200.000	0.059	0.290
-273.384	-94.931	-0.147	0.040
-272.370	345.155	-0.046	-0.091
-271.355	619.923	-0.072	-0.181
-270.340	-200.000	-0.028	-0.355
-269.326	-200.000	-0.021	-0.313
-268.311	800.000	-0.047	-0.204
-267.297	800.000	0.149	-0.508
-266.282	-200.000	-0.004	0.332
-265.267	239.411	0.239	0.399
-264.253	-200.000	0.015	0.134
-263.238	83.262	-0.102	0.112
-262.224	140.077	0.161	-0.213
-261.209	-200.000	-0.021	-0.141
-260.195	-181.241	-0.099	-0.002
-259.180	-147.122	-0.225	0.019
-258.165	-22.427	-0.098	0.060
-257.151	-32.777	0.224	0.125
-256.136	-114.786	-0.081	-0.015
-255.122	-80.375	-0.373	0.125
-254.107	90.820	-0.199	-0.224
-253.092	-200.000	-0.006	0.157
-252.078	-98.139	0.181	-0.047
-251.063	218.940	0.095	0.152
-250.049	-57.759	0.063	-0.027
-249.034	64.356	0.268	0.271
-248.019	-0.440	0.247	-0.176
-247.005	-63.816	0.127	-0.052
-245.990	44.507	-0.036	0.034
-244.976	-28.045	0.213	0.124
-243.961	-200.000	0.042	-0.240
-242.946	-18.272	-0.130	0.082
-241.932	800.000	0.055	-0.186
-240.917	800.000	0.033	0.137
-239.903	-80.368	0.111	0.037
-238.888	42.140	-0.184	-0.168
-237.873	-100.763	0.305	-0.075
-236.859	168.803	0.078	-0.111
-235.844	84.903	-0.198	-0.217
-234.830	-14.123	-0.185	-0.120
-233.815	676.551	0.058	-0.151
-232.800	-21.220	0.096	0.059
-231.786	50.729	0.053	0.050
-230.771	-67.297	0.076	-0.030
-229.757	595.482	0.101	0.251
-228.742	800.000	-0.101	0.286
-227.727	327.499	0.018	-0.035
-226.713	359.185	-0.112	-0.224
-225.698	29.684	0.253	0.216
-224.684	-58.349	-0.272	-0.118
-223.669	800.000	0.057	0.183
-222.655	800.000	-0.129	0.373
-221.640	800.000	0.113	0.387
-220.625	-149.207	-0.100	-0.008
-219.611	44.938	0.156	-0.144
-218.596	800.000	0.111	0.459
-217.582	22.778	-0.217	0.178
-216.567	-200.000	0.033	-0.190
-215.552	-200.000	0.011	0.157
-214.538	10.993	0.042	-0.032
-213.523	292.000	-0.133	0.242
-212.509	43.109	-0.243	-0.222
-211.494	-200.000	0.002	-0.159
-210.479	96.388	-0.247	-0.283
-209.465	620.998	0.089	-0.224
-208.450	-131.527	0.217	0.029
-207.436	79.668	0.265	0.285
-206.421	-87.438	0.130	-0.039
-205.406	84.930	0.046	0.050
-204.392	-136.519	0.072	-0.008
-203.377	270.640	0.193	0.340
-202.363	-46.613	0.135	-0.066
-201.348	-200.000	-0.060	0.520
-200.333	302.375	0.144	0.266
-199.319	-162.539	0.037	-0.002
-198.304	9.017	-0.066	-0.050
-197.290	134.115	-0.233	-0.302
-196.275	-200.000	0.062	-0.379
-195.260	187.903	0.187	0.280
-194.246	-129.783	-0.191	0.026
-193.231	800.000	-0.070	-0.260
-192.217	-200.000	-0.027	-0.165
-191.202	503.902	0.145	0.336
-190.187	284.202	0.099	0.178
-189.173	178.573	-0.114	-0.166
-188.158	54.510	0.185	0.179
-187.144	-200.000	-0.038	-0.293
-186.129	558.097	-0.076	-0.182
-185.114	-142.274	-0.230	-0.023
-184.100	-82.718	-0.049	-0.016
-183.085	257.803	0.095	0.164
-182.071	199.256	-0.168	-0.258
-181.056	-200.000	0.009	0.250
-180.042	771.066	-0.027	-0.073
-179.027	667.429	-0.115	-0.297
-178.012	-162.021	-0.368	0.019
-176.998	-132.985	0.402	-0.051
-175.983	800.000	0.108	-0.386
-174.969	647.908	0.071	0.181
-173.954	309.027	0.055	-0.102
-172.939	-69.513	0.146	-0.056
-171.925	209.927	-0.076	0.119
-170.910	800.000	-0.096	0.303
-169.896	189.416	0.121	-0.181
-168.881	112.498	0.037	0.045
-167.866	25.337	0.174	0.145
-166.852	-45.689	0.325	-0.161
-165.837	-164.985	0.110	0.005
-164.823	-25.955	0.117	0.069
-163.808	800.000	-0.070	0.230
-162.793	182.595	0.166	-0.244
-161.779	-200.000	0.032	-0.287
-160.764	-45.193	0.078	-0.039
-159.750	-200.000	0.034	-0.164
-158.735	-55.120	-0.293	0.132
-157.720	25.081	-0.249	0.206
-156.706	-108.911	0.330	0.070
-155.691	-100.839	-0.187	0.046
-154.677	-34.047	-0.158	-0.087
-153.662	113.286	-0.099	-0.120
-152.647	711.005	0.068	0.181
-151.633	713.947	0.125	-0.332
-150.618	-17.651	-0.369	-0.232
-149.604	203.880	0.036	-0.056
-148.589	-54.052	-0.234	0.107
-147.574	744.741	0.118	0.316
-146.560	-124.291	0.430	0.067
-145.545	-120.871	0.326	-0.055
-144.531	-148.076	0.085	-0.007
-143.516	-90.363	0.166	-0.048
-142.502	-78.245	-0.352	0.121
-141.487	-31.824	-0.223	-0.125
-140.472	-125.281	-0.394	0.060
-139.458	414.176	-0.129	0.275
-138.443	-200.000	0.014	-0.211
-137.429	-24.300	-0.058	0.035
-136.414	-23.620	0.183	0.110
-135.399	-13.079	0.276	-0.179
-134.385	624.971	-0.085	0.213
-133.370	-136.007	0.112	-0.013
-132.356	-61.552	-0.170	0.071
-131.341	-200.000	0.014	0.263
-130.326	-200.000	-0.020	0.101
-129.312	800.000	0.074	0.286
-128.297	-36.337	-0.204	0.110
-127.283	-200.000	-0.004	0.018
-126.268	-23.864	-0.204	0.122
-125.253	-164.016	0.073	-0.003
-124.239	-200.000	-0.030	0.305
-123.224	-76.460	0.189	-0.066
-122.210	178.472	0.204	0.297
