DTS Sentinel unit serial number:	SN413079Multiplexer serial number:	ORYXHardware model number:	OX4-SRSoftware version number:	ORYX F/W v4.00 Oryx Data Collector v3.7.2.0data status	okinstallation	princeton_trtdifferential loss correction	single-endedforward channel	channel 1reverse channel	N/Adate	2019/09/11time	14:40:11forward acquisition time	60.00reverse acquisition time	0.00gamma	496.2192k internal	0.2292k external	0.2292temperature offset calibration	0.9987default loss term (dB/km)	0.3790temperature slope calibration	1.0000multiplexer offset coefficient	1.0000multiplexer slope coefficient	1.0000fibre end	0.00T internal ref (°C)	42.36T ext. ref 1 (°C)	0.92T ext. ref 2 (°C)	37.91length (m)	temperature (°C)	Stokes	anti-Stokes-747.200	-72.179	0.382	-0.145
-746.185	-168.002	-0.112	-0.004
-745.171	-105.862	-0.389	0.090
-744.156	53.058	-0.136	0.133
-743.142	-40.434	0.216	0.115
-742.127	159.643	0.188	0.267
-741.112	-200.000	0.007	-0.042
-740.098	21.434	-0.145	0.121
-739.083	222.779	0.126	0.208
-738.069	93.193	-0.228	0.264
-737.054	-146.833	0.158	-0.014
-736.039	21.649	-0.148	-0.124
-735.025	242.675	0.104	0.178
-734.010	413.579	-0.172	0.374
-732.996	239.101	-0.125	-0.212
-731.981	291.271	-0.108	-0.201
-730.966	-112.146	-0.311	-0.064
-729.952	618.005	-0.070	-0.181
-728.937	800.000	0.081	-0.311
-727.923	-47.351	0.136	-0.068
-726.908	2.997	0.235	-0.174
-725.894	800.000	-0.065	-0.236
-724.879	-54.281	-0.058	-0.027
-723.864	25.867	-0.301	-0.256
-722.850	-200.000	0.004	0.106
-721.835	-65.467	-0.214	0.088
-720.821	620.987	-0.016	0.041
-719.806	-77.605	-0.329	-0.116
-718.791	-75.946	0.097	0.035
-717.777	519.333	-0.150	-0.359
-716.762	123.086	-0.046	-0.059
-715.748	-18.074	0.151	-0.097
-714.733	255.097	0.054	0.094
-713.718	19.032	0.171	-0.140
-712.704	-96.680	-0.075	0.020
-711.689	-200.000	-0.015	0.145
-710.675	88.602	0.059	0.067
-709.660	289.181	0.237	0.439
-708.645	296.155	-0.168	0.315
-707.631	-200.000	-0.013	-0.134
-706.616	147.464	0.206	0.284
-705.602	-25.558	-0.048	0.029
-704.587	-200.000	-0.009	-0.131
-703.572	585.437	-0.079	-0.198
-702.558	-200.000	-0.018	0.227
-701.543	163.705	0.075	-0.109
-700.529	800.000	-0.063	0.276
-699.514	148.055	0.251	0.346
-698.499	-157.112	-0.110	-0.007
-697.485	36.749	0.032	0.029
-696.470	-16.442	0.059	0.038
-695.456	-119.946	-0.295	0.052
-694.441	-200.000	0.027	0.311
-693.426	-115.420	0.440	-0.085
-692.412	460.436	0.032	0.073
-691.397	-77.192	0.047	-0.017
-690.383	458.341	0.145	-0.330
-689.368	292.541	0.097	0.180
-688.354	36.440	0.146	-0.131
-687.339	-200.000	-0.061	-0.298
-686.324	-200.000	0.052	-0.297
-685.310	-12.741	0.229	-0.152
-684.295	800.000	-0.033	0.141
-683.281	638.340	0.100	-0.261
-682.266	-200.000	-0.009	0.246
-681.251	-200.000	-0.079	-0.356
-680.237	-41.181	0.044	-0.023
-679.222	154.765	-0.106	-0.148
-678.208	-3.820	-0.165	-0.117
-677.193	212.141	-0.215	-0.346
-676.178	-200.000	-0.025	-0.234
-675.164	361.358	-0.083	-0.169
-674.149	239.265	0.100	-0.170
-673.135	-42.259	0.191	-0.099
-672.120	-178.030	-0.286	0.007
-671.105	-200.000	0.010	-0.137
-670.091	-169.448	-0.436	0.016
-669.076	800.000	-0.042	-0.178
-668.062	213.983	0.054	0.088
-667.047	-130.840	0.369	0.050
-666.032	-108.886	0.337	-0.073
-665.018	-137.437	-0.403	-0.046
-664.003	119.704	-0.169	0.214
-662.989	18.821	0.278	0.227
-661.974	5.040	0.258	-0.194
-660.959	-72.535	0.074	0.028
-659.945	-200.000	0.002	-0.020
-658.930	-70.859	0.362	-0.139
-657.916	17.930	-0.156	-0.127
-656.901	-167.007	-0.195	0.008
-655.886	-38.956	-0.228	-0.123
-654.872	-30.339	-0.103	0.060
-653.857	-42.801	0.278	-0.144
-652.843	-112.983	0.090	0.018
-651.828	-90.136	0.284	0.084
-650.814	-87.424	-0.302	0.093
-649.799	53.064	-0.220	0.215
-648.784	721.848	0.149	-0.405
-647.770	-109.515	0.407	-0.088
-646.755	307.912	-0.095	0.181
-645.741	229.340	-0.232	0.387
-644.726	190.920	-0.103	0.158
-643.711	-200.000	0.012	0.112
-642.697	501.002	-0.136	0.320
-641.682	-106.998	0.153	0.034
-640.668	28.421	0.089	-0.077
-639.653	-99.870	0.408	-0.104
-638.638	-131.948	0.034	-0.004
-637.624	-38.430	-0.214	0.116
-636.609	-85.351	-0.203	0.065
-635.595	-119.576	0.221	-0.039
-634.580	-200.000	-0.048	-0.383
-633.565	349.034	0.075	0.151
-632.551	-200.000	0.036	-0.252
-631.536	-20.751	0.227	-0.142
-630.522	317.980	-0.005	-0.010
-629.507	-34.576	0.296	-0.165
-628.492	-81.375	-0.059	0.020
-627.478	-200.000	-0.011	-0.075
-626.463	-122.666	-0.073	-0.012
-625.449	-171.694	0.204	-0.007
-624.434	-101.756	-0.141	-0.035
-623.419	800.000	0.114	-0.385
-622.405	134.778	-0.149	0.197
-621.390	-40.658	-0.241	0.127
-620.376	-100.499	0.232	-0.058
-619.361	5.368	0.043	0.033
-618.346	-91.244	-0.273	0.080
-617.332	-74.972	-0.206	0.075
-616.317	800.000	-0.066	-0.186
-615.303	-200.000	0.023	0.389
-614.288	7.815	-0.103	0.079
-613.273	74.965	0.246	0.264
-612.259	-32.624	-0.142	-0.081
-611.244	-200.000	-0.009	0.175
-610.230	61.228	-0.122	0.123
-609.215	375.089	0.097	-0.202
-608.201	269.878	0.094	0.169
-607.186	11.970	-0.112	-0.088
-606.171	441.474	-0.037	0.081
-605.157	373.564	-0.060	-0.123
-604.142	800.000	-0.063	-0.247
-603.128	800.000	0.026	0.084
-602.113	-140.029	0.399	-0.043
-601.098	626.187	-0.021	-0.054
-600.084	-200.000	-0.009	0.053
-599.069	-91.060	-0.333	-0.097
-598.055	-73.905	-0.310	-0.114
-597.040	-103.376	-0.302	0.072
-596.025	-82.204	-0.200	0.066
-595.011	-89.678	-0.131	-0.039
-593.996	-200.000	0.295	-0.001
-592.982	91.243	-0.180	-0.206
-591.967	-200.000	0.030	-0.372
-590.952	800.000	0.033	0.112
-589.938	-200.000	-0.035	0.301
-588.923	-57.682	0.272	0.121
-587.909	-200.000	0.032	-0.498
-586.894	49.334	0.092	0.088
-585.879	107.430	-0.106	0.129
-584.865	50.865	0.199	0.191
-583.850	800.000	-0.078	0.277
-582.836	800.000	0.012	0.039
-581.821	-167.777	-0.339	0.014
-580.806	-93.294	0.230	-0.065
-579.792	800.000	-0.084	-0.267
-578.777	-83.148	-0.086	-0.028
-577.763	235.799	-0.073	0.123
-576.748	-52.733	0.100	0.047
-575.733	336.131	0.047	0.093
-574.719	-109.321	0.168	0.036
-573.704	-163.550	-0.258	0.012
-572.690	-200.000	0.007	-0.104
-571.675	493.469	-0.124	0.290
-570.661	563.212	-0.189	-0.465
-569.646	-200.000	0.016	-0.153
-568.631	106.445	-0.093	0.112
-567.617	800.000	0.003	-0.009
-566.602	213.995	0.068	0.109
-565.588	-20.973	-0.063	-0.039
-564.573	-200.000	0.019	0.093
-563.558	-200.000	-0.003	0.156
-562.544	362.327	-0.058	-0.118
-561.529	150.962	0.070	0.097
-560.515	243.150	-0.161	-0.274
-559.500	485.283	-0.036	-0.083
-558.485	111.224	-0.137	0.167
-557.471	-200.000	0.031	0.193
-556.456	-200.000	-0.025	-0.214
-555.442	-200.000	0.059	0.282
-554.427	-37.851	-0.053	-0.029
-553.412	13.912	0.081	0.064
-552.398	-20.202	0.229	-0.143
-551.383	170.570	-0.027	-0.039
-550.369	190.743	0.225	0.343
-549.354	253.926	-0.162	0.281
-548.339	-122.893	0.434	-0.071
-547.325	-127.059	-0.260	-0.039
-546.310	-108.613	-0.377	-0.082
-545.296	-103.358	0.292	0.070
-544.281	-106.868	-0.324	0.073
-543.266	107.828	0.204	-0.246
-542.252	-58.745	-0.274	0.120
-541.237	-79.457	0.063	0.021
-540.223	-168.126	-0.142	0.006
-539.208	77.278	-0.028	-0.030
-538.193	51.979	-0.176	-0.170
-537.179	380.067	-0.064	0.134
-536.164	9.670	0.098	0.076
-535.150	314.832	0.124	-0.237
-534.135	-138.246	0.129	0.015
-533.121	98.944	-0.013	0.016
-532.106	613.511	-0.065	-0.166
-531.091	-200.000	0.001	-0.166
-530.077	-99.988	-0.255	-0.065
-529.062	5.968	0.291	0.219
-528.048	-92.501	0.202	0.058
-527.033	-90.190	0.131	-0.039
-526.018	-9.478	0.352	0.238
-525.004	-107.402	-0.094	0.021
-523.989	800.000	0.079	0.272
-522.975	-28.986	-0.148	0.086
-521.960	281.500	0.088	-0.159
-520.945	-200.000	-0.009	-0.127
-519.931	36.001	0.196	0.175
-518.916	-62.955	0.392	-0.164
-517.902	639.393	-0.054	-0.139
-516.887	-111.667	0.128	-0.026
-515.872	420.933	-0.009	-0.019
-514.858	-75.937	0.065	0.023
-513.843	-200.000	-0.061	0.405
-512.829	800.000	0.096	0.319
-511.814	-90.639	0.215	0.063
-510.799	70.385	-0.186	0.195
-509.785	102.965	0.064	0.076
-508.770	91.968	-0.092	-0.105
-507.756	800.000	-0.035	0.148
-506.741	534.341	-0.084	-0.203
-505.726	-152.015	-0.164	0.012
-504.712	13.286	0.518	-0.407
-503.697	-45.738	-0.189	-0.095
-502.683	-26.632	0.175	-0.104
-501.668	-200.000	-0.037	-0.212
-500.653	-138.506	0.309	0.034
-499.639	76.893	0.211	0.227
-498.624	-200.000	-0.072	0.406
-497.610	-46.629	0.189	-0.094
-496.595	-12.900	-0.228	0.150
-495.581	-10.093	0.313	-0.211
-494.566	-6.740	0.208	0.143
-493.551	138.840	0.218	0.290
-492.537	-88.696	-0.047	0.014
-491.522	-99.767	-0.022	-0.006
-490.508	-2.838	-0.099	0.070
-489.493	172.569	0.174	-0.253
-488.478	77.510	-0.050	0.054
-487.464	800.000	-0.068	-0.198
-486.449	800.000	-0.019	0.062
-485.435	-136.751	-0.117	0.014
-484.420	-200.000	-0.032	-0.236
-483.405	-72.984	0.314	-0.117
-482.391	-39.024	-0.072	-0.038
-481.376	406.135	-0.086	0.184
-480.362	-200.000	-0.015	0.220
-479.347	157.841	-0.140	-0.197
-478.332	-170.071	0.277	-0.010
-477.318	-90.565	0.218	-0.064
-476.303	304.823	-0.092	0.173
-475.289	-127.150	0.053	-0.008
-474.274	-200.000	-0.050	0.321
-473.259	-197.103	-0.072	-0.000
-472.245	203.049	0.109	0.171
-471.230	-93.285	-0.285	-0.080
-470.216	-93.541	0.283	0.079
-469.201	106.108	0.096	0.115
-468.186	121.104	0.069	0.087
-467.172	72.730	-0.094	-0.099
-466.157	-127.206	0.296	-0.044
-465.143	33.910	0.074	-0.065
-464.128	800.000	0.083	-0.289
-463.113	-200.000	0.002	0.020
-462.099	-177.902	-0.274	0.007
-461.084	-120.952	0.101	-0.017
-460.070	-144.159	0.243	0.023
-459.055	58.524	-0.147	0.146
-458.040	-200.000	0.035	0.238
-457.026	-71.341	-0.344	-0.130
-456.011	202.725	-0.079	0.124
-454.997	-134.807	-0.330	-0.041
-453.982	800.000	-0.009	0.032
-452.968	-152.266	-0.542	0.040
-451.953	-127.417	0.103	-0.015
-450.938	777.035	0.049	-0.135
-449.924	8.695	-0.130	0.099
-448.909	-9.793	-0.062	-0.042
-447.895	-133.396	0.085	0.011
-446.880	-200.000	-0.014	0.112
-445.865	251.016	0.111	-0.191
-444.851	-181.957	-0.171	-0.003
-443.836	-166.569	-0.203	0.009
-442.822	149.391	-0.138	-0.189
-441.807	220.882	0.119	-0.192
-440.792	-37.835	0.395	0.213
-439.778	175.027	0.162	-0.237
-438.763	698.263	-0.085	-0.225
-437.749	149.860	-0.093	0.127
-436.734	14.799	0.085	-0.068
-435.719	800.000	-0.060	-0.198
-434.705	587.677	0.067	-0.168
-433.690	-57.012	-0.167	-0.075
-432.676	-166.891	0.108	-0.004
-431.661	19.497	-0.334	0.272
-430.646	-76.556	-0.051	0.018
-429.632	142.302	-0.100	0.134
-428.617	16.057	-0.378	-0.301
-427.603	800.000	-0.050	0.147
-426.588	597.813	0.010	0.024
-425.573	-69.765	-0.384	0.148
-424.559	306.192	0.058	-0.110
-423.544	-200.000	0.036	-0.172
-422.530	303.571	0.054	-0.101
-421.515	67.139	-0.059	-0.060
-420.500	-200.000	-0.008	-0.070
-419.486	-57.980	0.172	0.076
-418.471	-31.683	-0.053	0.030
-417.457	227.913	0.019	-0.031
-416.442	-135.140	-0.254	0.031
-415.428	-62.398	0.292	0.123
-414.413	72.759	-0.066	0.070
-413.398	-200.000	-0.042	0.298
-412.384	-95.971	0.111	0.030
-411.369	-146.651	0.100	-0.009
-410.355	-56.587	0.193	-0.086
-409.340	13.595	-0.168	-0.132
-408.325	-147.802	-0.038	0.003
-407.311	12.840	-0.356	0.278
-406.296	-32.528	-0.120	0.067
-405.282	275.182	0.217	0.388
-404.267	-88.915	0.452	0.135
-403.252	-0.011	-0.305	-0.219
-402.238	-133.825	0.440	0.055
-401.223	91.403	0.137	-0.155
-400.209	105.060	-0.191	-0.228
-399.194	-200.000	0.037	-0.186
-398.179	447.961	0.012	-0.027
-397.165	141.291	-0.051	0.068
-396.150	17.046	-0.049	-0.039
-395.136	-200.000	-0.024	0.150
-394.121	512.007	-0.082	0.194
-393.106	-84.115	-0.083	-0.026
-392.092	-134.801	0.183	0.022
-391.077	73.730	-0.128	-0.135
-390.063	211.212	0.074	0.117
-389.048	800.000	0.085	-0.311
-388.033	-71.009	-0.136	-0.052
-387.019	800.000	0.062	-0.242
-386.004	-140.779	-0.262	0.027
-384.990	-50.150	-0.240	-0.114
-383.975	118.939	0.124	-0.155
-382.960	33.900	0.187	0.164
-381.946	-135.796	-0.285	0.034
-380.931	536.266	-0.040	-0.097
-379.917	800.000	-0.020	-0.063
-378.902	619.996	-0.051	-0.128
-377.888	54.735	-0.330	0.321
-376.873	72.959	0.105	0.111
-375.858	-85.002	-0.249	-0.079
-374.844	-200.000	-0.018	0.273
-373.829	-116.443	0.277	-0.052
-372.815	225.082	-0.015	0.025
-371.800	88.010	-0.153	0.171
-370.785	425.598	0.092	-0.200
-369.771	-107.384	-0.284	-0.063
-368.756	-93.449	0.263	-0.073
-367.742	55.752	0.101	-0.099
-366.727	-19.841	-0.218	0.136
-365.712	-200.000	0.030	-0.230
-364.698	800.000	-0.024	-0.074
-363.683	-53.989	0.077	-0.035
-362.669	-200.000	0.012	0.197
-361.654	800.000	0.013	-0.039
-360.639	28.876	-0.071	-0.061
-359.625	-36.013	0.105	-0.057
-358.610	-200.000	-0.015	-0.079
-357.596	-13.869	-0.086	0.056
-356.581	-134.502	-0.079	0.010
-355.566	-200.000	-0.048	-0.257
-354.552	75.936	-0.134	0.142
-353.537	321.497	-0.150	0.288
-352.523	-101.112	-0.110	0.027
-351.508	423.811	-0.141	-0.305
-350.493	89.210	-0.347	-0.389
-349.479	-49.018	0.190	0.092
-348.464	-95.220	0.178	-0.048
-347.450	-200.000	-0.071	-0.491
-346.435	210.267	-0.053	-0.084
-345.420	-54.348	-0.282	-0.129
-344.406	99.355	-0.163	0.190
-343.391	-35.822	0.336	0.183
-342.377	-161.323	0.141	0.007
-341.362	420.027	-0.063	0.136
-340.348	322.769	0.056	0.108
-339.333	-96.431	-0.283	-0.075
-338.318	-69.686	0.117	0.045
-337.304	90.352	0.012	0.013
-336.289	2.268	0.427	0.311
-335.275	-200.000	-0.025	-0.284
-334.260	-200.000	-0.052	-0.238
-333.245	-37.562	0.401	-0.215
-332.231	20.838	-0.127	0.104
-331.216	-126.664	0.069	0.010
-330.202	800.000	0.040	-0.136
-329.187	46.593	0.317	-0.296
-328.172	177.062	-0.233	-0.341
-327.158	-64.217	0.074	0.031
-326.143	800.000	-0.088	0.325
-325.129	584.372	-0.093	0.229
-324.114	-200.000	-0.004	-0.062
-323.099	-200.000	0.018	0.153
-322.085	247.919	0.088	0.150
-321.070	800.000	0.077	0.242
-320.056	156.881	0.043	0.059
-319.041	135.929	-0.215	0.282
-318.026	15.467	-0.351	-0.277
-317.012	1.377	0.066	0.048
-315.997	-11.639	-0.204	0.135
-314.983	-39.203	0.095	-0.050
-313.968	-200.000	-0.049	0.333
-312.953	-200.000	-0.027	0.189
-311.939	-62.257	0.157	-0.066
-310.924	-102.937	0.245	0.059
-309.910	-87.667	0.258	0.078
-308.895	45.870	0.230	-0.214
-307.880	142.263	0.063	-0.084
-306.866	-154.421	-0.099	-0.007
-305.851	-200.000	0.014	-0.178
-304.837	267.957	0.133	-0.235
-303.822	-14.734	0.221	0.143
-302.807	259.140	0.104	0.181
-301.793	-42.805	0.257	-0.132
-300.778	121.660	0.323	0.405
-299.764	280.329	0.147	0.264
-298.749	-38.347	0.132	-0.070
-297.735	-142.884	-0.191	0.019
-296.720	2.094	0.095	0.069
-295.705	83.671	0.344	0.377
-294.691	-164.250	0.264	-0.012
-293.676	-200.000	0.024	-0.375
-292.662	-63.794	-0.139	-0.057
-291.647	-200.000	-0.004	-0.191
-290.632	800.000	-0.148	-0.422
-289.618	230.953	-0.141	0.233
-288.603	-148.918	-0.070	-0.006
-287.589	25.760	0.157	0.131
-286.574	-2.658	-0.189	0.133
-285.559	-138.693	0.098	0.011
-284.545	-23.542	-0.033	-0.020
-283.530	-200.000	-0.031	-0.268
-282.516	-187.617	0.080	-0.001
-281.501	64.543	-0.281	-0.285
-280.486	-176.316	-0.267	-0.007
-279.472	124.153	-0.198	0.250
-278.457	-72.818	0.344	0.127
-277.443	-161.134	0.078	0.004
-276.428	-119.144	-0.575	0.101
-275.413	-36.108	0.203	-0.110
-274.399	50.731	-0.071	-0.067
-273.384	-28.224	0.208	-0.121
-272.370	-48.183	-0.065	-0.031
-271.355	-170.383	-0.094	-0.003
-270.340	800.000	0.039	0.149
-269.326	96.820	-0.169	0.195
-268.311	39.017	0.201	-0.181
-267.297	-56.987	0.098	-0.044
-266.282	50.002	-0.103	-0.098
-265.267	193.537	-0.204	0.310
-264.253	-78.442	-0.289	-0.099
-263.238	710.597	0.085	0.226
-262.224	-57.790	-0.342	-0.150
-261.209	-200.000	-0.073	-0.356
-260.195	39.437	-0.255	-0.229
-259.180	-200.000	0.002	0.383
-258.165	317.513	-0.250	0.476
-257.151	-92.628	-0.293	-0.083
-256.136	241.504	-0.029	0.049
-255.122	72.910	-0.149	-0.156
-254.107	-200.000	-0.051	-0.272
-253.092	385.650	-0.135	0.280
-252.078	264.830	-0.210	0.368
-251.063	-174.696	0.296	0.008
-250.049	62.438	0.185	0.185
-249.034	2.343	-0.314	-0.228
-248.019	399.953	-0.039	-0.082
-247.005	-126.631	-0.409	-0.061
-245.990	-145.825	0.176	0.016
-244.976	-57.106	-0.206	0.091
-243.961	-23.850	-0.175	0.105
-242.946	137.369	-0.142	-0.186
-241.932	-84.496	-0.171	-0.054
-240.917	86.641	0.090	-0.099
-239.903	116.209	-0.066	0.081
-238.888	537.115	0.131	-0.311
-237.873	37.807	0.151	0.135
-236.859	377.049	0.165	-0.338
-235.844	62.706	-0.157	0.158
-234.830	-150.620	0.150	-0.011
-233.815	-64.136	0.186	0.076
-232.800	217.936	-0.217	-0.348
-231.786	46.129	-0.108	0.100
-230.771	-132.572	0.410	-0.053
-229.757	-2.344	0.100	-0.071
-228.742	800.000	0.117	-0.331
-227.727	307.010	-0.099	0.185
-226.713	-1.233	-0.158	-0.112
-225.698	-200.000	0.011	-0.315
-224.684	-129.773	0.125	-0.017
-223.669	-200.000	-0.010	0.381
-222.655	-124.495	0.594	-0.093
-221.640	30.129	-0.056	-0.048
-220.625	288.048	-0.122	0.222
-219.611	-200.000	0.007	0.092
-218.596	-199.202	-0.201	-0.001
-217.582	-200.000	0.035	0.201
-216.567	-15.857	0.131	-0.083
-215.552	46.502	0.158	-0.147
-214.538	-200.000	0.014	-0.123
-213.523	33.048	-0.015	0.013
-212.509	-122.201	-0.130	-0.021
-211.494	74.121	-0.038	0.040
-210.479	203.183	0.113	0.175
-209.465	345.112	0.104	0.205
-208.450	16.937	0.115	-0.092
-207.436	-200.000	-0.025	-0.169
-206.421	110.524	0.149	-0.180
-205.406	12.672	0.216	0.167
-204.392	-10.193	0.280	0.186
-203.377	7.920	0.027	-0.020
-202.363	-200.000	0.026	0.303
-201.348	-9.356	0.305	-0.204
-200.333	169.831	0.136	-0.195
-199.319	-200.000	0.016	-0.125
-198.304	-108.704	-0.312	-0.067
-197.290	-90.212	0.059	0.017
-196.275	510.339	-0.076	0.176
-195.260	124.185	-0.157	-0.198
-194.246	-200.000	0.002	0.174
-193.231	-59.667	0.470	-0.202
-192.217	226.721	-0.238	-0.386
-191.202	9.891	-0.093	-0.071
-190.187	-70.767	0.226	0.085
-189.173	-95.315	0.101	0.027
-188.158	61.608	-0.239	0.239
-187.144	-178.034	-0.161	0.004
-186.129	-151.678	0.564	0.042
-185.114	8.918	-0.117	0.089
-184.100	-53.448	-0.160	0.074
-183.085	-61.067	-0.105	-0.044
-182.071	-23.193	0.079	0.048
-181.056	149.763	0.220	0.299
-180.042	800.000	0.046	-0.198
-179.027	164.046	-0.193	-0.272
-178.012	-58.856	-0.132	0.057
-176.998	74.527	-0.230	0.242
-175.983	-197.025	0.419	-0.003
-174.969	-24.160	-0.106	0.063
-173.954	101.199	0.162	-0.188
-172.939	-118.524	0.219	0.039
-171.925	-41.601	0.082	0.042
-170.910	-68.635	0.287	-0.111
-169.896	-200.000	0.019	0.188
-168.881	116.446	0.220	0.270
-167.866	-45.934	-0.186	-0.092
-166.852	-83.834	0.038	-0.012
-165.837	455.175	0.061	-0.136
-164.823	64.058	-0.087	-0.088
-163.808	-152.342	-0.156	0.011
-162.793	800.000	0.063	-0.269
-161.779	-200.000	-0.023	0.222
-160.764	502.953	-0.087	0.201
-159.750	-33.505	-0.072	-0.040
-158.735	-85.486	-0.242	-0.075
-157.720	10.603	-0.113	-0.086
-156.706	757.158	-0.060	-0.162
-155.691	152.465	0.114	0.156
-154.677	588.027	-0.037	-0.092
-153.662	-108.834	-0.184	-0.039
-152.647	-200.000	0.026	0.241
-151.633	648.148	0.218	-0.558
-150.618	-13.968	0.220	-0.142
-149.604	-40.880	-0.069	-0.036
-148.589	11.719	-0.156	-0.120
-147.574	204.533	0.117	-0.182
-146.560	-132.907	0.345	0.044
-145.545	38.402	-0.230	-0.205
-144.531	-115.625	0.124	0.023
-143.516	233.725	-0.279	-0.460
-142.502	-28.472	0.128	-0.074
-141.487	-200.000	0.007	-0.194
-140.472	-200.000	-0.021	-0.114
-139.458	77.516	-0.175	0.187
-138.443	800.000	-0.069	-0.226
-137.429	152.369	0.061	-0.083
-136.414	315.345	0.090	0.170
-135.399	-163.011	0.231	-0.011
-134.385	-20.067	-0.132	-0.081
-133.370	-134.219	-0.252	-0.031
-132.356	-200.000	-0.025	0.203
-131.341	729.496	0.079	-0.210
-130.326	800.000	-0.048	-0.173
-129.312	-200.000	0.017	0.106
-128.297	-28.700	0.141	0.081
-127.283	-200.000	0.014	-0.120
-126.268	27.915	0.152	-0.128
-125.253	370.738	-0.147	0.297
-124.239	-58.783	-0.128	-0.056
-123.224	-200.000	-0.005	0.142
-122.210	38.335	-0.103	-0.091
