DTS Sentinel unit serial number:	SN413079Multiplexer serial number:	ORYXHardware model number:	OX4-SRSoftware version number:	ORYX F/W v4.00 Oryx Data Collector v3.7.2.0data status	okinstallation	princeton_trtdifferential loss correction	single-endedforward channel	channel 1reverse channel	N/Adate	2019/09/10time	20:24:11forward acquisition time	60.00reverse acquisition time	0.00gamma	496.2192k internal	0.2326k external	0.2326temperature offset calibration	0.9937default loss term (dB/km)	0.3790temperature slope calibration	1.0000multiplexer offset coefficient	1.0000multiplexer slope coefficient	1.0000fibre end	0.00T internal ref (°C)	32.12T ext. ref 1 (°C)	-0.31T ext. ref 2 (°C)	25.23length (m)	temperature (°C)	Stokes	anti-Stokes-747.200	9.489	-0.137	0.105
-746.185	-179.807	-0.098	0.002
-745.171	7.463	0.182	0.137
-744.156	800.000	-0.058	-0.176
-743.142	-106.185	0.322	-0.073
-742.127	217.291	-0.130	-0.209
-741.112	294.921	-0.147	-0.270
-740.098	-97.881	0.129	-0.034
-739.083	-36.541	-0.334	0.181
-738.069	-137.162	-0.195	-0.022
-737.054	800.000	0.050	0.197
-736.039	648.968	-0.066	0.171
-735.025	-200.000	0.018	0.403
-734.010	-200.000	-0.022	0.274
-732.996	-110.831	-0.160	0.033
-731.981	2.299	0.091	0.066
-730.966	13.605	0.378	0.296
-729.952	-200.000	-0.010	0.049
-728.937	-38.395	-0.065	0.035
-727.923	92.763	0.047	-0.053
-726.908	-160.266	0.089	-0.005
-725.894	424.790	0.067	-0.145
-724.879	-119.225	0.044	-0.008
-723.864	-62.150	0.073	0.031
-722.850	-159.963	-0.293	-0.016
-721.835	800.000	-0.118	-0.391
-720.821	-200.000	-0.040	-0.319
-719.806	-200.000	0.025	-0.173
-718.791	-127.510	0.197	-0.029
-717.777	-40.475	0.293	0.153
-716.762	697.578	-0.032	-0.084
-715.748	-58.475	0.338	0.148
-714.733	-85.260	-0.442	-0.139
-713.718	-99.456	0.358	0.091
-712.704	-173.924	-0.283	-0.008
-711.689	18.222	-0.279	0.225
-710.675	321.280	-0.073	0.139
-709.660	251.628	0.054	0.092
-708.645	-28.076	-0.183	-0.107
-707.631	-110.948	-0.165	0.034
-706.616	42.233	-0.104	-0.096
-705.602	-200.000	-0.049	-0.366
-704.587	32.503	-0.189	0.164
-703.572	164.545	0.038	0.054
-702.558	-90.866	-0.306	-0.089
-701.543	-163.260	-0.245	-0.012
-700.529	-35.842	-0.052	-0.028
-699.514	-200.000	-0.023	0.312
-698.499	20.958	0.158	0.129
-697.485	800.000	0.090	-0.257
-696.470	170.649	-0.197	-0.284
-695.456	-112.047	0.161	0.033
-694.441	-13.719	-0.306	-0.199
-693.426	-200.000	-0.030	0.226
-692.412	-200.000	-0.001	0.020
-691.397	-87.728	-0.023	-0.007
-690.383	101.681	-0.192	-0.225
-689.368	-200.000	-0.045	-0.230
-688.354	-200.000	0.022	-0.370
-687.339	-97.817	0.144	-0.037
-686.324	-43.563	0.138	0.070
-685.310	-37.342	0.168	-0.090
-684.295	292.702	-0.130	-0.239
-683.281	-140.050	0.138	0.015
-682.266	-144.309	0.451	0.042
-681.251	-17.753	0.029	0.018
-680.237	70.154	-0.050	-0.052
-679.222	-64.943	0.134	-0.054
-678.208	-178.733	-0.101	-0.002
-677.193	800.000	-0.050	0.163
-676.178	209.724	-0.142	0.224
-675.164	163.314	0.130	-0.183
-674.149	-200.000	-0.014	-0.146
-673.135	-122.115	-0.250	-0.041
-672.120	117.567	-0.149	0.185
-671.105	123.431	-0.076	0.096
-670.091	-200.000	0.067	-0.297
-669.076	-75.883	-0.103	0.037
-668.062	163.385	0.279	-0.394
-667.047	66.478	-0.147	0.150
-666.032	26.356	0.150	0.126
-665.018	395.048	0.091	-0.191
-664.003	18.476	-0.112	-0.090
-662.989	-65.231	-0.218	0.088
-661.974	-52.014	-0.234	0.109
-660.959	15.477	0.172	-0.136
-659.945	296.939	-0.171	-0.316
-658.930	-200.000	-0.020	-0.195
-657.916	-200.000	-0.017	-0.139
-656.901	-200.000	-0.004	0.162
-655.886	-150.806	0.192	0.015
-654.872	22.828	0.160	-0.132
-653.857	200.304	0.103	-0.159
-652.843	-174.703	0.190	0.005
-651.828	-66.721	-0.085	-0.034
-650.814	98.463	-0.192	-0.223
-649.799	800.000	0.027	0.076
-648.784	35.656	0.079	-0.070
-647.770	-59.592	-0.098	0.042
-646.755	107.194	0.034	-0.040
-645.741	44.120	-0.194	-0.179
-644.726	131.874	0.035	-0.045
-643.711	33.651	-0.185	0.162
-642.697	82.578	-0.134	-0.146
-641.682	800.000	0.017	-0.057
-640.668	122.078	-0.163	0.204
-639.653	-200.000	-0.006	0.157
-638.638	-49.864	0.431	0.205
-637.624	-200.000	0.019	-0.535
-636.609	-59.429	-0.191	0.082
-635.595	40.510	-0.210	0.190
-634.580	-200.000	-0.053	-0.318
-633.565	42.155	0.340	0.310
-632.551	-105.114	0.205	-0.047
-631.536	-86.172	0.230	0.071
-630.522	-164.170	-0.364	-0.017
-629.507	-93.490	-0.108	0.030
-628.492	-10.062	-0.087	0.058
-627.478	-47.514	-0.216	0.106
-626.463	16.492	0.137	0.109
-625.449	-62.247	0.089	-0.037
-624.434	-32.511	-0.183	-0.103
-623.419	428.958	0.109	0.237
-622.405	-65.745	0.161	-0.065
-621.390	437.689	0.052	0.115
-620.376	-200.000	-0.018	-0.149
-619.361	692.978	0.067	-0.176
-618.346	-133.193	-0.084	-0.011
-617.332	-100.073	-0.222	0.056
-616.317	24.065	0.143	-0.118
-615.303	800.000	0.139	-0.422
-614.288	174.883	-0.029	-0.042
-613.273	48.628	-0.117	0.110
-612.259	484.306	-0.060	-0.137
-611.244	800.000	0.052	0.182
-610.230	-44.873	0.302	-0.151
-609.215	23.089	0.113	0.093
-608.201	87.466	-0.159	0.176
-607.186	-124.840	0.144	-0.022
-606.171	-102.871	-0.225	0.054
-605.157	-17.772	0.094	-0.059
-604.142	-200.000	-0.027	-0.437
-603.128	-200.000	-0.021	0.211
-602.113	158.189	0.094	-0.130
-601.098	221.120	-0.106	-0.170
-600.084	-58.026	-0.161	-0.070
-599.069	179.763	0.192	-0.282
-598.055	342.639	0.224	0.439
-597.040	-153.467	-0.165	0.011
-596.025	800.000	-0.019	0.057
-595.011	-2.984	-0.143	0.100
-593.996	146.498	0.161	0.217
-592.982	72.942	-0.154	-0.162
-591.967	-94.216	-0.190	0.052
-590.952	800.000	0.029	0.091
-589.938	570.741	-0.066	-0.162
-588.923	-93.084	-0.042	-0.012
-587.909	451.308	-0.081	-0.179
-586.894	10.669	0.251	0.192
-585.879	-200.000	0.035	0.183
-584.865	-79.417	0.138	0.047
-583.850	-147.109	0.096	0.008
-582.836	-200.000	0.020	-0.338
-581.821	9.153	-0.265	-0.200
-580.806	-200.000	-0.004	-0.273
-579.792	-200.000	-0.025	0.150
-578.777	-12.431	0.285	-0.187
-577.763	-71.819	0.176	0.066
-576.748	800.000	-0.065	-0.192
-575.733	464.063	0.136	-0.304
-574.719	800.000	-0.079	0.325
-573.704	-5.411	0.326	-0.224
-572.690	-131.553	-0.277	0.037
-571.675	-156.194	0.307	0.019
-570.661	-200.000	0.015	-0.193
-569.646	129.938	0.120	-0.154
-568.631	50.882	-0.070	0.066
-567.617	180.403	0.052	0.076
-566.602	-62.812	-0.257	0.107
-565.588	-19.160	0.114	-0.071
-564.573	800.000	-0.055	-0.156
-563.558	67.884	-0.055	-0.057
-562.544	52.634	0.177	-0.170
-561.529	-65.496	-0.159	0.064
-560.515	153.780	0.225	0.309
-559.500	-121.189	0.236	0.040
-558.485	-101.190	0.297	-0.073
-557.471	-200.000	0.020	-0.124
-556.456	56.106	-0.306	0.297
-555.442	-200.000	0.035	0.210
-554.427	-149.737	-0.137	-0.011
-553.412	800.000	-0.040	0.174
-552.398	4.816	-0.087	-0.064
-551.383	-80.478	-0.231	-0.077
-550.369	-6.942	-0.218	0.148
-549.354	800.000	0.080	-0.278
-548.339	-186.038	0.117	-0.002
-547.325	780.913	0.150	-0.411
-546.310	-69.710	-0.312	0.119
-545.296	17.039	0.191	-0.152
-544.281	193.182	-0.085	-0.129
-543.266	30.722	-0.158	-0.136
-542.252	800.000	0.084	0.241
-541.237	325.026	0.067	0.127
-540.223	330.666	-0.117	0.226
-539.208	-134.160	-0.529	0.065
-538.193	646.950	-0.057	-0.144
-537.179	-103.334	-0.206	-0.049
-536.164	-89.045	0.147	0.044
-535.150	-67.068	0.375	0.148
-534.135	-200.000	0.022	-0.276
-533.121	-137.239	-0.254	-0.029
-532.106	800.000	0.068	-0.271
-531.091	-83.866	0.115	-0.037
-530.077	191.044	0.226	-0.340
-529.062	-200.000	-0.003	-0.322
-528.048	-110.364	0.225	0.047
-527.033	-200.000	0.004	0.048
-526.018	-61.356	-0.173	-0.073
-525.004	191.125	-0.154	-0.231
-523.989	140.992	-0.257	0.340
-522.975	19.250	-0.131	-0.105
-521.960	168.449	0.115	-0.163
-520.945	6.734	0.216	-0.160
-519.931	-137.184	-0.388	0.044
-518.916	125.061	-0.119	0.150
-517.902	121.453	0.050	-0.062
-516.887	-200.000	-0.012	0.325
-515.872	-85.715	-0.161	0.050
-514.858	-91.450	-0.099	0.028
-513.843	-27.930	-0.227	-0.131
-512.829	-200.000	0.019	-0.167
-511.814	-44.682	0.047	0.024
-510.799	-68.418	-0.166	0.064
-509.785	-200.000	0.034	-0.203
-508.770	-119.999	-0.223	-0.038
-507.756	-4.298	0.095	0.066
-506.741	9.632	0.169	0.128
-505.726	-131.920	-0.240	0.031
-504.712	800.000	-0.024	-0.094
-503.697	-200.000	0.041	-0.237
-502.683	-200.000	0.000	-0.269
-501.668	113.160	-0.296	0.358
-500.653	10.847	-0.307	0.234
-499.639	67.813	0.091	0.093
-498.624	-100.185	0.207	0.051
-497.610	-145.527	0.235	-0.021
-496.595	-200.000	-0.029	0.204
-495.581	-48.099	-0.198	0.095
-494.566	-107.154	-0.478	0.105
-493.551	-200.000	-0.025	0.160
-492.537	-200.000	0.011	0.104
-491.522	164.894	-0.065	0.092
-490.508	-200.000	0.071	0.412
-489.493	155.367	-0.235	0.323
-488.478	-200.000	-0.045	0.443
-487.464	0.228	0.066	-0.047
-486.449	-200.000	-0.026	-0.249
-485.435	-200.000	0.029	-0.215
-484.420	112.629	-0.153	0.185
-483.405	-88.689	-0.148	0.044
-482.391	-17.848	-0.239	0.150
-481.376	-200.000	0.008	-0.219
-480.362	-4.813	0.206	-0.141
-479.347	-24.555	-0.094	-0.056
-478.332	-116.510	-0.184	0.034
-477.318	-200.000	0.113	-0.000
-476.303	-176.795	-0.523	0.013
-475.289	-34.097	0.160	0.088
-474.274	-87.181	-0.219	0.066
-473.259	-118.913	-0.265	-0.046
-472.245	-78.548	0.281	0.096
-471.230	800.000	0.111	0.334
-470.216	-5.355	0.048	-0.033
-469.201	145.851	0.177	-0.237
-468.186	35.853	0.196	-0.172
-467.172	86.961	0.105	-0.116
-466.157	-200.000	0.076	-0.355
-465.143	-200.000	-0.016	0.157
-464.128	-200.000	-0.020	-0.156
-463.113	219.446	-0.038	-0.060
-462.099	-200.000	0.060	-0.285
-461.084	153.732	0.119	0.163
-460.070	-200.000	0.058	-0.289
-459.055	-26.766	-0.035	-0.020
-458.040	179.603	-0.109	0.159
-457.026	-200.000	-0.017	-0.528
-456.011	32.239	0.326	-0.281
-454.997	-44.333	-0.102	0.051
-453.982	-43.559	0.351	-0.177
-452.968	85.054	0.183	-0.200
-451.953	30.026	-0.244	0.208
-450.938	-103.060	-0.201	0.048
-449.924	123.700	0.227	-0.284
-448.909	662.246	0.071	-0.183
-447.895	75.272	-0.043	-0.046
-446.880	800.000	0.052	-0.159
-445.865	426.394	0.073	0.156
-444.851	800.000	-0.064	-0.180
-443.836	406.264	0.173	-0.364
-442.822	800.000	0.031	0.092
-441.807	-56.176	0.234	0.104
-440.792	-108.320	-0.131	0.028
-439.778	-82.222	-0.152	-0.049
-438.763	378.468	0.063	0.128
-437.749	-119.306	-0.143	0.025
-436.734	710.290	-0.063	-0.167
-435.719	-79.997	-0.152	0.051
-434.705	108.854	0.150	0.179
-433.690	-200.000	0.016	0.193
-432.676	-26.950	0.048	0.028
-431.661	800.000	0.080	0.228
-430.646	606.134	0.090	-0.223
-429.632	159.402	-0.260	0.361
-428.617	-93.829	-0.019	0.005
-427.603	42.089	-0.233	-0.210
-426.588	800.000	0.101	-0.343
-425.573	-112.178	-0.140	0.028
-424.559	21.276	-0.277	0.224
-423.544	221.906	-0.157	-0.251
-422.530	-77.115	0.184	-0.064
-421.515	-200.000	0.056	-0.335
-420.500	-71.433	-0.093	0.035
-419.486	-200.000	-0.009	0.049
-418.471	594.341	-0.072	0.178
-417.457	-163.594	-0.127	0.006
-416.442	-200.000	-0.023	-0.271
-415.428	191.381	0.118	-0.176
-414.413	-4.682	-0.147	0.101
-413.398	-108.368	-0.253	0.054
-412.384	-38.338	-0.061	0.032
-411.369	54.447	-0.023	0.022
-410.355	382.794	0.122	0.250
-409.340	25.575	-0.378	0.313
-408.325	14.918	0.086	-0.067
-407.311	-19.302	0.199	0.123
-406.296	197.766	-0.177	0.269
-405.282	195.770	0.118	-0.179
-404.267	-200.000	-0.031	-0.261
-403.252	-200.000	0.003	-0.170
-402.238	181.980	-0.023	0.034
-401.223	-200.000	0.007	0.238
-400.209	-76.157	0.308	0.108
-399.194	114.152	0.200	-0.242
-398.179	417.872	-0.106	-0.225
-397.165	-162.205	0.273	-0.014
-396.150	-82.008	-0.130	-0.042
-395.136	-95.673	0.161	0.043
-394.121	-49.568	0.134	0.064
-393.106	5.624	-0.303	-0.222
-392.092	13.203	0.073	0.056
-391.077	213.677	0.016	-0.025
-390.063	800.000	0.108	0.351
-389.048	-40.105	0.291	0.151
-388.033	71.837	-0.013	0.013
-387.019	65.086	-0.092	-0.093
-386.004	-114.051	-0.162	0.031
-384.990	800.000	-0.081	0.321
-383.975	128.686	0.208	-0.264
-382.960	-32.569	-0.111	-0.062
-381.946	-200.000	0.010	-0.201
-380.931	-103.757	0.131	0.030
-379.917	-200.000	0.036	-0.176
-378.902	130.518	0.208	-0.265
-377.888	800.000	0.044	0.164
-376.873	-44.775	0.283	0.140
-375.858	-200.000	-0.005	-0.052
-374.844	-61.573	0.328	0.137
-373.829	-200.000	-0.014	-0.086
-372.815	74.404	0.147	0.153
-371.800	485.636	0.148	0.335
-370.785	41.154	0.101	-0.091
-369.771	-200.000	-0.033	0.199
-368.756	83.719	0.193	-0.209
-367.742	14.748	-0.023	-0.018
-366.727	135.517	-0.106	-0.137
-365.712	-113.824	0.139	0.027
-364.698	-200.000	-0.032	0.291
-363.683	414.366	0.160	0.339
-362.669	52.935	-0.115	0.109
-361.654	418.822	-0.079	0.168
-360.639	-6.671	-0.145	0.098
-359.625	128.094	-0.052	0.065
-358.610	-127.348	0.258	0.037
-357.596	91.561	0.300	-0.335
-356.581	3.236	-0.013	0.009
-355.566	-133.143	0.149	0.019
-354.552	379.706	0.030	-0.060
-353.537	-200.000	-0.010	0.359
-352.523	-120.569	0.217	0.037
-351.508	702.616	0.143	0.375
-350.493	-142.257	0.299	-0.029
-349.479	-200.000	-0.019	0.150
-348.464	-92.372	-0.075	0.021
-347.450	44.838	0.036	-0.033
-346.435	-200.000	0.030	0.255
-345.420	49.573	-0.251	0.235
-344.406	-200.000	0.026	-0.149
-343.391	92.959	0.273	0.307
-342.377	329.885	0.060	-0.114
-341.362	753.162	-0.038	-0.101
-340.348	-200.000	-0.007	0.111
-339.333	9.569	0.115	-0.087
-338.318	651.348	-0.056	0.143
-337.304	-167.427	-0.342	-0.014
-336.289	73.119	-0.082	0.085
-335.275	282.204	-0.027	0.047
-334.260	800.000	-0.017	0.060
-333.245	800.000	0.065	0.244
-332.231	-144.860	0.149	0.014
-331.216	-63.992	-0.121	0.049
-330.202	-67.613	-0.536	0.208
-329.187	-200.000	-0.001	-0.294
-328.172	82.430	0.171	-0.184
-327.158	800.000	-0.046	-0.147
-326.143	19.355	-0.102	-0.081
-325.129	230.098	0.172	-0.279
-324.114	21.535	-0.073	0.059
-323.099	74.450	-0.272	-0.283
-322.085	78.681	-0.080	0.085
-321.070	148.084	0.127	0.170
-320.056	44.388	0.338	0.308
-319.041	229.331	0.072	0.116
-318.026	-200.000	-0.066	0.297
-317.012	651.456	-0.160	-0.407
-315.997	800.000	0.058	-0.189
-314.983	95.629	-0.191	0.216
-313.968	236.563	-0.036	0.058
-312.953	-44.209	0.287	-0.143
-311.939	-145.551	-0.243	0.022
-310.924	800.000	-0.082	0.325
-309.910	-200.000	-0.000	0.173
-308.895	-103.865	-0.193	-0.045
-307.880	729.550	0.058	0.153
-306.866	-200.000	-0.004	0.016
-305.851	-61.108	-0.055	-0.023
-304.837	3.759	0.039	0.028
-303.822	96.355	-0.227	0.257
-302.807	192.813	0.179	0.267
-301.793	188.026	-0.159	0.235
-300.778	-115.811	-0.233	-0.043
-299.764	-125.043	0.095	0.014
-298.749	274.354	0.094	-0.165
-297.735	-200.000	0.002	0.037
-296.720	344.047	-0.080	-0.155
-295.705	-67.090	-0.298	0.116
-294.691	-115.630	0.459	0.085
-293.676	48.921	-0.159	-0.148
-292.662	800.000	0.016	-0.068
-291.647	-33.078	0.173	-0.095
-290.632	552.658	0.015	-0.036
-289.618	-200.000	0.004	-0.083
-288.603	169.755	-0.288	-0.408
-287.589	491.723	0.021	0.047
-286.574	88.609	-0.150	-0.165
-285.559	58.463	0.199	-0.194
-284.545	26.328	0.153	0.127
-283.530	163.468	-0.299	0.417
-282.516	-200.000	0.057	0.311
-281.501	29.369	0.258	-0.217
-280.486	800.000	0.020	-0.079
-279.472	-18.090	-0.111	-0.069
-278.457	800.000	-0.118	0.349
-277.443	-200.000	-0.010	0.170
-276.428	16.081	0.122	0.095
-275.413	-200.000	0.015	0.116
-274.399	-38.430	-0.205	-0.107
-273.384	800.000	0.004	0.018
-272.370	-20.673	-0.221	0.135
-271.355	800.000	-0.044	0.150
-270.340	49.662	-0.215	-0.201
-269.326	4.774	-0.202	-0.147
-268.311	-200.000	0.021	-0.193
-267.297	-126.426	-0.197	0.029
-266.282	-137.758	-0.263	-0.029
-265.267	-200.000	0.014	-0.282
-264.253	60.998	-0.224	-0.220
-263.238	-103.217	-0.136	0.032
-262.224	-200.000	0.018	0.271
-261.209	-149.798	0.325	-0.025
-260.195	-75.927	0.349	-0.122
-259.180	507.777	-0.109	-0.250
-258.165	-80.456	0.103	-0.034
-257.151	-90.748	0.404	0.115
-256.136	-25.743	0.297	0.173
-255.122	83.930	-0.235	-0.254
-254.107	368.070	0.116	0.231
-253.092	-80.825	-0.297	0.098
-252.078	-154.503	0.170	-0.011
-251.063	332.825	0.256	0.489
-250.049	-200.000	0.023	0.136
-249.034	-111.085	0.404	0.082
-248.019	-68.181	-0.093	-0.036
-247.005	800.000	0.070	0.238
-245.990	288.041	-0.092	0.164
-244.976	16.196	0.052	-0.040
-243.961	-141.437	0.243	-0.024
-242.946	189.061	-0.015	-0.021
-241.932	49.945	0.209	-0.195
-240.917	10.715	0.159	0.120
-239.903	-200.000	-0.030	-0.265
-238.888	-200.000	0.418	-0.002
-237.873	49.481	0.282	0.263
-236.859	-200.000	-0.021	0.120
-235.844	-65.325	0.026	0.010
-234.830	800.000	0.056	-0.202
-233.815	292.244	0.177	-0.319
-232.800	-200.000	0.044	-0.372
-231.786	207.976	0.182	-0.280
-230.771	800.000	-0.102	-0.378
-229.757	-88.701	0.197	0.058
-228.742	437.990	-0.059	0.128
-227.727	-6.723	-0.127	-0.085
-226.713	-200.000	0.045	0.238
-225.698	-200.000	-0.025	0.167
-224.684	128.807	0.222	0.279
-223.669	-31.824	-0.157	0.087
-222.655	-164.867	0.019	-0.001
-221.640	800.000	-0.074	0.313
-220.625	74.951	0.358	0.373
-219.611	-19.573	0.302	0.185
-218.596	800.000	-0.033	0.142
-217.582	14.997	-0.169	-0.131
-216.567	800.000	-0.074	0.263
-215.552	81.154	0.060	0.064
-214.538	154.482	-0.031	0.042
-213.523	-200.000	-0.015	-0.099
-212.509	-116.674	0.135	-0.025
-211.494	-200.000	-0.008	0.092
-210.479	-200.000	0.036	-0.240
-209.465	145.364	-0.129	-0.171
-208.450	36.167	0.041	-0.035
-207.436	91.105	-0.246	-0.273
-206.421	-200.000	0.016	-0.080
-205.406	-25.634	0.190	0.111
-204.392	-107.629	-0.308	0.066
-203.377	-173.044	0.130	-0.004
-202.363	-93.333	-0.377	0.103
-201.348	-64.711	-0.298	-0.119
-200.333	800.000	-0.067	-0.258
-199.319	800.000	0.137	-0.384
-198.304	255.205	-0.062	-0.105
-197.290	-64.098	-0.263	0.106
-196.275	-113.663	-0.370	0.071
-195.260	288.189	0.061	0.109
-194.246	-102.611	0.020	0.005
-193.231	232.588	0.038	0.062
-192.217	-200.000	0.003	0.177
-191.202	-117.898	0.070	0.012
-190.187	143.999	-0.051	-0.067
-189.173	371.501	0.149	0.298
-188.158	78.000	0.177	-0.186
-187.144	-59.240	0.168	-0.071
-186.129	-21.154	-0.312	0.189
-185.114	-200.000	-0.027	0.232
-184.100	-26.502	0.140	-0.081
-183.085	81.477	0.129	-0.138
-182.071	-20.911	0.175	-0.106
-181.056	-200.000	-0.053	-0.252
-180.042	-200.000	0.023	-0.231
-179.027	-112.932	0.197	0.038
-178.012	-45.625	0.218	-0.107
-176.998	156.613	-0.189	-0.258
-175.983	-200.000	0.022	-0.171
-174.969	-200.000	0.001	-0.104
-173.954	-176.748	-0.233	0.006
-172.939	-200.000	0.024	0.468
-171.925	-74.886	-0.166	-0.059
-170.910	-128.503	-0.370	-0.052
-169.896	-78.488	0.273	0.092
-168.881	-200.000	0.048	-0.285
-167.866	97.386	0.146	0.165
-166.852	-37.111	0.111	-0.059
-165.837	-14.593	0.235	-0.149
-164.823	-185.879	0.269	-0.004
-163.808	50.151	-0.344	0.320
-162.793	-200.000	0.029	-0.326
-161.779	49.364	-0.162	0.150
-160.764	-124.051	-0.128	-0.020
-159.750	-200.000	-0.005	0.136
-158.735	126.522	0.185	-0.230
-157.720	-2.032	0.270	-0.187
-156.706	800.000	0.088	0.336
-155.691	89.860	-0.077	-0.084
-154.677	38.881	-0.257	0.226
-153.662	-60.985	-0.091	0.038
-152.647	-86.281	-0.253	0.077
-151.633	100.593	-0.147	-0.168
-150.618	-107.329	0.362	0.078
-149.604	-200.000	-0.022	-0.290
-148.589	800.000	0.044	0.136
-147.574	-200.000	0.005	-0.121
-146.560	-147.828	-0.055	0.005
-145.545	13.352	0.115	-0.088
-144.531	-114.335	-0.141	-0.027
-143.516	-48.195	0.333	-0.158
-142.502	29.146	0.029	0.024
-141.487	638.971	0.149	-0.373
-140.472	151.259	-0.176	0.236
-139.458	-52.525	0.048	-0.022
-138.443	-138.544	0.196	-0.021
-137.429	-165.659	-0.375	-0.016
-136.414	110.644	0.183	-0.217
-135.399	-15.942	0.283	0.178
-134.385	-148.176	-0.187	0.015
-133.370	66.322	0.254	-0.254
-132.356	-138.392	0.066	-0.007
-131.341	97.756	0.178	-0.202
-130.326	41.090	0.109	0.097
-129.312	29.828	0.255	-0.214
-128.297	669.914	-0.027	-0.069
-127.283	-200.000	0.003	-0.112
-126.268	322.379	0.100	0.188
-125.253	527.494	0.137	0.318
-124.239	-200.000	-0.070	0.371
-123.224	-151.215	-0.148	0.011
-122.210	-114.596	-0.222	0.042
-121.195	289.166	-0.127	0.226
