DTS Sentinel unit serial number:	SN413079Multiplexer serial number:	ORYXHardware model number:	OX4-SRSoftware version number:	ORYX F/W v4.00 Oryx Data Collector v3.7.2.0data status	okinstallation	princeton_trtdifferential loss correction	single-endedforward channel	channel 1reverse channel	N/Adate	2019/09/10time	17:32:11forward acquisition time	60.00reverse acquisition time	0.00gamma	496.2192k internal	0.2299k external	0.2299temperature offset calibration	0.9925default loss term (dB/km)	0.3790temperature slope calibration	1.0000multiplexer offset coefficient	1.0000multiplexer slope coefficient	1.0000fibre end	0.00T internal ref (°C)	37.66T ext. ref 1 (°C)	-0.35T ext. ref 2 (°C)	31.69length (m)	temperature (°C)	Stokes	anti-Stokes-747.200	-200.000	-0.021	-0.312
-746.185	-42.160	0.334	-0.175
-745.171	-53.035	-0.081	-0.038
-744.156	-115.742	-0.307	0.059
-743.142	94.618	0.040	-0.046
-742.127	-200.000	-0.011	0.329
-741.112	-195.204	0.368	0.003
-740.098	100.865	-0.204	0.241
-739.083	-200.000	-0.029	0.141
-738.069	54.093	-0.143	-0.140
-737.054	-200.000	0.025	-0.125
-736.039	-200.000	-0.022	-0.235
-735.025	-55.477	0.488	-0.223
-734.010	-130.212	-0.152	-0.021
-732.996	251.936	-0.113	0.197
-731.981	144.875	-0.127	0.173
-730.966	800.000	0.056	-0.199
-729.952	-97.146	-0.290	0.077
-728.937	-39.782	0.088	0.047
-727.923	679.738	-0.143	0.380
-726.908	-152.376	0.210	-0.015
-725.894	691.731	-0.114	0.304
-724.879	706.727	0.109	0.294
-723.864	187.546	-0.043	-0.065
-722.850	-44.437	-0.098	-0.050
-721.835	800.000	0.084	-0.344
-720.821	438.782	-0.093	-0.206
-719.806	366.810	-0.164	-0.337
-718.791	-200.000	-0.023	-0.151
-717.777	193.020	-0.123	-0.189
-716.762	-15.081	-0.221	-0.144
-715.748	-200.000	-0.011	0.210
-714.733	-26.508	-0.068	-0.040
-713.718	2.861	0.326	-0.241
-712.704	89.558	-0.016	-0.018
-711.689	-134.858	0.283	-0.035
-710.675	-14.646	-0.210	0.138
-709.660	-5.638	0.464	0.324
-708.645	-14.176	-0.209	-0.137
-707.631	218.875	-0.116	0.189
-706.616	-200.000	0.005	-0.049
-705.602	23.054	0.160	0.134
-704.587	155.707	0.127	-0.178
-703.572	800.000	0.136	-0.433
-702.558	192.290	0.210	-0.323
-701.543	364.340	-0.076	-0.155
-700.529	-200.000	0.019	-0.205
-699.514	-40.973	0.285	-0.150
-698.499	-200.000	-0.020	-0.123
-697.485	211.099	0.135	-0.217
-696.470	404.959	0.078	-0.168
-695.456	-14.826	-0.089	0.058
-694.441	-17.227	0.116	-0.075
-693.426	-151.296	0.510	0.039
-692.412	-92.606	0.101	-0.029
-691.397	-67.335	-0.211	-0.085
-690.383	-22.372	-0.135	-0.083
-689.368	-200.000	0.019	-0.093
-688.354	41.624	0.195	0.180
-687.339	80.703	-0.148	-0.162
-686.324	185.404	0.152	-0.230
-685.310	624.531	-0.078	-0.199
-684.295	-70.421	-0.252	-0.097
-683.281	586.172	-0.140	-0.352
-682.266	432.453	0.085	-0.188
-681.251	223.665	0.121	-0.199
-680.237	43.853	-0.117	-0.109
-679.222	-10.569	-0.257	-0.173
-678.208	-200.000	-0.002	-0.288
-677.193	800.000	-0.012	0.053
-676.178	800.000	0.019	-0.077
-675.164	358.540	0.092	0.187
-674.149	183.961	0.153	-0.230
-673.135	115.239	0.191	-0.238
-672.120	-134.167	0.212	-0.027
-671.105	-133.225	0.041	-0.005
-670.091	-139.722	-0.190	0.021
-669.076	-8.245	-0.224	-0.154
-668.062	213.974	-0.141	0.228
-667.047	-200.000	-0.050	-0.238
-666.032	87.553	0.175	-0.197
-665.018	-114.280	-0.337	0.066
-664.003	800.000	0.002	-0.005
-662.989	96.725	-0.332	-0.386
-661.974	-58.518	-0.411	0.182
-660.959	-84.003	0.302	-0.098
-659.945	-10.295	-0.317	-0.214
-658.930	-47.957	0.070	-0.035
-657.916	-200.000	-0.016	-0.285
-656.901	153.007	-0.115	0.159
-655.886	-200.000	-0.055	-0.254
-654.872	41.958	-0.088	0.081
-653.857	-79.623	-0.182	0.063
-652.843	375.309	-0.129	-0.267
-651.828	512.896	0.114	0.271
-650.814	28.243	-0.269	-0.231
-649.799	-178.437	-0.044	0.001
-648.784	800.000	0.081	0.231
-647.770	-75.555	0.348	0.126
-646.755	-200.000	-0.009	0.208
-645.741	-165.086	-0.372	0.017
-644.726	800.000	-0.080	-0.226
-643.711	221.868	0.118	-0.193
-642.697	97.963	0.127	-0.148
-641.682	-171.601	0.168	0.006
-640.668	800.000	-0.031	0.097
-639.653	289.905	0.081	0.149
-638.638	289.294	0.060	0.111
-637.624	198.011	-0.087	0.135
-636.609	4.970	-0.118	0.088
-635.595	-200.000	-0.038	-0.317
-634.580	-116.353	-0.130	0.024
-633.565	-111.585	-0.217	0.045
-632.551	304.068	0.109	-0.206
-631.536	-200.000	0.037	-0.177
-630.522	695.192	0.032	0.085
-629.507	-200.000	0.012	0.099
-628.492	800.000	-0.130	0.389
-627.478	-200.000	0.008	0.157
-626.463	191.143	-0.110	-0.168
-625.449	28.752	0.074	-0.064
-624.434	259.532	0.123	0.216
-623.419	-200.000	-0.021	-0.195
-622.405	-145.615	-0.202	-0.018
-621.390	800.000	-0.077	-0.239
-620.376	5.816	0.172	0.129
-619.361	331.812	-0.105	-0.205
-618.346	98.841	0.029	-0.034
-617.332	53.594	0.138	0.135
-616.317	-136.899	0.189	0.022
-615.303	-34.380	0.199	-0.111
-614.288	-43.886	-0.281	-0.143
-613.273	-200.000	0.026	0.149
-612.259	111.762	0.368	-0.451
-611.244	-200.000	0.014	-0.092
-610.230	-116.892	-0.256	0.048
-609.215	-147.028	-0.227	-0.020
-608.201	179.573	0.130	0.193
-607.186	431.282	0.070	0.153
-606.171	293.351	0.062	0.115
-605.157	-183.954	-0.130	-0.002
-604.142	-181.925	-0.339	0.007
-603.128	-155.167	-0.244	-0.016
-602.113	800.000	0.099	-0.382
-601.098	344.123	0.131	0.262
-600.084	-134.856	-0.286	-0.035
-599.069	-200.000	0.001	0.247
-598.055	50.065	-0.164	0.157
-597.040	-200.000	0.019	0.293
-596.025	-162.186	0.109	0.006
-595.011	35.853	-0.093	-0.083
-593.996	-124.110	0.248	0.040
-592.982	-101.106	0.221	-0.055
-591.967	800.000	0.021	0.075
-590.952	-190.395	0.134	-0.001
-589.938	-3.693	-0.228	-0.161
-588.923	22.478	-0.026	0.022
-587.909	81.000	0.242	-0.265
-586.894	-169.290	-0.334	0.012
-585.879	13.891	0.296	0.234
-584.865	-15.970	-0.180	0.116
-583.850	106.692	-0.268	0.323
-582.836	-171.364	0.416	0.014
-581.821	-32.412	-0.226	0.128
-580.806	-52.555	0.179	-0.084
-579.792	800.000	-0.030	-0.085
-578.777	800.000	0.048	0.143
-577.763	-200.000	-0.038	0.249
-576.748	291.427	0.200	-0.368
-575.733	711.523	-0.094	-0.252
-574.719	67.339	0.161	-0.166
-573.704	800.000	-0.067	-0.248
-572.690	-54.541	0.170	-0.078
-571.675	-49.327	0.062	-0.030
-570.661	351.449	-0.098	0.197
-569.646	2.587	-0.246	0.181
-568.631	112.778	-0.074	-0.091
-567.617	-27.681	0.560	-0.330
-566.602	70.771	0.116	0.121
-565.588	392.950	0.040	-0.085
-564.573	-200.000	0.022	-0.152
-563.558	-17.882	0.106	0.067
-562.544	-33.401	-0.018	-0.010
-561.529	-200.000	-0.000	0.085
-560.515	-137.512	0.048	0.006
-559.500	-94.909	-0.341	0.094
-558.485	115.464	-0.090	-0.111
-557.471	800.000	-0.024	0.075
-556.456	3.764	0.282	0.209
-555.442	33.725	0.268	-0.236
-554.427	277.803	-0.055	-0.099
-553.412	-149.660	-0.069	0.006
-552.398	35.185	0.234	-0.208
-551.383	-114.309	0.259	-0.051
-550.369	-124.778	0.431	0.067
-549.354	189.989	-0.168	-0.256
-548.339	-161.363	-0.114	0.006
-547.325	800.000	0.081	0.296
-546.310	-120.032	0.538	-0.093
-545.296	-113.689	-0.039	-0.008
-544.281	-86.980	-0.394	0.122
-543.266	54.371	0.086	-0.084
-542.252	81.230	0.154	-0.168
-541.237	-58.016	0.143	-0.063
-540.223	-200.000	0.028	-0.159
-539.208	-81.027	0.291	0.098
-538.193	-46.974	-0.072	-0.036
-537.179	-200.000	-0.009	0.249
-536.164	-141.576	0.167	-0.017
-535.150	13.637	0.117	-0.092
-534.135	385.808	-0.071	-0.148
-533.121	463.887	-0.037	-0.083
-532.106	57.143	0.068	-0.067
-531.091	69.823	0.149	0.156
-530.077	800.000	0.028	0.095
-529.062	-156.525	0.375	-0.024
-528.048	162.844	-0.093	-0.132
-527.033	-155.181	-0.303	-0.020
-526.018	-200.000	0.008	0.071
-525.004	800.000	-0.116	-0.333
-523.989	-27.818	-0.124	-0.073
-522.975	189.752	0.050	-0.077
-521.960	270.603	-0.168	-0.299
-520.945	800.000	0.073	-0.217
-519.931	-8.622	-0.049	-0.033
-518.916	800.000	0.098	-0.320
-517.902	-200.000	-0.026	-0.253
-516.887	104.766	0.132	-0.157
-515.872	-88.270	-0.137	0.042
-514.858	-200.000	-0.023	-0.203
-513.843	-73.161	0.248	-0.092
-512.829	-200.000	-0.011	-0.260
-511.814	131.019	-0.131	0.170
-510.799	-200.000	0.014	0.087
-509.785	-59.072	-0.316	-0.138
-508.770	99.563	-0.138	-0.161
-507.756	-81.523	-0.458	0.152
-506.741	800.000	0.074	0.276
-505.726	64.954	-0.274	0.279
-504.712	-15.051	-0.198	0.128
-503.697	-35.371	0.093	0.051
-502.683	-200.000	0.039	0.324
-501.668	262.537	-0.265	-0.464
-500.653	57.269	-0.076	-0.075
-499.639	-18.826	0.280	0.176
-498.624	-58.321	-0.189	0.083
-497.610	181.652	0.181	-0.269
-496.595	-26.686	0.147	-0.087
-495.581	-75.481	-0.153	-0.055
-494.566	800.000	0.063	-0.187
-493.551	-87.894	-0.109	-0.033
-492.537	-23.547	-0.157	0.095
-491.522	800.000	0.039	-0.132
-490.508	36.480	0.199	-0.178
-489.493	-86.394	0.193	0.060
-488.478	164.669	-0.161	-0.229
-487.464	-162.302	0.389	-0.020
-486.449	-200.000	0.149	0.000
-485.435	-127.225	0.157	0.023
-484.420	51.443	0.271	-0.260
-483.405	-200.000	0.029	-0.364
-482.391	-149.056	0.370	-0.030
-481.376	-200.000	-0.001	0.379
-480.362	-96.910	-0.374	-0.099
-479.347	-74.456	-0.389	-0.142
-478.332	800.000	-0.051	-0.168
-477.318	-38.079	0.353	0.189
-476.303	91.280	-0.247	-0.281
-475.289	507.473	0.097	0.227
-474.274	-33.424	-0.186	0.104
-473.259	23.720	0.154	-0.128
-472.245	78.263	-0.097	-0.105
-471.230	587.169	-0.027	-0.067
-470.216	704.514	-0.076	-0.204
-469.201	-96.617	0.149	0.040
-468.186	-107.846	0.351	-0.077
-467.172	-91.350	-0.150	0.043
-466.157	-56.917	-0.123	-0.055
-465.143	34.055	-0.073	-0.064
-464.128	-51.831	-0.187	-0.088
-463.113	-200.000	-0.070	0.353
-462.099	120.944	0.140	-0.176
-461.084	800.000	-0.051	0.166
-460.070	-16.053	-0.227	-0.146
-459.055	1.372	0.180	-0.130
-458.040	413.830	0.043	-0.092
-457.026	-27.078	0.139	0.082
-456.011	8.844	-0.133	-0.101
-454.997	-94.021	-0.157	0.043
-453.982	-113.768	-0.285	-0.056
-452.968	-51.017	0.207	0.098
-451.953	155.325	0.095	-0.131
-450.938	39.867	0.058	0.052
-449.924	140.898	-0.067	0.089
-448.909	-73.147	-0.194	-0.072
-447.895	-106.701	0.321	-0.072
-446.880	-200.000	0.030	-0.269
-445.865	800.000	-0.116	0.411
-444.851	-45.956	0.235	0.117
-443.836	195.981	0.061	0.093
-442.822	-106.170	-0.184	0.042
-441.807	-200.000	-0.019	0.132
-440.792	16.135	0.038	-0.030
-439.778	-104.757	0.072	-0.017
-438.763	-121.436	-0.452	0.076
-437.749	-200.000	-0.024	-0.149
-436.734	97.167	0.197	0.228
-435.719	-200.000	0.055	0.293
-434.705	-80.859	0.329	0.110
-433.690	54.058	0.251	-0.244
-432.676	-81.012	0.578	0.193
-431.661	113.543	0.175	0.214
-430.646	-200.000	-0.020	0.393
-429.632	-200.000	0.058	0.293
-428.617	41.799	-0.201	-0.183
-427.603	470.148	-0.054	-0.123
-426.588	-200.000	0.012	-0.093
-425.573	-19.661	0.206	-0.128
-424.559	-106.253	-0.182	-0.041
-423.544	-110.325	0.370	-0.078
-422.530	-109.693	-0.209	-0.044
-421.515	-64.109	0.159	-0.065
-420.500	11.657	-0.111	0.086
-419.486	160.031	0.207	0.291
-418.471	91.393	0.056	0.063
-417.457	137.270	-0.108	0.142
-416.442	313.786	0.048	0.090
-415.428	-4.855	0.129	0.090
-414.413	-200.000	-0.036	0.238
-413.398	-200.000	0.007	0.464
-412.384	5.900	-0.144	0.107
-411.369	-200.000	-0.031	-0.207
-410.355	248.918	-0.044	0.075
-409.340	-78.710	0.025	-0.009
-408.325	-68.271	0.283	0.111
-407.311	403.514	-0.112	-0.238
-406.296	30.685	0.209	-0.180
-405.282	800.000	0.081	-0.306
-404.267	-113.178	-0.122	-0.024
-403.252	-68.965	0.133	0.052
-402.238	-76.520	-0.018	-0.007
-401.223	-51.387	-0.268	-0.126
-400.209	-134.833	-0.487	0.059
-399.194	51.740	0.135	-0.130
-398.179	56.759	0.104	0.102
-397.165	-25.320	-0.220	0.131
-396.150	-121.168	-0.176	0.030
-395.136	299.626	0.130	0.242
-394.121	-130.459	-0.088	-0.012
-393.106	-200.000	-0.004	0.020
-392.092	171.210	0.229	0.331
-391.077	566.869	0.063	0.154
-390.063	-50.278	0.203	-0.097
-389.048	524.308	0.135	0.320
-388.033	59.083	-0.280	0.278
-387.019	101.246	0.141	0.165
-386.004	326.642	0.142	-0.273
-384.990	-128.077	-0.266	-0.038
-383.975	25.209	-0.246	0.206
-382.960	171.445	-0.042	-0.060
-381.946	652.760	0.024	0.063
-380.931	800.000	-0.128	-0.369
-379.917	-41.589	-0.202	-0.104
-378.902	-92.053	0.221	-0.063
-377.888	191.406	0.179	0.271
-376.873	-200.000	-0.017	0.371
-375.858	-39.104	-0.094	0.050
-374.844	262.713	0.078	-0.135
-373.829	56.754	0.237	-0.232
-372.815	308.361	0.183	-0.343
-371.800	145.959	0.016	0.022
-370.785	-9.112	-0.223	-0.150
-369.771	-200.000	0.052	-0.447
-368.756	457.333	0.048	-0.108
-367.742	-136.761	-0.160	-0.019
-366.727	800.000	0.088	-0.265
-365.712	800.000	-0.048	0.207
-364.698	83.631	0.103	-0.112
-363.683	-121.559	0.109	-0.018
-362.669	-107.332	0.250	0.055
-361.654	-200.000	-0.034	0.297
-360.639	399.544	-0.130	-0.274
-359.625	120.744	0.221	-0.277
-358.610	-200.000	0.045	0.209
-357.596	8.887	-0.226	0.172
-356.581	-200.000	0.036	-0.276
-355.566	-47.293	0.204	-0.100
-354.552	184.862	0.031	-0.047
-353.537	458.917	-0.085	0.191
-352.523	242.880	0.053	0.089
-351.508	-66.184	-0.207	-0.083
-350.493	-200.000	-0.019	0.219
-349.479	266.319	-0.162	0.284
-348.464	49.084	0.128	-0.121
-347.450	597.047	0.047	0.118
-346.435	-89.933	-0.116	0.034
-345.420	-200.000	0.063	-0.289
-344.406	800.000	-0.067	-0.280
-343.391	-108.614	-0.305	-0.066
-342.377	-74.163	-0.074	-0.027
-341.362	467.145	0.144	0.325
-340.348	-200.000	0.015	0.096
-339.333	-76.330	0.178	0.063
-338.318	199.598	0.188	-0.289
-337.304	67.687	-0.089	0.091
-336.289	-61.973	-0.505	-0.212
-335.275	205.740	-0.078	0.121
-334.260	-57.455	-0.239	0.105
-333.245	50.633	0.107	0.102
-332.231	141.463	-0.177	-0.235
-331.216	-46.944	0.182	-0.089
-330.202	41.930	-0.163	-0.149
-329.187	-200.000	-0.012	-0.348
-328.172	800.000	-0.159	0.501
-327.158	-55.636	-0.118	0.053
-326.143	-85.335	-0.496	0.155
-325.129	-4.432	-0.143	-0.100
-324.114	800.000	-0.097	0.330
-323.099	-82.795	-0.281	0.091
-322.085	8.032	0.115	-0.086
-321.070	-33.883	-0.133	-0.074
-320.056	141.911	0.063	-0.083
-319.041	-13.840	0.125	-0.081
-318.026	-157.496	-0.363	0.022
-317.012	-200.000	-0.036	0.178
-315.997	15.841	-0.301	-0.238
-314.983	-86.058	-0.281	-0.087
-313.968	87.515	0.183	-0.203
-312.953	616.767	0.076	-0.191
-311.939	-100.241	-0.064	-0.016
-310.924	-93.178	-0.428	0.119
-309.910	-200.000	0.028	-0.385
-308.895	76.180	-0.054	-0.058
-307.880	589.906	0.114	0.283
-306.866	159.892	0.156	0.218
-305.851	800.000	0.019	0.065
-304.837	186.436	0.256	-0.382
-303.822	125.553	-0.204	-0.258
-302.807	91.484	-0.159	-0.179
-301.793	800.000	0.086	0.352
-300.778	257.838	0.052	0.089
-299.764	-200.000	0.014	-0.079
-298.749	208.342	-0.044	-0.069
-297.735	-102.090	0.260	0.063
-296.720	31.790	-0.106	0.091
-295.705	-32.184	0.285	0.160
-294.691	208.057	-0.126	0.197
-293.676	-200.000	-0.092	0.496
-292.662	-200.000	0.009	0.459
-291.647	-102.507	0.040	0.010
-290.632	243.794	0.105	-0.176
-289.618	147.110	-0.117	-0.157
-288.603	21.877	0.201	-0.164
-287.589	9.784	-0.293	-0.223
-286.574	304.717	-0.086	-0.160
-285.559	-80.804	0.444	0.148
-284.545	-74.006	-0.298	-0.108
-283.530	752.471	0.050	0.136
-282.516	-98.985	-0.362	-0.092
-281.501	139.056	0.021	0.028
-280.486	-200.000	-0.014	-0.173
-279.472	512.179	0.063	0.148
-278.457	63.760	-0.149	0.150
-277.443	-35.958	-0.087	0.047
-276.428	54.492	-0.221	0.214
-275.413	-200.000	-0.032	0.227
-274.399	63.278	0.142	0.142
-273.384	-24.400	0.100	-0.060
-272.370	527.740	0.113	0.267
-271.355	135.210	-0.140	0.183
-270.340	43.266	-0.154	0.141
-269.326	-56.584	-0.094	-0.042
-268.311	89.655	-0.136	-0.152
-267.297	-13.966	0.133	-0.086
-266.282	163.800	0.092	-0.129
-265.267	-47.186	0.038	0.019
-264.253	91.933	-0.202	-0.227
-263.238	-5.808	0.304	0.209
-262.224	-78.441	0.173	0.059
-261.209	-59.211	0.399	0.172
-260.195	-200.000	0.019	0.254
-259.180	-60.001	-0.198	0.085
-258.165	153.224	0.285	-0.391
-257.151	-142.882	-0.128	0.012
-256.136	-93.681	-0.052	-0.014
-255.122	-18.427	-0.288	0.180
-254.107	312.516	0.090	-0.169
-253.092	-200.000	-0.007	0.044
-252.078	-9.097	0.241	0.162
-251.063	-46.237	0.192	-0.095
-250.049	-200.000	0.010	-0.123
-249.034	-120.658	-0.245	0.041
-248.019	-82.871	0.390	0.126
-247.005	800.000	0.070	-0.298
-245.990	-158.551	-0.044	0.003
-244.976	-102.252	0.271	0.065
-243.961	-22.031	0.147	0.089
-242.946	-143.996	-0.134	0.013
-241.932	95.454	-0.115	0.131
-240.917	12.026	-0.075	-0.057
-239.903	405.413	0.096	-0.203
-238.888	21.631	0.238	-0.194
-237.873	-175.992	0.347	-0.009
-236.859	-72.156	0.388	0.144
-235.844	-42.812	0.170	0.086
-234.830	56.553	0.113	-0.110
-233.815	404.929	0.155	-0.327
-232.800	528.724	0.075	0.177
-231.786	324.050	-0.040	0.077
-230.771	119.027	0.044	0.055
-229.757	-130.764	0.202	-0.027
-228.742	-200.000	-0.006	0.121
-227.727	-104.380	-0.496	-0.115
-226.713	-51.180	-0.117	0.055
-225.698	-31.160	0.183	0.103
-224.684	-200.000	-0.011	0.414
-223.669	179.762	0.103	-0.150
-222.655	93.688	-0.104	0.118
-221.640	-143.902	-0.139	-0.013
-220.625	-89.676	0.241	-0.071
-219.611	66.837	0.126	-0.128
-218.596	-113.841	-0.146	0.028
-217.582	-0.024	0.240	-0.171
-216.567	-200.000	0.011	-0.159
-215.552	-107.552	0.201	0.044
-214.538	-200.000	0.099	0.000
-213.523	120.642	-0.198	0.246
-212.509	48.702	0.173	0.163
-211.494	-123.529	-0.292	-0.046
-210.479	-200.000	-0.004	-0.212
-209.465	800.000	0.023	-0.065
-208.450	800.000	0.028	-0.101
-207.436	156.273	-0.200	-0.276
-206.421	0.021	-0.223	-0.159
-205.406	-140.998	-0.368	-0.038
-204.392	-61.837	-0.208	0.087
-203.377	-79.830	-0.086	0.029
-202.363	800.000	-0.127	0.384
-201.348	-200.000	-0.007	0.173
-200.333	226.653	-0.102	0.165
-199.319	-153.523	-0.427	-0.030
-198.304	-111.790	-0.273	-0.055
-197.290	270.248	0.133	0.234
-196.275	-49.642	-0.110	0.052
-195.260	-46.445	0.083	0.041
-194.246	-82.719	0.453	-0.146
-193.231	66.227	-0.028	-0.029
-192.217	800.000	-0.035	0.122
-191.202	-63.346	0.309	-0.127
-190.187	121.175	-0.057	0.071
-189.173	14.157	0.237	-0.184
-188.158	38.072	-0.201	0.178
-187.144	-94.765	-0.235	-0.064
-186.129	-200.000	-0.038	0.275
-185.114	577.584	-0.028	-0.069
-184.100	-80.793	-0.418	0.139
-183.085	-13.507	-0.158	-0.103
-182.071	57.015	0.184	0.179
-181.056	40.656	0.163	0.147
-180.042	9.836	-0.165	0.125
-179.027	-200.000	0.053	0.246
-178.012	441.553	-0.047	0.103
-176.998	-32.091	-0.134	0.075
-175.983	34.159	-0.017	0.015
-174.969	-16.592	-0.156	0.098
-173.954	58.448	-0.135	-0.132
-172.939	-141.964	0.404	-0.040
-171.925	112.247	-0.098	-0.118
-170.910	-144.756	0.118	0.011
-169.896	-59.149	0.367	0.158
-168.881	-17.323	-0.126	0.079
-167.866	-93.627	-0.272	0.075
-166.852	-27.193	-0.196	0.114
-165.837	98.305	-0.105	0.120
-164.823	-87.041	-0.091	0.028
-163.808	99.125	0.045	-0.052
-162.793	402.088	-0.215	-0.451
-161.779	800.000	0.042	-0.166
-160.764	-40.485	0.166	0.086
-159.750	-148.258	0.080	0.007
-158.735	-109.634	-0.093	0.020
-157.720	-200.000	0.040	-0.204
-156.706	-83.246	0.360	-0.115
-155.691	380.216	-0.091	0.187
-154.677	364.402	-0.123	-0.246
-153.662	26.282	-0.219	0.182
-152.647	36.186	-0.180	0.158
-151.633	-128.303	-0.125	-0.018
-150.618	96.642	0.108	0.123
-149.604	-131.716	0.284	-0.037
-148.589	33.577	-0.211	-0.183
-147.574	41.416	-0.189	0.171
-146.560	256.402	0.096	-0.164
-145.545	-47.299	-0.464	-0.225
-144.531	-13.572	0.184	0.119
-143.516	-107.175	-0.247	-0.054
-142.502	351.322	0.064	-0.127
-141.487	-49.486	0.238	0.113
-140.472	91.417	-0.080	0.090
-139.458	800.000	0.051	-0.218
-138.443	-200.000	0.034	-0.152
-137.429	64.693	-0.256	-0.257
-136.414	253.236	0.186	-0.317
-135.399	-78.828	-0.371	-0.126
-134.385	-200.000	0.033	-0.295
-133.370	-200.000	-0.006	-0.464
-132.356	-130.330	-0.243	0.033
-131.341	-156.383	0.131	-0.008
-130.326	85.523	-0.107	0.117
-129.312	-121.861	0.206	-0.034
-128.297	183.851	0.101	-0.148
-127.283	-15.261	-0.208	0.133
-126.268	800.000	0.110	0.453
-125.253	110.297	-0.203	-0.242
-124.239	800.000	-0.121	-0.397
-123.224	-200.000	-0.098	0.434
-122.210	-69.808	-0.407	-0.155
-121.195	70.037	-0.059	-0.061
