DTS Sentinel unit serial number:	SN413079Multiplexer serial number:	ORYXHardware model number:	OX4-SRSoftware version number:	ORYX F/W v4.00 Oryx Data Collector v3.7.2.0data status	okinstallation	princeton_trtdifferential loss correction	single-endedforward channel	channel 1reverse channel	N/Adate	2019/09/11time	05:44:11forward acquisition time	60.00reverse acquisition time	0.00gamma	496.2192k internal	0.2331k external	0.2331temperature offset calibration	0.9924default loss term (dB/km)	0.3790temperature slope calibration	1.0000multiplexer offset coefficient	1.0000multiplexer slope coefficient	1.0000fibre end	0.00T internal ref (°C)	29.42T ext. ref 1 (°C)	-0.23T ext. ref 2 (°C)	23.34length (m)	temperature (°C)	Stokes	anti-Stokes-747.200	191.737	0.066	0.100
-746.185	-110.167	-0.295	0.062
-745.171	-93.845	-0.188	-0.052
-744.156	265.829	-0.151	0.265
-743.142	178.950	0.070	0.103
-742.127	800.000	-0.083	0.321
-741.112	-64.345	0.055	-0.023
-740.098	-52.115	0.073	-0.034
-739.083	58.620	0.142	-0.141
-738.069	-121.995	0.190	0.031
-737.054	-52.230	0.129	-0.060
-736.039	-124.006	-0.323	0.051
-735.025	800.000	-0.083	0.304
-734.010	-153.388	-0.083	-0.006
-732.996	341.188	0.099	-0.194
-731.981	297.759	0.020	0.038
-730.966	-169.013	-0.179	-0.007
-729.952	5.479	-0.135	0.100
-728.937	-49.578	0.181	-0.086
-727.923	-79.086	-0.173	-0.059
-726.908	-149.488	-0.244	0.019
-725.894	-164.535	-0.400	0.018
-724.879	-104.682	-0.177	0.041
-723.864	213.877	-0.093	-0.147
-722.850	-117.566	0.235	0.043
-721.835	-154.048	-0.191	0.013
-720.821	-200.000	-0.016	0.260
-719.806	-27.742	0.331	-0.193
-718.791	-142.484	-0.071	-0.007
-717.777	-39.653	-0.246	0.129
-716.762	71.269	-0.244	-0.255
-715.748	414.797	-0.181	-0.389
-714.733	-135.739	-0.223	0.027
-713.718	229.724	0.119	0.195
-712.704	225.093	-0.227	0.369
-711.689	247.579	-0.192	0.326
-710.675	-200.000	-0.031	-0.447
-709.660	130.247	-0.026	-0.034
-708.645	-200.000	0.020	0.097
-707.631	-120.704	-0.103	-0.018
-706.616	488.012	-0.071	0.163
-705.602	-41.087	0.311	-0.162
-704.587	32.122	-0.162	-0.140
-703.572	-29.632	0.353	0.202
-702.558	-82.284	-0.198	-0.065
-701.543	302.750	0.076	0.142
-700.529	-91.851	0.178	-0.051
-699.514	-200.000	0.002	0.108
-698.499	10.716	0.044	0.034
-697.485	-44.843	-0.372	-0.186
-696.470	-49.244	0.129	0.062
-695.456	800.000	-0.086	0.296
-694.441	409.180	0.156	-0.331
-693.426	157.286	-0.124	-0.173
-692.412	7.619	0.038	0.028
-691.397	142.423	0.114	-0.152
-690.383	800.000	-0.034	-0.128
-689.368	-45.991	0.132	0.065
-688.354	452.870	0.102	0.226
-687.339	-115.527	-0.173	-0.033
-686.324	-122.563	-0.203	0.033
-685.310	493.719	0.033	-0.077
-684.295	72.945	0.087	-0.091
-683.281	74.565	-0.322	0.340
-682.266	-70.628	-0.057	-0.022
-681.251	-94.183	-0.278	-0.076
-680.237	800.000	0.036	0.140
-679.222	86.494	-0.131	0.145
-678.208	-52.329	-0.142	-0.066
-677.193	712.189	-0.063	0.168
-676.178	-145.509	-0.270	0.024
-675.164	44.414	0.039	0.036
-674.149	128.486	-0.064	-0.082
-673.135	23.086	-0.283	0.233
-672.120	-200.000	-0.024	0.229
-671.105	-125.400	0.250	0.038
-670.091	-166.460	-0.252	-0.011
-669.076	-127.978	0.229	0.033
-668.062	383.467	-0.011	0.023
-667.047	-155.705	-0.307	-0.020
-666.032	-200.000	0.004	0.068
-665.018	245.284	-0.145	0.245
-664.003	800.000	0.038	-0.141
-662.989	44.121	-0.241	-0.222
-661.974	74.322	0.089	0.094
-660.959	-43.193	-0.152	-0.077
-659.945	-200.000	0.043	0.255
-658.930	405.489	0.140	0.296
-657.916	-77.995	0.328	0.113
-656.901	-23.518	-0.353	0.213
-655.886	-74.769	-0.333	0.120
-654.872	-200.000	0.010	-0.246
-653.857	-17.544	-0.119	0.075
-652.843	-107.276	-0.368	-0.081
-651.828	-164.651	-0.256	-0.012
-650.814	-200.000	0.089	-0.428
-649.799	-58.644	-0.040	0.017
-648.784	-144.003	0.084	0.008
-647.770	-200.000	0.010	-0.114
-646.755	-86.224	-0.204	-0.063
-645.741	215.647	-0.267	0.425
-644.726	-74.926	-0.151	-0.054
-643.711	-61.463	0.180	0.076
-642.697	77.720	0.100	-0.106
-641.682	314.831	-0.105	-0.199
-640.668	-121.161	0.232	-0.039
-639.653	-98.251	0.130	0.034
-638.638	158.240	-0.104	-0.145
-637.624	282.442	-0.102	-0.183
-636.609	-158.166	0.129	-0.008
-635.595	266.635	0.125	0.219
-634.580	-181.326	0.143	0.003
-633.565	-90.145	0.300	-0.088
-632.551	-200.000	0.015	-0.149
-631.536	-200.000	0.037	-0.304
-630.522	-200.000	0.010	-0.157
-629.507	212.430	-0.069	-0.108
-628.492	-200.000	0.003	0.332
-627.478	200.324	-0.113	-0.175
-626.463	35.798	-0.082	0.072
-625.449	122.101	0.174	-0.217
-624.434	800.000	0.072	-0.240
-623.419	-10.753	0.157	0.104
-622.405	-200.000	-0.038	0.476
-621.390	-94.115	0.301	-0.083
-620.376	800.000	0.069	-0.235
-619.361	715.293	-0.103	0.274
-618.346	-200.000	0.032	0.168
-617.332	800.000	0.074	0.218
-616.317	-82.355	-0.462	0.151
-615.303	-188.300	-0.037	-0.000
-614.288	-12.123	0.196	0.129
-613.273	-88.942	-0.265	-0.079
-612.259	-131.226	0.299	0.040
-611.244	166.664	0.047	0.067
-610.230	2.619	-0.242	-0.175
-609.215	186.298	-0.051	-0.076
-608.201	-200.000	0.054	-0.256
-607.186	-28.743	-0.136	0.078
-606.171	400.204	-0.142	-0.298
-605.157	40.423	0.202	-0.182
-604.142	-1.787	0.079	-0.055
-603.128	-200.000	0.041	-0.228
-602.113	74.014	-0.063	-0.067
-601.098	441.388	-0.042	-0.091
-600.084	-58.356	0.130	0.057
-599.069	-124.300	-0.393	-0.062
-598.055	-8.706	-0.338	-0.227
-597.040	39.267	0.197	-0.176
-596.025	800.000	-0.124	-0.398
-595.011	37.852	0.188	-0.167
-593.996	-200.000	0.017	-0.268
-592.982	-106.330	-0.440	0.098
-591.967	372.089	-0.065	-0.131
-590.952	149.701	0.168	0.228
-589.938	-99.953	0.233	-0.058
-588.923	458.636	0.171	-0.381
-587.909	-52.296	-0.229	-0.106
-586.894	249.598	-0.233	0.396
-585.879	-48.303	-0.049	0.023
-584.865	-200.000	0.012	0.102
-583.850	16.269	-0.175	0.138
-582.836	-200.000	-0.037	-0.181
-581.821	-94.681	-0.148	-0.040
-580.806	-200.000	-0.032	0.196
-579.792	800.000	0.041	0.138
-578.777	800.000	0.021	0.068
-577.763	-200.000	-0.032	-0.441
-576.748	-90.578	0.207	-0.060
-575.733	65.724	-0.130	-0.131
-574.719	-21.779	-0.010	0.006
-573.704	594.421	-0.106	-0.261
-572.690	6.157	-0.322	-0.238
-571.675	100.897	0.017	-0.020
-570.661	-200.000	0.004	-0.051
-569.646	800.000	0.031	0.104
-568.631	-200.000	0.031	-0.492
-567.617	456.601	0.077	0.172
-566.602	269.596	-0.097	0.171
-565.588	-119.209	-0.393	0.068
-564.573	180.869	-0.188	0.275
-563.558	-200.000	-0.033	0.227
-562.544	-121.822	0.064	-0.011
-561.529	158.391	0.198	0.275
-560.515	35.692	-0.140	0.123
-559.500	44.267	-0.221	0.203
-558.485	-95.195	-0.289	-0.078
-557.471	-156.901	-0.390	-0.024
-556.456	-86.042	0.217	0.067
-555.442	-98.191	-0.112	0.029
-554.427	-200.000	-0.026	-0.224
-553.412	-30.697	0.281	0.159
-552.398	-49.205	-0.203	0.097
-551.383	535.049	-0.117	-0.277
-550.369	-87.499	-0.148	-0.045
-549.354	111.091	0.267	0.321
-548.339	-200.000	0.044	0.227
-547.325	701.346	0.082	-0.215
-546.310	800.000	-0.065	0.243
-545.296	95.900	0.237	-0.271
-544.281	575.680	0.118	-0.288
-543.266	334.205	0.150	-0.290
-542.252	-5.693	-0.117	0.080
-541.237	7.514	-0.077	0.058
-540.223	422.699	-0.034	-0.073
-539.208	-18.718	0.352	-0.219
-538.193	41.646	-0.212	0.192
-537.179	-41.604	0.269	-0.138
-536.164	800.000	0.070	-0.302
-535.150	-200.000	0.044	-0.203
-534.135	-135.316	0.226	0.027
-533.121	-36.524	0.331	-0.178
-532.106	-149.906	0.234	-0.018
-531.091	-200.000	-0.011	-0.168
-530.077	607.075	0.060	0.150
-529.062	118.551	-0.114	0.140
-528.048	395.351	-0.145	0.303
-527.033	-112.252	-0.085	-0.017
-526.018	-200.000	0.021	-0.164
-525.004	109.635	0.101	0.121
-523.989	-51.409	0.178	-0.083
-522.975	-119.382	0.370	0.064
-521.960	115.035	-0.366	0.446
-520.945	800.000	-0.078	0.231
-519.931	-30.890	0.114	0.064
-518.916	-200.000	-0.045	-0.221
-517.902	-200.000	-0.006	-0.141
-516.887	-34.248	-0.402	0.220
-515.872	597.827	-0.123	0.305
-514.858	800.000	0.045	0.150
-513.843	-200.000	-0.005	0.219
-512.829	415.448	-0.075	0.160
-511.814	-127.725	-0.266	0.038
-510.799	800.000	-0.043	-0.158
-509.785	130.840	0.275	-0.351
-508.770	-173.233	-0.322	-0.010
-507.756	-64.670	0.185	0.075
-506.741	-200.000	0.004	-0.165
-505.726	-39.921	-0.217	-0.113
-504.712	60.550	-0.043	0.042
-503.697	18.141	0.091	-0.072
-502.683	-9.479	-0.334	-0.222
-501.668	-30.532	0.123	-0.070
-500.653	-110.715	-0.224	0.046
-499.639	595.134	-0.087	-0.214
-498.624	539.165	0.100	0.238
-497.610	380.799	0.006	0.012
-496.595	236.504	0.137	-0.227
-495.581	-50.712	0.153	-0.072
-494.566	-200.000	-0.006	-0.136
-493.551	564.837	0.092	0.223
-492.537	-123.985	0.077	0.012
-491.522	738.491	0.180	-0.482
-490.508	163.603	0.204	-0.286
-489.493	156.466	0.068	-0.094
-488.478	-58.618	0.282	0.122
-487.464	-200.000	-0.041	0.470
-486.449	325.755	-0.118	0.225
-485.435	-200.000	-0.017	-0.234
-484.420	800.000	0.131	-0.507
-483.405	2.483	0.359	0.259
-482.391	-200.000	0.039	0.435
-481.376	-80.532	0.304	-0.101
-480.362	173.492	0.119	0.172
-479.347	-167.395	-0.163	0.007
-478.332	142.720	-0.072	-0.096
-477.318	11.402	-0.037	0.028
-476.303	-14.231	-0.282	-0.181
-475.289	-26.355	0.306	0.179
-474.274	-188.542	-0.468	-0.006
-473.259	-22.384	0.085	-0.052
-472.245	-131.723	-0.301	0.039
-471.230	353.671	-0.082	-0.163
-470.216	-200.000	-0.027	0.433
-469.201	-200.000	-0.010	0.146
-468.186	800.000	0.074	-0.239
-467.172	-200.000	0.061	-0.329
-466.157	-200.000	0.010	-0.302
-465.143	-171.284	-0.430	0.014
-464.128	-66.330	-0.113	-0.045
-463.113	-28.525	0.064	-0.037
-462.099	-68.177	0.299	0.116
-461.084	-185.741	-0.287	0.004
-460.070	256.096	-0.111	-0.189
-459.055	-18.436	0.124	-0.077
-458.040	231.418	0.014	-0.023
-457.026	800.000	-0.147	0.411
-456.011	7.393	0.172	-0.128
-454.997	-200.000	-0.005	0.033
-453.982	800.000	-0.059	-0.206
-452.968	32.281	-0.140	-0.120
-451.953	-172.726	0.253	-0.008
-450.938	7.614	-0.028	0.021
-449.924	-200.000	0.257	0.001
-448.909	180.301	-0.124	0.181
-447.895	-200.000	-0.063	0.305
-446.880	263.568	0.136	0.235
-445.865	605.718	-0.058	0.145
-444.851	800.000	0.023	-0.070
-443.836	76.133	-0.125	0.131
-442.822	-24.237	0.308	0.183
-441.807	-144.269	-0.138	-0.013
-440.792	652.470	-0.033	0.085
-439.778	-7.832	0.351	0.236
-438.763	270.999	0.092	-0.161
-437.749	69.230	0.173	0.177
-436.734	-92.414	0.155	0.043
-435.719	-23.343	0.243	0.145
-434.705	800.000	-0.062	-0.240
-433.690	188.553	0.231	0.343
-432.676	800.000	-0.031	0.132
-431.661	-162.685	-0.393	-0.019
-430.646	-200.000	-0.026	0.166
-429.632	145.049	-0.004	-0.006
-428.617	136.878	0.168	0.218
-427.603	78.434	-0.197	-0.210
-426.588	-61.125	0.416	-0.174
-425.573	-200.000	-0.032	-0.297
-424.559	118.144	0.081	0.099
-423.544	-164.010	0.209	0.010
-422.530	-42.077	-0.123	0.063
-421.515	-200.000	0.045	0.197
-420.500	-200.000	-0.015	-0.373
-419.486	460.757	-0.158	0.349
-418.471	14.355	0.081	-0.063
-417.457	-50.648	-0.309	-0.145
-416.442	-6.448	-0.293	0.199
-415.428	-112.590	-0.173	0.034
-414.413	419.505	0.074	-0.157
-413.398	-200.000	0.022	-0.159
-412.384	-118.078	-0.084	-0.015
-411.369	-59.232	0.078	0.033
-410.355	-138.407	-0.183	-0.020
-409.340	-200.000	-0.008	-0.198
-408.325	148.982	0.050	0.068
-407.311	217.438	-0.032	0.051
-406.296	212.796	0.096	0.150
-405.282	-67.517	-0.072	0.028
-404.267	-55.341	0.126	0.056
-403.252	-200.000	-0.002	0.150
-402.238	10.882	-0.156	-0.118
-401.223	-83.290	0.124	0.040
-400.209	-131.294	-0.333	0.044
-399.194	255.302	0.143	0.243
-398.179	165.005	0.184	-0.258
-397.165	-2.008	0.323	0.225
-396.150	79.048	0.203	-0.216
-395.136	-24.306	0.338	-0.200
-394.121	-200.000	0.020	0.313
-393.106	-63.281	0.214	-0.087
-392.092	94.020	0.232	-0.261
-391.077	250.020	-0.140	-0.236
-390.063	35.882	0.082	0.071
-389.048	800.000	-0.142	0.470
-388.033	220.739	-0.108	0.172
-387.019	337.810	0.044	-0.086
-386.004	-98.407	-0.360	-0.091
-384.990	32.477	0.279	-0.239
-383.975	170.676	0.037	-0.053
-382.960	-15.838	-0.149	-0.094
-381.946	-116.059	0.127	0.023
-380.931	140.088	-0.194	0.254
-379.917	-200.000	0.052	0.262
-378.902	-65.852	-0.535	0.212
-377.888	800.000	0.108	-0.313
-376.873	73.823	-0.297	0.309
-375.858	287.634	-0.080	-0.144
-374.844	3.632	0.135	0.097
-373.829	-44.038	0.146	-0.073
-372.815	-97.942	0.485	-0.124
-371.800	-104.233	0.298	0.069
-370.785	-92.346	-0.395	-0.110
-369.771	800.000	0.040	0.131
-368.756	40.773	0.102	-0.091
-367.742	222.266	-0.166	-0.265
-366.727	800.000	-0.130	-0.442
-365.712	-81.319	0.087	0.028
-364.698	225.802	0.093	-0.149
-363.683	199.944	0.099	-0.151
-362.669	-96.745	-0.139	-0.036
-361.654	-52.148	0.238	0.109
-360.639	131.671	0.297	-0.379
-359.625	524.608	0.062	-0.144
-358.610	800.000	-0.028	0.117
-357.596	-200.000	0.020	0.137
-356.581	509.534	0.085	0.196
-355.566	62.609	-0.270	0.267
-354.552	26.527	-0.233	0.193
-353.537	228.344	0.111	0.179
-352.523	-138.814	0.282	0.030
-351.508	-37.131	-0.046	-0.024
-350.493	800.000	-0.057	-0.231
-349.479	326.427	0.099	-0.188
-348.464	72.990	-0.215	0.223
-347.450	17.676	0.145	0.114
-346.435	300.238	-0.048	0.088
-345.420	-49.561	0.356	0.168
-344.406	-200.000	-0.026	-0.368
-343.391	-101.325	0.091	0.022
-342.377	-115.899	0.056	-0.010
-341.362	800.000	-0.099	-0.318
-340.348	48.023	0.083	-0.077
-339.333	111.199	-0.194	0.232
-338.318	-85.829	0.279	-0.086
-337.304	800.000	-0.062	0.199
-336.289	298.860	0.028	-0.050
-335.275	-17.363	-0.169	0.105
-334.260	800.000	0.068	-0.197
-333.245	176.284	0.079	-0.114
-332.231	261.105	-0.069	0.118
-331.216	9.137	-0.104	0.078
-330.202	-151.940	-0.384	-0.028
-329.187	-34.374	-0.026	0.014
-328.172	236.205	0.057	-0.093
-327.158	205.988	0.193	-0.298
-326.143	-200.000	-0.037	0.209
-325.129	354.698	0.039	0.076
-324.114	-200.000	-0.042	-0.224
-323.099	-200.000	0.022	-0.286
-322.085	187.447	-0.122	-0.180
-321.070	206.651	-0.265	-0.408
-320.056	91.006	-0.126	0.140
-319.041	-94.191	-0.147	-0.040
-318.026	800.000	-0.012	0.045
-317.012	-200.000	-0.016	-0.091
-315.997	29.945	0.098	-0.083
-314.983	-58.034	0.200	0.087
-313.968	-7.198	0.244	0.164
-312.953	-31.094	0.208	0.116
-311.939	-23.552	-0.042	-0.025
-310.924	31.065	0.229	0.195
-309.910	-112.161	-0.316	0.063
-308.895	-53.421	0.185	0.084
-307.880	-42.286	-0.355	-0.179
-306.866	-101.979	-0.268	-0.064
-305.851	-187.702	-0.125	0.002
-304.837	-21.591	0.012	-0.007
-303.822	622.189	-0.069	0.173
-302.807	115.533	0.029	0.035
-301.793	8.199	0.355	0.264
-300.778	362.828	0.174	-0.345
-299.764	368.658	0.052	0.105
-298.749	-181.957	0.181	0.003
-297.735	154.639	-0.148	0.201
-296.720	57.527	0.209	-0.202
-295.705	-96.116	-0.144	-0.038
-294.691	-200.000	0.034	0.326
-293.676	-112.673	0.168	-0.033
-292.662	-95.047	-0.171	0.046
-291.647	-28.232	0.421	0.241
-290.632	51.704	0.191	-0.179
-289.618	-50.392	0.235	-0.110
-288.603	800.000	-0.044	-0.144
-287.589	-191.982	-0.217	0.002
-286.574	800.000	0.077	-0.264
-285.559	18.341	-0.122	0.097
-284.545	-14.120	-0.170	0.109
-283.530	-163.406	-0.498	-0.023
-282.516	-13.518	0.197	0.126
-281.501	-200.000	0.042	0.261
-280.486	-200.000	0.082	-0.486
-279.472	22.840	-0.154	0.124
-278.457	22.470	-0.041	0.033
-277.443	-200.000	-0.040	0.267
-276.428	291.154	-0.010	0.019
-275.413	-61.775	0.269	-0.111
-274.399	800.000	0.047	-0.153
-273.384	319.746	0.059	0.111
-272.370	71.189	-0.189	0.194
-271.355	-132.388	0.101	0.013
-270.340	-200.000	0.003	0.198
-269.326	-55.572	0.269	0.119
-268.311	231.962	0.293	-0.474
-267.297	-121.560	-0.371	0.061
-266.282	800.000	0.066	0.284
-265.267	110.180	0.294	0.349
-264.253	800.000	0.042	0.139
-263.238	-200.000	0.023	-0.342
-262.224	358.768	0.100	-0.198
-261.209	413.650	0.078	-0.164
-260.195	332.928	0.155	-0.297
-259.180	-200.000	-0.010	0.193
-258.165	24.163	-0.033	0.027
-257.151	800.000	0.078	-0.262
-256.136	266.926	-0.143	0.247
-255.122	-200.000	-0.042	0.220
-254.107	122.855	-0.224	0.277
-253.092	-200.000	0.007	0.159
-252.078	-200.000	-0.015	-0.145
-251.063	246.381	0.202	-0.336
-250.049	-154.643	-0.306	-0.020
-249.034	-200.000	-0.042	0.207
-248.019	-57.679	0.031	-0.013
-247.005	126.877	-0.074	-0.093
-245.990	-79.528	-0.042	-0.014
-244.976	800.000	-0.055	-0.201
-243.961	7.670	-0.435	0.322
-242.946	-200.000	0.017	0.160
-241.932	357.075	0.199	0.392
-240.917	-200.000	-0.045	-0.224
-239.903	480.291	-0.054	-0.120
-238.888	-186.982	-0.185	0.003
-237.873	293.684	0.152	0.274
-236.859	800.000	-0.061	0.194
-235.844	-32.318	-0.034	0.019
-234.830	-192.464	-0.065	-0.001
-233.815	-200.000	-0.014	0.070
-232.800	1.407	0.287	-0.203
-231.786	-200.000	-0.051	0.266
-230.771	-78.827	-0.158	-0.053
-229.757	800.000	-0.050	-0.168
-228.742	-200.000	0.078	0.342
-227.727	40.790	-0.231	0.206
-226.713	-200.000	-0.001	0.322
-225.698	8.087	-0.189	-0.140
-224.684	41.370	0.221	-0.197
-223.669	160.581	0.084	-0.116
-222.655	-92.394	-0.261	0.072
-221.640	-200.000	-0.347	0.001
-220.625	-200.000	-0.012	0.093
-219.611	-200.000	-0.007	-0.069
-218.596	-107.766	-0.177	0.038
-217.582	-75.628	-0.195	0.068
-216.567	-200.000	0.017	-0.106
-215.552	203.006	0.071	-0.109
-214.538	-72.283	0.204	0.075
-213.523	2.611	-0.267	0.191
-212.509	-200.000	0.018	0.215
-211.494	-1.802	-0.072	-0.050
-210.479	-200.000	0.013	0.151
-209.465	-158.762	-0.168	0.009
-208.450	-177.163	0.321	-0.008
-207.436	-27.047	-0.208	0.120
-206.421	-200.000	0.054	-0.348
-205.406	274.416	0.130	0.228
-204.392	31.266	-0.320	-0.270
-203.377	-113.802	0.509	0.098
-202.363	-200.000	0.023	0.255
-201.348	-200.000	-0.028	-0.160
-200.333	648.347	0.071	0.179
-199.319	-134.934	0.142	0.017
-198.304	332.609	0.159	-0.302
-197.290	115.674	-0.168	-0.202
-196.275	800.000	0.030	-0.112
-195.260	-200.000	0.009	0.046
-194.246	655.635	-0.053	-0.133
-193.231	106.869	-0.112	-0.131
-192.217	195.827	0.051	0.076
-191.202	35.709	-0.159	-0.138
-190.187	-200.000	0.061	0.334
-189.173	54.432	0.017	0.016
-188.158	800.000	-0.014	0.056
-187.144	-1.385	-0.221	0.154
-186.129	122.910	0.326	-0.402
-185.114	93.476	-0.264	-0.294
-184.100	384.425	-0.066	0.135
-183.085	800.000	0.111	-0.393
-182.071	-200.000	-0.006	-0.043
-181.056	61.907	-0.065	-0.064
-180.042	39.484	-0.218	0.192
-179.027	800.000	0.037	-0.115
-178.012	182.321	0.166	0.241
-176.998	2.626	-0.063	0.045
-175.983	-200.000	0.034	0.378
-174.969	800.000	-0.106	0.385
-173.954	-109.359	0.385	-0.080
-172.939	-142.679	0.065	-0.006
-171.925	-200.000	0.006	-0.132
-170.910	-46.978	0.265	0.127
-169.896	-200.000	0.039	-0.289
-168.881	27.049	0.035	0.029
-167.866	800.000	0.047	0.192
-166.852	125.225	-0.124	0.154
-165.837	-200.000	-0.037	0.350
-164.823	-200.000	0.005	0.088
-163.808	55.787	-0.362	0.345
-162.793	13.068	-0.149	0.114
-161.779	800.000	-0.083	-0.241
-160.764	74.209	0.114	0.117
-159.750	557.152	-0.074	0.176
-158.735	800.000	0.088	0.306
-157.720	78.781	0.263	-0.277
-156.706	-68.705	0.238	-0.091
-155.691	194.125	0.101	0.151
-154.677	16.977	-0.332	-0.259
-153.662	800.000	-0.079	-0.229
-152.647	-94.675	-0.331	0.088
-151.633	-138.463	0.134	0.015
-150.618	-73.806	0.252	0.090
-149.604	786.267	0.135	0.364
-148.589	589.562	0.100	0.242
-147.574	575.839	0.020	-0.049
-146.560	648.125	-0.102	0.257
-145.545	800.000	0.028	0.108
-144.531	543.734	0.058	-0.137
-143.516	-19.331	-0.270	0.165
-142.502	190.958	0.188	0.279
-141.487	-117.156	-0.325	0.058
-140.472	-200.000	0.027	-0.218
-139.458	-71.562	-0.393	0.144
-138.443	69.344	-0.083	0.084
-137.429	57.375	0.064	0.062
-136.414	124.781	-0.083	0.103
-135.399	8.720	0.237	-0.175
-134.385	-200.000	-0.005	0.222
-133.370	-200.000	0.019	0.226
-132.356	-65.088	0.077	0.030
-131.341	5.454	-0.162	-0.117
-130.326	-114.919	0.077	0.014
-129.312	136.232	0.105	-0.134
-128.297	-200.000	-0.032	0.290
-127.283	-200.000	-0.027	0.166
-126.268	110.915	-0.034	-0.040
-125.253	233.116	-0.065	0.104
-124.239	-36.270	-0.200	0.106
-123.224	800.000	0.056	-0.225
-122.210	730.003	0.120	0.314
-121.195	-88.019	0.172	-0.051
