DTS Sentinel unit serial number:	SN413079Multiplexer serial number:	ORYXHardware model number:	OX4-SRSoftware version number:	ORYX F/W v4.00 Oryx Data Collector v3.7.2.0data status	okinstallation	princeton_trtdifferential loss correction	single-endedforward channel	channel 1reverse channel	N/Adate	2019/09/12time	04:00:11forward acquisition time	60.00reverse acquisition time	0.00gamma	496.2192k internal	0.2322k external	0.2322temperature offset calibration	1.0086default loss term (dB/km)	0.3790temperature slope calibration	1.0000multiplexer offset coefficient	1.0000multiplexer slope coefficient	1.0000fibre end	0.00T internal ref (°C)	32.06T ext. ref 1 (°C)	2.17T ext. ref 2 (°C)	26.08length (m)	temperature (°C)	Stokes	anti-Stokes-747.200	-98.311	0.258	-0.067
-746.185	66.263	0.184	0.189
-745.171	184.729	-0.068	-0.102
-744.156	-32.803	-0.129	0.072
-743.142	87.197	-0.269	0.300
-742.127	178.568	-0.106	-0.156
-741.112	25.804	0.112	-0.094
-740.098	114.531	0.178	-0.219
-739.083	-200.000	-0.021	-0.165
-738.069	-71.854	-0.247	0.093
-737.054	-86.837	-0.117	-0.036
-736.039	800.000	-0.048	-0.156
-735.025	107.054	-0.197	0.236
-734.010	800.000	0.048	0.198
-732.996	-200.000	-0.021	-0.266
-731.981	445.243	0.090	-0.200
-730.966	-113.974	-0.427	0.084
-729.952	-200.000	0.026	0.283
-728.937	643.960	-0.094	-0.243
-727.923	-78.265	-0.107	-0.037
-726.908	390.247	-0.164	-0.343
-725.894	-78.553	-0.449	-0.155
-724.879	114.909	-0.130	-0.161
-723.864	-80.664	0.176	-0.059
-722.850	84.436	-0.059	-0.065
-721.835	-200.000	0.017	-0.103
-720.821	800.000	-0.142	0.420
-719.806	800.000	-0.020	-0.066
-718.791	426.953	-0.107	-0.233
-717.777	-127.358	-0.051	0.008
-716.762	43.095	-0.048	-0.045
-715.748	-167.755	0.121	0.005
-714.733	-51.892	0.036	0.017
-713.718	-9.224	-0.136	-0.092
-712.704	537.221	0.076	0.181
-711.689	713.956	-0.082	0.221
-710.675	800.000	-0.113	-0.342
-709.660	-200.000	0.169	0.001
-708.645	-92.995	0.113	0.032
-707.631	-136.265	-0.196	-0.023
-706.616	495.966	0.146	-0.338
-705.602	186.550	0.108	0.162
-704.587	-81.836	-0.023	0.007
-703.572	30.556	-0.131	-0.113
-702.558	34.082	0.128	0.113
-701.543	-38.452	0.311	-0.166
-700.529	-200.000	0.017	-0.250
-699.514	-175.290	0.211	-0.006
-698.499	258.495	-0.065	0.114
-697.485	2.773	-0.150	0.110
-696.470	106.874	0.091	-0.109
-695.456	-76.917	0.343	0.121
-694.441	-200.000	-0.031	0.312
-693.426	259.323	-0.120	0.208
-692.412	539.194	0.202	-0.485
-691.397	-200.000	0.033	0.236
-690.383	67.064	-0.109	-0.112
-689.368	450.932	0.048	0.107
-688.354	-108.222	0.064	0.014
-687.339	-104.949	-0.086	-0.020
-686.324	-114.842	0.173	0.033
-685.310	2.835	0.173	-0.127
-684.295	250.130	0.036	-0.062
-683.281	-114.496	-0.254	-0.049
-682.266	-139.686	-0.211	0.023
-681.251	-200.000	-0.087	-0.677
-680.237	-76.474	-0.039	-0.014
-679.222	100.518	-0.048	-0.057
-678.208	-57.897	-0.155	-0.068
-677.193	60.809	-0.348	0.348
-676.178	800.000	0.039	-0.133
-675.164	-19.597	-0.045	-0.028
-674.149	-118.586	-0.120	0.021
-673.135	339.655	0.132	0.260
-672.120	-109.349	0.035	-0.007
-671.105	-31.475	-0.148	-0.084
-670.091	92.306	-0.168	-0.191
-669.076	-149.096	0.409	0.033
-668.062	800.000	0.099	-0.350
-667.047	16.764	0.197	0.157
-666.032	304.768	-0.031	0.059
-665.018	193.059	-0.139	0.211
-664.003	0.104	-0.048	0.035
-662.989	49.706	0.186	-0.176
-661.974	133.831	-0.274	-0.357
-660.959	202.823	-0.092	0.143
-659.945	-89.648	-0.193	-0.057
-658.930	800.000	0.122	0.341
-657.916	54.504	0.176	-0.171
-656.901	-47.393	0.229	-0.112
-655.886	-200.000	0.013	0.207
-654.872	73.754	-0.111	0.118
-653.857	-168.878	0.080	0.003
-652.843	36.660	-0.116	-0.103
-651.828	327.663	-0.129	0.249
-650.814	-90.508	0.107	0.031
-649.799	-135.424	-0.178	-0.021
-648.784	-200.000	0.019	0.105
-647.770	146.027	0.173	-0.234
-646.755	-200.000	0.025	-0.213
-645.741	49.318	0.231	-0.219
-644.726	-147.518	-0.176	-0.015
-643.711	-200.000	0.028	-0.145
-642.697	-2.810	0.164	0.115
-641.682	-149.744	-0.269	0.021
-640.668	35.480	0.119	0.105
-639.653	202.103	0.084	0.130
-638.638	23.633	-0.179	0.148
-637.624	-134.002	-0.205	-0.025
-636.609	41.745	-0.171	0.156
-635.595	-200.000	-0.041	-0.296
-634.580	60.023	-0.191	0.190
-633.565	128.231	-0.167	0.214
-632.551	8.693	-0.197	0.150
-631.536	-176.374	0.061	-0.002
-630.522	-200.000	0.011	-0.240
-629.507	93.295	0.069	0.078
-628.492	106.797	-0.219	0.262
-627.478	-10.945	0.186	0.124
-626.463	548.767	-0.145	-0.350
-625.449	177.345	0.126	-0.184
-624.434	800.000	-0.101	-0.289
-623.419	-200.000	0.004	-0.095
-622.405	378.814	-0.115	-0.237
-621.390	-135.980	-0.192	-0.023
-620.376	-82.004	-0.179	0.059
-619.361	-46.323	0.212	-0.105
-618.346	85.875	-0.202	-0.224
-617.332	510.778	-0.069	0.160
-616.317	-200.000	0.020	-0.193
-615.303	42.789	-0.107	-0.098
-614.288	-200.000	-0.004	0.294
-613.273	800.000	0.078	-0.220
-612.259	50.366	0.306	-0.291
-611.244	223.640	-0.068	0.110
-610.230	-118.580	0.414	0.074
-609.215	-106.295	-0.274	-0.062
-608.201	-158.846	0.273	-0.016
-607.186	213.318	0.044	-0.070
-606.171	-116.439	0.292	-0.054
-605.157	218.791	-0.138	0.221
-604.142	141.643	0.239	0.319
-603.128	312.272	0.112	-0.211
-602.113	-200.000	-0.017	-0.125
-601.098	-168.609	-0.273	0.010
-600.084	-127.568	0.186	-0.027
-599.069	-91.792	-0.199	-0.057
-598.055	-58.578	0.331	-0.144
-597.040	24.294	-0.131	-0.109
-596.025	800.000	0.117	-0.331
-595.011	107.099	0.201	-0.240
-593.996	800.000	-0.085	-0.315
-592.982	-136.953	0.206	0.024
-591.967	360.129	-0.079	0.159
-590.952	-55.738	0.207	0.093
-589.938	-200.000	-0.041	-0.331
-588.923	-138.024	-0.234	0.026
-587.909	-200.000	-0.044	-0.343
-586.894	-11.624	0.127	-0.084
-585.879	179.176	0.098	0.144
-584.865	-131.221	0.200	0.027
-583.850	-12.900	0.186	-0.122
-582.836	-106.990	-0.281	-0.062
-581.821	800.000	-0.093	0.361
-580.806	-63.198	-0.400	0.166
-579.792	49.950	0.043	0.041
-578.777	800.000	0.015	0.045
-577.763	-74.914	0.438	-0.158
-576.748	458.945	0.081	0.182
-575.733	800.000	0.071	0.290
-574.719	-164.529	0.256	-0.012
-573.704	800.000	0.075	-0.287
-572.690	-16.247	-0.154	-0.098
-571.675	-100.235	0.168	0.042
-570.661	4.039	-0.088	-0.064
-569.646	800.000	0.029	-0.080
-568.631	-200.000	0.006	-0.138
-567.617	-127.296	0.298	0.044
-566.602	-17.780	-0.273	0.172
-565.588	800.000	0.059	-0.239
-564.573	314.175	-0.124	-0.235
-563.558	-83.199	-0.171	0.055
-562.544	-138.313	0.258	-0.029
-561.529	-150.381	-0.322	-0.025
-560.515	-24.152	0.600	0.359
-559.500	162.934	0.155	-0.218
-558.485	21.542	0.094	-0.076
-557.471	-200.000	0.005	0.164
-556.456	-139.420	0.191	0.021
-555.442	137.410	0.134	-0.176
-554.427	-136.801	-0.166	-0.019
-553.412	-194.200	0.392	0.003
-552.398	-8.319	-0.294	0.199
-551.383	-200.000	-0.085	-0.427
-550.369	-53.500	-0.161	-0.074
-549.354	-81.026	0.181	-0.060
-548.339	-162.629	-0.125	0.006
-547.325	-5.440	0.100	0.069
-546.310	119.142	0.158	0.195
-545.296	157.345	0.203	-0.281
-544.281	117.821	-0.091	0.112
-543.266	7.278	-0.176	-0.132
-542.252	-200.000	-0.019	-0.124
-541.237	800.000	0.016	0.061
-540.223	257.943	0.172	0.297
-539.208	283.397	-0.101	0.182
-538.193	-86.409	-0.363	0.112
-537.179	252.618	0.054	-0.092
-536.164	-179.739	0.053	-0.001
-535.150	168.023	0.134	0.192
-534.135	89.116	-0.077	0.086
-533.121	800.000	0.114	-0.402
-532.106	30.101	-0.024	-0.021
-531.091	153.073	-0.241	-0.331
-530.077	800.000	-0.121	-0.504
-529.062	-200.000	0.004	-0.024
-528.048	800.000	0.080	-0.241
-527.033	-58.960	-0.243	0.105
-526.018	-113.285	0.187	0.037
-525.004	111.707	-0.145	0.176
-523.989	800.000	0.026	0.095
-522.975	69.710	0.044	0.045
-521.960	-177.838	0.195	-0.005
-520.945	320.988	0.086	-0.164
-519.931	-200.000	0.014	-0.203
-518.916	-0.721	0.069	0.049
-517.902	65.858	-0.186	-0.189
-516.887	231.352	0.058	-0.095
-515.872	-200.000	-0.005	-0.104
-514.858	-200.000	-0.006	0.098
-513.843	-200.000	0.042	-0.322
-512.829	603.264	0.107	-0.267
-511.814	32.359	0.123	0.107
-510.799	183.202	-0.219	0.324
-509.785	-200.000	0.038	-0.339
-508.770	-73.092	-0.270	-0.099
-507.756	82.219	0.303	-0.329
-506.741	170.959	0.194	-0.278
-505.726	-70.585	0.149	-0.056
-504.712	181.008	-0.016	-0.023
-503.697	197.261	0.162	0.247
-502.683	-200.000	0.014	-0.158
-501.668	90.741	-0.207	-0.232
-500.653	800.000	-0.054	-0.204
-499.639	800.000	-0.013	0.044
-498.624	44.116	-0.106	-0.097
-497.610	800.000	-0.108	0.381
-496.595	-99.071	0.110	0.028
-495.581	-144.155	-0.295	-0.028
-494.566	44.269	0.176	-0.161
-493.551	50.742	0.165	0.156
-492.537	-96.492	-0.221	-0.058
-491.522	800.000	0.090	-0.289
-490.508	-67.044	-0.185	-0.073
-489.493	39.045	-0.214	0.191
-488.478	-86.219	0.098	-0.030
-487.464	-154.597	-0.453	0.030
-486.449	50.901	-0.139	-0.131
-485.435	-200.000	0.018	0.169
-484.420	-45.150	-0.184	0.091
-483.405	-200.000	0.046	-0.281
-482.391	800.000	0.036	0.128
-481.376	-26.589	0.228	-0.133
-480.362	-54.384	0.177	0.080
-479.347	559.205	0.092	0.223
-478.332	90.242	0.236	0.264
-477.318	-200.000	-0.024	-0.167
-476.303	510.427	0.038	-0.089
-475.289	-200.000	-0.029	0.248
-474.274	-59.327	-0.161	-0.069
-473.259	35.280	-0.062	-0.055
-472.245	143.923	-0.044	0.059
-471.230	176.070	-0.024	-0.035
-470.216	-140.681	-0.458	0.047
-469.201	800.000	-0.052	0.151
-468.186	800.000	0.079	0.239
-467.172	-200.000	0.019	0.148
-466.157	161.111	0.109	0.152
-465.143	144.523	0.165	0.220
-464.128	-31.457	-0.174	0.098
-463.113	120.054	0.212	-0.263
-462.099	367.099	-0.174	-0.351
-461.084	-200.000	-0.029	-0.166
-460.070	386.863	-0.059	0.121
-459.055	-108.128	0.038	0.008
-458.040	-29.225	0.041	0.024
-457.026	800.000	-0.076	-0.241
-456.011	-127.737	0.322	-0.046
-454.997	1.810	0.153	0.110
-453.982	335.512	0.152	0.295
-452.968	45.552	0.246	0.227
-451.953	-122.654	0.278	-0.045
-450.938	-79.623	0.140	-0.047
-449.924	-101.181	-0.141	-0.034
-448.909	-200.000	-0.014	0.122
-447.895	-173.769	-0.268	0.008
-446.880	44.571	-0.252	0.231
-445.865	-200.000	0.003	0.260
-444.851	20.448	-0.178	0.144
-443.836	-200.000	0.012	-0.207
-442.822	-8.240	-0.055	-0.037
-441.807	-17.871	-0.156	0.098
-440.792	-128.162	0.334	0.048
-439.778	331.557	-0.231	0.445
-438.763	-200.000	0.035	0.156
-437.749	741.772	-0.056	0.151
-436.734	-144.111	-0.119	-0.011
-435.719	-200.000	-0.015	0.115
-434.705	-79.688	-0.324	0.109
-433.690	218.094	0.063	0.101
-432.676	800.000	0.069	0.209
-431.661	-200.000	-0.028	0.372
-430.646	-200.000	-0.032	-0.242
-429.632	-23.208	0.280	-0.168
-428.617	227.386	-0.169	0.274
-427.603	97.890	-0.198	0.228
-426.588	-95.303	0.480	0.129
-425.573	800.000	-0.014	0.053
-424.559	-200.000	-0.008	0.172
-423.544	392.032	-0.148	0.307
-422.530	-173.664	0.307	-0.009
-421.515	176.640	0.165	0.240
-420.500	-41.650	0.269	-0.138
-419.486	11.548	-0.168	0.129
-418.471	-139.302	-0.261	-0.028
-417.457	205.748	0.093	0.145
-416.442	-200.000	-0.063	-0.372
-415.428	-8.638	-0.095	0.064
-414.413	-27.525	-0.121	0.070
-413.398	123.335	-0.041	0.052
-412.384	242.789	-0.093	0.156
-411.369	35.968	0.325	0.285
-410.355	800.000	0.082	-0.273
-409.340	309.557	-0.069	0.128
-408.325	-103.888	0.166	-0.039
-407.311	800.000	0.037	0.140
-406.296	198.917	0.086	0.132
-405.282	800.000	0.103	-0.309
-404.267	-10.390	0.170	0.112
-403.252	122.261	0.179	-0.223
-402.238	23.092	0.188	-0.154
-401.223	-90.818	0.314	0.090
-400.209	-35.199	-0.141	0.077
-399.194	216.504	-0.141	0.223
-398.179	800.000	0.050	-0.212
-397.165	-200.000	-0.047	-0.226
-396.150	445.425	-0.112	0.245
-395.136	-200.000	0.048	-0.304
-394.121	-200.000	0.075	0.349
-393.106	-129.448	-0.321	-0.044
-392.092	-200.000	0.028	-0.442
-391.077	665.526	0.127	-0.328
-390.063	97.456	0.173	-0.198
-389.048	97.883	-0.031	0.036
-388.033	129.113	-0.098	0.125
-387.019	55.598	-0.100	0.096
-386.004	800.000	-0.022	0.086
-384.990	336.603	-0.097	-0.188
-383.975	431.739	-0.047	-0.101
-382.960	-166.154	-0.290	-0.012
-381.946	121.769	0.130	0.161
-380.931	800.000	0.035	-0.153
-379.917	-103.925	-0.280	-0.065
-378.902	-51.041	-0.304	-0.142
-377.888	300.914	0.201	0.369
-376.873	143.519	-0.163	0.216
-375.858	590.341	-0.131	-0.322
-374.844	-24.813	0.025	-0.015
-373.829	-27.711	0.233	-0.135
-372.815	270.817	-0.075	0.131
-371.800	382.355	0.079	0.163
-370.785	454.013	-0.083	-0.184
-369.771	-184.868	-0.363	-0.006
-368.756	-200.000	0.009	0.191
-367.742	-71.817	-0.190	-0.071
-366.727	294.383	-0.137	-0.250
-365.712	266.130	0.181	-0.314
-364.698	-200.000	-0.002	-0.171
-363.683	410.363	0.088	-0.185
-362.669	-80.070	0.173	0.058
-361.654	800.000	0.085	0.309
-360.639	-200.000	-0.054	0.331
-359.625	-41.435	-0.122	0.062
-358.610	800.000	-0.056	0.214
-357.596	-82.449	-0.434	-0.140
-356.581	243.051	0.190	0.316
-355.566	-200.000	0.034	0.371
-354.552	50.639	-0.060	-0.057
-353.537	-200.000	0.045	0.313
-352.523	50.350	0.086	0.081
-351.508	99.529	0.087	0.100
-350.493	691.306	0.084	0.219
-349.479	-200.000	-0.013	-0.413
-348.464	704.537	0.082	-0.214
-347.450	137.077	0.032	0.042
-346.435	-200.000	0.036	0.442
-345.420	100.918	-0.335	-0.388
-344.406	-200.000	0.028	0.454
-343.391	-15.322	-0.212	-0.135
-342.377	223.883	0.030	0.047
-341.362	319.820	0.010	0.020
-340.348	-2.919	-0.111	0.077
-339.333	143.871	-0.144	0.190
-338.318	73.164	-0.095	0.099
-337.304	-116.979	0.164	0.030
-336.289	-16.579	-0.117	-0.074
-335.275	200.297	-0.122	0.187
-334.260	47.240	0.053	-0.049
-333.245	800.000	0.049	0.146
-332.231	717.850	0.083	-0.220
-331.216	-56.119	0.174	0.077
-330.202	-151.988	-0.025	-0.002
-329.187	-126.859	-0.408	0.060
-328.172	-100.722	-0.319	-0.078
-327.158	161.770	-0.070	-0.097
-326.143	-92.994	-0.205	0.057
-325.129	188.028	0.178	-0.264
-324.114	-40.223	0.294	-0.152
-323.099	-200.000	-0.003	-0.086
-322.085	-85.408	-0.468	0.145
-321.070	-178.939	-0.313	0.007
-320.056	370.406	0.090	0.181
-319.041	-200.000	-0.059	0.351
-318.026	-119.043	0.228	0.040
-317.012	227.753	0.232	-0.375
-315.997	-86.806	0.267	-0.081
-314.983	-29.181	-0.147	-0.084
-313.968	-46.182	-0.287	-0.140
-312.953	-41.392	-0.098	0.050
-311.939	78.058	-0.150	-0.159
-310.924	-38.494	0.260	-0.137
-309.910	14.772	-0.076	-0.059
-308.895	11.284	-0.142	0.108
-307.880	-159.680	-0.209	-0.011
-306.866	7.347	0.123	-0.091
-305.851	8.140	0.215	0.161
-304.837	694.318	-0.099	-0.257
-303.822	-153.735	-0.164	-0.011
-302.807	-200.000	0.050	-0.414
-301.793	-123.384	-0.074	-0.012
-300.778	-43.866	0.268	0.134
-299.764	393.206	0.111	0.229
-298.749	310.893	0.117	-0.217
-297.735	-39.515	0.271	-0.141
-296.720	-9.980	-0.106	-0.070
-295.705	6.121	0.185	0.136
-294.691	60.826	0.261	-0.257
-293.676	20.930	-0.190	0.153
-292.662	634.953	-0.118	0.298
-291.647	14.450	0.337	0.261
-290.632	50.898	0.185	-0.174
-289.618	46.122	0.102	-0.094
-288.603	62.349	0.055	0.054
-287.589	120.006	0.156	0.192
-286.574	194.409	-0.035	-0.052
-285.559	156.068	-0.165	0.226
-284.545	676.333	0.144	-0.370
-283.530	-67.934	0.336	-0.130
-282.516	-86.581	0.180	0.055
-281.501	-200.000	0.005	-0.057
-280.486	-159.649	0.082	0.005
-279.472	-80.256	-0.363	0.121
-278.457	-132.998	0.123	0.015
-277.443	-8.955	-0.171	0.113
-276.428	-107.375	0.176	0.038
-275.413	232.128	-0.173	0.281
-274.399	212.375	-0.118	-0.185
-273.384	151.427	0.082	0.110
-272.370	-162.115	0.493	0.025
-271.355	-78.526	0.079	0.027
-270.340	63.573	0.079	0.079
-269.326	800.000	-0.039	0.134
-268.311	-17.242	-0.207	-0.129
-267.297	85.413	-0.034	-0.037
-266.282	463.966	-0.095	-0.211
-265.267	-200.000	-0.016	-0.181
-264.253	-180.443	0.135	-0.003
-263.238	-102.532	-0.428	0.101
-262.224	800.000	0.060	-0.197
-261.209	800.000	-0.080	-0.266
-260.195	-136.099	0.269	-0.031
-259.180	-200.000	-0.013	0.131
-258.165	202.947	-0.108	0.166
-257.151	-135.899	-0.055	0.006
-256.136	-152.889	0.064	0.005
-255.122	307.266	-0.079	-0.147
-254.107	-200.000	-0.034	0.395
-253.092	-52.917	0.354	-0.162
-252.078	245.212	0.161	0.269
-251.063	52.802	-0.152	0.144
-250.049	-200.000	0.021	0.217
-249.034	206.051	-0.104	-0.161
-248.019	-57.604	0.273	-0.119
-247.005	-5.568	-0.194	-0.132
-245.990	-111.917	-0.298	0.060
-244.976	-114.204	0.244	0.047
-243.961	46.320	-0.333	-0.306
-242.946	-134.369	-0.372	-0.045
-241.932	-200.000	0.050	0.292
-240.917	800.000	0.033	0.127
-239.903	12.366	-0.172	-0.131
-238.888	-121.120	0.459	-0.076
-237.873	-53.709	0.103	0.047
-236.859	-86.382	-0.162	0.049
-235.844	232.866	0.139	0.226
-234.830	212.869	-0.302	0.472
-233.815	-102.354	0.230	0.055
-232.800	-92.888	0.159	0.044
-231.786	672.487	-0.017	-0.044
-230.771	551.584	-0.084	-0.200
-229.757	-143.993	-0.238	0.022
-228.742	-200.000	-0.009	0.066
-227.727	-35.915	-0.210	0.113
-226.713	-104.156	-0.249	-0.057
-225.698	206.502	-0.063	0.097
-224.684	800.000	0.093	0.322
-223.669	-11.178	-0.123	-0.080
-222.655	-84.136	0.103	-0.032
-221.640	47.281	-0.140	-0.129
-220.625	41.258	0.069	-0.062
-219.611	800.000	0.056	0.169
-218.596	-88.720	-0.210	-0.062
-217.582	-2.464	0.106	0.074
-216.567	-40.262	0.251	-0.129
-215.552	-167.660	-0.183	0.007
-214.538	-67.699	0.441	-0.171
-213.523	-200.000	-0.022	0.146
-212.509	651.626	-0.076	-0.194
-211.494	99.163	0.065	-0.075
-210.479	800.000	0.058	-0.250
-209.465	-200.000	0.041	0.369
-208.450	-100.518	-0.139	0.034
-207.436	800.000	-0.055	0.158
-206.421	-40.459	0.150	0.077
-205.406	430.913	-0.145	0.312
-204.392	-16.717	-0.031	0.019
-203.377	-39.235	-0.019	-0.010
-202.363	27.439	0.120	0.100
-201.348	45.305	-0.234	0.214
-200.333	-30.561	-0.198	0.111
-199.319	288.512	-0.160	0.286
-198.304	28.561	-0.203	0.170
-197.290	15.474	0.108	0.084
-196.275	800.000	0.085	0.296
-195.260	800.000	-0.102	0.292
-194.246	749.988	0.030	0.079
-193.231	-200.000	0.002	0.088
-192.217	-200.000	0.004	0.084
-191.202	800.000	-0.036	-0.130
-190.187	95.292	-0.216	-0.243
-189.173	-33.675	0.250	0.136
-188.158	-66.388	0.192	0.076
-187.144	142.093	-0.066	0.087
-186.129	157.715	-0.109	-0.149
-185.114	29.376	-0.342	0.287
-184.100	159.165	0.118	-0.162
-183.085	-200.000	-0.008	-0.086
-182.071	-131.654	-0.092	-0.012
-181.056	14.264	0.069	0.054
-180.042	-157.952	0.108	-0.006
-179.027	107.855	0.212	-0.249
-178.012	-60.727	0.199	-0.083
-176.998	187.944	-0.190	-0.281
-175.983	-131.610	-0.160	-0.021
-174.969	197.525	0.180	-0.271
-173.954	259.034	0.181	-0.308
-172.939	-18.993	-0.260	-0.160
-171.925	-200.000	0.064	-0.313
-170.910	307.499	0.157	0.289
-169.896	800.000	0.018	-0.074
-168.881	383.398	0.180	0.365
-167.866	131.631	-0.207	-0.263
-166.852	-81.980	-0.220	-0.071
-165.837	-160.875	-0.144	0.008
-164.823	-200.000	-0.012	-0.058
-163.808	-27.021	0.254	-0.147
-162.793	-149.494	0.016	-0.001
-161.779	378.931	-0.110	-0.223
-160.764	116.320	-0.121	0.147
-159.750	-37.939	-0.168	0.088
-158.735	77.651	-0.101	-0.107
-157.720	171.167	0.125	0.177
-156.706	-93.949	0.307	0.083
-155.691	133.110	0.186	0.238
-154.677	584.287	-0.039	-0.096
-153.662	59.908	0.213	-0.208
-152.647	278.177	0.080	-0.140
-151.633	-33.929	-0.053	0.029
-150.618	409.881	0.086	-0.180
-149.604	68.978	0.149	-0.152
-148.589	33.786	0.106	-0.091
-147.574	455.549	-0.070	0.152
-146.560	-200.000	-0.003	-0.074
-145.545	-111.037	0.160	0.032
-144.531	-110.243	0.090	0.018
-143.516	-200.000	-0.044	0.301
-142.502	-100.897	-0.240	0.058
-141.487	4.385	0.245	0.177
-140.472	-5.529	0.075	0.051
-139.458	336.653	-0.143	-0.275
-138.443	-61.298	0.226	0.094
-137.429	-200.000	-0.049	0.274
-136.414	800.000	0.090	0.342
-135.399	-200.000	-0.009	-0.137
-134.385	-200.000	-0.006	-0.149
-133.370	-63.977	0.083	0.034
-132.356	-200.000	-0.036	-0.163
-131.341	-21.162	0.216	-0.130
-130.326	-119.682	-0.236	0.040
-129.312	800.000	-0.060	0.189
-128.297	-200.000	-0.003	0.214
-127.283	-82.785	-0.133	-0.042
-126.268	-130.200	0.291	0.039
-125.253	101.525	-0.120	0.138
-124.239	-20.775	-0.350	0.212
-123.224	-200.000	-0.042	0.227
-122.210	214.813	-0.135	-0.210
-121.195	-4.324	0.239	-0.163
