DTS Sentinel unit serial number:	SN413079Multiplexer serial number:	ORYXHardware model number:	OX4-SRSoftware version number:	ORYX F/W v4.00 Oryx Data Collector v3.7.2.0data status	okinstallation	princeton_trtdifferential loss correction	single-endedforward channel	channel 1reverse channel	N/Adate	2019/09/11time	18:44:11forward acquisition time	60.00reverse acquisition time	0.00gamma	496.2192k internal	0.2290k external	0.2290temperature offset calibration	1.0010default loss term (dB/km)	0.3790temperature slope calibration	1.0000multiplexer offset coefficient	1.0000multiplexer slope coefficient	1.0000fibre end	0.00T internal ref (°C)	43.25T ext. ref 1 (°C)	1.23T ext. ref 2 (°C)	35.39length (m)	temperature (°C)	Stokes	anti-Stokes-747.200	-200.000	0.013	0.083
-746.185	265.908	0.193	0.345
-745.171	161.016	-0.234	-0.335
-744.156	24.837	-0.154	-0.131
-743.142	348.378	-0.122	-0.246
-742.127	-171.449	0.181	-0.006
-741.112	-65.505	0.078	-0.032
-740.098	-200.000	-0.023	0.191
-739.083	-200.000	0.022	0.188
-738.069	-42.579	-0.193	-0.101
-737.054	131.081	-0.252	0.332
-736.039	21.179	0.180	-0.150
-735.025	-132.095	0.340	0.045
-734.010	67.282	0.191	0.200
-732.996	48.588	-0.278	-0.267
-731.981	-47.739	0.295	0.146
-730.966	-71.487	0.196	0.075
-729.952	-0.742	0.195	0.141
-728.937	800.000	0.036	-0.113
-727.923	-12.554	0.041	0.028
-726.908	-89.024	0.274	-0.083
-725.894	800.000	0.058	0.200
-724.879	-84.309	-0.131	-0.042
-723.864	372.780	-0.052	0.109
-722.850	120.943	0.161	-0.205
-721.835	625.763	-0.015	-0.040
-720.821	-200.000	0.052	0.399
-719.806	-108.309	-0.235	-0.052
-718.791	-38.233	-0.279	-0.151
-717.777	183.351	-0.093	-0.140
-716.762	-73.128	0.290	0.109
-715.748	89.489	-0.219	-0.250
-714.733	278.506	-0.038	0.070
-713.718	-84.231	0.284	-0.092
-712.704	95.007	-0.142	-0.165
-711.689	-20.365	0.172	0.108
-710.675	83.430	0.119	0.132
-709.660	227.124	-0.063	-0.104
-708.645	-200.000	-0.010	-0.289
-707.631	-195.023	0.296	-0.002
-706.616	-107.641	0.161	0.036
-705.602	73.069	0.169	-0.181
-704.587	205.291	0.139	-0.221
-703.572	728.113	-0.120	-0.327
-702.558	-77.030	0.372	0.133
-701.543	78.598	0.169	0.185
-700.529	-74.592	-0.360	0.132
-699.514	183.894	0.207	-0.313
-698.499	320.519	0.068	-0.132
-697.485	344.264	-0.143	-0.287
-696.470	193.569	-0.122	-0.189
-695.456	-40.090	-0.129	-0.069
-694.441	800.000	0.037	-0.112
-693.426	62.893	-0.100	-0.102
-692.412	-200.000	-0.017	-0.126
-691.397	102.163	-0.085	0.102
-690.383	-157.884	-0.044	0.003
-689.368	-65.924	-0.250	0.102
-688.354	800.000	0.068	-0.254
-687.339	-83.316	-0.189	-0.062
-686.324	351.503	0.041	-0.084
-685.310	204.992	-0.048	-0.077
-684.295	-200.000	0.028	-0.163
-683.281	-60.439	-0.389	-0.169
-682.266	101.736	-0.076	0.091
-681.251	800.000	0.021	0.072
-680.237	155.989	0.243	0.342
-679.222	-76.472	-0.071	0.026
-678.208	-200.000	0.020	-0.246
-677.193	-59.389	0.137	0.060
-676.178	-200.000	0.003	0.107
-675.164	291.797	0.062	0.115
-674.149	318.849	-0.068	-0.132
-673.135	-87.660	-0.143	-0.044
-672.120	-5.817	0.167	-0.117
-671.105	800.000	-0.135	0.476
-670.091	190.183	-0.184	-0.283
-669.076	14.305	0.066	-0.052
-668.062	-23.345	0.147	0.090
-667.047	246.363	-0.056	-0.097
-666.032	-70.748	-0.161	-0.062
-665.018	191.805	0.086	-0.132
-664.003	-200.000	0.005	-0.405
-662.989	800.000	0.007	-0.023
-661.974	24.942	-0.201	-0.170
-660.959	72.656	0.192	-0.205
-659.945	-200.000	-0.007	0.035
-658.930	-99.433	0.237	-0.061
-657.916	-92.860	0.218	-0.062
-656.901	800.000	0.138	0.494
-655.886	158.095	0.125	0.177
-654.872	-193.048	0.250	0.002
-653.857	800.000	-0.073	-0.223
-652.843	184.592	-0.121	0.183
-651.828	-200.000	-0.052	0.259
-650.814	301.521	-0.111	-0.210
-649.799	-75.074	0.134	0.049
-648.784	-200.000	0.025	0.292
-647.770	-141.348	0.182	0.019
-646.755	226.342	-0.074	-0.123
-645.741	-41.572	0.168	0.088
-644.726	600.074	-0.113	-0.285
-643.711	800.000	-0.050	0.185
-642.697	410.279	0.111	-0.239
-641.682	-2.126	0.176	0.126
-640.668	597.954	-0.016	-0.039
-639.653	694.516	-0.077	-0.206
-638.638	171.899	0.083	0.122
-637.624	229.239	-0.181	0.302
-636.609	39.548	-0.027	-0.024
-635.595	-7.095	-0.078	-0.054
-634.580	-200.000	-0.023	0.234
-633.565	108.272	-0.141	0.172
-632.551	383.893	0.101	0.213
-631.536	192.091	0.318	0.488
-630.522	85.862	0.236	0.264
-629.507	209.878	-0.193	0.308
-628.492	-133.339	-0.312	0.040
-627.478	200.021	-0.052	-0.081
-626.463	272.754	-0.076	-0.137
-625.449	45.759	0.182	-0.171
-624.434	26.319	0.103	-0.087
-623.419	-51.564	0.410	-0.195
-622.405	-23.664	-0.113	-0.069
-621.390	-187.433	-0.216	0.003
-620.376	800.000	-0.060	0.216
-619.361	-31.695	-0.111	0.064
-618.346	-200.000	-0.005	-0.146
-617.332	-101.895	0.173	-0.043
-616.317	-130.006	0.281	0.039
-615.303	800.000	-0.028	-0.107
-614.288	-38.302	-0.334	-0.180
-613.273	-44.086	-0.146	0.074
-612.259	126.814	0.119	0.153
-611.244	-98.421	-0.386	-0.101
-610.230	326.725	-0.048	-0.094
-609.215	-200.000	-0.032	-0.200
-608.201	40.778	0.279	-0.257
-607.186	105.596	0.066	-0.079
-606.171	61.390	-0.142	0.144
-605.157	25.610	0.209	0.177
-604.142	119.680	0.062	-0.078
-603.128	800.000	0.111	-0.400
-602.113	369.817	0.044	-0.090
-601.098	-109.815	0.163	0.035
-600.084	-120.626	0.407	-0.070
-599.069	800.000	-0.066	-0.192
-598.055	92.238	0.309	0.354
-597.040	380.797	0.137	0.285
-596.025	-200.000	-0.026	-0.153
-595.011	153.844	-0.131	0.183
-593.996	170.421	-0.041	0.060
-592.982	-189.394	-0.223	0.003
-591.967	142.656	0.074	0.100
-590.952	-22.897	-0.243	-0.149
-589.938	800.000	0.043	-0.186
-588.923	-153.817	-0.285	-0.020
-587.909	-200.000	-0.009	0.243
-586.894	87.867	-0.023	-0.026
-585.879	185.791	-0.097	-0.147
-584.865	-86.079	0.170	0.054
-583.850	-200.000	0.008	0.259
-582.836	-200.000	0.011	-0.272
-581.821	-32.547	-0.296	0.168
-580.806	402.886	0.188	0.403
-579.792	273.339	0.070	-0.127
-578.777	283.586	-0.047	-0.087
-577.763	-4.341	0.059	-0.042
-576.748	47.439	-0.106	0.101
-575.733	-86.074	0.146	-0.046
-574.719	-6.166	-0.127	0.089
-573.704	-200.000	-0.009	0.211
-572.690	-200.000	0.013	-0.156
-571.675	-90.944	0.254	0.074
-570.661	-137.344	-0.140	-0.016
-569.646	152.292	0.060	0.083
-568.631	-88.526	0.076	-0.023
-567.617	-47.161	0.108	-0.054
-566.602	190.368	-0.078	-0.120
-565.588	61.790	-0.196	0.199
-564.573	71.759	-0.213	-0.225
-563.558	158.497	-0.188	-0.265
-562.544	102.506	-0.221	-0.263
-561.529	-200.000	0.016	-0.108
-560.515	43.342	-0.050	-0.046
-559.500	-99.121	-0.223	0.057
-558.485	800.000	0.063	0.180
-557.471	12.543	-0.206	0.161
-556.456	457.355	0.075	-0.169
-555.442	206.961	0.065	0.103
-554.427	713.131	-0.004	-0.010
-553.412	162.492	-0.030	0.043
-552.398	-174.899	0.567	-0.016
-551.383	731.823	-0.052	0.142
-550.369	236.089	-0.071	0.119
-549.354	800.000	-0.063	-0.237
-548.339	295.971	0.121	-0.226
-547.325	-145.556	-0.361	-0.033
-546.310	164.930	0.091	-0.130
-545.296	-15.374	0.254	-0.165
-544.281	-46.959	-0.256	0.127
-543.266	-185.406	0.310	-0.005
-542.252	-200.000	-0.017	0.168
-541.237	-18.564	0.232	0.147
-540.223	106.921	0.084	0.102
-539.208	-29.517	0.157	0.091
-538.193	-91.036	-0.321	0.094
-537.179	800.000	0.089	-0.286
-536.164	-38.459	0.059	0.032
-535.150	-200.000	-0.073	0.379
-534.135	15.469	-0.117	-0.093
-533.121	196.307	-0.146	-0.225
-532.106	121.437	0.260	0.329
-531.091	-46.965	-0.064	0.032
-530.077	-200.000	-0.015	0.105
-529.062	-84.161	-0.143	-0.046
-528.048	-141.803	0.251	-0.026
-527.033	-133.346	-0.344	0.044
-526.018	666.083	-0.072	-0.189
-525.004	-119.678	0.184	0.032
-523.989	31.920	-0.187	0.164
-522.975	-44.926	0.110	0.056
-521.960	19.296	0.043	-0.035
-520.945	-200.000	0.009	0.130
-519.931	-0.757	-0.213	-0.153
-518.916	639.692	0.048	-0.125
-517.902	242.328	0.129	0.220
-516.887	-64.051	-0.150	0.062
-515.872	-200.000	0.080	-0.504
-514.858	-35.340	0.174	-0.096
-513.843	328.436	0.022	0.043
-512.829	-178.706	-0.271	0.006
-511.814	-80.120	0.144	-0.049
-510.799	-200.000	-0.024	0.114
-509.785	-86.010	0.043	-0.014
-508.770	62.979	0.224	0.227
-507.756	800.000	0.119	0.454
-506.741	91.325	0.304	-0.347
-505.726	4.667	-0.267	0.199
-504.712	800.000	0.001	0.004
-503.697	-19.633	0.280	0.176
-502.683	494.975	0.108	-0.251
-501.668	-200.000	0.060	-0.338
-500.653	20.420	-0.194	-0.159
-499.639	-59.473	0.215	-0.094
-498.624	658.061	-0.063	-0.165
-497.610	35.327	0.132	0.118
-496.595	150.474	-0.063	-0.087
-495.581	-83.060	-0.119	0.039
-494.566	-153.380	0.041	0.003
-493.551	41.200	-0.119	0.109
-492.537	800.000	-0.027	-0.118
-491.522	800.000	-0.072	-0.215
-490.508	-129.662	-0.259	-0.036
-489.493	-152.809	0.380	-0.027
-488.478	-30.561	0.084	0.048
-487.464	-71.467	0.391	0.148
-486.449	-200.000	-0.029	0.325
-485.435	-5.359	0.165	-0.115
-484.420	277.515	0.047	-0.085
-483.405	447.615	0.120	0.268
-482.391	-92.513	0.194	-0.055
-481.376	-194.224	-0.232	0.002
-480.362	-31.249	-0.221	-0.126
-479.347	-15.905	0.216	0.139
-478.332	-108.337	0.117	0.026
-477.318	-120.618	0.194	0.033
-476.303	-4.152	0.478	-0.336
-475.289	321.090	0.103	0.198
-474.274	301.250	-0.092	0.173
-473.259	166.967	-0.066	-0.096
-472.245	90.853	-0.148	0.168
-471.230	-66.410	0.226	0.091
-470.216	-69.402	-0.189	-0.073
-469.201	219.674	-0.125	0.203
-468.186	133.750	-0.276	-0.362
-467.172	191.648	-0.108	-0.164
-466.157	-22.929	0.397	-0.243
-465.143	-200.000	-0.011	0.322
-464.128	-73.315	-0.224	0.083
-463.113	800.000	-0.083	-0.275
-462.099	85.017	-0.187	0.207
-461.084	103.628	-0.064	0.077
-460.070	58.806	0.149	-0.148
-459.055	604.586	0.050	-0.127
-458.040	449.204	0.083	-0.184
-457.026	65.539	0.162	-0.166
-456.011	800.000	0.012	-0.045
-454.997	-200.000	0.000	-0.301
-453.982	-200.000	0.003	0.048
-452.968	379.007	0.088	0.182
-451.953	69.880	0.139	-0.145
-450.938	-200.000	0.006	-0.170
-449.924	-124.614	0.095	0.015
-448.909	378.182	0.103	-0.214
-447.895	356.937	0.156	-0.315
-446.880	270.009	-0.086	0.153
-445.865	800.000	-0.050	0.157
-444.851	-78.550	-0.115	-0.040
-443.836	51.719	0.086	-0.083
-442.822	800.000	0.011	-0.034
-441.807	311.047	-0.032	-0.061
-440.792	-13.756	-0.056	-0.037
-439.778	-60.645	0.113	-0.049
-438.763	199.702	0.114	-0.177
-437.749	-12.735	-0.049	0.032
-436.734	-109.278	-0.366	0.078
-435.719	-45.401	-0.185	0.093
-434.705	-200.000	-0.073	0.649
-433.690	-200.000	-0.014	0.258
-432.676	-11.332	0.213	-0.142
-431.661	155.263	0.110	-0.152
-430.646	726.586	-0.096	-0.259
-429.632	-200.000	0.068	-0.420
-428.617	-200.000	0.023	0.192
-427.603	-117.253	-0.449	-0.083
-426.588	-123.994	-0.162	0.026
-425.573	-109.226	0.116	0.025
-424.559	-41.023	-0.076	-0.040
-423.544	-121.983	0.524	-0.087
-422.530	-200.000	0.012	0.225
-421.515	-10.320	-0.170	-0.114
-420.500	2.679	0.115	-0.084
-419.486	7.108	-0.203	0.153
-418.471	-76.646	0.194	-0.069
-417.457	-200.000	-0.011	0.096
-416.442	-200.000	0.001	0.051
-415.428	-70.548	-0.262	-0.100
-414.413	212.699	0.083	0.133
-413.398	21.081	-0.149	0.122
-412.384	800.000	-0.075	-0.247
-411.369	595.271	-0.026	0.064
-410.355	1.390	0.627	-0.456
-409.340	367.022	-0.212	0.434
-408.325	146.367	-0.137	0.186
-407.311	800.000	0.017	0.062
-406.296	756.380	-0.065	-0.179
-405.282	160.699	-0.107	-0.151
-404.267	-200.000	0.034	0.157
-403.252	23.692	-0.172	-0.143
-402.238	800.000	-0.089	0.327
-401.223	800.000	-0.100	0.369
-400.209	67.583	0.049	0.051
-399.194	467.201	0.100	0.226
-398.179	-90.461	0.182	0.053
-397.165	191.494	0.308	-0.468
-396.150	-18.496	0.337	0.212
-395.136	-2.331	0.187	-0.133
-394.121	56.519	0.381	-0.375
-393.106	184.945	-0.220	-0.330
-392.092	48.186	-0.110	0.104
-391.077	-58.620	0.134	-0.059
-390.063	-139.967	-0.216	-0.023
-389.048	-86.959	0.118	-0.036
-388.033	-200.000	-0.001	-0.153
-387.019	-93.373	-0.175	0.049
-386.004	203.550	-0.219	-0.342
-384.990	280.185	0.102	-0.183
-383.975	-200.000	0.009	-0.153
-382.960	-123.814	0.092	-0.015
-381.946	-200.000	0.032	-0.168
-380.931	25.854	0.174	0.147
-379.917	-71.872	-0.305	0.115
-378.902	-25.157	0.190	-0.114
-377.888	417.184	0.061	-0.132
-376.873	710.587	0.022	0.060
-375.858	36.417	-0.031	0.028
-374.844	-77.986	-0.083	-0.029
-373.829	-137.870	-0.143	0.016
-372.815	732.260	-0.037	-0.101
-371.800	800.000	-0.047	-0.135
-370.785	589.201	-0.155	-0.386
-369.771	-177.829	0.282	-0.007
-368.756	-26.380	0.284	-0.168
-367.742	11.610	-0.239	0.185
-366.727	389.733	-0.160	-0.335
-365.712	-30.024	0.219	0.126
-364.698	800.000	0.031	-0.095
-363.683	-147.556	-0.289	0.025
-362.669	46.841	0.374	0.351
-361.654	-109.133	0.124	-0.027
-360.639	110.866	0.110	-0.134
-359.625	-53.124	-0.201	-0.093
-358.610	-200.000	0.002	0.076
-357.596	-35.209	-0.073	-0.040
-356.581	70.538	-0.087	-0.091
-355.566	-52.450	-0.071	-0.033
-354.552	494.148	-0.053	-0.124
-353.537	-44.976	0.155	-0.078
-352.523	137.965	0.109	0.144
-351.508	-34.516	-0.194	-0.107
-350.493	36.682	0.194	0.173
-349.479	-25.928	0.208	0.124
-348.464	155.420	0.093	0.129
-347.450	83.860	-0.118	0.130
-346.435	800.000	0.054	-0.199
-345.420	-41.375	0.198	-0.103
-344.406	-200.000	-0.041	0.370
-343.391	116.239	-0.159	0.197
-342.377	-75.452	-0.133	0.048
-341.362	-17.788	-0.173	0.109
-340.348	-200.000	0.020	0.238
-339.333	-65.553	-0.241	0.097
-338.318	-200.000	0.041	-0.195
-337.304	59.687	0.121	0.121
-336.289	-25.736	-0.108	0.064
-335.275	-55.950	0.235	-0.106
-334.260	-200.000	0.030	-0.172
-333.245	367.434	0.118	0.241
-332.231	67.096	0.074	-0.076
-331.216	152.911	0.106	-0.146
-330.202	335.718	0.126	-0.247
-329.187	-37.863	-0.058	-0.031
-328.172	64.569	0.105	0.107
-327.158	753.586	0.037	0.102
-326.143	-200.000	0.028	-0.221
-325.129	37.267	-0.077	0.069
-324.114	22.876	0.116	0.096
-323.099	-36.445	0.071	-0.039
-322.085	434.891	-0.102	-0.224
-321.070	-26.831	-0.408	-0.241
-320.056	2.966	0.300	-0.219
-319.041	-137.879	-0.146	-0.016
-318.026	48.193	-0.127	-0.120
-317.012	-124.288	0.138	0.022
-315.997	-21.707	-0.298	0.183
-314.983	182.513	-0.073	-0.108
-313.968	-7.105	-0.185	0.126
-312.953	-147.238	0.057	0.005
-311.939	800.000	-0.080	-0.280
-310.924	-50.078	-0.204	-0.097
-309.910	263.173	0.175	0.306
-308.895	373.367	0.078	0.161
-307.880	-116.082	-0.155	-0.029
-306.866	325.068	0.056	0.109
-305.851	-169.624	-0.371	0.014
-304.837	800.000	0.014	-0.040
-303.822	-79.948	0.231	-0.078
-302.807	337.373	-0.061	-0.119
-301.793	800.000	0.168	0.501
-300.778	-115.491	0.028	-0.005
-299.764	213.147	0.041	-0.066
-298.749	-57.463	0.096	-0.042
-297.735	-180.374	-0.533	0.011
-296.720	800.000	0.047	-0.158
-295.705	-200.000	-0.032	0.203
-294.691	46.091	0.070	-0.065
-293.676	7.142	0.265	0.199
-292.662	-41.691	0.307	0.158
-291.647	224.596	-0.162	0.263
-290.632	-7.660	0.303	0.206
-289.618	492.220	0.047	-0.108
-288.603	-64.165	-0.115	0.047
-287.589	33.063	0.065	-0.057
-286.574	-121.026	-0.218	0.037
-285.559	78.000	0.070	-0.075
-284.545	116.729	-0.046	0.057
-283.530	-114.811	-0.200	-0.038
-282.516	-155.506	0.057	0.004
-281.501	287.087	0.198	-0.361
-280.486	5.094	-0.124	0.092
-279.472	-79.537	-0.245	-0.083
-278.457	160.959	-0.189	-0.266
-277.443	252.532	-0.166	0.285
-276.428	-200.000	-0.023	-0.204
-275.413	-90.122	0.169	-0.050
-274.399	82.507	-0.121	-0.133
-273.384	-104.781	0.181	0.042
-272.370	15.185	0.135	0.106
-271.355	783.951	-0.107	-0.295
-270.340	-16.136	-0.331	-0.211
-269.326	-11.452	0.214	-0.142
-268.311	7.849	-0.131	0.098
-267.297	-148.518	0.380	-0.031
-266.282	-89.508	0.379	0.112
-265.267	-107.382	-0.243	0.054
-264.253	-200.000	0.017	-0.091
-263.238	218.230	0.148	-0.238
-262.224	356.522	-0.169	0.338
-261.209	677.032	-0.129	0.338
-260.195	-121.194	0.292	0.049
-259.180	-53.357	-0.069	-0.032
-258.165	242.041	-0.156	0.262
-257.151	-88.078	-0.150	-0.045
-256.136	-76.821	-0.170	0.060
-255.122	44.051	-0.214	0.197
-254.107	-62.746	-0.027	0.011
-253.092	117.129	0.132	0.163
-252.078	63.977	0.168	-0.170
-251.063	-200.000	-0.055	0.278
-250.049	357.378	0.089	0.178
-249.034	-88.957	-0.202	0.060
-248.019	-42.974	-0.016	0.008
-247.005	366.247	-0.271	0.549
-245.990	-137.021	-0.132	0.015
-244.976	-200.000	-0.008	0.113
-243.961	800.000	-0.027	0.111
-242.946	-200.000	0.017	-0.282
-241.932	319.262	-0.044	-0.084
-240.917	377.442	0.049	0.101
-239.903	-200.000	-0.049	-0.371
-238.888	76.042	-0.416	-0.442
-237.873	24.328	-0.270	-0.224
-236.859	218.679	0.128	0.205
-235.844	-200.000	-0.002	-0.242
-234.830	-37.794	0.480	-0.257
-233.815	60.237	0.134	-0.134
-232.800	135.640	0.185	0.242
-231.786	-30.647	-0.071	-0.040
-230.771	-17.346	0.241	-0.152
-229.757	204.837	-0.187	-0.291
-228.742	-39.763	0.013	-0.007
-227.727	-200.000	0.004	-0.267
-226.713	-200.000	-0.023	-0.131
-225.698	-60.971	0.208	-0.088
-224.684	-14.885	0.159	-0.103
-223.669	800.000	-0.101	0.332
-222.655	507.468	-0.069	0.160
-221.640	-200.000	-0.008	-0.150
-220.625	800.000	0.070	0.274
-219.611	79.777	-0.052	0.056
-218.596	596.088	0.049	0.121
-217.582	-130.530	0.180	-0.024
-216.567	-111.215	0.124	0.025
-215.552	75.070	-0.114	-0.121
-214.538	-23.547	0.341	-0.206
-213.523	800.000	-0.089	-0.307
-212.509	8.446	0.076	0.057
-211.494	53.559	-0.083	0.080
-210.479	10.212	-0.387	-0.295
-209.465	-114.704	-0.098	0.019
-208.450	-37.868	-0.096	-0.051
-207.436	-151.704	-0.357	0.026
-206.421	27.368	-0.278	0.234
-205.406	-200.000	-0.019	0.185
-204.392	-27.717	-0.071	-0.041
-203.377	83.410	-0.176	-0.193
-202.363	-82.769	-0.160	-0.052
-201.348	-74.187	-0.185	-0.067
-200.333	152.148	0.132	-0.180
-199.319	-200.000	0.014	0.296
-198.304	454.326	0.106	0.236
-197.290	170.210	-0.134	-0.193
-196.275	-86.256	-0.158	-0.049
-195.260	-74.109	-0.208	0.075
-194.246	-102.462	-0.292	-0.070
-193.231	-200.000	0.038	-0.276
-192.217	-88.443	-0.135	0.040
-191.202	88.820	0.150	0.168
-190.187	301.810	0.248	0.459
-189.173	-200.000	0.008	-0.121
-188.158	-79.719	0.251	0.085
-187.144	800.000	0.019	-0.081
-186.129	146.501	0.046	-0.062
-185.114	-200.000	-0.088	0.421
-184.100	468.386	-0.195	0.439
-183.085	19.089	0.252	-0.203
-182.071	49.015	0.216	0.203
-181.056	-94.516	-0.316	0.086
-180.042	213.082	0.077	0.122
-179.027	649.846	0.073	0.188
-178.012	800.000	0.110	-0.367
-176.998	-157.585	-0.401	-0.024
-175.983	-200.000	-0.023	0.111
-174.969	-200.000	0.084	0.380
-173.954	-3.203	-0.223	0.156
-172.939	617.053	0.117	0.295
-171.925	-200.000	-0.088	-0.466
-170.910	161.184	0.089	-0.125
-169.896	394.132	0.069	0.145
-168.881	99.973	0.213	-0.247
-167.866	-105.206	-0.140	-0.032
-166.852	-94.677	-0.466	0.127
-165.837	42.196	-0.252	0.230
-164.823	-5.831	0.093	-0.064
-163.808	-200.000	0.056	0.289
-162.793	267.315	0.073	-0.128
-161.779	-9.475	-0.264	0.176
-160.764	10.533	0.263	0.200
-159.750	156.562	-0.112	-0.155
-158.735	-79.071	0.205	0.070
-157.720	-88.530	0.152	-0.045
-156.706	-24.138	0.250	0.149
-155.691	-43.168	-0.386	0.196
-154.677	-200.000	-0.017	-0.254
-153.662	290.496	0.059	-0.108
-152.647	151.596	-0.116	0.158
-151.633	755.893	-0.107	0.290
-150.618	-25.424	-0.213	0.126
-149.604	-87.129	0.154	0.047
-148.589	378.338	-0.080	-0.163
-147.574	-134.221	0.305	0.038
-146.560	124.932	-0.250	0.315
-145.545	-97.809	-0.219	0.057
-144.531	800.000	-0.041	0.115
-143.516	-190.348	0.361	-0.004
-142.502	-200.000	0.049	-0.264
-141.487	-89.379	-0.175	-0.052
-140.472	-11.179	0.189	-0.125
-139.458	-114.630	-0.169	-0.032
-138.443	174.770	-0.081	-0.118
-137.429	513.741	-0.207	0.484
-136.414	534.231	0.174	0.412
-135.399	56.498	-0.042	0.040
-134.385	-109.959	-0.198	-0.042
-133.370	53.798	0.202	-0.194
-132.356	305.101	-0.093	0.172
-131.341	70.716	0.193	-0.200
-130.326	800.000	0.102	-0.329
-129.312	-69.219	0.128	-0.049
-128.297	-200.000	-0.012	-0.205
-127.283	-147.895	0.266	-0.022
-126.268	-157.846	0.103	0.006
-125.253	-78.662	0.262	-0.089
-124.239	424.054	-0.057	-0.122
-123.224	-200.000	0.029	0.217
-122.210	431.300	-0.042	0.092
-121.195	800.000	-0.067	0.239
-120.180	-169.388	0.380	-0.014
