DTS Sentinel unit serial number:	SN413079Multiplexer serial number:	ORYXHardware model number:	OX4-SRSoftware version number:	ORYX F/W v4.00 Oryx Data Collector v3.7.2.0data status	okinstallation	princeton_trtdifferential loss correction	single-endedforward channel	channel 1reverse channel	N/Adate	2019/09/10time	16:36:11forward acquisition time	60.00reverse acquisition time	0.00gamma	496.2192k internal	0.2299k external	0.2299temperature offset calibration	0.9925default loss term (dB/km)	0.3790temperature slope calibration	1.0000multiplexer offset coefficient	1.0000multiplexer slope coefficient	1.0000fibre end	0.00T internal ref (°C)	37.89T ext. ref 1 (°C)	-0.28T ext. ref 2 (°C)	30.27length (m)	temperature (°C)	Stokes	anti-Stokes-747.200	121.493	-0.167	-0.212
-746.185	302.021	0.114	0.215
-745.171	367.346	0.098	0.202
-744.156	16.664	-0.129	-0.104
-743.142	-4.911	-0.104	0.073
-742.127	167.854	0.143	-0.207
-741.112	-20.880	0.194	-0.122
-740.098	75.796	-0.124	-0.134
-739.083	339.697	-0.022	0.043
-738.069	800.000	0.073	0.222
-737.054	-76.964	-0.104	-0.037
-736.039	-112.412	-0.372	0.076
-735.025	-34.593	-0.034	0.019
-734.010	-200.000	0.028	-0.131
-732.996	-200.000	-0.011	0.139
-731.981	85.713	-0.116	-0.130
-730.966	163.332	-0.152	0.218
-729.952	154.851	0.012	0.017
-728.937	-19.940	-0.073	-0.046
-727.923	-200.000	-0.008	-0.194
-726.908	586.412	-0.147	-0.369
-725.894	70.585	-0.023	-0.025
-724.879	-200.000	0.021	-0.241
-723.864	-64.725	-0.191	-0.079
-722.850	-200.000	0.053	0.264
-721.835	-98.173	-0.151	0.039
-720.821	64.186	-0.117	0.120
-719.806	800.000	0.021	-0.060
-718.791	-200.000	-0.018	-0.082
-717.777	-200.000	-0.038	-0.201
-716.762	-93.574	-0.262	0.074
-715.748	60.801	-0.152	0.154
-714.733	-94.772	0.191	-0.053
-713.718	-139.691	0.045	0.005
-712.704	-200.000	-0.005	-0.219
-711.689	-63.486	-0.242	0.101
-710.675	118.727	-0.112	0.141
-709.660	296.185	-0.146	0.272
-708.645	-200.000	-0.001	-0.006
-707.631	56.874	-0.082	0.082
-706.616	-84.316	0.185	-0.060
-705.602	-119.820	0.075	0.013
-704.587	256.205	-0.189	-0.331
-703.572	-119.024	0.172	0.031
-702.558	125.884	-0.156	-0.201
-701.543	-69.323	0.283	0.111
-700.529	0.874	-0.166	-0.121
-699.514	-74.440	0.068	-0.025
-698.499	456.028	0.118	0.267
-697.485	170.733	0.170	0.247
-696.470	167.314	-0.164	0.237
-695.456	-114.259	0.284	0.056
-694.441	-8.757	-0.316	0.216
-693.426	-4.328	-0.277	0.195
-692.412	11.692	-0.189	0.147
-691.397	29.929	-0.333	-0.289
-690.383	375.768	0.056	0.116
-689.368	120.979	-0.289	0.366
-688.354	106.903	-0.039	-0.047
-687.339	-17.478	-0.050	-0.032
-686.324	157.506	-0.226	-0.319
-685.310	-94.616	-0.164	-0.045
-684.295	190.263	-0.089	-0.137
-683.281	7.467	0.185	0.141
-682.266	-200.000	-0.075	-0.338
-681.251	68.504	0.143	-0.150
-680.237	-200.000	0.018	0.222
-679.222	800.000	-0.030	-0.089
-678.208	-143.042	-0.182	-0.018
-677.193	61.376	0.298	0.302
-676.178	62.110	0.126	0.128
-675.164	800.000	-0.014	0.049
-674.149	-37.122	0.101	-0.055
-673.135	100.739	-0.161	-0.190
-672.120	207.729	-0.119	-0.188
-671.105	245.350	-0.130	-0.223
-670.091	86.628	-0.066	-0.074
-669.076	-67.571	-0.137	0.055
-668.062	-52.917	-0.176	-0.083
-667.047	-142.711	-0.340	0.034
-666.032	76.931	-0.047	0.051
-665.018	175.960	-0.088	0.130
-664.003	128.342	0.114	-0.148
-662.989	-95.476	0.434	-0.118
-661.974	-200.000	-0.026	0.141
-660.959	-62.851	-0.375	-0.158
-659.945	140.563	-0.273	-0.367
-658.930	800.000	0.030	0.106
-657.916	-112.605	0.219	0.044
-656.901	130.038	0.048	-0.062
-655.886	-200.000	-0.243	-0.001
-654.872	-200.000	-0.004	-0.117
-653.857	-43.587	-0.149	0.077
-652.843	-177.115	-0.080	0.002
-651.828	-200.000	0.010	0.268
-650.814	17.658	0.185	-0.150
-649.799	105.729	-0.248	-0.299
-648.784	800.000	-0.128	-0.397
-647.770	800.000	0.086	-0.305
-646.755	63.344	0.080	0.082
-645.741	-164.854	-0.399	-0.018
-644.726	259.826	0.012	-0.021
-643.711	28.339	0.112	0.096
-642.697	22.035	0.146	-0.121
-641.682	145.338	-0.075	-0.102
-640.668	96.938	-0.122	-0.142
-639.653	-165.043	0.409	0.018
-638.638	171.414	-0.094	0.137
-637.624	193.119	-0.084	-0.129
-636.609	397.428	-0.094	-0.200
-635.595	-200.000	0.010	-0.310
-634.580	800.000	0.069	-0.219
-633.565	-164.157	-0.230	0.011
-632.551	-147.608	0.051	-0.004
-631.536	194.805	0.113	0.175
-630.522	10.524	-0.152	0.118
-629.507	-200.000	0.026	-0.289
-628.492	-200.000	-0.046	-0.291
-627.478	-157.649	0.063	0.004
-626.463	150.992	-0.011	0.016
-625.449	-85.861	-0.138	0.043
-624.434	-117.663	-0.157	-0.029
-623.419	42.326	-0.175	-0.161
-622.405	25.801	0.137	-0.116
-621.390	3.570	0.207	-0.153
-620.376	-46.105	-0.256	0.128
-619.361	259.014	0.046	-0.081
-618.346	-107.969	-0.259	0.057
-617.332	118.277	-0.243	-0.304
-616.317	800.000	-0.056	0.159
-615.303	-4.493	0.062	0.044
-614.288	518.751	-0.064	-0.152
-613.273	-36.119	-0.159	0.087
-612.259	250.686	0.056	0.097
-611.244	800.000	0.020	0.071
-610.230	800.000	-0.095	-0.290
-609.215	-45.481	0.157	0.079
-608.201	20.859	-0.222	0.182
-607.186	170.483	-0.165	0.239
-606.171	-200.000	0.002	0.139
-605.157	1.935	0.073	-0.053
-604.142	-81.403	-0.485	0.162
-603.128	309.381	-0.071	0.135
-602.113	383.239	-0.078	-0.162
-601.098	279.517	-0.160	-0.289
-600.084	-200.000	0.012	-0.138
-599.069	-200.000	0.041	0.566
-598.055	3.819	0.194	0.144
-597.040	30.310	-0.061	0.052
-596.025	59.840	0.199	-0.199
-595.011	-10.568	0.154	-0.103
-593.996	-67.849	0.133	0.053
-592.982	28.444	-0.283	0.243
-591.967	-60.430	-0.202	0.087
-590.952	-110.807	0.230	-0.048
-589.938	-119.160	0.227	-0.040
-588.923	-25.341	0.262	-0.157
-587.909	-200.000	0.037	-0.241
-586.894	-17.013	0.175	-0.112
-585.879	-51.959	0.343	0.161
-584.865	-102.880	-0.374	0.090
-583.850	23.342	0.166	-0.138
-582.836	-56.846	0.202	-0.090
-581.821	417.511	-0.024	-0.052
-580.806	-89.557	-0.101	0.030
-579.792	469.390	-0.068	-0.155
-578.777	22.510	0.169	-0.140
-577.763	-41.144	0.123	-0.064
-576.748	589.781	-0.056	-0.140
-575.733	800.000	0.118	-0.424
-574.719	-18.401	-0.210	-0.133
-573.704	-13.746	0.192	-0.126
-572.690	397.565	-0.093	-0.196
-571.675	-14.742	-0.265	0.172
-570.661	-192.750	0.167	-0.002
-569.646	-72.079	-0.214	0.081
-568.631	-27.433	0.249	-0.147
-567.617	7.632	0.093	0.071
-566.602	-200.000	0.026	-0.249
-565.588	-54.740	0.333	-0.153
-564.573	570.838	0.106	-0.262
-563.558	117.580	-0.127	0.158
-562.544	84.604	-0.235	0.261
-561.529	12.185	-0.173	-0.135
-560.515	-71.229	0.039	0.015
-559.500	308.078	0.131	-0.248
-558.485	1.456	0.144	-0.105
-557.471	-200.000	0.040	0.183
-556.456	22.678	0.264	-0.219
-555.442	-125.768	-0.302	0.046
-554.427	241.407	-0.097	0.164
-553.412	-99.939	-0.186	-0.047
-552.398	64.174	-0.219	-0.223
-551.383	800.000	-0.037	0.161
-550.369	432.853	0.062	0.137
-549.354	-45.268	-0.281	0.141
-548.339	-200.000	-0.005	0.357
-547.325	193.150	-0.132	-0.202
-546.310	-41.374	-0.114	0.060
-545.296	800.000	-0.023	0.070
-544.281	-84.312	0.279	-0.089
-543.266	800.000	0.057	0.193
-542.252	-64.711	-0.358	0.147
-541.237	800.000	-0.055	0.177
-540.223	43.773	-0.090	0.084
-539.208	41.348	0.254	0.233
-538.193	800.000	-0.037	-0.150
-537.179	-200.000	0.054	-0.262
-536.164	-200.000	0.039	-0.195
-535.150	495.485	-0.154	0.359
-534.135	-23.396	-0.176	-0.107
-533.121	-79.413	-0.359	0.123
-532.106	709.273	0.091	0.244
-531.091	102.380	0.119	0.141
-530.077	703.468	-0.112	-0.299
-529.062	800.000	-0.107	-0.319
-528.048	800.000	0.049	0.178
-527.033	35.468	0.397	0.353
-526.018	-143.555	0.221	-0.021
-525.004	-10.331	-0.226	-0.151
-523.989	-73.525	-0.386	0.142
-522.975	35.868	0.108	-0.096
-521.960	168.339	-0.288	0.414
-520.945	-200.000	-0.012	-0.203
-519.931	238.433	0.180	-0.303
-518.916	-200.000	-0.026	-0.158
-517.902	97.114	0.178	0.206
-516.887	-200.000	0.005	-0.202
-515.872	-138.521	-0.248	0.028
-514.858	541.803	0.051	0.123
-513.843	800.000	-0.045	0.134
-512.829	-41.037	0.355	0.185
-511.814	-33.170	-0.321	-0.180
-510.799	70.431	0.090	0.094
-509.785	96.981	-0.209	-0.242
-508.770	800.000	-0.088	0.265
-507.756	-41.081	0.266	0.139
-506.741	-29.592	-0.269	0.155
-505.726	151.992	0.221	0.305
-504.712	255.902	-0.087	-0.150
-503.697	23.110	-0.046	-0.038
-502.683	30.503	0.086	0.074
-501.668	-200.000	-0.049	0.314
-500.653	22.990	0.391	0.324
-499.639	17.662	0.248	0.199
-498.624	-10.817	-0.298	-0.199
-497.610	-116.254	0.171	-0.032
-496.595	-200.000	0.029	0.240
-495.581	-200.000	-0.031	0.221
-494.566	-200.000	0.043	0.209
-493.551	800.000	0.024	-0.083
-492.537	34.530	0.125	-0.110
-491.522	317.127	-0.115	0.219
-490.508	-8.313	-0.225	0.153
-489.493	129.404	-0.142	0.184
-488.478	636.739	0.057	0.146
-487.464	-32.173	-0.283	0.160
-486.449	-200.000	-0.005	0.120
-485.435	-200.000	0.025	0.150
-484.420	17.385	-0.138	-0.110
-483.405	-65.911	0.193	0.078
-482.391	-107.333	-0.355	0.079
-481.376	433.995	0.130	-0.285
-480.362	47.722	-0.282	-0.266
-479.347	-143.525	0.354	-0.034
-478.332	-22.694	0.181	0.110
-477.318	20.501	-0.102	0.083
-476.303	438.797	0.056	0.122
-475.289	-98.899	0.285	-0.073
-474.274	-67.339	-0.143	-0.057
-473.259	-154.877	-0.137	0.009
-472.245	566.104	0.072	0.178
-471.230	-200.000	-0.012	-0.160
-470.216	-200.000	-0.040	-0.201
-469.201	-138.817	-0.169	-0.019
-468.186	181.654	-0.163	0.242
-467.172	-96.893	0.469	-0.124
-466.157	-179.891	0.025	0.001
-465.143	66.697	0.330	0.338
-464.128	-200.000	-0.040	-0.432
-463.113	-52.763	0.072	0.034
-462.099	-52.674	-0.119	-0.056
-461.084	370.745	-0.208	0.426
-460.070	13.850	0.174	-0.137
-459.055	-12.634	0.325	0.214
-458.040	-200.000	-0.010	-0.057
-457.026	-167.381	0.145	0.006
-456.011	-200.000	0.002	-0.013
-454.997	489.052	0.134	0.308
-453.982	-47.761	0.202	0.099
-452.968	-21.393	-0.224	-0.138
-451.953	14.260	0.213	-0.168
-450.938	-200.000	0.004	-0.122
-449.924	-103.142	-0.292	0.070
-448.909	-200.000	-0.026	0.173
-447.895	197.984	-0.153	-0.236
-446.880	-12.573	-0.161	-0.106
-445.865	-200.000	0.011	0.092
-444.851	19.124	-0.354	0.286
-443.836	68.664	-0.265	0.274
-442.822	66.072	0.272	-0.278
-441.807	-146.921	0.179	0.016
-440.792	-68.844	-0.157	-0.061
-439.778	800.000	-0.124	0.390
-438.763	-200.000	0.005	-0.241
-437.749	-37.371	-0.202	0.109
-436.734	161.995	0.217	0.307
-435.719	28.047	-0.362	-0.308
-434.705	-93.707	0.116	-0.032
-433.690	188.964	-0.051	-0.077
-432.676	-19.180	0.214	0.134
-431.661	-109.177	0.101	-0.022
-430.646	-69.512	-0.155	-0.060
-429.632	-43.120	0.142	-0.072
-428.617	-43.561	0.279	0.142
-427.603	-172.392	0.381	-0.012
-426.588	-200.000	-0.002	-0.261
-425.573	800.000	0.026	-0.085
-424.559	321.107	0.103	-0.197
-423.544	-112.220	0.229	0.046
-422.530	-85.254	0.215	-0.068
-421.515	800.000	-0.145	-0.427
-420.500	98.592	-0.291	0.338
-419.486	246.784	-0.145	-0.247
-418.471	-200.000	-0.361	-0.001
-417.457	-56.380	0.237	0.106
-416.442	3.683	0.187	-0.137
-415.428	515.683	-0.098	0.230
-414.413	121.883	0.175	0.220
-413.398	240.547	0.101	0.170
-412.384	302.664	0.143	-0.266
-411.369	-200.000	0.018	0.204
-410.355	-200.000	0.087	-0.488
-409.340	-169.232	0.186	0.007
-408.325	-200.000	0.016	-0.258
-407.311	-189.622	0.209	-0.002
-406.296	3.507	0.192	-0.141
-405.282	306.769	-0.082	-0.154
-404.267	800.000	-0.059	0.181
-403.252	-155.008	0.171	-0.011
-402.238	-132.288	-0.282	-0.037
-401.223	-64.558	0.274	-0.112
-400.209	73.207	0.098	0.103
-399.194	-137.462	-0.292	0.033
-398.179	-200.000	0.003	0.111
-397.165	164.766	-0.192	0.272
-396.150	155.653	0.014	-0.019
-395.136	76.340	0.293	0.312
-394.121	487.531	0.083	-0.190
-393.106	562.447	-0.063	-0.154
-392.092	147.648	0.258	0.349
-391.077	531.642	-0.085	0.203
-390.063	192.952	0.048	0.074
-389.048	800.000	0.020	0.056
-388.033	-200.000	-0.058	0.327
-387.019	-31.040	0.225	0.127
-386.004	-95.929	-0.078	0.021
-384.990	-200.000	0.044	-0.445
-383.975	-200.000	0.003	-0.042
-382.960	21.963	0.343	0.282
-381.946	-200.000	0.006	0.189
-380.931	148.772	0.064	-0.087
-379.917	-200.000	-0.003	-0.055
-378.902	-18.806	-0.135	0.084
-377.888	-40.277	0.095	-0.050
-376.873	-103.712	-0.176	0.042
-375.858	178.296	-0.114	0.168
-374.844	-149.206	0.086	-0.007
-373.829	-9.251	-0.032	0.021
-372.815	538.600	0.121	0.290
-371.800	-33.120	-0.192	-0.107
-370.785	800.000	-0.046	0.180
-369.771	-200.000	-0.066	0.373
-368.756	-200.000	-0.038	0.261
-367.742	-37.239	-0.262	-0.141
-366.727	39.619	-0.168	-0.151
-365.712	-134.952	0.103	-0.013
-364.698	-200.000	0.021	-0.411
-363.683	-200.000	-0.015	-0.104
-362.669	538.973	-0.079	-0.189
-361.654	-189.267	-0.132	0.002
-360.639	-200.000	0.062	0.370
-359.625	177.848	-0.166	0.244
-358.610	53.352	0.044	-0.043
-357.596	87.486	0.093	0.104
-356.581	82.301	0.223	0.243
-355.566	-36.008	-0.073	-0.040
-354.552	800.000	-0.008	0.031
-353.537	-184.399	0.158	-0.003
-352.523	117.192	0.181	-0.224
-351.508	-154.833	-0.345	-0.023
-350.493	-149.890	0.071	0.006
-349.479	559.336	-0.129	-0.313
-348.464	-148.768	-0.245	-0.020
-347.450	-61.003	0.240	-0.102
-346.435	800.000	-0.034	-0.098
-345.420	229.072	-0.069	-0.114
-344.406	-130.811	-0.176	0.024
-343.391	-67.341	-0.239	0.095
-342.377	-200.000	0.069	-0.440
-341.362	676.363	0.068	0.178
-340.348	-23.616	0.197	-0.119
-339.333	-14.278	0.125	0.081
-338.318	212.350	0.055	0.087
-337.304	-118.576	-0.094	0.017
-336.289	-149.516	0.497	-0.040
-335.275	-86.910	-0.220	-0.067
-334.260	300.125	0.135	-0.250
-333.245	-69.132	-0.200	-0.077
-332.231	-57.819	0.121	0.053
-331.216	800.000	0.051	-0.213
-330.202	-168.554	-0.243	0.009
-329.187	-200.000	0.010	-0.056
-328.172	-200.000	-0.011	-0.097
-327.158	-149.872	-0.150	-0.012
-326.143	191.789	0.050	0.076
-325.129	74.700	-0.083	-0.088
-324.114	41.633	-0.170	0.155
-323.099	511.926	-0.050	0.118
-322.085	-77.193	0.082	0.029
-321.070	195.974	-0.046	-0.070
-320.056	-76.905	0.317	-0.111
-319.041	800.000	-0.011	0.038
-318.026	-184.891	-0.153	-0.002
-317.012	114.927	0.123	-0.150
-315.997	-171.521	-0.345	-0.011
-314.983	-18.409	0.366	0.229
-313.968	1.367	-0.307	0.222
-312.953	-200.000	0.015	0.300
-311.939	-27.121	0.221	-0.129
-310.924	185.600	0.045	-0.067
-309.910	-121.514	0.248	-0.041
-308.895	-72.587	0.153	-0.057
-307.880	800.000	0.056	-0.171
-306.866	-90.982	0.329	0.095
-305.851	-67.783	-0.210	-0.082
-304.837	-27.987	-0.145	0.084
-303.822	-84.001	0.154	0.049
-302.807	800.000	-0.040	-0.131
-301.793	151.498	-0.224	-0.306
-300.778	-70.703	0.158	0.060
-299.764	-50.529	-0.200	-0.095
-298.749	15.537	0.145	-0.114
-297.735	-33.258	-0.469	0.260
-296.720	-200.000	-0.015	0.176
-295.705	-140.335	-0.215	0.023
-294.691	-191.667	0.367	0.004
-293.676	-200.000	-0.034	0.206
-292.662	-66.349	-0.113	-0.045
-291.647	-55.826	0.278	-0.124
-290.632	119.307	-0.055	0.068
-289.618	-57.880	-0.236	-0.104
-288.603	-78.683	-0.212	0.073
-287.589	-101.719	0.372	0.090
-286.574	800.000	0.027	-0.082
-285.559	800.000	0.047	-0.149
-284.545	237.072	0.053	0.089
-283.530	103.219	0.193	-0.227
-282.516	573.539	-0.106	-0.259
-281.501	775.442	0.048	0.130
-280.486	-143.825	0.189	0.018
-279.472	383.237	-0.186	0.384
-278.457	-134.198	0.163	-0.020
-277.443	-149.987	0.292	0.023
-276.428	96.849	-0.211	0.242
-275.413	-81.009	0.288	-0.096
-274.399	-121.125	-0.635	-0.107
-273.384	519.233	-0.097	-0.227
-272.370	800.000	0.047	0.131
-271.355	274.626	-0.043	-0.077
-270.340	800.000	-0.079	0.293
-269.326	180.468	-0.149	0.220
-268.311	-58.342	-0.248	-0.108
-267.297	800.000	-0.067	0.263
-266.282	31.620	-0.084	0.072
-265.267	800.000	0.064	0.236
-264.253	140.846	-0.243	-0.322
-263.238	-36.544	-0.085	0.046
-262.224	150.824	0.045	0.061
-261.209	-200.000	-0.015	0.144
-260.195	-200.000	-0.005	-0.151
-259.180	323.725	0.058	-0.111
-258.165	-2.387	0.020	0.014
-257.151	175.575	-0.037	0.053
-256.136	287.692	0.189	-0.343
-255.122	-200.000	0.029	-0.144
-254.107	-200.000	0.045	-0.449
-253.092	309.836	0.185	-0.346
-252.078	525.047	0.055	0.130
-251.063	-200.000	0.023	0.130
-250.049	-140.005	-0.163	0.017
-249.034	-43.329	-0.297	0.150
-248.019	20.925	0.133	0.108
-247.005	-200.000	-0.017	-0.184
-245.990	-63.829	0.315	0.129
-244.976	248.913	-0.191	0.323
-243.961	259.986	0.079	0.137
-242.946	-75.361	-0.189	-0.067
-241.932	800.000	-0.065	-0.198
-240.917	-200.000	-0.008	-0.090
-239.903	800.000	-0.093	0.256
-238.888	-89.473	-0.053	-0.015
-237.873	-200.000	-0.013	-0.414
-236.859	-90.278	-0.208	0.061
-235.844	-94.955	-0.215	-0.058
-234.830	792.081	-0.062	-0.172
-233.815	77.658	-0.101	0.108
-232.800	475.032	0.074	-0.168
-231.786	-200.000	-0.045	0.238
-230.771	82.208	0.087	0.094
-229.757	382.214	0.072	-0.148
-228.742	800.000	-0.048	0.185
-227.727	153.984	-0.092	0.126
-226.713	0.473	0.135	-0.097
-225.698	800.000	0.054	0.164
-224.684	-126.275	-0.240	0.036
-223.669	800.000	-0.081	0.259
-222.655	-200.000	0.010	-0.082
-221.640	62.055	-0.116	0.115
-220.625	69.715	-0.155	-0.160
-219.611	-200.000	0.031	-0.277
-218.596	-37.464	0.130	-0.069
-217.582	67.865	-0.050	0.051
-216.567	800.000	0.070	-0.253
-215.552	-119.832	0.330	0.057
-214.538	-47.108	0.267	0.130
-213.523	207.688	-0.098	-0.153
-212.509	165.699	0.126	-0.178
-211.494	-200.000	-0.058	-0.378
-210.479	-3.611	-0.056	-0.039
-209.465	-36.909	-0.178	0.095
-208.450	-104.059	0.308	0.072
-207.436	-18.396	-0.184	0.115
-206.421	-86.111	0.407	-0.125
-205.406	-56.017	-0.151	-0.067
-204.392	-200.000	0.042	0.206
-203.377	-96.218	-0.097	0.026
-202.363	142.439	-0.147	-0.195
-201.348	56.579	0.208	-0.202
-200.333	-19.075	0.097	0.060
-199.319	800.000	0.022	-0.081
-198.304	255.301	0.145	0.249
-197.290	-72.405	-0.153	0.056
-196.275	-44.188	-0.215	-0.108
-195.260	-92.134	0.281	0.079
-194.246	53.791	0.214	-0.205
-193.231	-133.836	-0.058	0.007
-192.217	181.742	0.190	0.279
-191.202	-0.979	-0.145	-0.102
-190.187	4.611	-0.157	-0.115
-189.173	-102.773	-0.314	0.075
-188.158	-200.000	-0.053	0.293
-187.144	-148.575	0.218	-0.018
-186.129	76.990	0.139	0.147
-185.114	8.983	0.190	0.143
-184.100	81.478	-0.087	-0.094
-183.085	-200.000	0.048	-0.255
-182.071	76.191	-0.120	0.127
-181.056	95.628	0.313	-0.356
-180.042	-128.807	-0.497	-0.070
-179.027	35.717	-0.148	-0.130
-178.012	-57.322	0.388	-0.170
-176.998	443.619	0.018	0.039
-175.983	58.846	-0.164	0.161
-174.969	423.483	-0.162	0.346
-173.954	217.758	0.115	0.184
-172.939	-126.368	0.252	-0.037
-171.925	7.504	0.250	-0.186
-170.910	121.503	-0.176	-0.219
-169.896	-84.831	-0.052	0.016
-168.881	-200.000	0.031	-0.153
-167.866	198.902	0.101	0.154
-166.852	73.068	0.253	0.264
-165.837	-32.981	-0.120	-0.067
-164.823	107.328	0.143	0.169
-163.808	-56.971	-0.097	0.043
-162.793	-119.602	0.086	-0.015
-161.779	-59.241	0.256	0.110
-160.764	-24.816	-0.301	0.178
-159.750	216.631	0.087	0.138
-158.735	-111.500	0.218	-0.044
-157.720	165.068	0.088	-0.124
-156.706	-19.755	0.229	-0.141
-155.691	395.639	-0.137	0.285
-154.677	94.310	0.186	0.211
-153.662	-11.262	0.073	0.048
-152.647	113.344	-0.119	-0.144
-151.633	800.000	0.096	-0.290
-150.618	-200.000	0.035	-0.216
-149.604	-97.651	-0.223	-0.058
-148.589	52.451	0.148	-0.141
-147.574	-200.000	-0.031	0.168
-146.560	-165.365	0.300	-0.013
-145.545	-73.915	0.097	0.035
-144.531	-100.903	-0.230	-0.056
-143.516	411.283	-0.091	-0.193
-142.502	-84.758	0.049	-0.015
-141.487	37.329	0.146	-0.129
-140.472	-72.899	0.214	0.078
-139.458	373.956	0.163	-0.332
-138.443	175.106	-0.171	0.247
-137.429	-116.906	-0.412	0.075
-136.414	489.818	0.109	0.249
-135.399	102.283	-0.063	-0.073
-134.385	773.933	-0.064	-0.173
-133.370	800.000	-0.085	0.270
-132.356	-46.520	0.336	-0.164
-131.341	180.579	0.038	0.056
-130.326	-122.064	0.160	-0.026
-129.312	-113.846	0.122	0.024
-128.297	28.596	-0.175	0.148
-127.283	217.217	-0.177	0.281
-126.268	-200.000	0.085	-0.378
-125.253	-19.740	-0.011	0.007
-124.239	-6.672	-0.361	0.245
-123.224	64.235	0.305	-0.306
-122.210	-200.000	0.008	-0.392
-121.195	-76.621	-0.183	-0.064
