DTS Sentinel unit serial number:	SN413079Multiplexer serial number:	ORYXHardware model number:	OX4-SRSoftware version number:	ORYX F/W v4.00 Oryx Data Collector v3.7.2.0data status	okinstallation	princeton_trtdifferential loss correction	single-endedforward channel	channel 1reverse channel	N/Adate	2019/09/12time	00:08:11forward acquisition time	60.00reverse acquisition time	0.00gamma	496.2192k internal	0.2318k external	0.2318temperature offset calibration	1.0071default loss term (dB/km)	0.3790temperature slope calibration	1.0000multiplexer offset coefficient	1.0000multiplexer slope coefficient	1.0000fibre end	0.00T internal ref (°C)	33.66T ext. ref 1 (°C)	2.00T ext. ref 2 (°C)	28.27length (m)	temperature (°C)	Stokes	anti-Stokes-747.200	186.638	0.065	-0.098
-746.185	-200.000	-0.069	0.313
-745.171	98.994	0.071	-0.083
-744.156	-200.000	-0.023	-0.119
-743.142	800.000	-0.030	-0.087
-742.127	-200.000	0.048	0.398
-741.112	-154.874	0.493	0.033
-740.098	-34.593	-0.051	-0.028
-739.083	15.083	0.257	0.204
-738.069	-153.584	0.212	-0.015
-737.054	379.175	0.045	0.093
-736.039	-167.993	-0.160	-0.006
-735.025	-200.000	0.002	0.010
-734.010	-151.360	0.056	0.004
-732.996	9.774	-0.157	0.120
-731.981	-200.000	-0.018	-0.454
-730.966	322.690	-0.049	0.095
-729.952	800.000	0.073	-0.208
-728.937	578.709	0.225	-0.558
-727.923	34.594	0.223	-0.197
-726.908	-30.604	-0.202	-0.116
-725.894	-91.236	0.297	-0.086
-724.879	-89.951	-0.295	-0.087
-723.864	514.701	0.105	0.249
-722.850	2.743	-0.058	-0.043
-721.835	-149.428	-0.419	-0.034
-720.821	-65.689	-0.224	0.091
-719.806	-120.891	0.331	-0.056
-718.791	309.974	0.107	-0.203
-717.777	610.745	-0.128	0.322
-716.762	-72.060	-0.235	0.088
-715.748	800.000	-0.066	0.262
-714.733	-22.892	0.239	-0.146
-713.718	-200.000	0.009	-0.263
-712.704	310.926	0.139	-0.263
-711.689	13.382	-0.264	-0.207
-710.675	-200.000	0.023	0.334
-709.660	-81.663	0.160	0.053
-708.645	-200.000	0.029	0.174
-707.631	800.000	0.055	-0.224
-706.616	182.444	-0.117	0.174
-705.602	233.832	0.132	-0.219
-704.587	104.044	-0.120	-0.143
-703.572	-87.438	0.410	-0.125
-702.558	22.523	-0.179	-0.148
-701.543	800.000	0.020	-0.058
-700.529	-124.990	0.357	-0.056
-699.514	-59.985	0.256	0.110
-698.499	-165.898	-0.117	-0.005
-697.485	-200.000	-0.004	-0.259
-696.470	-110.090	0.169	-0.036
-695.456	434.359	-0.096	-0.211
-694.441	315.882	0.106	0.203
-693.426	103.298	0.055	-0.065
-692.412	-34.100	0.112	0.062
-691.397	-4.149	0.173	-0.121
-690.383	246.989	-0.071	0.121
-689.368	337.090	0.070	0.137
-688.354	800.000	-0.119	-0.332
-687.339	-46.941	-0.280	-0.138
-686.324	-46.375	-0.243	0.121
-685.310	273.344	-0.022	0.039
-684.295	800.000	0.027	-0.115
-683.281	309.035	-0.096	-0.181
-682.266	563.206	-0.075	-0.182
-681.251	57.876	-0.307	0.304
-680.237	800.000	-0.084	0.333
-679.222	-63.381	0.288	-0.120
-678.208	-200.000	0.361	-0.001
-677.193	-57.532	0.179	-0.079
-676.178	38.776	-0.193	-0.174
-675.164	-200.000	-0.015	-0.252
-674.149	800.000	0.045	-0.167
-673.135	85.577	0.039	0.043
-672.120	144.775	-0.177	0.238
-671.105	-99.738	0.172	0.044
-670.091	521.728	-0.169	0.399
-669.076	566.709	0.143	0.351
-668.062	-91.734	-0.347	-0.100
-667.047	800.000	-0.040	-0.150
-666.032	-200.000	-0.076	-0.344
-665.018	800.000	0.019	-0.054
-664.003	220.507	-0.177	-0.286
-662.989	-200.000	0.061	-0.280
-661.974	478.621	0.042	0.096
-660.959	100.296	0.227	0.266
-659.945	-13.810	-0.246	0.161
-658.930	301.187	0.017	-0.031
-657.916	-200.000	-0.001	0.017
-656.901	162.746	0.073	0.103
-655.886	43.291	-0.083	-0.077
-654.872	-197.358	-0.203	-0.001
-653.857	-200.000	0.024	-0.133
-652.843	216.423	0.013	0.021
-651.828	-118.449	-0.307	-0.055
-650.814	-150.151	-0.398	-0.031
-649.799	220.779	-0.142	0.229
-648.784	532.856	0.054	0.129
-647.770	-144.090	-0.234	0.022
-646.755	-84.545	-0.072	-0.023
-645.741	-200.000	0.011	-0.382
-644.726	180.816	0.067	0.099
-643.711	107.358	-0.238	-0.286
-642.697	-86.128	-0.309	-0.096
-641.682	-200.000	-0.019	-0.097
-640.668	62.987	0.165	0.167
-639.653	480.727	0.053	0.120
-638.638	344.752	-0.147	-0.291
-637.624	-128.943	0.179	-0.025
-636.609	800.000	-0.059	0.213
-635.595	250.371	0.063	-0.108
-634.580	-200.000	0.026	0.355
-633.565	800.000	-0.028	-0.106
-632.551	-165.169	-0.105	-0.005
-631.536	-17.473	-0.105	0.066
-630.522	125.286	-0.195	-0.248
-629.507	800.000	0.027	0.085
-628.492	-151.592	0.284	0.021
-627.478	-200.000	0.008	-0.171
-626.463	62.361	-0.233	0.235
-625.449	502.815	-0.137	0.319
-624.434	-200.000	0.048	-0.253
-623.419	-200.000	-0.044	-0.384
-622.405	274.604	-0.138	-0.247
-621.390	147.791	0.132	0.179
-620.376	-200.000	-0.012	-0.334
-619.361	239.935	-0.126	0.212
-618.346	-151.978	0.191	-0.014
-617.332	-76.066	-0.307	-0.109
-616.317	195.994	0.029	0.045
-615.303	-41.270	-0.293	-0.152
-614.288	-101.552	-0.190	0.046
-613.273	-200.000	-0.017	-0.117
-612.259	-200.000	-0.030	0.248
-611.244	800.000	0.055	0.169
-610.230	-121.716	0.205	-0.034
-609.215	800.000	0.059	0.186
-608.201	209.208	-0.250	-0.394
-607.186	-43.049	0.365	-0.186
-606.171	431.082	0.063	-0.137
-605.157	-13.802	-0.083	0.054
-604.142	-36.475	-0.182	0.098
-603.128	-116.928	-0.199	-0.037
-602.113	-124.671	0.335	-0.052
-601.098	-50.333	0.307	0.146
-600.084	-200.000	0.002	0.133
-599.069	25.754	-0.179	-0.150
-598.055	143.704	0.116	-0.156
-597.040	150.216	0.052	0.072
-596.025	579.923	0.054	-0.133
-595.011	-98.802	0.313	0.080
-593.996	-13.121	0.125	0.082
-592.982	312.983	-0.109	0.205
-591.967	299.841	-0.196	0.364
-590.952	-59.733	0.122	-0.053
-589.938	356.056	0.146	0.293
-588.923	800.000	0.106	0.305
-587.909	-200.000	-0.008	-0.243
-586.894	-200.000	0.021	0.133
-585.879	39.491	-0.136	0.123
-584.865	800.000	0.041	-0.138
-583.850	-107.395	0.139	0.031
-582.836	-107.969	-0.293	0.064
-581.821	97.603	0.075	-0.087
-580.806	-200.000	0.012	0.149
-579.792	-200.000	0.041	0.273
-578.777	116.847	0.181	-0.223
-577.763	-67.766	0.166	0.065
-576.748	-97.537	0.030	-0.008
-575.733	47.394	0.093	-0.087
-574.719	-111.433	-0.233	0.048
-573.704	16.480	-0.231	0.184
-572.690	-105.068	-0.156	-0.036
-571.675	470.788	0.098	-0.221
-570.661	-116.528	0.304	0.056
-569.646	413.905	-0.086	0.183
-568.631	800.000	0.031	-0.130
-567.617	11.724	-0.069	0.053
-566.602	-200.000	-0.048	-0.529
-565.588	74.813	0.045	-0.048
-564.573	15.929	-0.267	-0.211
-563.558	315.976	0.048	-0.091
-562.544	-75.011	0.460	-0.165
-561.529	50.226	0.350	0.332
-560.515	-0.215	-0.043	0.031
-559.500	98.332	0.108	0.126
-558.485	-159.035	0.094	-0.005
-557.471	193.078	-0.282	-0.429
-556.456	-108.959	-0.163	-0.035
-555.442	-152.918	-0.055	0.004
-554.427	-200.000	0.017	-0.242
-553.412	14.891	0.022	0.017
-552.398	567.115	0.091	0.222
-551.383	800.000	-0.057	0.171
-550.369	-200.000	-0.034	0.267
-549.354	-36.123	-0.309	0.167
-548.339	14.732	0.100	0.078
-547.325	-200.000	-0.015	0.072
-546.310	-200.000	0.000	-0.185
-545.296	215.007	-0.030	-0.048
-544.281	-123.041	-0.300	0.048
-543.266	-71.905	-0.042	-0.016
-542.252	31.129	0.255	-0.220
-541.237	-85.137	-0.106	-0.033
-540.223	40.744	-0.195	0.177
-539.208	-140.621	-0.330	0.034
-538.193	-91.668	-0.048	-0.014
-537.179	767.977	-0.011	-0.029
-536.164	264.035	0.070	-0.123
-535.150	800.000	-0.069	-0.239
-534.135	-108.088	0.295	-0.064
-533.121	491.066	-0.103	-0.237
-532.106	-11.260	0.226	0.149
-531.091	174.214	0.102	-0.147
-530.077	-93.145	-0.131	0.036
-529.062	139.756	0.147	0.194
-528.048	-71.793	0.195	-0.073
-527.033	20.157	-0.114	-0.093
-526.018	-63.461	0.150	0.062
-525.004	-88.997	-0.141	-0.042
-523.989	-32.744	-0.192	0.107
-522.975	-143.803	0.330	-0.031
-521.960	-200.000	-0.018	-0.084
-520.945	55.838	0.102	0.099
-519.931	-11.933	0.403	0.265
-518.916	513.561	0.103	-0.242
-517.902	-189.420	0.125	0.001
-516.887	-85.177	0.222	-0.070
-515.872	-200.000	0.029	0.200
-514.858	78.036	-0.165	-0.176
-513.843	-200.000	-0.046	0.363
-512.829	800.000	-0.054	-0.219
-511.814	-200.000	0.000	0.137
-510.799	-107.233	-0.094	0.021
-509.785	-122.223	-0.216	-0.035
-508.770	-200.000	0.022	-0.156
-507.756	-45.036	0.418	-0.209
-506.741	800.000	0.045	-0.131
-505.726	94.081	0.108	-0.123
-504.712	-74.357	0.065	-0.024
-503.697	106.196	0.094	-0.111
-502.683	170.182	-0.059	0.085
-501.668	-200.000	-0.017	0.134
-500.653	-200.000	0.007	0.043
-499.639	139.555	0.102	0.135
-498.624	522.718	0.095	-0.223
-497.610	6.069	-0.511	-0.379
-496.595	-168.215	-0.387	0.015
-495.581	9.921	0.182	-0.139
-494.566	800.000	0.012	0.034
-493.551	-90.819	0.119	-0.034
-492.537	56.075	-0.449	-0.437
-491.522	88.173	-0.124	-0.138
-490.508	18.514	0.151	0.121
-489.493	-166.393	0.289	0.012
-488.478	-128.927	-0.191	-0.027
-487.464	-58.397	-0.429	0.187
-486.449	466.656	-0.115	0.259
-485.435	20.375	0.158	-0.128
-484.420	236.859	-0.114	-0.190
-483.405	-4.646	0.292	-0.202
-482.391	800.000	0.041	-0.128
-481.376	-102.924	0.252	0.060
-480.362	247.715	-0.184	0.312
-479.347	318.058	-0.151	0.287
-478.332	372.454	-0.095	0.193
-477.318	98.275	0.064	-0.074
-476.303	-95.639	0.454	-0.122
-475.289	-108.282	0.274	0.059
-474.274	-100.782	-0.271	0.067
-473.259	800.000	-0.047	-0.160
-472.245	67.252	-0.232	0.237
-471.230	20.854	-0.168	0.136
-470.216	-180.951	-0.069	0.001
-469.201	759.814	0.054	-0.147
-468.186	284.569	0.051	0.091
-467.172	-120.914	-0.220	-0.037
-466.157	140.355	0.173	-0.228
-465.143	-113.628	-0.264	-0.052
-464.128	-200.000	-0.001	-0.060
-463.113	-161.575	0.060	0.003
-462.099	-133.436	-0.160	0.020
-461.084	-200.000	-0.044	0.377
-460.070	383.072	-0.084	0.173
-459.055	-1.989	0.097	-0.068
-458.040	373.966	0.061	0.125
-457.026	-200.000	-0.003	0.272
-456.011	4.108	-0.220	0.161
-454.997	-125.281	-0.158	-0.024
-453.982	-200.000	0.014	0.315
-452.968	523.565	-0.150	0.352
-451.953	-195.119	0.365	-0.003
-450.938	800.000	-0.103	-0.302
-449.924	271.625	-0.153	0.269
-448.909	-200.000	0.036	0.269
-447.895	23.945	0.185	-0.153
-446.880	-200.000	-0.021	0.230
-445.865	800.000	0.071	0.261
-444.851	-57.225	0.072	-0.032
-443.836	800.000	-0.098	0.286
-442.822	-57.491	0.335	-0.147
-441.807	86.202	-0.192	0.211
-440.792	423.642	-0.032	0.068
-439.778	-72.437	-0.112	0.042
-438.763	17.325	-0.118	-0.094
-437.749	800.000	0.017	-0.073
-436.734	102.744	-0.136	-0.159
-435.719	4.143	-0.220	-0.161
-434.705	-200.000	0.017	-0.446
-433.690	70.691	0.165	-0.171
-432.676	77.788	0.062	0.066
-431.661	-117.514	-0.145	0.026
-430.646	87.731	-0.129	-0.143
-429.632	83.623	-0.052	-0.057
-428.617	44.009	-0.146	-0.134
-427.603	93.981	0.176	0.199
-426.588	27.092	-0.264	-0.221
-425.573	158.530	-0.057	-0.078
-424.559	-66.546	-0.222	-0.088
-423.544	551.311	0.091	-0.218
-422.530	-80.889	0.281	-0.093
-421.515	-55.731	-0.141	-0.063
-420.500	98.896	0.159	-0.183
-419.486	-66.070	0.134	-0.053
-418.471	732.303	0.085	0.227
-417.457	-34.648	-0.239	-0.131
-416.442	-44.770	0.092	0.046
-415.428	89.634	-0.132	0.147
-414.413	36.604	-0.313	-0.276
-413.398	119.600	0.168	-0.208
-412.384	219.518	-0.105	-0.168
-411.369	-24.269	0.350	-0.209
-410.355	42.146	0.022	0.020
-409.340	-146.306	-0.155	-0.014
-408.325	99.830	0.103	0.119
-407.311	-2.146	-0.415	-0.291
-406.296	-36.958	0.436	-0.234
-405.282	-200.000	-0.019	0.168
-404.267	-137.858	-0.121	-0.014
-403.252	800.000	0.058	0.250
-402.238	-200.000	0.028	-0.247
-401.223	172.689	0.119	-0.171
-400.209	237.647	-0.041	0.067
-399.194	458.523	0.086	0.190
-398.179	-200.000	-0.028	0.473
-397.165	800.000	-0.011	-0.032
-396.150	-67.241	0.218	-0.086
-395.136	-66.991	0.356	-0.140
-394.121	800.000	0.085	0.237
-393.106	800.000	0.009	0.029
-392.092	-200.000	-0.001	-0.260
-391.077	800.000	-0.078	0.268
-390.063	11.689	0.198	-0.151
-389.048	-56.327	-0.090	0.040
-388.033	27.231	0.341	0.286
-387.019	158.798	-0.301	0.417
-386.004	-105.687	-0.018	0.004
-384.990	-4.950	0.250	0.172
-383.975	65.098	0.146	0.147
-382.960	-200.000	0.009	-0.339
-381.946	-182.985	0.224	0.004
-380.931	-200.000	0.052	-0.535
-379.917	98.461	-0.125	-0.144
-378.902	-200.000	-0.028	0.259
-377.888	198.277	0.115	0.175
-376.873	-11.888	0.220	0.144
-375.858	292.850	0.136	0.248
-374.844	477.602	-0.034	-0.078
-373.829	201.782	-0.103	-0.158
-372.815	-135.289	-0.161	-0.019
-371.800	-93.431	0.096	-0.026
-370.785	800.000	0.049	0.170
-369.771	363.533	0.094	-0.189
-368.756	-200.000	0.049	-0.417
-367.742	86.585	0.092	0.102
-366.727	197.192	0.212	0.323
-365.712	-87.340	-0.224	-0.068
-364.698	193.580	0.068	-0.103
-363.683	-200.000	0.077	-0.422
-362.669	800.000	0.053	0.156
-361.654	800.000	0.094	-0.300
-360.639	-200.000	-0.024	0.110
-359.625	48.882	0.098	-0.092
-358.610	64.888	0.076	0.077
-357.596	-10.676	-0.218	0.144
-356.581	-41.057	0.157	0.081
-355.566	131.849	-0.145	0.186
-354.552	-200.000	-0.024	0.213
-353.537	-200.000	0.010	-0.111
-352.523	-200.000	0.023	-0.247
-351.508	-82.783	-0.281	-0.091
-350.493	-123.410	0.158	-0.025
-349.479	-200.000	-0.036	0.261
-348.464	97.841	0.034	0.039
-347.450	-146.643	0.139	-0.012
-346.435	-42.315	0.174	0.089
-345.420	746.088	-0.161	0.432
-344.406	800.000	0.028	-0.093
-343.391	314.841	-0.042	-0.079
-342.377	-24.856	-0.295	0.175
-341.362	568.147	0.096	-0.231
-340.348	-68.340	-0.197	-0.076
-339.333	132.026	-0.075	0.097
-338.318	33.635	-0.197	0.170
-337.304	-6.926	0.127	-0.086
-336.289	-58.554	-0.274	0.118
-335.275	-95.702	-0.256	-0.068
-334.260	-64.168	0.177	0.072
-333.245	-5.765	0.062	0.042
-332.231	-200.000	-0.016	-0.086
-331.216	28.203	-0.335	-0.282
-330.202	-200.000	0.000	0.140
-329.187	-104.091	0.320	0.074
-328.172	-32.844	-0.198	-0.109
-327.158	11.611	0.117	-0.089
-326.143	-124.441	-0.214	0.033
-325.129	-200.000	-0.046	-0.337
-324.114	260.710	0.195	-0.336
-323.099	800.000	0.071	0.264
-322.085	539.585	0.082	-0.194
-321.070	-200.000	0.017	0.128
-320.056	-109.188	0.235	-0.050
-319.041	-200.000	0.026	-0.392
-318.026	-200.000	-0.003	0.036
-317.012	-200.000	0.009	0.336
-315.997	25.559	-0.063	-0.052
-314.983	39.011	0.221	-0.197
-313.968	-200.000	-0.023	0.517
-312.953	426.808	-0.118	0.253
-311.939	-81.659	-0.186	0.061
-310.924	-113.948	-0.151	-0.029
-309.910	82.653	0.291	-0.314
-308.895	17.845	-0.090	-0.071
-307.880	554.371	-0.110	-0.263
-306.866	-58.209	0.473	0.205
-305.851	-114.696	0.065	0.012
-304.837	-95.962	0.260	0.069
-303.822	31.324	-0.152	-0.130
-302.807	-77.290	-0.153	0.053
-301.793	-65.575	0.083	0.033
-300.778	-96.101	-0.137	0.036
-299.764	-14.317	-0.186	-0.119
-298.749	800.000	0.029	-0.097
-297.735	21.555	-0.119	0.096
-296.720	-130.213	-0.415	0.056
-295.705	262.378	0.161	0.278
-294.691	-67.750	0.157	0.061
-293.676	-58.693	0.234	0.101
-292.662	-126.024	-0.143	-0.021
-291.647	527.365	-0.109	-0.256
-290.632	-27.233	0.333	-0.193
-289.618	-61.210	0.402	-0.169
-288.603	-119.737	-0.320	-0.055
-287.589	98.806	-0.048	0.055
-286.574	-127.325	0.324	-0.047
-285.559	800.000	-0.056	-0.193
-284.545	-51.453	0.073	0.034
-283.530	-200.000	0.012	0.136
-282.516	800.000	-0.053	0.158
-281.501	31.670	0.123	0.105
-280.486	-123.266	-0.159	-0.025
-279.472	107.173	0.234	0.276
-278.457	-200.000	0.014	0.188
-277.443	-1.572	-0.156	-0.109
-276.428	-126.179	-0.212	-0.031
-275.413	86.998	0.113	-0.124
-274.399	-90.524	-0.382	-0.110
-273.384	-200.000	-0.002	-0.099
-272.370	736.220	0.093	0.247
-271.355	-46.111	-0.345	0.169
-270.340	-83.536	-0.086	0.027
-269.326	-143.381	0.231	0.022
-268.311	-83.920	-0.219	0.069
-267.297	607.541	-0.069	-0.172
-266.282	-200.000	-0.004	0.037
-265.267	277.570	0.060	-0.105
-264.253	-200.000	-0.021	0.148
-263.238	165.287	-0.198	0.277
-262.224	-147.952	-0.167	0.014
-261.209	8.259	0.282	0.210
-260.195	195.889	-0.048	-0.072
-259.180	800.000	-0.153	0.427
-258.165	200.282	-0.152	0.232
-257.151	-200.000	-0.003	0.325
-256.136	-200.000	0.019	0.197
-255.122	119.134	-0.082	0.101
-254.107	107.837	-0.148	-0.175
-253.092	-144.473	0.214	-0.020
-252.078	-200.000	0.007	0.150
-251.063	-136.453	0.261	-0.030
-250.049	211.340	-0.033	-0.052
-249.034	30.868	0.099	-0.084
-248.019	-75.341	-0.136	-0.048
-247.005	-145.487	0.156	-0.014
-245.990	529.228	0.026	-0.062
-244.976	7.002	-0.251	-0.185
-243.961	-200.000	0.033	-0.317
-242.946	-14.835	0.146	-0.093
-241.932	94.825	0.249	0.281
-240.917	172.499	-0.118	0.168
-239.903	536.753	0.070	0.166
-238.888	-8.696	0.440	-0.293
-237.873	800.000	-0.068	-0.188
-236.859	-147.880	0.244	0.020
-235.844	223.058	0.092	-0.148
-234.830	-51.426	0.251	-0.116
-233.815	3.584	-0.188	0.136
-232.800	59.799	0.077	0.075
-231.786	-28.098	0.247	-0.142
-230.771	280.218	-0.157	-0.279
-229.757	800.000	-0.051	0.218
-228.742	-200.000	0.045	0.238
-227.727	69.157	-0.155	-0.158
-226.713	131.950	0.141	-0.180
-225.698	800.000	-0.062	-0.255
-224.684	296.719	-0.028	-0.051
-223.669	-36.386	0.060	-0.032
-222.655	-198.932	0.091	0.000
-221.640	73.589	-0.132	0.137
-220.625	-42.932	-0.314	-0.158
-219.611	109.921	0.128	-0.152
-218.596	257.180	0.068	-0.116
-217.582	-200.000	0.018	0.083
-216.567	44.523	-0.158	0.144
-215.552	-200.000	-0.077	0.360
-214.538	-200.000	-0.006	-0.065
-213.523	-200.000	0.044	-0.202
-212.509	88.020	0.171	0.188
-211.494	-200.000	0.024	0.438
-210.479	3.481	-0.171	-0.124
-209.465	-200.000	-0.038	0.260
-208.450	132.677	0.176	-0.224
-207.436	-200.000	0.020	-0.123
-206.421	-99.119	0.200	-0.050
-205.406	320.978	0.129	0.243
-204.392	800.000	-0.090	0.296
-203.377	-39.734	-0.163	-0.084
-202.363	-200.000	-0.041	0.191
-201.348	-10.186	0.123	-0.081
-200.333	-98.272	0.092	-0.023
-199.319	576.229	0.089	-0.216
-198.304	-200.000	0.004	-0.063
-197.290	352.773	0.094	0.184
-196.275	104.022	-0.125	-0.146
-195.260	-148.618	-0.171	-0.014
-194.246	-78.981	0.402	-0.135
-193.231	274.536	-0.178	-0.313
-192.217	212.969	-0.066	0.103
-191.202	-200.000	-0.019	0.181
-190.187	31.303	-0.093	-0.079
-189.173	800.000	-0.052	-0.149
-188.158	74.070	0.220	0.228
-187.144	-47.040	-0.050	-0.024
-186.129	250.751	0.116	0.195
-185.114	489.489	0.129	0.291
-184.100	-200.000	0.055	-0.382
-183.085	232.724	-0.055	0.090
-182.071	-200.000	0.003	-0.025
-181.056	-27.838	0.016	0.009
-180.042	-130.315	-0.037	0.005
-179.027	-200.000	-0.027	0.118
-178.012	-91.974	0.065	-0.018
-176.998	-16.640	-0.219	-0.137
-175.983	160.938	0.205	0.283
-174.969	151.016	-0.175	0.236
-173.954	50.069	0.157	0.147
-172.939	-200.000	-0.010	-0.523
-171.925	-114.393	-0.380	-0.072
-170.910	91.384	0.103	-0.115
-169.896	-168.972	-0.103	-0.004
-168.881	-200.000	-0.047	0.331
-167.866	-200.000	-0.038	0.275
-166.852	-200.000	-0.049	0.338
-165.837	106.812	-0.165	-0.194
-164.823	97.151	0.114	0.130
-163.808	103.193	0.127	-0.147
-162.793	-90.951	0.155	-0.044
-161.779	193.531	-0.236	-0.353
-160.764	-122.503	-0.141	0.023
-159.750	-200.000	0.017	-0.083
-158.735	800.000	-0.061	-0.241
-157.720	-200.000	0.017	-0.145
-156.706	3.156	0.276	0.199
-155.691	335.498	-0.043	0.082
-154.677	-168.266	-0.372	0.014
-153.662	329.070	-0.131	-0.249
-152.647	-178.929	0.153	-0.003
-151.633	-66.591	-0.157	0.062
-150.618	112.684	-0.269	0.323
-149.604	114.907	-0.089	0.107
-148.589	105.947	-0.039	-0.046
-147.574	-100.340	-0.231	-0.057
-146.560	-27.028	-0.194	0.112
-145.545	800.000	-0.051	0.147
-144.531	10.729	-0.183	0.138
-143.516	-9.017	0.145	0.096
-142.502	-17.955	-0.116	-0.072
-141.487	49.012	0.229	-0.212
-140.472	-200.000	-0.017	0.123
-139.458	28.441	-0.220	0.184
-138.443	362.091	0.097	-0.192
-137.429	-171.477	-0.332	-0.011
-136.414	-200.000	0.011	0.147
-135.399	160.322	-0.064	0.088
-134.385	-200.000	0.019	0.219
-133.370	-200.000	-0.042	0.236
-132.356	800.000	0.083	0.247
-131.341	141.190	-0.218	0.285
-130.326	395.267	-0.078	0.161
-129.312	-59.300	-0.028	-0.012
-128.297	-108.759	0.092	0.019
-127.283	97.970	0.059	0.067
-126.268	-44.703	-0.335	0.165
-125.253	37.248	0.214	0.187
-124.239	2.116	0.145	0.103
-123.224	800.000	-0.046	-0.195
-122.210	-124.323	0.408	0.063
-121.195	-200.000	0.015	0.215
