DTS Sentinel unit serial number:	SN413079Multiplexer serial number:	ORYXHardware model number:	OX4-SRSoftware version number:	ORYX F/W v4.00 Oryx Data Collector v3.7.2.0data status	okinstallation	princeton_trtdifferential loss correction	single-endedforward channel	channel 1reverse channel	N/Adate	2019/09/11time	10:56:11forward acquisition time	60.00reverse acquisition time	0.00gamma	496.2192k internal	0.2297k external	0.2297temperature offset calibration	0.9955default loss term (dB/km)	0.3790temperature slope calibration	1.0000multiplexer offset coefficient	1.0000multiplexer slope coefficient	1.0000fibre end	0.00T internal ref (°C)	37.06T ext. ref 1 (°C)	0.17T ext. ref 2 (°C)	34.42length (m)	temperature (°C)	Stokes	anti-Stokes-747.200	-84.142	0.034	0.011
-746.185	-156.347	0.150	0.010
-745.171	185.159	0.026	-0.040
-744.156	85.635	0.117	0.131
-743.142	-25.103	0.088	-0.053
-742.127	-127.032	-0.331	-0.050
-741.112	24.701	-0.222	0.188
-740.098	800.000	-0.092	0.274
-739.083	-200.000	-0.079	0.378
-738.069	442.003	0.074	0.166
-737.054	-55.759	0.042	-0.019
-736.039	-79.699	-0.207	0.071
-735.025	264.986	-0.068	0.120
-734.010	4.985	0.169	-0.127
-732.996	-200.000	0.017	-0.212
-731.981	-46.317	0.328	-0.165
-730.966	-62.732	-0.158	-0.067
-729.952	-19.608	-0.146	-0.092
-728.937	-84.038	-0.458	-0.149
-727.923	-200.000	0.066	0.340
-726.908	383.184	0.108	0.228
-725.894	-94.697	-0.391	0.109
-724.879	-120.413	-0.103	0.018
-723.864	-49.919	-0.135	0.065
-722.850	94.636	0.007	0.009
-721.835	-62.254	0.023	0.010
-720.821	-87.009	0.223	-0.069
-719.806	-11.372	-0.103	-0.069
-718.791	-130.747	-0.333	0.046
-717.777	42.420	-0.215	-0.200
-716.762	800.000	0.095	-0.343
-715.748	-132.069	0.045	-0.006
-714.733	325.911	0.134	-0.262
-713.718	-170.504	-0.178	0.006
-712.704	-79.809	0.309	-0.106
-711.689	273.214	0.128	0.231
-710.675	800.000	0.018	-0.061
-709.660	-200.000	-0.067	-0.367
-708.645	-70.437	-0.209	-0.081
-707.631	-103.050	-0.059	-0.014
-706.616	-200.000	0.026	-0.131
-705.602	-71.018	0.335	-0.128
-704.587	-200.000	0.001	0.119
-703.572	366.642	-0.158	0.324
-702.558	-81.092	0.068	-0.023
-701.543	-31.521	-0.115	0.066
-700.529	561.207	0.109	-0.269
-699.514	-18.007	0.119	-0.076
-698.499	-136.382	-0.522	0.062
-697.485	800.000	0.078	0.280
-696.470	-200.000	-0.003	0.065
-695.456	-70.249	-0.182	-0.071
-694.441	-3.954	0.055	-0.039
-693.426	-200.000	0.009	-0.321
-692.412	-200.000	-0.017	-0.456
-691.397	-64.983	0.404	0.167
-690.383	15.848	0.097	-0.078
-689.368	17.480	-0.269	-0.218
-688.354	125.995	0.082	-0.105
-687.339	7.018	0.089	-0.068
-686.324	460.429	0.104	-0.236
-685.310	48.734	0.070	0.066
-684.295	800.000	0.024	-0.080
-683.281	-76.661	0.222	0.079
-682.266	800.000	0.031	-0.109
-681.251	246.462	0.113	-0.194
-680.237	-200.000	0.004	-0.037
-679.222	-200.000	-0.013	0.102
-678.208	-132.867	-0.133	-0.017
-677.193	184.182	-0.050	-0.075
-676.178	800.000	0.112	0.435
-675.164	-200.000	-0.028	-0.277
-674.149	-58.354	-0.279	-0.123
-673.135	547.434	-0.074	0.180
-672.120	383.978	-0.025	0.053
-671.105	66.985	-0.223	-0.232
-670.091	-200.000	0.016	-0.139
-669.076	-7.812	-0.274	-0.189
-668.062	700.559	-0.116	-0.311
-667.047	-19.523	0.129	0.082
-666.032	-128.877	-0.193	-0.028
-665.018	-64.563	0.060	-0.025
-664.003	-59.378	-0.366	0.160
-662.989	-11.579	0.117	0.078
-661.974	-200.000	-0.009	-0.170
-660.959	222.768	-0.128	-0.211
-659.945	-36.472	0.249	-0.136
-658.930	95.963	0.174	0.203
-657.916	130.592	0.032	-0.041
-656.901	-57.802	0.060	-0.027
-655.886	-140.869	-0.219	-0.023
-654.872	-133.534	-0.246	-0.031
-653.857	7.334	0.107	-0.081
-652.843	-15.057	0.142	0.093
-651.828	228.510	-0.031	0.052
-650.814	-18.939	0.172	-0.109
-649.799	30.731	-0.136	-0.119
-648.784	-59.248	-0.162	-0.071
-647.770	-95.127	0.286	-0.079
-646.755	-14.009	-0.250	-0.164
-645.741	19.956	-0.421	0.345
-644.726	142.800	-0.075	0.102
-643.711	-200.000	-0.036	0.168
-642.697	-200.000	-0.001	-0.294
-641.682	28.161	-0.222	-0.191
-640.668	81.781	0.142	0.157
-639.653	-5.367	-0.187	0.131
-638.638	800.000	-0.049	0.163
-637.624	-118.381	-0.290	0.052
-636.609	-110.564	0.119	-0.025
-635.595	4.489	-0.067	-0.050
-634.580	113.039	-0.174	0.214
-633.565	-200.000	-0.043	-0.421
-632.551	-84.475	-0.166	-0.053
-631.536	-79.241	0.261	0.090
-630.522	133.932	-0.166	0.219
-629.507	-73.767	-0.351	0.130
-628.492	-27.557	-0.114	-0.067
-627.478	-59.538	0.062	0.027
-626.463	-81.015	0.096	0.032
-625.449	-37.189	0.179	0.097
-624.434	302.797	0.159	-0.300
-623.419	175.075	0.097	0.143
-622.405	376.708	-0.068	-0.142
-621.390	88.999	0.097	0.110
-620.376	-200.000	-0.029	-0.219
-619.361	255.415	-0.048	-0.084
-618.346	122.590	-0.091	-0.116
-617.332	-18.331	0.062	0.039
-616.317	90.018	-0.239	-0.272
-615.303	-14.146	-0.290	0.190
-614.288	-200.000	-0.013	-0.090
-613.273	-124.993	0.426	0.067
-612.259	4.917	0.051	-0.038
-611.244	183.119	-0.127	0.190
-610.230	-200.000	-0.032	0.185
-609.215	-164.934	0.130	0.006
-608.201	225.969	0.112	-0.184
-607.186	18.095	0.052	0.042
-606.171	-194.134	0.096	-0.001
-605.157	-128.316	0.474	-0.069
-604.142	227.026	-0.171	-0.283
-603.128	10.405	-0.270	0.209
-602.113	-13.559	-0.113	0.075
-601.098	431.253	-0.107	0.236
-600.084	-46.314	0.348	0.174
-599.069	44.255	0.059	-0.055
-598.055	-160.497	-0.258	-0.014
-597.040	140.382	-0.144	-0.194
-596.025	-36.144	0.240	-0.132
-595.011	69.174	-0.376	-0.392
-593.996	-200.000	-0.013	-0.183
-592.982	-102.929	0.119	-0.029
-591.967	-136.012	0.198	-0.024
-590.952	-107.795	-0.200	-0.044
-589.938	-200.000	0.003	-0.173
-588.923	800.000	0.038	0.118
-587.909	-50.737	-0.288	-0.138
-586.894	310.305	-0.127	0.242
-585.879	-115.657	-0.139	0.027
-584.865	-200.000	0.020	-0.106
-583.850	47.486	-0.220	-0.208
-582.836	-142.157	-0.097	0.010
-581.821	-153.232	-0.183	0.013
-580.806	217.503	0.184	-0.298
-579.792	-32.215	-0.125	0.071
-578.777	338.871	-0.033	-0.065
-577.763	-20.875	0.161	0.100
-576.748	19.473	0.173	-0.141
-575.733	13.411	-0.096	0.075
-574.719	232.259	0.054	-0.089
-573.704	-54.884	-0.061	-0.028
-572.690	-200.000	-0.017	0.115
-571.675	-62.311	-0.079	-0.033
-570.661	-76.679	-0.121	0.043
-569.646	-200.000	0.025	-0.171
-568.631	-200.000	-0.021	0.125
-567.617	-200.000	-0.004	0.141
-566.602	-138.758	-0.240	0.027
-565.588	-200.000	-0.025	-0.165
-564.573	-3.399	-0.133	0.094
-563.558	-133.717	0.238	-0.030
-562.544	-200.000	0.005	0.102
-561.529	477.284	-0.028	0.064
-560.515	800.000	0.082	-0.356
-559.500	-80.602	-0.070	0.024
-558.485	-92.594	-0.114	0.033
-557.471	185.651	-0.113	0.170
-556.456	-150.022	-0.138	-0.011
-555.442	15.327	0.088	-0.070
-554.427	50.620	0.109	-0.105
-553.412	-200.000	0.005	-0.206
-552.398	62.476	-0.231	-0.234
-551.383	90.146	0.230	0.260
-550.369	-28.774	-0.123	-0.071
-549.354	135.675	0.347	-0.458
-548.339	-160.158	-0.157	-0.009
-547.325	-198.420	0.272	0.002
-546.310	95.255	-0.188	0.217
-545.296	48.113	-0.094	0.089
-544.281	-119.589	0.193	0.034
-543.266	-97.981	-0.068	0.018
-542.252	167.757	0.192	-0.277
-541.237	-125.085	0.239	-0.037
-540.223	-16.545	0.305	-0.196
-539.208	-200.000	0.010	0.210
-538.193	181.982	-0.158	-0.236
-537.179	82.713	0.066	-0.073
-536.164	26.763	0.204	-0.173
-535.150	-67.500	-0.276	-0.110
-534.135	800.000	0.056	-0.190
-533.121	800.000	-0.074	-0.268
-532.106	290.120	-0.170	-0.313
-531.091	10.987	0.293	0.227
-530.077	-74.008	0.218	0.080
-529.062	-63.258	-0.146	-0.061
-528.048	-59.581	0.203	-0.088
-527.033	237.601	-0.077	-0.130
-526.018	-130.121	0.368	-0.051
-525.004	160.253	-0.104	0.147
-523.989	529.528	-0.059	-0.141
-522.975	-53.906	-0.148	-0.069
-521.960	9.447	-0.077	0.059
-520.945	519.805	0.068	0.162
-519.931	173.682	0.136	-0.198
-518.916	146.359	-0.207	-0.282
-517.902	-14.495	-0.263	-0.171
-516.887	-142.971	-0.278	-0.027
-515.872	288.955	-0.133	0.243
-514.858	-77.806	-0.077	-0.027
-513.843	-115.602	0.323	-0.062
-512.829	-10.594	-0.281	-0.188
-511.814	108.950	-0.056	0.067
-510.799	303.844	-0.094	-0.177
-509.785	-200.000	0.024	-0.140
-508.770	-117.720	-0.146	0.027
-507.756	-200.000	0.002	-0.021
-506.741	-129.070	-0.189	-0.027
-505.726	-200.000	0.017	0.611
-504.712	373.756	0.122	-0.252
-503.697	-200.000	-0.024	-0.141
-502.683	-200.000	-0.039	-0.338
-501.668	-140.945	0.199	-0.021
-500.653	-200.000	-0.032	0.178
-499.639	339.950	-0.062	-0.123
-498.624	154.304	-0.187	0.259
-497.610	511.835	-0.130	0.307
-496.595	-119.024	0.080	-0.014
-495.581	90.492	0.275	-0.311
-494.566	-4.906	0.162	-0.113
-493.551	800.000	-0.060	0.186
-492.537	-200.000	0.020	-0.283
-491.522	-80.541	-0.255	-0.086
-490.508	104.087	-0.168	-0.200
-489.493	-139.858	0.041	0.004
-488.478	-200.000	-0.008	0.038
-487.464	15.703	-0.165	-0.131
-486.449	584.405	-0.087	0.216
-485.435	10.839	0.332	-0.256
-484.420	234.861	-0.081	-0.134
-483.405	800.000	0.125	-0.349
-482.391	-200.000	0.031	-0.267
-481.376	-200.000	-0.005	-0.328
-480.362	249.556	0.138	-0.237
-479.347	800.000	-0.069	-0.238
-478.332	-113.242	0.594	-0.118
-477.318	-200.000	0.014	-0.085
-476.303	-143.813	-0.287	0.027
-475.289	333.155	-0.043	0.084
-474.274	-52.779	0.169	-0.079
-473.259	-200.000	0.062	0.331
-472.245	213.963	-0.111	0.178
-471.230	136.457	0.081	-0.107
-470.216	648.450	0.097	-0.250
-469.201	-86.428	-0.251	0.078
-468.186	-93.308	-0.206	-0.058
-467.172	315.441	-0.088	-0.168
-466.157	-21.887	0.273	-0.168
-465.143	800.000	0.038	0.165
-464.128	-73.796	0.421	-0.155
-463.113	-39.815	0.149	0.079
-462.099	-96.482	0.163	0.044
-461.084	505.432	-0.010	-0.024
-460.070	-94.318	0.198	0.055
-459.055	178.281	0.105	0.155
-458.040	123.867	-0.032	-0.041
-457.026	-84.309	0.064	-0.020
-456.011	276.773	0.067	-0.120
-454.997	75.442	-0.278	0.297
-453.982	-30.514	-0.331	-0.189
-452.968	164.262	-0.123	0.176
-451.953	8.419	-0.157	-0.119
-450.938	-123.072	-0.178	-0.029
-449.924	800.000	0.032	0.104
-448.909	148.074	-0.202	0.275
-447.895	-196.729	-0.258	0.002
-446.880	-200.000	0.047	-0.233
-445.865	-9.357	-0.089	-0.060
-444.851	385.869	-0.142	-0.296
-443.836	-112.850	-0.209	-0.042
-442.822	-52.688	-0.135	-0.063
-441.807	-200.000	0.057	-0.297
-440.792	-200.000	0.028	-0.331
-439.778	439.620	0.134	0.296
-438.763	800.000	0.072	-0.281
-437.749	17.637	0.202	-0.163
-436.734	4.344	-0.144	-0.106
-435.719	-200.000	-0.037	0.267
-434.705	-200.000	0.037	0.384
-433.690	-136.327	0.119	0.014
-432.676	14.234	0.111	0.087
-431.661	-49.195	0.147	0.071
-430.646	-22.821	0.028	0.017
-429.632	85.381	0.062	0.069
-428.617	-150.371	0.119	-0.009
-427.603	62.465	-0.244	0.246
-426.588	334.126	-0.095	0.186
-425.573	-200.000	-0.006	-0.199
-424.559	-104.029	0.401	-0.094
-423.544	184.113	0.191	-0.285
-422.530	-200.000	0.015	-0.088
-421.515	-127.577	0.044	0.006
-420.500	28.082	0.187	-0.159
-419.486	-80.281	-0.152	0.051
-418.471	37.614	-0.139	0.125
-417.457	-57.613	-0.266	0.118
-416.442	110.889	0.094	0.115
-415.428	19.300	-0.227	0.184
-414.413	41.917	0.243	-0.223
-413.398	-46.792	0.441	0.218
-412.384	-170.636	0.094	-0.003
-411.369	137.140	0.115	-0.151
-410.355	-96.647	-0.362	-0.096
-409.340	105.412	0.226	-0.269
-408.325	-80.266	0.048	0.016
-407.311	65.445	0.046	0.047
-406.296	288.824	0.103	0.188
-405.282	316.929	0.080	0.152
-404.267	-200.000	0.005	0.176
-403.252	-53.971	0.298	-0.137
-402.238	-65.679	0.101	0.041
-401.223	97.550	-0.015	0.017
-400.209	42.923	-0.138	0.127
-399.194	-117.989	-0.300	0.054
-398.179	800.000	0.054	-0.171
-397.165	-200.000	0.024	0.117
-396.150	-200.000	0.011	0.280
-395.136	177.401	-0.182	0.267
-394.121	-116.887	-0.342	-0.063
-393.106	119.458	0.116	-0.145
-392.092	800.000	-0.098	0.299
-391.077	800.000	0.065	-0.252
-390.063	-57.370	0.288	0.128
-389.048	-58.262	-0.146	0.064
-388.033	20.570	-0.183	-0.149
-387.019	-71.254	-0.264	0.100
-386.004	-13.301	0.094	-0.061
-384.990	-49.843	0.509	-0.243
-383.975	-87.463	-0.292	-0.089
-382.960	291.258	-0.115	0.210
-381.946	800.000	-0.053	-0.175
-380.931	53.421	-0.160	0.155
-379.917	343.919	0.139	0.275
-378.902	-27.717	-0.032	0.019
-377.888	-133.063	-0.039	0.005
-376.873	-24.253	0.039	0.023
-375.858	-75.828	-0.092	0.033
-374.844	-81.381	-0.081	-0.027
-373.829	800.000	-0.064	-0.224
-372.815	-119.684	-0.087	-0.015
-371.800	34.919	-0.125	-0.110
-370.785	-200.000	0.025	0.414
-369.771	-78.915	0.108	-0.037
-368.756	-200.000	-0.011	0.152
-367.742	80.416	-0.038	0.042
-366.727	-68.243	0.191	0.075
-365.712	-105.866	-0.401	0.091
-364.698	-200.000	-0.011	0.066
-363.683	-197.698	0.463	-0.003
-362.669	1.772	0.080	0.058
-361.654	-155.093	0.077	-0.005
-360.639	-115.133	0.263	-0.050
-359.625	214.568	-0.077	-0.122
-358.610	-122.408	0.328	-0.054
-357.596	800.000	0.074	0.257
-356.581	-151.864	0.108	-0.008
-355.566	-77.359	0.273	0.095
-354.552	-122.338	-0.229	0.038
-353.537	67.003	-0.213	0.218
-352.523	4.258	0.038	-0.028
-351.508	45.662	0.351	-0.327
-350.493	-27.689	0.126	-0.074
-349.479	-200.000	-0.033	-0.258
-348.464	-179.732	0.264	0.006
-347.450	199.016	0.168	0.259
-346.435	-102.037	-0.243	-0.059
-345.420	32.144	0.328	-0.284
-344.406	147.814	0.134	0.182
-343.391	405.391	-0.053	-0.112
-342.377	-32.043	-0.155	-0.087
-341.362	177.909	-0.046	0.067
-340.348	570.924	-0.039	0.094
-339.333	348.222	-0.164	0.325
-338.318	159.356	-0.046	-0.065
-337.304	70.773	-0.131	-0.136
-336.289	31.507	-0.106	0.092
-335.275	-156.370	-0.378	0.024
-334.260	800.000	-0.095	0.294
-333.245	9.890	-0.346	0.264
-332.231	-200.000	-0.039	0.294
-331.216	-181.220	0.239	-0.005
-330.202	32.259	-0.235	0.204
-329.187	-200.000	-0.015	0.249
-328.172	455.361	0.028	0.062
-327.158	-67.765	0.294	-0.116
-326.143	320.400	-0.109	0.207
-325.129	255.105	-0.128	-0.220
-324.114	-200.000	-0.020	-0.153
-323.099	74.394	0.210	0.221
-322.085	162.042	0.095	-0.134
-321.070	800.000	-0.037	-0.143
-320.056	-33.116	0.167	-0.093
-319.041	76.217	0.023	0.025
-318.026	800.000	-0.053	0.164
-317.012	490.836	-0.071	0.164
-315.997	89.447	-0.212	-0.238
-314.983	-142.500	-0.285	-0.028
-313.968	157.828	0.394	0.548
-312.953	800.000	-0.130	0.468
-311.939	800.000	-0.091	0.296
-310.924	127.544	-0.117	0.150
-309.910	97.757	-0.229	0.265
-308.895	466.109	-0.134	0.301
-307.880	450.643	-0.020	0.044
-306.866	-89.178	0.258	-0.076
-305.851	-89.550	0.146	-0.043
-304.837	470.021	-0.064	-0.145
-303.822	87.377	0.230	0.255
-302.807	-3.702	-0.188	-0.131
-301.793	141.349	-0.149	-0.198
-300.778	-34.501	0.324	0.178
-299.764	-126.110	0.260	-0.039
-298.749	-86.558	0.111	0.034
-297.735	-3.021	-0.171	-0.120
-296.720	267.711	0.048	-0.085
-295.705	-56.838	-0.126	-0.056
-294.691	-43.389	-0.289	0.147
-293.676	-141.813	-0.121	0.012
-292.662	-200.000	-0.041	0.189
-291.647	88.903	0.135	0.151
-290.632	-200.000	0.016	-0.098
-289.618	-200.000	-0.038	-0.308
-288.603	104.624	-0.062	-0.073
-287.589	-200.000	-0.028	0.191
-286.574	-24.953	0.314	0.187
-285.559	-200.000	-0.003	0.114
-284.545	-87.034	-0.092	-0.028
-283.530	51.836	-0.136	-0.130
-282.516	-200.000	0.001	-0.078
-281.501	668.246	-0.098	0.255
-280.486	-200.000	0.038	-0.177
-279.472	-150.525	0.175	-0.013
-278.457	33.071	-0.193	0.167
-277.443	183.341	-0.138	-0.205
-276.428	-59.203	-0.080	0.035
-275.413	-179.989	0.136	0.003
-274.399	-200.000	0.043	0.195
-273.384	800.000	0.094	0.316
-272.370	-200.000	0.002	-0.135
-271.355	800.000	-0.006	0.027
-270.340	67.453	-0.145	-0.148
-269.326	66.940	0.077	-0.079
-268.311	109.595	-0.178	0.214
-267.297	-117.489	0.059	-0.011
-266.282	58.753	0.177	-0.174
-265.267	345.616	-0.113	0.223
-264.253	95.444	-0.203	0.232
-263.238	-48.957	-0.370	0.178
-262.224	-108.611	0.246	0.053
-261.209	115.902	-0.249	0.306
-260.195	800.000	-0.025	-0.091
-259.180	235.151	0.169	-0.280
-258.165	-200.000	0.009	0.121
-257.151	-200.000	0.000	0.293
-256.136	48.408	0.265	-0.249
-255.122	-16.441	0.185	0.118
-254.107	-21.419	-0.102	0.063
-253.092	-200.000	-0.015	-0.173
-252.078	-200.000	0.059	0.315
-251.063	-88.876	0.586	0.174
-250.049	-200.000	-0.032	-0.446
-249.034	-77.620	-0.147	-0.051
-248.019	-184.492	0.147	-0.002
-247.005	-55.387	-0.156	-0.070
-245.990	22.592	-0.164	0.135
-244.976	186.679	-0.128	0.191
-243.961	-200.000	-0.012	0.221
-242.946	468.718	0.101	-0.227
-241.932	-5.921	-0.196	-0.135
-240.917	49.033	0.097	-0.092
-239.903	83.454	-0.253	0.276
-238.888	-200.000	-0.018	-0.130
-237.873	46.092	0.010	0.009
-236.859	-68.838	-0.091	-0.035
-235.844	-200.000	0.003	-0.389
-234.830	-200.000	-0.049	-0.279
-233.815	-200.000	0.039	-0.236
-232.800	-200.000	0.029	0.345
-231.786	-150.219	0.092	0.007
-230.771	-122.478	0.013	-0.002
-229.757	27.997	0.376	0.318
-228.742	800.000	-0.061	0.179
-227.727	-38.998	-0.193	-0.102
-226.713	-76.419	0.274	-0.096
-225.698	-200.000	-0.002	-0.253
-224.684	120.936	0.260	0.324
-223.669	-200.000	0.011	0.372
-222.655	-200.000	-0.004	-0.030
-221.640	800.000	-0.107	0.392
-220.625	98.966	0.160	0.184
-219.611	-44.512	-0.230	0.115
-218.596	98.951	-0.048	-0.056
-217.582	53.841	0.180	-0.173
-216.567	-200.000	-0.022	-0.130
-215.552	315.170	0.171	0.322
-214.538	-109.969	0.286	0.060
-213.523	43.755	0.180	0.165
-212.509	-42.067	0.201	-0.103
-211.494	-126.636	0.056	0.008
-210.479	-67.003	-0.141	-0.056
-209.465	-22.462	0.187	-0.113
-208.450	142.978	0.194	0.257
-207.436	-66.718	-0.196	-0.078
-206.421	720.210	0.052	0.140
-205.406	800.000	-0.100	-0.416
-204.392	16.288	0.041	0.033
-203.377	-68.750	0.232	-0.090
-202.363	-200.000	-0.048	0.354
-201.348	-11.946	0.170	0.112
-200.333	-200.000	-0.057	-0.435
-199.319	90.365	0.070	0.078
-198.304	-49.078	0.143	-0.069
-197.290	-185.026	-0.124	-0.002
-196.275	-58.085	0.225	0.098
-195.260	-200.000	-0.007	-0.072
-194.246	-200.000	-0.002	0.439
-193.231	-58.570	0.220	0.095
-192.217	800.000	0.077	-0.232
-191.202	-198.274	-0.125	0.001
-190.187	204.333	-0.330	0.511
-189.173	-200.000	0.004	-0.099
-188.158	-10.761	0.118	0.078
-187.144	-108.952	0.153	0.033
-186.129	-52.475	-0.251	-0.116
-185.114	-42.314	-0.167	-0.085
-184.100	59.824	0.211	-0.208
-183.085	-45.269	0.454	0.225
-182.071	101.645	-0.118	-0.137
-181.056	540.508	-0.117	-0.277
-180.042	-153.104	-0.272	-0.019
-179.027	800.000	0.130	-0.481
-178.012	122.577	0.177	-0.221
-176.998	-178.617	-0.201	-0.005
-175.983	242.730	-0.120	0.200
-174.969	95.321	0.050	-0.056
-173.954	345.367	-0.150	-0.295
-172.939	-200.000	0.008	0.136
-171.925	94.856	-0.093	-0.106
-170.910	-49.566	0.051	-0.024
-169.896	224.907	0.033	0.053
-168.881	-200.000	-0.052	0.311
-167.866	-28.018	-0.104	0.060
-166.852	116.222	0.041	0.050
-165.837	291.148	0.101	-0.184
-164.823	-200.000	0.044	-0.241
-163.808	121.667	0.234	0.292
-162.793	-33.944	0.116	0.064
-161.779	800.000	-0.028	-0.118
-160.764	-157.871	0.141	-0.008
-159.750	266.305	0.199	0.347
-158.735	264.040	0.095	0.166
-157.720	-200.000	0.056	0.300
-156.706	-194.075	-0.214	0.002
-155.691	-154.564	-0.091	0.006
-154.677	-59.668	0.123	0.053
-153.662	-2.664	-0.093	0.065
-152.647	-99.414	0.223	0.056
-151.633	800.000	-0.068	-0.258
-150.618	-19.676	-0.026	-0.016
-149.604	164.553	-0.204	0.287
-148.589	-84.526	0.139	-0.044
-147.574	-200.000	-0.089	-0.409
-146.560	-134.698	0.247	0.030
-145.545	800.000	0.042	0.180
-144.531	800.000	0.018	-0.075
-143.516	75.788	-0.244	-0.257
-142.502	800.000	0.087	0.329
-141.487	800.000	0.079	0.236
-140.472	-88.679	-0.330	-0.098
-139.458	-171.582	-0.147	0.005
-138.443	97.650	-0.033	-0.038
-137.429	-28.257	-0.206	0.119
-136.414	345.595	0.078	0.152
-135.399	-84.786	-0.452	-0.142
-134.385	-143.471	-0.309	0.029
-133.370	-200.000	0.047	0.318
-132.356	-9.141	0.069	-0.046
-131.341	58.924	0.245	-0.240
-130.326	21.450	-0.088	-0.071
-129.312	-64.178	0.344	0.140
-128.297	-200.000	-0.004	-0.201
-127.283	-200.000	-0.006	0.058
-126.268	187.642	-0.068	0.101
-125.253	60.888	-0.072	-0.072
-124.239	-34.722	0.280	-0.153
-123.224	36.186	0.315	-0.277
-122.210	-111.617	0.216	0.044
