DTS Sentinel unit serial number:	SN413079Multiplexer serial number:	ORYXHardware model number:	OX4-SRSoftware version number:	ORYX F/W v4.00 Oryx Data Collector v3.7.2.0data status	okinstallation	princeton_trtdifferential loss correction	single-endedforward channel	channel 1reverse channel	N/Adate	2019/09/10time	22:20:11forward acquisition time	60.00reverse acquisition time	0.00gamma	496.2192k internal	0.2332k external	0.2332temperature offset calibration	0.9938default loss term (dB/km)	0.3790temperature slope calibration	1.0000multiplexer offset coefficient	1.0000multiplexer slope coefficient	1.0000fibre end	0.00T internal ref (°C)	30.47T ext. ref 1 (°C)	-0.32T ext. ref 2 (°C)	23.83length (m)	temperature (°C)	Stokes	anti-Stokes-747.200	473.258	0.065	0.148
-746.185	-49.753	0.117	-0.056
-745.171	212.571	-0.206	0.326
-744.156	39.536	-0.276	0.249
-743.142	84.517	-0.068	-0.075
-742.127	-65.082	-0.107	-0.043
-741.112	61.414	-0.069	0.069
-740.098	2.616	-0.214	0.156
-739.083	-77.844	0.371	0.129
-738.069	800.000	-0.069	0.209
-737.054	-200.000	0.014	-0.174
-736.039	364.719	0.056	0.114
-735.025	446.214	0.091	0.200
-734.010	668.493	-0.039	-0.100
-732.996	-146.123	0.086	0.008
-731.981	-174.069	-0.321	0.009
-730.966	-41.572	0.081	-0.042
-729.952	-200.000	0.077	-0.379
-728.937	-60.034	-0.066	-0.028
-727.923	-114.312	-0.138	-0.027
-726.908	106.752	-0.069	-0.082
-725.894	-19.473	-0.262	-0.163
-724.879	81.045	-0.095	-0.103
-723.864	-63.027	-0.115	0.048
-722.850	-81.272	-0.170	-0.056
-721.835	8.013	-0.161	0.121
-720.821	226.730	-0.083	-0.135
-719.806	-8.051	-0.452	-0.306
-718.791	-200.000	0.005	-0.047
-717.777	63.978	0.180	0.182
-716.762	89.160	0.214	-0.240
-715.748	-200.000	0.003	-0.109
-714.733	-61.465	-0.371	0.157
-713.718	-200.000	0.062	0.410
-712.704	-43.175	0.206	0.105
-711.689	-6.849	-0.169	-0.115
-710.675	50.873	0.285	-0.271
-709.660	-67.951	0.227	0.089
-708.645	80.147	0.078	0.085
-707.631	-107.225	-0.578	0.128
-706.616	800.000	0.022	0.065
-705.602	-111.447	0.107	-0.022
-704.587	328.970	-0.056	0.108
-703.572	800.000	-0.049	0.208
-702.558	800.000	0.079	-0.280
-701.543	-136.990	0.083	0.010
-700.529	2.804	-0.191	0.139
-699.514	-200.000	-0.000	0.267
-698.499	-72.315	0.361	0.134
-697.485	-39.963	-0.167	0.088
-696.470	-152.833	-0.122	0.009
-695.456	800.000	0.045	-0.159
-694.441	148.687	-0.198	0.269
-693.426	119.529	0.186	0.232
-692.412	500.967	0.055	-0.128
-691.397	-200.000	0.007	-0.272
-690.383	-200.000	-0.008	-0.059
-689.368	-200.000	0.060	0.287
-688.354	-31.466	-0.162	-0.091
-687.339	77.821	0.298	-0.319
-686.324	-128.991	0.622	0.088
-685.310	-200.000	0.010	0.320
-684.295	389.529	0.096	-0.200
-683.281	172.180	-0.110	-0.159
-682.266	113.532	0.175	0.214
-681.251	-200.000	-0.009	0.054
-680.237	20.039	-0.145	-0.117
-679.222	-52.525	0.397	-0.184
-678.208	132.841	-0.100	0.130
-677.193	-67.953	0.261	-0.102
-676.178	-2.266	0.112	0.079
-675.164	8.212	-0.299	0.225
-674.149	80.892	-0.118	-0.127
-673.135	-117.574	0.252	-0.046
-672.120	-50.821	0.304	-0.144
-671.105	5.205	0.182	-0.134
-670.091	800.000	0.028	-0.112
-669.076	-50.411	0.130	0.062
-668.062	-200.000	-0.022	0.104
-667.047	18.397	-0.227	0.182
-666.032	188.401	0.073	-0.109
-665.018	-25.042	-0.347	-0.206
-664.003	-11.939	0.123	-0.081
-662.989	-143.394	0.372	0.036
-661.974	-107.241	-0.369	-0.082
-660.959	60.106	-0.276	-0.274
-659.945	-67.507	0.180	0.071
-658.930	-9.864	0.173	-0.116
-657.916	-50.283	-0.127	0.060
-656.901	630.403	-0.132	0.335
-655.886	-200.000	0.001	0.078
-654.872	52.064	0.099	0.095
-653.857	-61.725	0.197	0.083
-652.843	-2.075	-0.056	0.039
-651.828	340.554	0.089	-0.175
-650.814	-151.998	-0.268	-0.020
-649.799	800.000	0.061	0.196
-648.784	-200.000	-0.023	0.204
-647.770	-115.487	0.073	-0.014
-646.755	-200.000	0.044	-0.236
-645.741	178.701	-0.126	0.184
-644.726	-200.000	-0.004	-0.285
-643.711	311.211	-0.100	-0.188
-642.697	-35.197	-0.190	-0.104
-641.682	800.000	0.016	0.059
-640.668	-48.532	-0.065	-0.031
-639.653	-130.584	-0.362	-0.049
-638.638	-103.468	-0.324	0.076
-637.624	-104.741	0.085	0.019
-636.609	-41.254	-0.126	0.065
-635.595	250.990	-0.122	-0.208
-634.580	521.451	-0.139	-0.328
-633.565	-120.213	0.271	-0.046
-632.551	800.000	0.054	-0.167
-631.536	397.090	-0.032	-0.067
-630.522	-116.824	-0.316	-0.058
-629.507	652.796	-0.110	0.284
-628.492	-121.927	-0.338	0.056
-627.478	94.670	-0.043	0.049
-626.463	5.593	0.129	0.096
-625.449	312.174	0.075	0.142
-624.434	-74.842	-0.303	-0.109
-623.419	-87.491	-0.312	0.095
-622.405	-200.000	-0.053	-0.239
-621.390	-38.406	-0.221	-0.117
-620.376	-88.277	-0.190	-0.057
-619.361	457.218	-0.144	0.319
-618.346	-58.015	-0.167	0.073
-617.332	247.837	-0.195	-0.330
-616.317	800.000	0.047	0.132
-615.303	-200.000	0.053	0.238
-614.288	25.893	-0.082	-0.068
-613.273	31.332	-0.066	-0.057
-612.259	-186.444	-0.272	-0.004
-611.244	100.546	0.064	0.075
-610.230	-200.000	-0.013	-0.385
-609.215	-72.234	0.133	-0.049
-608.201	-4.815	-0.377	0.260
-607.186	4.594	-0.061	0.045
-606.171	-200.000	-0.042	0.201
-605.157	-7.905	0.067	0.045
-604.142	-178.109	0.218	0.005
-603.128	-200.000	-0.012	-0.066
-602.113	173.965	0.097	-0.140
-601.098	701.272	0.062	0.162
-600.084	-15.321	-0.217	-0.139
-599.069	-96.115	-0.480	0.127
-598.055	268.465	-0.110	0.193
-597.040	-200.000	-0.084	-0.380
-596.025	-156.112	-0.264	-0.017
-595.011	-102.764	0.401	-0.095
-593.996	-95.664	-0.109	-0.029
-592.982	800.000	-0.041	-0.171
-591.967	67.371	0.177	-0.180
-590.952	561.628	0.029	-0.070
-589.938	-178.783	-0.236	-0.005
-588.923	800.000	-0.034	0.096
-587.909	-200.000	-0.045	0.293
-586.894	-112.641	-0.325	-0.065
-585.879	133.556	-0.080	-0.103
-584.865	-140.009	0.187	-0.020
-583.850	201.450	-0.116	0.179
-582.836	-0.498	0.187	0.133
-581.821	25.246	-0.236	-0.196
-580.806	-44.823	-0.204	-0.102
-579.792	-200.000	0.005	0.052
-578.777	284.746	-0.044	0.079
-577.763	97.678	0.220	0.253
-576.748	-34.076	0.078	-0.043
-575.733	267.864	0.014	-0.025
-574.719	800.000	0.028	-0.100
-573.704	3.320	0.251	0.183
-572.690	-156.971	-0.180	0.011
-571.675	-32.558	0.167	0.093
-570.661	-37.169	-0.336	0.180
-569.646	-124.109	-0.065	-0.010
-568.631	-4.891	0.102	-0.070
-567.617	194.102	-0.110	-0.166
-566.602	-5.395	-0.131	0.090
-565.588	-200.000	0.018	0.168
-564.573	634.455	0.102	0.259
-563.558	99.704	0.127	0.147
-562.544	800.000	0.082	-0.348
-561.529	-93.395	-0.078	0.022
-560.515	2.490	-0.056	-0.041
-559.500	-200.000	0.026	0.175
-558.485	322.610	-0.145	0.277
-557.471	-200.000	-0.005	0.082
-556.456	800.000	0.049	0.178
-555.442	-200.000	-0.005	0.105
-554.427	-80.002	-0.120	-0.040
-553.412	218.291	0.103	0.165
-552.398	-200.000	-0.019	-0.215
-551.383	-152.160	0.310	-0.022
-550.369	-18.345	-0.174	-0.109
-549.354	-6.757	0.139	-0.094
-548.339	-200.000	-0.003	0.199
-547.325	-46.311	0.018	-0.009
-546.310	-0.700	0.257	-0.182
-545.296	71.191	-0.184	-0.191
-544.281	-117.220	0.157	-0.028
-543.266	-77.459	-0.337	-0.117
-542.252	20.168	-0.391	-0.315
-541.237	551.125	0.080	0.192
-540.223	285.341	-0.053	-0.095
-539.208	800.000	0.073	-0.302
-538.193	-20.283	-0.084	-0.052
-537.179	-105.598	-0.191	-0.043
-536.164	114.493	-0.246	0.298
-535.150	-200.000	-0.001	0.032
-534.135	-65.699	-0.100	-0.040
-533.121	-200.000	0.000	-0.029
-532.106	-200.000	-0.026	-0.117
-531.091	157.001	0.102	-0.141
-530.077	48.351	0.104	-0.097
-529.062	-59.415	-0.237	-0.101
-528.048	-200.000	0.019	-0.220
-527.033	330.143	-0.062	-0.119
-526.018	53.178	0.164	-0.156
-525.004	-200.000	0.033	-0.547
-523.989	117.303	-0.266	-0.326
-522.975	-131.866	-0.230	-0.030
-521.960	-33.979	0.142	-0.078
-520.945	-110.530	0.114	-0.023
-519.931	-126.579	0.143	-0.021
-518.916	250.229	-0.126	0.213
-517.902	-8.405	0.083	0.056
-516.887	-200.000	-0.064	-0.391
-515.872	-195.386	0.113	-0.001
-514.858	135.783	0.046	0.060
-513.843	-30.073	-0.464	-0.263
-512.829	128.829	0.121	-0.153
-511.814	-157.203	-0.252	-0.015
-510.799	236.250	0.058	0.095
-509.785	800.000	-0.026	-0.079
-508.770	-26.494	0.162	-0.095
-507.756	269.724	0.101	0.178
-506.741	-52.482	-0.332	0.153
-505.726	-6.960	0.049	-0.033
-504.712	-130.244	0.072	-0.010
-503.697	226.525	-0.279	-0.451
-502.683	-200.000	0.035	-0.238
-501.668	172.261	0.089	0.127
-500.653	-50.785	-0.335	0.157
-499.639	-47.199	0.171	0.083
-498.624	-74.140	-0.266	0.096
-497.610	81.624	-0.143	0.154
-496.595	800.000	0.024	0.088
-495.581	-82.145	-0.056	-0.018
-494.566	40.814	-0.118	0.106
-493.551	103.578	0.089	-0.104
-492.537	39.692	-0.148	-0.132
-491.522	-82.053	0.090	0.029
-490.508	-159.838	0.177	-0.010
-489.493	391.603	-0.107	-0.222
-488.478	-46.995	-0.208	0.101
-487.464	300.924	-0.047	0.087
-486.449	-200.000	0.015	-0.147
-485.435	-71.212	-0.194	0.072
-484.420	-33.586	0.095	-0.052
-483.405	153.464	-0.120	-0.164
-482.391	168.037	0.052	0.073
-481.376	-94.696	0.151	-0.041
-480.362	89.471	0.012	0.013
-479.347	18.484	-0.174	0.139
-478.332	-37.526	-0.122	-0.065
-477.318	42.665	-0.133	-0.120
-476.303	-19.762	0.123	0.076
-475.289	-43.926	0.206	0.103
-474.274	8.835	0.097	-0.073
-473.259	-106.052	0.287	0.064
-472.245	-155.843	-0.242	0.015
-471.230	-71.009	-0.177	-0.066
-470.216	137.169	-0.258	0.336
-469.201	373.953	0.183	0.370
-468.186	-200.000	-0.036	0.157
-467.172	-89.123	-0.104	0.030
-466.157	-96.088	0.236	-0.062
-465.143	351.154	-0.167	0.328
-464.128	-200.000	-0.003	0.304
-463.113	-175.068	0.126	-0.004
-462.099	-35.819	-0.285	-0.153
-461.084	-98.998	-0.472	0.119
-460.070	-200.000	0.024	-0.260
-459.055	186.425	-0.205	-0.303
-458.040	414.101	0.072	0.153
-457.026	370.215	-0.055	0.111
-456.011	-200.000	0.001	-0.053
-454.997	-103.823	-0.130	0.030
-453.982	180.674	0.033	0.048
-452.968	239.367	0.105	-0.173
-451.953	-76.935	-0.291	0.101
-450.938	800.000	0.021	0.069
-449.924	-200.000	-0.039	-0.366
-448.909	41.361	0.144	0.130
-447.895	-200.000	0.000	0.431
-446.880	3.327	0.163	-0.118
-445.865	-16.254	-0.147	0.093
-444.851	-78.538	0.142	-0.048
-443.836	-126.198	0.280	-0.042
-442.822	284.055	-0.112	0.201
-441.807	-200.000	-0.035	-0.247
-440.792	-30.162	-0.271	-0.153
-439.778	-162.783	0.123	-0.006
-438.763	800.000	0.096	-0.276
-437.749	-149.528	0.233	0.018
-436.734	-97.377	0.255	0.066
-435.719	52.877	-0.357	0.340
-434.705	31.985	-0.329	0.282
-433.690	-9.820	0.181	0.120
-432.676	227.042	-0.134	0.217
-431.661	800.000	-0.079	0.237
-430.646	-200.000	-0.016	-0.375
-429.632	333.769	-0.177	-0.340
-428.617	-150.836	-0.320	-0.024
-427.603	62.723	0.155	-0.154
-426.588	-200.000	-0.001	-0.143
-425.573	-179.561	0.183	0.004
-424.559	-200.000	-0.008	-0.175
-423.544	11.359	0.171	0.130
-422.530	211.035	-0.061	-0.096
-421.515	512.092	-0.197	-0.455
-420.500	151.049	0.103	-0.140
-419.486	-110.239	0.333	-0.069
-418.471	3.682	-0.062	0.045
-417.457	56.190	0.120	-0.115
-416.442	52.821	-0.186	0.176
-415.428	313.238	-0.115	0.215
-414.413	567.381	0.071	0.170
-413.398	-6.183	-0.129	0.088
-412.384	-200.000	-0.019	-0.198
-411.369	-14.482	0.252	-0.161
-410.355	-30.884	-0.130	-0.073
-409.340	-119.176	-0.162	0.028
-408.325	179.685	0.209	0.305
-407.311	-32.293	-0.027	0.015
-406.296	-104.316	0.089	0.020
-405.282	-200.000	-0.075	0.382
-404.267	-105.047	-0.222	-0.050
-403.252	-9.816	0.221	-0.146
-402.238	-200.000	-0.009	0.135
-401.223	-200.000	-0.031	0.144
-400.209	54.526	-0.050	-0.048
-399.194	105.673	0.044	0.051
-398.179	-90.930	0.249	-0.071
-397.165	27.684	0.486	-0.406
-396.150	-84.930	0.357	-0.111
-395.136	-4.630	-0.150	-0.103
-394.121	-136.108	0.184	-0.021
-393.106	9.249	0.374	-0.281
-392.092	-6.377	-0.037	0.025
-391.077	-72.320	-0.076	-0.028
-390.063	800.000	-0.047	0.133
-389.048	218.195	-0.067	0.106
-388.033	416.723	0.069	-0.147
-387.019	-200.000	0.030	-0.316
-386.004	-25.888	-0.399	-0.233
-384.990	-73.303	-0.146	-0.053
-383.975	-14.667	-0.037	-0.023
-382.960	-52.412	-0.215	-0.099
-381.946	-200.000	0.016	-0.218
-380.931	-36.920	-0.154	0.082
-379.917	-141.460	-0.418	-0.042
-378.902	-200.000	0.079	0.348
-377.888	-69.003	-0.333	-0.128
-376.873	-10.441	0.238	0.157
-375.858	112.179	0.148	-0.178
-374.844	-161.874	0.016	-0.001
-373.829	-121.470	-0.420	0.069
-372.815	-117.400	-0.065	-0.012
-371.800	459.633	-0.247	-0.545
-370.785	7.379	-0.159	0.118
-369.771	-200.000	0.005	0.205
-368.756	-7.804	0.213	-0.143
-367.742	-141.069	0.052	0.005
-366.727	-159.651	0.093	-0.005
-365.712	688.666	0.034	0.089
-364.698	800.000	0.051	0.183
-363.683	-6.929	0.192	0.129
-362.669	238.252	-0.100	-0.164
-361.654	-97.854	0.283	-0.072
-360.639	174.344	0.145	-0.208
-359.625	-133.651	-0.263	0.033
-358.610	8.427	-0.267	-0.199
-357.596	317.728	-0.182	-0.340
-356.581	-200.000	0.004	-0.072
-355.566	219.293	0.060	0.096
-354.552	-195.903	-0.090	-0.001
-353.537	-136.172	0.188	0.022
-352.523	61.795	0.158	0.156
-351.508	-40.972	0.128	0.065
-350.493	-61.216	-0.212	0.089
-349.479	-200.000	0.010	-0.129
-348.464	35.549	-0.122	0.106
-347.450	170.365	0.202	0.287
-346.435	800.000	0.084	-0.238
-345.420	243.871	-0.069	0.115
-344.406	178.648	0.068	0.099
-343.391	449.427	0.088	-0.192
-342.377	-33.302	-0.179	-0.098
-341.362	-200.000	-0.082	0.430
-340.348	133.826	0.237	0.304
-339.333	731.648	-0.040	0.105
-338.318	-190.636	0.102	-0.001
-337.304	64.869	0.162	0.162
-336.289	265.565	0.119	0.205
-335.275	-200.000	-0.002	0.099
-334.260	177.675	-0.003	0.005
-333.245	58.621	-0.058	0.056
-332.231	-25.048	0.187	0.110
-331.216	20.516	-0.392	0.314
-330.202	-200.000	-0.002	0.267
-329.187	10.646	0.183	0.138
-328.172	122.169	-0.093	0.115
-327.158	155.140	-0.144	0.196
-326.143	-69.925	0.169	0.064
-325.129	660.262	-0.085	0.216
-324.114	-70.865	-0.272	-0.101
-323.099	90.237	0.055	-0.061
-322.085	800.000	-0.021	0.071
-321.070	161.095	0.125	0.173
-320.056	-72.154	0.039	0.014
-319.041	157.292	0.249	0.341
-318.026	-36.918	0.224	0.119
-317.012	46.217	0.102	-0.093
-315.997	-200.000	0.007	-0.079
-314.983	-200.000	-0.038	-0.213
-313.968	107.356	-0.229	-0.270
-312.953	159.266	-0.249	0.343
-311.939	491.060	-0.070	0.158
-310.924	315.446	0.104	-0.193
-309.910	-48.602	0.165	0.078
-308.895	36.636	0.228	-0.199
-307.880	238.795	0.171	-0.281
-306.866	-56.258	0.362	0.159
-305.851	800.000	-0.021	-0.071
-304.837	800.000	-0.078	-0.259
-303.822	-140.012	-0.139	0.014
-302.807	-144.151	-0.147	-0.014
-301.793	-200.000	0.065	-0.410
-300.778	-200.000	0.012	0.308
-299.764	-26.793	-0.333	-0.192
-298.749	-200.000	0.037	0.253
-297.735	121.004	0.098	-0.121
-296.720	64.664	-0.086	-0.086
-295.705	-200.000	0.269	0.000
-294.691	204.665	0.172	0.264
-293.676	-43.342	0.227	0.113
-292.662	-52.730	0.155	0.071
-291.647	-117.002	0.096	0.017
-290.632	-109.016	0.081	-0.017
-289.618	-28.612	-0.099	0.056
-288.603	-157.599	0.187	0.011
-287.589	-92.794	0.301	0.083
-286.574	-4.093	0.074	-0.051
-285.559	-10.584	0.069	0.045
-284.545	111.552	0.044	0.052
-283.530	-15.368	0.293	-0.185
-282.516	800.000	0.098	0.354
-281.501	-200.000	0.021	0.135
-280.486	-131.160	0.211	0.028
-279.472	-48.610	0.078	-0.037
-278.457	-200.000	-0.044	-0.316
-277.443	63.943	-0.023	-0.023
-276.428	-161.948	0.120	0.006
-275.413	216.073	0.047	0.074
-274.399	120.004	0.035	-0.043
-273.384	359.655	0.112	-0.221
-272.370	460.514	0.031	-0.068
-271.355	155.329	-0.162	0.220
-270.340	-200.000	0.147	0.000
-269.326	-94.675	0.075	-0.020
-268.311	-63.135	0.117	-0.048
-267.297	189.019	0.111	-0.164
-266.282	800.000	0.081	0.285
-265.267	199.755	-0.281	0.425
-264.253	1.749	0.074	-0.053
-263.238	-111.307	0.234	0.047
-262.224	-181.473	0.149	0.003
-261.209	463.082	0.060	0.131
-260.195	69.089	0.266	0.270
-259.180	-156.926	0.278	-0.017
-258.165	458.366	0.068	-0.150
-257.151	-121.301	0.312	-0.051
-256.136	173.389	0.103	0.147
-255.122	-200.000	-0.053	-0.234
-254.107	-85.966	0.359	0.110
-253.092	-96.618	-0.511	0.133
-252.078	-200.000	-0.101	0.000
-251.063	511.010	-0.099	0.226
-250.049	-200.000	0.027	-0.160
-249.034	-200.000	0.029	0.202
-248.019	144.629	-0.155	0.205
-247.005	7.031	-0.132	-0.097
-245.990	19.339	0.200	-0.159
-244.976	20.383	-0.197	0.157
-243.961	307.781	-0.017	0.031
-242.946	-36.502	0.234	-0.124
-241.932	-200.000	-0.012	0.155
-240.917	-122.079	-0.139	-0.022
-239.903	-200.000	0.021	-0.216
-238.888	-200.000	-0.042	0.264
-237.873	-142.877	-0.259	-0.025
-236.859	313.855	-0.036	-0.068
-235.844	34.996	0.298	0.258
-234.830	424.341	0.069	0.146
-233.815	-200.000	0.069	-0.312
-232.800	-82.757	-0.210	0.067
-231.786	-123.697	0.090	-0.014
-230.771	-66.485	-0.053	0.021
-229.757	-69.262	0.097	-0.037
-228.742	-25.457	0.175	-0.102
-227.727	-46.171	0.096	0.047
-226.713	-79.810	-0.243	-0.081
-225.698	-121.663	-0.070	-0.011
-224.684	212.097	0.065	0.102
-223.669	-15.736	0.124	-0.078
-222.655	-126.765	0.291	-0.042
-221.640	-200.000	-0.037	-0.445
-220.625	92.123	-0.052	-0.058
-219.611	800.000	-0.084	0.255
-218.596	116.318	0.132	0.159
-217.582	216.894	-0.190	-0.298
-216.567	-50.239	0.128	-0.060
-215.552	-158.077	0.086	0.005
-214.538	-90.225	0.238	-0.068
-213.523	109.501	0.108	0.128
-212.509	721.295	-0.052	0.136
-211.494	-200.000	-0.010	-0.198
-210.479	-104.497	0.439	0.100
-209.465	-90.138	0.124	-0.036
-208.450	-200.000	0.017	-0.159
-207.436	237.108	0.087	-0.142
-206.421	800.000	0.091	0.304
-205.406	-82.518	-0.318	0.102
-204.392	-200.000	0.010	-0.061
-203.377	-92.291	-0.026	0.007
-202.363	-47.240	0.234	0.112
-201.348	109.456	-0.093	-0.110
-200.333	-113.717	-0.138	-0.026
-199.319	23.036	0.146	0.118
-198.304	800.000	-0.018	-0.070
-197.290	-200.000	-0.032	0.207
-196.275	524.907	0.086	-0.200
-195.260	248.780	-0.050	0.083
-194.246	-147.001	0.148	-0.012
-193.231	231.139	0.074	-0.119
-192.217	-92.043	-0.032	-0.009
-191.202	14.657	0.268	-0.206
-190.187	156.682	0.132	-0.179
-189.173	49.537	0.136	-0.126
-188.158	-200.000	0.017	-0.105
-187.144	-180.704	-0.321	-0.006
-186.129	-166.685	0.228	0.009
-185.114	-121.367	0.279	0.046
-184.100	-8.227	0.141	0.093
-183.085	20.777	-0.140	0.112
-182.071	101.904	-0.032	0.037
-181.056	-200.000	0.007	-0.039
-180.042	114.909	0.108	-0.129
-179.027	-200.000	-0.004	-0.143
-178.012	-157.624	0.045	0.003
-176.998	-40.511	-0.122	-0.063
-175.983	423.494	0.073	0.154
-174.969	-170.151	0.407	-0.014
-173.954	-109.049	-0.102	-0.021
-172.939	800.000	0.122	0.338
-171.925	62.824	0.275	0.271
-170.910	17.388	-0.283	-0.221
-169.896	-47.716	-0.106	-0.051
-168.881	179.904	-0.070	0.101
-167.866	104.174	0.191	0.221
-166.852	111.402	0.097	0.115
-165.837	-200.000	-0.001	0.125
-164.823	-36.713	0.138	0.073
-163.808	73.376	0.033	-0.034
-162.793	520.524	-0.147	0.339
-161.779	-200.000	-0.020	0.172
-160.764	-58.971	0.179	0.076
-159.750	-200.000	0.048	0.307
-158.735	-78.396	0.303	0.102
-157.720	102.424	0.189	-0.217
-156.706	-123.936	0.491	0.076
-155.691	-115.384	-0.082	-0.015
-154.677	132.120	0.236	-0.298
-153.662	-200.000	0.012	-0.267
-152.647	-200.000	0.025	-0.327
-151.633	77.012	0.050	0.053
-150.618	-10.183	0.200	0.130
-149.604	362.920	-0.025	-0.049
-148.589	30.308	0.326	0.273
-147.574	-0.319	-0.043	0.030
-146.560	10.906	-0.136	-0.102
-145.545	-76.863	0.245	0.084
-144.531	-200.000	-0.014	0.105
-143.516	-200.000	0.032	0.214
-142.502	-200.000	-0.011	0.174
-141.487	98.970	-0.057	-0.065
-140.472	415.774	-0.019	-0.040
-139.458	-113.422	-0.254	0.049
-138.443	132.231	0.199	0.253
-137.429	422.802	-0.129	0.273
-136.414	42.315	0.066	0.059
-135.399	-42.654	-0.285	0.142
-134.385	-52.395	0.158	-0.072
-133.370	212.350	0.159	0.247
-132.356	-16.450	0.233	0.145
-131.341	-45.323	-0.391	-0.190
-130.326	-11.003	-0.384	0.249
-129.312	276.274	-0.046	-0.080
-128.297	-25.717	-0.163	-0.094
-127.283	800.000	-0.026	0.093
-126.268	-200.000	0.006	0.342
-125.253	670.330	-0.038	0.096
-124.239	397.417	-0.170	0.349
-123.224	-94.693	-0.315	0.084
-122.210	15.991	0.151	0.117
-121.195	28.402	0.192	-0.160
-120.180	-137.768	0.122	0.013
