DTS Sentinel unit serial number:	SN413079Multiplexer serial number:	ORYXHardware model number:	OX4-SRSoftware version number:	ORYX F/W v4.00 Oryx Data Collector v3.7.2.0data status	okinstallation	princeton_trtdifferential loss correction	single-endedforward channel	channel 1reverse channel	N/Adate	2019/09/11time	03:00:11forward acquisition time	60.00reverse acquisition time	0.00gamma	496.2192k internal	0.2331k external	0.2331temperature offset calibration	0.9927default loss term (dB/km)	0.3790temperature slope calibration	1.0000multiplexer offset coefficient	1.0000multiplexer slope coefficient	1.0000fibre end	0.00T internal ref (°C)	29.28T ext. ref 1 (°C)	-0.29T ext. ref 2 (°C)	23.80length (m)	temperature (°C)	Stokes	anti-Stokes-747.200	-119.248	-0.482	-0.085
-746.185	29.583	0.338	-0.290
-745.171	-32.942	0.178	-0.100
-744.156	191.541	-0.297	0.450
-743.142	-48.829	-0.465	-0.225
-742.127	-200.000	0.124	0.687
-741.112	13.757	0.257	0.201
-740.098	-102.501	-0.343	0.083
-739.083	41.054	-0.029	0.026
-738.069	334.790	0.106	0.206
-737.054	800.000	0.071	-0.223
-736.039	-158.254	-0.343	-0.020
-735.025	-12.287	0.130	-0.086
-734.010	-185.201	0.127	0.002
-732.996	462.796	-0.217	-0.488
-731.981	-93.109	-0.263	0.074
-730.966	-146.741	-0.257	-0.022
-729.952	-200.000	0.020	0.232
-728.937	120.549	0.089	0.111
-727.923	560.847	0.145	0.353
-726.908	-200.000	0.036	0.203
-725.894	800.000	0.031	0.108
-724.879	36.230	0.251	-0.222
-723.864	800.000	-0.005	0.020
-722.850	-200.000	-0.021	-0.200
-721.835	-200.000	0.003	0.047
-720.821	242.482	0.089	0.150
-719.806	-143.980	-0.203	0.019
-718.791	800.000	0.062	0.256
-717.777	148.674	-0.265	-0.359
-716.762	525.941	0.104	-0.246
-715.748	-200.000	-0.029	-0.493
-714.733	800.000	0.047	-0.147
-713.718	296.158	-0.078	-0.143
-712.704	580.740	0.198	-0.489
-711.689	772.897	-0.068	-0.185
-710.675	-149.915	0.263	-0.021
-709.660	81.248	0.062	0.068
-708.645	-200.000	-0.022	0.156
-707.631	-27.907	0.143	0.083
-706.616	-106.179	-0.092	0.021
-705.602	675.770	0.094	0.245
-704.587	287.808	-0.046	0.084
-703.572	-124.884	-0.256	0.040
-702.558	165.592	-0.196	0.278
-701.543	800.000	0.053	0.149
-700.529	-52.613	-0.145	-0.067
-699.514	202.966	-0.085	0.132
-698.499	-200.000	0.015	0.277
-697.485	99.842	0.205	0.239
-696.470	-161.010	-0.168	0.009
-695.456	64.449	-0.111	-0.112
-694.441	-200.000	0.006	-0.065
-693.426	-200.000	0.002	-0.018
-692.412	-103.546	0.379	-0.089
-691.397	-149.684	-0.113	0.009
-690.383	-0.333	-0.116	0.083
-689.368	-123.635	0.214	0.034
-688.354	-200.000	0.021	-0.149
-687.339	328.110	-0.067	0.130
-686.324	-200.000	-0.040	0.314
-685.310	-200.000	-0.011	0.115
-684.295	-89.145	0.358	0.106
-683.281	-22.438	0.083	0.050
-682.266	-86.962	0.409	0.125
-681.251	328.926	0.045	0.086
-680.237	-63.991	0.417	0.171
-679.222	150.325	0.057	0.078
-678.208	104.484	0.227	-0.269
-677.193	-7.228	-0.309	-0.211
-676.178	66.869	0.135	0.138
-675.164	-140.997	0.135	0.014
-674.149	-111.981	-0.264	-0.053
-673.135	800.000	0.015	0.056
-672.120	486.466	-0.051	-0.117
-671.105	111.323	-0.157	-0.189
-670.091	-111.921	-0.127	0.026
-669.076	-170.113	-0.402	0.014
-668.062	514.385	-0.044	0.103
-667.047	-98.768	0.357	-0.091
-666.032	-54.327	-0.180	-0.082
-665.018	-53.808	-0.351	-0.161
-664.003	-117.639	-0.353	-0.064
-662.989	121.839	0.148	-0.186
-661.974	-200.000	-0.023	-0.104
-660.959	-132.754	0.171	0.022
-659.945	83.543	0.038	0.042
-658.930	-115.650	-0.342	0.064
-657.916	-184.060	0.041	0.001
-656.901	240.388	0.331	-0.554
-655.886	-130.778	-0.250	-0.034
-654.872	477.323	-0.054	0.123
-653.857	4.928	0.141	-0.104
-652.843	-182.036	0.269	0.005
-651.828	177.996	-0.139	-0.203
-650.814	-9.573	0.257	-0.172
-649.799	508.586	-0.060	-0.140
-648.784	-64.274	-0.255	0.104
-647.770	-200.000	0.022	-0.249
-646.755	-200.000	0.031	0.142
-645.741	85.497	0.273	0.301
-644.726	153.088	-0.169	0.232
-643.711	438.051	-0.102	-0.223
-642.697	800.000	0.007	-0.021
-641.682	103.009	0.061	0.072
-640.668	-28.986	-0.091	0.052
-639.653	18.428	-0.072	-0.058
-638.638	800.000	-0.062	0.248
-637.624	106.808	-0.252	-0.300
-636.609	-98.621	0.325	-0.083
-635.595	135.299	-0.157	0.204
-634.580	58.377	0.257	-0.253
-633.565	-72.601	0.309	-0.114
-632.551	183.049	0.100	-0.149
-631.536	141.051	0.123	0.163
-630.522	33.666	-0.390	-0.340
-629.507	-3.099	-0.108	-0.076
-628.492	-200.000	0.007	0.075
-627.478	-62.041	0.151	-0.063
-626.463	800.000	0.083	0.259
-625.449	17.847	0.048	0.038
-624.434	205.364	0.162	0.251
-623.419	508.187	0.069	-0.161
-622.405	800.000	0.035	0.123
-621.390	-44.522	-0.087	0.044
-620.376	29.952	0.072	-0.061
-619.361	-109.527	-0.191	-0.040
-618.346	800.000	0.057	-0.173
-617.332	336.788	-0.151	-0.294
-616.317	141.012	0.202	0.267
-615.303	-13.200	0.175	0.114
-614.288	162.655	-0.223	0.313
-613.273	52.939	-0.108	0.103
-612.259	-96.287	-0.211	-0.056
-611.244	-172.449	-0.133	-0.004
-610.230	-122.643	0.324	-0.053
-609.215	89.297	-0.150	-0.168
-608.201	-200.000	-0.008	-0.116
-607.186	-121.579	-0.079	-0.013
-606.171	479.631	0.013	0.028
-605.157	458.642	0.056	0.124
-604.142	-50.771	0.197	-0.093
-603.128	37.620	0.238	-0.212
-602.113	800.000	-0.038	-0.120
-601.098	800.000	-0.006	0.026
-600.084	89.023	0.078	0.087
-599.069	316.962	0.132	-0.250
-598.055	-59.798	-0.256	-0.110
-597.040	-200.000	0.005	-0.174
-596.025	-158.964	0.148	-0.008
-595.011	-4.538	-0.090	-0.062
-593.996	476.265	-0.095	-0.215
-592.982	800.000	-0.077	0.305
-591.967	-119.404	0.183	0.032
-590.952	284.516	0.034	-0.060
-589.938	45.451	0.280	-0.259
-588.923	359.064	-0.029	-0.058
-587.909	-200.000	0.275	0.000
-586.894	-126.313	0.051	0.008
-585.879	337.742	0.139	0.269
-584.865	-200.000	0.002	-0.069
-583.850	-175.288	0.203	-0.006
-582.836	-200.000	0.052	-0.400
-581.821	800.000	-0.023	0.073
-580.806	-104.681	-0.190	-0.044
-579.792	-24.343	-0.206	0.123
-578.777	228.320	0.110	-0.179
-577.763	8.307	-0.148	0.111
-576.748	-200.000	-0.026	-0.233
-575.733	-70.448	0.257	-0.097
-574.719	-29.206	0.155	-0.089
-573.704	-18.257	-0.276	-0.173
-572.690	-68.679	0.370	-0.143
-571.675	-83.830	-0.263	-0.084
-570.661	-89.906	-0.151	0.044
-569.646	362.485	0.112	0.224
-568.631	197.994	-0.159	-0.243
-567.617	8.449	0.155	0.117
-566.602	-200.000	-0.065	0.297
-565.588	25.389	0.223	-0.185
-564.573	-153.447	-0.157	-0.011
-563.558	15.386	-0.157	0.123
-562.544	155.420	-0.165	0.228
-561.529	-200.000	-0.048	0.384
-560.515	-74.854	-0.153	0.055
-559.500	51.996	-0.068	0.065
-558.485	107.241	0.306	0.364
-557.471	-66.914	-0.097	0.038
-556.456	-57.404	0.284	-0.125
-555.442	434.221	0.100	0.217
-554.427	800.000	-0.070	-0.208
-553.412	-172.895	-0.352	-0.011
-552.398	66.242	0.176	0.178
-551.383	103.188	-0.005	0.006
-550.369	800.000	-0.057	-0.158
-549.354	-101.615	-0.025	0.006
-548.339	130.226	0.049	-0.062
-547.325	-99.076	-0.351	-0.089
-546.310	493.769	-0.118	0.270
-545.296	100.133	0.125	0.145
-544.281	-200.000	-0.038	-0.284
-543.266	29.800	-0.135	0.115
-542.252	23.253	-0.200	-0.164
-541.237	-64.446	-0.100	0.041
-540.223	800.000	0.067	0.237
-539.208	123.522	0.086	-0.107
-538.193	-51.459	0.118	0.055
-537.179	-200.000	0.000	0.203
-536.164	610.453	-0.086	-0.213
-535.150	77.110	-0.157	-0.166
-534.135	-121.902	0.177	0.029
-533.121	800.000	-0.096	0.324
-532.106	800.000	0.032	0.114
-531.091	-200.000	-0.022	-0.123
-530.077	174.606	-0.055	0.079
-529.062	13.206	-0.147	0.113
-528.048	-1.209	-0.159	0.112
-527.033	-158.988	-0.143	-0.008
-526.018	-200.000	-0.013	0.216
-525.004	800.000	-0.063	-0.193
-523.989	-200.000	-0.024	-0.129
-522.975	-33.165	-0.115	-0.063
-521.960	-4.191	-0.311	-0.215
-520.945	122.436	0.368	-0.459
-519.931	-200.000	-0.028	0.257
-518.916	-115.272	0.167	-0.032
-517.902	-177.537	-0.167	-0.004
-516.887	-87.860	0.248	0.075
-515.872	-77.296	-0.134	0.046
-514.858	-61.670	-0.273	-0.114
-513.843	-176.869	0.190	-0.005
-512.829	800.000	0.046	-0.135
-511.814	74.360	0.062	0.065
-510.799	174.164	-0.251	0.362
-509.785	93.585	0.241	0.272
-508.770	-2.618	-0.058	-0.040
-507.756	300.844	0.025	-0.046
-506.741	741.971	0.086	0.230
-505.726	62.486	0.225	0.224
-504.712	-200.000	-0.048	-0.280
-503.697	44.282	-0.267	-0.244
-502.683	-5.666	0.341	0.233
-501.668	-26.293	-0.113	0.066
-500.653	-123.784	0.462	0.073
-499.639	1.000	-0.097	0.069
-498.624	-163.322	-0.398	-0.019
-497.610	-126.054	0.414	-0.062
-496.595	-200.000	0.053	0.256
-495.581	368.673	0.085	-0.172
-494.566	3.923	-0.133	-0.097
-493.551	-200.000	-0.022	0.242
-492.537	-200.000	0.064	-0.373
-491.522	-55.080	0.368	-0.165
-490.508	-56.884	0.111	-0.049
-489.493	-172.356	-0.063	-0.002
-488.478	-30.773	-0.185	-0.104
-487.464	683.821	-0.142	0.368
-486.449	-92.433	-0.273	0.076
-485.435	-109.959	0.121	0.025
-484.420	-200.000	0.015	-0.302
-483.405	47.422	-0.290	-0.269
-482.391	111.533	0.176	0.212
-481.376	36.669	0.241	-0.212
-480.362	-200.000	0.012	-0.083
-479.347	8.134	0.108	-0.081
-478.332	800.000	0.079	-0.220
-477.318	-48.373	-0.169	0.081
-476.303	800.000	-0.070	-0.290
-475.289	659.250	-0.104	0.267
-474.274	-50.127	-0.144	-0.068
-473.259	800.000	0.104	0.335
-472.245	-46.141	-0.308	-0.151
-471.230	-98.273	-0.176	0.045
-470.216	800.000	-0.074	0.292
-469.201	-131.776	0.176	-0.023
-468.186	800.000	0.081	-0.301
-467.172	62.461	-0.070	0.069
-466.157	286.146	-0.106	0.191
-465.143	-200.000	0.001	-0.053
-464.128	160.989	-0.043	-0.059
-463.113	-17.118	0.104	0.065
-462.099	800.000	-0.071	-0.237
-461.084	157.067	-0.120	0.165
-460.070	137.334	-0.237	-0.308
-459.055	800.000	0.045	0.190
-458.040	393.111	-0.009	-0.019
-457.026	121.744	0.087	0.108
-456.011	180.462	-0.075	0.109
-454.997	-30.993	-0.254	-0.143
-453.982	-96.374	0.390	0.103
-452.968	173.736	-0.089	0.128
-451.953	-73.600	-0.258	0.093
-450.938	178.462	0.266	-0.387
-449.924	-200.000	0.016	0.193
-448.909	272.645	0.120	0.211
-447.895	-170.603	0.166	-0.006
-446.880	-163.556	-0.084	0.004
-445.865	285.712	-0.040	0.072
-444.851	-46.523	-0.145	-0.071
-443.836	-148.686	-0.253	-0.020
-442.822	-58.955	0.047	-0.020
-441.807	33.529	0.109	0.094
-440.792	262.758	-0.079	0.136
-439.778	123.794	-0.161	0.201
-438.763	-111.873	0.347	0.070
-437.749	229.883	-0.171	0.278
-436.734	148.190	0.129	0.172
-435.719	-150.161	-0.105	-0.008
-434.705	-200.000	0.100	-0.440
-433.690	104.267	0.157	0.184
-432.676	213.247	0.252	0.396
-431.661	-200.000	0.011	0.077
-430.646	-108.773	0.228	0.048
-429.632	-112.579	0.196	0.039
-428.617	800.000	0.056	-0.183
-427.603	-132.190	-0.290	0.037
-426.588	-36.636	-0.165	-0.088
-425.573	-121.965	0.185	-0.030
-424.559	-54.588	-0.380	-0.171
-423.544	-153.008	-0.092	0.006
-422.530	-200.000	-0.002	-0.120
-421.515	5.455	0.174	-0.128
-420.500	-102.695	-0.067	-0.016
-419.486	800.000	-0.095	0.301
-418.471	-200.000	0.004	0.032
-417.457	-141.099	0.298	-0.030
-416.442	800.000	-0.071	-0.207
-415.428	-200.000	-0.005	-0.050
-414.413	-123.686	0.118	-0.019
-413.398	-166.386	0.209	-0.009
-412.384	-10.231	-0.179	0.118
-411.369	-25.548	0.286	-0.168
-410.355	157.918	-0.064	-0.089
-409.340	-200.000	-0.017	-0.187
-408.325	-110.532	0.432	0.089
-407.311	-200.000	-0.034	0.150
-406.296	110.197	0.160	0.191
-405.282	-23.334	-0.215	-0.128
-404.267	-42.889	0.164	0.083
-403.252	-11.812	0.131	-0.085
-402.238	-65.145	-0.473	0.189
-401.223	-38.517	0.183	0.096
-400.209	-114.831	-0.174	0.033
-399.194	161.192	-0.096	-0.134
-398.179	116.606	-0.117	-0.143
-397.165	800.000	0.047	-0.169
-396.150	-111.979	-0.170	0.034
-395.136	-200.000	-0.006	0.048
-394.121	-22.546	-0.147	0.088
-393.106	800.000	-0.042	-0.154
-392.092	4.700	0.372	0.271
-391.077	672.857	-0.070	-0.181
-390.063	180.577	0.151	0.220
-389.048	-200.000	-0.050	0.300
-388.033	-70.013	0.068	-0.026
-387.019	800.000	-0.025	0.089
-386.004	225.239	-0.045	-0.072
-384.990	-200.000	-0.005	0.054
-383.975	-32.833	0.105	-0.058
-382.960	393.619	-0.061	0.127
-381.946	480.307	-0.037	0.084
-380.931	70.918	0.189	-0.194
-379.917	-52.979	-0.196	0.089
-378.902	-16.675	-0.176	0.111
-377.888	-200.000	0.012	-0.059
-376.873	-126.998	0.120	0.017
-375.858	-100.853	-0.085	0.021
-374.844	-55.988	-0.186	-0.082
-373.829	45.675	-0.046	0.042
-372.815	-66.990	-0.131	0.051
-371.800	-13.094	-0.265	0.171
-370.785	226.781	-0.073	-0.118
-369.771	-83.838	0.284	-0.090
-368.756	-22.706	0.106	0.063
-367.742	95.983	0.174	-0.197
-366.727	-200.000	-0.010	0.079
-365.712	-200.000	-0.010	-0.161
-364.698	-200.000	0.023	-0.226
-363.683	-43.167	-0.119	-0.060
-362.669	-200.000	-0.052	-0.303
-361.654	599.428	0.070	-0.172
-360.639	298.809	-0.137	-0.249
-359.625	-200.000	0.033	0.258
-358.610	-200.000	0.014	-0.236
-357.596	-44.850	-0.178	0.088
-356.581	-200.000	0.053	0.384
-355.566	-200.000	-0.021	0.288
-354.552	-124.646	-0.084	0.013
-353.537	-131.836	-0.239	0.031
-352.523	-157.967	-0.141	-0.008
-351.508	-200.000	-0.023	0.214
-350.493	9.913	0.190	0.143
-349.479	-122.351	-0.350	-0.057
-348.464	-148.382	0.213	-0.017
-347.450	-200.000	0.021	0.291
-346.435	-184.920	0.108	0.002
-345.420	-200.000	-0.040	-0.410
-344.406	9.230	0.086	-0.065
-343.391	-22.324	-0.286	-0.172
-342.377	2.514	0.192	-0.138
-341.362	-40.192	-0.162	-0.084
-340.348	-107.086	-0.190	0.041
-339.333	-68.659	-0.040	-0.015
-338.318	-87.202	0.133	0.040
-337.304	173.317	0.235	-0.336
-336.289	99.895	0.127	0.146
-335.275	800.000	-0.082	0.307
-334.260	-67.736	-0.260	-0.101
-333.245	-170.538	-0.191	-0.007
-332.231	-29.757	0.143	-0.081
-331.216	88.176	0.126	0.138
-330.202	-166.214	0.126	-0.005
-329.187	332.498	-0.103	-0.197
-328.172	-200.000	0.051	-0.224
-327.158	-97.623	0.366	0.094
-326.143	186.679	0.181	0.266
-325.129	800.000	0.057	-0.217
-324.114	-10.710	-0.347	-0.227
-323.099	-9.163	0.302	-0.200
-322.085	1.946	-0.135	0.097
-321.070	-155.408	-0.201	0.013
-320.056	-86.476	0.374	-0.114
-319.041	-49.004	-0.297	-0.141
-318.026	-84.029	0.209	-0.066
-317.012	-25.826	0.036	-0.021
-315.997	777.861	0.017	0.047
-314.983	-200.000	-0.008	0.219
-313.968	-9.933	-0.053	0.035
-312.953	-144.945	-0.090	0.008
-311.939	36.103	-0.164	-0.143
-310.924	-37.832	0.106	0.056
-309.910	-3.243	0.092	0.063
-308.895	-200.000	0.001	0.108
-307.880	21.635	0.038	-0.031
-306.866	326.764	-0.102	-0.194
-305.851	-200.000	-0.013	-0.073
-304.837	800.000	0.159	-0.486
-303.822	-81.640	0.181	0.059
-302.807	800.000	0.040	0.144
-301.793	30.374	0.214	-0.181
-300.778	-75.517	0.316	-0.111
-299.764	-123.213	-0.332	-0.052
-298.749	391.024	-0.250	-0.513
-297.735	5.521	-0.085	-0.062
-296.720	800.000	0.041	0.147
-295.705	70.576	0.197	-0.202
-294.691	437.208	0.161	0.348
-293.676	100.279	0.125	-0.144
-292.662	132.863	0.114	0.146
-291.647	69.341	0.079	-0.081
-290.632	-86.146	0.084	0.025
-289.618	444.697	-0.107	0.231
-288.603	-200.000	0.020	-0.123
-287.589	415.320	0.098	0.207
-286.574	-200.000	-0.022	0.212
-285.559	-200.000	-0.018	0.135
-284.545	-95.297	-0.237	-0.063
-283.530	-94.373	0.172	0.047
-282.516	38.710	-0.106	-0.093
-281.501	420.502	-0.129	0.273
-280.486	-29.825	0.084	0.047
-279.472	-41.170	-0.154	-0.079
-278.457	-94.736	0.067	-0.018
-277.443	-86.726	-0.143	-0.043
-276.428	-200.000	-0.007	-0.075
-275.413	-132.354	0.091	0.012
-274.399	90.090	-0.088	-0.098
-273.384	-62.153	-0.358	-0.147
-272.370	201.988	-0.052	0.080
-271.355	-96.652	0.142	0.037
-270.340	-200.000	-0.037	-0.386
-269.326	105.591	-0.006	-0.007
-268.311	-58.822	0.121	0.052
-267.297	-92.500	0.174	0.048
-266.282	800.000	0.126	-0.405
-265.267	7.123	-0.211	-0.156
-264.253	-46.741	0.126	-0.061
-263.238	-200.000	-0.002	-0.180
-262.224	48.486	-0.051	-0.047
-261.209	103.616	-0.146	-0.170
-260.195	712.335	-0.029	0.076
-259.180	-200.000	0.035	0.247
-258.165	-17.199	-0.099	0.062
-257.151	-200.000	0.011	0.057
-256.136	-200.000	0.008	-0.059
-255.122	273.993	0.076	0.133
-254.107	604.800	0.044	-0.108
-253.092	-106.388	-0.177	-0.039
-252.078	168.766	-0.162	0.228
-251.063	367.314	0.135	0.269
-250.049	800.000	0.085	0.336
-249.034	-200.000	-0.019	0.331
-248.019	-200.000	-0.045	-0.367
-247.005	395.651	0.130	0.267
-245.990	-154.538	0.080	-0.005
-244.976	213.448	-0.227	-0.354
-243.961	46.043	0.085	-0.077
-242.946	-31.085	0.162	-0.090
-241.932	6.807	0.217	0.159
-240.917	62.231	0.221	0.218
-239.903	288.071	-0.061	0.109
-238.888	17.673	0.206	-0.162
-237.873	77.021	-0.335	0.351
-236.859	-200.000	0.023	0.236
-235.844	-200.000	0.010	-0.201
-234.830	383.629	-0.070	-0.142
-233.815	-101.878	-0.051	-0.012
-232.800	135.252	0.151	-0.194
-231.786	-68.874	-0.100	0.038
-230.771	800.000	-0.055	-0.168
-229.757	189.546	-0.141	0.209
-228.742	145.232	0.056	0.074
-227.727	13.611	-0.084	-0.064
-226.713	48.767	0.146	0.135
-225.698	780.713	-0.058	0.156
-224.684	-165.707	-0.141	-0.006
-223.669	-200.000	0.002	0.276
-222.655	591.548	-0.080	0.195
-221.640	617.727	0.015	-0.036
-220.625	-81.872	0.231	-0.074
-219.611	191.400	-0.124	-0.184
-218.596	97.156	0.220	-0.249
-217.582	75.896	0.034	-0.035
-216.567	800.000	0.049	0.188
-215.552	-2.174	0.167	0.115
-214.538	-67.915	0.094	-0.036
-213.523	-21.212	0.150	-0.090
-212.509	-102.513	0.104	0.024
-211.494	-200.000	-0.004	0.313
-210.479	-200.000	0.028	-0.236
-209.465	178.127	0.209	-0.300
-208.450	-200.000	0.032	-0.320
-207.436	-107.234	0.147	-0.032
-206.421	800.000	0.042	-0.135
-205.406	-200.000	0.042	0.309
-204.392	-200.000	0.012	0.126
-203.377	390.834	0.169	-0.346
-202.363	-161.672	0.154	0.008
-201.348	108.362	-0.514	0.604
-200.333	-105.451	-0.276	0.062
-199.319	77.604	-0.128	-0.134
-198.304	-48.409	-0.364	-0.173
-197.290	-111.998	-0.264	0.052
-196.275	494.242	-0.131	-0.297
-195.260	60.796	-0.137	0.134
-194.246	-133.439	-0.201	0.025
-193.231	304.329	0.024	-0.044
-192.217	-70.695	0.013	0.005
-191.202	-98.019	0.273	0.069
-190.187	-149.687	-0.290	-0.023
-189.173	-61.429	-0.241	-0.100
-188.158	64.622	-0.131	0.130
-187.144	-43.753	0.203	-0.101
-186.129	-20.318	0.097	0.059
-185.114	260.788	0.129	0.220
-184.100	-75.790	0.178	-0.062
-183.085	-200.000	0.015	0.347
-182.071	800.000	-0.020	-0.072
-181.056	800.000	-0.056	-0.228
-180.042	182.245	0.135	-0.196
-179.027	-31.237	-0.031	-0.017
-178.012	-32.863	-0.151	-0.083
-176.998	60.499	0.014	-0.013
-175.983	-65.905	-0.277	0.109
-174.969	6.850	0.086	0.063
-173.954	168.404	-0.267	0.374
-172.939	5.594	0.137	-0.099
-171.925	-133.191	-0.118	-0.015
-170.910	800.000	0.047	0.176
-169.896	-200.000	-0.009	0.409
-168.881	-37.314	0.251	-0.132
-167.866	-89.859	-0.160	0.046
-166.852	800.000	0.032	-0.135
-165.837	-200.000	0.012	0.099
-164.823	800.000	-0.001	-0.003
-163.808	134.007	0.130	-0.166
-162.793	-88.588	0.140	0.041
-161.779	153.929	0.048	0.064
-160.764	-92.049	0.089	0.025
-159.750	255.102	-0.041	0.070
-158.735	605.865	-0.089	0.217
-157.720	43.433	0.066	-0.059
-156.706	459.868	-0.090	-0.197
-155.691	-200.000	-0.025	-0.179
-154.677	60.199	-0.042	-0.041
-153.662	-130.499	0.343	0.046
-152.647	-27.724	0.081	0.046
-151.633	-200.000	0.020	0.155
-150.618	9.915	-0.198	-0.148
-149.604	-200.000	-0.027	0.000
-148.589	-200.000	-0.013	0.237
-147.574	13.472	0.346	0.264
-146.560	-105.797	-0.218	0.048
-145.545	241.475	-0.072	-0.118
-144.531	128.427	-0.086	-0.108
-143.516	-161.863	0.236	0.012
-142.502	-128.271	0.217	0.030
-141.487	15.454	0.153	-0.118
-140.472	37.068	-0.193	-0.168
-139.458	-100.222	0.181	-0.044
-138.443	-94.677	0.087	0.023
-137.429	-50.507	0.234	0.108
-136.414	198.957	-0.151	0.228
-135.399	-141.603	0.055	0.005
-134.385	-200.000	-0.015	-0.234
-133.370	800.000	-0.133	0.389
-132.356	-156.427	0.173	0.011
-131.341	-117.755	0.297	0.052
-130.326	90.120	-0.238	0.261
-129.312	-74.532	0.056	-0.020
-128.297	109.116	-0.081	-0.096
-127.283	-185.236	0.208	0.003
-126.268	-97.984	0.440	-0.112
-125.253	41.845	0.099	0.088
-124.239	800.000	-0.019	-0.057
-123.224	-61.040	-0.385	-0.160
-122.210	157.572	-0.069	-0.094
-121.195	-70.855	0.402	0.149
