DTS Sentinel unit serial number:	SN413079Multiplexer serial number:	ORYXHardware model number:	OX4-SRSoftware version number:	ORYX F/W v4.00 Oryx Data Collector v3.7.2.0data status	okinstallation	princeton_trtdifferential loss correction	single-endedforward channel	channel 1reverse channel	N/Adate	2019/09/11time	15:16:11forward acquisition time	60.00reverse acquisition time	0.00gamma	496.2192k internal	0.2291k external	0.2291temperature offset calibration	0.9993default loss term (dB/km)	0.3790temperature slope calibration	1.0000multiplexer offset coefficient	1.0000multiplexer slope coefficient	1.0000fibre end	0.00T internal ref (°C)	42.94T ext. ref 1 (°C)	0.97T ext. ref 2 (°C)	36.05length (m)	temperature (°C)	Stokes	anti-Stokes-747.200	26.374	0.115	-0.099
-746.185	-200.000	-0.001	0.050
-745.171	-200.000	-0.049	0.366
-744.156	-86.608	-0.257	-0.081
-743.142	-132.955	0.287	-0.037
-742.127	-200.000	-0.006	0.129
-741.112	-100.945	-0.255	-0.064
-740.098	690.703	0.061	0.163
-739.083	800.000	0.084	0.275
-738.069	33.333	-0.100	0.089
-737.054	-87.121	-0.222	-0.069
-736.039	-36.828	-0.193	-0.106
-735.025	-79.869	0.265	0.091
-734.010	-70.362	-0.191	-0.074
-732.996	800.000	0.041	-0.173
-731.981	-40.129	0.124	-0.066
-730.966	39.110	0.075	-0.068
-729.952	-101.972	0.177	-0.044
-728.937	652.384	-0.118	0.311
-727.923	-150.377	-0.271	0.021
-726.908	59.830	0.126	0.127
-725.894	-131.348	0.088	0.012
-724.879	34.631	0.354	-0.317
-723.864	30.319	-0.169	0.147
-722.850	-200.000	-0.016	-0.287
-721.835	-200.000	-0.063	-0.312
-720.821	-200.000	-0.029	-0.295
-719.806	164.149	0.150	-0.216
-718.791	-53.092	-0.232	-0.109
-717.777	-200.000	0.024	-0.292
-716.762	269.754	0.170	-0.306
-715.748	-48.458	0.222	-0.110
-714.733	50.526	-0.171	0.165
-713.718	800.000	-0.070	0.224
-712.704	800.000	0.092	-0.349
-711.689	8.154	0.138	-0.106
-710.675	-200.000	-0.073	-0.333
-709.660	414.871	-0.044	-0.097
-708.645	42.922	0.200	0.186
-707.631	-9.764	-0.084	0.057
-706.616	-175.973	0.226	-0.006
-705.602	-26.720	-0.058	-0.035
-704.587	263.590	-0.082	-0.146
-703.572	5.618	0.128	0.096
-702.558	-93.622	0.236	0.067
-701.543	-43.982	0.307	0.158
-700.529	98.690	0.134	-0.158
-699.514	-200.000	0.009	-0.146
-698.499	-43.842	-0.146	-0.075
-697.485	-143.411	0.287	0.028
-696.470	-67.599	-0.155	-0.062
-695.456	3.998	-0.054	0.040
-694.441	32.115	-0.227	0.200
-693.426	160.512	-0.115	0.164
-692.412	-200.000	0.003	-0.041
-691.397	192.222	-0.044	-0.068
-690.383	198.118	0.145	0.226
-689.368	-20.177	-0.198	0.124
-688.354	-181.102	0.307	-0.006
-687.339	800.000	-0.051	-0.154
-686.324	14.493	-0.159	-0.127
-685.310	800.000	0.070	0.211
-684.295	-200.000	-0.042	0.233
-683.281	258.348	-0.115	0.202
-682.266	-200.000	0.025	-0.287
-681.251	-105.705	0.089	-0.021
-680.237	800.000	-0.085	0.361
-679.222	800.000	-0.168	-0.535
-678.208	-177.204	0.183	-0.005
-677.193	83.073	-0.210	0.234
-676.178	239.729	0.113	0.191
-675.164	-39.756	0.091	-0.048
-674.149	-152.566	-0.313	-0.023
-673.135	-200.000	-0.005	-0.241
-672.120	-200.000	0.000	-0.323
-671.105	-138.980	-0.162	0.018
-670.091	258.217	0.099	-0.173
-669.076	-144.361	0.206	0.020
-668.062	800.000	-0.066	0.246
-667.047	17.147	0.404	0.327
-666.032	800.000	0.034	0.142
-665.018	620.326	-0.097	-0.249
-664.003	343.188	0.253	-0.506
-662.989	342.289	0.102	-0.203
-661.974	131.122	0.030	-0.040
-660.959	590.448	-0.112	0.282
-659.945	-183.675	-0.206	-0.004
-658.930	-142.640	0.307	0.031
-657.916	-200.000	0.050	-0.232
-656.901	107.996	0.153	0.186
-655.886	800.000	0.044	0.175
-654.872	-200.000	0.034	0.170
-653.857	-116.400	-0.143	-0.027
-652.843	-38.310	0.278	0.150
-651.828	-200.000	0.019	-0.225
-650.814	-83.111	0.233	-0.077
-649.799	130.500	0.057	0.074
-648.784	-200.000	0.011	-0.102
-647.770	106.903	-0.127	-0.154
-646.755	800.000	0.047	0.166
-645.741	-200.000	-0.092	-0.415
-644.726	800.000	-0.144	0.462
-643.711	127.475	0.149	0.193
-642.697	-180.761	-0.794	-0.017
-641.682	-200.000	-0.011	-0.087
-640.668	-200.000	-0.010	-0.345
-639.653	-200.000	-0.022	0.144
-638.638	800.000	0.041	-0.138
-637.624	13.426	0.195	-0.154
-636.609	-200.000	-0.022	0.495
-635.595	48.788	0.093	0.089
-634.580	-6.545	0.036	-0.025
-633.565	40.735	-0.325	0.299
-632.551	16.699	0.016	0.013
-631.536	3.608	0.191	-0.142
-630.522	130.031	0.102	0.133
-629.507	-117.690	-0.183	0.034
-628.492	128.649	0.213	0.276
-627.478	-200.000	-0.011	-0.136
-626.463	19.622	0.090	-0.074
-625.449	122.640	-0.070	-0.089
-624.434	369.600	0.035	-0.073
-623.419	-77.046	-0.219	-0.078
-622.405	800.000	0.044	-0.150
-621.390	-98.560	-0.108	-0.028
-620.376	-124.451	-0.275	0.044
-619.361	50.688	-0.230	-0.222
-618.346	-114.579	-0.374	-0.073
-617.332	131.206	-0.154	-0.201
-616.317	16.070	0.117	0.094
-615.303	-200.000	-0.007	0.129
-614.288	238.648	-0.059	0.100
-613.273	-200.000	-0.007	-0.061
-612.259	800.000	0.084	-0.309
-611.244	659.463	0.067	0.175
-610.230	-143.223	0.324	-0.032
-609.215	-40.618	-0.096	-0.050
-608.201	-69.558	0.547	-0.213
-607.186	521.232	0.022	-0.053
-606.171	294.783	-0.110	-0.205
-605.157	-35.447	-0.238	0.132
-604.142	-200.000	-0.016	0.308
-603.128	-161.775	-0.144	-0.007
-602.113	-100.419	-0.194	-0.049
-601.098	800.000	-0.034	0.122
-600.084	61.375	-0.221	-0.223
-599.069	800.000	0.044	0.168
-598.055	-117.970	0.151	0.028
-597.040	-51.225	0.277	0.132
-596.025	-175.832	0.296	-0.008
-595.011	3.506	-0.473	0.351
-593.996	124.075	0.103	0.132
-592.982	593.237	-0.138	-0.346
-591.967	800.000	-0.041	-0.158
-590.952	62.138	-0.099	-0.100
-589.938	-41.614	-0.204	0.107
-588.923	121.665	-0.180	0.228
-587.909	-100.752	0.091	-0.023
-586.894	800.000	-0.040	-0.140
-585.879	-200.000	0.069	-0.343
-584.865	11.204	0.122	-0.095
-583.850	78.859	-0.163	0.178
-582.836	92.117	-0.073	-0.084
-581.821	-128.086	0.484	0.071
-580.806	0.538	0.133	0.097
-579.792	-200.000	-0.030	0.138
-578.777	-200.000	-0.004	-0.156
-577.763	-200.000	0.031	0.496
-576.748	607.309	0.039	0.100
-575.733	253.462	-0.089	0.155
-574.719	-81.073	0.170	0.057
-573.704	-131.430	0.305	0.041
-572.690	800.000	-0.084	0.330
-571.675	497.868	0.040	0.094
-570.661	-200.000	-0.017	-0.084
-569.646	-123.194	0.102	-0.017
-568.631	-92.078	-0.242	0.070
-567.617	-200.000	-0.051	0.358
-566.602	700.809	0.130	0.347
-565.588	-32.807	0.336	0.190
-564.573	-200.000	0.015	0.179
-563.558	-67.169	-0.230	-0.092
-562.544	36.023	0.139	-0.125
-561.529	-87.150	-0.243	0.075
-560.515	-200.000	-0.069	0.444
-559.500	146.237	0.220	0.301
-558.485	78.714	-0.123	-0.133
-557.471	156.078	-0.010	-0.014
-556.456	-71.470	0.081	-0.031
-555.442	-103.138	0.462	0.111
-554.427	23.154	0.076	0.064
-553.412	55.486	0.109	-0.108
-552.398	218.477	-0.261	-0.424
-551.383	-200.000	0.030	0.296
-550.369	-30.881	0.112	0.064
-549.354	-200.000	0.006	0.239
-548.339	367.753	0.088	-0.181
-547.325	181.840	0.033	-0.050
-546.310	800.000	-0.140	-0.413
-545.296	-57.507	-0.024	0.011
-544.281	-53.889	0.101	-0.047
-543.266	43.066	0.234	0.217
-542.252	92.565	0.067	0.077
-541.237	800.000	0.082	0.262
-540.223	250.461	-0.092	0.159
-539.208	-200.000	0.019	-0.144
-538.193	60.668	-0.160	-0.161
-537.179	131.671	-0.103	-0.135
-536.164	337.149	0.083	-0.163
-535.150	-70.345	0.246	-0.095
-534.135	-134.873	0.345	0.042
-533.121	325.160	0.043	-0.084
-532.106	-75.509	-0.176	-0.064
-531.091	194.721	-0.119	-0.184
-530.077	-200.000	-0.007	0.150
-529.062	36.383	0.224	-0.201
-528.048	-108.433	-0.194	0.042
-527.033	71.395	0.305	0.321
-526.018	291.999	-0.149	0.275
-525.004	-15.499	-0.198	-0.128
-523.989	-200.000	0.004	0.244
-522.975	200.311	-0.052	-0.081
-521.960	-133.241	0.277	0.036
-520.945	-200.000	0.345	-0.002
-519.931	707.000	0.050	-0.134
-518.916	538.258	0.054	-0.129
-517.902	-111.341	-0.392	0.081
-516.887	-200.000	0.028	-0.291
-515.872	-42.513	0.209	-0.108
-514.858	-58.661	-0.382	-0.168
-513.843	-30.483	-0.083	-0.048
-512.829	-102.214	-0.208	0.051
-511.814	5.125	0.244	-0.182
-510.799	184.973	-0.266	0.400
-509.785	162.830	-0.025	0.036
-508.770	13.370	-0.209	-0.165
-507.756	290.432	-0.155	-0.286
-506.741	228.331	-0.150	0.249
-505.726	-131.245	-0.249	0.033
-504.712	800.000	-0.093	0.293
-503.697	28.898	-0.076	0.065
-502.683	-200.000	0.023	0.149
-501.668	67.479	0.429	0.444
-500.653	-97.365	-0.115	-0.030
-499.639	-200.000	0.093	0.504
-498.624	74.469	-0.171	-0.182
-497.610	16.615	-0.151	-0.121
-496.595	-17.337	-0.067	0.043
-495.581	70.382	-0.108	-0.114
-494.566	800.000	-0.051	-0.207
-493.551	41.497	0.044	0.040
-492.537	237.782	-0.076	-0.128
-491.522	-102.642	0.253	-0.061
-490.508	-143.626	0.209	0.020
-489.493	565.786	0.093	0.228
-488.478	-29.522	-0.085	0.050
-487.464	-101.219	-0.274	-0.068
-486.449	800.000	0.081	0.332
-485.435	-9.335	-0.149	-0.101
-484.420	10.868	0.212	0.164
-483.405	-107.479	0.302	0.067
-482.391	-79.184	0.090	0.031
-481.376	-81.463	0.160	-0.053
-480.362	800.000	0.018	0.068
-479.347	-130.526	-0.079	0.011
-478.332	196.543	-0.065	-0.101
-477.318	-45.259	-0.099	0.050
-476.303	54.341	0.103	-0.101
-475.289	-90.057	0.198	0.058
-474.274	-146.076	0.168	-0.015
-473.259	59.280	0.015	0.015
-472.245	117.461	0.156	-0.195
-471.230	384.135	-0.170	0.355
-470.216	-94.720	-0.157	-0.043
-469.201	95.634	-0.085	-0.098
-468.186	28.359	-0.108	0.093
-467.172	77.110	0.224	-0.241
-466.157	54.001	0.167	0.162
-465.143	491.757	-0.113	0.262
-464.128	752.233	-0.049	0.135
-463.113	-115.778	0.093	-0.018
-462.099	-14.528	-0.189	-0.123
-461.084	800.000	0.074	0.324
-460.070	242.734	-0.096	-0.164
-459.055	-200.000	-0.045	-0.311
-458.040	103.555	-0.196	-0.233
-457.026	-93.916	-0.356	0.099
-456.011	-96.851	-0.103	-0.027
-454.997	-169.328	0.399	-0.015
-453.982	-40.497	-0.218	0.115
-452.968	134.656	0.091	0.119
-451.953	56.052	0.263	-0.258
-450.938	180.540	0.148	-0.220
-449.924	-65.020	-0.195	0.080
-448.909	800.000	0.022	0.071
-447.895	180.108	0.191	0.283
-446.880	-69.687	0.143	-0.055
-445.865	-108.292	-0.204	-0.045
-444.851	-98.792	-0.191	-0.049
-443.836	16.543	0.057	0.046
-442.822	800.000	-0.081	-0.231
-441.807	-200.000	-0.007	0.235
-440.792	-138.860	0.163	-0.018
-439.778	67.968	-0.271	-0.280
-438.763	-185.111	0.373	0.006
-437.749	800.000	0.018	-0.065
-436.734	201.757	-0.040	-0.063
-435.719	376.407	0.016	-0.033
-434.705	-7.783	-0.160	-0.109
-433.690	-75.859	-0.199	-0.071
-432.676	-10.449	0.172	-0.115
-431.661	289.324	-0.189	-0.346
-430.646	-62.674	-0.153	0.064
-429.632	147.036	0.071	0.096
-428.617	-123.106	-0.144	-0.023
-427.603	652.117	0.054	0.140
-426.588	-87.288	0.281	-0.086
-425.573	299.439	-0.120	-0.223
-424.559	569.035	0.112	-0.276
-423.544	130.727	-0.111	0.144
-422.530	-99.739	0.142	0.036
-421.515	-167.946	0.162	-0.006
-420.500	800.000	0.042	0.120
-419.486	330.719	0.054	-0.105
-418.471	105.615	-0.088	-0.106
-417.457	715.375	-0.108	0.289
-416.442	-33.355	0.073	-0.041
-415.428	-89.121	-0.027	0.008
-414.413	613.498	-0.043	-0.110
-413.398	134.328	-0.047	0.061
-412.384	322.813	-0.179	-0.345
-411.369	-134.317	-0.114	-0.014
-410.355	-105.883	0.285	0.065
-409.340	-178.002	0.264	0.006
-408.325	-19.628	0.215	-0.134
-407.311	-200.000	-0.067	0.378
-406.296	529.426	0.040	0.095
-405.282	800.000	0.082	0.307
-404.267	-49.365	0.123	0.059
-403.252	-95.898	-0.276	0.074
-402.238	-122.464	-0.071	-0.012
-401.223	-94.099	0.097	0.027
-400.209	-38.091	0.204	-0.110
-399.194	800.000	0.040	-0.153
-398.179	-138.722	-0.244	-0.027
-397.165	-200.000	-0.031	0.187
-396.150	800.000	0.040	0.120
-395.136	485.466	-0.084	0.193
-394.121	217.811	0.185	0.298
-393.106	800.000	0.072	-0.230
-392.092	-77.697	0.024	-0.008
-391.077	371.401	-0.091	-0.187
-390.063	-115.626	-0.233	0.044
-389.048	76.086	-0.186	-0.199
-388.033	-137.727	0.235	0.027
-387.019	64.117	-0.270	-0.275
-386.004	-172.721	-0.355	0.011
-384.990	-54.865	0.192	-0.087
-383.975	800.000	0.128	0.432
-382.960	-50.722	-0.097	0.046
-381.946	-200.000	0.017	-0.136
-380.931	-200.000	0.003	-0.115
-379.917	55.442	0.101	-0.099
-378.902	-200.000	-0.004	-0.132
-377.888	-123.376	0.484	0.078
-376.873	193.786	-0.101	-0.155
-375.858	201.118	0.248	0.385
-374.844	-200.000	-0.021	-0.273
-373.829	-7.392	0.173	-0.118
-372.815	-167.162	0.055	-0.002
-371.800	292.667	0.077	0.142
-370.785	-200.000	0.076	0.519
-369.771	-84.091	0.244	0.078
-368.756	-200.000	-0.020	-0.111
-367.742	508.202	-0.106	0.248
-366.727	800.000	-0.042	-0.136
-365.712	303.817	-0.126	0.235
-364.698	228.616	0.142	-0.233
-363.683	53.081	-0.171	0.165
-362.669	-110.476	0.186	-0.039
-361.654	17.479	-0.023	0.019
-360.639	71.253	0.390	-0.408
-359.625	167.517	-0.130	-0.187
-358.610	91.830	0.016	-0.018
-357.596	172.464	0.055	0.081
-356.581	92.509	-0.169	0.192
-355.566	45.369	0.291	0.271
-354.552	-57.591	-0.225	0.100
-353.537	-47.980	0.075	-0.037
-352.523	-166.553	-0.338	0.014
-351.508	800.000	-0.017	0.064
-350.493	-200.000	-0.002	0.114
-349.479	-141.334	-0.287	-0.029
-348.464	-200.000	0.003	0.088
-347.450	-140.114	-0.318	-0.034
-346.435	-136.720	-0.188	-0.022
-345.420	11.756	0.130	0.100
-344.406	-119.815	-0.192	-0.033
-343.391	34.173	0.235	0.207
-342.377	104.787	0.224	-0.266
-341.362	278.616	-0.112	-0.202
-340.348	-108.523	0.346	-0.075
-339.333	-186.250	-0.327	-0.005
-338.318	-200.000	0.018	0.123
-337.304	-34.562	0.452	-0.249
-336.289	-200.000	0.012	-0.057
-335.275	-96.028	0.250	-0.067
-334.260	27.889	-0.130	0.111
-333.245	-168.648	0.096	0.004
-332.231	-31.738	0.397	-0.224
-331.216	-200.000	-0.015	-0.147
-330.202	-38.678	-0.139	0.074
-329.187	-61.755	0.227	0.096
-328.172	252.316	-0.073	-0.125
-327.158	-200.000	-0.015	0.133
-326.143	-42.080	0.103	0.053
-325.129	-191.130	0.224	0.002
-324.114	-68.281	0.122	0.048
-323.099	256.275	-0.147	0.254
-322.085	-73.655	0.179	-0.066
-321.070	337.568	0.100	0.197
-320.056	-13.280	-0.319	0.209
-319.041	-200.000	0.011	-0.344
-318.026	-77.182	0.127	-0.044
-317.012	800.000	0.041	-0.126
-315.997	-200.000	-0.076	-0.439
-314.983	-127.093	0.204	-0.030
-313.968	-61.731	-0.379	-0.160
-312.953	415.283	-0.090	-0.192
-311.939	-28.323	-0.087	0.051
-310.924	10.778	0.363	0.279
-309.910	-200.000	-0.024	0.296
-308.895	-103.297	-0.195	0.046
-307.880	142.848	-0.016	0.021
-306.866	-42.841	-0.204	-0.104
-305.851	350.104	-0.044	0.088
-304.837	56.034	-0.352	-0.344
-303.822	37.957	0.231	-0.207
-302.807	-200.000	-0.044	-0.356
-301.793	49.652	0.167	0.158
-300.778	-67.845	0.032	0.013
-299.764	182.492	0.194	-0.288
-298.749	800.000	0.080	-0.255
-297.735	-43.424	0.310	0.157
-296.720	-200.000	-0.047	-0.217
-295.705	367.053	-0.097	-0.197
-294.691	83.682	0.135	0.148
-293.676	-80.211	0.175	0.059
-292.662	420.075	0.064	-0.137
-291.647	-82.605	-0.100	0.032
-290.632	318.533	0.193	-0.367
-289.618	-200.000	-0.002	-0.294
-288.603	24.443	-0.191	0.159
-287.589	210.938	0.172	0.271
-286.574	83.877	-0.252	0.277
-285.559	254.153	-0.220	-0.378
-284.545	-1.452	0.204	-0.145
-283.530	0.967	-0.137	0.099
-282.516	447.144	-0.143	-0.317
-281.501	404.234	-0.038	-0.081
-280.486	204.606	0.149	-0.233
-279.472	-45.413	0.141	-0.070
-278.457	-51.544	0.239	0.112
-277.443	-200.000	0.002	-0.235
-276.428	800.000	0.028	-0.081
-275.413	-200.000	0.053	-0.238
-274.399	620.613	-0.094	-0.238
-273.384	84.427	-0.051	-0.056
-272.370	125.095	0.157	0.198
-271.355	-122.469	-0.259	0.042
-270.340	261.178	-0.123	-0.214
-269.326	800.000	0.075	-0.320
-268.311	-116.084	0.170	0.032
-267.297	62.453	-0.105	0.106
-266.282	-105.845	-0.229	-0.052
-265.267	-132.859	0.447	-0.057
-264.253	-28.254	-0.071	-0.041
-263.238	-101.122	-0.103	0.025
-262.224	-131.639	0.325	-0.043
-261.209	800.000	-0.009	-0.027
-260.195	-101.654	0.258	-0.063
-259.180	-7.822	0.270	0.183
-258.165	-200.000	-0.016	0.243
-257.151	150.141	-0.050	-0.068
-256.136	-151.072	-0.125	0.009
-255.122	800.000	0.067	0.290
-254.107	357.317	0.035	0.070
-253.092	-200.000	-0.011	0.211
-252.078	81.699	-0.141	0.153
-251.063	-48.530	0.135	-0.065
-250.049	-139.492	-0.133	-0.014
-249.034	-36.630	-0.114	-0.062
-248.019	469.296	0.110	-0.248
-247.005	-63.938	-0.142	0.058
-245.990	80.393	-0.314	-0.340
-244.976	-42.350	0.109	-0.056
-243.961	91.481	0.273	0.308
-242.946	116.182	-0.197	0.242
-241.932	521.503	0.143	0.337
-240.917	-129.988	0.127	-0.017
-239.903	-53.771	-0.470	0.215
-238.888	29.059	0.105	0.090
-237.873	98.291	-0.175	0.202
-236.859	225.790	0.096	-0.156
-235.844	-153.988	-0.246	-0.017
-234.830	-82.435	-0.120	0.039
-233.815	-104.789	-0.439	0.101
-232.800	67.753	0.098	-0.101
-231.786	-75.172	-0.323	-0.116
-230.771	-110.286	-0.209	0.044
-229.757	-150.533	0.377	-0.029
-228.742	-27.349	-0.127	0.074
-227.727	148.893	-0.095	-0.129
-226.713	206.650	0.045	0.070
-225.698	-74.693	0.283	-0.102
-224.684	-88.437	0.114	0.034
-223.669	-48.697	-0.236	-0.114
-222.655	-164.009	-0.092	0.004
-221.640	-88.953	0.224	0.067
-220.625	800.000	0.055	0.178
-219.611	-105.509	0.449	-0.102
-218.596	467.891	-0.101	0.228
-217.582	10.017	-0.283	0.215
-216.567	151.212	-0.121	0.165
-215.552	-134.193	-0.078	-0.010
-214.538	55.180	0.192	0.186
-213.523	-134.337	-0.220	-0.027
-212.509	32.880	-0.047	-0.041
-211.494	-200.000	0.006	0.070
-210.479	-30.259	-0.124	-0.071
-209.465	-132.375	-0.223	-0.029
-208.450	-97.284	0.287	-0.075
-207.436	61.266	0.108	-0.108
-206.421	32.329	-0.221	-0.191
-205.406	-95.672	-0.152	0.041
-204.392	-47.963	0.301	0.146
-203.377	278.438	-0.086	-0.154
-202.363	-200.000	-0.072	-0.393
-201.348	-200.000	-0.001	-0.348
-200.333	68.183	0.107	-0.110
-199.319	-200.000	-0.402	-0.001
-198.304	-73.413	-0.046	-0.017
-197.290	535.857	0.108	0.257
-196.275	165.657	-0.085	0.120
-195.260	-85.685	0.087	-0.027
-194.246	416.524	0.039	0.084
-193.231	197.830	0.038	-0.057
-192.217	-42.336	-0.228	0.117
-191.202	72.146	0.184	0.192
-190.187	-86.819	0.130	-0.040
-189.173	104.184	0.017	-0.020
-188.158	511.596	-0.236	-0.551
-187.144	506.414	-0.138	-0.321
-186.129	-6.033	0.468	-0.320
-185.114	800.000	0.077	-0.235
-184.100	-124.924	-0.131	0.020
-183.085	296.741	0.054	-0.098
-182.071	732.156	0.051	-0.136
-181.056	1.525	-0.203	-0.147
-180.042	-169.526	-0.157	0.006
-179.027	-200.000	0.052	0.343
-178.012	695.449	-0.048	0.126
-176.998	677.472	0.041	-0.106
-175.983	800.000	-0.078	0.240
-174.969	599.928	-0.120	0.298
-173.954	-200.000	-0.034	0.202
-172.939	2.840	0.131	0.095
-171.925	-170.016	-0.248	0.009
-170.910	197.445	-0.128	-0.196
-169.896	-200.000	0.028	0.129
-168.881	-132.958	-0.041	-0.005
-167.866	29.032	0.274	-0.233
-166.852	100.417	-0.184	0.213
-165.837	-200.000	0.021	0.227
-164.823	-64.085	0.288	-0.118
-163.808	-75.094	-0.011	0.004
-162.793	151.708	-0.139	-0.190
-161.779	236.061	0.137	-0.226
-160.764	800.000	-0.079	0.255
-159.750	800.000	-0.063	-0.195
-158.735	-200.000	0.043	0.275
-157.720	58.530	0.049	-0.048
-156.706	-41.599	-0.116	-0.060
-155.691	-56.817	-0.391	0.173
-154.677	-200.000	0.026	0.208
-153.662	-149.601	0.257	0.020
-152.647	417.497	0.038	-0.082
-151.633	-42.766	-0.200	-0.102
-150.618	-122.095	-0.164	0.027
-149.604	800.000	-0.065	-0.260
-148.589	296.537	0.093	0.171
-147.574	-0.846	-0.174	0.123
-146.560	23.510	0.093	-0.076
-145.545	800.000	-0.080	0.331
-144.531	220.776	-0.035	0.057
-143.516	-200.000	0.009	0.473
-142.502	-65.748	0.091	0.036
-141.487	91.035	0.028	0.031
-140.472	-200.000	0.008	0.233
-139.458	-128.671	0.145	0.020
-138.443	62.227	0.087	0.087
-137.429	800.000	-0.030	-0.093
-136.414	41.316	-0.233	0.211
-135.399	-135.951	-0.245	-0.029
-134.385	-200.000	0.038	0.255
-133.370	305.411	0.198	0.368
-132.356	176.949	0.086	0.125
-131.341	-200.000	-0.022	-0.255
-130.326	800.000	-0.061	0.237
-129.312	800.000	0.115	-0.332
-128.297	-94.210	-0.263	0.072
-127.283	120.682	-0.142	-0.176
-126.268	-130.222	0.211	0.029
-125.253	53.477	-0.166	0.159
-124.239	-31.389	0.156	0.088
-123.224	-200.000	-0.059	-0.289
-122.210	400.125	0.111	-0.232
-121.195	47.376	0.075	-0.070
