DTS Sentinel unit serial number:	SN413079Multiplexer serial number:	ORYXHardware model number:	OX4-SRSoftware version number:	ORYX F/W v4.00 Oryx Data Collector v3.7.2.0data status	okinstallation	princeton_trtdifferential loss correction	single-endedforward channel	channel 1reverse channel	N/Adate	2019/09/11time	08:56:12forward acquisition time	60.00reverse acquisition time	0.00gamma	496.2192k internal	0.2310k external	0.2310temperature offset calibration	0.9951default loss term (dB/km)	0.3790temperature slope calibration	1.0000multiplexer offset coefficient	1.0000multiplexer slope coefficient	1.0000fibre end	0.00T internal ref (°C)	34.00T ext. ref 1 (°C)	0.08T ext. ref 2 (°C)	30.47length (m)	temperature (°C)	Stokes	anti-Stokes-747.200	-200.000	0.027	0.164
-746.185	258.431	0.074	0.129
-745.171	25.227	0.249	0.210
-744.156	-136.903	-0.027	-0.003
-743.142	50.528	0.156	-0.150
-742.127	-200.000	0.082	0.367
-741.112	-8.579	0.301	0.205
-740.098	-200.000	-0.028	0.257
-739.083	-38.632	-0.302	-0.162
-738.069	318.147	-0.096	-0.185
-737.054	-41.512	-0.014	0.007
-736.039	48.248	-0.115	0.109
-735.025	-47.654	-0.108	0.053
-734.010	-147.236	0.035	-0.003
-732.996	-139.811	0.103	-0.011
-731.981	-48.868	0.145	-0.070
-730.966	205.958	0.076	0.120
-729.952	-200.000	0.002	-0.252
-728.937	800.000	0.038	-0.139
-727.923	-182.939	-0.337	-0.006
-726.908	-65.879	-0.111	-0.045
-725.894	565.534	-0.047	-0.114
-724.879	-130.972	-0.550	-0.075
-723.864	-34.771	-0.342	0.189
-722.850	-23.010	0.207	-0.127
-721.835	-200.000	-0.057	0.442
-720.821	-17.660	-0.090	-0.058
-719.806	-80.369	-0.150	0.051
-718.791	216.892	-0.087	-0.140
-717.777	588.246	-0.035	-0.087
-716.762	-2.296	0.189	0.135
-715.748	427.678	0.079	0.173
-714.733	-120.408	-0.224	0.039
-713.718	-200.000	-0.020	0.354
-712.704	-81.067	-0.079	0.027
-711.689	-200.000	0.023	-0.194
-710.675	89.978	-0.054	-0.061
-709.660	478.426	0.066	-0.152
-708.645	123.877	-0.111	0.142
-707.631	227.697	0.095	0.156
-706.616	-72.483	0.231	-0.087
-705.602	-63.304	-0.189	-0.079
-704.587	-137.997	0.290	-0.033
-703.572	-32.611	-0.186	0.105
-702.558	-3.205	-0.113	-0.080
-701.543	-129.320	0.214	-0.030
-700.529	-155.677	-0.259	0.017
-699.514	90.813	-0.068	0.077
-698.499	59.825	0.083	-0.083
-697.485	800.000	-0.049	0.182
-696.470	-44.162	-0.139	0.071
-695.456	-37.250	-0.329	0.179
-694.441	85.682	-0.382	0.426
-693.426	447.855	0.045	0.101
-692.412	-170.398	0.086	-0.003
-691.397	193.750	-0.136	-0.208
-690.383	162.987	0.191	-0.271
-689.368	-200.000	-0.003	-0.311
-688.354	-77.959	0.128	-0.045
-687.339	321.189	0.286	-0.551
-686.324	-89.839	-0.290	-0.086
-685.310	-78.943	0.078	-0.027
-684.295	37.531	-0.040	-0.036
-683.281	52.216	0.208	0.201
-682.266	-200.000	-0.008	-0.121
-681.251	-200.000	-0.029	0.360
-680.237	20.511	0.199	0.163
-679.222	70.839	-0.031	0.033
-678.208	-200.000	-0.021	0.179
-677.193	-76.112	0.153	-0.055
-676.178	58.341	-0.074	0.074
-675.164	71.236	-0.275	0.288
-674.149	-91.734	0.064	0.018
-673.135	-52.433	0.028	-0.013
-672.120	10.666	-0.187	0.145
-671.105	484.897	-0.032	0.074
-670.091	-200.000	0.015	-0.407
-669.076	179.944	0.180	-0.267
-668.062	121.506	0.215	0.272
-667.047	106.140	0.169	-0.203
-666.032	-80.598	0.018	-0.006
-665.018	63.305	-0.137	-0.139
-664.003	-200.000	-0.015	0.088
-662.989	-4.273	-0.091	0.064
-661.974	596.783	-0.171	-0.428
-660.959	260.391	0.115	0.202
-659.945	244.891	0.095	-0.161
-658.930	800.000	-0.107	0.351
-657.916	111.771	0.174	-0.212
-656.901	21.065	0.097	0.080
-655.886	800.000	-0.105	0.355
-654.872	-131.541	-0.203	0.027
-653.857	-85.136	0.165	-0.052
-652.843	-103.173	-0.344	-0.082
-651.828	-90.405	-0.228	0.067
-650.814	-75.932	0.107	0.038
-649.799	49.497	-0.088	-0.084
-648.784	-122.109	-0.354	-0.059
-647.770	-200.000	0.079	0.533
-646.755	135.663	-0.047	0.061
-645.741	563.724	-0.111	0.273
-644.726	-108.382	-0.215	-0.047
-643.711	-105.821	-0.120	0.027
-642.697	-36.301	-0.260	0.142
-641.682	144.095	-0.203	0.274
-640.668	-50.735	-0.034	-0.016
-639.653	366.800	0.063	0.129
-638.638	-200.000	0.032	0.297
-637.624	800.000	-0.028	-0.091
-636.609	-176.741	-0.148	0.004
-635.595	-181.900	-0.012	0.000
-634.580	-69.962	-0.053	0.020
-633.565	800.000	-0.069	-0.208
-632.551	-1.444	-0.132	-0.094
-631.536	129.907	-0.262	-0.339
-630.522	133.325	-0.156	-0.204
-629.507	730.359	-0.066	0.178
-628.492	-120.808	-0.264	0.045
-627.478	-58.950	0.265	-0.116
-626.463	-93.890	0.257	-0.072
-625.449	134.902	-0.218	-0.286
-624.434	-200.000	0.005	-0.044
-623.419	26.831	-0.061	-0.051
-622.405	-13.030	0.096	-0.063
-621.390	295.930	-0.163	-0.302
-620.376	-96.443	-0.249	-0.067
-619.361	800.000	-0.014	0.041
-618.346	647.110	-0.102	-0.264
-617.332	-168.373	0.170	0.007
-616.317	-28.890	0.169	0.098
-615.303	49.516	-0.116	0.111
-614.288	-36.108	-0.354	-0.193
-613.273	105.289	-0.139	-0.166
-612.259	187.912	0.108	0.162
-611.244	-200.000	0.012	0.079
-610.230	8.530	0.234	-0.178
-609.215	-38.241	0.283	-0.152
-608.201	-200.000	0.004	-0.121
-607.186	-165.621	0.035	-0.002
-606.171	-200.000	-0.013	-0.253
-605.157	55.570	-0.070	0.069
-604.142	-33.756	-0.133	-0.074
-603.128	-55.696	-0.335	-0.151
-602.113	800.000	0.066	0.214
-601.098	15.668	0.175	0.139
-600.084	753.065	0.047	-0.129
-599.069	-25.154	-0.167	0.100
-598.055	-30.926	-0.262	0.149
-597.040	77.012	-0.298	-0.320
-596.025	-63.878	0.039	-0.016
-595.011	11.900	-0.157	-0.122
-593.996	663.745	-0.078	0.202
-592.982	24.531	0.046	-0.039
-591.967	800.000	0.062	0.258
-590.952	3.530	0.336	0.247
-589.938	-97.157	-0.158	0.042
-588.923	800.000	0.034	-0.116
-587.909	-200.000	-0.009	-0.084
-586.894	508.383	-0.063	-0.147
-585.879	-200.000	-0.032	0.307
-584.865	296.638	0.136	0.252
-583.850	-100.045	0.391	0.098
-582.836	66.072	-0.165	-0.169
-581.821	398.702	0.078	-0.165
-580.806	45.532	0.136	0.127
-579.792	415.054	0.040	-0.086
-578.777	29.529	-0.101	0.086
-577.763	-155.608	-0.195	-0.013
-576.748	800.000	0.019	-0.073
-575.733	-200.000	0.010	-0.270
-574.719	-141.766	0.121	-0.012
-573.704	25.968	-0.225	0.189
-572.690	-200.000	-0.051	-0.288
-571.675	-30.704	-0.167	-0.095
-570.661	48.249	0.073	-0.069
-569.646	149.821	-0.118	-0.162
-568.631	800.000	0.065	0.220
-567.617	-165.876	-0.500	0.022
-566.602	90.176	-0.165	-0.186
-565.588	102.331	-0.076	-0.090
-564.573	184.192	0.139	-0.207
-563.558	-86.705	-0.202	0.062
-562.544	-13.054	-0.167	-0.110
-561.529	-131.827	-0.270	-0.036
-560.515	314.184	-0.083	0.158
-559.500	60.458	-0.171	-0.171
-558.485	-69.936	0.111	-0.043
-557.471	495.141	-0.041	0.096
-556.456	221.331	0.023	-0.037
-555.442	501.347	-0.146	0.339
-554.427	-114.883	-0.357	-0.068
-553.412	226.131	0.179	-0.293
-552.398	1.326	0.153	-0.111
-551.383	-53.765	0.256	0.118
-550.369	-200.000	-0.187	0.001
-549.354	-200.000	0.003	0.124
-548.339	-146.269	0.369	0.033
-547.325	-200.000	-0.007	-0.143
-546.310	800.000	0.069	-0.281
-545.296	-113.174	0.285	-0.057
-544.281	-38.365	0.260	-0.139
-543.266	800.000	-0.033	0.106
-542.252	-155.289	0.051	-0.003
-541.237	-47.562	-0.290	0.142
-540.223	-162.910	-0.141	0.007
-539.208	-200.000	-0.021	-0.323
-538.193	85.989	0.211	-0.234
-537.179	-200.000	0.044	0.215
-536.164	73.916	0.177	-0.187
-535.150	-117.878	-0.205	0.037
-534.135	343.371	-0.107	-0.212
-533.121	-200.000	0.096	-0.432
-532.106	-200.000	0.007	0.397
-531.091	-200.000	-0.014	0.136
-530.077	-12.618	0.049	-0.032
-529.062	800.000	-0.036	0.148
-528.048	800.000	0.018	0.066
-527.033	-200.000	0.012	-0.130
-526.018	131.549	-0.080	-0.104
-525.004	362.770	-0.051	-0.102
-523.989	-147.462	-0.229	-0.020
-522.975	800.000	0.050	-0.139
-521.960	-200.000	0.008	-0.078
-520.945	222.582	0.088	-0.142
-519.931	231.653	-0.091	-0.151
-518.916	122.273	0.112	-0.141
-517.902	-88.519	-0.090	0.027
-516.887	-200.000	0.024	0.142
-515.872	262.059	0.034	-0.059
-514.858	-200.000	0.003	-0.108
-513.843	-52.981	0.144	0.067
-512.829	-130.387	0.074	0.010
-511.814	-75.803	-0.084	0.030
-510.799	800.000	-0.026	-0.080
-509.785	257.675	-0.081	0.141
-508.770	-200.000	-0.019	-0.163
-507.756	-200.000	0.000	0.220
-506.741	800.000	-0.040	0.118
-505.726	452.892	-0.106	-0.237
-504.712	800.000	0.011	0.032
-503.697	7.927	0.111	-0.084
-502.683	34.326	-0.155	-0.136
-501.668	-200.000	0.038	0.255
-500.653	75.926	-0.411	0.437
-499.639	124.898	0.124	-0.157
-498.624	365.598	0.153	-0.309
-497.610	-59.795	0.165	0.071
-496.595	384.758	-0.152	-0.315
-495.581	399.462	0.149	0.314
-494.566	-200.000	0.013	0.061
-493.551	-21.669	-0.166	-0.101
-492.537	-200.000	-0.037	-0.195
-491.522	41.107	-0.087	-0.079
-490.508	85.050	-0.142	0.157
-489.493	800.000	0.107	0.368
-488.478	236.222	-0.112	-0.186
-487.464	-135.196	0.105	-0.013
-486.449	289.239	0.102	0.185
-485.435	-90.135	-0.137	0.040
-484.420	-99.906	-0.305	0.077
-483.405	-54.541	-0.323	0.147
-482.391	800.000	0.016	-0.046
-481.376	-200.000	-0.031	-0.210
-480.362	800.000	-0.081	-0.311
-479.347	-15.039	0.095	-0.061
-478.332	-200.000	-0.114	0.001
-477.318	-77.433	0.332	-0.116
-476.303	800.000	-0.040	-0.114
-475.289	15.444	-0.179	-0.141
-474.274	14.253	0.294	0.230
-473.259	-140.297	0.327	0.034
-472.245	146.263	0.080	-0.108
-471.230	-200.000	-0.002	0.153
-470.216	67.429	-0.242	0.248
-469.201	679.746	-0.093	0.242
-468.186	-108.906	-0.121	0.026
-467.172	-44.391	0.399	-0.201
-466.157	-200.000	0.040	0.205
-465.143	354.298	0.056	0.113
-464.128	64.700	0.268	-0.272
-463.113	-84.764	0.223	0.070
-462.099	-200.000	-0.004	-0.295
-461.084	-200.000	0.002	-0.235
-460.070	61.278	0.056	0.056
-459.055	800.000	0.105	-0.362
-458.040	29.322	-0.127	-0.109
-457.026	326.668	0.042	-0.081
-456.011	6.637	-0.082	-0.061
-454.997	800.000	0.028	0.121
-453.982	-35.980	0.138	-0.075
-452.968	-74.605	-0.480	-0.173
-451.953	-32.826	0.259	-0.144
-450.938	3.680	-0.180	0.132
-449.924	-200.000	-0.043	0.378
-448.909	82.493	0.168	-0.183
-447.895	-200.000	0.023	0.311
-446.880	-74.861	0.140	0.050
-445.865	27.872	0.064	0.054
-444.851	-141.880	0.073	-0.007
-443.836	-200.000	0.015	-0.178
-442.822	-200.000	0.003	0.017
-441.807	707.827	-0.119	-0.316
-440.792	-62.451	0.223	-0.093
-439.778	800.000	0.031	-0.087
-438.763	82.993	0.085	-0.093
-437.749	-86.826	0.095	0.029
-436.734	800.000	0.004	-0.016
-435.719	-117.047	0.155	0.028
-434.705	172.785	0.163	-0.235
-433.690	-200.000	0.081	0.481
-432.676	-108.652	-0.173	0.037
-431.661	-142.329	0.102	-0.010
-430.646	77.673	-0.327	0.350
-429.632	18.721	0.045	-0.036
-428.617	520.348	-0.066	0.155
-427.603	74.917	0.022	0.023
-426.588	-58.370	-0.216	0.094
-425.573	15.375	0.141	-0.111
-424.559	104.893	0.032	0.038
-423.544	-129.923	0.320	0.044
-422.530	-0.225	0.060	-0.043
-421.515	643.705	0.071	0.182
-420.500	105.285	-0.059	-0.070
-419.486	94.242	0.055	0.063
-418.471	-200.000	-0.005	0.081
-417.457	-200.000	-0.009	-0.262
-416.442	33.403	-0.050	0.043
-415.428	-200.000	0.033	-0.179
-414.413	0.447	0.078	-0.056
-413.398	-35.574	-0.160	0.087
-412.384	-200.000	0.029	-0.157
-411.369	-200.000	0.006	-0.212
-410.355	231.652	-0.104	0.170
-409.340	34.540	0.154	-0.135
-408.325	800.000	-0.128	-0.453
-407.311	-72.446	-0.125	-0.046
-406.296	-82.993	-0.083	0.027
-405.282	-200.000	0.018	-0.081
-404.267	163.446	0.085	-0.120
-403.252	-47.770	0.093	0.045
-402.238	133.220	-0.161	0.209
-401.223	147.694	-0.148	0.200
-400.209	55.482	-0.223	-0.217
-399.194	79.444	0.044	0.047
-398.179	19.928	-0.163	-0.132
-397.165	229.163	0.041	-0.068
-396.150	540.416	0.064	0.153
-395.136	-63.221	-0.179	-0.074
-394.121	-74.604	-0.008	0.003
-393.106	-73.653	0.328	0.120
-392.092	46.845	-0.415	0.386
-391.077	-15.579	0.117	0.075
-390.063	606.130	-0.112	0.279
-389.048	-69.242	0.353	0.136
-388.033	732.442	0.065	0.174
-387.019	-200.000	-0.026	-0.330
-386.004	-77.391	0.230	-0.080
-384.990	800.000	0.092	-0.262
-383.975	-67.506	0.127	0.050
-382.960	-43.467	-0.197	-0.099
-381.946	39.816	-0.026	-0.023
-380.931	-200.000	-0.002	0.151
-379.917	-43.365	-0.232	0.117
-378.902	-112.397	-0.124	-0.025
-377.888	800.000	0.037	-0.124
-376.873	-39.869	0.304	0.159
-375.858	-110.830	-0.355	0.073
-374.844	258.454	-0.022	-0.038
-373.829	-200.000	-0.030	0.415
-372.815	-35.072	0.194	-0.106
-371.800	-43.765	0.108	-0.054
-370.785	-200.000	0.007	-0.074
-369.771	-66.795	0.236	0.093
-368.756	-200.000	-0.006	-0.095
-367.742	338.258	-0.136	-0.265
-366.727	59.438	-0.183	-0.181
-365.712	-117.634	0.197	0.036
-364.698	89.793	0.117	0.131
-363.683	-24.167	0.091	-0.054
-362.669	-124.081	0.442	0.069
-361.654	-51.737	0.309	0.144
-360.639	800.000	-0.107	0.357
-359.625	-200.000	-0.097	-0.000
-358.610	800.000	-0.062	0.192
-357.596	-155.800	0.180	-0.011
-356.581	-165.334	-0.163	-0.007
-355.566	138.569	0.131	-0.172
-354.552	-46.307	0.187	-0.092
-353.537	34.276	-0.120	-0.105
-352.523	681.094	0.085	-0.223
-351.508	33.717	0.103	-0.090
-350.493	62.800	-0.142	0.142
-349.479	122.660	-0.091	0.114
-348.464	-100.410	-0.269	-0.067
-347.450	-200.000	-0.042	-0.313
-346.435	282.873	0.143	0.256
-345.420	-113.482	0.182	-0.036
-344.406	166.685	-0.129	0.184
-343.391	75.852	-0.252	-0.267
-342.377	-200.000	0.004	-0.046
-341.362	7.054	0.193	-0.144
-340.348	762.265	0.090	-0.244
-339.333	800.000	0.097	0.391
-338.318	-200.000	0.042	0.193
-337.304	512.248	0.067	-0.155
-336.289	-168.418	0.218	-0.008
-335.275	337.814	-0.159	-0.309
-334.260	465.463	0.074	0.165
-333.245	800.000	-0.012	-0.043
-332.231	800.000	-0.022	0.093
-331.216	-38.766	0.316	-0.166
-330.202	14.055	-0.402	-0.312
-329.187	63.308	-0.230	0.230
-328.172	-200.000	-0.058	0.514
-327.158	604.107	0.024	0.059
-326.143	109.353	0.253	-0.303
-325.129	-118.931	-0.072	-0.013
-324.114	414.650	0.181	0.386
-323.099	63.545	-0.215	0.215
-322.085	-93.273	0.292	0.081
-321.070	-19.330	0.402	-0.249
-320.056	-33.299	0.232	-0.128
-319.041	-200.000	-0.012	-0.227
-318.026	244.219	-0.029	0.048
-317.012	-200.000	0.020	-0.124
-315.997	800.000	0.037	0.115
-314.983	800.000	0.063	-0.207
-313.968	-46.107	0.082	0.040
-312.953	127.652	-0.240	-0.304
-311.939	800.000	-0.013	-0.037
-310.924	-200.000	-0.046	-0.454
-309.910	79.500	0.170	0.182
-308.895	-77.751	0.312	-0.108
-307.880	735.187	0.148	0.396
-306.866	96.249	0.251	-0.287
-305.851	-200.000	0.002	0.125
-304.837	-81.189	-0.239	0.079
-303.822	800.000	-0.110	-0.327
-302.807	-81.517	-0.169	0.056
-301.793	-200.000	-0.027	0.176
-300.778	83.236	-0.382	0.415
-299.764	18.774	0.128	0.102
-298.749	-200.000	0.038	0.212
-297.735	60.886	0.230	0.228
-296.720	34.332	-0.129	-0.112
-295.705	-63.503	0.362	-0.148
-294.691	-200.000	0.019	0.279
-293.676	-137.976	0.329	0.037
-292.662	-197.572	-0.181	0.001
-291.647	168.018	0.138	-0.196
-290.632	-165.158	0.123	-0.005
-289.618	-107.295	-0.060	0.013
-288.603	727.396	-0.049	-0.131
-287.589	-200.000	-0.382	-0.001
-286.574	-10.037	0.206	0.136
-285.559	52.720	-0.265	0.253
-284.545	-200.000	0.061	0.298
-283.530	-29.543	0.213	0.122
-282.516	800.000	-0.127	0.379
-281.501	144.950	0.191	-0.254
-280.486	-63.909	0.145	-0.059
-279.472	-200.000	-0.052	-0.348
-278.457	-108.924	-0.121	-0.026
-277.443	318.004	0.027	-0.052
-276.428	800.000	0.026	0.089
-275.413	-44.853	0.322	-0.160
-274.399	-31.261	0.195	-0.110
-273.384	-131.373	-0.249	-0.033
-272.370	108.554	0.173	0.205
-271.355	-178.662	0.203	-0.005
-270.340	-52.442	-0.309	-0.143
-269.326	800.000	-0.090	0.289
-268.311	-5.197	-0.184	0.126
-267.297	28.964	-0.166	-0.140
-266.282	-12.113	0.342	0.223
-265.267	77.977	-0.254	0.270
-264.253	121.431	0.301	0.374
-263.238	-200.000	-0.007	0.176
-262.224	800.000	0.092	-0.383
-261.209	67.329	0.252	0.257
-260.195	166.419	0.314	0.444
-259.180	-78.494	-0.188	0.064
-258.165	-200.000	0.015	0.314
-257.151	12.516	-0.164	0.126
-256.136	-147.679	0.246	0.021
-255.122	-101.898	-0.134	-0.032
-254.107	-101.319	-0.312	-0.076
-253.092	276.934	0.198	0.350
-252.078	646.510	-0.098	0.248
-251.063	406.168	-0.052	0.109
-250.049	114.168	-0.119	-0.144
-249.034	-42.834	-0.270	0.137
-248.019	48.942	-0.218	-0.204
-247.005	-153.102	0.226	-0.016
-245.990	800.000	0.017	0.068
-244.976	-50.957	0.174	0.082
-243.961	82.991	0.019	-0.020
-242.946	302.893	0.185	-0.341
-241.932	34.058	-0.196	-0.170
-240.917	-200.000	-0.006	0.114
-239.903	-123.007	0.159	-0.025
-238.888	137.885	0.214	0.279
-237.873	-65.618	0.391	0.156
-236.859	-42.297	0.427	-0.217
-235.844	-122.954	0.243	0.039
-234.830	-138.378	-0.250	0.027
-233.815	144.309	0.124	-0.165
-232.800	99.793	-0.058	-0.067
-231.786	800.000	0.019	0.081
-230.771	-76.731	-0.429	0.149
-229.757	319.404	0.034	-0.064
-228.742	-200.000	-0.013	-0.179
-227.727	608.773	0.156	-0.386
-226.713	-78.371	-0.335	0.114
-225.698	17.141	-0.161	-0.127
-224.684	-200.000	0.026	-0.283
-223.669	-46.556	0.062	0.030
-222.655	-28.030	-0.212	0.122
-221.640	51.804	-0.205	0.194
-220.625	-116.052	-0.181	-0.033
-219.611	109.283	0.244	0.290
-218.596	800.000	0.011	-0.034
-217.582	8.190	-0.096	0.072
-216.567	570.217	0.103	0.249
-215.552	-78.811	0.114	-0.039
-214.538	800.000	0.104	-0.363
-213.523	-53.746	0.221	-0.100
-212.509	-127.156	-0.129	0.019
-211.494	-192.274	0.181	-0.002
-210.479	-200.000	-0.033	0.176
-209.465	-132.562	0.197	0.025
-208.450	-200.000	0.044	-0.302
-207.436	31.503	0.061	-0.052
-206.421	-200.000	-0.002	0.320
-205.406	766.911	-0.035	0.095
-204.392	12.966	-0.222	0.171
-203.377	-200.000	-0.043	0.230
-202.363	441.857	-0.035	0.077
-201.348	-26.599	-0.081	0.047
-200.333	-151.621	0.215	-0.016
-199.319	115.600	-0.107	-0.129
-198.304	159.329	-0.121	0.167
-197.290	-46.729	-0.305	0.148
-196.275	-200.000	0.023	-0.334
-195.260	214.802	-0.061	0.095
-194.246	-44.481	0.371	0.184
-193.231	11.826	0.247	0.189
-192.217	800.000	0.113	-0.417
-191.202	-3.673	-0.109	-0.075
-190.187	-29.045	0.124	0.070
-189.173	22.178	-0.200	-0.162
-188.158	-59.886	0.143	0.061
-187.144	175.106	0.132	0.189
-186.129	-74.081	-0.296	-0.107
-185.114	-200.000	-0.069	-0.331
-184.100	338.168	-0.086	-0.166
-183.085	-200.000	-0.005	0.211
-182.071	270.076	0.217	-0.378
-181.056	140.586	-0.085	0.112
-180.042	51.080	0.237	0.224
-179.027	324.798	-0.124	0.235
-178.012	800.000	-0.093	-0.300
-176.998	-200.000	0.088	-0.387
-175.983	-120.739	0.161	-0.027
-174.969	132.649	0.101	-0.129
-173.954	152.610	-0.070	-0.095
-172.939	58.908	-0.215	0.210
-171.925	800.000	0.120	0.424
-170.910	-200.000	0.049	0.318
-169.896	800.000	0.076	0.232
-168.881	61.559	-0.005	-0.005
-167.866	-200.000	-0.010	-0.121
-166.852	-86.550	0.106	0.032
-165.837	-200.000	0.016	-0.114
-164.823	663.048	0.050	0.128
-163.808	531.981	0.041	0.096
-162.793	-16.609	-0.104	-0.066
-161.779	-154.313	0.154	-0.010
-160.764	137.849	0.227	0.295
-159.750	80.551	-0.226	0.241
-158.735	40.976	-0.159	0.142
-157.720	-68.105	-0.266	-0.103
-156.706	-1.848	-0.273	0.190
-155.691	264.578	0.159	-0.275
-154.677	290.061	-0.159	-0.286
-153.662	165.514	0.070	-0.099
-152.647	800.000	0.054	0.162
-151.633	106.953	-0.130	0.153
-150.618	800.000	-0.055	0.226
-149.604	353.545	-0.124	-0.244
-148.589	71.931	-0.319	0.329
-147.574	34.580	0.079	-0.069
-146.560	769.814	0.098	0.265
-145.545	-200.000	-0.057	0.277
-144.531	800.000	-0.068	0.272
-143.516	-200.000	0.045	-0.334
-142.502	-54.975	-0.088	-0.039
-141.487	97.068	0.026	-0.029
-140.472	-54.226	-0.153	-0.069
-139.458	-13.871	0.357	-0.229
-138.443	-153.556	-0.047	0.003
-137.429	119.209	0.031	-0.038
-136.414	89.343	-0.059	-0.065
-135.399	-200.000	0.084	-0.387
-134.385	-200.000	-0.033	0.284
-133.370	43.893	-0.039	-0.036
-132.356	72.389	0.082	0.085
-131.341	-47.022	-0.167	0.081
-130.326	2.555	0.148	-0.106
-129.312	20.674	-0.097	0.078
-128.297	178.527	0.161	0.233
-127.283	-78.559	-0.212	0.072
-126.268	800.000	-0.068	-0.202
-125.253	61.022	0.227	0.223
-124.239	561.020	0.103	0.247
-123.224	-85.424	0.130	0.040
-122.210	129.490	0.047	-0.060
-121.195	-131.650	0.421	-0.055
-120.180	-131.804	0.038	-0.005
