DTS Sentinel unit serial number:	SN413079Multiplexer serial number:	ORYXHardware model number:	OX4-SRSoftware version number:	ORYX F/W v4.00 Oryx Data Collector v3.7.2.0data status	okinstallation	princeton_trtdifferential loss correction	single-endedforward channel	channel 1reverse channel	N/Adate	2019/09/11time	09:20:11forward acquisition time	60.00reverse acquisition time	0.00gamma	496.2192k internal	0.2307k external	0.2307temperature offset calibration	0.9952default loss term (dB/km)	0.3790temperature slope calibration	1.0000multiplexer offset coefficient	1.0000multiplexer slope coefficient	1.0000fibre end	0.00T internal ref (°C)	34.48T ext. ref 1 (°C)	0.10T ext. ref 2 (°C)	31.30length (m)	temperature (°C)	Stokes	anti-Stokes-747.200	-114.744	0.281	-0.055
-746.185	16.762	0.208	0.167
-745.171	-200.000	-0.040	0.371
-744.156	-98.799	0.320	0.083
-743.142	621.350	0.048	0.122
-742.127	236.659	0.131	0.221
-741.112	35.334	0.287	-0.256
-740.098	-200.000	-0.042	0.234
-739.083	-156.841	-0.248	-0.016
-738.069	43.658	0.123	0.115
-737.054	800.000	0.115	0.342
-736.039	-152.519	-0.159	-0.012
-735.025	341.683	0.176	0.349
-734.010	278.256	-0.078	-0.142
-732.996	80.485	0.154	0.169
-731.981	8.757	-0.041	0.031
-730.966	800.000	-0.019	0.061
-729.952	209.654	0.286	0.455
-728.937	187.791	-0.123	-0.187
-727.923	-200.000	0.014	-0.071
-726.908	357.583	0.108	-0.219
-725.894	61.367	0.041	-0.042
-724.879	532.266	-0.088	0.212
-723.864	-200.000	-0.004	-0.347
-722.850	-33.789	-0.106	-0.060
-721.835	745.570	0.080	-0.220
-720.821	682.798	0.070	-0.185
-719.806	370.961	-0.114	-0.235
-718.791	-179.457	-0.463	-0.010
-717.777	58.130	-0.338	-0.336
-716.762	-92.770	0.012	0.003
-715.748	390.071	-0.018	-0.039
-714.733	-147.494	0.132	-0.011
-713.718	-21.041	-0.029	-0.018
-712.704	-200.000	-0.016	0.087
-711.689	335.611	-0.082	-0.161
-710.675	22.831	-0.045	-0.037
-709.660	-95.873	-0.074	-0.020
-708.645	-150.656	-0.206	0.016
-707.631	-200.000	0.007	-0.215
-706.616	-200.000	0.018	-0.109
-705.602	-17.730	-0.209	-0.133
-704.587	165.757	0.135	-0.194
-703.572	-80.986	-0.424	0.143
-702.558	159.642	0.163	0.231
-701.543	19.774	-0.124	-0.102
-700.529	-200.000	0.027	-0.387
-699.514	114.932	0.095	0.118
-698.499	-175.401	-0.281	-0.008
-697.485	-28.221	0.013	-0.007
-696.470	602.326	0.090	-0.227
-695.456	138.679	0.194	0.259
-694.441	3.087	0.179	-0.132
-693.426	-186.153	0.149	-0.002
-692.412	38.911	-0.219	0.198
-691.397	-122.379	0.454	-0.075
-690.383	800.000	-0.057	-0.189
-689.368	210.400	-0.112	-0.178
-688.354	2.743	0.229	-0.169
-687.339	16.579	0.291	-0.233
-686.324	-200.000	-0.009	-0.149
-685.310	120.987	-0.079	0.100
-684.295	33.262	0.281	-0.248
-683.281	-153.116	-0.029	0.002
-682.266	-15.460	0.214	-0.138
-681.251	45.602	0.355	0.333
-680.237	800.000	0.009	0.030
-679.222	-65.259	0.285	-0.117
-678.208	-22.909	-0.120	-0.074
-677.193	-116.825	0.444	0.082
-676.178	-200.000	0.024	-0.164
-675.164	50.606	-0.136	-0.130
-674.149	427.001	0.009	-0.019
-673.135	-121.884	0.076	-0.013
-672.120	-11.570	-0.412	-0.274
-671.105	-200.000	0.018	0.210
-670.091	493.548	-0.145	0.336
-669.076	-124.852	0.161	0.025
-668.062	-200.000	0.003	-0.027
-667.047	-136.141	-0.408	-0.048
-666.032	-200.000	-0.012	-0.317
-665.018	-99.059	0.231	-0.059
-664.003	182.765	-0.055	-0.082
-662.989	-78.527	-0.182	-0.063
-661.974	115.691	-0.067	0.083
-660.959	506.650	-0.165	0.387
-659.945	21.673	0.119	-0.098
-658.930	-176.108	0.250	0.007
-657.916	-42.296	-0.255	-0.132
-656.901	-29.581	0.108	0.063
-655.886	-200.000	0.026	-0.125
-654.872	-200.000	0.026	0.141
-653.857	49.291	-0.218	-0.208
-652.843	76.749	0.172	-0.185
-651.828	800.000	-0.089	-0.356
-650.814	-64.971	0.207	-0.085
-649.799	100.498	-0.156	0.183
-648.784	36.956	-0.130	-0.116
-647.770	232.819	0.063	-0.105
-646.755	-30.679	0.372	-0.213
-645.741	800.000	0.070	-0.294
-644.726	-130.166	-0.191	-0.026
-643.711	153.780	0.225	-0.313
-642.697	274.741	0.047	0.084
-641.682	689.417	0.091	0.242
-640.668	-184.411	-0.189	0.003
-639.653	-158.142	0.242	-0.014
-638.638	-102.061	0.258	-0.063
-637.624	-101.451	0.060	-0.015
-636.609	-68.622	-0.275	0.108
-635.595	102.514	0.450	-0.533
-634.580	-200.000	-0.041	-0.256
-633.565	548.105	-0.099	-0.241
-632.551	54.895	-0.306	0.299
-631.536	-133.079	0.378	0.049
-630.522	-200.000	0.068	0.311
-629.507	-88.029	0.076	-0.023
-628.492	-59.327	0.125	-0.054
-627.478	800.000	0.024	-0.088
-626.463	-173.914	0.094	-0.003
-625.449	-52.809	-0.255	0.119
-624.434	90.396	0.077	-0.087
-623.419	94.658	0.102	-0.118
-622.405	-22.250	-0.129	-0.079
-621.390	84.583	0.135	0.149
-620.376	224.058	-0.053	-0.087
-619.361	800.000	-0.066	-0.271
-618.346	-200.000	0.041	-0.313
-617.332	-20.294	0.158	-0.099
-616.317	-91.121	-0.324	-0.094
-615.303	126.574	-0.252	-0.323
-614.288	17.603	0.183	-0.147
-613.273	367.304	0.143	-0.291
-612.259	49.816	-0.189	-0.180
-611.244	-76.562	-0.271	-0.096
-610.230	32.323	0.032	0.028
-609.215	203.298	-0.012	-0.020
-608.201	-177.479	-0.155	-0.004
-607.186	-5.886	-0.282	-0.195
-606.171	800.000	0.074	0.312
-605.157	-200.000	-0.002	-0.087
-604.142	57.636	0.337	0.333
-603.128	-200.000	0.009	0.361
-602.113	-148.050	-0.306	0.026
-601.098	-200.000	-0.036	-0.194
-600.084	-74.803	0.290	0.105
-599.069	-200.000	0.079	-0.409
-598.055	-200.000	-0.035	0.196
-597.040	-200.000	-0.028	0.379
-596.025	-81.895	-0.139	-0.046
-595.011	463.856	-0.127	-0.288
-593.996	-200.000	0.020	-0.133
-592.982	-50.463	0.217	0.103
-591.967	-164.546	-0.191	0.009
-590.952	170.097	-0.141	-0.204
-589.938	141.600	-0.072	0.097
-588.923	-7.248	0.297	-0.204
-587.909	144.274	0.164	-0.221
-586.894	-200.000	0.026	0.134
-585.879	-30.136	-0.087	0.050
-584.865	0.621	0.064	0.046
-583.850	800.000	0.020	-0.075
-582.836	165.592	-0.128	-0.183
-581.821	800.000	0.024	-0.092
-580.806	-108.505	0.193	0.042
-579.792	-95.519	0.168	-0.045
-578.777	-10.304	0.192	0.129
-577.763	-120.525	-0.185	-0.032
-576.748	800.000	-0.058	-0.197
-575.733	-10.260	0.083	0.055
-574.719	-107.382	-0.366	0.081
-573.704	-165.125	-0.394	-0.018
-572.690	-128.506	-0.156	0.022
-571.675	667.256	0.115	-0.301
-570.661	800.000	-0.044	-0.135
-569.646	-95.782	-0.146	0.039
-568.631	133.183	-0.091	-0.119
-567.617	9.336	-0.448	-0.343
-566.602	206.841	-0.157	-0.247
-565.588	-200.000	0.052	0.374
-564.573	35.905	-0.240	-0.213
-563.558	-200.000	-0.058	0.398
-562.544	276.642	0.161	0.288
-561.529	-200.000	-0.049	0.353
-560.515	-200.000	0.006	0.066
-559.500	55.911	-0.050	-0.048
-558.485	374.873	-0.066	-0.136
-557.471	-136.944	-0.010	0.001
-556.456	-200.000	-0.016	0.071
-555.442	800.000	-0.047	0.142
-554.427	220.848	-0.212	-0.343
-553.412	66.140	0.042	0.043
-552.398	82.807	-0.149	-0.164
-551.383	-101.219	-0.163	0.040
-550.369	318.552	0.119	-0.228
-549.354	-50.596	0.285	0.136
-548.339	544.035	-0.124	0.300
-547.325	274.917	-0.140	-0.250
-546.310	-143.580	0.115	-0.011
-545.296	-69.451	0.058	-0.022
-544.281	37.647	-0.096	0.086
-543.266	800.000	0.024	-0.086
-542.252	-115.456	-0.182	-0.035
-541.237	113.710	0.169	-0.207
-540.223	-200.000	0.018	0.125
-539.208	-88.378	0.208	-0.063
-538.193	48.292	-0.091	-0.086
-537.179	367.020	0.182	0.371
-536.164	256.119	-0.068	-0.117
-535.150	-23.872	-0.168	0.101
-534.135	-118.363	0.266	0.048
-533.121	-146.475	0.126	-0.011
-532.106	112.469	0.070	0.086
-531.091	-200.000	0.033	-0.221
-530.077	-101.724	0.328	-0.080
-529.062	199.999	-0.087	-0.135
-528.048	32.808	-0.199	-0.173
-527.033	16.365	-0.192	-0.153
-526.018	-72.389	-0.056	0.021
-525.004	800.000	0.029	-0.087
-523.989	-116.043	0.238	-0.045
-522.975	800.000	-0.085	-0.342
-521.960	-200.000	-0.013	-0.184
-520.945	-90.865	0.034	0.010
-519.931	44.986	-0.049	-0.045
-518.916	-126.583	0.193	0.029
-517.902	206.951	0.023	-0.035
-516.887	346.191	-0.097	-0.191
-515.872	-103.753	-0.342	-0.081
-514.858	800.000	-0.057	0.172
-513.843	17.883	-0.181	0.145
-512.829	-156.590	-0.230	-0.014
-511.814	800.000	-0.042	0.146
-510.799	748.017	-0.039	-0.106
-509.785	-124.249	-0.149	0.024
-508.770	800.000	-0.021	-0.063
-507.756	664.427	-0.046	-0.118
-506.741	-61.044	-0.136	-0.058
-505.726	147.714	-0.108	0.146
-504.712	388.025	0.033	0.070
-503.697	56.042	-0.063	-0.062
-502.683	-97.830	-0.288	0.075
-501.668	-8.912	0.200	-0.135
-500.653	-23.776	0.145	-0.087
-499.639	-23.478	0.216	0.131
-498.624	340.265	0.090	0.176
-497.610	472.179	0.031	0.071
-496.595	80.028	0.131	-0.142
-495.581	248.590	-0.068	-0.116
-494.566	-200.000	0.033	-0.346
-493.551	-200.000	-0.039	-0.335
-492.537	-107.536	0.380	0.084
-491.522	345.154	-0.116	0.229
-490.508	-200.000	0.042	0.423
-489.493	89.966	-0.036	-0.041
-488.478	32.686	0.248	0.216
-487.464	-32.739	-0.128	-0.071
-486.449	-151.759	-0.148	-0.011
-485.435	800.000	0.058	0.190
-484.420	86.313	0.062	-0.069
-483.405	-92.116	0.249	-0.071
-482.391	60.154	0.246	-0.245
-481.376	169.597	-0.179	-0.257
-480.362	-17.078	-0.085	-0.054
-479.347	-39.447	0.429	-0.226
-478.332	62.827	0.197	0.198
-477.318	244.622	-0.118	0.199
-476.303	-53.551	0.137	-0.063
-475.289	97.245	0.291	-0.336
-474.274	246.551	-0.055	-0.093
-473.259	-200.000	-0.049	-0.329
-472.245	119.209	0.209	-0.260
-471.230	-200.000	0.047	-0.247
-470.216	-78.305	-0.227	-0.078
-469.201	-200.000	0.002	0.212
-468.186	800.000	0.023	-0.067
-467.172	-200.000	-0.026	-0.227
-466.157	800.000	0.035	0.129
-465.143	63.918	0.077	-0.077
-464.128	-200.000	-0.001	0.134
-463.113	-200.000	-0.020	0.295
-462.099	-41.785	-0.093	-0.048
-461.084	223.918	-0.163	0.264
-460.070	333.656	0.135	-0.263
-459.055	-40.617	-0.158	0.082
-458.040	676.672	0.035	0.090
-457.026	275.210	-0.064	0.114
-456.011	352.678	0.164	0.326
-454.997	78.615	0.132	0.142
-453.982	800.000	0.051	0.183
-452.968	-28.325	-0.082	-0.048
-451.953	-138.012	0.143	0.016
-450.938	-58.309	-0.215	0.094
-449.924	326.548	-0.047	-0.091
-448.909	-55.822	0.055	0.025
-447.895	-110.723	0.270	-0.056
-446.880	-7.237	-0.161	0.110
-445.865	172.253	-0.062	0.089
-444.851	96.780	0.270	0.311
-443.836	-94.416	0.248	-0.068
-442.822	-127.211	0.079	-0.012
-441.807	-164.001	0.200	-0.009
-440.792	-33.353	0.150	0.083
-439.778	800.000	-0.030	0.084
-438.763	314.396	-0.138	-0.261
-437.749	-65.659	-0.407	-0.164
-436.734	-51.605	0.093	0.043
-435.719	664.062	0.142	-0.369
-434.705	195.119	-0.150	0.229
-433.690	-108.247	-0.188	0.041
-432.676	-115.252	-0.113	0.021
-431.661	-200.000	-0.046	0.000
-430.646	-200.000	-0.010	0.316
-429.632	-112.167	-0.179	-0.036
-428.617	-146.000	0.303	-0.027
-427.603	-17.734	-0.225	-0.142
-426.588	-57.204	0.269	-0.119
-425.573	33.296	-0.085	0.074
-424.559	-200.000	0.002	0.311
-423.544	-200.000	-0.021	-0.272
-422.530	97.613	0.171	-0.198
-421.515	-106.896	-0.214	-0.048
-420.500	410.599	0.040	-0.085
-419.486	187.482	-0.092	0.138
-418.471	249.224	0.115	0.196
-417.457	800.000	-0.083	0.294
-416.442	129.087	0.231	-0.296
-415.428	-130.260	0.141	0.019
-414.413	-200.000	-0.020	0.391
-413.398	-16.604	-0.158	-0.100
-412.384	143.356	-0.196	0.261
-411.369	-177.555	0.284	-0.007
-410.355	-113.462	-0.196	-0.039
-409.340	-111.652	0.251	-0.051
-408.325	169.280	-0.070	0.100
-407.311	-98.934	0.199	-0.051
-406.296	49.308	0.262	0.247
-405.282	33.822	-0.203	0.177
-404.267	800.000	-0.026	-0.092
-403.252	-200.000	0.031	0.162
-402.238	466.466	-0.214	-0.481
-401.223	-200.000	-0.038	0.251
-400.209	-200.000	-0.055	0.497
-399.194	-200.000	-0.026	0.196
-398.179	800.000	0.040	-0.155
-397.165	-81.360	-0.175	0.058
-396.150	225.085	0.134	-0.218
-395.136	-200.000	0.004	-0.059
-394.121	-129.271	0.251	-0.035
-393.106	-78.624	-0.054	0.019
-392.092	-200.000	-0.003	0.149
-391.077	-55.064	-0.097	-0.044
-390.063	373.327	0.119	0.243
-389.048	11.395	-0.155	-0.119
-388.033	-96.980	-0.201	-0.053
-387.019	112.958	-0.143	-0.173
-386.004	-118.431	-0.321	-0.057
-384.990	800.000	-0.083	-0.276
-383.975	-157.459	-0.090	-0.005
-382.960	-115.396	-0.169	-0.032
-381.946	-97.822	-0.228	-0.059
-380.931	-135.696	-0.290	-0.034
-379.917	77.298	0.296	-0.316
-378.902	-173.969	-0.201	-0.006
-377.888	-200.000	-0.034	-0.186
-376.873	800.000	0.177	0.575
-375.858	-51.123	0.334	-0.157
-374.844	-140.040	0.231	0.024
-373.829	-30.316	0.206	0.117
-372.815	128.524	-0.135	0.173
-371.800	152.861	-0.101	0.139
-370.785	211.891	-0.096	-0.151
-369.771	66.670	-0.041	0.041
-368.756	-200.000	0.003	0.128
-367.742	160.567	0.052	0.073
-366.727	-27.233	-0.252	-0.147
-365.712	-200.000	0.023	0.353
-364.698	-70.285	0.221	-0.084
-363.683	691.706	-0.051	0.135
-362.669	-200.000	0.022	0.145
-361.654	-158.884	-0.329	-0.019
-360.639	55.479	-0.136	0.131
-359.625	249.755	-0.125	0.212
-358.610	-132.263	-0.196	0.025
-357.596	-50.792	-0.119	0.056
-356.581	-43.729	-0.295	0.149
-355.566	-158.735	0.211	-0.012
-354.552	-200.000	-0.003	0.158
-353.537	-78.528	0.113	0.039
-352.523	451.812	-0.043	-0.096
-351.508	-27.810	-0.279	0.162
-350.493	300.339	-0.075	0.139
-349.479	-133.705	0.075	-0.009
-348.464	-16.163	0.181	0.115
-347.450	-106.515	-0.288	0.064
-346.435	-143.295	-0.113	0.011
-345.420	-200.000	-0.054	0.403
-344.406	215.485	-0.175	0.278
-343.391	-57.870	-0.359	-0.157
-342.377	93.099	0.174	-0.196
-341.362	-36.768	0.190	0.102
-340.348	558.801	-0.098	0.238
-339.333	800.000	-0.103	0.323
-338.318	-122.758	0.161	-0.026
-337.304	332.875	0.065	-0.126
-336.289	50.400	-0.225	0.212
-335.275	-40.498	0.064	0.033
-334.260	39.309	-0.031	-0.028
-333.245	239.072	0.247	0.410
-332.231	800.000	0.104	-0.347
-331.216	-200.000	0.011	0.384
-330.202	66.205	0.075	0.076
-329.187	44.879	-0.087	-0.080
-328.172	-67.945	-0.403	-0.157
-327.158	-27.055	0.050	0.029
-326.143	-31.861	0.123	0.069
-325.129	-78.641	-0.161	-0.055
-324.114	642.619	0.093	0.237
-323.099	-111.767	-0.168	0.034
-322.085	195.131	0.209	0.317
-321.070	-62.789	0.209	-0.087
-320.056	-61.227	0.092	0.039
-319.041	-123.973	-0.261	-0.041
-318.026	800.000	-0.067	-0.262
-317.012	136.026	0.184	0.240
-315.997	-136.583	-0.340	0.039
-314.983	-200.000	0.038	0.221
-313.968	8.004	-0.205	-0.154
-312.953	-200.000	0.030	-0.261
-311.939	431.920	0.066	0.142
-310.924	-200.000	-0.012	0.111
-309.910	-200.000	-0.008	0.193
-308.895	-102.705	0.485	0.116
-307.880	36.903	-0.188	-0.166
-306.866	-31.434	-0.100	0.056
-305.851	19.062	-0.017	0.014
-304.837	-200.000	0.010	0.116
-303.822	-7.071	0.313	0.212
-302.807	507.544	-0.131	0.304
-301.793	800.000	0.033	0.134
-300.778	800.000	-0.011	-0.044
-299.764	-23.899	0.177	0.106
-298.749	-22.280	-0.189	-0.115
-297.735	235.592	0.055	-0.091
-296.720	159.379	0.033	-0.046
-295.705	98.023	0.196	0.225
-294.691	-160.318	0.109	0.006
-293.676	-34.618	-0.256	-0.140
-292.662	-200.000	0.051	-0.246
-291.647	45.471	0.107	-0.099
-290.632	-128.601	-0.296	-0.042
-289.618	185.861	-0.140	-0.208
-288.603	63.965	0.260	0.261
-287.589	-93.630	0.302	0.083
-286.574	-200.000	-0.007	0.034
-285.559	166.300	0.347	0.491
-284.545	427.660	-0.102	-0.221
-283.530	-73.470	-0.306	0.112
-282.516	800.000	-0.041	0.169
-281.501	-113.890	0.281	-0.054
-280.486	-10.916	-0.117	0.077
-279.472	-166.460	-0.114	0.005
-278.457	637.817	-0.062	0.157
-277.443	93.362	0.360	0.407
-276.428	281.931	0.121	0.217
-275.413	-200.000	0.015	-0.175
-274.399	-134.592	-0.255	-0.031
-273.384	-83.562	0.297	-0.095
-272.370	408.682	0.045	-0.094
-271.355	327.173	0.136	-0.261
-270.340	800.000	-0.108	-0.395
-269.326	800.000	-0.058	-0.217
-268.311	223.870	-0.096	-0.155
-267.297	-55.662	-0.168	-0.075
-266.282	800.000	0.032	-0.106
-265.267	-200.000	-0.024	0.145
-264.253	-54.648	-0.107	0.048
-263.238	-60.842	0.338	0.143
-262.224	299.138	0.019	-0.035
-261.209	800.000	0.074	0.271
-260.195	319.329	0.187	0.354
-259.180	50.639	0.110	-0.103
-258.165	-76.002	0.164	0.058
-257.151	0.000	-0.341	-0.242
-256.136	-115.973	-0.166	-0.031
-255.122	-11.291	0.023	-0.015
-254.107	-58.996	0.159	-0.069
-253.092	-57.876	-0.185	-0.081
-252.078	-200.000	-0.052	-0.340
-251.063	-200.000	0.002	-0.144
-250.049	-75.690	0.216	0.076
-249.034	67.493	0.131	0.133
-248.019	-200.000	-0.010	0.245
-247.005	-58.391	0.166	0.072
-245.990	-81.922	0.149	0.049
-244.976	-159.295	-0.016	0.001
-243.961	-102.769	-0.072	0.017
-242.946	800.000	-0.028	-0.111
-241.932	800.000	-0.070	0.201
-240.917	15.179	0.187	-0.146
-239.903	800.000	0.049	0.179
-238.888	-200.000	0.064	0.396
-237.873	-25.035	0.123	-0.073
-236.859	399.581	0.108	-0.226
-235.844	800.000	-0.068	0.221
-234.830	128.899	0.245	0.312
-233.815	-134.612	-0.231	-0.028
-232.800	21.738	-0.089	-0.072
-231.786	800.000	0.110	-0.416
-230.771	212.491	0.070	-0.110
-229.757	-123.366	-0.327	-0.052
-228.742	-0.708	-0.348	-0.246
-227.727	-9.449	-0.123	0.082
-226.713	800.000	-0.060	-0.224
-225.698	556.454	-0.105	0.252
-224.684	-169.965	-0.116	-0.004
-223.669	-200.000	-0.034	0.287
-222.655	447.555	-0.116	-0.253
-221.640	22.222	-0.115	0.094
-220.625	240.449	0.160	0.266
-219.611	6.534	0.203	0.150
-218.596	800.000	0.029	0.090
-217.582	-59.662	-0.282	-0.120
-216.567	800.000	0.071	-0.225
-215.552	-56.904	0.170	-0.075
-214.538	-103.952	0.424	-0.098
-213.523	227.265	0.080	-0.130
-212.509	26.660	0.120	0.100
-211.494	-105.723	-0.076	-0.017
-210.479	-200.000	0.037	0.166
-209.465	324.863	0.141	0.268
-208.450	-200.000	0.035	-0.193
-207.436	348.589	0.030	-0.058
-206.421	800.000	-0.030	0.126
-205.406	-9.640	0.232	0.154
-204.392	-200.000	0.002	-0.136
-203.377	-200.000	0.089	-0.428
-202.363	-93.670	0.238	-0.065
-201.348	462.789	-0.027	0.061
-200.333	458.210	0.118	0.260
-199.319	258.965	-0.036	-0.062
-198.304	678.390	0.088	-0.227
-197.290	236.347	0.284	0.468
-196.275	-141.927	-0.185	-0.018
-195.260	-144.756	0.222	-0.020
-194.246	-10.516	0.226	-0.149
-193.231	-180.386	-0.434	-0.009
-192.217	-64.162	-0.229	-0.093
-191.202	67.581	0.087	0.089
-190.187	82.510	0.295	-0.319
-189.173	104.560	0.438	-0.514
-188.158	-155.519	0.289	0.019
-187.144	-16.183	-0.270	0.171
-186.129	57.833	-0.056	-0.054
-185.114	94.799	-0.116	0.132
-184.100	-200.000	-0.036	0.207
-183.085	-200.000	-0.056	-0.451
-182.071	-194.103	0.328	0.003
-181.056	84.536	0.190	0.207
-180.042	-1.678	-0.263	-0.184
-179.027	-89.086	0.229	0.067
-178.012	465.051	0.134	-0.297
-176.998	-200.000	0.020	-0.165
-175.983	-200.000	0.062	0.403
-174.969	21.593	-0.231	-0.187
-173.954	242.337	0.174	-0.289
-172.939	105.710	0.101	-0.119
-171.925	-200.000	0.039	0.244
-170.910	-87.669	-0.068	-0.020
-169.896	-200.000	-0.037	-0.243
-168.881	140.461	-0.076	0.100
-167.866	-21.373	-0.166	-0.101
-166.852	800.000	0.023	0.090
-165.837	-0.936	-0.233	0.164
-164.823	-86.280	-0.098	0.030
-163.808	-68.057	-0.173	-0.067
-162.793	-101.926	-0.110	0.026
-161.779	32.878	-0.083	0.071
-160.764	-112.078	-0.106	0.021
-159.750	-123.948	-0.189	-0.030
-158.735	800.000	0.121	0.350
-157.720	-14.372	0.039	0.025
-156.706	-101.328	0.306	0.074
-155.691	-200.000	-0.012	0.125
-154.677	-5.689	-0.362	-0.247
-153.662	86.540	0.114	-0.125
-152.647	39.914	0.142	-0.127
-151.633	-41.591	-0.287	0.147
-150.618	68.038	0.060	-0.061
-149.604	313.425	-0.086	0.161
-148.589	-200.000	0.031	0.163
-147.574	74.428	-0.230	0.240
-146.560	-90.187	0.183	0.053
-145.545	-200.000	-0.036	-0.276
-144.531	-14.189	0.137	0.088
-143.516	-200.000	-0.036	0.181
-142.502	-181.165	0.123	0.002
-141.487	-200.000	0.042	0.406
-140.472	95.887	0.104	-0.118
-139.458	-200.000	0.010	-0.077
-138.443	800.000	-0.022	0.094
-137.429	-200.000	0.024	0.160
-136.414	-147.658	0.022	0.002
-135.399	-200.000	0.030	-0.181
-134.385	94.874	-0.061	0.069
-133.370	-200.000	-0.003	-0.028
-132.356	-68.544	0.077	0.030
-131.341	800.000	-0.116	0.421
-130.326	-18.909	0.212	0.131
-129.312	202.872	-0.167	0.256
-128.297	111.694	0.102	0.122
-127.283	-9.857	0.084	-0.056
-126.268	-85.287	-0.128	0.040
-125.253	112.292	-0.200	0.239
-124.239	142.064	0.207	-0.272
-123.224	800.000	-0.058	-0.190
-122.210	-26.830	0.279	0.162
