DTS Sentinel unit serial number:	SN413079Multiplexer serial number:	ORYXHardware model number:	OX4-SRSoftware version number:	ORYX F/W v4.00 Oryx Data Collector v3.7.2.0data status	okinstallation	princeton_trtdifferential loss correction	single-endedforward channel	channel 1reverse channel	N/Adate	2019/09/10time	16:12:11forward acquisition time	60.00reverse acquisition time	0.00gamma	496.2192k internal	0.2299k external	0.2299temperature offset calibration	0.9911default loss term (dB/km)	0.3790temperature slope calibration	1.0000multiplexer offset coefficient	1.0000multiplexer slope coefficient	1.0000fibre end	0.00T internal ref (°C)	38.25T ext. ref 1 (°C)	-0.26T ext. ref 2 (°C)	31.10length (m)	temperature (°C)	Stokes	anti-Stokes-747.200	56.855	-0.229	0.228
-746.185	800.000	-0.053	0.209
-745.171	36.942	-0.087	-0.079
-744.156	-200.000	-0.056	0.306
-743.142	-187.153	0.397	-0.006
-742.127	-121.900	0.197	0.033
-741.112	-75.908	0.274	0.099
-740.098	-1.635	-0.218	0.156
-739.083	-168.581	0.116	-0.004
-738.069	800.000	0.093	0.326
-737.054	-200.000	0.007	0.232
-736.039	-10.564	-0.240	0.162
-735.025	-0.180	-0.283	0.205
-734.010	-50.924	-0.101	0.048
-732.996	-54.559	-0.070	-0.032
-731.981	420.937	-0.047	-0.104
-730.966	184.551	-0.133	0.201
-729.952	421.361	-0.046	-0.100
-728.937	800.000	-0.011	-0.045
-727.923	-147.147	-0.055	-0.005
-726.908	11.664	0.207	0.162
-725.894	234.169	-0.094	-0.158
-724.879	-116.170	-0.182	-0.034
-723.864	391.137	-0.133	-0.281
-722.850	258.215	0.072	0.126
-721.835	-81.536	0.080	0.027
-720.821	36.085	0.107	0.096
-719.806	-200.000	-0.010	-0.132
-718.791	83.728	0.198	-0.220
-717.777	-159.519	0.162	0.009
-716.762	221.226	-0.045	-0.074
-715.748	-200.000	0.033	0.240
-714.733	-18.945	0.082	0.052
-713.718	415.619	-0.121	-0.262
-712.704	19.869	-0.171	-0.140
-711.689	155.772	0.196	-0.275
-710.675	-200.000	-0.038	-0.209
-709.660	19.482	-0.240	-0.196
-708.645	-39.145	-0.430	-0.230
-707.631	712.532	-0.057	-0.155
-706.616	9.491	-0.042	0.032
-705.602	309.477	-0.031	0.059
-704.587	-11.805	-0.413	-0.276
-703.572	13.876	-0.114	-0.090
-702.558	-182.726	0.227	-0.004
-701.543	-63.271	-0.243	0.102
-700.529	-200.000	-0.038	-0.283
-699.514	800.000	0.071	-0.199
-698.499	800.000	-0.057	0.213
-697.485	-124.609	0.251	-0.040
-696.470	-143.628	-0.122	0.012
-695.456	-133.351	0.144	-0.018
-694.441	-67.867	0.137	-0.055
-693.426	-84.727	-0.086	-0.027
-692.412	-113.729	0.339	0.067
-691.397	670.955	-0.161	0.426
-690.383	670.015	0.054	-0.142
-689.368	346.442	0.105	0.210
-688.354	-55.376	-0.254	0.116
-687.339	389.747	-0.114	0.242
-686.324	-163.189	0.159	-0.008
-685.310	20.641	0.188	0.155
-684.295	-183.590	-0.079	-0.001
-683.281	800.000	0.121	-0.354
-682.266	-200.000	-0.030	-0.182
-681.251	157.721	-0.014	-0.020
-680.237	-44.113	0.060	0.031
-679.222	123.545	0.157	-0.201
-678.208	154.101	0.217	0.304
-677.193	7.622	-0.239	-0.182
-676.178	800.000	-0.018	-0.060
-675.164	-200.000	-0.065	-0.486
-674.149	-200.000	0.018	0.128
-673.135	-148.368	0.050	-0.004
-672.120	279.471	0.081	0.147
-671.105	345.636	0.172	-0.343
-670.091	246.151	0.173	-0.297
-669.076	-116.180	-0.147	0.028
-668.062	-114.538	-0.180	-0.035
-667.047	800.000	0.056	-0.247
-666.032	90.171	-0.230	0.262
-665.018	-7.100	0.285	0.197
-664.003	109.970	-0.188	0.229
-662.989	-200.000	-0.006	-0.131
-661.974	800.000	-0.044	-0.167
-660.959	-200.000	-0.073	-0.514
-659.945	-69.330	-0.349	-0.136
-658.930	-200.000	-0.008	-0.064
-657.916	521.426	-0.055	-0.130
-656.901	800.000	-0.069	-0.260
-655.886	107.114	-0.230	0.278
-654.872	-51.093	0.080	-0.038
-653.857	78.565	-0.078	-0.085
-652.843	-34.055	0.379	-0.212
-651.828	351.439	0.118	-0.237
-650.814	-122.008	0.405	0.068
-649.799	-123.842	0.329	-0.053
-648.784	-108.768	0.171	-0.037
-647.770	-200.000	-0.041	0.309
-646.755	132.225	0.028	-0.037
-645.741	151.467	0.074	-0.102
-644.726	-163.601	-0.208	-0.010
-643.711	-111.193	0.318	-0.066
-642.697	99.232	-0.031	0.037
-641.682	-60.435	-0.162	0.070
-640.668	-200.000	0.075	-0.531
-639.653	-133.334	-0.098	0.013
-638.638	69.209	0.115	-0.120
-637.624	-200.000	-0.003	0.222
-636.609	-200.000	-0.099	0.453
-635.595	-0.339	0.122	-0.088
-634.580	-123.020	-0.134	0.022
-633.565	-181.566	0.401	-0.008
-632.551	-173.886	-0.599	-0.018
-631.536	-200.000	-0.048	-0.248
-630.522	-56.259	0.223	0.101
-629.507	-71.079	0.093	-0.036
-628.492	14.623	-0.188	0.149
-627.478	-200.000	0.009	-0.161
-626.463	-87.850	0.383	-0.117
-625.449	-13.749	0.031	-0.021
-624.434	-98.008	-0.165	0.043
-623.419	-183.566	0.142	0.002
-622.405	-200.000	0.006	-0.057
-621.390	173.752	0.116	-0.169
-620.376	120.399	0.023	0.029
-619.361	-172.927	-0.270	-0.009
-618.346	145.327	0.154	-0.210
-617.332	50.601	-0.132	0.127
-616.317	276.603	-0.133	-0.240
-615.303	435.874	0.088	0.194
-614.288	-200.000	-0.008	0.153
-613.273	-200.000	0.060	-0.267
-612.259	-200.000	0.288	-0.001
-611.244	-22.892	-0.228	-0.139
-610.230	44.395	-0.107	0.100
-609.215	3.772	0.270	0.200
-608.201	-176.557	-0.169	0.004
-607.186	-200.000	-0.016	0.112
-606.171	-141.600	0.190	-0.019
-605.157	800.000	0.043	-0.123
-604.142	-64.251	0.329	-0.136
-603.128	-29.475	-0.101	0.059
-602.113	59.204	0.195	-0.194
-601.098	49.077	-0.179	-0.171
-600.084	800.000	0.016	-0.053
-599.069	28.503	0.300	0.258
-598.055	800.000	-0.089	0.252
-597.040	137.421	-0.074	-0.098
-596.025	202.267	-0.201	0.314
-595.011	-200.000	-0.119	0.556
-593.996	-62.883	0.167	-0.070
-592.982	-67.497	-0.151	0.060
-591.967	52.950	-0.192	0.186
-590.952	-59.726	0.118	-0.051
-589.938	-200.000	-0.021	-0.193
-588.923	-183.202	-0.114	0.002
-587.909	470.601	0.118	-0.269
-586.894	-200.000	0.018	0.127
-585.879	147.685	-0.131	0.179
-584.865	83.304	0.062	-0.069
-583.850	236.603	-0.008	-0.013
-582.836	-200.000	0.060	-0.356
-581.821	31.821	-0.297	0.259
-580.806	294.524	0.030	0.055
-579.792	15.589	-0.128	0.102
-578.777	-33.999	0.009	0.005
-577.763	90.912	-0.169	-0.192
-576.748	134.385	0.090	-0.118
-575.733	-59.233	0.267	-0.117
-574.719	120.212	0.225	0.283
-573.704	14.313	-0.144	0.114
-572.690	-83.218	-0.267	-0.087
-571.675	-23.733	-0.214	0.130
-570.661	559.623	0.153	0.374
-569.646	-130.447	0.093	-0.013
-568.631	-200.000	0.013	0.294
-567.617	-81.446	0.048	-0.016
-566.602	-39.814	0.020	0.011
-565.588	60.302	0.307	0.308
-564.573	-200.000	0.105	0.513
-563.558	-121.284	0.222	0.038
-562.544	-59.491	0.085	-0.037
-561.529	800.000	-0.045	0.145
-560.515	316.508	0.095	0.182
-559.500	335.571	0.153	-0.301
-558.485	-200.000	0.028	-0.166
-557.471	71.022	-0.260	-0.273
-556.456	43.098	-0.065	0.060
-555.442	-200.000	-0.192	-0.000
-554.427	-33.714	-0.102	-0.057
-553.412	182.066	-0.187	0.279
-552.398	-155.356	-0.198	0.013
-551.383	-93.374	0.057	-0.016
-550.369	-50.939	0.143	-0.068
-549.354	800.000	-0.046	-0.149
-548.339	33.808	-0.252	0.222
-547.325	-116.812	-0.186	-0.034
-546.310	12.675	-0.286	0.224
-545.296	-200.000	0.011	0.104
-544.281	135.467	-0.125	-0.164
-543.266	800.000	0.037	0.107
-542.252	-200.000	-0.053	0.323
-541.237	-182.942	0.264	-0.005
-540.223	420.546	-0.073	-0.158
-539.208	101.131	0.123	-0.145
-538.193	-20.143	0.131	-0.082
-537.179	-87.692	0.202	-0.062
-536.164	-18.860	0.262	-0.165
-535.150	19.157	-0.121	-0.099
-534.135	-165.185	-0.369	-0.017
-533.121	292.062	0.134	-0.247
-532.106	342.335	-0.074	-0.147
-531.091	-27.241	0.331	-0.195
-530.077	108.494	-0.072	0.087
-529.062	78.860	-0.148	-0.160
-528.048	100.862	0.163	0.192
-527.033	-156.581	-0.100	-0.006
-526.018	-110.666	0.331	-0.069
-525.004	-17.273	-0.095	0.061
-523.989	-65.618	-0.277	-0.113
-522.975	-92.599	-0.232	-0.066
-521.960	38.477	-0.271	-0.245
-520.945	-200.000	-0.028	0.273
-519.931	-116.216	0.243	0.046
-518.916	-188.536	0.191	-0.002
-517.902	-104.471	-0.064	0.015
-516.887	110.321	-0.248	0.301
-515.872	-42.723	-0.081	0.042
-514.858	181.081	0.144	-0.215
-513.843	-200.000	-0.047	0.304
-512.829	-156.846	-0.074	-0.005
-511.814	-0.048	0.144	0.103
-510.799	-102.236	-0.228	-0.055
-509.785	493.282	-0.003	0.007
-508.770	-200.000	0.005	0.145
-507.756	-161.887	-0.358	0.018
-506.741	-182.694	-0.095	0.002
-505.726	800.000	0.069	0.198
-504.712	86.848	-0.163	-0.182
-503.697	86.806	0.252	0.282
-502.683	-18.868	0.172	0.108
-501.668	-88.225	0.181	0.055
-500.653	660.962	0.161	-0.420
-499.639	-5.483	-0.206	0.143
-498.624	-200.000	0.033	-0.258
-497.610	222.755	-0.158	-0.258
-496.595	626.603	-0.056	-0.143
-495.581	-62.599	0.080	-0.034
-494.566	93.799	-0.179	-0.205
-493.551	-59.381	0.062	-0.027
-492.537	-175.829	-0.092	0.002
-491.522	-174.231	0.292	0.009
-490.508	800.000	0.021	-0.074
-489.493	-58.697	-0.556	0.243
-488.478	113.107	0.202	0.248
-487.464	85.011	-0.136	-0.151
-486.449	800.000	-0.013	0.038
-485.435	194.831	0.028	-0.042
-484.420	-49.281	0.049	0.024
-483.405	238.816	0.141	-0.236
-482.391	-190.871	-0.123	0.001
-481.376	47.162	-0.127	-0.120
-480.362	122.485	0.176	0.222
-479.347	48.339	-0.156	-0.147
-478.332	38.433	0.251	-0.226
-477.318	173.942	0.220	0.321
-476.303	-200.000	0.030	-0.388
-475.289	-200.000	0.032	-0.297
-474.274	-96.010	0.076	-0.021
-473.259	202.549	0.160	-0.250
-472.245	49.109	-0.242	-0.229
-471.230	227.755	-0.173	-0.284
-470.216	52.656	0.094	0.091
-469.201	800.000	-0.074	0.295
-468.186	-41.933	0.318	-0.165
-467.172	687.186	0.039	0.104
-466.157	800.000	-0.064	-0.276
-465.143	-50.344	-0.365	-0.174
-464.128	-28.615	0.371	-0.215
-463.113	-200.000	-0.005	0.384
-462.099	-200.000	-0.072	-0.356
-461.084	800.000	0.060	-0.174
-460.070	219.417	-0.277	-0.448
-459.055	800.000	-0.119	0.362
-458.040	65.749	0.076	0.077
-457.026	-114.719	-0.243	-0.047
-456.011	323.239	-0.040	0.078
-454.997	-89.998	0.284	-0.084
-453.982	-111.821	-0.309	-0.063
-452.968	-17.093	0.193	-0.123
-451.953	-28.025	0.118	-0.069
-450.938	800.000	0.051	-0.149
-449.924	-43.397	-0.306	0.156
-448.909	-200.000	0.089	0.410
-447.895	200.901	-0.032	0.050
-446.880	-200.000	-0.012	0.100
-445.865	591.538	-0.032	-0.080
-444.851	-200.000	0.079	-0.463
-443.836	-200.000	0.014	0.149
-442.822	-200.000	0.003	-0.134
-441.807	-159.844	0.035	-0.002
-440.792	-49.144	-0.310	0.150
-439.778	50.542	-0.190	0.181
-438.763	-200.000	-0.021	-0.161
-437.749	39.612	-0.173	-0.156
-436.734	44.485	-0.162	-0.150
-435.719	800.000	0.030	0.125
-434.705	68.687	-0.108	0.111
-433.690	256.979	0.126	-0.218
-432.676	-131.839	0.173	-0.023
-431.661	239.750	-0.162	0.271
-430.646	126.769	0.140	-0.179
-429.632	-116.195	0.187	0.035
-428.617	-106.933	-0.236	0.053
-427.603	-200.000	0.007	0.126
-426.588	216.572	-0.211	-0.338
-425.573	634.866	0.056	-0.144
-424.559	-200.000	-0.030	0.195
-423.544	-138.643	0.200	0.022
-422.530	-81.486	-0.365	-0.121
-421.515	-200.000	-0.011	0.284
-420.500	187.721	-0.198	-0.297
-419.486	-71.329	-0.234	0.088
-418.471	-8.898	-0.267	0.180
-417.457	-99.461	0.400	0.101
-416.442	211.236	0.096	0.153
-415.428	427.465	0.062	-0.135
-414.413	-200.000	-0.001	-0.064
-413.398	-7.796	0.105	0.071
-412.384	8.910	0.110	0.084
-411.369	-200.000	0.006	-0.225
-410.355	-58.176	0.329	-0.144
-409.340	449.861	0.042	0.094
-408.325	-24.143	-0.255	0.153
-407.311	147.587	0.091	-0.124
-406.296	34.215	0.094	-0.083
-405.282	113.560	0.069	0.084
-404.267	-200.000	-0.010	-0.152
-403.252	-128.284	-0.286	-0.041
-402.238	-20.533	-0.190	0.118
-401.223	-48.719	-0.032	0.016
-400.209	292.892	0.148	-0.272
-399.194	9.099	0.041	0.031
-398.179	-26.223	-0.132	-0.078
-397.165	-143.123	0.078	0.008
-396.150	13.765	0.054	0.043
-395.136	800.000	0.100	0.288
-394.121	297.371	0.106	0.196
-393.106	-37.140	-0.314	0.169
-392.092	-135.187	-0.056	-0.007
-391.077	-26.931	0.321	-0.188
-390.063	-93.307	0.287	-0.080
-389.048	686.273	-0.060	0.158
-388.033	-200.000	0.015	-0.155
-387.019	510.861	-0.108	-0.253
-386.004	-200.000	-0.018	0.154
-384.990	-136.872	-0.168	-0.019
-383.975	-147.149	0.126	0.011
-382.960	-32.750	-0.186	-0.104
-381.946	-77.718	0.102	-0.036
-380.931	-200.000	-0.009	0.247
-379.917	-50.434	0.095	0.045
-378.902	800.000	-0.030	0.123
-377.888	800.000	-0.048	-0.152
-376.873	17.912	-0.195	-0.157
-375.858	345.050	0.055	0.108
-374.844	-66.306	0.173	-0.069
-373.829	-140.102	-0.230	0.024
-372.815	-144.436	0.355	-0.033
-371.800	-95.783	-0.051	-0.014
-370.785	-149.128	-0.116	-0.009
-369.771	-109.916	-0.060	-0.013
-368.756	36.489	0.008	0.008
-367.742	34.932	0.115	-0.102
-366.727	350.662	0.036	0.072
-365.712	-93.414	-0.210	0.059
-364.698	-11.992	-0.071	0.047
-363.683	-186.607	-0.336	-0.005
-362.669	-126.840	-0.164	0.024
-361.654	-25.111	-0.146	-0.087
-360.639	800.000	0.075	0.224
-359.625	86.642	0.139	0.154
-358.610	43.104	-0.070	0.064
-357.596	-56.606	-0.237	0.105
-356.581	-120.238	-0.220	0.038
-355.566	9.859	0.066	-0.051
-354.552	-200.000	-0.005	0.360
-353.537	261.744	0.150	-0.261
-352.523	-58.853	-0.528	0.229
-351.508	-133.874	-0.193	-0.024
-350.493	475.189	0.135	0.307
-349.479	-13.172	-0.133	0.087
-348.464	800.000	0.025	0.092
-347.450	-200.000	-0.008	0.202
-346.435	-95.269	-0.277	-0.075
-345.420	-102.002	0.169	0.041
-344.406	800.000	-0.050	-0.216
-343.391	-200.000	-0.039	0.197
-342.377	736.213	0.055	-0.148
-341.362	183.216	0.086	-0.128
-340.348	43.766	0.154	0.142
-339.333	-118.469	0.252	-0.045
-338.318	269.192	-0.052	0.091
-337.304	-127.927	-0.388	-0.056
-336.289	-200.000	-0.002	0.092
-335.275	-200.000	0.031	-0.205
-334.260	-200.000	-0.011	0.054
-333.245	-111.146	-0.249	0.051
-332.231	227.990	-0.131	0.214
-331.216	800.000	-0.065	0.267
-330.202	-196.011	-0.319	-0.002
-329.187	55.954	0.299	-0.291
-328.172	-200.000	0.052	-0.250
-327.158	-77.434	0.089	-0.031
-326.143	-200.000	0.031	0.235
-325.129	-84.659	0.065	-0.021
-324.114	565.261	-0.202	0.492
-323.099	-137.643	0.354	0.040
-322.085	-19.481	0.145	0.090
-321.070	439.883	-0.072	-0.159
-320.056	-132.596	0.214	0.028
-319.041	-200.000	-0.007	0.150
-318.026	115.181	0.033	0.041
-317.012	91.255	0.152	-0.171
-315.997	269.782	-0.184	0.324
-314.983	-65.380	-0.193	0.078
-313.968	-38.464	-0.081	-0.043
-312.953	308.157	-0.085	-0.159
-311.939	579.171	0.090	0.220
-310.924	63.257	0.073	-0.074
-309.910	349.212	-0.152	0.301
-308.895	-23.638	-0.467	-0.281
-307.880	-80.220	-0.320	-0.108
-306.866	-200.000	-0.018	-0.260
-305.851	134.792	0.095	-0.124
-304.837	-200.000	-0.002	0.021
-303.822	-200.000	-0.005	-0.087
-302.807	-200.000	0.011	0.233
-301.793	-144.625	-0.180	-0.017
-300.778	800.000	-0.039	-0.115
-299.764	222.594	0.096	-0.155
-298.749	-200.000	0.018	0.084
-297.735	-200.000	-0.039	0.361
-296.720	245.755	-0.072	0.122
-295.705	-129.293	0.178	0.025
-294.691	23.855	0.065	0.054
-293.676	-11.719	-0.264	0.174
-292.662	105.721	0.127	0.151
-291.647	-200.000	0.000	-0.281
-290.632	-132.002	0.311	-0.041
-289.618	-200.000	0.017	-0.116
-288.603	100.422	-0.113	-0.132
-287.589	-108.049	0.287	0.062
-286.574	272.751	0.146	-0.259
-285.559	-46.918	0.012	0.006
-284.545	157.557	0.159	-0.221
-283.530	-106.966	-0.325	0.072
-282.516	-110.072	0.129	0.027
-281.501	-103.137	0.312	0.074
-280.486	-200.000	-0.011	-0.078
-279.472	-187.780	-0.371	0.005
-278.457	-68.947	-0.196	0.076
-277.443	-184.573	0.282	0.005
-276.428	574.116	-0.106	-0.259
-275.413	-68.312	0.131	0.051
-274.399	182.995	-0.152	0.224
-273.384	-165.752	0.317	-0.014
-272.370	-141.795	0.304	0.031
-271.355	800.000	0.115	0.395
-270.340	-171.978	-0.181	0.006
-269.326	64.656	0.080	0.081
-268.311	800.000	0.059	-0.234
-267.297	-200.000	0.011	-0.135
-266.282	77.144	0.062	-0.066
-265.267	-144.233	0.326	-0.030
-264.253	695.908	0.018	0.047
-263.238	82.782	0.107	-0.117
-262.224	53.699	-0.127	0.122
-261.209	-137.054	0.416	-0.048
-260.195	-200.000	-0.045	-0.274
-259.180	596.776	0.090	-0.224
-258.165	430.960	-0.140	-0.304
-257.151	-101.524	-0.244	0.059
-256.136	-29.508	0.165	0.095
-255.122	127.266	0.226	0.288
-254.107	-200.000	-0.015	0.152
-253.092	-200.000	-0.040	0.257
-252.078	-115.919	0.198	0.037
-251.063	752.456	0.137	-0.369
-250.049	71.492	0.158	-0.164
-249.034	-121.368	-0.240	-0.040
-248.019	50.170	-0.227	0.215
-247.005	-91.359	-0.257	0.074
-245.990	-135.891	0.052	0.006
-244.976	-104.011	-0.466	-0.109
-243.961	109.765	0.070	0.084
-242.946	-44.559	0.365	0.183
-241.932	74.027	0.112	-0.118
-240.917	-71.823	-0.220	0.082
-239.903	-200.000	-0.027	-0.180
-238.888	-123.063	0.361	-0.058
-237.873	787.923	0.125	0.343
-236.859	112.348	0.224	0.271
-235.844	-200.000	0.013	0.250
-234.830	-200.000	-0.020	-0.210
-233.815	18.155	-0.103	-0.082
-232.800	80.163	0.119	-0.128
-231.786	94.340	0.124	0.141
-230.771	414.468	-0.068	0.144
-229.757	-0.077	0.060	-0.043
-228.742	61.535	-0.146	0.146
-227.727	125.266	-0.132	0.166
-226.713	3.927	0.163	0.119
-225.698	-102.247	-0.040	-0.010
-224.684	-127.149	0.300	0.044
-223.669	-122.587	0.123	-0.020
-222.655	40.212	0.069	-0.062
-221.640	-26.037	-0.279	-0.164
-220.625	-180.896	-0.190	0.004
-219.611	-57.986	0.152	-0.066
-218.596	-114.444	0.160	-0.031
-217.582	221.329	-0.187	0.300
-216.567	-104.504	-0.275	0.064
-215.552	-200.000	-0.006	0.092
-214.538	202.283	0.178	-0.274
-213.523	-62.527	0.348	0.145
-212.509	-58.185	-0.146	0.064
-211.494	800.000	-0.033	-0.093
-210.479	-200.000	-0.027	-0.155
-209.465	-200.000	-0.008	-0.201
-208.450	426.361	0.039	0.084
-207.436	-120.738	0.200	-0.034
-206.421	-200.000	0.008	-0.294
-205.406	503.358	0.057	0.132
-204.392	117.864	0.167	-0.205
-203.377	-49.367	-0.170	0.081
-202.363	123.394	-0.114	-0.143
-201.348	277.516	0.119	-0.211
-200.333	607.151	0.059	-0.147
-199.319	247.688	0.178	0.301
-198.304	-70.472	-0.134	-0.051
-197.290	-45.936	0.113	-0.056
-196.275	-13.357	0.138	-0.090
-195.260	-200.000	-0.015	-0.103
-194.246	-129.646	0.271	-0.037
-193.231	-116.762	0.059	-0.011
-192.217	-65.570	0.429	-0.172
-191.202	-200.000	-0.020	-0.144
-190.187	23.893	0.275	0.227
-189.173	-42.167	0.226	-0.115
-188.158	630.747	-0.103	-0.261
-187.144	800.000	0.094	0.318
-186.129	8.897	0.127	-0.096
-185.114	-112.747	0.143	0.028
-184.100	-138.295	0.215	-0.024
-183.085	-200.000	0.001	0.093
-182.071	109.384	-0.130	-0.156
-181.056	27.471	-0.201	0.168
-180.042	800.000	0.055	0.168
-179.027	800.000	0.088	0.314
-178.012	27.011	0.103	0.086
-176.998	-27.159	-0.318	0.185
-175.983	34.502	-0.231	-0.201
-174.969	800.000	0.100	-0.404
-173.954	37.871	-0.066	0.058
-172.939	800.000	0.024	-0.076
-171.925	19.097	-0.247	-0.197
-170.910	-200.000	0.020	-0.102
-169.896	-130.595	0.163	0.022
-168.881	2.549	0.017	0.012
-167.866	-119.923	-0.156	-0.027
-166.852	338.023	0.105	-0.204
-165.837	-135.063	0.368	-0.044
-164.823	-97.931	-0.276	-0.071
-163.808	-200.000	-0.017	-0.293
-162.793	-200.000	0.028	-0.298
-161.779	800.000	-0.104	0.398
-160.764	-138.599	0.294	0.032
-159.750	309.715	-0.145	0.271
-158.735	114.170	0.147	0.178
-157.720	-135.395	0.018	0.002
-156.706	272.844	-0.096	0.169
-155.691	-137.079	-0.352	0.040
-154.677	-41.758	-0.031	-0.016
-153.662	-100.113	-0.265	-0.066
-152.647	-79.381	-0.051	-0.017
-151.633	800.000	0.039	0.109
-150.618	-7.975	-0.321	0.216
-149.604	-145.576	0.264	0.024
-148.589	-77.150	-0.469	0.163
-147.574	48.954	0.138	0.129
-146.560	233.486	-0.251	-0.412
-145.545	29.347	0.224	0.189
-144.531	631.621	-0.018	-0.044
-143.516	-147.605	0.223	-0.019
-142.502	486.147	-0.103	0.235
-141.487	-48.353	0.180	0.087
-140.472	325.753	-0.065	0.123
-139.458	153.726	-0.302	0.412
-138.443	422.997	-0.191	-0.408
-137.429	8.666	0.264	-0.199
-136.414	188.400	-0.161	0.240
-135.399	27.665	0.338	0.283
-134.385	613.653	0.042	0.105
-133.370	-127.270	0.656	0.095
-132.356	139.880	-0.047	0.062
-131.341	-42.859	-0.346	-0.175
-130.326	1.889	0.102	-0.073
-129.312	-121.500	-0.259	-0.043
-128.297	-81.433	-0.435	0.143
-127.283	-111.417	-0.229	-0.046
-126.268	387.956	-0.057	-0.117
-125.253	-160.783	-0.223	-0.012
-124.239	86.380	-0.092	-0.101
-123.224	757.620	-0.038	0.104
