DTS Sentinel unit serial number:	SN413079Multiplexer serial number:	ORYXHardware model number:	OX4-SRSoftware version number:	ORYX F/W v4.00 Oryx Data Collector v3.7.2.0data status	okinstallation	princeton_trtdifferential loss correction	single-endedforward channel	channel 1reverse channel	N/Adate	2019/09/12time	02:32:11forward acquisition time	60.00reverse acquisition time	0.00gamma	496.2192k internal	0.2322k external	0.2322temperature offset calibration	1.0079default loss term (dB/km)	0.3790temperature slope calibration	1.0000multiplexer offset coefficient	1.0000multiplexer slope coefficient	1.0000fibre end	0.00T internal ref (°C)	32.44T ext. ref 1 (°C)	2.05T ext. ref 2 (°C)	27.26length (m)	temperature (°C)	Stokes	anti-Stokes-747.200	800.000	-0.030	0.129
-746.185	-200.000	-0.063	-0.431
-745.171	184.407	-0.074	-0.110
-744.156	232.447	-0.212	0.352
-743.142	-50.372	-0.372	-0.177
-742.127	-13.580	-0.063	0.042
-741.112	-29.408	0.043	0.025
-740.098	104.643	-0.266	0.317
-739.083	134.470	-0.239	-0.313
-738.069	353.622	0.209	0.418
-737.054	26.400	0.292	0.247
-736.039	-200.000	0.034	0.207
-735.025	201.120	0.143	0.222
-734.010	800.000	-0.047	0.181
-732.996	800.000	0.042	-0.180
-731.981	-84.486	0.240	-0.076
-730.966	299.892	0.021	-0.039
-729.952	-22.807	-0.103	-0.063
-728.937	145.181	-0.155	-0.210
-727.923	139.880	-0.051	-0.068
-726.908	800.000	-0.090	-0.263
-725.894	100.592	-0.321	-0.377
-724.879	-161.649	-0.282	0.015
-723.864	-114.828	-0.165	0.032
-722.850	-200.000	-0.007	-0.056
-721.835	-181.716	-0.171	-0.003
-720.821	-129.235	-0.076	-0.011
-719.806	-108.457	0.304	-0.066
-718.791	737.906	-0.127	-0.344
-717.777	-184.007	-0.153	-0.003
-716.762	-109.139	-0.262	-0.056
-715.748	576.269	-0.022	-0.054
-714.733	-70.075	0.139	0.053
-713.718	-123.808	0.231	-0.037
-712.704	52.518	0.244	0.235
-711.689	42.981	-0.199	-0.183
-710.675	800.000	-0.029	-0.124
-709.660	-112.009	-0.282	0.057
-708.645	399.450	0.151	0.320
-707.631	-146.564	0.302	0.027
-706.616	17.767	-0.349	-0.280
-705.602	18.399	-0.242	0.195
-704.587	-147.288	-0.301	-0.026
-703.572	-200.000	0.042	-0.368
-702.558	89.736	0.171	-0.192
-701.543	8.753	-0.123	-0.093
-700.529	800.000	-0.054	-0.179
-699.514	114.166	-0.173	0.212
-698.499	-185.996	-0.259	-0.004
-697.485	-38.707	-0.052	-0.028
-696.470	-130.815	-0.420	-0.057
-695.456	800.000	0.096	0.321
-694.441	232.615	-0.196	0.324
-693.426	179.403	0.211	-0.311
-692.412	-200.000	-0.003	0.101
-691.397	-151.154	0.351	0.027
-690.383	-200.000	0.032	-0.274
-689.368	-177.857	-0.291	-0.007
-688.354	-200.000	0.002	0.036
-687.339	-83.748	0.399	0.128
-686.324	-89.103	-0.315	-0.094
-685.310	167.368	-0.167	-0.239
-684.295	59.166	-0.104	-0.104
-683.281	64.292	-0.034	0.034
-682.266	-44.537	0.223	-0.113
-681.251	800.000	-0.019	0.080
-680.237	707.680	0.035	0.093
-679.222	-48.658	-0.151	0.073
-678.208	-200.000	-0.006	0.089
-677.193	800.000	0.060	-0.215
-676.178	444.262	-0.120	-0.265
-675.164	-33.489	0.232	-0.129
-674.149	-200.000	0.041	-0.383
-673.135	-200.000	-0.012	0.204
-672.120	-53.215	-0.126	-0.058
-671.105	705.255	0.021	-0.057
-670.091	800.000	0.047	-0.197
-669.076	-20.043	-0.184	0.114
-668.062	-140.127	0.070	-0.007
-667.047	-200.000	-0.020	-0.149
-666.032	-200.000	-0.028	0.124
-665.018	-118.372	-0.350	0.063
-664.003	230.586	-0.028	0.046
-662.989	800.000	-0.068	-0.292
-661.974	-9.614	0.192	0.129
-660.959	-200.000	-0.053	0.309
-659.945	134.534	0.144	0.188
-658.930	800.000	-0.055	0.228
-657.916	246.974	0.103	0.174
-656.901	-30.183	-0.322	0.184
-655.886	-200.000	0.528	0.000
-654.872	38.177	0.199	0.179
-653.857	800.000	-0.126	0.394
-652.843	433.106	0.089	-0.194
-651.828	23.844	0.042	-0.035
-650.814	492.638	0.088	-0.204
-649.799	-82.099	-0.180	-0.059
-648.784	433.188	-0.080	0.174
-647.770	-200.000	0.014	-0.097
-646.755	800.000	0.033	0.142
-645.741	-110.561	-0.222	-0.046
-644.726	355.999	-0.105	-0.210
-643.711	18.632	0.065	0.053
-642.697	90.264	0.201	-0.227
-641.682	-200.000	-0.023	-0.546
-640.668	-200.000	-0.058	-0.350
-639.653	133.316	-0.066	0.085
-638.638	91.117	-0.375	-0.423
-637.624	-28.227	0.067	0.039
-636.609	-111.631	-0.322	-0.066
-635.595	-134.367	0.220	0.027
-634.580	-82.719	0.179	0.058
-633.565	-200.000	-0.012	0.254
-632.551	800.000	-0.009	0.028
-631.536	-83.929	0.146	-0.047
-630.522	-200.000	0.011	-0.384
-629.507	-19.060	-0.173	0.108
-628.492	-75.325	-0.137	0.049
-627.478	800.000	0.076	0.232
-626.463	-104.968	-0.164	0.038
-625.449	70.167	0.178	0.185
-624.434	0.677	0.212	0.153
-623.419	-200.000	0.026	-0.121
-622.405	-2.541	-0.362	0.255
-621.390	-200.000	0.014	-0.115
-620.376	-31.044	-0.149	0.084
-619.361	-200.000	-0.045	-0.205
-618.346	109.752	0.288	-0.347
-617.332	800.000	-0.054	0.160
-616.317	-93.822	0.196	0.054
-615.303	-60.951	-0.451	-0.192
-614.288	-200.000	0.027	-0.329
-613.273	-200.000	0.019	0.133
-612.259	14.786	-0.083	0.065
-611.244	187.273	0.023	-0.034
-610.230	-54.136	-0.216	0.099
-609.215	-79.174	0.064	-0.022
-608.201	-4.749	0.183	-0.127
-607.186	-163.267	0.164	0.008
-606.171	800.000	-0.051	0.186
-605.157	-94.324	0.254	0.070
-604.142	-32.147	-0.085	0.048
-603.128	274.277	-0.110	0.195
-602.113	198.925	-0.090	0.139
-601.098	40.516	0.281	-0.255
-600.084	-200.000	-0.045	0.293
-599.069	126.212	0.097	0.124
-598.055	-44.252	0.099	-0.050
-597.040	-67.746	0.139	0.055
-596.025	-137.352	0.288	0.033
-595.011	4.760	0.199	0.147
-593.996	-38.235	0.137	-0.073
-592.982	-200.000	-0.009	0.069
-591.967	143.369	-0.234	-0.313
-590.952	80.529	0.106	0.114
-589.938	237.933	0.020	-0.034
-588.923	-59.412	-0.062	0.027
-587.909	461.977	-0.077	0.172
-586.894	773.758	0.057	-0.155
-585.879	-94.944	-0.395	-0.107
-584.865	-119.589	-0.098	-0.017
-583.850	46.015	-0.050	-0.047
-582.836	126.909	0.074	-0.094
-581.821	20.459	0.241	0.196
-580.806	45.118	-0.148	0.137
-579.792	-65.365	0.287	-0.116
-578.777	135.265	-0.161	0.210
-577.763	-12.996	0.325	0.212
-576.748	170.266	-0.068	-0.098
-575.733	-200.000	0.025	-0.129
-574.719	456.855	-0.087	0.194
-573.704	424.621	0.082	-0.178
-572.690	-56.858	0.222	0.098
-571.675	240.693	-0.051	0.085
-570.661	75.162	-0.066	0.070
-569.646	-20.672	0.042	-0.026
-568.631	97.130	0.182	0.209
-567.617	-103.695	-0.262	-0.062
-566.602	-140.610	0.124	0.013
-565.588	-200.000	0.039	-0.422
-564.573	131.532	0.128	-0.165
-563.558	111.430	0.081	-0.098
-562.544	-18.509	0.310	-0.194
-561.529	-200.000	-0.029	0.293
-560.515	31.119	0.240	0.207
-559.500	-68.959	0.234	0.090
-558.485	-71.068	-0.338	-0.127
-557.471	-200.000	0.045	-0.282
-556.456	-53.324	0.101	0.046
-555.442	242.745	0.221	0.372
-554.427	81.325	0.208	0.225
-553.412	-159.351	-0.131	-0.007
-552.398	253.664	0.069	-0.119
-551.383	-80.288	-0.099	-0.033
-550.369	-40.667	0.101	-0.053
-549.354	800.000	0.112	0.333
-548.339	-103.593	-0.408	0.096
-547.325	-200.000	0.030	0.326
-546.310	56.226	0.118	-0.115
-545.296	-5.454	-0.344	0.237
-544.281	10.720	-0.041	0.031
-543.266	98.310	-0.115	-0.133
-542.252	800.000	0.087	0.316
-541.237	-200.000	-0.015	0.134
-540.223	-97.301	-0.123	-0.032
-539.208	-200.000	-0.086	-0.535
-538.193	50.328	0.067	0.063
-537.179	29.943	-0.200	0.170
-536.164	-100.442	0.136	0.034
-535.150	17.036	-0.066	-0.053
-534.135	182.970	-0.116	0.171
-533.121	800.000	0.072	-0.291
-532.106	-120.121	-0.017	-0.003
-531.091	-108.178	-0.204	-0.044
-530.077	-200.000	0.000	-0.091
-529.062	-116.871	0.228	-0.042
-528.048	-200.000	-0.020	0.284
-527.033	422.878	0.106	0.229
-526.018	-200.000	-0.046	0.296
-525.004	800.000	-0.042	0.183
-523.989	-34.362	0.313	0.172
-522.975	690.396	-0.130	0.340
-521.960	-200.000	-0.032	-0.310
-520.945	-46.748	0.116	-0.057
-519.931	11.518	-0.357	-0.274
-518.916	-15.179	-0.233	-0.150
-517.902	35.184	-0.115	-0.101
-516.887	-14.997	0.392	-0.252
-515.872	-111.394	-0.248	0.051
-514.858	-200.000	0.012	-0.118
-513.843	-63.360	0.046	0.019
-512.829	242.742	0.104	0.174
-511.814	23.581	0.046	0.038
-510.799	-35.870	-0.302	0.164
-509.785	-148.542	0.398	-0.033
-508.770	85.344	0.175	0.192
-507.756	-28.556	0.068	0.039
-506.741	310.749	0.105	-0.197
-505.726	-200.000	0.006	0.216
-504.712	-200.000	-0.014	-0.067
-503.697	44.328	-0.156	-0.144
-502.683	159.569	0.057	0.080
-501.668	159.252	0.067	0.093
-500.653	45.003	-0.151	0.140
-499.639	30.934	0.360	-0.309
-498.624	-110.792	-0.162	-0.033
-497.610	328.889	-0.131	0.251
-496.595	6.848	0.022	-0.017
-495.581	800.000	-0.029	-0.089
-494.566	-105.061	0.174	0.040
-493.551	800.000	0.053	-0.200
-492.537	-83.550	-0.331	0.106
-491.522	-200.000	-0.020	-0.212
-490.508	-105.117	0.378	0.087
-489.493	-182.203	0.112	0.002
-488.478	480.573	-0.074	-0.169
-487.464	37.813	-0.165	0.146
-486.449	-200.000	-0.008	0.214
-485.435	-200.000	-0.035	-0.275
-484.420	-44.194	0.124	-0.062
-483.405	-200.000	-0.009	0.381
-482.391	-105.343	0.121	0.028
-481.376	106.117	-0.153	-0.181
-480.362	310.420	-0.055	-0.102
-479.347	-108.322	-0.191	0.041
-478.332	-64.461	0.232	-0.094
-477.318	-27.262	0.243	0.141
-476.303	94.715	-0.162	-0.184
-475.289	-67.867	-0.275	0.108
-474.274	753.090	-0.081	-0.218
-473.259	198.966	-0.180	0.275
-472.245	277.458	-0.120	-0.213
-471.230	-119.171	0.088	-0.015
-470.216	-200.000	0.016	0.163
-469.201	-200.000	0.011	-0.267
-468.186	11.806	-0.094	0.072
-467.172	-49.417	-0.151	0.072
-466.157	109.895	0.033	0.039
-465.143	-200.000	0.004	0.521
-464.128	255.613	-0.056	-0.097
-463.113	-200.000	-0.038	-0.336
-462.099	51.777	0.365	-0.347
-461.084	85.884	-0.040	0.044
-460.070	-21.548	0.097	0.059
-459.055	17.166	0.234	0.185
-458.040	7.177	-0.198	-0.148
-457.026	-87.036	-0.074	0.022
-456.011	800.000	-0.068	0.244
-454.997	17.316	0.031	-0.024
-453.982	-138.096	0.055	-0.006
-452.968	-32.528	0.258	-0.144
-451.953	-131.434	0.345	0.046
-450.938	314.126	-0.028	-0.053
-449.924	79.115	-0.122	0.130
-448.909	-120.849	-0.104	0.018
-447.895	-113.865	0.096	-0.019
-446.880	266.961	-0.085	-0.148
-445.865	-89.445	-0.200	0.059
-444.851	92.332	0.215	-0.242
-443.836	89.751	0.093	-0.103
-442.822	-200.000	-0.034	-0.408
-441.807	-101.712	0.172	0.042
-440.792	28.957	-0.130	0.110
-439.778	-93.241	0.399	0.111
-438.763	-159.333	-0.040	-0.002
-437.749	657.806	-0.097	-0.249
-436.734	-200.000	0.000	0.261
-435.719	152.609	-0.097	0.133
-434.705	-6.491	0.232	-0.158
-433.690	-32.898	0.220	0.122
-432.676	-200.000	-0.022	0.335
-431.661	-39.534	-0.240	0.126
-430.646	-2.695	0.152	-0.106
-429.632	-154.234	0.521	0.035
-428.617	-200.000	0.034	-0.477
-427.603	150.897	0.140	-0.189
-426.588	99.359	0.232	-0.268
-425.573	-81.520	0.321	0.105
-424.559	-52.810	0.183	0.084
-423.544	25.253	-0.042	-0.035
-422.530	-49.120	-0.498	0.238
-421.515	14.467	-0.311	-0.242
-420.500	21.622	-0.171	-0.139
-419.486	128.228	0.099	0.126
-418.471	-200.000	-0.015	0.216
-417.457	-189.985	0.085	-0.001
-416.442	-22.947	-0.213	0.128
-415.428	-167.496	0.474	-0.019
-414.413	-44.963	0.157	-0.078
-413.398	-73.940	-0.369	-0.134
-412.384	424.972	-0.095	-0.205
-411.369	-15.238	-0.245	0.156
-410.355	-17.560	-0.045	-0.028
-409.340	116.019	-0.124	0.151
-408.325	-131.959	0.161	-0.021
-407.311	800.000	-0.084	-0.260
-406.296	-200.000	0.064	-0.289
-405.282	115.617	0.086	-0.105
-404.267	800.000	0.046	-0.135
-403.252	-200.000	-0.154	-0.001
-402.238	-200.000	0.047	-0.258
-401.223	-200.000	0.014	-0.279
-400.209	800.000	-0.085	-0.276
-399.194	-186.906	-0.253	0.004
-398.179	118.815	0.196	-0.242
-397.165	-19.428	-0.054	-0.033
-396.150	-13.128	-0.422	0.274
-395.136	187.000	-0.033	0.049
-394.121	-200.000	0.010	0.179
-393.106	474.805	0.092	0.206
-392.092	377.718	0.117	0.239
-391.077	141.569	0.089	-0.117
-390.063	191.789	-0.189	-0.284
-389.048	550.059	0.093	-0.223
-388.033	-110.013	-0.043	-0.009
-387.019	-200.000	-0.046	-0.219
-386.004	-17.672	0.188	-0.118
-384.990	124.692	-0.160	0.200
-383.975	-200.000	0.016	0.178
-382.960	-163.959	0.088	-0.004
-381.946	208.930	-0.133	-0.208
-380.931	-83.590	0.258	0.082
-379.917	-182.701	0.427	0.008
-378.902	1.310	0.165	-0.118
-377.888	27.891	0.077	0.065
-376.873	433.515	0.088	-0.191
-375.858	275.977	-0.167	0.296
-374.844	273.632	-0.052	-0.091
-373.829	6.199	0.052	0.038
-372.815	-37.709	-0.174	0.092
-371.800	617.163	-0.133	0.332
-370.785	708.143	-0.042	0.110
-369.771	-63.135	-0.213	0.087
-368.756	12.806	0.054	-0.041
-367.742	-127.705	0.059	-0.008
-366.727	397.496	-0.099	0.205
-365.712	-186.750	0.298	0.004
-364.698	-115.006	-0.255	0.048
-363.683	800.000	0.045	0.143
-362.669	-66.680	-0.182	-0.072
-361.654	108.178	-0.133	-0.158
-360.639	531.150	-0.094	0.222
-359.625	7.816	-0.036	-0.027
-358.610	98.993	-0.165	-0.190
-357.596	-200.000	-0.050	-0.484
-356.581	-200.000	0.018	-0.410
-355.566	-119.366	-0.317	0.055
-354.552	100.535	-0.099	-0.115
-353.537	-63.759	-0.076	0.031
-352.523	290.646	-0.115	-0.207
-351.508	188.136	-0.121	-0.179
-350.493	-68.998	0.221	0.085
-349.479	-86.449	-0.099	-0.030
-348.464	-63.031	-0.094	-0.039
-347.450	-76.832	0.141	-0.049
-346.435	-110.430	0.033	-0.007
-345.420	-0.036	0.198	-0.140
-344.406	-1.643	0.021	-0.015
-343.391	-200.000	-0.010	-0.153
-342.377	800.000	-0.040	-0.116
-341.362	-200.000	0.027	0.296
-340.348	-190.250	-0.171	0.002
-339.333	224.959	0.060	-0.097
-338.318	-183.664	-0.267	0.005
-337.304	-16.132	0.037	-0.023
-336.289	-172.757	-0.384	-0.012
-335.275	2.157	-0.243	0.175
-334.260	-32.916	-0.114	0.063
-333.245	103.491	-0.069	-0.081
-332.231	-200.000	-0.017	-0.118
-331.216	-67.571	0.139	-0.054
-330.202	-3.990	-0.089	-0.061
-329.187	-200.000	-0.252	0.000
-328.172	-200.000	0.040	0.200
-327.158	395.246	0.090	-0.187
-326.143	203.197	0.127	-0.195
-325.129	-175.966	-0.034	0.001
-324.114	225.142	0.130	-0.209
-323.099	138.064	0.113	-0.147
-322.085	-50.573	-0.334	-0.157
-321.070	-200.000	-0.010	-0.149
-320.056	-200.000	-0.006	0.079
-319.041	-87.717	0.109	-0.033
-318.026	-10.983	-0.308	-0.202
-317.012	89.980	0.080	0.089
-315.997	-11.570	0.167	-0.109
-314.983	-102.627	-0.115	-0.027
-313.968	234.193	-0.036	-0.060
-312.953	800.000	0.048	0.134
-311.939	-200.000	-0.011	0.117
-310.924	-20.035	0.299	0.183
-309.910	-184.784	-0.369	-0.006
-308.895	602.012	0.078	0.193
-307.880	-110.778	0.225	0.046
-306.866	-175.077	0.382	0.011
-305.851	800.000	0.053	0.217
-304.837	-22.980	-0.079	-0.047
-303.822	65.429	-0.123	-0.124
-302.807	800.000	-0.009	-0.027
-301.793	101.103	-0.148	0.171
-300.778	-22.386	0.196	0.118
-299.764	-81.763	-0.369	-0.120
-298.749	800.000	-0.138	-0.385
-297.735	693.295	0.056	-0.147
-296.720	-57.616	0.361	0.157
-295.705	-200.000	-0.018	0.091
-294.691	800.000	-0.148	-0.435
-293.676	800.000	0.023	-0.092
-292.662	-81.879	-0.367	0.119
-291.647	165.464	0.090	0.126
-290.632	96.253	-0.089	-0.101
-289.618	-6.172	-0.195	-0.132
-288.603	59.060	-0.231	0.225
-287.589	-72.500	-0.249	-0.091
-286.574	-200.000	0.015	0.314
-285.559	209.007	0.091	-0.142
-284.545	22.637	0.070	0.057
-283.530	800.000	0.047	-0.172
-282.516	800.000	-0.053	-0.209
-281.501	226.549	-0.092	-0.148
-280.486	-200.000	0.029	0.221
-279.472	710.738	-0.119	0.314
-278.457	-148.443	-0.323	0.026
-277.443	-200.000	-0.015	0.430
-276.428	4.993	0.202	0.148
-275.413	246.507	0.314	0.525
-274.399	-44.047	0.358	-0.178
-273.384	-34.675	0.204	-0.111
-272.370	-200.000	-0.008	-0.221
-271.355	800.000	0.049	-0.183
-270.340	103.573	-0.283	-0.329
-269.326	-167.888	0.296	0.012
-268.311	797.396	-0.061	-0.168
-267.297	-119.540	0.304	-0.052
-266.282	-130.276	0.361	-0.049
-265.267	-141.619	-0.206	0.021
-264.253	-0.510	-0.245	0.172
-263.238	688.057	0.128	0.331
-262.224	-200.000	-0.020	-0.180
-261.209	94.154	0.219	0.246
-260.195	800.000	0.046	-0.140
-259.180	-200.000	-0.006	0.067
-258.165	19.240	-0.227	0.180
-257.151	96.580	-0.095	-0.108
-256.136	-200.000	-0.002	-0.069
-255.122	11.909	-0.247	0.188
-254.107	7.992	-0.206	0.153
-253.092	-200.000	-0.011	-0.052
-252.078	285.306	0.065	0.116
-251.063	-200.000	0.033	0.254
-250.049	-200.000	0.020	0.449
-249.034	-55.318	-0.251	-0.112
-248.019	-114.175	0.042	-0.008
-247.005	-148.470	0.153	-0.012
-245.990	-79.110	0.276	-0.093
-244.976	67.134	-0.254	0.257
-243.961	249.612	-0.056	0.094
-242.946	-200.000	-0.008	0.317
-241.932	-160.913	0.083	0.004
-240.917	-69.999	0.267	-0.101
-239.903	10.922	-0.119	-0.090
-238.888	-56.771	-0.211	0.093
-237.873	-50.559	-0.283	0.132
-236.859	10.016	-0.234	0.176
-235.844	800.000	0.062	-0.202
-234.830	-200.000	-0.047	-0.233
-233.815	-52.780	-0.077	0.035
-232.800	-105.292	-0.187	0.042
-231.786	-47.517	0.320	-0.154
-230.771	542.482	0.142	-0.334
-229.757	800.000	0.041	-0.120
-228.742	164.762	0.212	-0.296
-227.727	800.000	0.037	0.111
-226.713	800.000	0.058	0.187
-225.698	-52.518	-0.144	0.066
-224.684	-137.760	0.083	-0.009
-223.669	-200.000	0.034	0.250
-222.655	800.000	0.107	0.337
-221.640	15.718	0.229	0.178
-220.625	271.245	-0.137	0.239
-219.611	-143.287	0.233	0.022
-218.596	509.219	-0.072	-0.166
-217.582	-114.766	-0.151	-0.029
-216.567	800.000	-0.015	-0.050
-215.552	7.776	-0.231	-0.171
-214.538	217.710	-0.066	-0.104
-213.523	-84.759	-0.183	0.057
-212.509	405.016	-0.010	-0.022
-211.494	-200.000	-0.046	0.355
-210.479	-32.118	-0.009	-0.005
-209.465	800.000	0.055	0.175
-208.450	155.869	0.074	0.101
-207.436	-200.000	-0.006	-0.171
-206.421	189.035	-0.158	-0.234
-205.406	652.380	-0.058	-0.148
-204.392	-16.530	0.144	-0.090
-203.377	-200.000	0.058	-0.271
-202.363	396.866	-0.131	0.271
-201.348	76.668	-0.114	0.119
-200.333	156.161	0.081	-0.110
-199.319	-159.392	-0.328	-0.018
-198.304	-171.324	0.262	-0.009
-197.290	74.135	0.163	-0.170
-196.275	-26.971	0.204	-0.118
-195.260	-200.000	-0.033	-0.174
-194.246	537.295	-0.107	0.252
-193.231	-82.697	0.275	0.088
-192.217	-89.432	-0.235	0.068
-191.202	-97.109	-0.121	0.031
-190.187	717.532	0.118	0.310
-189.173	154.513	0.105	-0.143
-188.158	544.630	-0.109	0.258
-187.144	-66.062	-0.157	-0.062
-186.129	386.177	0.090	0.184
-185.114	-200.000	-0.018	0.270
-184.100	-185.827	-0.125	-0.002
-183.085	228.334	0.082	0.132
-182.071	-24.140	0.325	0.192
-181.056	91.224	-0.207	0.230
-180.042	-17.928	0.277	0.172
-179.027	103.012	0.104	0.120
-178.012	7.496	0.034	0.025
-176.998	800.000	0.022	0.080
-175.983	-61.777	0.536	0.222
-174.969	395.148	-0.050	0.103
-173.954	-200.000	0.001	-0.190
-172.939	-110.492	-0.260	0.053
-171.925	343.010	0.165	0.319
-170.910	187.714	-0.068	0.100
-169.896	25.090	0.225	0.184
-168.881	212.662	-0.106	-0.165
-167.866	140.493	-0.240	-0.313
-166.852	-200.000	0.003	-0.112
-165.837	143.559	0.103	0.136
-164.823	-130.460	0.111	-0.015
-163.808	800.000	-0.108	-0.298
-162.793	-138.482	0.223	-0.024
-161.779	-89.377	-0.164	-0.048
-160.764	-200.000	-0.007	0.315
-159.750	59.618	0.185	0.181
-158.735	-86.537	-0.152	-0.046
-157.720	118.227	0.236	0.288
-156.706	-200.000	-0.022	-0.277
-155.691	94.077	-0.126	0.142
-154.677	800.000	-0.075	-0.209
-153.662	120.658	0.392	-0.481
-152.647	-89.705	-0.277	-0.080
-151.633	800.000	0.040	-0.126
-150.618	100.202	-0.183	-0.209
-149.604	-200.000	0.003	0.135
-148.589	38.266	0.240	0.211
-147.574	479.049	0.106	-0.237
-146.560	-49.039	-0.290	0.137
-145.545	476.766	-0.061	-0.136
-144.531	-100.062	0.135	0.033
-143.516	-8.856	-0.050	-0.033
-142.502	209.041	-0.077	0.119
-141.487	-63.337	0.049	0.020
-140.472	29.521	-0.175	-0.147
-139.458	-200.000	0.086	-0.421
-138.443	-108.091	-0.108	-0.023
-137.429	246.643	-0.220	-0.365
-136.414	299.311	0.221	-0.402
-135.399	83.568	0.164	0.177
-134.385	800.000	-0.052	-0.171
-133.370	191.132	0.094	0.139
-132.356	-95.297	-0.111	-0.030
-131.341	-134.674	-0.418	0.050
-130.326	-16.211	-0.135	0.085
-129.312	-163.586	-0.317	0.015
-128.297	74.056	0.301	0.311
-127.283	91.846	0.182	-0.202
-126.268	249.949	-0.122	0.205
-125.253	-150.775	0.247	0.019
-124.239	-200.000	0.041	-0.404
-123.224	-112.875	0.110	-0.021
-122.210	214.500	0.113	-0.177
