DTS Sentinel unit serial number:	SN413079Multiplexer serial number:	ORYXHardware model number:	OX4-SRSoftware version number:	ORYX F/W v4.00 Oryx Data Collector v3.7.2.0data status	okinstallation	princeton_trtdifferential loss correction	single-endedforward channel	channel 1reverse channel	N/Adate	2019/09/11time	23:52:11forward acquisition time	60.00reverse acquisition time	0.00gamma	496.2192k internal	0.2319k external	0.2319temperature offset calibration	1.0075default loss term (dB/km)	0.3790temperature slope calibration	1.0000multiplexer offset coefficient	1.0000multiplexer slope coefficient	1.0000fibre end	0.00T internal ref (°C)	33.87T ext. ref 1 (°C)	1.99T ext. ref 2 (°C)	27.89length (m)	temperature (°C)	Stokes	anti-Stokes-747.200	-200.000	-0.039	0.183
-746.185	-200.000	0.064	0.438
-745.171	719.321	0.031	-0.083
-744.156	418.108	-0.126	0.272
-743.142	800.000	0.034	-0.135
-742.127	-200.000	0.052	0.261
-741.112	-77.881	0.342	0.120
-740.098	47.999	-0.316	0.299
-739.083	800.000	0.089	0.267
-738.069	222.473	-0.115	0.187
-737.054	-133.615	0.099	0.013
-736.039	177.581	-0.130	0.192
-735.025	243.481	0.181	0.307
-734.010	-93.282	-0.359	-0.101
-732.996	800.000	0.040	0.112
-731.981	32.409	0.160	0.139
-730.966	-140.072	0.253	0.027
-729.952	318.696	0.056	0.107
-728.937	557.143	-0.075	0.182
-727.923	-141.858	-0.269	0.027
-726.908	253.283	-0.035	-0.061
-725.894	-200.000	-0.007	-0.098
-724.879	-149.321	0.140	-0.011
-723.864	142.682	0.189	0.254
-722.850	27.237	0.166	-0.141
-721.835	-200.000	-0.028	-0.151
-720.821	71.323	-0.151	0.159
-719.806	-128.733	-0.131	0.019
-718.791	204.283	-0.093	-0.145
-717.777	128.845	0.131	-0.169
-716.762	-200.000	0.015	-0.121
-715.748	61.039	0.238	0.239
-714.733	-142.158	-0.200	-0.020
-713.718	-168.911	0.333	-0.013
-712.704	-131.027	0.509	-0.069
-711.689	800.000	-0.129	0.389
-710.675	30.537	0.062	0.054
-709.660	355.727	0.138	-0.278
-708.645	-200.000	0.027	-0.129
-707.631	800.000	0.075	0.260
-706.616	-47.739	0.307	-0.151
-705.602	106.614	0.306	-0.367
-704.587	251.697	0.253	0.434
-703.572	113.843	0.228	-0.280
-702.558	207.380	0.179	-0.282
-701.543	370.171	-0.085	-0.175
-700.529	20.550	-0.137	0.112
-699.514	-56.146	-0.174	-0.078
-698.499	-62.623	-0.457	0.192
-697.485	-164.770	0.193	-0.009
-696.470	-34.351	-0.045	-0.025
-695.456	7.902	-0.094	-0.071
-694.441	97.863	0.041	-0.047
-693.426	-79.823	-0.062	-0.021
-692.412	435.123	-0.138	0.304
-691.397	-60.245	0.189	0.081
-690.383	-103.575	-0.161	-0.038
-689.368	192.196	-0.095	0.144
-688.354	-58.566	-0.031	0.014
-687.339	232.078	0.119	0.198
-686.324	36.916	0.129	0.115
-685.310	13.307	-0.264	-0.206
-684.295	-70.364	-0.148	0.057
-683.281	-200.000	0.019	0.121
-682.266	473.674	-0.137	0.312
-681.251	-200.000	-0.043	-0.210
-680.237	499.828	0.093	-0.217
-679.222	-200.000	-0.068	-0.397
-678.208	349.173	0.100	-0.200
-677.193	-200.000	0.036	-0.465
-676.178	-105.845	0.242	-0.055
-675.164	76.285	-0.090	0.097
-674.149	-115.463	-0.332	-0.063
-673.135	-101.869	0.354	-0.086
-672.120	800.000	-0.063	-0.267
-671.105	-134.641	-0.121	-0.015
-670.091	-107.453	0.102	0.023
-669.076	59.548	-0.228	-0.227
-668.062	-65.086	0.045	0.018
-667.047	-73.657	-0.201	-0.074
-666.032	66.861	-0.133	-0.136
-665.018	-200.000	0.007	0.535
-664.003	800.000	0.139	0.493
-662.989	-39.342	-0.018	-0.009
-661.974	-136.049	0.184	-0.022
-660.959	-200.000	-0.019	-0.137
-659.945	185.492	0.101	-0.151
-658.930	343.554	0.066	-0.130
-657.916	11.929	0.278	-0.215
-656.901	-125.525	-0.201	0.031
-655.886	-43.888	-0.009	-0.004
-654.872	-200.000	-0.015	-0.174
-653.857	-200.000	0.018	-0.106
-652.843	310.108	-0.175	0.330
-651.828	-48.613	-0.202	0.098
-650.814	36.693	0.118	-0.105
-649.799	-54.193	0.074	0.034
-648.784	57.773	-0.151	0.149
-647.770	-51.632	0.286	0.134
-646.755	800.000	0.125	-0.430
-645.741	800.000	0.148	-0.443
-644.726	137.151	0.106	0.139
-643.711	-12.919	-0.070	0.046
-642.697	94.388	0.036	-0.041
-641.682	477.143	0.113	-0.257
-640.668	223.384	0.041	0.067
-639.653	136.376	0.063	0.083
-638.638	-85.114	0.245	-0.077
-637.624	4.057	-0.140	-0.103
-636.609	676.689	-0.087	0.227
-635.595	260.146	-0.196	-0.341
-634.580	-77.701	0.234	0.082
-633.565	-200.000	-0.004	-0.275
-632.551	-99.004	0.275	-0.070
-631.536	-101.786	-0.172	0.042
-630.522	-200.000	0.127	0.617
-629.507	-22.578	0.178	-0.109
-628.492	178.949	0.067	0.098
-627.478	232.197	0.089	-0.147
-626.463	300.994	0.139	-0.259
-625.449	-88.433	-0.183	0.055
-624.434	-149.483	-0.268	-0.021
-623.419	26.379	-0.098	-0.083
-622.405	479.468	-0.100	0.228
-621.390	8.019	-0.095	0.072
-620.376	102.452	0.199	0.234
-619.361	-200.000	0.005	0.154
-618.346	130.650	0.029	-0.038
-617.332	150.261	-0.224	-0.306
-616.317	-15.590	-0.145	-0.093
-615.303	217.560	-0.101	0.162
-614.288	-29.917	-0.132	0.076
-613.273	-48.536	-0.258	0.125
-612.259	-99.610	-0.279	0.070
-611.244	-200.000	-0.028	-0.390
-610.230	-200.000	0.055	-0.285
-609.215	-200.000	0.019	-0.261
-608.201	306.883	0.064	0.119
-607.186	-33.682	-0.269	-0.149
-606.171	-200.000	0.025	-0.183
-605.157	153.942	0.048	0.066
-604.142	-158.727	0.201	-0.012
-603.128	150.615	-0.063	-0.086
-602.113	-200.000	-0.004	-0.104
-601.098	-200.000	-0.065	0.580
-600.084	-32.473	0.134	0.075
-599.069	243.500	0.147	0.247
-598.055	800.000	0.037	-0.111
-597.040	507.930	0.040	0.092
-596.025	-5.137	-0.316	-0.219
-595.011	1.613	0.082	-0.059
-593.996	-200.000	-0.055	0.328
-592.982	-97.522	0.261	-0.068
-591.967	-33.723	-0.676	-0.375
-590.952	-43.093	-0.136	-0.069
-589.938	-150.934	0.035	-0.003
-588.923	-138.239	0.108	-0.012
-587.909	482.559	0.053	0.122
-586.894	-104.785	-0.152	-0.035
-585.879	800.000	-0.028	0.119
-584.865	-200.000	0.048	0.255
-583.850	-200.000	0.050	0.333
-582.836	-132.445	0.222	0.029
-581.821	-165.995	0.149	0.006
-580.806	125.835	-0.148	0.188
-579.792	678.630	0.136	-0.356
-578.777	-58.752	0.061	-0.027
-577.763	-200.000	0.024	-0.201
-576.748	704.340	0.051	0.135
-575.733	23.362	-0.167	0.138
-574.719	-96.645	-0.032	0.009
-573.704	39.308	-0.113	-0.101
-572.690	-100.139	-0.199	0.050
-571.675	-72.651	0.140	-0.052
-570.661	-99.106	0.153	-0.039
-569.646	-162.148	0.245	0.012
-568.631	1.584	0.118	-0.085
-567.617	-3.763	-0.225	0.157
-566.602	-125.831	0.408	-0.062
-565.588	218.228	0.041	0.066
-564.573	137.575	-0.079	0.104
-563.558	-161.253	-0.287	0.015
-562.544	296.976	-0.074	-0.137
-561.529	-200.000	0.030	0.257
-560.515	-64.548	-0.361	-0.147
-559.500	-51.391	0.173	-0.081
-558.485	-54.463	0.144	0.065
-557.471	272.026	0.131	-0.232
-556.456	21.721	-0.230	-0.188
-555.442	800.000	-0.033	-0.118
-554.427	47.740	-0.100	0.094
-553.412	-74.821	-0.188	-0.068
-552.398	-58.363	0.068	0.030
-551.383	-200.000	0.063	0.275
-550.369	-38.386	-0.205	-0.109
-549.354	-164.965	0.394	0.018
-548.339	226.110	0.061	0.100
-547.325	-122.027	-0.227	-0.037
-546.310	677.322	-0.044	-0.116
-545.296	-123.248	0.050	0.008
-544.281	800.000	0.098	0.275
-543.266	169.808	-0.250	-0.359
-542.252	-71.855	0.147	-0.055
-541.237	-35.753	0.373	0.203
-540.223	-51.056	-0.210	-0.099
-539.208	77.336	-0.061	-0.066
-538.193	266.697	-0.091	0.160
-537.179	-87.201	-0.146	0.044
-536.164	29.888	0.056	-0.048
-535.150	283.861	-0.327	0.591
-534.135	226.430	0.107	0.174
-533.121	-121.555	-0.136	0.023
-532.106	-59.189	0.299	-0.129
-531.091	-131.212	-0.064	-0.008
-530.077	800.000	-0.050	0.175
-529.062	-74.140	-0.232	-0.084
-528.048	-69.311	-0.183	-0.071
-527.033	-6.658	-0.420	-0.287
-526.018	68.678	0.153	-0.157
-525.004	-107.549	0.208	-0.046
-523.989	-120.383	0.173	0.030
-522.975	-92.016	-0.200	-0.057
-521.960	-68.170	0.292	0.114
-520.945	-166.545	0.395	-0.017
-519.931	-200.000	-0.043	-0.232
-518.916	-200.000	-0.009	0.237
-517.902	800.000	-0.045	-0.158
-516.887	-59.953	0.050	0.021
-515.872	-37.499	0.163	-0.087
-514.858	135.352	-0.053	-0.069
-513.843	-200.000	-0.013	-0.330
-512.829	-200.000	-0.001	-0.158
-511.814	168.509	0.119	-0.171
-510.799	278.943	-0.104	-0.186
-509.785	186.001	0.097	-0.145
-508.770	-200.000	0.078	-0.403
-507.756	67.048	-0.075	0.076
-506.741	76.424	-0.160	-0.170
-505.726	362.652	0.052	0.104
-504.712	-170.455	0.059	0.002
-503.697	37.140	-0.153	-0.136
-502.683	214.559	0.142	-0.226
-501.668	139.135	0.103	-0.136
-500.653	-23.900	-0.143	-0.086
-499.639	132.034	-0.045	0.058
-498.624	-58.104	0.163	0.071
-497.610	634.457	-0.029	0.073
-496.595	-111.337	0.302	0.062
-495.581	800.000	0.095	0.334
-494.566	-139.118	0.085	0.009
-493.551	-200.000	0.002	-0.121
-492.537	-130.331	0.165	0.022
-491.522	-82.690	0.233	-0.075
-490.508	800.000	-0.026	-0.103
-489.493	-200.000	-0.021	0.174
-488.478	800.000	0.057	0.212
-487.464	437.525	-0.136	-0.297
-486.449	-63.644	0.251	-0.103
-485.435	-109.747	0.208	0.044
-484.420	379.957	0.246	0.504
-483.405	12.584	-0.122	0.094
-482.391	149.201	0.082	0.112
-481.376	800.000	-0.085	-0.353
-480.362	52.696	-0.176	-0.169
-479.347	86.816	-0.143	0.159
-478.332	800.000	-0.048	0.166
-477.318	-81.505	-0.107	0.035
-476.303	153.867	0.092	0.126
-475.289	800.000	0.081	0.246
-474.274	-85.284	0.447	0.140
-473.259	408.460	0.100	-0.212
-472.245	-114.918	0.327	-0.062
-471.230	-113.823	-0.250	-0.049
-470.216	457.060	-0.124	-0.277
-469.201	800.000	0.027	-0.080
-468.186	800.000	0.041	-0.178
-467.172	354.368	0.049	0.097
-466.157	800.000	0.017	-0.072
-465.143	615.757	0.159	-0.399
-464.128	-200.000	0.088	0.000
-463.113	11.336	-0.144	-0.110
-462.099	-97.422	0.301	0.078
-461.084	272.550	0.069	0.122
-460.070	30.097	-0.182	0.155
-459.055	106.460	-0.204	0.242
-458.040	-100.153	-0.176	-0.044
-457.026	114.876	-0.088	-0.108
-456.011	-138.556	0.271	-0.030
-454.997	470.205	0.108	0.242
-453.982	800.000	0.042	0.128
-452.968	-4.565	0.243	0.168
-451.953	-10.611	-0.255	0.169
-450.938	800.000	-0.074	0.321
-449.924	402.672	-0.063	-0.133
-448.909	0.280	-0.032	-0.023
-447.895	-35.427	0.269	-0.146
-446.880	219.521	-0.023	-0.037
-445.865	-200.000	0.045	0.228
-444.851	267.684	0.153	-0.267
-443.836	6.106	0.114	-0.085
-442.822	119.790	0.163	0.202
-441.807	-21.114	0.252	0.154
-440.792	-58.339	0.146	-0.064
-439.778	136.567	0.089	-0.116
-438.763	78.239	-0.150	0.160
-437.749	-42.964	0.172	0.088
-436.734	-200.000	-0.072	-0.378
-435.719	266.830	0.142	0.247
-434.705	-104.807	0.251	-0.058
-433.690	-170.005	0.067	-0.002
-432.676	239.596	0.172	-0.286
-431.661	-157.311	-0.261	-0.016
-430.646	-117.811	0.400	-0.072
-429.632	-14.621	0.145	0.093
-428.617	800.000	-0.057	0.239
-427.603	159.655	-0.112	-0.156
-426.588	-152.573	0.019	0.001
-425.573	-12.567	-0.136	-0.089
-424.559	345.751	0.085	0.166
-423.544	-200.000	0.035	-0.313
-422.530	800.000	-0.032	0.120
-421.515	-8.705	-0.180	0.121
-420.500	-102.754	0.383	0.091
-419.486	-189.030	-0.694	-0.008
-418.471	302.493	-0.133	0.246
-417.457	800.000	-0.142	-0.402
-416.442	125.612	-0.131	0.165
-415.428	396.642	-0.158	0.329
-414.413	-21.878	-0.254	0.154
-413.398	118.608	-0.166	0.204
-412.384	212.533	0.151	0.238
-411.369	72.331	-0.230	0.239
-410.355	-80.386	-0.171	-0.057
-409.340	-200.000	0.302	0.000
-408.325	-155.757	-0.073	0.005
-407.311	301.228	-0.124	-0.229
-406.296	-63.717	0.056	-0.023
-405.282	-63.328	-0.030	0.012
-404.267	-132.408	0.307	-0.039
-403.252	-63.652	-0.257	0.105
-402.238	470.206	0.093	0.208
-401.223	557.003	-0.016	-0.038
-400.209	363.507	0.159	-0.318
-399.194	800.000	-0.067	0.252
-398.179	516.767	-0.089	0.208
-397.165	-65.372	-0.286	-0.115
-396.150	-0.421	-0.109	0.077
-395.136	-200.000	0.013	0.199
-394.121	-7.254	-0.095	-0.065
-393.106	-38.243	-0.072	-0.038
-392.092	-200.000	0.066	0.359
-391.077	-154.867	0.174	-0.011
-390.063	122.204	0.012	0.015
-389.048	328.818	-0.116	0.222
-388.033	191.210	-0.050	0.076
-387.019	354.366	0.117	0.232
-386.004	9.996	-0.169	-0.128
-384.990	-200.000	-0.103	-0.461
-383.975	299.817	0.129	0.238
-382.960	-8.422	0.044	-0.030
-381.946	238.127	-0.165	0.274
-380.931	-200.000	0.052	-0.292
-379.917	-68.987	0.359	0.138
-378.902	69.412	-0.245	-0.251
-377.888	18.717	-0.129	-0.103
-376.873	-67.154	-0.062	0.024
-375.858	-68.055	-0.105	-0.041
-374.844	-9.709	0.061	0.041
-373.829	76.201	-0.115	-0.121
-372.815	-81.314	-0.171	0.056
-371.800	800.000	0.066	0.236
-370.785	-90.859	-0.160	-0.046
-369.771	40.669	0.057	-0.051
-368.756	-200.000	0.003	0.037
-367.742	221.945	0.170	0.273
-366.727	-38.240	-0.175	-0.093
-365.712	-38.530	0.184	-0.097
-364.698	-200.000	-0.006	-0.073
-363.683	-200.000	0.037	-0.239
-362.669	800.000	0.036	0.146
-361.654	-89.955	0.122	0.036
-360.639	364.102	0.138	0.278
-359.625	265.030	0.195	0.339
-358.610	-200.000	-0.036	-0.319
-357.596	-0.531	-0.328	-0.232
-356.581	20.226	-0.194	0.156
-355.566	-50.032	-0.088	0.042
-354.552	-47.630	0.386	0.186
-353.537	-200.000	0.035	0.225
-352.523	-75.973	0.195	-0.069
-351.508	-105.585	-0.402	-0.091
-350.493	-98.539	-0.098	-0.025
-349.479	648.973	-0.044	0.113
-348.464	63.976	0.192	-0.192
-347.450	-200.000	-0.010	-0.175
-346.435	-25.703	0.077	-0.045
-345.420	800.000	0.152	-0.542
-344.406	37.643	-0.226	-0.200
-343.391	-108.688	0.118	0.025
-342.377	-59.662	0.355	0.152
-341.362	-200.000	0.002	-0.040
-340.348	-75.533	-0.151	-0.054
-339.333	800.000	0.039	-0.134
-338.318	-69.983	0.105	0.040
-337.304	17.754	-0.196	0.155
-336.289	480.455	0.106	0.239
-335.275	-12.450	-0.224	-0.146
-334.260	-200.000	0.000	-0.237
-333.245	-100.485	-0.105	0.026
-332.231	116.385	-0.068	0.083
-331.216	-106.238	-0.125	0.028
-330.202	259.092	-0.192	0.330
-329.187	-118.855	0.192	-0.034
-328.172	75.016	0.260	-0.272
-327.158	17.909	0.283	-0.225
-326.143	-200.000	-0.053	-0.363
-325.129	-24.974	-0.157	-0.093
-324.114	800.000	-0.155	-0.465
-323.099	172.931	0.036	-0.052
-322.085	-25.681	0.057	0.034
-321.070	187.559	-0.121	-0.179
-320.056	56.741	-0.077	-0.074
-319.041	-50.925	-0.197	-0.092
-318.026	391.109	-0.054	-0.111
-317.012	800.000	0.040	-0.138
-315.997	404.141	0.030	-0.063
-314.983	-115.683	0.248	-0.046
-313.968	160.480	0.201	-0.280
-312.953	-131.870	0.251	-0.033
-311.939	130.826	-0.092	0.117
-310.924	-154.595	-0.158	0.010
-309.910	-142.275	0.036	-0.004
-308.895	279.426	0.102	-0.181
-307.880	-31.930	-0.102	0.057
-306.866	-200.000	0.041	0.205
-305.851	-79.235	0.145	-0.049
-304.837	61.540	-0.207	-0.205
-303.822	-200.000	0.004	-0.035
-302.807	-107.021	-0.299	0.066
-301.793	76.532	0.025	-0.027
-300.778	-82.878	0.079	-0.025
-299.764	-57.137	-0.202	-0.088
-298.749	135.836	0.028	-0.037
-297.735	159.119	-0.231	0.319
-296.720	-200.000	0.051	0.243
-295.705	488.598	0.027	-0.060
-294.691	97.685	0.147	0.167
-293.676	800.000	0.054	0.160
-292.662	-73.372	-0.115	0.042
-291.647	783.270	-0.179	0.487
-290.632	-200.000	0.021	0.146
-289.618	86.290	0.136	-0.149
-288.603	40.022	-0.057	-0.051
-287.589	-106.229	0.404	-0.090
-286.574	-194.040	-0.482	-0.004
-285.559	101.304	-0.096	0.111
-284.545	38.098	-0.098	0.086
-283.530	-181.583	-0.401	-0.008
-282.516	592.836	0.041	-0.102
-281.501	319.837	-0.098	0.185
-280.486	-99.442	-0.271	-0.068
-279.472	114.543	-0.191	-0.231
-278.457	-137.249	0.189	-0.021
-277.443	-200.000	0.017	-0.119
-276.428	-28.672	-0.164	0.094
-275.413	-22.901	0.380	0.227
-274.399	52.120	0.069	-0.065
-273.384	159.718	0.099	0.137
-272.370	-200.000	0.029	0.354
-271.355	-158.904	0.071	-0.004
-270.340	-200.000	0.009	-0.247
-269.326	563.641	-0.078	-0.188
-268.311	-200.000	-0.044	-0.258
-267.297	-17.854	0.089	0.056
-266.282	131.717	0.109	-0.139
-265.267	100.634	0.085	0.098
-264.253	0.398	0.171	0.121
-263.238	-92.912	0.234	-0.065
-262.224	-35.343	0.252	0.136
-261.209	86.667	0.203	-0.222
-260.195	-50.693	-0.340	0.159
-259.180	658.026	0.151	0.386
-258.165	-52.377	0.213	-0.098
-257.151	78.693	-0.316	-0.335
-256.136	-56.714	-0.109	0.048
-255.122	800.000	-0.060	-0.223
-254.107	79.597	-0.250	0.266
-253.092	274.223	-0.079	-0.139
-252.078	187.958	0.166	-0.247
-251.063	800.000	0.061	0.252
-250.049	-112.167	0.134	0.027
-249.034	800.000	-0.054	-0.203
-248.019	233.556	-0.086	0.141
-247.005	95.429	0.162	0.183
-245.990	537.135	-0.067	-0.158
-244.976	-200.000	0.002	0.208
-243.961	323.450	0.183	0.347
-242.946	64.379	-0.264	-0.264
-241.932	-110.313	0.200	0.041
-240.917	-86.905	-0.188	0.057
-239.903	-200.000	0.018	-0.081
-238.888	-200.000	-0.022	0.303
-237.873	117.870	-0.091	0.111
-236.859	-31.139	-0.203	-0.114
-235.844	-130.153	0.331	0.045
-234.830	-23.414	-0.228	0.136
-233.815	-94.801	-0.047	0.013
-232.800	432.028	-0.062	0.133
-231.786	-200.000	-0.064	-0.336
-230.771	-200.000	-0.024	0.282
-229.757	21.532	0.069	-0.056
-228.742	-126.800	0.016	0.002
-227.727	104.685	-0.226	-0.264
-226.713	-163.418	0.384	0.018
-225.698	319.500	-0.080	-0.150
-224.684	540.224	-0.080	0.189
-223.669	-95.503	-0.366	0.097
-222.655	331.871	-0.147	0.282
-221.640	-7.999	-0.164	0.110
-220.625	-114.026	-0.131	-0.025
-219.611	-97.041	-0.240	-0.062
-218.596	-200.000	0.068	-0.396
-217.582	-92.801	-0.096	-0.027
-216.567	72.161	0.285	-0.294
-215.552	-94.678	-0.241	-0.065
-214.538	-60.244	-0.233	0.098
-213.523	-18.856	0.046	0.028
-212.509	-51.718	-0.041	0.019
-211.494	800.000	-0.132	0.363
-210.479	-99.602	-0.173	0.043
-209.465	-118.818	0.200	-0.035
-208.450	-70.845	-0.262	0.098
-207.436	-10.860	0.213	-0.140
-206.421	-73.758	0.300	0.108
-205.406	10.286	-0.067	0.051
-204.392	800.000	-0.116	0.327
-203.377	240.100	0.082	0.135
-202.363	1.014	0.273	-0.194
-201.348	-174.778	-0.150	0.004
-200.333	-37.263	-0.123	-0.065
-199.319	-114.027	-0.074	-0.014
-198.304	-189.110	0.175	0.002
-197.290	-42.505	0.221	0.112
-196.275	-170.639	-0.034	0.001
-195.260	-200.000	-0.025	0.141
-194.246	-29.415	0.111	-0.063
-193.231	800.000	0.059	-0.251
-192.217	800.000	-0.130	0.361
-191.202	800.000	-0.056	-0.175
-190.187	800.000	0.062	-0.200
-189.173	800.000	0.026	0.111
-188.158	105.485	0.258	-0.302
-187.144	628.573	-0.034	-0.084
-186.129	-200.000	0.013	-0.076
-185.114	-31.593	0.203	0.113
-184.100	122.633	-0.208	-0.258
-183.085	-200.000	0.001	0.439
-182.071	10.898	0.218	-0.165
-181.056	199.339	0.099	-0.150
-180.042	800.000	0.160	0.475
-179.027	-200.000	0.010	0.054
-178.012	-200.000	-0.019	-0.279
-176.998	-105.706	0.225	0.050
-175.983	-134.730	-0.317	0.038
-174.969	-35.318	0.214	0.115
-173.954	157.489	-0.192	-0.263
-172.939	0.580	-0.332	0.235
-171.925	-40.772	0.248	-0.127
-170.910	173.948	0.246	-0.352
-169.896	37.040	0.039	-0.034
-168.881	-200.000	-0.002	0.099
-167.866	47.792	-0.096	0.088
-166.852	131.346	-0.065	0.083
-165.837	-200.000	0.059	-0.266
-164.823	-200.000	0.001	-0.031
-163.808	-200.000	-0.013	0.141
-162.793	180.823	0.159	0.232
-161.779	-105.027	-0.230	0.052
-160.764	642.409	0.023	0.057
-159.750	357.132	-0.060	-0.118
-158.735	720.884	-0.058	0.153
-157.720	-125.897	0.250	0.037
-156.706	-100.487	-0.376	-0.092
-155.691	-67.796	0.438	0.169
-154.677	-79.913	-0.113	-0.038
-153.662	30.974	-0.186	0.158
-152.647	-40.356	-0.207	-0.106
-151.633	-200.000	-0.036	0.232
-150.618	66.839	0.297	0.299
-149.604	19.161	-0.058	-0.046
-148.589	-0.280	-0.217	0.152
-147.574	149.168	-0.208	-0.278
-146.560	637.662	-0.109	0.274
-145.545	-32.738	-0.296	-0.163
-144.531	-200.000	0.060	0.285
-143.516	800.000	0.107	0.363
-142.502	-106.806	0.117	0.026
-141.487	-200.000	0.018	-0.134
-140.472	-79.688	0.267	-0.089
-139.458	721.394	0.108	0.285
-138.443	-200.000	0.007	0.042
-137.429	1.949	0.149	0.106
-136.414	583.822	0.109	0.263
-135.399	-20.595	0.088	0.053
-134.385	-93.668	0.023	-0.006
-133.370	526.682	-0.091	0.211
-132.356	589.924	0.097	0.236
-131.341	602.707	-0.093	0.229
-130.326	-84.972	-0.224	0.069
-129.312	527.544	-0.066	-0.153
-128.297	-0.069	-0.123	0.087
-127.283	-138.856	0.311	0.033
-126.268	-200.000	-0.016	0.120
-125.253	8.939	0.435	0.324
-124.239	800.000	-0.049	0.206
-123.224	225.117	0.139	0.223
-122.210	-41.604	0.190	0.096
-121.195	-122.993	0.194	0.031
