DTS Sentinel unit serial number:	SN413079Multiplexer serial number:	ORYXHardware model number:	OX4-SRSoftware version number:	ORYX F/W v4.00 Oryx Data Collector v3.7.2.0data status	okinstallation	princeton_trtdifferential loss correction	single-endedforward channel	channel 1reverse channel	N/Adate	2019/09/12time	03:24:11forward acquisition time	60.00reverse acquisition time	0.00gamma	496.2192k internal	0.2322k external	0.2322temperature offset calibration	1.0080default loss term (dB/km)	0.3790temperature slope calibration	1.0000multiplexer offset coefficient	1.0000multiplexer slope coefficient	1.0000fibre end	0.00T internal ref (°C)	32.19T ext. ref 1 (°C)	2.15T ext. ref 2 (°C)	26.86length (m)	temperature (°C)	Stokes	anti-Stokes-747.200	800.000	0.018	0.060
-746.185	-1.752	-0.132	0.094
-745.171	-83.226	0.263	0.086
-744.156	23.224	-0.130	-0.108
-743.142	22.722	-0.159	0.131
-742.127	293.213	-0.157	0.290
-741.112	-123.122	0.231	0.037
-740.098	285.519	-0.157	0.285
-739.083	-200.000	0.009	0.045
-738.069	104.196	-0.236	0.280
-737.054	800.000	0.078	0.319
-736.039	-200.000	-0.010	0.097
-735.025	-120.436	-0.265	0.046
-734.010	3.536	-0.181	0.133
-732.996	-200.000	0.066	-0.374
-731.981	-200.000	0.003	-0.353
-730.966	-200.000	0.006	-0.261
-729.952	204.052	0.095	0.149
-728.937	283.383	-0.102	-0.185
-727.923	800.000	-0.055	-0.241
-726.908	-176.751	0.148	0.004
-725.894	-171.445	-0.171	0.006
-724.879	309.538	-0.138	-0.261
-723.864	1.202	0.086	0.062
-722.850	48.731	0.128	-0.121
-721.835	17.937	-0.354	-0.285
-720.821	-38.724	-0.372	-0.198
-719.806	27.269	0.118	-0.100
-718.791	-105.463	0.293	-0.067
-717.777	102.570	-0.302	-0.357
-716.762	-115.245	-0.097	0.019
-715.748	357.822	0.008	-0.017
-714.733	-200.000	0.234	-0.001
-713.718	-200.000	0.029	-0.149
-712.704	82.675	-0.072	0.079
-711.689	307.564	-0.149	-0.281
-710.675	110.431	0.273	-0.331
-709.660	10.284	-0.019	-0.015
-708.645	393.535	-0.125	-0.263
-707.631	-183.387	-0.164	-0.003
-706.616	-103.872	-0.214	0.050
-705.602	52.454	0.236	-0.228
-704.587	-66.860	-0.310	-0.124
-703.572	144.116	0.055	-0.075
-702.558	86.881	0.115	-0.128
-701.543	-135.174	-0.073	-0.009
-700.529	-32.432	-0.454	0.256
-699.514	5.538	-0.042	-0.031
-698.499	-27.447	0.235	0.138
-697.485	-97.213	-0.186	-0.049
-696.470	-52.679	0.106	-0.049
-695.456	734.821	-0.092	-0.248
-694.441	-116.754	0.055	0.010
-693.426	-200.000	0.010	0.065
-692.412	-96.414	-0.350	0.093
-691.397	279.532	-0.072	-0.130
-690.383	-179.896	-0.197	0.004
-689.368	233.080	0.145	0.241
-688.354	-121.480	-0.027	-0.005
-687.339	177.721	-0.144	0.211
-686.324	313.475	0.097	-0.183
-685.310	-51.317	-0.233	-0.110
-684.295	-100.667	0.479	-0.119
-683.281	-144.492	-0.168	-0.016
-682.266	-200.000	0.010	0.106
-681.251	-16.150	-0.092	0.059
-680.237	-44.603	-0.193	0.097
-679.222	-128.099	0.441	0.064
-678.208	226.947	-0.187	-0.307
-677.193	-76.375	-0.152	-0.054
-676.178	-139.334	0.285	0.031
-675.164	-68.543	-0.274	0.107
-674.149	-132.989	-0.015	0.002
-673.135	-200.000	-0.014	-0.075
-672.120	713.237	0.064	0.171
-671.105	-87.329	0.193	-0.059
-670.091	100.240	0.153	0.179
-669.076	105.049	-0.171	-0.203
-668.062	-19.694	0.223	-0.139
-667.047	47.115	-0.264	-0.248
-666.032	-200.000	0.025	0.343
-665.018	800.000	-0.002	0.008
-664.003	509.958	-0.180	-0.423
-662.989	-200.000	0.043	-0.264
-661.974	-88.528	0.138	-0.041
-660.959	-162.316	0.126	0.006
-659.945	77.743	-0.146	-0.156
-658.930	-200.000	0.004	-0.191
-657.916	-50.957	-0.072	-0.034
-656.901	800.000	0.099	-0.429
-655.886	-36.738	-0.121	0.065
-654.872	6.570	-0.262	-0.196
-653.857	-200.000	-0.033	-0.218
-652.843	98.784	-0.109	0.127
-651.828	-102.326	0.192	-0.046
-650.814	-200.000	0.058	-0.335
-649.799	-200.000	-0.005	0.200
-648.784	-75.390	-0.110	0.039
-647.770	3.692	0.144	-0.106
-646.755	-63.814	-0.235	0.097
-645.741	213.914	0.042	0.067
-644.726	-143.889	-0.204	-0.019
-643.711	183.156	0.079	-0.118
-642.697	-71.703	-0.208	-0.078
-641.682	-53.371	-0.299	-0.138
-640.668	436.102	-0.027	0.058
-639.653	800.000	-0.053	0.184
-638.638	406.292	-0.099	-0.211
-637.624	68.721	-0.131	0.135
-636.609	800.000	-0.070	-0.267
-635.595	191.131	-0.051	0.076
-634.580	-184.297	-0.257	0.004
-633.565	800.000	0.065	-0.278
-632.551	-21.216	0.143	-0.088
-631.536	-200.000	-0.015	0.107
-630.522	-32.638	0.036	-0.020
-629.507	-3.753	-0.095	0.066
-628.492	-136.515	0.333	-0.039
-627.478	-200.000	0.017	0.276
-626.463	-100.635	-0.114	-0.028
-625.449	-101.280	-0.090	-0.022
-624.434	31.655	-0.088	-0.077
-623.419	160.131	0.118	-0.166
-622.405	407.320	0.067	-0.143
-621.390	-72.906	0.148	-0.055
-620.376	115.702	0.225	0.277
-619.361	-200.000	-0.014	-0.138
-618.346	800.000	0.033	-0.146
-617.332	31.969	0.157	-0.136
-616.317	-200.000	0.002	-0.095
-615.303	800.000	0.011	-0.037
-614.288	53.685	-0.261	-0.252
-613.273	-200.000	-0.028	0.140
-612.259	400.489	-0.062	0.131
-611.244	361.571	0.054	0.109
-610.230	439.466	0.139	-0.306
-609.215	120.671	-0.225	0.281
-608.201	256.264	0.092	-0.159
-607.186	-47.756	-0.048	-0.023
-606.171	8.009	-0.329	-0.248
-605.157	398.913	-0.114	0.239
-604.142	206.477	0.138	-0.215
-603.128	-64.490	-0.316	-0.129
-602.113	-73.961	-0.330	0.120
-601.098	632.052	-0.101	0.257
-600.084	-92.854	0.229	-0.064
-599.069	-200.000	-0.063	-0.544
-598.055	-200.000	-0.076	-0.363
-597.040	80.866	-0.187	-0.203
-596.025	572.069	0.105	0.258
-595.011	-137.930	0.188	0.021
-593.996	97.050	0.096	-0.110
-592.982	800.000	-0.070	0.280
-591.967	56.983	0.103	0.101
-590.952	587.749	-0.080	-0.197
-589.938	800.000	0.006	-0.020
-588.923	800.000	0.104	0.290
-587.909	690.848	-0.065	-0.172
-586.894	-129.978	0.291	-0.040
-585.879	17.716	0.457	0.365
-584.865	-59.867	-0.362	-0.155
-583.850	-10.669	0.410	-0.273
-582.836	-200.000	-0.163	0.000
-581.821	14.143	-0.072	0.057
-580.806	-83.629	0.253	0.081
-579.792	-77.899	-0.168	-0.058
-578.777	766.234	-0.130	-0.355
-577.763	-15.693	0.256	-0.164
-576.748	167.649	0.127	-0.182
-575.733	48.254	-0.252	-0.237
-574.719	800.000	-0.074	0.235
-573.704	-67.017	0.169	0.067
-572.690	-200.000	0.013	-0.279
-571.675	60.901	-0.069	0.069
-570.661	-9.095	0.153	-0.103
-569.646	235.502	0.046	0.077
-568.631	18.587	-0.137	0.110
-567.617	27.513	-0.163	-0.138
-566.602	19.306	0.207	-0.167
-565.588	245.782	0.047	-0.079
-564.573	59.730	-0.129	-0.128
-563.558	-119.446	-0.331	-0.058
-562.544	-111.031	0.148	-0.031
-561.529	-152.175	0.352	-0.026
-560.515	-2.923	-0.224	0.157
-559.500	673.794	-0.051	-0.132
-558.485	800.000	-0.052	0.171
-557.471	15.363	-0.089	0.070
-556.456	-91.053	-0.203	-0.059
-555.442	18.438	0.056	-0.045
-554.427	-138.587	0.253	-0.028
-553.412	-1.020	-0.085	-0.060
-552.398	-190.770	-0.116	-0.001
-551.383	215.304	-0.177	-0.281
-550.369	254.989	-0.063	0.108
-549.354	-200.000	-0.014	0.220
-548.339	38.378	-0.274	-0.245
-547.325	-200.000	0.005	0.055
-546.310	258.597	-0.230	-0.397
-545.296	727.162	0.101	-0.270
-544.281	-27.262	0.063	-0.037
-543.266	800.000	-0.065	-0.222
-542.252	-200.000	-0.038	-0.307
-541.237	-200.000	0.032	-0.147
-540.223	198.984	0.097	0.149
-539.208	93.501	0.145	0.164
-538.193	-200.000	-0.001	0.263
-537.179	-102.459	0.210	-0.050
-536.164	-200.000	0.027	-0.357
-535.150	31.074	-0.095	-0.082
-534.135	-67.324	-0.182	0.072
-533.121	-72.568	0.265	-0.098
-532.106	-123.655	-0.234	-0.037
-531.091	-200.000	-0.045	0.395
-530.077	261.018	0.101	0.176
-529.062	315.032	-0.029	-0.055
-528.048	-94.520	0.329	-0.090
-527.033	-75.719	0.176	-0.062
-526.018	-179.858	-0.064	-0.001
-525.004	-75.883	-0.061	0.021
-523.989	-200.000	-0.011	0.058
-522.975	49.504	-0.003	0.003
-521.960	60.903	-0.193	0.192
-520.945	62.145	-0.058	-0.058
-519.931	-72.781	-0.217	0.080
-518.916	-77.920	0.129	0.045
-517.902	800.000	-0.110	-0.309
-516.887	-173.169	0.210	-0.006
-515.872	-152.808	-0.333	-0.024
-514.858	-106.419	0.147	0.033
-513.843	282.026	-0.046	-0.083
-512.829	-200.000	-0.001	0.178
-511.814	16.650	-0.069	0.055
-510.799	665.647	-0.098	-0.253
-509.785	-33.234	0.205	-0.114
-508.770	-114.177	0.341	-0.066
-507.756	-200.000	0.048	-0.279
-506.741	676.897	0.097	0.252
-505.726	210.749	0.166	0.261
-504.712	-200.000	0.022	-0.102
-503.697	800.000	0.041	0.115
-502.683	2.764	-0.097	-0.071
-501.668	-8.993	0.182	-0.122
-500.653	-200.000	0.012	0.253
-499.639	800.000	-0.076	0.243
-498.624	30.787	-0.135	-0.116
-497.610	-5.167	-0.154	-0.106
-496.595	-200.000	-0.313	-0.001
-495.581	351.011	-0.071	-0.140
-494.566	92.470	-0.106	-0.120
-493.551	51.787	0.156	0.149
-492.537	-29.339	-0.125	-0.071
-491.522	208.272	-0.045	-0.071
-490.508	104.138	0.105	0.123
-489.493	-200.000	0.060	0.331
-488.478	-123.063	-0.164	0.026
-487.464	30.258	0.100	0.086
-486.449	46.351	0.180	-0.167
-485.435	17.690	-0.121	0.096
-484.420	-200.000	0.016	-0.228
-483.405	-200.000	0.010	-0.181
-482.391	237.871	0.064	-0.107
-481.376	140.167	-0.266	-0.351
-480.362	-57.586	-0.052	0.023
-479.347	-200.000	0.001	-0.064
-478.332	-200.000	0.034	-0.438
-477.318	18.863	0.133	0.107
-476.303	-200.000	-0.038	-0.296
-475.289	-200.000	0.064	0.432
-474.274	-200.000	0.002	0.229
-473.259	-33.141	-0.300	0.166
-472.245	6.468	0.134	-0.099
-471.230	274.323	-0.140	-0.248
-470.216	727.013	-0.053	0.141
-469.201	800.000	-0.012	0.039
-468.186	800.000	0.057	0.206
-467.172	9.480	0.097	0.074
-466.157	232.542	-0.129	0.212
-465.143	285.882	0.119	-0.214
-464.128	-46.456	0.131	-0.064
-463.113	-116.416	-0.249	0.046
-462.099	800.000	-0.045	0.173
-461.084	-107.537	-0.154	0.034
-460.070	-200.000	-0.037	-0.215
-459.055	29.610	-0.079	0.067
-458.040	-200.000	-0.367	0.002
-457.026	-29.034	0.298	0.171
-456.011	-167.037	-0.243	0.010
-454.997	79.798	-0.046	0.050
-453.982	22.561	0.011	-0.009
-452.968	43.858	0.358	0.328
-451.953	-24.499	-0.125	-0.074
-450.938	-61.015	0.278	-0.117
-449.924	-200.000	-0.001	-0.008
-448.909	211.092	0.323	-0.508
-447.895	-17.432	-0.127	-0.080
-446.880	181.971	0.050	-0.073
-445.865	347.920	0.135	0.266
-444.851	-132.800	-0.047	0.006
-443.836	-33.902	-0.174	0.095
-442.822	345.185	0.143	0.280
-441.807	120.388	0.032	0.040
-440.792	-100.709	0.227	0.056
-439.778	42.232	0.233	-0.212
-438.763	-200.000	0.019	0.172
-437.749	416.758	0.157	0.334
-436.734	197.368	-0.068	-0.104
-435.719	439.650	-0.130	0.284
-434.705	117.006	-0.144	0.177
-433.690	-200.000	0.014	-0.118
-432.676	800.000	-0.102	0.319
-431.661	-66.763	0.525	-0.208
-430.646	-105.277	0.127	-0.029
-429.632	800.000	-0.150	0.497
-428.617	800.000	0.061	-0.225
-427.603	254.134	-0.056	0.095
-426.588	-116.901	-0.235	0.043
-425.573	15.852	-0.267	-0.209
-424.559	-108.056	0.120	-0.026
-423.544	-114.730	-0.051	-0.010
-422.530	189.129	0.131	0.196
-421.515	137.099	-0.146	0.190
-420.500	96.813	0.268	0.307
-419.486	51.484	0.304	0.288
-418.471	-32.493	-0.213	-0.118
-417.457	211.077	-0.262	0.411
-416.442	-29.836	0.366	-0.208
-415.428	-81.167	0.125	0.041
-414.413	-200.000	0.001	-0.013
-413.398	205.322	0.134	-0.208
-412.384	497.802	0.120	-0.275
-411.369	-10.661	0.142	-0.094
-410.355	-103.918	0.176	0.041
-409.340	23.493	0.185	0.152
-408.325	42.985	-0.160	-0.145
-407.311	-200.000	-0.031	0.176
-406.296	46.035	0.178	0.165
-405.282	800.000	-0.023	-0.072
-404.267	-10.894	-0.128	-0.084
-403.252	201.625	0.103	-0.158
-402.238	146.660	0.156	-0.209
-401.223	148.885	-0.130	-0.175
-400.209	-95.107	0.571	-0.154
-399.194	-21.166	0.256	0.156
-398.179	-200.000	-0.022	-0.148
-397.165	-121.675	-0.342	0.056
-396.150	-200.000	-0.002	-0.088
-395.136	-200.000	0.085	-0.398
-394.121	214.160	-0.113	-0.178
-393.106	58.969	0.283	-0.278
-392.092	304.260	0.179	-0.330
-391.077	800.000	-0.110	-0.310
-390.063	-82.142	0.137	0.044
-389.048	-120.842	-0.299	-0.050
-388.033	-107.544	-0.219	-0.048
-387.019	463.328	0.114	0.254
-386.004	686.382	-0.094	0.246
-384.990	-200.000	0.022	0.160
-383.975	-200.000	-0.018	0.091
-382.960	-113.430	0.219	-0.043
-381.946	-122.626	0.116	-0.019
-380.931	-200.000	-0.008	0.194
-379.917	127.073	-0.246	-0.311
-378.902	-200.000	-0.056	-0.265
-377.888	319.884	-0.099	0.187
-376.873	-11.585	0.204	0.133
-375.858	63.807	0.131	0.131
-374.844	-11.075	-0.391	0.257
-373.829	203.508	-0.186	-0.286
-372.815	-106.658	-0.077	-0.017
-371.800	89.394	-0.177	-0.197
-370.785	800.000	0.043	-0.181
-369.771	-200.000	0.052	0.330
-368.756	800.000	-0.026	0.077
-367.742	-4.122	0.034	0.024
-366.727	-153.188	-0.220	-0.015
-365.712	134.014	-0.179	-0.231
-364.698	-200.000	0.007	0.160
-363.683	14.948	0.198	0.154
-362.669	89.596	-0.042	0.046
-361.654	-50.290	-0.148	0.070
-360.639	-107.507	0.253	0.055
-359.625	-200.000	0.013	0.316
-358.610	-200.000	0.034	0.336
-357.596	-72.604	-0.257	-0.094
-356.581	-26.136	-0.014	0.008
-355.566	-128.731	-0.250	0.035
-354.552	-200.000	-0.005	0.087
-353.537	-126.603	0.223	-0.033
-352.523	-10.235	0.265	0.175
-351.508	-200.000	-0.005	-0.123
-350.493	234.323	0.100	0.164
-349.479	800.000	-0.036	-0.140
-348.464	334.135	0.040	0.076
-347.450	800.000	-0.118	-0.363
-346.435	-200.000	-0.038	-0.204
-345.420	-87.177	-0.377	-0.114
-344.406	97.050	-0.124	0.142
-343.391	-200.000	0.019	0.126
-342.377	207.356	-0.163	0.252
-341.362	220.807	-0.029	-0.046
-340.348	-41.079	-0.194	0.100
-339.333	29.174	0.389	-0.328
-338.318	-22.426	-0.154	0.093
-337.304	-12.050	0.295	-0.192
-336.289	128.107	0.123	0.156
-335.275	-54.380	0.170	-0.077
-334.260	800.000	-0.038	0.112
-333.245	147.423	-0.235	-0.314
-332.231	-200.000	-0.016	-0.113
-331.216	-125.529	-0.200	0.030
-330.202	721.697	0.116	-0.307
-329.187	-158.105	-0.149	0.009
-328.172	21.883	-0.271	0.220
-327.158	-106.246	0.208	-0.046
-326.143	95.451	-0.068	-0.077
-325.129	-60.653	-0.254	0.107
-324.114	158.020	0.283	0.390
-323.099	426.561	0.129	-0.277
-322.085	-47.436	-0.099	0.048
-321.070	-58.049	0.132	-0.057
-320.056	-200.000	0.073	-0.331
-319.041	79.902	0.053	-0.057
-318.026	-143.571	0.076	-0.007
-317.012	-105.571	0.294	0.066
-315.997	800.000	-0.042	0.156
-314.983	-200.000	0.027	0.124
-313.968	800.000	-0.144	-0.404
-312.953	-19.242	-0.114	-0.070
-311.939	-106.875	0.046	0.010
-310.924	117.994	0.273	-0.335
-309.910	103.607	-0.236	0.275
-308.895	-88.833	0.195	0.058
-307.880	59.312	-0.332	-0.325
-306.866	-200.000	-0.015	0.127
-305.851	800.000	0.036	0.114
-304.837	160.749	0.138	-0.191
-303.822	-20.407	-0.425	0.260
-302.807	800.000	0.016	0.045
-301.793	69.158	-0.225	0.230
-300.778	68.338	0.351	-0.357
-299.764	-200.000	0.009	-0.165
-298.749	-200.000	0.057	0.249
-297.735	467.875	-0.079	-0.176
-296.720	-39.355	0.276	-0.144
-295.705	-29.804	-0.089	0.051
-294.691	-200.000	-0.015	0.259
-293.676	455.130	-0.081	-0.177
-292.662	-166.118	-0.036	-0.002
-291.647	-130.566	0.105	-0.014
-290.632	-7.895	0.201	0.135
-289.618	-34.880	0.275	-0.149
-288.603	27.580	0.037	-0.031
-287.589	68.962	-0.300	-0.306
-286.574	531.245	-0.068	0.161
-285.559	-91.904	0.103	0.029
-284.545	184.639	-0.138	-0.203
-283.530	-200.000	0.043	0.289
-282.516	25.277	0.106	0.087
-281.501	-200.000	0.004	-0.236
-280.486	444.779	-0.127	0.278
-279.472	800.000	0.058	0.182
-278.457	81.586	-0.246	-0.264
-277.443	-200.000	0.027	-0.199
-276.428	-200.000	-0.030	0.156
-275.413	-110.966	-0.245	-0.050
-274.399	-96.717	0.211	0.055
-273.384	766.730	-0.214	0.577
-272.370	87.931	-0.336	0.370
-271.355	-200.000	-0.030	0.164
-270.340	184.742	-0.088	-0.130
-269.326	203.695	0.118	0.180
-268.311	-3.883	0.154	0.106
-267.297	523.283	-0.035	0.082
-266.282	800.000	0.078	-0.216
-265.267	-125.980	-0.205	-0.031
-264.253	-74.160	-0.229	-0.082
-263.238	42.251	-0.083	0.074
-262.224	85.488	0.036	-0.039
-261.209	800.000	-0.012	0.038
-260.195	-200.000	-0.005	-0.045
-259.180	-134.646	0.189	0.023
-258.165	236.902	0.155	0.254
-257.151	800.000	-0.036	-0.154
-256.136	-159.564	-0.153	0.008
-255.122	191.655	0.029	0.043
-254.107	-65.865	0.194	-0.077
-253.092	-100.524	-0.054	0.013
-252.078	800.000	-0.042	0.180
-251.063	800.000	-0.115	0.337
-250.049	56.186	0.034	-0.033
-249.034	726.465	0.053	0.141
-248.019	-77.043	-0.351	0.121
-247.005	-173.537	0.287	0.009
-245.990	798.608	-0.100	0.274
-244.976	2.184	0.025	0.018
-243.961	100.178	-0.176	0.202
-242.946	244.328	-0.214	-0.357
-241.932	-38.092	0.310	0.163
-240.917	181.569	-0.082	0.120
-239.903	800.000	-0.090	0.267
-238.888	318.003	0.145	-0.272
-237.873	-4.011	-0.027	-0.019
-236.859	597.268	0.112	0.275
-235.844	800.000	-0.076	0.241
-234.830	-3.503	-0.289	0.199
-233.815	128.994	-0.139	-0.176
-232.800	-37.270	-0.191	0.101
-231.786	-87.763	0.193	0.058
-230.771	-43.868	-0.280	0.140
-229.757	170.407	-0.203	0.288
-228.742	307.090	-0.155	0.286
-227.727	-126.431	0.120	0.018
-226.713	708.372	-0.009	0.023
-225.698	-49.231	0.032	0.015
-224.684	-179.878	0.331	-0.007
-223.669	-200.000	0.076	0.433
-222.655	-200.000	-0.044	-0.308
-221.640	-200.000	-0.015	0.369
-220.625	-102.884	0.417	0.098
-219.611	-129.355	-0.230	0.032
-218.596	-29.058	-0.179	-0.102
-217.582	429.931	0.122	-0.262
-216.567	58.728	0.204	-0.198
-215.552	90.729	-0.109	0.121
-214.538	-127.827	-0.108	0.015
-213.523	-118.093	0.234	-0.041
-212.509	347.397	0.117	-0.228
-211.494	-84.172	0.160	-0.050
-210.479	-122.125	0.307	-0.050
-209.465	-153.277	0.231	-0.016
-208.450	800.000	0.068	0.278
-207.436	800.000	-0.055	0.215
-206.421	-10.670	-0.104	-0.068
-205.406	-56.902	0.275	-0.120
-204.392	103.396	0.024	0.028
-203.377	800.000	0.023	0.075
-202.363	-130.533	0.325	0.043
-201.348	-17.508	-0.317	0.197
-200.333	412.600	0.096	-0.201
-199.319	-107.645	-0.049	0.010
-198.304	113.571	0.081	-0.098
-197.290	-59.400	-0.077	0.033
-196.275	800.000	-0.024	0.091
-195.260	-123.614	0.129	0.020
-194.246	-200.000	0.012	-0.301
-193.231	212.924	0.047	0.073
-192.217	800.000	-0.095	0.328
-191.202	-200.000	-0.019	0.124
-190.187	-200.000	0.068	0.293
-189.173	-200.000	0.033	-0.338
-188.158	-200.000	0.028	-0.140
-187.144	-200.000	0.051	-0.262
-186.129	72.192	-0.297	0.306
-185.114	71.764	0.160	0.164
-184.100	134.200	0.123	-0.158
-183.085	154.864	0.055	0.074
-182.071	-200.000	0.020	0.142
-181.056	-200.000	-0.011	-0.059
-180.042	366.051	0.103	-0.205
-179.027	227.654	-0.139	-0.224
-178.012	-63.875	0.169	0.068
-176.998	-15.076	-0.191	-0.121
-175.983	-38.932	0.372	-0.194
-174.969	13.889	-0.482	-0.370
-173.954	25.788	0.063	0.052
-172.939	-56.160	-0.444	0.195
-171.925	-200.000	-0.013	0.315
-170.910	-73.078	0.109	-0.039
-169.896	-200.000	0.016	0.171
-168.881	-200.000	-0.081	0.464
-167.866	-190.060	0.130	0.001
-166.852	-200.000	-0.016	-0.188
-165.837	-76.187	0.382	0.133
-164.823	681.434	-0.192	0.493
-163.808	71.606	0.171	-0.176
-162.793	-200.000	0.061	-0.333
-161.779	759.239	-0.091	0.245
-160.764	-161.495	-0.328	-0.017
-159.750	-32.528	-0.084	0.046
-158.735	-96.212	0.225	-0.059
-157.720	-104.660	-0.128	0.029
-156.706	79.593	0.186	0.197
-155.691	800.000	-0.123	-0.340
-154.677	-65.339	0.171	0.068
-153.662	76.417	0.193	-0.202
-152.647	-128.325	0.562	0.079
-151.633	291.862	-0.053	-0.095
-150.618	-146.000	0.043	-0.004
-149.604	-200.000	0.022	0.352
-148.589	71.220	0.129	0.132
-147.574	-118.940	-0.157	-0.027
-146.560	37.266	-0.130	-0.113
-145.545	-200.000	-0.007	0.066
-144.531	422.078	-0.110	-0.233
-143.516	25.527	-0.100	-0.082
-142.502	87.376	-0.194	0.211
-141.487	56.831	0.183	-0.176
-140.472	-200.000	0.018	-0.159
-139.458	-87.514	0.192	0.057
-138.443	59.810	0.159	-0.155
-137.429	82.489	-0.141	-0.151
-136.414	-200.000	0.008	0.209
-135.399	571.126	0.031	0.075
-134.385	191.844	-0.094	0.140
-133.370	-41.176	0.185	-0.094
-132.356	258.481	-0.168	-0.286
-131.341	-92.502	-0.164	0.045
-130.326	360.107	0.148	-0.292
-129.312	694.531	0.025	-0.064
-128.297	484.573	-0.040	-0.090
-127.283	74.577	-0.259	0.269
-126.268	-95.122	-0.130	-0.035
-125.253	-200.000	0.034	0.223
-124.239	124.607	0.206	0.255
-123.224	800.000	0.137	-0.388
-122.210	37.320	-0.431	-0.376
