DTS Sentinel unit serial number:	SN413079Multiplexer serial number:	ORYXHardware model number:	OX4-SRSoftware version number:	ORYX F/W v4.00 Oryx Data Collector v3.7.2.0data status	okinstallation	princeton_trtdifferential loss correction	single-endedforward channel	channel 1reverse channel	N/Adate	2019/09/11time	04:00:11forward acquisition time	60.00reverse acquisition time	0.00gamma	496.2192k internal	0.2331k external	0.2331temperature offset calibration	0.9927default loss term (dB/km)	0.3790temperature slope calibration	1.0000multiplexer offset coefficient	1.0000multiplexer slope coefficient	1.0000fibre end	0.00T internal ref (°C)	29.56T ext. ref 1 (°C)	-0.28T ext. ref 2 (°C)	23.81length (m)	temperature (°C)	Stokes	anti-Stokes-747.200	114.329	0.032	-0.039
-746.185	-112.858	0.274	0.055
-745.171	272.006	0.068	0.122
-744.156	800.000	0.094	-0.269
-743.142	-163.003	-0.152	0.007
-742.127	-106.405	-0.240	-0.054
-741.112	521.250	-0.133	-0.313
-740.098	-77.018	0.122	-0.043
-739.083	800.000	-0.053	-0.213
-738.069	800.000	0.042	0.135
-737.054	-7.494	0.172	0.117
-736.039	154.279	-0.145	0.200
-735.025	197.173	-0.189	-0.291
-734.010	-93.784	0.249	-0.069
-732.996	-200.000	0.027	-0.148
-731.981	-200.000	0.068	-0.301
-730.966	-200.000	0.021	-0.287
-729.952	-40.898	-0.112	-0.058
-728.937	-28.443	-0.244	0.141
-727.923	800.000	0.080	0.286
-726.908	-89.332	-0.209	-0.062
-725.894	800.000	0.050	-0.213
-724.879	177.604	-0.105	-0.154
-723.864	0.863	-0.139	-0.100
-722.850	-72.204	0.292	0.109
-721.835	-200.000	0.017	-0.176
-720.821	664.409	0.057	-0.148
-719.806	800.000	-0.028	-0.093
-718.791	43.945	0.197	0.182
-717.777	-200.000	0.070	-0.000
-716.762	-118.418	0.156	0.028
-715.748	732.562	-0.011	-0.031
-714.733	800.000	0.037	-0.133
-713.718	-163.817	-0.202	-0.010
-712.704	37.169	-0.180	-0.161
-711.689	-79.619	-0.314	0.107
-710.675	168.874	0.077	0.111
-709.660	233.811	0.094	-0.156
-708.645	-109.155	-0.139	-0.030
-707.631	-80.578	0.074	0.025
-706.616	800.000	0.051	-0.224
-705.602	-138.059	-0.273	0.031
-704.587	-107.987	-0.250	-0.055
-703.572	681.841	0.062	-0.161
-702.558	-120.379	0.020	-0.003
-701.543	-200.000	-0.010	-0.112
-700.529	16.526	-0.151	-0.120
-699.514	-49.169	-0.088	-0.042
-698.499	139.107	0.239	-0.316
-697.485	-200.000	-0.003	-0.292
-696.470	-66.484	-0.320	-0.128
-695.456	-61.474	0.238	0.101
-694.441	-19.997	0.046	-0.028
-693.426	-68.660	0.272	0.106
-692.412	321.415	0.180	0.345
-691.397	96.363	-0.243	0.279
-690.383	-200.000	0.002	-0.064
-689.368	103.988	-0.146	-0.172
-688.354	-13.462	-0.334	-0.217
-687.339	-60.655	0.144	-0.061
-686.324	-40.342	0.142	0.074
-685.310	114.824	-0.077	-0.094
-684.295	160.410	0.218	-0.306
-683.281	82.655	-0.082	0.089
-682.266	157.983	0.094	0.131
-681.251	-63.731	0.264	-0.109
-680.237	113.533	-0.130	-0.158
-679.222	-200.000	-0.005	-0.056
-678.208	228.895	0.057	-0.094
-677.193	59.121	0.250	-0.247
-676.178	-177.996	-0.074	0.002
-675.164	800.000	-0.051	-0.153
-674.149	649.901	0.140	-0.359
-673.135	196.240	0.215	-0.328
-672.120	-140.948	-0.207	0.021
-671.105	800.000	0.055	-0.163
-670.091	-119.944	-0.208	-0.036
-669.076	800.000	-0.099	0.336
-668.062	582.272	-0.084	-0.206
-667.047	800.000	0.057	0.220
-666.032	-200.000	0.007	-0.339
-665.018	-200.000	-0.001	-0.142
-664.003	734.422	-0.121	-0.326
-662.989	-24.910	0.198	-0.118
-661.974	-200.000	-0.009	-0.137
-660.959	-17.773	-0.120	-0.076
-659.945	-106.873	-0.055	0.012
-658.930	800.000	0.052	0.148
-657.916	-88.277	-0.283	-0.085
-656.901	-200.000	-0.034	-0.231
-655.886	-200.000	-0.025	0.129
-654.872	800.000	-0.016	0.053
-653.857	152.632	0.121	0.166
-652.843	115.557	-0.071	0.087
-651.828	-200.000	-0.004	-0.157
-650.814	160.506	-0.132	-0.184
-649.799	-154.504	-0.201	0.013
-648.784	123.806	-0.148	0.186
-647.770	-48.010	-0.078	0.038
-646.755	-33.868	-0.227	0.125
-645.741	-2.058	0.277	0.195
-644.726	800.000	-0.132	0.393
-643.711	-78.151	0.388	0.134
-642.697	280.600	0.123	0.220
-641.682	48.620	0.252	-0.236
-640.668	800.000	0.047	0.196
-639.653	-80.918	-0.166	-0.055
-638.638	110.654	-0.091	-0.109
-637.624	-56.284	-0.384	-0.171
-636.609	-97.220	-0.469	-0.123
-635.595	-148.339	0.243	0.020
-634.580	200.182	-0.016	-0.024
-633.565	-200.000	-0.080	-0.385
-632.551	800.000	-0.050	0.150
-631.536	-200.000	-0.005	-0.064
-630.522	-9.150	0.357	0.239
-629.507	-54.868	0.316	-0.143
-628.492	-148.869	-0.040	0.003
-627.478	-200.000	0.025	0.398
-626.463	-200.000	-0.058	-0.346
-625.449	-150.519	-0.721	0.055
-624.434	-93.751	0.260	0.072
-623.419	33.938	-0.132	-0.115
-622.405	141.572	0.126	0.167
-621.390	-200.000	0.011	0.069
-620.376	-200.000	0.003	-0.061
-619.361	-200.000	0.012	-0.101
-618.346	-44.829	-0.170	-0.085
-617.332	3.333	0.087	0.063
-616.317	33.416	0.417	0.363
-615.303	34.541	-0.140	0.122
-614.288	487.861	0.081	0.184
-613.273	173.664	0.062	-0.090
-612.259	800.000	-0.073	-0.228
-611.244	236.719	0.023	0.039
-610.230	-200.000	-0.000	-0.162
-609.215	-200.000	0.022	0.198
-608.201	-200.000	0.006	0.060
-607.186	-200.000	0.089	-0.432
-606.171	800.000	0.056	-0.173
-605.157	-200.000	0.021	0.314
-604.142	102.806	0.336	-0.394
-603.128	235.636	0.129	-0.213
-602.113	-153.656	0.061	-0.004
-601.098	206.365	-0.258	-0.402
-600.084	557.596	0.097	-0.234
-599.069	-200.000	0.041	0.373
-598.055	800.000	-0.124	0.346
-597.040	-15.186	-0.222	-0.142
-596.025	-200.000	-0.032	-0.383
-595.011	800.000	-0.072	-0.283
-593.996	294.348	0.093	0.169
-592.982	800.000	-0.066	-0.259
-591.967	-200.000	-0.047	0.315
-590.952	86.447	0.187	-0.206
-589.938	265.940	0.194	-0.339
-588.923	-9.193	0.192	0.129
-587.909	-96.888	-0.052	0.014
-586.894	98.097	0.124	-0.143
-585.879	33.061	-0.065	-0.057
-584.865	800.000	-0.051	-0.141
-583.850	800.000	0.046	0.175
-582.836	146.118	-0.178	0.239
-581.821	183.941	-0.082	0.122
-580.806	116.944	-0.168	0.206
-579.792	174.543	0.081	0.117
-578.777	639.818	0.059	-0.151
-577.763	800.000	-0.087	-0.295
-576.748	-200.000	0.002	-0.224
-575.733	-127.786	-0.111	0.016
-574.719	453.713	-0.041	0.092
-573.704	34.596	0.220	0.192
-572.690	22.613	0.029	0.024
-571.675	-95.633	-0.103	0.027
-570.661	74.905	-0.206	0.217
-569.646	699.254	-0.130	0.343
-568.631	134.311	0.228	-0.295
-567.617	-147.305	-0.221	-0.019
-566.602	-122.380	-0.157	0.026
-565.588	800.000	-0.088	-0.285
-564.573	90.766	0.269	-0.302
-563.558	-200.000	-0.019	-0.181
-562.544	4.484	-0.172	-0.126
-561.529	800.000	-0.096	-0.286
-560.515	38.336	-0.414	-0.369
-559.500	-17.603	0.341	0.214
-558.485	797.513	-0.045	-0.123
-557.471	102.470	-0.125	-0.146
-556.456	-143.945	0.064	0.006
-555.442	779.736	-0.042	0.115
-554.427	800.000	-0.115	0.442
-553.412	-106.667	0.264	0.059
-552.398	-111.518	-0.140	-0.029
-551.383	-94.447	0.197	-0.054
-550.369	800.000	-0.058	-0.216
-549.354	800.000	0.089	-0.257
-548.339	218.918	0.086	-0.138
-547.325	-37.083	-0.153	0.082
-546.310	8.220	-0.258	-0.194
-545.296	109.970	-0.250	0.300
-544.281	191.940	0.088	0.133
-543.266	-200.000	-0.022	-0.112
-542.252	-200.000	-0.008	-0.326
-541.237	14.250	-0.228	0.178
-540.223	-200.000	0.010	-0.055
-539.208	36.975	-0.181	-0.160
-538.193	417.208	0.134	-0.286
-537.179	574.269	0.085	-0.207
-536.164	371.801	0.041	-0.084
-535.150	800.000	-0.170	0.492
-534.135	-97.112	0.092	-0.024
-533.121	34.254	-0.197	-0.171
-532.106	-157.543	-0.283	-0.017
-531.091	226.759	-0.044	0.071
-530.077	-100.245	0.385	-0.095
-529.062	76.293	0.105	0.111
-528.048	24.587	-0.194	-0.160
-527.033	235.817	-0.135	-0.223
-526.018	800.000	0.080	-0.291
-525.004	216.260	-0.132	-0.209
-523.989	245.889	0.058	-0.098
-522.975	-112.424	-0.194	0.039
-521.960	774.957	-0.058	0.158
-520.945	800.000	0.087	-0.294
-519.931	-200.000	-0.012	-0.166
-518.916	-41.520	0.276	-0.142
-517.902	-33.696	-0.142	-0.078
-516.887	103.407	-0.173	0.202
-515.872	800.000	0.066	0.265
-514.858	-200.000	-0.019	0.111
-513.843	-56.126	0.247	-0.110
-512.829	-123.115	0.150	-0.024
-511.814	250.852	-0.168	0.285
-510.799	800.000	0.031	-0.107
-509.785	-193.995	-0.236	-0.002
-508.770	-34.529	-0.043	0.024
-507.756	742.301	0.070	-0.188
-506.741	-79.679	-0.190	0.064
-505.726	370.767	-0.235	0.475
-504.712	-94.943	-0.087	0.024
-503.697	9.621	-0.397	0.300
-502.683	800.000	-0.071	0.235
-501.668	-45.324	0.109	0.054
-500.653	477.826	0.057	-0.129
-499.639	-200.000	0.002	-0.327
-498.624	-147.093	0.089	0.008
-497.610	-50.547	0.345	-0.162
-496.595	-21.316	0.242	0.147
-495.581	-104.658	0.044	0.010
-494.566	-121.965	-0.098	0.016
-493.551	141.027	-0.145	0.191
-492.537	42.479	0.183	-0.166
-491.522	133.823	-0.219	0.283
-490.508	-200.000	0.085	0.414
-489.493	-75.852	0.163	0.058
-488.478	-200.000	0.012	-0.132
-487.464	-64.544	-0.183	-0.074
-486.449	149.729	0.093	-0.125
-485.435	106.353	0.070	-0.083
-484.420	-173.708	-0.409	0.012
-483.405	-41.629	-0.178	-0.091
-482.391	-102.602	0.043	0.010
-481.376	800.000	0.098	0.348
-480.362	-132.510	-0.110	-0.014
-479.347	-138.514	0.232	-0.025
-478.332	119.755	0.158	-0.194
-477.318	-95.904	0.194	0.051
-476.303	160.337	0.118	-0.164
-475.289	14.720	0.128	-0.100
-474.274	-200.000	0.022	0.312
-473.259	-92.556	0.447	0.125
-472.245	-200.000	0.015	-0.214
-471.230	-77.288	-0.026	-0.009
-470.216	-200.000	-0.030	0.212
-469.201	-28.126	0.352	0.203
-468.186	-135.298	-0.190	0.023
-467.172	378.886	-0.146	0.297
-466.157	738.521	-0.141	0.378
-465.143	-119.791	0.108	-0.019
-464.128	-84.818	-0.250	-0.078
-463.113	393.528	0.130	-0.270
-462.099	85.178	0.068	0.075
-461.084	-120.379	-0.243	-0.041
-460.070	25.148	-0.344	0.284
-459.055	668.734	-0.133	-0.343
-458.040	-34.181	-0.056	0.030
-457.026	-181.913	0.197	-0.004
-456.011	-62.681	-0.035	0.014
-454.997	-117.004	-0.234	-0.042
-453.982	-12.447	-0.287	-0.187
-452.968	284.975	0.091	0.164
-451.953	-94.384	0.184	0.050
-450.938	333.593	-0.005	0.009
-449.924	-13.288	0.298	0.193
-448.909	-164.822	-0.112	0.005
-447.895	391.927	0.067	-0.139
-446.880	14.426	-0.418	-0.325
-445.865	-82.185	0.218	-0.071
-444.851	-200.000	0.015	-0.117
-443.836	-47.174	0.227	-0.110
-442.822	800.000	0.044	0.128
-441.807	-7.226	-0.078	-0.052
-440.792	-29.330	-0.220	0.125
-439.778	-71.681	-0.183	0.068
-438.763	-21.065	0.139	-0.085
-437.749	-22.301	-0.052	-0.031
-436.734	185.103	0.205	0.302
-435.719	-57.835	-0.102	-0.044
-434.705	201.580	-0.018	0.027
-433.690	140.833	0.064	-0.084
-432.676	800.000	-0.056	-0.187
-431.661	-135.053	0.308	0.037
-430.646	160.833	-0.072	-0.101
-429.632	-108.079	0.355	-0.077
-428.617	2.287	-0.294	-0.212
-427.603	50.678	-0.171	0.161
-426.588	712.214	-0.027	0.071
-425.573	-127.986	-0.120	0.017
-424.559	24.975	0.127	0.105
-423.544	-63.703	-0.480	0.196
-422.530	-160.467	0.156	0.008
-421.515	279.309	0.130	-0.230
-420.500	45.786	0.058	0.053
-419.486	223.371	-0.206	-0.331
-418.471	193.658	0.084	0.127
-417.457	79.056	-0.082	-0.087
-416.442	-73.424	0.099	-0.036
-415.428	-144.945	-0.376	-0.034
-414.413	56.315	0.174	0.168
-413.398	-71.510	0.347	0.129
-412.384	12.612	0.187	-0.143
-411.369	75.036	0.055	0.058
-410.355	-5.906	-0.155	-0.105
-409.340	64.038	0.225	-0.225
-408.325	47.924	-0.171	0.159
-407.311	-200.000	0.008	0.056
-406.296	81.055	-0.102	-0.109
-405.282	153.187	0.143	-0.194
-404.267	-56.099	-0.121	0.054
-403.252	326.218	0.054	-0.102
-402.238	301.224	0.084	-0.154
-401.223	-200.000	0.015	-0.170
-400.209	108.243	-0.177	0.210
-399.194	-173.184	0.333	-0.010
-398.179	-12.519	0.183	0.119
-397.165	-47.448	0.121	-0.058
-396.150	-200.000	-0.036	0.405
-395.136	24.180	0.073	0.060
-394.121	0.874	0.084	-0.060
-393.106	-64.234	0.140	0.057
-392.092	7.928	0.344	-0.256
-391.077	-200.000	-0.020	0.198
-390.063	752.429	-0.130	-0.349
-389.048	800.000	0.093	-0.307
-388.033	-167.166	-0.218	-0.009
-387.019	-15.850	-0.147	-0.093
-386.004	392.182	0.007	0.015
-384.990	-12.589	0.298	0.193
-383.975	-135.991	0.406	-0.047
-382.960	299.067	-0.097	-0.177
-381.946	-200.000	0.015	0.267
-380.931	800.000	0.042	-0.179
-379.917	800.000	-0.068	0.279
-378.902	800.000	-0.060	0.234
-377.888	-67.316	0.089	0.035
-376.873	67.470	-0.352	-0.357
-375.858	-80.100	0.256	-0.085
-374.844	-43.536	0.224	0.112
-373.829	72.230	0.079	-0.082
-372.815	-15.598	-0.142	0.090
-371.800	-152.519	0.124	-0.009
-370.785	-200.000	-0.043	-0.432
-369.771	-163.823	0.255	0.012
-368.756	-140.605	-0.124	0.013
-367.742	-173.672	-0.271	-0.008
-366.727	-65.225	-0.246	-0.098
-365.712	-71.751	0.014	-0.005
-364.698	-22.538	0.131	-0.079
-363.683	-30.820	0.180	-0.101
-362.669	115.197	-0.103	0.125
-361.654	800.000	0.157	0.537
-360.639	58.526	0.141	0.138
-359.625	58.282	-0.153	0.149
-358.610	800.000	-0.039	-0.133
-357.596	156.791	0.075	0.103
-356.581	444.321	-0.056	0.123
-355.566	3.185	-0.201	0.145
-354.552	255.111	0.279	-0.473
-353.537	-196.484	0.114	-0.001
-352.523	-200.000	-0.087	0.387
-351.508	-200.000	0.019	0.285
-350.493	-39.564	0.150	0.078
-349.479	-200.000	0.079	0.389
-348.464	505.285	-0.070	0.160
-347.450	-101.508	-0.217	-0.052
-346.435	-14.917	-0.170	-0.108
-345.420	487.454	-0.133	-0.302
-344.406	800.000	0.104	0.412
-343.391	247.413	0.062	0.104
-342.377	-72.222	0.092	-0.034
-341.362	800.000	0.079	0.226
-340.348	-119.504	0.075	-0.013
-339.333	-146.539	0.306	0.026
-338.318	43.959	-0.162	-0.147
-337.304	185.080	-0.176	-0.259
-336.289	33.532	-0.198	0.170
-335.275	-49.087	-0.134	0.063
-334.260	-126.432	0.303	-0.045
-333.245	-142.044	-0.365	-0.036
-332.231	-50.691	0.104	-0.048
-331.216	-156.174	0.245	0.015
-330.202	285.152	0.183	-0.326
-329.187	59.560	-0.106	0.104
-328.172	218.287	-0.145	-0.228
-327.158	-57.888	-0.334	-0.144
-326.143	88.016	-0.078	-0.086
-325.129	299.113	0.101	0.185
-324.114	800.000	0.056	-0.213
-323.099	-90.822	0.313	-0.089
-322.085	-193.061	0.204	-0.002
-321.070	-67.712	-0.300	0.116
-320.056	-145.417	-0.045	-0.004
-319.041	54.232	-0.166	0.158
-318.026	-4.173	0.162	0.111
-317.012	96.746	0.193	-0.218
-315.997	-49.988	-0.330	-0.155
-314.983	-80.598	-0.253	0.083
-313.968	-156.007	-0.317	-0.020
-312.953	1.000	-0.135	0.096
-311.939	-62.209	-0.205	0.085
-310.924	195.300	-0.038	0.057
-309.910	357.561	0.044	-0.086
-308.895	-105.003	0.361	-0.082
-307.880	800.000	-0.023	-0.091
-306.866	-75.406	-0.167	0.059
-305.851	187.693	0.056	0.083
-304.837	-200.000	-0.051	0.278
-303.822	101.265	-0.336	-0.387
-302.807	800.000	0.124	-0.497
-301.793	106.014	0.144	0.168
-300.778	-79.075	0.198	0.066
-299.764	422.387	0.234	0.498
-298.749	100.169	-0.145	0.167
-297.735	-191.262	-0.291	0.003
-296.720	-200.000	0.056	0.248
-295.705	-55.911	-0.250	-0.110
-294.691	759.128	-0.055	0.147
-293.676	800.000	-0.060	-0.164
-292.662	120.536	0.260	0.320
-291.647	15.428	0.022	-0.017
-290.632	-200.000	-0.116	-0.504
-289.618	534.607	-0.093	0.218
-288.603	706.580	-0.292	0.762
-287.589	-103.345	0.573	-0.134
-286.574	-88.454	0.196	0.058
-285.559	-200.000	-0.027	0.140
-284.545	168.147	-0.082	0.116
-283.530	-20.446	-0.269	-0.164
-282.516	-200.000	-0.030	-0.247
-281.501	-200.000	0.038	-0.271
-280.486	40.822	-0.138	0.123
-279.472	46.114	0.146	-0.133
-278.457	485.088	-0.077	-0.173
-277.443	428.474	-0.004	-0.009
-276.428	231.240	0.102	0.165
-275.413	504.803	-0.082	0.188
-274.399	-200.000	0.014	-0.101
-273.384	-3.978	0.101	0.069
-272.370	-200.000	0.061	-0.266
-271.355	-60.504	0.407	0.171
-270.340	-91.150	-0.102	0.029
-269.326	-156.914	0.334	-0.020
-268.311	416.822	0.167	0.351
-267.297	800.000	-0.136	0.449
-266.282	800.000	-0.027	-0.113
-265.267	7.494	-0.338	-0.249
-264.253	113.105	0.118	0.142
-263.238	173.206	0.213	0.303
-262.224	-71.747	-0.394	0.145
-261.209	-79.089	-0.153	0.051
-260.195	-200.000	-0.041	0.185
-259.180	318.549	-0.052	0.098
-258.165	-200.000	0.008	-0.061
-257.151	-137.888	0.183	-0.020
-256.136	800.000	-0.031	-0.125
-255.122	172.850	-0.219	0.311
-254.107	-200.000	0.009	-0.223
-253.092	800.000	-0.038	-0.132
-252.078	-70.622	0.455	0.170
-251.063	-66.538	-0.195	0.077
-250.049	396.720	0.115	-0.238
-249.034	98.795	0.047	-0.053
-248.019	-194.063	0.325	0.003
-247.005	58.843	0.142	0.138
-245.990	-176.036	-0.194	-0.005
-244.976	-16.342	-0.199	0.124
-243.961	-45.838	-0.173	-0.084
-242.946	-200.000	-0.017	0.102
-241.932	-200.000	-0.033	-0.147
-240.917	5.591	-0.123	-0.090
-239.903	-128.138	0.334	0.047
-238.888	-159.826	-0.090	0.005
-237.873	16.713	-0.203	0.159
-236.859	-178.594	0.243	-0.006
-235.844	112.778	-0.059	0.071
-234.830	471.635	-0.033	0.074
-233.815	585.559	0.021	0.051
-232.800	-40.375	0.046	-0.024
-231.786	-200.000	-0.011	0.188
-230.771	-71.539	-0.160	0.059
-229.757	-200.000	0.010	-0.404
-228.742	-154.327	-0.009	-0.001
-227.727	3.709	-0.250	-0.180
-226.713	99.727	0.022	-0.025
-225.698	-200.000	0.013	0.062
-224.684	-200.000	-0.032	0.143
-223.669	-200.000	0.089	0.581
-222.655	800.000	-0.051	-0.208
-221.640	-200.000	0.017	-0.264
-220.625	486.995	-0.074	-0.167
-219.611	357.501	-0.088	0.173
-218.596	-127.736	0.256	0.036
-217.582	8.824	0.133	-0.099
-216.567	-14.007	0.205	-0.130
-215.552	-7.923	-0.267	-0.177
-214.538	96.842	0.041	0.046
-213.523	-200.000	0.038	-0.206
-212.509	636.365	0.083	-0.208
-211.494	-42.472	-0.232	0.117
-210.479	3.253	0.181	0.130
-209.465	380.558	0.070	0.141
-208.450	335.647	-0.106	-0.202
-207.436	-102.216	0.269	0.064
-206.421	-115.296	0.146	-0.027
-205.406	225.387	0.004	0.006
-204.392	-200.000	-0.012	0.119
-203.377	-182.552	-0.147	0.003
-202.363	-200.000	0.012	-0.087
-201.348	83.619	0.041	0.044
-200.333	63.582	-0.065	0.065
-199.319	228.691	0.409	0.657
-198.304	-200.000	0.032	-0.182
-197.290	-29.469	-0.060	0.034
-196.275	-172.603	0.138	0.004
-195.260	-109.958	0.189	-0.039
-194.246	-86.205	-0.047	0.014
-193.231	800.000	0.043	0.147
-192.217	-32.368	0.154	-0.085
-191.202	-19.591	-0.222	-0.135
-190.187	324.895	0.133	-0.251
-189.173	-79.723	-0.101	0.034
-188.158	-200.000	0.022	-0.097
-187.144	296.173	0.049	0.088
-186.129	-139.326	-0.188	-0.020
-185.114	53.532	-0.169	0.159
-184.100	-118.700	-0.139	-0.024
-183.085	-200.000	0.330	0.001
-182.071	-53.128	-0.346	0.156
-181.056	487.231	-0.085	-0.192
-180.042	111.925	0.295	0.351
-179.027	-108.997	0.223	-0.047
-178.012	-200.000	0.067	-0.347
-176.998	-154.671	0.180	-0.012
-175.983	-21.414	0.115	0.069
-174.969	-56.203	-0.391	-0.171
-173.954	-33.902	0.216	0.117
-172.939	675.380	0.064	0.163
-171.925	-31.166	0.031	-0.017
-170.910	8.930	0.207	-0.154
-169.896	-134.002	-0.220	0.027
-168.881	-72.664	-0.206	0.075
-167.866	-52.742	0.265	0.120
-166.852	800.000	-0.003	-0.014
-165.837	184.675	-0.198	0.288
-164.823	800.000	-0.036	-0.128
-163.808	-200.000	0.025	0.118
-162.793	-200.000	0.005	-0.070
-161.779	800.000	-0.069	0.251
-160.764	-178.357	0.322	0.007
-159.750	-119.885	0.210	0.036
-158.735	79.784	0.152	-0.160
-157.720	-124.998	0.315	0.048
-156.706	533.563	-0.046	-0.108
-155.691	-165.890	-0.193	0.008
-154.677	743.689	-0.203	-0.538
-153.662	481.552	-0.192	-0.429
-152.647	-53.516	-0.074	0.033
-151.633	-200.000	0.003	0.136
-150.618	429.277	-0.095	0.202
-149.604	-76.180	-0.080	0.028
-148.589	-200.000	0.021	-0.231
-147.574	-39.352	-0.096	-0.050
-146.560	-87.339	0.243	0.073
-145.545	-118.302	0.123	-0.022
-144.531	-46.479	-0.312	-0.151
-143.516	-160.410	0.199	0.011
-142.502	687.696	0.051	-0.132
-141.487	130.982	-0.014	-0.018
-140.472	-12.077	0.178	0.114
-139.458	232.292	-0.201	-0.324
-138.443	76.965	0.118	-0.123
-137.429	-103.692	-0.057	0.013
-136.414	235.851	0.162	-0.262
-135.399	270.617	0.145	-0.251
-134.385	-87.930	0.178	0.053
-133.370	-26.062	0.193	0.111
-132.356	-135.051	0.084	0.010
-131.341	-200.000	-0.055	-0.297
-130.326	-64.121	0.180	0.072
-129.312	-200.000	0.028	-0.127
-128.297	-38.683	-0.151	0.079
-127.283	8.188	0.353	-0.261
-126.268	-200.000	-0.017	0.126
-125.253	-8.774	-0.265	0.175
-124.239	-200.000	0.002	-0.055
-123.224	-45.232	0.130	-0.063
-122.210	106.303	-0.155	0.180
