DTS Sentinel unit serial number:	SN413079Multiplexer serial number:	ORYXHardware model number:	OX4-SRSoftware version number:	ORYX F/W v4.00 Oryx Data Collector v3.7.2.0data status	okinstallation	princeton_trtdifferential loss correction	single-endedforward channel	channel 1reverse channel	N/Adate	2019/09/11time	04:36:11forward acquisition time	60.00reverse acquisition time	0.00gamma	496.2192k internal	0.2331k external	0.2331temperature offset calibration	0.9921default loss term (dB/km)	0.3790temperature slope calibration	1.0000multiplexer offset coefficient	1.0000multiplexer slope coefficient	1.0000fibre end	0.00T internal ref (°C)	29.56T ext. ref 1 (°C)	-0.29T ext. ref 2 (°C)	23.39length (m)	temperature (°C)	Stokes	anti-Stokes-747.200	139.286	0.063	-0.083
-746.185	-87.276	0.285	-0.087
-745.171	321.835	-0.139	0.266
-744.156	132.966	0.169	0.220
-743.142	800.000	0.046	-0.176
-742.127	161.478	-0.091	0.129
-741.112	482.995	-0.082	-0.187
-740.098	-60.682	0.276	0.118
-739.083	-179.411	-0.103	-0.002
-738.069	14.178	-0.075	0.059
-737.054	201.995	-0.153	0.238
-736.039	82.956	0.269	-0.294
-735.025	-64.860	0.020	-0.008
-734.010	253.186	-0.136	0.234
-732.996	49.719	-0.130	-0.123
-731.981	-200.000	-0.038	0.171
-730.966	800.000	-0.038	0.164
-729.952	-82.584	-0.197	-0.064
-728.937	778.023	-0.055	-0.151
-727.923	-46.385	0.589	-0.291
-726.908	-88.407	-0.035	-0.011
-725.894	-115.356	0.216	-0.041
-724.879	142.131	0.097	-0.130
-723.864	157.782	-0.244	0.340
-722.850	-35.975	-0.244	-0.133
-721.835	800.000	0.069	-0.242
-720.821	-200.000	-0.015	-0.211
-719.806	210.469	-0.081	0.128
-718.791	324.745	0.052	0.101
-717.777	-117.491	-0.308	-0.056
-716.762	-200.000	0.007	0.030
-715.748	138.775	0.236	0.312
-714.733	800.000	0.056	-0.222
-713.718	-200.000	-0.034	0.169
-712.704	443.751	-0.137	-0.302
-711.689	39.063	0.100	-0.090
-710.675	-200.000	0.030	-0.180
-709.660	367.123	-0.075	-0.153
-708.645	-200.000	0.024	-0.110
-707.631	424.069	0.075	-0.162
-706.616	275.959	-0.159	-0.283
-705.602	59.345	0.285	-0.282
-704.587	-200.000	0.037	-0.261
-703.572	-166.537	0.381	0.016
-702.558	-162.885	-0.193	0.009
-701.543	-200.000	-0.022	-0.248
-700.529	-130.467	0.304	0.041
-699.514	-200.000	0.014	-0.138
-698.499	-200.000	-0.006	0.127
-697.485	45.156	-0.108	0.100
-696.470	800.000	0.080	-0.347
-695.456	61.377	-0.210	-0.210
-694.441	800.000	-0.075	0.264
-693.426	-59.414	-0.376	0.162
-692.412	-148.968	0.160	-0.013
-691.397	-152.484	-0.106	-0.008
-690.383	800.000	0.034	-0.118
-689.368	-200.000	0.008	-0.166
-688.354	800.000	0.072	-0.201
-687.339	-149.825	-0.093	-0.007
-686.324	164.117	-0.174	-0.245
-685.310	-50.328	-0.129	-0.061
-684.295	800.000	-0.084	-0.302
-683.281	-174.049	0.416	0.012
-682.266	-120.342	0.159	0.027
-681.251	20.431	0.311	-0.252
-680.237	-151.669	-0.230	-0.017
-679.222	1.570	0.162	-0.117
-678.208	-15.986	-0.169	-0.108
-677.193	-200.000	-0.009	-0.229
-676.178	-91.377	-0.290	0.083
-675.164	364.705	0.082	0.165
-674.149	-200.000	0.045	0.217
-673.135	-189.413	-0.310	-0.004
-672.120	363.011	-0.147	-0.296
-671.105	-38.705	0.356	-0.189
-670.091	-46.710	-0.104	-0.051
-669.076	-69.880	0.293	-0.112
-668.062	304.863	-0.131	-0.244
-667.047	-200.000	-0.056	0.305
-666.032	-200.000	-0.020	0.205
-665.018	21.457	0.224	0.183
-664.003	-141.766	0.253	-0.025
-662.989	-195.652	0.111	0.001
-661.974	-23.865	-0.137	-0.082
-660.959	-200.000	0.022	-0.294
-659.945	2.168	-0.062	-0.045
-658.930	800.000	0.065	0.196
-657.916	-29.515	0.165	-0.094
-656.901	-102.997	-0.237	-0.056
-655.886	205.332	0.096	-0.150
-654.872	-3.805	0.114	-0.079
-653.857	4.761	0.215	0.159
-652.843	196.348	0.096	0.146
-651.828	-200.000	-0.041	-0.292
-650.814	800.000	0.080	-0.221
-649.799	342.937	-0.139	0.273
-648.784	800.000	0.060	-0.256
-647.770	-6.259	-0.413	-0.283
-646.755	36.319	-0.098	-0.087
-645.741	-66.865	-0.113	0.045
-644.726	108.272	-0.115	0.138
-643.711	-106.845	-0.108	0.024
-642.697	-152.243	0.394	0.029
-641.682	-146.508	-0.081	0.007
-640.668	-105.861	-0.245	-0.055
-639.653	-200.000	-0.116	-0.000
-638.638	800.000	0.098	-0.278
-637.624	800.000	0.057	-0.173
-636.609	4.517	-0.130	-0.095
-635.595	-150.604	0.156	0.012
-634.580	-20.723	-0.122	-0.075
-633.565	800.000	0.104	-0.314
-632.551	-67.180	0.351	-0.138
-631.536	-126.101	-0.344	0.052
-630.522	51.978	-0.071	0.068
-629.507	-155.383	-0.164	0.011
-628.492	-59.628	-0.029	-0.012
-627.478	16.605	0.054	-0.043
-626.463	-10.935	0.162	-0.107
-625.449	-62.503	0.310	-0.129
-624.434	10.061	-0.149	-0.114
-623.419	800.000	0.005	0.019
-622.405	-72.606	-0.454	-0.168
-621.390	800.000	0.042	0.167
-620.376	-29.233	-0.318	-0.183
-619.361	-95.808	0.134	-0.036
-618.346	339.888	0.047	0.092
-617.332	-35.440	0.169	-0.092
-616.317	-53.412	-0.197	0.090
-615.303	212.945	-0.106	0.168
-614.288	800.000	0.084	-0.339
-613.273	-166.881	-0.052	-0.002
-612.259	124.232	-0.129	-0.163
-611.244	484.665	-0.007	0.017
-610.230	-200.000	-0.020	0.109
-609.215	800.000	-0.053	0.149
-608.201	199.390	-0.170	-0.260
-607.186	72.313	0.273	-0.285
-606.171	-63.035	0.182	-0.075
-605.157	44.485	-0.311	0.286
-604.142	-49.343	0.292	0.140
-603.128	45.844	0.113	-0.105
-602.113	-59.345	-0.378	-0.163
-601.098	800.000	0.044	-0.147
-600.084	204.448	-0.149	0.231
-599.069	800.000	-0.048	0.199
-598.055	45.744	-0.091	0.084
-597.040	-144.063	0.224	0.021
-596.025	798.172	0.153	0.423
-595.011	-126.771	0.240	-0.035
-593.996	-200.000	-0.015	0.130
-592.982	680.022	-0.039	-0.101
-591.967	201.908	0.164	0.253
-590.952	0.013	-0.319	-0.227
-589.938	-70.026	0.317	0.121
-588.923	225.738	-0.305	-0.495
-587.909	-109.600	-0.476	-0.100
-586.894	275.723	0.231	-0.410
-585.879	598.515	-0.046	0.114
-584.865	74.513	0.216	0.228
-583.850	800.000	-0.113	0.435
-582.836	800.000	-0.020	-0.082
-581.821	-38.930	0.153	0.081
-580.806	72.365	0.184	0.192
-579.792	-200.000	0.018	0.148
-578.777	-71.619	-0.100	0.037
-577.763	-200.000	-0.033	0.194
-576.748	141.489	-0.061	0.081
-575.733	800.000	0.061	0.179
-574.719	-103.493	0.492	0.116
-573.704	-200.000	0.010	-0.075
-572.690	-50.978	-0.179	0.084
-571.675	167.355	-0.155	-0.220
-570.661	800.000	-0.124	-0.441
-569.646	212.190	-0.094	0.148
-568.631	78.498	0.070	-0.075
-567.617	800.000	0.078	0.312
-566.602	-200.000	-0.007	0.201
-565.588	-3.342	0.276	0.192
-564.573	-200.000	0.019	0.266
-563.558	364.173	0.034	-0.068
-562.544	-81.221	0.112	0.037
-561.529	113.890	-0.202	0.246
-560.515	474.236	-0.060	0.135
-559.500	-200.000	0.027	-0.497
-558.485	-8.401	-0.214	-0.144
-557.471	49.161	0.112	0.105
-556.456	-128.634	0.070	0.010
-555.442	-150.631	0.079	-0.006
-554.427	-200.000	-0.023	-0.179
-553.412	-59.428	-0.316	-0.136
-552.398	-200.000	-0.071	0.369
-551.383	74.506	-0.116	-0.121
-550.369	143.772	-0.258	0.344
-549.354	598.476	0.168	0.415
-548.339	28.918	-0.220	-0.186
-547.325	-3.758	0.206	0.143
-546.310	149.191	0.125	0.169
-545.296	267.911	-0.180	0.315
-544.281	800.000	0.050	-0.209
-543.266	800.000	0.116	0.363
-542.252	52.192	0.126	0.120
-541.237	800.000	-0.046	-0.131
-540.223	800.000	0.068	-0.237
-539.208	-93.420	-0.126	-0.035
-538.193	-144.667	0.254	0.023
-537.179	-109.970	0.412	0.086
-536.164	800.000	-0.112	0.412
-535.150	-200.000	0.002	0.344
-534.135	329.666	0.048	0.092
-533.121	106.548	0.190	-0.225
-532.106	115.892	-0.025	0.030
-531.091	100.481	-0.173	0.200
-530.077	98.649	-0.209	0.240
-529.062	-200.000	-0.076	0.575
-528.048	-200.000	0.016	0.474
-527.033	58.569	0.125	-0.123
-526.018	-21.720	0.185	-0.113
-525.004	800.000	-0.150	0.485
-523.989	-75.047	0.356	0.127
-522.975	293.667	-0.041	-0.075
-521.960	395.707	-0.094	0.196
-520.945	-61.676	-0.237	-0.099
-519.931	800.000	0.052	0.164
-518.916	-66.787	0.056	0.022
-517.902	-68.743	0.272	0.105
-516.887	-87.932	0.123	0.037
-515.872	-6.490	-0.134	-0.091
-514.858	673.001	-0.011	0.029
-513.843	34.997	0.099	-0.087
-512.829	800.000	0.031	0.091
-511.814	-167.999	0.314	0.012
-510.799	-9.668	-0.273	-0.182
-509.785	-200.000	-0.041	-0.201
-508.770	-200.000	-0.032	-0.244
-507.756	-94.644	-0.264	0.072
-506.741	-200.000	-0.006	-0.058
-505.726	800.000	-0.085	-0.245
-504.712	45.980	0.092	-0.085
-503.697	126.066	-0.155	0.196
-502.683	227.626	0.299	0.485
-501.668	800.000	-0.046	0.177
-500.653	-105.815	-0.047	0.011
-499.639	800.000	0.103	-0.306
-498.624	-110.351	0.041	-0.009
-497.610	-81.193	0.269	-0.089
-496.595	-134.393	-0.025	0.003
-495.581	-200.000	-0.000	-0.228
-494.566	47.129	-0.170	0.158
-493.551	186.544	-0.103	0.153
-492.537	615.459	0.053	0.133
-491.522	-90.229	0.103	-0.030
-490.508	-120.138	-0.186	-0.032
-489.493	800.000	-0.049	-0.207
-488.478	-50.356	0.571	0.269
-487.464	-200.000	-0.002	0.226
-486.449	189.574	0.034	-0.051
-485.435	77.753	-0.187	-0.199
-484.420	343.731	0.129	-0.251
-483.405	-20.419	0.154	-0.095
-482.391	-200.000	0.045	-0.316
-481.376	65.204	-0.138	-0.139
-480.362	800.000	-0.129	-0.361
-479.347	-17.974	-0.247	-0.154
-478.332	-12.341	0.209	0.136
-477.318	-128.443	0.279	-0.039
-476.303	-51.444	-0.153	-0.071
-475.289	122.394	-0.174	0.217
-474.274	48.283	-0.262	0.244
-473.259	14.606	-0.119	-0.092
-472.245	-200.000	0.021	-0.211
-471.230	-200.000	-0.016	-0.096
-470.216	16.200	0.193	-0.152
-469.201	-200.000	-0.012	0.155
-468.186	-5.424	-0.075	0.051
-467.172	313.682	0.046	0.087
-466.157	-200.000	0.005	0.092
-465.143	-58.218	0.244	0.106
-464.128	57.855	0.047	0.046
-463.113	333.540	-0.139	0.268
-462.099	-105.619	0.204	-0.046
-461.084	800.000	0.029	-0.116
-460.070	540.713	-0.117	-0.277
-459.055	-6.718	0.009	-0.006
-458.040	800.000	-0.092	-0.282
-457.026	-48.067	-0.168	-0.081
-456.011	-164.997	-0.169	-0.008
-454.997	-17.203	-0.011	-0.007
-453.982	-200.000	0.014	0.337
-452.968	-161.672	0.308	-0.016
-451.953	-183.694	0.214	-0.004
-450.938	68.601	-0.112	-0.114
-449.924	-132.742	0.263	-0.033
-448.909	359.674	0.136	-0.270
-447.895	91.023	0.171	-0.191
-446.880	210.642	-0.169	-0.264
-445.865	800.000	0.049	-0.142
-444.851	-74.606	0.060	-0.022
-443.836	451.648	-0.060	0.133
-442.822	-11.344	0.038	-0.025
-441.807	800.000	-0.038	-0.153
-440.792	225.789	-0.055	0.088
-439.778	-200.000	0.001	-0.084
-438.763	98.600	-0.140	-0.161
-437.749	256.736	-0.127	-0.217
-436.734	218.228	-0.180	0.286
-435.719	-13.319	0.143	-0.092
-434.705	-200.000	0.007	0.337
-433.690	426.505	0.088	-0.189
-432.676	-76.953	-0.048	-0.017
-431.661	631.635	0.047	-0.118
-430.646	-103.588	0.119	0.028
-429.632	-200.000	-0.002	0.215
-428.617	-21.547	0.059	0.036
-427.603	-120.248	-0.232	0.039
-426.588	221.340	-0.088	-0.140
-425.573	-138.235	-0.217	-0.024
-424.559	323.009	0.076	-0.144
-423.544	124.571	-0.094	0.117
-422.530	-46.464	0.196	0.096
-421.515	128.446	0.221	0.279
-420.500	-100.640	-0.179	0.044
-419.486	79.259	-0.189	-0.202
-418.471	-39.474	0.114	0.059
-417.457	-18.654	-0.094	0.058
-416.442	-16.505	0.111	0.070
-415.428	388.364	0.093	-0.191
-414.413	-159.612	-0.131	-0.007
-413.398	634.642	0.194	-0.489
-412.384	126.225	-0.143	-0.179
-411.369	800.000	-0.059	0.222
-410.355	-118.626	0.198	-0.035
-409.340	-73.538	-0.155	0.056
-408.325	-200.000	0.008	0.060
-407.311	89.101	-0.070	0.077
-406.296	-188.992	-0.105	-0.001
-405.282	-200.000	-0.008	0.119
-404.267	157.987	-0.126	0.173
-403.252	-200.000	0.012	0.103
-402.238	-200.000	-0.003	0.118
-401.223	383.426	0.133	0.273
-400.209	25.980	0.119	-0.099
-399.194	-200.000	-0.005	-0.333
-398.179	-175.359	-0.090	-0.002
-397.165	142.539	-0.101	-0.133
-396.150	215.069	0.173	0.272
-395.136	316.504	-0.059	0.110
-394.121	-200.000	-0.026	-0.264
-393.106	25.585	0.163	-0.135
-392.092	-115.802	-0.327	0.061
-391.077	-106.739	-0.164	-0.036
-390.063	800.000	-0.070	0.273
-389.048	-64.443	-0.123	0.050
-388.033	118.999	-0.112	-0.138
-387.019	-73.632	0.178	-0.065
-386.004	24.522	0.335	-0.275
-384.990	800.000	-0.037	-0.153
-383.975	-182.087	-0.194	-0.004
-382.960	-60.359	-0.099	-0.042
-381.946	-158.546	0.172	-0.010
-380.931	800.000	0.033	-0.125
-379.917	-28.586	-0.452	0.259
-378.902	254.294	-0.197	0.334
-377.888	-200.000	0.006	-0.171
-376.873	800.000	-0.104	-0.353
-375.858	191.228	0.114	0.171
-374.844	67.150	0.208	-0.210
-373.829	113.387	0.167	0.201
-372.815	-116.499	-0.140	0.026
-371.800	-200.000	-0.002	-0.109
-370.785	-15.743	0.129	0.082
-369.771	-143.512	0.185	0.017
-368.756	-200.000	-0.077	-0.373
-367.742	-43.873	-0.053	0.027
-366.727	-18.172	-0.110	-0.068
-365.712	137.334	-0.056	-0.073
-364.698	4.558	0.135	-0.098
-363.683	-49.655	-0.044	0.021
-362.669	324.499	0.018	-0.034
-361.654	-200.000	-0.009	-0.327
-360.639	17.717	0.049	0.038
-359.625	-6.114	0.116	0.078
-358.610	800.000	-0.064	-0.182
-357.596	-200.000	-0.012	-0.251
-356.581	126.049	-0.208	-0.261
-355.566	-121.216	-0.249	-0.041
-354.552	800.000	0.072	0.207
-353.537	800.000	-0.051	0.193
-352.523	-110.739	0.162	-0.033
-351.508	-87.301	-0.179	0.054
-350.493	303.047	0.114	0.208
-349.479	-116.799	-0.359	0.065
-348.464	125.976	-0.158	0.197
-347.450	449.643	-0.197	-0.432
-346.435	37.338	-0.157	-0.138
-345.420	184.386	0.072	0.106
-344.406	-142.011	-0.160	-0.016
-343.391	-138.938	-0.170	-0.018
-342.377	123.634	-0.033	0.041
-341.362	2.551	0.050	0.036
-340.348	-7.035	-0.071	0.048
-339.333	-54.813	-0.326	-0.146
-338.318	-81.910	0.243	0.079
-337.304	-24.854	-0.019	-0.011
-336.289	27.749	0.094	0.079
-335.275	-77.226	0.044	-0.015
-334.260	800.000	0.031	-0.125
-333.245	-15.292	-0.185	0.117
-332.231	296.428	-0.029	0.053
-331.216	-191.480	-0.217	0.002
-330.202	-200.000	0.014	-0.120
-329.187	-200.000	0.019	-0.099
-328.172	-124.029	0.092	0.014
-327.158	-77.886	0.312	-0.107
-326.143	800.000	-0.024	-0.103
-325.129	-176.233	0.277	-0.007
-324.114	-200.000	-0.011	-0.283
-323.099	-9.637	-0.289	-0.191
-322.085	-141.241	-0.217	-0.022
-321.070	-33.569	0.427	0.234
-320.056	800.000	0.021	0.084
-319.041	270.665	-0.140	0.243
-318.026	-88.104	0.212	0.063
-317.012	-200.000	-0.032	-0.262
-315.997	-200.000	0.009	0.039
-314.983	76.914	-0.101	0.107
-313.968	297.324	-0.102	0.185
-312.953	-115.905	-0.110	-0.020
-311.939	-65.880	0.228	0.090
-310.924	375.030	-0.151	0.305
-309.910	520.178	0.126	-0.292
-308.895	283.828	0.164	-0.291
-307.880	74.480	0.129	0.134
-306.866	106.729	0.126	0.148
-305.851	20.605	-0.219	-0.175
-304.837	-6.262	0.114	-0.077
-303.822	-200.000	0.012	-0.085
-302.807	-149.622	0.096	-0.007
-301.793	-200.000	0.010	0.149
-300.778	800.000	0.086	-0.289
-299.764	566.386	0.025	0.059
-298.749	336.737	-0.141	-0.272
-297.735	58.819	-0.282	0.274
-296.720	-200.000	0.224	-0.001
-295.705	47.712	-0.241	0.222
-294.691	-200.000	-0.005	-0.356
-293.676	236.465	0.214	-0.351
-292.662	-132.942	-0.152	0.019
-291.647	-200.000	-0.006	-0.136
-290.632	-34.989	0.005	-0.003
-289.618	-200.000	-0.004	-0.097
-288.603	0.567	0.101	0.071
-287.589	-13.189	0.052	-0.033
-286.574	68.157	-0.070	0.071
-285.559	-114.270	-0.306	0.058
-284.545	-17.283	0.134	0.084
-283.530	-60.546	0.307	0.129
-282.516	-77.668	0.198	-0.068
-281.501	-200.000	-0.042	-0.224
-280.486	-96.794	0.236	0.061
-279.472	-18.560	-0.093	0.057
-278.457	-152.357	-0.178	0.013
-277.443	-122.423	0.445	-0.072
-276.428	-149.632	-0.129	0.010
-275.413	7.209	-0.162	-0.119
-274.399	1.499	0.378	-0.269
-273.384	-200.000	0.010	-0.169
-272.370	-139.733	-0.288	0.030
-271.355	-200.000	-0.001	-0.134
-270.340	198.640	-0.087	-0.132
-269.326	-57.143	-0.123	-0.054
-268.311	-77.381	0.103	0.035
-267.297	56.504	-0.075	-0.072
-266.282	800.000	0.078	0.293
-265.267	272.229	0.126	0.220
-264.253	33.327	0.359	0.307
-263.238	-19.593	-0.201	-0.123
-262.224	-4.395	0.306	-0.209
-261.209	-200.000	-0.065	0.331
-260.195	191.724	0.036	-0.053
-259.180	-98.004	0.241	-0.061
-258.165	-19.177	-0.120	-0.074
-257.151	70.215	0.096	0.098
-256.136	-200.000	0.004	-0.103
-255.122	-65.400	-0.195	0.077
-254.107	191.317	0.134	0.199
-253.092	120.062	0.066	-0.081
-252.078	105.207	0.127	0.148
-251.063	-129.240	0.167	0.023
-250.049	-124.544	-0.223	0.034
-249.034	-37.313	0.462	0.244
-248.019	-40.906	0.375	-0.191
-247.005	1.798	-0.309	0.220
-245.990	36.649	0.252	0.220
-244.976	18.869	-0.096	0.076
-243.961	100.343	-0.211	-0.242
-242.946	664.852	0.122	-0.312
-241.932	-200.000	0.025	-0.169
-240.917	-66.069	-0.234	-0.092
-239.903	-104.099	-0.105	0.024
-238.888	-42.063	0.167	0.085
-237.873	-28.446	0.098	0.056
-236.859	-200.000	-0.039	0.235
-235.844	81.854	0.235	0.251
-234.830	260.564	0.077	-0.132
-233.815	-98.290	-0.177	-0.045
-232.800	-200.000	0.055	0.307
-231.786	-200.000	-0.037	-0.285
-230.771	-91.008	0.115	0.033
-229.757	186.954	-0.155	-0.228
-228.742	-11.718	0.203	0.132
-227.727	206.397	-0.147	0.226
-226.713	-200.000	0.010	-0.344
-225.698	401.846	0.091	0.189
-224.684	-200.000	-0.041	-0.188
-223.669	-31.398	0.215	-0.119
-222.655	172.485	0.062	0.088
-221.640	-200.000	0.014	0.138
-220.625	-200.000	0.017	-0.079
-219.611	-94.451	0.163	0.044
-218.596	-24.357	-0.284	-0.167
-217.582	-38.627	0.236	0.123
-216.567	-42.650	0.345	-0.173
-215.552	528.008	0.146	0.340
-214.538	-200.000	-0.051	0.296
-213.523	800.000	0.119	0.339
-212.509	800.000	0.007	-0.026
-211.494	174.260	0.193	-0.275
-210.479	-10.062	-0.302	-0.198
-209.465	237.092	0.138	0.225
-208.450	96.476	0.036	-0.040
-207.436	205.124	-0.173	-0.265
-206.421	-111.280	0.264	-0.053
-205.406	209.652	0.097	0.149
-204.392	-200.000	-0.000	0.162
-203.377	165.439	-0.162	0.226
-202.363	-88.968	0.176	0.051
-201.348	82.927	0.017	0.019
-200.333	-111.443	0.047	-0.009
-199.319	-48.552	0.111	0.053
-198.304	173.853	0.155	0.221
-197.290	-200.000	0.018	-0.155
-196.275	-107.982	0.263	0.056
-195.260	-10.470	0.098	0.064
-194.246	98.333	-0.078	0.089
-193.231	800.000	-0.046	0.183
-192.217	294.155	0.018	0.032
-191.202	800.000	0.044	-0.153
-190.187	-81.162	-0.100	-0.032
-189.173	-87.522	-0.284	-0.085
-188.158	499.743	0.015	0.034
-187.144	249.128	-0.152	-0.254
-186.129	44.215	0.046	-0.042
-185.114	2.593	0.112	0.080
-184.100	-169.490	-0.295	0.011
-183.085	47.834	-0.303	0.278
-182.071	172.579	-0.142	-0.201
-181.056	-111.406	-0.059	-0.012
-180.042	321.153	-0.123	0.230
-179.027	-3.018	-0.369	0.254
-178.012	53.191	-0.138	0.130
-176.998	800.000	0.014	0.059
-175.983	-200.000	-0.009	-0.065
-174.969	800.000	-0.051	0.163
-173.954	-200.000	0.020	-0.099
-172.939	3.277	-0.332	0.237
-171.925	292.090	0.184	0.331
-170.910	382.046	0.142	-0.286
-169.896	260.836	-0.160	-0.273
-168.881	-200.000	0.047	-0.251
-167.866	-157.927	0.142	-0.008
-166.852	-200.000	0.072	-0.393
-165.837	68.199	-0.139	-0.140
-164.823	57.494	0.279	-0.268
-163.808	200.440	0.088	-0.133
-162.793	143.451	-0.229	0.300
-161.779	-133.014	-0.274	0.034
-160.764	51.589	-0.223	0.209
-159.750	-60.179	0.178	-0.075
-158.735	243.070	-0.118	-0.195
-157.720	-28.254	-0.035	0.020
-156.706	205.382	-0.165	-0.252
-155.691	-105.758	0.340	-0.076
-154.677	800.000	0.053	0.160
-153.662	226.194	-0.031	0.049
-152.647	-49.872	0.222	0.104
-151.633	-5.235	-0.113	0.077
-150.618	-59.610	-0.103	-0.043
-149.604	800.000	-0.084	0.353
-148.589	-9.113	-0.329	-0.216
-147.574	800.000	-0.109	0.324
-146.560	-39.911	-0.398	-0.204
-145.545	-138.904	-0.228	0.024
-144.531	-83.618	-0.183	-0.057
-143.516	139.374	0.131	0.170
-142.502	-107.973	-0.436	-0.093
-141.487	-169.080	-0.022	-0.001
-140.472	-200.000	-0.014	0.084
-139.458	-200.000	-0.021	0.265
-138.443	-77.614	0.279	-0.095
-137.429	-6.257	-0.064	0.043
-136.414	-63.573	0.193	-0.078
-135.399	-23.737	0.051	-0.030
-134.385	-200.000	-0.006	-0.417
-133.370	-200.000	-0.014	0.347
-132.356	78.926	0.313	0.329
-131.341	-200.000	-0.037	0.196
-130.326	800.000	0.056	-0.162
-129.312	-80.855	0.186	0.060
-128.297	-184.050	0.331	0.005
-127.283	-200.000	0.066	0.364
-126.268	-200.000	-0.058	0.365
-125.253	800.000	0.039	0.114
-124.239	-85.759	-0.144	-0.044
-123.224	11.286	-0.138	0.104
-122.210	480.363	0.095	0.211
