DTS Sentinel unit serial number:	SN413079Multiplexer serial number:	ORYXHardware model number:	OX4-SRSoftware version number:	ORYX F/W v4.00 Oryx Data Collector v3.7.2.0data status	okinstallation	princeton_trtdifferential loss correction	single-endedforward channel	channel 1reverse channel	N/Adate	2019/09/11time	03:44:11forward acquisition time	60.00reverse acquisition time	0.00gamma	496.2192k internal	0.2331k external	0.2331temperature offset calibration	0.9924default loss term (dB/km)	0.3790temperature slope calibration	1.0000multiplexer offset coefficient	1.0000multiplexer slope coefficient	1.0000fibre end	0.00T internal ref (°C)	29.53T ext. ref 1 (°C)	-0.29T ext. ref 2 (°C)	23.92length (m)	temperature (°C)	Stokes	anti-Stokes-747.200	-200.000	-0.001	0.037
-746.185	96.777	-0.375	0.432
-745.171	87.079	-0.093	0.104
-744.156	218.576	-0.109	-0.176
-743.142	-200.000	0.000	-0.120
-742.127	-200.000	-0.186	0.000
-741.112	244.648	0.093	-0.158
-740.098	96.301	-0.027	0.031
-739.083	-200.000	0.025	-0.145
-738.069	-43.178	-0.294	-0.150
-737.054	123.991	-0.015	-0.019
-736.039	330.471	0.021	0.040
-735.025	311.429	0.049	0.093
-734.010	565.220	-0.066	-0.162
-732.996	-200.000	0.004	-0.171
-731.981	346.566	0.069	0.138
-730.966	47.024	-0.258	-0.241
-729.952	-56.753	-0.356	0.158
-728.937	35.825	-0.207	-0.183
-727.923	92.529	-0.164	-0.187
-726.908	151.993	0.067	-0.092
-725.894	44.829	0.084	0.078
-724.879	-53.248	0.417	-0.193
-723.864	-26.755	-0.176	0.104
-722.850	418.560	-0.174	0.375
-721.835	366.920	-0.208	0.423
-720.821	446.999	0.118	-0.261
-719.806	-200.000	-0.010	-0.315
-718.791	-84.578	0.281	0.089
-717.777	-121.478	0.039	-0.007
-716.762	-97.348	-0.137	0.036
-715.748	-87.325	0.367	-0.112
-714.733	-27.126	-0.349	-0.204
-713.718	-200.000	0.057	-0.256
-712.704	-62.786	-0.252	0.105
-711.689	-200.000	-0.030	0.230
-710.675	-71.886	-0.043	0.016
-709.660	699.247	0.082	-0.217
-708.645	390.659	0.094	-0.195
-707.631	87.234	-0.019	-0.021
-706.616	-77.775	-0.144	0.050
-705.602	-49.219	0.242	0.116
-704.587	334.032	-0.205	-0.399
-703.572	-200.000	-0.044	-0.325
-702.558	800.000	0.055	-0.152
-701.543	-62.823	0.135	0.056
-700.529	-132.060	0.226	0.030
-699.514	-200.000	0.004	-0.054
-698.499	104.169	0.146	-0.172
-697.485	-115.059	0.145	-0.028
-696.470	134.413	-0.398	0.518
-695.456	-200.000	-0.001	-0.020
-694.441	7.230	-0.151	-0.113
-693.426	-154.053	-0.050	0.003
-692.412	-12.304	-0.074	0.049
-691.397	-5.920	-0.179	0.123
-690.383	52.327	0.100	0.096
-689.368	-113.068	0.091	-0.018
-688.354	800.000	-0.120	-0.461
-687.339	-104.185	0.208	0.049
-686.324	-48.927	0.123	0.059
-685.310	148.818	-0.194	-0.264
-684.295	-142.101	-0.315	-0.031
-683.281	23.922	-0.312	0.258
-682.266	25.860	-0.080	0.067
-681.251	280.084	0.163	-0.293
-680.237	541.493	0.034	-0.081
-679.222	-128.223	0.337	-0.048
-678.208	180.078	-0.144	0.212
-677.193	800.000	-0.169	0.596
-676.178	-125.764	-0.227	0.034
-675.164	-200.000	0.002	0.184
-674.149	-21.479	-0.095	-0.058
-673.135	-30.572	0.151	0.086
-672.120	-76.698	0.115	0.041
-671.105	141.778	-0.175	-0.233
-670.091	66.465	-0.215	-0.220
-669.076	-200.000	-0.009	0.242
-668.062	144.973	0.032	0.043
-667.047	192.013	-0.028	-0.043
-666.032	800.000	0.074	-0.273
-665.018	336.615	0.103	0.200
-664.003	-200.000	-0.008	-0.098
-662.989	405.012	-0.038	-0.081
-661.974	146.853	0.168	-0.227
-660.959	485.990	0.026	-0.058
-659.945	90.428	-0.166	0.186
-658.930	389.396	0.063	0.131
-657.916	-200.000	-0.011	0.182
-656.901	-118.091	-0.312	-0.056
-655.886	-86.706	0.214	-0.066
-654.872	-94.808	-0.147	-0.040
-653.857	-25.575	0.133	-0.079
-652.843	302.441	0.155	-0.288
-651.828	-40.800	-0.029	0.015
-650.814	-16.411	-0.072	-0.046
-649.799	-200.000	-0.020	-0.142
-648.784	-200.000	-0.031	-0.362
-647.770	-200.000	0.009	0.189
-646.755	243.449	-0.153	0.257
-645.741	-81.446	-0.122	-0.040
-644.726	-63.910	0.116	0.047
-643.711	-88.450	-0.077	-0.023
-642.697	146.670	-0.183	0.246
-641.682	257.815	0.079	0.136
-640.668	-200.000	-0.037	-0.261
-639.653	11.032	0.247	0.189
-638.638	73.880	-0.128	-0.135
-637.624	141.310	-0.259	-0.343
-636.609	-200.000	0.025	-0.256
-635.595	201.703	0.126	-0.194
-634.580	-121.117	0.231	-0.039
-633.565	-88.103	0.229	-0.069
-632.551	28.355	-0.129	0.109
-631.536	-74.962	0.403	0.145
-630.522	-200.000	-0.046	-0.451
-629.507	183.013	-0.145	-0.214
-628.492	80.910	-0.218	0.236
-627.478	-17.755	0.178	0.112
-626.463	268.088	-0.152	0.267
-625.449	47.672	0.374	0.350
-624.434	-53.976	0.133	-0.061
-623.419	-200.000	0.001	-0.352
-622.405	-90.432	0.119	0.035
-621.390	212.244	-0.114	0.180
-620.376	16.492	-0.160	0.126
-619.361	214.941	0.090	0.143
-618.346	19.234	-0.338	0.272
-617.332	85.487	-0.124	0.136
-616.317	-60.559	0.278	0.118
-615.303	-118.377	0.139	0.025
-614.288	121.003	-0.273	-0.340
-613.273	-35.231	0.252	-0.138
-612.259	-200.000	-0.004	-0.134
-611.244	-144.167	-0.148	0.014
-610.230	-200.000	-0.018	-0.127
-609.215	1.228	0.378	-0.272
-608.201	-166.588	0.324	-0.014
-607.186	-200.000	-0.026	-0.307
-606.171	-160.782	0.403	-0.021
-605.157	-200.000	-0.012	0.211
-604.142	800.000	-0.055	0.154
-603.128	-121.160	-0.223	0.037
-602.113	-200.000	-0.037	0.239
-601.098	653.189	0.072	-0.184
-600.084	133.804	0.160	0.208
-599.069	800.000	-0.076	-0.220
-598.055	79.312	-0.247	-0.265
-597.040	252.532	-0.102	-0.174
-596.025	-34.046	-0.154	-0.085
-595.011	349.131	0.198	-0.391
-593.996	-168.622	0.363	-0.014
-592.982	-133.467	0.281	-0.035
-591.967	-200.000	-0.032	0.314
-590.952	263.080	0.110	-0.192
-589.938	-46.191	-0.231	-0.114
-588.923	220.140	-0.129	-0.206
-587.909	15.655	0.099	0.078
-586.894	3.128	-0.183	-0.133
-585.879	398.758	-0.164	-0.344
-584.865	-200.000	0.038	0.192
-583.850	76.964	-0.168	-0.178
-582.836	50.023	-0.018	-0.017
-581.821	231.755	-0.040	0.066
-580.806	-200.000	-0.016	-0.167
-579.792	800.000	-0.028	-0.084
-578.777	90.259	0.126	0.141
-577.763	336.171	-0.129	0.250
-576.748	-52.162	-0.195	-0.090
-575.733	-5.151	0.022	-0.015
-574.719	100.907	-0.400	-0.466
-573.704	115.619	-0.142	-0.174
-572.690	-200.000	-0.004	0.132
-571.675	584.274	-0.112	0.275
-570.661	-152.309	0.162	-0.012
-569.646	65.221	-0.129	-0.131
-568.631	-200.000	-0.005	-0.026
-567.617	800.000	-0.099	0.303
-566.602	18.679	0.237	-0.189
-565.588	-71.220	0.099	0.037
-564.573	25.733	-0.052	-0.043
-563.558	800.000	0.046	0.194
-562.544	24.089	-0.158	0.130
-561.529	243.462	0.094	0.157
-560.515	119.744	0.120	0.149
-559.500	174.096	0.153	0.221
-558.485	297.068	-0.221	-0.405
-557.471	487.253	0.090	-0.205
-556.456	-89.905	-0.226	-0.066
-555.442	800.000	0.068	-0.192
-554.427	-135.095	-0.128	0.015
-553.412	78.367	-0.078	0.083
-552.398	-135.865	0.084	0.010
-551.383	800.000	0.047	-0.148
-550.369	68.895	0.038	0.039
-549.354	-38.628	-0.367	0.194
-548.339	-133.677	-0.187	-0.023
-547.325	800.000	0.100	-0.299
-546.310	148.003	0.093	-0.125
-545.296	414.491	-0.060	-0.129
-544.281	213.502	0.132	0.209
-543.266	-57.215	0.165	0.073
-542.252	800.000	-0.116	0.355
-541.237	-56.289	-0.230	-0.102
-540.223	-53.480	0.105	-0.048
-539.208	91.193	0.060	-0.067
-538.193	-160.881	-0.324	-0.017
-537.179	-5.652	0.051	0.035
-536.164	800.000	-0.098	-0.298
-535.150	-187.362	-0.176	0.002
-534.135	-42.810	0.144	-0.073
-533.121	-92.905	-0.236	-0.066
-532.106	-68.867	-0.038	0.015
-531.091	-13.166	0.182	0.118
-530.077	90.327	0.167	0.187
-529.062	-20.759	0.622	-0.381
-528.048	-68.083	-0.395	-0.154
-527.033	85.004	0.103	0.113
-526.018	-142.182	-0.239	0.024
-525.004	-200.000	-0.037	0.173
-523.989	-162.549	-0.301	-0.015
-522.975	588.130	0.094	0.231
-521.960	-200.000	-0.016	0.246
-520.945	348.842	-0.097	0.191
-519.931	-200.000	0.064	0.327
-518.916	-86.486	-0.115	0.035
-517.902	-7.738	0.254	-0.171
-516.887	145.692	-0.241	-0.322
-515.872	-200.000	-0.004	-0.129
-514.858	-81.715	0.165	0.054
-513.843	393.668	-0.038	-0.079
-512.829	-140.399	-0.056	0.006
-511.814	-200.000	-0.035	0.442
-510.799	19.224	-0.301	-0.241
-509.785	-186.256	-0.422	0.006
-508.770	-58.181	0.290	-0.126
-507.756	333.598	0.246	-0.474
-506.741	83.394	-0.210	-0.228
-505.726	-148.686	0.181	0.015
-504.712	178.186	0.121	-0.176
-503.697	25.487	-0.133	0.111
-502.683	182.918	0.155	0.228
-501.668	-89.911	-0.394	-0.115
-500.653	-200.000	0.005	0.061
-499.639	-200.000	-0.007	-0.098
-498.624	-79.530	-0.135	0.045
-497.610	-120.130	0.251	-0.043
-496.595	60.158	0.354	-0.349
-495.581	-88.129	0.179	-0.054
-494.566	-13.883	0.279	0.180
-493.551	20.837	0.114	0.092
-492.537	227.354	0.091	0.147
-491.522	1.965	-0.300	0.216
-490.508	150.057	0.103	-0.139
-489.493	-200.000	-0.001	0.126
-488.478	13.382	-0.224	-0.173
-487.464	64.340	0.265	-0.266
-486.449	59.215	0.246	0.241
-485.435	407.669	0.073	0.154
-484.420	800.000	0.094	-0.399
-483.405	4.570	-0.088	-0.064
-482.391	-115.110	-0.417	0.079
-481.376	-61.789	0.300	0.125
-480.362	-200.000	-0.014	-0.363
-479.347	-149.411	-0.257	-0.020
-478.332	-85.504	-0.240	-0.074
-477.318	118.324	0.057	-0.070
-476.303	-101.432	0.092	-0.022
-475.289	-68.283	0.262	-0.101
-474.274	-76.395	-0.166	-0.058
-473.259	164.650	0.052	-0.073
-472.245	54.864	-0.236	-0.227
-471.230	-108.435	0.194	0.042
-470.216	-72.911	-0.145	-0.053
-469.201	-9.921	0.190	0.126
-468.186	-52.045	0.157	-0.073
-467.172	-200.000	0.035	-0.214
-466.157	-170.049	-0.180	0.006
-465.143	61.533	-0.229	-0.227
-464.128	-140.880	0.274	-0.028
-463.113	2.600	0.062	0.045
-462.099	-71.981	-0.167	0.062
-461.084	-8.161	-0.134	-0.090
-460.070	279.310	-0.076	-0.135
-459.055	118.807	-0.111	0.136
-458.040	-142.482	0.281	0.027
-457.026	-151.566	0.143	-0.011
-456.011	19.884	0.103	-0.082
-454.997	-1.638	0.280	-0.197
-453.982	-76.742	-0.076	-0.026
-452.968	197.616	-0.186	0.283
-451.953	226.684	0.056	-0.090
-450.938	-200.000	-0.013	-0.205
-449.924	-4.526	0.353	0.243
-448.909	-61.726	0.290	-0.121
-447.895	206.876	-0.029	0.045
-446.880	800.000	-0.074	0.250
-445.865	-108.766	0.132	-0.028
-444.851	-200.000	-0.020	0.199
-443.836	-86.877	0.217	-0.066
-442.822	-200.000	-0.002	0.047
-441.807	17.423	-0.161	-0.127
-440.792	-200.000	-0.053	0.321
-439.778	237.665	0.069	-0.114
-438.763	92.911	0.134	-0.150
-437.749	734.984	-0.079	0.212
-436.734	103.943	-0.209	0.244
-435.719	-9.332	-0.030	0.020
-434.705	265.244	0.044	0.076
-433.690	-200.000	-0.010	0.235
-432.676	-6.075	-0.180	0.122
-431.661	-200.000	0.011	0.048
-430.646	-90.828	0.212	0.061
-429.632	-101.297	0.017	-0.004
-428.617	-76.392	-0.108	-0.038
-427.603	-200.000	0.013	-0.277
-426.588	349.909	0.148	0.291
-425.573	-94.647	-0.204	0.055
-424.559	-137.482	-0.127	0.014
-423.544	-52.103	-0.088	-0.041
-422.530	-99.948	-0.206	0.051
-421.515	159.540	0.106	-0.146
-420.500	224.079	0.050	-0.081
-419.486	2.431	0.148	-0.106
-418.471	10.230	-0.268	0.203
-417.457	-94.256	-0.286	0.078
-416.442	518.539	-0.054	-0.127
-415.428	-64.884	0.131	-0.053
-414.413	86.479	-0.039	-0.043
-413.398	145.085	0.207	0.275
-412.384	9.071	-0.325	-0.244
-411.369	505.042	0.081	-0.186
-410.355	171.410	0.204	-0.291
-409.340	800.000	-0.022	0.060
-408.325	-7.123	0.171	0.115
-407.311	788.419	0.063	-0.172
-406.296	52.960	0.181	-0.172
-405.282	800.000	0.127	0.387
-404.267	-45.365	0.042	0.021
-403.252	-200.000	-0.027	0.248
-402.238	-76.670	0.080	-0.028
-401.223	377.707	-0.155	0.315
-400.209	51.298	0.283	0.267
-399.194	70.972	0.204	0.209
-398.179	-200.000	-0.048	-0.319
-397.165	-200.000	0.011	0.472
-396.150	800.000	0.022	-0.070
-395.136	-14.758	0.280	-0.178
-394.121	424.154	-0.102	-0.217
-393.106	104.415	-0.071	0.082
-392.092	45.862	-0.266	0.244
-391.077	218.188	0.076	0.120
-390.063	62.597	0.100	0.100
-389.048	-82.763	-0.135	0.043
-388.033	162.513	0.104	-0.144
-387.019	-60.532	0.033	0.014
-386.004	26.285	-0.083	-0.069
-384.990	-124.224	0.115	0.018
-383.975	-93.175	-0.245	-0.068
-382.960	41.016	-0.044	0.039
-381.946	648.273	0.127	-0.323
-380.931	56.978	0.214	0.207
-379.917	381.394	0.024	-0.049
-378.902	-132.089	-0.131	0.017
-377.888	275.514	0.119	0.209
-376.873	-117.450	0.264	0.047
-375.858	9.405	0.198	0.149
-374.844	-200.000	-0.043	-0.250
-373.829	52.084	0.155	0.147
-372.815	-48.530	-0.084	-0.040
-371.800	71.380	-0.264	0.271
-370.785	200.629	0.219	0.335
-369.771	206.262	-0.280	0.432
-368.756	-23.411	-0.074	0.044
-367.742	-50.330	-0.298	-0.140
-366.727	713.495	0.066	0.174
-365.712	68.428	-0.184	0.187
-364.698	-147.629	0.087	0.007
-363.683	576.760	0.033	-0.081
-362.669	800.000	0.058	-0.180
-361.654	-200.000	-0.020	0.094
-360.639	63.272	-0.190	0.189
-359.625	-49.827	-0.292	0.137
-358.610	-95.590	-0.186	0.049
-357.596	-200.000	-0.006	0.218
-356.581	-54.491	-0.158	-0.071
-355.566	-200.000	0.034	0.281
-354.552	-145.247	0.339	0.030
-353.537	-200.000	-0.009	0.138
-352.523	-200.000	-0.010	-0.188
-351.508	-72.796	0.135	0.049
-350.493	-64.636	-0.259	-0.104
-349.479	-129.612	-0.272	-0.037
-348.464	-31.362	-0.147	-0.082
-347.450	-169.211	0.288	0.011
-346.435	-200.000	-0.027	-0.162
-345.420	-200.000	-0.016	-0.285
-344.406	-47.304	0.361	-0.174
-343.391	-200.000	0.007	0.035
-342.377	-44.915	0.203	0.100
-341.362	14.682	-0.268	-0.208
-340.348	10.170	-0.135	-0.101
-339.333	800.000	-0.036	-0.114
-338.318	800.000	0.093	0.369
-337.304	-200.000	-0.009	0.297
-336.289	125.826	-0.065	0.081
-335.275	189.385	0.149	0.222
-334.260	-167.255	0.033	-0.001
-333.245	-63.248	-0.234	-0.096
-332.231	-18.667	-0.066	0.041
-331.216	-200.000	-0.013	-0.264
-330.202	-76.732	0.311	-0.108
-329.187	-60.833	-0.110	0.046
-328.172	604.516	0.065	0.161
-327.158	-155.625	-0.175	0.011
-326.143	586.269	0.091	0.221
-325.129	-186.158	-0.053	0.001
-324.114	-200.000	-0.012	0.305
-323.099	58.161	-0.256	0.249
-322.085	178.257	0.238	0.344
-321.070	-51.722	0.183	0.084
-320.056	48.548	0.355	0.330
-319.041	7.795	-0.351	0.260
-318.026	-108.848	-0.151	-0.032
-317.012	-200.000	0.008	-0.150
-315.997	-33.950	-0.193	-0.105
-314.983	-14.481	0.065	0.042
-313.968	-59.753	-0.416	0.176
-312.953	-200.000	0.047	0.231
-311.939	102.273	0.054	0.062
-310.924	-82.106	-0.262	0.085
-309.910	80.223	-0.095	0.101
-308.895	-145.505	0.404	0.036
-307.880	-200.000	0.006	0.242
-306.866	-79.822	-0.116	-0.039
-305.851	-73.359	0.191	-0.069
-304.837	-33.327	-0.124	-0.068
-303.822	304.704	0.139	0.255
-302.807	-108.825	-0.306	-0.065
-301.793	-200.000	0.019	0.139
-300.778	-78.832	0.127	0.043
-299.764	76.268	0.161	-0.169
-298.749	-117.765	-0.317	0.056
-297.735	-146.292	0.058	-0.005
-296.720	-200.000	0.010	0.281
-295.705	-200.000	0.009	0.117
-294.691	396.516	-0.047	0.098
-293.676	800.000	-0.121	-0.378
-292.662	53.332	0.073	-0.069
-291.647	-85.508	-0.133	-0.041
-290.632	-200.000	0.009	-0.091
-289.618	390.790	0.081	0.166
-288.603	-200.000	-0.016	-0.085
-287.589	-200.000	-0.034	-0.291
-286.574	-82.555	0.061	-0.020
-285.559	7.871	-0.140	-0.104
-284.545	-200.000	-0.024	-0.176
-283.530	-200.000	0.035	0.339
-282.516	380.019	0.092	0.186
-281.501	136.650	0.073	-0.094
-280.486	209.606	0.112	-0.173
-279.472	-137.251	-0.268	0.030
-278.457	-53.365	0.174	0.079
-277.443	131.041	-0.130	-0.165
-276.428	-33.407	-0.047	0.026
-275.413	206.125	0.134	-0.206
-274.399	800.000	0.067	-0.222
-273.384	23.964	-0.137	0.112
-272.370	108.965	0.055	-0.065
-271.355	-83.892	-0.176	-0.055
-270.340	-200.000	-0.007	0.146
-269.326	10.544	-0.048	0.036
-268.311	176.214	-0.222	-0.319
-267.297	80.532	-0.255	0.271
-266.282	16.737	-0.053	0.041
-265.267	-134.258	-0.201	-0.024
-264.253	235.149	0.068	0.111
-263.238	800.000	0.061	0.204
-262.224	513.284	-0.087	0.201
-261.209	49.483	-0.202	-0.188
-260.195	-130.516	-0.071	-0.009
-259.180	-117.924	-0.080	0.014
-258.165	-200.000	-0.056	-0.310
-257.151	800.000	0.092	-0.304
-256.136	-25.238	-0.171	0.100
-255.122	95.892	-0.241	0.271
-254.107	800.000	0.082	0.324
-253.092	-127.858	-0.250	0.036
-252.078	263.313	-0.067	-0.116
-251.063	-200.000	-0.039	-0.602
-250.049	66.191	0.283	-0.283
-249.034	439.917	0.080	0.172
-248.019	800.000	-0.060	0.210
-247.005	37.333	0.177	0.155
-245.990	-200.000	0.011	0.260
-244.976	275.363	0.090	0.158
-243.961	-141.378	-0.080	0.008
-242.946	735.510	-0.096	-0.254
-241.932	336.575	0.121	-0.231
-240.917	71.644	0.121	-0.124
-239.903	-144.908	0.206	0.019
-238.888	-200.000	-0.005	-0.262
-237.873	800.000	-0.006	0.025
-236.859	-82.939	0.278	-0.088
-235.844	-103.315	-0.153	0.036
-234.830	-14.353	-0.324	0.206
-233.815	452.212	0.085	0.186
-232.800	100.793	0.213	-0.244
-231.786	-83.937	0.150	-0.047
-230.771	401.855	-0.069	0.143
-229.757	149.880	0.129	-0.173
-228.742	-23.934	0.184	-0.109
-227.727	271.369	0.099	0.173
-226.713	-200.000	-0.019	-0.334
-225.698	-23.696	0.151	0.089
-224.684	-48.040	-0.140	0.067
-223.669	339.613	-0.066	-0.127
-222.655	21.548	0.203	-0.163
-221.640	-80.869	0.420	0.137
-220.625	-149.304	0.304	-0.024
-219.611	-178.864	-0.186	0.004
-218.596	-50.735	-0.098	-0.046
-217.582	92.501	-0.111	-0.124
-216.567	133.111	0.040	-0.051
-215.552	-103.696	0.092	0.021
-214.538	-33.308	0.048	0.026
-213.523	306.846	0.073	0.134
-212.509	-27.148	-0.245	-0.141
-211.494	192.604	0.186	0.277
-210.479	-149.553	-0.179	0.014
-209.465	-163.348	0.116	-0.005
-208.450	52.124	0.116	-0.109
-207.436	-129.592	0.297	-0.040
-206.421	-200.000	0.015	0.246
-205.406	42.552	-0.096	-0.086
-204.392	-157.736	0.159	0.009
-203.377	-4.098	0.061	-0.041
-202.363	-79.904	-0.341	0.113
-201.348	-55.702	0.137	-0.061
-200.333	84.046	-0.125	-0.135
-199.319	-75.069	-0.331	-0.117
-198.304	651.585	0.077	-0.195
-197.290	106.016	0.121	-0.141
-196.275	-200.000	-0.004	0.063
-195.260	800.000	-0.150	0.537
-194.246	-110.525	0.305	-0.062
-193.231	-1.086	0.279	-0.194
-192.217	70.348	-0.268	-0.272
-191.202	-65.993	-0.096	0.038
-190.187	197.111	0.184	-0.277
-189.173	-92.472	-0.305	-0.084
-188.158	573.920	0.054	0.129
-187.144	-26.847	0.054	-0.031
-186.129	-200.000	0.018	0.143
-185.114	260.514	-0.076	0.129
-184.100	-98.802	-0.495	-0.124
-183.085	110.651	0.245	-0.290
-182.071	370.060	0.102	-0.203
-181.056	-115.254	0.060	-0.011
-180.042	2.592	0.215	0.153
-179.027	23.351	-0.282	0.228
-178.012	800.000	0.050	-0.190
-176.998	59.481	0.117	0.113
-175.983	528.579	0.172	0.398
-174.969	-200.000	0.030	0.205
-173.954	-102.047	-0.174	0.041
-172.939	-200.000	-0.011	-0.276
-171.925	49.539	0.140	0.130
-170.910	-89.198	0.220	0.064
-169.896	-18.497	0.091	0.056
-168.881	-66.694	-0.089	0.035
-167.866	-92.425	-0.240	-0.066
-166.852	-49.333	-0.189	0.089
-165.837	-63.197	-0.081	0.033
-164.823	16.409	0.117	-0.091
-163.808	-94.554	0.114	-0.030
-162.793	-200.000	0.014	-0.140
-161.779	-200.000	-0.021	-0.183
-160.764	-200.000	-0.006	-0.137
-159.750	442.372	-0.209	0.450
-158.735	-90.583	0.226	-0.064
-157.720	82.160	-0.266	-0.284
-156.706	-42.391	0.033	0.017
-155.691	114.287	-0.115	-0.138
-154.677	78.516	0.112	-0.117
-153.662	-60.000	0.130	-0.055
-152.647	-193.222	0.053	0.000
-151.633	-40.322	0.373	0.191
-150.618	-200.000	0.045	-0.258
-149.604	433.378	0.088	-0.189
-148.589	-162.669	0.331	-0.016
-147.574	-115.609	0.142	0.026
-146.560	-34.063	0.150	-0.081
-145.545	-46.275	-0.138	0.067
-144.531	159.110	-0.077	0.105
-143.516	-51.071	0.150	-0.069
-142.502	-72.735	0.192	0.069
-141.487	800.000	0.015	0.057
-140.472	-145.419	0.191	-0.017
-139.458	51.071	-0.082	-0.077
-138.443	-48.382	0.346	0.164
-137.429	150.572	0.071	-0.095
-136.414	130.066	-0.095	-0.120
-135.399	-200.000	0.020	0.374
-134.385	-14.660	-0.167	-0.105
-133.370	610.927	-0.148	-0.363
-132.356	-200.000	-0.011	0.050
-131.341	135.346	-0.200	0.255
-130.326	-200.000	0.044	-0.287
-129.312	-82.196	-0.387	-0.124
-128.297	79.558	0.062	0.065
-127.283	-116.657	-0.144	-0.026
-126.268	236.262	0.040	-0.065
-125.253	20.235	-0.246	0.195
-124.239	-200.000	-0.050	-0.360
-123.224	-200.000	-0.028	0.227
-122.210	-46.284	0.134	-0.065
-121.195	-166.149	0.196	-0.008
