DTS Sentinel unit serial number:	SN413079Multiplexer serial number:	ORYXHardware model number:	OX4-SRSoftware version number:	ORYX F/W v4.00 Oryx Data Collector v3.7.2.0data status	okinstallation	princeton_trtdifferential loss correction	single-endedforward channel	channel 1reverse channel	N/Adate	2019/09/11time	14:52:11forward acquisition time	60.00reverse acquisition time	0.00gamma	496.2192k internal	0.2292k external	0.2292temperature offset calibration	0.9983default loss term (dB/km)	0.3790temperature slope calibration	1.0000multiplexer offset coefficient	1.0000multiplexer slope coefficient	1.0000fibre end	0.00T internal ref (°C)	42.62T ext. ref 1 (°C)	0.94T ext. ref 2 (°C)	38.94length (m)	temperature (°C)	Stokes	anti-Stokes-747.200	-8.433	-0.149	-0.102
-746.185	10.023	-0.100	-0.077
-745.171	47.044	-0.049	-0.046
-744.156	-200.000	0.003	0.101
-743.142	394.036	0.077	-0.165
-742.127	4.752	-0.221	0.166
-741.112	391.849	-0.068	0.145
-740.098	-200.000	-0.042	0.605
-739.083	163.814	0.069	-0.099
-738.069	127.509	-0.183	0.238
-737.054	-200.000	0.010	0.196
-736.039	47.572	-0.211	0.201
-735.025	352.700	0.091	-0.185
-734.010	1.154	0.118	-0.087
-732.996	-75.617	0.182	-0.066
-731.981	523.821	-0.059	-0.142
-730.966	-79.173	-0.049	0.017
-729.952	800.000	-0.104	-0.312
-728.937	-155.963	-0.368	-0.024
-727.923	-128.041	-0.582	0.085
-726.908	23.027	0.170	-0.142
-725.894	-43.164	-0.163	-0.085
-724.879	-74.729	-0.225	0.083
-723.864	-200.000	-0.012	0.134
-722.850	336.208	0.081	-0.160
-721.835	-39.434	-0.422	-0.226
-720.821	84.717	-0.219	0.245
-719.806	-104.394	-0.162	-0.038
-718.791	98.568	-0.144	0.170
-717.777	504.667	-0.011	-0.027
-716.762	-164.804	-0.222	0.010
-715.748	-137.888	0.246	-0.028
-714.733	-145.774	-0.097	0.009
-713.718	-82.358	0.382	-0.127
-712.704	-28.471	-0.137	0.081
-711.689	-200.000	-0.077	0.444
-710.675	301.261	-0.056	-0.106
-709.660	-12.106	-0.159	-0.106
-708.645	-200.000	0.077	0.366
-707.631	-57.992	-0.324	0.145
-706.616	36.668	0.429	0.387
-705.602	16.377	0.048	0.039
-704.587	280.079	0.270	0.492
-703.572	-100.654	-0.258	-0.065
-702.558	-23.444	0.276	-0.169
-701.543	71.374	-0.187	0.198
-700.529	43.755	-0.190	-0.178
-699.514	-104.244	-0.121	-0.029
-698.499	-99.960	0.045	0.011
-697.485	-118.197	0.369	-0.067
-696.470	83.068	0.441	0.490
-695.456	247.798	-0.109	0.188
-694.441	-31.007	0.246	0.142
-693.426	83.163	0.237	-0.263
-692.412	99.267	0.050	-0.059
-691.397	800.000	0.016	0.058
-690.383	-83.065	-0.319	-0.105
-689.368	16.465	0.159	0.128
-688.354	800.000	-0.062	-0.211
-687.339	272.727	0.160	0.288
-686.324	421.597	0.077	0.168
-685.310	-85.469	-0.061	-0.019
-684.295	55.680	0.098	-0.097
-683.281	800.000	0.110	-0.408
-682.266	-163.198	-0.073	-0.004
-681.251	-113.338	-0.301	-0.060
-680.237	-98.450	-0.032	-0.008
-679.222	42.277	0.136	-0.126
-678.208	-166.139	0.143	0.006
-677.193	-200.000	-0.002	-0.032
-676.178	-60.673	-0.178	0.077
-675.164	800.000	0.018	-0.070
-674.149	-200.000	-0.007	0.036
-673.135	5.554	-0.155	0.117
-672.120	-111.462	0.174	0.036
-671.105	-200.000	-0.026	0.233
-670.091	102.058	-0.182	-0.217
-669.076	462.083	0.111	0.252
-668.062	-85.085	-0.257	0.082
-667.047	-3.485	-0.107	0.076
-666.032	129.572	-0.132	-0.172
-665.018	-180.714	0.461	0.010
-664.003	213.131	0.128	0.206
-662.989	204.000	0.075	0.119
-661.974	0.514	-0.156	0.114
-660.959	712.056	0.018	-0.050
-659.945	-138.355	0.354	0.040
-658.930	-94.562	-0.264	0.073
-657.916	326.586	-0.112	-0.219
-656.901	48.079	-0.136	-0.129
-655.886	78.483	0.142	-0.155
-654.872	-84.810	0.026	-0.008
-653.857	-144.637	0.051	-0.005
-652.843	-114.910	0.183	0.036
-651.828	800.000	0.026	0.117
-650.814	-200.000	-0.020	-0.272
-649.799	98.659	-0.119	0.141
-648.784	-4.290	-0.099	0.070
-647.770	-200.000	-0.040	-0.225
-646.755	35.218	0.184	0.165
-645.741	-89.030	-0.201	0.061
-644.726	-200.000	0.035	-0.251
-643.711	32.346	0.213	-0.188
-642.697	216.827	0.084	0.137
-641.682	426.386	0.074	0.162
-640.668	250.808	0.112	-0.194
-639.653	174.520	0.064	-0.095
-638.638	-54.095	-0.086	0.040
-637.624	-60.261	0.095	0.041
-636.609	-35.770	0.193	-0.107
-635.595	-140.419	0.056	-0.006
-634.580	-125.875	-0.211	0.032
-633.565	-80.542	0.371	0.126
-632.551	-200.000	0.016	-0.156
-631.536	800.000	0.071	0.229
-630.522	76.701	0.178	0.193
-629.507	800.000	-0.038	-0.136
-628.492	-145.979	-0.113	0.010
-627.478	161.755	-0.155	-0.221
-626.463	463.576	-0.122	0.278
-625.449	316.295	-0.046	0.089
-624.434	14.208	-0.059	-0.047
-623.419	768.484	0.121	-0.337
-622.405	800.000	-0.066	-0.237
-621.390	313.914	-0.199	-0.382
-620.376	86.628	0.171	-0.192
-619.361	116.262	0.399	0.498
-618.346	-200.000	-0.035	0.298
-617.332	-6.161	0.218	-0.152
-616.317	15.298	-0.142	0.113
-615.303	100.427	-0.151	-0.178
-614.288	494.053	-0.086	0.200
-613.273	314.129	0.162	0.310
-612.259	800.000	0.048	0.147
-611.244	800.000	-0.077	0.234
-610.230	113.531	-0.177	0.219
-609.215	270.062	0.196	-0.351
-608.201	420.298	0.074	-0.161
-607.186	-200.000	-0.093	0.432
-606.171	186.505	0.195	-0.296
-605.157	-200.000	0.052	-0.239
-604.142	378.846	-0.134	0.279
-603.128	-116.290	0.500	0.094
-602.113	-90.065	-0.181	-0.054
-601.098	800.000	-0.057	0.161
-600.084	290.300	0.138	0.256
-599.069	129.039	0.010	0.013
-598.055	278.838	0.083	0.150
-597.040	-200.000	0.034	-0.218
-596.025	-21.644	0.188	-0.117
-595.011	800.000	0.087	-0.289
-593.996	800.000	-0.014	0.061
-592.982	521.334	0.081	-0.195
-591.967	800.000	0.032	-0.134
-590.952	-178.428	-0.246	-0.006
-589.938	-154.691	-0.104	-0.007
-588.923	-200.000	0.014	-0.290
-587.909	-27.631	0.263	-0.155
-586.894	116.372	-0.103	-0.128
-585.879	-170.468	-0.120	0.004
-584.865	-10.134	0.227	-0.154
-583.850	-200.000	0.241	-0.001
-582.836	-200.000	-0.030	-0.175
-581.821	-31.121	0.173	0.099
-580.806	-38.684	-0.080	0.043
-579.792	-24.902	-0.237	0.143
-578.777	609.997	0.115	0.291
-577.763	24.652	0.141	0.119
-576.748	77.565	0.099	-0.107
-575.733	-200.000	-0.010	-0.210
-574.719	-132.438	-0.362	0.047
-573.704	-125.560	0.117	-0.018
-572.690	152.207	-0.075	0.104
-571.675	-200.000	-0.057	0.342
-570.661	-193.765	-0.141	-0.001
-569.646	24.381	-0.222	-0.186
-568.631	-200.000	-0.004	0.181
-567.617	35.117	0.290	0.258
-566.602	375.645	0.248	-0.513
-565.588	559.300	-0.005	0.013
-564.573	-26.332	-0.199	-0.119
-563.558	-5.951	-0.146	0.101
-562.544	800.000	-0.064	-0.187
-561.529	98.010	-0.037	-0.044
-560.515	538.148	-0.015	0.037
-559.500	-19.926	-0.218	-0.137
-558.485	511.193	0.128	-0.303
-557.471	-44.865	-0.319	0.162
-556.456	120.451	-0.223	0.281
-555.442	-200.000	-0.020	-0.127
-554.427	70.659	-0.235	-0.247
-553.412	11.682	0.067	-0.052
-552.398	40.671	-0.188	-0.172
-551.383	481.167	-0.085	-0.195
-550.369	800.000	-0.117	-0.394
-549.354	-40.775	0.202	0.106
-548.339	800.000	-0.079	0.270
-547.325	-39.821	-0.281	0.149
-546.310	-200.000	-0.021	0.164
-545.296	52.386	0.225	0.218
-544.281	-100.415	0.229	0.058
-543.266	-111.960	-0.114	-0.023
-542.252	60.515	-0.217	-0.218
-541.237	205.656	-0.317	0.500
-540.223	-148.831	0.122	0.010
-539.208	-28.677	0.259	-0.151
-538.193	-42.571	-0.248	-0.128
-537.179	-24.434	0.321	0.194
-536.164	30.314	-0.072	0.062
-535.150	635.427	0.126	-0.325
-534.135	54.308	0.092	-0.090
-533.121	18.552	-0.126	-0.103
-532.106	-115.915	-0.197	-0.037
-531.091	-120.501	-0.457	-0.079
-530.077	800.000	0.069	-0.224
-529.062	-37.755	0.277	0.149
-528.048	-117.771	-0.115	0.021
-527.033	295.201	0.050	-0.092
-526.018	-142.242	0.247	0.025
-525.004	28.311	-0.178	0.152
-523.989	-109.235	-0.269	-0.058
-522.975	169.113	-0.232	-0.337
-521.960	-146.635	0.281	0.025
-520.945	63.454	-0.060	0.061
-519.931	800.000	0.023	-0.073
-518.916	800.000	-0.039	-0.111
-517.902	-200.000	0.011	0.298
-516.887	-200.000	0.010	0.053
-515.872	473.495	-0.064	-0.147
-514.858	204.585	0.114	0.179
-513.843	347.672	-0.053	-0.107
-512.829	54.126	0.198	-0.193
-511.814	-22.087	0.308	-0.190
-510.799	-46.036	-0.156	-0.078
-509.785	72.326	0.052	-0.055
-508.770	-45.702	0.146	-0.073
-507.756	-162.095	-0.267	0.014
-506.741	800.000	0.043	-0.160
-505.726	-62.964	-0.042	0.018
-504.712	94.603	0.151	0.174
-503.697	-105.523	-0.016	0.004
-502.683	752.391	-0.062	0.169
-501.668	241.664	-0.130	0.220
-500.653	-93.186	-0.082	-0.023
-499.639	-84.333	0.343	-0.110
-498.624	101.883	0.160	0.189
-497.610	-92.939	0.117	-0.033
-496.595	-149.421	-0.358	-0.029
-495.581	-49.594	0.266	0.128
-494.566	-80.253	-0.170	0.058
-493.551	-196.603	0.062	0.000
-492.537	-55.374	0.340	0.155
-491.522	238.171	0.036	0.060
-490.508	275.132	0.143	0.257
-489.493	361.051	-0.070	-0.142
-488.478	-114.610	-0.160	0.031
-487.464	800.000	0.069	0.200
-486.449	-200.000	-0.035	0.249
-485.435	-16.020	-0.367	0.237
-484.420	-9.859	-0.327	-0.221
-483.405	92.587	-0.040	-0.045
-482.391	800.000	0.091	0.355
-481.376	-37.471	0.168	-0.091
-480.362	345.853	0.063	-0.126
-479.347	-122.557	-0.171	-0.028
-478.332	4.492	-0.134	-0.099
-477.318	780.372	0.073	-0.202
-476.303	-200.000	-0.005	-0.107
-475.289	-200.000	-0.045	-0.246
-474.274	-200.000	-0.001	0.438
-473.259	17.862	0.196	-0.158
-472.245	-200.000	-0.065	0.318
-471.230	-67.036	0.148	0.059
-470.216	-111.584	0.175	-0.036
-469.201	-186.884	-0.135	0.002
-468.186	572.947	0.049	-0.120
-467.172	139.385	-0.111	-0.148
-466.157	674.676	0.139	-0.366
-465.143	557.366	0.015	0.037
-464.128	6.877	-0.047	-0.036
-463.113	-200.000	0.051	-0.270
-462.099	407.089	-0.167	-0.357
-461.084	-200.000	0.011	0.123
-460.070	-200.000	-0.027	-0.297
-459.055	-200.000	0.001	-0.041
-458.040	-200.000	0.053	-0.314
-457.026	-80.813	0.079	-0.026
-456.011	110.377	0.181	-0.220
-454.997	-17.999	-0.441	0.280
-453.982	-33.174	0.009	-0.005
-452.968	313.129	-0.061	-0.117
-451.953	32.862	-0.129	-0.113
-450.938	-93.658	0.199	0.055
-449.924	-152.223	-0.279	0.020
-448.909	-117.323	-0.211	-0.039
-447.895	-105.135	0.090	0.021
-446.880	-200.000	0.053	0.284
-445.865	96.200	0.116	0.134
-444.851	578.429	-0.099	-0.244
-443.836	302.383	0.198	0.370
-442.822	86.190	-0.056	-0.063
-441.807	2.056	0.274	-0.200
-440.792	800.000	0.073	0.278
-439.778	121.370	0.036	-0.045
-438.763	-36.382	-0.379	0.207
-437.749	-4.784	-0.172	0.120
-436.734	61.204	0.245	0.246
-435.719	-200.000	-0.068	0.444
-434.705	-87.804	-0.176	-0.054
-433.690	21.929	0.097	-0.080
-432.676	-69.926	0.361	0.139
-431.661	-200.000	0.032	0.501
-430.646	800.000	-0.028	-0.080
-429.632	-93.964	-0.374	-0.104
-428.617	-90.109	-0.093	-0.027
-427.603	124.694	0.168	0.214
-426.588	668.828	0.173	0.452
-425.573	-79.123	0.061	-0.021
-424.559	-200.000	-0.005	-0.127
-423.544	-94.456	0.116	-0.032
-422.530	-200.000	-0.050	-0.379
-421.515	-200.000	0.022	-0.312
-420.500	43.123	0.241	-0.222
-419.486	-163.887	0.431	-0.020
-418.471	-76.687	0.126	0.045
-417.457	121.606	0.196	0.247
-416.442	800.000	0.044	0.172
-415.428	-200.000	0.014	-0.186
-414.413	65.702	-0.062	0.064
-413.398	32.511	-0.062	-0.054
-412.384	-34.065	-0.080	0.044
-411.369	800.000	-0.087	-0.248
-410.355	-41.676	-0.176	0.091
-409.340	-173.956	0.104	0.003
-408.325	-106.518	0.044	-0.010
-407.311	13.888	0.120	0.094
-406.296	-55.190	0.040	-0.018
-405.282	800.000	0.039	-0.119
-404.267	739.109	0.067	-0.183
-403.252	53.860	0.269	0.261
-402.238	800.000	0.105	-0.307
-401.223	67.822	0.131	-0.135
-400.209	-22.454	0.030	0.019
-399.194	-28.652	0.016	-0.010
-398.179	124.353	-0.036	0.045
-397.165	-28.738	-0.227	0.132
-396.150	62.000	-0.143	-0.144
-395.136	-63.327	-0.219	0.091
-394.121	17.385	-0.140	-0.112
-393.106	-36.285	0.143	-0.078
-392.092	-56.172	0.433	0.195
-391.077	387.039	-0.091	-0.191
-390.063	-18.743	-0.241	-0.151
-389.048	800.000	-0.063	-0.256
-388.033	800.000	0.113	0.374
-387.019	-75.766	0.047	-0.017
-386.004	800.000	0.017	-0.068
-384.990	262.900	0.101	-0.177
-383.975	-80.823	0.548	0.184
-382.960	102.518	0.082	-0.097
-381.946	218.312	0.069	0.111
-380.931	-90.633	-0.048	0.014
-379.917	114.894	-0.112	0.138
-378.902	504.075	-0.197	-0.460
-377.888	-68.765	0.070	-0.027
-376.873	72.833	0.295	0.310
-375.858	-26.269	0.255	0.151
-374.844	297.817	0.255	-0.474
-373.829	-200.000	0.022	0.204
-372.815	800.000	0.060	0.203
-371.800	-45.895	-0.159	-0.079
-370.785	-83.069	-0.164	0.053
-369.771	-111.345	0.121	-0.025
-368.756	-200.000	-0.001	0.053
-367.742	-78.302	-0.141	0.049
-366.727	39.037	0.350	0.315
-365.712	-107.889	0.058	-0.013
-364.698	-200.000	0.017	-0.111
-363.683	200.136	0.149	0.231
-362.669	800.000	-0.025	0.103
-361.654	-62.259	0.075	0.031
-360.639	-114.842	-0.137	0.026
-359.625	-199.710	0.207	-0.001
-358.610	7.080	-0.255	0.192
-357.596	-200.000	-0.019	0.405
-356.581	-25.075	0.160	0.096
-355.566	800.000	-0.054	0.164
-354.552	-86.291	0.426	0.132
-353.537	-200.000	-0.048	0.487
-352.523	3.166	0.128	0.094
-351.508	800.000	-0.058	-0.243
-350.493	-83.702	-0.457	-0.147
-349.479	-118.616	-0.292	0.052
-348.464	210.138	0.046	-0.073
-347.450	-66.208	-0.226	-0.091
-346.435	-87.898	-0.593	0.180
-345.420	798.565	0.041	-0.113
-344.406	412.079	0.111	-0.238
-343.391	-20.922	0.196	0.121
-342.377	243.363	-0.169	0.286
-341.362	-64.165	-0.189	-0.077
-340.348	367.731	0.117	0.238
-339.333	-176.387	0.194	-0.005
-338.318	800.000	0.125	-0.376
-337.304	800.000	-0.005	0.017
-336.289	116.134	0.111	-0.137
-335.275	800.000	0.132	-0.495
-334.260	800.000	0.052	-0.220
-333.245	-27.290	-0.241	-0.141
-332.231	156.844	-0.076	-0.105
-331.216	247.724	0.112	-0.191
-330.202	-200.000	-0.004	0.028
-329.187	800.000	-0.131	0.490
-328.172	800.000	0.060	-0.230
-327.158	95.608	-0.127	0.145
-326.143	79.216	-0.224	0.241
-325.129	-76.677	-0.250	0.088
-324.114	700.459	0.145	-0.384
-323.099	-103.330	-0.308	-0.073
-322.085	-48.106	0.131	-0.064
-321.070	-0.242	-0.105	0.075
-320.056	59.493	-0.232	0.230
-319.041	38.239	0.178	-0.159
-318.026	-80.209	-0.206	-0.069
-317.012	69.536	-0.179	-0.186
-315.997	634.535	-0.114	0.292
-314.983	86.162	0.179	-0.199
-313.968	-200.000	-0.023	0.117
-312.953	800.000	-0.075	0.211
-311.939	-54.074	-0.354	0.162
-310.924	48.257	-0.165	-0.155
-309.910	354.938	-0.142	-0.285
-308.895	-24.860	-0.117	0.070
-307.880	404.729	-0.099	-0.209
-306.866	59.611	0.138	-0.137
-305.851	41.535	0.100	-0.091
-304.837	-109.250	0.182	-0.039
-303.822	139.922	0.070	-0.092
-302.807	-126.737	-0.123	0.018
-301.793	-19.908	-0.337	-0.209
-300.778	108.999	-0.132	-0.159
-299.764	27.134	-0.178	-0.150
-298.749	-87.051	0.025	0.008
-297.735	-79.999	-0.112	0.038
-296.720	-49.711	-0.277	0.133
-295.705	198.704	0.146	-0.225
-294.691	232.775	0.124	-0.206
-293.676	800.000	0.073	-0.206
-292.662	47.551	-0.209	-0.196
-291.647	800.000	-0.166	-0.539
-290.632	57.378	-0.128	-0.126
-289.618	112.523	0.279	0.339
-288.603	505.856	0.073	-0.171
-287.589	-200.000	-0.014	0.091
-286.574	248.000	-0.234	0.398
-285.559	-97.400	0.366	-0.096
-284.545	-131.081	0.263	-0.035
-283.530	37.601	0.042	0.038
-282.516	3.821	-0.097	0.071
-281.501	-32.836	0.083	-0.047
-280.486	-200.000	-0.022	0.134
-279.472	-74.532	0.234	0.085
-278.457	323.047	-0.062	0.118
-277.443	-114.225	-0.161	-0.031
-276.428	-200.000	-0.032	0.182
-275.413	-49.663	0.084	0.040
-274.399	-26.231	0.327	-0.193
-273.384	125.028	0.244	-0.310
-272.370	81.273	0.094	-0.102
-271.355	800.000	0.042	-0.134
-270.340	-200.000	-0.025	-0.287
-269.326	-146.799	0.106	0.009
-268.311	-60.389	0.118	0.050
-267.297	495.446	0.073	0.168
-266.282	-83.471	-0.129	-0.042
-265.267	-54.720	-0.145	0.066
-264.253	10.573	0.069	-0.053
-263.238	-200.000	-0.017	0.157
-262.224	-59.508	0.055	0.024
-261.209	-8.195	0.114	0.077
-260.195	-100.736	-0.212	-0.052
-259.180	800.000	-0.046	-0.141
-258.165	-109.211	0.138	0.030
-257.151	39.019	0.243	-0.218
-256.136	104.387	0.078	-0.092
-255.122	94.760	-0.169	0.193
-254.107	800.000	0.045	-0.125
-253.092	525.295	-0.075	0.177
-252.078	303.631	0.165	-0.307
-251.063	-112.853	-0.204	-0.041
-250.049	-200.000	-0.031	-0.167
-249.034	-200.000	0.021	0.122
-248.019	127.290	0.070	0.089
-247.005	253.825	-0.124	0.213
-245.990	66.458	0.078	0.079
-244.976	-104.939	0.087	0.020
-243.961	-200.000	-0.003	0.363
-242.946	-83.685	-0.219	-0.070
-241.932	800.000	0.067	0.196
-240.917	-88.357	-0.099	-0.030
-239.903	-117.544	-0.156	0.028
-238.888	-115.965	-0.209	0.039
-237.873	186.045	0.088	-0.132
-236.859	-118.609	0.272	-0.048
-235.844	125.322	-0.184	-0.233
-234.830	58.814	0.120	-0.119
-233.815	627.368	-0.103	-0.262
-232.800	-59.510	0.222	-0.096
-231.786	-200.000	-0.004	0.112
-230.771	179.575	-0.098	0.145
-229.757	800.000	0.086	0.286
-228.742	800.000	0.071	0.225
-227.727	120.392	-0.072	-0.090
-226.713	-200.000	0.067	-0.340
-225.698	310.239	0.176	0.331
-224.684	800.000	0.029	0.081
-223.669	-200.000	-0.006	-0.175
-222.655	54.761	0.219	0.211
-221.640	800.000	-0.062	0.188
-220.625	800.000	-0.068	-0.268
-219.611	-8.252	0.214	-0.145
-218.596	351.657	0.137	0.272
-217.582	-49.357	0.279	-0.133
-216.567	-76.412	-0.416	0.147
-215.552	800.000	0.082	0.285
-214.538	-132.806	0.264	0.034
-213.523	800.000	0.028	-0.089
-212.509	-200.000	0.043	-0.207
-211.494	-155.243	-0.307	-0.020
-210.479	-200.000	0.020	-0.181
-209.465	247.822	0.142	-0.240
-208.450	-77.844	-0.093	-0.032
-207.436	135.810	-0.065	-0.085
-206.421	86.796	-0.199	-0.220
-205.406	257.482	0.008	0.014
-204.392	-89.194	-0.222	0.066
-203.377	24.933	-0.110	0.091
-202.363	-101.997	0.345	0.083
-201.348	18.206	0.205	0.164
-200.333	-170.195	-0.234	0.008
-199.319	-200.000	-0.008	0.074
-198.304	-34.666	-0.165	0.090
-197.290	-200.000	0.015	-0.193
-196.275	-35.306	-0.170	-0.092
-195.260	-10.153	-0.261	-0.173
-194.246	7.202	-0.203	0.152
-193.231	309.983	-0.139	0.261
-192.217	-190.821	0.095	0.001
-191.202	800.000	-0.112	-0.380
-190.187	297.509	-0.096	-0.177
-189.173	800.000	-0.050	0.178
-188.158	-120.707	-0.199	0.034
-187.144	800.000	-0.038	0.142
-186.129	-200.000	-0.020	0.265
-185.114	-200.000	0.031	0.503
-184.100	313.102	0.058	0.109
-183.085	-92.561	0.372	0.105
-182.071	158.582	0.097	0.135
-181.056	800.000	0.030	0.105
-180.042	241.913	-0.011	0.018
-179.027	-75.676	-0.207	-0.073
-178.012	-38.128	-0.088	0.047
-176.998	-42.542	-0.396	0.202
-175.983	-8.367	0.429	-0.289
-174.969	383.512	0.105	0.216
-173.954	280.362	0.145	0.260
-172.939	703.888	-0.134	0.355
-171.925	418.904	-0.160	-0.342
-170.910	-135.335	-0.196	-0.023
-169.896	-200.000	-0.008	0.094
-168.881	177.609	0.093	-0.136
-167.866	21.716	0.265	-0.216
-166.852	-34.910	0.102	0.056
-165.837	-200.000	-0.027	-0.294
-164.823	264.200	-0.035	-0.060
-163.808	124.119	-0.178	-0.224
-162.793	415.317	-0.058	0.125
-161.779	20.477	0.004	0.003
-160.764	-200.000	0.016	0.144
-159.750	-7.179	-0.192	0.131
-158.735	197.131	0.180	0.274
-157.720	800.000	-0.052	0.201
-156.706	54.559	0.142	0.137
-155.691	-197.911	-0.217	0.001
-154.677	-103.429	-0.238	-0.056
-153.662	-120.324	0.197	0.034
-152.647	-200.000	-0.050	0.389
-151.633	168.185	-0.159	0.227
-150.618	164.545	-0.092	-0.130
-149.604	112.995	0.110	-0.134
-148.589	102.768	0.191	0.224
-147.574	-150.252	-0.362	0.028
-146.560	97.824	-0.151	0.174
-145.545	154.334	0.126	0.173
-144.531	800.000	-0.047	0.169
-143.516	-116.346	-0.635	-0.117
-142.502	-176.808	0.367	0.009
-141.487	2.784	0.139	0.101
-140.472	-200.000	0.010	-0.172
-139.458	-120.860	-0.227	0.038
-138.443	-58.002	0.114	-0.050
-137.429	-64.555	-0.121	0.049
-136.414	800.000	0.076	0.243
-135.399	199.132	0.066	-0.101
-134.385	800.000	0.104	-0.326
-133.370	-71.811	-0.330	-0.123
-132.356	-66.773	0.385	-0.152
-131.341	-200.000	0.030	0.205
-130.326	99.290	-0.037	-0.042
-129.312	329.480	0.125	-0.240
-128.297	-18.491	0.193	0.120
-127.283	-126.550	-0.305	0.045
-126.268	171.822	0.103	0.148
-125.253	800.000	-0.115	0.328
-124.239	95.550	-0.051	0.058
-123.224	-75.618	0.121	0.043
-122.210	-200.000	0.005	-0.095
-121.195	98.565	0.107	-0.124
-120.180	800.000	-0.086	0.302
