DTS Sentinel unit serial number:	SN413079Multiplexer serial number:	ORYXHardware model number:	OX4-SRSoftware version number:	ORYX F/W v4.00 Oryx Data Collector v3.7.2.0data status	okinstallation	princeton_trtdifferential loss correction	single-endedforward channel	channel 1reverse channel	N/Adate	2019/09/10time	20:28:11forward acquisition time	60.00reverse acquisition time	0.00gamma	496.2192k internal	0.2327k external	0.2327temperature offset calibration	0.9932default loss term (dB/km)	0.3790temperature slope calibration	1.0000multiplexer offset coefficient	1.0000multiplexer slope coefficient	1.0000fibre end	0.00T internal ref (°C)	32.05T ext. ref 1 (°C)	-0.31T ext. ref 2 (°C)	25.22length (m)	temperature (°C)	Stokes	anti-Stokes-747.200	-33.531	-0.193	0.107
-746.185	-53.059	0.108	-0.050
-745.171	-200.000	0.003	0.210
-744.156	100.262	-0.260	0.304
-743.142	-200.000	0.061	0.430
-742.127	88.544	-0.148	0.166
-741.112	-143.634	-0.177	-0.017
-740.098	800.000	-0.015	-0.064
-739.083	-30.623	0.156	0.089
-738.069	-200.000	0.016	0.325
-737.054	773.769	0.036	0.100
-736.039	-28.307	-0.104	-0.061
-735.025	-157.834	0.246	0.015
-734.010	-104.819	-0.284	-0.066
-732.996	103.962	-0.167	-0.198
-731.981	91.162	-0.176	-0.199
-730.966	22.292	0.063	-0.052
-729.952	225.639	-0.059	0.097
-728.937	-200.000	-0.033	-0.323
-727.923	-200.000	0.022	-0.122
-726.908	-146.425	-0.298	0.026
-725.894	98.618	0.178	-0.207
-724.879	-46.513	0.177	-0.088
-723.864	-1.752	-0.297	0.211
-722.850	800.000	-0.037	0.137
-721.835	32.491	-0.337	-0.293
-720.821	-57.615	-0.078	-0.034
-719.806	347.147	-0.069	-0.136
-718.791	322.851	0.117	-0.224
-717.777	-15.884	-0.275	-0.176
-716.762	-200.000	-0.027	0.241
-715.748	52.454	0.249	-0.239
-714.733	198.572	0.099	-0.152
-713.718	-200.000	-0.053	-0.325
-712.704	420.894	0.106	-0.228
-711.689	136.633	-0.059	-0.078
-710.675	-200.000	-0.005	0.189
-709.660	-128.343	-0.118	0.017
-708.645	51.390	-0.125	0.120
-707.631	-35.476	0.112	0.062
-706.616	-200.000	-0.005	-0.070
-705.602	800.000	-0.062	0.261
-704.587	63.940	0.141	0.142
-703.572	800.000	-0.106	0.337
-702.558	-200.000	0.005	0.051
-701.543	800.000	0.059	-0.257
-700.529	-200.000	0.001	-0.188
-699.514	-119.968	0.346	0.060
-698.499	165.582	-0.098	0.139
-697.485	212.716	0.088	0.139
-696.470	-108.930	0.095	0.020
-695.456	348.044	0.207	-0.410
-694.441	204.993	0.089	-0.138
-693.426	-200.000	-0.010	-0.138
-692.412	194.969	0.059	-0.090
-691.397	-200.000	-0.021	-0.117
-690.383	-200.000	0.013	-0.380
-689.368	800.000	0.055	-0.193
-688.354	42.529	-0.054	0.050
-687.339	144.588	0.300	-0.403
-686.324	215.090	-0.097	0.155
-685.310	150.073	-0.276	-0.376
-684.295	141.631	0.155	-0.207
-683.281	56.912	0.148	-0.145
-682.266	-69.402	-0.136	-0.053
-681.251	8.645	-0.152	-0.115
-680.237	-17.810	0.128	-0.081
-679.222	-71.534	-0.217	-0.082
-678.208	-200.000	0.011	-0.198
-677.193	99.599	-0.098	-0.114
-676.178	-40.644	0.182	-0.095
-675.164	800.000	-0.077	-0.228
-674.149	76.502	0.019	0.020
-673.135	-84.880	0.256	0.081
-672.120	-200.000	-0.023	-0.141
-671.105	-200.000	0.024	-0.387
-670.091	113.247	0.295	-0.360
-669.076	800.000	-0.044	0.136
-668.062	-200.000	0.023	-0.380
-667.047	-200.000	-0.046	-0.518
-666.032	10.499	-0.055	-0.042
-665.018	192.316	0.125	0.190
-664.003	800.000	0.084	0.293
-662.989	-63.491	-0.172	0.071
-661.974	-172.957	0.178	-0.006
-660.959	-74.131	0.079	0.029
-659.945	25.581	-0.117	0.098
-658.930	-106.258	0.366	-0.082
-657.916	-118.567	0.339	-0.060
-656.901	800.000	0.091	-0.278
-655.886	15.431	0.222	-0.175
-654.872	800.000	0.062	0.273
-653.857	-200.000	-0.011	0.060
-652.843	-143.615	0.314	-0.030
-651.828	-68.905	0.312	0.121
-650.814	158.678	0.081	-0.113
-649.799	-32.571	0.194	-0.109
-648.784	-86.367	0.166	0.051
-647.770	50.595	-0.236	0.224
-646.755	-23.863	-0.242	0.146
-645.741	-200.000	-0.002	-0.279
-644.726	-200.000	-0.022	0.225
-643.711	68.173	0.134	0.137
-642.697	263.970	-0.107	-0.186
-641.682	-200.000	0.012	-0.293
-640.668	126.373	-0.093	-0.118
-639.653	47.417	-0.119	-0.111
-638.638	706.560	0.140	-0.370
-637.624	119.357	-0.202	0.251
-636.609	-200.000	-0.010	-0.214
-635.595	209.266	0.164	-0.257
-634.580	-155.155	-0.215	-0.014
-633.565	-200.000	-0.025	0.177
-632.551	-121.993	0.203	0.033
-631.536	-95.583	0.285	-0.077
-630.522	-167.817	-0.398	0.016
-629.507	-88.703	-0.293	0.087
-628.492	179.712	0.084	-0.124
-627.478	67.929	0.271	0.279
-626.463	31.512	-0.132	0.114
-625.449	-132.577	0.237	-0.031
-624.434	-199.208	-0.165	0.001
-623.419	800.000	0.086	-0.285
-622.405	95.339	0.029	-0.033
-621.390	-28.447	0.165	-0.095
-620.376	-63.944	0.318	0.130
-619.361	-92.884	-0.184	-0.051
-618.346	-42.890	-0.062	0.032
-617.332	-200.000	-0.019	0.158
-616.317	-61.270	-0.189	-0.080
-615.303	-200.000	0.017	0.188
-614.288	75.654	-0.215	-0.228
-613.273	-200.000	-0.058	0.318
-612.259	527.455	0.049	-0.116
-611.244	218.300	-0.030	0.049
-610.230	-83.106	-0.184	0.059
-609.215	398.694	0.131	-0.275
-608.201	227.860	0.183	-0.299
-607.186	788.953	-0.076	-0.209
-606.171	-85.131	-0.268	-0.084
-605.157	-129.611	-0.066	-0.009
-604.142	-118.925	-0.227	-0.040
-603.128	-88.624	-0.301	0.090
-602.113	-43.253	0.289	0.147
-601.098	459.874	-0.034	0.076
-600.084	699.920	0.082	0.216
-599.069	86.707	0.101	0.112
-598.055	129.523	0.043	0.055
-597.040	-170.551	-0.131	0.005
-596.025	-100.561	-0.314	0.078
-595.011	-76.093	-0.312	-0.110
-593.996	-8.336	-0.106	-0.072
-592.982	306.321	-0.052	-0.097
-591.967	116.728	-0.146	-0.180
-590.952	-84.427	-0.324	-0.103
-589.938	459.265	-0.141	0.314
-588.923	-7.120	0.084	0.057
-587.909	800.000	0.063	0.229
-586.894	-72.028	-0.167	-0.062
-585.879	37.330	0.253	0.225
-584.865	-200.000	-0.005	0.079
-583.850	-67.302	-0.317	-0.125
-582.836	558.413	0.054	-0.130
-581.821	35.711	0.211	-0.186
-580.806	-105.462	-0.408	0.093
-579.792	-200.000	0.021	-0.115
-578.777	-1.921	0.216	0.152
-577.763	-200.000	-0.009	-0.104
-576.748	-89.176	-0.266	-0.079
-575.733	-57.881	0.100	-0.044
-574.719	-200.000	0.045	-0.238
-573.704	-200.000	0.075	0.444
-572.690	10.287	-0.120	0.092
-571.675	-94.795	-0.305	-0.083
-570.661	199.722	-0.136	-0.209
-569.646	30.240	-0.232	-0.199
-568.631	204.994	0.149	0.231
-567.617	-41.471	-0.138	-0.071
-566.602	22.322	-0.204	-0.167
-565.588	-200.000	-0.005	0.289
-564.573	-200.000	0.012	0.099
-563.558	-124.446	-0.248	-0.039
-562.544	136.582	-0.053	-0.069
-561.529	60.724	0.190	-0.189
-560.515	39.425	-0.062	0.055
-559.500	800.000	0.056	-0.225
-558.485	-90.547	-0.379	-0.110
-557.471	-113.664	0.107	-0.021
-556.456	167.800	0.086	-0.123
-555.442	800.000	-0.063	-0.258
-554.427	-176.989	0.140	0.004
-553.412	-46.433	-0.181	0.089
-552.398	7.988	0.233	-0.175
-551.383	-152.715	0.319	0.023
-550.369	-146.310	-0.150	0.013
-549.354	800.000	0.082	0.228
-548.339	-126.205	-0.153	-0.023
-547.325	-200.000	0.041	0.201
-546.310	-77.177	0.254	-0.089
-545.296	14.612	0.227	-0.177
-544.281	35.561	0.094	-0.083
-543.266	10.667	0.084	-0.064
-542.252	35.392	-0.209	-0.184
-541.237	297.096	0.106	0.195
-540.223	-8.675	-0.150	0.100
-539.208	-66.423	-0.292	-0.116
-538.193	-82.938	-0.101	-0.032
-537.179	800.000	-0.070	0.225
-536.164	-200.000	0.002	-0.154
-535.150	-200.000	0.018	0.649
-534.135	800.000	-0.063	0.181
-533.121	439.504	-0.028	-0.060
-532.106	8.948	-0.341	0.257
-531.091	77.735	-0.119	-0.127
-530.077	304.263	-0.125	-0.232
-529.062	-161.226	0.063	-0.003
-528.048	-23.764	0.176	0.105
-527.033	30.408	-0.215	0.184
-526.018	196.305	-0.147	0.223
-525.004	-103.493	-0.224	0.053
-523.989	800.000	-0.031	-0.111
-522.975	-19.712	0.043	-0.026
-521.960	-200.000	0.013	0.196
-520.945	-32.807	-0.284	0.158
-519.931	800.000	-0.018	-0.072
-518.916	-18.359	-0.080	0.050
-517.902	-200.000	0.000	0.355
-516.887	69.388	-0.078	0.081
-515.872	-200.000	0.100	-0.453
-514.858	-14.542	0.113	-0.073
-513.843	-9.214	-0.143	0.096
-512.829	137.003	-0.199	-0.260
-511.814	27.618	0.177	0.149
-510.799	-200.000	0.034	-0.218
-509.785	49.477	0.225	0.212
-508.770	-134.606	0.160	0.019
-507.756	-123.724	0.272	0.043
-506.741	22.004	0.192	-0.157
-505.726	72.536	0.164	-0.171
-504.712	-158.559	-0.407	0.023
-503.697	-45.951	0.321	-0.158
-502.683	665.724	-0.067	0.174
-501.668	-16.811	0.190	-0.120
-500.653	260.372	-0.059	-0.101
-499.639	-200.000	-0.036	-0.263
-498.624	-63.758	-0.152	-0.062
-497.610	-129.172	-0.267	0.037
-496.595	-26.646	0.058	0.034
-495.581	-200.000	-0.004	0.093
-494.566	11.119	-0.143	0.109
-493.551	-11.308	-0.239	-0.157
-492.537	-200.000	-0.001	0.217
-491.522	-90.492	0.252	0.073
-490.508	-137.107	-0.113	0.013
-489.493	209.746	0.090	-0.140
-488.478	800.000	0.016	0.045
-487.464	243.857	-0.059	0.098
-486.449	-122.537	0.134	0.022
-485.435	162.994	0.090	0.127
-484.420	-46.695	0.041	0.020
-483.405	330.409	-0.032	0.061
-482.391	30.724	0.133	-0.114
-481.376	332.592	-0.177	0.341
-480.362	-88.440	0.141	0.042
-479.347	800.000	0.016	-0.066
-478.332	84.503	0.175	-0.191
-477.318	-71.014	-0.349	0.131
-476.303	-200.000	-0.021	0.173
-475.289	-0.359	0.105	-0.074
-474.274	148.854	-0.123	0.166
-473.259	-78.004	-0.330	-0.113
-472.245	293.147	0.103	0.188
-471.230	-97.692	-0.058	0.015
-470.216	-38.691	0.275	0.145
-469.201	-200.000	-0.023	0.327
-468.186	-186.027	-0.171	0.003
-467.172	-111.994	0.243	-0.049
-466.157	-200.000	-0.008	0.037
-465.143	-151.036	-0.161	-0.012
-464.128	800.000	-0.104	0.376
-463.113	147.964	0.042	0.057
-462.099	-88.210	0.124	-0.037
-461.084	178.841	-0.114	0.167
-460.070	229.294	-0.167	0.271
-459.055	-42.690	-0.223	0.113
-458.040	-98.942	0.275	0.070
-457.026	800.000	-0.036	-0.126
-456.011	-150.401	-0.324	-0.025
-454.997	318.475	0.077	0.145
-453.982	-38.235	-0.082	-0.043
-452.968	275.559	-0.102	-0.181
-451.953	130.551	-0.210	0.269
-450.938	800.000	-0.067	-0.190
-449.924	89.736	-0.225	-0.250
-448.909	12.817	-0.147	0.113
-447.895	-200.000	0.008	-0.049
-446.880	378.257	-0.125	0.255
-445.865	-200.000	0.028	-0.267
-444.851	164.751	0.082	0.115
-443.836	-200.000	0.028	0.367
-442.822	-23.718	-0.068	0.041
-441.807	-200.000	-0.067	0.470
-440.792	-159.549	0.364	0.020
-439.778	510.520	0.063	-0.145
-438.763	-200.000	-0.019	-0.122
-437.749	-200.000	-0.006	-0.162
-436.734	800.000	-0.039	0.161
-435.719	-55.662	0.136	0.060
-434.705	75.413	0.125	-0.131
-433.690	90.774	0.128	-0.143
-432.676	-24.227	-0.126	0.075
-431.661	73.297	-0.199	-0.207
-430.646	-121.605	-0.232	0.038
-429.632	-3.620	0.356	-0.247
-428.617	-41.773	0.266	-0.136
-427.603	188.781	-0.089	-0.133
-426.588	-112.601	-0.075	-0.015
-425.573	21.728	-0.163	-0.132
-424.559	301.634	0.121	-0.223
-423.544	132.237	0.089	0.115
-422.530	36.911	-0.179	-0.158
-421.515	800.000	0.048	-0.145
-420.500	5.457	0.329	-0.242
-419.486	-129.101	0.148	-0.021
-418.471	128.260	0.153	-0.193
-417.457	145.927	-0.160	-0.213
-416.442	61.671	-0.214	-0.212
-415.428	800.000	-0.077	-0.268
-414.413	-88.300	-0.044	-0.013
-413.398	212.763	0.142	-0.223
-412.384	800.000	-0.069	0.221
-411.369	-100.352	0.573	0.141
-410.355	38.618	0.271	-0.241
-409.340	384.287	0.044	0.091
-408.325	-200.000	0.007	-0.128
-407.311	800.000	-0.032	-0.092
-406.296	800.000	-0.205	-0.693
-405.282	-200.000	-0.010	0.089
-404.267	-144.736	0.107	0.010
-403.252	-87.812	-0.222	-0.066
-402.238	648.868	0.025	0.063
-401.223	-162.656	-0.104	-0.005
-400.209	800.000	0.032	0.129
-399.194	-72.224	-0.352	0.130
-398.179	-47.985	0.274	0.132
-397.165	488.137	-0.103	-0.233
-396.150	-200.000	-0.107	-0.687
-395.136	800.000	-0.115	-0.342
-394.121	-90.702	0.340	0.098
-393.106	800.000	0.136	-0.570
-392.092	60.283	-0.100	0.098
-391.077	-58.402	0.157	0.068
-390.063	-165.654	0.140	0.006
-389.048	141.986	-0.135	0.178
-388.033	800.000	-0.035	0.138
-387.019	-200.000	0.045	-0.306
-386.004	466.808	0.056	-0.125
-384.990	-68.735	0.213	-0.082
-383.975	273.067	0.103	0.182
-382.960	-87.205	0.046	0.014
-381.946	395.877	0.035	-0.073
-380.931	-1.639	0.171	-0.120
-379.917	300.849	-0.156	0.286
-378.902	-102.864	0.187	0.044
-377.888	22.666	-0.043	0.035
-376.873	-139.606	0.021	-0.002
-375.858	198.201	-0.082	-0.125
-374.844	148.352	0.162	-0.218
-373.829	-105.619	-0.363	0.082
-372.815	800.000	0.059	0.216
-371.800	584.681	0.188	0.458
-370.785	-200.000	-0.030	-0.159
-369.771	147.049	0.091	-0.121
-368.756	-168.989	-0.412	0.015
-367.742	-103.076	-0.267	-0.063
-366.727	-200.000	-0.080	-0.376
-365.712	-200.000	-0.028	-0.188
-364.698	300.521	0.039	-0.072
-363.683	-200.000	0.008	-0.065
-362.669	-200.000	-0.050	0.444
-361.654	-127.824	0.213	-0.031
-360.639	-119.690	0.149	-0.026
-359.625	166.378	-0.108	-0.152
-358.610	-104.231	0.212	-0.049
-357.596	55.273	-0.159	-0.152
-356.581	734.018	0.073	-0.193
-355.566	-175.467	0.331	-0.009
-354.552	-81.185	-0.263	0.086
-353.537	800.000	0.016	0.054
-352.523	143.512	0.187	-0.247
-351.508	-18.239	0.227	-0.141
-350.493	257.832	0.122	-0.208
-349.479	-118.380	0.126	-0.022
-348.464	-200.000	0.039	0.272
-347.450	-81.228	0.091	0.030
-346.435	800.000	0.019	0.082
-345.420	800.000	0.052	-0.226
-344.406	-65.356	-0.291	0.116
-343.391	636.828	0.064	-0.162
-342.377	-200.000	-0.009	-0.200
-341.362	95.959	-0.040	-0.045
-340.348	-200.000	-0.012	-0.311
-339.333	163.262	-0.219	-0.305
-338.318	373.856	-0.070	0.141
-337.304	-155.875	-0.126	0.008
-336.289	-200.000	0.007	-0.159
-335.275	-96.251	0.241	0.063
-334.260	84.734	-0.184	-0.200
-333.245	-156.876	0.108	-0.007
-332.231	326.667	-0.145	-0.275
-331.216	800.000	-0.066	-0.219
-330.202	-200.000	-0.032	0.251
-329.187	141.811	-0.176	-0.231
-328.172	-32.492	-0.277	-0.153
-327.158	39.517	0.204	0.181
-326.143	-115.417	0.160	0.030
-325.129	800.000	0.076	0.274
-324.114	639.531	-0.068	0.173
-323.099	800.000	-0.027	0.103
-322.085	52.098	0.216	-0.204
-321.070	382.942	-0.049	-0.100
-320.056	172.839	0.091	-0.130
-319.041	558.024	-0.072	0.172
-318.026	800.000	-0.063	0.249
-317.012	627.786	-0.122	-0.305
-315.997	800.000	0.145	0.488
-314.983	329.817	-0.081	0.155
-313.968	240.139	-0.096	-0.159
-312.953	-98.389	-0.105	0.027
-311.939	-31.023	0.255	0.142
-310.924	87.166	0.173	0.189
-309.910	271.866	-0.138	0.240
-308.895	-100.042	0.275	0.068
-307.880	-35.110	0.199	-0.107
-306.866	37.825	0.122	-0.107
-305.851	-162.336	0.304	0.015
-304.837	235.344	0.258	0.422
-303.822	-56.647	-0.186	0.082
-302.807	-63.672	0.243	0.099
-301.793	-200.000	-0.006	-0.041
-300.778	25.713	0.144	0.119
-299.764	-200.000	0.002	-0.190
-298.749	-78.931	0.233	-0.079
-297.735	34.760	-0.152	0.132
-296.720	-176.466	0.265	0.007
-295.705	397.282	0.116	-0.239
-294.691	-33.899	-0.284	0.155
-293.676	-20.547	-0.092	0.056
-292.662	16.909	-0.109	0.085
-291.647	392.358	0.070	0.144
-290.632	-67.360	-0.102	0.040
-289.618	-23.483	0.292	0.174
-288.603	69.998	0.088	-0.090
-287.589	-152.570	0.181	-0.013
-286.574	156.617	0.230	-0.314
-285.559	326.735	0.106	0.201
-284.545	19.166	0.391	-0.311
-283.530	800.000	0.088	-0.306
-282.516	-200.000	0.046	-0.235
-281.501	-62.580	-0.242	0.100
-280.486	800.000	-0.021	-0.058
-279.472	-82.866	0.439	-0.140
-278.457	-188.404	-0.283	0.004
-277.443	131.599	-0.101	-0.129
-276.428	287.516	-0.079	-0.141
-275.413	-74.222	0.415	0.149
-274.399	-200.000	-0.044	0.349
-273.384	800.000	0.029	0.098
-272.370	82.387	0.092	-0.099
-271.355	-200.000	0.001	0.185
-270.340	800.000	-0.046	-0.137
-269.326	404.002	0.043	-0.089
-268.311	-200.000	0.062	0.371
-267.297	-11.232	-0.108	0.071
-266.282	333.463	-0.126	0.242
-265.267	-200.000	-0.001	-0.077
-264.253	-116.245	0.237	-0.043
-263.238	-43.902	0.094	-0.047
-262.224	-34.434	0.128	0.070
-261.209	-92.994	-0.130	0.036
-260.195	147.393	-0.023	0.030
-259.180	186.698	0.340	0.500
-258.165	800.000	0.102	0.430
-257.151	-140.106	0.494	-0.051
-256.136	-200.000	-0.031	0.211
-255.122	-70.216	-0.137	-0.051
-254.107	-47.476	0.203	-0.098
-253.092	-200.000	0.049	0.293
-252.078	519.996	-0.086	-0.199
-251.063	103.542	-0.308	-0.358
-250.049	211.883	0.147	-0.228
-249.034	-49.567	-0.084	0.040
-248.019	673.314	0.053	-0.135
-247.005	235.719	0.046	0.075
-245.990	-200.000	0.043	-0.344
-244.976	500.196	0.090	-0.205
-243.961	-137.932	-0.270	-0.030
-242.946	14.018	-0.144	-0.111
-241.932	-161.741	0.088	0.004
-240.917	-200.000	0.032	-0.401
-239.903	34.379	0.150	0.129
-238.888	800.000	-0.101	-0.307
-237.873	31.756	-0.080	0.068
-236.859	-200.000	-0.018	0.085
-235.844	172.229	0.117	0.166
-234.830	-200.000	-0.055	-0.252
-233.815	-200.000	0.004	0.143
-232.800	-19.781	-0.073	-0.044
-231.786	163.531	-0.088	-0.122
-230.771	-119.123	0.358	-0.062
-229.757	-200.000	0.041	-0.393
-228.742	252.930	0.107	-0.180
-227.727	-180.150	0.088	-0.002
-226.713	-174.508	-0.305	-0.009
-225.698	268.959	0.035	-0.061
-224.684	-118.649	0.188	0.033
-223.669	-9.438	-0.212	0.140
-222.655	581.540	-0.066	0.159
-221.640	432.629	0.089	0.190
-220.625	-200.000	0.024	0.271
-219.611	104.693	0.054	0.063
-218.596	-108.716	0.329	-0.070
-217.582	-200.000	-0.063	0.369
-216.567	-200.000	0.036	0.239
-215.552	-200.000	-0.006	0.049
-214.538	261.154	-0.137	-0.235
-213.523	-99.995	-0.091	0.022
-212.509	-29.527	-0.264	0.149
-211.494	-120.179	-0.108	-0.018
-210.479	33.611	-0.162	0.139
-209.465	-84.136	0.341	0.107
-208.450	-135.399	-0.350	0.041
-207.436	800.000	0.108	0.330
-206.421	-45.562	-0.271	-0.132
-205.406	15.738	-0.133	-0.103
-204.392	-200.000	-0.005	0.070
-203.377	94.161	-0.139	-0.156
-202.363	800.000	0.033	0.091
-201.348	800.000	-0.107	0.353
-200.333	-200.000	-0.011	0.224
-199.319	-154.482	-0.278	0.018
-198.304	800.000	-0.033	-0.124
-197.290	-100.420	0.185	0.045
-196.275	-89.765	0.333	0.096
-195.260	-200.000	-0.012	-0.063
-194.246	-34.249	-0.216	-0.117
-193.231	-73.503	-0.171	-0.062
-192.217	-24.247	0.270	-0.159
-191.202	112.987	-0.054	0.064
-190.187	-47.173	-0.059	0.028
-189.173	110.361	0.120	0.142
-188.158	800.000	0.049	0.193
-187.144	800.000	0.033	0.128
-186.129	219.878	0.200	0.316
-185.114	-156.096	0.220	-0.014
-184.100	710.525	0.055	-0.143
-183.085	58.729	-0.301	0.292
-182.071	-163.504	0.095	0.004
-181.056	290.964	-0.116	-0.209
-180.042	800.000	0.095	-0.334
-179.027	-58.970	0.424	0.181
-178.012	181.729	-0.131	0.191
-176.998	473.176	-0.060	0.134
-175.983	0.773	0.040	-0.029
-174.969	-35.819	0.248	-0.133
-173.954	86.976	0.245	0.267
-172.939	-91.789	-0.288	-0.081
-171.925	129.633	0.179	0.225
-170.910	81.511	0.264	0.281
-169.896	76.001	-0.063	0.065
-168.881	-12.592	-0.245	-0.158
-167.866	-115.216	0.339	0.063
-166.852	-159.977	0.158	-0.009
-165.837	-200.000	0.046	0.230
-164.823	-32.720	-0.311	0.170
-163.808	800.000	-0.103	0.402
-162.793	-200.000	-0.010	0.208
-161.779	54.072	0.205	0.194
-160.764	-150.581	-0.322	-0.024
-159.750	263.117	0.106	0.181
-158.735	276.183	-0.071	0.124
-157.720	-14.490	0.238	0.151
-156.706	-140.454	-0.157	-0.016
-155.691	-200.000	0.020	-0.472
-154.677	283.926	0.014	-0.025
-153.662	-151.348	-0.105	-0.008
-152.647	-189.448	0.268	0.003
-151.633	-67.509	-0.365	0.141
-150.618	-76.676	-0.266	0.092
-149.604	-118.240	0.181	-0.032
-148.589	197.641	-0.028	-0.043
-147.574	-105.650	0.224	0.050
-146.560	457.691	0.103	-0.225
-145.545	-136.096	0.171	0.020
-144.531	-105.315	0.321	0.072
-143.516	-12.730	0.148	0.095
-142.502	-108.143	0.285	-0.061
-141.487	800.000	0.162	0.439
-140.472	123.200	0.115	0.142
-139.458	-56.094	0.187	-0.082
-138.443	-200.000	-0.013	0.061
-137.429	-77.134	-0.473	-0.162
-136.414	74.632	0.184	-0.190
-135.399	-52.536	-0.343	0.156
-134.385	-200.000	-0.086	-0.401
-133.370	-91.954	-0.483	0.135
-132.356	-200.000	0.005	-0.088
-131.341	531.506	0.092	0.215
-130.326	-200.000	0.020	0.180
-129.312	28.363	0.014	-0.012
-128.297	-200.000	-0.025	0.132
-127.283	-200.000	0.007	0.082
-126.268	455.039	0.059	0.129
-125.253	-200.000	0.011	0.100
-124.239	320.122	0.092	-0.171
-123.224	184.286	0.172	-0.250
-122.210	800.000	-0.092	-0.273
