DTS Sentinel unit serial number:	SN413079Multiplexer serial number:	ORYXHardware model number:	OX4-SRSoftware version number:	ORYX F/W v4.00 Oryx Data Collector v3.7.2.0data status	okinstallation	princeton_trtdifferential loss correction	single-endedforward channel	channel 1reverse channel	N/Adate	2019/09/10time	17:52:11forward acquisition time	60.00reverse acquisition time	0.00gamma	496.2192k internal	0.2301k external	0.2301temperature offset calibration	0.9928default loss term (dB/km)	0.3790temperature slope calibration	1.0000multiplexer offset coefficient	1.0000multiplexer slope coefficient	1.0000fibre end	0.00T internal ref (°C)	37.39T ext. ref 1 (°C)	-0.35T ext. ref 2 (°C)	30.06length (m)	temperature (°C)	Stokes	anti-Stokes-747.200	-200.000	0.013	0.241
-746.185	-137.323	0.343	-0.040
-745.171	-107.180	0.187	-0.042
-744.156	0.862	-0.125	-0.091
-743.142	463.541	0.046	-0.104
-742.127	344.947	-0.128	0.256
-741.112	64.415	-0.083	0.085
-740.098	-138.535	0.398	0.045
-739.083	-189.045	0.100	-0.001
-738.069	-59.978	-0.097	0.042
-737.054	-62.805	-0.214	-0.090
-736.039	-130.902	-0.271	0.037
-735.025	201.182	0.239	0.374
-734.010	-80.559	0.062	-0.021
-732.996	-102.033	0.422	-0.104
-731.981	673.622	0.047	0.124
-730.966	10.860	-0.139	-0.108
-729.952	-78.053	0.434	0.152
-728.937	-176.546	-0.262	-0.007
-727.923	-200.000	0.021	-0.213
-726.908	193.557	0.141	-0.217
-725.894	191.346	-0.158	-0.242
-724.879	147.871	-0.216	-0.297
-723.864	800.000	-0.020	-0.066
-722.850	-41.627	-0.357	0.187
-721.835	-55.690	0.147	-0.067
-720.821	-144.940	0.201	0.019
-719.806	-200.000	-0.012	0.152
-718.791	373.392	-0.143	-0.296
-717.777	-17.867	-0.177	-0.113
-716.762	28.263	0.198	0.171
-715.748	250.106	-0.166	-0.286
-714.733	800.000	0.067	-0.252
-713.718	-78.131	0.020	-0.007
-712.704	-76.200	0.025	0.009
-711.689	69.721	-0.161	-0.169
-710.675	53.753	-0.123	-0.120
-709.660	-109.375	0.198	-0.043
-708.645	-122.438	-0.139	0.023
-707.631	-130.663	0.290	-0.040
-706.616	-200.000	0.012	-0.203
-705.602	138.768	0.159	-0.213
-704.587	-200.000	-0.012	-0.202
-703.572	-61.522	0.085	-0.036
-702.558	-200.000	0.019	-0.233
-701.543	-106.170	-0.252	0.058
-700.529	-200.000	0.025	0.131
-699.514	-72.083	-0.174	0.066
-698.499	-142.163	-0.256	0.026
-697.485	21.269	0.238	0.196
-696.470	255.800	-0.039	0.068
-695.456	382.954	0.025	-0.052
-694.441	381.441	-0.093	-0.195
-693.426	562.048	-0.022	0.053
-692.412	425.809	0.074	0.163
-691.397	-200.000	0.008	-0.146
-690.383	-200.000	0.057	-0.289
-689.368	232.777	0.255	0.427
-688.354	-82.576	-0.239	-0.079
-687.339	187.184	0.058	-0.088
-686.324	-97.751	0.200	-0.053
-685.310	-147.432	-0.289	-0.025
-684.295	800.000	-0.026	-0.106
-683.281	-71.356	0.140	0.053
-682.266	62.560	-0.038	0.038
-681.251	101.783	0.181	-0.214
-680.237	-22.947	0.419	0.257
-679.222	-183.892	0.133	0.002
-678.208	-151.184	-0.153	0.012
-677.193	-132.733	0.115	0.015
-676.178	-200.000	0.019	-0.189
-675.164	800.000	-0.044	0.156
-674.149	-4.147	-0.243	-0.171
-673.135	7.253	-0.132	-0.100
-672.120	-134.023	0.234	0.030
-671.105	-200.000	0.016	0.176
-670.091	-106.548	-0.274	-0.062
-669.076	318.256	0.098	-0.188
-668.062	259.056	0.012	-0.021
-667.047	800.000	-0.068	0.210
-666.032	-35.666	0.260	-0.143
-665.018	-149.537	0.140	-0.011
-664.003	800.000	-0.123	0.466
-662.989	-167.444	0.326	0.013
-661.974	-37.789	0.504	-0.273
-660.959	800.000	-0.088	0.273
-659.945	2.625	-0.062	0.046
-658.930	-200.000	0.035	0.182
-657.916	48.499	0.161	-0.153
-656.901	800.000	-0.009	-0.039
-655.886	57.719	-0.136	0.135
-654.872	59.324	0.108	-0.108
-653.857	216.190	0.058	-0.093
-652.843	0.354	0.132	0.096
-651.828	73.015	-0.196	0.208
-650.814	800.000	0.056	-0.212
-649.799	-16.980	0.083	-0.053
-648.784	-74.510	0.221	0.081
-647.770	342.051	-0.022	-0.043
-646.755	402.105	-0.050	-0.107
-645.741	-175.556	0.357	-0.010
-644.726	123.858	-0.181	0.231
-643.711	800.000	-0.026	-0.086
-642.697	-100.838	0.081	0.020
-641.682	39.252	0.149	-0.135
-640.668	206.201	-0.009	-0.015
-639.653	800.000	0.035	-0.135
-638.638	587.750	-0.105	-0.263
-637.624	-45.756	0.252	0.126
-636.609	-112.790	0.154	-0.031
-635.595	-69.829	-0.224	-0.087
-634.580	800.000	-0.043	0.179
-633.565	-40.136	-0.219	0.116
-632.551	32.919	-0.219	0.193
-631.536	130.306	0.152	-0.198
-630.522	-200.000	-0.033	-0.241
-629.507	-45.371	-0.145	-0.073
-628.492	39.385	0.045	-0.041
-627.478	202.449	-0.049	0.076
-626.463	227.733	-0.237	0.392
-625.449	532.045	0.115	-0.277
-624.434	-200.000	0.008	-0.122
-623.419	394.838	-0.068	-0.144
-622.405	-112.829	-0.115	-0.023
-621.390	-200.000	0.005	0.045
-620.376	-141.630	0.191	0.020
-619.361	-63.246	0.107	0.045
-618.346	-29.978	0.088	0.051
-617.332	-129.702	-0.267	0.037
-616.317	800.000	-0.010	0.035
-615.303	-142.131	0.197	0.020
-614.288	800.000	-0.053	0.201
-613.273	397.477	-0.049	-0.104
-612.259	-106.851	-0.282	-0.063
-611.244	-200.000	-0.002	-0.165
-610.230	-200.000	-0.032	-0.208
-609.215	-200.000	-0.014	-0.160
-608.201	800.000	-0.113	0.381
-607.186	37.911	-0.284	0.256
-606.171	-200.000	0.035	-0.472
-605.157	12.721	-0.190	0.148
-604.142	497.226	0.029	-0.067
-603.128	179.230	0.251	0.372
-602.113	-143.876	0.190	0.018
-601.098	-142.303	0.088	-0.009
-600.084	-200.000	-0.011	0.302
-599.069	-200.000	0.041	0.251
-598.055	-63.015	-0.275	0.115
-597.040	-71.471	0.033	-0.012
-596.025	-109.987	-0.078	0.017
-595.011	242.302	-0.028	0.047
-593.996	800.000	0.055	0.229
-592.982	-103.375	-0.188	0.045
-591.967	-24.712	-0.112	-0.068
-590.952	21.477	-0.077	-0.064
-589.938	193.734	-0.082	0.126
-588.923	200.659	0.132	-0.206
-587.909	129.854	-0.134	-0.173
-586.894	290.803	-0.105	0.193
-585.879	-17.764	-0.091	-0.058
-584.865	-200.000	0.047	-0.226
-583.850	40.621	-0.455	-0.416
-582.836	148.295	0.199	-0.272
-581.821	-171.181	-0.245	0.008
-580.806	-200.000	-0.009	0.229
-579.792	800.000	0.045	-0.151
-578.777	-92.848	-0.418	-0.118
-577.763	-109.990	0.296	-0.063
-576.748	-18.894	-0.160	-0.101
-575.733	392.440	-0.109	0.229
-574.719	-83.670	-0.333	0.108
-573.704	-200.000	-0.019	-0.479
-572.690	-180.992	0.075	-0.002
-571.675	-200.000	-0.042	0.214
-570.661	800.000	-0.006	0.022
-569.646	-200.000	0.012	-0.320
-568.631	-127.829	0.036	-0.005
-567.617	-14.968	-0.040	-0.026
-566.602	-15.084	0.030	-0.020
-565.588	800.000	-0.147	0.433
-564.573	-77.973	0.164	0.057
-563.558	-36.791	0.186	0.101
-562.544	-200.000	0.015	0.183
-561.529	-151.287	0.323	-0.024
-560.515	-11.894	-0.103	0.068
-559.500	568.277	0.156	-0.384
-558.485	127.726	0.075	-0.096
-557.471	-26.947	0.108	0.064
-556.456	84.019	-0.146	-0.161
-555.442	35.781	0.046	-0.041
-554.427	-200.000	0.007	0.253
-553.412	800.000	-0.038	0.119
-552.398	522.195	0.073	-0.173
-551.383	145.751	0.157	-0.213
-550.369	67.601	0.192	0.198
-549.354	-121.486	-0.121	-0.020
-548.339	-200.000	0.109	0.727
-547.325	122.295	0.211	0.267
-546.310	266.357	-0.126	-0.222
-545.296	-65.848	0.153	0.062
-544.281	12.134	-0.043	-0.034
-543.266	-173.750	0.348	-0.010
-542.252	381.133	-0.103	0.213
-541.237	-156.700	-0.326	0.020
-540.223	-103.834	-0.108	0.026
-539.208	-200.000	0.028	0.251
-538.193	-162.606	0.575	0.029
-537.179	-24.100	-0.152	-0.092
-536.164	191.981	0.234	-0.357
-535.150	50.792	0.167	-0.160
-534.135	19.711	0.117	-0.096
-533.121	72.310	-0.065	-0.069
-532.106	70.903	-0.098	0.102
-531.091	632.754	0.097	0.249
-530.077	-136.855	0.260	0.030
-529.062	-113.901	0.083	-0.016
-528.048	-23.559	-0.237	-0.144
-527.033	229.513	-0.077	0.127
-526.018	800.000	-0.046	0.148
-525.004	-200.000	-0.381	0.001
-523.989	207.350	-0.107	0.168
-522.975	-127.517	-0.109	0.016
-521.960	-59.762	-0.126	0.055
-520.945	-200.000	-0.062	-0.325
-519.931	132.781	0.043	0.056
-518.916	72.388	-0.096	0.101
-517.902	-71.517	0.056	0.021
-516.887	761.120	-0.046	0.125
-515.872	-109.812	0.449	-0.095
-514.858	-94.032	0.162	0.045
-513.843	-200.000	-0.010	0.149
-512.829	-31.410	-0.156	0.089
-511.814	-33.061	-0.105	-0.059
-510.799	-38.230	-0.087	0.047
-509.785	800.000	0.054	-0.152
-508.770	-87.965	-0.033	0.010
-507.756	1.283	-0.151	0.110
-506.741	-129.959	-0.179	-0.025
-505.726	-45.586	0.083	-0.041
-504.712	-123.747	-0.355	-0.057
-503.697	216.470	0.148	0.238
-502.683	-161.603	0.159	-0.008
-501.668	-200.000	0.033	-0.165
-500.653	800.000	0.063	-0.247
-499.639	-200.000	0.001	0.078
-498.624	329.673	0.102	0.199
-497.610	-200.000	0.035	-0.360
-496.595	-13.344	0.087	-0.057
-495.581	114.601	-0.362	-0.446
-494.566	70.228	-0.082	-0.085
-493.551	-139.860	0.307	-0.033
-492.537	-200.000	0.002	-0.118
-491.522	-8.054	0.282	-0.192
-490.508	800.000	-0.078	0.296
-489.493	79.990	-0.312	0.339
-488.478	23.421	0.025	-0.021
-487.464	-83.746	0.167	0.054
-486.449	-46.758	-0.140	0.069
-485.435	350.033	0.126	-0.252
-484.420	800.000	-0.073	-0.205
-483.405	-200.000	-0.021	-0.284
-482.391	-67.447	-0.166	0.066
-481.376	682.645	0.077	-0.203
-480.362	-70.161	-0.064	-0.024
-479.347	-74.539	-0.384	-0.140
-478.332	-44.803	-0.026	-0.013
-477.318	410.646	0.151	0.323
-476.303	76.711	-0.041	-0.044
-475.289	-117.089	-0.190	0.035
-474.274	-143.414	0.429	-0.041
-473.259	-166.137	-0.219	-0.009
-472.245	117.930	-0.071	-0.088
-471.230	138.352	0.203	0.269
-470.216	102.434	-0.101	-0.119
-469.201	-64.051	-0.400	-0.165
-468.186	800.000	0.037	-0.103
-467.172	104.660	0.210	-0.250
-466.157	25.715	-0.136	-0.114
-465.143	-9.571	0.148	0.099
-464.128	-98.358	0.293	0.076
-463.113	-173.424	-0.225	-0.007
-462.099	577.630	-0.107	0.264
-461.084	-58.620	-0.369	0.161
-460.070	-139.589	-0.202	0.022
-459.055	-200.000	0.012	-0.356
-458.040	239.643	-0.106	-0.179
-457.026	-200.000	-0.039	-0.244
-456.011	161.718	0.111	-0.157
-454.997	26.353	-0.187	0.157
-453.982	800.000	0.066	0.279
-452.968	-200.000	-0.022	-0.222
-451.953	27.429	0.136	-0.115
-450.938	74.058	-0.175	0.185
-449.924	-99.009	-0.421	-0.108
-448.909	213.953	0.277	-0.441
-447.895	-136.166	0.287	0.034
-446.880	-93.144	-0.150	-0.042
-445.865	498.185	-0.039	0.090
-444.851	64.988	-0.043	0.044
-443.836	-167.634	0.287	0.011
-442.822	-169.180	0.297	0.011
-441.807	800.000	0.062	-0.185
-440.792	-173.010	-0.094	0.003
-439.778	-13.581	0.221	0.144
-438.763	-121.315	0.039	0.006
-437.749	-200.000	-0.022	0.114
-436.734	589.154	-0.096	0.239
-435.719	54.888	0.185	-0.180
-434.705	800.000	-0.075	-0.330
-433.690	305.825	0.145	0.271
-432.676	-134.639	-0.177	-0.022
-431.661	-200.000	-0.010	-0.172
-430.646	21.957	0.214	-0.176
-429.632	289.030	0.073	-0.134
-428.617	-3.120	0.138	0.097
-427.603	88.964	-0.097	-0.108
-426.588	249.292	-0.228	0.388
-425.573	3.488	-0.155	0.114
-424.559	496.439	0.077	-0.179
-423.544	-114.782	0.199	-0.038
-422.530	82.417	-0.359	0.392
-421.515	446.558	-0.047	0.104
-420.500	-3.588	-0.271	-0.190
-419.486	793.666	-0.088	-0.243
-418.471	219.952	-0.162	0.262
-417.457	202.614	-0.199	0.309
-416.442	13.437	0.044	0.035
-415.428	4.850	-0.028	0.021
-414.413	-102.583	0.203	0.049
-413.398	86.124	-0.281	-0.311
-412.384	-200.000	-0.000	0.183
-411.369	-68.487	-0.277	-0.108
-410.355	800.000	0.036	-0.153
-409.340	-200.000	-0.080	0.356
-408.325	800.000	-0.008	-0.030
-407.311	338.870	0.028	0.055
-406.296	46.431	0.295	0.275
-405.282	-76.845	0.133	0.047
-404.267	359.758	0.034	0.069
-403.252	-178.361	-0.035	-0.001
-402.238	-45.543	-0.089	-0.044
-401.223	-135.445	-0.437	-0.052
-400.209	156.249	0.153	-0.213
-399.194	-200.000	0.025	0.276
-398.179	800.000	-0.051	0.171
-397.165	214.690	0.033	-0.052
-396.150	303.777	0.214	-0.398
-395.136	164.493	-0.090	0.128
-394.121	-109.827	-0.073	-0.015
-393.106	-200.000	-0.001	-0.228
-392.092	268.520	-0.077	-0.136
-391.077	-108.170	0.082	-0.018
-390.063	-108.358	0.301	-0.065
-389.048	-84.546	-0.218	0.069
-388.033	-200.000	-0.074	-0.331
-387.019	-15.696	0.195	0.125
-386.004	239.022	0.110	-0.184
-384.990	26.080	0.151	0.127
-383.975	-106.301	-0.224	0.050
-382.960	121.923	-0.379	-0.475
-381.946	-200.000	-0.043	-0.319
-380.931	-33.644	-0.195	0.108
-379.917	800.000	0.021	-0.081
-378.902	205.167	0.187	0.292
-377.888	47.913	-0.369	0.346
-376.873	-52.506	-0.273	0.127
-375.858	-63.112	-0.143	-0.059
-374.844	10.725	-0.125	-0.096
-373.829	621.507	-0.053	-0.134
-372.815	517.193	0.068	-0.159
-371.800	-200.000	-0.028	0.235
-370.785	57.511	0.036	-0.035
-369.771	-200.000	0.011	-0.177
-368.756	-101.313	0.360	0.088
-367.742	-109.292	0.217	0.046
-366.727	-70.672	0.116	-0.044
-365.712	-200.000	-0.021	-0.274
-364.698	15.465	-0.111	0.087
-363.683	695.108	-0.035	0.093
-362.669	800.000	0.092	0.274
-361.654	22.182	-0.440	0.361
-360.639	-22.767	0.096	-0.058
-359.625	378.322	-0.150	-0.307
-358.610	-10.011	-0.089	-0.059
-357.596	343.310	-0.055	-0.107
-356.581	307.953	-0.114	0.214
-355.566	-200.000	-0.029	-0.319
-354.552	-200.000	0.043	-0.362
-353.537	-28.413	-0.081	0.047
-352.523	-134.369	-0.126	-0.016
-351.508	49.578	0.124	0.117
-350.493	-7.123	0.144	0.098
-349.479	105.012	0.293	-0.347
-348.464	108.210	0.124	0.149
-347.450	-60.487	-0.349	0.149
-346.435	-200.000	0.024	-0.386
-345.420	-200.000	0.017	-0.120
-344.406	-138.736	0.277	-0.030
-343.391	-107.844	-0.122	-0.027
-342.377	800.000	-0.062	-0.240
-341.362	-165.908	0.201	-0.009
-340.348	-169.151	-0.078	-0.003
-339.333	-200.000	-0.006	-0.027
-338.318	64.773	0.111	0.113
-337.304	189.903	-0.036	0.054
-336.289	-32.533	0.387	-0.216
-335.275	424.729	0.087	0.187
-334.260	445.278	-0.121	-0.268
-333.245	226.233	-0.083	0.135
-332.231	-25.496	0.110	0.065
-331.216	69.968	0.202	-0.210
-330.202	-18.134	0.264	-0.166
-329.187	-200.000	-0.048	0.496
-328.172	-11.465	-0.108	0.071
-327.158	-200.000	0.007	-0.215
-326.143	800.000	-0.089	-0.271
-325.129	800.000	-0.033	0.110
-324.114	800.000	0.020	0.059
-323.099	-190.932	-0.152	0.002
-322.085	109.021	-0.004	0.005
-321.070	58.463	-0.096	-0.095
-320.056	14.275	-0.139	0.108
-319.041	-151.476	0.129	0.010
-318.026	84.035	-0.194	0.213
-317.012	-34.238	0.112	0.062
-315.997	169.635	0.234	0.336
-314.983	-94.618	-0.105	-0.029
-313.968	511.970	-0.020	-0.046
-312.953	-7.605	-0.244	-0.165
-311.939	-84.205	0.278	-0.088
-310.924	8.813	0.294	0.222
-309.910	-57.688	-0.209	-0.092
-308.895	501.956	0.195	0.452
-307.880	-19.959	0.181	-0.112
-306.866	187.873	-0.102	-0.153
-305.851	-83.922	0.232	-0.074
-304.837	109.085	0.037	-0.045
-303.822	-200.000	-0.024	0.211
-302.807	-200.000	-0.091	0.500
-301.793	-200.000	-0.059	0.337
-300.778	-24.506	0.130	-0.077
-299.764	58.808	0.179	-0.176
-298.749	-36.111	-0.218	0.118
-297.735	1.094	0.107	-0.077
-296.720	184.879	0.093	-0.138
-295.705	360.368	0.141	0.283
-294.691	28.294	0.129	0.109
-293.676	45.695	0.233	0.216
-292.662	24.350	0.342	0.283
-291.647	800.000	0.037	-0.129
-290.632	10.293	-0.273	0.208
-289.618	-200.000	0.038	0.271
-288.603	-56.539	0.401	-0.178
-287.589	-86.100	0.198	0.061
-286.574	5.097	0.227	0.167
-285.559	41.611	0.151	-0.137
-284.545	800.000	0.074	-0.267
-283.530	-123.003	0.090	-0.014
-282.516	800.000	-0.035	-0.110
-281.501	-150.073	0.129	0.010
-280.486	-200.000	0.015	0.495
-279.472	-119.642	-0.132	0.023
-278.457	109.426	-0.087	0.105
-277.443	79.205	0.062	0.067
-276.428	800.000	0.138	0.432
-275.413	800.000	0.054	0.187
-274.399	18.195	0.180	0.144
-273.384	-200.000	-0.030	0.213
-272.370	771.737	-0.024	-0.066
-271.355	-91.377	0.179	0.051
-270.340	800.000	0.049	-0.184
-269.326	-76.329	-0.257	0.091
-268.311	-109.028	0.165	-0.035
-267.297	2.582	-0.232	-0.168
-266.282	-200.000	-0.007	0.121
-265.267	-181.377	-0.199	0.004
-264.253	274.328	-0.082	-0.145
-263.238	-3.638	0.256	-0.178
-262.224	-200.000	-0.044	0.204
-261.209	308.747	-0.158	-0.294
-260.195	184.362	-0.079	0.117
-259.180	-200.000	0.037	0.336
-258.165	617.461	0.037	-0.092
-257.151	-200.000	0.000	-0.188
-256.136	800.000	-0.103	-0.430
-255.122	-194.522	-0.231	0.002
-254.107	367.684	0.032	-0.065
-253.092	-186.275	0.272	-0.004
-252.078	155.270	0.150	0.206
-251.063	117.480	0.190	0.234
-250.049	102.515	0.024	0.028
-249.034	43.802	0.092	-0.084
-248.019	58.955	0.145	-0.142
-247.005	-200.000	0.026	0.342
-245.990	-200.000	0.033	-0.177
-244.976	800.000	0.060	0.262
-243.961	-200.000	0.019	0.288
-242.946	-200.000	0.016	-0.240
-241.932	-101.043	-0.279	-0.068
-240.917	715.164	0.070	0.185
-239.903	763.980	-0.080	0.217
-238.888	241.139	0.116	0.193
-237.873	-80.172	0.149	-0.050
-236.859	-61.059	-0.156	0.066
-235.844	-200.000	0.030	0.211
-234.830	-200.000	-0.028	-0.250
-233.815	137.919	-0.096	0.126
-232.800	-52.747	-0.184	-0.085
-231.786	741.170	-0.089	0.240
-230.771	514.291	-0.099	-0.231
-229.757	-101.847	0.024	0.006
-228.742	52.807	0.197	-0.189
-227.727	-22.297	0.190	-0.115
-226.713	800.000	-0.049	-0.195
-225.698	800.000	0.093	0.310
-224.684	-100.398	0.547	0.135
-223.669	564.133	-0.114	-0.275
-222.655	-58.744	-0.190	-0.082
-221.640	149.058	0.181	0.244
-220.625	-1.681	0.175	0.123
-219.611	-94.002	-0.153	-0.042
-218.596	800.000	-0.024	0.100
-217.582	690.406	-0.078	-0.205
-216.567	800.000	-0.030	-0.113
-215.552	-26.678	0.142	0.083
-214.538	5.760	0.142	-0.105
-213.523	-129.424	0.227	0.031
-212.509	64.017	0.153	0.153
-211.494	-200.000	0.024	-0.270
-210.479	800.000	-0.019	0.071
-209.465	-11.764	-0.165	-0.108
-208.450	-200.000	-0.023	-0.116
-207.436	-153.356	-0.349	-0.024
-206.421	175.521	-0.131	-0.190
-205.406	-46.040	0.065	-0.032
-204.392	387.695	-0.084	0.173
-203.377	351.986	0.160	0.315
-202.363	91.480	0.158	-0.178
-201.348	-74.513	0.475	0.171
-200.333	-200.000	-0.009	-0.058
-199.319	691.170	-0.192	0.501
-198.304	800.000	0.022	0.066
-197.290	244.929	-0.041	0.068
-196.275	227.143	0.078	0.126
-195.260	-200.000	0.014	0.064
-194.246	445.991	0.179	-0.392
-193.231	-116.683	-0.457	-0.084
-192.217	-200.000	-0.031	0.204
-191.202	158.136	-0.175	-0.242
-190.187	-200.000	0.002	-0.176
-189.173	463.326	-0.092	-0.206
-188.158	561.355	0.157	-0.378
-187.144	-126.116	0.325	-0.049
-186.129	-200.000	0.005	-0.263
-185.114	109.992	0.221	-0.265
-184.100	99.286	-0.121	-0.139
-183.085	-200.000	0.000	0.040
-182.071	-182.751	0.202	-0.004
-181.056	-200.000	-0.122	0.687
-180.042	-158.344	-0.178	-0.010
-179.027	-182.382	-0.106	-0.002
-178.012	55.742	0.144	0.139
-176.998	95.788	-0.230	-0.262
-175.983	79.562	-0.071	-0.076
-174.969	55.131	0.158	0.152
-173.954	-44.299	0.187	-0.093
-172.939	34.577	-0.175	-0.153
-171.925	-163.745	-0.318	0.015
-170.910	77.000	0.077	0.081
-169.896	-35.188	0.095	0.052
-168.881	25.291	-0.203	0.168
-167.866	67.655	-0.190	-0.193
-166.852	-200.000	0.039	-0.273
-165.837	-200.000	-0.024	0.563
-164.823	800.000	-0.064	-0.190
-163.808	-145.897	-0.491	-0.043
-162.793	1.757	0.406	-0.291
-161.779	-66.372	0.261	-0.103
-160.764	-89.075	0.395	0.116
-159.750	232.234	0.112	-0.184
-158.735	800.000	-0.043	-0.154
-157.720	-114.060	-0.160	0.031
-156.706	107.441	0.070	-0.082
-155.691	37.830	-0.271	0.240
-154.677	113.006	-0.098	-0.119
-153.662	102.361	-0.132	0.154
-152.647	-68.362	-0.194	0.075
-151.633	250.474	0.075	0.126
-150.618	-200.000	-0.051	0.246
-149.604	124.776	-0.231	0.290
-148.589	-200.000	0.022	-0.173
-147.574	-1.259	-0.107	-0.075
-146.560	68.809	0.111	-0.113
-145.545	24.344	-0.079	-0.065
-144.531	3.391	-0.125	-0.091
-143.516	-200.000	-0.026	0.229
-142.502	11.496	-0.131	-0.100
-141.487	-73.642	-0.135	0.049
-140.472	84.492	0.188	0.205
-139.458	-166.731	0.254	-0.010
-138.443	502.598	0.138	-0.317
-137.429	-50.586	0.150	0.071
-136.414	-124.505	0.138	0.021
-135.399	-181.995	0.280	-0.005
-134.385	313.360	0.129	0.241
-133.370	-21.397	-0.596	0.362
-132.356	-91.687	0.169	-0.048
-131.341	800.000	-0.074	0.308
-130.326	-200.000	-0.050	0.544
-129.312	149.375	0.209	0.281
-128.297	800.000	0.073	0.261
-127.283	517.899	0.079	-0.185
-126.268	64.506	0.040	-0.040
-125.253	52.008	0.127	0.120
-124.239	-100.949	0.247	-0.060
-123.224	-64.446	0.159	0.064
-122.210	139.599	0.148	-0.194
