DTS Sentinel unit serial number:	SN413079Multiplexer serial number:	ORYXHardware model number:	OX4-SRSoftware version number:	ORYX F/W v4.00 Oryx Data Collector v3.7.2.0data status	okinstallation	princeton_trtdifferential loss correction	single-endedforward channel	channel 1reverse channel	N/Adate	2019/09/11time	20:24:11forward acquisition time	60.00reverse acquisition time	0.00gamma	496.2192k internal	0.2303k external	0.2303temperature offset calibration	1.0037default loss term (dB/km)	0.3790temperature slope calibration	1.0000multiplexer offset coefficient	1.0000multiplexer slope coefficient	1.0000fibre end	0.00T internal ref (°C)	37.86T ext. ref 1 (°C)	1.49T ext. ref 2 (°C)	31.53length (m)	temperature (°C)	Stokes	anti-Stokes-747.200	28.533	-0.222	-0.191
-746.185	-48.801	-0.060	-0.029
-745.171	145.541	-0.163	-0.223
-744.156	-7.775	0.146	0.100
-743.142	315.996	-0.077	-0.147
-742.127	496.502	0.050	0.117
-741.112	358.869	-0.101	0.205
-740.098	129.967	-0.017	0.023
-739.083	137.239	-0.166	0.221
-738.069	92.057	-0.192	0.220
-737.054	-86.936	0.095	0.029
-736.039	-63.332	0.019	0.008
-735.025	-200.000	-0.036	0.369
-734.010	69.211	-0.046	0.048
-732.996	325.116	0.138	-0.269
-731.981	-200.000	0.034	-0.417
-730.966	34.077	-0.281	-0.249
-729.952	-200.000	-0.016	-0.460
-728.937	-200.000	-0.493	0.002
-727.923	468.201	0.056	0.128
-726.908	-200.000	-0.032	-0.232
-725.894	-131.815	-0.046	0.006
-724.879	-156.591	-0.301	-0.019
-723.864	-67.017	-0.163	0.065
-722.850	-162.155	-0.206	-0.011
-721.835	15.075	0.132	0.105
-720.821	-66.737	-0.030	0.012
-719.806	37.483	0.278	-0.251
-718.791	-76.289	0.168	0.060
-717.777	739.529	-0.073	0.200
-716.762	-126.487	0.137	0.021
-715.748	203.000	-0.080	-0.125
-714.733	-200.000	-0.006	-0.067
-713.718	-154.202	-0.239	-0.016
-712.704	88.377	-0.276	-0.312
-711.689	800.000	-0.074	0.214
-710.675	-18.289	-0.121	0.077
-709.660	-58.197	0.291	-0.129
-708.645	39.200	-0.362	0.330
-707.631	-14.231	0.178	-0.117
-706.616	-23.913	-0.269	-0.164
-705.602	-33.280	-0.043	-0.024
-704.587	-158.836	-0.330	0.019
-703.572	657.464	0.114	-0.297
-702.558	58.708	-0.221	0.221
-701.543	-111.325	-0.098	-0.020
-700.529	206.073	-0.126	-0.199
-699.514	574.949	-0.117	-0.290
-698.499	800.000	0.079	0.222
-697.485	-8.174	-0.187	0.128
-696.470	25.165	-0.133	-0.112
-695.456	-117.072	0.128	0.024
-694.441	-82.904	0.052	0.017
-693.426	-200.000	0.050	-0.250
-692.412	-52.074	-0.246	-0.116
-691.397	167.039	0.257	0.371
-690.383	-9.072	-0.094	0.064
-689.368	-72.367	0.249	-0.094
-688.354	-11.820	-0.209	0.139
-687.339	-6.778	-0.463	0.320
-686.324	-119.838	-0.328	-0.057
-685.310	44.922	0.081	0.076
-684.295	-200.000	0.000	-0.184
-683.281	-168.693	0.124	0.005
-682.266	-200.000	0.014	-0.095
-681.251	800.000	0.071	0.278
-680.237	117.177	-0.161	-0.201
-679.222	-70.170	-0.311	-0.120
-678.208	-200.000	0.011	-0.055
-677.193	800.000	-0.038	-0.146
-676.178	-24.087	0.192	-0.116
-675.164	-200.000	-0.014	-0.242
-674.149	-11.574	-0.280	-0.187
-673.135	-83.208	-0.284	-0.093
-672.120	800.000	-0.077	-0.294
-671.105	800.000	-0.080	-0.252
-670.091	-200.000	0.004	-0.169
-669.076	-161.230	0.039	-0.002
-668.062	-200.000	0.015	-0.143
-667.047	-102.349	0.474	-0.116
-666.032	-10.481	0.154	-0.104
-665.018	-13.267	0.231	-0.152
-664.003	-67.103	0.202	-0.081
-662.989	117.855	-0.125	0.157
-661.974	291.755	-0.129	-0.239
-660.959	-153.167	-0.294	-0.021
-659.945	-93.701	0.109	-0.031
-658.930	-200.000	-0.018	0.086
-657.916	130.830	0.113	-0.147
-656.901	-70.268	0.082	-0.031
-655.886	800.000	-0.064	0.205
-654.872	106.521	0.203	-0.244
-653.857	-186.792	0.167	0.002
-652.843	-200.000	-0.028	-0.185
-651.828	0.594	-0.199	-0.144
-650.814	-186.484	-0.131	-0.002
-649.799	260.584	-0.150	-0.263
-648.784	-58.639	0.130	0.057
-647.770	-200.000	-0.030	0.144
-646.755	510.520	-0.085	0.200
-645.741	147.055	-0.201	-0.275
-644.726	-200.000	-0.029	-0.214
-643.711	-200.000	0.013	-0.121
-642.697	16.847	0.072	0.058
-641.682	-103.918	0.252	-0.060
-640.668	183.281	-0.141	0.211
-639.653	278.181	-0.079	-0.143
-638.638	800.000	-0.081	-0.330
-637.624	-15.262	-0.254	-0.165
-636.609	-50.508	-0.304	0.145
-635.595	800.000	0.155	0.443
-634.580	-77.506	-0.291	-0.102
-633.565	209.036	0.017	-0.026
-632.551	136.020	-0.141	0.186
-631.536	105.018	0.130	-0.155
-630.522	27.070	0.159	0.136
-629.507	-30.897	-0.122	-0.070
-628.492	800.000	0.072	-0.258
-627.478	47.708	-0.104	0.098
-626.463	-118.863	0.080	-0.014
-625.449	48.141	-0.168	-0.159
-624.434	313.077	-0.150	-0.285
-623.419	238.228	-0.075	0.126
-622.405	-200.000	0.015	-0.201
-621.390	-140.174	0.243	0.026
-620.376	-200.000	-0.029	-0.186
-619.361	-13.808	0.084	-0.055
-618.346	-57.361	-0.029	0.013
-617.332	-35.887	-0.271	0.149
-616.317	-71.904	-0.200	0.075
-615.303	74.933	0.072	-0.076
-614.288	-200.000	-0.031	0.292
-613.273	166.070	0.046	-0.066
-612.259	800.000	0.100	-0.421
-611.244	524.682	0.106	0.252
-610.230	267.884	-0.060	0.107
-609.215	-140.629	0.263	-0.028
-608.201	16.813	0.143	-0.115
-607.186	-200.000	-0.039	-0.184
-606.171	130.199	0.074	0.096
-605.157	-110.410	0.429	0.090
-604.142	51.317	-0.291	-0.280
-603.128	72.502	-0.212	-0.224
-602.113	800.000	0.007	-0.026
-601.098	-200.000	0.016	-0.152
-600.084	11.473	-0.090	0.070
-599.069	-48.474	-0.205	0.100
-598.055	-116.470	-0.229	-0.043
-597.040	-134.123	0.208	-0.026
-596.025	-100.970	0.355	-0.088
-595.011	-6.443	-0.213	0.147
-593.996	398.064	0.125	-0.265
-592.982	800.000	-0.059	-0.166
-591.967	800.000	0.121	-0.354
-590.952	-44.778	-0.137	0.069
-589.938	415.985	-0.128	-0.277
-588.923	800.000	0.007	0.022
-587.909	220.887	-0.057	0.092
-586.894	50.428	-0.255	-0.244
-585.879	-114.647	0.237	-0.046
-584.865	9.149	-0.074	-0.056
-583.850	-132.638	0.255	-0.033
-582.836	-28.958	-0.083	-0.049
-581.821	168.252	0.081	0.117
-580.806	-147.042	-0.226	-0.020
-579.792	513.330	-0.148	0.349
-578.777	51.221	-0.182	-0.175
-577.763	5.027	-0.020	-0.015
-576.748	-66.141	0.061	-0.025
-575.733	103.878	0.187	0.223
-574.719	13.790	0.090	0.071
-573.704	44.320	0.229	-0.212
-572.690	-75.158	0.289	0.105
-571.675	-70.271	0.526	-0.202
-570.661	-109.564	-0.186	0.040
-569.646	58.111	0.136	0.135
-568.631	800.000	-0.078	0.303
-567.617	-78.194	-0.366	-0.127
-566.602	-77.268	-0.227	-0.080
-565.588	72.552	0.136	-0.143
-564.573	800.000	0.064	-0.250
-563.558	147.073	0.151	0.205
-562.544	800.000	-0.066	-0.281
-561.529	168.041	-0.126	-0.181
-560.515	55.890	-0.120	-0.118
-559.500	-160.513	0.017	0.001
-558.485	800.000	-0.022	-0.093
-557.471	126.396	-0.150	0.192
-556.456	-200.000	0.008	0.118
-555.442	47.476	0.244	-0.230
-554.427	-47.683	0.152	-0.074
-553.412	116.721	-0.309	0.384
-552.398	-61.704	0.024	0.010
-551.383	125.105	-0.152	-0.193
-550.369	-45.654	-0.330	0.165
-549.354	-16.491	-0.140	0.090
-548.339	800.000	-0.097	0.361
-547.325	-128.046	-0.330	0.048
-546.310	137.367	-0.131	0.173
-545.296	-39.592	-0.079	-0.042
-544.281	-156.212	0.219	0.014
-543.266	-200.000	0.251	-0.000
-542.252	96.099	0.196	-0.226
-541.237	-9.424	-0.294	-0.198
-540.223	-12.152	-0.039	-0.026
-539.208	-5.926	-0.099	0.069
-538.193	-200.000	-0.056	-0.314
-537.179	785.453	-0.138	-0.383
-536.164	-200.000	0.004	-0.116
-535.150	-53.397	0.042	0.019
-534.135	-152.382	0.457	-0.033
-533.121	72.284	-0.142	-0.149
-532.106	294.200	0.077	0.142
-531.091	-32.951	0.187	-0.105
-530.077	394.557	0.083	-0.176
-529.062	245.938	0.135	-0.230
-528.048	-38.589	-0.586	0.313
-527.033	800.000	-0.095	-0.338
-526.018	800.000	-0.151	0.528
-525.004	714.716	0.165	-0.442
-523.989	87.948	0.081	-0.091
-522.975	-200.000	-0.016	-0.084
-521.960	-200.000	0.003	-0.169
-520.945	-170.450	0.365	-0.013
-519.931	-90.772	-0.289	0.084
-518.916	-79.966	0.141	0.048
-517.902	800.000	-0.086	0.295
-516.887	156.539	-0.125	-0.174
-515.872	-106.504	-0.171	0.039
-514.858	312.253	0.103	0.194
-513.843	87.816	0.259	-0.290
-512.829	-88.263	-0.334	-0.101
-511.814	-16.126	0.264	-0.169
-510.799	205.646	0.113	0.178
-509.785	717.709	-0.024	0.065
-508.770	649.938	-0.110	0.284
-507.756	-146.073	0.202	0.018
-506.741	-136.431	-0.446	0.052
-505.726	31.922	0.011	-0.009
-504.712	50.834	0.135	0.129
-503.697	405.000	-0.098	0.208
-502.683	197.441	-0.171	0.263
-501.668	145.673	-0.090	-0.121
-500.653	-200.000	0.050	0.409
-499.639	163.643	0.194	0.275
-498.624	-75.922	0.162	-0.058
-497.610	-105.633	0.099	0.023
-496.595	800.000	-0.075	0.245
-495.581	593.520	0.080	0.200
-494.566	-170.081	-0.098	-0.004
-493.551	53.991	0.237	-0.230
-492.537	-96.217	0.035	0.009
-491.522	351.066	-0.179	-0.358
-490.508	-125.251	0.179	0.028
-489.493	-141.679	0.132	0.013
-488.478	-33.990	0.170	0.095
-487.464	-62.317	-0.048	0.020
-486.449	-166.384	-0.462	-0.020
-485.435	800.000	0.036	0.146
-484.420	305.589	-0.155	-0.291
-483.405	272.189	0.165	0.294
-482.391	351.123	0.033	-0.065
-481.376	168.668	-0.309	0.443
-480.362	-62.379	0.286	-0.120
-479.347	-26.504	-0.169	0.100
-478.332	-200.000	0.004	-0.026
-477.318	296.934	-0.105	0.194
-476.303	34.229	-0.119	0.105
-475.289	-200.000	0.052	0.454
-474.274	-139.039	0.121	0.013
-473.259	315.843	0.060	-0.115
-472.245	-121.689	-0.361	0.060
-471.230	388.782	-0.070	0.146
-470.216	-101.555	0.342	0.084
-469.201	303.477	0.056	0.104
-468.186	-81.236	-0.254	-0.085
-467.172	-19.655	0.111	0.069
-466.157	77.111	0.315	0.337
-465.143	119.357	0.053	-0.066
-464.128	-8.360	-0.191	0.130
-463.113	190.304	-0.047	-0.072
-462.099	-172.332	-0.248	-0.008
-461.084	160.716	-0.051	-0.072
-460.070	123.224	0.058	0.073
-459.055	715.713	0.074	-0.198
-458.040	-200.000	-0.002	-0.084
-457.026	800.000	-0.018	0.052
-456.011	-200.000	-0.020	0.348
-454.997	-101.606	0.175	-0.043
-453.982	800.000	0.034	-0.094
-452.968	-112.149	0.318	-0.064
-451.953	-27.111	-0.201	0.118
-450.938	107.706	-0.038	-0.046
-449.924	477.171	-0.077	-0.175
-448.909	12.335	-0.208	0.161
-447.895	-91.651	-0.246	-0.070
-446.880	22.443	-0.088	-0.072
-445.865	800.000	-0.067	-0.195
-444.851	-135.221	0.086	0.010
-443.836	-65.213	0.165	0.067
-442.822	-136.593	0.178	-0.021
-441.807	-32.384	0.131	0.074
-440.792	357.913	-0.113	0.227
-439.778	-19.100	0.119	0.074
-438.763	800.000	-0.019	-0.079
-437.749	800.000	-0.082	0.239
-436.734	205.443	0.103	0.162
-435.719	-0.386	0.206	-0.147
-434.705	-9.084	0.169	0.114
-433.690	-160.040	0.277	0.015
-432.676	-17.777	0.200	0.127
-431.661	-200.000	-0.032	0.158
-430.646	109.915	-0.129	-0.155
-429.632	173.999	-0.205	-0.298
-428.617	800.000	0.092	-0.313
-427.603	-200.000	0.322	0.000
-426.588	-200.000	-0.008	0.213
-425.573	3.278	-0.393	-0.288
-424.559	800.000	0.061	0.177
-423.544	-45.971	0.055	-0.027
-422.530	319.706	-0.068	0.130
-421.515	233.722	-0.047	0.077
-420.500	-84.504	0.095	-0.030
-419.486	-200.000	-0.026	-0.334
-418.471	192.062	0.097	0.147
-417.457	-156.508	0.356	0.022
-416.442	-200.000	0.008	-0.037
-415.428	-143.903	0.162	0.015
-414.413	-124.913	-0.120	-0.019
-413.398	800.000	0.078	0.220
-412.384	244.440	0.085	-0.144
-411.369	-142.410	0.147	-0.015
-410.355	85.441	0.123	-0.136
-409.340	-120.145	0.140	0.024
-408.325	-125.052	-0.469	-0.072
-407.311	-76.316	0.200	-0.071
-406.296	-99.239	-0.371	-0.094
-405.282	-200.000	-0.037	-0.232
-404.267	800.000	0.058	-0.222
-403.252	256.146	-0.010	-0.018
-402.238	86.981	-0.147	-0.164
-401.223	4.940	-0.031	-0.023
-400.209	-89.893	-0.090	-0.027
-399.194	-119.072	-0.164	-0.029
-398.179	434.339	-0.132	-0.288
-397.165	-143.005	0.145	-0.014
-396.150	-200.000	-0.017	0.133
-395.136	-100.784	-0.095	-0.023
-394.121	-172.495	-0.210	0.007
-393.106	-200.000	0.058	-0.343
-392.092	106.695	-0.140	-0.167
-391.077	-153.213	0.184	0.013
-390.063	-117.003	-0.107	-0.020
-389.048	-29.189	-0.162	0.094
-388.033	-117.965	0.149	0.027
-387.019	-200.000	0.074	0.333
-386.004	432.243	-0.063	-0.138
-384.990	-130.116	0.230	-0.032
-383.975	192.670	-0.149	0.225
-382.960	-186.649	0.055	0.001
-381.946	800.000	-0.080	-0.237
-380.931	7.999	0.145	-0.109
-379.917	-37.950	0.101	0.054
-378.902	188.157	-0.196	-0.294
-377.888	64.503	0.081	-0.082
-376.873	237.529	0.185	0.307
-375.858	588.685	-0.092	-0.228
-374.844	-42.174	0.062	-0.032
-373.829	-146.489	0.064	0.006
-372.815	-121.440	-0.253	0.042
-371.800	548.511	0.165	0.397
-370.785	-77.034	0.202	0.071
-369.771	-51.562	-0.018	0.008
-368.756	174.724	-0.091	-0.132
-367.742	-40.112	-0.266	-0.139
-366.727	-50.910	-0.407	0.192
-365.712	306.963	0.206	0.385
-364.698	16.043	0.068	0.054
-363.683	800.000	-0.073	0.216
-362.669	-146.328	-0.080	0.007
-361.654	-200.000	-0.083	0.383
-360.639	800.000	-0.032	-0.091
-359.625	-127.641	-0.218	-0.032
-358.610	-109.445	0.134	0.028
-357.596	503.468	-0.049	-0.115
-356.581	109.469	-0.094	0.113
-355.566	-5.421	-0.252	-0.174
-354.552	800.000	0.075	-0.274
-353.537	-15.014	-0.171	-0.110
-352.523	32.456	0.280	-0.243
-351.508	-200.000	0.002	-0.053
-350.493	76.675	-0.120	0.127
-349.479	72.337	-0.199	-0.208
-348.464	-111.314	-0.302	0.062
-347.450	539.395	0.069	0.165
-346.435	-130.270	0.312	-0.043
-345.420	-117.069	0.179	-0.033
-344.406	-48.469	0.223	-0.108
-343.391	-21.603	-0.212	-0.130
-342.377	258.875	0.035	0.060
-341.362	-40.600	0.149	-0.078
-340.348	252.389	-0.102	-0.175
-339.333	-92.561	-0.170	-0.048
-338.318	71.299	-0.246	0.256
-337.304	-200.000	-0.031	-0.311
-336.289	53.776	-0.067	-0.065
-335.275	335.506	0.082	-0.158
-334.260	800.000	0.036	0.126
-333.245	-83.504	-0.177	-0.057
-332.231	103.248	-0.268	0.315
-331.216	-113.686	0.136	-0.027
-330.202	95.100	-0.047	-0.054
-329.187	-200.000	-0.002	0.217
-328.172	-200.000	0.012	0.215
-327.158	6.195	0.166	-0.123
-326.143	-76.510	0.268	0.094
-325.129	38.802	0.032	-0.028
-324.114	83.012	-0.189	0.206
-323.099	-200.000	0.016	-0.108
-322.085	23.435	0.119	0.098
-321.070	482.295	-0.171	0.389
-320.056	-189.779	0.257	-0.003
-319.041	-46.927	-0.182	-0.089
-318.026	252.613	0.149	-0.255
-317.012	-59.494	0.070	-0.030
-315.997	569.064	-0.181	0.440
-314.983	435.768	0.054	-0.117
-313.968	-103.877	0.279	0.065
-312.953	-162.495	-0.207	0.010
-311.939	-3.517	-0.350	0.244
-310.924	-200.000	-0.011	-0.277
-309.910	-200.000	0.045	0.212
-308.895	-28.517	-0.143	-0.082
-307.880	420.708	-0.048	-0.104
-306.866	-74.134	0.123	-0.045
-305.851	-106.089	-0.328	-0.074
-304.837	535.490	-0.145	-0.344
-303.822	214.443	0.168	-0.266
-302.807	800.000	0.061	0.184
-301.793	-140.107	-0.146	-0.015
-300.778	-97.612	-0.013	-0.003
-299.764	187.949	-0.146	-0.218
-298.749	131.752	-0.073	-0.094
-297.735	58.631	-0.186	0.182
-296.720	93.114	0.236	0.268
-295.705	98.999	0.188	-0.217
-294.691	-78.927	0.431	0.147
-293.676	-124.395	0.435	-0.068
-292.662	-86.597	0.072	-0.022
-291.647	-200.000	-0.011	0.065
-290.632	77.314	-0.244	0.259
-289.618	-104.560	0.167	-0.039
-288.603	-200.000	-0.013	0.695
-287.589	55.737	-0.070	0.068
-286.574	-200.000	0.022	-0.292
-285.559	-111.552	-0.394	0.080
-284.545	800.000	-0.064	0.218
-283.530	-111.256	0.230	0.047
-282.516	-200.000	-0.004	0.038
-281.501	27.472	-0.217	0.183
-280.486	5.063	-0.037	-0.028
-279.472	604.544	0.019	0.047
-278.457	402.513	-0.085	-0.179
-277.443	-107.755	-0.416	0.091
-276.428	-5.772	-0.127	0.087
-275.413	575.593	0.101	-0.246
-274.399	197.853	0.068	-0.104
-273.384	-200.000	0.002	-0.388
-272.370	-32.596	-0.165	-0.092
-271.355	-7.991	-0.110	-0.074
-270.340	-200.000	0.022	-0.380
-269.326	-105.173	0.368	-0.084
-268.311	14.408	-0.262	0.204
-267.297	41.320	-0.193	0.174
-266.282	132.463	-0.067	-0.086
-265.267	289.628	0.084	-0.153
-264.253	157.405	-0.184	-0.255
-263.238	245.150	-0.135	-0.227
-262.224	-200.000	0.016	0.232
-261.209	6.948	0.531	-0.395
-260.195	89.355	-0.047	0.053
-259.180	38.438	-0.230	0.205
-258.165	800.000	-0.048	-0.157
-257.151	-189.266	0.298	-0.004
-256.136	800.000	-0.052	-0.227
-255.122	800.000	-0.014	-0.041
-254.107	-100.771	0.281	0.069
-253.092	32.439	-0.122	-0.106
-252.078	367.910	-0.141	-0.284
-251.063	-200.000	-0.037	-0.323
-250.049	49.432	0.135	0.127
-249.034	800.000	-0.060	0.216
-248.019	405.722	0.095	-0.201
-247.005	-50.143	-0.132	-0.062
-245.990	-71.734	0.049	0.018
-244.976	-200.000	0.056	-0.297
-243.961	800.000	0.070	0.265
-242.946	-134.513	-0.105	-0.013
-241.932	29.222	0.303	0.257
-240.917	-131.004	0.250	-0.033
-239.903	-200.000	-0.079	0.417
-238.888	20.517	-0.139	0.112
-237.873	800.000	-0.051	-0.187
-236.859	-67.722	-0.155	0.061
-235.844	-200.000	-0.025	-0.311
-234.830	92.630	-0.156	-0.176
-233.815	-132.011	-0.079	-0.010
-232.800	27.864	0.203	-0.171
-231.786	800.000	0.038	0.136
-230.771	-200.000	0.017	0.127
-229.757	-56.640	0.348	-0.154
-228.742	-200.000	-0.013	0.321
-227.727	108.601	0.247	0.294
-226.713	6.536	0.051	0.038
-225.698	-172.620	0.231	-0.007
-224.684	528.688	0.076	0.179
-223.669	-200.000	-0.020	-0.123
-222.655	205.490	0.173	0.268
-221.640	-200.000	-0.007	0.181
-220.625	148.984	-0.155	0.209
-219.611	-200.000	0.027	-0.271
-218.596	-87.263	-0.430	-0.130
-217.582	29.934	0.069	0.059
-216.567	-124.663	-0.142	0.022
-215.552	-37.417	0.192	0.102
-214.538	-55.799	-0.132	0.059
-213.523	-200.000	-0.055	0.365
-212.509	800.000	0.089	0.321
-211.494	-200.000	0.003	-0.223
-210.479	113.320	0.223	0.270
-209.465	-55.306	0.135	0.060
-208.450	-182.819	-0.188	-0.003
-207.436	-200.000	-0.032	-0.341
-206.421	-113.547	-0.396	0.077
-205.406	93.213	0.057	0.065
-204.392	97.155	-0.164	-0.187
-203.377	-45.185	0.091	0.045
-202.363	381.282	0.112	0.229
-201.348	449.967	0.025	-0.054
-200.333	-200.000	0.008	0.118
-199.319	168.393	-0.339	-0.481
-198.304	-161.211	0.097	-0.005
-197.290	160.915	0.132	0.183
-196.275	133.410	0.144	-0.186
-195.260	58.454	0.248	-0.243
-194.246	-111.141	0.333	-0.068
-193.231	236.429	0.346	0.570
-192.217	-200.000	0.005	0.187
-191.202	-158.842	0.227	-0.013
-190.187	-96.609	-0.155	0.041
-189.173	-146.249	-0.298	0.026
-188.158	-48.684	-0.245	0.117
-187.144	-163.228	0.425	-0.020
-186.129	119.817	0.166	-0.205
-185.114	227.338	-0.088	0.142
-184.100	154.638	0.192	0.263
-183.085	-137.404	-0.193	0.022
-182.071	-200.000	-0.023	0.357
-181.056	-200.000	0.012	0.247
-180.042	521.109	0.103	-0.240
-179.027	-131.661	0.470	-0.062
-178.012	396.327	-0.020	0.042
-176.998	-124.851	0.227	0.035
-175.983	-200.000	-0.014	0.328
-174.969	-44.170	0.193	0.096
-173.954	94.901	-0.191	0.216
-172.939	-56.733	0.132	-0.058
-171.925	62.794	-0.076	-0.075
-170.910	-84.457	-0.322	-0.101
-169.896	759.214	0.088	-0.238
-168.881	800.000	-0.071	-0.220
-167.866	-179.012	0.078	-0.002
-166.852	-99.668	0.271	0.068
-165.837	-149.317	-0.337	0.027
-164.823	-163.001	0.135	0.007
-163.808	-200.000	-0.038	-0.204
-162.793	285.118	0.062	-0.111
-161.779	-63.602	0.375	-0.153
-160.764	115.740	-0.135	-0.164
-159.750	-80.437	0.345	0.115
-158.735	110.366	0.075	0.089
-157.720	268.938	0.029	0.051
-156.706	800.000	0.029	0.097
-155.691	-200.000	0.041	0.356
-154.677	-48.505	0.316	0.151
-153.662	11.404	0.324	0.247
-152.647	25.826	-0.214	0.177
-151.633	-136.190	0.077	0.009
-150.618	-200.000	-0.039	0.278
-149.604	-32.226	0.088	0.049
-148.589	71.369	-0.066	0.068
-147.574	22.887	0.155	-0.127
-146.560	-140.843	-0.188	0.019
-145.545	-32.889	0.075	0.041
-144.531	800.000	0.008	0.034
-143.516	-152.122	0.197	-0.014
-142.502	-90.669	0.219	0.063
-141.487	-198.133	0.019	-0.000
-140.472	106.439	-0.205	0.241
-139.458	253.486	-0.141	0.239
-138.443	82.607	0.156	0.169
-137.429	42.752	-0.187	0.169
-136.414	496.759	0.194	0.445
-135.399	-114.612	-0.297	-0.057
-134.385	-147.421	-0.441	-0.037
-133.370	-200.000	-0.011	0.099
-132.356	119.937	0.133	-0.164
-131.341	-114.647	-0.520	-0.099
-130.326	-54.218	-0.208	0.094
-129.312	-16.257	0.110	-0.070
-128.297	231.073	0.235	-0.382
-127.283	-0.363	-0.102	0.072
-126.268	243.130	-0.077	-0.129
-125.253	4.485	0.219	-0.160
-124.239	-200.000	-0.042	0.283
-123.224	18.219	0.287	0.228
-122.210	-52.083	-0.264	-0.122
