DTS Sentinel unit serial number:	SN413079Multiplexer serial number:	ORYXHardware model number:	OX4-SRSoftware version number:	ORYX F/W v4.00 Oryx Data Collector v3.7.2.0data status	okinstallation	princeton_trtdifferential loss correction	single-endedforward channel	channel 1reverse channel	N/Adate	2019/09/11time	06:08:11forward acquisition time	60.00reverse acquisition time	0.00gamma	496.2192k internal	0.2330k external	0.2330temperature offset calibration	0.9927default loss term (dB/km)	0.3790temperature slope calibration	1.0000multiplexer offset coefficient	1.0000multiplexer slope coefficient	1.0000fibre end	0.00T internal ref (°C)	29.44T ext. ref 1 (°C)	-0.20T ext. ref 2 (°C)	23.90length (m)	temperature (°C)	Stokes	anti-Stokes-747.200	-179.034	0.276	-0.006
-746.185	34.504	-0.259	-0.228
-745.171	17.003	0.157	0.125
-744.156	-133.445	-0.238	0.030
-743.142	800.000	0.100	0.370
-742.127	-9.631	0.056	-0.038
-741.112	-42.482	-0.453	-0.232
-740.098	679.321	0.070	0.183
-739.083	-99.851	-0.119	0.030
-738.069	92.890	0.100	0.114
-737.054	-7.972	-0.123	-0.083
-736.039	187.411	-0.019	-0.028
-735.025	-63.764	0.280	0.116
-734.010	184.650	-0.129	-0.192
-732.996	800.000	-0.156	-0.434
-731.981	-200.000	0.040	0.183
-730.966	119.939	0.032	0.040
-729.952	70.196	-0.086	0.089
-728.937	34.376	0.185	-0.162
-727.923	176.637	0.096	0.141
-726.908	420.777	-0.020	-0.043
-725.894	800.000	-0.153	-0.459
-724.879	641.828	-0.028	-0.072
-723.864	-112.692	-0.157	-0.031
-722.850	136.197	0.090	0.118
-721.835	-200.000	-0.037	-0.173
-720.821	252.085	-0.106	0.182
-719.806	800.000	0.012	-0.034
-718.791	-200.000	0.014	0.224
-717.777	233.753	-0.074	0.122
-716.762	85.167	-0.085	-0.094
-715.748	34.370	-0.164	0.144
-714.733	-110.914	-0.287	0.059
-713.718	724.009	0.030	0.081
-712.704	800.000	-0.063	-0.181
-711.689	-61.241	0.299	0.127
-710.675	-200.000	0.056	-0.561
-709.660	-200.000	0.016	-0.310
-708.645	-61.048	-0.458	-0.195
-707.631	-99.662	0.080	0.020
-706.616	67.080	0.110	-0.113
-705.602	55.652	-0.037	-0.036
-704.587	-103.857	-0.092	0.022
-703.572	-109.241	0.200	0.043
-702.558	343.519	0.101	-0.199
-701.543	25.145	0.149	-0.125
-700.529	6.484	-0.155	-0.116
-699.514	-21.147	-0.088	-0.054
-698.499	-18.086	0.248	0.156
-697.485	-10.852	0.093	-0.062
-696.470	2.409	0.080	-0.059
-695.456	-78.811	-0.222	0.076
-694.441	7.688	0.229	-0.173
-693.426	84.508	0.182	0.200
-692.412	-200.000	-0.038	0.201
-691.397	800.000	0.042	-0.169
-690.383	-36.673	-0.125	-0.067
-689.368	89.553	0.046	0.052
-688.354	9.825	0.128	0.098
-687.339	-124.977	0.069	-0.011
-686.324	392.387	-0.212	-0.443
-685.310	800.000	-0.097	-0.388
-684.295	-136.517	-0.199	-0.023
-683.281	-18.281	-0.037	-0.023
-682.266	-143.063	-0.384	-0.037
-681.251	53.701	-0.101	0.098
-680.237	-107.269	0.310	0.068
-679.222	-200.000	-0.002	-0.151
-678.208	360.550	0.114	-0.230
-677.193	-78.010	-0.381	-0.132
-676.178	19.641	0.093	-0.075
-675.164	-103.558	-0.251	-0.059
-674.149	97.127	-0.053	-0.061
-673.135	171.601	-0.186	-0.268
-672.120	-116.613	-0.284	-0.052
-671.105	-21.905	0.355	-0.217
-670.091	-200.000	0.048	0.230
-669.076	-200.000	-0.051	0.243
-668.062	-200.000	0.022	-0.116
-667.047	-106.382	-0.111	-0.025
-666.032	-151.947	0.235	0.017
-665.018	-81.870	0.178	0.059
-664.003	-133.642	-0.131	0.016
-662.989	50.789	0.166	0.158
-661.974	39.231	-0.057	-0.051
-660.959	-43.064	0.039	0.020
-659.945	765.389	0.175	0.477
-658.930	-200.000	0.024	0.218
-657.916	-48.576	-0.364	-0.175
-656.901	-200.000	0.000	-0.046
-655.886	43.618	0.168	0.154
-654.872	-148.678	-0.078	0.006
-653.857	-40.360	0.301	-0.157
-652.843	268.273	-0.103	0.181
-651.828	18.774	0.375	-0.301
-650.814	800.000	-0.065	0.250
-649.799	-200.000	0.021	-0.301
-648.784	800.000	0.062	-0.195
-647.770	-58.710	0.173	-0.075
-646.755	-103.049	-0.288	-0.068
-645.741	-152.048	0.293	-0.021
-644.726	88.557	0.158	-0.176
-643.711	-100.294	0.117	0.029
-642.697	-200.000	0.063	-0.288
-641.682	-143.936	-0.263	-0.025
-640.668	-20.965	-0.191	0.117
-639.653	-98.292	0.167	-0.043
-638.638	-73.423	-0.283	-0.104
-637.624	-35.354	0.131	-0.071
-636.609	-200.000	-0.015	-0.112
-635.595	525.688	-0.064	-0.152
-634.580	-200.000	-0.023	-0.112
-633.565	-200.000	0.089	0.000
-632.551	-97.126	-0.249	0.065
-631.536	-200.000	-0.040	-0.199
-630.522	-200.000	-0.032	-0.257
-629.507	-106.163	0.013	-0.003
-628.492	-35.413	-0.286	0.155
-627.478	-107.446	0.148	0.033
-626.463	800.000	-0.034	-0.139
-625.449	-8.984	-0.222	0.149
-624.434	-181.187	-0.246	0.005
-623.419	81.933	0.096	0.104
-622.405	-200.000	0.079	-0.377
-621.390	129.820	-0.326	-0.417
-620.376	85.212	0.110	0.121
-619.361	800.000	-0.082	0.244
-618.346	214.312	0.052	0.083
-617.332	81.386	-0.161	0.174
-616.317	11.121	0.219	0.168
-615.303	178.510	0.173	-0.254
-614.288	-69.655	-0.091	0.035
-613.273	130.070	0.151	0.194
-612.259	70.116	-0.107	0.111
-611.244	29.756	-0.117	0.100
-610.230	800.000	-0.082	0.336
-609.215	-200.000	-0.020	0.095
-608.201	-81.620	-0.060	0.020
-607.186	-200.000	-0.010	-0.216
-606.171	-119.362	0.031	-0.005
-605.157	173.106	-0.239	0.345
-604.142	-47.810	-0.103	-0.050
-603.128	59.674	0.158	0.156
-602.113	-200.000	0.075	0.364
-601.098	-39.742	0.480	-0.251
-600.084	-43.960	-0.081	0.041
-599.069	-78.487	-0.239	0.082
-598.055	-70.363	-0.149	-0.057
-597.040	14.632	-0.135	-0.105
-596.025	-60.842	0.123	-0.052
-595.011	240.971	-0.147	0.246
-593.996	-178.003	0.094	0.002
-592.982	-89.949	-0.084	-0.025
-591.967	-200.000	0.058	-0.307
-590.952	800.000	0.089	-0.285
-589.938	-32.662	-0.129	0.072
-588.923	800.000	-0.107	0.314
-587.909	16.563	-0.033	-0.026
-586.894	-102.834	0.094	-0.022
-585.879	207.607	0.198	0.310
-584.865	-49.244	-0.290	0.139
-583.850	-78.504	-0.338	0.116
-582.836	33.327	0.218	-0.190
-581.821	258.270	0.234	-0.403
-580.806	-17.396	0.101	0.063
-579.792	-200.000	0.014	0.113
-578.777	-149.485	0.286	0.023
-577.763	800.000	0.127	-0.407
-576.748	76.389	0.241	0.256
-575.733	-28.766	-0.170	-0.098
-574.719	-69.074	0.055	-0.021
-573.704	-46.746	-0.210	-0.103
-572.690	290.117	-0.036	0.065
-571.675	312.043	-0.031	0.059
-570.661	-57.516	-0.165	0.072
-569.646	-200.000	0.035	-0.380
-568.631	-66.327	0.357	0.142
-567.617	-200.000	-0.013	0.293
-566.602	-164.833	0.152	0.007
-565.588	-43.388	0.118	-0.060
-564.573	-74.777	0.146	0.052
-563.558	14.822	0.277	-0.216
-562.544	-34.982	-0.118	0.064
-561.529	151.120	0.117	-0.160
-560.515	-200.000	0.053	-0.424
-559.500	-200.000	-0.018	0.343
-558.485	572.559	-0.063	-0.154
-557.471	167.604	0.168	-0.238
-556.456	525.103	-0.027	0.064
-555.442	800.000	0.021	-0.084
-554.427	800.000	-0.040	0.113
-553.412	8.362	-0.078	0.059
-552.398	-83.088	-0.173	-0.056
-551.383	-200.000	0.017	-0.164
-550.369	325.456	-0.085	-0.163
-549.354	179.168	-0.078	-0.114
-548.339	-123.281	0.097	-0.015
-547.325	225.212	0.052	0.085
-546.310	191.627	-0.099	0.150
-545.296	-116.374	0.113	0.021
-544.281	10.285	0.010	-0.007
-543.266	-78.035	0.169	0.058
-542.252	272.731	-0.215	0.379
-541.237	433.337	0.083	-0.180
-540.223	-136.175	0.478	0.056
-539.208	-76.010	0.154	0.055
-538.193	147.712	0.174	0.235
-537.179	403.030	-0.108	0.227
-536.164	800.000	0.055	0.221
-535.150	-188.563	0.107	-0.001
-534.135	-200.000	-0.011	-0.192
-533.121	-123.658	-0.288	-0.046
-532.106	86.945	0.070	-0.077
-531.091	-200.000	0.015	0.168
-530.077	385.738	0.132	-0.272
-529.062	455.404	0.151	0.334
-528.048	-48.045	-0.157	-0.076
-527.033	268.550	0.126	0.221
-526.018	-62.814	-0.175	0.072
-525.004	-113.432	0.235	0.046
-523.989	101.563	0.072	-0.084
-522.975	-18.877	0.168	0.104
-521.960	378.141	-0.144	-0.294
-520.945	-119.118	-0.072	0.013
-519.931	-47.877	-0.151	0.073
-518.916	-172.075	-0.198	0.006
-517.902	393.401	0.043	-0.089
-516.887	-79.422	-0.444	-0.150
-515.872	145.631	0.052	-0.069
-514.858	7.062	-0.194	0.144
-513.843	432.213	-0.070	0.151
-512.829	718.505	0.035	0.094
-511.814	-125.706	-0.309	-0.047
-510.799	382.328	-0.148	-0.303
-509.785	-200.000	0.077	-0.464
-508.770	-200.000	0.008	-0.296
-507.756	-106.185	-0.202	0.045
-506.741	-141.348	0.224	-0.023
-505.726	800.000	0.046	0.166
-504.712	-200.000	-0.001	-0.251
-503.697	269.090	0.037	-0.064
-502.683	-200.000	0.015	0.369
-501.668	-95.170	0.186	-0.050
-500.653	285.057	0.089	-0.160
-499.639	340.324	0.057	-0.111
-498.624	-150.473	0.297	0.023
-497.610	-200.000	-0.031	-0.180
-496.595	-117.290	-0.270	-0.049
-495.581	-1.760	0.109	-0.076
-494.566	-82.325	0.084	0.027
-493.551	43.538	-0.245	0.224
-492.537	-39.908	0.126	0.066
-491.522	-153.959	-0.243	-0.016
-490.508	-60.445	-0.193	0.082
-489.493	338.335	-0.030	0.059
-488.478	466.473	0.123	0.274
-487.464	-200.000	-0.011	0.327
-486.449	-84.561	0.314	0.099
-485.435	-200.000	-0.022	0.110
-484.420	194.059	-0.211	-0.318
-483.405	-77.227	-0.149	0.052
-482.391	-200.000	-0.014	0.297
-481.376	261.166	0.215	0.371
-480.362	-9.951	-0.171	0.113
-479.347	525.423	-0.063	0.148
-478.332	-45.907	0.255	-0.125
-477.318	800.000	-0.031	0.123
-476.303	-50.971	0.027	-0.012
-475.289	566.760	-0.056	0.136
-474.274	77.385	-0.273	0.289
-473.259	-5.183	-0.263	0.180
-472.245	372.448	-0.119	-0.241
-471.230	-144.116	-0.376	0.035
-470.216	314.382	0.194	0.364
-469.201	-46.624	0.148	-0.072
-468.186	-66.398	-0.359	-0.142
-467.172	14.828	0.178	-0.139
-466.157	-200.000	-0.026	-0.168
-465.143	172.291	0.199	0.285
-464.128	-200.000	0.028	0.241
-463.113	-104.217	0.211	0.049
-462.099	-109.729	-0.306	-0.064
-461.084	-57.218	-0.139	-0.061
-460.070	800.000	-0.101	-0.288
-459.055	-200.000	0.018	-0.258
-458.040	-124.767	-0.182	-0.028
-457.026	-10.155	0.187	0.123
-456.011	74.418	-0.220	0.230
-454.997	-99.943	-0.167	0.041
-453.982	-108.073	-0.094	-0.020
-452.968	-200.000	-0.052	0.381
-451.953	-116.218	-0.279	0.052
-450.938	-13.274	-0.124	0.080
-449.924	-200.000	0.007	-0.079
-448.909	192.023	-0.132	-0.199
-447.895	169.634	0.210	-0.299
-446.880	134.545	0.018	-0.023
-445.865	60.340	-0.112	-0.110
-444.851	12.358	-0.373	-0.286
-443.836	101.221	0.037	-0.043
-442.822	-200.000	-0.030	0.198
-441.807	800.000	-0.044	0.159
-440.792	110.637	0.123	0.147
-439.778	103.074	-0.094	-0.109
-438.763	64.415	0.148	-0.149
-437.749	-200.000	-0.007	0.259
-436.734	81.368	-0.085	-0.091
-435.719	800.000	-0.059	-0.223
-434.705	-73.279	0.211	0.077
-433.690	-119.507	0.280	-0.048
-432.676	-200.000	-0.076	0.392
-431.661	-57.394	0.382	-0.167
-430.646	309.972	-0.103	-0.192
-429.632	-157.071	-0.105	-0.006
-428.617	-115.216	0.137	0.026
-427.603	102.515	0.113	-0.131
-426.588	180.652	0.137	-0.201
-425.573	241.304	0.186	0.309
-424.559	-86.770	-0.286	-0.087
-423.544	-200.000	0.035	-0.181
-422.530	-200.000	0.081	-0.355
-421.515	-169.172	-0.069	0.003
-420.500	-107.471	0.395	-0.086
-419.486	-154.167	-0.079	-0.005
-418.471	296.253	-0.177	0.323
-417.457	-200.000	0.039	0.172
-416.442	11.751	-0.276	-0.211
-415.428	-99.638	0.236	-0.059
-414.413	-72.727	-0.210	0.077
-413.398	34.793	0.123	-0.107
-412.384	-200.000	0.009	0.158
-411.369	-200.000	0.008	-0.138
-410.355	47.705	-0.120	-0.112
-409.340	-112.411	-0.410	0.081
-408.325	-153.988	-0.303	0.020
-407.311	800.000	0.017	-0.065
-406.296	-34.726	-0.085	-0.046
-405.282	186.334	-0.128	0.190
-404.267	244.248	-0.106	0.176
-403.252	-77.520	-0.260	0.090
-402.238	-47.729	0.077	0.037
-401.223	192.081	-0.276	-0.414
-400.209	207.297	0.212	0.329
-399.194	25.888	0.075	0.062
-398.179	-151.092	0.159	-0.012
-397.165	-55.558	-0.286	-0.127
-396.150	46.656	0.112	-0.103
-395.136	34.884	0.209	0.182
-394.121	-59.806	-0.030	0.013
-393.106	-135.032	0.344	0.041
-392.092	-62.093	0.137	-0.057
-391.077	-12.645	-0.164	-0.106
-390.063	-200.000	-0.040	0.174
-389.048	-88.026	-0.159	0.048
-388.033	183.102	-0.137	0.200
-387.019	-49.124	0.146	-0.069
-386.004	-100.028	-0.354	0.088
-384.990	76.188	-0.232	0.244
-383.975	-200.000	-0.001	-0.140
-382.960	230.710	-0.045	0.073
-381.946	-28.491	0.193	-0.110
-380.931	45.291	-0.092	-0.084
-379.917	-23.984	-0.114	-0.067
-378.902	-58.286	0.259	-0.112
-377.888	-23.690	0.129	-0.077
-376.873	-200.000	0.003	-0.206
-375.858	-9.776	-0.057	-0.038
-374.844	-56.353	0.376	-0.166
-373.829	-200.000	-0.047	-0.261
-372.815	14.823	0.130	-0.101
-371.800	-72.912	-0.513	0.187
-370.785	-31.804	0.218	-0.121
-369.771	-105.920	-0.198	-0.044
-368.756	188.657	-0.290	0.430
-367.742	-200.000	-0.012	-0.072
-366.727	85.061	0.306	-0.332
-365.712	49.242	0.114	0.107
-364.698	-60.430	0.076	-0.032
-363.683	-200.000	-0.025	-0.229
-362.669	-42.261	0.139	-0.071
-361.654	800.000	-0.077	-0.300
-360.639	-5.916	0.229	0.156
-359.625	566.108	0.123	0.297
-358.610	-26.451	0.068	-0.039
-357.596	-199.054	-0.280	-0.002
-356.581	162.204	0.223	-0.309
-355.566	-132.333	0.421	0.054
-354.552	65.847	-0.216	-0.218
-353.537	800.000	0.124	-0.372
-352.523	459.203	-0.129	0.285
-351.508	-117.300	0.348	-0.063
-350.493	-41.265	0.130	-0.067
-349.479	355.117	-0.069	0.137
-348.464	547.970	0.086	-0.204
-347.450	-13.254	0.089	-0.057
-346.435	-200.000	-0.003	0.140
-345.420	-146.032	0.117	-0.010
-344.406	-153.554	0.266	-0.018
-343.391	-200.000	-0.093	0.469
-342.377	-200.000	0.074	0.328
-341.362	-155.962	0.309	-0.019
-340.348	340.846	0.027	0.053
-339.333	22.694	-0.335	-0.271
-338.318	-117.451	0.268	0.048
-337.304	-200.000	-0.001	-0.011
-336.289	-144.546	-0.019	-0.002
-335.275	-200.000	-0.003	0.126
-334.260	14.698	-0.096	0.074
-333.245	-84.727	-0.098	-0.031
-332.231	512.460	0.085	-0.196
-331.216	-42.285	0.389	0.197
-330.202	77.527	-0.078	-0.082
-329.187	97.737	0.131	0.149
-328.172	59.813	-0.164	-0.161
-327.158	249.703	-0.124	0.209
-326.143	358.875	0.099	0.196
-325.129	-25.137	0.334	-0.196
-324.114	800.000	0.047	-0.194
-323.099	-24.441	0.300	-0.177
-322.085	407.276	-0.058	0.121
-321.070	-30.326	0.491	0.276
-320.056	552.983	-0.028	-0.067
-319.041	-77.521	0.172	0.059
-318.026	800.000	0.081	0.223
-317.012	-92.676	-0.205	0.057
-315.997	-122.233	0.335	0.054
-314.983	800.000	-0.061	-0.228
-313.968	-64.076	0.111	0.045
-312.953	45.836	-0.056	-0.051
-311.939	-107.477	0.193	-0.042
-310.924	-140.526	-0.072	-0.007
-309.910	-58.899	-0.219	0.094
-308.895	177.572	0.050	0.072
-307.880	-112.304	0.091	0.018
-306.866	514.490	-0.085	-0.197
-305.851	-82.165	0.174	-0.056
-304.837	-77.635	-0.065	-0.022
-303.822	-32.058	0.183	-0.102
-302.807	-59.476	-0.073	0.031
-301.793	-83.464	0.149	0.047
-300.778	-109.919	-0.356	0.074
-299.764	-117.282	0.170	0.030
-298.749	228.170	-0.094	0.151
-297.735	-200.000	-0.042	-0.218
-296.720	154.935	0.117	0.159
-295.705	199.828	0.022	-0.034
-294.691	375.083	-0.091	0.184
-293.676	-172.977	0.316	0.010
-292.662	157.355	-0.078	0.106
-291.647	460.489	-0.064	0.142
-290.632	-200.000	0.034	-0.152
-289.618	115.073	-0.132	0.159
-288.603	-112.634	0.358	-0.070
-287.589	-12.024	-0.303	-0.197
-286.574	-45.077	-0.265	-0.130
-285.559	-200.000	-0.039	-0.346
-284.545	-143.911	-0.324	-0.030
-283.530	-39.091	-0.210	0.109
-282.516	57.406	0.202	0.195
-281.501	60.620	-0.091	-0.089
-280.486	-125.584	0.145	0.022
-279.472	-105.511	0.152	0.034
-278.457	800.000	-0.041	-0.143
-277.443	-200.000	-0.052	0.366
-276.428	-141.887	0.249	0.025
-275.413	120.643	-0.212	0.260
-274.399	230.262	-0.079	0.128
-273.384	-87.050	0.214	-0.064
-272.370	-200.000	-0.060	-0.362
-271.355	-200.000	0.101	-0.493
-270.340	724.888	0.085	0.224
-269.326	-167.312	-0.198	0.008
-268.311	800.000	0.070	-0.223
-267.297	-167.987	0.288	0.011
-266.282	481.758	0.064	-0.143
-265.267	-200.000	-0.018	-0.137
-264.253	800.000	0.051	0.161
-263.238	-83.275	-0.220	0.070
-262.224	-200.000	0.023	-0.244
-261.209	377.290	0.024	-0.049
-260.195	800.000	0.030	0.102
-259.180	125.008	-0.110	-0.136
-258.165	-80.534	-0.380	-0.125
-257.151	800.000	-0.070	-0.199
-256.136	-27.320	0.055	-0.031
-255.122	800.000	-0.062	0.255
-254.107	-22.570	-0.162	-0.097
-253.092	27.534	0.084	-0.070
-252.078	-200.000	-0.011	0.310
-251.063	121.354	0.088	0.108
-250.049	-4.554	0.043	-0.030
-249.034	-6.941	-0.165	-0.111
-248.019	433.596	-0.212	-0.454
-247.005	22.517	0.316	0.255
-245.990	56.978	-0.216	-0.208
-244.976	-14.528	-0.171	-0.108
-243.961	368.411	-0.110	-0.220
-242.946	-196.509	0.222	-0.001
-241.932	84.585	0.120	0.130
-240.917	358.219	-0.153	-0.303
-239.903	-146.685	-0.144	-0.012
-238.888	-101.387	0.279	-0.067
-237.873	78.035	0.127	-0.134
-236.859	800.000	0.074	0.246
-235.844	-149.916	-0.152	0.012
-234.830	26.930	-0.232	0.192
-233.815	-200.000	0.011	-0.079
-232.800	79.269	-0.043	0.045
-231.786	-200.000	0.010	-0.176
-230.771	-200.000	-0.071	0.330
-229.757	-69.569	0.257	0.097
-228.742	61.001	-0.082	0.080
-227.727	-30.984	-0.269	0.150
-226.713	64.837	0.293	0.291
-225.698	-200.000	0.001	0.161
-224.684	230.796	0.089	-0.144
-223.669	-200.000	0.020	0.268
-222.655	66.896	0.116	-0.116
-221.640	23.722	0.168	0.136
-220.625	-200.000	-0.016	0.163
-219.611	128.570	-0.069	0.087
-218.596	-5.061	-0.029	0.020
-217.582	800.000	0.015	-0.052
-216.567	800.000	0.042	-0.132
-215.552	16.863	0.162	-0.126
-214.538	-18.024	0.311	-0.192
-213.523	-75.945	-0.217	-0.076
-212.509	-197.479	-0.241	-0.001
-211.494	-181.409	0.062	-0.001
-210.479	-6.170	-0.353	0.238
-209.465	31.693	-0.213	0.180
-208.450	-200.000	0.039	0.275
-207.436	-200.000	0.002	-0.367
-206.421	-130.774	0.310	0.041
-205.406	285.411	0.115	-0.204
-204.392	69.566	-0.121	-0.123
-203.377	309.171	-0.083	-0.152
-202.363	-115.697	-0.166	0.031
-201.348	-143.931	-0.221	-0.021
-200.333	14.616	0.286	0.220
-199.319	-87.137	0.099	0.030
-198.304	-200.000	0.010	-0.161
-197.290	-124.562	0.392	-0.060
-196.275	-96.969	-0.300	0.078
-195.260	800.000	-0.085	-0.267
-194.246	102.499	0.086	-0.099
-193.231	800.000	-0.045	-0.151
-192.217	313.392	-0.084	0.155
-191.202	-98.086	0.090	0.023
-190.187	-200.000	0.007	0.136
-189.173	-10.560	0.059	0.038
-188.158	572.086	0.103	0.247
-187.144	-78.383	-0.153	0.052
-186.129	66.010	-0.275	0.274
-185.114	-28.046	0.159	0.091
-184.100	-25.379	-0.182	0.106
-183.085	310.096	0.116	0.214
-182.071	23.718	0.140	0.114
-181.056	373.394	-0.049	-0.098
-180.042	45.320	-0.166	0.151
-179.027	-63.588	-0.187	0.076
-178.012	25.363	-0.040	0.033
-176.998	-200.000	0.034	-0.298
-175.983	103.485	0.042	0.048
-174.969	-41.764	0.075	-0.038
-173.954	-124.051	-0.221	-0.034
-172.939	-29.351	-0.186	-0.105
-171.925	800.000	0.007	0.023
-170.910	-117.432	0.051	-0.009
-169.896	113.978	-0.064	-0.076
-168.881	662.463	0.058	-0.148
-167.866	-32.772	-0.178	0.098
-166.852	-200.000	0.007	0.230
-165.837	365.198	-0.009	-0.018
-164.823	174.912	0.214	0.305
-163.808	-104.660	0.262	-0.059
-162.793	-133.306	0.133	0.016
-161.779	-111.054	-0.120	0.024
-160.764	-200.000	0.013	-0.207
-159.750	17.733	-0.206	0.161
-158.735	800.000	0.053	0.208
-157.720	-200.000	0.078	-0.336
-156.706	-128.254	0.363	0.051
-155.691	256.830	-0.155	0.262
-154.677	-58.316	-0.275	0.118
-153.662	-32.678	0.113	-0.062
-152.647	287.700	0.046	-0.081
-151.633	-7.000	0.082	0.055
-150.618	-82.977	0.102	0.032
-149.604	-94.724	-0.380	0.101
-148.589	-200.000	-0.079	-0.372
-147.574	-14.892	0.303	0.191
-146.560	74.481	-0.118	0.122
-145.545	-57.861	0.180	-0.077
-144.531	-103.236	-0.136	-0.031
-143.516	-50.359	-0.206	0.096
-142.502	88.801	-0.033	0.036
-141.487	-34.173	0.034	-0.018
-140.472	165.608	0.126	-0.175
-139.458	-158.315	0.220	-0.013
-138.443	-200.000	-0.012	-0.134
-137.429	46.058	-0.158	0.144
-136.414	-8.532	-0.225	0.149
-135.399	-82.745	0.347	-0.110
-134.385	-105.625	0.198	-0.044
-133.370	558.676	0.105	0.249
-132.356	-172.308	0.067	-0.002
-131.341	-200.000	-0.004	0.050
-130.326	39.218	0.124	0.109
-129.312	-109.107	0.115	-0.024
-128.297	690.188	0.020	-0.052
-127.283	-200.000	-0.033	0.141
-126.268	65.161	-0.091	0.091
-125.253	63.770	0.168	-0.166
-124.239	800.000	-0.076	0.283
-123.224	800.000	-0.049	-0.207
-122.210	-74.954	-0.180	-0.063
