DTS Sentinel unit serial number:	SN413079Multiplexer serial number:	ORYXHardware model number:	OX4-SRSoftware version number:	ORYX F/W v4.00 Oryx Data Collector v3.7.2.0data status	okinstallation	princeton_trtdifferential loss correction	single-endedforward channel	channel 1reverse channel	N/Adate	2019/09/11time	11:16:12forward acquisition time	60.00reverse acquisition time	0.00gamma	496.2192k internal	0.2296k external	0.2296temperature offset calibration	0.9954default loss term (dB/km)	0.3790temperature slope calibration	1.0000multiplexer offset coefficient	1.0000multiplexer slope coefficient	1.0000fibre end	0.00T internal ref (°C)	37.62T ext. ref 1 (°C)	0.19T ext. ref 2 (°C)	34.15length (m)	temperature (°C)	Stokes	anti-Stokes-747.200	-149.518	0.385	0.031
-746.185	64.435	0.087	-0.089
-745.171	800.000	0.065	-0.191
-744.156	389.345	0.109	-0.230
-743.142	205.913	0.168	-0.267
-742.127	-27.044	-0.054	-0.032
-741.112	164.537	-0.045	0.064
-740.098	-80.508	0.304	-0.103
-739.083	558.008	0.043	-0.105
-738.069	-200.000	-0.029	0.449
-737.054	-200.000	0.036	0.333
-736.039	-156.893	-0.203	-0.013
-735.025	-84.293	0.247	-0.080
-734.010	-70.254	-0.462	-0.179
-732.996	19.445	-0.174	-0.143
-731.981	-177.848	0.098	0.002
-730.966	-158.755	0.124	-0.007
-729.952	-97.600	-0.234	0.062
-728.937	1.980	0.105	-0.077
-727.923	148.140	0.143	0.197
-726.908	487.219	0.139	-0.324
-725.894	-55.745	-0.377	-0.172
-724.879	-200.000	0.003	-0.125
-723.864	107.379	-0.064	-0.078
-722.850	-200.000	-0.038	0.193
-721.835	14.452	-0.174	0.139
-720.821	-200.000	0.033	-0.207
-719.806	532.290	-0.073	0.175
-718.791	-200.000	-0.005	0.125
-717.777	46.685	-0.257	0.244
-716.762	8.481	-0.080	0.061
-715.748	255.641	0.024	-0.043
-714.733	-200.000	0.027	-0.204
-713.718	-69.267	-0.063	-0.025
-712.704	162.094	0.230	-0.329
-711.689	42.478	-0.132	-0.123
-710.675	-11.320	-0.226	0.152
-709.660	100.712	0.093	0.110
-708.645	-38.611	0.126	0.068
-707.631	-200.000	0.005	-0.171
-706.616	-68.203	0.211	-0.084
-705.602	-200.000	-0.023	-0.234
-704.587	800.000	-0.048	-0.179
-703.572	-24.539	-0.068	-0.041
-702.558	-200.000	0.012	0.053
-701.543	-200.000	-0.039	-0.180
-700.529	-89.843	-0.294	-0.088
-699.514	800.000	-0.098	-0.303
-698.499	-200.000	0.013	-0.116
-697.485	-200.000	-0.005	-0.025
-696.470	-11.322	-0.237	-0.159
-695.456	40.373	-0.117	-0.108
-694.441	-28.161	-0.072	-0.042
-693.426	87.605	-0.203	-0.230
-692.412	6.806	0.194	-0.147
-691.397	-200.000	-0.043	-0.286
-690.383	-200.000	-0.001	0.069
-689.368	-200.000	-0.058	0.276
-688.354	-200.000	0.002	0.278
-687.339	48.984	0.034	-0.032
-686.324	-200.000	0.023	-0.145
-685.310	-3.551	0.122	0.087
-684.295	800.000	-0.084	0.333
-683.281	14.621	-0.177	-0.141
-682.266	41.557	-0.191	-0.176
-681.251	82.705	-0.195	-0.216
-680.237	245.883	-0.048	0.083
-679.222	800.000	-0.086	-0.261
-678.208	800.000	0.045	-0.145
-677.193	-200.000	-0.015	-0.249
-676.178	-183.400	-0.260	0.005
-675.164	258.338	-0.048	0.085
-674.149	-200.000	-0.005	0.077
-673.135	-200.000	-0.001	-0.019
-672.120	-23.404	0.246	0.151
-671.105	342.431	0.039	0.077
-670.091	-38.751	-0.070	0.038
-669.076	-70.722	-0.379	0.146
-668.062	800.000	-0.041	-0.160
-667.047	145.767	0.099	0.135
-666.032	-153.628	0.249	-0.017
-665.018	606.859	-0.145	0.368
-664.003	166.122	-0.038	0.055
-662.989	179.693	-0.103	0.154
-661.974	-57.470	-0.253	-0.113
-660.959	-200.000	-0.061	-0.304
-659.945	800.000	-0.051	-0.198
-658.930	175.157	-0.241	-0.355
-657.916	-98.658	-0.090	0.023
-656.901	241.199	0.147	0.251
-655.886	344.121	0.067	-0.133
-654.872	320.262	-0.129	0.250
-653.857	410.688	0.093	-0.200
-652.843	85.608	0.259	0.290
-651.828	-200.000	0.045	0.361
-650.814	71.182	-0.172	0.182
-649.799	166.425	-0.092	-0.133
-648.784	58.724	-0.206	-0.206
-647.770	-101.591	-0.129	-0.032
-646.755	-56.205	-0.040	-0.018
-645.741	272.418	-0.052	-0.094
-644.726	125.515	0.116	0.149
-643.711	-138.432	0.379	0.042
-642.697	800.000	0.021	0.082
-641.682	-105.881	0.226	-0.052
-640.668	-39.795	-0.284	0.151
-639.653	273.551	0.047	-0.084
-638.638	-63.209	0.249	0.104
-637.624	-64.203	-0.278	0.115
-636.609	-200.000	-0.146	0.000
-635.595	-183.670	-0.374	-0.007
-634.580	78.333	0.127	0.138
-633.565	-59.361	0.141	0.062
-632.551	-95.590	-0.476	-0.130
-631.536	-60.203	-0.223	0.097
-630.522	-106.686	-0.125	0.028
-629.507	-172.785	-0.177	-0.006
-628.492	-50.097	0.040	0.019
-627.478	800.000	-0.070	0.287
-626.463	267.256	0.191	0.340
-625.449	-92.284	-0.267	0.077
-624.434	113.696	-0.075	-0.093
-623.419	-200.000	0.046	-0.263
-622.405	221.082	0.104	-0.169
-621.390	384.485	-0.061	-0.127
-620.376	800.000	0.094	0.354
-619.361	800.000	-0.049	-0.169
-618.346	-119.527	0.354	-0.062
-617.332	-200.000	0.005	-0.184
-616.317	-14.094	0.204	-0.134
-615.303	59.031	-0.160	0.160
-614.288	-121.319	0.303	-0.051
-613.273	25.999	-0.161	-0.137
-612.259	-138.545	0.196	-0.022
-611.244	-111.734	-0.113	-0.023
-610.230	800.000	-0.032	0.135
-609.215	-200.000	0.052	-0.353
-608.201	-200.000	0.060	-0.470
-607.186	-200.000	-0.042	0.210
-606.171	-12.511	0.111	0.073
-605.157	-88.324	0.202	-0.061
-604.142	162.275	0.110	-0.157
-603.128	-54.562	-0.234	-0.108
-602.113	132.758	-0.089	0.116
-601.098	-200.000	0.052	0.287
-600.084	46.106	0.083	0.078
-599.069	-107.367	0.031	-0.007
-598.055	-200.000	-0.014	0.256
-597.040	12.404	-0.076	0.059
-596.025	77.109	-0.220	-0.238
-595.011	48.328	-0.114	0.109
-593.996	-200.000	0.032	-0.200
-592.982	800.000	0.047	-0.204
-591.967	-200.000	0.055	-0.337
-590.952	800.000	0.023	-0.073
-589.938	714.159	-0.123	-0.330
-588.923	8.714	-0.233	-0.178
-587.909	334.749	0.141	-0.278
-586.894	318.425	0.121	-0.232
-585.879	-57.469	-0.170	0.076
-584.865	-46.761	0.134	-0.066
-583.850	-200.000	0.053	-0.240
-582.836	-200.000	0.018	-0.289
-581.821	-200.000	0.040	0.339
-580.806	-14.411	0.074	-0.049
-579.792	-158.777	-0.306	-0.018
-578.777	225.833	0.155	0.256
-577.763	800.000	0.029	-0.098
-576.748	-16.464	0.139	0.090
-575.733	370.676	0.057	0.118
-574.719	-200.000	0.007	-0.181
-573.704	-43.435	-0.271	-0.139
-572.690	-42.568	-0.178	-0.092
-571.675	787.261	0.039	-0.109
-570.661	-22.369	0.125	0.077
-569.646	667.982	0.055	0.144
-568.631	-26.516	0.215	-0.128
-567.617	800.000	0.061	0.191
-566.602	800.000	-0.056	0.178
-565.588	-16.389	0.184	-0.119
-564.573	181.066	-0.172	0.256
-563.558	-200.000	0.051	-0.275
-562.544	800.000	0.026	-0.103
-561.529	-135.502	0.240	-0.029
-560.515	-152.892	-0.182	0.013
-559.500	-127.571	0.340	-0.050
-558.485	142.921	-0.138	-0.187
-557.471	-124.981	0.262	0.041
-556.456	-168.184	0.275	-0.011
-555.442	-96.518	0.229	0.061
-554.427	-47.132	0.110	0.054
-553.412	513.389	0.010	-0.023
-552.398	-41.334	-0.307	0.160
-551.383	-79.850	0.190	-0.065
-550.369	85.353	0.114	-0.127
-549.354	213.313	-0.083	-0.132
-548.339	-8.281	-0.212	0.144
-547.325	73.332	0.182	0.193
-546.310	-200.000	-0.065	-0.307
-545.296	-93.533	-0.044	-0.012
-544.281	124.053	-0.101	0.129
-543.266	-37.522	-0.353	0.191
-542.252	-116.656	-0.187	-0.035
-541.237	-20.208	-0.219	-0.136
-540.223	26.216	0.158	-0.134
-539.208	9.896	-0.105	-0.081
-538.193	800.000	-0.021	-0.068
-537.179	-200.000	-0.016	0.099
-536.164	-200.000	-0.054	0.497
-535.150	-88.362	-0.321	0.097
-534.135	0.971	-0.298	0.217
-533.121	-46.696	0.242	0.120
-532.106	120.030	-0.176	-0.221
-531.091	333.127	-0.080	-0.157
-530.077	-78.658	-0.244	0.084
-529.062	443.586	0.146	-0.324
-528.048	54.122	0.023	0.023
-527.033	159.140	0.074	-0.104
-526.018	45.211	0.207	0.194
-525.004	-200.000	-0.001	-0.153
-523.989	-200.000	0.073	0.350
-522.975	-200.000	-0.005	0.088
-521.960	-30.562	-0.038	-0.022
-520.945	139.973	0.250	0.334
-519.931	342.636	-0.128	-0.254
-518.916	39.618	0.125	0.113
-517.902	800.000	0.038	0.115
-516.887	-200.000	-0.022	0.099
-515.872	44.744	0.124	0.115
-514.858	-200.000	0.062	0.325
-513.843	-200.000	-0.023	0.142
-512.829	-200.000	0.038	-0.180
-511.814	25.073	-0.144	-0.121
-510.799	-75.811	-0.115	-0.041
-509.785	-30.253	-0.277	0.159
-508.770	26.561	0.085	0.072
-507.756	716.286	-0.021	-0.056
-506.741	151.593	-0.106	0.147
-505.726	41.789	0.124	0.114
-504.712	17.829	0.102	0.082
-503.697	-200.000	-0.005	-0.339
-502.683	-136.479	0.224	0.026
-501.668	-66.926	0.125	0.050
-500.653	-200.000	-0.011	0.214
-499.639	-95.690	-0.100	-0.027
-498.624	-55.308	-0.505	-0.229
-497.610	329.770	0.136	-0.264
-496.595	-98.712	-0.238	-0.061
-495.581	-183.325	-0.102	0.002
-494.566	407.977	0.076	0.162
-493.551	-200.000	-0.022	0.155
-492.537	-28.302	0.234	0.136
-491.522	-10.259	0.106	0.071
-490.508	-69.075	-0.303	-0.118
-489.493	89.367	-0.165	-0.186
-488.478	166.858	0.137	-0.197
-487.464	800.000	0.066	0.263
-486.449	-39.950	-0.242	-0.128
-485.435	-74.793	-0.343	0.125
-484.420	800.000	0.050	0.160
-483.405	800.000	-0.085	0.239
-482.391	34.656	0.272	-0.241
-481.376	-200.000	-0.204	0.001
-480.362	-14.921	0.283	0.183
-479.347	21.040	-0.101	0.083
-478.332	-100.856	0.242	0.060
-477.318	204.372	-0.074	-0.116
-476.303	-14.120	0.280	-0.182
-475.289	-200.000	0.029	0.177
-474.274	-200.000	0.040	0.622
-473.259	-54.698	-0.254	-0.116
-472.245	800.000	-0.078	0.243
-471.230	800.000	0.055	0.166
-470.216	-150.760	-0.268	-0.021
-469.201	-200.000	-0.256	-0.001
-468.186	-153.020	-0.167	0.012
-467.172	-163.200	0.437	0.021
-466.157	-36.188	0.052	-0.028
-465.143	710.507	-0.118	0.315
-464.128	233.765	0.181	-0.301
-463.113	41.929	-0.223	-0.204
-462.099	-200.000	-0.017	0.244
-461.084	-141.093	-0.227	0.023
-460.070	504.336	0.134	-0.313
-459.055	-148.790	0.116	-0.009
-458.040	26.495	0.197	0.166
-457.026	-87.428	0.075	-0.023
-456.011	-200.000	-0.003	-0.196
-454.997	-37.480	0.260	0.140
-453.982	5.685	-0.149	-0.112
-452.968	-6.711	-0.244	0.168
-451.953	-200.000	0.035	0.343
-450.938	-101.099	-0.224	0.056
-449.924	-108.113	0.250	0.055
-448.909	800.000	-0.076	0.244
-447.895	800.000	0.062	0.187
-446.880	-185.558	-0.328	-0.005
-445.865	-124.652	0.032	-0.005
-444.851	173.733	0.136	0.198
-443.836	-3.856	0.151	-0.106
-442.822	29.000	0.245	0.210
-441.807	25.002	-0.050	0.042
-440.792	-66.623	0.318	0.127
-439.778	-27.731	-0.205	-0.120
-438.763	-60.402	0.174	-0.075
-437.749	93.176	-0.135	0.154
-436.734	800.000	-0.070	0.198
-435.719	800.000	0.080	0.258
-434.705	130.599	0.173	-0.224
-433.690	51.210	-0.181	0.174
-432.676	-143.224	0.187	0.018
-431.661	-8.308	0.151	-0.103
-430.646	130.170	0.224	0.290
-429.632	-92.997	-0.292	0.082
-428.617	-81.156	0.112	-0.037
-427.603	-200.000	-0.018	0.212
-426.588	137.901	-0.087	0.115
-425.573	-121.761	-0.273	0.045
-424.559	-200.000	0.059	-0.321
-423.544	-32.126	0.031	-0.018
-422.530	-78.522	-0.244	0.084
-421.515	-88.579	0.244	0.073
-420.500	-118.138	-0.246	-0.044
-419.486	-192.154	0.327	0.003
-418.471	284.267	-0.013	0.023
-417.457	800.000	-0.033	0.112
-416.442	-200.000	-0.030	-0.225
-415.428	-180.570	-0.262	-0.005
-414.413	-140.874	0.136	-0.014
-413.398	-128.012	0.400	0.058
-412.384	70.478	0.118	0.123
-411.369	-200.000	-0.020	-0.188
-410.355	-200.000	0.029	-0.199
-409.340	210.469	-0.052	0.082
-408.325	70.893	0.057	0.059
-407.311	156.106	0.049	-0.069
-406.296	-121.881	0.075	0.012
-405.282	-125.524	-0.072	-0.011
-404.267	-200.000	0.012	-0.066
-403.252	31.692	-0.119	0.103
-402.238	141.281	-0.059	-0.079
-401.223	-200.000	0.011	-0.317
-400.209	-61.527	0.155	-0.065
-399.194	166.173	0.221	0.316
-398.179	-200.000	-0.037	0.391
-397.165	68.879	-0.083	0.086
-396.150	147.598	-0.165	0.225
-395.136	-4.977	-0.224	0.155
-394.121	17.168	0.249	-0.199
-393.106	-145.324	-0.182	-0.017
-392.092	28.586	0.132	-0.113
-391.077	-13.523	-0.200	-0.131
-390.063	-168.709	0.210	0.008
-389.048	-3.933	-0.306	-0.214
-388.033	-98.620	-0.195	-0.050
-387.019	-94.010	-0.042	-0.012
-386.004	235.477	-0.111	0.184
-384.990	50.788	0.091	0.087
-383.975	136.894	-0.084	-0.111
-382.960	470.460	-0.076	0.173
-381.946	-80.575	0.386	-0.130
-380.931	64.881	-0.111	0.113
-379.917	-200.000	-0.006	0.091
-378.902	41.682	-0.122	-0.111
-377.888	-143.414	-0.149	-0.014
-376.873	48.912	-0.231	-0.218
-375.858	-66.851	-0.023	-0.009
-374.844	-175.693	0.102	-0.003
-373.829	119.258	0.028	0.035
-372.815	22.675	0.121	-0.100
-371.800	-54.315	0.101	-0.046
-370.785	259.052	0.028	0.049
-369.771	-124.635	0.242	-0.038
-368.756	72.755	-0.102	-0.107
-367.742	371.099	-0.057	0.117
-366.727	-130.254	-0.280	-0.038
-365.712	243.240	-0.127	0.215
-364.698	301.242	-0.025	-0.046
-363.683	-109.221	-0.169	-0.036
-362.669	269.286	0.076	0.135
-361.654	-56.272	0.310	0.139
-360.639	-64.543	-0.172	-0.070
-359.625	-60.087	0.331	0.142
-358.610	-46.469	0.087	-0.043
-357.596	-137.563	0.199	-0.023
-356.581	148.644	0.082	0.111
-355.566	278.560	0.115	-0.206
-354.552	-149.856	0.159	0.013
-353.537	335.363	-0.014	0.028
-352.523	-200.000	-0.014	0.108
-351.508	-114.220	0.390	0.076
-350.493	-53.538	0.175	0.081
-349.479	-185.845	0.278	0.004
-348.464	-64.580	0.215	0.088
-347.450	61.330	-0.118	-0.118
-346.435	-100.613	-0.183	-0.045
-345.420	160.628	-0.204	0.287
-344.406	479.940	-0.162	-0.368
-343.391	-200.000	0.011	0.202
-342.377	-53.224	-0.126	-0.058
-341.362	-2.309	0.182	-0.128
-340.348	-129.409	0.193	0.027
-339.333	120.779	0.150	0.188
-338.318	-200.000	-0.042	0.259
-337.304	303.167	0.062	0.115
-336.289	557.163	0.072	-0.175
-335.275	171.319	0.167	-0.241
-334.260	-200.000	0.015	-0.107
-333.245	800.000	-0.017	0.053
-332.231	-19.886	-0.192	-0.119
-331.216	-122.067	-0.269	-0.044
-330.202	142.968	0.076	-0.101
-329.187	-12.682	0.420	-0.275
-328.172	173.200	-0.110	0.159
-327.158	-10.256	-0.093	-0.062
-326.143	-15.080	-0.011	-0.007
-325.129	-200.000	-0.010	-0.535
-324.114	44.690	-0.101	0.093
-323.099	123.641	-0.080	-0.101
-322.085	562.483	-0.046	-0.112
-321.070	10.858	-0.042	0.032
-320.056	-34.833	0.321	-0.176
-319.041	178.969	-0.148	-0.217
-318.026	2.187	0.086	0.063
-317.012	-200.000	0.012	-0.224
-315.997	-200.000	0.011	-0.107
-314.983	213.685	0.056	-0.090
-313.968	126.008	-0.065	-0.082
-312.953	-73.132	-0.287	0.106
-311.939	-141.802	-0.277	-0.028
-310.924	-59.129	0.207	0.090
-309.910	800.000	-0.052	0.200
-308.895	-102.821	0.296	0.071
-307.880	-72.184	-0.217	-0.081
-306.866	122.283	0.068	0.085
-305.851	-40.037	0.107	0.056
-304.837	-92.358	-0.212	-0.060
-303.822	-40.148	0.333	-0.174
-302.807	34.717	-0.250	0.220
-301.793	525.011	-0.060	-0.142
-300.778	-62.676	0.181	-0.075
-299.764	-72.793	-0.150	-0.056
-298.749	-200.000	0.035	-0.180
-297.735	-123.344	-0.148	-0.024
-296.720	-188.120	-0.359	0.005
-295.705	-134.711	-0.336	0.041
-294.691	-70.208	-0.146	0.056
-293.676	-200.000	-0.005	0.100
-292.662	156.426	0.019	-0.027
-291.647	-137.228	-0.163	-0.019
-290.632	207.129	-0.310	-0.485
-289.618	-42.043	-0.274	0.141
-288.603	-39.741	0.397	-0.208
-287.589	408.749	-0.054	-0.116
-286.574	175.173	-0.164	-0.239
-285.559	-64.571	-0.261	0.106
-284.545	410.610	-0.025	0.052
-283.530	-35.679	-0.287	-0.156
-282.516	191.858	-0.071	-0.107
-281.501	-200.000	0.023	-0.263
-280.486	183.387	0.123	-0.183
-279.472	187.566	-0.037	-0.055
-278.457	2.858	-0.135	-0.099
-277.443	-153.583	-0.148	0.010
-276.428	-28.174	-0.196	-0.114
-275.413	800.000	0.008	0.024
-274.399	-126.962	-0.236	0.035
-273.384	-200.000	-0.067	0.316
-272.370	800.000	-0.079	-0.266
-271.355	105.368	0.069	0.082
-270.340	309.276	0.159	0.298
-269.326	-161.668	-0.193	-0.010
-268.311	-200.000	-0.329	-0.001
-267.297	221.784	0.205	-0.330
-266.282	-172.097	0.169	-0.005
-265.267	113.544	-0.100	-0.122
-264.253	-200.000	0.029	0.370
-263.238	-14.736	-0.247	-0.159
-262.224	401.520	0.172	0.363
-261.209	323.705	0.116	0.221
-260.195	43.837	0.117	-0.107
-259.180	400.943	0.107	-0.224
-258.165	-96.685	0.179	-0.047
-257.151	-73.398	-0.373	-0.136
-256.136	800.000	-0.089	0.332
-255.122	99.637	0.029	0.034
-254.107	251.750	-0.114	0.194
-253.092	125.447	-0.163	0.207
-252.078	108.486	0.196	0.235
-251.063	48.946	0.186	0.175
-250.049	800.000	-0.067	-0.251
-249.034	693.581	0.026	-0.069
-248.019	-200.000	-0.019	-0.304
-247.005	-127.944	0.207	0.030
-245.990	-59.330	0.048	-0.021
-244.976	-8.222	0.160	0.108
-243.961	646.249	-0.074	-0.189
-242.946	-184.207	-0.132	-0.002
-241.932	-120.237	0.367	-0.063
-240.917	-14.243	0.086	0.055
-239.903	-171.361	-0.147	0.005
-238.888	-1.272	0.149	-0.105
-237.873	-136.681	0.166	0.019
-236.859	126.227	-0.198	0.251
-235.844	-22.818	-0.095	0.057
-234.830	800.000	0.087	-0.287
-233.815	270.257	-0.017	-0.031
-232.800	800.000	-0.065	-0.207
-231.786	68.080	0.141	-0.144
-230.771	-58.144	0.173	0.075
-229.757	408.472	-0.102	-0.217
-228.742	-130.338	0.227	-0.031
-227.727	-26.171	0.097	0.057
-226.713	163.150	0.104	-0.147
-225.698	800.000	-0.022	-0.082
-224.684	-42.660	-0.046	-0.023
-223.669	290.825	0.041	0.075
-222.655	266.781	-0.070	-0.122
-221.640	800.000	-0.062	-0.193
-220.625	-200.000	-0.031	-0.304
-219.611	140.575	0.096	0.127
-218.596	-110.859	0.425	-0.088
-217.582	-136.608	0.129	-0.015
-216.567	800.000	0.054	-0.150
-215.552	-86.840	-0.373	-0.114
-214.538	-96.343	-0.088	-0.023
-213.523	-32.666	0.140	-0.078
-212.509	37.543	-0.269	0.239
-211.494	-200.000	-0.005	0.274
-210.479	-76.463	0.122	0.043
-209.465	7.156	0.075	-0.056
-208.450	-53.152	0.099	0.045
-207.436	28.907	-0.155	-0.132
-206.421	-142.552	0.119	-0.012
-205.406	-200.000	-0.031	-0.200
-204.392	-98.658	-0.104	0.027
-203.377	244.185	0.023	-0.039
-202.363	296.180	-0.144	0.265
-201.348	9.584	0.124	0.094
-200.333	37.418	-0.084	0.075
-199.319	-78.437	-0.209	-0.072
-198.304	-200.000	-0.048	-0.229
-197.290	-135.932	-0.163	0.019
-196.275	117.232	0.230	0.283
-195.260	17.440	-0.066	-0.052
-194.246	-77.691	-0.305	0.105
-193.231	251.575	0.108	0.183
-192.217	-142.880	-0.170	0.017
-191.202	182.087	0.088	0.130
-190.187	238.769	0.164	0.272
-189.173	-200.000	-0.029	-0.424
-188.158	-73.105	-0.211	0.077
-187.144	-157.573	0.215	-0.013
-186.129	81.006	-0.057	-0.061
-185.114	-93.233	0.252	-0.070
-184.100	-200.000	-0.002	0.038
-183.085	484.471	0.096	-0.219
-182.071	95.965	-0.194	0.222
-181.056	-200.000	0.014	0.102
-180.042	-161.112	0.187	-0.010
-179.027	-15.748	0.125	0.080
-178.012	-99.039	-0.174	0.044
-176.998	30.699	0.126	0.108
-175.983	122.443	0.301	0.376
-174.969	-66.835	0.146	0.058
-173.954	800.000	-0.015	-0.048
-172.939	44.589	0.186	0.171
-171.925	-4.382	0.073	0.050
-170.910	81.649	0.076	-0.083
-169.896	193.457	0.078	-0.119
-168.881	139.193	0.059	0.078
-167.866	362.195	0.091	-0.183
-166.852	89.085	-0.219	0.244
-165.837	-70.989	0.288	-0.108
-164.823	302.911	0.077	0.142
-163.808	-47.414	0.183	0.089
-162.793	218.869	-0.180	0.287
-161.779	-184.754	0.114	0.002
-160.764	-45.505	-0.131	-0.065
-159.750	59.692	0.221	-0.218
-158.735	-167.574	0.329	0.013
-157.720	571.695	0.021	0.052
-156.706	151.752	0.256	0.348
-155.691	-151.747	-0.278	-0.020
-154.677	473.896	-0.130	-0.292
-153.662	14.971	-0.134	-0.105
-152.647	-6.104	0.141	-0.096
-151.633	-50.695	0.109	-0.051
-150.618	137.336	0.309	-0.403
-149.604	-200.000	0.036	0.166
-148.589	283.236	0.056	0.100
-147.574	-39.346	-0.284	-0.149
-146.560	-166.462	0.181	-0.008
-145.545	-139.120	-0.383	-0.041
-144.531	341.532	0.191	0.372
-143.516	-64.725	-0.209	0.084
-142.502	-5.419	0.158	-0.108
-141.487	800.000	0.064	0.230
-140.472	286.526	-0.052	-0.094
-139.458	-40.242	-0.168	-0.087
-138.443	369.193	-0.031	-0.063
-137.429	-200.000	-0.002	0.086
-136.414	-200.000	-0.012	-0.199
-135.399	800.000	-0.039	0.120
-134.385	380.578	-0.003	-0.007
-133.370	-122.568	-0.197	-0.032
-132.356	130.371	0.173	0.221
-131.341	-200.000	0.002	0.212
-130.326	800.000	-0.138	-0.392
-129.312	16.031	0.372	-0.292
-128.297	-6.441	-0.070	-0.047
-127.283	-200.000	-0.018	-0.311
-126.268	653.370	0.125	-0.321
-125.253	-200.000	-0.001	0.172
-124.239	-175.457	-0.312	0.008
-123.224	800.000	0.044	-0.154
-122.210	-67.406	-0.206	0.081
