DTS Sentinel unit serial number:	SN413079Multiplexer serial number:	ORYXHardware model number:	OX4-SRSoftware version number:	ORYX F/W v4.00 Oryx Data Collector v3.7.2.0data status	okinstallation	princeton_trtdifferential loss correction	single-endedforward channel	channel 1reverse channel	N/Adate	2019/09/11time	06:52:11forward acquisition time	60.00reverse acquisition time	0.00gamma	496.2192k internal	0.2329k external	0.2329temperature offset calibration	0.9919default loss term (dB/km)	0.3790temperature slope calibration	1.0000multiplexer offset coefficient	1.0000multiplexer slope coefficient	1.0000fibre end	0.00T internal ref (°C)	29.94T ext. ref 1 (°C)	-0.12T ext. ref 2 (°C)	25.42length (m)	temperature (°C)	Stokes	anti-Stokes-747.200	158.734	0.055	-0.076
-746.185	606.514	-0.034	0.084
-745.171	-169.240	0.202	0.008
-744.156	-154.300	-0.093	0.006
-743.142	738.934	-0.107	0.289
-742.127	227.980	0.046	0.075
-741.112	-94.419	-0.380	-0.104
-740.098	0.440	-0.219	-0.157
-739.083	201.308	0.082	0.128
-738.069	800.000	0.087	0.265
-737.054	309.889	-0.127	-0.239
-736.039	84.852	-0.165	-0.182
-735.025	56.794	0.241	0.236
-734.010	-150.881	0.149	-0.011
-732.996	-200.000	0.010	0.126
-731.981	421.068	-0.075	0.163
-730.966	67.921	-0.280	-0.288
-729.952	-43.552	-0.275	0.140
-728.937	-200.000	0.018	0.108
-727.923	-119.943	-0.333	-0.058
-726.908	-99.205	0.283	0.072
-725.894	800.000	0.033	-0.095
-724.879	-88.404	0.382	0.115
-723.864	-200.000	0.004	0.198
-722.850	13.052	0.101	-0.079
-721.835	16.219	-0.291	-0.231
-720.821	715.894	-0.102	-0.274
-719.806	-200.000	-0.017	-0.115
-718.791	-159.203	-0.306	0.017
-717.777	50.130	-0.128	-0.122
-716.762	54.526	0.065	-0.063
-715.748	6.922	0.223	0.167
-714.733	800.000	-0.020	-0.061
-713.718	-120.291	0.081	0.014
-712.704	-93.365	-0.208	-0.058
-711.689	104.596	-0.178	-0.211
-710.675	9.059	0.176	-0.134
-709.660	268.777	0.089	-0.157
-708.645	37.011	0.113	0.100
-707.631	24.128	-0.094	-0.078
-706.616	128.127	0.050	-0.064
-705.602	-3.092	0.326	0.228
-704.587	-150.302	0.155	-0.012
-703.572	-110.168	0.068	-0.014
-702.558	-110.186	-0.102	0.021
-701.543	-82.101	-0.207	-0.068
-700.529	-200.000	0.051	-0.267
-699.514	-24.011	-0.089	-0.054
-698.499	-129.670	0.283	0.039
-697.485	189.322	0.117	-0.177
-696.470	583.065	0.017	-0.042
-695.456	-66.328	-0.140	-0.056
-694.441	-132.274	0.206	-0.027
-693.426	7.384	0.216	0.162
-692.412	-120.687	0.106	0.018
-691.397	-64.209	-0.030	0.012
-690.383	-51.431	-0.174	0.082
-689.368	-51.172	0.224	-0.105
-688.354	-46.949	0.257	-0.126
-687.339	-199.145	0.367	0.002
-686.324	106.584	0.309	0.369
-685.310	-6.888	0.152	0.104
-684.295	-7.303	0.126	0.086
-683.281	-151.678	-0.360	-0.027
-682.266	106.736	-0.359	-0.428
-681.251	-55.313	0.161	-0.073
-680.237	-118.009	-0.154	0.028
-679.222	-200.000	-0.006	0.385
-678.208	263.296	0.073	-0.128
-677.193	45.177	0.177	-0.164
-676.178	-200.000	0.043	-0.342
-675.164	28.667	-0.035	0.030
-674.149	225.516	0.291	-0.473
-673.135	-35.147	-0.056	0.031
-672.120	-145.742	-0.344	0.031
-671.105	51.429	0.128	0.122
-670.091	35.049	-0.203	0.178
-669.076	-69.633	0.134	0.052
-668.062	-30.358	0.053	0.030
-667.047	338.435	-0.077	0.151
-666.032	-33.055	0.164	-0.091
-665.018	-65.901	-0.267	-0.107
-664.003	128.476	-0.096	-0.123
-662.989	419.168	-0.054	0.117
-661.974	800.000	0.029	0.113
-660.959	279.158	0.093	0.166
-659.945	-134.635	0.234	-0.029
-658.930	800.000	-0.054	-0.207
-657.916	-17.942	-0.076	-0.048
-656.901	41.015	0.028	0.025
-655.886	-200.000	-0.015	0.096
-654.872	-13.080	-0.181	0.118
-653.857	-143.853	-0.159	-0.015
-652.843	620.567	-0.120	-0.303
-651.828	52.884	0.249	-0.239
-650.814	402.951	0.116	-0.245
-649.799	370.113	0.066	0.134
-648.784	-200.000	0.031	0.381
-647.770	53.536	0.112	-0.108
-646.755	219.174	0.146	0.234
-645.741	800.000	0.096	-0.305
-644.726	50.020	0.060	0.057
-643.711	-109.675	-0.237	0.050
-642.697	-27.195	-0.206	0.120
-641.682	-162.965	0.107	-0.005
-640.668	-200.000	-0.001	-0.311
-639.653	-48.823	0.320	-0.154
-638.638	578.486	0.041	0.101
-637.624	274.292	-0.085	0.151
-636.609	-200.000	0.015	-0.099
-635.595	33.916	0.181	-0.158
-634.580	186.725	0.185	-0.277
-633.565	93.243	-0.103	-0.116
-632.551	-200.000	0.027	0.190
-631.536	-200.000	0.009	-0.117
-630.522	-134.487	0.352	-0.043
-629.507	36.492	0.070	-0.062
-628.492	-44.083	-0.079	0.040
-627.478	23.996	-0.179	-0.148
-626.463	77.036	0.097	0.103
-625.449	800.000	-0.066	-0.280
-624.434	-36.687	0.206	0.111
-623.419	800.000	0.140	0.403
-622.405	-79.939	0.189	-0.064
-621.390	451.344	0.092	-0.204
-620.376	-114.381	0.353	-0.068
-619.361	-104.681	-0.443	0.102
-618.346	800.000	-0.023	0.071
-617.332	800.000	0.083	-0.234
-616.317	-90.474	0.137	-0.040
-615.303	62.006	-0.319	-0.319
-614.288	-119.372	-0.072	-0.013
-613.273	-92.154	-0.161	0.046
-612.259	-89.263	-0.460	0.136
-611.244	-11.078	0.084	0.056
-610.230	688.485	-0.031	0.080
-609.215	-17.307	0.080	0.051
-608.201	82.479	-0.136	0.148
-607.186	-200.000	-0.216	0.001
-606.171	396.349	-0.118	-0.246
-605.157	-164.047	0.079	0.004
-604.142	800.000	-0.037	-0.125
-603.128	-200.000	-0.013	-0.181
-602.113	-170.862	-0.107	-0.004
-601.098	70.471	-0.035	0.036
-600.084	404.150	0.014	0.029
-599.069	-200.000	-0.046	-0.248
-598.055	800.000	-0.045	0.176
-597.040	-200.000	0.043	0.236
-596.025	-68.593	0.173	-0.067
-595.011	-29.958	-0.163	0.093
-593.996	-31.989	-0.051	-0.028
-592.982	-109.340	0.278	0.059
-591.967	294.580	-0.247	-0.452
-590.952	-114.051	-0.182	-0.035
-589.938	-40.054	0.249	0.130
-588.923	-38.865	-0.175	-0.092
-587.909	61.259	-0.173	-0.172
-586.894	87.756	0.321	0.357
-585.879	-42.851	-0.163	0.083
-584.865	800.000	0.155	-0.438
-583.850	-105.901	-0.425	0.096
-582.836	800.000	0.043	0.160
-581.821	-125.185	-0.457	-0.070
-580.806	94.156	-0.203	0.230
-579.792	33.654	-0.261	0.227
-578.777	-142.727	-0.041	0.004
-577.763	-127.767	-0.229	-0.033
-576.748	62.975	0.192	0.192
-575.733	-131.733	-0.089	0.012
-574.719	11.595	-0.213	0.163
-573.704	-0.042	0.145	-0.103
-572.690	-1.506	-0.170	-0.120
-571.675	504.901	0.100	0.233
-570.661	-15.743	0.114	0.073
-569.646	800.000	-0.090	-0.367
-568.631	800.000	-0.101	0.333
-567.617	139.592	0.344	0.453
-566.602	-151.481	-0.108	-0.008
-565.588	-200.000	0.020	0.226
-564.573	397.767	0.104	-0.217
-563.558	-200.000	-0.014	-0.151
-562.544	713.370	-0.234	0.620
-561.529	111.887	-0.205	0.248
-560.515	-25.747	0.096	-0.057
-559.500	-152.299	-0.038	0.003
-558.485	269.720	0.099	-0.173
-557.471	-100.220	0.093	0.023
-556.456	-11.399	-0.036	-0.023
-555.442	-90.754	0.128	0.037
-554.427	520.469	0.076	0.178
-553.412	-32.947	0.288	-0.160
-552.398	182.128	-0.095	-0.140
-551.383	29.932	0.220	0.188
-550.369	-102.567	0.139	-0.033
-549.354	502.196	0.136	0.315
-548.339	800.000	0.011	0.039
-547.325	80.323	-0.120	0.129
-546.310	-24.510	0.274	-0.163
-545.296	2.757	0.106	0.077
-544.281	800.000	-0.069	-0.215
-543.266	-70.425	-0.339	-0.128
-542.252	-104.951	-0.287	-0.066
-541.237	41.282	0.276	-0.249
-540.223	-200.000	-0.008	0.070
-539.208	132.007	-0.172	-0.222
-538.193	58.216	0.120	0.117
-537.179	152.216	-0.228	0.311
-536.164	800.000	-0.042	-0.147
-535.150	37.068	0.200	-0.177
-534.135	-51.033	-0.166	0.078
-533.121	-81.356	0.170	-0.056
-532.106	149.120	0.100	-0.134
-531.091	-142.251	0.269	0.027
-530.077	-200.000	0.010	0.242
-529.062	172.458	-0.175	0.251
-528.048	16.557	-0.288	-0.227
-527.033	-200.000	-0.001	-0.174
-526.018	-49.477	-0.222	-0.106
-525.004	500.070	-0.073	0.168
-523.989	-72.363	-0.101	-0.037
-522.975	-168.737	-0.190	0.007
-521.960	-200.000	-0.005	-0.031
-520.945	-50.178	0.207	-0.098
-519.931	212.001	0.139	-0.219
-518.916	-64.625	0.289	0.117
-517.902	448.769	0.032	0.071
-516.887	-83.913	0.143	-0.045
-515.872	-68.414	0.181	0.070
-514.858	-99.080	0.299	-0.075
-513.843	447.065	0.023	0.051
-512.829	-67.836	-0.049	0.019
-511.814	-39.608	0.089	0.047
-510.799	-79.384	0.168	-0.057
-509.785	-200.000	-0.043	0.274
-508.770	-62.947	-0.094	0.039
-507.756	-51.980	0.166	0.077
-506.741	210.377	-0.228	-0.358
-505.726	-88.910	-0.262	-0.077
-504.712	-200.000	-0.001	0.240
-503.697	-63.620	-0.057	0.023
-502.683	-130.083	0.047	0.006
-501.668	-31.232	-0.146	-0.082
-500.653	343.773	-0.062	0.122
-499.639	121.190	-0.101	0.125
-498.624	800.000	-0.089	-0.259
-497.610	39.608	-0.146	-0.131
-496.595	-168.663	0.237	0.009
-495.581	334.126	-0.136	-0.262
-494.566	-191.601	0.124	0.001
-493.551	-85.596	-0.287	0.089
-492.537	-121.875	0.326	0.054
-491.522	29.346	-0.142	-0.120
-490.508	-127.192	-0.108	0.016
-489.493	800.000	-0.048	0.146
-488.478	-112.894	0.209	0.041
-487.464	700.269	0.048	-0.125
-486.449	-44.605	-0.275	-0.137
-485.435	265.029	0.058	0.101
-484.420	30.396	0.192	0.164
-483.405	76.822	-0.040	-0.043
-482.391	390.303	0.096	-0.198
-481.376	-66.590	0.167	0.066
-480.362	767.407	-0.025	-0.067
-479.347	62.323	-0.109	0.109
-478.332	-200.000	-0.022	-0.240
-477.318	-137.525	0.156	-0.018
-476.303	8.574	-0.173	0.130
-475.289	81.334	0.041	0.044
-474.274	-154.746	-0.237	0.016
-473.259	128.241	-0.057	0.072
-472.245	-200.000	0.011	-0.095
-471.230	-200.000	-0.032	0.215
-470.216	97.238	-0.144	0.165
-469.201	23.614	-0.058	-0.048
-468.186	30.773	0.168	-0.143
-467.172	177.893	-0.233	0.338
-466.157	-200.000	0.099	-0.516
-465.143	-200.000	-0.010	-0.154
-464.128	-95.956	0.185	0.049
-463.113	185.377	-0.109	0.161
-462.099	-200.000	-0.014	-0.244
-461.084	69.358	0.235	-0.241
-460.070	300.391	-0.186	0.341
-459.055	260.249	-0.250	0.430
-458.040	-117.795	-0.151	0.027
-457.026	29.398	-0.209	-0.177
-456.011	-136.743	0.165	-0.019
-454.997	145.948	0.218	0.291
-453.982	-138.316	-0.075	-0.008
-452.968	-14.737	0.189	0.121
-451.953	-63.699	-0.079	0.032
-450.938	-170.622	-0.156	-0.005
-449.924	-96.303	-0.201	0.053
-448.909	-137.071	0.294	0.034
-447.895	-200.000	0.062	-0.368
-446.880	39.436	0.184	-0.164
-445.865	19.350	-0.214	-0.171
-444.851	-30.698	0.184	-0.103
-443.836	-96.943	-0.438	-0.114
-442.822	717.024	0.105	-0.278
-441.807	-43.792	-0.211	-0.106
-440.792	28.389	0.104	0.087
-439.778	-59.225	-0.333	0.143
-438.763	363.364	-0.048	0.095
-437.749	-43.277	-0.322	-0.162
-436.734	-200.000	-0.021	-0.376
-435.719	49.871	0.234	-0.220
-434.705	298.377	-0.025	-0.046
-433.690	800.000	0.068	-0.246
-432.676	330.907	0.155	0.297
-431.661	-79.061	0.175	0.059
-430.646	125.037	-0.137	-0.171
-429.632	7.460	-0.249	-0.185
-428.617	-142.745	-0.086	-0.008
-427.603	37.696	0.231	0.204
-426.588	-155.125	-0.109	0.007
-425.573	621.240	-0.045	-0.112
-424.559	-100.067	0.100	-0.025
-423.544	16.002	-0.138	0.108
-422.530	-191.408	-0.041	0.000
-421.515	-18.153	0.254	0.158
-420.500	32.529	0.156	0.134
-419.486	-200.000	-0.021	0.099
-418.471	-95.709	-0.112	0.030
-417.457	181.277	-0.045	0.066
-416.442	7.493	0.487	0.362
-415.428	800.000	0.045	-0.178
-414.413	56.333	0.069	0.067
-413.398	-176.209	-0.351	-0.009
-412.384	-46.424	0.171	-0.083
-411.369	-200.000	0.007	-0.038
-410.355	-200.000	-0.028	-0.205
-409.340	800.000	-0.099	0.313
-408.325	2.010	-0.055	0.039
-407.311	178.611	-0.129	0.187
-406.296	-200.000	-0.001	-0.200
-405.282	-33.754	-0.185	0.101
-404.267	-129.323	0.133	0.018
-403.252	-139.752	0.213	-0.023
-402.238	800.000	-0.030	-0.096
-401.223	-122.733	0.109	0.018
-400.209	-50.477	0.150	0.070
-399.194	104.167	-0.097	0.113
-398.179	106.444	0.153	0.180
-397.165	-106.073	-0.294	-0.066
-396.150	28.792	-0.161	0.135
-395.136	-193.317	0.114	-0.001
-394.121	-54.220	0.241	-0.109
-393.106	83.533	0.119	-0.129
-392.092	-47.363	0.050	-0.024
-391.077	800.000	0.019	0.081
-390.063	95.580	0.107	-0.121
-389.048	-200.000	-0.010	-0.134
-388.033	-15.608	-0.336	0.213
-387.019	800.000	-0.046	0.196
-386.004	135.510	-0.114	0.148
-384.990	-200.000	-0.004	-0.178
-383.975	800.000	0.075	-0.283
-382.960	800.000	0.108	-0.412
-381.946	100.114	0.196	-0.225
-380.931	-11.733	0.097	0.064
-379.917	32.897	0.065	0.056
-378.902	100.428	-0.108	0.125
-377.888	33.327	0.080	-0.069
-376.873	-129.148	0.234	-0.032
-375.858	800.000	0.199	0.552
-374.844	-200.000	0.025	0.305
-373.829	40.120	-0.296	0.264
-372.815	-200.000	-0.028	0.133
-371.800	418.601	-0.147	-0.312
-370.785	-200.000	-0.052	-0.477
-369.771	350.756	-0.132	-0.259
-368.756	283.414	-0.096	0.171
-367.742	-143.027	-0.300	-0.029
-366.727	38.657	0.045	-0.039
-365.712	-78.518	0.272	0.092
-364.698	800.000	0.141	-0.508
-363.683	56.752	-0.117	0.113
-362.669	-200.000	-0.020	-0.168
-361.654	-173.169	-0.136	0.004
-360.639	65.723	0.178	0.179
-359.625	-19.727	0.453	0.278
-358.610	800.000	-0.011	-0.030
-357.596	31.827	0.113	0.096
-356.581	469.523	0.150	-0.334
-355.566	-93.616	-0.251	-0.069
-354.552	120.132	-0.032	0.039
-353.537	120.962	0.053	-0.065
-352.523	70.098	-0.179	-0.183
-351.508	-200.000	0.112	0.638
-350.493	-43.067	0.175	0.088
-349.479	-83.615	0.291	0.092
-348.464	20.067	0.175	0.140
-347.450	800.000	-0.042	-0.168
-346.435	-112.691	0.174	0.034
-345.420	-142.812	-0.256	0.025
-344.406	-189.443	-0.145	0.002
-343.391	-11.355	-0.239	-0.156
-342.377	677.064	0.029	0.076
-341.362	125.991	0.061	-0.076
-340.348	-31.107	0.156	-0.087
-339.333	-200.000	-0.018	-0.175
-338.318	-84.143	-0.329	0.103
-337.304	-37.601	0.209	-0.110
-336.289	-176.852	-0.203	0.005
-335.275	97.316	-0.211	-0.240
-334.260	800.000	0.046	0.128
-333.245	221.973	-0.067	0.107
-332.231	-200.000	0.020	0.093
-331.216	262.738	0.114	0.196
-330.202	462.311	-0.054	0.120
-329.187	96.916	0.143	0.163
-328.172	763.772	0.035	-0.093
-327.158	197.249	-0.158	0.239
-326.143	-162.322	0.029	-0.001
-325.129	-200.000	0.002	-0.324
-324.114	-200.000	-0.283	0.000
-323.099	45.909	0.061	-0.056
-322.085	-200.000	0.009	-0.094
-321.070	291.493	0.022	0.040
-320.056	215.138	-0.174	0.274
-319.041	659.130	-0.029	0.075
-318.026	134.718	-0.163	0.209
-317.012	-200.000	0.024	-0.106
-315.997	-200.000	-0.001	0.223
-314.983	274.835	0.034	0.060
-313.968	-105.671	0.149	-0.033
-312.953	-162.415	-0.335	0.016
-311.939	-64.140	-0.350	-0.141
-310.924	800.000	0.041	-0.144
-309.910	44.406	0.130	0.119
-308.895	-200.000	0.001	-0.026
-307.880	249.642	-0.111	-0.187
-306.866	-17.933	-0.247	0.153
-305.851	800.000	-0.040	0.169
-304.837	-53.151	-0.165	0.075
-303.822	65.949	-0.162	0.163
-302.807	-111.060	0.292	-0.059
-301.793	-156.307	-0.290	0.018
-300.778	-200.000	0.041	-0.184
-299.764	-14.166	0.070	0.045
-298.749	-18.164	0.182	0.113
-297.735	101.051	-0.242	-0.278
-296.720	-16.955	0.256	0.160
-295.705	-73.225	-0.441	-0.160
-294.691	4.503	-0.071	0.052
-293.676	-171.911	0.222	0.007
-292.662	-31.217	-0.057	0.032
-291.647	110.068	-0.196	-0.233
-290.632	-61.028	-0.193	-0.080
-289.618	800.000	-0.058	0.236
-288.603	-140.711	0.309	-0.032
-287.589	-200.000	-0.002	0.260
-286.574	158.034	-0.078	-0.107
-285.559	-200.000	-0.008	-0.248
-284.545	-58.688	-0.130	0.056
-283.530	-41.690	-0.053	0.027
-282.516	800.000	0.065	-0.185
-281.501	38.766	0.290	-0.256
-280.486	1.994	0.118	-0.084
-279.472	800.000	0.098	0.393
-278.457	-93.638	-0.345	0.094
-277.443	173.226	-0.109	-0.156
-276.428	568.150	-0.074	-0.178
-275.413	356.301	-0.104	-0.205
-274.399	800.000	0.127	0.370
-273.384	101.461	0.095	0.109
-272.370	408.675	0.113	0.237
-271.355	-54.190	0.116	-0.052
-270.340	518.237	0.178	0.413
-269.326	800.000	0.100	-0.284
-268.311	800.000	-0.025	0.086
-267.297	-106.982	-0.133	-0.029
-266.282	-200.000	-0.020	-0.319
-265.267	37.408	-0.092	-0.080
-264.253	161.229	0.047	-0.065
-263.238	-58.449	0.087	0.037
-262.224	95.226	-0.121	0.136
-261.209	-71.256	0.116	0.043
-260.195	-34.874	-0.305	-0.165
-259.180	18.403	0.201	0.159
-258.165	109.042	0.075	-0.088
-257.151	240.739	-0.180	0.296
-256.136	46.824	0.075	-0.069
-255.122	-200.000	-0.057	0.373
-254.107	-56.361	0.152	-0.067
-253.092	-59.758	0.183	0.077
-252.078	-139.873	0.102	0.011
-251.063	363.745	-0.130	-0.259
-250.049	116.919	0.088	-0.107
-249.034	-200.000	0.011	0.301
-248.019	-82.206	0.082	-0.026
-247.005	-74.418	0.116	0.041
-245.990	-31.374	0.278	0.154
-244.976	-117.382	0.173	-0.031
-243.961	45.647	-0.177	-0.161
-242.946	-191.215	-0.298	0.003
-241.932	-114.247	-0.369	-0.070
-240.917	-145.682	0.233	-0.021
-239.903	613.818	0.091	-0.226
-238.888	-104.254	0.298	-0.068
-237.873	-200.000	-0.004	0.077
-236.859	-180.770	0.352	-0.007
-235.844	800.000	0.070	0.194
-234.830	-89.263	0.102	0.030
-233.815	800.000	0.092	0.332
-232.800	800.000	0.124	-0.424
-231.786	524.541	-0.182	0.424
-230.771	112.492	-0.255	0.305
-229.757	40.142	-0.263	-0.233
-228.742	199.651	-0.133	-0.202
-227.727	-200.000	-0.017	0.242
-226.713	-200.000	0.022	-0.104
-225.698	163.373	0.126	0.175
-224.684	-200.000	-0.006	0.248
-223.669	800.000	-0.068	-0.206
-222.655	-76.923	0.262	0.090
-221.640	235.708	0.278	0.453
-220.625	-32.886	0.158	0.087
-219.611	-200.000	0.054	-0.245
-218.596	478.798	0.145	0.324
-217.582	41.844	0.099	-0.089
-216.567	-82.431	0.220	0.070
-215.552	342.891	0.085	-0.163
-214.538	-97.591	0.010	-0.003
-213.523	-120.868	0.164	-0.027
-212.509	61.015	0.196	0.192
-211.494	-200.000	0.011	-0.194
-210.479	-169.155	0.200	0.007
-209.465	596.895	0.096	0.234
-208.450	369.321	-0.179	0.358
-207.436	173.861	0.047	0.067
-206.421	-200.000	0.005	0.171
-205.406	-28.272	0.235	-0.134
-204.392	69.546	0.289	0.293
-203.377	-200.000	0.006	-0.169
-202.363	500.000	0.029	0.067
-201.348	-52.234	0.241	-0.110
-200.333	-200.000	0.019	-0.155
-199.319	788.185	-0.160	-0.433
-198.304	-200.000	0.040	-0.376
-197.290	-103.427	-0.204	0.047
-196.275	-124.048	0.254	-0.039
-195.260	-133.219	-0.289	0.036
-194.246	16.803	0.183	-0.143
-193.231	-79.862	0.084	0.028
-192.217	-104.059	0.311	-0.071
-191.202	53.530	0.159	-0.150
-190.187	35.483	0.217	-0.188
-189.173	134.826	-0.071	-0.091
-188.158	800.000	0.004	0.016
-187.144	-86.807	-0.218	-0.066
-186.129	-85.342	0.256	-0.079
-185.114	-73.125	0.364	0.132
-184.100	-62.676	-0.206	0.084
-183.085	-181.792	-0.179	0.003
-182.071	395.825	-0.219	-0.450
-181.056	35.359	0.066	-0.057
-180.042	-200.000	0.030	0.233
-179.027	10.709	-0.046	0.034
-178.012	-31.002	0.242	0.134
-176.998	-135.544	-0.293	0.034
-175.983	91.336	-0.269	-0.298
-174.969	153.240	0.042	-0.057
-173.954	-90.797	-0.195	-0.055
-172.939	527.652	0.055	-0.128
-171.925	-160.465	0.280	-0.015
-170.910	-36.301	-0.036	-0.019
-169.896	392.082	0.082	-0.167
-168.881	800.000	0.035	-0.140
-167.866	-94.264	-0.312	0.084
-166.852	-168.691	0.220	-0.008
-165.837	25.323	0.018	-0.015
-164.823	-51.801	-0.488	-0.224
-163.808	4.769	-0.206	-0.149
-162.793	800.000	0.033	-0.125
-161.779	-78.479	-0.468	0.158
-160.764	-200.000	-0.026	0.289
-159.750	10.819	-0.240	0.181
-158.735	-54.457	-0.170	0.076
-157.720	701.205	-0.037	-0.095
-156.706	22.638	0.201	0.162
-155.691	135.816	0.188	-0.241
-154.677	800.000	0.116	-0.346
-153.662	201.968	0.070	0.107
-152.647	-79.288	0.022	-0.007
-151.633	-45.325	-0.053	0.026
-150.618	-163.589	-0.013	-0.001
-149.604	224.336	-0.052	0.082
-148.589	34.131	-0.315	-0.270
-147.574	-200.000	0.028	0.133
-146.560	124.565	0.082	0.102
-145.545	-200.000	-0.035	-0.253
-144.531	-132.680	-0.226	-0.029
-143.516	-11.877	-0.044	-0.028
-142.502	-200.000	-0.035	-0.266
-141.487	13.281	0.140	0.106
-140.472	179.048	0.333	-0.479
-139.458	-50.085	-0.193	-0.090
-138.443	800.000	0.020	0.078
-137.429	-200.000	0.011	-0.055
-136.414	800.000	0.040	0.131
-135.399	187.548	0.086	0.126
-134.385	231.659	0.157	-0.253
-133.370	-200.000	-0.022	-0.099
-132.356	34.731	0.073	-0.063
-131.341	-17.436	0.227	-0.141
-130.326	800.000	0.010	-0.040
-129.312	89.912	0.147	0.161
-128.297	-92.839	-0.248	-0.068
-127.283	-200.000	0.009	0.043
-126.268	-200.000	0.028	-0.158
-125.253	260.871	0.089	-0.152
-124.239	-105.908	-0.249	-0.055
-123.224	110.406	-0.048	-0.057
-122.210	-15.242	0.174	0.109
-121.195	-62.964	-0.087	-0.035
-120.180	-200.000	0.025	-0.252
