DTS Sentinel unit serial number:	SN413079Multiplexer serial number:	ORYXHardware model number:	OX4-SRSoftware version number:	ORYX F/W v4.00 Oryx Data Collector v3.7.2.0data status	okinstallation	princeton_trtdifferential loss correction	single-endedforward channel	channel 1reverse channel	N/Adate	2019/09/12time	02:24:11forward acquisition time	60.00reverse acquisition time	0.00gamma	496.2192k internal	0.2321k external	0.2321temperature offset calibration	1.0080default loss term (dB/km)	0.3790temperature slope calibration	1.0000multiplexer offset coefficient	1.0000multiplexer slope coefficient	1.0000fibre end	0.00T internal ref (°C)	32.55T ext. ref 1 (°C)	2.07T ext. ref 2 (°C)	27.08length (m)	temperature (°C)	Stokes	anti-Stokes-747.200	-101.592	0.493	0.121
-746.185	389.002	0.088	0.184
-745.171	106.028	-0.126	0.150
-744.156	-29.076	-0.100	0.058
-743.142	776.478	0.083	0.228
-742.127	-200.000	-0.010	0.074
-741.112	-81.273	0.047	-0.016
-740.098	-64.937	-0.469	-0.192
-739.083	222.852	0.196	0.320
-738.069	-200.000	0.047	0.314
-737.054	177.793	-0.139	0.205
-736.039	71.508	-0.219	-0.230
-735.025	800.000	0.088	-0.249
-734.010	800.000	-0.087	0.280
-732.996	-200.000	-0.021	-0.302
-731.981	21.129	-0.474	0.388
-730.966	-67.424	0.166	0.066
-729.952	-60.226	0.296	-0.128
-728.937	-40.596	-0.186	-0.097
-727.923	-49.082	0.228	0.110
-726.908	-200.000	0.001	-0.182
-725.894	800.000	0.050	-0.155
-724.879	-58.779	0.054	-0.024
-723.864	-13.271	0.432	0.283
-722.850	-200.000	-0.041	-0.278
-721.835	-59.568	0.072	0.031
-720.821	207.477	-0.070	0.110
-719.806	106.091	-0.083	0.099
-718.791	-122.015	0.196	0.033
-717.777	-54.280	0.248	-0.113
-716.762	-59.578	-0.135	-0.058
-715.748	-56.701	0.302	0.135
-714.733	12.827	-0.217	-0.169
-713.718	-79.323	-0.288	-0.099
-712.704	-200.000	0.022	-0.195
-711.689	549.725	-0.081	-0.196
-710.675	149.115	-0.073	-0.100
-709.660	800.000	0.096	-0.418
-708.645	130.662	0.221	-0.286
-707.631	-122.168	-0.288	-0.048
-706.616	-155.700	-0.310	0.020
-705.602	578.167	-0.051	-0.125
-704.587	495.105	-0.101	0.235
-703.572	-130.472	0.179	-0.024
-702.558	-4.735	0.201	0.140
-701.543	784.664	-0.062	0.171
-700.529	800.000	0.066	-0.225
-699.514	-77.222	-0.262	-0.092
-698.499	-148.537	-0.111	-0.009
-697.485	375.999	-0.090	-0.184
-696.470	-105.532	-0.394	0.090
-695.456	142.271	0.268	0.359
-694.441	404.189	-0.037	0.078
-693.426	216.765	-0.012	-0.019
-692.412	105.354	-0.175	-0.209
-691.397	459.662	-0.103	-0.231
-690.383	-47.658	-0.099	0.049
-689.368	-88.733	-0.355	-0.106
-688.354	194.637	0.185	-0.283
-687.339	-200.000	0.038	-0.244
-686.324	-153.751	-0.240	0.017
-685.310	39.668	0.250	-0.226
-684.295	800.000	-0.106	-0.309
-683.281	7.032	-0.128	-0.096
-682.266	-6.965	-0.287	-0.196
-681.251	-32.215	0.342	0.193
-680.237	23.439	-0.161	-0.134
-679.222	-14.898	-0.458	-0.296
-678.208	-200.000	-0.010	0.117
-677.193	-44.596	0.215	-0.108
-676.178	-25.320	-0.236	-0.140
-675.164	8.502	-0.065	-0.049
-674.149	67.268	-0.210	0.216
-673.135	402.739	-0.056	-0.119
-672.120	305.951	-0.031	0.058
-671.105	106.303	-0.058	0.070
-670.091	-200.000	-0.010	0.344
-669.076	-27.376	0.030	0.017
-668.062	181.687	-0.132	-0.196
-667.047	-64.745	0.163	0.066
-666.032	800.000	0.052	-0.224
-665.018	94.238	-0.088	-0.101
-664.003	660.135	0.013	-0.033
-662.989	-200.000	0.008	-0.043
-661.974	800.000	0.092	-0.314
-660.959	-97.149	0.144	0.038
-659.945	469.350	-0.098	0.222
-658.930	-101.341	-0.279	-0.069
-657.916	800.000	-0.129	0.375
-656.901	-63.378	-0.338	0.140
-655.886	-78.455	-0.321	-0.111
-654.872	20.614	-0.178	0.145
-653.857	-200.000	-0.008	-0.290
-652.843	-54.440	0.079	-0.036
-651.828	-47.641	-0.172	0.084
-650.814	94.411	0.151	-0.173
-649.799	-74.194	-0.243	0.088
-648.784	800.000	-0.070	-0.260
-647.770	114.758	0.034	0.042
-646.755	-38.780	-0.534	-0.283
-645.741	-83.304	0.329	-0.106
-644.726	117.027	-0.118	0.146
-643.711	-4.406	-0.140	0.098
-642.697	800.000	0.018	0.059
-641.682	-200.000	0.047	-0.455
-640.668	42.677	-0.148	0.136
-639.653	-200.000	-0.020	-0.127
-638.638	346.516	-0.009	0.017
-637.624	442.269	0.078	0.173
-636.609	800.000	-0.025	-0.100
-635.595	-200.000	0.004	-0.118
-634.580	-38.290	-0.313	0.167
-633.565	-132.350	0.113	-0.015
-632.551	496.531	0.069	0.160
-631.536	0.332	0.123	0.088
-630.522	370.747	-0.123	-0.251
-629.507	176.648	-0.027	-0.039
-628.492	-22.417	-0.252	0.154
-627.478	115.838	-0.105	-0.130
-626.463	-200.000	0.014	-0.091
-625.449	109.353	-0.172	0.208
-624.434	-200.000	-0.028	-0.201
-623.419	185.412	-0.165	-0.247
-622.405	-200.000	-0.059	0.406
-621.390	-85.473	0.172	-0.054
-620.376	-111.426	-0.073	0.015
-619.361	800.000	-0.020	-0.078
-618.346	267.163	-0.116	-0.203
-617.332	-35.743	0.164	-0.089
-616.317	54.197	0.171	-0.166
-615.303	100.025	-0.148	0.173
-614.288	-85.512	0.243	-0.076
-613.273	70.214	-0.064	0.066
-612.259	800.000	-0.109	0.344
-611.244	500.053	0.079	-0.184
-610.230	-36.840	-0.069	-0.037
-609.215	-135.274	0.606	-0.073
-608.201	-200.000	0.052	-0.253
-607.186	-146.860	-0.090	-0.008
-606.171	-46.309	-0.375	0.185
-605.157	-25.280	-0.180	0.107
-604.142	23.935	0.199	-0.165
-603.128	800.000	0.048	-0.209
-602.113	-23.446	-0.237	-0.143
-601.098	434.715	-0.139	-0.303
-600.084	20.590	0.061	-0.049
-599.069	-135.131	0.398	0.048
-598.055	-52.430	-0.200	0.093
-597.040	-200.000	0.049	-0.259
-596.025	-200.000	0.012	-0.073
-595.011	-60.303	-0.349	0.149
-593.996	-155.762	-0.312	-0.020
-592.982	-200.000	-0.027	-0.304
-591.967	800.000	0.031	-0.136
-590.952	800.000	0.007	0.027
-589.938	-106.226	-0.318	0.072
-588.923	-84.184	-0.131	-0.042
-587.909	68.875	0.096	0.100
-586.894	419.614	-0.023	0.048
-585.879	-134.808	-0.228	-0.028
-584.865	265.160	-0.059	0.103
-583.850	258.726	0.109	-0.189
-582.836	25.319	0.377	0.315
-581.821	232.788	-0.040	-0.066
-580.806	385.693	-0.037	0.076
-579.792	426.413	0.072	-0.157
-578.777	-50.237	-0.122	0.058
-577.763	-43.322	0.121	-0.061
-576.748	173.373	-0.041	0.059
-575.733	800.000	-0.101	0.384
-574.719	249.113	-0.077	0.130
-573.704	-186.103	-0.372	0.005
-572.690	-200.000	0.045	-0.249
-571.675	53.906	0.165	-0.159
-570.661	5.510	0.153	-0.114
-569.646	-148.914	-0.489	0.040
-568.631	508.272	0.142	0.331
-567.617	-36.977	0.106	0.057
-566.602	-112.324	0.228	-0.046
-565.588	-45.367	-0.058	0.029
-564.573	760.585	-0.019	0.052
-563.558	-51.369	-0.061	-0.029
-562.544	364.701	0.093	-0.187
-561.529	800.000	0.069	-0.280
-560.515	188.813	0.068	0.103
-559.500	-47.704	0.300	-0.146
-558.485	-165.335	-0.108	0.005
-557.471	228.326	-0.084	0.137
-556.456	-200.000	0.020	-0.202
-555.442	-3.218	0.115	0.081
-554.427	-200.000	-0.034	-0.165
-553.412	-200.000	0.007	-0.224
-552.398	-200.000	0.011	0.297
-551.383	-44.778	0.365	-0.183
-550.369	-130.359	-0.162	-0.022
-549.354	-200.000	-0.058	-0.344
-548.339	-95.203	-0.209	0.056
-547.325	28.130	-0.051	0.043
-546.310	-10.062	0.188	-0.125
-545.296	159.918	0.226	-0.316
-544.281	-187.210	-0.111	0.002
-543.266	-200.000	-0.016	0.278
-542.252	-31.322	0.166	0.094
-541.237	206.480	-0.082	0.127
-540.223	800.000	0.020	-0.084
-539.208	34.191	-0.182	0.159
-538.193	145.586	0.187	-0.251
-537.179	800.000	0.069	0.302
-536.164	-52.296	-0.209	0.097
-535.150	71.270	0.110	-0.115
-534.135	-27.745	0.073	-0.043
-533.121	54.785	-0.245	-0.237
-532.106	800.000	0.036	-0.118
-531.091	52.104	-0.173	-0.165
-530.077	-50.731	0.369	0.174
-529.062	-200.000	-0.055	0.251
-528.048	126.005	-0.080	-0.101
-527.033	-67.011	0.140	-0.055
-526.018	-37.318	0.141	-0.075
-525.004	-200.000	0.004	0.075
-523.989	-200.000	-0.004	-0.130
-522.975	-98.523	-0.176	-0.045
-521.960	-200.000	0.015	0.099
-520.945	-200.000	-0.019	-0.227
-519.931	213.014	-0.076	-0.120
-518.916	-200.000	0.015	0.321
-517.902	800.000	0.090	0.394
-516.887	571.068	0.176	0.428
-515.872	754.099	-0.088	-0.239
-514.858	8.155	-0.038	0.029
-513.843	800.000	-0.070	-0.305
-512.829	800.000	-0.048	-0.139
-511.814	72.633	-0.078	0.081
-510.799	374.845	-0.022	-0.045
-509.785	-189.234	0.315	0.004
-508.770	-110.314	-0.042	-0.009
-507.756	185.797	-0.036	0.053
-506.741	309.036	-0.185	0.346
-505.726	-200.000	0.017	-0.201
-504.712	-200.000	0.053	-0.367
-503.697	-75.880	-0.239	-0.085
-502.683	800.000	-0.064	-0.233
-501.668	361.272	-0.112	0.225
-500.653	-34.403	-0.252	-0.138
-499.639	-61.178	0.353	-0.149
-498.624	568.536	-0.030	-0.073
-497.610	211.792	0.125	0.197
-496.595	45.597	0.323	-0.298
-495.581	-54.761	-0.280	-0.127
-494.566	37.915	0.256	-0.227
-493.551	-180.983	-0.234	-0.005
-492.537	287.906	-0.063	-0.113
-491.522	186.550	0.053	-0.078
-490.508	228.836	0.027	0.045
-489.493	213.675	-0.066	-0.104
-488.478	-138.637	0.084	-0.009
-487.464	-61.592	0.155	-0.065
-486.449	53.020	-0.107	0.102
-485.435	143.560	0.083	0.111
-484.420	800.000	-0.051	0.165
-483.405	70.593	0.299	0.309
-482.391	-108.063	0.333	0.072
-481.376	-67.977	-0.270	0.105
-480.362	-137.386	0.184	0.021
-479.347	-37.503	-0.240	0.128
-478.332	-200.000	-0.004	-0.232
-477.318	-124.079	-0.304	0.048
-476.303	-65.712	-0.103	-0.041
-475.289	-58.513	-0.132	-0.057
-474.274	-157.340	0.376	0.023
-473.259	75.898	0.026	0.027
-472.245	-113.837	-0.188	0.036
-471.230	-146.971	-0.133	-0.011
-470.216	-200.000	0.024	-0.164
-469.201	-200.000	0.009	-0.265
-468.186	166.629	0.093	-0.131
-467.172	-144.044	-0.218	-0.020
-466.157	1.845	0.043	-0.031
-465.143	-162.764	-0.210	0.010
-464.128	-70.646	0.435	-0.164
-463.113	42.511	0.053	-0.048
-462.099	-200.000	-0.058	-0.256
-461.084	330.738	-0.103	-0.198
-460.070	-200.000	0.042	0.307
-459.055	800.000	0.052	-0.175
-458.040	150.511	0.121	-0.164
-457.026	-67.472	-0.227	-0.089
-456.011	16.712	0.075	-0.059
-454.997	98.739	-0.113	0.130
-453.982	-74.840	-0.144	0.051
-452.968	-104.419	0.235	-0.054
-451.953	-16.234	0.132	-0.084
-450.938	-81.440	-0.214	0.070
-449.924	-151.360	-0.139	0.010
-448.909	-200.000	-0.025	0.152
-447.895	-91.342	0.123	0.035
-446.880	-168.109	0.133	-0.005
-445.865	300.464	-0.150	-0.276
-444.851	-200.000	0.017	-0.087
-443.836	-200.000	-0.014	-0.162
-442.822	800.000	0.054	-0.213
-441.807	-15.862	0.337	0.214
-440.792	245.867	0.171	-0.287
-439.778	59.365	-0.272	0.268
-438.763	800.000	0.099	0.380
-437.749	47.399	-0.123	-0.114
-436.734	-132.086	-0.166	0.022
-435.719	326.058	0.119	0.227
-434.705	-28.502	-0.230	0.133
-433.690	5.748	0.022	-0.016
-432.676	195.998	0.174	0.264
-431.661	800.000	0.071	0.298
-430.646	29.791	0.098	-0.083
-429.632	-22.734	-0.189	-0.114
-428.617	-28.185	-0.122	0.070
-427.603	-135.399	-0.142	0.017
-426.588	-200.000	0.009	-0.186
-425.573	665.170	-0.048	-0.123
-424.559	-94.093	-0.218	0.060
-423.544	-200.000	0.007	0.130
-422.530	-2.903	-0.169	0.118
-421.515	-22.182	0.326	-0.197
-420.500	70.810	0.316	-0.326
-419.486	-54.261	-0.198	-0.090
-418.471	-148.892	-0.254	0.021
-417.457	493.925	-0.186	0.425
-416.442	800.000	0.100	0.356
-415.428	-169.343	0.344	-0.013
-414.413	-93.946	0.092	-0.025
-413.398	-87.264	0.453	-0.137
-412.384	-61.044	-0.091	-0.039
-411.369	-200.000	-0.026	-0.391
-410.355	368.829	-0.070	-0.142
-409.340	-200.000	0.028	0.260
-408.325	200.242	-0.100	0.154
-407.311	378.911	-0.125	-0.254
-406.296	-17.000	-0.241	0.151
-405.282	-153.887	0.237	-0.016
-404.267	-200.000	-0.038	-0.221
-403.252	-157.327	0.332	0.020
-402.238	18.374	0.068	-0.054
-401.223	-43.695	0.050	-0.025
-400.209	167.828	0.248	0.352
-399.194	136.343	-0.043	0.055
-398.179	-138.772	0.101	-0.011
-397.165	-25.692	-0.177	-0.104
-396.150	-164.011	0.167	0.008
-395.136	136.482	0.146	-0.190
-394.121	162.023	0.151	0.212
-393.106	635.692	0.039	0.098
-392.092	-200.000	-0.016	-0.186
-391.077	-46.165	0.164	0.080
-390.063	-200.000	0.002	0.212
-389.048	5.782	0.455	0.336
-388.033	23.607	-0.226	0.185
-387.019	-200.000	-0.006	-0.193
-386.004	57.503	-0.291	-0.284
-384.990	800.000	0.034	0.110
-383.975	800.000	-0.094	-0.286
-382.960	43.642	0.145	0.132
-381.946	-144.853	0.356	-0.032
-380.931	385.997	-0.047	0.097
-379.917	399.784	-0.083	-0.173
-378.902	-200.000	-0.005	-0.128
-377.888	195.539	-0.184	0.279
-376.873	800.000	0.097	0.304
-375.858	800.000	0.096	0.276
-374.844	-52.762	-0.072	0.033
-373.829	-28.335	0.327	0.188
-372.815	800.000	-0.036	0.139
-371.800	-102.583	-0.265	-0.063
-370.785	570.198	0.100	-0.242
-369.771	800.000	-0.137	0.413
-368.756	-148.444	-0.176	-0.014
-367.742	800.000	0.088	-0.281
-366.727	107.576	0.140	-0.166
-365.712	-200.000	-0.011	0.176
-364.698	-200.000	0.048	-0.230
-363.683	-200.000	-0.008	-0.282
-362.669	162.557	-0.075	0.104
-361.654	637.295	0.122	0.307
-360.639	-31.537	-0.051	-0.028
-359.625	-44.036	0.207	-0.104
-358.610	-161.940	0.047	0.002
-357.596	-113.838	0.154	0.030
-356.581	-119.933	-0.339	-0.058
-355.566	252.827	0.065	-0.111
-354.552	20.414	0.165	-0.133
-353.537	-118.499	-0.132	-0.023
-352.523	130.240	-0.168	-0.214
-351.508	-57.768	-0.090	0.039
-350.493	180.908	-0.100	-0.146
-349.479	48.883	-0.193	-0.180
-348.464	206.128	0.035	-0.054
-347.450	-21.469	-0.164	-0.100
-346.435	405.430	-0.063	0.132
-345.420	-179.572	-0.108	-0.002
-344.406	62.378	-0.370	-0.368
-343.391	800.000	0.027	-0.100
-342.377	-200.000	0.024	0.283
-341.362	-127.081	-0.412	0.060
-340.348	235.012	0.084	0.137
-339.333	36.330	-0.167	0.146
-338.318	77.014	0.274	0.290
-337.304	-121.194	0.338	0.056
-336.289	-200.000	0.024	-0.220
-335.275	-114.519	-0.142	-0.027
-334.260	-200.000	0.061	0.399
-333.245	-116.040	-0.193	0.036
-332.231	-34.202	0.282	0.154
-331.216	-200.000	-0.007	-0.091
-330.202	132.040	-0.045	-0.057
-329.187	137.512	0.106	-0.138
-328.172	-161.048	-0.085	0.004
-327.158	92.670	-0.083	-0.093
-326.143	-59.842	-0.382	-0.163
-325.129	-200.000	-0.014	-0.165
-324.114	162.031	0.080	-0.112
-323.099	-200.000	-0.019	-0.270
-322.085	12.877	-0.269	-0.207
-321.070	89.884	0.157	0.175
-320.056	135.841	0.111	0.143
-319.041	-130.959	0.133	0.018
-318.026	-75.202	-0.179	-0.064
-317.012	478.299	-0.092	-0.206
-315.997	392.845	0.120	-0.248
-314.983	346.513	0.113	0.221
-313.968	92.029	0.122	0.136
-312.953	800.000	0.041	-0.154
-311.939	103.951	0.092	-0.107
-310.924	8.529	-0.016	-0.012
-309.910	165.770	0.055	-0.077
-308.895	36.660	0.026	-0.023
-307.880	-200.000	0.001	-0.239
-306.866	324.871	0.052	0.098
-305.851	800.000	0.037	0.159
-304.837	85.414	-0.172	0.188
-303.822	190.448	0.150	0.224
-302.807	91.302	0.226	-0.252
-301.793	800.000	0.090	-0.336
-300.778	-79.399	0.152	0.051
-299.764	-130.433	-0.311	0.042
-298.749	800.000	-0.072	-0.281
-297.735	-119.549	0.217	0.037
-296.720	-39.884	-0.087	0.045
-295.705	800.000	-0.035	0.132
-294.691	507.467	0.093	0.215
-293.676	-64.701	-0.226	0.091
-292.662	280.369	0.145	0.258
-291.647	207.590	-0.099	0.153
-290.632	308.986	0.164	-0.305
-289.618	-107.776	0.509	0.110
-288.603	800.000	-0.106	0.353
-287.589	-71.764	0.224	0.083
-286.574	-90.235	-0.238	-0.069
-285.559	59.360	-0.232	0.227
-284.545	-170.150	0.088	-0.003
-283.530	205.243	-0.174	0.269
-282.516	-200.000	0.032	-0.154
-281.501	-1.052	0.117	-0.082
-280.486	10.650	0.095	-0.072
-279.472	130.144	0.078	-0.099
-278.457	-33.935	0.093	0.051
-277.443	-25.132	-0.230	0.135
-276.428	40.275	-0.090	-0.080
-275.413	132.045	-0.191	0.244
-274.399	33.166	0.150	0.129
-273.384	-95.734	0.090	-0.024
-272.370	-200.000	-0.015	0.190
-271.355	-5.319	0.142	0.097
-270.340	128.917	-0.133	-0.168
-269.326	422.646	0.072	-0.153
-268.311	355.105	-0.075	-0.147
-267.297	-87.570	0.317	0.095
-266.282	-79.237	-0.298	0.100
-265.267	64.199	-0.297	-0.297
-264.253	-200.000	-0.014	-0.195
-263.238	-11.817	-0.096	-0.062
-262.224	32.467	-0.107	0.092
-261.209	439.403	0.194	0.419
-260.195	800.000	-0.084	0.250
-259.180	669.787	-0.097	0.248
-258.165	145.022	0.067	-0.089
-257.151	39.596	0.138	-0.123
-256.136	800.000	0.088	-0.289
-255.122	-81.912	-0.219	0.071
-254.107	46.820	0.126	0.116
-253.092	18.869	0.128	-0.101
-252.078	-200.000	-0.033	0.165
-251.063	129.974	0.358	-0.454
-250.049	111.035	0.217	-0.259
-249.034	800.000	0.090	-0.248
-248.019	105.810	0.170	-0.199
-247.005	-200.000	0.037	-0.237
-245.990	800.000	-0.009	-0.039
-244.976	-107.652	-0.203	0.044
-243.961	116.375	-0.194	0.235
-242.946	69.557	0.356	0.364
-241.932	88.857	-0.175	-0.193
-240.917	-200.000	0.003	-0.030
-239.903	-200.000	-0.000	0.022
-238.888	-114.360	-0.086	0.016
-237.873	-200.000	0.016	-0.136
-236.859	-200.000	0.018	0.215
-235.844	124.279	0.131	-0.164
-234.830	-68.604	-0.169	-0.065
-233.815	800.000	0.086	0.260
-232.800	-154.705	0.106	0.007
-231.786	-76.766	0.059	-0.020
-230.771	74.095	0.115	-0.119
-229.757	19.811	0.171	-0.137
-228.742	70.655	-0.146	0.150
-227.727	-47.767	0.229	-0.110
-226.713	800.000	0.028	-0.082
-225.698	-89.287	0.248	-0.073
-224.684	96.709	-0.029	-0.033
-223.669	-68.522	-0.364	-0.140
-222.655	131.975	0.083	0.106
-221.640	57.436	0.099	0.096
-220.625	210.547	-0.133	0.208
-219.611	87.885	0.208	0.229
-218.596	70.555	-0.201	0.206
-217.582	-200.000	0.017	0.114
-216.567	4.941	0.076	0.055
-215.552	75.230	0.206	0.215
-214.538	-104.734	-0.243	-0.055
-213.523	-69.766	-0.200	-0.075
-212.509	-123.736	0.116	-0.018
-211.494	47.527	0.184	-0.169
-210.479	574.530	-0.028	0.067
-209.465	67.247	0.158	0.160
-208.450	382.355	0.070	0.143
-207.436	-119.629	-0.122	-0.021
-206.421	213.463	-0.153	-0.239
-205.406	-21.954	-0.479	0.288
-204.392	-185.200	-0.310	-0.005
-203.377	117.702	0.032	0.039
-202.363	-42.273	-0.102	0.051
-201.348	17.476	0.268	0.211
-200.333	800.000	0.155	0.428
-199.319	123.898	0.039	-0.048
-198.304	155.870	0.090	-0.122
-197.290	76.911	0.093	-0.098
-196.275	-200.000	0.002	0.468
-195.260	-200.000	0.019	-0.170
-194.246	-191.077	-0.073	-0.001
-193.231	-200.000	-0.006	0.044
-192.217	-163.468	0.190	-0.009
-191.202	70.666	0.210	0.215
-190.187	474.774	-0.124	-0.276
-189.173	263.408	0.042	-0.072
-188.158	510.435	-0.025	-0.057
-187.144	800.000	0.061	0.169
-186.129	-200.000	-0.054	-0.249
-185.114	-82.920	-0.242	0.077
-184.100	-32.038	-0.204	-0.113
-183.085	100.387	0.153	-0.176
-182.071	358.523	0.152	0.300
-181.056	183.482	-0.055	0.080
-180.042	-200.000	0.001	0.031
-179.027	-126.211	-0.339	0.050
-178.012	-146.379	-0.178	0.015
-176.998	-129.504	0.208	0.029
-175.983	0.648	-0.150	0.106
-174.969	-195.906	-0.131	0.001
-173.954	78.434	0.124	-0.131
-172.939	-73.520	-0.036	-0.013
-171.925	-200.000	-0.002	-0.138
-170.910	-152.250	-0.142	0.010
-169.896	276.869	0.252	0.442
-168.881	-200.000	-0.034	0.157
-167.866	188.707	-0.237	0.350
-166.852	221.581	0.098	0.155
-165.837	-159.650	0.374	0.020
-164.823	256.481	-0.116	0.196
-163.808	31.929	0.407	0.346
-162.793	-72.011	-0.236	0.087
-161.779	800.000	0.098	0.273
-160.764	-64.997	0.192	0.077
-159.750	783.018	0.031	0.084
-158.735	67.876	0.281	0.284
-157.720	-17.959	-0.248	-0.154
-156.706	-200.000	-0.047	0.297
-155.691	13.541	0.110	-0.084
-154.677	-79.769	-0.313	-0.104
-153.662	120.308	-0.051	0.062
-152.647	31.272	0.124	0.105
-151.633	0.137	-0.048	-0.034
-150.618	136.441	-0.131	-0.168
-149.604	615.005	0.044	0.110
-148.589	399.641	0.182	0.376
-147.574	-90.981	0.038	-0.011
-146.560	210.927	-0.179	-0.278
-145.545	763.756	0.051	0.137
-144.531	37.359	-0.191	-0.167
-143.516	-200.000	0.072	-0.464
-142.502	-200.000	0.038	0.211
-141.487	39.240	0.070	-0.062
-140.472	559.911	-0.038	-0.090
-139.458	-102.411	0.102	-0.024
-138.443	-154.271	0.252	0.017
-137.429	184.843	-0.185	-0.271
-136.414	0.713	-0.111	-0.078
-135.399	706.737	-0.080	0.209
-134.385	-200.000	-0.001	0.326
-133.370	-74.003	0.288	-0.103
-132.356	-93.551	0.266	-0.073
-131.341	-200.000	0.013	-0.096
-130.326	-131.947	-0.656	-0.084
-129.312	9.240	0.211	-0.157
-128.297	-5.700	-0.160	0.108
-127.283	197.890	0.109	-0.165
-126.268	-200.000	-0.043	0.250
-125.253	261.447	-0.128	0.219
-124.239	48.598	0.101	-0.093
-123.224	-200.000	0.022	-0.097
-122.210	-11.487	0.061	-0.040
-121.195	800.000	-0.086	-0.262
