DTS Sentinel unit serial number:	SN413079Multiplexer serial number:	ORYXHardware model number:	OX4-SRSoftware version number:	ORYX F/W v4.00 Oryx Data Collector v3.7.2.0data status	okinstallation	princeton_trtdifferential loss correction	single-endedforward channel	channel 1reverse channel	N/Adate	2019/09/11time	23:04:11forward acquisition time	60.00reverse acquisition time	0.00gamma	496.2192k internal	0.2317k external	0.2317temperature offset calibration	1.0058default loss term (dB/km)	0.3790temperature slope calibration	1.0000multiplexer offset coefficient	1.0000multiplexer slope coefficient	1.0000fibre end	0.00T internal ref (°C)	34.56T ext. ref 1 (°C)	1.83T ext. ref 2 (°C)	29.31length (m)	temperature (°C)	Stokes	anti-Stokes-747.200	-59.010	-0.202	0.089
-746.185	614.192	0.139	0.352
-745.171	800.000	0.073	-0.309
-744.156	755.086	0.113	0.310
-743.142	62.624	-0.108	0.109
-742.127	-200.000	-0.031	-0.362
-741.112	-48.311	-0.168	-0.082
-740.098	-6.704	-0.246	0.169
-739.083	216.162	0.042	-0.068
-738.069	-200.000	0.016	0.466
-737.054	-145.809	-0.163	0.015
-736.039	-22.399	0.098	0.060
-735.025	25.954	0.111	0.094
-734.010	-83.140	-0.209	0.068
-732.996	154.249	-0.200	0.278
-731.981	-64.728	-0.243	-0.100
-730.966	-116.558	-0.188	0.035
-729.952	-137.987	-0.253	-0.029
-728.937	-123.859	-0.254	-0.041
-727.923	800.000	0.047	0.136
-726.908	-99.407	-0.311	-0.079
-725.894	39.693	-0.176	-0.160
-724.879	86.189	-0.042	-0.046
-723.864	341.809	-0.016	-0.031
-722.850	-200.000	0.001	-0.380
-721.835	800.000	0.031	0.110
-720.821	0.483	-0.264	0.191
-719.806	-149.078	0.238	-0.019
-718.791	-88.935	-0.341	-0.102
-717.777	-32.362	0.233	0.131
-716.762	-11.604	-0.073	-0.049
-715.748	-30.550	-0.223	0.128
-714.733	89.545	-0.181	0.205
-713.718	-119.965	-0.098	-0.017
-712.704	61.892	-0.213	-0.214
-711.689	125.760	-0.032	0.040
-710.675	-37.427	0.271	0.147
-709.660	233.490	0.152	-0.254
-708.645	-62.257	0.083	0.035
-707.631	800.000	0.106	0.464
-706.616	258.938	0.064	-0.112
-705.602	736.691	0.097	0.262
-704.587	-142.872	-0.210	-0.021
-703.572	-76.209	0.161	-0.057
-702.558	-200.000	0.003	0.072
-701.543	456.161	-0.010	0.022
-700.529	800.000	0.075	0.307
-699.514	-1.947	-0.347	0.246
-698.499	11.714	-0.105	0.082
-697.485	-97.201	0.250	0.066
-696.470	-200.000	0.013	-0.205
-695.456	172.234	-0.176	0.256
-694.441	212.315	-0.264	0.421
-693.426	0.703	-0.113	0.081
-692.412	-200.000	-0.016	0.078
-691.397	-59.276	-0.202	0.088
-690.383	-62.505	-0.332	0.140
-689.368	800.000	0.073	0.268
-688.354	-61.338	-0.353	-0.150
-687.339	-148.248	-0.366	0.031
-686.324	262.585	-0.172	-0.301
-685.310	301.899	0.080	0.150
-684.295	-157.716	-0.222	-0.013
-683.281	25.409	-0.176	0.148
-682.266	-200.000	0.004	-0.019
-681.251	800.000	-0.031	-0.104
-680.237	800.000	-0.034	0.101
-679.222	-139.234	-0.136	0.015
-678.208	-200.000	-0.008	-0.053
-677.193	-129.963	-0.169	-0.023
-676.178	65.442	-0.201	0.206
-675.164	51.244	-0.036	0.034
-674.149	800.000	0.107	0.468
-673.135	-56.507	0.297	-0.133
-672.120	-25.604	0.199	-0.118
-671.105	110.386	-0.149	-0.181
-670.091	779.721	0.037	0.101
-669.076	225.343	-0.150	0.246
-668.062	-106.808	0.077	0.017
-667.047	548.406	-0.127	-0.307
-666.032	193.397	0.028	-0.043
-665.018	800.000	-0.056	0.159
-664.003	800.000	0.041	0.138
-662.989	516.414	0.050	-0.118
-661.974	-164.160	-0.182	-0.008
-660.959	-145.473	0.049	-0.004
-659.945	-137.852	-0.227	0.026
-658.930	-200.000	0.037	0.204
-657.916	208.656	0.101	0.159
-656.901	-200.000	0.008	-0.039
-655.886	-23.666	0.269	-0.163
-654.872	-29.184	0.030	-0.017
-653.857	-200.000	-0.015	0.249
-652.843	-111.394	-0.153	-0.031
-651.828	531.010	-0.099	0.235
-650.814	-200.000	0.012	-0.069
-649.799	-50.994	-0.078	-0.037
-648.784	-87.232	-0.296	-0.091
-647.770	-200.000	0.002	-0.240
-646.755	800.000	-0.187	-0.589
-645.741	-200.000	0.026	-0.258
-644.726	164.942	-0.063	-0.090
-643.711	-131.525	-0.222	0.030
-642.697	26.886	-0.089	0.075
-641.682	-4.892	0.090	0.063
-640.668	-200.000	0.002	-0.228
-639.653	800.000	0.037	0.113
-638.638	800.000	0.045	0.144
-637.624	-46.317	0.237	-0.117
-636.609	-200.000	0.011	0.076
-635.595	637.865	0.107	0.274
-634.580	-200.000	-0.005	0.393
-633.565	-53.921	0.318	0.146
-632.551	35.022	-0.136	-0.120
-631.536	784.297	-0.114	-0.315
-630.522	41.935	0.209	0.191
-629.507	-2.100	-0.359	0.254
-628.492	-41.652	0.184	0.095
-627.478	229.029	0.076	-0.125
-626.463	-200.000	-0.030	-0.240
-625.449	800.000	0.049	-0.151
-624.434	52.355	0.046	-0.045
-623.419	83.333	-0.149	-0.163
-622.405	156.362	0.027	-0.038
-621.390	-122.128	0.260	-0.043
-620.376	180.489	0.372	0.550
-619.361	-23.355	-0.149	0.090
-618.346	-84.262	0.192	0.061
-617.332	-130.514	0.061	-0.008
-616.317	-115.794	-0.167	-0.031
-615.303	-24.391	-0.167	-0.101
-614.288	266.258	-0.070	-0.123
-613.273	158.353	-0.090	0.126
-612.259	-146.088	0.309	-0.027
-611.244	-200.000	-0.008	-0.053
-610.230	-18.271	-0.238	-0.150
-609.215	165.451	0.115	0.163
-608.201	800.000	0.064	-0.268
-607.186	-29.810	0.307	0.177
-606.171	575.306	-0.130	-0.321
-605.157	73.573	0.244	0.257
-604.142	-22.101	-0.175	-0.107
-603.128	-99.175	0.218	-0.055
-602.113	-200.000	0.046	-0.441
-601.098	-200.000	0.055	-0.326
-600.084	-123.508	0.226	0.036
-599.069	12.242	0.436	0.338
-598.055	-78.562	0.278	-0.096
-597.040	-26.952	0.147	0.086
-596.025	-200.000	-0.032	0.527
-595.011	51.133	-0.109	0.104
-593.996	-66.868	-0.212	0.084
-592.982	76.492	0.120	0.128
-591.967	-200.000	-0.017	-0.189
-590.952	601.676	-0.058	-0.144
-589.938	-2.431	-0.087	0.061
-588.923	610.091	-0.033	0.084
-587.909	-200.000	-0.028	0.196
-586.894	598.799	0.028	-0.071
-585.879	-122.864	-0.287	0.047
-584.865	800.000	-0.056	0.197
-583.850	222.473	-0.170	-0.275
-582.836	-47.104	0.163	0.080
-581.821	-155.810	-0.265	0.017
-580.806	0.979	0.287	-0.207
-579.792	105.994	-0.106	-0.126
-578.777	800.000	-0.090	0.288
-577.763	-13.930	0.073	-0.048
-576.748	-60.264	0.333	0.143
-575.733	-27.463	-0.103	0.060
-574.719	-73.295	-0.076	-0.028
-573.704	-61.418	-0.239	-0.101
-572.690	-200.000	0.011	-0.232
-571.675	-32.398	-0.363	-0.204
-570.661	266.914	-0.028	0.049
-569.646	716.598	0.095	-0.254
-568.631	-200.000	-0.000	0.252
-567.617	-106.283	0.349	0.079
-566.602	672.574	-0.076	0.199
-565.588	-6.285	-0.138	0.095
-564.573	221.039	-0.245	-0.395
-563.558	-20.480	-0.103	-0.064
-562.544	179.286	-0.129	-0.189
-561.529	-62.617	-0.496	-0.207
-560.515	18.585	-0.113	-0.091
-559.500	167.073	-0.159	0.227
-558.485	110.290	0.031	-0.037
-557.471	141.986	0.069	0.092
-556.456	120.327	-0.107	-0.134
-555.442	10.972	0.089	0.068
-554.427	-128.769	-0.383	0.054
-553.412	405.756	0.095	0.202
-552.398	-200.000	-0.002	0.280
-551.383	52.274	-0.295	-0.282
-550.369	130.016	0.077	-0.099
-549.354	534.292	0.100	0.238
-548.339	-80.006	-0.028	-0.009
-547.325	-138.628	-0.074	-0.008
-546.310	800.000	0.012	0.047
-545.296	360.202	0.017	0.035
-544.281	204.301	0.129	0.200
-543.266	-21.778	0.222	-0.136
-542.252	-69.817	-0.376	-0.144
-541.237	123.304	0.244	-0.308
-540.223	446.135	-0.021	-0.047
-539.208	-200.000	-0.007	-0.538
-538.193	-15.813	-0.157	-0.100
-537.179	294.920	0.110	0.202
-536.164	-49.049	-0.477	-0.229
-535.150	-200.000	-0.026	0.130
-534.135	-82.864	-0.057	0.018
-533.121	-133.872	0.122	-0.015
-532.106	-124.649	-0.303	-0.047
-531.091	-55.727	-0.101	-0.045
-530.077	-106.262	-0.247	0.055
-529.062	178.535	-0.046	0.068
-528.048	-66.819	-0.089	0.035
-527.033	-132.441	0.025	0.003
-526.018	45.736	-0.070	-0.065
-525.004	-119.129	0.366	-0.064
-523.989	-200.000	-0.047	0.264
-522.975	6.464	0.111	0.082
-521.960	607.467	0.090	-0.225
-520.945	81.904	0.060	-0.065
-519.931	800.000	0.094	-0.354
-518.916	221.999	-0.108	0.175
-517.902	800.000	-0.037	0.134
-516.887	-171.800	-0.085	0.003
-515.872	-95.783	0.108	0.029
-514.858	129.953	-0.192	0.247
-513.843	-200.000	0.001	-0.294
-512.829	800.000	0.041	0.168
-511.814	25.128	0.154	0.128
-510.799	-200.000	0.016	0.151
-509.785	-111.750	-0.312	-0.063
-508.770	198.342	-0.090	-0.139
-507.756	98.831	-0.083	-0.096
-506.741	800.000	0.134	0.426
-505.726	-74.723	-0.084	-0.030
-504.712	73.031	-0.095	0.100
-503.697	-68.355	0.167	0.065
-502.683	-14.720	-0.155	0.100
-501.668	-117.468	-0.480	0.087
-500.653	-200.000	-0.040	-0.314
-499.639	800.000	0.055	-0.164
-498.624	458.222	-0.045	0.101
-497.610	84.426	0.170	-0.186
-496.595	-148.029	-0.318	0.027
-495.581	-151.311	-0.192	0.014
-494.566	-59.665	-0.164	-0.071
-493.551	-123.460	0.125	-0.020
-492.537	-34.876	0.316	-0.173
-491.522	-91.155	0.068	-0.019
-490.508	262.109	-0.152	-0.263
-489.493	-61.166	0.222	0.094
-488.478	1.480	0.025	0.018
-487.464	-153.535	-0.244	-0.017
-486.449	-33.871	0.194	-0.107
-485.435	18.368	0.275	0.220
-484.420	-200.000	-0.021	0.222
-483.405	-147.862	-0.032	0.003
-482.391	-23.288	0.217	0.131
-481.376	-200.000	-0.039	0.290
-480.362	-187.993	-0.399	0.005
-479.347	-93.245	-0.094	-0.026
-478.332	800.000	0.111	-0.385
-477.318	35.364	0.213	0.188
-476.303	175.774	0.087	0.126
-475.289	97.221	0.130	0.149
-474.274	-200.000	0.046	-0.233
-473.259	-9.599	-0.228	-0.153
-472.245	-82.552	0.070	0.023
-471.230	22.210	-0.089	-0.073
-470.216	71.627	0.222	-0.231
-469.201	-200.000	-0.062	-0.317
-468.186	-137.149	-0.196	0.022
-467.172	46.547	-0.192	0.178
-466.157	201.546	-0.112	-0.173
-465.143	-114.060	0.041	0.008
-464.128	-200.000	0.038	-0.278
-463.113	42.137	0.096	-0.088
-462.099	16.396	-0.124	-0.098
-461.084	800.000	0.120	-0.459
-460.070	242.511	0.094	0.157
-459.055	34.339	0.086	-0.075
-458.040	-200.000	0.031	-0.406
-457.026	800.000	-0.044	0.182
-456.011	800.000	0.105	-0.433
-454.997	-200.000	0.043	0.223
-453.982	-48.116	0.094	-0.045
-452.968	81.026	-0.147	-0.159
-451.953	61.883	-0.260	-0.260
-450.938	101.584	0.149	-0.173
-449.924	32.908	0.131	-0.114
-448.909	102.667	0.212	0.249
-447.895	60.170	-0.180	-0.178
-446.880	-151.157	-0.310	0.023
-445.865	-39.943	0.217	0.113
-444.851	-57.157	-0.485	0.214
-443.836	343.232	0.111	0.218
-442.822	800.000	-0.067	0.261
-441.807	800.000	-0.169	0.516
-440.792	800.000	0.079	0.321
-439.778	163.709	-0.107	-0.151
-438.763	-118.041	-0.169	0.030
-437.749	8.260	-0.142	-0.107
-436.734	-26.098	-0.198	0.117
-435.719	-143.210	0.089	0.009
-434.705	-200.000	0.043	-0.263
-433.690	-11.426	-0.043	0.028
-432.676	178.737	-0.076	0.112
-431.661	800.000	0.118	0.369
-430.646	44.003	-0.038	0.035
-429.632	-57.256	0.106	0.047
-428.617	800.000	0.079	0.322
-427.603	-41.831	-0.085	0.043
-426.588	49.954	-0.069	0.065
-425.573	101.213	0.090	-0.105
-424.559	-120.866	0.062	0.011
-423.544	209.794	0.091	-0.143
-422.530	800.000	0.047	-0.161
-421.515	-84.160	0.283	-0.090
-420.500	-200.000	-0.044	0.245
-419.486	222.919	0.094	-0.151
-418.471	8.169	0.091	0.068
-417.457	800.000	0.057	0.185
-416.442	88.093	-0.075	0.083
-415.428	-178.848	0.123	0.003
-414.413	-11.993	-0.125	0.082
-413.398	359.755	-0.127	-0.254
-412.384	-97.393	-0.107	-0.028
-411.369	82.620	0.128	-0.139
-410.355	116.653	-0.052	0.064
-409.340	438.857	-0.102	0.224
-408.325	-17.846	-0.116	-0.073
-407.311	111.868	0.183	-0.221
-406.296	-109.753	-0.195	-0.041
-405.282	73.947	-0.114	0.119
-404.267	-200.000	-0.018	-0.230
-403.252	-200.000	-0.057	0.255
-402.238	53.311	-0.378	0.361
-401.223	-60.576	-0.088	-0.037
-400.209	800.000	0.014	-0.054
-399.194	-25.074	0.279	0.165
-398.179	126.977	-0.290	-0.367
-397.165	-52.662	0.188	0.087
-396.150	51.771	0.299	0.284
-395.136	-200.000	0.005	-0.419
-394.121	-7.865	-0.086	-0.058
-393.106	49.506	0.299	0.281
-392.092	-87.056	-0.269	-0.082
-391.077	319.872	-0.098	-0.186
-390.063	2.964	-0.182	0.132
-389.048	-99.638	0.399	-0.100
-388.033	-181.833	0.232	0.004
-387.019	-63.193	0.232	-0.096
-386.004	-200.000	-0.008	-0.193
-384.990	153.409	0.105	0.143
-383.975	588.506	0.113	-0.277
-382.960	-92.901	-0.465	-0.130
-381.946	71.868	0.082	-0.085
-380.931	-200.000	-0.037	-0.245
-379.917	-19.069	0.320	0.199
-378.902	2.891	-0.115	0.083
-377.888	-49.520	0.081	-0.039
-376.873	-94.269	-0.123	0.034
-375.858	34.975	-0.196	-0.171
-374.844	-84.704	0.270	-0.085
-373.829	-83.757	-0.257	-0.082
-372.815	52.749	0.085	0.081
-371.800	95.921	-0.169	0.192
-370.785	-139.224	-0.174	-0.019
-369.771	800.000	0.044	0.149
-368.756	-186.959	0.121	-0.002
-367.742	-200.000	0.011	-0.062
-366.727	156.115	0.059	-0.081
-365.712	-54.040	0.180	-0.082
-364.698	17.421	-0.150	0.119
-363.683	-140.960	-0.166	0.017
-362.669	-150.849	-0.032	-0.002
-361.654	36.680	-0.079	0.069
-360.639	396.579	0.033	0.068
-359.625	-200.000	-0.097	-0.428
-358.610	-8.128	0.058	-0.039
-357.596	800.000	0.077	-0.275
-356.581	-9.133	-0.173	0.116
-355.566	-49.542	-0.317	-0.151
-354.552	-126.403	-0.206	0.031
-353.537	-66.454	0.355	-0.140
-352.523	459.982	-0.093	-0.207
-351.508	-13.774	-0.026	0.017
-350.493	-48.661	-0.136	0.065
-349.479	-141.387	0.321	0.032
-348.464	16.945	-0.095	-0.075
-347.450	51.030	-0.217	0.205
-346.435	212.988	-0.194	0.305
-345.420	131.275	-0.223	0.286
-344.406	-4.075	0.109	-0.075
-343.391	-94.084	-0.182	0.050
-342.377	-77.385	0.197	-0.068
-341.362	-47.931	-0.182	0.088
-340.348	-61.664	0.135	0.057
-339.333	-61.851	0.108	0.045
-338.318	-200.000	0.003	0.099
-337.304	800.000	-0.018	0.065
-336.289	-200.000	-0.094	-0.421
-335.275	-200.000	-0.005	0.248
-334.260	40.183	0.194	-0.174
-333.245	-200.000	0.011	-0.215
-332.231	-200.000	0.022	-0.304
-331.216	-142.578	0.181	0.018
-330.202	-49.998	-0.173	0.082
-329.187	245.620	-0.155	0.261
-328.172	-19.997	-0.096	-0.059
-327.158	800.000	-0.093	-0.264
-326.143	65.366	-0.038	0.039
-325.129	-128.735	0.435	-0.061
-324.114	101.350	-0.063	0.073
-323.099	-200.000	-0.041	0.204
-322.085	-87.926	0.124	0.037
-321.070	-104.128	0.333	-0.077
-320.056	800.000	0.079	0.237
-319.041	68.182	0.128	0.130
-318.026	6.354	-0.233	-0.172
-317.012	69.386	0.245	-0.251
-315.997	189.876	0.090	0.134
-314.983	-178.998	-0.219	-0.005
-313.968	-200.000	0.033	0.154
-312.953	-156.538	0.070	-0.004
-311.939	-200.000	-0.019	0.157
-310.924	643.875	-0.030	-0.076
-309.910	300.414	0.153	0.281
-308.895	189.988	0.100	0.149
-307.880	800.000	-0.051	0.153
-306.866	-200.000	-0.013	0.199
-305.851	-56.239	-0.217	-0.096
-304.837	-94.715	0.194	-0.053
-303.822	-200.000	0.010	-0.084
-302.807	-200.000	-0.018	-0.349
-301.793	-127.298	-0.287	-0.042
-300.778	436.150	0.171	-0.371
-299.764	-3.617	0.202	0.140
-298.749	-1.908	-0.137	-0.096
-297.735	800.000	0.035	0.135
-296.720	252.857	0.247	-0.420
-295.705	108.440	-0.286	0.340
-294.691	386.686	0.062	0.127
-293.676	85.326	-0.086	-0.094
-292.662	-80.792	0.283	-0.094
-291.647	54.965	-0.091	0.087
-290.632	-58.993	0.343	-0.147
-289.618	231.584	-0.114	0.185
-288.603	-97.483	0.202	0.052
-287.589	-200.000	0.012	-0.296
-286.574	-108.161	0.115	-0.025
-285.559	335.099	-0.083	0.161
-284.545	-109.932	0.581	0.121
-283.530	-200.000	-0.063	0.291
-282.516	507.227	0.092	0.213
-281.501	-166.150	0.073	0.003
-280.486	50.273	0.083	0.078
-279.472	-200.000	-0.021	0.485
-278.457	-200.000	0.079	0.488
-277.443	-39.380	-0.206	-0.107
-276.428	-200.000	0.014	-0.099
-275.413	-200.000	0.008	0.369
-274.399	-69.147	0.334	0.128
-273.384	800.000	-0.141	0.556
-272.370	21.366	-0.084	0.068
-271.355	138.531	-0.068	-0.089
-270.340	-200.000	-0.036	0.175
-269.326	-171.654	-0.243	0.008
-268.311	-120.021	0.211	0.036
-267.297	270.396	0.095	0.165
-266.282	-4.802	-0.144	-0.099
-265.267	780.188	-0.033	0.091
-264.253	-60.322	0.200	0.084
-263.238	-167.551	0.169	-0.007
-262.224	-99.292	0.262	0.066
-261.209	-149.795	0.164	-0.013
-260.195	-200.000	-0.009	0.436
-259.180	-160.806	0.163	0.009
-258.165	-200.000	0.034	-0.156
-257.151	177.988	0.228	0.330
-256.136	-78.961	0.092	0.031
-255.122	290.511	0.146	0.263
-254.107	-2.019	-0.276	-0.192
-253.092	143.408	0.183	-0.242
-252.078	-200.000	-0.007	0.034
-251.063	481.370	0.047	0.107
-250.049	-123.084	-0.509	0.081
-249.034	-141.566	0.611	0.061
-248.019	642.869	-0.069	0.176
-247.005	496.183	0.064	-0.146
-245.990	-118.068	-0.068	-0.012
-244.976	14.614	-0.265	-0.205
-243.961	-200.000	-0.179	-0.000
-242.946	-200.000	-0.003	0.203
-241.932	-179.666	0.063	-0.001
-240.917	19.226	-0.071	0.056
-239.903	-65.544	0.047	0.019
-238.888	92.367	0.236	0.264
-237.873	-200.000	-0.032	-0.226
-236.859	67.177	0.178	0.180
-235.844	-176.077	0.091	-0.002
-234.830	594.193	-0.162	-0.397
-233.815	-200.000	0.004	-0.268
-232.800	4.370	-0.133	-0.096
-231.786	-26.423	0.142	-0.083
-230.771	-200.000	0.022	-0.125
-229.757	-200.000	-0.017	0.107
-228.742	17.533	0.382	-0.301
-227.727	27.270	-0.213	-0.178
-226.713	187.474	0.077	0.114
-225.698	-200.000	0.058	-0.268
-224.684	-21.606	0.162	-0.098
-223.669	12.687	0.064	0.049
-222.655	-59.012	-0.180	-0.077
-221.640	800.000	-0.083	0.348
-220.625	-113.880	0.253	0.049
-219.611	286.456	-0.111	-0.198
-218.596	800.000	0.137	-0.402
-217.582	14.375	-0.104	0.080
-216.567	-147.707	-0.347	0.029
-215.552	7.068	-0.328	0.243
-214.538	-200.000	-0.016	-0.074
-213.523	-165.715	-0.350	-0.015
-212.509	800.000	-0.014	-0.057
-211.494	-47.970	-0.169	0.081
-210.479	-200.000	0.034	-0.232
-209.465	-36.719	-0.018	-0.010
-208.450	-200.000	0.005	-0.173
-207.436	-200.000	0.015	-0.401
-206.421	37.817	0.164	-0.145
-205.406	130.718	-0.076	-0.097
-204.392	420.950	0.006	0.013
-203.377	-124.441	-0.054	0.008
-202.363	-200.000	0.021	0.135
-201.348	-116.326	-0.078	-0.014
-200.333	-29.663	-0.059	-0.034
-199.319	800.000	-0.054	0.218
-198.304	233.735	-0.161	0.262
-197.290	180.028	0.108	-0.157
-196.275	232.177	-0.255	-0.414
-195.260	165.942	0.211	-0.296
-194.246	800.000	0.135	0.437
-193.231	34.597	0.325	0.282
-192.217	-178.922	-0.177	0.004
-191.202	-200.000	-0.046	0.332
-190.187	-200.000	-0.029	0.397
-189.173	800.000	-0.134	0.406
-188.158	207.738	0.249	0.385
-187.144	54.723	-0.050	-0.048
-186.129	-2.915	0.087	0.060
-185.114	-101.573	-0.231	-0.056
-184.100	421.754	-0.103	0.219
-183.085	26.372	-0.232	0.192
-182.071	-200.000	0.021	-0.112
-181.056	-97.752	0.265	-0.068
-180.042	437.202	0.055	0.118
-179.027	50.255	-0.182	-0.170
-178.012	55.980	0.055	0.053
-176.998	0.415	0.093	-0.066
-175.983	360.039	0.096	0.190
-174.969	-99.611	0.309	0.077
-173.954	-106.059	0.205	0.046
-172.939	-200.000	-0.069	-0.310
-171.925	-63.474	-0.095	0.039
-170.910	800.000	0.147	-0.489
-169.896	-20.166	-0.194	0.118
-168.881	627.245	0.106	0.265
-167.866	-200.000	-0.019	0.179
-166.852	-102.825	0.193	0.045
-165.837	800.000	0.083	-0.314
-164.823	-145.993	0.442	-0.039
-163.808	69.261	-0.212	0.216
-162.793	125.283	0.159	-0.198
-161.779	-138.073	0.163	-0.018
-160.764	-200.000	0.004	0.034
-159.750	401.101	-0.241	-0.500
-158.735	-133.306	0.175	-0.022
-157.720	-200.000	-0.039	0.259
-156.706	305.912	0.087	-0.161
-155.691	-200.000	0.058	0.306
-154.677	-4.560	-0.117	0.080
-153.662	-200.000	-0.010	-0.267
-152.647	100.255	-0.047	-0.054
-151.633	383.126	0.104	-0.212
-150.618	243.107	-0.054	0.089
-149.604	511.295	0.053	-0.123
-148.589	-200.000	-0.025	0.239
-147.574	-124.500	0.183	-0.028
-146.560	-65.425	0.104	0.041
-145.545	800.000	0.078	0.313
-144.531	-200.000	0.043	0.215
-143.516	364.461	-0.170	-0.338
-142.502	-200.000	-0.015	0.244
-141.487	426.634	0.078	0.166
-140.472	-83.631	-0.225	-0.071
-139.458	303.000	0.169	0.310
-138.443	-200.000	-0.016	0.171
-137.429	-6.979	-0.148	0.099
-136.414	-36.105	-0.050	-0.027
-135.399	800.000	-0.028	-0.094
-134.385	216.902	-0.142	-0.223
-133.370	800.000	-0.016	0.046
-132.356	-200.000	-0.019	0.098
-131.341	-104.357	0.151	0.035
-130.326	240.384	-0.200	-0.330
-129.312	-196.107	0.327	-0.002
-128.297	-200.000	-0.005	0.180
-127.283	1.191	0.270	0.192
-126.268	94.831	-0.107	0.120
-125.253	34.468	0.135	-0.117
-124.239	231.429	-0.278	-0.451
-123.224	109.587	0.324	-0.383
-122.210	-200.000	-0.042	0.475
-121.195	-12.215	0.244	0.157
