DTS Sentinel unit serial number:	SN413079Multiplexer serial number:	ORYXHardware model number:	OX4-SRSoftware version number:	ORYX F/W v4.00 Oryx Data Collector v3.7.2.0data status	okinstallation	princeton_trtdifferential loss correction	single-endedforward channel	channel 1reverse channel	N/Adate	2019/09/11time	15:52:11forward acquisition time	60.00reverse acquisition time	0.00gamma	496.2192k internal	0.2292k external	0.2292temperature offset calibration	0.9988default loss term (dB/km)	0.3790temperature slope calibration	1.0000multiplexer offset coefficient	1.0000multiplexer slope coefficient	1.0000fibre end	0.00T internal ref (°C)	42.94T ext. ref 1 (°C)	1.00T ext. ref 2 (°C)	38.31length (m)	temperature (°C)	Stokes	anti-Stokes-747.200	-137.909	0.115	0.013
-746.185	779.009	-0.092	0.258
-745.171	-200.000	0.058	0.326
-744.156	-200.000	-0.005	0.636
-743.142	-200.000	-0.017	0.100
-742.127	-33.188	-0.183	0.104
-741.112	-58.176	0.230	-0.102
-740.098	-55.184	-0.190	0.087
-739.083	-103.331	0.341	0.082
-738.069	-31.251	0.141	0.081
-737.054	121.181	0.137	-0.174
-736.039	350.713	0.086	-0.175
-735.025	800.000	-0.043	-0.158
-734.010	223.823	-0.216	-0.357
-732.996	-138.363	-0.484	-0.055
-731.981	-58.576	-0.341	0.151
-730.966	-59.657	0.089	-0.039
-729.952	-88.609	0.128	0.039
-728.937	-200.000	0.038	-0.234
-727.923	800.000	0.043	-0.186
-726.908	67.533	0.201	-0.210
-725.894	800.000	0.088	-0.343
-724.879	-52.914	0.075	-0.035
-723.864	288.398	-0.058	0.108
-722.850	-20.365	-0.258	-0.162
-721.835	283.906	0.093	0.171
-720.821	260.236	-0.050	-0.089
-719.806	82.185	-0.371	-0.412
-718.791	-200.000	-0.017	-0.138
-717.777	-19.676	-0.242	0.153
-716.762	-39.140	0.191	-0.103
-715.748	148.118	-0.163	0.225
-714.733	-110.276	-0.328	-0.070
-713.718	800.000	0.058	-0.250
-712.704	-200.000	-0.045	-0.223
-711.689	-96.324	0.056	0.015
-710.675	-200.000	0.013	-0.442
-709.660	128.505	0.136	-0.177
-708.645	794.643	-0.103	-0.290
-707.631	92.004	0.125	-0.144
-706.616	5.593	-0.226	-0.170
-705.602	106.087	0.093	0.112
-704.587	-200.000	-0.021	0.271
-703.572	261.778	-0.206	0.365
-702.558	127.226	-0.054	0.070
-701.543	-45.624	0.118	0.060
-700.529	-48.634	0.100	0.049
-699.514	-126.365	0.438	-0.067
-698.499	-38.577	0.141	-0.076
-697.485	345.806	-0.229	0.460
-696.470	-106.990	0.142	0.032
-695.456	656.093	-0.048	-0.126
-694.441	534.413	0.081	0.196
-693.426	164.793	-0.058	-0.084
-692.412	178.025	-0.181	0.269
-691.397	-94.689	-0.312	0.087
-690.383	108.974	0.030	0.036
-689.368	-23.857	-0.259	0.158
-688.354	513.060	0.065	-0.154
-687.339	-200.000	-0.037	0.233
-686.324	186.048	0.191	-0.290
-685.310	800.000	0.029	-0.108
-684.295	-61.256	-0.057	0.025
-683.281	800.000	0.009	-0.039
-682.266	743.459	-0.083	-0.227
-681.251	-200.000	0.018	-0.250
-680.237	-43.339	0.059	0.031
-679.222	400.590	-0.153	0.329
-678.208	28.279	-0.293	-0.252
-677.193	800.000	-0.052	0.207
-676.178	253.994	0.174	-0.304
-675.164	-131.976	-0.408	-0.054
-674.149	21.664	0.351	-0.292
-673.135	-78.593	0.025	-0.009
-672.120	-200.000	0.002	-0.028
-671.105	800.000	0.048	-0.147
-670.091	106.270	-0.232	-0.280
-669.076	-40.642	-0.147	-0.078
-668.062	-48.793	-0.247	-0.121
-667.047	-68.079	-0.285	0.113
-666.032	171.078	0.236	-0.346
-665.018	639.409	-0.047	-0.121
-664.003	800.000	0.050	0.185
-662.989	-35.776	-0.090	-0.050
-661.974	-200.000	-0.014	0.075
-660.959	-39.501	-0.273	0.146
-659.945	65.272	-0.226	0.233
-658.930	-63.014	-0.283	-0.119
-657.916	800.000	0.052	0.202
-656.901	-128.310	-0.124	-0.018
-655.886	-72.566	-0.163	0.062
-654.872	-72.688	0.345	0.130
-653.857	800.000	0.026	-0.108
-652.843	59.974	0.105	0.106
-651.828	800.000	-0.061	-0.241
-650.814	-114.581	-0.212	-0.041
-649.799	507.675	0.052	-0.122
-648.784	-200.000	-0.010	-0.191
-647.770	382.912	-0.198	-0.416
-646.755	61.560	0.106	0.108
-645.741	5.906	-0.148	-0.112
-644.726	104.953	0.101	0.122
-643.711	-102.405	0.215	-0.053
-642.697	-143.477	0.075	-0.007
-641.682	123.281	0.102	-0.131
-640.668	716.416	-0.137	-0.371
-639.653	422.927	-0.102	0.222
-638.638	-85.343	0.130	0.041
-637.624	-51.772	0.101	-0.048
-636.609	322.907	0.072	0.140
-635.595	17.562	-0.228	0.185
-634.580	-37.340	0.213	0.116
-633.565	792.355	0.016	0.044
-632.551	218.199	-0.020	-0.033
-631.536	-145.866	-0.223	0.020
-630.522	38.592	-0.241	-0.219
-629.507	7.443	0.188	-0.144
-628.492	-200.000	0.001	-0.030
-627.478	800.000	-0.109	-0.371
-626.463	-200.000	0.001	-0.313
-625.449	-23.141	0.320	0.196
-624.434	-200.000	0.034	-0.205
-623.419	-42.141	-0.113	-0.059
-622.405	-90.807	0.317	0.093
-621.390	-4.461	-0.132	-0.093
-620.376	3.083	0.051	0.037
-619.361	-200.000	-0.003	-0.134
-618.346	52.215	-0.101	-0.098
-617.332	800.000	0.107	0.329
-616.317	-200.000	0.005	0.085
-615.303	-133.790	-0.296	0.038
-614.288	-200.000	0.064	-0.291
-613.273	671.919	-0.172	-0.455
-612.259	-23.328	0.120	0.074
-611.244	-126.284	-0.137	-0.021
-610.230	-200.000	0.006	0.065
-609.215	216.707	0.185	0.300
-608.201	-143.261	-0.286	0.028
-607.186	208.122	0.133	0.211
-606.171	800.000	-0.024	-0.101
-605.157	-62.089	-0.199	0.084
-604.142	-8.321	0.167	-0.114
-603.128	-0.015	0.069	-0.050
-602.113	165.220	0.040	0.057
-601.098	-144.040	-0.220	0.021
-600.084	-175.752	0.139	0.004
-599.069	800.000	-0.063	-0.220
-598.055	12.269	-0.116	-0.091
-597.040	-83.217	-0.094	-0.031
-596.025	198.972	-0.097	0.151
-595.011	17.397	-0.087	-0.070
-593.996	-200.000	-0.043	0.208
-592.982	800.000	0.049	-0.162
-591.967	-62.657	-0.472	0.199
-590.952	-6.305	0.090	0.062
-589.938	495.474	0.065	-0.152
-588.923	-29.056	0.091	0.053
-587.909	-36.988	-0.268	-0.146
-586.894	50.194	0.146	-0.140
-585.879	-91.433	-0.611	-0.178
-584.865	-99.613	-0.029	-0.007
-583.850	72.824	0.117	-0.125
-582.836	81.407	0.143	0.158
-581.821	-200.000	0.015	0.086
-580.806	800.000	0.072	0.268
-579.792	-200.000	0.067	-0.392
-578.777	107.960	0.104	0.127
-577.763	43.954	0.176	-0.164
-576.748	-200.000	-0.040	-0.281
-575.733	-116.606	-0.306	-0.057
-574.719	336.549	0.059	-0.116
-573.704	-29.153	-0.210	0.123
-572.690	-200.000	-0.032	0.148
-571.675	-167.174	0.258	0.011
-570.661	262.194	-0.197	0.348
-569.646	82.751	0.162	0.179
-568.631	-200.000	0.008	0.071
-567.617	164.919	-0.115	0.164
-566.602	336.373	0.135	-0.265
-565.588	-124.709	-0.231	-0.036
-564.573	-127.931	0.150	0.022
-563.558	-78.501	0.269	-0.094
-562.544	-200.000	0.031	0.168
-561.529	-200.000	0.009	-0.295
-560.515	35.855	0.164	-0.147
-559.500	-200.000	-0.016	0.085
-558.485	-82.710	-0.088	0.029
-557.471	54.654	0.308	0.302
-556.456	-26.238	0.463	-0.276
-555.442	34.577	0.177	-0.157
-554.427	274.827	-0.085	0.152
-553.412	-99.156	0.113	0.029
-552.398	256.733	0.131	0.229
-551.383	-200.000	0.048	-0.282
-550.369	-67.789	-0.110	-0.044
-549.354	800.000	0.217	-0.647
-548.339	6.935	-0.252	0.191
-547.325	-77.673	0.165	-0.058
-546.310	80.362	0.031	0.033
-545.296	239.284	-0.203	0.343
-544.281	52.785	-0.134	-0.130
-543.266	205.262	0.162	-0.256
-542.252	671.104	0.045	0.119
-541.237	317.992	0.036	0.069
-540.223	-144.708	0.179	0.017
-539.208	-200.000	-0.017	0.087
-538.193	33.719	-0.190	-0.167
-537.179	44.517	-0.116	-0.109
-536.164	-93.879	-0.250	0.070
-535.150	150.257	-0.184	0.254
-534.135	111.587	0.085	-0.104
-533.121	92.510	0.121	-0.138
-532.106	630.635	0.093	-0.238
-531.091	-17.503	-0.170	-0.109
-530.077	-113.851	0.427	0.084
-529.062	-200.000	-0.020	0.125
-528.048	17.192	0.239	0.192
-527.033	-200.000	-0.005	0.039
-526.018	-3.679	-0.195	-0.138
-525.004	-200.000	0.064	0.388
-523.989	336.942	-0.084	0.165
-522.975	398.636	-0.045	0.096
-521.960	-86.516	-0.106	-0.033
-520.945	-93.566	0.110	0.031
-519.931	-120.050	0.188	0.033
-518.916	-9.992	0.302	0.204
-517.902	85.424	0.226	0.252
-516.887	-1.893	-0.326	-0.232
-515.872	41.766	-0.144	-0.133
-514.858	800.000	0.125	-0.444
-513.843	117.714	-0.225	-0.281
-512.829	-138.539	0.219	-0.024
-511.814	-80.479	-0.258	0.087
-510.799	-14.758	-0.044	-0.029
-509.785	172.892	-0.129	0.188
-508.770	36.259	0.142	0.127
-507.756	-200.000	-0.006	0.073
-506.741	-98.446	0.137	-0.036
-505.726	514.956	0.058	-0.138
-504.712	239.249	-0.043	0.072
-503.697	-200.000	-0.015	0.247
-502.683	348.865	-0.098	-0.196
-501.668	-93.658	-0.329	-0.092
-500.653	-84.385	-0.038	-0.012
-499.639	165.018	0.092	-0.131
-498.624	-40.287	-0.105	-0.055
-497.610	136.490	-0.153	-0.202
-496.595	-78.530	0.177	0.061
-495.581	-31.730	0.148	0.084
-494.566	800.000	0.036	0.114
-493.551	205.881	0.107	0.168
-492.537	170.528	-0.161	0.234
-491.522	-74.015	-0.311	-0.114
-490.508	103.061	0.053	-0.063
-489.493	800.000	0.016	-0.055
-488.478	643.927	0.034	0.087
-487.464	-200.000	-0.055	-0.386
-486.449	786.013	0.122	0.338
-485.435	-100.298	0.254	0.064
-484.420	-156.944	0.104	0.006
-483.405	592.319	-0.136	0.340
-482.391	413.642	-0.180	0.388
-481.376	-92.023	-0.339	0.097
-480.362	84.975	-0.324	-0.360
-479.347	-106.987	-0.087	-0.019
-478.332	74.057	-0.014	0.014
-477.318	185.476	-0.140	0.210
-476.303	314.484	0.148	0.281
-475.289	800.000	0.041	-0.138
-474.274	800.000	0.079	-0.239
-473.259	800.000	-0.150	-0.422
-472.245	714.903	0.020	0.053
-471.230	-162.500	0.337	0.017
-470.216	32.130	-0.132	-0.115
-469.201	-200.000	0.002	-0.063
-468.186	-200.000	0.050	0.429
-467.172	-200.000	0.254	0.000
-466.157	-48.932	-0.212	-0.103
-465.143	-200.000	-0.035	-0.209
-464.128	800.000	-0.002	0.007
-463.113	-200.000	-0.041	-0.419
-462.099	357.025	0.027	0.054
-461.084	774.205	0.088	0.243
-460.070	-200.000	0.032	0.412
-459.055	-128.563	0.105	-0.015
-458.040	228.130	0.072	0.119
-457.026	-58.437	0.184	-0.081
-456.011	800.000	-0.026	0.094
-454.997	15.572	0.182	0.145
-453.982	-85.365	0.104	-0.033
-452.968	224.671	-0.115	0.188
-451.953	-112.648	0.063	0.013
-450.938	-29.716	-0.074	0.043
-449.924	-200.000	-0.028	-0.161
-448.909	-64.539	0.092	0.038
-447.895	-30.882	0.159	-0.091
-446.880	800.000	-0.067	-0.199
-445.865	245.648	0.096	-0.163
-444.851	2.337	-0.090	0.066
-443.836	-42.271	-0.130	0.067
-442.822	-90.068	0.301	0.089
-441.807	119.710	-0.248	0.311
-440.792	181.541	0.111	-0.165
-439.778	720.289	-0.116	-0.313
-438.763	-37.438	0.312	0.169
-437.749	-146.416	0.353	-0.031
-436.734	-200.000	0.033	-0.207
-435.719	-91.050	0.161	0.047
-434.705	-13.155	0.243	0.160
-433.690	51.253	-0.123	0.118
-432.676	-200.000	0.077	0.380
-431.661	-21.258	-0.074	0.046
-430.646	-200.000	-0.014	-0.078
-429.632	-200.000	-0.016	0.101
-428.617	-93.819	-0.049	0.014
-427.603	-171.078	-0.029	0.001
-426.588	-187.635	0.135	-0.002
-425.573	800.000	-0.030	0.084
-424.559	-112.354	-0.118	-0.024
-423.544	-55.476	-0.180	-0.081
-422.530	304.377	0.081	0.151
-421.515	77.947	-0.156	0.168
-420.500	-132.951	-0.348	0.045
-419.486	32.871	0.090	-0.079
-418.471	22.772	0.093	-0.077
-417.457	-123.284	-0.169	0.027
-416.442	-89.010	0.038	-0.011
-415.428	-200.000	-0.058	0.354
-414.413	-93.127	-0.217	-0.061
-413.398	251.408	0.090	-0.155
-412.384	146.585	-0.188	-0.255
-411.369	-153.486	-0.179	0.013
-410.355	391.251	0.048	-0.102
-409.340	126.824	-0.135	-0.172
-408.325	-119.019	-0.409	-0.072
-407.311	-172.745	0.382	-0.012
-406.296	-142.501	0.308	0.031
-405.282	-49.044	-0.244	-0.118
-404.267	-73.907	0.177	-0.065
-403.252	800.000	-0.079	0.284
-402.238	434.869	-0.017	0.037
-401.223	-106.557	0.240	-0.054
-400.209	-120.028	0.361	-0.062
-399.194	-77.629	-0.136	-0.048
-398.179	-54.369	0.247	0.113
-397.165	800.000	0.123	0.429
-396.150	-88.282	0.214	0.065
-395.136	-139.629	0.118	-0.013
-394.121	-200.000	0.026	0.200
-393.106	52.524	-0.089	-0.086
-392.092	416.758	0.032	-0.068
-391.077	104.798	-0.116	-0.138
-390.063	800.000	0.046	-0.167
-389.048	-77.651	-0.190	-0.067
-388.033	354.067	-0.057	0.114
-387.019	800.000	-0.051	0.186
-386.004	-200.000	0.028	0.158
-384.990	-200.000	-0.030	0.458
-383.975	800.000	-0.034	0.119
-382.960	-165.351	0.183	0.008
-381.946	800.000	0.027	0.076
-380.931	16.483	-0.316	-0.252
-379.917	800.000	-0.056	0.239
-378.902	-53.153	0.150	0.070
-377.888	-64.330	0.330	-0.136
-376.873	22.365	0.120	-0.099
-375.858	-30.260	-0.379	-0.217
-374.844	523.286	-0.197	-0.466
-373.829	13.047	-0.180	0.140
-372.815	-103.348	0.302	-0.072
-371.800	90.057	-0.087	0.098
-370.785	800.000	-0.047	0.160
-369.771	-3.801	-0.137	-0.096
-368.756	-123.353	-0.177	-0.029
-367.742	-78.095	0.071	-0.025
-366.727	-156.462	0.388	0.024
-365.712	800.000	0.038	-0.126
-364.698	-184.365	-0.105	0.002
-363.683	-57.473	-0.223	-0.099
-362.669	267.446	-0.225	0.397
-361.654	800.000	0.036	0.140
-360.639	306.223	0.087	0.164
-359.625	800.000	0.111	-0.439
-358.610	26.323	0.088	-0.075
-357.596	190.468	0.072	-0.109
-356.581	-81.173	0.068	0.023
-355.566	100.223	-0.138	0.161
-354.552	-49.607	-0.179	0.086
-353.537	800.000	0.017	-0.068
-352.523	-109.437	0.279	0.059
-351.508	-106.490	-0.114	-0.026
-350.493	-158.490	0.200	0.012
-349.479	411.108	-0.123	-0.264
-348.464	16.087	0.340	-0.270
-347.450	-170.493	0.267	-0.009
-346.435	-185.840	0.184	0.003
-345.420	800.000	0.058	-0.165
-344.406	-59.017	0.307	0.134
-343.391	47.817	-0.190	0.179
-342.377	-200.000	-0.002	-0.168
-341.362	-200.000	-0.016	0.177
-340.348	252.523	0.133	0.229
-339.333	-152.526	0.359	0.026
-338.318	-73.776	-0.176	0.065
-337.304	183.262	0.091	0.135
-336.289	800.000	0.015	-0.051
-335.275	800.000	-0.028	0.086
-334.260	-80.845	0.141	-0.047
-333.245	52.769	-0.149	-0.144
-332.231	151.095	-0.215	-0.294
-331.216	-79.010	0.064	-0.022
-330.202	-9.634	0.174	0.117
-329.187	-147.692	-0.337	0.028
-328.172	56.249	0.278	0.272
-327.158	284.068	-0.030	-0.054
-326.143	271.498	0.116	-0.206
-325.129	545.694	0.089	-0.215
-324.114	-200.000	-0.003	-0.162
-323.099	800.000	-0.059	-0.197
-322.085	24.843	-0.115	0.096
-321.070	9.109	0.239	-0.182
-320.056	349.876	-0.227	-0.452
-319.041	-200.000	-0.094	-0.430
-318.026	-91.998	0.190	-0.054
-317.012	6.931	0.201	0.151
-315.997	11.202	0.161	-0.124
-314.983	27.372	-0.118	0.100
-313.968	-125.915	0.300	0.046
-312.953	131.620	-0.127	0.165
-311.939	-200.000	0.039	0.186
-310.924	800.000	-0.054	0.201
-309.910	-200.000	0.047	-0.267
-308.895	137.686	0.175	-0.231
-307.880	-119.682	-0.248	0.043
-306.866	-35.210	0.267	0.146
-305.851	-86.384	-0.266	-0.082
-304.837	334.804	0.184	-0.359
-303.822	-101.125	0.455	0.112
-302.807	15.402	-0.264	0.208
-301.793	-200.000	0.014	-0.331
-300.778	-22.208	0.052	-0.032
-299.764	-63.735	0.101	0.042
-298.749	36.941	-0.252	-0.224
-297.735	628.642	0.038	0.096
-296.720	800.000	0.029	-0.099
-295.705	-144.505	-0.173	0.016
-294.691	-78.068	-0.134	0.046
-293.676	-200.000	-0.060	-0.294
-292.662	-36.059	-0.241	0.131
-291.647	464.699	0.102	0.229
-290.632	-200.000	0.010	-0.359
-289.618	-200.000	-0.088	-0.387
-288.603	800.000	-0.086	-0.326
-287.589	-57.339	-0.086	0.038
-286.574	-142.043	0.223	-0.022
-285.559	53.991	-0.238	-0.230
-284.545	763.050	0.078	-0.213
-283.530	-30.012	-0.361	0.206
-282.516	-200.000	0.353	0.001
-281.501	337.134	-0.177	-0.345
-280.486	-72.470	-0.025	0.009
-279.472	108.682	0.167	0.201
-278.457	-37.360	0.191	0.103
-277.443	-77.426	0.243	-0.085
-276.428	-92.555	0.225	0.064
-275.413	-169.860	-0.241	0.009
-274.399	166.349	-0.339	0.483
-273.384	-95.890	0.077	0.021
-272.370	187.712	0.125	-0.187
-271.355	47.562	-0.324	0.304
-270.340	-200.000	0.060	0.308
-269.326	316.160	0.246	0.466
-268.311	127.032	-0.176	-0.225
-267.297	28.745	-0.334	0.284
-266.282	291.970	0.122	0.224
-265.267	-144.993	0.344	-0.032
-264.253	-49.092	0.154	-0.074
-263.238	63.541	0.134	0.136
-262.224	-103.781	-0.060	0.014
-261.209	8.437	-0.132	-0.100
-260.195	-146.617	-0.256	-0.022
-259.180	94.059	-0.070	0.080
-258.165	-200.000	0.004	-0.067
-257.151	116.804	-0.206	0.254
-256.136	37.338	-0.086	0.076
-255.122	800.000	-0.093	0.283
-254.107	-171.401	0.133	-0.004
-253.092	375.753	-0.135	-0.276
-252.078	104.714	-0.145	0.172
-251.063	-37.292	-0.131	-0.070
-250.049	417.082	0.060	0.130
-249.034	-57.266	-0.137	0.060
-248.019	504.400	-0.081	0.187
-247.005	395.359	0.065	0.136
-245.990	-67.769	0.062	-0.025
-244.976	800.000	-0.083	0.254
-243.961	369.877	-0.046	-0.094
-242.946	-16.965	0.184	-0.116
-241.932	-200.000	-0.052	0.259
-240.917	-39.417	0.283	-0.149
-239.903	-143.332	0.302	0.029
-238.888	-1.686	0.153	0.108
-237.873	483.492	0.131	-0.299
-236.859	12.046	-0.117	-0.090
-235.844	-126.602	-0.116	0.017
-234.830	242.397	-0.288	-0.483
-233.815	-47.743	-0.182	-0.088
-232.800	253.762	0.074	0.126
-231.786	39.055	-0.107	-0.096
-230.771	4.890	0.205	0.151
-229.757	490.643	-0.024	0.055
-228.742	-192.764	-0.378	-0.003
-227.727	-200.000	-0.006	-0.259
-226.713	-105.706	-0.395	0.090
-225.698	-200.000	-0.000	0.136
-224.684	-200.000	-0.008	-0.270
-223.669	-148.026	-0.145	-0.012
-222.655	-49.998	0.059	-0.028
-221.640	49.578	0.192	0.181
-220.625	800.000	-0.030	-0.103
-219.611	64.545	-0.051	-0.052
-218.596	-133.240	-0.117	0.015
-217.582	35.723	-0.203	-0.179
-216.567	336.589	-0.039	0.077
-215.552	-200.000	-0.022	0.138
-214.538	134.199	-0.100	0.130
-213.523	-104.171	0.271	-0.063
-212.509	800.000	0.084	0.365
-211.494	244.108	-0.028	-0.048
-210.479	175.284	-0.040	-0.059
-209.465	-107.577	0.131	-0.029
-208.450	800.000	0.092	-0.318
-207.436	-200.000	0.008	0.217
-206.421	-200.000	0.054	0.316
-205.406	225.388	-0.122	0.199
-204.392	-98.893	0.170	-0.043
-203.377	-98.295	-0.645	0.166
-202.363	-162.915	0.150	-0.007
-201.348	166.693	0.236	-0.335
-200.333	247.203	-0.046	-0.079
-199.319	293.823	-0.086	0.157
-198.304	78.965	0.131	0.141
-197.290	800.000	-0.088	0.325
-196.275	-130.312	0.121	0.016
-195.260	-96.983	-0.211	-0.055
-194.246	-102.944	-0.141	0.034
-193.231	-95.113	-0.101	-0.027
-192.217	-3.151	-0.093	0.065
-191.202	104.854	0.119	-0.141
-190.187	540.853	-0.146	-0.348
-189.173	9.922	0.201	0.153
-188.158	-200.000	-0.006	0.233
-187.144	-81.451	0.276	0.091
-186.129	343.216	-0.051	0.100
-185.114	276.179	0.060	-0.106
-184.100	-18.511	-0.251	0.157
-183.085	-9.983	-0.143	0.095
-182.071	772.252	0.024	0.066
-181.056	-200.000	-0.004	-0.037
-180.042	-200.000	-0.068	-0.444
-179.027	-101.784	-0.158	0.038
-178.012	-106.470	0.097	0.022
-176.998	-137.241	-0.267	0.030
-175.983	47.238	0.049	0.046
-174.969	685.089	0.081	0.213
-173.954	-8.239	-0.070	0.047
-172.939	-8.761	0.138	0.093
-171.925	800.000	0.088	-0.350
-170.910	800.000	-0.047	0.135
-169.896	57.605	-0.333	-0.325
-168.881	-200.000	-0.034	-0.193
-167.866	-12.563	0.258	0.168
-166.852	800.000	0.155	0.592
-165.837	-14.237	0.255	-0.165
-164.823	152.400	0.137	0.187
-163.808	-200.000	0.147	0.000
-162.793	-125.883	-0.148	-0.022
-161.779	-200.000	-0.035	0.176
-160.764	800.000	-0.033	0.100
-159.750	-8.635	-0.250	-0.168
-158.735	95.308	-0.168	-0.192
-157.720	-144.914	-0.143	-0.013
-156.706	25.314	0.137	0.114
-155.691	-200.000	0.003	-0.108
-154.677	14.585	-0.045	0.035
-153.662	-200.000	0.021	0.335
-152.647	130.251	-0.133	0.171
-151.633	-43.824	-0.052	0.026
-150.618	-7.283	0.151	-0.103
-149.604	-0.471	-0.258	0.183
-148.589	-112.983	0.131	-0.026
-147.574	-64.437	-0.312	-0.127
-146.560	790.728	0.104	0.285
-145.545	-200.000	-0.035	-0.175
-144.531	138.390	0.021	-0.027
-143.516	-200.000	0.016	-0.181
-142.502	-133.083	-0.073	-0.009
-141.487	30.286	0.180	0.154
-140.472	-28.160	0.238	0.138
-139.458	-190.553	0.284	0.003
-138.443	-51.323	0.293	-0.137
-137.429	-145.287	-0.146	0.013
-136.414	-200.000	0.005	0.334
-135.399	-200.000	0.094	0.461
-134.385	7.621	-0.084	-0.063
-133.370	469.024	-0.128	0.288
-132.356	-97.098	-0.166	0.043
-131.341	-10.708	-0.050	-0.033
-130.326	491.955	0.062	-0.141
-129.312	-200.000	0.050	0.616
-128.297	66.628	-0.160	-0.163
-127.283	-200.000	0.054	-0.240
-126.268	800.000	0.047	0.140
-125.253	-32.099	0.204	-0.114
-124.239	-192.054	-0.090	0.001
-123.224	98.176	0.147	-0.169
-122.210	-200.000	0.010	-0.225
-121.195	306.838	0.088	0.164
-120.180	-85.195	0.156	0.049
