DTS Sentinel unit serial number:	SN413079Multiplexer serial number:	ORYXHardware model number:	OX4-SRSoftware version number:	ORYX F/W v4.00 Oryx Data Collector v3.7.2.0data status	okinstallation	princeton_trtdifferential loss correction	single-endedforward channel	channel 1reverse channel	N/Adate	2019/09/10time	18:00:11forward acquisition time	60.00reverse acquisition time	0.00gamma	496.2192k internal	0.2301k external	0.2301temperature offset calibration	0.9930default loss term (dB/km)	0.3790temperature slope calibration	1.0000multiplexer offset coefficient	1.0000multiplexer slope coefficient	1.0000fibre end	0.00T internal ref (°C)	37.12T ext. ref 1 (°C)	-0.32T ext. ref 2 (°C)	29.61length (m)	temperature (°C)	Stokes	anti-Stokes-747.200	-91.792	0.098	0.029
-746.185	-29.628	0.118	-0.069
-745.171	218.299	0.072	0.116
-744.156	-71.172	-0.159	0.061
-743.142	96.820	-0.255	0.297
-742.127	-200.000	0.002	0.266
-741.112	-50.500	-0.030	-0.015
-740.098	16.121	0.174	-0.139
-739.083	111.189	-0.051	-0.063
-738.069	-200.000	0.036	0.207
-737.054	210.422	-0.077	-0.123
-736.039	-29.573	-0.002	0.001
-735.025	4.708	-0.242	0.181
-734.010	-99.906	-0.134	-0.034
-732.996	-200.000	-0.022	-0.154
-731.981	800.000	-0.101	-0.419
-730.966	24.271	-0.067	0.056
-729.952	188.819	-0.058	-0.089
-728.937	122.063	0.160	-0.204
-727.923	-94.977	0.204	-0.056
-726.908	-1.590	0.075	-0.054
-725.894	-88.683	-0.174	-0.053
-724.879	-141.891	-0.102	0.010
-723.864	148.866	-0.180	0.248
-722.850	-200.000	-0.078	-0.480
-721.835	27.472	-0.101	0.087
-720.821	368.783	-0.106	0.219
-719.806	-43.409	-0.113	0.058
-718.791	-107.016	-0.165	-0.037
-717.777	-54.493	0.216	0.099
-716.762	-43.462	0.183	-0.094
-715.748	5.537	-0.236	-0.177
-714.733	800.000	-0.049	-0.155
-713.718	-200.000	-0.040	0.292
-712.704	-63.990	-0.067	0.028
-711.689	-0.022	-0.106	-0.077
-710.675	162.869	-0.076	0.109
-709.660	-200.000	-0.007	0.173
-708.645	-200.000	0.048	0.289
-707.631	800.000	0.037	0.113
-706.616	370.389	0.073	-0.151
-705.602	800.000	-0.037	-0.104
-704.587	800.000	-0.047	-0.141
-703.572	-148.598	-0.298	0.025
-702.558	-5.877	-0.100	-0.070
-701.543	285.183	0.038	0.070
-700.529	-19.457	0.312	0.197
-699.514	-107.816	0.221	0.049
-698.499	77.916	-0.410	0.445
-697.485	800.000	0.178	0.505
-696.470	99.796	0.101	-0.119
-695.456	-106.580	0.327	0.074
-694.441	41.008	-0.191	0.175
-693.426	-2.297	-0.247	-0.176
-692.412	-49.729	0.223	0.108
-691.397	52.740	-0.134	-0.130
-690.383	-14.774	-0.237	0.155
-689.368	261.891	-0.171	0.301
-688.354	800.000	0.023	0.091
-687.339	-29.098	-0.224	0.131
-686.324	-83.287	-0.199	0.065
-685.310	-200.000	0.018	0.122
-684.295	-147.014	0.184	-0.016
-683.281	-113.743	-0.199	0.039
-682.266	580.867	0.076	0.189
-681.251	546.133	0.104	-0.254
-680.237	800.000	-0.114	-0.409
-679.222	222.348	-0.127	0.208
-678.208	-200.000	-0.009	-0.114
-677.193	-108.690	0.082	0.018
-676.178	39.642	-0.172	0.157
-675.164	-73.633	-0.126	-0.047
-674.149	-20.613	0.117	-0.073
-673.135	-156.282	-0.134	0.009
-672.120	159.850	0.140	-0.198
-671.105	-200.000	-0.030	-0.153
-670.091	-200.000	0.034	0.460
-669.076	-200.000	-0.024	-0.158
-668.062	-25.469	-0.226	-0.136
-667.047	-200.000	-0.002	0.289
-666.032	182.627	-0.122	0.183
-665.018	-200.000	-0.008	0.214
-664.003	-26.460	0.095	0.057
-662.989	4.238	-0.278	-0.207
-661.974	-138.291	0.021	-0.002
-660.959	197.692	-0.078	0.121
-659.945	800.000	-0.023	0.097
-658.930	-157.065	0.279	0.017
-657.916	800.000	-0.035	0.112
-656.901	-159.192	0.173	-0.010
-655.886	-200.000	-0.005	-0.072
-654.872	-65.158	0.208	0.085
-653.857	-200.000	-0.275	0.001
-652.843	-127.461	0.099	-0.015
-651.828	-200.000	0.027	0.131
-650.814	53.160	0.207	0.201
-649.799	590.722	0.040	0.101
-648.784	-169.321	-0.272	0.010
-647.770	36.645	0.065	-0.059
-646.755	-5.128	0.123	0.086
-645.741	-37.716	0.302	0.163
-644.726	-85.976	-0.138	-0.043
-643.711	627.922	-0.132	-0.339
-642.697	-200.000	0.017	0.092
-641.682	455.654	0.052	-0.118
-640.668	45.156	0.157	-0.147
-639.653	-42.663	0.235	0.121
-638.638	800.000	-0.025	0.074
-637.624	800.000	-0.066	-0.229
-636.609	-88.111	-0.177	0.054
-635.595	349.582	0.154	-0.309
-634.580	-89.959	-0.156	0.046
-633.565	800.000	0.046	-0.188
-632.551	143.816	0.166	0.224
-631.536	-76.631	0.146	0.052
-630.522	78.464	-0.190	-0.206
-629.507	281.315	0.093	-0.169
-628.492	566.814	0.129	0.318
-627.478	-77.253	-0.298	-0.105
-626.463	447.995	0.214	-0.478
-625.449	217.261	0.078	-0.126
-624.434	-98.259	-0.288	0.075
-623.419	312.877	-0.118	-0.224
-622.405	800.000	-0.069	0.252
-621.390	-88.881	-0.499	0.150
-620.376	88.724	0.302	-0.341
-619.361	47.351	-0.004	0.004
-618.346	119.861	0.118	-0.148
-617.332	473.070	0.095	-0.217
-616.317	65.250	-0.087	0.089
-615.303	-121.503	-0.301	-0.051
-614.288	254.136	0.110	-0.191
-613.273	171.901	0.210	0.306
-612.259	40.455	0.178	0.162
-611.244	38.231	-0.117	-0.106
-610.230	-200.000	0.010	-0.103
-609.215	312.995	0.103	0.197
-608.201	43.069	-0.246	0.227
-607.186	-105.426	-0.328	-0.076
-606.171	104.962	-0.356	-0.426
-605.157	-8.299	-0.220	0.150
-604.142	800.000	0.056	0.215
-603.128	781.433	-0.063	-0.175
-602.113	-107.535	0.210	0.047
-601.098	-115.340	0.076	-0.015
-600.084	98.825	-0.072	-0.085
-599.069	111.448	0.229	-0.279
-598.055	-61.791	0.243	-0.103
-597.040	-200.000	0.041	0.232
-596.025	324.079	0.062	-0.121
-595.011	-56.766	-0.251	-0.112
-593.996	-58.527	0.162	-0.071
-592.982	333.260	0.093	0.183
-591.967	10.449	-0.222	-0.172
-590.952	-137.022	-0.216	-0.025
-589.938	-200.000	0.134	0.000
-588.923	-200.000	-0.053	-0.278
-587.909	291.085	-0.190	-0.349
-586.894	6.866	-0.055	0.041
-585.879	-200.000	0.026	0.152
-584.865	-108.617	0.129	0.028
-583.850	-60.173	0.239	0.103
-582.836	-4.614	-0.150	-0.105
-581.821	318.703	-0.113	0.217
-580.806	-200.000	0.054	0.373
-579.792	-44.721	-0.235	-0.119
-578.777	-11.906	0.317	-0.210
-577.763	-137.298	-0.309	0.036
-576.748	800.000	-0.072	-0.270
-575.733	-73.798	0.183	0.067
-574.719	-54.780	0.076	-0.035
-573.704	-193.082	0.502	-0.005
-572.690	800.000	0.044	0.166
-571.675	-76.950	-0.216	-0.076
-570.661	226.227	0.163	0.268
-569.646	185.997	-0.008	-0.012
-568.631	-51.071	0.142	0.068
-567.617	800.000	0.031	0.135
-566.602	428.056	0.131	0.287
-565.588	340.534	-0.126	-0.250
-564.573	109.195	-0.226	-0.274
-563.558	-29.931	0.168	-0.097
-562.544	-185.590	0.243	0.004
-561.529	-65.278	-0.279	-0.114
-560.515	263.703	-0.247	-0.434
-559.500	800.000	-0.083	0.243
-558.485	379.844	0.066	-0.137
-557.471	800.000	0.011	0.048
-556.456	51.782	0.181	0.174
-555.442	-109.311	0.038	0.008
-554.427	-200.000	-0.027	-0.133
-553.412	-36.054	0.042	-0.023
-552.398	4.499	-0.202	0.150
-551.383	-108.810	0.157	-0.034
-550.369	-161.195	-0.408	-0.021
-549.354	5.990	0.065	-0.049
-548.339	-99.529	0.146	-0.037
-547.325	-200.000	-0.020	0.171
-546.310	800.000	-0.058	-0.173
-545.296	150.814	-0.181	-0.249
-544.281	-200.000	-0.036	-0.258
-543.266	-200.000	-0.064	0.292
-542.252	-86.263	0.135	-0.042
-541.237	800.000	0.103	-0.310
-540.223	-100.663	-0.159	-0.040
-539.208	-162.969	-0.361	0.018
-538.193	-7.656	0.342	-0.234
-537.179	217.575	-0.146	0.236
-536.164	-200.000	0.015	-0.301
-535.150	-171.121	0.297	-0.010
-534.135	36.842	-0.086	-0.077
-533.121	68.049	-0.090	0.093
-532.106	-90.328	-0.095	-0.028
-531.091	555.703	0.097	0.235
-530.077	533.234	-0.021	0.050
-529.062	-85.806	-0.202	-0.063
-528.048	706.951	0.050	0.133
-527.033	-99.538	-0.211	0.054
-526.018	800.000	-0.045	0.171
-525.004	-89.581	-0.098	-0.029
-523.989	-200.000	0.027	-0.268
-522.975	-200.000	0.010	-0.046
-521.960	220.036	0.125	-0.202
-520.945	-73.723	0.118	-0.043
-519.931	-200.000	-0.007	0.277
-518.916	-200.000	0.005	-0.070
-517.902	-30.496	-0.370	0.212
-516.887	267.257	0.134	-0.236
-515.872	-160.165	-0.363	-0.020
-514.858	321.094	0.076	0.145
-513.843	800.000	-0.078	0.229
-512.829	-63.218	-0.192	0.080
-511.814	-198.825	0.083	0.000
-510.799	40.409	-0.103	-0.094
-509.785	563.312	-0.040	-0.097
-508.770	-95.196	-0.098	-0.027
-507.756	-109.474	-0.066	0.014
-506.741	-0.020	0.161	-0.116
-505.726	139.591	-0.056	0.074
-504.712	246.453	0.127	0.216
-503.697	207.977	-0.135	-0.213
-502.683	45.655	0.182	0.170
-501.668	-91.571	0.165	0.047
-500.653	-141.472	0.290	0.030
-499.639	-114.948	0.068	-0.013
-498.624	-23.591	0.066	0.040
-497.610	207.524	0.078	-0.123
-496.595	800.000	0.098	0.294
-495.581	199.385	0.120	-0.186
-494.566	-200.000	0.014	-0.270
-493.551	-124.343	0.533	0.084
-492.537	-200.000	-0.010	0.167
-491.522	-200.000	0.003	-0.020
-490.508	-128.211	0.137	-0.020
-489.493	800.000	0.028	0.082
-488.478	126.392	-0.096	0.122
-487.464	291.074	-0.015	-0.027
-486.449	-96.492	-0.203	0.054
-485.435	60.757	0.236	0.236
-484.420	-40.582	-0.175	-0.092
-483.405	-99.229	-0.299	0.076
-482.391	-19.888	-0.256	0.159
-481.376	-112.092	0.189	-0.038
-480.362	23.756	0.233	0.194
-479.347	34.524	0.061	-0.053
-478.332	-56.171	0.184	0.083
-477.318	-200.000	-0.014	0.351
-476.303	800.000	-0.075	-0.303
-475.289	-122.267	0.207	-0.034
-474.274	46.924	0.081	-0.076
-473.259	800.000	-0.145	-0.471
-472.245	38.230	0.190	-0.171
-471.230	-200.000	0.003	0.322
-470.216	69.531	-0.146	-0.152
-469.201	-200.000	0.088	-0.394
-468.186	93.385	-0.235	0.269
-467.172	70.998	-0.094	-0.098
-466.157	-200.000	0.007	-0.324
-465.143	-7.791	0.280	-0.190
-464.128	-31.888	-0.267	0.151
-463.113	6.014	-0.097	-0.072
-462.099	99.879	-0.117	-0.137
-461.084	-51.601	-0.062	-0.029
-460.070	222.456	-0.105	-0.171
-459.055	-200.000	-0.008	0.241
-458.040	93.693	0.298	-0.340
-457.026	-82.247	-0.126	-0.041
-456.011	800.000	-0.034	-0.107
-454.997	-200.000	-0.035	0.432
-453.982	139.152	-0.168	0.222
-452.968	-200.000	0.035	-0.363
-451.953	-91.798	0.259	0.074
-450.938	-8.611	0.072	0.049
-449.924	64.575	0.018	0.018
-448.909	-200.000	-0.003	0.102
-447.895	637.867	-0.075	0.191
-446.880	-135.400	-0.418	0.050
-445.865	80.139	0.220	0.238
-444.851	-200.000	0.011	0.087
-443.836	-21.690	0.032	0.020
-442.822	-200.000	0.007	0.210
-441.807	-100.356	0.168	0.042
-440.792	-132.160	0.122	0.016
-439.778	-100.879	0.122	0.030
-438.763	603.867	-0.124	-0.312
-437.749	-125.790	-0.056	0.009
-436.734	-164.881	-0.300	0.014
-435.719	21.098	-0.197	0.161
-434.705	-200.000	0.051	0.456
-433.690	-118.935	-0.146	0.026
-432.676	800.000	-0.066	0.265
-431.661	-102.559	-0.398	-0.096
-430.646	-200.000	0.013	0.288
-429.632	321.212	0.161	0.307
-428.617	-200.000	0.007	0.163
-427.603	302.698	-0.095	-0.177
-426.588	-38.705	-0.389	-0.207
-425.573	-48.615	0.283	-0.137
-424.559	-87.394	0.049	0.015
-423.544	-97.882	-0.086	0.022
-422.530	191.120	-0.209	0.316
-421.515	-200.000	-0.017	0.258
-420.500	-59.787	-0.173	-0.074
-419.486	-155.528	0.186	-0.012
-418.471	-136.188	-0.237	-0.028
-417.457	-48.733	-0.255	0.123
-416.442	530.839	0.065	0.156
-415.428	-92.506	-0.188	-0.053
-414.413	424.096	-0.112	-0.242
-413.398	-160.890	0.563	0.030
-412.384	800.000	-0.087	-0.250
-411.369	800.000	-0.109	0.405
-410.355	-143.752	0.257	0.024
-409.340	-139.125	0.280	-0.030
-408.325	-171.877	-0.216	-0.007
-407.311	410.148	-0.032	-0.068
-406.296	55.969	0.225	0.219
-405.282	353.129	-0.198	0.395
-404.267	-134.988	0.441	-0.054
-403.252	264.013	-0.086	-0.150
-402.238	-165.994	-0.063	0.003
-401.223	-55.068	-0.221	-0.100
-400.209	567.867	0.160	-0.391
-399.194	701.483	0.077	-0.205
-398.179	239.293	0.084	0.140
-397.165	-200.000	0.008	-0.164
-396.150	9.098	-0.256	-0.195
-395.136	-200.000	0.032	-0.276
-394.121	551.021	0.051	0.123
-393.106	-95.437	-0.318	-0.086
-392.092	-166.409	0.109	-0.005
-391.077	-86.115	-0.137	-0.043
-390.063	80.275	-0.149	-0.161
-389.048	-200.000	-0.018	-0.218
-388.033	33.597	0.102	-0.089
-387.019	194.483	-0.184	0.281
-386.004	-200.000	0.015	-0.127
-384.990	30.311	0.191	-0.164
-383.975	-18.805	-0.136	-0.085
-382.960	-200.000	-0.045	-0.338
-381.946	-200.000	-0.010	0.274
-380.931	-104.725	-0.356	0.082
-379.917	-167.142	0.439	-0.018
-378.902	800.000	0.108	0.300
-377.888	-70.605	-0.146	-0.056
-376.873	374.155	0.106	-0.217
-375.858	-200.000	-0.008	0.176
-374.844	-200.000	0.007	-0.146
-373.829	7.562	0.120	0.090
-372.815	-112.138	0.133	0.027
-371.800	648.122	0.111	-0.284
-370.785	-200.000	-0.057	0.353
-369.771	800.000	-0.072	0.263
-368.756	-42.253	-0.250	0.128
-367.742	-200.000	-0.005	0.136
-366.727	800.000	0.125	-0.387
-365.712	-200.000	0.007	0.142
-364.698	238.343	0.114	-0.190
-363.683	215.781	0.200	0.319
-362.669	-140.039	0.396	0.042
-361.654	-139.459	-0.251	-0.027
-360.639	-200.000	0.022	0.136
-359.625	-200.000	-0.002	0.426
-358.610	-92.430	0.441	0.125
-357.596	53.518	-0.031	-0.030
-356.581	-200.000	-0.001	0.086
-355.566	-200.000	0.000	-0.161
-354.552	-185.826	-0.183	0.003
-353.537	-9.978	0.390	-0.260
-352.523	13.959	-0.081	-0.063
-351.508	214.984	-0.099	-0.157
-350.493	800.000	0.044	-0.132
-349.479	43.189	-0.256	0.235
-348.464	29.671	0.088	0.075
-347.450	-41.096	0.111	-0.058
-346.435	-88.209	0.333	-0.100
-345.420	156.671	0.064	-0.088
-344.406	-32.280	-0.134	0.075
-343.391	-124.840	-0.099	0.015
-342.377	-85.395	0.220	0.069
-341.362	317.700	0.051	-0.097
-340.348	252.895	-0.104	-0.178
-339.333	334.225	-0.029	-0.056
-338.318	-136.093	0.147	0.017
-337.304	-175.408	0.314	0.009
-336.289	-200.000	-0.027	0.206
-335.275	38.947	0.130	-0.116
-334.260	476.823	0.118	-0.268
-333.245	-15.365	0.028	0.018
-332.231	-200.000	0.000	0.163
-331.216	-200.000	0.018	0.130
-330.202	112.777	-0.105	-0.128
-329.187	-25.793	-0.165	0.097
-328.172	800.000	0.066	0.200
-327.158	189.513	0.104	0.157
-326.143	-200.000	0.034	-0.216
-325.129	-161.138	0.487	-0.026
-324.114	53.642	-0.229	-0.221
-323.099	-149.660	0.109	0.009
-322.085	58.093	-0.301	0.296
-321.070	59.182	0.189	-0.187
-320.056	-200.000	-0.014	0.115
-319.041	32.709	0.203	0.176
-318.026	800.000	-0.041	0.175
-317.012	520.069	-0.104	-0.244
-315.997	-200.000	-0.026	0.156
-314.983	286.048	0.094	0.169
-313.968	-41.024	0.255	-0.132
-312.953	-149.084	0.225	0.018
-311.939	-200.000	0.027	-0.347
-310.924	29.300	-0.042	0.036
-309.910	800.000	0.043	-0.135
-308.895	-50.010	0.169	-0.080
-307.880	800.000	0.016	-0.051
-306.866	118.737	0.117	-0.145
-305.851	311.732	-0.035	-0.066
-304.837	-200.000	-0.006	0.228
-303.822	800.000	0.072	0.239
-302.807	-71.247	0.269	0.101
-301.793	317.336	-0.074	0.140
-300.778	-200.000	0.003	0.110
-299.764	-27.326	-0.309	-0.180
-298.749	-162.801	0.121	-0.006
-297.735	800.000	-0.025	0.095
-296.720	129.008	-0.096	0.123
-295.705	-4.556	0.272	0.188
-294.691	-133.648	-0.345	0.043
-293.676	800.000	0.086	0.276
-292.662	-58.423	-0.106	0.046
-291.647	-73.100	0.084	0.031
-290.632	169.664	-0.188	-0.269
-289.618	-59.761	0.310	0.133
-288.603	-200.000	0.009	0.059
-287.589	390.409	0.178	0.370
-286.574	223.492	-0.173	0.280
-285.559	141.247	0.229	0.304
-284.545	102.007	0.132	-0.155
-283.530	800.000	-0.076	0.290
-282.516	-22.458	-0.152	0.092
-281.501	501.731	-0.119	-0.274
-280.486	66.507	-0.247	0.252
-279.472	-200.000	0.009	-0.104
-278.457	-137.188	0.178	-0.020
-277.443	-20.719	0.107	-0.066
-276.428	491.992	-0.142	-0.326
-275.413	35.380	-0.066	-0.058
-274.399	-90.756	0.218	0.063
-273.384	60.675	0.127	0.126
-272.370	-200.000	0.000	0.023
-271.355	165.619	0.239	0.338
-270.340	-36.811	0.426	-0.229
-269.326	-103.792	-0.145	-0.034
-268.311	-200.000	-0.014	0.177
-267.297	-168.524	-0.247	-0.009
-266.282	-15.796	-0.284	-0.181
-265.267	-106.306	-0.207	-0.046
-264.253	22.736	-0.224	0.183
-263.238	58.282	0.038	-0.037
-262.224	-200.000	0.005	0.121
-261.209	800.000	-0.094	0.358
-260.195	-200.000	-0.114	0.523
-259.180	800.000	-0.060	0.240
-258.165	67.165	-0.305	0.311
-257.151	36.164	-0.067	-0.059
-256.136	-200.000	0.019	-0.183
-255.122	800.000	-0.064	-0.187
-254.107	-65.691	-0.289	-0.116
-253.092	-23.541	-0.129	0.078
-252.078	503.805	0.101	0.234
-251.063	-200.000	0.036	-0.166
-250.049	-126.464	0.030	0.004
-249.034	-30.281	-0.066	-0.038
-248.019	-140.001	0.173	-0.018
-247.005	-34.808	-0.200	-0.109
-245.990	-63.530	0.345	0.142
-244.976	-48.402	-0.159	0.077
-243.961	-152.850	-0.310	-0.022
-242.946	-122.539	0.393	0.064
-241.932	-117.485	-0.123	0.022
-240.917	-60.383	-0.447	-0.190
-239.903	233.686	0.079	-0.131
-238.888	120.676	0.153	-0.190
-237.873	17.955	0.106	0.084
-236.859	-29.205	-0.280	0.160
-235.844	200.279	0.059	0.091
-234.830	552.781	0.147	0.354
-233.815	-44.483	0.135	0.067
-232.800	-200.000	0.029	-0.241
-231.786	766.203	0.037	-0.101
-230.771	-200.000	-0.023	-0.185
-229.757	-122.198	0.127	-0.021
-228.742	800.000	0.028	0.122
-227.727	138.349	0.066	-0.086
-226.713	140.478	-0.059	-0.078
-225.698	-200.000	0.060	0.316
-224.684	487.661	-0.090	0.205
-223.669	354.948	-0.087	0.172
-222.655	-18.817	0.130	-0.081
-221.640	-122.726	-0.146	0.024
-220.625	29.706	-0.058	-0.050
-219.611	-200.000	-0.046	0.208
-218.596	-90.286	-0.319	0.093
-217.582	12.279	-0.040	0.031
-216.567	-147.901	0.135	-0.011
-215.552	28.588	0.083	0.070
-214.538	-118.744	0.248	-0.044
-213.523	800.000	0.035	0.097
-212.509	-200.000	0.012	0.094
-211.494	-129.077	-0.199	0.028
-210.479	-200.000	0.023	-0.195
-209.465	16.288	-0.242	0.191
-208.450	211.648	0.044	-0.069
-207.436	-93.310	0.192	-0.053
-206.421	-200.000	-0.021	0.126
-205.406	-37.043	-0.038	0.020
-204.392	-62.100	0.315	0.131
-203.377	800.000	-0.027	0.090
-202.363	70.606	-0.123	0.127
-201.348	62.968	-0.110	-0.110
-200.333	-71.159	0.228	-0.085
-199.319	-192.295	0.112	0.001
-198.304	-116.459	0.319	-0.059
-197.290	800.000	-0.089	-0.291
-196.275	-114.886	0.443	-0.084
-195.260	150.553	-0.071	-0.096
-194.246	-127.918	-0.296	0.042
-193.231	-5.255	-0.218	0.149
-192.217	51.534	0.306	-0.290
-191.202	800.000	-0.058	-0.166
-190.187	-200.000	0.053	-0.255
-189.173	92.426	0.153	0.172
-188.158	44.780	-0.274	0.252
-187.144	-106.901	0.163	-0.036
-186.129	187.325	0.243	0.362
-185.114	573.658	0.088	-0.214
-184.100	800.000	-0.035	-0.118
-183.085	14.692	-0.224	0.175
-182.071	-200.000	0.040	0.230
-181.056	135.526	-0.148	-0.192
-180.042	14.356	-0.215	-0.167
-179.027	343.260	0.114	0.222
-178.012	-149.044	0.112	-0.009
-176.998	-112.786	0.098	0.019
-175.983	91.396	-0.156	-0.175
-174.969	174.850	-0.156	0.224
-173.954	800.000	-0.117	0.416
-172.939	-200.000	-0.079	0.379
-171.925	699.856	0.086	-0.226
-170.910	-77.933	-0.178	0.061
-169.896	195.358	0.147	-0.223
-168.881	90.436	0.084	0.094
-167.866	27.340	-0.059	0.050
-166.852	256.415	-0.173	-0.296
-165.837	-200.000	0.001	-0.058
-164.823	61.324	0.164	-0.162
-163.808	-200.000	-0.009	-0.226
-162.793	532.081	0.028	-0.066
-161.779	-200.000	-0.043	-0.193
-160.764	-200.000	-0.082	-0.376
-159.750	39.293	-0.231	0.206
-158.735	43.261	0.067	-0.061
-157.720	-67.192	-0.268	-0.105
-156.706	145.635	-0.324	-0.433
-155.691	499.282	0.121	-0.277
-154.677	-36.667	0.259	-0.138
-153.662	177.186	-0.253	-0.368
-152.647	-2.103	0.187	-0.131
-151.633	548.739	0.050	-0.119
-150.618	-200.000	0.014	0.166
-149.604	-200.000	-0.020	-0.136
-148.589	-48.247	0.099	0.048
-147.574	-57.864	0.277	-0.121
-146.560	-200.000	-0.006	-0.041
-145.545	800.000	0.049	0.178
-144.531	-200.000	-0.008	0.051
-143.516	-200.000	-0.020	-0.122
-142.502	-200.000	0.019	0.150
-141.487	88.839	0.157	0.174
-140.472	-127.118	0.164	0.024
-139.458	130.225	0.174	-0.222
-138.443	102.868	-0.064	-0.074
-137.429	800.000	-0.066	0.202
-136.414	-54.901	-0.141	-0.063
-135.399	-127.540	0.511	0.074
-134.385	-50.345	0.330	0.155
-133.370	-31.967	0.254	0.142
-132.356	157.569	-0.084	0.116
-131.341	800.000	-0.071	-0.223
-130.326	-200.000	0.008	0.220
-129.312	-200.000	0.039	0.430
-128.297	-94.410	0.227	0.062
-127.283	-46.775	0.396	-0.193
-126.268	104.397	-0.182	-0.213
-125.253	56.297	-0.040	-0.039
-124.239	22.436	-0.220	0.179
-123.224	72.417	-0.200	0.207
-122.210	-123.964	-0.411	0.064
-121.195	-35.944	0.156	0.084
