DTS Sentinel unit serial number:	SN413079Multiplexer serial number:	ORYXHardware model number:	OX4-SRSoftware version number:	ORYX F/W v4.00 Oryx Data Collector v3.7.2.0data status	okinstallation	princeton_trtdifferential loss correction	single-endedforward channel	channel 1reverse channel	N/Adate	2019/09/12time	02:00:11forward acquisition time	60.00reverse acquisition time	0.00gamma	496.2192k internal	0.2320k external	0.2320temperature offset calibration	1.0077default loss term (dB/km)	0.3790temperature slope calibration	1.0000multiplexer offset coefficient	1.0000multiplexer slope coefficient	1.0000fibre end	0.00T internal ref (°C)	32.75T ext. ref 1 (°C)	2.05T ext. ref 2 (°C)	27.26length (m)	temperature (°C)	Stokes	anti-Stokes-747.200	630.884	-0.061	-0.156
-746.185	169.423	-0.191	-0.275
-745.171	245.066	-0.116	-0.197
-744.156	94.256	-0.131	-0.151
-743.142	-39.055	-0.128	-0.068
-742.127	-200.000	-0.009	0.235
-741.112	135.144	0.122	-0.161
-740.098	115.381	0.246	0.304
-739.083	6.543	-0.142	0.107
-738.069	603.778	0.105	0.265
-737.054	800.000	-0.018	0.056
-736.039	112.083	0.177	-0.216
-735.025	22.307	-0.235	0.194
-734.010	-200.000	-0.052	-0.231
-732.996	-200.000	-0.018	-0.169
-731.981	-75.733	-0.123	0.044
-730.966	-200.000	0.067	-0.375
-729.952	-200.000	0.030	-0.185
-728.937	-6.864	-0.139	-0.095
-727.923	416.339	-0.110	0.237
-726.908	-31.439	-0.140	0.079
-725.894	12.298	0.165	0.128
-724.879	299.036	-0.044	0.082
-723.864	63.396	0.202	0.204
-722.850	181.030	-0.204	0.303
-721.835	243.530	0.056	0.095
-720.821	800.000	-0.062	-0.269
-719.806	-90.328	-0.087	-0.026
-718.791	728.479	0.048	-0.130
-717.777	7.660	0.417	-0.315
-716.762	-200.000	-0.039	-0.424
-715.748	-117.648	-0.187	0.034
-714.733	66.718	-0.019	-0.020
-713.718	-55.462	-0.229	-0.104
-712.704	414.655	0.157	0.338
-711.689	-125.723	0.178	-0.027
-710.675	372.473	-0.041	0.084
-709.660	344.173	0.053	0.106
-708.645	22.653	0.145	0.120
-707.631	-187.243	-0.533	0.007
-706.616	293.701	0.104	-0.191
-705.602	17.992	0.307	0.247
-704.587	159.309	0.232	-0.326
-703.572	45.533	-0.175	-0.164
-702.558	-38.033	-0.276	0.148
-701.543	7.433	-0.166	-0.125
-700.529	242.597	-0.055	0.093
-699.514	-178.571	0.062	-0.001
-698.499	72.202	0.167	-0.176
-697.485	271.001	0.131	-0.233
-696.470	-141.244	0.337	0.035
-695.456	718.264	-0.074	0.200
-694.441	-200.000	0.009	-0.226
-693.426	-146.801	-0.308	-0.027
-692.412	-200.000	0.006	-0.051
-691.397	-146.446	-0.412	0.036
-690.383	80.338	0.020	0.021
-689.368	-37.029	0.191	0.103
-688.354	-141.048	0.369	-0.038
-687.339	-200.000	-0.065	-0.307
-686.324	-88.903	-0.314	-0.094
-685.310	800.000	-0.029	0.107
-684.295	106.707	-0.203	-0.243
-683.281	-28.960	-0.062	0.036
-682.266	319.808	-0.149	-0.286
-681.251	769.244	-0.068	0.188
-680.237	250.979	-0.115	-0.197
-679.222	-24.030	0.090	-0.054
-678.208	-159.657	0.007	-0.000
-677.193	-200.000	-0.021	0.193
-676.178	-158.017	-0.461	0.027
-675.164	147.963	-0.074	-0.100
-674.149	800.000	-0.049	0.195
-673.135	-31.613	0.250	-0.141
-672.120	159.867	-0.119	0.168
-671.105	-164.193	-0.127	-0.006
-670.091	38.787	0.217	-0.196
-669.076	-200.000	0.004	-0.066
-668.062	800.000	0.113	0.347
-667.047	-136.527	0.116	0.014
-666.032	263.184	0.032	-0.056
-665.018	237.281	-0.057	0.096
-664.003	45.543	0.138	-0.128
-662.989	-127.782	-0.227	0.033
-661.974	430.534	-0.091	0.198
-660.959	-200.000	-0.002	0.130
-659.945	-75.130	0.172	-0.062
-658.930	800.000	0.080	0.324
-657.916	119.437	-0.103	-0.129
-656.901	-29.076	-0.201	-0.116
-655.886	-32.804	-0.326	0.183
-654.872	225.730	-0.022	0.037
-653.857	-49.195	-0.128	-0.062
-652.843	-58.975	0.347	0.151
-651.828	42.664	0.083	-0.076
-650.814	-83.855	0.128	-0.041
-649.799	800.000	0.032	0.108
-648.784	-200.000	-0.123	-0.563
-647.770	-126.610	0.243	-0.036
-646.755	-200.000	0.064	0.326
-645.741	-169.201	-0.352	0.013
-644.726	114.639	-0.161	-0.198
-643.711	516.578	0.034	-0.080
-642.697	-42.408	0.281	-0.145
-641.682	135.022	-0.031	-0.040
-640.668	-200.000	-0.007	0.095
-639.653	-35.486	-0.072	0.040
-638.638	-98.718	-0.115	0.030
-637.624	-200.000	0.003	0.118
-636.609	800.000	0.055	-0.218
-635.595	211.387	-0.128	0.203
-634.580	174.168	-0.092	-0.134
-633.565	-200.000	-0.033	-0.309
-632.551	-200.000	0.009	0.193
-631.536	-70.603	-0.332	-0.126
-630.522	-200.000	0.034	0.384
-629.507	-86.638	-0.063	0.019
-628.492	-15.175	-0.405	0.261
-627.478	-200.000	0.020	0.145
-626.463	-127.525	-0.230	-0.034
-625.449	800.000	-0.089	-0.333
-624.434	-85.963	0.097	0.030
-623.419	-200.000	-0.027	0.163
-622.405	365.468	-0.139	0.282
-621.390	71.037	-0.164	0.171
-620.376	-44.323	-0.228	0.115
-619.361	402.221	-0.061	-0.130
-618.346	-163.804	-0.215	0.010
-617.332	-118.991	0.089	-0.016
-616.317	-31.794	0.240	0.135
-615.303	136.332	-0.241	-0.317
-614.288	-200.000	0.012	0.179
-613.273	800.000	-0.057	0.242
-612.259	386.913	0.125	0.260
-611.244	-76.470	-0.318	0.112
-610.230	-91.002	0.235	-0.068
-609.215	-94.815	0.306	-0.083
-608.201	-200.000	-0.005	-0.049
-607.186	218.660	-0.232	-0.373
-606.171	-200.000	0.001	-0.115
-605.157	-14.739	0.315	0.204
-604.142	-60.551	0.354	-0.151
-603.128	-119.635	-0.012	-0.002
-602.113	-61.279	0.041	-0.017
-601.098	-130.670	0.129	-0.017
-600.084	-59.888	-0.078	-0.033
-599.069	-103.119	-0.144	-0.034
-598.055	624.554	0.060	0.151
-597.040	-88.058	0.230	0.069
-596.025	-99.299	0.321	0.081
-595.011	-123.699	-0.339	-0.054
-593.996	57.247	-0.020	0.019
-592.982	-157.680	-0.147	0.009
-591.967	-127.033	0.161	-0.024
-590.952	800.000	0.022	-0.077
-589.938	326.983	-0.122	0.234
-588.923	-190.981	0.348	-0.004
-587.909	25.055	0.311	-0.260
-586.894	-200.000	-0.056	-0.600
-585.879	-68.646	-0.225	-0.087
-584.865	-32.386	-0.229	-0.128
-583.850	-200.000	0.030	0.145
-582.836	-135.519	-0.229	0.027
-581.821	-23.415	-0.255	0.154
-580.806	800.000	-0.046	0.172
-579.792	-56.818	-0.055	-0.024
-578.777	-87.028	0.446	-0.136
-577.763	-108.091	0.137	-0.030
-576.748	-200.000	-0.012	0.199
-575.733	-10.693	-0.153	0.102
-574.719	800.000	0.007	-0.028
-573.704	800.000	0.070	-0.278
-572.690	-120.759	0.317	0.054
-571.675	-200.000	-0.017	0.095
-570.661	-158.236	-0.118	-0.007
-569.646	44.691	-0.167	-0.154
-568.631	-200.000	-0.000	-0.232
-567.617	772.740	-0.073	0.200
-566.602	-26.076	0.040	-0.023
-565.588	155.998	0.039	-0.054
-564.573	-200.000	-0.010	-0.181
-563.558	476.246	-0.027	0.061
-562.544	-45.289	0.079	-0.040
-561.529	-38.810	0.281	-0.149
-560.515	-69.919	-0.126	0.048
-559.500	245.559	-0.217	-0.367
-558.485	-200.000	0.026	0.262
-557.471	115.622	0.124	-0.153
-556.456	434.309	0.101	-0.221
-555.442	-200.000	-0.042	-0.491
-554.427	162.536	-0.228	0.322
-553.412	-162.522	0.143	-0.007
-552.398	-92.585	0.178	0.050
-551.383	-200.000	-0.044	0.376
-550.369	800.000	0.133	-0.374
-549.354	18.064	-0.051	-0.040
-548.339	-200.000	-0.008	-0.124
-547.325	144.221	0.161	0.215
-546.310	-121.299	-0.132	0.022
-545.296	-200.000	0.007	-0.117
-544.281	-23.428	0.135	0.081
-543.266	-200.000	0.024	0.234
-542.252	-64.749	0.144	0.059
-541.237	-80.997	0.149	0.049
-540.223	274.099	-0.198	0.351
-539.208	131.957	-0.090	-0.116
-538.193	33.274	-0.387	0.337
-537.179	385.158	0.135	0.279
-536.164	-200.000	-0.008	-0.076
-535.150	-47.610	-0.093	-0.045
-534.135	-162.327	0.218	0.011
-533.121	-85.456	-0.259	-0.081
-532.106	-82.624	0.335	-0.109
-531.091	-5.521	0.113	0.077
-530.077	-200.000	-0.022	-0.174
-529.062	-35.058	-0.018	-0.010
-528.048	-178.084	0.065	0.002
-527.033	-172.541	0.130	-0.004
-526.018	-179.175	0.288	0.006
-525.004	-68.012	-0.037	-0.014
-523.989	-130.226	0.094	-0.013
-522.975	800.000	0.040	-0.131
-521.960	13.790	-0.167	-0.130
-520.945	-26.884	-0.105	0.061
-519.931	-200.000	0.004	-0.037
-518.916	-139.467	0.315	-0.034
-517.902	-111.894	-0.286	-0.058
-516.887	-37.060	-0.140	-0.075
-515.872	-200.000	0.036	-0.288
-514.858	239.755	-0.112	0.187
-513.843	4.485	0.117	0.086
-512.829	-115.912	0.114	0.021
-511.814	446.521	0.062	0.136
-510.799	93.531	-0.120	-0.136
-509.785	-99.332	-0.047	0.012
-508.770	257.109	-0.068	-0.117
-507.756	480.576	-0.077	-0.175
-506.741	-49.676	-0.174	0.083
-505.726	347.816	-0.151	-0.299
-504.712	-93.727	-0.496	-0.137
-503.697	84.006	0.328	-0.359
-502.683	-79.405	0.221	0.075
-501.668	-200.000	0.020	0.201
-500.653	-66.351	-0.021	-0.009
-499.639	-19.895	-0.187	-0.116
-498.624	-14.190	0.110	-0.071
-497.610	419.119	-0.095	-0.204
-496.595	509.608	0.106	-0.247
-495.581	-200.000	-0.012	0.058
-494.566	534.720	0.089	-0.211
-493.551	53.954	0.250	-0.241
-492.537	-200.000	0.023	0.172
-491.522	800.000	-0.073	-0.203
-490.508	-200.000	0.006	0.243
-489.493	152.358	-0.251	0.342
-488.478	-32.269	-0.236	-0.132
-487.464	428.107	0.070	-0.152
-486.449	7.275	-0.193	0.144
-485.435	800.000	-0.042	0.172
-484.420	-48.308	0.092	0.044
-483.405	-89.609	0.417	0.123
-482.391	800.000	0.058	-0.236
-481.376	-200.000	0.002	-0.141
-480.362	-192.165	0.073	-0.001
-479.347	-89.816	0.253	0.074
-478.332	-64.435	0.179	-0.073
-477.318	-6.669	0.193	0.131
-476.303	90.157	0.127	-0.142
-475.289	-27.197	0.197	-0.115
-474.274	291.646	-0.100	-0.183
-473.259	-163.315	-0.449	-0.021
-472.245	-102.400	0.146	-0.035
-471.230	-130.123	0.105	-0.014
-470.216	552.774	-0.092	-0.222
-469.201	-43.519	-0.269	-0.136
-468.186	20.526	0.056	0.045
-467.172	-58.599	0.315	0.137
-466.157	272.022	-0.071	0.126
-465.143	-70.377	0.167	0.063
-464.128	-7.421	-0.156	0.106
-463.113	-200.000	-0.015	0.221
-462.099	-200.000	-0.052	0.439
-461.084	50.581	-0.126	0.119
-460.070	-200.000	-0.085	-0.494
-459.055	-29.820	0.258	0.147
-458.040	-1.330	0.052	0.037
-457.026	-33.006	-0.345	-0.191
-456.011	-156.080	0.221	0.014
-454.997	212.422	-0.016	0.025
-453.982	113.442	0.067	0.081
-452.968	168.008	-0.153	0.218
-451.953	-200.000	0.009	-0.111
-450.938	346.687	0.047	0.092
-449.924	-60.977	-0.282	-0.119
-448.909	34.153	0.182	0.158
-447.895	277.018	-0.113	0.200
-446.880	48.378	-0.057	0.053
-445.865	-25.821	0.220	-0.129
-444.851	-200.000	-0.019	-0.113
-443.836	-75.431	-0.237	-0.084
-442.822	-47.919	0.359	0.173
-441.807	-200.000	-0.141	0.631
-440.792	-21.243	-0.183	0.112
-439.778	-81.868	0.294	0.096
-438.763	411.763	0.117	-0.248
-437.749	426.028	0.076	0.163
-436.734	800.000	-0.076	0.232
-435.719	-82.907	-0.180	-0.058
-434.705	5.030	0.201	-0.148
-433.690	-29.720	0.142	0.081
-432.676	30.088	-0.051	-0.043
-431.661	46.729	-0.034	0.031
-430.646	133.802	-0.158	-0.205
-429.632	534.983	0.068	-0.161
-428.617	511.430	-0.063	-0.146
-427.603	146.810	-0.192	0.257
-426.588	-200.000	0.073	0.323
-425.573	129.868	-0.054	0.069
-424.559	-109.372	-0.132	-0.028
-423.544	200.297	0.041	-0.063
-422.530	-200.000	-0.014	0.269
-421.515	-100.066	-0.333	0.083
-420.500	-14.199	0.143	-0.092
-419.486	-31.381	0.045	0.025
-418.471	79.320	-0.107	-0.114
-417.457	128.031	-0.055	-0.070
-416.442	74.733	-0.045	0.047
-415.428	-200.000	0.111	-0.487
-414.413	800.000	-0.123	0.351
-413.398	-200.000	0.028	0.208
-412.384	-124.596	0.149	0.023
-411.369	-200.000	-0.024	-0.133
-410.355	14.445	-0.424	-0.330
-409.340	18.406	-0.206	-0.164
-408.325	800.000	0.093	-0.267
-407.311	418.418	-0.134	-0.287
-406.296	-31.622	0.130	0.073
-405.282	800.000	-0.027	0.096
-404.267	800.000	-0.078	-0.238
-403.252	800.000	-0.097	-0.376
-402.238	279.668	0.131	0.234
-401.223	108.072	-0.172	-0.205
-400.209	29.108	0.091	0.077
-399.194	754.446	-0.019	-0.050
-398.179	-200.000	-0.019	-0.133
-397.165	-1.354	0.104	0.073
-396.150	221.606	0.091	0.145
-395.136	-122.045	0.458	-0.075
-394.121	329.573	-0.145	0.278
-393.106	28.509	0.249	-0.210
-392.092	83.262	-0.167	-0.181
-391.077	-171.731	-0.192	0.006
-390.063	307.803	0.040	-0.075
-389.048	407.036	-0.111	0.233
-388.033	80.788	0.181	-0.194
-387.019	148.611	0.184	-0.248
-386.004	44.676	-0.176	0.161
-384.990	-200.000	-0.000	0.023
-383.975	4.586	0.266	-0.194
-382.960	39.765	0.119	-0.106
-381.946	508.910	-0.027	-0.064
-380.931	-200.000	0.033	-0.199
-379.917	800.000	-0.063	-0.231
-378.902	148.853	0.271	0.365
-377.888	-7.190	0.155	0.105
-376.873	282.747	-0.089	0.160
-375.858	800.000	-0.068	0.273
-374.844	-164.919	-0.167	0.007
-373.829	337.537	-0.147	0.285
-372.815	28.052	-0.167	-0.140
-371.800	108.983	0.170	-0.203
-370.785	54.504	0.373	0.358
-369.771	529.187	-0.004	-0.008
-368.756	-200.000	-0.060	0.318
-367.742	13.857	-0.033	0.026
-366.727	259.993	-0.074	0.128
-365.712	800.000	-0.072	0.251
-364.698	800.000	-0.098	0.297
-363.683	-158.215	0.190	0.011
-362.669	11.274	-0.117	0.089
-361.654	-200.000	-0.063	-0.398
-360.639	171.937	0.187	0.267
-359.625	47.559	0.199	-0.185
-358.610	800.000	-0.141	-0.531
-357.596	-23.937	-0.059	0.035
-356.581	378.767	0.058	0.118
-355.566	160.337	-0.077	0.107
-354.552	22.243	-0.218	0.177
-353.537	-53.114	0.427	-0.195
-352.523	-116.852	-0.278	0.051
-351.508	-200.000	-0.029	0.155
-350.493	4.850	0.186	-0.136
-349.479	800.000	-0.050	0.158
-348.464	20.232	0.146	0.117
-347.450	92.516	0.039	0.044
-346.435	-200.000	0.024	0.124
-345.420	751.074	0.036	0.096
-344.406	-55.930	0.236	0.105
-343.391	220.880	-0.190	-0.304
-342.377	-200.000	0.040	-0.194
-341.362	-54.388	-0.099	-0.045
-340.348	-65.336	0.320	-0.128
-339.333	-74.146	0.205	-0.074
-338.318	-200.000	-0.057	0.266
-337.304	800.000	-0.025	-0.089
-336.289	465.451	-0.070	0.157
-335.275	-104.518	0.233	-0.054
-334.260	-137.068	-0.400	-0.046
-333.245	-200.000	-0.034	0.296
-332.231	317.411	-0.039	-0.073
-331.216	-47.687	0.142	0.068
-330.202	-110.072	-0.294	0.061
-329.187	-200.000	-0.018	-0.384
-328.172	800.000	0.099	0.396
-327.158	800.000	0.056	-0.207
-326.143	57.502	-0.017	-0.016
-325.129	238.275	-0.055	-0.090
-324.114	179.984	-0.307	-0.447
-323.099	800.000	0.081	0.232
-322.085	800.000	-0.064	-0.267
-321.070	-56.330	-0.096	0.042
-320.056	470.267	0.047	-0.106
-319.041	340.570	0.090	0.174
-318.026	-24.550	0.290	0.172
-317.012	-69.332	-0.242	0.092
-315.997	84.823	-0.109	0.118
-314.983	169.476	-0.240	-0.341
-313.968	-11.797	0.207	0.135
-312.953	-121.107	-0.195	-0.032
-311.939	113.338	-0.085	-0.102
-310.924	800.000	-0.043	-0.155
-309.910	-112.881	-0.278	0.055
-308.895	-76.283	-0.113	-0.040
-307.880	358.423	-0.044	0.087
-306.866	-200.000	0.018	0.088
-305.851	151.736	-0.081	0.109
-304.837	127.898	0.176	-0.222
-303.822	-200.000	0.019	-0.114
-302.807	577.950	0.082	-0.199
-301.793	-82.524	-0.090	-0.029
-300.778	-77.878	-0.219	-0.075
-299.764	105.013	0.186	-0.218
-298.749	-200.000	0.010	-0.096
-297.735	239.032	-0.170	0.282
-296.720	-4.947	0.109	0.075
-295.705	-22.970	0.207	0.124
-294.691	-124.954	-0.382	0.059
-293.676	-200.000	0.035	0.212
-292.662	-200.000	0.049	0.277
-291.647	102.585	-0.286	0.333
-290.632	57.121	-0.145	-0.140
-289.618	-21.149	-0.146	-0.089
-288.603	-7.596	-0.144	-0.097
-287.589	-52.840	0.011	0.005
-286.574	-200.000	0.019	-0.170
-285.559	-200.000	-0.017	0.401
-284.545	34.959	0.074	-0.064
-283.530	800.000	-0.118	-0.335
-282.516	-200.000	0.009	0.184
-281.501	800.000	0.100	-0.323
-280.486	-200.000	-0.004	-0.081
-279.472	-200.000	0.003	-0.378
-278.457	186.411	0.150	0.222
-277.443	-200.000	-0.020	-0.097
-276.428	800.000	-0.008	0.023
-275.413	-200.000	0.011	-0.182
-274.399	-12.327	0.226	-0.147
-273.384	179.457	-0.049	0.071
-272.370	-200.000	0.005	-0.103
-271.355	112.832	-0.124	0.149
-270.340	-200.000	0.025	0.371
-269.326	-13.613	0.197	0.127
-268.311	-200.000	0.039	0.414
-267.297	-25.090	-0.061	-0.036
-266.282	-23.489	-0.088	0.052
-265.267	-200.000	-0.011	-0.520
-264.253	2.846	-0.296	-0.213
-263.238	800.000	-0.023	-0.087
-262.224	-93.364	0.377	-0.104
-261.209	-42.315	-0.121	0.061
-260.195	101.979	0.167	-0.193
-259.180	-155.270	-0.064	-0.004
-258.165	-61.842	0.214	-0.089
-257.151	-104.799	0.138	-0.031
-256.136	178.651	-0.137	0.198
-255.122	-200.000	0.037	0.215
-254.107	21.450	0.084	-0.068
-253.092	-66.418	-0.046	0.018
-252.078	48.817	0.236	-0.219
-251.063	-200.000	0.014	-0.224
-250.049	-34.772	-0.220	0.119
-249.034	308.058	0.066	-0.122
-248.019	-173.712	-0.339	-0.010
-247.005	-200.000	-0.068	0.303
-245.990	-53.906	0.320	-0.145
-244.976	-200.000	0.008	-0.333
-243.961	-84.428	-0.052	0.016
-242.946	402.832	-0.012	0.024
-241.932	119.203	-0.045	0.056
-240.917	-102.544	-0.126	-0.030
-239.903	-94.372	-0.239	-0.065
-238.888	-76.763	0.583	-0.202
-237.873	-87.010	-0.019	0.006
-236.859	67.237	-0.047	0.048
-235.844	-45.887	0.188	0.092
-234.830	-110.746	0.177	-0.036
-233.815	-29.574	0.203	-0.115
-232.800	112.125	0.075	0.090
-231.786	-87.176	-0.253	0.076
-230.771	-78.406	-0.242	-0.082
-229.757	-19.483	-0.409	0.251
-228.742	-83.465	0.295	0.094
-227.727	-3.173	0.054	0.037
-226.713	-67.420	0.213	-0.083
-225.698	-200.000	-0.022	-0.112
-224.684	-165.373	0.398	-0.017
-223.669	22.369	0.347	0.281
-222.655	-200.000	-0.027	0.226
-221.640	-147.339	0.276	-0.023
-220.625	-59.204	-0.156	-0.066
-219.611	27.023	0.265	-0.220
-218.596	569.878	0.098	-0.235
-217.582	-200.000	0.001	0.270
-216.567	-122.459	-0.308	0.050
-215.552	395.269	-0.249	0.515
-214.538	-3.344	0.074	0.051
-213.523	-44.190	0.086	-0.043
-212.509	800.000	-0.003	0.013
-211.494	15.819	0.047	0.036
-210.479	800.000	-0.060	0.199
-209.465	-42.452	-0.282	0.142
-208.450	472.198	-0.161	-0.359
-207.436	115.726	0.106	0.128
-206.421	17.934	0.119	0.094
-205.406	777.752	0.076	0.206
-204.392	11.519	-0.114	0.087
-203.377	-90.813	-0.268	-0.076
-202.363	94.046	0.276	-0.310
-201.348	-148.714	-0.075	-0.006
-200.333	-0.623	-0.200	0.140
-199.319	-9.741	0.118	0.078
-198.304	552.266	0.052	0.122
-197.290	276.891	-0.063	-0.111
-196.275	-200.000	-0.006	-0.099
-195.260	8.581	0.152	0.113
-194.246	-128.254	0.118	-0.017
-193.231	78.752	0.113	0.119
-192.217	-35.268	0.081	-0.044
-191.202	72.409	-0.077	0.080
-190.187	703.837	0.078	-0.204
-189.173	50.654	-0.130	0.122
-188.158	800.000	-0.027	0.096
-187.144	-170.595	-0.201	-0.007
-186.129	-42.606	0.163	-0.082
-185.114	-87.142	0.230	-0.069
-184.100	37.028	0.210	0.184
-183.085	-200.000	-0.026	0.190
-182.071	44.485	-0.147	0.134
-181.056	37.475	-0.064	0.056
-180.042	271.750	0.060	0.105
-179.027	490.794	0.089	0.202
-178.012	278.549	0.028	-0.049
-176.998	552.183	-0.058	-0.139
-175.983	119.755	-0.150	0.183
-174.969	-55.020	0.206	0.092
-173.954	-200.000	0.026	-0.164
-172.939	-200.000	0.005	0.081
-171.925	-75.111	0.166	-0.059
-170.910	79.158	-0.099	-0.105
-169.896	-158.895	0.147	-0.008
-168.881	526.075	-0.052	0.121
-167.866	133.875	0.166	0.213
-166.852	800.000	-0.039	0.112
-165.837	-125.813	-0.380	-0.057
-164.823	247.479	0.148	0.247
-163.808	-200.000	-0.007	-0.084
-162.793	18.869	-0.062	0.049
-161.779	-200.000	0.022	-0.162
-160.764	114.811	-0.175	-0.211
-159.750	-46.446	-0.017	-0.008
-158.735	-200.000	0.016	-0.103
-157.720	800.000	0.069	0.275
-156.706	-78.771	-0.079	0.027
-155.691	-73.365	0.202	0.073
-154.677	100.144	-0.114	0.131
-153.662	-194.214	-0.116	0.001
-152.647	800.000	0.031	-0.085
-151.633	11.478	-0.065	0.049
-150.618	576.583	0.054	0.131
-149.604	-50.145	-0.092	0.043
-148.589	102.656	-0.193	-0.223
-147.574	415.649	0.152	-0.320
-146.560	-145.085	-0.194	-0.017
-145.545	-106.321	-0.290	-0.064
-144.531	8.738	-0.311	-0.232
-143.516	-86.395	0.311	-0.094
-142.502	-200.000	0.008	-0.196
-141.487	-200.000	0.059	0.369
-140.472	156.289	-0.113	0.154
-139.458	-200.000	-0.022	0.401
-138.443	800.000	0.088	0.296
-137.429	-13.457	-0.080	0.051
-136.414	-200.000	-0.005	-0.151
-135.399	37.248	0.223	-0.195
-134.385	-200.000	0.029	-0.204
-133.370	800.000	0.006	0.019
-132.356	60.568	0.096	-0.094
-131.341	-82.250	-0.091	-0.029
-130.326	-59.264	-0.070	0.030
-129.312	-122.964	-0.350	0.056
-128.297	-70.371	-0.270	0.101
-127.283	-7.007	-0.240	-0.161
-126.268	-102.845	0.365	0.086
-125.253	-200.000	-0.020	-0.254
-124.239	522.574	-0.023	0.054
-123.224	-5.700	-0.084	0.057
-122.210	255.512	-0.068	0.114
