DTS Sentinel unit serial number:	SN413079Multiplexer serial number:	ORYXHardware model number:	OX4-SRSoftware version number:	ORYX F/W v4.00 Oryx Data Collector v3.7.2.0data status	okinstallation	princeton_trtdifferential loss correction	single-endedforward channel	channel 1reverse channel	N/Adate	2019/09/12time	03:40:11forward acquisition time	60.00reverse acquisition time	0.00gamma	496.2192k internal	0.2322k external	0.2322temperature offset calibration	1.0083default loss term (dB/km)	0.3790temperature slope calibration	1.0000multiplexer offset coefficient	1.0000multiplexer slope coefficient	1.0000fibre end	0.00T internal ref (°C)	32.16T ext. ref 1 (°C)	2.16T ext. ref 2 (°C)	27.22length (m)	temperature (°C)	Stokes	anti-Stokes-747.200	-37.530	0.225	0.121
-746.185	136.985	0.109	0.144
-745.171	-200.000	-0.005	0.129
-744.156	-200.000	-0.002	0.018
-743.142	-200.000	0.067	0.307
-742.127	180.751	-0.081	0.120
-741.112	292.301	-0.224	-0.413
-740.098	90.840	-0.274	0.310
-739.083	-118.072	-0.176	-0.032
-738.069	-158.558	0.079	-0.005
-737.054	237.779	-0.097	0.162
-736.039	-200.000	-0.047	-0.324
-735.025	281.758	0.179	-0.324
-734.010	-93.144	-0.499	0.140
-732.996	-76.085	0.153	-0.055
-731.981	-139.982	0.255	-0.027
-730.966	-57.324	0.256	-0.114
-729.952	-200.000	-0.045	-0.322
-728.937	95.150	0.057	0.066
-727.923	-49.200	0.202	0.097
-726.908	84.080	-0.105	-0.116
-725.894	151.560	0.056	0.077
-724.879	-60.610	-0.119	-0.051
-723.864	800.000	0.068	-0.201
-722.850	-100.420	-0.140	-0.035
-721.835	1.044	0.202	-0.146
-720.821	-200.000	-0.038	-0.441
-719.806	443.778	-0.039	0.086
-718.791	800.000	-0.025	0.085
-717.777	3.892	0.105	0.077
-716.762	179.625	-0.298	-0.441
-715.748	-54.230	-0.129	-0.059
-714.733	188.620	-0.112	-0.169
-713.718	-200.000	0.038	-0.215
-712.704	-147.842	-0.464	-0.039
-711.689	425.416	0.097	0.211
-710.675	-144.065	-0.170	0.016
-709.660	45.181	-0.063	0.059
-708.645	497.911	0.114	-0.264
-707.631	485.094	-0.010	-0.024
-706.616	58.351	-0.072	-0.071
-705.602	417.197	-0.047	0.101
-704.587	93.446	0.194	0.221
-703.572	762.173	-0.066	-0.181
-702.558	800.000	0.043	-0.152
-701.543	-91.233	-0.178	-0.051
-700.529	-112.842	0.157	-0.031
-699.514	19.416	0.433	-0.351
-698.499	-72.137	-0.197	-0.074
-697.485	-200.000	0.038	0.394
-696.470	800.000	0.103	-0.304
-695.456	352.161	-0.112	-0.223
-694.441	-113.403	-0.191	0.038
-693.426	-113.403	-0.116	-0.023
-692.412	8.924	0.090	-0.069
-691.397	353.974	-0.040	0.080
-690.383	241.095	-0.047	-0.080
-689.368	-46.419	-0.177	0.088
-688.354	63.627	0.046	-0.046
-687.339	-110.343	-0.281	0.059
-686.324	14.730	0.072	-0.057
-685.310	-112.432	-0.129	-0.026
-684.295	18.425	-0.096	-0.077
-683.281	-122.942	0.161	-0.026
-682.266	-161.974	0.143	0.007
-681.251	-45.399	-0.302	0.151
-680.237	-83.748	-0.207	-0.067
-679.222	283.968	0.121	-0.220
-678.208	-53.991	-0.127	-0.058
-677.193	286.452	-0.082	-0.150
-676.178	-55.440	0.086	0.039
-675.164	9.767	-0.180	0.137
-674.149	-162.686	0.150	-0.007
-673.135	-200.000	0.027	-0.174
-672.120	-11.985	-0.251	0.166
-671.105	-135.235	0.038	0.005
-670.091	577.758	-0.117	-0.288
-669.076	-200.000	0.021	0.452
-668.062	13.289	-0.562	-0.438
-667.047	-65.190	-0.113	-0.046
-666.032	-4.818	0.326	0.226
-665.018	800.000	-0.018	0.072
-664.003	-124.415	-0.299	-0.047
-662.989	-121.204	-0.174	-0.029
-661.974	43.700	-0.044	-0.040
-660.959	145.484	-0.101	-0.136
-659.945	1.975	-0.150	0.109
-658.930	-200.000	-0.040	0.288
-657.916	-169.475	-0.060	-0.002
-656.901	-150.029	-0.221	-0.017
-655.886	-200.000	-0.004	0.041
-654.872	-138.492	-0.105	-0.012
-653.857	535.933	0.190	-0.453
-652.843	114.606	0.102	0.126
-651.828	-92.508	-0.334	-0.094
-650.814	-200.000	0.003	0.331
-649.799	308.682	-0.089	0.167
-648.784	65.808	0.049	-0.050
-647.770	-200.000	0.001	-0.268
-646.755	-200.000	0.012	0.123
-645.741	183.633	-0.171	-0.254
-644.726	130.094	0.140	-0.180
-643.711	-200.000	0.013	0.297
-642.697	-200.000	0.048	-0.560
-641.682	287.247	0.143	0.259
-640.668	-161.748	-0.284	-0.015
-639.653	-200.000	0.037	-0.235
-638.638	-200.000	0.041	0.183
-637.624	439.630	-0.066	-0.145
-636.609	-123.132	-0.105	-0.017
-635.595	-90.909	-0.385	-0.111
-634.580	-80.357	0.064	0.022
-633.565	-11.324	-0.181	-0.120
-632.551	-7.040	-0.075	-0.051
-631.536	-200.000	-0.003	0.032
-630.522	28.246	0.242	-0.206
-629.507	-200.000	-0.047	0.302
-628.492	800.000	0.055	-0.157
-627.478	-89.878	-0.196	0.058
-626.463	-125.141	-0.206	0.032
-625.449	800.000	0.053	0.155
-624.434	331.803	0.076	0.148
-623.419	-122.354	-0.244	0.040
-622.405	-91.414	-0.036	0.010
-621.390	43.670	-0.198	0.182
-620.376	153.021	0.127	0.175
-619.361	162.847	-0.036	0.052
-618.346	0.446	-0.214	0.154
-617.332	-67.476	-0.176	0.070
-616.317	52.102	-0.186	-0.178
-615.303	-88.122	-0.179	-0.054
-614.288	-67.206	-0.257	-0.102
-613.273	800.000	-0.092	-0.281
-612.259	-6.928	-0.333	0.227
-611.244	-99.115	-0.123	0.031
-610.230	-30.089	0.154	0.088
-609.215	-146.381	0.226	-0.020
-608.201	145.029	0.202	-0.272
-607.186	800.000	0.039	0.139
-606.171	-200.000	0.025	0.385
-605.157	-200.000	0.003	0.126
-604.142	-200.000	-0.016	0.299
-603.128	-200.000	-0.033	-0.162
-602.113	-142.566	-0.116	0.011
-601.098	507.633	0.126	-0.293
-600.084	86.527	0.076	0.085
-599.069	-116.951	0.146	0.027
-598.055	-96.817	0.207	-0.055
-597.040	-104.591	0.273	-0.063
-596.025	-68.075	-0.141	-0.055
-595.011	-43.011	-0.019	0.010
-593.996	517.127	0.062	-0.145
-592.982	800.000	-0.067	0.193
-591.967	800.000	0.051	-0.173
-590.952	-21.215	-0.163	-0.100
-589.938	-200.000	-0.027	-0.214
-588.923	105.735	-0.032	-0.038
-587.909	40.199	-0.175	-0.158
-586.894	-92.765	0.331	0.093
-585.879	61.859	-0.154	-0.154
-584.865	-102.773	0.352	-0.084
-583.850	-52.965	-0.046	0.021
-582.836	107.971	-0.047	-0.056
-581.821	-32.367	-0.156	-0.087
-580.806	-34.579	-0.208	-0.114
-579.792	77.018	0.156	0.166
-578.777	-200.000	-0.035	-0.259
-577.763	-54.311	0.229	0.104
-576.748	-119.690	-0.188	0.033
-575.733	365.679	0.067	0.136
-574.719	658.184	-0.095	0.244
-573.704	-177.255	-0.042	0.001
-572.690	-126.618	0.082	-0.012
-571.675	24.797	0.082	0.068
-570.661	270.644	0.122	0.216
-569.646	-200.000	-0.053	-0.241
-568.631	-91.097	0.158	0.045
-567.617	-28.706	-0.195	0.112
-566.602	367.221	0.108	-0.219
-565.588	-33.473	-0.417	0.231
-564.573	-112.836	0.210	0.042
-563.558	-200.000	0.039	-0.174
-562.544	30.198	-0.257	0.220
-561.529	-137.619	-0.324	-0.037
-560.515	-61.131	-0.086	0.036
-559.500	-200.000	0.052	-0.244
-558.485	-120.911	0.472	0.080
-557.471	-167.784	0.217	0.009
-556.456	189.051	-0.178	-0.268
-555.442	-11.787	-0.289	-0.190
-554.427	-111.021	-0.175	0.036
-553.412	109.588	-0.135	0.162
-552.398	403.632	-0.107	-0.226
-551.383	-174.254	0.229	0.007
-550.369	-46.885	-0.184	-0.090
-549.354	346.863	0.049	0.096
-548.339	-200.000	-0.015	0.154
-547.325	144.799	0.091	-0.123
-546.310	-105.225	-0.115	-0.026
-545.296	0.028	-0.226	-0.162
-544.281	-131.283	-0.312	-0.042
-543.266	-9.683	-0.143	-0.096
-542.252	-48.474	-0.103	-0.050
-541.237	-38.418	-0.189	0.100
-540.223	278.815	0.115	0.206
-539.208	191.965	-0.054	0.081
-538.193	-160.488	0.285	0.015
-537.179	47.230	-0.097	-0.090
-536.164	-200.000	-0.006	-0.193
-535.150	116.790	-0.099	0.122
-534.135	-200.000	0.022	0.192
-533.121	-123.764	0.228	0.036
-532.106	-200.000	-0.015	0.118
-531.091	-92.590	-0.077	0.022
-530.077	-200.000	0.037	-0.404
-529.062	800.000	0.059	-0.223
-528.048	-97.573	0.106	0.027
-527.033	-200.000	0.050	-0.235
-526.018	-200.000	0.006	-0.124
-525.004	-60.732	0.156	-0.066
-523.989	-171.317	-0.239	0.008
-522.975	253.453	0.070	0.120
-521.960	-200.000	0.028	0.430
-520.945	-124.729	-0.353	-0.055
-519.931	-134.997	0.351	0.042
-518.916	800.000	0.020	-0.089
-517.902	11.985	0.264	0.204
-516.887	133.958	0.244	0.316
-515.872	506.230	0.049	0.115
-514.858	37.015	-0.251	0.222
-513.843	-200.000	0.001	-0.149
-512.829	-195.973	0.587	0.004
-511.814	-161.861	0.296	0.015
-510.799	-200.000	0.155	-0.000
-509.785	170.461	-0.042	-0.061
-508.770	-173.349	-0.390	0.012
-507.756	-122.748	0.187	0.030
-506.741	-88.650	-0.092	0.027
-505.726	-88.754	-0.221	-0.066
-504.712	282.076	0.059	-0.106
-503.697	43.029	-0.051	0.046
-502.683	-1.843	-0.135	0.095
-501.668	800.000	0.075	0.213
-500.653	128.642	-0.082	0.104
-499.639	800.000	0.027	-0.098
-498.624	-159.467	-0.085	0.005
-497.610	-92.719	-0.158	0.044
-496.595	-114.905	-0.336	-0.064
-495.581	800.000	0.073	-0.204
-494.566	-29.776	0.207	-0.118
-493.551	-17.850	-0.414	-0.260
-492.537	41.528	-0.166	-0.151
-491.522	-200.000	-0.086	0.479
-490.508	800.000	-0.059	-0.253
-489.493	403.208	0.104	0.218
-488.478	-128.675	0.044	-0.006
-487.464	-111.887	0.427	-0.086
-486.449	-67.343	-0.066	-0.026
-485.435	553.639	-0.134	0.323
-484.420	93.645	-0.098	-0.111
-483.405	800.000	-0.011	0.032
-482.391	-112.532	-0.451	-0.090
-481.376	-134.104	0.068	-0.008
-480.362	-74.004	0.237	-0.086
-479.347	-72.376	0.138	0.051
-478.332	-18.561	0.084	0.053
-477.318	29.020	-0.287	-0.243
-476.303	-200.000	0.048	0.233
-475.289	-147.816	-0.351	-0.029
-474.274	-42.805	0.372	-0.189
-473.259	-49.806	-0.288	-0.137
-472.245	307.142	-0.068	-0.127
-471.230	-200.000	0.006	0.146
-470.216	-171.205	0.277	0.009
-469.201	73.557	0.126	-0.132
-468.186	-86.469	-0.116	0.035
-467.172	58.720	0.245	0.240
-466.157	-200.000	0.005	0.252
-465.143	-200.000	-0.021	-0.350
-464.128	105.065	-0.183	-0.216
-463.113	11.566	0.159	-0.122
-462.099	800.000	-0.059	0.169
-461.084	-194.168	0.251	-0.002
-460.070	-67.205	-0.404	-0.159
-459.055	293.763	0.108	-0.198
-458.040	-200.000	0.068	-0.305
-457.026	250.647	0.141	0.240
-456.011	-82.828	0.353	-0.114
-454.997	-81.348	-0.178	-0.059
-453.982	81.461	0.086	-0.093
-452.968	-12.358	-0.159	-0.104
-451.953	-200.000	-0.004	0.060
-450.938	-61.881	-0.330	0.138
-449.924	25.873	-0.136	-0.113
-448.909	27.232	-0.123	0.103
-447.895	14.970	0.051	-0.040
-446.880	157.970	0.264	-0.365
-445.865	445.570	-0.131	-0.287
-444.851	-36.236	0.098	0.053
-443.836	81.640	-0.200	0.216
-442.822	293.196	0.172	0.314
-441.807	261.075	0.030	0.052
-440.792	482.004	0.150	-0.340
-439.778	137.622	-0.177	-0.231
-438.763	800.000	-0.068	-0.291
-437.749	-7.670	0.221	-0.149
-436.734	114.125	-0.028	-0.034
-435.719	800.000	-0.096	-0.306
-434.705	-200.000	-0.072	-0.000
-433.690	-47.825	-0.016	-0.008
-432.676	39.837	0.074	-0.067
-431.661	-151.487	0.048	-0.004
-430.646	-40.302	0.103	-0.054
-429.632	-111.554	-0.097	0.020
-428.617	486.933	0.050	-0.115
-427.603	-200.000	0.013	-0.579
-426.588	464.166	0.045	-0.100
-425.573	-113.990	-0.149	-0.029
-424.559	-104.475	0.067	-0.015
-423.544	-143.871	-0.131	0.012
-422.530	-85.539	0.135	-0.042
-421.515	751.770	0.133	0.358
-420.500	800.000	-0.059	0.185
-419.486	71.454	-0.151	0.156
-418.471	-114.865	-0.240	-0.046
-417.457	-126.401	0.157	0.023
-416.442	26.992	-0.308	-0.258
-415.428	98.519	0.109	0.126
-414.413	-115.890	0.117	0.022
-413.398	-108.967	-0.159	-0.034
-412.384	213.603	-0.063	-0.099
-411.369	-121.017	0.397	-0.066
-410.355	106.396	-0.034	0.041
-409.340	-65.890	0.179	0.071
-408.325	668.522	0.051	0.132
-407.311	99.212	-0.099	-0.114
-406.296	800.000	0.024	0.079
-405.282	469.556	-0.090	0.202
-404.267	-14.376	-0.137	-0.088
-403.252	275.965	-0.220	0.390
-402.238	108.056	-0.066	0.079
-401.223	-88.360	-0.247	-0.073
-400.209	800.000	-0.034	0.144
-399.194	-65.162	0.159	0.064
-398.179	200.247	-0.054	0.082
-397.165	225.806	-0.173	0.280
-396.150	104.002	0.022	-0.026
-395.136	-64.503	0.318	-0.129
-394.121	-200.000	-0.012	0.375
-393.106	-200.000	0.059	0.405
-392.092	-156.677	-0.580	-0.036
-391.077	-54.492	0.072	0.033
-390.063	-171.762	0.282	0.009
-389.048	-200.000	0.008	-0.158
-388.033	800.000	-0.066	-0.226
-387.019	269.342	-0.057	-0.100
-386.004	800.000	-0.033	-0.116
-384.990	-200.000	0.017	-0.084
-383.975	-69.039	-0.160	0.061
-382.960	164.849	0.083	-0.116
-381.946	-200.000	-0.036	-0.295
-380.931	-142.244	0.283	0.028
-379.917	12.249	-0.155	-0.119
-378.902	-167.091	0.165	0.007
-377.888	-200.000	-0.005	0.115
-376.873	-200.000	-0.004	0.305
-375.858	-128.137	0.444	0.063
-374.844	-175.319	-0.098	-0.003
-373.829	-68.363	0.216	-0.084
-372.815	-87.459	0.563	-0.170
-371.800	4.483	0.127	-0.093
-370.785	-197.480	-0.432	-0.003
-369.771	500.467	-0.067	0.154
-368.756	292.566	-0.136	0.246
-367.742	350.756	0.130	0.257
-366.727	-17.699	0.130	0.081
-365.712	-132.070	0.142	0.018
-364.698	-70.321	0.196	0.074
-363.683	-58.842	0.041	0.018
-362.669	305.332	-0.146	-0.271
-361.654	562.305	-0.094	0.226
-360.639	162.014	-0.102	-0.143
-359.625	800.000	0.046	0.136
-358.610	-111.221	0.279	0.057
-357.596	-72.767	-0.105	-0.039
-356.581	7.155	-0.054	-0.040
-355.566	-44.205	-0.283	-0.141
-354.552	46.172	-0.126	-0.116
-353.537	800.000	-0.031	0.095
-352.523	-200.000	-0.003	-0.066
-351.508	418.634	-0.103	0.218
-350.493	800.000	-0.034	-0.134
-349.479	102.274	-0.139	0.162
-348.464	73.764	-0.175	0.182
-347.450	64.252	0.300	0.300
-346.435	-200.000	0.070	0.322
-345.420	76.766	0.118	0.124
-344.406	800.000	-0.035	0.124
-343.391	-75.515	-0.095	-0.034
-342.377	310.664	-0.168	-0.313
-341.362	-9.192	-0.162	0.108
-340.348	-25.466	-0.082	0.048
-339.333	-24.188	0.126	0.075
-338.318	-157.346	0.284	-0.017
-337.304	-200.000	-0.002	-0.324
-336.289	37.803	0.114	0.100
-335.275	-98.256	0.047	0.012
-334.260	800.000	-0.177	-0.495
-333.245	352.698	0.094	0.185
-332.231	-56.714	0.108	-0.047
-331.216	-70.509	0.141	-0.053
-330.202	-145.412	0.035	0.003
-329.187	228.163	-0.032	0.052
-328.172	271.785	-0.024	0.042
-327.158	130.201	0.245	0.312
-326.143	6.429	0.085	-0.063
-325.129	-84.981	0.065	0.020
-324.114	-200.000	0.036	0.265
-323.099	-70.771	0.121	-0.046
-322.085	130.195	0.129	0.164
-321.070	800.000	-0.077	-0.220
-320.056	229.600	0.072	-0.117
-319.041	-158.450	-0.505	-0.029
-318.026	18.786	-0.178	-0.142
-317.012	197.827	-0.135	-0.205
-315.997	-200.000	-0.002	0.265
-314.983	-52.992	-0.049	0.023
-313.968	213.426	0.136	-0.213
-312.953	-23.173	0.405	0.242
-311.939	-108.898	0.425	-0.090
-310.924	40.739	-0.105	-0.094
-309.910	-59.832	0.117	0.050
-308.895	-45.651	-0.227	-0.112
-307.880	-147.192	-0.088	-0.007
-306.866	663.293	0.049	0.126
-305.851	-97.666	0.068	0.018
-304.837	-19.091	-0.138	0.085
-303.822	24.546	0.193	-0.159
-302.807	-11.884	-0.139	0.091
-301.793	266.585	0.161	-0.279
-300.778	-182.235	0.105	0.002
-299.764	-31.350	0.050	0.028
-298.749	230.838	-0.124	-0.201
-297.735	-62.088	-0.243	0.101
-296.720	-200.000	-0.019	0.120
-295.705	-127.875	0.278	-0.040
-294.691	-8.270	0.208	-0.139
-293.676	11.491	-0.257	0.196
-292.662	-200.000	-0.063	0.461
-291.647	-3.073	-0.125	-0.087
-290.632	-156.105	0.449	-0.028
-289.618	-200.000	-0.027	-0.159
-288.603	290.118	0.105	-0.190
-287.589	-200.000	0.023	0.212
-286.574	-87.740	-0.326	-0.097
-285.559	9.815	-0.347	-0.262
-284.545	93.877	-0.117	0.131
-283.530	260.988	-0.046	-0.079
-282.516	-70.710	0.214	0.080
-281.501	800.000	0.155	-0.621
-280.486	92.091	0.159	0.178
-279.472	62.725	0.159	-0.158
-278.457	-71.968	-0.091	0.034
-277.443	-200.000	0.033	0.185
-276.428	128.654	0.130	-0.165
-275.413	15.614	-0.245	-0.191
-274.399	-102.325	0.145	-0.034
-273.384	29.209	-0.126	0.106
-272.370	321.580	-0.053	-0.099
-271.355	-200.000	-0.020	-0.232
-270.340	-53.956	0.131	-0.059
-269.326	44.694	-0.214	0.195
-268.311	-200.000	-0.011	-0.227
-267.297	-200.000	-0.081	0.423
-266.282	39.364	-0.205	-0.182
-265.267	41.974	0.333	-0.300
-264.253	292.044	0.054	-0.097
-263.238	-70.358	0.176	-0.066
-262.224	-144.351	0.123	0.011
-261.209	291.685	0.076	-0.138
-260.195	213.793	0.061	-0.095
-259.180	-200.000	-0.018	0.269
-258.165	-111.700	0.289	-0.058
-257.151	-200.000	0.019	-0.253
-256.136	337.116	0.165	-0.319
-255.122	-200.000	0.023	0.183
-254.107	-200.000	0.046	-0.255
-253.092	-200.000	0.027	0.360
-252.078	102.644	0.043	-0.050
-251.063	29.360	0.340	0.286
-250.049	-200.000	0.017	-0.172
-249.034	-88.125	0.152	0.045
-248.019	134.168	0.292	-0.375
-247.005	-190.636	0.335	0.004
-245.990	800.000	0.078	0.233
-244.976	38.920	-0.384	0.340
-243.961	93.184	-0.072	0.080
-242.946	-82.391	-0.213	0.069
-241.932	800.000	0.015	-0.061
-240.917	-200.000	0.016	-0.086
-239.903	90.819	0.176	0.196
-238.888	215.524	-0.188	0.295
-237.873	-159.819	0.201	-0.011
-236.859	572.287	0.125	0.301
-235.844	366.602	-0.056	0.112
-234.830	11.394	0.144	-0.109
-233.815	105.129	-0.028	0.033
-232.800	-200.000	-0.019	-0.335
-231.786	34.667	-0.078	-0.068
-230.771	-68.036	0.318	-0.123
-229.757	530.568	-0.145	0.338
-228.742	71.719	0.181	0.187
-227.727	800.000	0.051	0.142
-226.713	-127.375	-0.082	0.012
-225.698	-12.293	0.235	0.152
-224.684	-200.000	-0.016	0.311
-223.669	-132.185	0.287	0.037
-222.655	217.786	-0.105	0.165
-221.640	-31.670	-0.132	-0.073
-220.625	-200.000	-0.040	0.442
-219.611	-144.644	-0.319	0.029
-218.596	-200.000	0.022	0.115
-217.582	-82.254	-0.266	-0.086
-216.567	380.207	0.124	-0.251
-215.552	86.499	0.239	-0.260
-214.538	-50.736	0.268	0.125
-213.523	134.862	-0.136	0.175
-212.509	-82.305	0.203	0.065
-211.494	738.894	-0.088	0.233
-210.479	-132.820	-0.455	-0.057
-209.465	-200.000	0.051	-0.292
-208.450	-200.000	-0.020	0.089
-207.436	32.918	-0.164	0.140
-206.421	120.354	-0.131	0.161
-205.406	265.119	-0.098	0.169
-204.392	224.748	0.199	0.318
-203.377	37.162	0.244	0.214
-202.363	62.106	-0.062	-0.061
-201.348	278.074	-0.085	-0.149
-200.333	4.053	0.219	-0.158
-199.319	-39.215	0.191	0.099
-198.304	800.000	-0.039	0.127
-197.290	800.000	-0.101	0.328
-196.275	524.933	-0.066	0.154
-195.260	-50.108	-0.186	-0.087
-194.246	-170.606	0.130	0.004
-193.231	-200.000	-0.011	0.221
-192.217	595.361	-0.100	0.243
-191.202	-200.000	0.039	-0.351
-190.187	-29.953	-0.118	-0.066
-189.173	153.379	0.045	-0.061
-188.158	226.564	-0.204	-0.327
-187.144	3.956	-0.343	-0.248
-186.129	262.111	-0.075	0.128
-185.114	51.583	-0.175	-0.164
-184.100	-101.510	-0.201	-0.048
-183.085	-200.000	-0.028	-0.247
-182.071	92.094	-0.063	-0.071
-181.056	30.152	0.171	0.145
-180.042	625.790	0.134	0.335
-179.027	54.324	0.171	0.163
-178.012	510.674	0.075	0.171
-176.998	144.507	-0.147	0.194
-175.983	-140.709	0.380	0.039
-174.969	800.000	-0.088	-0.328
-173.954	-132.100	0.348	-0.045
-172.939	-200.000	0.044	0.194
-171.925	-132.843	0.268	-0.034
-170.910	-200.000	0.002	0.197
-169.896	800.000	0.029	-0.101
-168.881	731.972	0.064	-0.170
-167.866	458.366	0.075	-0.165
-166.852	800.000	0.071	-0.218
-165.837	73.574	0.144	0.149
-164.823	-103.792	0.172	0.040
-163.808	800.000	-0.074	0.229
-162.793	-113.377	0.131	0.025
-161.779	123.758	-0.061	-0.076
-160.764	800.000	-0.020	-0.087
-159.750	-33.231	-0.162	0.088
-158.735	-8.789	-0.203	-0.134
-157.720	-57.746	-0.328	-0.142
-156.706	117.201	0.037	-0.044
-155.691	273.363	0.092	-0.161
-154.677	306.197	-0.045	-0.082
-153.662	-135.003	-0.144	-0.017
-152.647	207.494	-0.112	0.173
-151.633	800.000	0.121	0.413
-150.618	542.330	0.092	0.216
-149.604	-75.734	-0.261	0.091
-148.589	93.369	0.354	-0.395
-147.574	-64.255	0.118	-0.047
-146.560	158.828	0.034	-0.047
-145.545	-200.000	0.062	0.469
-144.531	-167.032	0.309	-0.012
-143.516	-200.000	-0.005	0.321
-142.502	800.000	0.028	-0.101
-141.487	-122.458	0.213	-0.034
-140.472	213.071	0.034	-0.053
-139.458	800.000	0.081	0.256
-138.443	-200.000	-0.025	-0.431
-137.429	-200.000	-0.008	-0.131
-136.414	341.729	0.015	0.028
-135.399	-58.933	0.200	-0.085
-134.385	-200.000	-0.000	-0.091
-133.370	-23.541	0.109	-0.064
-132.356	-200.000	-0.040	0.188
-131.341	-200.000	0.012	-0.180
-130.326	117.494	-0.105	-0.127
-129.312	-12.143	0.242	-0.156
-128.297	-105.491	-0.180	0.040
-127.283	800.000	0.060	0.256
-126.268	459.218	-0.108	0.236
-125.253	51.746	-0.158	0.148
-124.239	-177.912	-0.391	0.009
-123.224	-48.772	0.190	-0.090
-122.210	-106.523	-0.215	-0.047
