DTS Sentinel unit serial number:	SN413079Multiplexer serial number:	ORYXHardware model number:	OX4-SRSoftware version number:	ORYX F/W v4.00 Oryx Data Collector v3.7.2.0data status	okinstallation	princeton_trtdifferential loss correction	single-endedforward channel	channel 1reverse channel	N/Adate	2019/09/12time	04:20:11forward acquisition time	60.00reverse acquisition time	0.00gamma	496.2192k internal	0.2324k external	0.2324temperature offset calibration	1.0083default loss term (dB/km)	0.3790temperature slope calibration	1.0000multiplexer offset coefficient	1.0000multiplexer slope coefficient	1.0000fibre end	0.00T internal ref (°C)	31.75T ext. ref 1 (°C)	2.25T ext. ref 2 (°C)	25.47length (m)	temperature (°C)	Stokes	anti-Stokes-747.200	-114.677	0.280	-0.054
-746.185	2.763	0.087	0.064
-745.171	-142.694	-0.095	-0.009
-744.156	382.274	0.083	0.171
-743.142	86.661	0.262	0.292
-742.127	540.571	0.105	0.251
-741.112	-100.629	0.308	0.077
-740.098	319.361	0.143	0.273
-739.083	102.367	-0.047	0.055
-738.069	-200.000	0.040	0.221
-737.054	62.802	0.078	-0.079
-736.039	-25.328	-0.258	-0.154
-735.025	81.567	0.238	0.260
-734.010	-64.525	-0.476	-0.195
-732.996	-161.620	-0.356	0.018
-731.981	-70.340	0.057	-0.022
-730.966	49.135	-0.112	0.106
-729.952	-53.347	0.228	-0.105
-728.937	89.003	-0.284	-0.319
-727.923	800.000	0.039	-0.165
-726.908	313.815	0.131	-0.249
-725.894	74.067	0.129	-0.136
-724.879	-73.279	0.125	-0.046
-723.864	162.131	0.079	-0.112
-722.850	-200.000	0.023	0.274
-721.835	-200.000	-0.004	0.126
-720.821	168.655	-0.030	0.043
-719.806	113.980	-0.363	0.445
-718.791	-21.920	-0.138	-0.085
-717.777	-200.000	-0.031	-0.297
-716.762	197.762	-0.200	0.308
-715.748	80.012	0.291	-0.315
-714.733	240.396	-0.004	-0.006
-713.718	63.081	-0.147	0.149
-712.704	-74.639	-0.199	0.072
-711.689	-89.378	-0.230	0.068
-710.675	-164.970	0.049	0.002
-709.660	-107.199	-0.252	0.056
-708.645	-126.924	-0.328	-0.049
-707.631	-16.503	0.047	-0.030
-706.616	211.122	0.012	-0.020
-705.602	-200.000	-0.059	-0.615
-704.587	-200.000	0.024	-0.136
-703.572	97.873	-0.222	-0.257
-702.558	800.000	-0.045	0.142
-701.543	46.619	-0.109	0.102
-700.529	-145.681	0.058	-0.005
-699.514	-200.000	0.004	-0.042
-698.499	-153.502	0.387	-0.027
-697.485	67.164	-0.057	-0.058
-696.470	-43.803	0.113	-0.057
-695.456	-102.042	-0.175	-0.042
-694.441	-200.000	0.029	0.373
-693.426	103.637	-0.196	0.232
-692.412	38.286	0.126	-0.113
-691.397	-124.015	-0.424	0.067
-690.383	237.078	-0.097	-0.163
-689.368	-120.361	-0.179	-0.031
-688.354	276.112	-0.057	0.102
-687.339	207.481	0.290	0.455
-686.324	46.056	0.295	-0.275
-685.310	-200.000	-0.023	0.285
-684.295	122.567	-0.196	-0.247
-683.281	176.692	-0.028	-0.040
-682.266	-112.219	-0.355	-0.072
-681.251	-8.674	0.164	-0.111
-680.237	224.056	-0.040	0.065
-679.222	450.730	0.058	-0.129
-678.208	238.278	-0.180	0.302
-677.193	-100.049	-0.208	0.052
-676.178	-200.000	-0.017	0.238
-675.164	577.687	-0.072	-0.178
-674.149	-46.424	0.229	0.113
-673.135	713.255	0.166	-0.444
-672.120	58.137	-0.164	-0.161
-671.105	-84.264	0.187	-0.059
-670.091	633.167	-0.055	-0.140
-669.076	-88.346	-0.396	0.119
-668.062	-200.000	-0.006	0.314
-667.047	-73.344	0.367	0.135
-666.032	800.000	0.094	-0.272
-665.018	146.775	0.074	-0.100
-664.003	-200.000	0.028	0.336
-662.989	800.000	-0.092	0.281
-661.974	-67.321	0.372	0.147
-660.959	100.787	0.098	0.115
-659.945	83.997	-0.089	-0.097
-658.930	-24.772	0.171	-0.102
-657.916	-60.736	-0.177	-0.076
-656.901	-200.000	-0.031	-0.250
-655.886	336.608	-0.132	-0.257
-654.872	-113.708	-0.260	-0.051
-653.857	-84.211	0.138	0.044
-652.843	140.919	0.010	-0.014
-651.828	-14.339	-0.176	0.114
-650.814	-84.482	-0.349	0.111
-649.799	-200.000	-0.034	-0.250
-648.784	272.893	-0.031	0.056
-647.770	-94.236	-0.202	-0.056
-646.755	-79.455	-0.206	-0.070
-645.741	232.051	0.116	-0.192
-644.726	-8.197	0.239	0.162
-643.711	800.000	-0.041	-0.121
-642.697	57.519	-0.145	0.142
-641.682	800.000	0.039	0.163
-640.668	-17.769	0.239	-0.151
-639.653	-200.000	-0.059	0.316
-638.638	561.595	-0.025	-0.060
-637.624	-200.000	-0.020	-0.111
-636.609	-89.841	0.553	-0.162
-635.595	106.642	-0.097	0.116
-634.580	477.827	0.135	0.308
-633.565	-29.020	0.328	0.189
-632.551	579.722	-0.023	0.056
-631.536	800.000	0.027	0.078
-630.522	54.460	0.200	0.194
-629.507	-200.000	-0.050	0.228
-628.492	-35.006	0.115	0.063
-627.478	-70.423	0.099	0.038
-626.463	-88.718	-0.289	-0.086
-625.449	77.030	-0.114	-0.122
-624.434	67.642	0.034	-0.034
-623.419	-79.925	0.238	0.080
-622.405	-200.000	0.004	-0.061
-621.390	-141.892	0.272	0.027
-620.376	-138.555	0.383	-0.042
-619.361	-96.122	0.124	-0.033
-618.346	-20.022	-0.298	0.185
-617.332	15.710	-0.155	-0.123
-616.317	204.304	-0.032	0.050
-615.303	-200.000	0.000	0.239
-614.288	474.465	-0.119	0.270
-613.273	800.000	0.016	-0.062
-612.259	-113.794	0.179	-0.035
-611.244	-47.356	0.061	0.030
-610.230	87.421	0.155	-0.172
-609.215	-24.585	0.188	-0.113
-608.201	500.646	0.146	-0.337
-607.186	34.677	0.127	-0.112
-606.171	75.423	-0.171	0.182
-605.157	113.524	-0.122	-0.149
-604.142	-89.719	0.314	0.092
-603.128	-145.315	-0.182	-0.016
-602.113	-138.403	-0.232	0.026
-601.098	-200.000	-0.045	-0.552
-600.084	-17.940	0.107	-0.067
-599.069	7.340	0.185	0.139
-598.055	-155.485	-0.117	0.008
-597.040	-59.316	-0.232	-0.100
-596.025	289.074	0.068	-0.124
-595.011	221.867	0.023	-0.037
-593.996	317.256	-0.133	-0.253
-592.982	800.000	-0.048	0.162
-591.967	-103.643	0.129	-0.030
-590.952	-119.858	-0.378	-0.065
-589.938	86.148	0.100	0.110
-588.923	-108.452	-0.437	-0.095
-587.909	35.218	0.059	0.052
-586.894	-200.000	0.006	0.274
-585.879	-200.000	-0.079	-0.396
-584.865	232.965	0.129	-0.213
-583.850	24.185	0.161	0.133
-582.836	-107.868	-0.356	-0.078
-581.821	800.000	0.107	-0.299
-580.806	-159.287	-0.159	-0.009
-579.792	-12.829	0.133	0.087
-578.777	172.719	-0.190	-0.275
-577.763	-71.853	0.147	-0.055
-576.748	-200.000	-0.027	0.202
-575.733	528.331	-0.063	0.149
-574.719	24.882	-0.339	0.282
-573.704	-165.953	-0.234	-0.010
-572.690	-123.887	0.031	0.005
-571.675	274.235	0.047	-0.084
-570.661	7.993	-0.293	-0.221
-569.646	43.672	0.300	0.275
-568.631	-171.253	0.176	0.006
-567.617	341.115	-0.098	0.192
-566.602	-200.000	0.004	0.030
-565.588	-78.478	-0.232	-0.080
-564.573	-66.375	-0.331	0.132
-563.558	489.564	-0.126	-0.288
-562.544	1.700	-0.081	0.058
-561.529	-9.751	0.195	-0.130
-560.515	15.711	0.205	0.161
-559.500	-121.762	-0.211	0.035
-558.485	-31.449	-0.215	-0.121
-557.471	-200.000	0.009	-0.119
-556.456	66.158	0.076	0.078
-555.442	800.000	-0.033	0.127
-554.427	-82.315	-0.257	-0.084
-553.412	800.000	0.080	0.226
-552.398	-136.085	0.312	-0.037
-551.383	-122.178	-0.208	-0.034
-550.369	-102.482	0.299	0.072
-549.354	-3.012	-0.162	0.113
-548.339	391.852	0.146	-0.303
-547.325	-200.000	-0.026	-0.166
-546.310	-200.000	-0.046	-0.236
-545.296	422.921	0.084	-0.181
-544.281	-133.505	-0.286	0.036
-543.266	-97.541	0.433	-0.113
-542.252	183.044	-0.067	-0.099
-541.237	454.060	-0.132	0.294
-540.223	-37.237	0.261	-0.140
-539.208	-108.155	-0.491	0.106
-538.193	-57.906	-0.348	-0.152
-537.179	-60.589	0.202	0.086
-536.164	-163.422	0.224	0.011
-535.150	-145.193	-0.193	0.018
-534.135	-200.000	-0.001	0.052
-533.121	-184.533	-0.103	0.002
-532.106	-97.689	0.420	-0.109
-531.091	102.159	-0.141	-0.165
-530.077	-12.141	0.068	-0.045
-529.062	-130.569	0.178	0.024
-528.048	314.448	0.152	-0.287
-527.033	1.905	-0.182	0.132
-526.018	-50.912	0.189	-0.089
-525.004	-200.000	0.033	-0.221
-523.989	-56.361	0.114	0.051
-522.975	-200.000	-0.009	0.074
-521.960	-200.000	0.016	0.086
-520.945	-87.869	0.162	-0.049
-519.931	88.965	0.078	0.087
-518.916	-86.432	-0.150	0.046
-517.902	49.179	-0.158	0.148
-516.887	-200.000	-0.002	0.396
-515.872	226.083	0.160	0.260
-514.858	-102.993	0.199	-0.047
-513.843	-184.666	-0.167	-0.003
-512.829	-99.298	0.239	0.060
-511.814	234.554	0.035	0.058
-510.799	-178.730	-0.232	-0.005
-509.785	2.446	0.268	0.194
-508.770	715.196	-0.065	-0.171
-507.756	4.602	-0.227	-0.167
-506.741	-200.000	0.019	-0.547
-505.726	-2.385	-0.193	0.135
-504.712	185.330	-0.085	0.126
-503.697	-68.884	-0.063	-0.024
-502.683	-47.147	-0.216	0.105
-501.668	-59.780	-0.244	0.105
-500.653	763.383	0.065	-0.176
-499.639	132.661	0.028	0.036
-498.624	-37.789	0.295	-0.157
-497.610	37.126	0.377	-0.334
-496.595	-200.000	-0.049	-0.244
-495.581	800.000	-0.104	0.397
-494.566	71.969	-0.072	-0.075
-493.551	-43.361	0.160	0.081
-492.537	776.111	0.024	-0.067
-491.522	-200.000	-0.002	0.076
-490.508	-92.978	-0.118	-0.033
-489.493	279.534	-0.147	0.262
-488.478	-18.186	-0.146	-0.091
-487.464	327.093	-0.050	0.096
-486.449	221.923	0.169	0.271
-485.435	-111.722	0.101	0.020
-484.420	72.526	-0.135	-0.141
-483.405	-200.000	-0.436	-0.002
-482.391	-110.041	-0.353	0.074
-481.376	800.000	-0.041	0.159
-480.362	-75.779	0.150	0.053
-479.347	-132.846	0.037	-0.005
-478.332	-192.071	-0.043	-0.000
-477.318	-142.815	-0.183	0.018
-476.303	-58.492	0.216	0.094
-475.289	-36.615	0.229	0.123
-474.274	-36.544	-0.167	0.090
-473.259	-86.738	-0.079	0.024
-472.245	29.825	0.047	0.040
-471.230	319.351	-0.080	-0.152
-470.216	680.209	-0.038	0.100
-469.201	-110.586	-0.243	0.050
-468.186	800.000	-0.068	0.282
-467.172	-98.321	0.391	-0.100
-466.157	-101.278	-0.178	-0.043
-465.143	70.119	0.211	-0.218
-464.128	-173.458	-0.105	0.003
-463.113	54.913	-0.252	-0.243
-462.099	-25.585	0.350	-0.207
-461.084	-127.635	-0.290	0.042
-460.070	122.891	-0.189	-0.236
-459.055	173.898	0.065	-0.093
-458.040	-62.707	-0.259	-0.107
-457.026	-200.000	0.004	-0.120
-456.011	45.724	-0.029	0.027
-454.997	-23.575	0.095	-0.057
-453.982	229.346	0.134	-0.219
-452.968	-200.000	0.015	0.115
-451.953	-200.000	0.005	0.094
-450.938	34.375	-0.059	-0.051
-449.924	263.521	-0.116	-0.202
-448.909	800.000	-0.091	-0.315
-447.895	-87.683	0.131	-0.040
-446.880	171.612	0.133	-0.191
-445.865	-113.828	0.064	0.012
-444.851	800.000	0.069	0.195
-443.836	46.072	-0.133	0.122
-442.822	-114.923	-0.301	0.057
-441.807	-36.620	0.180	0.097
-440.792	-103.244	0.317	-0.075
-439.778	366.968	0.052	0.104
-438.763	555.869	-0.058	0.140
-437.749	-200.000	0.048	-0.537
-436.734	-106.323	-0.416	-0.093
-435.719	797.500	0.042	0.116
-434.705	12.330	0.196	0.150
-433.690	-40.269	0.073	-0.038
-432.676	-200.000	0.075	0.349
-431.661	319.307	0.163	0.308
-430.646	-12.841	-0.146	-0.095
-429.632	44.355	0.124	0.114
-428.617	-58.852	0.099	-0.043
-427.603	787.937	0.097	-0.267
-426.588	68.376	0.067	0.069
-425.573	-200.000	0.016	-0.287
-424.559	-200.000	0.003	-0.047
-423.544	-3.468	-0.270	0.187
-422.530	-74.204	0.336	0.121
-421.515	-57.426	0.165	0.072
-420.500	-109.810	-0.384	0.080
-419.486	-200.000	-0.013	0.065
-418.471	66.430	-0.125	-0.127
-417.457	189.309	0.138	0.207
-416.442	295.120	-0.055	-0.100
-415.428	212.270	-0.063	-0.099
-414.413	175.339	0.174	0.251
-413.398	-6.889	0.078	-0.053
-412.384	485.068	-0.072	-0.164
-411.369	-200.000	0.027	0.152
-410.355	70.127	0.092	0.095
-409.340	379.826	0.077	0.156
-408.325	-9.408	0.219	0.146
-407.311	-13.742	0.342	-0.220
-406.296	18.143	-0.180	0.143
-405.282	-200.000	0.034	0.148
-404.267	180.439	-0.084	0.123
-403.252	-151.077	-0.464	0.035
-402.238	347.331	0.070	0.138
-401.223	500.411	-0.118	0.272
-400.209	-200.000	-0.026	0.194
-399.194	214.016	-0.035	-0.055
-398.179	40.780	-0.095	0.085
-397.165	148.402	0.245	-0.329
-396.150	88.253	0.124	-0.137
-395.136	495.593	-0.050	-0.115
-394.121	570.686	-0.129	-0.313
-393.106	492.688	-0.120	0.274
-392.092	-200.000	0.019	-0.122
-391.077	800.000	-0.021	-0.067
-390.063	344.678	0.055	0.108
-389.048	26.335	-0.217	-0.181
-388.033	177.223	0.123	-0.179
-387.019	-152.023	0.171	-0.012
-386.004	-200.000	-0.022	0.143
-384.990	800.000	-0.018	-0.067
-383.975	362.010	-0.151	-0.301
-382.960	800.000	0.021	0.060
-381.946	147.793	0.236	-0.317
-380.931	122.991	0.048	0.060
-379.917	800.000	0.111	-0.385
-378.902	-39.870	-0.072	-0.038
-377.888	-200.000	-0.016	-0.166
-376.873	33.195	0.151	-0.130
-375.858	17.291	0.095	-0.075
-374.844	40.015	-0.223	0.199
-373.829	364.662	-0.043	0.086
-372.815	-178.240	-0.408	0.010
-371.800	-95.613	0.238	-0.063
-370.785	-69.859	-0.145	-0.055
-369.771	-135.820	-0.328	0.039
-368.756	-200.000	0.009	0.115
-367.742	744.395	0.102	0.274
-366.727	-76.128	0.079	-0.028
-365.712	-48.598	0.093	0.044
-364.698	800.000	0.060	-0.223
-363.683	473.868	0.109	-0.244
-362.669	-4.809	-0.117	0.080
-361.654	102.964	0.199	0.231
-360.639	321.170	0.082	0.155
-359.625	234.742	-0.142	0.234
-358.610	256.041	-0.155	-0.265
-357.596	800.000	-0.094	-0.262
-356.581	-83.204	-0.047	-0.015
-355.566	-127.766	0.156	-0.022
-354.552	-200.000	-0.020	-0.115
-353.537	78.891	0.248	-0.264
-352.523	-200.000	-0.019	0.225
-351.508	-8.024	0.240	0.161
-350.493	-200.000	0.083	0.372
-349.479	-37.096	0.335	0.178
-348.464	-200.000	-0.049	-0.288
-347.450	214.436	-0.181	-0.285
-346.435	-191.820	-0.529	-0.005
-345.420	-191.038	-0.131	-0.001
-344.406	-126.279	0.229	0.034
-343.391	254.002	-0.027	0.045
-342.377	-54.156	-0.221	0.100
-341.362	8.940	0.157	-0.118
-340.348	85.172	-0.305	-0.333
-339.333	-200.000	0.045	-0.328
-338.318	-200.000	-0.008	0.095
-337.304	800.000	-0.058	0.234
-336.289	720.688	-0.118	0.311
-335.275	-200.000	0.022	0.198
-334.260	142.002	0.115	-0.151
-333.245	48.557	0.202	0.188
-332.231	-25.166	-0.359	0.211
-331.216	-200.000	0.007	-0.078
-330.202	800.000	-0.084	-0.301
-329.187	78.083	0.325	0.345
-328.172	379.219	-0.047	0.095
-327.158	-71.444	-0.191	0.071
-326.143	1.485	-0.328	0.234
-325.129	-30.314	0.333	0.188
-324.114	-153.781	-0.314	0.021
-323.099	115.651	-0.138	-0.168
-322.085	-49.136	0.258	0.123
-321.070	-45.298	0.197	-0.097
-320.056	-5.627	-0.339	0.231
-319.041	18.009	-0.041	0.032
-318.026	234.100	0.156	-0.255
-317.012	-80.301	-0.097	-0.032
-315.997	-200.000	-0.021	-0.204
-314.983	-160.250	-0.280	-0.015
-313.968	744.400	-0.124	-0.330
-312.953	41.778	-0.258	-0.232
-311.939	-114.743	0.203	0.038
-310.924	-54.293	0.397	0.179
-309.910	-167.124	0.019	0.001
-308.895	-90.256	-0.217	0.062
-307.880	-109.694	-0.283	0.059
-306.866	91.691	-0.131	0.147
-305.851	-151.044	0.305	-0.023
-304.837	-200.000	-0.064	-0.295
-303.822	393.778	-0.108	-0.223
-302.807	234.389	-0.098	0.161
-301.793	-149.711	0.284	0.022
-300.778	-86.441	0.438	-0.134
-299.764	-53.040	0.321	0.146
-298.749	15.726	0.184	0.143
-297.735	-3.264	0.193	0.133
-296.720	-68.248	0.070	0.027
-295.705	51.295	-0.029	-0.028
-294.691	576.870	-0.027	-0.064
-293.676	-102.358	-0.264	-0.063
-292.662	74.252	-0.156	0.162
-291.647	41.474	0.155	0.139
-290.632	32.040	-0.173	-0.148
-289.618	48.983	0.165	0.154
-288.603	306.116	0.027	0.050
-287.589	184.623	-0.050	-0.073
-286.574	98.830	0.112	0.128
-285.559	-200.000	0.000	-0.267
-284.545	39.739	-0.159	-0.141
-283.530	16.859	0.107	0.084
-282.516	72.982	-0.234	0.243
-281.501	-18.345	-0.281	0.174
-280.486	-155.102	-0.162	0.011
-279.472	-200.000	-0.011	-0.092
-278.457	-163.576	-0.418	-0.020
-277.443	800.000	0.027	-0.111
-276.428	-200.000	0.012	0.173
-275.413	145.978	0.067	0.090
-274.399	-149.635	0.251	-0.020
-273.384	-200.000	0.012	-0.351
-272.370	-58.520	0.043	0.018
-271.355	-101.896	-0.043	-0.010
-270.340	-200.000	0.002	0.014
-269.326	-109.215	0.172	0.036
-268.311	42.281	-0.152	-0.137
-267.297	800.000	0.050	0.198
-266.282	-46.370	0.303	-0.148
-265.267	77.313	-0.092	-0.097
-264.253	223.151	0.084	0.134
-263.238	198.013	-0.251	0.380
-262.224	-200.000	0.038	0.180
-261.209	-59.742	0.401	-0.170
-260.195	-200.000	-0.003	-0.174
-259.180	429.149	-0.030	0.065
-258.165	290.731	-0.089	-0.161
-257.151	387.846	0.195	-0.400
-256.136	800.000	-0.046	-0.152
-255.122	88.375	0.091	0.100
-254.107	71.766	0.051	-0.052
-253.092	-200.000	0.003	0.348
-252.078	-74.956	-0.187	0.066
-251.063	574.725	-0.160	0.388
-250.049	191.073	-0.051	-0.076
-249.034	153.465	-0.211	-0.286
-248.019	19.810	0.076	-0.061
-247.005	43.948	0.111	0.101
-245.990	95.777	0.019	0.022
-244.976	800.000	-0.004	-0.016
-243.961	-81.122	-0.189	-0.062
-242.946	-54.935	0.288	-0.129
-241.932	29.375	-0.195	0.164
-240.917	689.696	-0.120	-0.312
-239.903	-41.605	0.168	0.085
-238.888	-200.000	0.051	0.296
-237.873	-200.000	0.015	0.252
-236.859	-200.000	-0.015	-0.112
-235.844	-33.324	-0.328	0.179
-234.830	-200.000	0.037	0.260
-233.815	800.000	-0.042	0.133
-232.800	-200.000	0.005	-0.063
-231.786	-71.408	-0.228	-0.084
-230.771	-165.444	0.195	-0.008
-229.757	-118.724	-0.177	0.031
-228.742	106.237	-0.057	-0.067
-227.727	-124.294	-0.136	-0.021
-226.713	-7.988	-0.241	-0.161
-225.698	-156.228	0.212	0.013
-224.684	-169.740	-0.070	-0.002
-223.669	-56.673	0.040	-0.018
-222.655	15.771	0.088	0.068
-221.640	800.000	0.030	-0.089
-220.625	-200.000	-0.001	-0.211
-219.611	116.320	0.143	-0.174
-218.596	27.227	0.131	-0.109
-217.582	-14.200	0.085	-0.054
-216.567	217.909	-0.155	-0.244
-215.552	-134.189	-0.113	0.014
-214.538	-74.929	0.042	0.015
-213.523	273.773	-0.221	0.386
-212.509	-130.405	-0.122	-0.016
-211.494	-83.829	0.202	0.063
-210.479	59.415	-0.232	0.226
-209.465	13.742	0.088	0.068
-208.450	-200.000	0.056	0.354
-207.436	-121.623	-0.303	-0.050
-206.421	-97.280	-0.251	-0.065
-205.406	180.181	0.131	0.190
-204.392	-76.399	0.077	-0.027
-203.377	-200.000	-0.008	-0.047
-202.363	-31.095	-0.187	-0.104
-201.348	-200.000	-0.032	0.145
-200.333	-200.000	0.033	0.164
-199.319	-62.038	0.055	0.023
-198.304	-169.924	0.148	0.005
-197.290	97.648	-0.126	-0.143
-196.275	800.000	0.080	0.262
-195.260	-200.000	0.057	-0.309
-194.246	16.417	-0.269	-0.210
-193.231	39.857	-0.172	0.153
-192.217	163.593	0.027	0.037
-191.202	678.186	0.054	-0.138
-190.187	-115.917	0.213	-0.039
-189.173	-67.007	0.231	0.090
-188.158	290.318	-0.174	-0.312
-187.144	800.000	0.133	-0.417
-186.129	-24.469	0.345	0.203
-185.114	-187.221	0.156	-0.002
-184.100	-89.040	-0.146	0.043
-183.085	-77.692	0.243	-0.083
-182.071	49.527	-0.109	-0.101
-181.056	4.326	0.245	-0.177
-180.042	-200.000	-0.047	0.472
-179.027	41.427	-0.079	-0.071
-178.012	-200.000	0.010	0.198
-176.998	-200.000	-0.023	0.191
-175.983	18.173	0.262	0.206
-174.969	138.763	-0.092	-0.120
-173.954	122.423	-0.035	-0.043
-172.939	112.427	0.195	0.233
-171.925	-16.786	0.303	0.189
-170.910	-57.069	0.154	0.067
-169.896	84.331	0.133	-0.143
-168.881	-200.000	-0.021	0.097
-167.866	-94.709	-0.266	0.071
-166.852	52.582	-0.129	-0.122
-165.837	-78.233	0.201	-0.068
-164.823	399.779	0.028	-0.059
-163.808	92.970	-0.026	-0.029
-162.793	-169.359	0.265	0.010
-161.779	800.000	0.055	0.225
-160.764	-62.817	-0.219	0.089
-159.750	58.125	0.174	-0.169
-158.735	800.000	0.083	0.268
-157.720	-63.474	0.114	-0.046
-156.706	800.000	-0.036	-0.124
-155.691	40.111	0.032	0.029
-154.677	-24.415	0.209	0.123
-153.662	8.684	0.094	-0.070
-152.647	-36.007	-0.053	0.028
-151.633	-157.614	0.299	-0.018
-150.618	-125.284	0.257	-0.039
-149.604	135.569	-0.119	-0.153
-148.589	800.000	0.060	0.234
-147.574	-27.486	0.256	-0.147
-146.560	-28.708	-0.311	-0.176
-145.545	-139.515	-0.268	0.028
-144.531	-200.000	0.010	-0.093
-143.516	496.816	-0.048	-0.109
-142.502	66.237	-0.091	0.091
-141.487	69.444	-0.333	0.338
-140.472	-40.226	-0.365	-0.187
-139.458	42.110	0.220	-0.197
-138.443	-69.776	0.238	0.089
-137.429	800.000	0.020	-0.057
-136.414	-134.742	0.179	-0.021
-135.399	65.772	-0.241	-0.241
-134.385	-67.060	-0.307	0.119
-133.370	208.948	0.126	-0.194
-132.356	800.000	0.072	0.277
-131.341	14.731	0.047	-0.036
-130.326	122.284	0.062	0.077
-129.312	-11.915	-0.215	0.139
-128.297	800.000	0.081	0.273
-127.283	-80.784	-0.303	0.099
-126.268	-4.502	-0.102	0.070
-125.253	203.564	-0.188	-0.286
-124.239	78.691	-0.013	0.014
-123.224	115.511	-0.106	0.128
-122.210	113.078	0.124	-0.149
-121.195	-70.362	-0.150	-0.056
-120.180	11.218	-0.180	-0.136
