DTS Sentinel unit serial number:	SN413079Multiplexer serial number:	ORYXHardware model number:	OX4-SRSoftware version number:	ORYX F/W v4.00 Oryx Data Collector v3.7.2.0data status	okinstallation	princeton_trtdifferential loss correction	single-endedforward channel	channel 1reverse channel	N/Adate	2019/09/12time	07:16:11forward acquisition time	60.00reverse acquisition time	0.00gamma	496.2192k internal	0.2319k external	0.2319temperature offset calibration	1.0044default loss term (dB/km)	0.3790temperature slope calibration	1.0000multiplexer offset coefficient	1.0000multiplexer slope coefficient	1.0000fibre end	0.00T internal ref (°C)	32.25T ext. ref 1 (°C)	1.60T ext. ref 2 (°C)	28.33length (m)	temperature (°C)	Stokes	anti-Stokes-747.200	143.647	0.229	0.309
-746.185	508.077	-0.186	0.437
-745.171	-174.289	0.122	0.004
-744.156	-80.134	-0.103	-0.035
-743.142	-121.172	0.351	0.059
-742.127	800.000	0.064	0.225
-741.112	126.399	0.040	-0.051
-740.098	127.787	0.221	0.284
-739.083	323.047	-0.083	0.159
-738.069	-131.878	0.153	0.020
-737.054	-16.312	0.186	0.119
-736.039	-116.679	-0.228	0.042
-735.025	50.160	0.115	-0.110
-734.010	135.822	0.112	0.148
-732.996	-84.123	-0.385	-0.123
-731.981	800.000	0.053	-0.176
-730.966	0.234	0.273	-0.197
-729.952	-67.184	-0.260	-0.103
-728.937	-128.703	-0.184	-0.026
-727.923	4.961	0.201	-0.150
-726.908	800.000	0.034	-0.103
-725.894	111.092	0.078	0.094
-724.879	-92.008	-0.038	0.011
-723.864	-119.369	0.193	0.034
-722.850	-14.169	-0.177	0.115
-721.835	-200.000	0.027	0.234
-720.821	-99.027	-0.135	0.034
-719.806	180.154	0.127	0.189
-718.791	-200.000	0.038	0.187
-717.777	-200.000	-0.004	-0.097
-716.762	-109.198	-0.255	0.055
-715.748	178.466	-0.094	-0.139
-714.733	-28.500	0.297	0.173
-713.718	37.878	0.140	-0.126
-712.704	-188.443	-0.162	-0.002
-711.689	320.465	-0.061	-0.117
-710.675	-200.000	0.017	-0.294
-709.660	-200.000	-0.006	-0.038
-708.645	-200.000	-0.028	-0.200
-707.631	34.560	-0.246	0.217
-706.616	-62.809	0.215	0.090
-705.602	121.724	0.206	0.259
-704.587	303.574	0.127	-0.238
-703.572	-14.801	-0.194	-0.126
-702.558	-111.323	-0.369	0.076
-701.543	800.000	0.103	-0.431
-700.529	-200.000	-0.034	-0.188
-699.514	-103.957	0.079	-0.019
-698.499	-107.915	0.423	0.093
-697.485	-111.543	-0.106	0.022
-696.470	-13.456	-0.003	0.002
-695.456	-189.972	0.067	-0.001
-694.441	-48.625	0.036	-0.017
-693.426	-145.331	0.552	-0.050
-692.412	-200.000	0.007	-0.091
-691.397	538.399	0.004	0.010
-690.383	-21.141	0.170	-0.105
-689.368	314.451	0.074	0.141
-688.354	321.180	-0.203	-0.389
-687.339	800.000	0.121	0.438
-686.324	-11.457	0.150	-0.100
-685.310	-65.638	0.063	-0.026
-684.295	-139.374	0.267	0.029
-683.281	800.000	0.072	0.254
-682.266	800.000	-0.203	0.659
-681.251	-32.274	-0.165	0.093
-680.237	-93.026	-0.274	-0.077
-679.222	-16.705	-0.039	-0.025
-678.208	-64.658	0.117	0.048
-677.193	-30.493	-0.273	0.156
-676.178	800.000	0.134	-0.456
-675.164	-112.235	0.102	-0.021
-674.149	3.570	-0.196	0.144
-673.135	153.824	0.027	0.037
-672.120	-200.000	-0.015	-0.322
-671.105	-162.131	-0.305	0.015
-670.091	56.335	-0.135	0.132
-669.076	54.607	0.373	0.363
-668.062	104.078	-0.133	0.158
-667.047	800.000	-0.095	-0.285
-666.032	-200.000	-0.012	0.320
-665.018	-142.302	-0.490	0.049
-664.003	-100.816	0.255	-0.063
-662.989	-144.786	0.316	0.029
-661.974	-78.737	-0.235	0.081
-660.959	2.224	0.167	0.122
-659.945	-24.691	0.117	0.070
-658.930	-49.790	0.400	-0.192
-657.916	567.607	-0.087	0.212
-656.901	24.752	0.068	0.057
-655.886	202.057	-0.090	-0.140
-654.872	-79.108	0.104	-0.036
-653.857	-121.669	-0.201	-0.034
-652.843	-166.220	0.150	-0.006
-651.828	-138.689	-0.202	0.022
-650.814	41.080	-0.089	0.081
-649.799	-150.743	0.111	0.008
-648.784	123.569	-0.094	-0.119
-647.770	800.000	0.110	-0.343
-646.755	240.726	0.013	-0.022
-645.741	120.880	-0.120	-0.150
-644.726	-27.604	-0.292	0.171
-643.711	800.000	0.028	-0.099
-642.697	195.889	-0.169	0.260
-641.682	109.808	0.032	0.038
-640.668	-36.702	-0.266	0.144
-639.653	143.547	-0.209	0.281
-638.638	-147.404	-0.185	-0.016
-637.624	-83.348	0.308	0.099
-636.609	-89.445	0.104	0.031
-635.595	-100.100	-0.219	-0.055
-634.580	-34.856	0.256	-0.141
-633.565	649.595	0.075	-0.194
-632.551	137.875	0.258	-0.341
-631.536	800.000	0.052	-0.191
-630.522	100.618	-0.065	0.076
-629.507	-41.390	-0.166	-0.086
-628.492	-200.000	-0.034	0.403
-627.478	-200.000	0.023	-0.156
-626.463	99.126	0.103	-0.120
-625.449	36.366	-0.195	0.173
-624.434	159.007	-0.114	-0.160
-623.419	205.209	0.104	-0.163
-622.405	233.551	-0.116	-0.192
-621.390	-200.000	0.031	-0.236
-620.376	-123.475	-0.215	-0.034
-619.361	-27.466	0.205	0.120
-618.346	-49.081	0.115	0.056
-617.332	800.000	0.077	0.263
-616.317	30.540	-0.078	0.067
-615.303	-133.825	0.327	-0.041
-614.288	-200.000	0.025	0.115
-613.273	-200.000	-0.022	-0.104
-612.259	-16.872	0.123	-0.078
-611.244	-97.693	-0.338	0.088
-610.230	8.872	0.007	0.005
-609.215	138.572	-0.037	-0.049
-608.201	-1.374	0.188	0.133
-607.186	-60.881	0.260	-0.111
-606.171	403.313	0.083	0.175
-605.157	-107.948	0.168	-0.037
-604.142	800.000	-0.046	0.178
-603.128	-11.395	-0.248	-0.164
-602.113	-200.000	0.013	0.075
-601.098	-46.149	0.118	0.059
-600.084	787.628	-0.016	0.045
-599.069	54.061	-0.118	0.114
-598.055	-37.379	0.156	-0.084
-597.040	-200.000	0.021	0.120
-596.025	800.000	0.121	0.398
-595.011	125.309	-0.219	-0.278
-593.996	201.486	0.273	-0.423
-592.982	-150.456	-0.111	-0.009
-591.967	-62.345	-0.378	-0.158
-590.952	-87.152	-0.312	0.095
-589.938	-90.164	-0.225	-0.066
-588.923	-18.681	0.313	0.196
-587.909	140.224	0.201	0.267
-586.894	138.970	-0.209	0.276
-585.879	-200.000	-0.025	0.307
-584.865	114.255	-0.241	-0.295
-583.850	-113.970	0.398	0.078
-582.836	-156.109	0.100	-0.006
-581.821	370.228	-0.124	-0.253
-580.806	-152.434	-0.357	-0.026
-579.792	-120.107	0.220	0.038
-578.777	-1.042	-0.406	0.288
-577.763	-200.000	0.020	0.311
-576.748	-119.657	0.388	-0.067
-575.733	-16.545	0.200	-0.128
-574.719	30.405	-0.086	0.074
-573.704	97.334	-0.249	-0.287
-572.690	-142.794	0.043	0.004
-571.675	95.158	-0.109	-0.125
-570.661	-130.969	-0.129	-0.017
-569.646	800.000	-0.102	-0.390
-568.631	-25.466	0.138	-0.082
-567.617	20.309	0.014	0.011
-566.602	322.732	-0.303	0.579
-565.588	-200.000	0.009	-0.258
-564.573	55.967	-0.361	0.352
-563.558	-200.000	0.014	-0.136
-562.544	-43.796	0.037	-0.019
-561.529	129.793	-0.109	-0.140
-560.515	-127.528	0.244	0.036
-559.500	47.649	0.123	0.116
-558.485	-93.510	-0.106	0.029
-557.471	800.000	0.039	-0.126
-556.456	-200.000	-0.023	-0.203
-555.442	34.970	0.244	0.214
-554.427	-73.670	0.079	-0.029
-553.412	-72.509	-0.074	-0.028
-552.398	-104.524	-0.277	-0.064
-551.383	41.739	-0.064	0.058
-550.369	196.035	0.260	0.397
-549.354	-200.000	0.001	0.354
-548.339	70.890	-0.108	0.113
-547.325	800.000	0.136	-0.411
-546.310	179.584	0.106	0.156
-545.296	-120.396	0.224	-0.038
-544.281	-53.303	-0.231	-0.106
-543.266	51.199	-0.193	0.183
-542.252	-32.048	-0.123	0.069
-541.237	47.606	0.170	-0.159
-540.223	368.343	-0.085	-0.173
-539.208	150.063	-0.105	-0.143
-538.193	-45.784	-0.168	-0.083
-537.179	-62.835	-0.114	0.047
-536.164	-111.555	0.191	-0.039
-535.150	-99.946	0.229	0.057
-534.135	541.506	-0.102	-0.244
-533.121	-52.986	-0.238	-0.110
-532.106	-200.000	0.052	0.372
-531.091	257.337	0.109	0.188
-530.077	-117.805	0.610	-0.110
-529.062	800.000	0.021	-0.080
-528.048	115.103	-0.036	0.045
-527.033	-12.858	-0.131	0.085
-526.018	-84.114	-0.518	-0.165
-525.004	-200.000	0.069	0.365
-523.989	-140.322	-0.345	-0.036
-522.975	-94.691	-0.066	0.018
-521.960	-174.153	0.390	-0.011
-520.945	800.000	-0.054	-0.155
-519.931	261.487	0.184	-0.319
-518.916	-57.846	-0.131	-0.057
-517.902	42.597	0.315	0.288
-516.887	-175.271	-0.334	-0.009
-515.872	95.174	-0.084	-0.096
-514.858	-46.968	-0.093	0.046
-513.843	-59.872	0.384	0.165
-512.829	800.000	-0.067	0.223
-511.814	-55.181	-0.181	0.082
-510.799	800.000	-0.140	0.516
-509.785	-200.000	0.024	0.142
-508.770	8.462	0.302	0.228
-507.756	-110.243	0.438	0.091
-506.741	-200.000	-0.062	-0.294
-505.726	-200.000	0.013	0.166
-504.712	-60.984	0.038	-0.016
-503.697	133.218	-0.098	-0.127
-502.683	-100.403	-0.139	-0.034
-501.668	91.861	0.180	-0.204
-500.653	219.461	-0.202	0.324
-499.639	-99.768	-0.141	0.035
-498.624	-27.825	0.419	0.244
-497.610	-88.684	0.287	-0.086
-496.595	-200.000	0.016	-0.120
-495.581	-200.000	0.008	-0.187
-494.566	-63.763	-0.369	0.152
-493.551	550.958	0.135	0.324
-492.537	-200.000	0.058	-0.441
-491.522	293.468	0.058	0.107
-490.508	-84.705	-0.566	-0.179
-489.493	800.000	-0.062	0.173
-488.478	-137.463	-0.102	-0.012
-487.464	200.209	-0.181	-0.279
-486.449	-71.483	-0.234	-0.088
-485.435	27.200	0.072	0.060
-484.420	48.462	-0.186	0.174
-483.405	772.527	-0.077	0.210
-482.391	137.036	-0.220	0.288
-481.376	-57.061	-0.034	-0.015
-480.362	360.274	0.126	-0.252
-479.347	-63.028	0.321	-0.133
-478.332	-139.061	0.267	-0.029
-477.318	52.761	-0.090	0.086
-476.303	66.364	-0.228	0.232
-475.289	800.000	0.083	-0.285
-474.274	-154.224	-0.366	0.025
-473.259	-52.643	0.212	0.098
-472.245	315.970	0.125	0.236
-471.230	-33.197	-0.205	0.113
-470.216	-139.359	-0.202	0.022
-469.201	227.217	-0.073	0.119
-468.186	736.036	0.165	-0.442
-467.172	-122.289	-0.056	0.009
-466.157	-76.818	0.206	-0.072
-465.143	14.624	-0.226	-0.177
-464.128	412.705	0.027	0.058
-463.113	9.653	0.310	0.235
-462.099	26.859	0.181	0.151
-461.084	-62.492	-0.130	-0.054
-460.070	-200.000	0.000	0.041
-459.055	-200.000	-0.006	0.262
-458.040	-46.988	-0.174	0.085
-457.026	137.495	0.147	-0.192
-456.011	160.284	-0.066	-0.093
-454.997	800.000	-0.101	0.401
-453.982	-200.000	0.018	0.135
-452.968	17.435	-0.042	0.033
-451.953	17.972	-0.273	-0.218
-450.938	257.582	0.081	0.140
-449.924	-88.149	0.408	0.122
-448.909	-200.000	0.005	0.024
-447.895	55.331	-0.184	-0.178
-446.880	-59.829	0.308	-0.132
-445.865	-200.000	0.020	0.263
-444.851	-123.969	0.176	0.028
-443.836	-77.629	0.071	0.024
-442.822	-100.912	-0.263	-0.065
-441.807	-15.766	-0.308	0.196
-440.792	23.669	0.140	-0.115
-439.778	-106.775	0.135	-0.030
-438.763	-200.000	0.031	-0.536
-437.749	-127.234	0.142	-0.021
-436.734	-200.000	-0.022	0.230
-435.719	-6.216	0.123	0.084
-434.705	176.486	-0.117	-0.170
-433.690	141.670	-0.053	0.071
-432.676	-61.420	-0.100	0.042
-431.661	500.081	-0.180	0.416
-430.646	208.026	0.159	-0.249
-429.632	-128.525	-0.104	-0.015
-428.617	-27.326	-0.163	-0.095
-427.603	-13.859	-0.263	0.170
-426.588	-4.349	-0.197	-0.136
-425.573	-200.000	0.008	-0.277
-424.559	75.002	0.136	-0.143
-423.544	-113.068	-0.196	0.039
-422.530	-143.638	-0.214	-0.020
-421.515	-58.479	0.028	-0.012
-420.500	800.000	-0.045	-0.195
-419.486	-12.356	-0.070	0.046
-418.471	-5.226	-0.362	0.248
-417.457	-200.000	-0.026	0.201
-416.442	357.657	-0.091	-0.181
-415.428	342.588	0.156	0.305
-414.413	-81.917	-0.458	-0.150
-413.398	716.226	0.105	-0.278
-412.384	800.000	-0.089	-0.292
-411.369	-200.000	-0.028	-0.373
-410.355	-38.018	-0.192	0.102
-409.340	-29.032	-0.080	-0.046
-408.325	427.208	-0.082	-0.176
-407.311	83.691	-0.258	-0.281
-406.296	-140.248	-0.137	-0.014
-405.282	-200.000	-0.004	-0.076
-404.267	-153.820	-0.286	-0.020
-403.252	239.621	0.179	0.298
-402.238	-37.889	-0.084	-0.044
-401.223	-200.000	-0.008	0.361
-400.209	646.594	-0.057	-0.144
-399.194	-200.000	0.027	-0.155
-398.179	-125.639	0.312	-0.047
-397.165	-200.000	0.010	0.076
-396.150	800.000	0.076	-0.215
-395.136	-184.200	-0.432	-0.007
-394.121	183.465	0.083	0.122
-393.106	256.351	-0.129	-0.221
-392.092	166.179	0.180	-0.254
-391.077	-200.000	-0.001	0.217
-390.063	-60.130	-0.059	0.025
-389.048	-1.967	-0.170	-0.119
-388.033	139.771	0.036	-0.047
-387.019	-55.390	0.237	-0.106
-386.004	-123.826	0.349	-0.055
-384.990	293.024	0.098	0.179
-383.975	106.029	-0.168	-0.198
-382.960	36.244	0.211	-0.186
-381.946	-200.000	0.007	-0.033
-380.931	59.490	0.072	-0.071
-379.917	233.942	-0.052	0.085
-378.902	129.258	-0.037	-0.047
-377.888	-200.000	-0.006	0.191
-376.873	240.200	-0.116	-0.192
-375.858	-200.000	-0.034	0.333
-374.844	631.768	0.116	-0.294
-373.829	111.432	-0.150	-0.181
-372.815	-62.729	0.189	0.078
-371.800	138.904	-0.054	0.070
-370.785	-200.000	-0.026	-0.215
-369.771	-119.645	-0.100	-0.017
-368.756	-5.599	0.047	0.032
-367.742	398.563	0.099	0.206
-366.727	-5.402	0.070	0.048
-365.712	55.460	0.147	-0.142
-364.698	153.662	-0.184	-0.252
-363.683	133.442	-0.127	0.163
-362.669	512.414	0.032	0.073
-361.654	753.645	0.095	0.256
-360.639	800.000	-0.044	-0.128
-359.625	-110.705	0.204	0.042
-358.610	-200.000	0.044	0.330
-357.596	-154.079	0.140	-0.009
-356.581	-125.296	-0.239	0.036
-355.566	-25.318	0.380	0.224
-354.552	-35.411	0.156	-0.084
-353.537	-200.000	-0.065	0.334
-352.523	195.409	0.159	-0.240
-351.508	800.000	-0.044	-0.165
-350.493	-136.532	0.116	-0.013
-349.479	-24.039	0.113	-0.067
-348.464	-33.924	0.313	-0.172
-347.450	-200.000	-0.124	-0.000
-346.435	-121.976	-0.182	-0.030
-345.420	-106.945	-0.154	0.034
-344.406	-50.021	0.314	-0.148
-343.391	-22.247	-0.197	0.119
-342.377	52.605	0.047	0.045
-341.362	86.865	-0.041	-0.045
-340.348	-32.358	-0.293	-0.163
-339.333	-134.350	-0.116	-0.014
-338.318	800.000	-0.038	-0.115
-337.304	-155.826	-0.059	0.004
-336.289	-35.984	0.205	-0.110
-335.275	101.753	-0.129	0.150
-334.260	87.590	-0.127	0.140
-333.245	119.915	0.075	-0.092
-332.231	54.097	0.307	-0.294
-331.216	305.996	0.127	-0.235
-330.202	-200.000	-0.014	-0.201
-329.187	-72.909	0.322	-0.118
-328.172	9.490	-0.182	-0.137
-327.158	-44.699	0.106	0.053
-326.143	-115.872	0.276	-0.051
-325.129	103.703	-0.089	-0.104
-324.114	504.744	0.097	-0.223
-323.099	164.406	0.143	0.200
-322.085	-65.072	0.056	-0.022
-321.070	800.000	-0.096	0.346
-320.056	41.311	-0.184	-0.166
-319.041	-200.000	-0.006	-0.195
-318.026	-63.535	0.193	-0.079
-317.012	800.000	-0.049	0.148
-315.997	-109.831	0.131	0.027
-314.983	-39.714	0.325	0.169
-313.968	1.209	0.085	0.061
-312.953	21.934	0.086	-0.070
-311.939	69.636	0.244	0.250
-310.924	270.271	-0.069	0.120
-309.910	-118.898	-0.297	0.052
-308.895	-37.804	0.139	0.074
-307.880	-188.149	-0.083	-0.001
-306.866	-83.232	-0.364	0.116
-305.851	281.990	0.244	0.435
-304.837	-200.000	0.043	0.228
-303.822	-164.221	-0.075	-0.003
-302.807	-7.845	-0.100	0.067
-301.793	800.000	0.160	0.446
-300.778	-125.645	0.114	0.017
-299.764	-120.180	-0.134	0.023
-298.749	800.000	0.037	0.113
-297.735	104.105	0.304	0.355
-296.720	32.181	-0.197	0.169
-295.705	202.116	0.105	0.161
-294.691	-200.000	0.067	0.410
-293.676	-113.176	0.084	0.016
-292.662	70.322	0.134	0.138
-291.647	-67.767	0.227	-0.088
-290.632	69.166	-0.100	-0.102
-289.618	123.048	0.214	-0.267
-288.603	105.774	-0.136	0.160
-287.589	800.000	0.051	0.206
-286.574	54.750	0.207	0.198
-285.559	-200.000	0.031	0.169
-284.545	-1.530	0.307	0.215
-283.530	-70.696	0.274	-0.103
-282.516	-142.705	0.190	-0.018
-281.501	192.716	-0.148	0.223
-280.486	-200.000	0.012	0.275
-279.472	800.000	-0.050	-0.181
-278.457	-95.983	-0.294	0.078
-277.443	176.643	-0.054	-0.078
-276.428	16.623	-0.285	0.224
-275.413	-200.000	-0.020	0.231
-274.399	430.320	0.136	0.292
-273.384	21.053	-0.262	-0.211
-272.370	-86.853	0.313	0.095
-271.355	-200.000	0.007	0.106
-270.340	-18.996	-0.031	0.019
-269.326	800.000	0.033	-0.141
-268.311	356.627	-0.064	0.126
-267.297	730.976	-0.098	0.261
-266.282	78.680	-0.228	-0.242
-265.267	-169.262	0.405	-0.015
-264.253	-83.311	0.206	-0.066
-263.238	8.844	-0.150	-0.113
-262.224	129.927	0.283	-0.359
-261.209	334.401	0.221	-0.425
-260.195	-131.829	0.217	-0.028
-259.180	-60.785	-0.209	0.088
-258.165	-52.569	-0.234	-0.107
-257.151	-75.028	0.361	0.128
-256.136	24.821	-0.056	-0.046
-255.122	800.000	0.013	0.054
-254.107	-200.000	-0.003	-0.053
-253.092	77.788	0.095	-0.101
-252.078	-158.091	-0.401	0.023
-251.063	800.000	0.061	-0.190
-250.049	-43.964	-0.093	-0.046
-249.034	-158.678	-0.183	-0.010
-248.019	164.639	0.035	-0.048
-247.005	13.782	-0.069	0.053
-245.990	-200.000	0.001	0.228
-244.976	800.000	0.060	0.185
-243.961	-101.011	0.391	0.095
-242.946	-106.378	-0.197	0.044
-241.932	79.724	0.333	-0.355
-240.917	-51.381	0.160	-0.074
-239.903	-200.000	-0.009	0.040
-238.888	-41.490	0.156	0.079
-237.873	227.189	0.185	-0.298
-236.859	439.681	0.055	-0.119
-235.844	72.316	0.197	-0.203
-234.830	-200.000	-0.033	-0.228
-233.815	262.930	-0.197	-0.338
-232.800	149.753	-0.065	0.087
-231.786	-42.305	-0.290	-0.147
-230.771	800.000	-0.040	-0.151
-229.757	-35.728	-0.253	0.136
-228.742	472.175	0.040	-0.089
-227.727	4.698	0.328	0.239
-226.713	-162.085	-0.197	-0.010
-225.698	253.462	0.061	-0.104
-224.684	800.000	-0.012	0.045
-223.669	41.720	0.190	-0.170
-222.655	-200.000	-0.012	0.194
-221.640	-104.233	-0.270	0.062
-220.625	-200.000	0.003	-0.109
-219.611	53.037	-0.191	-0.181
-218.596	-67.293	0.364	0.142
-217.582	46.471	0.186	-0.171
-216.567	-139.013	-0.155	-0.017
-215.552	-65.626	0.220	-0.087
-214.538	-200.000	-0.045	-0.252
-213.523	-200.000	-0.075	-0.406
-212.509	-54.824	-0.138	0.062
-211.494	-161.520	-0.107	-0.005
-210.479	125.398	0.167	0.208
-209.465	60.090	0.128	-0.126
-208.450	611.583	0.069	-0.171
-207.436	-78.245	-0.559	0.190
-206.421	800.000	-0.085	0.334
-205.406	800.000	0.066	-0.239
-204.392	-124.465	-0.171	0.026
-203.377	331.462	-0.146	-0.278
-202.363	621.279	-0.114	0.283
-201.348	797.306	-0.079	-0.215
-200.333	330.692	0.113	-0.216
-199.319	800.000	0.073	-0.282
-198.304	233.627	0.130	-0.212
-197.290	246.144	-0.096	-0.160
-196.275	-83.384	-0.228	0.072
-195.260	-200.000	-0.012	-0.119
-194.246	11.066	-0.126	0.095
-193.231	571.533	-0.012	-0.028
-192.217	-116.511	0.288	0.053
-191.202	-200.000	-0.004	0.203
-190.187	-151.018	-0.123	0.009
-189.173	31.294	0.123	-0.104
-188.158	68.380	0.120	0.122
-187.144	256.166	0.178	0.303
-186.129	800.000	-0.111	0.401
-185.114	-200.000	0.014	0.396
-184.100	78.646	0.140	-0.148
-183.085	-16.909	0.164	-0.103
-182.071	800.000	0.048	-0.203
-181.056	6.221	-0.107	-0.078
-180.042	-200.000	-0.051	-0.306
-179.027	-45.635	-0.248	0.121
-178.012	-200.000	-0.005	-0.136
-176.998	181.969	-0.072	-0.105
-175.983	98.741	-0.048	-0.054
-174.969	114.189	0.108	-0.130
-173.954	800.000	-0.071	-0.222
-172.939	-162.270	0.300	-0.015
-171.925	-200.000	-0.033	-0.226
-170.910	46.199	-0.117	0.107
-169.896	-16.346	-0.257	-0.162
-168.881	-200.000	0.027	-0.495
-167.866	256.390	0.086	0.147
-166.852	77.937	0.027	-0.029
-165.837	-78.548	0.315	-0.106
-164.823	228.796	-0.199	0.321
-163.808	114.158	0.125	0.151
-162.793	4.136	0.051	-0.037
-161.779	-88.730	0.201	0.059
-160.764	-200.000	0.081	0.377
-159.750	-136.670	-0.140	0.016
-158.735	-159.600	0.120	0.007
-157.720	-35.777	-0.112	-0.060
-156.706	-39.248	0.141	0.073
-155.691	608.548	0.082	-0.203
-154.677	-112.768	0.064	0.013
-153.662	800.000	0.086	0.331
-152.647	143.450	0.074	-0.098
-151.633	-140.041	-0.387	-0.040
-150.618	-46.179	0.133	-0.065
-149.604	-83.577	-0.276	-0.087
-148.589	-127.585	0.187	0.027
-147.574	40.840	-0.205	0.183
-146.560	-95.563	-0.146	0.039
-145.545	-3.105	-0.096	-0.066
-144.531	-200.000	0.006	0.142
-143.516	-147.007	0.217	0.018
-142.502	-134.706	0.090	0.011
-141.487	-200.000	0.021	0.257
-140.472	-66.943	0.341	-0.133
-139.458	-200.000	0.002	-0.062
-138.443	-146.786	0.273	-0.023
-137.429	221.065	0.054	0.086
-136.414	234.422	-0.071	-0.116
-135.399	-200.000	0.001	-0.185
-134.385	292.789	0.078	0.140
-133.370	156.929	0.149	0.203
-132.356	800.000	0.006	-0.018
-131.341	-162.757	0.194	-0.009
-130.326	-200.000	-0.007	0.371
-129.312	-200.000	0.022	-0.429
-128.297	-134.678	0.176	0.021
-127.283	188.389	-0.140	0.207
-126.268	35.626	-0.162	-0.140
-125.253	-200.000	-0.002	-0.078
-124.239	-200.000	0.104	0.588
-123.224	84.810	0.149	-0.161
-122.210	800.000	-0.036	0.144
-121.195	258.173	0.078	0.132
