DTS Sentinel unit serial number:	SN413079Multiplexer serial number:	ORYXHardware model number:	OX4-SRSoftware version number:	ORYX F/W v4.00 Oryx Data Collector v3.7.2.0data status	okinstallation	princeton_trtdifferential loss correction	single-endedforward channel	channel 1reverse channel	N/Adate	2019/09/11time	00:20:11forward acquisition time	60.00reverse acquisition time	0.00gamma	496.2192k internal	0.2331k external	0.2331temperature offset calibration	0.9934default loss term (dB/km)	0.3790temperature slope calibration	1.0000multiplexer offset coefficient	1.0000multiplexer slope coefficient	1.0000fibre end	0.00T internal ref (°C)	29.31T ext. ref 1 (°C)	-0.31T ext. ref 2 (°C)	22.79length (m)	temperature (°C)	Stokes	anti-Stokes-747.200	-80.828	-0.083	-0.028
-746.185	11.509	-0.348	0.269
-745.171	-150.567	-0.428	-0.033
-744.156	46.223	-0.097	0.090
-743.142	167.260	0.200	0.285
-742.127	800.000	-0.068	0.267
-741.112	164.337	-0.136	0.193
-740.098	-200.000	-0.003	-0.065
-739.083	-18.243	0.341	-0.215
-738.069	800.000	0.066	0.191
-737.054	-200.000	-0.007	0.066
-736.039	-200.000	0.035	0.174
-735.025	359.506	-0.061	0.122
-734.010	-200.000	-0.053	0.299
-732.996	-30.164	0.197	0.113
-731.981	36.221	-0.006	-0.005
-730.966	800.000	0.024	-0.093
-729.952	-200.000	-0.083	-0.532
-728.937	-113.040	-0.107	-0.021
-727.923	-200.000	-0.013	-0.146
-726.908	662.423	0.104	-0.269
-725.894	-100.770	-0.270	0.067
-724.879	-170.192	-0.384	0.014
-723.864	-65.549	-0.357	-0.144
-722.850	-110.753	-0.311	-0.064
-721.835	2.638	0.214	-0.156
-720.821	69.596	-0.177	0.183
-719.806	-25.987	-0.215	0.127
-718.791	-57.344	-0.163	0.072
-717.777	-200.000	-0.046	-0.418
-716.762	-40.630	0.368	-0.192
-715.748	230.179	0.166	0.273
-714.733	-193.520	-0.428	-0.004
-713.718	46.166	0.092	0.085
-712.704	329.984	-0.132	-0.255
-711.689	451.400	-0.097	-0.216
-710.675	55.324	-0.270	-0.262
-709.660	172.783	0.104	-0.151
-708.645	-12.669	0.195	-0.128
-707.631	14.247	0.237	0.185
-706.616	463.633	0.100	0.224
-705.602	11.469	-0.120	-0.093
-704.587	-92.308	0.314	-0.089
-703.572	31.880	-0.192	-0.166
-702.558	-55.978	-0.251	0.112
-701.543	182.415	-0.066	0.097
-700.529	324.981	0.118	0.227
-699.514	-97.064	0.179	-0.047
-698.499	-131.040	-0.049	0.007
-697.485	-143.666	-0.247	0.024
-696.470	-50.450	-0.346	-0.164
-695.456	-114.016	-0.279	-0.054
-694.441	800.000	0.082	-0.288
-693.426	58.888	-0.110	-0.109
-692.412	-200.000	0.025	0.352
-691.397	-63.465	-0.158	-0.065
-690.383	800.000	-0.114	-0.445
-689.368	214.082	0.010	0.017
-688.354	21.916	-0.252	-0.206
-687.339	-47.451	0.211	-0.103
-686.324	-3.089	0.252	-0.177
-685.310	152.101	-0.083	-0.114
-684.295	-65.223	-0.112	0.045
-683.281	-74.125	-0.132	0.048
-682.266	-37.222	-0.373	0.201
-681.251	106.787	-0.114	-0.135
-680.237	-69.475	0.280	0.108
-679.222	-55.238	0.193	0.087
-678.208	154.516	-0.140	0.192
-677.193	-169.778	0.298	0.011
-676.178	167.343	-0.110	0.157
-675.164	637.898	-0.073	0.187
-674.149	-162.867	0.189	0.009
-673.135	2.356	-0.247	-0.180
-672.120	-21.003	0.391	-0.240
-671.105	66.552	-0.234	0.239
-670.091	-115.383	-0.091	-0.017
-669.076	-67.518	0.275	0.108
-668.062	119.810	-0.133	-0.166
-667.047	-26.494	0.314	0.185
-666.032	629.803	-0.133	-0.338
-665.018	800.000	0.034	0.095
-664.003	136.449	-0.203	-0.265
-662.989	-177.597	0.190	-0.005
-661.974	-195.556	0.264	0.002
-660.959	-200.000	-0.001	0.120
-659.945	800.000	0.092	-0.339
-658.930	-101.382	-0.148	0.036
-657.916	481.843	0.216	0.492
-656.901	127.516	0.127	0.161
-655.886	-88.548	-0.640	0.191
-654.872	-33.859	-0.215	0.119
-653.857	-131.559	-0.116	-0.015
-652.843	652.252	-0.027	0.071
-651.828	127.946	0.097	0.124
-650.814	207.172	-0.113	0.176
-649.799	800.000	-0.114	-0.437
-648.784	800.000	0.083	-0.266
-647.770	50.635	0.314	-0.298
-646.755	67.527	0.166	0.170
-645.741	-92.374	0.224	-0.063
-644.726	657.131	-0.159	-0.411
-643.711	32.774	-0.102	-0.088
-642.697	-53.061	0.300	-0.138
-641.682	-81.255	-0.211	-0.070
-640.668	-10.524	0.269	-0.178
-639.653	29.151	-0.069	0.059
-638.638	15.616	0.009	0.007
-637.624	-94.140	-0.253	-0.069
-636.609	-16.057	0.150	0.096
-635.595	-130.732	-0.427	0.057
-634.580	514.653	0.048	0.112
-633.565	800.000	0.054	-0.165
-632.551	148.473	0.135	-0.182
-631.536	31.967	-0.191	-0.165
-630.522	-200.000	0.011	-0.234
-629.507	167.920	0.054	-0.076
-628.492	2.126	-0.101	0.073
-627.478	-200.000	-0.024	0.243
-626.463	632.751	0.031	0.079
-625.449	-109.456	0.133	-0.028
-624.434	-21.441	-0.116	-0.071
-623.419	-125.514	-0.403	0.061
-622.405	294.350	0.059	0.109
-621.390	250.775	-0.008	-0.014
-620.376	105.471	-0.326	-0.385
-619.361	32.644	-0.065	-0.056
-618.346	-200.000	-0.017	0.099
-617.332	-25.646	-0.207	0.122
-616.317	48.970	-0.092	0.086
-615.303	-200.000	0.050	-0.238
-614.288	-14.763	-0.265	-0.170
-613.273	386.171	-0.064	-0.132
-612.259	800.000	-0.144	-0.450
-611.244	27.124	-0.094	0.079
-610.230	-134.481	-0.272	-0.033
-609.215	16.124	-0.160	0.126
-608.201	-74.911	0.218	-0.078
-607.186	244.738	0.105	0.177
-606.171	387.219	-0.085	0.176
-605.157	367.360	-0.034	0.069
-604.142	39.403	-0.267	0.239
-603.128	800.000	-0.028	0.105
-602.113	-98.299	0.348	-0.089
-601.098	800.000	0.039	0.154
-600.084	800.000	-0.036	0.120
-599.069	-200.000	0.019	-0.229
-598.055	104.150	0.036	-0.043
-597.040	10.345	0.100	0.076
-596.025	-63.165	-0.165	-0.068
-595.011	800.000	0.070	-0.222
-593.996	-200.000	0.006	0.187
-592.982	-20.814	0.176	-0.108
-591.967	-78.763	0.080	0.027
-590.952	270.421	-0.097	0.171
-589.938	380.817	-0.151	-0.309
-588.923	151.927	0.193	-0.263
-587.909	271.032	0.132	-0.233
-586.894	60.770	-0.327	-0.325
-585.879	-200.000	0.033	0.304
-584.865	-99.903	-0.149	0.037
-583.850	-125.508	-0.156	-0.024
-582.836	7.456	0.104	0.078
-581.821	-93.153	-0.266	-0.074
-580.806	-125.677	-0.471	0.071
-579.792	339.177	0.054	0.105
-578.777	611.513	0.063	-0.158
-577.763	800.000	-0.028	0.115
-576.748	210.809	0.108	-0.170
-575.733	-200.000	-0.015	-0.218
-574.719	800.000	0.056	-0.183
-573.704	800.000	-0.085	-0.286
-572.690	10.714	-0.099	0.075
-571.675	-112.016	0.437	0.088
-570.661	152.306	0.181	0.246
-569.646	424.586	-0.060	-0.129
-568.631	33.186	0.087	-0.076
-567.617	-57.579	-0.362	-0.159
-566.602	800.000	-0.087	0.258
-565.588	800.000	-0.039	0.131
-564.573	640.114	-0.020	-0.052
-563.558	-200.000	-0.003	0.087
-562.544	492.139	-0.030	-0.068
-561.529	-200.000	-0.016	0.131
-560.515	563.251	-0.107	-0.259
-559.500	-42.668	0.213	0.108
-558.485	326.182	-0.140	-0.267
-557.471	-135.713	-0.135	-0.016
-556.456	800.000	0.065	-0.199
-555.442	-75.851	0.141	-0.050
-554.427	800.000	0.105	-0.355
-553.412	-124.897	0.117	0.018
-552.398	-3.179	0.099	-0.069
-551.383	-104.284	0.378	0.088
-550.369	-200.000	0.025	-0.119
-549.354	-59.755	-0.330	0.141
-548.339	638.022	0.183	0.465
-547.325	-119.262	0.281	-0.049
-546.310	-68.017	-0.226	-0.088
-545.296	-53.979	-0.214	0.097
-544.281	-129.866	0.132	0.018
-543.266	101.890	0.137	-0.159
-542.252	428.951	0.110	-0.238
-541.237	-79.152	0.095	-0.032
-540.223	488.410	0.036	0.081
-539.208	800.000	0.122	0.382
-538.193	-84.746	0.158	-0.050
-537.179	-25.544	0.089	0.052
-536.164	-200.000	-0.009	-0.145
-535.150	-200.000	0.025	0.256
-534.135	-35.316	0.138	-0.075
-533.121	81.779	-0.092	-0.099
-532.106	-141.176	-0.194	0.020
-531.091	800.000	-0.083	-0.239
-530.077	-141.607	-0.257	0.026
-529.062	263.051	-0.161	-0.279
-528.048	339.941	0.135	-0.262
-527.033	800.000	0.036	0.127
-526.018	800.000	-0.022	-0.078
-525.004	20.042	-0.152	-0.122
-523.989	-101.375	0.128	0.031
-522.975	-130.518	-0.271	0.036
-521.960	357.358	0.140	0.279
-520.945	-160.386	-0.040	-0.002
-519.931	11.517	-0.281	0.215
-518.916	17.548	-0.085	0.067
-517.902	66.388	-0.104	0.105
-516.887	76.700	0.106	0.112
-515.872	242.772	-0.056	0.093
-514.858	-36.037	0.082	-0.044
-513.843	-66.792	0.074	0.029
-512.829	-25.321	-0.228	-0.134
-511.814	800.000	-0.028	-0.117
-510.799	-107.896	0.351	-0.076
-509.785	-101.815	-0.183	-0.044
-508.770	-134.118	-0.230	-0.028
-507.756	-163.655	-0.149	0.007
-506.741	-200.000	-0.009	-0.125
-505.726	-200.000	0.003	0.144
-504.712	1.999	-0.224	-0.161
-503.697	102.420	-0.087	-0.102
-502.683	196.663	-0.135	-0.205
-501.668	-200.000	-0.029	-0.256
-500.653	-151.335	-0.354	-0.026
-499.639	-104.554	-0.059	-0.014
-498.624	119.535	-0.209	0.257
-497.610	-76.520	-0.252	-0.088
-496.595	186.798	0.204	-0.303
-495.581	-53.788	0.160	-0.073
-494.566	51.004	-0.111	-0.105
-493.551	189.098	0.059	0.089
-492.537	333.886	-0.092	0.177
-491.522	-37.880	-0.128	0.068
-490.508	800.000	0.036	-0.120
-489.493	140.135	0.104	-0.136
-488.478	56.379	0.162	0.157
-487.464	-200.000	-0.002	0.229
-486.449	103.026	-0.324	0.378
-485.435	129.412	0.200	-0.255
-484.420	39.872	-0.136	0.122
-483.405	800.000	0.070	0.258
-482.391	-76.715	0.305	-0.107
-481.376	-61.949	0.068	0.028
-480.362	286.442	-0.139	-0.250
-479.347	-35.899	-0.413	-0.222
-478.332	313.232	0.050	0.093
-477.318	556.489	0.013	0.031
-476.303	183.386	-0.049	0.072
-475.289	212.910	0.148	0.232
-474.274	-134.186	0.088	0.011
-473.259	3.047	-0.134	-0.097
-472.245	-106.594	0.234	-0.052
-471.230	-135.441	-0.230	-0.027
-470.216	-114.354	0.049	0.009
-469.201	-19.184	-0.173	-0.107
-468.186	-146.773	-0.321	0.028
-467.172	800.000	0.094	0.276
-466.157	-69.713	0.040	0.015
-465.143	27.443	0.168	0.141
-464.128	171.406	0.102	0.146
-463.113	-140.081	0.051	-0.005
-462.099	-86.109	0.135	0.041
-461.084	-79.075	-0.331	-0.112
-460.070	-200.000	0.056	0.310
-459.055	163.376	-0.129	0.181
-458.040	-33.968	0.358	-0.196
-457.026	5.142	-0.065	0.048
-456.011	-52.728	0.215	0.099
-454.997	-124.022	-0.116	-0.018
-453.982	-42.325	-0.138	0.070
-452.968	800.000	-0.116	-0.337
-451.953	199.790	-0.252	0.385
-450.938	-200.000	0.002	0.372
-449.924	-66.620	-0.368	-0.145
-448.909	-200.000	0.037	0.308
-447.895	312.458	-0.123	0.230
-446.880	-139.343	0.475	0.051
-445.865	-200.000	0.055	0.254
-444.851	-200.000	-0.043	-0.315
-443.836	-93.926	-0.182	-0.050
-442.822	-108.940	-0.326	0.069
-441.807	-152.319	0.157	0.011
-440.792	-58.436	0.335	-0.145
-439.778	13.262	0.158	0.121
-438.763	-132.864	-0.444	-0.056
-437.749	-69.725	-0.046	-0.017
-436.734	-17.090	-0.296	-0.186
-435.719	-138.723	0.247	0.027
-434.705	731.362	-0.046	-0.123
-433.690	302.273	0.040	0.073
-432.676	-66.548	0.259	0.102
-431.661	129.928	-0.099	0.126
-430.646	-200.000	-0.004	0.020
-429.632	57.722	0.125	0.122
-428.617	253.824	-0.018	-0.031
-427.603	-63.585	0.145	-0.059
-426.588	-95.253	-0.476	-0.127
-425.573	118.125	-0.023	-0.028
-424.559	158.243	0.056	0.077
-423.544	-57.832	0.193	-0.084
-422.530	-24.153	0.206	-0.122
-421.515	122.411	-0.092	-0.115
-420.500	-200.000	-0.018	-0.132
-419.486	-86.139	0.109	0.034
-418.471	22.852	0.155	0.127
-417.457	-109.320	0.200	0.042
-416.442	117.972	-0.062	-0.076
-415.428	20.432	0.112	-0.090
-414.413	37.513	0.170	0.150
-413.398	800.000	-0.043	-0.138
-412.384	-200.000	-0.098	0.430
-411.369	301.952	0.159	0.292
-410.355	49.296	-0.253	-0.237
-409.340	102.153	-0.047	0.055
-408.325	79.060	0.226	0.240
-407.311	129.011	-0.135	-0.171
-406.296	-97.740	0.367	0.094
-405.282	123.450	-0.148	-0.184
-404.267	-200.000	-0.039	0.224
-403.252	-200.000	0.021	0.102
-402.238	109.260	0.215	0.255
-401.223	-112.141	-0.145	-0.029
-400.209	-50.804	-0.172	-0.080
-399.194	279.061	0.082	0.146
-398.179	681.285	0.139	-0.360
-397.165	291.542	0.036	-0.066
-396.150	94.644	-0.091	-0.102
-395.136	800.000	0.018	-0.050
-394.121	-93.530	0.039	0.011
-393.106	148.771	0.232	-0.311
-392.092	79.036	-0.110	0.117
-391.077	-33.157	0.138	0.076
-390.063	0.326	0.308	0.218
-389.048	-102.493	0.072	0.017
-388.033	800.000	0.049	0.179
-387.019	-46.640	0.306	-0.149
-386.004	31.198	-0.083	-0.070
-384.990	-80.991	-0.304	0.100
-383.975	-200.000	0.028	0.190
-382.960	-100.257	0.074	-0.018
-381.946	267.705	-0.041	-0.071
-380.931	331.671	0.100	-0.192
-379.917	-93.449	0.256	0.070
-378.902	-150.731	0.175	0.013
-377.888	-86.896	-0.273	0.083
-376.873	281.895	-0.009	0.016
-375.858	-200.000	-0.084	0.531
-374.844	-12.474	0.320	-0.207
-373.829	463.267	0.052	-0.115
-372.815	-66.356	0.202	0.080
-371.800	-40.208	0.195	0.101
-370.785	-145.034	0.111	0.010
-369.771	138.873	0.321	0.418
-368.756	38.224	-0.080	0.071
-367.742	265.337	-0.057	0.098
-366.727	638.389	0.057	0.144
-365.712	181.512	0.205	-0.299
-364.698	540.238	-0.123	0.291
-363.683	-66.997	0.293	0.115
-362.669	53.900	0.146	0.139
-361.654	32.169	-0.271	-0.232
-360.639	112.161	-0.097	0.116
-359.625	333.165	0.109	-0.209
-358.610	-101.345	-0.262	0.063
-357.596	-200.000	-0.005	0.349
-356.581	-103.583	-0.355	0.083
-355.566	-67.331	-0.109	0.043
-354.552	343.267	-0.089	-0.173
-353.537	243.906	-0.112	0.186
-352.523	109.849	0.066	0.078
-351.508	800.000	-0.030	-0.099
-350.493	99.027	-0.120	-0.137
-349.479	217.570	-0.117	-0.185
-348.464	-29.936	0.067	0.038
-347.450	71.972	-0.069	0.072
-346.435	-200.000	-0.010	0.061
-345.420	109.466	0.160	-0.189
-344.406	-34.172	0.101	0.055
-343.391	41.014	0.072	-0.065
-342.377	-200.000	-0.015	-0.065
-341.362	-41.930	0.253	0.128
-340.348	-84.378	0.043	-0.013
-339.333	-200.000	-0.033	-0.151
-338.318	99.408	-0.222	0.255
-337.304	119.817	0.112	0.138
-336.289	-200.000	-0.026	0.220
-335.275	-70.998	-0.182	0.068
-334.260	111.080	-0.246	0.293
-333.245	800.000	-0.013	0.042
-332.231	-116.245	0.074	-0.014
-331.216	-200.000	0.044	0.436
-330.202	-83.686	-0.313	0.099
-329.187	-174.136	-0.319	-0.009
-328.172	-200.000	0.003	0.064
-327.158	800.000	-0.039	0.162
-326.143	-200.000	0.034	0.213
-325.129	-200.000	-0.006	0.086
-324.114	10.365	-0.301	0.227
-323.099	-63.679	-0.028	-0.011
-322.085	196.948	0.125	0.188
-321.070	364.013	0.136	-0.271
-320.056	800.000	0.031	-0.114
-319.041	6.965	0.212	-0.157
-318.026	27.779	-0.128	0.106
-317.012	-77.766	-0.166	-0.057
-315.997	-25.620	-0.024	0.014
-314.983	45.939	-0.205	-0.188
-313.968	800.000	0.089	-0.320
-312.953	-47.961	0.238	-0.114
-311.939	800.000	0.107	-0.317
-310.924	800.000	0.114	0.322
-309.910	-0.105	0.049	-0.035
-308.895	-80.461	0.487	-0.161
-307.880	-116.654	0.377	-0.069
-306.866	53.304	-0.247	0.234
-305.851	-200.000	0.005	0.086
-304.837	-48.672	-0.334	0.159
-303.822	-53.650	0.140	-0.063
-302.807	-90.917	0.068	0.019
-301.793	-61.399	-0.156	0.065
-300.778	60.136	0.076	-0.074
-299.764	-200.000	-0.066	-0.313
-298.749	800.000	-0.050	-0.180
-297.735	-6.673	-0.244	-0.164
-296.720	-185.851	0.303	0.004
-295.705	-73.044	-0.263	-0.096
-294.691	79.505	0.102	0.108
-293.676	-126.948	-0.223	0.032
-292.662	-68.046	0.253	-0.098
-291.647	800.000	0.065	-0.208
-290.632	800.000	-0.040	-0.171
-289.618	-19.962	-0.056	0.034
-288.603	-200.000	0.022	-0.151
-287.589	-53.912	-0.220	-0.099
-286.574	-200.000	0.022	0.125
-285.559	372.569	0.049	-0.098
-284.545	-200.000	0.047	0.261
-283.530	7.675	-0.242	0.179
-282.516	-200.000	0.033	-0.310
-281.501	226.925	0.260	-0.418
-280.486	-200.000	0.252	-0.000
-279.472	216.489	-0.183	0.287
-278.457	152.644	-0.160	0.216
-277.443	-159.614	-0.245	-0.013
-276.428	800.000	0.063	0.254
-275.413	-173.692	-0.296	0.009
-274.399	800.000	-0.032	0.137
-273.384	-14.265	-0.242	0.154
-272.370	-200.000	-0.012	-0.089
-271.355	-183.582	0.326	-0.006
-270.340	800.000	0.051	-0.161
-269.326	-30.507	0.122	-0.068
-268.311	29.224	-0.256	-0.215
-267.297	-145.144	0.205	0.018
-266.282	128.922	0.158	-0.199
-265.267	29.933	-0.369	-0.311
-264.253	639.284	-0.123	-0.309
-263.238	-23.184	-0.156	-0.093
-262.224	782.636	0.043	-0.117
-261.209	419.065	0.116	0.245
-260.195	9.849	0.113	-0.085
-259.180	158.369	-0.130	-0.178
-258.165	800.000	-0.098	-0.305
-257.151	-23.301	0.255	-0.151
-256.136	-200.000	0.024	0.182
-255.122	-107.784	-0.447	0.096
-254.107	-59.894	0.152	0.064
-253.092	109.454	0.339	0.401
-252.078	103.036	-0.216	0.250
-251.063	-89.302	0.157	-0.046
-250.049	-200.000	-0.040	0.279
-249.034	16.334	0.053	-0.041
-248.019	-73.716	0.445	0.160
-247.005	-24.138	-0.134	-0.079
-245.990	-136.974	0.390	-0.044
-244.976	800.000	-0.049	-0.197
-243.961	152.529	0.084	-0.113
-242.946	-31.308	-0.224	-0.125
-241.932	307.010	0.209	0.384
-240.917	-55.701	0.073	0.032
-239.903	-200.000	-0.024	0.310
-238.888	-200.000	0.539	0.000
-237.873	-156.212	-0.086	0.005
-236.859	-156.075	-0.060	-0.004
-235.844	-18.399	-0.084	-0.052
-234.830	744.813	-0.024	-0.063
-233.815	493.413	0.144	0.326
-232.800	-182.660	0.160	-0.003
-231.786	411.195	-0.105	-0.220
-230.771	-57.746	0.152	-0.066
-229.757	-81.931	0.191	-0.061
-228.742	-200.000	0.038	-0.236
-227.727	-161.671	0.118	0.006
-226.713	271.500	-0.161	-0.279
-225.698	800.000	0.103	-0.378
-224.684	-200.000	-0.004	-0.132
-223.669	-8.546	-0.391	-0.259
-222.655	-38.229	0.152	0.079
-221.640	121.185	-0.216	0.266
-220.625	-59.272	0.175	-0.074
-219.611	165.392	0.043	-0.060
-218.596	-124.600	0.171	-0.026
-217.582	-200.000	-0.003	0.198
-216.567	227.334	0.097	0.155
-215.552	122.156	0.262	0.322
-214.538	-1.525	-0.286	0.199
-213.523	-127.609	-0.085	0.012
-212.509	800.000	0.043	-0.145
-211.494	-87.694	-0.458	0.136
-210.479	-98.762	0.266	0.067
-209.465	800.000	0.064	0.196
-208.450	-200.000	0.003	-0.109
-207.436	-38.667	-0.328	-0.171
-206.421	-200.000	0.002	0.013
-205.406	-60.323	-0.102	-0.043
-204.392	-94.238	0.176	0.047
-203.377	-200.000	0.028	0.313
-202.363	-178.298	0.517	-0.012
-201.348	800.000	-0.053	-0.209
-200.333	-114.862	0.243	0.046
-199.319	-52.853	-0.027	-0.012
-198.304	-129.128	0.094	-0.013
-197.290	-6.372	0.282	0.189
-196.275	800.000	-0.095	0.264
-195.260	-150.824	-0.139	-0.010
-194.246	232.148	-0.053	0.085
-193.231	800.000	0.047	0.204
-192.217	-123.808	0.188	0.029
-191.202	550.448	0.116	-0.273
-190.187	-142.846	-0.142	-0.014
-189.173	105.596	-0.273	0.318
-188.158	-135.726	-0.098	0.011
-187.144	136.468	0.042	0.054
-186.129	-68.001	0.334	0.128
-185.114	-32.898	0.101	-0.055
-184.100	249.581	0.172	0.286
-183.085	510.479	-0.101	-0.231
-182.071	73.538	-0.024	0.025
-181.056	-4.397	0.274	0.187
-180.042	-66.468	-0.072	-0.028
-179.027	-65.948	0.051	0.020
-178.012	57.563	0.212	0.204
-176.998	-99.097	0.118	-0.029
-175.983	320.556	-0.027	-0.051
-174.969	-39.915	0.236	-0.121
-173.954	11.655	-0.249	-0.188
-172.939	661.613	0.029	-0.074
-171.925	-153.917	0.025	-0.002
-170.910	107.759	0.080	0.094
-169.896	372.678	-0.029	-0.059
-168.881	477.577	-0.058	-0.130
-167.866	-20.798	0.262	0.158
-166.852	-91.518	0.128	-0.036
-165.837	-122.099	0.248	0.040
-164.823	614.034	-0.105	-0.259
-163.808	39.052	0.023	0.020
-162.793	154.542	0.140	0.190
-161.779	-200.000	0.016	0.180
-160.764	-70.534	0.077	-0.029
-159.750	-3.769	-0.223	-0.152
-158.735	-116.057	0.250	-0.046
-157.720	800.000	-0.068	-0.253
-156.706	-65.944	-0.216	-0.085
-155.691	-129.847	-0.339	0.046
-154.677	79.499	-0.131	-0.138
-153.662	-15.858	-0.119	-0.075
-152.647	3.835	0.131	0.094
-151.633	158.863	-0.316	0.431
-150.618	-200.000	-0.019	-0.178
-149.604	-200.000	-0.032	0.167
-148.589	800.000	0.071	0.254
-147.574	157.606	0.028	-0.038
-146.560	103.316	0.201	0.232
-145.545	41.769	-0.223	-0.198
-144.531	-200.000	-0.010	0.182
-143.516	800.000	0.082	-0.301
-142.502	-115.954	-0.218	0.040
-141.487	-163.785	0.308	0.014
-140.472	-54.812	0.069	0.031
-139.458	-200.000	0.008	-0.147
-138.443	-200.000	-0.007	-0.210
-137.429	-35.686	0.250	0.133
-136.414	-200.000	0.005	-0.298
-135.399	-200.000	-0.044	-0.321
-134.385	-36.261	0.155	0.082
-133.370	90.838	0.223	0.246
-132.356	-200.000	0.068	0.347
-131.341	153.126	0.121	0.162
-130.326	199.921	-0.152	0.229
-129.312	800.000	0.024	-0.083
-128.297	257.224	0.092	0.156
-127.283	-94.127	-0.217	0.058
-126.268	542.273	0.100	-0.233
-125.253	36.114	0.149	0.129
-124.239	-46.761	-0.372	0.179
-123.224	-1.018	-0.115	0.080
-122.210	33.554	-0.169	-0.144
-121.195	-200.000	-0.043	-0.406
