DTS Sentinel unit serial number:	SN413079Multiplexer serial number:	ORYXHardware model number:	OX4-SRSoftware version number:	ORYX F/W v4.00 Oryx Data Collector v3.7.2.0data status	okinstallation	princeton_trtdifferential loss correction	single-endedforward channel	channel 1reverse channel	N/Adate	2019/09/12time	03:52:11forward acquisition time	60.00reverse acquisition time	0.00gamma	496.2192k internal	0.2322k external	0.2322temperature offset calibration	1.0081default loss term (dB/km)	0.3790temperature slope calibration	1.0000multiplexer offset coefficient	1.0000multiplexer slope coefficient	1.0000fibre end	0.00T internal ref (°C)	32.14T ext. ref 1 (°C)	2.14T ext. ref 2 (°C)	27.04length (m)	temperature (°C)	Stokes	anti-Stokes-747.200	-200.000	0.017	-0.236
-746.185	-200.000	0.019	0.318
-745.171	-98.811	-0.259	0.067
-744.156	261.506	0.234	0.410
-743.142	-200.000	0.053	0.310
-742.127	-55.711	-0.309	0.140
-741.112	-113.138	-0.214	0.043
-740.098	8.933	-0.198	0.151
-739.083	-55.576	0.209	-0.095
-738.069	-11.665	0.287	0.190
-737.054	-200.000	0.009	0.095
-736.039	-53.197	-0.224	0.104
-735.025	-0.636	0.187	0.134
-734.010	20.225	0.125	0.102
-732.996	-122.573	-0.278	-0.046
-731.981	40.745	0.125	0.114
-730.966	800.000	-0.075	-0.235
-729.952	800.000	-0.102	-0.390
-728.937	738.403	-0.036	-0.096
-727.923	418.544	-0.088	0.190
-726.908	-200.000	0.002	-0.323
-725.894	265.749	0.062	-0.109
-724.879	332.171	-0.107	-0.209
-723.864	-132.410	-0.426	-0.055
-722.850	-200.000	0.014	0.077
-721.835	800.000	-0.099	-0.338
-720.821	-35.985	-0.200	0.109
-719.806	611.842	-0.065	-0.163
-718.791	-107.278	-0.144	0.032
-717.777	-119.524	0.090	-0.016
-716.762	-200.000	0.004	-0.101
-715.748	-104.180	-0.242	-0.057
-714.733	84.807	0.171	0.189
-713.718	334.472	0.038	0.074
-712.704	-10.841	-0.273	-0.182
-711.689	800.000	-0.043	-0.154
-710.675	356.758	0.049	0.098
-709.660	-148.274	0.088	0.007
-708.645	-200.000	0.002	-0.091
-707.631	-142.670	0.276	-0.027
-706.616	0.442	-0.104	-0.075
-705.602	-93.927	0.095	0.026
-704.587	-134.580	0.267	0.033
-703.572	100.994	0.025	-0.029
-702.558	-66.664	-0.325	0.130
-701.543	-101.821	-0.212	-0.052
-700.529	-90.842	0.155	0.045
-699.514	334.340	-0.134	-0.261
-698.499	220.200	-0.152	-0.246
-697.485	-122.548	-0.277	-0.045
-696.470	141.890	0.150	-0.200
-695.456	-119.710	0.293	-0.051
-694.441	-200.000	-0.045	-0.294
-693.426	-60.135	0.102	-0.044
-692.412	-58.086	0.247	0.109
-691.397	-112.167	0.172	0.035
-690.383	-99.738	-0.217	-0.055
-689.368	-71.760	-0.581	0.218
-688.354	90.480	-0.162	-0.182
-687.339	95.569	0.118	-0.136
-686.324	33.663	-0.097	-0.085
-685.310	-68.923	0.088	0.034
-684.295	-80.641	0.189	-0.063
-683.281	152.201	-0.070	0.096
-682.266	-4.989	0.157	-0.109
-681.251	362.235	0.132	-0.268
-680.237	124.403	-0.186	0.235
-679.222	60.885	0.083	-0.083
-678.208	-94.701	-0.034	0.009
-677.193	200.538	-0.061	-0.095
-676.178	-200.000	-0.068	-0.401
-675.164	44.221	-0.258	-0.238
-674.149	-131.716	0.480	0.063
-673.135	-9.372	0.121	0.082
-672.120	-33.804	0.298	0.166
-671.105	90.089	0.113	0.127
-670.091	-200.000	-0.011	-0.122
-669.076	-3.340	-0.159	-0.111
-668.062	-25.219	0.199	0.119
-667.047	-200.000	0.012	-0.113
-666.032	788.330	0.044	0.121
-665.018	0.168	-0.196	-0.141
-664.003	35.271	0.151	0.134
-662.989	-70.391	0.189	0.072
-661.974	34.965	0.111	0.098
-660.959	-135.393	0.289	-0.035
-659.945	-200.000	-0.042	-0.280
-658.930	-12.930	-0.227	0.149
-657.916	-200.000	0.001	-0.217
-656.901	-71.405	0.099	0.037
-655.886	277.164	0.062	-0.111
-654.872	-50.255	-0.485	0.231
-653.857	800.000	-0.092	-0.292
-652.843	245.616	0.117	-0.199
-651.828	90.553	-0.096	-0.108
-650.814	481.709	-0.162	0.371
-649.799	-200.000	0.033	0.175
-648.784	-200.000	0.014	0.278
-647.770	-103.725	0.409	0.097
-646.755	800.000	-0.095	0.267
-645.741	-200.000	0.005	-0.152
-644.726	56.381	0.227	0.222
-643.711	-108.333	0.264	-0.057
-642.697	-14.955	-0.194	-0.125
-641.682	-34.810	-0.149	-0.082
-640.668	800.000	0.079	0.345
-639.653	23.624	-0.080	-0.066
-638.638	-7.755	-0.100	-0.068
-637.624	264.120	-0.072	0.126
-636.609	47.307	0.180	0.169
-635.595	800.000	-0.022	0.084
-634.580	-81.953	0.355	-0.117
-633.565	-59.197	-0.081	-0.035
-632.551	-200.000	-0.001	-0.228
-631.536	-15.520	-0.076	0.049
-630.522	-200.000	0.025	0.194
-629.507	8.149	-0.109	0.082
-628.492	-47.664	-0.183	0.089
-627.478	90.970	0.140	-0.158
-626.463	-200.000	0.031	0.312
-625.449	-134.174	-0.454	-0.056
-624.434	-169.728	0.455	0.017
-623.419	-26.042	0.178	-0.106
-622.405	146.149	0.081	0.109
-621.390	-118.447	-0.028	0.005
-620.376	601.034	-0.041	-0.103
-619.361	800.000	0.056	-0.222
-618.346	800.000	0.176	0.537
-617.332	-200.000	-0.024	0.385
-616.317	-102.725	0.294	0.071
-615.303	45.495	0.219	-0.203
-614.288	-200.000	-0.023	-0.135
-613.273	-67.659	-0.374	0.147
-612.259	14.904	-0.226	-0.178
-611.244	800.000	-0.039	0.145
-610.230	120.921	-0.087	0.109
-609.215	800.000	-0.046	0.180
-608.201	-200.000	-0.011	-0.073
-607.186	-200.000	0.013	0.211
-606.171	-54.085	0.145	-0.066
-605.157	78.892	0.035	-0.038
-604.142	149.516	0.135	0.184
-603.128	-191.376	-0.274	0.003
-602.113	64.439	-0.179	0.181
-601.098	503.992	0.097	-0.225
-600.084	-64.743	-0.199	-0.081
-599.069	800.000	0.094	-0.281
-598.055	-200.000	0.141	0.001
-597.040	-200.000	0.009	-0.308
-596.025	2.126	0.355	-0.258
-595.011	27.480	0.072	-0.061
-593.996	-29.962	0.286	-0.164
-592.982	268.174	0.130	0.229
-591.967	-34.041	0.275	0.152
-590.952	-200.000	0.057	-0.279
-589.938	-78.138	0.243	-0.084
-588.923	-90.787	-0.267	0.077
-587.909	-73.251	-0.180	0.066
-586.894	-103.942	-0.220	0.051
-585.879	391.937	-0.097	-0.202
-584.865	-82.317	0.117	-0.038
-583.850	-148.604	0.041	-0.003
-582.836	800.000	0.027	-0.082
-581.821	-119.039	-0.232	0.041
-580.806	-109.327	0.184	0.039
-579.792	-75.081	-0.451	-0.162
-578.777	-176.300	0.141	0.004
-577.763	93.077	-0.216	-0.245
-576.748	257.818	-0.135	-0.233
-575.733	800.000	0.043	-0.142
-574.719	800.000	-0.036	0.113
-573.704	-87.165	0.306	-0.093
-572.690	231.287	0.096	-0.158
-571.675	310.390	-0.015	-0.029
-570.661	84.341	0.228	0.250
-569.646	-28.634	0.171	0.099
-568.631	514.384	-0.051	-0.119
-567.617	155.855	0.166	-0.230
-566.602	190.668	0.115	-0.173
-565.588	-84.267	-0.348	0.110
-564.573	682.193	-0.149	0.390
-563.558	140.704	-0.217	0.288
-562.544	-71.522	-0.197	-0.074
-561.529	-200.000	-0.005	-0.094
-560.515	-200.000	0.002	0.035
-559.500	-129.763	0.098	-0.014
-558.485	-67.596	0.155	-0.061
-557.471	-200.000	-0.036	0.247
-556.456	-120.474	-0.114	0.019
-555.442	161.229	0.105	-0.148
-554.427	-25.981	-0.204	0.120
-553.412	-152.167	-0.056	0.004
-552.398	280.900	0.191	-0.343
-551.383	-59.491	0.092	-0.040
-550.369	-20.242	0.205	0.126
-549.354	-19.031	0.284	-0.177
-548.339	52.147	0.137	-0.131
-547.325	800.000	-0.068	0.290
-546.310	-114.845	-0.244	-0.047
-545.296	800.000	-0.064	-0.213
-544.281	129.122	0.078	-0.100
-543.266	24.550	-0.153	0.127
-542.252	800.000	0.014	-0.061
-541.237	42.281	-0.132	-0.120
-540.223	17.925	0.033	-0.026
-539.208	-141.828	0.279	-0.028
-538.193	-200.000	-0.061	-0.561
-537.179	-46.880	-0.346	0.170
-536.164	41.280	0.092	0.084
-535.150	145.126	0.092	-0.123
-534.135	134.328	0.204	0.265
-533.121	-200.000	-0.055	0.243
-532.106	-134.874	0.163	-0.020
-531.091	-59.247	-0.155	-0.067
-530.077	665.659	-0.018	0.046
-529.062	413.164	-0.060	-0.127
-528.048	-145.248	0.100	0.009
-527.033	288.553	0.039	0.071
-526.018	555.478	0.158	0.380
-525.004	69.338	0.081	-0.084
-523.989	-200.000	-0.012	0.103
-522.975	411.782	-0.155	0.329
-521.960	45.439	-0.231	0.213
-520.945	-200.000	-0.032	0.377
-519.931	-34.849	-0.166	-0.091
-518.916	174.488	0.129	0.187
-517.902	117.672	0.130	0.160
-516.887	-167.701	0.237	0.009
-515.872	-200.000	-0.060	-0.387
-514.858	603.052	-0.122	0.304
-513.843	-109.745	0.141	0.030
-512.829	-82.196	0.113	0.037
-511.814	173.033	0.086	0.125
-510.799	-200.000	-0.075	0.373
-509.785	-117.089	0.529	0.097
-508.770	-82.162	0.181	-0.059
-507.756	586.607	-0.146	-0.361
-506.741	149.486	-0.089	0.121
-505.726	-200.000	-0.006	0.240
-504.712	219.473	0.136	0.217
-503.697	-139.909	0.230	0.024
-502.683	-72.845	0.321	-0.118
-501.668	15.850	0.213	0.167
-500.653	-74.894	-0.268	0.096
-499.639	-68.393	-0.037	-0.014
-498.624	72.402	0.216	0.226
-497.610	188.162	-0.140	0.209
-496.595	-200.000	0.019	-0.325
-495.581	-28.779	0.302	-0.174
-494.566	-148.705	-0.140	-0.011
-493.551	-43.727	0.083	0.042
-492.537	-200.000	-0.010	-0.259
-491.522	-22.398	0.154	0.094
-490.508	800.000	-0.024	0.102
-489.493	-20.946	-0.061	0.037
-488.478	-108.706	-0.213	-0.046
-487.464	-32.288	-0.284	-0.159
-486.449	197.189	-0.129	-0.197
-485.435	750.191	0.072	0.195
-484.420	762.601	-0.072	-0.196
-483.405	40.330	-0.012	0.011
-482.391	800.000	0.046	0.192
-481.376	-98.721	-0.397	-0.101
-480.362	-200.000	-0.006	0.041
-479.347	23.264	-0.226	0.186
-478.332	44.238	-0.076	-0.069
-477.318	326.421	0.196	-0.375
-476.303	-200.000	-0.002	0.103
-475.289	-177.446	0.277	0.007
-474.274	-78.732	-0.106	0.036
-473.259	72.190	0.231	-0.240
-472.245	-200.000	-0.002	-0.142
-471.230	103.901	-0.070	-0.082
-470.216	-154.425	-0.333	-0.022
-469.201	786.364	0.015	0.042
-468.186	-19.409	-0.261	-0.161
-467.172	200.122	-0.385	0.590
-466.157	-75.239	-0.323	0.115
-465.143	637.687	0.148	-0.376
-464.128	33.835	0.407	0.354
-463.113	168.913	0.174	-0.248
-462.099	243.226	0.109	0.183
-461.084	-78.107	-0.497	-0.171
-460.070	-90.232	-0.459	-0.133
-459.055	-80.971	-0.212	-0.070
-458.040	111.043	0.328	0.394
-457.026	-59.926	0.430	-0.184
-456.011	174.373	0.152	0.220
-454.997	240.036	-0.029	0.049
-453.982	-174.093	0.272	0.008
-452.968	800.000	-0.068	0.270
-451.953	-128.626	0.232	-0.033
-450.938	-66.137	-0.182	0.073
-449.924	-200.000	-0.033	0.216
-448.909	26.956	-0.257	-0.215
-447.895	-123.926	-0.455	-0.072
-446.880	800.000	-0.107	-0.358
-445.865	-77.833	-0.362	0.125
-444.851	87.841	0.039	0.043
-443.836	-52.915	0.073	-0.034
-442.822	316.339	-0.044	0.083
-441.807	-122.113	-0.328	-0.054
-440.792	-143.570	0.412	-0.039
-439.778	72.982	0.133	0.139
-438.763	-69.980	-0.202	-0.077
-437.749	-140.282	0.110	-0.011
-436.734	11.204	0.221	0.169
-435.719	-200.000	0.014	-0.426
-434.705	800.000	0.038	-0.156
-433.690	-121.602	0.381	0.063
-432.676	13.346	0.150	-0.116
-431.661	94.021	0.128	0.145
-430.646	-200.000	-0.003	-0.274
-429.632	123.787	0.191	-0.240
-428.617	-100.677	0.201	-0.050
-427.603	8.155	0.355	0.266
-426.588	-200.000	-0.048	0.276
-425.573	86.627	0.135	0.149
-424.559	54.058	0.243	-0.233
-423.544	193.980	-0.231	0.349
-422.530	-85.046	-0.219	-0.068
-421.515	-200.000	0.024	-0.190
-420.500	-4.215	0.128	-0.088
-419.486	-6.697	-0.419	-0.284
-418.471	-9.644	0.198	-0.132
-417.457	163.494	-0.082	0.115
-416.442	800.000	-0.049	-0.209
-415.428	68.786	-0.308	-0.315
-414.413	-97.357	0.269	0.070
-413.398	342.804	0.103	-0.201
-412.384	800.000	-0.039	0.126
-411.369	800.000	-0.039	-0.152
-410.355	485.367	-0.184	0.418
-409.340	-200.000	0.020	-0.114
-408.325	579.117	-0.090	0.219
-407.311	-200.000	0.008	-0.182
-406.296	-36.498	-0.112	0.060
-405.282	95.388	0.185	-0.211
-404.267	2.492	0.067	0.049
-403.252	-119.160	-0.200	-0.035
-402.238	-200.000	0.020	-0.109
-401.223	-95.616	-0.128	0.034
-400.209	208.134	0.077	-0.120
-399.194	42.490	0.246	-0.223
-398.179	-37.007	0.051	0.027
-397.165	800.000	-0.032	-0.113
-396.150	-117.553	-0.217	0.039
-395.136	-199.541	-0.301	-0.002
-394.121	3.808	0.227	-0.165
-393.106	619.733	-0.040	0.101
-392.092	-105.858	-0.082	-0.018
-391.077	176.773	-0.168	0.243
-390.063	-74.274	-0.056	0.020
-389.048	-200.000	0.021	0.325
-388.033	800.000	-0.077	-0.256
-387.019	225.930	0.097	-0.157
-386.004	-169.192	0.435	-0.016
-384.990	-21.871	0.187	-0.113
-383.975	-200.000	-0.187	0.001
-382.960	800.000	-0.036	-0.156
-381.946	-200.000	0.033	0.184
-380.931	-200.000	0.033	-0.366
-379.917	-200.000	-0.082	-0.369
-378.902	800.000	-0.130	-0.518
-377.888	-200.000	0.030	-0.145
-376.873	-92.604	-0.110	-0.031
-375.858	-180.863	-0.273	-0.006
-374.844	114.010	0.053	0.064
-373.829	161.749	-0.068	-0.095
-372.815	-66.434	0.176	0.070
-371.800	-12.693	-0.221	-0.143
-370.785	264.700	0.079	0.136
-369.771	-200.000	-0.000	-0.086
-368.756	-6.547	0.179	-0.121
-367.742	-164.656	-0.141	0.006
-366.727	63.086	0.005	-0.005
-365.712	800.000	-0.046	0.147
-364.698	800.000	-0.076	0.271
-363.683	36.724	-0.111	0.098
-362.669	299.193	-0.144	0.264
-361.654	-104.442	-0.065	0.015
-360.639	-47.435	-0.090	0.044
-359.625	-48.491	0.161	0.077
-358.610	-43.175	-0.153	-0.077
-357.596	210.319	0.166	0.260
-356.581	-151.160	-0.096	-0.007
-355.566	20.846	-0.192	0.155
-354.552	800.000	-0.010	0.039
-353.537	-12.777	0.164	0.107
-352.523	-200.000	-0.049	0.303
-351.508	-107.778	-0.072	0.016
-350.493	20.532	0.173	-0.140
-349.479	89.903	-0.231	-0.256
-348.464	86.730	0.082	-0.090
-347.450	-200.000	0.016	-0.084
-346.435	162.203	0.214	-0.298
-345.420	-200.000	0.016	0.115
-344.406	174.175	-0.085	-0.122
-343.391	-114.431	-0.211	-0.040
-342.377	-200.000	0.025	-0.205
-341.362	-103.014	0.122	-0.029
-340.348	-48.881	-0.255	0.121
-339.333	136.653	-0.097	-0.126
-338.318	54.858	0.097	-0.093
-337.304	25.142	0.178	0.147
-336.289	79.145	0.041	-0.043
-335.275	-200.000	-0.251	0.000
-334.260	408.008	0.142	-0.298
-333.245	-127.445	0.182	0.026
-332.231	650.763	0.192	-0.488
-331.216	-27.164	-0.212	-0.123
-330.202	-52.701	0.370	-0.170
-329.187	-200.000	0.003	-0.054
-328.172	221.935	-0.197	-0.315
-327.158	-200.000	0.005	0.351
-326.143	-70.973	0.170	-0.064
-325.129	-154.849	-0.258	-0.017
-324.114	-81.464	0.234	-0.077
-323.099	91.481	-0.031	-0.034
-322.085	253.165	-0.062	-0.105
-321.070	-16.350	0.147	-0.092
-320.056	-68.911	-0.170	-0.065
-319.041	800.000	0.015	-0.064
-318.026	800.000	-0.043	0.119
-317.012	-200.000	-0.031	-0.213
-315.997	800.000	-0.044	-0.165
-314.983	-85.009	0.287	-0.089
-313.968	-8.266	-0.248	0.166
-312.953	-27.055	-0.246	0.142
-311.939	510.871	-0.101	-0.233
-310.924	55.853	-0.295	-0.284
-309.910	800.000	-0.095	-0.402
-308.895	168.321	-0.087	-0.124
-307.880	27.199	-0.255	-0.213
-306.866	98.991	-0.050	0.058
-305.851	-53.575	-0.292	-0.133
-304.837	143.639	0.137	-0.182
-303.822	-0.855	-0.308	-0.217
-302.807	-80.158	0.189	0.063
-301.793	-71.703	-0.145	-0.054
-300.778	-200.000	-0.036	-0.227
-299.764	4.261	-0.319	-0.232
-298.749	-8.906	-0.050	0.033
-297.735	693.132	0.018	0.047
-296.720	-2.313	-0.071	0.049
-295.705	-141.030	0.418	0.043
-294.691	297.937	-0.196	0.357
-293.676	-200.000	0.010	0.062
-292.662	294.029	-0.058	0.105
-291.647	-200.000	-0.015	0.087
-290.632	-8.442	0.249	0.166
-289.618	-138.972	-0.064	-0.007
-288.603	-200.000	0.005	0.233
-287.589	-42.180	0.055	0.028
-286.574	442.773	0.001	0.003
-285.559	-122.935	0.143	0.023
-284.545	511.147	0.074	0.170
-283.530	800.000	-0.081	-0.311
-282.516	266.945	0.037	-0.064
-281.501	305.896	0.057	-0.106
-280.486	656.247	0.196	0.500
-279.472	-82.369	-0.406	0.131
-278.457	-200.000	-0.019	-0.096
-277.443	800.000	-0.046	-0.142
-276.428	308.552	-0.167	0.309
-275.413	-200.000	-0.029	-0.342
-274.399	-46.538	0.393	-0.191
-273.384	-200.000	0.063	0.501
-272.370	97.154	0.340	0.387
-271.355	-68.222	0.088	-0.034
-270.340	43.173	-0.147	-0.133
-269.326	436.419	-0.085	-0.184
-268.311	92.369	-0.102	-0.114
-267.297	-200.000	0.011	-0.379
-266.282	-62.803	-0.175	0.072
-265.267	-93.006	0.163	0.045
-264.253	-200.000	0.013	0.281
-263.238	-160.077	0.243	-0.013
-262.224	343.766	-0.085	0.165
-261.209	-16.363	-0.362	-0.228
-260.195	28.904	-0.246	0.206
-259.180	12.809	-0.045	-0.034
-258.165	106.545	0.168	-0.197
-257.151	53.197	-0.138	0.131
-256.136	211.778	-0.233	0.364
-255.122	612.448	-0.141	0.350
-254.107	-32.367	-0.315	0.174
-253.092	-19.804	-0.263	-0.161
-252.078	800.000	-0.111	0.357
-251.063	-123.809	-0.020	0.003
-250.049	-200.000	-0.002	-0.082
-249.034	-200.000	-0.031	0.178
-248.019	-55.675	-0.113	0.050
-247.005	-200.000	0.026	0.170
-245.990	228.951	-0.113	-0.183
-244.976	-161.012	-0.287	0.015
-243.961	350.729	-0.034	0.066
-242.946	-200.000	0.041	0.213
-241.932	209.856	0.113	0.176
-240.917	168.893	0.130	0.184
-239.903	-144.250	0.425	0.039
-238.888	417.719	-0.075	0.158
-237.873	147.875	0.086	-0.115
-236.859	357.094	0.142	0.280
-235.844	-101.714	-0.303	0.073
-234.830	-145.075	0.197	-0.018
-233.815	800.000	0.099	-0.301
-232.800	800.000	-0.076	-0.249
-231.786	800.000	0.078	0.252
-230.771	648.872	0.104	-0.264
-229.757	-200.000	-0.012	-0.263
-228.742	-185.459	-0.123	0.002
-227.727	220.387	0.104	0.165
-226.713	-200.000	-0.044	0.281
-225.698	-200.000	0.006	0.082
-224.684	-200.000	0.061	0.301
-223.669	-175.924	-0.142	-0.004
-222.655	119.629	-0.111	-0.136
-221.640	-136.314	0.193	0.022
-220.625	120.349	0.083	0.103
-219.611	-80.301	-0.112	0.037
-218.596	-62.847	0.187	0.077
-217.582	69.107	0.041	0.041
-216.567	-6.121	0.206	0.140
-215.552	-105.140	0.110	0.025
-214.538	-143.140	0.122	-0.012
-213.523	318.528	-0.177	0.331
-212.509	-153.125	0.422	-0.029
-211.494	-200.000	0.054	-0.300
-210.479	49.424	0.114	-0.107
-209.465	-166.068	-0.144	0.006
-208.450	-126.020	0.065	0.010
-207.436	-194.422	0.246	-0.002
-206.421	-54.489	-0.213	-0.095
-205.406	-200.000	-0.011	-0.310
-204.392	-200.000	-0.048	-0.238
-203.377	74.432	0.205	-0.213
-202.363	89.455	0.088	0.097
-201.348	-77.011	0.118	0.041
-200.333	38.648	-0.171	0.151
-199.319	308.829	-0.059	-0.109
-198.304	106.426	0.107	-0.126
-197.290	-200.000	0.001	0.263
-196.275	-156.644	-0.408	-0.025
-195.260	-98.129	0.263	0.067
-194.246	111.793	0.187	0.224
-193.231	82.742	0.201	-0.216
-192.217	-113.658	0.204	0.039
-191.202	-73.811	-0.389	0.140
-190.187	252.222	0.197	-0.331
-189.173	59.702	0.062	0.061
-188.158	709.094	0.069	-0.180
-187.144	793.246	0.097	-0.263
-186.129	28.179	-0.145	0.121
-185.114	271.424	-0.103	0.179
-184.100	354.476	-0.056	0.110
-183.085	531.068	0.068	0.158
-182.071	288.668	-0.175	0.314
-181.056	-200.000	-0.013	0.165
-180.042	800.000	-0.026	0.082
-179.027	-200.000	-0.008	0.071
-178.012	-200.000	0.026	0.193
-176.998	502.103	-0.198	-0.452
-175.983	-102.718	0.337	0.079
-174.969	313.746	-0.091	0.169
-173.954	-123.790	0.327	-0.051
-172.939	193.441	-0.095	-0.143
-171.925	262.994	0.148	0.254
-170.910	150.053	0.205	-0.275
-169.896	167.643	-0.181	0.255
-168.881	684.257	-0.162	0.418
-167.866	-200.000	-0.025	-0.147
-166.852	-27.491	-0.173	0.099
-165.837	-96.163	0.240	-0.063
-164.823	477.459	-0.080	-0.180
-163.808	-3.012	-0.086	-0.059
-162.793	-81.156	-0.269	0.088
-161.779	800.000	0.055	-0.175
-160.764	-96.486	0.292	-0.076
-159.750	369.137	-0.041	-0.082
-158.735	42.681	0.127	-0.114
-157.720	-89.293	-0.328	0.095
-156.706	-200.000	-0.037	-0.232
-155.691	24.838	0.240	0.197
-154.677	-141.956	0.065	0.006
-153.662	50.126	-0.164	0.153
-152.647	-10.969	-0.182	0.118
-151.633	-200.000	0.007	-0.056
-150.618	528.680	0.157	-0.367
-149.604	-200.000	0.007	0.038
-148.589	800.000	-0.077	-0.292
-147.574	-46.764	0.157	0.076
-146.560	-200.000	-0.039	-0.193
-145.545	-10.136	-0.127	0.083
-144.531	800.000	-0.086	-0.250
-143.516	-49.795	-0.120	0.056
-142.502	654.057	-0.135	0.341
-141.487	800.000	-0.105	-0.315
-140.472	-35.727	0.262	-0.140
-139.458	4.162	0.411	0.297
-138.443	-200.000	-0.032	-0.150
-137.429	-200.000	-0.020	-0.100
-136.414	-96.142	0.334	-0.088
-135.399	166.149	-0.026	0.037
-134.385	16.533	0.163	0.127
-133.370	0.576	-0.072	-0.051
-132.356	81.046	-0.205	0.219
-131.341	20.163	0.234	0.187
-130.326	-21.972	0.222	0.133
-129.312	-95.284	0.398	0.106
-128.297	44.929	0.128	-0.116
-127.283	-165.316	0.402	-0.017
-126.268	-155.490	-0.240	0.015
-125.253	255.018	0.112	0.189
-124.239	-121.701	0.092	0.015
-123.224	692.105	-0.111	-0.288
-122.210	-66.065	0.466	0.183
-121.195	126.715	-0.157	0.196
