DTS Sentinel unit serial number:	SN413079Multiplexer serial number:	ORYXHardware model number:	OX4-SRSoftware version number:	ORYX F/W v4.00 Oryx Data Collector v3.7.2.0data status	okinstallation	princeton_trtdifferential loss correction	single-endedforward channel	channel 1reverse channel	N/Adate	2019/09/10time	17:28:11forward acquisition time	60.00reverse acquisition time	0.00gamma	496.2192k internal	0.2299k external	0.2299temperature offset calibration	0.9927default loss term (dB/km)	0.3790temperature slope calibration	1.0000multiplexer offset coefficient	1.0000multiplexer slope coefficient	1.0000fibre end	0.00T internal ref (°C)	37.67T ext. ref 1 (°C)	-0.33T ext. ref 2 (°C)	32.11length (m)	temperature (°C)	Stokes	anti-Stokes-747.200	-52.935	0.412	0.194
-746.185	145.445	-0.110	0.151
-745.171	-200.000	0.030	0.311
-744.156	-99.131	-0.261	-0.067
-743.142	-200.000	0.019	0.172
-742.127	-128.719	-0.258	0.037
-741.112	148.313	-0.155	0.213
-740.098	-87.415	-0.262	0.081
-739.083	-200.000	-0.063	0.362
-738.069	441.209	0.090	0.202
-737.054	-62.470	0.286	0.121
-736.039	800.000	0.051	0.152
-735.025	-96.502	0.290	-0.078
-734.010	140.747	0.201	-0.271
-732.996	-200.000	0.024	0.151
-731.981	-32.208	-0.079	0.045
-730.966	-153.068	-0.208	-0.015
-729.952	216.343	-0.122	0.199
-728.937	800.000	0.035	0.138
-727.923	-105.945	-0.170	0.039
-726.908	425.930	-0.094	-0.206
-725.894	11.373	-0.207	0.162
-724.879	17.685	-0.106	0.086
-723.864	-200.000	0.059	-0.282
-722.850	-137.005	-0.324	0.038
-721.835	260.357	0.099	-0.174
-720.821	284.398	-0.135	-0.248
-719.806	3.019	-0.183	-0.136
-718.791	-200.000	-0.056	0.303
-717.777	-91.809	0.118	-0.034
-716.762	579.373	0.077	-0.192
-715.748	-200.000	0.008	0.136
-714.733	-200.000	-0.026	-0.158
-713.718	-107.903	0.494	-0.110
-712.704	326.425	-0.088	-0.171
-711.689	-200.000	-0.049	0.258
-710.675	-67.637	-0.453	-0.181
-709.660	40.150	-0.199	0.182
-708.645	82.488	-0.225	0.249
-707.631	-200.000	0.070	0.350
-706.616	-5.221	-0.337	0.236
-705.602	-49.862	0.459	-0.222
-704.587	47.273	0.119	-0.113
-703.572	-83.041	-0.235	0.077
-702.558	64.363	-0.325	-0.334
-701.543	388.749	-0.061	-0.129
-700.529	13.367	-0.240	-0.190
-699.514	268.170	-0.115	-0.205
-698.499	164.760	0.095	-0.136
-697.485	-127.254	0.051	0.008
-696.470	125.797	-0.042	-0.054
-695.456	-95.591	-0.364	0.099
-694.441	359.126	-0.079	0.160
-693.426	-200.000	0.012	0.269
-692.412	-59.856	0.075	0.033
-691.397	-67.163	-0.298	0.120
-690.383	49.402	-0.061	0.058
-689.368	-45.040	-0.201	0.102
-688.354	-200.000	0.029	-0.305
-687.339	-8.932	-0.333	-0.227
-686.324	-151.205	-0.115	-0.009
-685.310	-96.075	-0.286	0.077
-684.295	800.000	0.059	-0.214
-683.281	-105.347	0.174	0.040
-682.266	-31.028	-0.236	-0.135
-681.251	259.208	-0.158	-0.277
-680.237	5.040	-0.465	0.348
-679.222	181.925	0.346	-0.518
-678.208	-122.391	0.109	-0.018
-677.193	-11.388	-0.453	0.304
-676.178	773.715	0.063	-0.174
-675.164	-200.000	0.316	0.001
-674.149	26.626	-0.137	0.117
-673.135	-200.000	-0.037	0.246
-672.120	-200.000	0.026	0.169
-671.105	-68.068	-0.106	0.042
-670.091	135.392	-0.047	-0.062
-669.076	97.874	-0.154	-0.180
-668.062	-90.063	0.322	0.095
-667.047	800.000	-0.110	0.324
-666.032	-200.000	0.013	-0.061
-665.018	800.000	-0.011	0.041
-664.003	-200.000	0.003	0.111
-662.989	-48.602	0.286	0.140
-661.974	302.034	0.193	0.363
-660.959	21.528	0.034	-0.028
-659.945	-118.065	-0.355	-0.064
-658.930	69.449	-0.179	0.187
-657.916	212.743	-0.059	0.095
-656.901	800.000	-0.061	-0.181
-655.886	-22.850	0.086	0.053
-654.872	79.456	-0.178	0.194
-653.857	54.558	0.164	-0.161
-652.843	386.756	0.233	-0.490
-651.828	416.969	0.016	0.035
-650.814	-82.227	-0.193	0.064
-649.799	-49.562	0.134	-0.065
-648.784	377.250	-0.159	-0.331
-647.770	-200.000	0.023	-0.504
-646.755	314.325	0.053	0.102
-645.741	66.981	0.146	-0.152
-644.726	-200.000	0.009	0.137
-643.711	-1.138	0.212	-0.152
-642.697	-93.857	0.373	0.104
-641.682	81.759	-0.110	-0.121
-640.668	-20.030	0.097	-0.061
-639.653	-53.074	0.185	0.086
-638.638	-23.566	-0.067	0.041
-637.624	-36.339	-0.183	0.100
-636.609	41.452	-0.089	0.082
-635.595	-78.028	0.159	0.056
-634.580	359.395	-0.209	-0.425
-633.565	-200.000	-0.046	0.332
-632.551	-200.000	-0.026	-0.327
-631.536	-127.300	-0.301	-0.045
-630.522	234.943	0.124	0.208
-629.507	-41.194	-0.193	0.101
-628.492	-79.768	-0.123	-0.042
-627.478	-142.411	-0.149	-0.015
-626.463	338.196	0.095	0.189
-625.449	-134.946	-0.537	-0.066
-624.434	2.416	-0.136	0.100
-623.419	506.847	-0.074	0.174
-622.405	-200.000	-0.027	0.203
-621.390	-156.415	0.478	-0.030
-620.376	-140.128	0.145	0.016
-619.361	82.253	-0.292	0.322
-618.346	207.854	0.254	0.403
-617.332	800.000	0.038	0.118
-616.317	800.000	-0.101	0.299
-615.303	-132.570	0.107	-0.014
-614.288	-200.000	-0.014	-0.236
-613.273	-200.000	0.011	0.087
-612.259	264.427	0.084	0.149
-611.244	36.149	0.095	0.085
-610.230	-200.000	0.016	-0.158
-609.215	-73.398	-0.311	-0.115
-608.201	-40.756	-0.231	0.121
-607.186	82.187	0.134	-0.148
-606.171	221.909	0.079	-0.129
-605.157	1.340	-0.100	0.073
-604.142	51.683	0.110	0.106
-603.128	24.986	-0.116	-0.098
-602.113	47.845	-0.103	0.098
-601.098	189.255	-0.145	0.220
-600.084	-101.229	0.288	-0.071
-599.069	194.892	0.200	-0.308
-598.055	110.986	-0.159	0.194
-597.040	-115.773	-0.075	0.014
-596.025	-94.591	-0.110	0.030
-595.011	-200.000	-0.006	0.071
-593.996	-200.000	-0.001	0.143
-592.982	115.039	0.077	-0.095
-591.967	-200.000	-0.003	0.107
-590.952	-70.201	0.241	0.093
-589.938	256.549	-0.178	0.311
-588.923	800.000	-0.065	0.194
-587.909	800.000	0.025	-0.105
-586.894	800.000	-0.124	0.393
-585.879	-150.942	0.183	-0.014
-584.865	541.538	0.187	-0.451
-583.850	26.117	-0.124	-0.105
-582.836	-42.384	0.057	-0.030
-581.821	331.386	-0.137	-0.267
-580.806	471.119	0.136	-0.310
-579.792	-83.609	0.266	0.086
-578.777	800.000	-0.054	-0.198
-577.763	107.289	-0.133	-0.161
-576.748	800.000	-0.014	-0.043
-575.733	20.771	-0.105	0.086
-574.719	77.895	-0.318	-0.343
-573.704	-117.966	-0.216	-0.039
-572.690	1.624	0.151	0.110
-571.675	127.443	-0.109	-0.140
-570.661	449.495	-0.178	0.398
-569.646	800.000	0.023	0.081
-568.631	-110.980	0.196	-0.041
-567.617	156.526	-0.170	-0.238
-566.602	121.951	-0.087	0.111
-565.588	68.367	-0.041	0.043
-564.573	-91.384	0.185	-0.054
-563.558	307.329	-0.163	-0.307
-562.544	23.858	-0.276	-0.231
-561.529	-200.000	0.032	-0.164
-560.515	-98.713	0.091	-0.024
-559.500	243.108	0.080	-0.136
-558.485	-125.449	0.128	0.020
-557.471	133.191	-0.101	0.132
-556.456	56.662	0.291	0.287
-555.442	409.089	-0.145	0.310
-554.427	-51.829	0.145	-0.068
-553.412	5.988	-0.300	0.225
-552.398	-200.000	-0.006	-0.087
-551.383	-32.955	0.155	-0.087
-550.369	432.479	-0.083	-0.182
-549.354	-139.886	0.236	0.025
-548.339	-146.702	0.077	0.007
-547.325	800.000	0.009	0.031
-546.310	-120.101	0.242	-0.042
-545.296	800.000	-0.023	0.098
-544.281	215.094	-0.124	-0.200
-543.266	249.184	-0.059	0.101
-542.252	172.626	-0.194	0.282
-541.237	-13.532	-0.065	0.043
-540.223	449.976	-0.083	-0.186
-539.208	35.496	0.200	-0.178
-538.193	-55.167	-0.164	0.074
-537.179	759.314	0.154	0.423
-536.164	26.633	0.260	-0.220
-535.150	-93.200	0.255	0.072
-534.135	-200.000	-0.317	0.001
-533.121	-36.909	-0.266	0.144
-532.106	-200.000	0.004	-0.248
-531.091	-1.788	-0.179	-0.127
-530.077	-126.708	0.133	-0.020
-529.062	-75.800	-0.054	0.019
-528.048	800.000	-0.005	0.015
-527.033	-200.000	0.008	0.107
-526.018	-200.000	-0.009	-0.052
-525.004	736.507	0.120	-0.325
-523.989	800.000	-0.162	-0.563
-522.975	458.891	0.059	0.132
-521.960	-65.526	-0.048	-0.019
-520.945	290.455	0.108	-0.198
-519.931	-59.555	0.250	-0.109
-518.916	262.599	0.037	-0.065
-517.902	18.619	0.179	0.144
-516.887	155.238	-0.014	0.019
-515.872	800.000	-0.090	-0.346
-514.858	-84.412	-0.219	-0.070
-513.843	-11.114	-0.197	-0.131
-512.829	-63.270	0.208	0.086
-511.814	-200.000	-0.019	-0.222
-510.799	-200.000	-0.015	-0.161
-509.785	-8.262	-0.047	-0.032
-508.770	296.508	0.232	0.430
-507.756	100.796	-0.147	-0.173
-506.741	354.089	-0.123	0.247
-505.726	-52.223	0.137	0.064
-504.712	-88.590	-0.037	0.011
-503.697	-200.000	-0.008	-0.114
-502.683	800.000	0.068	0.267
-501.668	67.613	-0.071	-0.073
-500.653	29.062	0.137	0.118
-499.639	800.000	-0.015	-0.060
-498.624	800.000	0.048	-0.148
-497.610	-42.204	-0.070	0.036
-496.595	800.000	0.028	0.099
-495.581	46.003	-0.102	-0.096
-494.566	-84.777	0.213	0.068
-493.551	-59.399	-0.371	-0.161
-492.537	-91.041	0.187	0.054
-491.522	-200.000	-0.007	0.108
-490.508	16.112	-0.203	0.162
-489.493	417.284	0.057	-0.124
-488.478	-100.690	0.099	0.025
-487.464	-64.393	-0.146	0.060
-486.449	-60.630	-0.156	-0.067
-485.435	174.944	-0.178	-0.261
-484.420	-200.000	0.015	-0.089
-483.405	-200.000	-0.049	0.251
-482.391	-4.966	0.225	-0.156
-481.376	-200.000	-0.033	-0.149
-480.362	-200.000	-0.062	-0.343
-479.347	154.444	0.177	-0.246
-478.332	-51.433	-0.259	0.122
-477.318	34.813	0.160	0.141
-476.303	-200.000	0.028	-0.545
-475.289	-104.000	0.136	0.032
-474.274	800.000	0.160	-0.469
-473.259	153.740	0.138	-0.191
-472.245	-157.099	-0.153	0.009
-471.230	-131.700	-0.100	0.013
-470.216	-200.000	0.021	-0.360
-469.201	800.000	-0.048	-0.157
-468.186	-200.000	0.016	0.105
-467.172	-169.600	0.120	0.004
-466.157	480.082	-0.080	0.183
-465.143	-200.000	0.022	-0.319
-464.128	679.594	0.213	-0.559
-463.113	564.373	0.100	-0.244
-462.099	-182.570	0.454	-0.008
-461.084	55.397	0.270	0.263
-460.070	800.000	-0.114	-0.345
-459.055	-158.291	-0.360	0.021
-458.040	56.530	0.119	-0.116
-457.026	-121.283	0.382	0.064
-456.011	201.686	-0.089	0.138
-454.997	-163.921	-0.128	0.006
-453.982	-200.000	0.051	-0.407
-452.968	341.509	-0.023	-0.045
-451.953	231.176	0.193	0.319
-450.938	-180.835	0.244	0.005
-449.924	-200.000	0.004	0.041
-448.909	-34.658	0.376	-0.207
-447.895	-47.525	-0.216	-0.106
-446.880	-89.908	-0.263	0.078
-445.865	324.880	-0.117	0.226
-444.851	800.000	-0.059	0.249
-443.836	-200.000	-0.009	-0.212
-442.822	-59.938	0.147	-0.063
-441.807	-16.491	-0.282	0.180
-440.792	-178.964	0.426	-0.010
-439.778	-194.193	0.207	0.002
-438.763	120.734	0.071	0.089
-437.749	326.022	0.091	0.176
-436.734	-200.000	0.023	0.201
-435.719	-29.622	-0.219	-0.126
-434.705	119.518	-0.166	-0.207
-433.690	117.262	0.153	0.190
-432.676	309.701	-0.087	-0.165
-431.661	-186.005	-0.205	0.003
-430.646	85.463	-0.080	-0.088
-429.632	800.000	-0.019	-0.054
-428.617	302.737	-0.089	-0.166
-427.603	-200.000	0.015	-0.399
-426.588	800.000	0.035	0.109
-425.573	-50.364	0.247	-0.117
-424.559	800.000	0.047	0.165
-423.544	-135.213	-0.128	-0.016
-422.530	-148.078	-0.426	0.036
-421.515	-28.945	0.135	-0.078
-420.500	-21.350	0.101	0.062
-419.486	-43.211	-0.228	-0.116
-418.471	-161.424	0.166	-0.009
-417.457	2.455	-0.179	0.131
-416.442	800.000	-0.031	-0.095
-415.428	60.702	-0.435	-0.434
-414.413	-137.749	0.094	0.011
-413.398	-73.081	0.142	-0.053
-412.384	-200.000	-0.060	-0.310
-411.369	-145.828	-0.085	-0.008
-410.355	-146.347	0.230	-0.020
-409.340	-147.464	-0.522	0.044
-408.325	800.000	-0.042	-0.142
-407.311	800.000	-0.040	0.138
-406.296	107.485	-0.124	-0.149
-405.282	37.841	0.169	0.151
-404.267	-200.000	0.051	0.310
-403.252	-146.294	0.080	0.007
-402.238	159.467	0.175	-0.245
-401.223	77.364	0.262	-0.280
-400.209	-46.106	0.176	-0.087
-399.194	-166.602	0.190	-0.008
-398.179	-168.719	-0.396	0.015
-397.165	85.540	0.108	0.120
-396.150	-150.701	0.185	0.014
-395.136	151.914	0.102	0.140
-394.121	-46.350	0.300	-0.149
-393.106	58.416	-0.193	-0.191
-392.092	622.905	0.109	0.277
-391.077	9.314	-0.200	-0.153
-390.063	182.356	-0.127	0.189
-389.048	-144.305	-0.276	-0.026
-388.033	-103.754	-0.162	-0.038
-387.019	-180.872	0.091	0.002
-386.004	-62.260	0.059	0.025
-384.990	-200.000	0.045	0.233
-383.975	-200.000	0.026	0.117
-382.960	186.832	-0.184	-0.276
-381.946	-36.212	-0.418	-0.227
-380.931	711.232	0.111	-0.295
-379.917	-124.900	-0.259	-0.040
-378.902	-126.978	0.330	-0.049
-377.888	-200.000	-0.048	0.409
-376.873	-77.086	-0.169	-0.059
-375.858	-158.710	0.295	0.017
-374.844	-52.991	0.174	-0.080
-373.829	-115.410	0.071	0.013
-372.815	235.007	0.199	0.330
-371.800	800.000	-0.041	0.129
-370.785	122.170	-0.212	-0.266
-369.771	-200.000	0.026	0.351
-368.756	-124.440	0.156	0.024
-367.742	800.000	-0.141	0.414
-366.727	289.855	0.168	0.307
-365.712	526.889	0.129	-0.307
-364.698	-5.088	-0.149	-0.103
-363.683	-200.000	-0.044	0.468
-362.669	96.661	0.398	0.459
-361.654	-89.334	-0.092	0.027
-360.639	-200.000	-0.006	-0.077
-359.625	-109.234	0.142	0.030
-358.610	73.876	0.143	-0.151
-357.596	-200.000	0.014	-0.152
-356.581	-122.552	-0.151	-0.025
-355.566	197.286	-0.176	0.270
-354.552	156.164	-0.096	-0.133
-353.537	4.244	-0.199	0.147
-352.523	-135.082	-0.028	-0.003
-351.508	18.383	0.160	-0.129
-350.493	800.000	-0.083	0.310
-349.479	397.724	0.100	0.210
-348.464	314.858	0.161	0.306
-347.450	-200.000	-0.000	0.227
-346.435	98.241	0.178	0.206
-345.420	800.000	0.131	-0.448
-344.406	244.350	0.153	0.259
-343.391	393.825	-0.108	0.227
-342.377	-125.977	-0.056	-0.008
-341.362	-200.000	-0.002	-0.160
-340.348	-30.640	-0.110	-0.063
-339.333	389.204	0.134	-0.279
-338.318	28.764	-0.141	0.120
-337.304	497.249	-0.110	0.255
-336.289	-16.789	-0.104	-0.066
-335.275	223.980	0.083	-0.134
-334.260	122.834	0.060	0.075
-333.245	-108.088	-0.124	-0.027
-332.231	-127.397	0.098	0.014
-331.216	299.733	-0.133	-0.247
-330.202	-82.909	-0.508	0.165
-329.187	329.882	0.107	-0.207
-328.172	74.034	0.098	-0.103
-327.158	-21.348	-0.211	0.129
-326.143	-200.000	0.002	-0.224
-325.129	-136.797	0.259	0.030
-324.114	-103.117	0.148	-0.035
-323.099	49.112	-0.135	-0.127
-322.085	-84.731	0.189	0.060
-321.070	95.420	0.164	-0.187
-320.056	-165.751	-0.283	0.012
-319.041	-159.995	0.266	-0.015
-318.026	94.363	0.029	0.033
-317.012	-137.256	0.170	0.019
-315.997	115.537	-0.088	-0.107
-314.983	-81.694	0.160	0.053
-313.968	34.058	0.298	0.261
-312.953	-113.772	0.147	-0.029
-311.939	-90.090	-0.169	-0.050
-310.924	93.388	-0.099	0.112
-309.910	-68.944	-0.172	-0.067
-308.895	108.908	-0.202	0.242
-307.880	54.926	0.165	-0.159
-306.866	168.610	-0.170	0.243
-305.851	425.650	-0.055	0.120
-304.837	21.202	-0.194	0.158
-303.822	579.711	-0.076	-0.188
-302.807	501.832	-0.196	0.454
-301.793	-200.000	0.053	0.577
-300.778	-4.770	-0.285	-0.197
-299.764	800.000	0.056	-0.225
-298.749	444.197	0.042	0.094
-297.735	656.468	0.047	0.122
-296.720	-200.000	-0.021	0.179
-295.705	-9.759	-0.214	-0.143
-294.691	800.000	-0.045	0.184
-293.676	-1.612	0.114	0.081
-292.662	80.802	-0.217	0.235
-291.647	-101.556	0.503	-0.123
-290.632	17.142	0.311	-0.248
-289.618	-6.162	0.085	-0.058
-288.603	-200.000	0.023	-0.108
-287.589	215.818	0.072	0.115
-286.574	204.584	0.161	0.250
-285.559	316.762	0.194	-0.368
-284.545	9.922	0.091	-0.069
-283.530	50.115	0.038	-0.036
-282.516	-200.000	-0.001	0.127
-281.501	800.000	0.073	-0.241
-280.486	-200.000	0.004	0.042
-279.472	228.171	-0.183	-0.298
-278.457	52.967	-0.040	0.038
-277.443	-200.000	-0.014	-0.179
-276.428	569.075	0.062	-0.150
-275.413	-2.688	0.270	-0.189
-274.399	-38.700	-0.190	0.100
-273.384	128.716	0.228	0.291
-272.370	184.737	0.216	-0.320
-271.355	67.124	-0.075	-0.077
-270.340	800.000	-0.052	0.153
-269.326	-94.464	-0.222	0.061
-268.311	-4.274	-0.021	0.015
-267.297	-48.256	0.270	-0.131
-266.282	-200.000	0.082	0.450
-265.267	8.481	-0.100	-0.076
-264.253	-73.130	0.235	0.086
-263.238	800.000	0.040	0.136
-262.224	800.000	-0.070	-0.294
-261.209	-47.831	0.270	0.131
-260.195	-124.382	0.364	-0.057
-259.180	590.686	0.025	-0.062
-258.165	180.349	-0.198	-0.290
-257.151	-200.000	-0.021	0.151
-256.136	-200.000	-0.017	0.074
-255.122	800.000	-0.068	0.238
-254.107	-200.000	-0.002	0.203
-253.092	15.795	0.106	-0.084
-252.078	-15.197	0.359	0.230
-251.063	88.649	-0.130	-0.145
-250.049	-200.000	-0.012	0.239
-249.034	664.538	-0.050	0.129
-248.019	800.000	0.025	0.105
-247.005	-147.875	0.132	0.011
-245.990	-118.897	-0.410	0.072
-244.976	39.074	-0.136	-0.122
-243.961	12.819	-0.028	0.021
-242.946	47.608	0.133	-0.124
-241.932	-79.132	-0.279	0.095
-240.917	-146.527	0.405	0.035
-239.903	800.000	-0.058	0.179
-238.888	800.000	-0.091	0.251
-237.873	800.000	0.045	0.138
-236.859	-152.056	0.327	-0.024
-235.844	-100.514	0.102	-0.025
-234.830	51.211	0.058	-0.055
-233.815	153.077	-0.051	0.069
-232.800	-200.000	-0.034	0.331
-231.786	-84.047	0.207	0.066
-230.771	259.230	0.101	0.175
-229.757	-108.667	0.236	-0.051
-228.742	-135.255	0.271	0.032
-227.727	75.027	0.023	0.025
-226.713	162.238	-0.262	0.367
-225.698	34.327	0.169	0.148
-224.684	587.328	-0.117	0.288
-223.669	363.360	0.095	-0.190
-222.655	130.484	-0.170	-0.218
-221.640	-61.456	-0.163	0.069
-220.625	800.000	0.044	-0.139
-219.611	99.275	-0.184	0.212
-218.596	165.893	0.113	0.160
-217.582	-167.825	-0.167	-0.007
-216.567	115.868	-0.375	-0.459
-215.552	186.789	-0.162	-0.242
-214.538	-200.000	0.006	-0.147
-213.523	-11.942	-0.106	0.070
-212.509	403.222	-0.124	0.261
-211.494	-200.000	-0.037	0.348
-210.479	-87.173	0.181	0.055
-209.465	639.192	-0.074	-0.187
-208.450	-123.150	0.299	0.048
-207.436	60.603	0.126	0.125
-206.421	800.000	-0.094	0.299
-205.406	351.405	0.068	-0.135
-204.392	-141.460	-0.148	-0.015
-203.377	640.031	0.013	0.033
-202.363	-90.472	-0.107	-0.031
-201.348	-38.332	-0.345	-0.182
-200.333	52.141	-0.203	0.193
-199.319	26.808	-0.312	-0.261
-198.304	800.000	0.013	-0.043
-197.290	111.219	-0.087	0.104
-196.275	447.841	0.234	-0.515
-195.260	83.605	0.234	0.255
-194.246	108.678	0.135	-0.161
-193.231	146.852	-0.104	0.140
-192.217	7.074	-0.074	-0.055
-191.202	-200.000	0.016	0.194
-190.187	-104.284	-0.273	0.063
-189.173	800.000	-0.059	0.234
-188.158	-115.114	-0.146	0.028
-187.144	90.829	0.193	-0.216
-186.129	-5.398	-0.214	0.146
-185.114	266.164	0.075	0.131
-184.100	-53.994	0.157	-0.071
-183.085	-79.265	0.283	0.096
-182.071	-128.209	-0.168	0.024
-181.056	16.795	-0.041	-0.032
-180.042	-200.000	0.013	-0.420
-179.027	-83.579	0.277	-0.089
-178.012	122.053	-0.111	0.139
-176.998	-48.190	-0.332	0.160
-175.983	703.780	0.050	0.131
-174.969	-80.592	0.014	-0.005
-173.954	-200.000	-0.002	-0.121
-172.939	-14.393	0.186	-0.119
-171.925	-66.134	-0.238	-0.095
-170.910	176.559	0.042	-0.061
-169.896	-200.000	-0.006	-0.191
-168.881	-80.159	0.210	-0.070
-167.866	28.165	0.155	0.131
-166.852	-13.020	-0.088	0.057
-165.837	-184.349	-0.222	-0.004
-164.823	214.533	-0.206	-0.325
-163.808	84.746	-0.245	0.268
-162.793	800.000	0.010	0.028
-161.779	-72.948	0.151	-0.055
-160.764	800.000	-0.040	-0.124
-159.750	427.293	-0.060	0.128
-158.735	-119.871	-0.172	0.030
-157.720	-159.375	-0.316	-0.018
-156.706	74.275	-0.043	0.045
-155.691	674.545	-0.139	0.360
-154.677	-200.000	0.027	0.217
-153.662	-165.392	-0.114	0.005
-152.647	-74.690	0.210	-0.075
-151.633	-200.000	-0.003	0.192
-150.618	-79.215	0.448	0.152
-149.604	357.404	-0.067	-0.133
-148.589	58.392	0.078	0.076
-147.574	-200.000	0.011	-0.083
-146.560	96.744	-0.097	0.111
-145.545	-200.000	-0.013	-0.120
-144.531	122.069	0.106	-0.132
-143.516	-86.524	0.183	-0.056
-142.502	-33.453	0.353	-0.194
-141.487	-54.965	-0.269	0.121
-140.472	202.516	-0.050	-0.077
-139.458	-160.605	0.384	0.020
-138.443	-14.882	0.104	-0.067
-137.429	40.647	-0.135	-0.121
-136.414	48.334	-0.233	-0.217
-135.399	82.240	0.094	0.102
-134.385	-113.901	-0.172	-0.033
-133.370	-149.317	-0.106	0.008
-132.356	-142.911	0.113	-0.011
-131.341	-128.291	-0.543	-0.077
-130.326	-3.927	0.123	-0.085
-129.312	157.448	0.098	0.136
-128.297	108.771	-0.123	0.147
-127.283	-10.422	0.162	0.107
-126.268	-50.422	-0.231	-0.108
-125.253	-200.000	-0.043	0.249
-124.239	-29.041	0.353	0.202
-123.224	-200.000	-0.019	0.243
-122.210	-82.716	-0.232	-0.075
-121.195	-96.444	0.095	0.025
