DTS Sentinel unit serial number:	SN413079Multiplexer serial number:	ORYXHardware model number:	OX4-SRSoftware version number:	ORYX F/W v4.00 Oryx Data Collector v3.7.2.0data status	okinstallation	princeton_trtdifferential loss correction	single-endedforward channel	channel 1reverse channel	N/Adate	2019/09/11time	13:56:11forward acquisition time	60.00reverse acquisition time	0.00gamma	496.2192k internal	0.2294k external	0.2294temperature offset calibration	0.9986default loss term (dB/km)	0.3790temperature slope calibration	1.0000multiplexer offset coefficient	1.0000multiplexer slope coefficient	1.0000fibre end	0.00T internal ref (°C)	41.87T ext. ref 1 (°C)	0.84T ext. ref 2 (°C)	36.97length (m)	temperature (°C)	Stokes	anti-Stokes-747.200	-85.767	0.049	-0.016
-746.185	333.289	-0.041	0.081
-745.171	-121.005	-0.139	0.024
-744.156	-200.000	0.008	0.150
-743.142	-81.336	0.025	-0.008
-742.127	800.000	0.064	0.279
-741.112	333.260	0.073	0.144
-740.098	189.119	-0.359	0.550
-739.083	28.943	0.174	-0.151
-738.069	351.755	0.029	0.059
-737.054	90.377	-0.131	0.150
-736.039	445.892	-0.106	-0.239
-735.025	36.188	0.111	-0.100
-734.010	800.000	0.065	-0.193
-732.996	-59.115	0.167	-0.074
-731.981	-74.362	0.031	0.012
-730.966	319.679	-0.165	0.319
-729.952	-38.981	0.087	0.047
-728.937	-129.587	-0.453	0.064
-727.923	361.396	-0.072	0.147
-726.908	-129.319	-0.306	0.043
-725.894	15.772	0.255	-0.205
-724.879	800.000	-0.058	-0.214
-723.864	197.333	-0.122	-0.190
-722.850	-200.000	-0.051	-0.384
-721.835	115.097	-0.121	-0.150
-720.821	-113.472	0.235	-0.047
-719.806	-134.069	-0.219	0.028
-718.791	-2.289	-0.123	0.088
-717.777	-4.145	0.119	-0.084
-716.762	217.854	0.149	0.242
-715.748	-56.642	-0.043	-0.020
-714.733	-124.358	0.225	-0.036
-713.718	15.551	0.089	0.071
-712.704	800.000	-0.057	-0.179
-711.689	-114.153	-0.429	0.085
-710.675	-98.253	-0.122	0.032
-709.660	109.478	0.283	-0.347
-708.645	-200.000	-0.025	-0.127
-707.631	50.855	-0.056	0.054
-706.616	-200.000	-0.033	0.158
-705.602	-105.103	0.086	-0.020
-704.587	150.501	0.077	0.107
-703.572	-113.068	-0.122	-0.025
-702.558	141.573	-0.097	-0.131
-701.543	-200.000	0.027	-0.266
-700.529	356.488	0.068	0.138
-699.514	-200.000	0.001	-0.069
-698.499	170.862	-0.044	-0.064
-697.485	-66.789	-0.395	-0.160
-696.470	208.929	0.041	-0.065
-695.456	-11.984	-0.364	-0.243
-694.441	-34.934	-0.217	-0.121
-693.426	800.000	-0.093	-0.272
-692.412	-49.123	0.118	0.058
-691.397	-200.000	-0.040	-0.344
-690.383	-84.208	-0.169	-0.055
-689.368	-196.780	-0.591	0.004
-688.354	267.025	0.155	-0.277
-687.339	35.579	-0.186	-0.166
-686.324	800.000	-0.127	0.365
-685.310	497.409	-0.096	-0.225
-684.295	-200.000	-0.008	-0.087
-683.281	-200.000	-0.013	-0.148
-682.266	66.140	0.168	-0.174
-681.251	800.000	0.047	-0.148
-680.237	-87.058	-0.276	-0.086
-679.222	-61.829	0.257	-0.110
-678.208	-158.597	-0.393	-0.023
-677.193	-200.000	0.048	0.217
-676.178	27.159	-0.111	-0.095
-675.164	147.856	0.113	0.155
-674.149	-7.203	0.185	-0.128
-673.135	63.575	0.211	0.216
-672.120	-200.000	-0.013	-0.134
-671.105	53.077	-0.187	-0.183
-670.091	-200.000	0.063	-0.397
-669.076	129.544	0.020	0.026
-668.062	359.052	-0.069	0.141
-667.047	90.404	-0.155	0.177
-666.032	-57.395	-0.362	-0.162
-665.018	598.177	0.036	-0.091
-664.003	392.201	-0.147	-0.312
-662.989	120.903	0.110	-0.140
-661.974	-38.160	0.252	0.136
-660.959	304.270	0.065	-0.123
-659.945	-200.000	0.033	-0.266
-658.930	233.797	0.261	-0.439
-657.916	314.058	0.027	-0.052
-656.901	47.664	-0.197	-0.187
-655.886	19.330	-0.159	-0.130
-654.872	800.000	-0.049	0.149
-653.857	210.437	-0.179	-0.286
-652.843	-107.508	0.028	0.006
-651.828	-94.692	-0.137	-0.038
-650.814	-112.279	-0.189	0.039
-649.799	800.000	0.089	0.277
-648.784	-89.248	0.197	0.059
-647.770	-199.543	-0.246	-0.001
-646.755	83.355	0.301	-0.334
-645.741	151.842	-0.169	-0.235
-644.726	-135.206	-0.255	-0.031
-643.711	-99.346	0.336	-0.086
-642.697	178.875	-0.065	0.097
-641.682	-139.566	0.202	0.022
-640.668	108.166	0.197	0.240
-639.653	800.000	-0.064	0.279
-638.638	-200.000	-0.030	0.173
-637.624	505.915	0.037	-0.087
-636.609	152.365	-0.205	0.285
-635.595	-165.086	-0.260	0.012
-634.580	-9.028	-0.129	0.088
-633.565	37.765	0.095	0.086
-632.551	73.489	0.089	0.095
-631.536	372.304	0.066	0.138
-630.522	-200.000	0.042	0.196
-629.507	-35.534	-0.164	-0.091
-628.492	-200.000	0.024	-0.138
-627.478	450.038	0.184	-0.414
-626.463	121.958	0.104	-0.132
-625.449	-169.517	-0.215	-0.008
-624.434	21.263	-0.256	-0.212
-623.419	-52.282	-0.197	-0.093
-622.405	-200.000	-0.020	-0.198
-621.390	213.095	0.031	0.051
-620.376	184.632	-0.186	0.281
-619.361	800.000	-0.021	-0.068
-618.346	-105.395	0.131	-0.030
-617.332	-55.883	-0.044	0.020
-616.317	-116.622	0.105	-0.020
-615.303	-164.669	-0.070	-0.003
-614.288	-42.167	0.221	-0.115
-613.273	502.638	0.079	0.186
-612.259	-174.254	0.202	-0.006
-611.244	317.923	-0.179	-0.344
-610.230	800.000	0.066	-0.229
-609.215	-126.092	0.202	0.031
-608.201	800.000	0.067	-0.247
-607.186	-200.000	-0.044	0.227
-606.171	-46.587	0.280	-0.139
-605.157	-29.135	0.160	-0.094
-604.142	-200.000	-0.026	0.226
-603.128	-115.245	-0.184	-0.035
-602.113	104.670	0.066	0.079
-601.098	47.105	-0.145	0.137
-600.084	-87.634	-0.288	0.088
-599.069	-200.000	0.007	0.219
-598.055	-200.000	-0.015	-0.167
-597.040	638.429	-0.099	0.256
-596.025	457.059	0.098	0.220
-595.011	-13.625	0.242	-0.160
-593.996	-53.630	-0.312	-0.145
-592.982	-142.676	-0.212	-0.021
-591.967	-200.000	0.014	-0.169
-590.952	-38.917	-0.091	0.049
-589.938	800.000	-0.071	0.213
-588.923	350.087	-0.087	-0.174
-587.909	379.214	0.078	-0.163
-586.894	17.457	-0.111	0.090
-585.879	-5.296	0.072	-0.050
-584.865	-41.803	0.118	-0.062
-583.850	158.429	-0.147	0.207
-582.836	280.780	-0.049	-0.090
-581.821	565.617	0.122	-0.301
-580.806	-42.536	-0.403	-0.209
-579.792	-115.506	-0.538	0.103
-578.777	26.129	-0.089	0.076
-577.763	-110.173	-0.194	0.041
-576.748	98.269	0.086	-0.101
-575.733	-200.000	0.030	-0.363
-574.719	-50.860	-0.087	0.041
-573.704	-9.619	-0.285	-0.193
-572.690	800.000	-0.084	-0.280
-571.675	-138.955	0.168	0.019
-570.661	800.000	-0.041	-0.149
-569.646	-122.378	-0.100	-0.016
-568.631	96.670	0.191	0.223
-567.617	408.896	-0.036	-0.077
-566.602	16.048	-0.100	-0.080
-565.588	-138.771	0.134	0.015
-564.573	-47.880	0.025	-0.012
-563.558	-200.000	0.018	-0.206
-562.544	800.000	-0.030	-0.089
-561.529	800.000	-0.035	-0.115
-560.515	-57.356	-0.075	0.033
-559.500	189.237	0.061	-0.092
-558.485	-200.000	0.029	0.236
-557.471	800.000	0.049	0.205
-556.456	800.000	-0.036	-0.129
-555.442	24.960	-0.222	0.187
-554.427	569.531	0.116	0.286
-553.412	-108.576	0.405	-0.088
-552.398	-200.000	0.019	-0.369
-551.383	22.313	-0.476	-0.395
-550.369	423.557	-0.154	0.336
-549.354	-114.641	-0.305	-0.059
-548.339	800.000	0.035	-0.114
-547.325	-95.976	-0.241	-0.065
-546.310	543.339	-0.041	0.099
-545.296	448.327	-0.238	-0.532
-544.281	87.205	0.259	-0.291
-543.266	292.602	-0.067	0.125
-542.252	148.989	0.104	-0.142
-541.237	-97.228	-0.158	0.042
-540.223	-42.746	0.182	-0.094
-539.208	5.493	0.175	-0.131
-538.193	800.000	0.037	-0.110
-537.179	32.396	-0.291	-0.255
-536.164	-200.000	0.009	0.246
-535.150	-70.101	0.129	-0.050
-534.135	-67.923	-0.243	0.096
-533.121	-80.426	0.241	-0.082
-532.106	-129.634	-0.311	-0.044
-531.091	169.776	-0.056	-0.081
-530.077	800.000	0.057	-0.159
-529.062	8.265	0.091	0.069
-528.048	168.008	0.039	0.057
-527.033	-128.919	0.240	-0.034
-526.018	-200.000	0.017	0.101
-525.004	57.186	-0.013	-0.012
-523.989	-200.000	0.066	-0.308
-522.975	388.377	0.208	-0.437
-521.960	-155.482	-0.140	-0.009
-520.945	800.000	0.039	0.165
-519.931	252.801	0.095	-0.165
-518.916	-52.321	0.113	0.053
-517.902	24.705	0.221	-0.186
-516.887	59.510	-0.229	-0.229
-515.872	-34.527	-0.224	0.124
-514.858	-200.000	-0.008	0.090
-513.843	-200.000	0.004	-0.071
-512.829	11.051	0.146	0.113
-511.814	361.033	-0.158	0.321
-510.799	-16.694	-0.211	0.135
-509.785	-200.000	0.010	0.074
-508.770	161.350	0.089	0.126
-507.756	-74.633	-0.018	-0.007
-506.741	-200.000	-0.008	0.113
-505.726	-90.910	-0.145	0.042
-504.712	154.143	-0.017	-0.023
-503.697	-200.000	0.011	0.085
-502.683	177.778	0.120	0.178
-501.668	-200.000	-0.017	0.300
-500.653	96.951	0.037	-0.043
-499.639	-200.000	0.035	-0.278
-498.624	101.521	0.103	0.121
-497.610	303.651	0.024	-0.045
-496.595	428.065	-0.086	-0.187
-495.581	-87.655	0.179	0.055
-494.566	64.850	-0.291	0.297
-493.551	-200.000	-0.038	-0.254
-492.537	-81.487	0.201	0.067
-491.522	661.547	-0.090	0.235
-490.508	-200.000	0.022	-0.217
-489.493	43.759	-0.125	0.116
-488.478	-7.144	-0.084	0.058
-487.464	-200.000	-0.008	-0.077
-486.449	-44.885	0.118	-0.060
-485.435	190.631	-0.107	0.162
-484.420	-175.128	0.427	0.012
-483.405	-58.377	-0.201	0.088
-482.391	-91.472	-0.223	-0.065
-481.376	117.708	0.251	-0.313
-480.362	-68.965	0.016	-0.006
-479.347	6.120	-0.201	-0.151
-478.332	-81.995	-0.243	-0.081
-477.318	89.651	0.124	-0.140
-476.303	-6.991	-0.135	0.093
-475.289	-194.008	-0.181	0.002
-474.274	64.632	-0.063	0.065
-473.259	-110.710	-0.178	-0.037
-472.245	454.783	0.055	-0.124
-471.230	-103.757	-0.095	0.023
-470.216	-151.168	0.312	0.024
-469.201	-169.209	-0.286	0.011
-468.186	-200.000	-0.015	-0.284
-467.172	30.538	-0.053	-0.046
-466.157	137.571	0.195	-0.258
-465.143	800.000	0.095	0.274
-464.128	544.537	-0.139	0.336
-463.113	205.340	0.098	0.155
-462.099	223.436	-0.039	-0.064
-461.084	242.752	0.155	-0.263
-460.070	-110.818	0.122	-0.025
-459.055	800.000	0.113	0.341
-458.040	-79.640	0.106	0.036
-457.026	194.503	0.125	0.191
-456.011	-23.133	-0.239	0.146
-454.997	-26.072	-0.282	-0.168
-453.982	800.000	-0.067	-0.217
-452.968	406.025	-0.027	-0.057
-451.953	-162.958	-0.215	-0.011
-450.938	800.000	0.092	0.302
-449.924	277.334	-0.092	0.166
-448.909	-200.000	-0.003	0.039
-447.895	-76.106	-0.024	0.009
-446.880	149.000	0.146	0.200
-445.865	-103.553	-0.230	0.055
-444.851	-35.286	0.304	0.167
-443.836	-156.889	0.278	-0.017
-442.822	528.290	-0.063	-0.150
-441.807	800.000	0.057	-0.167
-440.792	3.846	0.092	-0.068
-439.778	354.385	0.075	-0.151
-438.763	66.548	0.067	-0.069
-437.749	-200.000	0.005	-0.103
-436.734	800.000	0.063	0.178
-435.719	381.917	-0.037	0.076
-434.705	12.249	-0.446	0.347
-433.690	-145.666	0.323	0.029
-432.676	32.722	0.021	0.019
-431.661	-2.213	0.203	0.144
-430.646	-161.168	0.108	0.006
-429.632	154.685	-0.175	0.243
-428.617	-26.468	0.023	-0.014
-427.603	-88.600	0.139	0.042
-426.588	64.604	0.187	-0.191
-425.573	-200.000	-0.034	-0.301
-424.559	-69.605	0.116	0.045
-423.544	-42.352	-0.269	-0.139
-422.530	100.666	0.111	-0.130
-421.515	10.673	-0.180	0.138
-420.500	101.167	0.156	-0.183
-419.486	61.751	-0.101	0.101
-418.471	800.000	0.136	0.563
-417.457	496.025	0.066	-0.152
-416.442	274.937	-0.186	-0.333
-415.428	-147.190	-0.248	0.021
-414.413	800.000	-0.057	0.228
-413.398	-200.000	-0.008	0.059
-412.384	-62.675	-0.088	-0.037
-411.369	-90.652	0.266	-0.078
-410.355	-200.000	0.037	0.413
-409.340	45.217	-0.113	-0.105
-408.325	-135.647	-0.106	0.013
-407.311	223.304	-0.209	0.339
-406.296	800.000	-0.100	0.376
-405.282	81.671	-0.185	-0.202
-404.267	-200.000	0.048	-0.261
-403.252	-73.157	-0.164	0.061
-402.238	-109.945	0.250	-0.053
-401.223	143.874	-0.050	-0.068
-400.209	390.621	0.026	-0.053
-399.194	-79.997	-0.132	-0.045
-398.179	-51.719	0.291	0.137
-397.165	140.152	0.179	0.239
-396.150	-131.577	0.269	0.036
-395.136	78.123	-0.097	-0.105
-394.121	800.000	0.098	-0.305
-393.106	-111.896	-0.129	0.026
-392.092	170.472	0.064	0.093
-391.077	-104.241	0.137	-0.032
-390.063	-138.908	0.098	-0.011
-389.048	89.663	0.183	-0.206
-388.033	67.363	-0.170	0.175
-387.019	-80.332	0.392	-0.132
-386.004	-200.000	-0.006	-0.159
-384.990	-124.691	0.267	0.042
-383.975	800.000	0.031	0.124
-382.960	800.000	0.076	-0.288
-381.946	-95.105	-0.151	-0.041
-380.931	2.120	-0.132	0.096
-379.917	-81.545	-0.161	0.053
-378.902	-200.000	0.008	0.224
-377.888	142.996	0.184	0.247
-376.873	531.454	-0.113	-0.269
-375.858	39.319	-0.042	0.038
-374.844	-175.975	0.383	-0.010
-373.829	241.494	0.143	-0.241
-372.815	334.162	0.121	0.237
-371.800	18.410	0.068	0.055
-370.785	-66.594	0.389	0.156
-369.771	77.973	0.109	0.117
-368.756	-12.550	-0.037	-0.024
-367.742	-200.000	0.023	0.221
-366.727	-200.000	-0.344	0.001
-365.712	-165.126	0.177	0.008
-364.698	405.590	-0.098	0.208
-363.683	-200.000	0.024	-0.196
-362.669	-40.242	-0.159	-0.083
-361.654	5.659	-0.197	-0.147
-360.639	149.607	-0.169	-0.230
-359.625	56.134	0.075	0.073
-358.610	-87.408	0.254	0.078
-357.596	-13.013	-0.281	0.184
-356.581	49.609	0.101	-0.096
-355.566	-77.109	0.419	0.147
-354.552	-147.088	-0.277	0.024
-353.537	410.622	-0.084	0.179
-352.523	-161.876	-0.384	-0.020
-351.508	446.788	0.024	-0.054
-350.493	313.018	-0.076	0.145
-349.479	-200.000	0.002	0.122
-348.464	71.552	0.109	0.114
-347.450	192.061	0.110	0.167
-346.435	-200.000	-0.006	-0.195
-345.420	7.234	-0.042	0.032
-344.406	-22.574	-0.047	0.028
-343.391	-200.000	-0.015	-0.177
-342.377	439.571	0.022	-0.048
-341.362	131.393	-0.026	-0.033
-340.348	191.154	-0.109	-0.165
-339.333	-70.943	0.216	-0.082
-338.318	3.804	0.071	0.052
-337.304	-144.552	0.136	0.013
-336.289	336.127	-0.095	-0.186
-335.275	141.355	-0.089	0.119
-334.260	-91.805	-0.177	0.051
-333.245	38.574	-0.043	0.038
-332.231	767.590	-0.096	0.262
-331.216	800.000	-0.035	-0.121
-330.202	-93.355	0.314	-0.088
-329.187	271.975	0.046	0.081
-328.172	-52.655	-0.056	-0.026
-327.158	43.882	0.115	-0.106
-326.143	800.000	-0.060	0.220
-325.129	-107.244	-0.204	0.045
-324.114	-129.639	0.186	-0.026
-323.099	31.252	-0.120	0.104
-322.085	12.896	0.116	0.090
-321.070	-200.000	0.004	0.331
-320.056	266.091	0.113	-0.198
-319.041	514.892	0.034	-0.079
-318.026	-159.645	0.126	-0.007
-317.012	-200.000	0.054	-0.361
-315.997	-98.270	-0.271	-0.070
-314.983	800.000	0.063	-0.269
-313.968	255.644	-0.102	-0.175
-312.953	63.995	0.189	-0.191
-311.939	161.083	0.103	0.144
-310.924	533.395	-0.153	-0.364
-309.910	-110.818	0.064	-0.013
-308.895	-35.663	-0.198	-0.108
-307.880	-200.000	-0.035	-0.157
-306.866	-74.468	-0.116	-0.042
-305.851	-200.000	0.014	-0.106
-304.837	-30.227	0.124	-0.071
-303.822	542.315	-0.193	0.464
-302.807	304.658	0.051	0.096
-301.793	-74.999	-0.290	-0.104
-300.778	190.086	-0.127	0.192
-299.764	800.000	0.049	-0.204
-298.749	58.432	-0.197	0.194
-297.735	800.000	0.090	0.264
-296.720	230.089	0.129	-0.212
-295.705	-103.671	0.252	0.059
-294.691	-41.721	-0.055	0.028
-293.676	800.000	0.095	0.337
-292.662	271.667	-0.023	-0.041
-291.647	-24.383	-0.014	-0.008
-290.632	-167.776	0.107	-0.004
-289.618	52.616	0.170	0.163
-288.603	567.839	0.032	0.079
-287.589	-200.000	-0.015	0.148
-286.574	-200.000	0.060	0.585
-285.559	-3.317	0.314	-0.220
-284.545	-93.063	-0.276	-0.077
-283.530	416.124	-0.165	-0.354
-282.516	-200.000	-0.022	-0.241
-281.501	-112.681	0.035	-0.007
-280.486	183.045	0.124	0.184
-279.472	-200.000	0.016	-0.148
-278.457	0.021	0.145	0.104
-277.443	-200.000	0.015	0.101
-276.428	-36.810	-0.104	0.056
-275.413	-200.000	-0.011	0.375
-274.399	800.000	0.057	0.190
-273.384	-89.314	-0.274	0.081
-272.370	-67.557	0.335	-0.132
-271.355	-14.982	0.168	0.108
-270.340	-61.204	-0.194	-0.082
-269.326	-158.993	0.437	0.025
-268.311	-119.373	0.229	-0.040
-267.297	-24.969	0.229	0.136
-266.282	-37.300	0.242	0.130
-265.267	800.000	0.069	0.283
-264.253	610.755	-0.051	0.127
-263.238	-32.871	0.259	0.145
-262.224	228.049	0.101	0.165
-261.209	800.000	0.188	0.553
-260.195	51.529	-0.167	-0.159
-259.180	146.089	0.140	0.188
-258.165	13.235	0.216	-0.168
-257.151	-200.000	0.043	0.307
-256.136	182.172	0.067	0.099
-255.122	42.554	0.126	-0.115
-254.107	191.275	-0.146	0.221
-253.092	-175.908	0.188	0.005
-252.078	136.719	-0.159	0.208
-251.063	-80.709	-0.075	-0.025
-250.049	-30.928	0.111	-0.063
-249.034	-200.000	0.003	0.084
-248.019	-175.401	-0.193	-0.005
-247.005	-151.306	-0.216	0.016
-245.990	81.389	-0.150	-0.162
-244.976	9.130	0.089	0.068
-243.961	-200.000	-0.040	-0.378
-242.946	-200.000	0.039	-0.310
-241.932	106.271	0.105	0.124
-240.917	23.633	0.234	-0.194
-239.903	276.203	0.214	-0.381
-238.888	-200.000	-0.034	-0.157
-237.873	174.600	0.230	0.333
-236.859	-200.000	-0.018	-0.115
-235.844	37.026	0.237	-0.211
-234.830	-99.937	-0.242	-0.061
-233.815	-200.000	0.025	0.154
-232.800	335.205	-0.057	-0.111
-231.786	196.884	-0.074	-0.113
-230.771	11.286	-0.124	0.095
-229.757	-200.000	0.068	0.302
-228.742	-200.000	0.016	-0.123
-227.727	-98.820	0.133	0.034
-226.713	-200.000	-0.017	-0.083
-225.698	364.243	-0.100	0.201
-224.684	-138.641	-0.192	-0.021
-223.669	800.000	0.104	-0.347
-222.655	664.768	0.050	0.130
-221.640	-70.277	-0.153	0.058
-220.625	194.702	-0.125	-0.190
-219.611	490.749	-0.038	-0.086
-218.596	-200.000	-0.016	0.263
-217.582	-5.581	0.122	-0.084
-216.567	-200.000	-0.018	0.198
-215.552	-77.561	0.308	0.107
-214.538	-200.000	0.010	0.181
-213.523	-33.780	-0.243	0.134
-212.509	32.949	-0.247	0.214
-211.494	-200.000	0.027	0.250
-210.479	327.289	0.110	0.212
-209.465	-200.000	0.023	-0.136
-208.450	-0.289	0.045	0.032
-207.436	56.962	-0.211	-0.205
-206.421	-79.461	0.176	0.059
-205.406	52.349	-0.180	-0.172
-204.392	-105.927	0.139	-0.031
-203.377	800.000	-0.098	-0.389
-202.363	8.769	-0.160	-0.120
-201.348	-200.000	-0.058	0.258
-200.333	800.000	-0.046	0.165
-199.319	-24.748	-0.193	0.115
-198.304	-200.000	0.108	0.000
-197.290	-34.201	-0.131	0.072
-196.275	-200.000	-0.018	-0.099
-195.260	800.000	-0.048	-0.167
-194.246	-166.362	-0.190	0.008
-193.231	365.619	0.089	-0.179
-192.217	-80.382	0.130	-0.044
-191.202	-200.000	-0.328	-0.001
-190.187	26.790	0.216	0.181
-189.173	-25.837	0.210	-0.124
-188.158	780.439	-0.143	0.391
-187.144	-71.436	-0.295	0.110
-186.129	397.198	-0.117	-0.244
-185.114	518.228	0.085	-0.199
-184.100	-79.186	-0.356	0.121
-183.085	233.641	0.125	-0.207
-182.071	56.763	0.154	-0.150
-181.056	557.709	-0.092	-0.223
-180.042	-139.112	0.325	0.035
-179.027	800.000	0.095	-0.277
-178.012	-27.851	-0.253	-0.147
-176.998	-200.000	0.006	-0.166
-175.983	-170.261	-0.232	-0.008
-174.969	116.905	-0.043	0.053
-173.954	-200.000	0.033	-0.366
-172.939	-93.517	0.399	0.111
-171.925	404.176	0.088	0.185
-170.910	53.023	-0.047	0.045
-169.896	800.000	0.030	0.106
-168.881	675.414	-0.082	-0.212
-167.866	339.893	-0.051	0.100
-166.852	-78.993	0.123	-0.042
-165.837	-200.000	-0.012	-0.129
-164.823	110.978	-0.008	0.010
-163.808	263.137	-0.050	-0.086
-162.793	30.027	0.132	-0.113
-161.779	4.066	0.134	0.098
-160.764	100.078	0.171	0.198
-159.750	-200.000	0.030	0.200
-158.735	481.527	-0.085	0.193
-157.720	756.817	-0.067	0.180
-156.706	-200.000	-0.003	0.026
-155.691	120.415	0.149	-0.185
-154.677	263.765	0.059	-0.102
-153.662	118.182	0.070	0.086
-152.647	-12.528	-0.426	-0.278
-151.633	-174.541	-0.119	0.003
-150.618	-17.529	-0.014	0.009
-149.604	-19.182	0.178	0.111
-148.589	-108.036	0.189	-0.041
-147.574	19.611	0.115	-0.092
-146.560	800.000	0.115	0.320
-145.545	-142.724	-0.239	0.023
-144.531	-200.000	-0.000	-0.276
-143.516	204.489	0.122	-0.189
-142.502	-29.799	-0.238	-0.136
-141.487	-200.000	0.008	-0.190
-140.472	800.000	0.086	-0.270
-139.458	-124.082	0.217	-0.034
-138.443	189.109	-0.086	-0.129
-137.429	-76.192	-0.196	0.069
-136.414	113.435	-0.208	0.253
-135.399	110.352	-0.008	0.010
-134.385	63.400	-0.091	-0.092
-133.370	23.849	0.344	-0.283
-132.356	-83.913	0.361	-0.115
-131.341	36.389	-0.114	-0.101
-130.326	-200.000	-0.021	-0.107
-129.312	101.370	0.058	-0.068
-128.297	3.754	-0.085	-0.062
-127.283	8.130	-0.202	-0.152
-126.268	154.007	0.178	0.244
-125.253	5.870	0.147	-0.109
-124.239	-59.829	0.231	-0.099
-123.224	800.000	0.060	0.204
-122.210	281.147	-0.081	0.144
-121.195	-34.568	-0.360	0.197
