DTS Sentinel unit serial number:	SN413079Multiplexer serial number:	ORYXHardware model number:	OX4-SRSoftware version number:	ORYX F/W v4.00 Oryx Data Collector v3.7.2.0data status	okinstallation	princeton_trtdifferential loss correction	single-endedforward channel	channel 1reverse channel	N/Adate	2019/09/12time	03:32:11forward acquisition time	60.00reverse acquisition time	0.00gamma	496.2192k internal	0.2322k external	0.2322temperature offset calibration	1.0082default loss term (dB/km)	0.3790temperature slope calibration	1.0000multiplexer offset coefficient	1.0000multiplexer slope coefficient	1.0000fibre end	0.00T internal ref (°C)	32.17T ext. ref 1 (°C)	2.13T ext. ref 2 (°C)	27.34length (m)	temperature (°C)	Stokes	anti-Stokes-747.200	63.458	0.118	0.120
-746.185	800.000	-0.106	0.456
-745.171	-65.608	-0.170	-0.069
-744.156	800.000	0.039	-0.139
-743.142	800.000	-0.031	-0.135
-742.127	484.122	0.100	0.230
-741.112	-200.000	0.044	0.218
-740.098	-4.644	0.035	0.025
-739.083	-200.000	0.022	0.231
-738.069	103.168	0.107	0.127
-737.054	-20.229	-0.148	0.092
-736.039	-127.483	-0.345	0.051
-735.025	48.062	0.231	0.219
-734.010	-101.975	-0.338	0.082
-732.996	-113.506	-0.313	0.062
-731.981	24.442	-0.165	0.138
-730.966	-27.819	-0.179	-0.105
-729.952	27.179	0.124	-0.105
-728.937	119.467	-0.043	0.054
-727.923	800.000	0.070	0.271
-726.908	-80.354	-0.193	-0.065
-725.894	-26.483	-0.218	0.129
-724.879	363.059	-0.129	0.262
-723.864	-73.108	0.238	-0.088
-722.850	-148.038	0.359	-0.030
-721.835	-45.040	-0.099	0.050
-720.821	-200.000	0.049	0.282
-719.806	348.779	-0.135	0.269
-718.791	-155.263	0.381	-0.025
-717.777	-62.698	-0.096	-0.040
-716.762	-200.000	-0.026	-0.151
-715.748	-129.653	0.181	0.025
-714.733	-16.953	0.132	0.084
-713.718	-200.000	-0.009	-0.062
-712.704	39.370	0.172	-0.155
-711.689	217.301	0.173	0.279
-710.675	113.157	-0.184	0.225
-709.660	-200.000	-0.003	0.215
-708.645	-120.140	0.033	-0.006
-707.631	-200.000	-0.004	0.173
-706.616	144.788	-0.198	0.267
-705.602	-200.000	-0.038	0.272
-704.587	800.000	0.099	-0.286
-703.572	-39.692	-0.422	0.222
-702.558	800.000	0.052	0.157
-701.543	203.879	0.098	0.153
-700.529	-200.000	-0.001	-0.059
-699.514	800.000	-0.029	-0.091
-698.499	381.292	0.126	0.261
-697.485	-200.000	0.033	-0.399
-696.470	-200.000	0.002	0.268
-695.456	-146.822	-0.334	0.029
-694.441	206.508	-0.082	-0.129
-693.426	-74.711	-0.368	0.133
-692.412	-200.000	-0.013	-0.064
-691.397	-200.000	-0.040	0.199
-690.383	238.110	-0.097	0.163
-689.368	-200.000	0.226	0.001
-688.354	-50.198	0.216	0.103
-687.339	-136.147	0.354	0.042
-686.324	26.485	0.171	0.144
-685.310	-1.552	-0.177	0.126
-684.295	135.878	0.083	0.108
-683.281	60.467	-0.186	0.186
-682.266	-13.006	-0.195	-0.128
-681.251	44.506	0.087	0.081
-680.237	195.448	-0.077	-0.118
-679.222	-128.304	0.289	0.042
-678.208	31.059	-0.096	0.083
-677.193	800.000	-0.089	0.279
-676.178	-32.689	0.180	-0.101
-675.164	-200.000	-0.018	0.088
-674.149	800.000	0.044	0.179
-673.135	-200.000	-0.002	-0.024
-672.120	131.224	0.085	-0.110
-671.105	-66.699	0.120	0.048
-670.091	-56.103	0.203	-0.091
-669.076	503.202	0.088	0.204
-668.062	-200.000	-0.013	-0.117
-667.047	185.252	-0.117	-0.175
-666.032	-200.000	-0.000	-0.243
-665.018	-200.000	-0.002	-0.114
-664.003	131.324	0.126	0.163
-662.989	51.645	0.086	-0.083
-661.974	-200.000	0.007	0.214
-660.959	143.870	-0.141	0.189
-659.945	504.179	0.117	0.272
-658.930	163.824	-0.193	0.273
-657.916	-200.000	0.003	-0.328
-656.901	-200.000	0.051	-0.468
-655.886	193.304	-0.129	0.197
-654.872	195.720	-0.038	0.058
-653.857	60.001	0.295	-0.293
-652.843	588.978	-0.032	0.079
-651.828	1.714	0.063	0.045
-650.814	23.524	0.194	0.161
-649.799	745.704	0.108	0.293
-648.784	-62.303	0.340	-0.143
-647.770	352.139	-0.099	0.198
-646.755	-56.581	-0.042	-0.019
-645.741	-200.000	-0.003	-0.029
-644.726	80.107	0.075	-0.081
-643.711	326.751	0.134	-0.258
-642.697	17.738	-0.153	-0.123
-641.682	-152.157	-0.411	0.030
-640.668	171.863	0.113	0.164
-639.653	59.094	0.242	0.240
-638.638	144.642	-0.181	0.243
-637.624	-172.532	-0.398	0.013
-636.609	16.401	-0.071	-0.057
-635.595	611.732	-0.079	-0.198
-634.580	-136.365	-0.282	-0.033
-633.565	95.157	0.093	0.106
-632.551	-90.266	-0.264	-0.077
-631.536	-28.997	-0.156	0.090
-630.522	-177.610	-0.204	0.005
-629.507	90.729	-0.318	-0.358
-628.492	155.718	-0.116	-0.161
-627.478	56.232	0.183	-0.178
-626.463	114.778	-0.273	-0.335
-625.449	8.914	-0.216	0.164
-624.434	-200.000	-0.015	0.396
-623.419	255.577	-0.114	0.197
-622.405	73.475	0.179	0.188
-621.390	396.642	0.190	-0.399
-620.376	-106.404	0.084	0.019
-619.361	549.144	-0.115	0.277
-618.346	251.831	-0.022	-0.037
-617.332	251.433	-0.118	-0.202
-616.317	-87.002	-0.064	-0.020
-615.303	225.343	-0.220	-0.358
-614.288	-70.070	0.288	-0.110
-613.273	-37.056	0.192	0.103
-612.259	-93.196	0.512	0.143
-611.244	32.799	0.152	-0.132
-610.230	-186.933	-0.252	0.004
-609.215	-200.000	0.050	-0.374
-608.201	-200.000	0.036	0.204
-607.186	14.770	0.104	0.082
-606.171	-10.890	-0.112	0.074
-605.157	233.342	-0.073	-0.120
-604.142	375.139	0.023	-0.048
-603.128	-200.000	-0.061	0.391
-602.113	-91.664	-0.047	-0.013
-601.098	72.468	-0.137	-0.144
-600.084	40.683	-0.096	-0.087
-599.069	800.000	0.038	-0.134
-598.055	800.000	0.081	-0.304
-597.040	44.090	0.019	0.017
-596.025	30.210	0.165	0.141
-595.011	-66.797	-0.288	0.114
-593.996	322.955	0.169	-0.324
-592.982	293.784	0.238	-0.436
-591.967	-58.685	-0.373	0.163
-590.952	800.000	0.068	0.215
-589.938	-140.272	0.117	0.012
-588.923	314.206	-0.176	-0.333
-587.909	800.000	-0.083	-0.287
-586.894	310.663	0.201	0.377
-585.879	-200.000	0.070	-0.326
-584.865	-115.850	-0.321	0.060
-583.850	86.332	0.169	-0.187
-582.836	-200.000	0.007	-0.283
-581.821	800.000	-0.050	0.169
-580.806	-16.190	-0.351	-0.224
-579.792	25.101	0.136	-0.113
-578.777	-200.000	0.004	0.100
-577.763	-149.117	-0.133	-0.011
-576.748	652.598	-0.073	-0.188
-575.733	267.500	-0.274	-0.481
-574.719	800.000	0.038	0.121
-573.704	200.869	-0.123	-0.189
-572.690	449.173	0.073	0.161
-571.675	130.315	0.178	-0.228
-570.661	800.000	0.051	-0.167
-569.646	118.981	0.055	0.069
-568.631	-27.724	0.151	0.088
-567.617	77.633	-0.153	0.163
-566.602	-29.005	0.154	-0.089
-565.588	206.855	-0.171	0.268
-564.573	2.408	-0.279	0.202
-563.558	-70.275	-0.423	-0.161
-562.544	-200.000	-0.272	0.001
-561.529	-200.000	0.027	0.228
-560.515	266.349	0.094	-0.165
-559.500	142.607	-0.129	-0.172
-558.485	207.242	-0.085	0.133
-557.471	253.476	-0.109	0.187
-556.456	560.235	0.047	-0.114
-555.442	61.721	0.057	-0.057
-554.427	51.972	-0.083	-0.079
-553.412	-12.602	0.139	-0.091
-552.398	-37.999	0.208	-0.111
-551.383	40.933	0.079	-0.072
-550.369	-200.000	0.000	-0.162
-549.354	-200.000	0.044	-0.292
-548.339	-5.309	0.065	0.045
-547.325	128.525	0.203	-0.259
-546.310	-200.000	-0.039	-0.187
-545.296	-134.786	-0.230	-0.028
-544.281	800.000	-0.050	0.156
-543.266	-200.000	-0.011	0.054
-542.252	146.292	0.270	0.363
-541.237	-101.888	-0.263	-0.064
-540.223	-185.394	-0.233	0.004
-539.208	527.658	0.067	-0.158
-538.193	-141.126	0.223	-0.023
-537.179	272.403	0.098	-0.174
-536.164	178.470	0.303	-0.444
-535.150	-115.906	-0.238	-0.044
-534.135	14.064	0.136	-0.106
-533.121	59.269	-0.039	0.039
-532.106	-116.612	-0.192	-0.035
-531.091	-28.519	-0.191	0.110
-530.077	174.061	0.194	0.280
-529.062	-21.962	-0.112	-0.068
-528.048	-200.000	-0.020	0.371
-527.033	-114.464	-0.178	-0.034
-526.018	180.874	-0.123	-0.181
-525.004	92.746	0.162	-0.183
-523.989	257.663	-0.150	-0.258
-522.975	-110.607	-0.314	0.065
-521.960	-106.798	0.356	-0.079
-520.945	580.275	0.082	-0.200
-519.931	110.244	0.184	0.222
-518.916	408.060	-0.091	0.193
-517.902	-200.000	-0.006	0.072
-516.887	-154.555	0.230	0.015
-515.872	-16.767	-0.204	0.129
-514.858	-200.000	0.047	-0.421
-513.843	-57.604	-0.303	0.133
-512.829	-169.841	-0.312	0.011
-511.814	153.623	-0.099	-0.136
-510.799	-106.071	0.108	0.024
-509.785	221.174	-0.277	0.445
-508.770	-140.260	-0.319	-0.033
-507.756	313.676	-0.146	-0.275
-506.741	-151.120	-0.329	-0.025
-505.726	-121.137	0.046	-0.008
-504.712	-200.000	0.000	0.318
-503.697	-52.849	-0.200	0.092
-502.683	-168.281	0.255	-0.010
-501.668	173.372	-0.063	0.091
-500.653	19.410	-0.152	0.122
-499.639	-200.000	-0.024	-0.112
-498.624	800.000	-0.036	-0.151
-497.610	-200.000	-0.046	0.411
-496.595	233.821	0.106	0.174
-495.581	183.564	0.103	-0.152
-494.566	10.425	-0.143	0.109
-493.551	800.000	-0.066	0.260
-492.537	800.000	0.075	-0.222
-491.522	61.706	0.199	-0.198
-490.508	-200.000	-0.005	0.046
-489.493	196.156	0.085	0.129
-488.478	-115.084	0.166	0.032
-487.464	678.711	-0.054	0.139
-486.449	-55.295	0.152	0.068
-485.435	-3.725	0.157	-0.109
-484.420	-112.439	-0.046	-0.009
-483.405	47.324	-0.353	0.329
-482.391	92.733	-0.172	0.194
-481.376	-200.000	-0.010	-0.143
-480.362	-1.429	0.135	0.095
-479.347	-41.149	0.150	-0.077
-478.332	2.460	-0.406	0.294
-477.318	800.000	0.082	-0.269
-476.303	-200.000	-0.041	0.401
-475.289	184.697	0.179	0.265
-474.274	800.000	0.032	-0.131
-473.259	800.000	0.081	0.249
-472.245	51.678	-0.105	-0.100
-471.230	50.557	-0.044	-0.042
-470.216	55.656	-0.087	0.084
-469.201	163.335	0.148	0.208
-468.186	-129.029	0.307	-0.043
-467.172	-200.000	0.034	-0.293
-466.157	-58.635	-0.192	0.083
-465.143	91.152	-0.174	0.195
-464.128	-9.595	0.108	-0.072
-463.113	279.540	0.160	-0.285
-462.099	-126.238	-0.231	-0.035
-461.084	75.114	-0.198	-0.208
-460.070	-200.000	0.002	-0.242
-459.055	27.794	-0.218	0.184
-458.040	-55.245	0.146	-0.066
-457.026	39.277	0.215	0.192
-456.011	-200.000	-0.018	0.114
-454.997	800.000	-0.063	-0.228
-453.982	-65.444	0.202	-0.081
-452.968	-163.791	0.205	-0.010
-451.953	165.171	0.151	0.212
-450.938	-56.955	-0.154	0.068
-449.924	239.990	-0.144	0.240
-448.909	663.218	-0.099	0.256
-447.895	132.759	0.212	0.273
-446.880	-200.000	-0.088	0.521
-445.865	800.000	-0.017	-0.048
-444.851	401.638	-0.177	-0.371
-443.836	-127.263	0.034	-0.005
-442.822	-92.997	0.227	-0.063
-441.807	-106.451	-0.209	0.047
-440.792	-43.523	-0.233	-0.117
-439.778	-104.233	0.121	0.028
-438.763	9.531	0.133	-0.100
-437.749	-37.187	-0.096	0.051
-436.734	-3.989	0.287	-0.198
-435.719	-200.000	-0.050	-0.257
-434.705	69.094	-0.081	0.083
-433.690	-93.594	-0.388	0.107
-432.676	29.191	0.133	0.113
-431.661	434.375	0.167	-0.363
-430.646	-161.737	-0.166	-0.008
-429.632	202.376	-0.120	0.184
-428.617	-200.000	-0.039	-0.300
-427.603	-200.000	0.015	-0.154
-426.588	-110.346	0.202	-0.042
-425.573	82.893	0.261	0.284
-424.559	800.000	0.112	-0.406
-423.544	-154.743	0.223	-0.015
-422.530	-200.000	-0.004	-0.038
-421.515	-200.000	-0.015	-0.107
-420.500	-56.837	-0.170	-0.075
-419.486	-132.634	-0.089	-0.011
-418.471	7.053	0.308	0.229
-417.457	-19.922	-0.221	0.136
-416.442	176.105	0.055	0.079
-415.428	298.233	0.083	-0.152
-414.413	-69.619	0.386	-0.147
-413.398	290.788	-0.122	-0.221
-412.384	33.117	-0.304	0.263
-411.369	-200.000	-0.018	0.269
-410.355	-22.317	0.100	-0.060
-409.340	87.345	0.172	0.190
-408.325	-99.670	-0.109	-0.027
-407.311	-200.000	-0.061	0.437
-406.296	-81.538	0.105	0.034
-405.282	800.000	0.080	0.224
-404.267	250.278	-0.117	0.198
-403.252	-98.946	-0.233	0.059
-402.238	419.974	0.089	0.190
-401.223	461.433	-0.079	0.175
-400.209	-19.006	0.314	-0.195
-399.194	442.777	-0.037	-0.081
-398.179	800.000	0.099	0.341
-397.165	179.472	0.131	-0.191
-396.150	-111.929	0.277	0.056
-395.136	-68.569	-0.054	-0.021
-394.121	-32.687	0.177	-0.098
-393.106	-95.361	-0.201	0.054
-392.092	384.460	-0.218	0.448
-391.077	-200.000	0.048	0.238
-390.063	386.921	-0.175	0.360
-389.048	-14.490	0.207	0.133
-388.033	-185.046	-0.078	0.001
-387.019	-157.393	0.308	0.019
-386.004	-27.367	-0.121	0.070
-384.990	255.421	-0.170	-0.290
-383.975	-200.000	-0.031	-0.224
-382.960	-125.627	-0.252	-0.038
-381.946	-200.000	0.012	-0.094
-380.931	-1.418	0.427	-0.300
-379.917	-171.540	-0.255	-0.008
-378.902	-119.708	0.170	-0.029
-377.888	-63.858	-0.114	0.046
-376.873	-137.542	-0.069	-0.008
-375.858	800.000	-0.106	-0.324
-374.844	-24.223	0.111	0.066
-373.829	-200.000	-0.010	0.133
-372.815	-113.152	0.177	-0.035
-371.800	379.198	-0.043	0.088
-370.785	-200.000	-0.042	0.197
-369.771	-200.000	-0.048	0.506
-368.756	800.000	0.050	0.209
-367.742	-9.706	0.233	-0.154
-366.727	223.260	-0.153	-0.246
-365.712	16.727	0.128	0.101
-364.698	-106.856	-0.221	0.049
-363.683	-158.248	0.133	0.008
-362.669	158.472	-0.099	-0.137
-361.654	-1.333	-0.207	0.145
-360.639	190.720	0.073	0.109
-359.625	182.901	-0.128	-0.187
-358.610	-81.931	0.157	-0.051
-357.596	201.181	0.086	0.132
-356.581	-105.292	0.049	-0.011
-355.566	-200.000	0.061	-0.343
-354.552	-200.000	0.018	0.271
-353.537	26.100	0.200	-0.166
-352.523	-87.168	0.224	-0.068
-351.508	-66.127	0.238	-0.094
-350.493	-52.686	0.212	0.097
-349.479	-200.000	-0.049	-0.309
-348.464	196.556	-0.052	0.079
-347.450	111.734	0.220	0.264
-346.435	-42.368	-0.394	-0.200
-345.420	146.169	0.067	0.090
-344.406	-200.000	0.056	0.340
-343.391	369.846	-0.055	0.111
-342.377	166.313	0.044	-0.062
-341.362	645.361	-0.095	0.241
-340.348	60.301	0.283	-0.279
-339.333	-192.593	0.083	0.001
-338.318	479.777	0.095	0.214
-337.304	117.142	-0.233	-0.285
-336.289	123.072	-0.153	0.191
-335.275	-200.000	-0.063	0.458
-334.260	-134.627	0.325	-0.039
-333.245	6.973	0.278	-0.206
-332.231	14.442	-0.115	-0.089
-331.216	-118.535	0.227	-0.040
-330.202	32.759	-0.211	-0.182
-329.187	259.070	0.078	-0.134
-328.172	-171.848	0.249	-0.008
-327.158	-140.478	0.434	0.045
-326.143	12.137	0.183	0.140
-325.129	22.657	0.061	0.050
-324.114	-27.740	0.284	-0.164
-323.099	550.573	-0.149	-0.355
-322.085	-14.442	-0.279	-0.178
-321.070	-89.657	0.272	0.079
-320.056	-200.000	-0.005	0.121
-319.041	350.060	-0.020	-0.040
-318.026	237.198	0.068	-0.112
-317.012	-200.000	-0.011	-0.102
-315.997	-151.113	0.170	-0.013
-314.983	-24.998	-0.173	0.102
-313.968	252.800	0.119	0.201
-312.953	800.000	-0.089	0.314
-311.939	211.509	0.188	0.294
-310.924	442.933	0.079	-0.171
-309.910	-73.932	0.285	-0.103
-308.895	192.730	-0.186	0.279
-307.880	646.745	0.006	-0.016
-306.866	800.000	-0.149	-0.495
-305.851	191.665	0.125	-0.187
-304.837	-101.626	0.144	0.035
-303.822	-200.000	-0.003	-0.096
-302.807	800.000	0.027	-0.094
-301.793	-200.000	0.017	-0.089
-300.778	67.563	-0.108	0.110
-299.764	79.588	-0.105	0.112
-298.749	-138.784	0.264	-0.029
-297.735	-150.770	0.084	0.006
-296.720	-101.512	-0.305	-0.074
-295.705	124.977	-0.125	0.156
-294.691	-8.071	0.205	0.137
-293.676	-56.085	0.485	-0.214
-292.662	34.023	-0.260	-0.225
-291.647	-200.000	0.019	-0.144
-290.632	-200.000	0.036	-0.251
-289.618	64.224	-0.129	-0.128
-288.603	-64.575	-0.230	-0.093
-287.589	-200.000	0.050	-0.232
-286.574	-200.000	-0.010	-0.129
-285.559	-80.723	0.084	-0.028
-284.545	-82.516	0.256	-0.083
-283.530	128.557	0.140	-0.177
-282.516	-66.082	-0.352	0.139
-281.501	100.285	0.121	-0.139
-280.486	-23.992	-0.326	0.194
-279.472	-200.000	0.018	0.137
-278.457	-200.000	0.374	0.001
-277.443	652.276	0.196	0.499
-276.428	-200.000	-0.021	-0.186
-275.413	62.466	0.206	-0.204
-274.399	800.000	-0.060	-0.189
-273.384	100.476	-0.131	0.150
-272.370	51.827	0.138	0.130
-271.355	-112.976	-0.126	-0.025
-270.340	93.576	-0.046	0.052
-269.326	-200.000	-0.037	0.401
-268.311	9.531	0.282	0.211
-267.297	184.337	0.113	0.166
-266.282	282.032	-0.122	-0.217
-265.267	-200.000	-0.024	-0.154
-264.253	800.000	-0.039	-0.164
-263.238	-32.895	-0.204	-0.112
-262.224	358.536	0.138	0.274
-261.209	-141.956	0.194	-0.019
-260.195	105.933	-0.196	0.229
-259.180	395.389	-0.164	-0.340
-258.165	63.686	-0.138	-0.137
-257.151	663.615	0.036	-0.093
-256.136	-106.014	-0.110	-0.024
-255.122	-180.663	0.222	-0.005
-254.107	133.810	0.449	0.577
-253.092	-18.889	-0.040	0.025
-252.078	-200.000	-0.007	-0.061
-251.063	800.000	-0.031	0.096
-250.049	800.000	0.066	0.192
-249.034	-7.935	-0.179	-0.120
-248.019	-200.000	-0.075	-0.379
-247.005	-200.000	0.003	-0.045
-245.990	266.103	0.138	-0.239
-244.976	45.737	-0.124	0.114
-243.961	-73.190	-0.203	0.074
-242.946	-200.000	-0.343	0.000
-241.932	532.062	-0.034	0.079
-240.917	765.083	-0.035	-0.093
-239.903	-48.073	-0.270	-0.129
-238.888	-122.726	-0.046	-0.007
-237.873	185.225	0.155	0.227
-236.859	30.254	0.192	0.162
-235.844	800.000	0.059	-0.178
-234.830	-125.051	0.191	-0.029
-233.815	800.000	-0.175	-0.504
-232.800	800.000	-0.108	-0.381
-231.786	72.173	-0.144	0.148
-230.771	-200.000	-0.012	0.077
-229.757	788.463	0.043	-0.117
-228.742	664.901	-0.131	0.335
-227.727	-200.000	-0.034	-0.153
-226.713	800.000	-0.024	-0.097
-225.698	178.188	0.034	0.049
-224.684	-200.000	0.008	-0.207
-223.669	362.026	0.090	-0.179
-222.655	-139.211	0.265	0.028
-221.640	175.502	0.084	-0.121
-220.625	-40.013	0.314	-0.162
-219.611	27.282	0.108	0.089
-218.596	-137.277	-0.172	0.019
-217.582	36.279	0.170	0.148
-216.567	5.250	0.166	-0.121
-215.552	-135.496	-0.195	0.023
-214.538	54.221	0.266	0.254
-213.523	-27.791	0.164	0.094
-212.509	119.689	-0.206	-0.253
-211.494	19.016	-0.123	-0.098
-210.479	-35.935	0.121	0.065
-209.465	-1.278	-0.181	-0.126
-208.450	-53.099	0.171	-0.078
-207.436	-137.623	-0.320	0.036
-206.421	-56.605	0.138	0.061
-205.406	138.983	0.110	0.143
-204.392	107.811	-0.137	-0.161
-203.377	-200.000	-0.036	-0.182
-202.363	426.262	0.113	-0.241
-201.348	85.146	0.284	-0.308
-200.333	-200.000	0.013	0.126
-199.319	-46.110	-0.235	0.114
-198.304	12.012	0.476	0.362
-197.290	724.412	0.018	0.047
-196.275	-42.948	0.258	-0.129
-195.260	-61.874	0.206	0.085
-194.246	-69.271	-0.344	0.131
-193.231	164.148	0.239	-0.332
-192.217	-51.690	-0.263	-0.121
-191.202	-78.521	-0.238	-0.081
-190.187	-50.188	-0.210	0.098
-189.173	800.000	-0.114	0.381
-188.158	-101.641	-0.250	-0.060
-187.144	173.680	-0.119	0.170
-186.129	-62.024	-0.274	-0.113
-185.114	132.241	0.243	-0.309
-184.100	800.000	-0.141	0.553
-183.085	800.000	0.083	0.237
-182.071	-86.647	-0.100	-0.030
-181.056	26.705	0.258	0.213
-180.042	470.587	0.018	-0.041
-179.027	-61.059	-0.088	-0.037
-178.012	-129.534	-0.295	0.040
-176.998	-48.588	0.088	-0.042
-175.983	23.993	-0.337	0.275
-174.969	39.045	-0.102	0.090
-173.954	-115.650	0.344	0.064
-172.939	144.163	0.076	-0.100
-171.925	-84.209	0.241	0.076
-170.910	800.000	0.090	-0.289
-169.896	432.135	-0.076	0.162
-168.881	-136.197	0.269	0.031
-167.866	84.500	0.140	-0.152
-166.852	-200.000	-0.013	0.098
-165.837	-33.556	0.407	-0.222
-164.823	786.753	-0.020	-0.054
-163.808	-33.143	0.262	0.143
-162.793	-70.048	-0.216	0.081
-161.779	586.696	-0.028	0.067
-160.764	-200.000	0.005	0.233
-159.750	-200.000	-0.007	-0.065
-158.735	415.008	0.091	0.192
-157.720	349.504	-0.097	0.189
-156.706	-200.000	-0.001	0.227
-155.691	-200.000	-0.000	0.198
-154.677	-7.472	0.039	0.026
-153.662	-4.170	-0.204	0.140
-152.647	-22.945	-0.216	0.129
-151.633	87.926	-0.163	0.178
-150.618	800.000	0.083	-0.301
-149.604	-56.136	0.289	0.127
-148.589	111.457	0.151	0.180
-147.574	174.588	-0.094	-0.134
-146.560	-57.374	0.126	0.055
-145.545	253.872	-0.161	0.271
-144.531	118.308	0.290	0.353
-143.516	800.000	-0.059	0.200
-142.502	-200.000	-0.029	-0.202
-141.487	-93.069	-0.170	0.047
-140.472	-81.923	0.280	-0.090
-139.458	94.650	0.114	0.128
-138.443	-200.000	0.070	-0.000
-137.429	-108.448	-0.392	0.083
-136.414	-200.000	-0.034	-0.294
-135.399	-200.000	0.012	-0.251
-134.385	10.640	-0.161	0.121
-133.370	181.625	0.085	-0.123
-132.356	-27.483	-0.229	-0.131
-131.341	394.907	0.120	-0.246
-130.326	800.000	0.026	-0.082
-129.312	93.067	0.181	0.201
-128.297	53.507	0.162	0.154
-127.283	-35.655	0.247	-0.132
-126.268	-81.745	-0.251	0.081
-125.253	-200.000	0.007	-0.055
-124.239	380.414	-0.080	-0.162
-123.224	520.382	-0.030	0.069
-122.210	800.000	0.157	0.477
-121.195	124.041	-0.181	0.225
