DTS Sentinel unit serial number:	SN413079Multiplexer serial number:	ORYXHardware model number:	OX4-SRSoftware version number:	ORYX F/W v4.00 Oryx Data Collector v3.7.2.0data status	okinstallation	princeton_trtdifferential loss correction	single-endedforward channel	channel 1reverse channel	N/Adate	2019/09/12time	04:04:11forward acquisition time	60.00reverse acquisition time	0.00gamma	496.2192k internal	0.2322k external	0.2322temperature offset calibration	1.0081default loss term (dB/km)	0.3790temperature slope calibration	1.0000multiplexer offset coefficient	1.0000multiplexer slope coefficient	1.0000fibre end	0.00T internal ref (°C)	32.05T ext. ref 1 (°C)	2.17T ext. ref 2 (°C)	25.84length (m)	temperature (°C)	Stokes	anti-Stokes-747.200	-105.061	0.242	-0.056
-746.185	-200.000	0.016	0.236
-745.171	-200.000	0.009	0.346
-744.156	-200.000	0.014	0.224
-743.142	-168.259	0.110	-0.004
-742.127	-20.899	0.203	0.126
-741.112	13.152	-0.157	-0.123
-740.098	-52.949	-0.053	-0.025
-739.083	-120.009	0.285	0.049
-738.069	-200.000	0.009	0.057
-737.054	-1.430	0.351	0.250
-736.039	-86.860	-0.201	0.062
-735.025	800.000	-0.035	0.135
-734.010	-58.212	-0.470	0.207
-732.996	57.085	0.209	-0.205
-731.981	-55.464	-0.167	0.076
-730.966	218.787	0.123	-0.199
-729.952	-114.252	0.181	0.035
-728.937	-98.700	-0.133	0.034
-727.923	63.418	0.059	-0.060
-726.908	18.122	-0.045	-0.036
-725.894	-200.000	-0.047	0.320
-724.879	-56.126	-0.220	-0.099
-723.864	280.764	0.038	0.069
-722.850	8.767	-0.386	0.294
-721.835	-136.887	0.260	-0.030
-720.821	-56.402	0.022	0.010
-719.806	-119.085	-0.290	0.051
-718.791	264.124	-0.127	0.222
-717.777	-81.246	-0.075	-0.025
-716.762	219.169	-0.110	-0.177
-715.748	-200.000	0.066	-0.310
-714.733	-149.130	0.163	-0.013
-713.718	-13.940	0.106	-0.069
-712.704	97.403	0.134	-0.155
-711.689	-87.997	0.175	0.053
-710.675	113.355	0.072	0.088
-709.660	511.862	0.071	0.166
-708.645	800.000	-0.015	-0.063
-707.631	-82.891	0.213	-0.069
-706.616	-45.203	0.270	0.135
-705.602	236.224	-0.152	-0.254
-704.587	26.559	-0.240	-0.203
-703.572	-51.277	0.250	0.118
-702.558	153.022	0.045	0.062
-701.543	46.979	0.131	0.123
-700.529	-105.143	0.402	-0.093
-699.514	-200.000	0.007	-0.178
-698.499	306.561	-0.118	-0.221
-697.485	118.973	0.069	-0.086
-696.470	-159.156	-0.303	-0.017
-695.456	80.717	-0.185	-0.201
-694.441	-53.396	-0.122	0.056
-693.426	-200.000	-0.003	-0.263
-692.412	112.879	-0.305	-0.372
-691.397	-118.620	-0.130	0.023
-690.383	250.308	0.050	0.085
-689.368	-200.000	0.011	-0.196
-688.354	-200.000	-0.068	-0.428
-687.339	800.000	0.020	-0.083
-686.324	182.062	-0.170	-0.253
-685.310	-140.149	-0.130	-0.014
-684.295	192.923	-0.159	0.242
-683.281	-87.497	0.138	-0.042
-682.266	321.669	-0.168	0.321
-681.251	-114.879	-0.310	0.059
-680.237	475.553	0.046	-0.104
-679.222	800.000	-0.123	-0.432
-678.208	170.349	-0.240	-0.346
-677.193	-123.692	-0.428	-0.068
-676.178	-45.463	-0.199	0.099
-675.164	230.500	0.089	0.147
-674.149	-146.664	0.240	0.021
-673.135	-178.136	-0.362	0.009
-672.120	-200.000	0.040	0.179
-671.105	158.632	-0.122	0.171
-670.091	-69.014	-0.277	0.107
-669.076	43.686	-0.093	-0.086
-668.062	-19.068	-0.103	0.064
-667.047	800.000	-0.040	-0.152
-666.032	-78.313	-0.266	-0.092
-665.018	9.178	-0.236	0.180
-664.003	-55.910	-0.447	-0.201
-662.989	-109.366	0.387	0.083
-661.974	-158.373	0.208	0.012
-660.959	793.821	-0.080	0.222
-659.945	-200.000	-0.018	0.171
-658.930	-119.097	0.163	-0.029
-657.916	800.000	0.099	0.332
-656.901	203.836	-0.045	0.070
-655.886	-151.271	-0.276	0.021
-654.872	800.000	0.105	-0.331
-653.857	-133.749	0.103	-0.013
-652.843	-120.143	-0.199	-0.034
-651.828	-80.096	-0.255	0.086
-650.814	186.132	-0.257	-0.384
-649.799	22.958	0.136	-0.112
-648.784	22.879	0.213	0.176
-647.770	-200.000	0.037	0.376
-646.755	800.000	-0.085	-0.333
-645.741	-200.000	-0.007	-0.174
-644.726	154.902	0.226	-0.312
-643.711	800.000	0.122	0.365
-642.697	800.000	0.014	0.056
-641.682	-35.447	0.077	0.042
-640.668	-34.644	0.172	-0.095
-639.653	-55.067	-0.266	-0.121
-638.638	-47.085	-0.296	-0.145
-637.624	-122.366	-0.262	-0.043
-636.609	-112.632	0.122	0.024
-635.595	-150.576	-0.228	0.018
-634.580	381.052	0.072	-0.149
-633.565	800.000	-0.030	-0.113
-632.551	82.527	-0.161	0.176
-631.536	130.418	0.063	-0.081
-630.522	268.454	0.259	0.457
-629.507	592.799	-0.028	0.071
-628.492	-200.000	0.023	0.246
-627.478	264.758	-0.062	0.109
-626.463	-200.000	0.006	-0.050
-625.449	-200.000	-0.032	0.437
-624.434	-63.138	0.334	-0.138
-623.419	-182.853	0.295	-0.005
-622.405	195.714	0.165	-0.252
-621.390	-94.329	-0.140	-0.039
-620.376	-97.430	0.116	0.030
-619.361	177.083	0.287	-0.421
-618.346	-200.000	-0.015	-0.223
-617.332	-41.534	-0.172	-0.089
-616.317	-200.000	-0.040	-0.209
-615.303	800.000	0.079	-0.258
-614.288	-28.371	-0.370	-0.215
-613.273	-15.659	0.211	-0.135
-612.259	-104.463	0.094	0.022
-611.244	-200.000	0.013	-0.170
-610.230	-57.980	-0.188	0.082
-609.215	-138.734	-0.345	0.038
-608.201	-113.616	0.064	-0.013
-607.186	-200.000	-0.010	-0.189
-606.171	94.728	0.180	-0.206
-605.157	164.502	0.049	-0.070
-604.142	-20.518	-0.227	-0.140
-603.128	-137.929	-0.140	0.016
-602.113	452.773	-0.064	-0.142
-601.098	-20.421	0.112	0.069
-600.084	-200.000	0.024	-0.133
-599.069	398.390	-0.082	-0.173
-598.055	800.000	0.054	-0.223
-597.040	268.158	0.191	0.336
-596.025	215.873	0.085	-0.136
-595.011	-33.314	0.135	-0.075
-593.996	-49.560	-0.350	-0.167
-592.982	-134.615	-0.230	0.028
-591.967	35.455	0.145	0.128
-590.952	773.732	-0.046	0.126
-589.938	-2.847	-0.093	0.065
-588.923	-47.956	0.369	-0.179
-587.909	91.216	-0.156	-0.176
-586.894	-114.817	-0.143	0.027
-585.879	68.832	0.245	0.253
-584.865	-53.709	0.180	0.082
-583.850	800.000	-0.068	-0.213
-582.836	-111.757	-0.239	0.049
-581.821	205.047	-0.255	0.397
-580.806	-200.000	-0.047	-0.395
-579.792	197.294	0.052	-0.080
-578.777	265.164	0.113	-0.198
-577.763	-41.751	-0.062	-0.032
-576.748	800.000	-0.123	0.397
-575.733	-73.067	0.116	0.043
-574.719	-90.117	-0.464	-0.136
-573.704	-75.909	-0.249	-0.089
-572.690	434.658	-0.110	-0.239
-571.675	-22.623	0.081	-0.049
-570.661	-101.956	0.299	-0.073
-569.646	-47.222	0.422	-0.207
-568.631	35.132	0.150	0.132
-567.617	-7.964	0.154	0.104
-566.602	-200.000	-0.001	0.096
-565.588	103.310	-0.034	-0.040
-564.573	308.196	0.223	0.417
-563.558	-189.924	0.250	0.003
-562.544	-82.535	-0.708	-0.231
-561.529	-36.733	-0.070	0.038
-560.515	32.777	-0.046	0.040
-559.500	-131.218	-0.161	-0.022
-558.485	-200.000	0.018	-0.081
-557.471	-97.396	0.249	0.065
-556.456	9.300	-0.046	-0.035
-555.442	142.987	0.105	-0.141
-554.427	-48.175	0.395	-0.191
-553.412	18.227	-0.152	0.122
-552.398	-161.434	-0.166	-0.009
-551.383	-200.000	0.113	0.525
-550.369	-200.000	-0.008	-0.464
-549.354	555.923	-0.024	-0.058
-548.339	-48.595	-0.415	-0.200
-547.325	-200.000	0.007	-0.290
-546.310	708.003	0.064	0.168
-545.296	-200.000	0.019	0.404
-544.281	-9.725	0.093	0.062
-543.266	800.000	0.134	-0.377
-542.252	710.772	-0.116	0.309
-541.237	577.719	0.134	0.328
-540.223	-200.000	-0.040	-0.188
-539.208	-200.000	0.025	-0.362
-538.193	257.148	-0.102	-0.175
-537.179	-200.000	-0.093	0.449
-536.164	259.974	-0.140	0.242
-535.150	581.375	-0.006	0.016
-534.135	-107.846	0.236	-0.051
-533.121	-200.000	-0.062	-0.549
-532.106	10.389	-0.079	0.060
-531.091	-200.000	0.012	-0.118
-530.077	253.069	-0.212	-0.362
-529.062	-78.342	0.177	0.061
-528.048	-10.199	0.307	0.204
-527.033	-143.990	0.172	0.016
-526.018	-9.974	-0.186	0.124
-525.004	38.071	-0.339	-0.302
-523.989	-149.862	0.286	0.022
-522.975	-141.655	0.313	-0.032
-521.960	-102.999	0.180	-0.043
-520.945	157.985	-0.053	-0.074
-519.931	800.000	-0.012	0.048
-518.916	0.407	-0.282	0.202
-517.902	-152.282	-0.416	0.030
-516.887	34.489	-0.369	-0.323
-515.872	-50.725	0.138	-0.065
-514.858	-71.550	-0.046	-0.017
-513.843	109.245	0.106	-0.127
-512.829	-89.832	0.058	0.017
-511.814	-200.000	0.013	-0.143
-510.799	38.398	-0.054	-0.048
-509.785	38.758	0.196	0.175
-508.770	86.185	-0.198	-0.218
-507.756	27.460	0.264	-0.222
-506.741	16.225	-0.264	-0.209
-505.726	-162.926	-0.287	-0.014
-504.712	-153.094	0.325	0.023
-503.697	-200.000	0.028	-0.140
-502.683	-51.183	-0.246	0.115
-501.668	-171.714	-0.266	0.009
-500.653	-200.000	-0.040	0.297
-499.639	122.681	-0.046	0.057
-498.624	-83.009	-0.202	-0.065
-497.610	243.214	-0.086	0.144
-496.595	-91.510	0.100	0.028
-495.581	54.471	-0.188	-0.181
-494.566	-31.303	0.175	-0.098
-493.551	659.624	-0.084	0.216
-492.537	800.000	0.041	0.138
-491.522	125.968	-0.089	-0.112
-490.508	800.000	-0.042	0.141
-489.493	235.891	-0.025	-0.042
-488.478	-200.000	-0.020	-0.357
-487.464	-200.000	0.010	-0.089
-486.449	-178.577	-0.264	-0.006
-485.435	-200.000	-0.016	0.179
-484.420	32.820	-0.144	-0.124
-483.405	-139.499	-0.241	0.026
-482.391	-82.783	0.226	-0.073
-481.376	800.000	0.028	-0.116
-480.362	800.000	-0.067	0.206
-479.347	-74.441	-0.227	0.082
-478.332	91.510	-0.074	-0.083
-477.318	-59.874	0.059	0.025
-476.303	-200.000	0.052	0.279
-475.289	-200.000	0.013	0.180
-474.274	36.582	-0.195	0.172
-473.259	-150.687	-0.094	-0.007
-472.245	-9.527	-0.261	0.174
-471.230	800.000	-0.039	-0.137
-470.216	-93.858	-0.316	-0.087
-469.201	-130.228	0.169	0.023
-468.186	-40.490	-0.164	0.085
-467.172	188.580	-0.206	0.308
-466.157	215.955	-0.092	0.146
-465.143	-77.264	-0.198	-0.069
-464.128	525.751	-0.060	-0.142
-463.113	-123.385	0.391	0.062
-462.099	44.820	-0.100	-0.092
-461.084	33.577	-0.077	-0.067
-460.070	367.707	0.019	0.038
-459.055	-63.690	0.281	-0.115
-458.040	477.085	-0.077	-0.174
-457.026	142.650	-0.154	-0.204
-456.011	588.111	-0.067	-0.165
-454.997	-77.317	0.065	0.023
-453.982	-138.614	-0.135	-0.015
-452.968	-73.827	-0.275	-0.100
-451.953	800.000	0.049	-0.137
-450.938	112.823	-0.228	0.276
-449.924	-36.302	-0.204	0.110
-448.909	599.498	-0.074	0.184
-447.895	-200.000	0.004	-0.211
-446.880	-200.000	-0.021	-0.269
-445.865	-174.471	-0.259	0.007
-444.851	120.720	-0.016	-0.019
-443.836	12.298	0.009	0.007
-442.822	141.462	0.233	-0.307
-441.807	365.030	-0.067	-0.134
-440.792	800.000	0.031	-0.134
-439.778	394.851	0.037	-0.077
-438.763	142.153	0.059	-0.078
-437.749	800.000	0.101	0.421
-436.734	-95.838	0.337	-0.090
-435.719	629.098	0.047	0.118
-434.705	-15.683	-0.030	-0.019
-433.690	800.000	0.109	-0.363
-432.676	-116.053	0.297	-0.055
-431.661	-139.009	0.239	-0.026
-430.646	-169.189	0.329	0.012
-429.632	33.670	-0.137	0.119
-428.617	223.339	-0.118	-0.190
-427.603	61.448	0.190	-0.189
-426.588	63.863	-0.127	-0.128
-425.573	265.181	0.083	-0.144
-424.559	-135.628	0.111	-0.013
-423.544	-47.992	0.101	-0.049
-422.530	800.000	-0.047	0.188
-421.515	-139.896	0.025	0.003
-420.500	-9.811	0.096	0.064
-419.486	-160.230	-0.060	-0.003
-418.471	58.183	0.056	0.055
-417.457	52.143	-0.118	-0.112
-416.442	800.000	0.098	0.317
-415.428	800.000	0.079	0.238
-414.413	800.000	-0.045	0.178
-413.398	27.607	0.209	-0.175
-412.384	0.999	-0.061	-0.044
-411.369	242.725	-0.171	0.286
-410.355	35.460	-0.077	0.067
-409.340	-113.212	0.094	0.019
-408.325	800.000	0.089	-0.280
-407.311	439.739	0.179	-0.391
-406.296	-72.890	0.173	-0.064
-405.282	800.000	-0.160	0.577
-404.267	-200.000	-0.019	-0.105
-403.252	429.723	0.024	-0.052
-402.238	-88.117	0.143	-0.043
-401.223	-52.926	-0.255	-0.117
-400.209	-9.758	0.244	0.162
-399.194	-113.965	0.328	-0.063
-398.179	-118.948	-0.221	0.039
-397.165	31.204	0.328	-0.281
-396.150	-84.337	-0.202	-0.064
-395.136	-114.539	-0.146	-0.028
-394.121	692.223	0.087	0.227
-393.106	4.414	-0.123	0.090
-392.092	800.000	-0.091	0.275
-391.077	68.458	0.119	0.121
-390.063	4.600	-0.319	-0.233
-389.048	800.000	0.112	0.329
-388.033	-22.129	-0.229	0.139
-387.019	266.405	0.056	0.098
-386.004	22.591	0.261	-0.212
-384.990	519.296	-0.129	0.301
-383.975	800.000	-0.043	-0.182
-382.960	-128.044	-0.228	-0.033
-381.946	-4.648	0.196	0.135
-380.931	800.000	0.066	0.257
-379.917	-200.000	-0.042	0.216
-378.902	-200.000	-0.012	0.337
-377.888	-124.056	0.246	0.039
-376.873	-91.933	-0.058	-0.016
-375.858	-37.503	0.293	-0.156
-374.844	-123.782	-0.096	0.015
-373.829	800.000	0.024	-0.077
-372.815	-200.000	-0.062	0.423
-371.800	-90.075	-0.291	-0.085
-370.785	130.292	0.242	-0.309
-369.771	126.909	-0.245	0.309
-368.756	-90.186	0.181	0.052
-367.742	387.744	0.073	0.151
-366.727	-200.000	0.049	0.292
-365.712	-200.000	-0.010	-0.067
-364.698	213.614	-0.210	0.330
-363.683	-66.646	-0.265	0.105
-362.669	20.671	0.333	0.269
-361.654	-49.583	-0.311	-0.147
-360.639	-200.000	-0.012	-0.215
-359.625	475.634	-0.086	0.194
-358.610	-40.654	-0.199	-0.103
-357.596	-26.558	-0.218	-0.127
-356.581	29.776	-0.095	0.081
-355.566	375.667	-0.096	-0.194
-354.552	-200.000	-0.006	0.178
-353.537	800.000	0.027	-0.083
-352.523	-200.000	0.007	0.156
-351.508	251.065	0.085	-0.143
-350.493	141.451	-0.145	-0.192
-349.479	75.135	0.169	-0.178
-348.464	518.840	-0.143	0.334
-347.450	218.412	0.103	-0.164
-346.435	125.501	0.151	-0.190
-345.420	-1.648	0.265	0.186
-344.406	800.000	0.065	0.227
-343.391	137.066	0.052	0.067
-342.377	800.000	0.158	-0.441
-341.362	-138.069	-0.095	0.011
-340.348	-44.571	-0.133	-0.066
-339.333	-42.746	-0.136	0.069
-338.318	11.055	-0.212	-0.161
-337.304	-55.158	0.382	0.171
-336.289	77.706	0.226	-0.240
-335.275	466.927	0.041	0.091
-334.260	-200.000	-0.029	-0.132
-333.245	748.737	0.041	-0.110
-332.231	96.639	-0.063	0.072
-331.216	-82.700	0.510	0.164
-330.202	-200.000	-0.041	0.570
-329.187	125.555	0.140	0.176
-328.172	-60.900	-0.361	-0.152
-327.158	43.354	0.254	-0.231
-326.143	209.918	0.097	-0.151
-325.129	800.000	0.114	0.335
-324.114	800.000	0.137	-0.414
-323.099	-12.849	-0.219	0.142
-322.085	605.991	-0.040	0.099
-321.070	-28.005	-0.155	0.089
-320.056	-95.685	0.054	-0.014
-319.041	-86.882	-0.085	0.026
-318.026	-53.963	0.266	-0.120
-317.012	164.706	0.222	0.311
-315.997	-200.000	-0.035	0.252
-314.983	79.152	-0.153	0.163
-313.968	152.154	0.102	-0.138
-312.953	133.798	-0.133	-0.170
-311.939	-50.781	0.070	-0.033
-310.924	5.069	-0.065	-0.047
-309.910	800.000	0.048	0.137
-308.895	-200.000	0.064	0.412
-307.880	-200.000	0.006	0.036
-306.866	-95.028	-0.154	-0.041
-305.851	237.450	0.153	0.252
-304.837	101.782	0.111	0.129
-303.822	-47.343	0.031	-0.015
-302.807	444.691	-0.087	-0.191
-301.793	-200.000	0.026	-0.178
-300.778	-57.903	0.219	-0.095
-299.764	197.640	-0.016	-0.024
-298.749	-200.000	0.020	0.292
-297.735	800.000	0.121	-0.373
-296.720	799.092	-0.055	-0.150
-295.705	-63.761	0.200	-0.081
-294.691	-200.000	0.012	0.100
-293.676	-56.688	0.115	0.050
-292.662	800.000	0.086	0.235
-291.647	88.217	0.295	0.325
-290.632	184.636	-0.222	-0.327
-289.618	587.106	0.071	-0.175
-288.603	-164.172	-0.175	0.008
-287.589	-103.810	0.203	-0.047
-286.574	-69.513	-0.194	-0.074
-285.559	-43.651	-0.187	0.094
-284.545	-96.811	0.092	-0.024
-283.530	202.841	0.091	-0.140
-282.516	-59.276	0.224	0.096
-281.501	-62.294	-0.199	0.082
-280.486	-200.000	-0.033	0.161
-279.472	800.000	-0.062	0.220
-278.457	-138.695	-0.568	-0.062
-277.443	-200.000	0.011	0.110
-276.428	319.918	0.086	-0.162
-275.413	-109.186	-0.096	0.020
-274.399	-200.000	0.015	0.143
-273.384	309.039	0.097	0.179
-272.370	405.201	0.077	0.160
-271.355	57.448	0.161	-0.156
-270.340	-200.000	-0.047	-0.215
-269.326	-200.000	-0.084	-0.402
-268.311	800.000	0.026	-0.081
-267.297	800.000	-0.076	-0.235
-266.282	800.000	-0.116	0.342
-265.267	90.077	-0.122	-0.135
-264.253	800.000	0.060	0.191
-263.238	800.000	0.035	0.143
-262.224	-74.262	0.289	-0.104
-261.209	509.841	-0.146	0.337
-260.195	-200.000	0.008	0.125
-259.180	81.525	0.046	-0.049
-258.165	244.230	0.170	-0.283
-257.151	-60.676	-0.340	-0.143
-256.136	104.214	0.247	-0.288
-255.122	403.650	-0.134	-0.279
-254.107	-30.005	0.105	-0.059
-253.092	433.540	0.141	0.304
-252.078	188.890	-0.084	-0.125
-251.063	-75.494	0.358	-0.126
-250.049	464.573	-0.018	-0.041
-249.034	-200.000	-0.033	0.156
-248.019	79.378	-0.146	-0.155
-247.005	206.479	-0.068	-0.105
-245.990	312.609	0.113	0.210
-244.976	441.863	0.085	0.184
-243.961	165.166	-0.188	0.264
-242.946	-91.747	0.051	-0.014
-241.932	141.039	0.160	-0.210
-240.917	-155.903	0.188	0.012
-239.903	-34.276	0.218	-0.119
-238.888	-79.358	-0.073	0.024
-237.873	-199.779	-0.413	0.002
-236.859	-200.000	-0.075	0.338
-235.844	-173.938	-0.208	0.006
-234.830	21.973	0.177	-0.143
-233.815	-98.027	-0.334	-0.085
-232.800	-200.000	-0.009	0.194
-231.786	-63.693	0.490	0.199
-230.771	-200.000	0.001	-0.041
-229.757	108.529	-0.150	0.177
-228.742	-123.315	0.186	-0.029
-227.727	-165.444	-0.075	0.003
-226.713	-30.392	0.065	-0.036
-225.698	-124.626	0.256	0.039
-224.684	-200.000	0.035	0.209
-223.669	208.762	-0.209	-0.324
-222.655	-128.396	0.057	0.008
-221.640	758.943	-0.101	-0.270
-220.625	-200.000	0.005	-0.290
-219.611	130.099	0.100	-0.127
-218.596	-170.651	-0.022	-0.001
-217.582	7.890	-0.154	0.115
-216.567	-102.045	0.165	0.039
-215.552	-200.000	0.008	-0.085
-214.538	209.142	-0.131	0.202
-213.523	-200.000	-0.046	0.209
-212.509	800.000	-0.072	-0.219
-211.494	412.878	-0.036	0.075
-210.479	-200.000	-0.230	0.001
-209.465	440.767	0.113	-0.244
-208.450	142.071	-0.258	0.339
-207.436	78.671	0.068	0.072
-206.421	-24.017	0.194	-0.115
-205.406	6.738	-0.187	0.138
-204.392	-96.240	-0.171	-0.045
-203.377	123.197	0.087	-0.108
-202.363	-143.090	-0.298	0.028
-201.348	223.556	0.206	-0.328
-200.333	800.000	-0.081	-0.273
-199.319	98.291	0.119	0.135
-198.304	-200.000	-0.006	0.025
-197.290	703.735	-0.125	-0.325
-196.275	-2.375	0.166	-0.115
-195.260	-99.142	0.084	0.021
-194.246	739.313	-0.141	0.375
-193.231	-140.807	0.274	-0.028
-192.217	-200.000	0.048	-0.229
-191.202	37.072	-0.204	-0.178
-190.187	800.000	0.085	0.232
-189.173	83.648	-0.157	-0.169
-188.158	74.837	-0.116	-0.120
-187.144	800.000	-0.075	0.317
-186.129	-22.925	-0.103	0.062
-185.114	-41.835	-0.059	-0.030
-184.100	-200.000	0.048	0.263
-183.085	800.000	-0.055	-0.206
-182.071	-156.282	-0.285	0.018
-181.056	108.183	0.146	0.172
-180.042	-129.950	0.153	-0.021
-179.027	94.133	0.295	0.331
-178.012	-200.000	0.012	-0.173
-176.998	214.699	-0.198	0.310
-175.983	11.499	0.247	0.187
-174.969	147.681	0.208	0.277
-173.954	-21.104	-0.254	-0.154
-172.939	-53.068	0.460	-0.209
-171.925	466.886	-0.046	0.101
-170.910	300.501	0.094	-0.170
-169.896	22.799	-0.106	0.086
-168.881	-85.526	-0.119	-0.037
-167.866	-49.573	0.145	-0.068
-166.852	-128.321	-0.263	0.037
-165.837	800.000	-0.062	0.178
-164.823	695.076	0.026	0.068
-163.808	82.531	-0.057	0.061
-162.793	59.840	0.092	0.090
-161.779	-66.601	0.401	0.157
-160.764	311.144	0.106	0.197
-159.750	-64.841	0.061	-0.024
-158.735	157.690	0.185	0.253
-157.720	800.000	-0.034	0.116
-156.706	-112.810	0.295	0.058
-155.691	337.018	-0.124	-0.238
-154.677	490.974	-0.042	0.094
-153.662	-200.000	-0.010	0.323
-152.647	-40.385	-0.110	0.056
-151.633	45.532	0.136	0.124
-150.618	800.000	0.034	0.136
-149.604	161.638	-0.208	0.287
-148.589	-99.099	0.167	-0.042
-147.574	411.203	0.136	0.284
-146.560	318.231	-0.132	-0.247
-145.545	-40.464	0.267	0.137
-144.531	65.238	-0.104	-0.104
-143.516	52.405	0.313	-0.295
-142.502	-200.000	-0.035	-0.383
-141.487	-200.000	0.008	0.092
-140.472	34.243	-0.080	-0.069
-139.458	-49.088	-0.272	-0.128
-138.443	145.812	0.036	0.048
-137.429	28.602	0.212	0.177
-136.414	-100.801	-0.460	-0.112
-135.399	89.690	0.201	-0.222
-134.385	-113.827	0.210	-0.040
-133.370	-72.600	-0.224	0.081
-132.356	90.484	0.089	-0.098
-131.341	-70.325	0.293	-0.109
-130.326	-117.661	-0.304	-0.054
-129.312	800.000	0.060	-0.209
-128.297	42.852	0.125	0.113
-127.283	78.165	0.199	0.209
-126.268	-200.000	0.001	-0.090
-125.253	-200.000	0.027	0.456
-124.239	540.070	-0.121	0.284
-123.224	115.945	-0.235	-0.284
-122.210	-87.355	0.231	-0.069
-121.195	-200.000	0.001	-0.149
