DTS Sentinel unit serial number:	SN413079Multiplexer serial number:	ORYXHardware model number:	OX4-SRSoftware version number:	ORYX F/W v4.00 Oryx Data Collector v3.7.2.0data status	okinstallation	princeton_trtdifferential loss correction	single-endedforward channel	channel 1reverse channel	N/Adate	2019/09/11time	01:04:11forward acquisition time	60.00reverse acquisition time	0.00gamma	496.2192k internal	0.2332k external	0.2332temperature offset calibration	0.9930default loss term (dB/km)	0.3790temperature slope calibration	1.0000multiplexer offset coefficient	1.0000multiplexer slope coefficient	1.0000fibre end	0.00T internal ref (°C)	29.16T ext. ref 1 (°C)	-0.30T ext. ref 2 (°C)	22.95length (m)	temperature (°C)	Stokes	anti-Stokes-747.200	-200.000	-0.062	0.510
-746.185	227.738	0.162	0.266
-745.171	229.720	0.148	-0.243
-744.156	567.590	-0.065	0.158
-743.142	507.014	0.106	-0.248
-742.127	-82.411	-0.406	0.133
-741.112	10.721	0.116	0.089
-740.098	8.968	-0.174	-0.132
-739.083	-200.000	-0.005	-0.073
-738.069	-61.502	-0.342	0.144
-737.054	-200.000	-0.009	-0.204
-736.039	30.267	-0.345	0.296
-735.025	-31.358	0.245	-0.138
-734.010	345.405	0.072	-0.143
-732.996	83.523	-0.282	-0.309
-731.981	-12.012	-0.130	-0.085
-730.966	337.876	-0.035	-0.068
-729.952	45.488	-0.258	-0.240
-728.937	-200.000	-0.022	-0.330
-727.923	-70.662	-0.442	0.168
-726.908	800.000	0.039	-0.128
-725.894	-157.568	-0.161	-0.010
-724.879	-200.000	0.005	0.190
-723.864	-182.253	0.382	-0.007
-722.850	-6.314	-0.142	0.097
-721.835	739.687	0.109	-0.294
-720.821	343.620	-0.096	-0.189
-719.806	10.473	-0.265	-0.203
-718.791	-200.000	0.015	-0.154
-717.777	-97.672	-0.103	-0.027
-716.762	-124.613	-0.130	0.020
-715.748	-148.191	-0.153	0.013
-714.733	50.435	-0.102	-0.097
-713.718	138.183	-0.189	-0.249
-712.704	-174.742	0.392	0.011
-711.689	51.337	0.234	0.223
-710.675	522.197	-0.113	-0.266
-709.660	-66.974	-0.227	0.090
-708.645	22.413	-0.233	0.192
-707.631	-157.649	0.246	-0.015
-706.616	-89.410	-0.132	0.039
-705.602	-58.692	0.326	0.142
-704.587	-134.976	-0.214	-0.026
-703.572	800.000	0.106	-0.317
-702.558	-200.000	-0.063	0.295
-701.543	409.940	0.028	0.061
-700.529	-97.176	-0.502	-0.132
-699.514	630.759	0.024	0.060
-698.499	800.000	0.035	0.119
-697.485	-200.000	0.005	-0.028
-696.470	-85.820	-0.131	0.041
-695.456	800.000	0.097	0.324
-694.441	258.473	0.166	0.288
-693.426	640.632	-0.043	-0.110
-692.412	-122.786	-0.478	0.077
-691.397	374.114	-0.148	0.303
-690.383	-88.592	-0.162	0.049
-689.368	-111.844	-0.224	-0.045
-688.354	30.610	0.257	-0.220
-687.339	144.559	-0.122	-0.164
-686.324	103.787	0.253	0.298
-685.310	30.180	0.028	-0.024
-684.295	446.861	-0.043	-0.096
-683.281	-139.643	-0.401	-0.043
-682.266	7.305	-0.178	-0.133
-681.251	-49.250	-0.218	-0.105
-680.237	-200.000	-0.026	0.122
-679.222	105.957	0.106	0.125
-678.208	-2.103	-0.165	-0.116
-677.193	125.934	0.253	-0.321
-676.178	60.204	0.080	-0.079
-675.164	-159.271	-0.227	-0.013
-674.149	120.991	0.093	0.117
-673.135	-46.915	-0.111	0.055
-672.120	800.000	-0.058	-0.201
-671.105	-200.000	0.019	-0.192
-670.091	-178.881	0.275	0.006
-669.076	257.766	-0.070	0.121
-668.062	243.634	0.036	0.061
-667.047	-38.882	0.196	-0.104
-666.032	-116.857	-0.080	-0.015
-665.018	-94.455	-0.219	-0.060
-664.003	-46.126	0.351	0.173
-662.989	147.425	-0.197	-0.267
-661.974	800.000	0.053	0.204
-660.959	47.691	0.102	0.096
-659.945	13.454	-0.293	0.228
-658.930	-1.330	-0.261	-0.184
-657.916	202.082	0.045	0.070
-656.901	-128.029	-0.361	0.052
-655.886	-163.040	-0.392	0.019
-654.872	150.380	0.238	-0.324
-653.857	800.000	0.038	0.137
-652.843	150.725	0.082	-0.112
-651.828	-200.000	0.024	0.196
-650.814	-200.000	0.033	-0.147
-649.799	8.130	-0.223	0.168
-648.784	625.534	0.162	0.409
-647.770	-32.709	0.177	0.099
-646.755	334.443	0.100	-0.194
-645.741	-137.734	0.240	0.027
-644.726	-165.084	-0.079	0.004
-643.711	-109.975	-0.255	0.054
-642.697	247.139	0.083	0.140
-641.682	120.001	-0.092	0.114
-640.668	110.845	0.103	0.124
-639.653	800.000	-0.032	-0.122
-638.638	36.610	0.262	0.231
-637.624	141.724	0.147	-0.195
-636.609	-200.000	-0.025	-0.273
-635.595	60.253	-0.197	0.195
-634.580	-31.529	0.209	0.118
-633.565	15.951	0.165	0.130
-632.551	78.514	-0.177	-0.190
-631.536	-164.794	0.214	-0.010
-630.522	800.000	0.027	-0.114
-629.507	263.157	-0.206	-0.359
-628.492	-34.081	0.251	-0.138
-627.478	-200.000	-0.027	0.146
-626.463	-182.748	-0.272	-0.005
-625.449	-200.000	-0.017	-0.423
-624.434	-200.000	-0.008	-0.322
-623.419	-4.549	-0.323	-0.223
-622.405	256.883	0.058	0.100
-621.390	-200.000	0.035	0.437
-620.376	40.100	-0.120	0.108
-619.361	32.472	-0.213	0.184
-618.346	-23.362	-0.276	-0.166
-617.332	-200.000	-0.071	-0.406
-616.317	-200.000	0.066	0.356
-615.303	778.657	0.049	0.135
-614.288	-75.899	-0.024	0.009
-613.273	153.655	0.134	0.183
-612.259	-200.000	0.008	0.178
-611.244	800.000	0.031	0.088
-610.230	-74.064	0.284	-0.103
-609.215	-200.000	-0.066	0.292
-608.201	-200.000	0.023	-0.445
-607.186	-77.399	0.110	-0.038
-606.171	122.744	-0.114	0.143
-605.157	153.245	-0.185	-0.254
-604.142	-8.865	-0.072	-0.048
-603.128	0.267	-0.116	-0.083
-602.113	-200.000	0.021	-0.223
-601.098	-55.645	-0.045	0.020
-600.084	70.369	0.145	-0.150
-599.069	236.832	0.121	0.201
-598.055	473.072	-0.121	0.273
-597.040	800.000	-0.088	-0.274
-596.025	-197.320	-0.500	-0.003
-595.011	81.035	0.186	-0.201
-593.996	90.893	0.127	-0.143
-592.982	100.212	-0.059	0.069
-591.967	-136.346	0.133	0.016
-590.952	-65.659	-0.084	0.034
-589.938	800.000	-0.080	-0.233
-588.923	169.526	-0.079	-0.113
-587.909	200.863	0.154	-0.237
-586.894	-68.667	-0.151	-0.058
-585.879	-200.000	-0.006	0.259
-584.865	-80.785	-0.107	0.035
-583.850	432.073	-0.096	0.209
-582.836	325.250	0.064	-0.122
-581.821	301.661	-0.167	0.308
-580.806	74.539	0.079	0.083
-579.792	800.000	-0.038	0.119
-578.777	-184.344	0.219	0.004
-577.763	-19.143	0.180	-0.112
-576.748	-112.274	0.436	0.087
-575.733	117.725	0.201	0.247
-574.719	-95.860	-0.275	-0.073
-573.704	-200.000	0.008	0.058
-572.690	-200.000	-0.019	0.136
-571.675	-74.657	-0.247	-0.089
-570.661	-200.000	0.002	-0.189
-569.646	-137.866	0.571	-0.064
-568.631	80.934	-0.271	-0.292
-567.617	585.443	0.139	-0.342
-566.602	-8.029	-0.095	0.064
-565.588	367.920	-0.132	0.267
-564.573	-200.000	-0.006	-0.084
-563.558	-91.344	-0.179	-0.051
-562.544	-171.682	-0.126	-0.004
-561.529	-200.000	0.004	-0.091
-560.515	49.610	0.238	-0.224
-559.500	-30.852	0.244	-0.138
-558.485	17.952	0.194	0.154
-557.471	388.111	0.027	-0.056
-556.456	-93.638	0.103	-0.028
-555.442	38.561	-0.157	-0.140
-554.427	-71.317	-0.356	-0.133
-553.412	-155.456	0.318	-0.021
-552.398	444.301	-0.204	0.447
-551.383	101.528	0.225	0.262
-550.369	208.755	0.043	0.068
-549.354	5.525	0.153	-0.113
-548.339	-200.000	-0.015	0.141
-547.325	-200.000	-0.014	0.283
-546.310	-200.000	0.042	-0.498
-545.296	113.887	-0.221	0.268
-544.281	-19.188	-0.024	-0.015
-543.266	146.988	0.168	-0.226
-542.252	-163.749	0.098	-0.005
-541.237	-15.681	0.146	0.093
-540.223	0.064	0.111	0.079
-539.208	-143.060	-0.130	0.013
-538.193	111.331	-0.277	-0.334
-537.179	800.000	0.093	0.346
-536.164	160.047	-0.181	0.252
-535.150	98.104	-0.183	-0.210
-534.135	326.060	0.152	0.290
-533.121	-30.500	-0.372	0.211
-532.106	141.240	-0.048	0.064
-531.091	-200.000	0.012	0.217
-530.077	-44.456	0.370	0.185
-529.062	17.246	0.167	-0.132
-528.048	800.000	-0.037	0.125
-527.033	491.679	-0.089	-0.203
-526.018	-67.776	0.224	0.087
-525.004	55.460	0.204	0.197
-523.989	409.869	0.036	-0.077
-522.975	-116.409	-0.211	0.039
-521.960	800.000	-0.041	-0.170
-520.945	4.141	0.104	0.076
-519.931	483.998	0.046	-0.105
-518.916	-28.088	0.053	-0.030
-517.902	-200.000	0.004	-0.170
-516.887	423.829	-0.014	0.031
-515.872	-5.849	0.172	0.117
-514.858	-200.000	0.023	-0.108
-513.843	410.010	-0.004	-0.008
-512.829	-200.000	0.015	-0.301
-511.814	45.648	-0.091	-0.084
-510.799	-4.788	0.176	0.121
-509.785	6.349	0.173	0.128
-508.770	-16.317	0.204	0.129
-507.756	800.000	0.048	0.162
-506.741	27.907	-0.179	-0.150
-505.726	-61.107	0.267	0.112
-504.712	-200.000	0.001	-0.015
-503.697	-122.629	-0.211	0.034
-502.683	14.319	0.148	-0.115
-501.668	-136.420	0.296	-0.034
-500.653	-176.195	-0.279	-0.007
-499.639	177.999	0.131	0.190
-498.624	-119.899	0.208	0.036
-497.610	130.723	0.155	-0.198
-496.595	-101.755	-0.090	0.022
-495.581	-7.961	0.351	0.236
-494.566	-80.640	-0.179	-0.059
-493.551	-97.185	0.169	0.044
-492.537	-200.000	-0.002	-0.425
-491.522	-121.697	0.175	-0.029
-490.508	15.753	-0.135	0.106
-489.493	29.535	-0.174	0.147
-488.478	-4.334	0.552	0.380
-487.464	-66.108	-0.198	0.079
-486.449	-13.493	-0.220	0.142
-485.435	-126.470	-0.212	0.031
-484.420	-200.000	-0.003	-0.410
-483.405	-119.610	-0.039	0.007
-482.391	199.845	-0.184	0.282
-481.376	-52.362	-0.058	-0.027
-480.362	74.780	0.249	0.261
-479.347	800.000	0.032	-0.092
-478.332	-37.306	-0.052	0.028
-477.318	-64.174	0.192	0.078
-476.303	189.531	-0.065	0.097
-475.289	44.981	0.180	0.165
-474.274	374.320	-0.125	0.253
-473.259	29.279	0.238	0.201
-472.245	-157.756	-0.251	-0.015
-471.230	-200.000	0.009	-0.047
-470.216	-56.018	-0.143	0.063
-469.201	-70.125	-0.339	-0.128
-468.186	-128.787	0.094	0.013
-467.172	-200.000	0.031	-0.139
-466.157	-200.000	-0.031	0.234
-465.143	37.710	-0.318	-0.281
-464.128	-200.000	0.104	-0.469
-463.113	-170.335	-0.200	0.007
-462.099	649.799	0.069	0.175
-461.084	81.985	0.074	0.080
-460.070	91.315	-0.096	-0.108
-459.055	25.820	0.294	-0.243
-458.040	-80.967	0.105	0.035
-457.026	-200.000	0.019	0.145
-456.011	-200.000	-0.006	0.067
-454.997	-22.040	0.123	-0.074
-453.982	-75.766	0.095	0.033
-452.968	452.279	0.047	-0.103
-451.953	-200.000	0.072	-0.348
-450.938	-90.099	-0.409	0.119
-449.924	-186.251	-0.080	0.001
-448.909	65.958	0.072	0.072
-447.895	-200.000	0.016	0.072
-446.880	164.666	0.068	-0.096
-445.865	800.000	0.041	0.159
-444.851	-92.832	0.185	-0.051
-443.836	323.570	-0.141	-0.267
-442.822	-94.439	-0.487	-0.132
-441.807	800.000	0.099	0.360
-440.792	-200.000	-0.005	0.217
-439.778	4.926	-0.042	0.030
-438.763	-200.000	-0.015	-0.142
-437.749	800.000	0.043	-0.164
-436.734	133.250	0.134	0.172
-435.719	330.513	-0.247	0.473
-434.705	19.772	0.095	-0.076
-433.690	34.569	0.187	0.163
-432.676	-36.472	0.246	-0.132
-431.661	-113.289	-0.272	0.053
-430.646	243.662	0.169	-0.283
-429.632	-195.736	-0.253	-0.002
-428.617	-20.560	-0.171	-0.104
-427.603	800.000	0.103	-0.346
-426.588	-98.831	0.101	-0.026
-425.573	-26.446	0.198	0.115
-424.559	34.638	-0.192	-0.167
-423.544	-66.155	0.217	-0.086
-422.530	800.000	0.055	0.218
-421.515	-200.000	0.009	-0.053
-420.500	174.410	-0.232	-0.333
-419.486	-25.185	-0.198	0.116
-418.471	41.906	0.199	0.179
-417.457	-200.000	0.324	-0.001
-416.442	-200.000	-0.033	0.185
-415.428	105.903	-0.141	-0.165
-414.413	-81.982	0.162	0.053
-413.398	-128.613	-0.273	-0.038
-412.384	800.000	0.065	0.199
-411.369	-200.000	-0.001	-0.048
-410.355	-90.405	-0.177	0.051
-409.340	-95.494	-0.334	-0.089
-408.325	697.779	0.114	0.299
-407.311	-126.323	-0.216	0.032
-406.296	203.864	-0.066	-0.102
-405.282	-37.508	0.229	0.121
-404.267	151.351	0.224	-0.302
-403.252	-82.773	-0.195	0.063
-402.238	-68.151	0.094	-0.036
-401.223	800.000	0.024	-0.081
-400.209	-23.139	0.046	-0.028
-399.194	-155.386	0.074	-0.005
-398.179	74.232	-0.088	0.091
-397.165	-200.000	0.014	-0.356
-396.150	800.000	0.048	-0.157
-395.136	21.135	-0.061	-0.049
-394.121	-0.854	-0.277	-0.195
-393.106	31.639	0.217	0.185
-392.092	-87.619	-0.278	0.083
-391.077	-48.722	-0.052	-0.025
-390.063	-200.000	0.036	-0.281
-389.048	-149.751	0.198	0.015
-388.033	800.000	-0.072	-0.234
-387.019	287.716	0.113	-0.203
-386.004	-186.451	0.304	0.004
-384.990	-57.358	0.242	0.105
-383.975	-96.927	0.151	-0.039
-382.960	-26.860	-0.099	0.058
-381.946	125.897	0.086	0.107
-380.931	800.000	0.054	0.225
-379.917	53.160	0.083	-0.079
-378.902	20.504	-0.184	0.147
-377.888	-68.584	-0.163	0.062
-376.873	6.219	-0.137	0.100
-375.858	616.878	-0.080	-0.200
-374.844	137.757	0.054	-0.070
-373.829	-15.583	0.156	-0.099
-372.815	-34.674	-0.337	0.183
-371.800	-111.446	-0.214	-0.043
-370.785	214.795	-0.007	-0.011
-369.771	5.089	-0.020	0.014
-368.756	-86.989	-0.320	-0.097
-367.742	29.044	0.143	0.121
-366.727	-200.000	-0.010	0.101
-365.712	243.504	-0.199	0.331
-364.698	-87.739	-0.062	-0.019
-363.683	-82.547	-0.120	0.038
-362.669	76.507	-0.184	0.193
-361.654	-42.663	0.213	-0.108
-360.639	-77.966	0.240	-0.082
-359.625	-194.109	-0.161	-0.001
-358.610	-4.248	0.183	-0.126
-357.596	-200.000	-0.015	-0.130
-356.581	437.448	-0.056	-0.121
-355.566	257.574	0.084	0.144
-354.552	-26.958	0.207	-0.120
-353.537	-154.450	0.444	-0.030
-352.523	-42.001	-0.116	0.059
-351.508	-148.500	-0.061	0.005
-350.493	-200.000	-0.015	-0.420
-349.479	67.537	-0.277	-0.280
-348.464	6.666	-0.110	-0.081
-347.450	-200.000	0.002	-0.060
-346.435	23.059	-0.116	-0.095
-345.420	-200.000	0.021	0.324
-344.406	97.326	0.099	-0.112
-343.391	619.970	0.144	0.358
-342.377	-153.358	0.202	0.014
-341.362	-13.413	-0.227	0.146
-340.348	-113.236	0.401	-0.078
-339.333	-136.240	-0.156	-0.018
-338.318	800.000	-0.049	-0.137
-337.304	75.083	0.150	0.157
-336.289	84.851	0.165	-0.179
-335.275	54.023	-0.168	-0.160
-334.260	56.967	0.116	0.112
-333.245	93.502	-0.163	0.183
-332.231	-59.439	0.232	-0.099
-331.216	-102.611	-0.089	-0.021
-330.202	-200.000	-0.006	0.044
-329.187	-84.027	0.318	-0.100
-328.172	65.186	-0.062	-0.062
-327.158	-200.000	-0.005	-0.511
-326.143	-79.616	-0.268	0.090
-325.129	800.000	-0.103	0.320
-324.114	800.000	-0.081	-0.313
-323.099	786.762	0.021	-0.058
-322.085	-29.808	0.330	0.186
-321.070	146.819	-0.195	-0.259
-320.056	-135.251	-0.377	0.045
-319.041	-200.000	-0.007	0.068
-318.026	14.615	0.190	0.147
-317.012	-39.006	0.166	0.086
-315.997	15.945	0.084	0.066
-314.983	800.000	0.087	0.268
-313.968	21.428	0.111	-0.089
-312.953	-80.960	-0.140	-0.046
-311.939	-200.000	-0.011	0.356
-310.924	547.661	-0.121	-0.287
-309.910	48.696	0.224	0.208
-308.895	-75.826	-0.311	0.109
-307.880	269.792	0.115	-0.200
-306.866	-200.000	-0.036	0.244
-305.851	259.117	-0.080	0.136
-304.837	800.000	0.048	-0.194
-303.822	40.012	-0.213	0.189
-302.807	-76.215	0.175	-0.061
-301.793	57.906	-0.207	-0.200
-300.778	800.000	0.037	0.109
-299.764	-164.903	-0.407	-0.018
-298.749	287.728	0.139	0.249
-297.735	303.683	-0.193	0.353
-296.720	-137.949	-0.250	0.028
-295.705	378.321	0.093	-0.189
-294.691	44.457	-0.170	-0.154
-293.676	90.758	-0.212	0.235
-292.662	-97.146	0.279	0.072
-291.647	-200.000	0.013	-0.163
-290.632	278.464	-0.067	-0.118
-289.618	172.100	0.022	0.031
-288.603	-200.000	0.019	0.144
-287.589	61.856	-0.200	-0.197
-286.574	269.747	-0.168	-0.292
-285.559	-193.126	-0.139	-0.001
-284.545	-20.838	0.154	-0.093
-283.530	-41.488	-0.049	-0.025
-282.516	-172.055	-0.180	-0.006
-281.501	-55.936	-0.221	0.098
-280.486	70.891	0.063	-0.064
-279.472	-200.000	-0.089	-0.389
-278.457	191.197	0.080	-0.119
-277.443	71.743	0.078	-0.080
-276.428	159.066	-0.068	0.094
-275.413	-79.048	-0.115	-0.039
-274.399	338.577	-0.249	0.479
-273.384	-83.816	-0.157	0.049
-272.370	-172.341	0.334	-0.011
-271.355	69.219	0.044	0.045
-270.340	780.263	0.108	-0.292
-269.326	800.000	0.106	0.386
-268.311	165.927	-0.238	0.332
-267.297	-129.161	0.257	-0.035
-266.282	11.883	-0.399	0.303
-265.267	-38.032	0.209	-0.110
-264.253	800.000	-0.019	0.077
-263.238	800.000	0.054	0.163
-262.224	116.533	-0.115	-0.139
-261.209	800.000	0.049	-0.145
-260.195	599.172	-0.169	-0.414
-259.180	211.939	0.146	0.226
-258.165	-120.473	0.406	0.068
-257.151	-105.141	0.239	0.054
-256.136	39.873	-0.080	-0.071
-255.122	75.449	-0.143	-0.149
-254.107	800.000	0.058	0.226
-253.092	326.609	-0.074	0.139
-252.078	129.027	-0.090	0.113
-251.063	-94.121	0.210	-0.057
-250.049	304.959	0.121	-0.221
-249.034	67.251	-0.236	-0.237
-248.019	151.535	0.035	0.048
-247.005	789.809	-0.044	0.120
-245.990	-98.143	0.113	-0.029
-244.976	235.875	0.088	-0.144
-243.961	219.030	-0.122	0.192
-242.946	-15.665	0.265	-0.167
-241.932	-86.375	0.247	0.075
-240.917	98.667	-0.169	0.192
-239.903	-112.972	0.354	0.069
-238.888	485.514	-0.106	-0.239
-237.873	800.000	0.080	-0.282
-236.859	55.112	-0.102	0.097
-235.844	-143.671	-0.279	0.026
-234.830	-19.596	0.295	0.180
-233.815	-103.838	0.216	0.050
-232.800	-5.152	-0.153	0.104
-231.786	-50.556	-0.346	-0.161
-230.771	-90.239	0.117	0.034
-229.757	336.310	-0.104	0.198
-228.742	-200.000	-0.006	0.354
-227.727	-200.000	0.019	-0.101
-226.713	290.486	-0.111	-0.198
-225.698	800.000	0.045	-0.154
-224.684	-52.368	0.067	-0.031
-223.669	800.000	-0.140	-0.450
-222.655	-59.608	0.190	0.080
-221.640	102.303	0.164	-0.189
-220.625	-64.886	0.119	0.047
-219.611	596.715	-0.087	0.213
-218.596	800.000	-0.082	-0.308
-217.582	-134.710	-0.100	0.012
-216.567	800.000	0.016	-0.061
-215.552	138.702	-0.067	-0.087
-214.538	-48.485	-0.253	-0.120
-213.523	-200.000	-0.008	0.039
-212.509	-200.000	-0.338	-0.001
-211.494	283.447	-0.124	0.220
-210.479	163.403	0.049	-0.068
-209.465	-124.516	-0.530	0.081
-208.450	-76.456	0.357	0.124
-207.436	800.000	-0.050	0.183
-206.421	300.291	-0.100	-0.182
-205.406	-155.343	0.471	-0.030
-204.392	-200.000	-0.029	-0.297
-203.377	480.280	0.095	0.211
-202.363	-160.504	-0.399	0.021
-201.348	-141.021	-0.148	-0.015
-200.333	-116.844	-0.288	0.052
-199.319	99.413	0.126	-0.143
-198.304	-200.000	-0.032	-0.139
-197.290	-200.000	-0.031	0.162
-196.275	-3.719	0.287	0.196
-195.260	-74.510	-0.290	0.103
-194.246	177.257	-0.243	-0.348
-193.231	-77.752	0.296	0.101
-192.217	9.302	0.090	0.067
-191.202	205.342	0.106	-0.162
-190.187	32.909	0.112	0.096
-189.173	242.156	-0.069	-0.114
-188.158	-52.025	0.217	-0.099
-187.144	102.340	-0.142	0.163
-186.129	312.686	0.071	-0.131
-185.114	-126.271	-0.145	0.021
-184.100	406.511	-0.082	-0.171
-183.085	-26.667	0.277	-0.159
-182.071	223.812	-0.122	-0.194
-181.056	800.000	0.094	-0.348
-180.042	-200.000	0.011	0.126
-179.027	-83.504	0.334	0.105
-178.012	-62.991	-0.054	-0.022
-176.998	-200.000	0.042	0.253
-175.983	800.000	-0.053	-0.188
-174.969	-200.000	-0.012	-0.131
-173.954	-16.153	-0.144	-0.090
-172.939	175.903	-0.081	-0.115
-171.925	800.000	0.185	0.502
-170.910	-200.000	-0.023	0.144
-169.896	-195.823	0.363	-0.003
-168.881	28.977	-0.174	0.145
-167.866	56.941	-0.176	0.169
-166.852	296.961	-0.133	-0.241
-165.837	-79.553	0.096	-0.032
-164.823	-95.045	-0.322	0.085
-163.808	-39.852	0.187	0.096
-162.793	-200.000	0.030	-0.133
-161.779	-60.045	0.202	-0.085
-160.764	-151.992	0.461	-0.033
-159.750	-22.229	-0.115	0.069
-158.735	-37.146	0.061	-0.032
-157.720	301.073	-0.139	-0.252
-156.706	228.145	0.139	0.223
-155.691	-85.830	0.046	0.014
-154.677	-200.000	0.047	0.295
-153.662	-75.875	-0.240	0.084
-152.647	475.909	-0.022	-0.049
-151.633	375.626	-0.057	0.114
-150.618	800.000	-0.052	0.168
-149.604	-96.181	0.109	-0.028
-148.589	-200.000	0.001	-0.095
-147.574	-200.000	0.012	0.351
-146.560	-99.284	0.188	-0.047
-145.545	87.060	0.067	0.073
-144.531	535.091	0.113	0.264
-143.516	-200.000	0.018	-0.127
-142.502	-27.510	0.226	-0.129
-141.487	370.924	-0.086	0.171
-140.472	-36.452	-0.106	-0.056
-139.458	65.548	0.123	0.122
-138.443	-9.864	0.272	0.178
-137.429	-165.767	-0.248	0.011
-136.414	-175.004	0.053	-0.001
-135.399	34.935	-0.189	-0.163
-134.385	-200.000	0.042	-0.647
-133.370	46.164	0.174	-0.159
-132.356	41.938	-0.103	-0.091
-131.341	71.473	-0.222	0.227
-130.326	10.635	0.155	0.116
-129.312	787.280	-0.109	0.294
-128.297	45.118	-0.075	0.068
-127.283	257.362	0.076	0.128
-126.268	22.424	-0.175	0.141
-125.253	-19.334	0.087	0.053
-124.239	-52.352	0.240	0.109
-123.224	38.787	-0.181	0.159
-122.210	80.571	-0.260	-0.276
-121.195	664.232	-0.078	0.197
-120.180	33.764	0.181	0.154
