DTS Sentinel unit serial number:	SN413079Multiplexer serial number:	ORYXHardware model number:	OX4-SRSoftware version number:	ORYX F/W v4.00 Oryx Data Collector v3.7.2.0data status	okinstallation	princeton_trtdifferential loss correction	single-endedforward channel	channel 1reverse channel	N/Adate	2019/09/11time	19:20:11forward acquisition time	60.00reverse acquisition time	0.00gamma	496.2192k internal	0.2294k external	0.2294temperature offset calibration	1.0024default loss term (dB/km)	0.3790temperature slope calibration	1.0000multiplexer offset coefficient	1.0000multiplexer slope coefficient	1.0000fibre end	0.00T internal ref (°C)	41.06T ext. ref 1 (°C)	1.33T ext. ref 2 (°C)	33.40length (m)	temperature (°C)	Stokes	anti-Stokes-747.200	-200.000	0.006	-0.194
-746.185	-105.251	0.114	-0.027
-745.171	-200.000	-0.014	0.105
-744.156	-200.000	-0.001	0.265
-743.142	412.356	-0.158	0.342
-742.127	83.724	-0.125	0.140
-741.112	-200.000	-0.005	0.208
-740.098	-200.000	-0.020	0.157
-739.083	-200.000	0.011	0.114
-738.069	196.413	-0.047	-0.073
-737.054	-96.623	-0.157	0.042
-736.039	698.225	0.076	-0.204
-735.025	-17.933	-0.128	-0.082
-734.010	148.720	-0.164	-0.226
-732.996	237.586	-0.186	-0.315
-731.981	-94.431	-0.031	0.009
-730.966	-200.000	0.003	-0.033
-729.952	-38.851	-0.202	-0.109
-728.937	-65.333	-0.417	-0.171
-727.923	-116.100	0.105	0.020
-726.908	-200.000	-0.013	0.062
-725.894	-127.085	-0.129	0.019
-724.879	91.488	-0.069	0.080
-723.864	-31.885	0.010	-0.006
-722.850	237.854	-0.080	-0.135
-721.835	-5.065	-0.113	0.080
-720.821	800.000	0.024	-0.078
-719.806	-200.000	-0.022	-0.242
-718.791	-108.916	-0.384	-0.084
-717.777	-18.177	-0.230	-0.147
-716.762	-68.577	0.306	0.121
-715.748	4.858	0.168	-0.126
-714.733	-79.059	-0.112	-0.039
-713.718	328.729	-0.056	-0.110
-712.704	-100.689	0.020	0.005
-711.689	109.396	-0.099	-0.122
-710.675	-167.865	0.211	0.008
-709.660	-10.147	0.186	-0.126
-708.645	727.718	0.031	-0.084
-707.631	104.430	-0.140	0.168
-706.616	-200.000	-0.003	0.299
-705.602	-200.000	0.000	-0.241
-704.587	-200.000	-0.004	-0.178
-703.572	682.350	-0.047	0.126
-702.558	-200.000	-0.034	0.189
-701.543	-136.708	0.300	0.035
-700.529	800.000	-0.086	0.333
-699.514	-120.323	0.077	0.013
-698.499	126.579	0.367	0.475
-697.485	800.000	0.026	-0.075
-696.470	215.467	0.063	0.103
-695.456	21.506	-0.070	-0.058
-694.441	163.145	-0.133	0.191
-693.426	-200.000	0.033	0.288
-692.412	-132.603	0.131	-0.017
-691.397	217.578	0.138	0.225
-690.383	67.332	0.115	-0.120
-689.368	50.879	-0.106	-0.102
-688.354	425.413	0.060	0.131
-687.339	800.000	0.039	0.117
-686.324	-196.332	-0.143	-0.001
-685.310	12.550	-0.107	0.084
-684.295	91.598	-0.061	0.070
-683.281	91.405	-0.061	-0.070
-682.266	487.224	-0.183	-0.427
-681.251	70.256	0.018	-0.019
-680.237	-200.000	-0.008	0.093
-679.222	32.641	-0.072	-0.064
-678.208	239.145	0.084	-0.142
-677.193	43.489	-0.188	0.175
-676.178	800.000	0.058	0.185
-675.164	99.197	0.034	-0.040
-674.149	258.748	0.152	-0.267
-673.135	-176.159	0.221	0.006
-672.120	-43.274	-0.267	0.138
-671.105	800.000	0.067	-0.190
-670.091	448.925	0.008	-0.017
-669.076	-40.945	0.255	-0.135
-668.062	48.427	0.138	-0.132
-667.047	499.542	0.103	0.242
-666.032	800.000	-0.118	0.350
-665.018	-58.451	-0.118	0.052
-664.003	0.186	-0.336	-0.244
-662.989	-200.000	0.010	-0.116
-661.974	44.976	0.089	0.083
-660.959	27.280	-0.236	-0.202
-659.945	-75.542	-0.128	0.046
-658.930	-200.000	0.001	-0.015
-657.916	-93.249	-0.243	-0.069
-656.901	-200.000	-0.304	-0.001
-655.886	278.879	-0.145	0.263
-654.872	800.000	0.052	-0.227
-653.857	800.000	-0.030	-0.111
-652.843	97.320	0.084	0.099
-651.828	-30.644	0.158	0.091
-650.814	800.000	-0.093	0.266
-649.799	-60.665	0.066	0.029
-648.784	-93.252	-0.041	0.012
-647.770	122.084	0.139	0.177
-646.755	-77.395	-0.109	-0.039
-645.741	800.000	0.087	0.365
-644.726	-112.554	0.015	-0.003
-643.711	-27.757	-0.207	-0.122
-642.697	800.000	0.068	0.231
-641.682	-146.232	-0.285	-0.025
-640.668	18.242	0.269	0.219
-639.653	69.738	-0.214	-0.225
-638.638	450.528	-0.045	0.101
-637.624	-136.170	0.310	-0.037
-636.609	188.374	0.134	-0.205
-635.595	117.994	0.318	0.399
-634.580	-51.485	0.083	0.040
-633.565	28.960	-0.018	-0.015
-632.551	-89.159	0.122	0.037
-631.536	10.913	-0.168	-0.130
-630.522	596.026	-0.036	0.090
-629.507	5.868	-0.337	0.254
-628.492	-75.748	-0.159	0.057
-627.478	213.559	-0.165	-0.265
-626.463	25.086	0.175	-0.148
-625.449	48.934	0.111	-0.106
-624.434	-81.657	-0.209	-0.070
-623.419	-93.981	0.419	-0.117
-622.405	-32.361	-0.093	0.053
-621.390	800.000	-0.029	-0.097
-620.376	393.605	-0.045	-0.095
-619.361	-200.000	0.014	0.340
-618.346	-32.844	0.261	0.148
-617.332	-200.000	-0.101	-0.493
-616.317	129.953	0.164	0.213
-615.303	-114.855	-0.457	0.089
-614.288	-116.773	-0.337	-0.063
-613.273	800.000	-0.068	-0.190
-612.259	109.081	-0.243	0.296
-611.244	74.842	0.159	0.171
-610.230	129.515	-0.148	-0.193
-609.215	358.216	-0.149	0.303
-608.201	429.299	-0.159	-0.350
-607.186	-200.000	-0.053	-0.295
-606.171	-200.000	-0.024	-0.123
-605.157	-151.238	0.204	-0.016
-604.142	130.175	-0.191	0.248
-603.128	-200.000	0.067	0.306
-602.113	-66.123	-0.215	-0.087
-601.098	79.121	0.100	0.109
-600.084	378.482	-0.025	0.053
-599.069	-142.023	0.290	0.029
-598.055	-118.365	0.187	0.034
-597.040	43.843	-0.129	0.120
-596.025	-182.282	-0.243	0.005
-595.011	800.000	0.096	0.314
-593.996	460.761	0.076	0.173
-592.982	3.671	-0.258	0.191
-591.967	-116.722	-0.405	-0.076
-590.952	373.828	0.094	0.194
-589.938	146.694	0.133	-0.181
-588.923	-130.875	-0.103	-0.014
-587.909	-129.771	-0.068	-0.009
-586.894	137.388	-0.006	0.008
-585.879	800.000	0.070	0.288
-584.865	-147.102	-0.307	-0.027
-583.850	-63.724	0.188	-0.078
-582.836	-31.876	-0.139	0.079
-581.821	-200.000	0.011	0.360
-580.806	18.061	-0.091	0.074
-579.792	-17.909	0.184	0.117
-578.777	-111.550	0.145	-0.030
-577.763	187.294	0.102	0.154
-576.748	142.540	-0.216	-0.291
-575.733	-37.379	0.191	-0.104
-574.719	-87.597	0.164	-0.050
-573.704	800.000	0.130	0.378
-572.690	333.340	-0.081	0.160
-571.675	-109.568	-0.331	-0.071
-570.661	-83.954	-0.371	-0.120
-569.646	-200.000	-0.044	0.238
-568.631	50.242	0.116	0.111
-567.617	56.473	-0.067	-0.066
-566.602	-114.704	-0.124	-0.024
-565.588	169.733	-0.056	-0.081
-564.573	12.661	-0.101	0.080
-563.558	409.456	-0.168	0.362
-562.544	-200.000	0.007	-0.104
-561.529	-144.628	0.334	-0.031
-560.515	144.029	0.030	-0.040
-559.500	-200.000	-0.013	0.059
-558.485	-200.000	-0.350	-0.001
-557.471	118.371	0.080	0.101
-556.456	181.088	0.113	0.168
-555.442	800.000	-0.078	0.273
-554.427	-200.000	0.015	-0.302
-553.412	-123.761	0.351	0.056
-552.398	276.169	0.066	0.118
-551.383	-197.483	-0.047	0.000
-550.369	444.908	0.101	-0.224
-549.354	-2.644	0.195	-0.138
-548.339	86.284	0.092	0.103
-547.325	-61.875	-0.106	0.045
-546.310	399.420	-0.083	-0.177
-545.296	118.244	-0.141	-0.176
-544.281	-200.000	0.085	-0.411
-543.266	-113.567	0.062	-0.012
-542.252	773.154	0.023	0.064
-541.237	-73.364	-0.188	0.070
-540.223	-62.046	0.262	-0.111
-539.208	-43.075	0.159	-0.082
-538.193	-200.000	-0.003	0.271
-537.179	149.382	-0.056	0.077
-536.164	-96.513	0.150	0.040
-535.150	-86.700	-0.269	-0.084
-534.135	-200.000	0.001	-0.159
-533.121	-141.082	0.086	0.009
-532.106	-200.000	0.029	-0.207
-531.091	-94.044	0.259	-0.072
-530.077	139.479	-0.004	-0.005
-529.062	-113.246	0.085	-0.017
-528.048	-200.000	-0.062	0.292
-527.033	-47.281	0.470	0.232
-526.018	38.785	-0.091	0.082
-525.004	-155.369	0.059	-0.004
-523.989	267.922	-0.105	-0.186
-522.975	176.429	-0.212	-0.312
-521.960	-105.662	0.419	0.096
-520.945	-57.060	-0.293	-0.131
-519.931	-59.850	-0.358	0.155
-518.916	102.650	-0.082	0.097
-517.902	-86.920	-0.169	0.052
-516.887	-200.000	0.046	-0.237
-515.872	-40.181	0.376	-0.198
-514.858	-116.529	-0.337	-0.063
-513.843	-107.315	-0.022	-0.005
-512.829	143.760	-0.232	0.313
-511.814	17.007	-0.402	-0.323
-510.799	160.462	0.044	-0.062
-509.785	-200.000	-0.018	-0.382
-508.770	-82.366	0.119	-0.039
-507.756	343.533	-0.152	0.301
-506.741	-133.585	0.068	0.009
-505.726	112.939	-0.284	-0.348
-504.712	290.923	-0.139	-0.256
-503.697	282.812	-0.185	-0.337
-502.683	-200.000	0.030	-0.266
-501.668	-139.236	-0.340	0.037
-500.653	27.027	-0.128	-0.109
-499.639	-95.972	-0.335	0.090
-498.624	800.000	0.127	-0.410
-497.610	-82.036	0.043	0.014
-496.595	-71.932	-0.164	-0.062
-495.581	-89.243	0.148	0.044
-494.566	-51.471	0.111	-0.053
-493.551	800.000	0.121	-0.482
-492.537	346.689	-0.103	-0.206
-491.522	-91.412	0.137	0.040
-490.508	-103.068	0.144	-0.035
-489.493	-158.595	-0.378	-0.022
-488.478	133.839	-0.186	-0.244
-487.464	-99.950	-0.094	-0.024
-486.449	196.298	0.073	-0.113
-485.435	800.000	0.023	-0.074
-484.420	-156.762	0.166	-0.010
-483.405	800.000	0.051	-0.149
-482.391	-60.018	0.177	-0.076
-481.376	-200.000	-0.004	0.100
-480.362	-54.461	0.244	-0.112
-479.347	-141.900	0.110	0.011
-478.332	282.127	-0.079	0.144
-477.318	-187.518	0.184	-0.002
-476.303	120.597	0.231	-0.291
-475.289	161.479	0.071	-0.100
-474.274	-200.000	0.017	-0.334
-473.259	257.475	0.090	-0.156
-472.245	173.017	0.025	-0.036
-471.230	800.000	-0.061	0.186
-470.216	-63.848	-0.416	-0.172
-469.201	124.523	0.056	0.071
-468.186	-51.072	0.260	-0.123
-467.172	-195.422	0.064	0.000
-466.157	-9.548	-0.166	0.112
-465.143	-200.000	-0.029	-0.160
-464.128	-129.645	-0.088	0.012
-463.113	-200.000	-0.011	-0.236
-462.099	-200.000	-0.012	0.344
-461.084	29.097	0.105	-0.090
-460.070	-141.660	-0.079	-0.008
-459.055	246.573	0.161	0.274
-458.040	-15.771	0.153	-0.099
-457.026	-0.368	-0.186	-0.134
-456.011	800.000	0.066	-0.250
-454.997	5.811	0.054	0.040
-453.982	800.000	0.046	0.149
-452.968	-61.083	-0.126	-0.054
-451.953	-200.000	0.037	0.242
-450.938	44.360	-0.392	0.364
-449.924	-117.161	-0.296	-0.054
-448.909	800.000	-0.081	-0.282
-447.895	101.513	0.254	0.299
-446.880	281.581	0.047	0.085
-445.865	-200.000	-0.070	-0.340
-444.851	264.711	-0.107	-0.189
-443.836	-67.066	-0.153	-0.061
-442.822	-36.852	0.255	-0.139
-441.807	498.709	-0.079	-0.185
-440.792	362.270	0.106	-0.214
-439.778	-186.295	-0.254	-0.004
-438.763	-200.000	-0.033	-0.350
-437.749	-40.975	0.109	0.057
-436.734	-49.825	-0.271	-0.130
-435.719	461.031	0.142	-0.320
-434.705	-200.000	0.020	-0.191
-433.690	420.039	-0.074	-0.160
-432.676	-46.967	0.277	-0.137
-431.661	-19.364	0.314	0.197
-430.646	-175.755	0.092	-0.002
-429.632	-200.000	0.005	0.055
-428.617	15.109	-0.195	0.155
-427.603	216.806	-0.036	-0.058
-426.588	-29.957	-0.213	0.122
-425.573	166.651	0.122	0.175
-424.559	203.173	0.163	-0.255
-423.544	-114.417	0.518	-0.101
-422.530	-47.177	-0.456	0.224
-421.515	88.944	0.208	0.234
-420.500	-99.776	-0.130	0.033
-419.486	44.856	0.152	-0.141
-418.471	-155.255	0.240	0.016
-417.457	282.635	-0.050	-0.090
-416.442	-102.807	-0.411	0.099
-415.428	505.845	0.101	-0.235
-414.413	15.776	0.058	0.046
-413.398	800.000	-0.076	0.224
-412.384	23.491	-0.103	0.085
-411.369	-142.689	0.087	0.009
-410.355	-105.805	0.261	-0.059
-409.340	-25.776	0.600	-0.357
-408.325	800.000	0.051	-0.180
-407.311	289.151	0.087	0.159
-406.296	-156.218	-0.008	0.000
-405.282	115.796	-0.130	0.160
-404.267	7.510	-0.120	-0.091
-403.252	-200.000	0.091	0.425
-402.238	-66.076	0.458	0.184
-401.223	-84.078	0.373	-0.119
-400.209	22.262	-0.112	0.092
-399.194	-148.971	0.153	0.012
-398.179	-200.000	-0.001	0.058
-397.165	282.981	-0.014	0.026
-396.150	-91.530	-0.168	-0.048
-395.136	-131.369	-0.053	0.007
-394.121	209.486	0.147	-0.232
-393.106	93.165	0.165	0.189
-392.092	41.581	-0.214	0.195
-391.077	240.524	-0.055	0.092
-390.063	800.000	0.061	0.170
-389.048	-52.507	0.545	0.254
-388.033	800.000	-0.067	-0.206
-387.019	30.307	-0.074	0.064
-386.004	-121.649	0.307	0.051
-384.990	-26.947	-0.255	-0.150
-383.975	-45.146	0.092	0.046
-382.960	-43.095	-0.231	-0.118
-381.946	800.000	0.090	-0.282
-380.931	38.242	-0.055	-0.049
-379.917	402.509	0.102	0.217
-378.902	-200.000	0.029	-0.220
-377.888	27.729	-0.102	0.087
-376.873	267.619	0.097	0.171
-375.858	-131.290	-0.274	0.037
-374.844	-98.487	0.352	0.091
-373.829	223.759	-0.093	0.151
-372.815	-200.000	0.029	-0.231
-371.800	-56.206	0.281	-0.126
-370.785	35.072	-0.146	0.129
-369.771	489.817	0.061	0.141
-368.756	67.640	0.129	0.133
-367.742	-200.000	0.051	0.270
-366.727	800.000	-0.028	-0.119
-365.712	-87.240	-0.204	-0.062
-364.698	120.855	-0.124	-0.155
-363.683	-92.325	0.132	-0.037
-362.669	-78.210	-0.113	0.039
-361.654	-114.225	0.231	-0.045
-360.639	175.002	0.165	0.241
-359.625	-145.742	0.069	-0.006
-358.610	-63.853	-0.109	0.045
-357.596	220.318	-0.125	-0.202
-356.581	90.433	0.144	-0.162
-355.566	-118.871	-0.085	-0.015
-354.552	167.692	-0.151	0.216
-353.537	23.694	0.327	0.272
-352.523	143.778	0.284	0.381
-351.508	-147.175	-0.198	-0.017
-350.493	-200.000	-0.012	-0.080
-349.479	190.269	-0.094	0.142
-348.464	52.737	0.127	0.123
-347.450	47.469	0.070	-0.066
-346.435	-27.253	-0.303	-0.177
-345.420	-200.000	-0.093	-0.536
-344.406	-200.000	-0.037	0.250
-343.391	-117.831	0.375	0.068
-342.377	84.821	-0.096	-0.106
-341.362	-200.000	-0.018	0.246
-340.348	134.713	-0.325	0.425
-339.333	-74.968	-0.428	-0.154
-338.318	166.543	-0.180	-0.257
-337.304	800.000	-0.050	0.148
-336.289	-200.000	-0.029	0.211
-335.275	-200.000	0.006	-0.451
-334.260	333.824	-0.149	-0.289
-333.245	353.649	-0.186	0.373
-332.231	-145.083	0.250	-0.023
-331.216	-98.716	0.094	-0.024
-330.202	7.348	-0.138	0.104
-329.187	-57.246	0.201	-0.089
-328.172	78.890	-0.047	0.051
-327.158	800.000	-0.144	-0.498
-326.143	-34.346	-0.204	0.112
-325.129	-133.795	-0.141	0.018
-324.114	-62.283	-0.371	-0.156
-323.099	61.415	-0.262	0.262
-322.085	5.166	0.328	-0.243
-321.070	-138.704	-0.132	-0.015
-320.056	67.257	-0.112	0.114
-319.041	64.182	-0.228	-0.231
-318.026	-200.000	-0.002	0.155
-317.012	13.800	0.102	0.080
-315.997	-100.255	-0.128	-0.032
-314.983	56.902	0.301	-0.295
-313.968	800.000	-0.093	0.293
-312.953	-83.354	-0.063	-0.020
-311.939	-88.437	0.243	0.073
-310.924	146.817	0.293	0.396
-309.910	15.313	-0.221	-0.174
-308.895	439.854	0.054	-0.119
-307.880	800.000	0.071	0.255
-306.866	326.951	0.109	-0.211
-305.851	-147.084	-0.487	0.042
-304.837	-77.106	-0.077	0.027
-303.822	26.963	0.158	0.133
-302.807	-200.000	0.016	-0.209
-301.793	-93.560	0.375	-0.104
-300.778	-139.266	0.119	-0.013
-299.764	-5.413	-0.109	-0.076
-298.749	-58.919	0.088	0.038
-297.735	-67.357	-0.379	-0.150
-296.720	-18.620	-0.205	0.128
-295.705	-151.290	-0.427	-0.032
-294.691	439.232	0.146	-0.321
-293.676	81.129	0.174	-0.189
-292.662	-156.340	-0.309	0.019
-291.647	757.249	-0.068	0.185
-290.632	-200.000	-0.011	0.121
-289.618	-139.932	0.370	-0.039
-288.603	-80.594	-0.219	-0.073
-287.589	503.808	-0.070	0.163
-286.574	216.694	-0.259	0.414
-285.559	-200.000	0.032	-0.142
-284.545	148.431	-0.086	-0.117
-283.530	-93.058	-0.206	0.058
-282.516	-19.271	-0.285	0.178
-281.501	-200.000	-0.007	-0.321
-280.486	37.677	-0.199	0.178
-279.472	420.577	0.106	0.228
-278.457	102.301	0.076	0.090
-277.443	22.277	-0.376	-0.308
-276.428	796.390	0.104	-0.286
-275.413	41.486	-0.167	-0.152
-274.399	-200.000	-0.031	0.554
-273.384	-153.127	0.185	0.013
-272.370	-185.960	0.082	0.001
-271.355	235.549	0.005	-0.008
-270.340	-162.277	0.133	-0.007
-269.326	-57.106	-0.122	0.054
-268.311	-137.516	0.127	0.014
-267.297	-11.781	0.123	-0.081
-266.282	-78.644	0.227	-0.078
-265.267	204.688	0.128	-0.199
-264.253	229.556	0.181	-0.297
-263.238	-146.762	0.255	-0.022
-262.224	401.500	0.193	0.406
-261.209	312.715	-0.024	0.044
-260.195	-39.737	-0.137	-0.072
-259.180	12.948	-0.194	0.151
-258.165	-33.186	0.247	0.138
-257.151	800.000	0.119	-0.346
-256.136	611.315	0.042	0.104
-255.122	407.012	-0.028	-0.060
-254.107	80.632	0.168	-0.182
-253.092	-103.804	-0.306	-0.072
-252.078	22.319	0.226	0.185
-251.063	17.982	0.244	-0.195
-250.049	-172.037	-0.314	-0.010
-249.034	-75.909	0.358	0.127
-248.019	730.422	-0.034	0.092
-247.005	800.000	-0.120	-0.384
-245.990	-69.631	0.269	-0.103
-244.976	63.844	-0.236	-0.238
-243.961	-200.000	-0.015	0.078
-242.946	-117.923	0.320	-0.058
-241.932	6.562	0.158	0.118
-240.917	365.927	0.065	0.132
-239.903	-108.849	0.575	0.123
-238.888	24.131	-0.113	-0.094
-237.873	234.392	-0.068	0.112
-236.859	82.241	-0.160	0.174
-235.844	216.060	-0.052	-0.083
-234.830	-50.669	0.155	-0.073
-233.815	-85.045	0.257	0.081
-232.800	-200.000	0.024	-0.107
-231.786	-200.000	-0.005	-0.234
-230.771	51.209	-0.223	0.212
-229.757	21.774	-0.126	-0.103
-228.742	800.000	0.128	-0.393
-227.727	-200.000	0.048	0.491
-226.713	-133.999	-0.203	-0.025
-225.698	211.633	0.069	0.110
-224.684	-76.167	0.300	-0.106
-223.669	800.000	0.039	-0.123
-222.655	715.851	0.110	-0.292
-221.640	-34.175	0.147	-0.081
-220.625	-121.371	0.146	0.024
-219.611	800.000	0.059	0.186
-218.596	308.247	-0.049	0.092
-217.582	-37.861	-0.119	0.063
-216.567	176.641	-0.161	0.235
-215.552	-25.411	-0.142	-0.084
-214.538	64.709	0.095	-0.096
-213.523	31.513	0.246	0.212
-212.509	-200.000	0.027	0.320
-211.494	-163.767	-0.023	0.001
-210.479	-35.320	-0.118	-0.065
-209.465	800.000	-0.017	0.052
-208.450	800.000	0.038	0.105
-207.436	-200.000	0.027	0.302
-206.421	800.000	0.066	0.237
-205.406	-200.000	-0.033	0.170
-204.392	-117.594	-0.162	-0.029
-203.377	800.000	0.087	0.247
-202.363	134.584	0.221	0.287
-201.348	96.423	0.152	0.174
-200.333	-198.705	-0.053	0.000
-199.319	-137.901	0.063	-0.007
-198.304	-200.000	-0.020	0.162
-197.290	-200.000	0.403	-0.001
-196.275	-132.146	0.251	-0.033
-195.260	-112.167	0.314	0.063
-194.246	53.371	0.122	0.117
-193.231	26.441	-0.030	0.025
-192.217	-200.000	0.053	0.352
-191.202	192.093	-0.157	-0.237
-190.187	-78.716	0.171	-0.058
-189.173	-115.890	0.045	0.008
-188.158	81.659	-0.119	0.129
-187.144	-132.950	0.107	-0.014
-186.129	-93.713	-0.146	-0.040
-185.114	-27.425	0.064	-0.037
-184.100	800.000	0.055	0.205
-183.085	-179.511	-0.124	0.003
-182.071	192.925	-0.091	0.138
-181.056	-120.870	0.266	-0.045
-180.042	-25.705	-0.547	0.323
-179.027	800.000	0.094	0.284
-178.012	-171.967	-0.329	0.011
-176.998	800.000	-0.037	-0.139
-175.983	224.704	-0.169	-0.273
-174.969	800.000	-0.078	-0.335
-173.954	9.039	0.287	-0.217
-172.939	-200.000	-0.029	0.316
-171.925	-85.800	-0.247	0.077
-170.910	-25.920	0.184	0.108
-169.896	-89.700	0.284	0.083
-168.881	-70.537	-0.328	-0.124
-167.866	147.826	-0.207	-0.278
-166.852	-51.817	0.340	-0.158
-165.837	-67.033	0.196	-0.077
-164.823	254.988	0.170	-0.292
-163.808	92.563	-0.139	0.156
-162.793	-23.050	-0.119	0.072
-161.779	-149.826	-0.318	0.025
-160.764	-169.094	-0.203	-0.008
-159.750	-200.000	-0.040	-0.408
-158.735	-200.000	0.023	0.328
-157.720	-200.000	0.014	0.123
-156.706	247.579	-0.120	-0.203
-155.691	68.896	0.122	0.125
-154.677	-134.694	0.016	-0.002
-153.662	-76.697	-0.133	0.047
-152.647	-200.000	-0.045	0.284
-151.633	-162.815	0.176	-0.009
-150.618	179.147	0.045	-0.066
-149.604	-200.000	-0.059	0.397
-148.589	-200.000	0.113	-0.500
-147.574	170.597	0.083	0.118
-146.560	169.272	-0.103	-0.146
-145.545	-44.604	0.207	-0.103
-144.531	17.566	0.005	-0.004
-143.516	-200.000	-0.028	0.261
-142.502	10.984	0.197	0.150
-141.487	55.032	-0.041	-0.039
-140.472	258.976	-0.065	0.111
-139.458	-20.839	0.215	0.132
-138.443	197.003	0.115	-0.176
-137.429	-28.621	-0.352	0.203
-136.414	800.000	-0.084	0.285
-135.399	234.409	-0.193	-0.318
-134.385	-83.533	-0.142	-0.045
-133.370	-74.460	0.229	0.082
-132.356	-143.885	0.064	-0.006
-131.341	-200.000	-0.035	0.271
-130.326	1.172	0.507	0.364
-129.312	-100.121	0.469	-0.116
-128.297	28.176	0.244	0.206
-127.283	-161.036	0.459	-0.024
-126.268	-183.091	-0.107	-0.002
-125.253	-84.416	-0.196	0.062
-124.239	-112.007	-0.232	-0.047
-123.224	9.585	-0.433	0.328
-122.210	800.000	-0.139	0.385
