DTS Sentinel unit serial number:	SN413079Multiplexer serial number:	ORYXHardware model number:	OX4-SRSoftware version number:	ORYX F/W v4.00 Oryx Data Collector v3.7.2.0data status	okinstallation	princeton_trtdifferential loss correction	single-endedforward channel	channel 1reverse channel	N/Adate	2019/09/11time	00:56:11forward acquisition time	60.00reverse acquisition time	0.00gamma	496.2192k internal	0.2331k external	0.2331temperature offset calibration	0.9932default loss term (dB/km)	0.3790temperature slope calibration	1.0000multiplexer offset coefficient	1.0000multiplexer slope coefficient	1.0000fibre end	0.00T internal ref (°C)	29.14T ext. ref 1 (°C)	-0.30T ext. ref 2 (°C)	22.87length (m)	temperature (°C)	Stokes	anti-Stokes-747.200	-103.346	0.132	-0.031
-746.185	13.620	0.078	-0.061
-745.171	-134.261	-0.117	-0.014
-744.156	800.000	-0.145	0.407
-743.142	-33.954	-0.101	0.056
-742.127	800.000	0.094	0.272
-741.112	-200.000	-0.005	0.045
-740.098	-50.293	-0.246	0.117
-739.083	126.684	0.075	-0.096
-738.069	-161.407	0.137	0.007
-737.054	476.176	0.104	-0.236
-736.039	454.955	-0.178	-0.398
-735.025	-19.534	0.130	0.081
-734.010	-141.763	-0.353	0.036
-732.996	-200.000	-0.018	-0.282
-731.981	-106.002	-0.420	-0.095
-730.966	82.553	0.080	0.087
-729.952	800.000	0.087	0.288
-728.937	283.368	-0.129	0.234
-727.923	-100.225	-0.200	-0.050
-726.908	19.924	0.245	-0.199
-725.894	114.434	-0.161	-0.197
-724.879	-34.034	0.109	0.060
-723.864	37.624	-0.190	-0.170
-722.850	-27.065	-0.259	0.152
-721.835	88.745	-0.191	0.214
-720.821	65.922	0.102	-0.104
-719.806	-82.103	-0.283	-0.093
-718.791	-200.000	-0.019	0.089
-717.777	-158.974	-0.318	0.018
-716.762	27.417	-0.280	0.237
-715.748	157.655	-0.030	-0.042
-714.733	191.283	0.146	-0.220
-713.718	-106.507	-0.076	0.017
-712.704	-95.492	-0.328	-0.088
-711.689	109.636	0.129	-0.155
-710.675	18.812	-0.341	0.275
-709.660	391.881	0.100	0.210
-708.645	-108.147	0.252	0.055
-707.631	-140.193	-0.197	0.021
-706.616	214.743	-0.082	-0.130
-705.602	-86.186	0.141	0.044
-704.587	60.445	0.098	0.098
-703.572	-40.669	0.437	0.228
-702.558	-105.807	-0.063	-0.014
-701.543	-47.883	0.068	-0.033
-700.529	800.000	-0.033	0.141
-699.514	-200.000	-0.039	0.192
-698.499	-78.353	-0.165	0.057
-697.485	800.000	0.054	-0.221
-696.470	467.676	-0.093	-0.210
-695.456	261.051	-0.122	-0.212
-694.441	-83.094	-0.276	-0.089
-693.426	-85.527	-0.192	0.060
-692.412	-154.159	0.320	-0.022
-691.397	89.091	0.237	0.265
-690.383	-143.307	0.358	-0.035
-689.368	-100.800	-0.354	0.087
-688.354	-8.503	-0.077	0.052
-687.339	86.836	0.218	0.242
-686.324	-1.735	-0.090	-0.064
-685.310	-171.848	0.322	0.011
-684.295	-8.876	-0.067	-0.045
-683.281	4.403	0.141	-0.104
-682.266	-84.848	0.245	-0.077
-681.251	-117.232	0.177	0.032
-680.237	-28.741	-0.343	0.198
-679.222	424.585	0.101	-0.218
-678.208	800.000	0.044	0.145
-677.193	800.000	0.067	-0.197
-676.178	18.659	-0.148	-0.119
-675.164	-78.853	-0.159	-0.054
-674.149	182.241	0.053	0.078
-673.135	-102.533	-0.185	-0.044
-672.120	-62.272	0.127	-0.053
-671.105	-18.797	-0.242	-0.151
-670.091	-25.797	0.244	0.144
-669.076	-98.292	0.240	0.062
-668.062	100.630	-0.185	0.216
-667.047	283.735	0.198	0.358
-666.032	22.545	-0.196	0.161
-665.018	179.748	0.070	0.103
-664.003	462.673	-0.155	-0.346
-662.989	342.309	0.085	0.167
-661.974	-122.134	-0.158	-0.026
-660.959	738.897	-0.096	0.259
-659.945	800.000	-0.040	-0.152
-658.930	78.170	-0.175	-0.188
-657.916	-106.998	-0.148	0.033
-656.901	-200.000	-0.043	-0.199
-655.886	-88.674	-0.291	-0.087
-654.872	-200.000	-0.034	0.218
-653.857	-48.552	-0.051	-0.025
-652.843	800.000	0.032	-0.102
-651.828	-200.000	0.018	0.240
-650.814	-21.319	0.123	0.076
-649.799	249.516	-0.043	-0.074
-648.784	-200.000	0.011	0.146
-647.770	8.742	0.121	0.092
-646.755	123.383	0.169	0.213
-645.741	-200.000	0.000	0.033
-644.726	-25.034	-0.285	-0.170
-643.711	-12.061	-0.184	0.120
-642.697	-200.000	-0.031	0.319
-641.682	-200.000	0.019	-0.138
-640.668	59.200	0.093	-0.092
-639.653	800.000	0.036	-0.101
-638.638	-200.000	-0.015	0.072
-637.624	800.000	0.047	-0.203
-636.609	800.000	-0.043	0.129
-635.595	-107.570	0.289	0.063
-634.580	-200.000	0.009	-0.232
-633.565	218.798	0.075	-0.120
-632.551	-160.865	0.233	-0.012
-631.536	219.470	0.152	-0.244
-630.522	-104.779	-0.312	0.072
-629.507	-2.071	0.083	-0.058
-628.492	-20.386	-0.339	0.209
-627.478	-200.000	-0.012	0.104
-626.463	800.000	-0.084	-0.291
-625.449	9.019	-0.019	0.014
-624.434	-200.000	-0.010	-0.185
-623.419	120.586	-0.088	0.109
-622.405	-200.000	-0.066	-0.301
-621.390	-126.834	-0.235	0.035
-620.376	-18.384	-0.130	-0.082
-619.361	-200.000	-0.002	0.276
-618.346	-143.246	-0.158	0.015
-617.332	-164.322	0.335	0.015
-616.317	-200.000	0.005	-0.147
-615.303	-200.000	-0.057	-0.279
-614.288	134.025	0.200	-0.260
-613.273	94.160	-0.116	0.132
-612.259	-95.441	0.193	0.052
-611.244	0.515	-0.206	0.147
-610.230	-137.371	0.201	-0.023
-609.215	100.507	-0.063	0.073
-608.201	-47.898	-0.332	-0.161
-607.186	-34.672	0.323	-0.177
-606.171	217.843	-0.181	-0.288
-605.157	28.615	0.075	-0.064
-604.142	800.000	-0.045	-0.192
-603.128	-45.918	0.290	0.143
-602.113	-13.317	-0.420	0.273
-601.098	-18.101	0.299	-0.187
-600.084	-82.559	-0.216	0.070
-599.069	120.226	0.018	0.022
-598.055	368.451	0.228	0.461
-597.040	-155.021	0.455	-0.030
-596.025	-30.580	0.076	-0.043
-595.011	84.659	-0.272	0.297
-593.996	800.000	-0.015	0.047
-592.982	-200.000	-0.049	0.489
-591.967	619.091	-0.111	0.278
-590.952	-62.073	-0.119	0.050
-589.938	-105.064	0.189	-0.043
-588.923	744.621	-0.084	-0.225
-587.909	-155.130	0.048	0.003
-586.894	-147.084	-0.258	-0.022
-585.879	-34.479	-0.124	-0.068
-584.865	65.907	0.069	0.070
-583.850	481.160	-0.026	-0.058
-582.836	-99.886	0.198	-0.050
-581.821	-200.000	-0.023	-0.171
-580.806	52.655	0.078	-0.075
-579.792	-200.000	0.050	0.272
-578.777	-200.000	0.012	-0.080
-577.763	-196.371	-0.067	0.000
-576.748	-54.621	0.232	0.105
-575.733	-70.299	-0.337	-0.128
-574.719	-99.707	-0.192	0.048
-573.704	-90.069	-0.203	-0.059
-572.690	279.652	-0.079	-0.141
-571.675	109.771	0.146	-0.175
-570.661	70.136	0.081	0.084
-569.646	-89.721	0.063	-0.018
-568.631	-200.000	-0.009	-0.100
-567.617	800.000	-0.081	0.237
-566.602	-120.427	-0.141	-0.024
-565.588	785.410	0.080	0.220
-564.573	95.879	-0.117	-0.134
-563.558	-51.193	-0.188	0.088
-562.544	74.363	-0.153	0.161
-561.529	-18.964	0.193	-0.120
-560.515	59.880	0.072	0.071
-559.500	170.424	0.150	0.214
-558.485	70.713	-0.199	0.205
-557.471	51.575	0.166	-0.158
-556.456	-200.000	-0.023	-0.239
-555.442	-200.000	-0.063	-0.297
-554.427	-200.000	0.015	-0.137
-553.412	613.456	0.139	-0.347
-552.398	-73.738	-0.155	-0.056
-551.383	-131.135	-0.121	-0.016
-550.369	511.088	-0.071	-0.164
-549.354	-200.000	0.020	0.408
-548.339	-62.944	0.237	-0.098
-547.325	281.840	0.158	-0.284
-546.310	-18.250	-0.212	0.133
-545.296	638.359	0.046	-0.116
-544.281	-200.000	-0.011	0.252
-543.266	-56.086	0.107	-0.048
-542.252	-174.245	-0.264	0.008
-541.237	19.849	0.100	-0.081
-540.223	-67.019	-0.149	0.059
-539.208	286.204	-0.104	-0.187
-538.193	30.642	0.050	0.043
-537.179	-134.169	0.077	-0.009
-536.164	72.888	0.033	-0.034
-535.150	651.288	-0.117	0.300
-534.135	587.674	0.096	0.236
-533.121	719.662	-0.148	-0.393
-532.106	142.539	-0.162	-0.215
-531.091	-200.000	-0.033	0.278
-530.077	-97.831	0.420	0.108
-529.062	-36.405	0.195	0.105
-528.048	800.000	-0.030	-0.119
-527.033	-200.000	-0.003	0.176
-526.018	152.519	0.127	0.173
-525.004	453.211	0.115	0.255
-523.989	173.583	0.073	-0.105
-522.975	24.387	-0.173	0.142
-521.960	-147.259	-0.331	-0.028
-520.945	-92.254	-0.328	0.092
-519.931	-86.151	0.305	-0.094
-518.916	132.800	0.058	0.074
-517.902	85.545	-0.128	0.140
-516.887	43.444	-0.036	0.033
-515.872	-200.000	0.052	0.326
-514.858	-200.000	-0.006	0.063
-513.843	800.000	0.027	0.109
-512.829	297.722	0.176	0.323
-511.814	-73.273	0.169	-0.062
-510.799	800.000	0.053	0.187
-509.785	479.729	0.053	-0.119
-508.770	-200.000	-0.028	-0.000
-507.756	135.528	-0.191	-0.248
-506.741	202.398	-0.142	-0.219
-505.726	8.013	-0.004	-0.003
-504.712	800.000	0.049	-0.155
-503.697	-134.643	-0.061	0.007
-502.683	89.884	0.049	-0.055
-501.668	482.017	-0.078	-0.176
-500.653	-200.000	-0.029	0.213
-499.639	152.135	0.165	0.224
-498.624	-114.884	0.232	0.044
-497.610	-200.000	-0.003	-0.238
-496.595	-200.000	-0.054	-0.305
-495.581	-124.680	0.400	-0.062
-494.566	-183.729	-0.340	-0.006
-493.551	-47.495	0.147	-0.071
-492.537	-122.556	-0.402	0.065
-491.522	-117.242	-0.217	0.039
-490.508	177.351	0.027	0.039
-489.493	800.000	-0.125	-0.435
-488.478	260.098	0.081	0.140
-487.464	-88.943	0.259	-0.077
-486.449	439.016	-0.116	0.252
-485.435	-41.146	0.267	0.137
-484.420	-9.307	0.100	0.067
-483.405	-104.594	-0.102	-0.023
-482.391	-44.693	-0.138	-0.069
-481.376	658.944	0.058	0.148
-480.362	-200.000	0.012	-0.323
-479.347	-200.000	-0.005	0.142
-478.332	157.325	-0.133	0.183
-477.318	121.545	-0.171	-0.213
-476.303	144.240	0.036	-0.048
-475.289	-200.000	0.019	0.167
-474.274	-157.386	0.069	-0.004
-473.259	-42.622	-0.137	-0.070
-472.245	-39.987	0.183	0.095
-471.230	-38.360	-0.334	0.176
-470.216	316.791	-0.078	-0.147
-469.201	-54.278	0.180	-0.081
-468.186	7.691	0.067	0.050
-467.172	-118.186	-0.197	-0.035
-466.157	37.543	0.312	-0.275
-465.143	106.155	-0.144	-0.170
-464.128	67.058	0.111	-0.112
-463.113	-200.000	0.035	0.168
-462.099	-179.046	0.034	0.001
-461.084	-158.179	-0.139	-0.008
-460.070	25.887	0.079	-0.065
-459.055	-173.047	-0.254	-0.008
-458.040	388.410	-0.113	0.233
-457.026	223.651	0.100	-0.161
-456.011	-200.000	0.003	0.417
-454.997	150.456	-0.073	0.099
-453.982	71.160	0.041	0.043
-452.968	-200.000	-0.003	-0.255
-451.953	-69.508	0.166	-0.063
-450.938	-55.650	-0.123	0.055
-449.924	-15.076	0.192	-0.122
-448.909	-72.558	-0.359	0.132
-447.895	267.770	-0.178	-0.310
-446.880	33.141	0.151	-0.130
-445.865	437.245	-0.189	0.410
-444.851	-200.000	-0.045	-0.217
-443.836	75.705	0.157	-0.165
-442.822	800.000	-0.026	-0.104
-441.807	-91.378	-0.146	-0.042
-440.792	7.349	0.070	-0.052
-439.778	65.266	0.098	-0.098
-438.763	37.171	0.169	-0.148
-437.749	-200.000	-0.029	-0.248
-436.734	-107.264	0.324	-0.071
-435.719	349.947	-0.171	0.335
-434.705	163.768	-0.053	0.074
-433.690	292.470	0.104	0.188
-432.676	36.930	-0.177	-0.155
-431.661	7.157	-0.290	0.215
-430.646	800.000	-0.018	0.050
-429.632	-200.000	0.094	0.633
-428.617	-200.000	-0.015	0.102
-427.603	-20.451	-0.172	-0.105
-426.588	58.465	-0.136	-0.132
-425.573	-26.190	0.072	-0.042
-424.559	10.906	0.227	-0.172
-423.544	-200.000	-0.005	0.124
-422.530	-200.000	-0.022	-0.170
-421.515	-117.187	-0.152	0.027
-420.500	4.677	0.016	0.012
-419.486	718.120	0.054	-0.143
-418.471	-197.654	-0.133	-0.001
-417.457	229.709	0.154	0.249
-416.442	294.016	0.186	0.337
-415.428	-42.567	-0.294	-0.149
-414.413	46.376	-0.129	-0.119
-413.398	471.476	0.098	-0.219
-412.384	282.413	0.065	-0.116
-411.369	-125.591	0.468	0.071
-410.355	0.974	0.181	0.129
-409.340	-56.034	0.223	0.099
-408.325	-36.727	0.102	0.054
-407.311	285.138	0.112	-0.200
-406.296	-21.995	-0.129	0.078
-405.282	-110.177	-0.434	0.090
-404.267	4.567	0.160	-0.117
-403.252	-200.000	-0.020	0.204
-402.238	99.147	-0.124	-0.143
-401.223	-200.000	0.029	-0.146
-400.209	-129.804	0.083	-0.011
-399.194	-200.000	0.032	-0.211
-398.179	124.542	0.203	-0.253
-397.165	-155.068	-0.050	-0.003
-396.150	35.294	0.074	0.064
-395.136	800.000	-0.114	-0.326
-394.121	-200.000	0.035	-0.219
-393.106	-34.269	-0.061	-0.033
-392.092	308.448	-0.068	0.126
-391.077	94.615	0.053	-0.060
-390.063	-200.000	0.037	0.194
-389.048	800.000	-0.126	0.347
-388.033	-127.127	0.150	0.022
-387.019	-200.000	-0.002	0.096
-386.004	9.920	-0.222	0.168
-384.990	-131.120	0.157	0.021
-383.975	-59.522	-0.249	0.106
-382.960	-42.402	-0.216	-0.109
-381.946	-7.993	0.268	-0.179
-380.931	195.002	-0.080	0.121
-379.917	-200.000	-0.002	-0.187
-378.902	-200.000	0.001	-0.017
-377.888	-32.805	-0.109	-0.060
-376.873	800.000	-0.063	-0.204
-375.858	-118.460	0.018	-0.003
-374.844	129.940	0.101	0.129
-373.829	-101.421	-0.237	-0.057
-372.815	62.253	-0.274	0.271
-371.800	-71.660	0.179	0.066
-370.785	-181.121	0.113	0.002
-369.771	-41.293	-0.087	0.044
-368.756	-99.029	-0.343	-0.086
-367.742	100.456	0.143	0.164
-366.727	800.000	0.010	-0.029
-365.712	257.550	0.077	0.131
-364.698	-93.280	0.090	0.025
-363.683	36.803	-0.034	0.030
-362.669	-200.000	-0.016	-0.127
-361.654	-118.537	-0.063	0.011
-360.639	14.150	0.296	-0.229
-359.625	-28.782	-0.102	0.058
-358.610	125.982	0.054	0.068
-357.596	54.192	-0.191	0.183
-356.581	128.609	0.195	-0.246
-355.566	-151.850	-0.230	-0.017
-354.552	-200.000	-0.040	-0.203
-353.537	42.567	0.080	-0.072
-352.523	67.176	-0.132	0.133
-351.508	800.000	0.065	0.261
-350.493	-79.255	-0.141	0.048
-349.479	-200.000	-0.037	-0.376
-348.464	47.817	-0.039	-0.037
-347.450	-139.412	-0.237	0.025
-346.435	132.867	0.078	-0.099
-345.420	-200.000	-0.023	-0.129
-344.406	-109.208	0.254	0.053
-343.391	800.000	0.080	-0.238
-342.377	151.189	-0.042	-0.057
-341.362	800.000	0.029	0.089
-340.348	123.035	-0.138	-0.171
-339.333	-200.000	-0.034	0.196
-338.318	-48.701	-0.101	-0.048
-337.304	101.780	0.121	-0.140
-336.289	225.870	-0.113	0.182
-335.275	35.393	0.266	-0.231
-334.260	-113.728	0.225	0.044
-333.245	800.000	-0.052	0.182
-332.231	-200.000	-0.018	0.316
-331.216	-200.000	-0.020	-0.123
-330.202	-93.746	-0.130	0.035
-329.187	-16.696	0.217	0.136
-328.172	-144.694	-0.199	-0.018
-327.158	427.886	0.132	0.283
-326.143	502.374	-0.089	-0.203
-325.129	-126.690	0.158	-0.023
-324.114	682.821	-0.076	-0.195
-323.099	-123.618	-0.033	0.005
-322.085	800.000	0.045	0.159
-321.070	381.949	0.099	-0.202
-320.056	-200.000	-0.009	-0.110
-319.041	-134.583	-0.234	-0.028
-318.026	-119.162	-0.367	0.063
-317.012	-28.794	0.203	-0.115
-315.997	-200.000	0.004	-0.028
-314.983	-40.310	-0.105	-0.054
-313.968	426.283	0.102	0.218
-312.953	-200.000	0.002	-0.059
-311.939	144.566	0.165	0.218
-310.924	-58.949	-0.301	-0.129
-309.910	71.395	0.253	0.259
-308.895	513.212	0.117	0.270
-307.880	39.416	0.055	0.049
-306.866	111.916	0.068	-0.081
-305.851	-46.738	-0.050	0.024
-304.837	-4.420	0.202	-0.138
-303.822	520.248	0.082	-0.190
-302.807	160.415	0.273	0.376
-301.793	122.421	0.083	0.102
-300.778	-200.000	0.066	-0.327
-299.764	190.139	0.078	-0.115
-298.749	-55.142	-0.063	0.028
-297.735	247.416	0.028	0.047
-296.720	800.000	0.048	0.181
-295.705	800.000	0.080	-0.240
-294.691	-116.826	-0.244	0.044
-293.676	125.932	-0.020	-0.025
-292.662	115.960	0.162	-0.196
-291.647	800.000	-0.076	-0.320
-290.632	613.825	0.096	-0.237
-289.618	-43.521	0.171	0.085
-288.603	28.332	-0.079	0.066
-287.589	-200.000	-0.016	-0.219
-286.574	800.000	-0.054	0.172
-285.559	-25.509	-0.187	0.109
-284.545	265.576	-0.051	0.089
-283.530	515.037	0.082	-0.190
-282.516	606.600	0.080	-0.198
-281.501	10.109	0.400	0.301
-280.486	-101.454	0.112	-0.027
-279.472	513.492	0.085	-0.196
-278.457	800.000	0.013	0.040
-277.443	-200.000	-0.006	-0.215
-276.428	-200.000	0.021	-0.094
-275.413	800.000	0.059	-0.208
-274.399	397.973	-0.103	0.214
-273.384	238.293	0.135	0.222
-272.370	-139.319	-0.171	0.018
-271.355	76.988	-0.019	0.020
-270.340	8.350	-0.031	-0.023
-269.326	-146.800	-0.362	-0.031
-268.311	-17.630	0.203	-0.126
-267.297	647.283	-0.018	-0.045
-266.282	-39.912	0.081	0.042
-265.267	800.000	-0.045	-0.140
-264.253	394.881	-0.019	0.039
-263.238	132.626	-0.125	-0.160
-262.224	-200.000	-0.042	0.240
-261.209	551.101	0.118	-0.279
-260.195	11.508	-0.078	-0.059
-259.180	30.647	0.245	0.207
-258.165	800.000	-0.025	0.078
-257.151	657.211	-0.131	0.333
-256.136	800.000	-0.028	-0.102
-255.122	-200.000	-0.038	0.191
-254.107	-72.210	-0.187	0.068
-253.092	800.000	0.014	0.048
-252.078	-13.882	0.177	-0.113
-251.063	70.584	-0.071	-0.073
-250.049	232.535	-0.102	0.165
-249.034	-10.867	0.297	0.194
-248.019	9.268	-0.108	0.081
-247.005	9.515	0.176	0.132
-245.990	332.581	0.028	0.053
-244.976	634.723	0.058	-0.145
-243.961	-200.000	-0.009	-0.185
-242.946	-200.000	-0.045	0.351
-241.932	296.589	0.018	0.032
-240.917	-23.170	0.335	-0.199
-239.903	195.767	-0.114	-0.171
-238.888	130.563	0.054	-0.069
-237.873	-200.000	-0.017	-0.373
-236.859	-131.328	-0.469	0.061
-235.844	-200.000	0.104	0.500
-234.830	-130.716	-0.202	-0.027
-233.815	800.000	0.077	-0.265
-232.800	-200.000	0.007	-0.254
-231.786	-80.742	-0.222	-0.073
-230.771	273.925	-0.129	-0.225
-229.757	129.986	0.101	-0.127
-228.742	3.331	0.223	-0.160
-227.727	46.016	0.117	-0.107
-226.713	-29.895	-0.073	-0.041
-225.698	-64.476	0.031	0.012
-224.684	800.000	0.065	0.196
-223.669	-37.587	-0.127	-0.067
-222.655	-173.329	0.465	-0.014
-221.640	-132.199	-0.260	0.033
-220.625	-8.597	0.191	-0.126
-219.611	97.808	-0.226	-0.256
-218.596	-200.000	0.033	0.263
-217.582	266.328	-0.214	-0.368
-216.567	-139.787	0.152	-0.016
-215.552	478.593	-0.098	0.219
-214.538	-200.000	0.007	0.246
-213.523	-200.000	0.016	-0.069
-212.509	33.952	-0.050	-0.043
-211.494	82.077	0.288	0.308
-210.479	800.000	0.123	-0.479
-209.465	800.000	0.089	0.295
-208.450	-75.532	-0.027	0.010
-207.436	-200.000	0.023	0.099
-206.421	34.537	0.137	-0.118
-205.406	-77.363	-0.129	0.044
-204.392	62.908	0.249	0.245
-203.377	422.985	0.075	0.158
-202.363	160.930	-0.211	-0.291
-201.348	10.174	0.161	0.120
-200.333	-200.000	0.004	0.044
-199.319	236.534	0.116	-0.189
-198.304	26.079	-0.257	0.211
-197.290	-82.738	0.312	0.099
-196.275	102.213	-0.175	-0.202
-195.260	44.968	-0.249	-0.225
-194.246	-88.852	-0.104	-0.030
-193.231	800.000	0.072	0.200
-192.217	-200.000	-0.005	0.086
-191.202	-135.983	-0.324	0.037
-190.187	168.251	0.117	-0.163
-189.173	-200.000	-0.375	-0.001
-188.158	-22.488	0.162	-0.097
-187.144	38.418	0.193	0.170
-186.129	-98.651	0.101	0.025
-185.114	800.000	0.093	0.266
-184.100	800.000	0.107	0.344
-183.085	0.457	0.235	0.165
-182.071	800.000	0.036	-0.136
-181.056	-93.156	-0.095	0.026
-180.042	102.022	0.189	-0.217
-179.027	-200.000	-0.003	0.172
-178.012	-200.000	-0.038	0.192
-176.998	85.131	-0.115	0.124
-175.983	-145.072	0.202	-0.018
-174.969	179.831	0.083	-0.120
-173.954	-66.051	-0.247	0.097
-172.939	-64.012	-0.223	-0.090
-171.925	-105.593	-0.235	-0.052
-170.910	-19.331	0.233	0.142
-169.896	-200.000	0.075	0.338
-168.881	-200.000	0.051	-0.275
-167.866	-200.000	0.074	-0.485
-166.852	294.774	-0.201	-0.362
-165.837	-157.558	-0.250	0.015
-164.823	-42.869	0.241	0.120
-163.808	6.793	0.170	-0.125
-162.793	-85.186	-0.120	0.037
-161.779	-166.940	0.148	0.006
-160.764	800.000	0.082	0.351
-159.750	-200.000	-0.036	0.199
-158.735	676.823	-0.091	0.233
-157.720	-15.988	0.294	0.184
-156.706	56.795	-0.329	0.315
-155.691	800.000	-0.012	0.048
-154.677	-103.325	0.214	0.050
-153.662	-85.736	0.294	-0.090
-152.647	-49.225	-0.231	0.109
-151.633	-124.812	-0.413	0.063
-150.618	-200.000	-0.013	0.093
-149.604	-54.196	0.358	0.160
-148.589	220.371	0.177	-0.279
-147.574	-98.738	-0.079	-0.020
-146.560	-63.524	0.242	-0.098
-145.545	17.289	-0.231	-0.180
-144.531	800.000	-0.054	0.173
-143.516	-98.401	0.531	0.134
-142.502	-115.822	0.122	0.022
-141.487	-200.000	-0.085	0.374
-140.472	-79.983	0.287	0.095
-139.458	73.253	0.157	-0.162
-138.443	-162.680	-0.377	0.018
-137.429	-200.000	0.083	0.369
-136.414	-200.000	-0.014	-0.104
-135.399	72.648	-0.254	0.260
-134.385	-137.061	0.298	0.033
-133.370	292.759	-0.141	-0.253
-132.356	15.999	0.348	0.269
-131.341	70.031	-0.184	0.186
-130.326	-17.537	-0.193	-0.119
-129.312	193.284	0.056	-0.083
-128.297	800.000	-0.050	-0.177
-127.283	-167.256	0.303	0.012
-126.268	-23.966	0.273	0.160
-125.253	32.757	0.151	-0.128
-124.239	-84.930	-0.247	0.076
-123.224	381.359	0.040	-0.082
-122.210	-200.000	0.045	0.257
-121.195	-163.709	0.234	-0.011
