DTS Sentinel unit serial number:	SN413079Multiplexer serial number:	ORYXHardware model number:	OX4-SRSoftware version number:	ORYX F/W v4.00 Oryx Data Collector v3.7.2.0data status	okinstallation	princeton_trtdifferential loss correction	single-endedforward channel	channel 1reverse channel	N/Adate	2019/09/11time	08:52:11forward acquisition time	60.00reverse acquisition time	0.00gamma	496.2192k internal	0.2311k external	0.2311temperature offset calibration	0.9949default loss term (dB/km)	0.3790temperature slope calibration	1.0000multiplexer offset coefficient	1.0000multiplexer slope coefficient	1.0000fibre end	0.00T internal ref (°C)	33.87T ext. ref 1 (°C)	0.09T ext. ref 2 (°C)	31.06length (m)	temperature (°C)	Stokes	anti-Stokes-747.200	-13.175	0.065	-0.043
-746.185	800.000	0.085	0.376
-745.171	50.132	-0.076	0.073
-744.156	53.667	0.391	0.381
-743.142	147.719	0.048	0.066
-742.127	-45.619	-0.247	0.124
-741.112	33.263	-0.169	-0.148
-740.098	-200.000	0.066	0.389
-739.083	247.895	0.165	-0.283
-738.069	-108.184	-0.208	0.046
-737.054	-65.798	-0.136	-0.055
-736.039	39.301	-0.210	0.190
-735.025	-71.934	-0.143	-0.054
-734.010	630.850	0.088	-0.227
-732.996	178.715	-0.128	-0.189
-731.981	84.076	-0.197	0.219
-730.966	115.632	-0.069	-0.085
-729.952	95.402	0.064	-0.074
-728.937	-20.398	-0.420	-0.262
-727.923	171.459	-0.066	0.097
-726.908	-200.000	-0.012	-0.098
-725.894	207.361	-0.060	-0.095
-724.879	143.851	0.155	-0.209
-723.864	2.829	-0.172	-0.126
-722.850	64.069	0.162	-0.165
-721.835	800.000	0.077	-0.231
-720.821	-50.797	-0.266	-0.127
-719.806	176.693	-0.142	0.209
-718.791	-34.348	0.228	-0.127
-717.777	-200.000	0.004	-0.072
-716.762	-86.278	0.211	-0.066
-715.748	161.731	-0.114	-0.161
-714.733	800.000	0.076	-0.299
-713.718	55.275	-0.139	0.136
-712.704	-93.180	-0.384	-0.108
-711.689	648.963	-0.165	-0.427
-710.675	-200.000	0.018	0.093
-709.660	18.215	-0.069	-0.056
-708.645	-200.000	0.025	-0.314
-707.631	106.500	0.127	0.153
-706.616	23.774	-0.253	0.211
-705.602	-29.956	0.370	-0.214
-704.587	800.000	-0.139	-0.398
-703.572	-200.000	0.074	-0.380
-702.558	256.149	0.093	0.162
-701.543	-200.000	0.027	-0.141
-700.529	64.112	0.214	0.218
-699.514	525.369	0.064	-0.153
-698.499	385.782	-0.122	-0.255
-697.485	-118.322	0.442	0.080
-696.470	-60.241	-0.093	0.040
-695.456	-97.891	0.223	0.058
-694.441	-86.219	-0.159	-0.050
-693.426	-110.796	0.044	-0.009
-692.412	-200.000	-0.025	0.135
-691.397	-16.628	0.372	0.239
-690.383	-200.000	-0.003	-0.149
-689.368	230.911	-0.179	0.297
-688.354	-49.384	0.197	-0.095
-687.339	-144.947	-0.454	-0.042
-686.324	-32.306	0.154	-0.087
-685.310	-124.934	0.563	-0.088
-684.295	-200.000	-0.019	-0.359
-683.281	75.879	0.201	0.216
-682.266	48.043	-0.076	0.072
-681.251	-200.000	0.019	0.413
-680.237	-4.789	0.249	0.174
-679.222	-68.989	0.247	-0.097
-678.208	800.000	-0.063	0.207
-677.193	-200.000	0.020	0.172
-676.178	-78.353	0.211	0.073
-675.164	-200.000	0.048	-0.254
-674.149	800.000	-0.028	0.115
-673.135	-185.761	-0.039	0.001
-672.120	-97.891	-0.151	0.040
-671.105	-22.902	0.097	0.059
-670.091	-14.789	0.142	-0.092
-669.076	-74.555	0.168	-0.061
-668.062	-39.227	-0.274	-0.146
-667.047	-200.000	0.022	0.263
-666.032	-135.132	0.174	0.021
-665.018	185.553	0.068	0.102
-664.003	-136.197	0.055	0.006
-662.989	-91.259	0.083	0.024
-661.974	-94.785	0.179	0.049
-660.959	309.597	-0.073	-0.138
-659.945	-70.132	0.355	0.137
-658.930	182.382	0.196	0.292
-657.916	5.038	0.240	0.178
-656.901	-33.601	-0.128	0.071
-655.886	-200.000	0.021	0.311
-654.872	800.000	-0.044	-0.183
-653.857	-113.991	-0.224	0.044
-652.843	590.434	-0.155	-0.387
-651.828	-59.559	-0.153	-0.067
-650.814	-60.547	-0.266	0.114
-649.799	-39.116	0.148	-0.079
-648.784	-147.986	0.138	0.012
-647.770	-200.000	0.041	0.210
-646.755	483.109	0.054	0.123
-645.741	800.000	-0.076	0.214
-644.726	76.961	0.042	-0.045
-643.711	32.448	0.278	-0.243
-642.697	452.152	0.075	-0.168
-641.682	2.494	0.155	0.114
-640.668	-112.374	-0.118	-0.024
-639.653	461.573	-0.044	-0.098
-638.638	112.606	-0.130	0.159
-637.624	58.648	-0.049	-0.049
-636.609	-200.000	0.008	-0.206
-635.595	-200.000	-0.022	0.108
-634.580	-69.472	-0.350	0.136
-633.565	67.973	-0.086	0.089
-632.551	-40.168	-0.321	-0.169
-631.536	-154.537	0.404	0.027
-630.522	-200.000	0.069	-0.308
-629.507	800.000	-0.075	0.243
-628.492	-47.463	0.351	0.172
-627.478	-200.000	-0.010	-0.102
-626.463	-144.754	0.408	-0.038
-625.449	-200.000	0.032	0.259
-624.434	-200.000	0.004	-0.029
-623.419	-45.892	-0.269	0.134
-622.405	-8.118	0.081	0.055
-621.390	-126.165	0.167	0.025
-620.376	499.906	0.166	-0.386
-619.361	298.005	0.064	-0.119
-618.346	315.940	-0.105	-0.200
-617.332	33.611	-0.050	0.044
-616.317	614.564	0.061	-0.154
-615.303	-200.000	0.011	-0.314
-614.288	230.955	-0.174	-0.287
-613.273	223.500	-0.109	0.178
-612.259	139.364	0.150	0.200
-611.244	-104.242	-0.263	-0.062
-610.230	-78.546	-0.032	0.011
-609.215	584.606	-0.103	-0.256
-608.201	12.003	-0.290	0.225
-607.186	-111.673	0.304	-0.062
-606.171	-200.000	0.042	-0.191
-605.157	-200.000	-0.017	-0.236
-604.142	-8.473	-0.165	0.112
-603.128	-123.670	0.155	0.025
-602.113	22.572	0.088	-0.073
-601.098	670.411	-0.103	0.269
-600.084	-64.163	-0.166	-0.068
-599.069	-200.000	0.010	-0.215
-598.055	-191.875	0.121	-0.001
-597.040	124.903	-0.143	0.181
-596.025	-15.947	-0.177	-0.114
-595.011	800.000	-0.031	-0.111
-593.996	-100.495	-0.118	-0.030
-592.982	245.731	0.077	0.130
-591.967	-109.905	0.088	-0.019
-590.952	-170.074	0.391	-0.014
-589.938	354.793	0.050	-0.100
-588.923	-200.000	0.046	-0.296
-587.909	800.000	-0.007	0.027
-586.894	-200.000	-0.009	0.131
-585.879	-2.688	-0.230	0.162
-584.865	93.808	-0.103	0.118
-583.850	27.489	-0.167	-0.141
-582.836	201.925	-0.052	0.081
-581.821	800.000	0.091	0.253
-580.806	-44.838	-0.127	-0.064
-579.792	-93.875	0.038	-0.011
-578.777	-57.296	-0.128	-0.057
-577.763	-88.063	0.141	0.043
-576.748	25.666	-0.091	0.076
-575.733	-200.000	0.020	-0.091
-574.719	27.189	0.104	-0.088
-573.704	27.458	0.183	-0.155
-572.690	-55.913	0.119	0.054
-571.675	-200.000	0.002	-0.092
-570.661	479.080	-0.102	-0.234
-569.646	132.218	-0.100	0.130
-568.631	200.773	0.134	-0.208
-567.617	17.275	0.280	-0.224
-566.602	-108.816	-0.099	0.021
-565.588	69.316	0.116	-0.120
-564.573	-200.000	0.045	-0.313
-563.558	113.774	0.197	0.241
-562.544	145.650	-0.109	-0.147
-561.529	-143.711	0.421	-0.040
-560.515	147.122	-0.074	-0.100
-559.500	-109.298	0.377	0.081
-558.485	-101.835	-0.103	-0.025
-557.471	-200.000	0.001	0.026
-556.456	35.176	-0.014	0.013
-555.442	560.777	-0.026	0.062
-554.427	-36.804	-0.234	-0.127
-553.412	-117.282	0.067	0.012
-552.398	311.563	0.065	-0.122
-551.383	-200.000	-0.003	-0.226
-550.369	-120.264	0.095	-0.016
-549.354	132.492	-0.150	0.195
-548.339	108.478	0.127	-0.153
-547.325	-200.000	0.026	0.302
-546.310	-63.114	-0.026	-0.011
-545.296	-177.032	0.276	-0.007
-544.281	800.000	0.067	0.201
-543.266	-133.822	-0.094	0.012
-542.252	-200.000	0.030	-0.257
-541.237	410.862	-0.047	-0.100
-540.223	-66.824	0.043	-0.017
-539.208	-159.248	0.110	-0.006
-538.193	86.529	-0.103	0.115
-537.179	634.971	-0.051	0.131
-536.164	141.555	0.079	-0.106
-535.150	-123.756	-0.300	-0.048
-534.135	-200.000	-0.010	0.216
-533.121	-26.099	0.104	0.062
-532.106	800.000	0.045	0.142
-531.091	-9.343	-0.109	0.074
-530.077	586.069	-0.127	-0.314
-529.062	-36.176	-0.185	-0.100
-528.048	-4.560	-0.200	-0.139
-527.033	-61.542	-0.094	-0.040
-526.018	43.558	-0.021	0.019
-525.004	180.079	0.125	-0.184
-523.989	459.886	0.074	0.166
-522.975	-153.316	-0.263	-0.018
-521.960	-62.568	0.305	-0.128
-520.945	-90.727	-0.183	0.053
-519.931	690.550	-0.037	-0.099
-518.916	9.253	0.080	-0.061
-517.902	36.802	0.163	0.145
-516.887	-35.857	0.256	-0.139
-515.872	145.968	-0.169	0.228
-514.858	-97.972	-0.251	-0.065
-513.843	75.686	0.211	0.224
-512.829	-200.000	-0.017	-0.235
-511.814	-28.561	0.075	0.044
-510.799	336.925	0.052	-0.101
-509.785	-84.653	0.136	-0.043
-508.770	117.112	0.018	-0.022
-507.756	151.842	-0.126	0.173
-506.741	94.139	0.142	0.162
-505.726	-17.223	0.149	-0.094
-504.712	-7.722	-0.199	0.135
-503.697	-104.759	-0.094	-0.022
-502.683	-200.000	0.026	-0.179
-501.668	-200.000	0.044	-0.205
-500.653	-101.312	0.153	-0.038
-499.639	-26.929	-0.203	-0.119
-498.624	323.051	0.023	-0.044
-497.610	-36.071	0.128	-0.070
-496.595	800.000	-0.045	0.147
-495.581	-30.208	0.240	0.137
-494.566	100.449	0.023	-0.027
-493.551	-112.923	-0.367	0.073
-492.537	800.000	-0.052	0.182
-491.522	91.186	-0.147	0.166
-490.508	140.965	-0.148	0.196
-489.493	-124.027	-0.173	0.027
-488.478	-42.502	0.097	-0.050
-487.464	-77.331	0.215	0.075
-486.449	-200.000	0.013	-0.120
-485.435	223.370	-0.126	0.204
-484.420	800.000	0.014	-0.060
-483.405	-11.825	-0.188	0.124
-482.391	299.420	0.134	0.249
-481.376	-18.982	-0.243	-0.152
-480.362	2.008	-0.290	0.211
-479.347	-139.969	-0.348	0.037
-478.332	-4.467	0.059	-0.041
-477.318	-200.000	0.012	0.123
-476.303	672.449	0.072	0.187
-475.289	-150.218	-0.192	-0.015
-474.274	-141.072	-0.226	-0.023
-473.259	800.000	-0.023	-0.074
-472.245	121.352	0.129	0.161
-471.230	300.949	0.105	-0.195
-470.216	-139.081	-0.180	-0.020
-469.201	800.000	0.036	0.113
-468.186	46.841	0.078	-0.073
-467.172	-200.000	0.010	-0.177
-466.157	-82.950	-0.106	0.034
-465.143	-111.336	-0.434	-0.089
-464.128	-115.924	-0.040	-0.007
-463.113	4.024	0.207	-0.152
-462.099	459.499	0.029	-0.064
-461.084	-9.965	-0.161	0.107
-460.070	213.632	-0.178	-0.282
-459.055	-130.497	-0.077	-0.010
-458.040	-122.186	-0.261	0.043
-457.026	-77.358	-0.287	0.100
-456.011	172.263	0.092	-0.133
-454.997	145.474	-0.125	0.168
-453.982	-25.925	0.046	0.027
-452.968	-200.000	0.008	0.207
-451.953	218.724	0.085	-0.137
-450.938	80.563	0.189	0.204
-449.924	-31.669	-0.115	-0.065
-448.909	147.315	0.318	-0.430
-447.895	57.221	0.199	-0.195
-446.880	137.068	0.201	0.263
-445.865	800.000	0.101	0.301
-444.851	38.227	-0.058	-0.051
-443.836	73.775	0.305	-0.320
-442.822	-200.000	0.022	0.136
-441.807	-109.532	-0.083	-0.018
-440.792	-200.000	0.039	0.215
-439.778	789.184	-0.116	0.320
-438.763	158.130	0.035	-0.048
-437.749	-200.000	-0.038	0.505
-436.734	-119.611	-0.046	-0.008
-435.719	-0.804	-0.214	0.152
-434.705	-200.000	0.017	-0.136
-433.690	-45.696	0.127	-0.063
-432.676	-171.715	0.371	-0.012
-431.661	23.242	0.242	-0.199
-430.646	495.995	0.032	-0.074
-429.632	-200.000	-0.006	-0.145
-428.617	-200.000	0.008	0.268
-427.603	586.691	0.079	0.195
-426.588	-200.000	-0.014	0.131
-425.573	299.789	0.122	0.225
-424.559	219.173	0.177	0.284
-423.544	289.554	-0.143	-0.259
-422.530	-173.395	0.233	0.007
-421.515	-136.723	-0.184	-0.021
-420.500	-99.483	-0.198	-0.050
-419.486	137.551	0.044	0.058
-418.471	14.311	0.289	0.226
-417.457	-63.242	-0.183	-0.075
-416.442	24.909	0.283	-0.235
-415.428	-85.707	-0.072	0.022
-414.413	9.548	-0.057	0.044
-413.398	185.660	-0.021	0.032
-412.384	-200.000	0.002	-0.062
-411.369	573.374	-0.086	-0.211
-410.355	-114.789	0.103	-0.020
-409.340	69.972	-0.035	-0.036
-408.325	-70.200	0.173	-0.066
-407.311	138.677	0.085	0.111
-406.296	-82.222	-0.175	-0.057
-405.282	-72.447	0.282	-0.104
-404.267	29.843	0.156	0.133
-403.252	-200.000	0.019	-0.204
-402.238	-117.368	-0.156	-0.028
-401.223	-100.701	-0.271	-0.067
-400.209	-147.904	-0.243	0.020
-399.194	-39.052	-0.182	-0.096
-398.179	272.073	-0.087	-0.154
-397.165	-145.687	-0.106	0.010
-396.150	-100.801	-0.270	-0.066
-395.136	-19.405	0.125	0.078
-394.121	800.000	-0.038	0.137
-393.106	93.262	-0.054	-0.061
-392.092	-64.865	-0.260	-0.105
-391.077	-15.309	0.197	-0.126
-390.063	89.162	0.100	0.111
-389.048	88.415	0.202	-0.224
-388.033	264.479	0.143	-0.250
-387.019	-163.122	-0.360	0.017
-386.004	-200.000	-0.015	-0.085
-384.990	-20.202	0.113	0.070
-383.975	-186.065	0.157	0.002
-382.960	800.000	-0.096	0.304
-381.946	-24.053	-0.264	0.158
-380.931	-200.000	0.049	0.301
-379.917	-112.465	-0.255	-0.051
-378.902	-200.000	0.009	-0.239
-377.888	800.000	0.037	0.153
-376.873	-88.594	-0.313	0.093
-375.858	-137.501	0.240	0.027
-374.844	-116.301	-0.259	-0.048
-373.829	124.294	-0.067	0.085
-372.815	-200.000	0.042	0.190
-371.800	-5.395	0.201	-0.138
-370.785	-25.384	0.287	-0.170
-369.771	-5.981	-0.023	0.016
-368.756	115.369	0.136	-0.166
-367.742	12.168	-0.149	0.114
-366.727	-117.944	0.150	0.027
-365.712	122.406	-0.147	0.184
-364.698	7.630	0.312	0.234
-363.683	-200.000	0.083	0.445
-362.669	-200.000	0.014	0.063
-361.654	-137.476	-0.174	0.020
-360.639	-101.332	0.311	0.076
-359.625	40.746	0.237	0.214
-358.610	90.661	-0.099	0.111
-357.596	-31.532	-0.181	0.102
-356.581	-200.000	-0.041	0.282
-355.566	-142.859	-0.135	-0.013
-354.552	-200.000	0.035	0.279
-353.537	-88.850	0.362	0.107
-352.523	-200.000	-0.055	-0.329
-351.508	-200.000	-0.041	-0.283
-350.493	330.661	0.052	0.100
-349.479	800.000	-0.029	-0.121
-348.464	91.747	0.161	0.181
-347.450	-200.000	0.008	0.163
-346.435	50.308	0.088	-0.083
-345.420	-26.419	0.314	-0.184
-344.406	800.000	0.143	0.405
-343.391	64.608	-0.089	-0.090
-342.377	-92.470	-0.024	0.007
-341.362	-167.636	-0.114	-0.005
-340.348	36.389	-0.139	-0.122
-339.333	-200.000	-0.005	0.106
-338.318	8.337	0.164	0.123
-337.304	54.872	0.188	-0.181
-336.289	477.698	0.132	0.298
-335.275	181.470	-0.136	-0.200
-334.260	800.000	-0.072	0.213
-333.245	-200.000	0.048	0.266
-332.231	257.547	0.047	0.081
-331.216	143.170	-0.241	-0.320
-330.202	58.777	-0.057	0.056
-329.187	-200.000	-0.026	0.462
-328.172	115.667	0.070	-0.085
-327.158	220.510	0.077	-0.123
-326.143	-72.350	0.030	-0.011
-325.129	-14.227	0.217	-0.140
-324.114	-32.123	0.229	-0.128
-323.099	266.768	-0.082	0.143
-322.085	-200.000	-0.054	-0.252
-321.070	-200.000	0.004	-0.295
-320.056	800.000	-0.064	0.200
-319.041	-14.888	-0.228	-0.146
-318.026	226.948	0.042	0.068
-317.012	-73.489	0.168	0.061
-315.997	528.648	-0.037	0.086
-314.983	40.568	0.107	0.096
-313.968	151.392	-0.268	0.364
-312.953	227.633	-0.099	0.162
-311.939	-200.000	-0.038	-0.170
-310.924	54.272	0.238	0.228
-309.910	77.725	0.228	0.242
-308.895	-200.000	-0.020	-0.383
-307.880	27.969	-0.188	0.158
-306.866	128.922	0.241	-0.307
-305.851	-200.000	0.017	-0.262
-304.837	17.765	-0.036	-0.029
-303.822	800.000	0.047	0.165
-302.807	-33.063	-0.096	-0.053
-301.793	-48.671	-0.169	-0.081
-300.778	-138.740	-0.371	-0.040
-299.764	-136.900	0.128	0.015
-298.749	-142.658	-0.114	0.011
-297.735	-200.000	-0.045	-0.421
-296.720	-106.630	-0.076	-0.017
-295.705	-200.000	-0.075	0.361
-294.691	210.351	0.070	0.110
-293.676	354.424	0.058	-0.114
-292.662	-119.894	-0.360	0.062
-291.647	-15.862	-0.088	0.056
-290.632	80.619	-0.105	-0.112
-289.618	-57.120	0.146	0.064
-288.603	-1.638	-0.233	0.164
-287.589	51.081	-0.392	0.370
-286.574	-200.000	-0.001	-0.130
-285.559	-1.052	0.228	0.161
-284.545	67.052	0.068	0.069
-283.530	-200.000	-0.001	-0.034
-282.516	-200.000	-0.023	-0.214
-281.501	-107.810	0.117	0.025
-280.486	163.038	-0.110	0.155
-279.472	16.619	-0.208	0.164
-278.457	160.266	-0.052	-0.073
-277.443	157.437	0.127	0.175
-276.428	248.555	0.153	0.259
-275.413	120.817	0.094	-0.116
-274.399	68.004	0.046	-0.047
-273.384	-200.000	-0.033	0.245
-272.370	198.507	-0.099	-0.152
-271.355	-53.669	-0.262	-0.119
-270.340	-200.000	0.032	0.197
-269.326	800.000	0.066	-0.184
-268.311	-62.498	-0.305	-0.126
-267.297	-33.269	-0.273	0.150
-266.282	271.565	0.164	-0.287
-265.267	18.614	-0.266	0.212
-264.253	-31.275	0.085	-0.047
-263.238	-133.487	0.307	-0.038
-262.224	169.624	0.029	0.041
-261.209	-53.929	-0.032	0.015
-260.195	310.482	-0.031	-0.058
-259.180	540.914	0.056	-0.133
-258.165	800.000	0.062	-0.171
-257.151	48.303	0.081	0.076
-256.136	-145.370	0.356	-0.032
-255.122	-58.824	-0.229	-0.099
-254.107	-65.079	-0.222	0.089
-253.092	118.908	-0.103	0.127
-252.078	-15.343	0.256	-0.163
-251.063	-200.000	0.055	-0.284
-250.049	230.764	0.036	-0.059
-249.034	-122.577	-0.267	0.043
-248.019	25.578	0.235	-0.195
-247.005	373.618	-0.035	-0.070
-245.990	456.349	0.045	0.099
-244.976	-12.979	0.156	-0.101
-243.961	-61.580	-0.365	0.153
-242.946	-200.000	0.024	0.114
-241.932	-200.000	-0.051	-0.468
-240.917	-200.000	0.002	0.056
-239.903	-41.799	0.139	0.071
-238.888	251.995	0.101	-0.171
-237.873	800.000	0.051	-0.174
-236.859	-200.000	-0.006	0.056
-235.844	-200.000	0.086	0.445
-234.830	-95.494	-0.039	0.010
-233.815	19.919	0.178	-0.143
-232.800	-200.000	0.021	-0.349
-231.786	32.220	-0.112	0.096
-230.771	105.154	0.160	0.188
-229.757	705.204	-0.080	0.209
-228.742	-99.736	-0.099	-0.025
-227.727	-200.000	-0.004	-0.022
-226.713	52.912	-0.166	0.158
-225.698	800.000	-0.016	-0.057
-224.684	-200.000	-0.015	-0.431
-223.669	30.510	0.116	-0.099
-222.655	-156.767	-0.385	0.024
-221.640	-100.675	-0.202	-0.050
-220.625	-85.583	-0.255	-0.079
-219.611	-200.000	-0.016	0.291
-218.596	-200.000	-0.004	0.160
-217.582	-200.000	-0.004	0.272
-216.567	-85.057	0.291	0.091
-215.552	165.318	0.268	0.377
-214.538	624.720	0.063	0.158
-213.523	800.000	-0.054	0.228
-212.509	-2.018	-0.103	0.072
-211.494	-84.777	-0.423	-0.132
-210.479	15.279	-0.260	-0.202
-209.465	-6.902	0.173	0.117
-208.450	469.670	0.167	-0.374
-207.436	-6.040	-0.304	-0.207
-206.421	800.000	0.056	0.228
-205.406	-200.000	0.030	0.207
-204.392	370.120	-0.075	-0.152
-203.377	73.156	0.243	-0.253
-202.363	421.565	-0.107	0.228
-201.348	-200.000	0.022	0.329
-200.333	244.187	-0.047	-0.079
-199.319	151.213	0.248	-0.335
-198.304	290.492	-0.104	-0.187
-197.290	282.757	0.121	-0.217
-196.275	25.003	-0.157	0.130
-195.260	-200.000	-0.001	-0.022
-194.246	-200.000	0.010	0.060
-193.231	121.824	-0.120	-0.149
-192.217	248.587	0.135	-0.228
-191.202	-167.386	0.147	-0.006
-190.187	-200.000	-0.062	-0.298
-189.173	284.461	0.210	0.375
-188.158	340.596	0.139	0.270
-187.144	-98.205	-0.570	-0.145
-186.129	46.021	-0.149	-0.137
-185.114	800.000	0.063	-0.256
-184.100	-21.339	-0.091	-0.055
-183.085	-128.474	0.393	0.055
-182.071	-200.000	0.008	-0.246
-181.056	-150.581	-0.093	0.007
-180.042	23.987	-0.150	0.123
-179.027	117.215	0.036	-0.044
-178.012	36.681	0.172	0.150
-176.998	495.979	-0.051	0.117
-175.983	-200.000	0.478	0.002
-174.969	-23.128	-0.129	0.077
-173.954	-106.534	0.201	-0.044
-172.939	303.836	0.134	0.247
-171.925	-200.000	-0.061	-0.307
-170.910	43.775	0.223	0.202
-169.896	353.828	0.082	0.162
-168.881	-200.000	-0.004	0.045
-167.866	-56.041	-0.132	0.058
-166.852	75.996	-0.127	0.134
-165.837	147.911	0.072	-0.096
-164.823	561.729	0.097	0.234
-163.808	-200.000	0.020	0.193
-162.793	88.093	-0.156	-0.171
-161.779	293.087	0.233	-0.422
-160.764	255.619	0.170	-0.289
-159.750	128.108	0.072	0.091
-158.735	800.000	0.106	-0.320
-157.720	-143.968	-0.081	0.008
-156.706	-198.644	-0.389	0.002
-155.691	-200.000	0.019	-0.229
-154.677	-68.802	0.263	0.101
-153.662	-108.753	-0.283	0.060
-152.647	-200.000	0.007	-0.340
-151.633	12.367	0.158	-0.120
-150.618	83.873	0.126	0.137
-149.604	-148.704	0.275	-0.022
-148.589	-68.977	-0.040	-0.015
-147.574	-30.066	0.132	0.074
-146.560	-131.961	0.357	-0.046
-145.545	242.274	-0.149	0.247
-144.531	14.368	-0.109	0.084
-143.516	-200.000	0.010	-0.066
-142.502	-128.483	0.139	0.020
-141.487	-48.954	0.267	-0.127
-140.472	800.000	-0.131	-0.412
-139.458	-22.892	0.318	0.190
-138.443	-120.616	0.284	-0.048
-137.429	-120.940	-0.071	-0.012
-136.414	-96.608	0.074	-0.019
-135.399	258.809	0.097	-0.167
-134.385	-58.815	-0.049	0.021
-133.370	88.251	0.190	0.209
-132.356	-58.366	-0.229	0.099
-131.341	-142.934	0.227	0.022
-130.326	-58.111	-0.071	0.031
-129.312	173.374	-0.029	-0.042
-128.297	193.409	-0.176	0.264
-127.283	-200.000	0.037	-0.393
-126.268	-136.943	0.380	0.043
-125.253	-90.716	-0.016	-0.004
-124.239	-105.868	0.040	-0.009
-123.224	66.831	0.119	0.120
-122.210	-146.934	0.236	-0.020
-121.195	-200.000	-0.037	0.223
