DTS Sentinel unit serial number:	SN413079Multiplexer serial number:	ORYXHardware model number:	OX4-SRSoftware version number:	ORYX F/W v4.00 Oryx Data Collector v3.7.2.0data status	okinstallation	princeton_trtdifferential loss correction	single-endedforward channel	channel 1reverse channel	N/Adate	2019/09/11time	23:44:11forward acquisition time	60.00reverse acquisition time	0.00gamma	496.2192k internal	0.2318k external	0.2318temperature offset calibration	1.0072default loss term (dB/km)	0.3790temperature slope calibration	1.0000multiplexer offset coefficient	1.0000multiplexer slope coefficient	1.0000fibre end	0.00T internal ref (°C)	34.02T ext. ref 1 (°C)	1.94T ext. ref 2 (°C)	27.64length (m)	temperature (°C)	Stokes	anti-Stokes-747.200	-41.228	0.266	0.139
-746.185	-133.397	-0.236	0.030
-745.171	421.252	0.089	-0.192
-744.156	-93.403	0.318	0.089
-743.142	-3.067	-0.183	-0.129
-742.127	-20.376	0.255	0.159
-741.112	-200.000	0.018	0.111
-740.098	-156.981	0.152	0.009
-739.083	25.072	-0.214	0.180
-738.069	-114.913	0.372	0.072
-737.054	800.000	-0.084	-0.258
-736.039	-115.963	-0.106	0.020
-735.025	-12.110	0.315	0.208
-734.010	6.325	-0.184	-0.139
-732.996	236.288	0.113	-0.190
-731.981	17.018	0.203	0.163
-730.966	-31.596	-0.097	0.055
-729.952	800.000	-0.083	-0.307
-728.937	681.423	0.022	0.059
-727.923	646.734	-0.023	-0.059
-726.908	357.121	-0.187	-0.377
-725.894	84.994	-0.100	-0.111
-724.879	174.809	-0.055	0.080
-723.864	113.255	0.153	0.188
-722.850	-19.408	0.036	-0.023
-721.835	188.905	-0.148	-0.224
-720.821	-73.582	-0.229	-0.084
-719.806	513.863	0.014	0.033
-718.791	190.277	-0.194	0.295
-717.777	800.000	0.028	0.093
-716.762	113.411	0.081	-0.100
-715.748	800.000	-0.039	-0.162
-714.733	-42.105	0.089	-0.046
-713.718	17.127	-0.318	0.255
-712.704	800.000	-0.114	0.385
-711.689	-103.897	0.282	-0.067
-710.675	-138.813	0.051	-0.006
-709.660	-200.000	0.001	-0.101
-708.645	174.984	-0.234	0.343
-707.631	-200.000	0.069	-0.374
-706.616	765.244	-0.088	-0.241
-705.602	12.909	-0.284	0.222
-704.587	-54.052	0.196	-0.090
-703.572	294.465	0.041	0.075
-702.558	267.223	-0.201	0.356
-701.543	-97.504	-0.179	-0.047
-700.529	-25.338	0.108	0.064
-699.514	-136.881	-0.254	-0.029
-698.499	-63.666	-0.060	-0.025
-697.485	-54.349	-0.248	-0.113
-696.470	-200.000	-0.000	-0.414
-695.456	-200.000	-0.002	-0.108
-694.441	-161.998	0.250	0.013
-693.426	92.254	-0.007	-0.008
-692.412	-58.534	-0.224	-0.098
-691.397	-31.191	-0.227	0.129
-690.383	-26.021	0.174	-0.103
-689.368	452.166	-0.071	0.158
-688.354	-77.726	-0.150	0.052
-687.339	17.486	-0.144	-0.116
-686.324	-200.000	0.021	0.220
-685.310	-10.955	-0.246	-0.164
-684.295	-69.171	-0.185	-0.072
-683.281	-65.773	0.301	-0.122
-682.266	-134.295	-0.058	0.007
-681.251	-136.625	0.097	-0.011
-680.237	134.831	0.115	-0.151
-679.222	59.312	0.087	-0.087
-678.208	205.883	0.045	-0.070
-677.193	-11.880	0.140	-0.093
-676.178	-98.664	0.042	0.011
-675.164	194.659	-0.027	0.042
-674.149	425.237	0.065	-0.141
-673.135	-84.222	-0.135	-0.043
-672.120	-73.278	0.179	-0.066
-671.105	-200.000	0.023	0.234
-670.091	-200.000	0.022	0.099
-669.076	-45.900	-0.272	-0.135
-668.062	382.030	-0.117	0.242
-667.047	144.278	-0.199	-0.268
-666.032	158.895	-0.239	-0.335
-665.018	121.430	-0.102	0.129
-664.003	496.658	-0.021	-0.049
-662.989	-200.000	0.011	0.112
-661.974	-200.000	-0.042	-0.321
-660.959	-62.026	0.151	-0.064
-659.945	800.000	0.118	-0.367
-658.930	-200.000	0.004	-0.379
-657.916	-61.722	-0.211	0.089
-656.901	800.000	0.014	-0.056
-655.886	443.028	-0.129	0.285
-654.872	800.000	0.077	0.254
-653.857	-200.000	0.048	0.256
-652.843	-182.985	0.252	0.005
-651.828	-98.280	-0.432	0.112
-650.814	77.576	0.244	0.262
-649.799	-79.379	0.161	-0.055
-648.784	800.000	0.021	-0.080
-647.770	-109.725	0.109	-0.023
-646.755	-200.000	0.006	0.057
-645.741	369.346	0.090	-0.184
-644.726	-158.278	-0.113	0.007
-643.711	800.000	-0.033	-0.132
-642.697	-77.823	-0.392	0.136
-641.682	-8.802	0.231	-0.156
-640.668	-67.800	-0.421	0.166
-639.653	800.000	0.042	0.149
-638.638	10.478	-0.091	0.070
-637.624	-78.068	0.049	0.017
-636.609	79.671	-0.142	-0.153
-635.595	-66.971	0.345	0.137
-634.580	249.054	-0.070	0.120
-633.565	-114.876	-0.030	-0.006
-632.551	-200.000	0.049	0.252
-631.536	-200.000	-0.004	0.077
-630.522	800.000	0.043	-0.155
-629.507	800.000	0.142	0.422
-628.492	-200.000	-0.021	-0.167
-627.478	800.000	0.114	-0.360
-626.463	-200.000	-0.059	-0.275
-625.449	-139.973	-0.263	-0.028
-624.434	-200.000	0.020	-0.123
-623.419	-93.341	0.212	0.059
-622.405	571.470	-0.009	0.023
-621.390	-107.168	-0.117	-0.026
-620.376	201.476	-0.091	0.140
-619.361	-102.765	-0.314	0.075
-618.346	35.658	0.118	0.104
-617.332	-89.394	0.139	0.041
-616.317	83.481	0.163	0.178
-615.303	61.858	0.066	-0.066
-614.288	225.741	-0.058	-0.094
-613.273	-10.131	0.312	-0.208
-612.259	195.661	0.052	-0.079
-611.244	-196.274	-0.240	-0.002
-610.230	210.083	0.095	0.150
-609.215	-200.000	-0.037	-0.352
-608.201	-32.407	-0.108	-0.061
-607.186	-129.091	-0.171	-0.024
-606.171	-114.613	-0.153	-0.029
-605.157	161.586	-0.034	-0.048
-604.142	-18.843	0.119	-0.075
-603.128	116.598	-0.182	-0.225
-602.113	-200.000	-0.019	-0.103
-601.098	48.371	0.057	0.053
-600.084	254.450	0.045	0.077
-599.069	92.959	-0.075	-0.085
-598.055	-200.000	0.008	0.059
-597.040	-200.000	-0.085	-0.387
-596.025	111.556	-0.102	-0.123
-595.011	-81.095	0.135	0.045
-593.996	-21.699	-0.035	0.022
-592.982	-93.771	0.113	-0.031
-591.967	22.461	-0.025	0.020
-590.952	110.108	-0.257	-0.311
-589.938	28.567	-0.090	-0.077
-588.923	-15.131	-0.214	-0.138
-587.909	-200.000	0.138	0.000
-586.894	266.409	0.099	0.175
-585.879	-189.492	0.336	-0.004
-584.865	18.706	-0.148	-0.119
-583.850	-109.657	-0.100	-0.021
-582.836	800.000	0.050	-0.183
-581.821	-38.087	-0.211	-0.113
-580.806	800.000	0.085	0.358
-579.792	74.909	-0.298	-0.315
-578.777	174.713	-0.092	-0.134
-577.763	-200.000	-0.022	-0.125
-576.748	275.920	-0.068	0.121
-575.733	29.307	0.087	0.074
-574.719	-93.541	-0.176	0.049
-573.704	511.592	0.240	-0.561
-572.690	-200.000	-0.004	-0.081
-571.675	101.700	-0.276	-0.324
-570.661	-116.022	0.387	0.073
-569.646	81.542	-0.247	-0.269
-568.631	-113.911	0.420	0.082
-567.617	234.276	0.253	0.419
-566.602	-118.105	0.095	0.017
-565.588	176.517	0.140	-0.205
-564.573	64.043	-0.077	0.078
-563.558	-28.799	0.235	-0.136
-562.544	-83.682	-0.157	-0.050
-561.529	-4.668	0.269	0.187
-560.515	98.216	-0.207	0.240
-559.500	-58.598	-0.024	0.011
-558.485	-41.605	0.185	0.096
-557.471	32.688	-0.367	-0.319
-556.456	-139.353	-0.196	-0.021
-555.442	-80.458	0.179	-0.060
-554.427	22.364	-0.139	0.114
-553.412	48.481	-0.059	0.056
-552.398	-98.386	0.183	-0.047
-551.383	214.675	0.057	0.091
-550.369	65.074	-0.091	-0.092
-549.354	-200.000	0.043	0.194
-548.339	-125.797	0.172	0.026
-547.325	800.000	-0.102	-0.430
-546.310	-12.125	-0.117	-0.077
-545.296	-6.343	-0.332	0.227
-544.281	88.854	0.272	0.304
-543.266	488.003	0.062	-0.142
-542.252	800.000	-0.080	0.294
-541.237	71.994	0.185	0.193
-540.223	-125.661	0.205	-0.031
-539.208	132.877	-0.088	-0.114
-538.193	111.340	0.188	0.227
-537.179	-200.000	-0.015	0.262
-536.164	800.000	-0.039	-0.151
-535.150	-89.682	-0.341	-0.100
-534.135	-102.541	0.216	0.052
-533.121	-62.494	0.371	-0.155
-532.106	78.420	-0.187	-0.201
-531.091	-61.732	0.137	0.058
-530.077	11.046	0.163	-0.125
-529.062	-74.523	0.230	-0.083
-528.048	13.786	-0.204	-0.159
-527.033	-14.931	0.124	0.080
-526.018	-106.540	0.227	-0.051
-525.004	51.549	-0.191	0.182
-523.989	800.000	0.040	0.117
-522.975	116.940	-0.106	-0.130
-521.960	94.086	0.132	0.150
-520.945	-56.815	0.105	-0.047
-519.931	-200.000	-0.038	0.258
-518.916	256.634	-0.106	0.183
-517.902	-88.780	0.139	-0.041
-516.887	85.552	-0.130	0.143
-515.872	1.934	-0.273	-0.197
-514.858	-115.726	-0.136	0.026
-513.843	620.639	-0.082	-0.206
-512.829	43.481	-0.037	0.034
-511.814	-123.815	0.237	0.038
-510.799	-69.415	-0.161	-0.062
-509.785	-36.239	-0.328	0.178
-508.770	361.525	-0.059	0.119
-507.756	-147.866	-0.321	-0.027
-506.741	-80.578	-0.114	0.038
-505.726	-165.222	-0.145	-0.006
-504.712	-82.879	-0.121	0.039
-503.697	-88.018	-0.228	-0.069
-502.683	36.952	0.168	0.149
-501.668	66.185	-0.055	0.056
-500.653	785.681	0.032	-0.089
-499.639	-200.000	0.016	-0.176
-498.624	-200.000	-0.038	-0.383
-497.610	219.322	0.039	0.062
-496.595	174.182	0.071	-0.103
-495.581	-200.000	-0.002	0.408
-494.566	238.163	0.064	-0.106
-493.551	15.570	0.073	0.058
-492.537	578.555	0.055	0.136
-491.522	88.299	0.082	0.091
-490.508	-33.769	0.214	0.118
-489.493	-200.000	0.024	0.119
-488.478	-168.719	0.468	0.018
-487.464	183.574	-0.134	0.199
-486.449	193.228	-0.187	-0.283
-485.435	-200.000	-0.002	-0.096
-484.420	-109.603	0.187	-0.039
-483.405	-200.000	0.020	-0.211
-482.391	94.078	-0.120	-0.136
-481.376	-67.132	-0.340	-0.134
-480.362	-117.576	0.407	-0.074
-479.347	57.943	-0.121	-0.119
-478.332	800.000	-0.018	0.071
-477.318	-27.347	-0.222	-0.130
-476.303	800.000	-0.031	0.099
-475.289	-150.002	-0.340	0.027
-474.274	75.271	-0.244	-0.258
-473.259	384.113	-0.062	-0.127
-472.245	127.634	-0.322	0.410
-471.230	54.485	-0.208	0.201
-470.216	725.268	-0.160	0.426
-469.201	251.820	0.235	0.400
-468.186	-200.000	-0.037	0.220
-467.172	115.390	0.077	0.094
-466.157	-91.863	-0.207	0.059
-465.143	-100.613	-0.323	-0.080
-464.128	-48.436	0.230	0.111
-463.113	655.883	-0.072	-0.184
-462.099	-18.023	-0.244	-0.153
-461.084	-32.024	0.355	0.199
-460.070	713.345	-0.030	0.079
-459.055	98.320	-0.056	-0.065
-458.040	147.139	-0.025	-0.033
-457.026	800.000	-0.060	-0.186
-456.011	196.267	0.220	-0.335
-454.997	-200.000	-0.017	0.158
-453.982	104.266	0.214	-0.252
-452.968	-92.882	0.117	-0.033
-451.953	-200.000	0.005	-0.068
-450.938	-133.971	-0.165	0.020
-449.924	67.064	0.119	-0.121
-448.909	-200.000	0.071	-0.398
-447.895	-91.583	0.044	-0.013
-446.880	237.114	0.013	-0.022
-445.865	-34.487	0.234	0.128
-444.851	384.596	-0.127	0.262
-443.836	34.423	-0.117	0.102
-442.822	-124.432	-0.370	0.058
-441.807	65.246	0.354	0.358
-440.792	-159.219	0.290	0.016
-439.778	-83.552	0.148	0.047
-438.763	-88.213	0.180	0.054
-437.749	187.215	0.245	-0.366
-436.734	27.337	-0.114	0.096
-435.719	-200.000	0.006	0.199
-434.705	4.224	-0.145	-0.106
-433.690	-43.235	-0.130	-0.066
-432.676	124.311	-0.214	0.269
-431.661	-200.000	0.010	0.076
-430.646	-197.707	-0.068	0.000
-429.632	-200.000	-0.021	0.134
-428.617	-16.200	0.189	-0.120
-427.603	5.136	-0.102	-0.075
-426.588	-200.000	-0.020	0.315
-425.573	-137.558	0.185	0.021
-424.559	-44.217	-0.133	-0.067
-423.544	508.670	-0.070	-0.163
-422.530	800.000	0.052	0.201
-421.515	-200.000	-0.002	0.109
-420.500	-95.600	-0.258	-0.069
-419.486	800.000	-0.054	0.167
-418.471	14.828	0.015	0.012
-417.457	-185.016	-0.297	-0.005
-416.442	-200.000	-0.057	0.444
-415.428	138.844	-0.228	0.299
-414.413	465.221	-0.202	0.452
-413.398	800.000	-0.066	0.195
-412.384	5.229	0.117	0.086
-411.369	11.624	0.211	0.162
-410.355	8.233	0.341	-0.256
-409.340	-39.052	-0.099	0.052
-408.325	-200.000	0.033	-0.253
-407.311	-125.808	-0.263	-0.040
-406.296	-83.177	-0.339	-0.109
-405.282	-122.587	-0.345	0.056
-404.267	-135.539	0.158	0.019
-403.252	95.427	-0.188	-0.214
-402.238	0.568	0.251	0.179
-401.223	-200.000	0.037	0.000
-400.209	304.824	-0.074	0.137
-399.194	-200.000	0.041	-0.178
-398.179	206.771	-0.084	-0.130
-397.165	381.673	0.009	0.018
-396.150	-6.567	-0.064	-0.044
-395.136	507.011	0.062	-0.144
-394.121	156.994	0.096	-0.132
-393.106	-200.000	0.017	0.231
-392.092	-33.774	0.143	0.079
-391.077	76.902	-0.145	0.154
-390.063	-168.268	0.111	0.004
-389.048	-32.850	0.325	-0.180
-388.033	32.535	-0.241	0.208
-387.019	-131.547	-0.399	-0.052
-386.004	-200.000	-0.021	0.153
-384.990	133.882	0.360	-0.465
-383.975	-44.004	0.192	0.096
-382.960	-109.997	-0.131	-0.027
-381.946	-100.692	-0.230	-0.057
-380.931	-97.610	-0.067	0.017
-379.917	547.671	-0.016	-0.037
-378.902	55.690	0.202	-0.195
-377.888	-79.639	0.119	0.040
-376.873	-200.000	-0.033	0.198
-375.858	148.863	-0.138	-0.187
-374.844	99.068	-0.148	0.171
-373.829	-200.000	0.008	0.114
-372.815	-15.852	0.117	-0.074
-371.800	28.302	-0.151	-0.127
-370.785	72.348	0.056	0.058
-369.771	105.247	0.046	0.054
-368.756	140.796	0.146	-0.192
-367.742	800.000	-0.135	0.401
-366.727	7.863	0.156	0.117
-365.712	800.000	-0.038	-0.110
-364.698	-46.979	0.148	-0.072
-363.683	-130.568	0.123	0.017
-362.669	225.649	-0.093	-0.151
-361.654	154.158	0.111	0.152
-360.639	800.000	0.053	0.184
-359.625	-7.765	0.177	-0.119
-358.610	-48.905	0.204	-0.097
-357.596	-200.000	0.009	0.293
-356.581	67.157	0.236	0.240
-355.566	800.000	0.099	-0.380
-354.552	159.181	0.096	0.134
-353.537	41.077	-0.078	0.070
-352.523	589.160	-0.115	0.282
-351.508	-196.177	-0.210	0.001
-350.493	-60.278	-0.166	0.070
-349.479	391.357	0.153	0.316
-348.464	-99.761	-0.174	0.043
-347.450	-84.562	0.053	-0.017
-346.435	466.849	0.241	0.538
-345.420	319.321	0.157	0.296
-344.406	83.464	-0.155	0.168
-343.391	-61.013	0.140	0.059
-342.377	800.000	-0.077	0.285
-341.362	-200.000	-0.013	-0.275
-340.348	-10.790	-0.194	-0.128
-339.333	-41.646	-0.123	0.063
-338.318	-200.000	0.040	0.229
-337.304	-109.389	0.173	0.036
-336.289	100.414	0.335	-0.388
-335.275	800.000	0.080	-0.241
-334.260	-46.032	-0.221	0.108
-333.245	800.000	0.104	0.317
-332.231	247.550	-0.099	0.167
-331.216	800.000	0.045	0.127
-330.202	-200.000	-0.018	0.351
-329.187	246.612	-0.314	-0.527
-328.172	109.682	0.122	-0.145
-327.158	-149.251	0.411	-0.033
-326.143	-58.478	0.165	0.071
-325.129	708.570	0.076	0.200
-324.114	239.948	-0.228	0.379
-323.099	-24.010	0.158	0.094
-322.085	218.314	0.078	0.124
-321.070	239.934	-0.112	-0.185
-320.056	800.000	0.030	-0.094
-319.041	-200.000	0.079	0.368
-318.026	-155.213	-0.376	0.024
-317.012	-200.000	0.027	-0.346
-315.997	-40.024	-0.253	-0.131
-314.983	800.000	-0.053	-0.214
-313.968	172.199	0.063	0.090
-312.953	-146.265	-0.262	-0.023
-311.939	-161.910	-0.538	0.027
-310.924	8.729	0.270	-0.202
-309.910	-93.363	0.261	-0.072
-308.895	-173.845	-0.318	-0.009
-307.880	-162.320	-0.406	-0.020
-306.866	-86.508	0.077	0.023
-305.851	-200.000	0.004	-0.386
-304.837	800.000	0.044	0.128
-303.822	-200.000	-0.010	-0.206
-302.807	-71.684	0.207	0.077
-301.793	-15.423	0.283	-0.180
-300.778	77.430	0.399	-0.422
-299.764	-200.000	-0.025	0.162
-298.749	-3.050	-0.113	-0.078
-297.735	-121.306	-0.087	-0.014
-296.720	-89.077	0.129	0.038
-295.705	-200.000	-0.003	0.044
-294.691	-200.000	-0.007	0.047
-293.676	-3.360	-0.086	-0.060
-292.662	-23.701	0.350	0.209
-291.647	-54.609	0.086	-0.039
-290.632	-200.000	0.036	0.210
-289.618	-200.000	0.026	0.209
-288.603	-104.340	0.265	-0.061
-287.589	533.347	-0.116	-0.272
-286.574	-4.441	-0.121	-0.083
-285.559	-45.107	-0.004	-0.002
-284.545	99.321	-0.172	0.197
-283.530	-46.854	-0.129	-0.063
-282.516	-200.000	0.043	-0.304
-281.501	106.960	-0.125	-0.148
-280.486	72.941	0.068	-0.070
-279.472	-43.563	-0.134	-0.067
-278.457	-33.025	0.158	-0.087
-277.443	800.000	-0.035	0.127
-276.428	19.398	-0.237	-0.189
-275.413	-154.736	0.249	-0.016
-274.399	79.628	0.117	-0.125
-273.384	463.651	0.028	0.063
-272.370	-84.944	0.511	0.159
-271.355	-200.000	0.011	0.303
-270.340	5.685	0.107	0.079
-269.326	800.000	0.164	-0.462
-268.311	36.443	0.129	-0.113
-267.297	524.248	0.116	0.270
-266.282	-94.259	-0.054	-0.015
-265.267	-200.000	-0.012	-0.178
-264.253	-64.795	0.173	0.070
-263.238	-117.167	-0.006	-0.001
-262.224	800.000	-0.078	-0.305
-261.209	-10.083	0.059	-0.039
-260.195	-116.308	-0.126	0.023
-259.180	-200.000	-0.022	-0.475
-258.165	99.654	-0.128	-0.147
-257.151	59.357	0.070	0.068
-256.136	369.958	-0.199	-0.399
-255.122	-200.000	-0.027	-0.297
-254.107	40.241	0.062	-0.055
-253.092	-30.658	0.041	-0.023
-252.078	-200.000	-0.017	-0.264
-251.063	-30.415	-0.148	-0.083
-250.049	156.064	0.169	0.231
-249.034	800.000	0.070	-0.222
-248.019	87.902	0.202	-0.222
-247.005	180.333	0.134	-0.195
-245.990	-200.000	0.036	0.291
-244.976	104.877	-0.083	0.097
-243.961	13.646	-0.164	0.126
-242.946	-129.206	0.257	0.036
-241.932	-24.821	-0.145	-0.086
-240.917	-190.208	-0.332	0.004
-239.903	196.396	0.180	-0.273
-238.888	345.409	-0.084	-0.165
-237.873	-55.975	0.317	-0.140
-236.859	-200.000	-0.009	0.082
-235.844	324.960	-0.040	-0.076
-234.830	800.000	0.054	0.185
-233.815	159.847	0.075	0.103
-232.800	120.474	0.279	0.344
-231.786	-14.627	0.325	-0.207
-230.771	73.810	0.066	-0.068
-229.757	115.325	0.273	0.331
-228.742	68.043	0.107	0.108
-227.727	-71.422	-0.206	-0.077
-226.713	-144.280	0.065	0.006
-225.698	-200.000	-0.041	0.272
-224.684	-124.170	0.288	-0.045
-223.669	-58.462	-0.428	-0.184
-222.655	15.656	0.277	-0.216
-221.640	2.688	-0.228	-0.164
-220.625	-25.992	-0.143	0.083
-219.611	-200.000	-0.050	0.300
-218.596	494.296	0.105	-0.240
-217.582	-6.120	0.199	-0.134
-216.567	-26.290	0.188	-0.109
-215.552	263.142	-0.113	-0.194
-214.538	-6.635	0.047	-0.032
-213.523	579.617	0.139	-0.338
-212.509	-0.496	-0.109	0.076
-211.494	-144.419	0.031	-0.003
-210.479	84.632	0.062	0.068
-209.465	-4.023	-0.187	0.128
-208.450	-200.000	0.040	-0.262
-207.436	141.989	-0.187	0.246
-206.421	172.264	-0.178	-0.254
-205.406	-168.378	-0.164	-0.006
-204.392	800.000	0.047	-0.179
-203.377	51.135	0.085	-0.080
-202.363	-200.000	-0.092	-0.511
-201.348	123.178	-0.047	-0.058
-200.333	-200.000	-0.040	0.282
-199.319	-80.254	-0.168	-0.056
-198.304	505.078	-0.054	0.124
-197.290	27.806	0.153	0.128
-196.275	-200.000	-0.000	0.103
-195.260	-183.454	-0.197	0.003
-194.246	-200.000	-0.010	0.304
-193.231	99.905	0.067	0.077
-192.217	15.523	-0.283	0.220
-191.202	-126.088	0.014	0.002
-190.187	-16.692	-0.089	0.056
-189.173	-152.492	-0.305	0.022
-188.158	165.807	0.174	-0.244
-187.144	-114.728	0.201	-0.038
-186.129	-200.000	-0.001	0.084
-185.114	81.722	-0.160	-0.171
-184.100	-5.755	0.185	0.125
-183.085	436.805	-0.193	0.416
-182.071	320.683	0.084	-0.157
-181.056	327.864	-0.070	-0.133
-180.042	43.179	0.051	0.046
-179.027	229.428	-0.124	-0.201
-178.012	191.789	-0.121	0.181
-176.998	-49.790	0.196	-0.092
-175.983	25.245	0.367	0.301
-174.969	68.353	-0.352	0.357
-173.954	-172.624	0.369	-0.011
-172.939	451.622	0.173	-0.378
-171.925	-7.147	-0.116	-0.078
-170.910	-23.807	0.155	0.092
-169.896	800.000	0.086	0.344
-168.881	-92.543	-0.563	0.157
-167.866	1.580	0.222	-0.158
-166.852	190.062	-0.101	-0.149
-165.837	-29.804	0.312	-0.176
-164.823	-153.521	-0.244	0.017
-163.808	182.845	-0.185	0.270
-162.793	-200.000	-0.003	0.278
-161.779	-78.317	-0.197	0.067
-160.764	800.000	0.066	-0.275
-159.750	-65.575	0.243	-0.097
-158.735	-73.950	-0.072	0.026
-157.720	-200.000	-0.018	0.119
-156.706	-6.381	0.187	0.126
-155.691	-22.596	-0.184	-0.110
-154.677	-146.651	0.127	-0.011
-153.662	293.534	-0.046	0.084
-152.647	296.312	0.195	0.353
-151.633	-200.000	-0.067	0.308
-150.618	-200.000	-0.003	0.302
-149.604	-200.000	-0.017	0.254
-148.589	-72.764	-0.015	-0.006
-147.574	800.000	-0.043	0.153
-146.560	-200.000	-0.040	0.217
-145.545	81.015	-0.315	-0.336
-144.531	-200.000	-0.010	0.098
-143.516	18.179	-0.081	0.064
-142.502	800.000	0.044	-0.134
-141.487	-200.000	0.026	-0.179
-140.472	-51.916	0.133	0.061
-139.458	-200.000	-0.003	0.022
-138.443	124.008	0.129	0.160
-137.429	147.083	0.110	0.147
-136.414	226.111	-0.150	-0.241
-135.399	14.331	-0.169	-0.131
-134.385	658.693	-0.068	-0.172
-133.370	-105.879	-0.065	-0.014
-132.356	-70.317	-0.055	0.021
-131.341	-59.382	-0.164	-0.070
-130.326	-98.381	0.159	0.040
-129.312	369.667	-0.050	0.100
-128.297	-66.585	-0.204	-0.080
-127.283	35.232	-0.152	0.132
-126.268	181.739	0.111	0.162
-125.253	-88.051	-0.217	0.064
-124.239	-171.328	-0.167	-0.006
-123.224	75.131	0.180	0.187
-122.210	-112.928	0.257	-0.050
-121.195	90.631	0.299	-0.330
