DTS Sentinel unit serial number:	SN413079Multiplexer serial number:	ORYXHardware model number:	OX4-SRSoftware version number:	ORYX F/W v4.00 Oryx Data Collector v3.7.2.0data status	okinstallation	princeton_trtdifferential loss correction	single-endedforward channel	channel 1reverse channel	N/Adate	2019/09/11time	14:44:11forward acquisition time	60.00reverse acquisition time	0.00gamma	496.2192k internal	0.2292k external	0.2292temperature offset calibration	0.9983default loss term (dB/km)	0.3790temperature slope calibration	1.0000multiplexer offset coefficient	1.0000multiplexer slope coefficient	1.0000fibre end	0.00T internal ref (°C)	42.44T ext. ref 1 (°C)	0.91T ext. ref 2 (°C)	37.47length (m)	temperature (°C)	Stokes	anti-Stokes-747.200	164.071	-0.092	0.133
-746.185	314.003	-0.168	0.324
-745.171	289.887	0.133	0.248
-744.156	-200.000	0.057	0.345
-743.142	-115.364	-0.271	0.052
-742.127	345.498	0.049	-0.099
-741.112	800.000	-0.141	-0.500
-740.098	95.668	0.239	0.280
-739.083	53.944	0.205	-0.202
-738.069	-99.707	-0.258	0.066
-737.054	-35.449	0.296	-0.165
-736.039	800.000	-0.005	-0.020
-735.025	-182.991	0.072	-0.001
-734.010	-145.318	-0.321	-0.030
-732.996	451.125	-0.066	-0.150
-731.981	203.800	0.229	-0.363
-730.966	0.731	0.180	-0.132
-729.952	-162.325	-0.218	-0.011
-728.937	-33.921	-0.054	-0.030
-727.923	111.382	-0.243	0.300
-726.908	-57.651	-0.195	-0.088
-725.894	139.939	0.147	0.198
-724.879	-39.624	0.114	-0.061
-723.864	208.008	-0.072	-0.115
-722.850	306.061	0.126	0.239
-721.835	72.388	0.105	0.112
-720.821	-200.000	0.008	-0.037
-719.806	38.263	-0.078	-0.071
-718.791	230.305	0.108	0.181
-717.777	-135.344	0.041	-0.005
-716.762	-200.000	-0.000	0.148
-715.748	-68.281	0.105	0.042
-714.733	102.876	0.205	0.246
-713.718	2.633	-0.152	0.113
-712.704	629.298	-0.034	-0.087
-711.689	-10.122	0.195	-0.132
-710.675	-30.525	-0.093	-0.054
-709.660	-200.000	-0.001	-0.139
-708.645	147.467	-0.064	0.088
-707.631	-200.000	-0.007	-0.131
-706.616	-14.679	0.185	0.121
-705.602	478.800	-0.051	0.118
-704.587	800.000	-0.070	0.201
-703.572	-178.378	-0.133	0.003
-702.558	-200.000	0.005	-0.100
-701.543	-200.000	0.020	-0.144
-700.529	59.452	-0.061	-0.061
-699.514	118.027	0.218	-0.275
-698.499	800.000	0.066	0.224
-697.485	510.277	0.034	0.080
-696.470	139.674	0.134	0.180
-695.456	-200.000	-0.026	0.209
-694.441	108.133	0.118	0.143
-693.426	-200.000	-0.009	0.192
-692.412	95.715	0.131	0.152
-691.397	30.430	-0.149	0.130
-690.383	-200.000	0.006	-0.065
-689.368	-10.116	-0.215	0.146
-688.354	94.645	-0.087	-0.102
-687.339	114.135	-0.090	0.112
-686.324	608.954	-0.038	-0.097
-685.310	-200.000	0.025	-0.208
-684.295	351.039	-0.093	-0.188
-683.281	788.524	-0.044	0.124
-682.266	-107.130	0.179	0.040
-681.251	-90.482	-0.498	-0.147
-680.237	669.667	-0.163	-0.430
-679.222	352.262	-0.046	0.092
-678.208	-200.000	-0.011	-0.070
-677.193	162.084	0.158	-0.226
-676.178	244.239	-0.057	-0.098
-675.164	-93.404	0.193	-0.055
-674.149	-200.000	-0.000	0.061
-673.135	-37.253	-0.257	-0.140
-672.120	-86.565	-0.179	0.056
-671.105	-65.230	0.094	0.039
-670.091	800.000	0.126	-0.413
-669.076	-6.544	0.131	0.091
-668.062	38.258	0.124	0.113
-667.047	-35.693	0.178	-0.099
-666.032	800.000	0.117	0.493
-665.018	137.275	0.173	-0.230
-664.003	635.757	0.060	0.156
-662.989	-54.353	0.214	0.099
-661.974	323.251	-0.227	-0.442
-660.959	-6.023	0.139	-0.097
-659.945	-160.679	0.244	0.013
-658.930	-148.962	0.248	0.020
-657.916	-117.445	0.300	0.055
-656.901	-200.000	0.029	-0.261
-655.886	504.056	0.031	-0.073
-654.872	-120.368	0.152	0.026
-653.857	314.474	0.107	-0.205
-652.843	-183.962	-0.093	-0.002
-651.828	-156.555	0.703	0.045
-650.814	-107.886	-0.260	0.058
-649.799	-200.000	0.001	0.090
-648.784	-98.932	-0.177	0.046
-647.770	-200.000	-0.005	-0.179
-646.755	345.338	-0.121	-0.241
-645.741	-134.882	0.106	0.013
-644.726	220.596	-0.135	-0.220
-643.711	40.324	-0.248	0.228
-642.697	-200.000	0.001	-0.127
-641.682	800.000	0.132	-0.406
-640.668	-200.000	-0.045	-0.249
-639.653	184.830	-0.133	-0.200
-638.638	-200.000	0.044	-0.372
-637.624	-135.666	-0.166	0.020
-636.609	234.727	-0.142	-0.239
-635.595	191.121	-0.145	-0.222
-634.580	48.168	-0.243	0.232
-633.565	167.576	0.078	0.114
-632.551	7.364	-0.027	-0.020
-631.536	628.361	-0.007	0.018
-630.522	-87.648	-0.333	-0.103
-629.507	-32.587	0.309	0.175
-628.492	-156.301	-0.173	0.011
-627.478	-200.000	-0.020	0.263
-626.463	499.730	-0.111	-0.260
-625.449	-180.602	0.084	-0.002
-624.434	317.138	-0.232	-0.448
-623.419	417.132	0.060	-0.130
-622.405	693.085	-0.042	-0.113
-621.390	360.986	-0.135	0.275
-620.376	-200.000	-0.005	-0.197
-619.361	-71.698	0.201	0.077
-618.346	-9.600	0.307	0.209
-617.332	55.299	0.094	-0.093
-616.317	71.247	-0.028	0.030
-615.303	84.102	0.219	-0.244
-614.288	800.000	0.069	-0.206
-613.273	-200.000	-0.030	-0.173
-612.259	4.228	-0.165	0.123
-611.244	-65.006	0.174	0.072
-610.230	-200.000	0.021	-0.125
-609.215	-46.360	-0.348	-0.174
-608.201	-200.000	0.003	0.324
-607.186	-47.986	0.253	-0.125
-606.171	322.282	0.067	0.131
-605.157	-34.278	-0.291	-0.163
-604.142	704.335	-0.053	-0.143
-603.128	2.556	-0.197	-0.146
-602.113	-200.000	0.006	-0.230
-601.098	-200.000	0.041	0.254
-600.084	217.566	0.056	0.090
-599.069	-82.286	-0.282	-0.094
-598.055	14.092	0.197	-0.156
-597.040	48.082	-0.045	0.043
-596.025	73.238	0.082	0.088
-595.011	-15.499	-0.054	-0.035
-593.996	-66.923	0.381	-0.153
-592.982	88.796	0.113	-0.128
-591.967	-200.000	-0.018	0.105
-590.952	-66.186	0.106	0.043
-589.938	11.370	0.108	-0.084
-588.923	-177.758	0.479	0.012
-587.909	176.482	0.174	0.258
-586.894	-6.186	-0.107	-0.074
-585.879	318.901	0.189	-0.364
-584.865	-17.744	0.110	0.070
-583.850	279.529	-0.107	0.195
-582.836	320.504	-0.043	0.083
-581.821	-94.379	0.104	-0.029
-580.806	-84.908	0.281	0.090
-579.792	-200.000	-0.045	-0.643
-578.777	-76.598	-0.301	0.108
-577.763	225.665	0.079	0.130
-576.748	30.087	-0.264	-0.229
-575.733	140.575	0.057	-0.076
-574.719	254.660	-0.094	0.163
-573.704	-133.989	-0.316	0.040
-572.690	153.047	0.153	-0.213
-571.675	191.609	-0.035	0.054
-570.661	-37.800	0.268	0.145
-569.646	-45.987	-0.162	0.081
-568.631	-67.756	0.203	-0.081
-567.617	-82.910	0.156	-0.051
-566.602	776.624	-0.065	0.180
-565.588	242.662	-0.158	0.269
-564.573	-80.147	0.454	-0.155
-563.558	800.000	0.103	-0.317
-562.544	-36.311	0.186	0.102
-561.529	800.000	0.103	-0.454
-560.515	648.281	-0.172	-0.447
-559.500	294.159	-0.183	0.339
-558.485	-200.000	0.395	-0.002
-557.471	-51.744	0.201	0.095
-556.456	800.000	-0.057	-0.177
-555.442	-200.000	-0.060	-0.407
-554.427	-4.972	0.131	-0.092
-553.412	291.221	0.125	-0.230
-552.398	-56.682	-0.351	0.158
-551.383	296.297	-0.087	-0.162
-550.369	-126.578	0.308	-0.046
-549.354	-82.419	0.086	0.028
-548.339	-188.115	-0.185	0.002
-547.325	126.264	-0.018	0.023
-546.310	-104.402	-0.394	0.093
-545.296	800.000	-0.042	0.131
-544.281	67.838	0.122	-0.127
-543.266	75.589	-0.323	-0.347
-542.252	-124.466	-0.211	-0.033
-541.237	68.909	-0.291	0.304
-540.223	478.719	-0.103	0.237
-539.208	-200.000	0.037	-0.241
-538.193	-69.870	0.148	0.057
-537.179	-200.000	0.025	-0.133
-536.164	-62.982	-0.132	0.055
-535.150	218.427	0.223	0.361
-534.135	-167.010	-0.155	0.006
-533.121	800.000	0.099	-0.280
-532.106	-200.000	0.000	0.098
-531.091	800.000	0.130	0.392
-530.077	-133.779	-0.137	-0.017
-529.062	-200.000	-0.027	0.129
-528.048	15.133	0.189	0.150
-527.033	800.000	0.103	-0.366
-526.018	-200.000	0.025	-0.123
-525.004	129.990	0.119	0.155
-523.989	151.645	-0.102	0.141
-522.975	69.646	-0.074	0.077
-521.960	-2.990	-0.161	-0.114
-520.945	105.388	0.036	0.043
-519.931	-101.710	0.023	0.006
-518.916	-56.635	-0.047	-0.021
-517.902	210.554	0.051	0.082
-516.887	-19.177	0.007	0.004
-515.872	-116.068	-0.068	-0.013
-514.858	700.272	0.044	-0.116
-513.843	-200.000	-0.009	0.108
-512.829	139.974	0.123	-0.165
-511.814	-82.683	0.300	-0.098
-510.799	-200.000	-0.036	0.170
-509.785	134.952	0.098	0.129
-508.770	317.568	-0.081	-0.155
-507.756	-192.396	-0.075	-0.001
-506.741	-47.602	0.224	0.110
-505.726	-183.194	0.381	-0.007
-504.712	1.032	-0.119	0.086
-503.697	-141.532	-0.358	-0.037
-502.683	-200.000	-0.000	-0.219
-501.668	340.055	0.124	0.245
-500.653	-200.000	0.028	-0.137
-499.639	-153.058	-0.220	-0.016
-498.624	800.000	-0.048	0.187
-497.610	221.861	-0.095	0.155
-496.595	412.751	-0.067	0.145
-495.581	46.669	-0.139	0.130
-494.566	-200.000	0.048	-0.234
-493.551	-144.948	-0.114	-0.011
-492.537	-200.000	0.016	0.097
-491.522	-90.158	0.221	0.065
-490.508	-167.831	-0.183	0.007
-489.493	6.476	0.155	-0.117
-488.478	-200.000	-0.013	-0.375
-487.464	161.089	0.059	-0.084
-486.449	-200.000	-0.023	-0.395
-485.435	169.682	0.056	0.081
-484.420	143.426	-0.069	-0.092
-483.405	800.000	-0.122	-0.352
-482.391	-200.000	-0.012	0.164
-481.376	-171.497	-0.440	-0.015
-480.362	192.285	-0.083	0.127
-479.347	-200.000	0.025	-0.158
-478.332	114.102	-0.093	-0.115
-477.318	10.871	0.242	0.187
-476.303	609.287	0.053	0.134
-475.289	-200.000	0.086	-0.385
-474.274	-19.852	-0.359	-0.225
-473.259	-105.752	0.226	-0.052
-472.245	-33.800	0.184	0.103
-471.230	800.000	0.041	-0.163
-470.216	31.046	0.229	-0.199
-469.201	-200.000	-0.000	0.146
-468.186	90.813	-0.137	0.156
-467.172	-145.393	-0.084	-0.008
-466.157	-93.337	0.152	-0.043
-465.143	186.418	-0.102	0.154
-464.128	202.153	-0.098	-0.153
-463.113	800.000	-0.014	0.049
-462.099	-85.820	0.189	0.059
-461.084	141.745	0.233	-0.313
-460.070	79.777	-0.094	-0.102
-459.055	160.022	-0.028	-0.040
-458.040	-146.943	0.231	0.020
-457.026	-139.425	0.281	0.030
-456.011	-31.690	-0.237	0.134
-454.997	-89.198	-0.134	0.040
-453.982	136.043	0.058	-0.077
-452.968	-200.000	-0.051	0.335
-451.953	-14.767	-0.198	0.129
-450.938	96.314	0.041	0.048
-449.924	-161.749	-0.306	0.016
-448.909	-73.959	-0.210	0.077
-447.895	165.711	-0.097	-0.140
-446.880	233.120	0.148	-0.247
-445.865	33.212	-0.173	-0.152
-444.851	374.933	0.066	-0.136
-443.836	-11.847	-0.168	-0.112
-442.822	-135.870	-0.255	0.030
-441.807	-200.000	-0.017	0.311
-440.792	-200.000	0.003	0.188
-439.778	109.422	-0.150	-0.181
-438.763	231.259	-0.125	0.207
-437.749	90.125	-0.041	0.046
-436.734	-167.900	-0.179	-0.007
-435.719	800.000	-0.024	-0.095
-434.705	-48.261	0.273	-0.133
-433.690	250.171	-0.165	-0.283
-432.676	-10.172	-0.293	-0.197
-431.661	-22.979	0.144	0.088
-430.646	247.255	-0.162	0.277
-429.632	-117.192	0.148	0.027
-428.617	-200.000	0.034	0.244
-427.603	91.821	0.056	0.064
-426.588	800.000	0.044	-0.169
-425.573	-44.340	-0.047	0.024
-424.559	800.000	0.047	0.162
-423.544	180.298	-0.113	0.168
-422.530	38.584	-0.137	-0.124
-421.515	8.633	0.334	0.254
-420.500	-14.130	-0.089	-0.058
-419.486	-103.943	-0.206	0.049
-418.471	-93.099	0.281	-0.079
-417.457	-200.000	0.028	-0.183
-416.442	-114.270	-0.374	0.073
-415.428	-79.109	0.221	0.076
-414.413	-200.000	0.001	-0.098
-413.398	800.000	-0.078	-0.231
-412.384	427.621	-0.035	0.076
-411.369	-139.368	0.089	-0.010
-410.355	-2.538	0.274	-0.194
-409.340	108.373	-0.170	-0.205
-408.325	325.611	0.180	0.347
-407.311	-80.258	0.111	0.037
-406.296	-92.673	0.129	-0.037
-405.282	-67.653	0.080	0.032
-404.267	800.000	0.056	-0.199
-403.252	-200.000	0.023	0.141
-402.238	-200.000	0.051	0.268
-401.223	582.212	0.130	0.322
-400.209	800.000	-0.009	0.028
-399.194	-152.151	0.171	0.013
-398.179	-51.309	-0.045	0.021
-397.165	-95.163	0.157	0.043
-396.150	-121.826	0.126	0.021
-395.136	204.561	-0.146	0.229
-394.121	156.628	-0.164	-0.229
-393.106	-200.000	-0.021	-0.176
-392.092	-5.024	-0.163	-0.113
-391.077	800.000	-0.084	0.258
-390.063	-177.940	0.118	0.003
-389.048	800.000	0.086	0.267
-388.033	-200.000	-0.031	0.355
-387.019	294.067	-0.077	0.142
-386.004	-65.256	-0.205	-0.083
-384.990	61.548	-0.166	0.167
-383.975	-87.884	0.192	0.058
-382.960	-108.039	0.241	-0.053
-381.946	800.000	0.041	0.125
-380.931	218.085	-0.216	0.347
-379.917	800.000	-0.023	-0.083
-378.902	-200.000	0.027	0.289
-377.888	-87.826	0.380	0.115
-376.873	-31.842	-0.099	0.056
-375.858	-101.876	-0.112	0.027
-374.844	800.000	-0.023	-0.076
-373.829	-11.211	0.054	0.036
-372.815	547.966	0.108	-0.260
-371.800	-200.000	-0.041	0.305
-370.785	-173.872	0.158	-0.005
-369.771	-31.628	-0.187	-0.106
-368.756	-101.152	-0.111	0.028
-367.742	154.733	0.066	-0.092
-366.727	800.000	0.009	-0.031
-365.712	-58.286	0.208	0.091
-364.698	800.000	-0.028	0.122
-363.683	13.629	0.227	0.178
-362.669	-200.000	0.019	0.150
-361.654	-50.099	-0.510	-0.244
-360.639	137.822	0.154	0.204
-359.625	-26.523	-0.125	-0.074
-358.610	-6.044	-0.383	-0.264
-357.596	-110.552	-0.178	-0.037
-356.581	28.535	0.120	0.103
-355.566	142.894	-0.085	-0.113
-354.552	800.000	-0.027	-0.090
-353.537	-80.036	-0.268	0.091
-352.523	40.080	-0.400	0.363
-351.508	-41.280	0.265	0.138
-350.493	-79.907	-0.150	-0.051
-349.479	800.000	0.013	0.045
-348.464	-28.764	-0.162	0.094
-347.450	153.010	0.246	0.340
-346.435	31.526	0.043	-0.037
-345.420	160.494	0.205	-0.288
-344.406	122.504	-0.224	-0.282
-343.391	73.477	-0.116	-0.122
-342.377	-10.300	-0.160	-0.107
-341.362	466.580	0.114	-0.258
-340.348	-70.420	0.213	-0.081
-339.333	154.632	-0.240	0.332
-338.318	11.650	0.120	0.093
-337.304	-102.871	0.164	0.039
-336.289	-72.947	0.241	-0.089
-335.275	375.904	-0.112	0.229
-334.260	48.651	0.088	-0.083
-333.245	-31.215	-0.077	-0.043
-332.231	-43.050	-0.137	-0.070
-331.216	-200.000	-0.010	-0.100
-330.202	-18.284	-0.176	-0.111
-329.187	82.556	-0.136	-0.149
-328.172	25.279	0.225	-0.188
-327.158	2.516	-0.207	0.151
-326.143	174.758	-0.098	0.142
-325.129	-121.579	-0.259	0.043
-324.114	-112.251	-0.209	0.042
-323.099	446.056	-0.185	0.409
-322.085	666.952	-0.042	0.109
-321.070	-200.000	-0.033	-0.177
-320.056	-80.091	0.264	-0.089
-319.041	479.947	0.129	-0.294
-318.026	-200.000	-0.037	0.175
-317.012	-149.482	0.368	-0.029
-315.997	-111.826	-0.175	-0.036
-314.983	172.874	-0.153	0.222
-313.968	-34.471	-0.109	-0.060
-312.953	119.075	0.113	0.141
-311.939	-54.576	0.361	0.164
-310.924	-194.061	-0.343	0.003
-309.910	-71.900	-0.208	-0.078
-308.895	-151.066	-0.147	0.011
-307.880	368.295	0.102	-0.208
-306.866	-49.928	0.161	0.077
-305.851	85.197	-0.067	0.074
-304.837	63.324	-0.099	-0.100
-303.822	-29.268	0.107	-0.062
-302.807	94.036	0.239	-0.273
-301.793	57.519	0.253	-0.249
-300.778	-105.660	0.192	0.044
-299.764	-90.774	-0.081	-0.023
-298.749	257.443	-0.065	-0.112
-297.735	-75.954	-0.139	0.049
-296.720	-121.733	0.081	0.014
-295.705	323.641	0.050	-0.096
-294.691	201.211	-0.072	-0.112
-293.676	-109.621	0.257	0.055
-292.662	10.290	-0.383	0.293
-291.647	-200.000	-0.024	-0.123
-290.632	21.617	-0.140	0.115
-289.618	-13.013	-0.198	0.130
-288.603	238.270	-0.065	-0.108
-287.589	-87.537	-0.211	0.064
-286.574	-78.085	0.067	0.023
-285.559	50.288	0.188	0.179
-284.545	800.000	-0.049	-0.173
-283.530	45.972	0.272	0.253
-282.516	-200.000	0.045	0.216
-281.501	172.978	0.061	-0.088
-280.486	-0.457	0.073	-0.052
-279.472	161.154	0.103	0.145
-278.457	-59.047	-0.211	0.091
-277.443	-165.477	-0.273	-0.012
-276.428	800.000	0.079	0.283
-275.413	-200.000	0.012	-0.062
-274.399	-200.000	-0.043	0.208
-273.384	-99.199	-0.216	0.055
-272.370	-200.000	0.046	0.282
-271.355	-1.763	0.120	-0.085
-270.340	800.000	-0.054	0.229
-269.326	-82.204	-0.231	-0.076
-268.311	-80.185	-0.215	-0.072
-267.297	-200.000	-0.005	0.032
-266.282	-200.000	0.042	0.234
-265.267	-52.467	-0.206	0.096
-264.253	-127.683	0.442	-0.064
-263.238	-126.739	0.231	0.034
-262.224	-200.000	-0.009	-0.227
-261.209	-200.000	0.003	-0.050
-260.195	-46.989	-0.075	0.037
-259.180	147.838	0.012	0.016
-258.165	800.000	0.029	-0.097
-257.151	-128.302	-0.257	-0.037
-256.136	-200.000	0.003	-0.243
-255.122	-122.559	0.384	-0.063
-254.107	-200.000	0.061	-0.319
-253.092	-55.043	0.118	-0.054
-252.078	-200.000	-0.054	0.348
-251.063	482.236	0.090	-0.204
-250.049	-121.678	0.239	-0.040
-249.034	37.852	-0.070	-0.062
-248.019	-200.000	-0.008	-0.286
-247.005	800.000	0.059	-0.212
-245.990	-61.200	-0.075	-0.032
-244.976	-79.992	0.035	-0.012
-243.961	-200.000	0.022	0.188
-242.946	363.609	0.061	0.123
-241.932	-200.000	0.048	-0.217
-240.917	365.433	0.099	-0.200
-239.903	438.194	0.055	-0.121
-238.888	800.000	-0.133	0.442
-237.873	154.071	-0.204	0.281
-236.859	132.671	-0.137	0.178
-235.844	800.000	0.029	-0.107
-234.830	-109.806	0.050	0.010
-233.815	-115.258	0.108	-0.020
-232.800	-95.600	0.384	-0.103
-231.786	-0.654	0.211	-0.150
-230.771	-199.902	-0.186	0.001
-229.757	35.588	-0.110	-0.097
-228.742	-84.927	0.275	0.087
-227.727	-200.000	-0.002	-0.437
-226.713	-200.000	0.034	-0.207
-225.698	61.214	0.043	0.043
-224.684	50.546	0.260	0.246
-223.669	42.421	0.136	-0.124
-222.655	-49.969	-0.327	0.156
-221.640	46.312	-0.123	-0.114
-220.625	87.066	0.115	0.127
-219.611	-62.455	-0.073	-0.030
-218.596	-22.297	0.286	0.174
-217.582	-94.243	0.086	0.024
-216.567	77.686	-0.314	0.335
-215.552	302.345	0.179	-0.332
-214.538	-145.121	-0.313	0.029
-213.523	604.899	0.122	-0.304
-212.509	310.498	-0.006	0.011
-211.494	-127.694	0.250	-0.036
-210.479	164.645	0.288	0.408
-209.465	-200.000	-0.012	0.131
-208.450	-200.000	0.021	-0.173
-207.436	-37.836	0.139	0.074
-206.421	-200.000	0.041	0.287
-205.406	353.408	0.073	0.145
-204.392	-94.552	-0.205	0.056
-203.377	-200.000	-0.052	-0.317
-202.363	-90.411	0.126	0.037
-201.348	-200.000	-0.183	-0.000
-200.333	-186.633	0.338	0.005
-199.319	103.971	0.137	-0.162
-198.304	181.277	0.125	0.185
-197.290	800.000	0.071	-0.308
-196.275	18.580	-0.255	0.204
-195.260	-58.020	-0.085	0.037
-194.246	800.000	-0.024	-0.072
-193.231	-52.382	-0.282	0.131
-192.217	125.994	0.277	0.351
-191.202	105.606	0.151	-0.179
-190.187	-17.184	-0.100	-0.063
-189.173	-200.000	-0.022	0.205
-188.158	320.087	0.070	0.134
-187.144	245.930	-0.154	0.260
-186.129	-164.716	0.096	0.004
-185.114	-94.580	-0.047	0.013
-184.100	-110.917	-0.202	-0.042
-183.085	-151.954	0.213	-0.016
-182.071	-200.000	0.007	-0.060
-181.056	391.456	-0.079	-0.163
-180.042	15.531	0.167	-0.131
-179.027	60.995	-0.326	0.324
-178.012	800.000	0.035	0.129
-176.998	127.307	-0.173	0.220
-175.983	26.604	0.219	0.184
-174.969	-83.810	-0.364	-0.116
-173.954	416.376	0.094	0.201
-172.939	-200.000	-0.020	0.195
-171.925	31.332	0.059	0.051
-170.910	800.000	0.054	0.183
-169.896	115.180	0.262	-0.320
-168.881	442.197	-0.123	-0.270
-167.866	89.043	-0.398	0.444
-166.852	800.000	-0.004	-0.013
-165.837	-69.973	-0.213	0.081
-164.823	29.660	0.365	0.311
-163.808	-125.291	-0.385	0.059
-162.793	-115.474	0.140	0.026
-161.779	-141.393	0.511	0.052
-160.764	800.000	-0.054	0.179
-159.750	-24.494	0.125	0.075
-158.735	-200.000	0.063	-0.278
-157.720	-200.000	-0.011	0.076
-156.706	-69.468	0.250	0.096
-155.691	-13.710	0.087	-0.056
-154.677	-200.000	0.004	0.018
-153.662	800.000	0.043	0.145
-152.647	135.924	-0.106	0.138
-151.633	-73.868	0.331	-0.120
-150.618	112.454	0.075	0.091
-149.604	-45.623	-0.090	-0.045
-148.589	-200.000	0.002	0.132
-147.574	-17.485	-0.132	0.083
-146.560	42.918	0.167	-0.152
-145.545	800.000	-0.045	-0.197
-144.531	-84.996	0.117	0.037
-143.516	591.788	0.136	-0.335
-142.502	800.000	0.077	-0.233
-141.487	-73.313	0.393	-0.144
-140.472	-74.389	0.256	-0.092
-139.458	-75.969	0.093	0.033
-138.443	24.162	0.138	0.114
-137.429	-158.383	-0.308	0.018
-136.414	800.000	0.035	0.117
-135.399	144.739	0.134	-0.180
-134.385	159.500	-0.140	-0.194
-133.370	118.455	0.076	-0.094
-132.356	-73.508	0.248	0.090
-131.341	-200.000	0.014	0.082
-130.326	-200.000	0.035	0.255
-129.312	40.268	-0.058	0.052
-128.297	-200.000	0.010	-0.092
-127.283	565.323	-0.055	-0.133
-126.268	-36.113	0.307	0.166
-125.253	-90.583	0.322	-0.093
-124.239	-89.491	-0.211	0.062
-123.224	139.417	0.130	0.171
-122.210	-11.164	0.104	0.069
-121.195	39.317	-0.313	0.280
