DTS Sentinel unit serial number:	SN413079Multiplexer serial number:	ORYXHardware model number:	OX4-SRSoftware version number:	ORYX F/W v4.00 Oryx Data Collector v3.7.2.0data status	okinstallation	princeton_trtdifferential loss correction	single-endedforward channel	channel 1reverse channel	N/Adate	2019/09/12time	00:00:11forward acquisition time	60.00reverse acquisition time	0.00gamma	496.2192k internal	0.2318k external	0.2318temperature offset calibration	1.0073default loss term (dB/km)	0.3790temperature slope calibration	1.0000multiplexer offset coefficient	1.0000multiplexer slope coefficient	1.0000fibre end	0.00T internal ref (°C)	33.75T ext. ref 1 (°C)	2.00T ext. ref 2 (°C)	28.33length (m)	temperature (°C)	Stokes	anti-Stokes-747.200	-69.343	0.188	-0.073
-746.185	-200.000	0.057	0.291
-745.171	119.419	-0.031	0.039
-744.156	-200.000	0.029	0.419
-743.142	121.679	0.083	-0.105
-742.127	800.000	0.084	0.269
-741.112	547.086	0.065	0.158
-740.098	-64.288	-0.254	0.105
-739.083	-15.738	-0.183	-0.118
-738.069	800.000	0.049	-0.169
-737.054	-66.225	-0.213	0.086
-736.039	-40.652	-0.185	0.097
-735.025	776.440	0.062	0.170
-734.010	-200.000	0.035	0.176
-732.996	-54.626	-0.296	0.135
-731.981	800.000	0.065	-0.258
-730.966	-200.000	-0.012	0.156
-729.952	800.000	-0.081	-0.234
-728.937	-200.000	-0.019	-0.239
-727.923	-164.062	-0.283	-0.013
-726.908	-30.517	-0.210	-0.121
-725.894	1.844	-0.207	0.151
-724.879	-120.882	-0.293	-0.050
-723.864	118.240	0.120	0.150
-722.850	385.394	-0.111	-0.231
-721.835	-29.382	-0.300	0.174
-720.821	-100.351	0.051	-0.013
-719.806	800.000	-0.075	0.213
-718.791	-61.303	0.195	0.083
-717.777	800.000	-0.095	0.397
-716.762	-6.010	0.146	0.101
-715.748	800.000	0.070	-0.209
-714.733	800.000	-0.044	-0.162
-713.718	800.000	0.014	0.058
-712.704	6.770	-0.197	-0.148
-711.689	35.549	0.251	-0.223
-710.675	701.316	-0.121	-0.323
-709.660	43.769	0.092	-0.085
-708.645	227.539	0.148	-0.243
-707.631	-200.000	0.226	0.000
-706.616	195.656	0.176	0.271
-705.602	-156.858	-0.125	-0.008
-704.587	800.000	0.069	0.294
-703.572	800.000	-0.044	-0.187
-702.558	-51.472	0.246	0.116
-701.543	-77.318	-0.226	0.079
-700.529	800.000	-0.049	-0.181
-699.514	48.556	0.129	-0.123
-698.499	-95.442	-0.244	-0.066
-697.485	-83.401	-0.305	-0.099
-696.470	800.000	-0.049	-0.152
-695.456	-147.376	-0.150	0.013
-694.441	16.081	0.171	0.136
-693.426	-152.200	-0.310	0.023
-692.412	94.456	0.235	-0.270
-691.397	15.575	-0.274	-0.217
-690.383	10.340	0.255	0.196
-689.368	93.552	-0.235	0.269
-688.354	186.092	0.183	0.275
-687.339	48.271	-0.112	0.106
-686.324	-26.508	-0.542	-0.321
-685.310	92.128	-0.117	-0.133
-684.295	158.509	0.161	-0.226
-683.281	66.093	0.103	0.105
-682.266	48.716	0.275	0.260
-681.251	800.000	0.064	-0.238
-680.237	230.987	-0.180	0.297
-679.222	-200.000	0.038	0.172
-678.208	38.241	0.225	0.202
-677.193	-191.085	0.273	-0.003
-676.178	-174.838	0.293	-0.008
-675.164	-148.481	-0.162	-0.013
-674.149	459.723	-0.114	-0.255
-673.135	70.157	0.101	-0.105
-672.120	300.129	-0.133	0.247
-671.105	-14.765	0.126	-0.082
-670.091	-200.000	0.021	-0.162
-669.076	-121.165	0.142	0.024
-668.062	60.269	0.183	-0.183
-667.047	-22.705	0.351	0.214
-666.032	-13.005	0.034	0.022
-665.018	800.000	-0.037	0.116
-664.003	44.847	-0.105	-0.097
-662.989	-121.163	-0.138	0.023
-661.974	-127.157	0.136	0.020
-660.959	4.187	-0.340	0.251
-659.945	-200.000	-0.028	-0.135
-658.930	-70.333	-0.199	0.076
-657.916	75.493	0.040	0.043
-656.901	-174.271	0.243	0.007
-655.886	-25.694	-0.248	-0.147
-654.872	800.000	0.067	0.189
-653.857	800.000	-0.049	-0.167
-652.843	34.540	0.305	-0.268
-651.828	469.057	0.073	-0.166
-650.814	-200.000	-0.037	-0.230
-649.799	-200.000	-0.059	-0.438
-648.784	-36.307	-0.392	0.213
-647.770	800.000	-0.048	-0.194
-646.755	231.918	-0.104	-0.171
-645.741	-56.986	0.059	0.026
-644.726	800.000	-0.011	-0.031
-643.711	17.844	-0.187	-0.150
-642.697	-110.944	-0.155	-0.032
-641.682	19.755	-0.141	-0.114
-640.668	-200.000	0.028	-0.291
-639.653	-188.571	-0.094	0.001
-638.638	-59.039	0.200	0.087
-637.624	-68.910	-0.276	0.107
-636.609	-71.934	0.045	0.017
-635.595	-76.686	-0.119	-0.042
-634.580	-200.000	0.017	0.465
-633.565	-55.599	0.113	0.051
-632.551	0.729	0.289	-0.209
-631.536	-9.928	-0.159	0.107
-630.522	800.000	-0.068	0.234
-629.507	-200.000	-0.091	-0.415
-628.492	39.719	-0.182	-0.165
-627.478	-174.755	0.171	0.005
-626.463	301.535	0.061	-0.114
-625.449	800.000	-0.030	-0.128
-624.434	191.256	-0.131	0.199
-623.419	148.517	-0.049	-0.066
-622.405	0.805	-0.204	0.147
-621.390	-200.000	0.183	0.000
-620.376	324.336	-0.114	0.219
-619.361	-200.000	-0.010	0.078
-618.346	-4.450	0.254	-0.177
-617.332	800.000	0.064	-0.256
-616.317	-200.000	0.034	-0.255
-615.303	-200.000	0.010	0.270
-614.288	-44.300	-0.084	-0.042
-613.273	43.350	-0.195	-0.180
-612.259	12.031	0.187	0.145
-611.244	-163.230	-0.451	0.022
-610.230	149.374	-0.144	-0.196
-609.215	-151.719	-0.151	-0.011
-608.201	290.219	0.040	-0.073
-607.186	-73.355	-0.071	0.026
-606.171	-71.234	-0.387	0.146
-605.157	12.045	-0.180	-0.140
-604.142	65.778	-0.118	-0.120
-603.128	11.182	-0.073	-0.056
-602.113	117.549	-0.151	-0.187
-601.098	-9.676	-0.139	-0.093
-600.084	800.000	0.036	-0.149
-599.069	628.303	0.047	-0.121
-598.055	170.154	0.103	0.148
-597.040	-125.053	0.210	-0.033
-596.025	-34.094	-0.359	-0.199
-595.011	101.285	-0.202	0.237
-593.996	-121.299	0.214	0.036
-592.982	375.127	0.081	-0.165
-591.967	-87.772	-0.304	0.092
-590.952	24.798	-0.157	-0.131
-589.938	-200.000	0.003	-0.075
-588.923	11.545	-0.083	0.064
-587.909	-47.079	-0.168	0.083
-586.894	13.572	0.197	-0.154
-585.879	93.665	0.075	0.085
-584.865	-200.000	0.005	-0.061
-583.850	800.000	-0.093	-0.291
-582.836	-200.000	-0.002	-0.039
-581.821	51.787	-0.036	0.035
-580.806	-200.000	0.005	-0.032
-579.792	-200.000	-0.023	-0.204
-578.777	119.602	-0.087	0.108
-577.763	23.912	0.350	0.290
-576.748	699.928	0.056	-0.147
-575.733	-3.578	-0.128	-0.090
-574.719	-45.473	-0.329	0.164
-573.704	123.364	0.154	0.194
-572.690	-200.000	0.003	-0.025
-571.675	-200.000	-0.010	0.251
-570.661	-184.849	-0.326	-0.005
-569.646	245.492	-0.037	0.063
-568.631	140.805	-0.127	-0.169
-567.617	-200.000	-0.004	0.409
-566.602	-33.495	-0.314	0.174
-565.588	800.000	-0.039	-0.121
-564.573	152.265	-0.087	-0.119
-563.558	143.398	0.281	-0.377
-562.544	100.770	-0.251	0.294
-561.529	-52.216	0.074	0.035
-560.515	108.956	-0.152	-0.183
-559.500	-200.000	-0.031	0.242
-558.485	-170.430	-0.135	0.005
-557.471	34.695	0.198	-0.174
-556.456	105.250	0.130	0.155
-555.442	-200.000	0.009	-0.166
-554.427	-156.833	-0.408	0.025
-553.412	329.313	-0.157	-0.303
-552.398	99.600	-0.151	-0.176
-551.383	191.916	-0.197	0.298
-550.369	189.703	0.111	0.168
-549.354	-100.726	-0.127	-0.031
-548.339	-200.000	-0.002	0.078
-547.325	683.937	-0.093	0.243
-546.310	162.781	0.318	0.448
-545.296	170.819	-0.032	-0.046
-544.281	126.553	0.308	-0.391
-543.266	57.062	-0.110	0.108
-542.252	-97.228	-0.117	0.031
-541.237	255.564	0.081	0.139
-540.223	-16.895	0.289	0.183
-539.208	-200.000	-0.014	-0.340
-538.193	800.000	-0.086	0.264
-537.179	-200.000	-0.037	0.351
-536.164	20.506	-0.078	0.063
-535.150	-7.672	0.261	-0.177
-534.135	-64.141	0.364	-0.149
-533.121	-200.000	-0.035	0.171
-532.106	220.889	0.115	-0.185
-531.091	800.000	-0.046	-0.134
-530.077	51.817	0.203	-0.193
-529.062	-51.534	0.218	-0.102
-528.048	355.399	0.074	-0.147
-527.033	-74.879	0.254	0.091
-526.018	41.471	-0.133	-0.121
-525.004	45.968	-0.078	0.072
-523.989	143.626	-0.121	0.161
-522.975	79.402	-0.114	0.123
-521.960	-173.075	0.187	0.006
-520.945	160.509	0.078	0.109
-519.931	-200.000	0.016	0.184
-518.916	240.206	0.147	0.246
-517.902	368.241	0.072	-0.145
-516.887	182.127	-0.283	0.418
-515.872	-200.000	0.007	-0.184
-514.858	-14.014	-0.307	0.199
-513.843	-118.931	0.496	-0.087
-512.829	-69.781	-0.349	-0.134
-511.814	521.503	-0.070	0.164
-510.799	272.784	-0.090	0.159
-509.785	800.000	0.098	-0.311
-508.770	-53.687	0.478	0.219
-507.756	-153.094	0.340	-0.024
-506.741	-50.843	-0.070	0.033
-505.726	-137.102	-0.368	0.042
-504.712	-162.588	0.325	-0.016
-503.697	674.307	0.039	0.100
-502.683	301.769	0.084	0.155
-501.668	-48.311	-0.086	-0.042
-500.653	800.000	-0.057	-0.209
-499.639	800.000	0.033	-0.120
-498.624	-190.435	0.378	0.004
-497.610	206.963	-0.140	0.219
-496.595	63.483	-0.156	-0.156
-495.581	-72.156	0.163	-0.061
-494.566	-127.517	0.094	0.014
-493.551	800.000	-0.082	-0.347
-492.537	-132.578	-0.347	0.045
-491.522	34.522	0.126	0.110
-490.508	-74.190	0.194	0.070
-489.493	85.247	-0.266	0.292
-488.478	184.110	0.083	-0.122
-487.464	-29.268	0.105	-0.060
-486.449	-69.499	-0.241	-0.093
-485.435	-156.529	-0.167	0.010
-484.420	-200.000	-0.036	-0.250
-483.405	-76.524	-0.080	0.028
-482.391	800.000	0.103	-0.321
-481.376	-84.577	-0.157	-0.050
-480.362	800.000	-0.135	0.498
-479.347	9.538	0.131	-0.099
-478.332	-86.116	-0.184	0.057
-477.318	-81.427	-0.239	0.079
-476.303	-86.852	-0.443	0.136
-475.289	-39.863	0.205	0.107
-474.274	32.540	-0.149	-0.129
-473.259	-200.000	0.019	0.412
-472.245	-44.640	0.294	-0.147
-471.230	200.192	0.198	-0.305
-470.216	542.705	-0.100	-0.239
-469.201	-200.000	-0.031	-0.214
-468.186	65.301	-0.212	-0.215
-467.172	800.000	0.013	0.039
-466.157	54.635	-0.218	-0.211
-465.143	83.702	0.180	-0.197
-464.128	-26.634	-0.112	-0.065
-463.113	-63.245	-0.355	0.147
-462.099	800.000	0.060	0.263
-461.084	138.980	-0.068	-0.089
-460.070	-200.000	-0.019	0.175
-459.055	-125.294	0.139	0.021
-458.040	-200.000	0.004	0.146
-457.026	-147.330	0.184	-0.016
-456.011	774.630	-0.050	0.137
-454.997	-47.393	-0.190	0.093
-453.982	-69.760	-0.200	-0.076
-452.968	-200.000	-0.006	-0.120
-451.953	-75.105	-0.160	-0.057
-450.938	-103.602	-0.309	0.073
-449.924	168.678	-0.025	-0.036
-448.909	-113.837	0.329	0.064
-447.895	800.000	0.069	0.270
-446.880	-200.000	0.013	0.111
-445.865	64.242	-0.337	-0.340
-444.851	-200.000	-0.014	-0.237
-443.836	-200.000	0.052	-0.472
-442.822	91.499	0.056	0.063
-441.807	-200.000	0.018	-0.225
-440.792	-37.085	-0.152	-0.081
-439.778	235.742	0.092	-0.151
-438.763	81.692	0.189	-0.205
-437.749	-164.905	0.228	0.010
-436.734	-200.000	0.034	-0.159
-435.719	114.205	0.071	0.087
-434.705	493.782	-0.024	0.054
-433.690	-200.000	-0.025	-0.157
-432.676	800.000	-0.171	0.488
-431.661	150.531	-0.197	0.268
-430.646	-192.562	-0.334	0.003
-429.632	-38.939	0.232	-0.122
-428.617	-185.021	0.065	0.001
-427.603	69.463	0.102	0.105
-426.588	-200.000	-0.019	0.201
-425.573	-150.433	0.225	-0.017
-424.559	119.586	-0.070	-0.086
-423.544	339.467	0.175	-0.341
-422.530	-200.000	-0.009	-0.064
-421.515	-18.323	-0.218	-0.136
-420.500	-185.972	0.222	-0.003
-419.486	68.814	0.240	0.247
-418.471	45.274	-0.075	0.069
-417.457	-200.000	-0.024	0.136
-416.442	-200.000	-0.005	0.225
-415.428	71.015	-0.136	0.141
-414.413	-51.637	-0.182	-0.085
-413.398	174.811	0.163	0.235
-412.384	-200.000	0.004	0.311
-411.369	-92.179	-0.186	-0.052
-410.355	-145.249	0.345	0.031
-409.340	-200.000	0.079	-0.363
-408.325	-119.152	-0.219	-0.038
-407.311	-200.000	0.003	0.028
-406.296	-200.000	-0.012	-0.495
-405.282	59.534	-0.141	0.139
-404.267	450.095	0.037	0.082
-403.252	178.428	0.333	0.486
-402.238	-26.085	0.122	0.072
-401.223	60.597	-0.194	-0.192
-400.209	303.608	0.105	0.195
-399.194	-143.883	-0.226	-0.021
-398.179	42.697	-0.322	0.292
-397.165	-15.147	0.184	0.118
-396.150	324.342	0.160	0.306
-395.136	199.728	0.167	0.256
-394.121	91.245	0.014	0.016
-393.106	-169.727	-0.164	0.006
-392.092	-15.604	0.132	-0.084
-391.077	544.688	-0.135	0.321
-390.063	-129.514	0.275	-0.038
-389.048	-15.633	0.237	0.151
-388.033	-5.614	-0.230	-0.157
-387.019	-47.958	0.152	0.073
-386.004	179.050	0.140	0.204
-384.990	-28.494	0.240	-0.138
-383.975	158.376	0.122	0.169
-382.960	-148.313	0.047	0.004
-381.946	-200.000	-0.041	-0.221
-380.931	800.000	-0.090	-0.264
-379.917	619.866	-0.071	0.177
-378.902	107.203	0.037	0.044
-377.888	800.000	-0.017	-0.063
-376.873	-200.000	-0.009	-0.261
-375.858	1.103	0.124	-0.089
-374.844	800.000	-0.100	-0.294
-373.829	-31.086	0.040	0.022
-372.815	-71.675	-0.164	0.061
-371.800	-3.537	-0.094	0.065
-370.785	68.386	-0.218	0.223
-369.771	-200.000	-0.039	-0.287
-368.756	48.420	0.046	-0.043
-367.742	-99.473	-0.267	0.067
-366.727	705.929	-0.038	-0.101
-365.712	-91.004	0.097	-0.028
-364.698	800.000	-0.060	-0.196
-363.683	-53.118	-0.080	-0.037
-362.669	-200.000	-0.024	-0.115
-361.654	-186.168	0.152	0.002
-360.639	274.588	-0.260	-0.459
-359.625	-81.493	-0.065	0.021
-358.610	-150.888	-0.104	0.008
-357.596	232.755	0.030	-0.049
-356.581	-63.798	0.354	-0.145
-355.566	-12.150	0.223	0.146
-354.552	-200.000	-0.014	0.116
-353.537	800.000	0.096	0.389
-352.523	800.000	-0.103	0.416
-351.508	-166.116	0.164	0.007
-350.493	-107.578	0.183	-0.040
-349.479	800.000	0.066	-0.223
-348.464	-200.000	0.035	-0.236
-347.450	48.932	0.093	-0.087
-346.435	-110.161	-0.208	0.043
-345.420	218.704	0.090	-0.143
-344.406	-123.927	-0.288	0.045
-343.391	150.030	0.173	0.234
-342.377	571.918	-0.170	0.412
-341.362	-72.811	0.070	-0.026
-340.348	-126.906	0.133	-0.019
-339.333	614.805	-0.084	0.209
-338.318	-96.267	-0.243	-0.064
-337.304	160.300	0.118	0.164
-336.289	-134.275	-0.098	0.012
-335.275	83.197	0.077	0.083
-334.260	-114.380	0.126	-0.024
-333.245	-184.658	-0.268	0.004
-332.231	53.679	0.103	-0.098
-331.216	468.182	0.101	-0.226
-330.202	351.857	-0.177	0.349
-329.187	384.546	0.147	-0.302
-328.172	-151.727	0.550	-0.040
-327.158	-7.301	0.360	-0.243
-326.143	-122.095	0.068	0.011
-325.129	136.333	-0.013	0.016
-324.114	800.000	-0.100	0.295
-323.099	93.086	0.173	-0.194
-322.085	800.000	-0.049	0.137
-321.070	233.414	-0.123	-0.201
-320.056	-200.000	0.017	0.392
-319.041	-92.421	-0.168	0.047
-318.026	-143.095	-0.063	0.006
-317.012	252.312	-0.148	-0.251
-315.997	-78.836	0.343	-0.116
-314.983	-123.636	0.229	-0.036
-313.968	-53.344	0.195	-0.089
-312.953	-148.961	-0.083	0.007
-311.939	126.208	0.106	0.134
-310.924	-200.000	-0.023	0.200
-309.910	263.100	0.071	0.123
-308.895	383.632	-0.151	0.308
-307.880	-108.391	-0.187	0.040
-306.866	-144.171	0.239	0.022
-305.851	114.887	-0.208	0.252
-304.837	42.714	-0.103	-0.094
-303.822	-49.596	0.228	0.108
-302.807	441.086	-0.029	-0.062
-301.793	-14.261	-0.124	0.080
-300.778	800.000	0.161	0.518
-299.764	-37.019	0.119	0.064
-298.749	-48.043	0.143	-0.069
-297.735	800.000	-0.037	0.110
-296.720	-118.871	0.157	-0.027
-295.705	25.821	-0.310	-0.257
-294.691	-200.000	0.085	0.371
-293.676	39.818	0.103	-0.092
-292.662	-116.736	-0.221	-0.040
-291.647	310.595	-0.107	0.200
-290.632	-200.000	0.006	-0.257
-289.618	-7.278	0.202	-0.136
-288.603	201.076	-0.080	-0.123
-287.589	800.000	-0.050	0.154
-286.574	695.409	0.051	0.134
-285.559	701.460	0.062	-0.162
-284.545	70.268	0.185	0.190
-283.530	-70.817	0.194	0.073
-282.516	-141.610	-0.049	-0.005
-281.501	-77.179	0.412	-0.143
-280.486	-128.662	-0.322	-0.045
-279.472	13.624	-0.133	-0.103
-278.457	133.872	0.176	0.226
-277.443	-61.487	0.272	0.114
-276.428	420.698	0.055	0.117
-275.413	59.437	0.100	0.098
-274.399	736.615	-0.071	-0.190
-273.384	9.677	-0.060	-0.045
-272.370	-200.000	0.009	-0.041
-271.355	628.023	-0.067	-0.169
-270.340	-60.366	-0.337	0.142
-269.326	800.000	-0.020	0.064
-268.311	62.329	-0.242	-0.240
-267.297	-134.054	0.066	0.008
-266.282	410.695	-0.154	0.325
-265.267	-150.156	-0.337	0.026
-264.253	-200.000	0.004	-0.199
-263.238	-200.000	-0.050	0.275
-262.224	-30.082	-0.016	-0.009
-261.209	73.761	0.167	0.174
-260.195	-4.975	0.237	0.162
-259.180	-34.319	-0.184	0.100
-258.165	-200.000	0.073	0.357
-257.151	-26.575	-0.104	-0.060
-256.136	-119.227	0.328	-0.057
-255.122	168.113	-0.174	-0.245
-254.107	-143.286	0.499	-0.048
-253.092	-135.818	0.255	-0.030
-252.078	87.819	-0.185	-0.203
-251.063	-184.770	-0.157	0.002
-250.049	4.853	-0.122	0.089
-249.034	-3.510	0.295	-0.204
-248.019	42.901	0.096	-0.086
-247.005	-2.855	0.221	-0.153
-245.990	-105.306	0.269	-0.061
-244.976	-200.000	-0.039	-0.488
-243.961	110.777	0.099	0.118
-242.946	-1.278	0.257	0.180
-241.932	-85.707	-0.168	0.052
-240.917	-133.845	0.310	-0.038
-239.903	-106.784	-0.094	-0.021
-238.888	152.173	0.167	0.227
-237.873	-13.977	0.211	-0.135
-236.859	30.469	-0.242	0.205
-235.844	-106.718	-0.342	0.075
-234.830	-92.854	0.117	-0.033
-233.815	-138.857	0.140	0.015
-232.800	-69.158	0.222	0.085
-231.786	-56.812	0.166	-0.073
-230.771	792.645	0.057	0.154
-229.757	-99.026	-0.407	0.102
-228.742	-74.423	0.333	0.119
-227.727	775.571	0.188	0.510
-226.713	-200.000	-0.004	-0.126
-225.698	-62.907	0.296	-0.121
-224.684	-97.521	0.333	-0.086
-223.669	-98.037	0.130	0.033
-222.655	-200.000	-0.063	-0.328
-221.640	-93.777	0.205	0.056
-220.625	196.707	-0.185	-0.280
-219.611	300.328	-0.121	0.221
-218.596	-58.636	-0.301	-0.130
-217.582	398.210	-0.093	-0.194
-216.567	-75.999	0.126	-0.044
-215.552	-200.000	0.054	0.298
-214.538	800.000	0.075	-0.251
-213.523	-0.305	0.096	0.068
-212.509	-84.814	0.183	0.057
-211.494	800.000	0.047	-0.183
-210.479	-15.844	-0.273	0.172
-209.465	-179.538	-0.198	0.004
-208.450	800.000	0.100	-0.324
-207.436	30.267	0.170	0.144
-206.421	-200.000	0.041	0.217
-205.406	-128.385	-0.104	0.015
-204.392	18.297	0.076	-0.060
-203.377	-188.100	0.434	-0.006
-202.363	-115.881	0.149	0.028
-201.348	-107.184	0.101	-0.022
-200.333	-164.801	-0.186	0.008
-199.319	-10.614	-0.031	-0.021
-198.304	-22.194	0.160	-0.096
-197.290	-112.268	-0.432	-0.086
-196.275	-123.262	0.066	0.011
-195.260	-45.883	-0.100	0.049
-194.246	-140.051	0.264	0.028
-193.231	-128.211	-0.037	0.005
-192.217	-115.072	0.037	0.007
-191.202	-200.000	0.030	0.208
-190.187	800.000	0.076	-0.218
-189.173	-74.520	0.211	-0.075
-188.158	-200.000	-0.026	-0.421
-187.144	153.916	0.163	-0.221
-186.129	-200.000	0.013	0.243
-185.114	113.334	-0.073	-0.088
-184.100	-46.029	-0.048	0.024
-183.085	-64.244	0.235	-0.095
-182.071	92.007	0.142	-0.158
-181.056	-200.000	0.020	0.108
-180.042	-87.459	-0.228	-0.068
-179.027	-96.894	-0.285	0.074
-178.012	-150.954	-0.260	0.019
-176.998	130.338	0.148	0.188
-175.983	12.392	-0.067	0.051
-174.969	211.348	-0.135	-0.211
-173.954	-133.590	0.323	0.040
-172.939	-102.582	-0.082	0.019
-171.925	101.151	-0.179	0.206
-170.910	800.000	-0.051	-0.157
-169.896	523.481	0.080	-0.186
-168.881	344.835	-0.065	0.127
-167.866	-200.000	-0.069	0.314
-166.852	248.602	-0.103	-0.173
-165.837	-200.000	0.015	0.069
-164.823	-124.552	0.214	-0.033
-163.808	69.601	0.035	-0.036
-162.793	-7.234	-0.201	0.135
-161.779	24.388	0.137	-0.112
-160.764	800.000	0.051	0.221
-159.750	161.313	0.127	-0.176
-158.735	-187.838	-0.321	0.004
-157.720	-93.130	-0.211	-0.058
-156.706	-91.305	0.439	0.124
-155.691	-102.297	-0.293	-0.070
-154.677	28.440	-0.326	-0.272
-153.662	-59.550	0.036	0.015
-152.647	17.477	0.277	-0.217
-151.633	-200.000	-0.013	-0.396
-150.618	-144.884	0.085	0.008
-149.604	-200.000	0.027	0.146
-148.589	800.000	0.044	-0.122
-147.574	-41.472	0.201	-0.102
-146.560	10.919	0.067	-0.051
-145.545	-134.800	0.237	0.028
-144.531	129.848	0.066	0.083
-143.516	-6.888	-0.045	0.030
-142.502	191.498	-0.017	-0.026
-141.487	-116.065	-0.302	0.056
-140.472	-2.552	0.238	-0.165
-139.458	243.677	0.185	0.306
-138.443	275.344	0.059	0.104
-137.429	-120.804	-0.090	-0.015
-136.414	542.886	0.057	-0.135
-135.399	-200.000	0.095	0.462
-134.385	-200.000	0.008	0.187
-133.370	800.000	0.044	-0.174
-132.356	-136.372	0.455	0.052
-131.341	-50.248	0.371	0.173
-130.326	-55.956	-0.074	0.033
-129.312	-200.000	-0.024	-0.112
-128.297	800.000	0.029	0.078
-127.283	-172.620	0.297	-0.009
-126.268	-200.000	-0.004	-0.235
-125.253	-200.000	0.025	0.147
-124.239	-149.922	0.187	-0.014
-123.224	-117.416	-0.456	0.081
-122.210	800.000	0.083	0.234
-121.195	800.000	-0.074	-0.287
