DTS Sentinel unit serial number:	SN413079Multiplexer serial number:	ORYXHardware model number:	OX4-SRSoftware version number:	ORYX F/W v4.00 Oryx Data Collector v3.7.2.0data status	okinstallation	princeton_trtdifferential loss correction	single-endedforward channel	channel 1reverse channel	N/Adate	2019/09/12time	06:00:11forward acquisition time	60.00reverse acquisition time	0.00gamma	496.2192k internal	0.2320k external	0.2320temperature offset calibration	1.0046default loss term (dB/km)	0.3790temperature slope calibration	1.0000multiplexer offset coefficient	1.0000multiplexer slope coefficient	1.0000fibre end	0.00T internal ref (°C)	32.08T ext. ref 1 (°C)	1.57T ext. ref 2 (°C)	27.40length (m)	temperature (°C)	Stokes	anti-Stokes-747.200	800.000	0.176	0.505
-746.185	-86.409	-0.203	0.063
-745.171	641.275	-0.070	0.181
-744.156	-200.000	0.061	0.328
-743.142	-69.173	-0.329	-0.128
-742.127	800.000	0.058	0.182
-741.112	-69.481	-0.186	-0.072
-740.098	-89.210	-0.087	0.026
-739.083	329.548	0.099	0.193
-738.069	-66.102	0.125	0.050
-737.054	-108.338	-0.237	0.052
-736.039	-200.000	0.024	-0.221
-735.025	-70.996	0.481	0.183
-734.010	95.457	-0.117	0.135
-732.996	45.432	-0.176	-0.164
-731.981	-42.993	0.070	0.036
-730.966	24.873	-0.395	-0.331
-729.952	-200.000	0.033	-0.218
-728.937	-55.421	-0.242	-0.109
-727.923	800.000	-0.072	-0.253
-726.908	-147.269	-0.089	0.008
-725.894	-200.000	0.001	-0.135
-724.879	800.000	0.049	-0.215
-723.864	-200.000	-0.004	0.122
-722.850	800.000	0.040	0.113
-721.835	-37.634	0.062	0.033
-720.821	-31.870	0.180	0.102
-719.806	256.956	0.003	0.004
-718.791	85.648	-0.034	0.038
-717.777	-65.312	-0.267	-0.108
-716.762	-200.000	-0.026	-0.218
-715.748	-118.072	-0.368	0.066
-714.733	-200.000	-0.062	-0.469
-713.718	380.625	-0.065	0.135
-712.704	-183.172	0.212	0.004
-711.689	-14.321	-0.220	0.143
-710.675	-82.086	-0.433	0.143
-709.660	-124.703	-0.368	0.058
-708.645	-93.067	-0.260	0.073
-707.631	800.000	-0.059	0.229
-706.616	-200.000	0.026	-0.561
-705.602	-59.758	0.251	0.109
-704.587	800.000	0.026	0.109
-703.572	260.896	0.340	-0.594
-702.558	65.024	0.089	-0.090
-701.543	56.763	-0.134	-0.132
-700.529	-62.490	0.031	-0.013
-699.514	54.527	-0.112	0.109
-698.499	-200.000	0.042	-0.350
-697.485	38.245	-0.503	-0.452
-696.470	126.009	0.199	0.254
-695.456	-145.276	-0.190	-0.017
-694.441	-9.086	-0.060	-0.041
-693.426	-53.959	-0.130	-0.060
-692.412	-138.456	-0.303	-0.034
-691.397	233.818	0.060	0.099
-690.383	-84.002	-0.226	-0.072
-689.368	372.100	-0.074	0.152
-688.354	800.000	-0.040	-0.132
-687.339	356.024	0.229	-0.459
-686.324	-87.798	0.100	0.030
-685.310	35.877	-0.178	-0.158
-684.295	-140.114	0.069	0.007
-683.281	-140.494	-0.219	-0.023
-682.266	461.099	0.143	-0.321
-681.251	-200.000	0.012	-0.066
-680.237	-105.684	-0.245	0.056
-679.222	151.981	-0.214	-0.294
-678.208	800.000	0.050	-0.159
-677.193	800.000	-0.039	0.126
-676.178	-86.725	-0.276	-0.085
-675.164	315.652	-0.101	0.192
-674.149	-67.424	-0.285	-0.113
-673.135	544.300	-0.083	-0.199
-672.120	800.000	0.089	-0.299
-671.105	800.000	0.093	-0.286
-670.091	-200.000	-0.037	-0.180
-669.076	666.147	-0.138	0.358
-668.062	800.000	0.045	-0.142
-667.047	160.560	0.009	-0.012
-666.032	-49.141	0.217	-0.105
-665.018	-31.706	0.066	-0.037
-664.003	800.000	0.025	-0.107
-662.989	-29.449	-0.354	-0.204
-661.974	-200.000	-0.093	0.421
-660.959	-147.428	-0.346	-0.029
-659.945	-200.000	0.027	-0.246
-658.930	-122.423	0.104	-0.017
-657.916	432.596	-0.165	0.360
-656.901	21.462	-0.207	0.170
-655.886	385.537	0.087	-0.180
-654.872	-70.906	-0.279	-0.106
-653.857	162.450	-0.072	0.102
-652.843	236.608	0.086	-0.143
-651.828	-200.000	-0.026	-0.133
-650.814	-55.699	-0.206	0.093
-649.799	591.052	0.148	0.367
-648.784	29.843	0.136	0.116
-647.770	-138.234	0.030	0.003
-646.755	-130.344	-0.107	-0.015
-645.741	-49.144	-0.333	0.160
-644.726	-200.000	-0.031	-0.182
-643.711	-200.000	-0.037	-0.167
-642.697	-106.962	0.224	0.050
-641.682	-191.611	-0.302	0.003
-640.668	120.335	0.156	0.195
-639.653	128.998	-0.090	0.115
-638.638	64.482	-0.175	0.178
-637.624	-63.997	-0.169	0.069
-636.609	-56.053	-0.187	0.084
-635.595	-75.472	-0.394	0.141
-634.580	14.456	-0.185	0.145
-633.565	38.869	-0.087	0.078
-632.551	-138.488	-0.087	-0.010
-631.536	2.856	-0.148	0.108
-630.522	12.687	0.149	-0.116
-629.507	800.000	-0.038	0.115
-628.492	-86.379	0.167	0.052
-627.478	800.000	0.050	0.138
-626.463	13.022	0.128	-0.100
-625.449	-200.000	0.000	-0.179
-624.434	107.835	-0.195	0.234
-623.419	-19.998	0.274	0.170
-622.405	-200.000	0.011	-0.355
-621.390	493.164	0.086	-0.198
-620.376	118.671	0.170	0.211
-619.361	-200.000	-0.004	-0.085
-618.346	-27.417	-0.181	-0.106
-617.332	-105.590	-0.269	-0.061
-616.317	-108.813	0.302	-0.065
-615.303	-120.089	-0.191	-0.033
-614.288	800.000	-0.100	0.311
-613.273	159.241	-0.118	-0.166
-612.259	-139.108	-0.169	-0.018
-611.244	271.364	-0.178	-0.315
-610.230	-106.354	-0.150	0.034
-609.215	-43.008	-0.201	0.103
-608.201	800.000	0.124	-0.351
-607.186	-200.000	0.030	-0.180
-606.171	-119.625	-0.216	-0.037
-605.157	400.214	0.087	-0.184
-604.142	-45.523	-0.114	-0.057
-603.128	-200.000	-0.010	-0.140
-602.113	800.000	-0.124	-0.364
-601.098	11.482	0.135	0.104
-600.084	-63.044	0.208	-0.086
-599.069	222.797	-0.140	0.226
-598.055	167.046	-0.180	-0.256
-597.040	174.406	-0.106	0.155
-596.025	554.485	-0.082	0.199
-595.011	-72.240	-0.266	0.099
-593.996	-143.404	-0.483	-0.046
-592.982	-12.330	-0.083	0.055
-591.967	69.520	0.244	0.252
-590.952	175.046	-0.129	0.188
-589.938	-6.532	0.165	0.113
-588.923	270.110	0.099	0.174
-587.909	-59.051	0.269	0.117
-586.894	-43.040	0.100	0.051
-585.879	-56.867	0.061	0.027
-584.865	-107.376	-0.317	-0.070
-583.850	639.766	-0.109	-0.279
-582.836	369.071	-0.055	-0.112
-581.821	800.000	-0.114	0.382
-580.806	-143.984	0.136	-0.013
-579.792	-132.316	-0.358	0.047
-578.777	-131.193	0.072	-0.010
-577.763	-200.000	-0.003	-0.115
-576.748	800.000	0.091	0.324
-575.733	-200.000	0.003	0.095
-574.719	35.444	0.076	0.067
-573.704	-200.000	-0.032	-0.173
-572.690	101.631	-0.109	-0.128
-571.675	800.000	-0.024	-0.075
-570.661	-200.000	0.034	0.156
-569.646	171.054	-0.188	0.270
-568.631	-200.000	-0.028	-0.291
-567.617	800.000	-0.143	-0.422
-566.602	-87.591	0.224	0.068
-565.588	59.679	0.008	0.008
-564.573	-27.409	-0.092	-0.054
-563.558	-36.939	-0.294	0.158
-562.544	-200.000	0.022	-0.115
-561.529	-15.326	0.188	-0.121
-560.515	35.392	-0.067	-0.059
-559.500	21.599	-0.084	-0.069
-558.485	140.280	-0.326	-0.431
-557.471	-21.354	0.223	-0.137
-556.456	-137.392	-0.191	-0.022
-555.442	242.826	0.037	-0.063
-554.427	-157.770	-0.367	0.022
-553.412	401.997	-0.134	0.284
-552.398	-79.408	-0.077	-0.026
-551.383	-200.000	0.042	0.196
-550.369	800.000	-0.055	0.169
-549.354	2.272	0.373	0.271
-548.339	235.704	-0.149	-0.247
-547.325	800.000	0.035	-0.111
-546.310	66.331	0.106	-0.108
-545.296	51.972	-0.241	-0.231
-544.281	143.612	0.120	-0.160
-543.266	-200.000	-0.016	-0.209
-542.252	-30.946	0.209	-0.118
-541.237	35.249	-0.107	0.094
-540.223	-200.000	0.014	-0.416
-539.208	406.742	0.041	0.086
-538.193	72.099	-0.096	-0.100
-537.179	-200.000	0.043	0.330
-536.164	49.959	-0.068	0.064
-535.150	21.540	-0.047	0.039
-534.135	-130.896	-0.168	0.023
-533.121	-200.000	0.052	-0.232
-532.106	800.000	-0.009	-0.027
-531.091	711.652	-0.077	0.204
-530.077	-200.000	-0.003	-0.144
-529.062	270.435	-0.195	-0.344
-528.048	289.158	-0.097	0.176
-527.033	-18.801	-0.054	-0.034
-526.018	-200.000	0.025	-0.508
-525.004	-149.854	0.196	0.015
-523.989	-200.000	-0.010	0.099
-522.975	377.399	-0.087	0.178
-521.960	-153.247	0.362	-0.025
-520.945	-200.000	-0.005	0.144
-519.931	111.968	0.183	-0.222
-518.916	435.938	0.065	0.142
-517.902	-200.000	0.036	-0.177
-516.887	-7.806	-0.011	0.008
-515.872	-200.000	0.013	-0.179
-514.858	-72.721	0.169	0.062
-513.843	140.735	-0.103	-0.137
-512.829	-43.246	0.209	-0.106
-511.814	739.411	-0.156	-0.419
-510.799	465.592	-0.107	0.241
-509.785	-71.827	0.347	-0.130
-508.770	-128.550	-0.256	-0.036
-507.756	448.614	0.140	-0.310
-506.741	800.000	0.044	-0.184
-505.726	359.498	0.042	-0.085
-504.712	12.254	-0.174	-0.134
-503.697	63.664	0.250	-0.252
-502.683	-141.708	-0.057	-0.006
-501.668	-145.572	-0.115	0.010
-500.653	-26.312	-0.040	-0.023
-499.639	645.228	0.052	0.133
-498.624	270.197	-0.083	0.147
-497.610	240.206	-0.225	0.375
-496.595	-200.000	0.008	0.083
-495.581	-200.000	0.014	0.125
-494.566	-59.538	-0.177	-0.076
-493.551	151.286	0.078	-0.106
-492.537	-85.401	0.220	-0.069
-491.522	-200.000	0.001	0.026
-490.508	-200.000	0.018	0.269
-489.493	3.762	0.330	0.241
-488.478	800.000	0.046	-0.142
-487.464	-134.048	0.269	-0.033
-486.449	-200.000	0.008	0.257
-485.435	216.423	0.102	-0.162
-484.420	-63.165	-0.282	-0.117
-483.405	493.976	-0.102	0.235
-482.391	-200.000	-0.001	-0.222
-481.376	-200.000	0.006	-0.136
-480.362	-200.000	0.008	-0.233
-479.347	18.770	0.203	-0.163
-478.332	-162.095	0.134	0.007
-477.318	175.815	0.139	0.203
-476.303	563.619	0.162	0.392
-475.289	-21.112	0.043	0.026
-474.274	82.833	-0.111	-0.121
-473.259	-147.505	-0.363	-0.031
-472.245	64.489	0.172	0.173
-471.230	168.092	0.117	0.167
-470.216	-200.000	0.018	0.083
-469.201	-80.155	0.240	0.080
-468.186	800.000	0.018	-0.072
-467.172	-124.779	0.091	-0.014
-466.157	99.030	0.134	0.155
-465.143	41.555	0.162	-0.147
-464.128	-159.252	0.157	-0.009
-463.113	-57.727	-0.164	0.072
-462.099	67.512	0.215	0.220
-461.084	436.531	0.020	-0.044
-460.070	-200.000	0.075	-0.364
-459.055	-200.000	-0.001	-0.371
-458.040	-58.842	0.207	0.089
-457.026	-200.000	0.001	0.141
-456.011	-200.000	-0.001	-0.078
-454.997	-28.272	-0.247	-0.143
-453.982	275.641	-0.236	-0.419
-452.968	-200.000	-0.020	-0.269
-451.953	221.548	-0.136	0.218
-450.938	508.016	0.062	-0.143
-449.924	44.293	-0.211	-0.194
-448.909	520.786	-0.088	0.205
-447.895	42.995	-0.222	-0.202
-446.880	-92.983	0.172	-0.048
-445.865	-187.644	0.117	0.002
-444.851	800.000	0.024	0.096
-443.836	50.913	-0.354	0.335
-442.822	-200.000	0.018	0.304
-441.807	-17.796	0.051	0.032
-440.792	-152.682	0.095	0.007
-439.778	201.706	-0.062	-0.095
-438.763	51.207	0.121	0.115
-437.749	134.532	-0.059	0.077
-436.734	-100.998	0.155	-0.038
-435.719	1.063	-0.146	0.105
-434.705	749.662	-0.060	0.162
-433.690	800.000	0.069	-0.250
-432.676	-200.000	-0.018	-0.139
-431.661	82.493	0.225	-0.243
-430.646	-200.000	-0.003	0.167
-429.632	122.679	-0.163	0.204
-428.617	-12.881	-0.133	0.086
-427.603	1.634	-0.093	0.067
-426.588	800.000	0.014	0.047
-425.573	146.349	-0.092	-0.124
-424.559	207.930	0.104	0.162
-423.544	-89.119	-0.235	-0.069
-422.530	98.796	0.087	-0.100
-421.515	24.315	0.111	0.091
-420.500	94.860	0.225	0.255
-419.486	7.098	-0.165	-0.123
-418.471	-87.443	0.139	-0.042
-417.457	-92.400	-0.571	0.160
-416.442	101.787	-0.273	-0.318
-415.428	-9.559	0.331	0.221
-414.413	-140.821	-0.051	0.005
-413.398	-200.000	0.022	-0.460
-412.384	-200.000	0.027	-0.138
-411.369	-32.112	0.268	0.150
-410.355	-200.000	0.005	0.220
-409.340	489.887	0.032	-0.073
-408.325	153.500	0.071	-0.097
-407.311	-200.000	-0.005	0.391
-406.296	84.185	0.101	0.110
-405.282	-54.236	0.260	-0.118
-404.267	-101.962	-0.254	0.061
-403.252	800.000	-0.041	0.125
-402.238	217.735	0.156	0.249
-401.223	233.728	0.104	0.171
-400.209	-200.000	-0.074	-0.355
-399.194	53.373	-0.141	-0.135
-398.179	69.651	0.073	0.075
-397.165	-111.580	0.200	-0.041
-396.150	-62.735	-0.355	0.147
-395.136	5.563	-0.146	0.107
-394.121	-200.000	-0.021	0.349
-393.106	27.668	0.146	0.122
-392.092	-200.000	-0.006	0.069
-391.077	118.850	0.249	-0.307
-390.063	-43.018	-0.149	0.075
-389.048	274.665	-0.035	-0.061
-388.033	375.248	0.091	-0.185
-387.019	139.605	-0.094	0.124
-386.004	-200.000	-0.052	-0.356
-384.990	115.829	-0.251	-0.306
-383.975	-186.162	0.218	0.003
-382.960	-200.000	-0.035	-0.218
-381.946	800.000	-0.082	-0.229
-380.931	154.181	0.146	-0.199
-379.917	-200.000	-0.047	0.276
-378.902	800.000	0.037	0.147
-377.888	-167.247	-0.315	-0.013
-376.873	74.189	-0.072	0.075
-375.858	800.000	0.033	0.139
-374.844	10.715	-0.360	0.274
-373.829	-195.022	-0.300	0.002
-372.815	178.953	0.126	0.183
-371.800	-200.000	-0.010	0.182
-370.785	-53.014	0.178	0.082
-369.771	-152.413	0.040	0.003
-368.756	-112.743	0.264	-0.052
-367.742	769.868	-0.042	-0.115
-366.727	23.133	0.172	0.141
-365.712	-200.000	0.035	0.179
-364.698	31.907	0.155	-0.133
-363.683	800.000	-0.044	0.146
-362.669	635.112	0.014	-0.036
-361.654	32.290	-0.120	0.104
-360.639	70.711	0.209	0.216
-359.625	-142.521	-0.127	0.012
-358.610	611.677	0.087	0.217
-357.596	-37.405	0.299	0.159
-356.581	-113.160	-0.253	0.050
-355.566	427.442	0.088	0.190
-354.552	-39.076	0.028	0.015
-353.537	-200.000	-0.009	0.082
-352.523	-200.000	-0.044	-0.265
-351.508	-55.593	-0.340	0.152
-350.493	-200.000	0.036	0.201
-349.479	-19.476	-0.151	-0.093
-348.464	800.000	0.045	-0.131
-347.450	6.289	0.148	-0.110
-346.435	389.924	-0.020	-0.041
-345.420	-8.307	-0.260	-0.174
-344.406	230.531	0.086	0.140
-343.391	800.000	-0.042	-0.158
-342.377	800.000	-0.046	-0.169
-341.362	-88.369	0.371	0.110
-340.348	800.000	0.054	-0.201
-339.333	-37.815	0.123	0.065
-338.318	800.000	0.048	-0.189
-337.304	800.000	-0.006	-0.025
-336.289	-141.058	-0.401	-0.041
-335.275	800.000	-0.067	-0.238
-334.260	-200.000	0.014	0.071
-333.245	69.005	0.223	0.228
-332.231	-143.183	-0.241	-0.023
-331.216	800.000	0.082	-0.240
-330.202	328.691	-0.021	-0.040
-329.187	-200.000	0.020	-0.128
-328.172	496.885	-0.130	-0.298
-327.158	29.733	0.062	0.053
-326.143	459.122	0.017	0.038
-325.129	147.186	0.053	-0.070
-324.114	-4.414	-0.270	-0.186
-323.099	11.473	-0.034	0.026
-322.085	-42.126	-0.076	0.039
-321.070	34.958	-0.137	0.120
-320.056	7.535	0.096	0.071
-319.041	-120.267	-0.258	0.044
-318.026	783.600	0.050	0.137
-317.012	717.297	0.112	0.295
-315.997	82.742	0.174	0.188
-314.983	-200.000	0.002	0.058
-313.968	-200.000	0.043	0.291
-312.953	457.110	-0.112	-0.248
-311.939	70.222	0.213	0.219
-310.924	-61.716	0.355	0.148
-309.910	8.119	-0.414	0.309
-308.895	210.024	0.110	0.171
-307.880	103.801	-0.027	-0.032
-306.866	167.902	-0.060	0.085
-305.851	800.000	-0.085	0.337
-304.837	-31.244	0.347	-0.195
-303.822	-139.404	0.265	-0.028
-302.807	-15.281	-0.218	-0.138
-301.793	6.946	-0.039	-0.029
-300.778	-39.594	0.424	-0.220
-299.764	59.701	-0.178	-0.175
-298.749	86.291	0.147	0.161
-297.735	800.000	-0.026	0.107
-296.720	15.061	0.187	0.146
-295.705	116.250	0.158	-0.193
-294.691	417.534	-0.114	0.243
-293.676	-108.496	-0.090	-0.019
-292.662	52.240	-0.258	0.245
-291.647	-91.839	-0.321	-0.090
-290.632	-108.147	-0.192	-0.041
-289.618	-200.000	0.035	0.418
-288.603	-143.832	0.385	0.036
-287.589	-7.563	0.312	0.210
-286.574	-82.073	0.276	-0.090
-285.559	-40.743	0.134	-0.069
-284.545	-92.872	-0.533	-0.148
-283.530	-121.928	0.302	-0.049
-282.516	71.202	0.028	0.029
-281.501	346.195	0.133	-0.259
-280.486	-25.808	-0.107	0.063
-279.472	143.581	-0.162	-0.215
-278.457	-200.000	0.033	-0.201
-277.443	-200.000	0.000	-0.438
-276.428	434.072	0.067	0.145
-275.413	-18.218	0.376	0.233
-274.399	452.774	-0.034	-0.074
-273.384	-122.190	0.423	0.069
-272.370	-132.374	-0.197	0.025
-271.355	514.602	-0.163	-0.378
-270.340	-200.000	-0.020	-0.144
-269.326	-56.562	-0.378	0.166
-268.311	289.570	0.109	0.196
-267.297	424.814	-0.176	-0.377
-266.282	800.000	0.043	-0.177
-265.267	88.951	0.214	0.236
-264.253	29.079	0.331	-0.278
-263.238	-200.000	0.044	-0.386
-262.224	34.972	-0.233	-0.203
-261.209	159.453	-0.199	-0.275
-260.195	800.000	-0.086	0.298
-259.180	-88.722	0.094	-0.028
-258.165	-13.867	-0.040	-0.026
-257.151	112.358	0.133	0.159
-256.136	-171.192	-0.157	0.005
-255.122	-200.000	-0.004	0.160
-254.107	547.031	-0.086	0.203
-253.092	110.581	-0.213	-0.254
-252.078	130.960	0.086	-0.110
-251.063	-29.749	0.136	-0.077
-250.049	-200.000	0.057	0.388
-249.034	-116.890	-0.336	-0.061
-248.019	186.816	0.161	-0.238
-247.005	422.765	-0.099	-0.211
-245.990	46.825	0.246	0.227
-244.976	-200.000	0.015	0.162
-243.961	-129.206	0.348	0.048
-242.946	106.018	0.178	-0.209
-241.932	-75.566	0.271	-0.095
-240.917	14.089	0.509	0.393
-239.903	-69.856	0.087	-0.033
-238.888	28.851	0.286	-0.240
-237.873	800.000	-0.082	0.237
-236.859	-37.824	-0.239	0.126
-235.844	-35.593	-0.179	-0.096
-234.830	13.176	-0.120	0.092
-233.815	-21.218	0.120	0.073
-232.800	14.950	0.015	-0.012
-231.786	800.000	-0.127	0.380
-230.771	642.677	-0.028	0.071
-229.757	-200.000	0.023	0.205
-228.742	314.244	0.205	-0.382
-227.727	800.000	0.051	0.167
-226.713	66.955	0.074	-0.074
-225.698	-200.000	0.010	-0.052
-224.684	-200.000	-0.038	-0.242
-223.669	-106.286	-0.136	-0.030
-222.655	281.632	0.130	-0.231
-221.640	610.515	0.109	-0.270
-220.625	38.971	-0.143	-0.127
-219.611	332.862	0.062	0.120
-218.596	256.873	-0.075	0.128
-217.582	303.708	0.092	0.168
-216.567	-9.582	0.089	-0.059
-215.552	38.785	-0.117	-0.104
-214.538	692.638	0.129	-0.336
-213.523	-177.314	0.452	-0.011
-212.509	-200.000	0.010	0.105
-211.494	-60.168	-0.386	0.163
-210.479	-200.000	0.019	0.305
-209.465	72.219	-0.163	0.168
-208.450	-200.000	-0.016	0.545
-207.436	135.646	0.190	0.244
-206.421	-200.000	-0.007	0.077
-205.406	23.038	0.082	0.066
-204.392	800.000	-0.009	0.031
-203.377	-137.687	-0.236	-0.026
-202.363	277.748	-0.149	0.262
-201.348	-21.962	-0.261	0.157
-200.333	-57.506	-0.364	0.158
-199.319	18.067	0.121	-0.096
-198.304	344.854	0.092	0.179
-197.290	465.561	-0.051	-0.113
-196.275	-200.000	0.042	0.233
-195.260	-149.728	0.167	-0.013
-194.246	-200.000	-0.020	-0.478
-193.231	-65.581	0.097	-0.039
-192.217	10.737	0.381	0.287
-191.202	-193.281	0.195	0.002
-190.187	65.350	0.085	0.085
-189.173	35.286	0.125	-0.108
-188.158	-89.546	-0.117	-0.034
-187.144	-39.084	0.137	-0.071
-186.129	399.845	0.076	-0.157
-185.114	-200.000	-0.032	-0.265
-184.100	744.236	-0.045	0.120
-183.085	240.903	0.124	0.204
-182.071	26.238	0.214	0.177
-181.056	-124.621	0.291	0.045
-180.042	-171.703	-0.016	-0.001
-179.027	128.661	0.210	0.264
-178.012	-23.882	0.158	-0.094
-176.998	22.519	-0.210	-0.170
-175.983	800.000	0.066	0.188
-174.969	9.905	-0.259	0.194
-173.954	-147.494	0.326	0.027
-172.939	800.000	-0.065	-0.192
-171.925	-108.564	0.274	0.058
-170.910	-200.000	0.007	-0.033
-169.896	698.768	-0.236	-0.613
-168.881	-200.000	-0.009	0.175
-167.866	146.136	-0.126	0.167
-166.852	-200.000	0.031	-0.283
-165.837	228.163	-0.088	-0.142
-164.823	-200.000	-0.002	-0.215
-163.808	800.000	0.049	0.172
-162.793	154.720	0.047	-0.064
-161.779	-200.000	0.013	-0.093
-160.764	-134.880	-0.199	-0.024
-159.750	-200.000	0.022	-0.413
-158.735	197.975	-0.099	-0.150
-157.720	-134.626	-0.202	-0.024
-156.706	-33.332	0.116	-0.064
-155.691	653.005	0.035	0.090
-154.677	-49.601	0.049	-0.023
-153.662	-146.361	0.090	-0.008
-152.647	-200.000	-0.004	0.030
-151.633	758.747	0.086	0.231
-150.618	-200.000	-0.005	0.393
-149.604	-128.375	0.557	-0.078
-148.589	6.054	0.028	0.021
-147.574	-81.638	-0.178	-0.058
-146.560	9.749	-0.157	-0.118
-145.545	-200.000	-0.010	-0.166
-144.531	154.630	-0.433	-0.588
-143.516	-44.823	0.365	0.180
-142.502	150.718	-0.136	-0.183
-141.487	-200.000	-0.031	-0.159
-140.472	-135.507	0.169	-0.020
-139.458	-42.556	0.519	-0.261
-138.443	-200.000	0.042	-0.263
-137.429	-27.112	0.199	0.114
-136.414	-149.528	-0.255	0.020
-135.399	157.373	0.034	0.046
-134.385	89.050	-0.146	-0.160
-133.370	704.468	-0.111	-0.290
-132.356	-64.391	-0.362	-0.146
-131.341	177.456	-0.280	-0.403
-130.326	-200.000	-0.008	-0.253
-129.312	26.865	0.255	0.211
-128.297	-200.000	-0.004	0.102
-127.283	80.003	0.186	0.197
-126.268	127.557	0.120	-0.150
-125.253	-69.107	0.200	-0.076
-124.239	-45.230	0.171	-0.084
-123.224	389.713	-0.021	-0.043
-122.210	800.000	-0.055	0.162
-121.195	-82.639	0.280	0.090
