DTS Sentinel unit serial number:	SN413079Multiplexer serial number:	ORYXHardware model number:	OX4-SRSoftware version number:	ORYX F/W v4.00 Oryx Data Collector v3.7.2.0data status	okinstallation	princeton_trtdifferential loss correction	single-endedforward channel	channel 1reverse channel	N/Adate	2019/09/10time	18:04:11forward acquisition time	60.00reverse acquisition time	0.00gamma	496.2192k internal	0.2302k external	0.2302temperature offset calibration	0.9931default loss term (dB/km)	0.3790temperature slope calibration	1.0000multiplexer offset coefficient	1.0000multiplexer slope coefficient	1.0000fibre end	0.00T internal ref (°C)	37.00T ext. ref 1 (°C)	-0.36T ext. ref 2 (°C)	29.35length (m)	temperature (°C)	Stokes	anti-Stokes-747.200	-18.742	0.367	-0.233
-746.185	800.000	-0.072	0.207
-745.171	-200.000	-0.009	-0.089
-744.156	224.129	-0.070	0.114
-743.142	-94.711	-0.191	-0.053
-742.127	-200.000	-0.039	0.254
-741.112	215.129	0.114	0.184
-740.098	427.494	0.030	-0.065
-739.083	86.428	0.095	-0.106
-738.069	298.730	-0.249	0.466
-737.054	800.000	0.113	-0.342
-736.039	52.574	-0.123	0.120
-735.025	800.000	0.065	0.253
-734.010	800.000	0.077	-0.305
-732.996	-40.155	-0.130	0.069
-731.981	-200.000	0.028	0.182
-730.966	149.315	-0.020	-0.027
-729.952	-86.821	-0.216	0.067
-728.937	216.545	0.155	-0.252
-727.923	-69.482	-0.207	-0.081
-726.908	131.748	-0.072	-0.095
-725.894	-126.067	0.213	0.032
-724.879	800.000	0.071	0.207
-723.864	-101.192	-0.114	-0.029
-722.850	581.188	0.187	-0.467
-721.835	-142.068	-0.125	-0.013
-720.821	-165.177	0.338	0.015
-719.806	-44.189	0.069	0.035
-718.791	25.529	-0.166	0.140
-717.777	800.000	-0.038	0.117
-716.762	484.438	0.030	-0.069
-715.748	241.528	0.122	-0.207
-714.733	280.478	0.102	-0.185
-713.718	2.843	0.128	0.095
-712.704	379.602	0.208	-0.433
-711.689	-69.453	-0.134	0.052
-710.675	-38.942	-0.214	-0.115
-709.660	-200.000	0.027	0.150
-708.645	-49.254	-0.322	-0.156
-707.631	-200.000	-0.067	-0.326
-706.616	-74.383	0.107	-0.039
-705.602	82.706	-0.278	-0.307
-704.587	-200.000	-0.013	-0.115
-703.572	2.377	0.200	-0.147
-702.558	150.166	-0.195	-0.270
-701.543	-200.000	-0.083	-0.601
-700.529	800.000	0.114	-0.328
-699.514	39.304	0.256	0.233
-698.499	-156.024	-0.063	0.004
-697.485	-82.952	-0.328	0.108
-696.470	48.075	-0.120	-0.114
-695.456	145.801	0.073	0.100
-694.441	-91.261	0.274	0.080
-693.426	343.856	0.041	0.081
-692.412	-153.912	-0.196	-0.014
-691.397	-200.000	0.090	-0.422
-690.383	242.586	-0.183	-0.312
-689.368	224.904	0.205	0.337
-688.354	-120.888	-0.299	-0.051
-687.339	18.927	-0.230	-0.188
-686.324	-62.564	-0.115	-0.049
-685.310	688.204	0.175	-0.464
-684.295	494.598	0.091	0.213
-683.281	-66.623	-0.173	-0.070
-682.266	-5.665	0.297	-0.207
-681.251	-200.000	-0.015	-0.095
-680.237	382.180	0.021	-0.044
-679.222	-200.000	0.026	-0.259
-678.208	-91.302	-0.245	-0.071
-677.193	800.000	0.049	0.185
-676.178	-51.725	0.338	0.160
-675.164	3.976	-0.174	0.129
-674.149	54.704	0.207	-0.203
-673.135	-156.594	-0.287	0.018
-672.120	547.204	-0.043	-0.105
-671.105	-44.598	-0.396	-0.201
-670.091	800.000	-0.051	-0.150
-669.076	-172.975	0.113	0.004
-668.062	106.877	-0.229	-0.276
-667.047	-47.891	-0.175	-0.086
-666.032	-200.000	0.004	-0.028
-665.018	401.071	-0.064	-0.137
-664.003	-124.427	0.256	-0.041
-662.989	631.514	-0.110	0.282
-661.974	312.103	0.072	0.138
-660.959	-143.553	0.281	0.027
-659.945	86.607	-0.248	0.278
-658.930	186.820	-0.062	0.093
-657.916	188.239	0.135	0.205
-656.901	34.190	0.269	-0.239
-655.886	-135.712	-0.182	-0.022
-654.872	-200.000	-0.018	0.183
-653.857	53.890	-0.146	0.142
-652.843	800.000	0.071	0.208
-651.828	117.087	-0.209	-0.261
-650.814	800.000	-0.012	0.053
-649.799	-35.279	-0.229	-0.127
-648.784	84.001	0.204	-0.226
-647.770	719.318	0.019	-0.052
-646.755	368.895	0.070	0.144
-645.741	493.748	0.008	-0.020
-644.726	-73.246	0.190	0.070
-643.711	800.000	-0.073	-0.225
-642.697	-89.481	0.060	-0.018
-641.682	-200.000	0.002	0.015
-640.668	-132.126	0.250	-0.033
-639.653	-115.776	-0.495	0.094
-638.638	59.485	0.092	-0.092
-637.624	93.430	0.152	0.175
-636.609	-46.723	-0.123	-0.061
-635.595	-200.000	-0.023	0.114
-634.580	-43.717	0.244	-0.125
-633.565	-27.286	-0.080	-0.047
-632.551	-27.053	0.233	-0.138
-631.536	419.450	-0.143	-0.310
-630.522	-114.438	-0.238	-0.046
-629.507	-141.484	-0.303	-0.031
-628.492	-6.476	-0.138	0.095
-627.478	-200.000	0.048	0.223
-626.463	-26.728	-0.429	0.255
-625.449	-43.431	-0.201	-0.103
-624.434	-8.437	-0.161	-0.110
-623.419	185.718	-0.140	-0.211
-622.405	800.000	0.115	0.469
-621.390	-170.012	-0.207	0.007
-620.376	-117.434	-0.287	0.053
-619.361	88.784	0.194	0.219
-618.346	-132.404	-0.128	0.017
-617.332	74.321	-0.126	-0.134
-616.317	800.000	0.125	-0.433
-615.303	-188.996	0.164	0.002
-614.288	309.160	-0.111	0.210
-613.273	-2.052	-0.133	-0.095
-612.259	209.006	0.141	-0.224
-611.244	-32.121	0.292	-0.165
-610.230	255.286	0.117	-0.203
-609.215	-200.000	-0.018	-0.212
-608.201	91.099	0.247	-0.280
-607.186	30.271	-0.134	0.116
-606.171	-200.000	0.019	0.126
-605.157	800.000	0.067	0.212
-604.142	111.418	-0.220	0.268
-603.128	232.946	-0.068	-0.113
-602.113	800.000	0.079	0.296
-601.098	800.000	-0.028	0.106
-600.084	40.012	-0.175	0.159
-599.069	-16.620	-0.277	-0.178
-598.055	246.826	-0.045	-0.076
-597.040	-174.400	-0.389	-0.011
-596.025	22.759	0.115	0.096
-595.011	-181.418	0.348	-0.007
-593.996	-59.075	0.350	-0.153
-592.982	-60.980	-0.287	-0.123
-591.967	-200.000	-0.022	-0.425
-590.952	-200.000	-0.095	-0.467
-589.938	-200.000	-0.027	-0.189
-588.923	-185.800	0.299	0.005
-587.909	-108.794	-0.238	0.051
-586.894	-200.000	0.003	-0.190
-585.879	-131.646	-0.335	-0.045
-584.865	-61.992	0.099	-0.042
-583.850	-17.116	-0.194	0.124
-582.836	800.000	-0.026	-0.081
-581.821	28.038	0.265	0.226
-580.806	-102.241	0.093	-0.023
-579.792	658.659	0.044	-0.115
-578.777	-46.296	-0.389	0.194
-577.763	687.318	0.033	0.087
-576.748	-200.000	-0.023	-0.166
-575.733	800.000	0.096	-0.268
-574.719	387.898	-0.098	0.205
-573.704	-106.390	-0.371	0.084
-572.690	-134.273	0.213	-0.027
-571.675	481.162	-0.156	0.359
-570.661	198.961	0.130	0.201
-569.646	-103.986	-0.204	-0.048
-568.631	45.750	0.227	-0.212
-567.617	249.847	-0.033	-0.057
-566.602	-81.866	-0.209	-0.069
-565.588	800.000	0.055	0.215
-564.573	292.911	-0.109	-0.202
-563.558	-5.989	0.159	-0.110
-562.544	136.934	0.188	0.248
-561.529	19.428	-0.203	-0.165
-560.515	-200.000	-0.001	0.245
-559.500	800.000	0.036	-0.120
-558.485	-200.000	-0.018	-0.160
-557.471	-58.141	-0.370	0.163
-556.456	508.114	-0.060	-0.141
-555.442	-7.119	-0.262	-0.180
-554.427	85.163	-0.124	-0.137
-553.412	-200.000	0.042	-0.243
-552.398	800.000	-0.106	0.345
-551.383	-84.533	-0.180	0.058
-550.369	308.113	0.056	0.105
-549.354	-200.000	-0.017	0.294
-548.339	-200.000	-0.027	-0.188
-547.325	-8.779	-0.187	-0.127
-546.310	129.874	0.187	0.242
-545.296	800.000	0.030	-0.130
-544.281	9.090	-0.164	-0.126
-543.266	52.430	-0.077	-0.075
-542.252	-1.275	-0.134	-0.096
-541.237	580.061	0.070	0.173
-540.223	-84.119	0.152	-0.049
-539.208	-200.000	0.046	0.247
-538.193	403.189	-0.053	-0.113
-537.179	337.349	-0.112	-0.221
-536.164	800.000	-0.092	-0.295
-535.150	-123.444	-0.213	0.034
-534.135	10.424	-0.208	-0.160
-533.121	-78.349	0.175	-0.061
-532.106	-40.835	0.026	0.013
-531.091	114.861	0.121	0.149
-530.077	-143.234	-0.233	-0.023
-529.062	794.951	0.021	0.058
-528.048	-108.800	0.079	0.017
-527.033	32.395	0.149	0.130
-526.018	215.097	-0.241	0.386
-525.004	51.762	-0.227	-0.219
-523.989	-200.000	0.027	0.265
-522.975	233.185	-0.044	0.073
-521.960	34.020	0.294	-0.259
-520.945	-55.731	-0.306	-0.138
-519.931	-200.000	0.025	-0.235
-518.916	-200.000	0.008	0.154
-517.902	144.854	-0.037	0.051
-516.887	800.000	-0.069	0.204
-515.872	-11.250	-0.296	0.197
-514.858	-164.739	0.480	-0.022
-513.843	4.667	-0.046	-0.034
-512.829	-15.875	0.188	-0.121
-511.814	441.210	-0.103	-0.228
-510.799	138.566	-0.177	-0.235
-509.785	98.758	0.209	-0.243
-508.770	800.000	-0.044	-0.143
-507.756	4.118	0.124	0.092
-506.741	-86.546	-0.113	-0.035
-505.726	-127.755	0.053	0.008
-504.712	22.215	0.209	0.172
-503.697	59.340	0.120	-0.120
-502.683	-134.630	-0.311	0.038
-501.668	-200.000	-0.012	0.096
-500.653	-200.000	0.102	-0.521
-499.639	230.190	-0.118	-0.195
-498.624	63.371	0.254	0.257
-497.610	-200.000	0.002	0.106
-496.595	-200.000	0.010	0.267
-495.581	800.000	0.022	-0.073
-494.566	-119.892	-0.097	0.017
-493.551	76.046	-0.143	-0.153
-492.537	123.108	-0.127	-0.160
-491.522	-47.693	0.232	-0.113
-490.508	-200.000	-0.055	-0.250
-489.493	-111.020	0.159	0.033
-488.478	-133.288	0.188	-0.024
-487.464	111.529	-0.186	-0.227
-486.449	-62.705	0.117	-0.049
-485.435	-45.681	-0.235	0.117
-484.420	-69.890	0.244	0.094
-483.405	162.628	0.067	-0.095
-482.391	-200.000	0.036	0.191
-481.376	294.565	-0.218	0.402
-480.362	800.000	-0.085	-0.238
-479.347	-28.331	-0.096	-0.056
-478.332	192.039	0.152	-0.231
-477.318	800.000	-0.047	0.186
-476.303	214.002	0.172	0.274
-475.289	150.500	0.069	-0.095
-474.274	682.191	-0.089	-0.235
-473.259	-200.000	0.022	-0.493
-472.245	-62.745	0.115	0.048
-471.230	800.000	0.082	0.279
-470.216	-145.851	-0.230	-0.021
-469.201	70.822	0.204	0.213
-468.186	-131.721	-0.315	-0.042
-467.172	-34.288	0.226	-0.125
-466.157	-125.701	-0.162	-0.025
-465.143	-63.596	-0.098	-0.041
-464.128	-154.928	-0.179	0.012
-463.113	800.000	-0.067	-0.285
-462.099	-151.952	-0.240	0.018
-461.084	5.292	-0.386	0.287
-460.070	-58.656	0.236	-0.103
-459.055	-128.501	-0.149	-0.021
-458.040	-54.216	0.030	0.014
-457.026	-162.828	-0.255	0.013
-456.011	-25.398	-0.146	-0.087
-454.997	31.171	0.209	0.181
-453.982	57.303	0.189	0.186
-452.968	301.979	0.068	-0.126
-451.953	269.964	0.093	-0.166
-450.938	-63.084	-0.252	-0.105
-449.924	-139.639	0.114	-0.012
-448.909	-200.000	-0.004	0.017
-447.895	-32.787	0.033	-0.018
-446.880	-200.000	-0.003	0.055
-445.865	800.000	-0.091	0.380
-444.851	-106.785	-0.263	-0.059
-443.836	-100.339	-0.191	0.048
-442.822	445.236	-0.177	-0.391
-441.807	194.616	0.037	-0.057
-440.792	-147.797	-0.316	-0.027
-439.778	-48.291	-0.207	-0.101
-438.763	-200.000	-0.009	-0.082
-437.749	93.399	0.108	-0.123
-436.734	-67.437	0.397	-0.157
-435.719	366.057	-0.126	-0.257
-434.705	-137.955	0.356	-0.040
-433.690	213.433	-0.079	0.126
-432.676	800.000	-0.026	0.104
-431.661	-138.071	0.439	0.049
-430.646	800.000	0.145	-0.542
-429.632	800.000	0.038	-0.118
-428.617	-29.759	0.136	-0.078
-427.603	217.254	-0.198	-0.318
-426.588	-13.212	0.331	-0.216
-425.573	124.479	-0.022	0.027
-424.559	349.223	-0.066	0.130
-423.544	-44.624	-0.277	0.139
-422.530	-42.870	0.021	-0.011
-421.515	-200.000	-0.030	0.424
-420.500	-148.640	0.497	0.041
-419.486	80.495	-0.100	0.109
-418.471	-200.000	-0.023	-0.106
-417.457	-200.000	0.108	0.593
-416.442	-72.536	0.203	0.076
-415.428	-200.000	0.015	0.170
-414.413	722.591	-0.011	0.029
-413.398	-117.230	-0.602	0.110
-412.384	141.577	-0.157	0.209
-411.369	-99.967	0.197	0.049
-410.355	-96.021	0.113	0.030
-409.340	-160.764	0.212	-0.011
-408.325	-79.098	-0.216	-0.074
-407.311	-118.711	-0.602	-0.107
-406.296	-39.391	0.108	0.057
-405.282	24.494	0.221	-0.183
-404.267	800.000	0.028	-0.107
-403.252	-13.217	0.148	-0.096
-402.238	630.127	0.101	-0.256
-401.223	118.582	-0.150	0.187
-400.209	-1.434	-0.238	0.169
-399.194	-25.535	-0.070	-0.041
-398.179	-79.094	-0.057	-0.020
-397.165	-200.000	0.006	0.231
-396.150	-200.000	-0.014	0.160
-395.136	-200.000	0.022	-0.188
-394.121	171.887	0.092	-0.132
-393.106	-107.178	0.242	-0.054
-392.092	83.859	0.134	-0.147
-391.077	13.407	-0.107	0.083
-390.063	-16.904	0.158	0.100
-389.048	-200.000	-0.029	-0.188
-388.033	-200.000	-0.008	-0.296
-387.019	-200.000	0.054	0.261
-386.004	-75.939	-0.209	0.074
-384.990	-182.396	-0.105	-0.002
-383.975	-200.000	0.061	0.341
-382.960	162.237	-0.144	-0.203
-381.946	-87.352	-0.283	0.086
-380.931	138.234	-0.002	-0.003
-379.917	-200.000	-0.010	0.191
-378.902	294.088	0.168	0.308
-377.888	89.940	0.105	-0.118
-376.873	64.545	-0.395	-0.400
-375.858	-200.000	0.015	0.135
-374.844	224.406	0.154	-0.249
-373.829	-89.130	0.240	-0.071
-372.815	-55.640	-0.289	-0.130
-371.800	75.829	-0.210	-0.223
-370.785	600.929	0.008	-0.021
-369.771	-200.000	-0.054	0.272
-368.756	-86.473	0.168	-0.052
-367.742	-116.673	-0.095	-0.018
-366.727	-31.208	0.268	0.152
-365.712	377.125	0.109	0.223
-364.698	-43.374	-0.132	0.067
-363.683	-17.990	0.235	0.148
-362.669	513.858	-0.040	0.094
-361.654	204.408	0.153	-0.238
-360.639	800.000	0.113	0.449
-359.625	-200.000	0.003	-0.101
-358.610	-117.527	-0.164	-0.030
-357.596	57.207	0.089	-0.088
-356.581	279.150	-0.226	-0.404
-355.566	-92.334	0.137	-0.039
-354.552	-128.494	0.283	-0.040
-353.537	181.964	0.230	-0.341
-352.523	301.884	0.069	-0.129
-351.508	3.906	-0.279	-0.204
-350.493	125.063	0.180	0.228
-349.479	282.494	-0.186	-0.334
-348.464	-45.341	-0.038	-0.019
-347.450	-200.000	0.012	-0.125
-346.435	707.848	0.089	-0.237
-345.420	150.372	-0.138	0.188
-344.406	-116.725	0.202	-0.037
-343.391	113.504	0.172	0.210
-342.377	-84.906	-0.058	0.018
-341.362	-200.000	-0.003	0.247
-340.348	-81.728	0.115	0.038
-339.333	-85.582	0.485	0.151
-338.318	-94.126	0.194	-0.053
-337.304	-200.000	0.049	0.240
-336.289	-200.000	-0.013	0.131
-335.275	-67.908	-0.028	0.011
-334.260	800.000	0.048	0.160
-333.245	279.833	0.128	0.229
-332.231	431.839	0.163	0.354
-331.216	-22.832	0.211	0.128
-330.202	-156.877	0.275	-0.017
-329.187	-200.000	-0.063	0.419
-328.172	-200.000	0.009	0.119
-327.158	-20.026	-0.099	-0.062
-326.143	-200.000	-0.239	-0.000
-325.129	102.970	0.321	-0.377
-324.114	56.281	-0.162	0.158
-323.099	-59.879	-0.131	-0.056
-322.085	396.613	0.110	-0.230
-321.070	19.896	-0.191	-0.154
-320.056	-47.365	-0.146	-0.071
-319.041	-91.853	-0.315	0.090
-318.026	237.476	0.183	-0.305
-317.012	1.006	0.197	-0.141
-315.997	-200.000	-0.011	-0.294
-314.983	143.475	0.111	0.148
-313.968	800.000	0.042	0.154
-312.953	-48.394	-0.293	0.142
-311.939	476.265	-0.061	-0.139
-310.924	91.221	-0.179	-0.201
-309.910	-97.915	0.179	-0.046
-308.895	3.182	-0.140	-0.102
-307.880	8.528	0.332	0.251
-306.866	327.629	-0.123	0.237
-305.851	-200.000	-0.013	0.081
-304.837	-35.508	0.132	0.072
-303.822	-11.099	-0.152	-0.101
-302.807	202.710	0.119	-0.184
-301.793	9.690	0.061	0.046
-300.778	-49.146	0.335	0.161
-299.764	-38.060	0.152	0.081
-298.749	78.850	-0.222	0.238
-297.735	-80.929	0.191	0.063
-296.720	121.422	0.087	-0.109
-295.705	-200.000	-0.012	-0.104
-294.691	-200.000	0.043	-0.204
-293.676	-8.333	-0.284	0.191
-292.662	96.972	0.191	0.219
-291.647	-19.788	0.184	0.114
-290.632	398.559	-0.109	0.228
-289.618	-45.449	-0.361	-0.179
-288.603	-159.951	0.319	-0.017
-287.589	45.394	-0.076	-0.071
-286.574	-77.920	0.138	0.048
-285.559	-57.245	-0.076	-0.034
-284.545	-106.767	0.167	0.037
-283.530	-22.632	0.199	-0.120
-282.516	-53.095	0.243	-0.112
-281.501	800.000	-0.074	0.207
-280.486	-84.230	-0.057	0.018
-279.472	38.060	-0.145	0.129
-278.457	399.015	0.150	0.314
-277.443	-9.782	0.192	-0.128
-276.428	616.646	-0.054	-0.135
-275.413	-200.000	0.001	0.228
-274.399	114.146	0.154	0.187
-273.384	150.241	0.061	-0.082
-272.370	-124.378	-0.210	-0.033
-271.355	270.690	0.130	0.230
-270.340	-131.797	0.228	0.030
-269.326	-200.000	-0.033	0.311
-268.311	345.515	-0.055	0.108
-267.297	124.139	0.250	-0.315
-266.282	-200.000	-0.012	-0.386
-265.267	569.561	0.098	0.237
-264.253	-200.000	0.003	-0.070
-263.238	-200.000	0.020	-0.093
-262.224	-59.886	0.273	0.117
-261.209	-200.000	0.024	0.381
-260.195	-152.991	-0.222	-0.016
-259.180	767.597	0.041	-0.111
-258.165	-18.082	0.117	-0.073
-257.151	-200.000	-0.027	-0.136
-256.136	-75.847	0.152	0.054
-255.122	208.263	-0.164	-0.257
-254.107	-24.915	-0.121	-0.072
-253.092	-9.170	0.283	0.190
-252.078	800.000	-0.016	-0.061
-251.063	46.128	0.024	0.022
-250.049	70.091	0.165	0.171
-249.034	85.099	0.122	-0.134
-248.019	-75.253	0.333	0.119
-247.005	521.835	0.052	0.121
-245.990	327.215	-0.145	0.278
-244.976	-67.268	-0.198	-0.078
-243.961	-200.000	-0.012	0.229
-242.946	33.796	0.034	0.030
-241.932	402.781	0.103	0.217
-240.917	800.000	0.024	-0.085
-239.903	-83.507	-0.420	-0.134
-238.888	190.297	0.256	0.384
-237.873	-200.000	-0.043	0.273
-236.859	-200.000	-0.006	-0.199
-235.844	-200.000	-0.008	-0.126
-234.830	-200.000	0.015	-0.266
-233.815	200.549	0.145	-0.222
-232.800	55.828	0.093	-0.090
-231.786	-200.000	0.055	-0.315
-230.771	222.532	-0.055	0.088
-229.757	-70.262	0.271	-0.103
-228.742	-74.641	-0.123	0.044
-227.727	-18.558	-0.187	0.116
-226.713	39.207	-0.122	0.109
-225.698	255.029	-0.117	0.200
-224.684	117.048	-0.065	-0.080
-223.669	402.541	0.129	-0.272
-222.655	800.000	0.015	-0.049
-221.640	118.944	0.244	0.301
-220.625	-71.528	-0.251	-0.094
-219.611	64.198	-0.102	-0.103
-218.596	-106.554	-0.179	-0.040
-217.582	197.603	0.112	0.171
-216.567	20.099	0.133	0.107
-215.552	-120.456	-0.097	0.016
-214.538	-200.000	0.004	0.099
-213.523	-61.990	-0.402	0.167
-212.509	-9.991	0.136	-0.090
-211.494	54.851	0.144	-0.138
-210.479	-30.027	0.314	-0.179
-209.465	540.115	-0.060	0.143
-208.450	121.620	0.033	0.041
-207.436	480.041	0.110	-0.249
-206.421	-200.000	0.013	0.075
-205.406	-51.093	0.315	0.148
-204.392	-200.000	0.086	-0.416
-203.377	70.276	-0.310	0.319
-202.363	-200.000	-0.007	-0.208
-201.348	96.946	0.179	-0.205
-200.333	65.804	0.084	-0.084
-199.319	-6.860	-0.191	-0.129
-198.304	-200.000	-0.052	-0.316
-197.290	-200.000	-0.026	-0.142
-196.275	74.663	-0.065	-0.069
-195.260	-200.000	-0.015	-0.131
-194.246	-200.000	0.013	-0.077
-193.231	-58.330	0.109	-0.047
-192.217	10.354	0.203	0.154
-191.202	229.030	-0.141	0.229
-190.187	348.159	-0.095	0.186
-189.173	41.811	0.123	-0.111
-188.158	800.000	0.175	0.495
-187.144	212.171	0.056	-0.088
-186.129	357.737	-0.038	0.075
-185.114	13.907	-0.120	0.093
-184.100	-78.101	0.209	-0.072
-183.085	287.342	0.122	0.220
-182.071	-3.067	-0.144	0.100
-181.056	22.192	0.258	-0.210
-180.042	-87.173	0.188	0.057
-179.027	800.000	-0.028	-0.104
-178.012	-11.670	0.384	-0.252
-176.998	80.546	-0.077	0.083
-175.983	-148.111	-0.084	0.007
-174.969	-200.000	-0.090	0.442
-173.954	117.002	-0.097	0.119
-172.939	800.000	0.041	0.147
-171.925	103.166	0.170	-0.198
-170.910	-168.807	-0.346	0.013
-169.896	148.732	-0.195	-0.263
-168.881	176.627	-0.108	0.156
-167.866	492.592	-0.029	0.066
-166.852	-105.349	0.214	0.048
-165.837	214.903	-0.098	-0.154
-164.823	-59.976	-0.290	0.123
-163.808	-19.633	0.076	0.047
-162.793	-73.248	0.105	0.038
-161.779	-200.000	-0.056	0.524
-160.764	119.624	0.087	0.108
-159.750	88.150	0.047	0.052
-158.735	300.811	0.070	0.129
-157.720	-200.000	0.006	-0.281
-156.706	160.528	0.118	0.164
-155.691	-21.979	0.162	0.098
-154.677	-200.000	0.030	0.499
-153.662	-200.000	0.017	0.295
-152.647	426.197	-0.091	0.194
-151.633	-113.879	-0.370	0.072
-150.618	82.562	0.102	-0.110
-149.604	303.186	-0.122	0.225
-148.589	12.873	0.290	0.223
-147.574	-178.427	0.089	0.002
-146.560	-43.501	-0.190	-0.096
-145.545	-200.000	0.020	-0.146
-144.531	-200.000	-0.056	-0.287
-143.516	365.710	0.038	-0.076
-142.502	-116.755	0.221	0.040
-141.487	-68.318	0.104	-0.040
-140.472	-87.337	0.141	0.043
-139.458	-118.450	-0.044	-0.008
-138.443	18.553	0.024	0.019
-137.429	800.000	0.035	-0.120
-136.414	283.120	0.133	0.238
-135.399	-105.566	0.034	-0.008
-134.385	-200.000	-0.011	-0.071
-133.370	800.000	0.023	0.080
-132.356	91.694	0.249	-0.279
-131.341	409.789	-0.080	-0.169
-130.326	-128.800	0.083	0.012
-129.312	-89.685	0.176	0.051
-128.297	-97.465	-0.204	0.053
-127.283	119.345	-0.170	-0.209
-126.268	-200.000	0.017	-0.259
-125.253	48.565	-0.292	-0.272
-124.239	206.603	0.173	-0.269
-123.224	60.619	-0.168	0.165
-122.210	-200.000	-0.023	0.112
-121.195	-200.000	-0.016	0.204
