DTS Sentinel unit serial number:	SN413079Multiplexer serial number:	ORYXHardware model number:	OX4-SRSoftware version number:	ORYX F/W v4.00 Oryx Data Collector v3.7.2.0data status	okinstallation	princeton_trtdifferential loss correction	single-endedforward channel	channel 1reverse channel	N/Adate	2019/09/10time	18:36:11forward acquisition time	60.00reverse acquisition time	0.00gamma	496.2192k internal	0.2307k external	0.2307temperature offset calibration	0.9926default loss term (dB/km)	0.3790temperature slope calibration	1.0000multiplexer offset coefficient	1.0000multiplexer slope coefficient	1.0000fibre end	0.00T internal ref (°C)	35.61T ext. ref 1 (°C)	-0.32T ext. ref 2 (°C)	27.57length (m)	temperature (°C)	Stokes	anti-Stokes-747.200	764.971	-0.066	-0.183
-746.185	-116.989	-0.172	-0.032
-745.171	-53.603	0.371	0.172
-744.156	188.168	-0.107	0.163
-743.142	-200.000	-0.034	-0.172
-742.127	800.000	-0.091	0.294
-741.112	271.378	-0.112	-0.201
-740.098	-32.725	-0.372	0.210
-739.083	-119.135	-0.270	0.048
-738.069	-164.517	-0.426	0.020
-737.054	49.236	0.157	-0.150
-736.039	-59.370	-0.261	-0.114
-735.025	75.860	0.175	0.188
-734.010	413.789	0.097	-0.211
-732.996	-25.071	-0.180	-0.108
-731.981	-37.184	-0.259	-0.141
-730.966	16.360	-0.257	-0.206
-729.952	-200.000	0.018	0.224
-728.937	361.006	-0.043	0.087
-727.923	-173.226	-0.281	0.009
-726.908	498.674	0.012	0.028
-725.894	-144.035	-0.053	-0.005
-724.879	-200.000	0.022	0.176
-723.864	-172.694	0.150	-0.005
-722.850	-157.377	0.154	-0.009
-721.835	-123.983	0.068	0.011
-720.821	-145.769	-0.104	0.009
-719.806	-173.492	-0.544	-0.017
-718.791	-89.909	-0.339	-0.101
-717.777	365.629	0.006	-0.011
-716.762	-131.773	-0.528	0.070
-715.748	198.115	-0.204	-0.317
-714.733	-156.810	-0.058	-0.004
-713.718	-26.681	-0.189	0.112
-712.704	-21.327	-0.124	-0.077
-711.689	-200.000	-0.083	-0.410
-710.675	-95.180	-0.382	0.105
-709.660	160.260	-0.083	0.117
-708.645	129.706	-0.030	-0.039
-707.631	101.588	-0.093	0.110
-706.616	-31.823	0.128	-0.073
-705.602	-45.906	-0.340	0.170
-704.587	78.053	-0.222	0.240
-703.572	-200.000	0.008	-0.118
-702.558	157.516	-0.103	-0.145
-701.543	111.209	-0.085	-0.104
-700.529	-50.321	-0.273	0.131
-699.514	-0.269	-0.150	0.108
-698.499	24.990	0.176	-0.148
-697.485	-96.980	-0.121	-0.032
-696.470	6.878	-0.144	0.109
-695.456	-4.237	0.174	-0.122
-694.441	800.000	-0.020	-0.069
-693.426	-200.000	0.015	-0.164
-692.412	184.690	0.084	-0.127
-691.397	-119.977	0.113	0.020
-690.383	548.766	-0.068	-0.165
-689.368	-192.382	-0.292	0.003
-688.354	-144.604	-0.281	0.026
-687.339	-51.918	-0.130	-0.061
-686.324	-37.420	-0.395	-0.214
-685.310	800.000	-0.060	-0.215
-684.295	-151.079	-0.347	0.026
-683.281	-200.000	0.042	-0.209
-682.266	-200.000	-0.037	-0.211
-681.251	19.863	0.186	0.152
-680.237	454.481	0.088	-0.198
-679.222	348.067	-0.059	-0.118
-678.208	-200.000	-0.034	-0.283
-677.193	-96.084	0.265	-0.071
-676.178	800.000	0.030	-0.119
-675.164	4.733	0.141	-0.105
-674.149	76.363	0.194	0.208
-673.135	45.115	0.067	0.062
-672.120	-200.000	0.027	-0.502
-671.105	104.084	0.184	-0.220
-670.091	-68.676	0.232	-0.091
-669.076	800.000	0.025	-0.105
-668.062	2.845	-0.102	-0.075
-667.047	800.000	-0.048	0.147
-666.032	116.026	0.033	0.040
-665.018	156.986	0.053	0.074
-664.003	-84.383	0.227	-0.073
-662.989	60.718	-0.206	-0.207
-661.974	-126.912	0.392	-0.059
-660.959	76.111	-0.107	-0.115
-659.945	-63.439	0.178	0.074
-658.930	75.608	0.099	-0.106
-657.916	-159.131	0.098	-0.006
-656.901	39.136	-0.155	-0.140
-655.886	420.187	-0.050	0.108
-654.872	15.791	-0.094	0.075
-653.857	-200.000	-0.034	0.233
-652.843	324.510	-0.080	0.154
-651.828	-200.000	0.005	-0.304
-650.814	10.251	0.210	-0.162
-649.799	92.458	0.082	-0.094
-648.784	283.977	0.027	0.050
-647.770	-92.439	-0.100	-0.028
-646.755	-148.398	0.053	0.004
-645.741	-87.697	-0.322	0.098
-644.726	387.763	-0.025	0.053
-643.711	320.005	0.092	-0.178
-642.697	585.483	-0.104	0.258
-641.682	167.315	0.059	-0.085
-640.668	537.717	-0.060	0.145
-639.653	521.935	-0.078	-0.186
-638.638	800.000	-0.025	0.105
-637.624	-32.373	0.196	-0.111
-636.609	-200.000	0.049	0.353
-635.595	-55.502	0.130	0.059
-634.580	-35.265	0.214	-0.118
-633.565	-77.110	-0.323	-0.114
-632.551	-27.777	0.188	-0.110
-631.536	-127.722	0.367	-0.054
-630.522	-26.065	-0.110	0.066
-629.507	-41.011	0.205	-0.107
-628.492	20.227	0.150	0.122
-627.478	-143.923	0.176	0.017
-626.463	511.441	0.151	0.356
-625.449	79.604	-0.110	0.119
-624.434	-200.000	0.039	0.178
-623.419	353.735	-0.101	0.203
-622.405	-15.455	-0.107	-0.069
-621.390	174.737	-0.202	-0.296
-620.376	41.486	0.130	0.119
-619.361	36.717	-0.338	0.303
-618.346	166.183	0.153	0.219
-617.332	13.166	-0.173	0.135
-616.317	800.000	-0.025	0.091
-615.303	-73.057	0.329	-0.122
-614.288	282.616	0.111	0.202
-613.273	800.000	-0.087	0.285
-612.259	-200.000	0.034	0.250
-611.244	17.420	-0.060	0.048
-610.230	-182.273	-0.415	0.008
-609.215	65.008	-0.198	0.202
-608.201	743.212	-0.128	-0.348
-607.186	703.688	-0.075	-0.200
-606.171	-200.000	-0.037	-0.171
-605.157	800.000	-0.035	-0.101
-604.142	10.861	0.204	-0.158
-603.128	-110.783	-0.168	-0.035
-602.113	800.000	-0.097	-0.276
-601.098	-200.000	0.030	0.146
-600.084	-141.899	-0.248	-0.025
-599.069	358.794	0.033	0.066
-598.055	-11.288	-0.078	0.052
-597.040	88.942	-0.146	-0.164
-596.025	-200.000	0.003	-0.342
-595.011	800.000	-0.092	-0.293
-593.996	-114.736	-0.324	-0.063
-592.982	409.872	0.064	-0.138
-591.967	-119.431	0.232	-0.041
-590.952	-200.000	-0.001	-0.182
-589.938	-31.479	-0.090	0.051
-588.923	-144.767	-0.402	0.037
-587.909	10.047	0.305	0.234
-586.894	-80.268	0.220	0.074
-585.879	16.974	-0.157	0.126
-584.865	800.000	0.078	-0.254
-583.850	355.968	-0.059	-0.118
-582.836	-35.332	-0.082	-0.045
-581.821	-97.046	0.237	-0.063
-580.806	-122.838	-0.309	-0.050
-579.792	-90.754	0.263	-0.077
-578.777	-80.351	0.209	0.071
-577.763	-134.490	-0.263	0.032
-576.748	-18.236	0.555	0.351
-575.733	-28.256	-0.205	-0.120
-574.719	6.822	-0.248	-0.187
-573.704	-48.508	-0.108	-0.052
-572.690	-113.662	0.386	0.076
-571.675	800.000	0.035	0.106
-570.661	-151.340	-0.324	0.024
-569.646	205.786	-0.097	-0.153
-568.631	-134.585	0.327	-0.040
-567.617	-105.022	0.034	0.008
-566.602	687.649	-0.047	-0.123
-565.588	-189.858	-0.249	-0.003
-564.573	800.000	-0.026	-0.111
-563.558	-200.000	-0.002	-0.124
-562.544	-66.322	0.055	0.022
-561.529	0.986	-0.152	-0.110
-560.515	-200.000	0.003	-0.437
-559.500	-5.274	0.385	-0.267
-558.485	2.344	0.171	-0.125
-557.471	-90.462	-0.280	-0.082
-556.456	18.871	-0.052	-0.042
-555.442	557.279	-0.101	-0.246
-554.427	-177.646	-0.337	-0.008
-553.412	151.264	-0.188	0.259
-552.398	677.528	-0.032	-0.083
-551.383	800.000	-0.087	0.365
-550.369	102.925	-0.098	-0.116
-549.354	-79.439	-0.268	-0.092
-548.339	-138.949	0.140	-0.015
-547.325	-200.000	-0.004	0.122
-546.310	-200.000	0.004	0.214
-545.296	-158.163	-0.163	0.010
-544.281	38.145	-0.285	0.256
-543.266	417.861	0.076	0.163
-542.252	-200.000	-0.014	-0.381
-541.237	800.000	0.087	-0.253
-540.223	-57.667	-0.357	0.158
-539.208	-200.000	-0.003	-0.339
-538.193	5.273	0.244	0.181
-537.179	301.212	-0.105	0.195
-536.164	-200.000	0.009	0.226
-535.150	-4.474	0.315	0.219
-534.135	-47.479	-0.033	-0.016
-533.121	-185.728	0.169	-0.003
-532.106	800.000	0.037	0.156
-531.091	779.112	0.039	0.108
-530.077	316.377	0.109	-0.207
-529.062	-82.007	-0.284	0.094
-528.048	800.000	-0.074	0.235
-527.033	148.484	-0.135	0.184
-526.018	800.000	-0.174	0.539
-525.004	-200.000	0.011	-0.361
-523.989	237.550	0.175	0.293
-522.975	800.000	-0.051	0.146
-521.960	-200.000	-0.053	-0.235
-520.945	59.854	0.094	-0.094
-519.931	135.757	-0.163	-0.214
-518.916	-58.922	-0.082	0.036
-517.902	296.012	-0.115	-0.212
-516.887	603.790	-0.035	-0.088
-515.872	228.300	-0.124	0.204
-514.858	-200.000	-0.090	-0.419
-513.843	-200.000	0.029	-0.307
-512.829	59.999	0.168	-0.167
-511.814	-1.761	-0.392	0.278
-510.799	-200.000	0.030	0.162
-509.785	-179.137	-0.082	0.002
-508.770	-106.478	0.412	0.093
-507.756	800.000	0.052	0.214
-506.741	-101.228	-0.195	-0.048
-505.726	-84.840	0.208	-0.066
-504.712	116.780	0.079	0.097
-503.697	-76.851	-0.148	0.052
-502.683	-113.687	0.247	0.049
-501.668	-81.234	0.353	-0.117
-500.653	-200.000	0.015	-0.102
-499.639	239.828	0.129	0.216
-498.624	11.618	0.154	0.119
-497.610	8.088	0.186	0.141
-496.595	-108.877	0.277	-0.060
-495.581	-106.813	-0.330	-0.074
-494.566	361.844	0.112	-0.226
-493.551	-200.000	-0.006	-0.194
-492.537	193.673	0.145	-0.221
-491.522	-200.000	0.023	-0.193
-490.508	-0.627	-0.193	-0.138
-489.493	18.046	0.151	0.121
-488.478	782.481	-0.027	0.073
-487.464	-200.000	-0.030	0.176
-486.449	-200.000	-0.015	-0.081
-485.435	-73.538	0.166	0.061
-484.420	25.645	0.065	-0.054
-483.405	-200.000	-0.032	-0.195
-482.391	-138.531	0.095	0.010
-481.376	-88.300	0.185	0.056
-480.362	421.393	0.040	0.086
-479.347	-168.787	0.229	-0.009
-478.332	-97.070	0.304	0.080
-477.318	-62.714	0.121	0.051
-476.303	800.000	0.134	-0.384
-475.289	-45.904	-0.080	0.040
-474.274	-140.845	-0.244	-0.025
-473.259	-0.420	0.370	0.265
-472.245	-18.582	-0.349	0.219
-471.230	800.000	0.040	-0.111
-470.216	-159.157	0.041	0.002
-469.201	281.852	-0.060	-0.109
-468.186	789.025	-0.068	0.187
-467.172	113.887	-0.080	0.098
-466.157	-47.821	0.213	0.104
-465.143	-200.000	-0.039	0.248
-464.128	19.271	-0.356	-0.287
-463.113	-26.500	0.302	-0.178
-462.099	800.000	-0.074	0.230
-461.084	-17.270	0.029	-0.018
-460.070	-76.761	0.219	0.077
-459.055	-200.000	-0.025	-0.295
-458.040	37.831	0.354	0.316
-457.026	-7.867	-0.173	-0.117
-456.011	95.371	-0.170	-0.195
-454.997	119.679	0.142	-0.177
-453.982	73.475	0.093	-0.098
-452.968	-160.021	0.218	0.012
-451.953	800.000	0.053	-0.201
-450.938	-200.000	0.037	-0.345
-449.924	-138.637	0.279	-0.031
-448.909	265.282	0.132	0.230
-447.895	5.776	-0.238	-0.177
-446.880	59.106	-0.056	0.055
-445.865	-92.881	-0.351	0.099
-444.851	21.091	0.033	-0.027
-443.836	-200.000	-0.020	-0.165
-442.822	-200.000	0.011	0.062
-441.807	-30.339	-0.137	-0.078
-440.792	307.258	0.055	-0.103
-439.778	800.000	0.057	0.172
-438.763	-200.000	-0.006	-0.058
-437.749	126.113	0.055	0.069
-436.734	-64.222	-0.249	0.102
-435.719	79.610	0.184	-0.198
-434.705	-200.000	0.013	0.255
-433.690	527.718	0.057	0.135
-432.676	800.000	0.074	0.227
-431.661	27.040	-0.169	0.142
-430.646	-64.079	-0.053	0.022
-429.632	229.878	-0.129	-0.212
-428.617	800.000	0.032	0.114
-427.603	80.201	0.261	0.282
-426.588	256.008	0.035	0.060
-425.573	-26.340	0.154	0.091
-424.559	-200.000	-0.000	0.177
-423.544	83.244	-0.080	-0.088
-422.530	-200.000	-0.037	0.184
-421.515	-200.000	-0.048	0.274
-420.500	800.000	0.074	0.256
-419.486	-156.847	-0.216	0.013
-418.471	494.325	-0.052	0.119
-417.457	-200.000	-0.016	0.071
-416.442	-54.019	-0.349	0.160
-415.428	152.336	-0.178	-0.243
-414.413	245.561	-0.142	-0.240
-413.398	-150.199	-0.252	0.020
-412.384	101.356	-0.151	-0.177
-411.369	-5.468	0.121	-0.083
-410.355	9.045	-0.100	-0.076
-409.340	-183.818	0.028	-0.000
-408.325	-131.756	-0.137	-0.018
-407.311	-108.187	0.252	0.055
-406.296	-30.156	-0.075	0.043
-405.282	399.656	-0.043	-0.090
-404.267	-159.549	0.033	0.002
-403.252	-22.174	0.191	0.116
-402.238	-66.517	0.150	0.060
-401.223	-200.000	-0.001	0.152
-400.209	-27.430	-0.139	0.081
-399.194	-200.000	-0.040	0.413
-398.179	24.696	-0.113	-0.094
-397.165	-30.021	-0.508	-0.290
-396.150	214.236	0.046	0.073
-395.136	-200.000	-0.036	0.285
-394.121	-56.445	-0.357	-0.159
-393.106	273.151	0.136	-0.241
-392.092	-115.232	0.086	0.016
-391.077	87.686	0.127	0.141
-390.063	106.347	-0.005	0.006
-389.048	-174.746	-0.399	-0.011
-388.033	104.965	0.218	-0.257
-387.019	-77.464	0.102	0.035
-386.004	-154.625	-0.241	0.016
-384.990	14.373	-0.444	0.347
-383.975	-200.000	0.009	0.344
-382.960	-106.668	0.055	0.012
-381.946	-200.000	0.028	0.482
-380.931	-200.000	-0.007	-0.153
-379.917	326.432	-0.059	0.112
-378.902	-21.138	0.180	-0.110
-377.888	239.356	0.058	-0.096
-376.873	172.278	-0.213	0.307
-375.858	234.216	0.093	-0.153
-374.844	731.122	-0.081	-0.217
-373.829	110.966	0.078	-0.094
-372.815	-197.594	0.222	-0.001
-371.800	81.528	0.126	0.136
-370.785	-167.016	-0.235	0.010
-369.771	-84.898	0.177	0.056
-368.756	452.906	-0.030	0.066
-367.742	-181.566	0.081	-0.002
-366.727	73.952	0.102	-0.107
-365.712	-6.703	0.305	0.208
-364.698	43.733	-0.097	-0.089
-363.683	-135.689	0.408	0.048
-362.669	356.289	-0.168	-0.336
-361.654	800.000	0.070	-0.211
-360.639	12.703	-0.055	0.043
-359.625	-57.915	0.021	-0.009
-358.610	217.904	0.096	-0.153
-357.596	-181.019	-0.373	-0.008
-356.581	-200.000	0.043	0.253
-355.566	62.542	0.197	0.197
-354.552	800.000	-0.077	-0.252
-353.537	-200.000	0.020	-0.191
-352.523	-125.584	-0.150	0.023
-351.508	711.270	-0.140	-0.370
-350.493	-135.205	0.250	-0.030
-349.479	91.630	-0.188	-0.211
-348.464	-23.206	0.134	0.081
-347.450	-76.738	0.286	-0.100
-346.435	174.623	0.240	-0.347
-345.420	74.257	0.246	-0.258
-344.406	81.748	0.070	0.076
-343.391	127.671	-0.078	-0.099
-342.377	208.103	0.069	0.108
-341.362	-200.000	0.033	0.270
-340.348	14.774	0.076	-0.060
-339.333	-97.403	-0.070	-0.018
-338.318	-66.392	-0.209	-0.083
-337.304	-78.071	-0.327	-0.113
-336.289	70.100	0.250	0.258
-335.275	800.000	-0.038	0.137
-334.260	800.000	-0.028	-0.086
-333.245	-30.400	-0.381	-0.216
-332.231	459.910	-0.075	0.167
-331.216	-66.780	0.377	0.149
-330.202	97.236	-0.250	-0.287
-329.187	-111.124	-0.169	0.035
-328.172	-127.990	0.092	-0.013
-327.158	800.000	-0.031	-0.121
-326.143	-160.474	0.145	-0.008
-325.129	285.372	-0.094	0.170
-324.114	-58.569	-0.112	-0.048
-323.099	436.826	-0.190	0.413
-322.085	-157.133	0.199	0.012
-321.070	-64.994	0.201	0.081
-320.056	-200.000	0.017	0.173
-319.041	-67.862	-0.391	0.153
-318.026	-130.530	-0.352	0.048
-317.012	800.000	-0.097	0.273
-315.997	-14.582	0.206	0.133
-314.983	320.376	0.156	0.297
-313.968	636.000	-0.052	-0.131
-312.953	-157.031	-0.135	0.008
-311.939	224.888	-0.080	0.129
-310.924	-200.000	-0.025	-0.233
-309.910	-200.000	0.008	-0.039
-308.895	103.860	0.114	-0.134
-307.880	17.978	-0.277	0.221
-306.866	66.333	-0.357	-0.363
-305.851	-200.000	0.079	-0.425
-304.837	41.324	0.234	-0.212
-303.822	181.633	0.051	-0.076
-302.807	-13.409	-0.112	0.072
-301.793	-45.417	-0.218	0.108
-300.778	208.048	-0.072	-0.113
-299.764	-57.691	0.266	0.116
-298.749	36.728	0.111	0.098
-297.735	-105.841	0.176	-0.040
-296.720	-58.850	-0.155	0.067
-295.705	-200.000	-0.026	0.182
-294.691	-200.000	0.003	0.037
-293.676	-88.611	0.433	-0.129
-292.662	-200.000	0.005	-0.225
-291.647	800.000	0.074	-0.251
-290.632	650.853	-0.047	-0.119
-289.618	195.198	0.064	0.098
-288.603	-20.631	0.246	0.151
-287.589	-15.142	-0.338	-0.216
-286.574	161.509	0.226	-0.315
-285.559	-200.000	-0.055	-0.255
-284.545	184.852	-0.193	0.286
-283.530	247.472	0.230	-0.388
-282.516	117.103	0.078	0.096
-281.501	-167.789	0.259	0.010
-280.486	-87.389	-0.521	-0.158
-279.472	68.383	-0.118	-0.120
-278.457	-200.000	0.100	-0.491
-277.443	-59.868	0.018	0.008
-276.428	800.000	-0.062	-0.173
-275.413	24.971	0.106	-0.088
-274.399	-41.000	-0.231	-0.119
-273.384	508.371	-0.084	0.195
-272.370	280.499	0.122	0.219
-271.355	-120.745	-0.240	-0.040
-270.340	298.894	-0.224	0.412
-269.326	59.184	0.145	-0.142
-268.311	134.235	-0.066	-0.086
-267.297	800.000	-0.099	-0.316
-266.282	-4.071	0.234	-0.162
-265.267	124.757	-0.208	-0.261
-264.253	-98.520	0.162	0.041
-263.238	21.459	-0.107	-0.087
-262.224	-183.339	-0.244	-0.004
-261.209	-72.223	0.117	-0.043
-260.195	-120.666	0.231	0.039
-259.180	-151.395	-0.046	-0.003
-258.165	-88.856	-0.249	0.074
-257.151	-32.868	0.168	-0.093
-256.136	-200.000	-0.006	0.076
-255.122	82.868	0.157	0.170
-254.107	-122.610	-0.413	0.067
-253.092	-75.732	0.340	-0.120
-252.078	-151.315	0.316	0.023
-251.063	-60.443	-0.082	0.035
-250.049	-112.719	0.176	-0.035
-249.034	13.073	0.299	0.231
-248.019	-193.356	0.058	0.001
-247.005	800.000	-0.141	-0.464
-245.990	-83.001	-0.248	-0.080
-244.976	-84.494	-0.242	0.076
-243.961	-100.130	0.184	0.046
-242.946	-200.000	-0.033	0.297
-241.932	-200.000	-0.045	-0.237
-240.917	-110.112	0.234	0.049
-239.903	-200.000	0.068	-0.346
-238.888	-118.684	0.104	0.018
-237.873	82.358	-0.229	-0.248
-236.859	800.000	-0.081	0.279
-235.844	403.492	0.104	-0.219
-234.830	366.221	-0.034	0.069
-233.815	-98.682	0.199	-0.051
-232.800	342.314	-0.064	0.126
-231.786	-76.340	0.005	0.002
-230.771	110.174	0.265	-0.317
-229.757	-154.790	0.078	-0.005
-228.742	800.000	-0.042	0.144
-227.727	-25.286	-0.267	0.158
-226.713	-200.000	-0.041	-0.264
-225.698	508.086	-0.124	0.286
-224.684	152.765	-0.114	0.155
-223.669	46.629	-0.170	-0.157
-222.655	-32.259	0.304	-0.169
-221.640	-80.323	-0.173	0.058
-220.625	287.812	-0.121	0.219
-219.611	212.198	0.183	-0.287
-218.596	92.777	0.098	0.110
-217.582	-89.694	0.268	-0.078
-216.567	76.178	0.123	-0.129
-215.552	-200.000	-0.066	-0.294
-214.538	365.722	-0.048	0.096
-213.523	-33.664	0.052	-0.029
-212.509	342.424	0.074	0.145
-211.494	-200.000	-0.014	-0.186
-210.479	42.995	-0.316	0.287
-209.465	-43.446	0.140	-0.070
-208.450	-52.339	-0.281	-0.130
-207.436	-70.089	0.021	-0.008
-206.421	-129.681	-0.157	-0.022
-205.406	425.021	0.075	-0.161
-204.392	174.542	-0.228	-0.328
-203.377	408.449	0.104	-0.219
-202.363	-45.604	-0.083	0.041
-201.348	-200.000	-0.013	0.068
-200.333	32.725	0.169	0.146
-199.319	800.000	0.017	0.062
-198.304	-137.763	0.149	0.017
-197.290	-135.586	0.051	0.006
-196.275	570.774	-0.051	-0.123
-195.260	41.011	0.208	0.187
-194.246	36.225	0.030	-0.026
-193.231	-9.483	-0.276	0.183
-192.217	85.421	-0.134	-0.146
-191.202	173.854	-0.041	0.059
-190.187	-200.000	0.011	-0.202
-189.173	-16.561	0.125	0.079
-188.158	24.542	-0.142	0.117
-187.144	-9.273	-0.512	0.340
-186.129	-46.067	0.278	0.136
-185.114	-200.000	-0.034	0.198
-184.100	-157.708	-0.148	-0.009
-183.085	-121.689	0.086	0.014
-182.071	-200.000	0.019	0.237
-181.056	129.973	-0.140	-0.179
-180.042	64.930	-0.279	0.280
-179.027	800.000	-0.041	0.157
-178.012	-200.000	-0.008	0.125
-176.998	228.183	0.172	-0.279
-175.983	800.000	-0.023	0.063
-174.969	-118.191	-0.139	-0.025
-173.954	-181.649	-0.284	0.005
-172.939	800.000	0.129	0.407
-171.925	551.515	0.147	0.350
-170.910	-125.886	0.091	0.014
-169.896	174.166	-0.126	0.181
-168.881	-108.164	0.124	-0.027
-167.866	87.838	0.163	-0.180
-166.852	85.429	0.225	0.246
-165.837	-168.359	0.245	-0.009
-164.823	-97.373	0.341	0.088
-163.808	120.700	0.199	0.246
-162.793	-200.000	0.001	0.177
-161.779	-96.233	-0.167	-0.044
-160.764	-128.660	-0.173	0.024
-159.750	-80.019	0.424	-0.141
-158.735	-52.899	0.328	0.150
-157.720	-104.852	0.122	-0.028
-156.706	-145.549	0.369	-0.033
-155.691	-146.833	0.182	-0.016
-154.677	-94.662	0.268	0.072
-153.662	-41.031	-0.382	0.196
-152.647	-142.388	0.292	-0.029
-151.633	-162.212	0.162	-0.008
-150.618	56.391	0.130	0.126
-149.604	83.920	-0.218	-0.237
-148.589	800.000	0.086	-0.307
-147.574	241.635	-0.023	-0.039
-146.560	-184.559	0.382	0.006
-145.545	85.955	-0.125	0.136
-144.531	-73.669	0.114	-0.041
-143.516	131.573	0.101	-0.129
-142.502	-200.000	0.020	-0.185
-141.487	120.327	-0.141	-0.174
-140.472	-200.000	0.029	-0.185
-139.458	-200.000	0.059	-0.334
-138.443	-61.480	0.207	-0.087
-137.429	195.976	0.158	0.239
-136.414	119.530	-0.167	0.205
-135.399	-116.759	-0.253	0.046
-134.385	109.653	-0.214	0.254
-133.370	60.897	0.229	0.226
-132.356	-200.000	0.000	-0.346
-131.341	-49.663	-0.295	0.139
-130.326	-134.469	-0.244	0.030
-129.312	-200.000	-0.024	-0.135
-128.297	-13.915	0.203	0.130
-127.283	607.807	0.117	-0.290
-126.268	494.648	-0.049	-0.111
-125.253	24.650	-0.296	-0.243
-124.239	-136.931	-0.332	-0.038
-123.224	252.017	-0.089	0.150
-122.210	100.743	-0.240	0.277
