DTS Sentinel unit serial number:	SN413079Multiplexer serial number:	ORYXHardware model number:	OX4-SRSoftware version number:	ORYX F/W v4.00 Oryx Data Collector v3.7.2.0data status	okinstallation	princeton_trtdifferential loss correction	single-endedforward channel	channel 1reverse channel	N/Adate	2019/09/10time	19:24:11forward acquisition time	60.00reverse acquisition time	0.00gamma	496.2192k internal	0.2320k external	0.2320temperature offset calibration	0.9928default loss term (dB/km)	0.3790temperature slope calibration	1.0000multiplexer offset coefficient	1.0000multiplexer slope coefficient	1.0000fibre end	0.00T internal ref (°C)	33.69T ext. ref 1 (°C)	-0.32T ext. ref 2 (°C)	26.10length (m)	temperature (°C)	Stokes	anti-Stokes-747.200	37.518	-0.118	0.106
-746.185	-157.775	0.236	0.014
-745.171	-92.166	0.275	0.078
-744.156	11.252	0.042	0.033
-743.142	19.251	0.238	0.193
-742.127	547.451	0.082	0.198
-741.112	349.077	-0.083	0.166
-740.098	-134.050	-0.237	0.030
-739.083	21.091	-0.173	-0.142
-738.069	-31.050	-0.136	0.078
-737.054	260.593	0.060	-0.105
-736.039	35.601	-0.567	-0.503
-735.025	101.637	0.162	0.191
-734.010	-200.000	0.010	-0.055
-732.996	192.733	0.047	-0.072
-731.981	27.581	-0.084	0.072
-730.966	-134.384	-0.231	0.029
-729.952	-62.677	0.141	-0.059
-728.937	-144.833	-0.117	0.011
-727.923	-69.298	-0.116	0.045
-726.908	-96.215	0.197	-0.053
-725.894	-4.867	-0.240	-0.167
-724.879	-61.958	0.102	0.043
-723.864	162.643	-0.062	0.087
-722.850	-27.209	0.322	-0.190
-721.835	-93.672	0.161	0.045
-720.821	-7.393	-0.298	-0.204
-719.806	559.266	0.031	-0.077
-718.791	53.932	-0.080	0.078
-717.777	9.227	0.158	-0.121
-716.762	4.541	-0.162	-0.120
-715.748	800.000	-0.054	0.213
-714.733	28.472	-0.158	0.135
-713.718	-128.021	-0.175	-0.025
-712.704	-25.597	-0.137	0.082
-711.689	800.000	0.082	-0.350
-710.675	347.384	-0.113	-0.225
-709.660	51.614	0.146	-0.140
-708.645	43.559	0.108	-0.099
-707.631	54.711	0.156	-0.152
-706.616	-81.669	0.092	0.030
-705.602	-28.300	0.134	0.078
-704.587	-73.075	0.130	-0.048
-703.572	51.180	0.110	-0.106
-702.558	11.918	0.233	-0.181
-701.543	17.735	-0.164	-0.132
-700.529	-127.201	-0.289	0.043
-699.514	-85.600	-0.382	0.120
-698.499	34.559	0.095	0.084
-697.485	-62.528	-0.123	0.052
-696.470	800.000	-0.031	-0.119
-695.456	-57.192	-0.251	0.111
-694.441	-137.892	-0.165	0.019
-693.426	800.000	0.064	-0.232
-692.412	31.013	-0.123	0.107
-691.397	-32.616	-0.198	-0.111
-690.383	-200.000	-0.043	0.350
-689.368	95.310	-0.108	-0.125
-688.354	-128.577	-0.181	0.026
-687.339	226.487	-0.090	-0.147
-686.324	-200.000	0.025	-0.258
-685.310	-85.399	-0.372	-0.117
-684.295	-0.407	-0.304	0.218
-683.281	82.037	-0.353	-0.385
-682.266	8.635	-0.213	-0.162
-681.251	91.199	0.109	-0.123
-680.237	39.958	-0.248	-0.224
-679.222	-0.151	-0.073	-0.053
-678.208	30.620	-0.031	-0.027
-677.193	-128.437	0.395	0.057
-676.178	6.586	0.083	0.063
-675.164	485.620	-0.082	-0.190
-674.149	-4.815	-0.329	-0.229
-673.135	300.115	-0.203	0.378
-672.120	353.445	0.117	-0.234
-671.105	184.463	0.026	-0.039
-670.091	227.317	-0.160	0.262
-669.076	65.373	-0.144	-0.147
-668.062	-135.977	-0.083	-0.010
-667.047	-160.794	-0.180	-0.010
-666.032	-200.000	-0.055	-0.375
-665.018	-98.511	-0.402	-0.104
-664.003	-200.000	-0.268	0.001
-662.989	800.000	-0.068	-0.196
-661.974	-62.374	0.046	-0.019
-660.959	800.000	0.029	-0.099
-659.945	129.342	0.212	-0.273
-658.930	-200.000	-0.015	0.326
-657.916	89.268	0.158	0.177
-656.901	71.433	-0.095	-0.099
-655.886	118.915	0.199	-0.248
-654.872	-22.012	-0.212	-0.130
-653.857	-2.832	0.112	-0.079
-652.843	-96.217	0.059	0.016
-651.828	119.028	0.125	0.156
-650.814	70.672	0.205	-0.214
-649.799	-145.003	0.028	-0.003
-648.784	769.025	-0.077	-0.212
-647.770	-200.000	-0.005	0.131
-646.755	407.803	0.063	-0.134
-645.741	-38.538	0.168	0.090
-644.726	-200.000	-0.008	-0.147
-643.711	194.809	-0.068	0.103
-642.697	-189.115	0.139	0.002
-641.682	800.000	-0.086	-0.286
-640.668	-120.258	-0.391	0.067
-639.653	389.081	0.071	-0.149
-638.638	-81.954	-0.238	0.078
-637.624	-61.449	0.088	0.037
-636.609	-27.829	-0.130	-0.076
-635.595	800.000	0.025	0.102
-634.580	-200.000	0.045	-0.228
-633.565	-53.617	0.204	-0.094
-632.551	459.492	-0.133	0.298
-631.536	-200.000	-0.007	-0.070
-630.522	-200.000	0.020	0.170
-629.507	-200.000	0.006	-0.026
-628.492	659.558	0.094	-0.243
-627.478	-200.000	0.015	0.186
-626.463	-200.000	-0.003	0.011
-625.449	413.263	-0.046	0.099
-624.434	85.623	0.151	-0.167
-623.419	35.281	-0.101	0.089
-622.405	-123.819	-0.237	0.038
-621.390	-200.000	0.061	0.292
-620.376	-60.554	0.194	-0.083
-619.361	-101.648	0.339	0.083
-618.346	-200.000	-0.012	0.225
-617.332	-50.166	-0.476	-0.227
-616.317	54.625	0.103	0.100
-615.303	-200.000	-0.006	0.205
-614.288	17.208	-0.201	-0.160
-613.273	424.916	-0.110	0.238
-612.259	-200.000	0.038	-0.347
-611.244	800.000	-0.101	-0.339
-610.230	-200.000	0.001	0.108
-609.215	800.000	-0.033	-0.121
-608.201	-112.651	-0.165	0.033
-607.186	-200.000	-0.006	-0.579
-606.171	53.415	-0.150	0.145
-605.157	-200.000	0.017	-0.258
-604.142	-33.433	-0.468	0.260
-603.128	582.990	-0.068	-0.169
-602.113	83.970	-0.032	0.035
-601.098	-200.000	0.020	0.312
-600.084	357.247	-0.065	-0.130
-599.069	11.003	-0.095	-0.073
-598.055	352.013	0.057	-0.113
-597.040	-77.385	-0.349	-0.122
-596.025	202.053	0.045	0.070
-595.011	111.114	0.149	0.180
-593.996	416.891	0.034	-0.072
-592.982	-137.285	0.134	0.015
-591.967	-200.000	-0.017	-0.340
-590.952	120.584	-0.052	0.065
-589.938	-189.215	-0.352	0.004
-588.923	314.641	-0.032	0.061
-587.909	151.866	-0.054	0.074
-586.894	800.000	-0.071	0.261
-585.879	-30.234	-0.160	0.092
-584.865	784.143	-0.028	-0.078
-583.850	-200.000	-0.017	-0.355
-582.836	800.000	-0.124	-0.492
-581.821	-20.820	-0.075	0.046
-580.806	120.086	-0.022	-0.027
-579.792	800.000	-0.069	0.255
-578.777	512.576	-0.047	0.110
-577.763	-113.539	-0.039	-0.008
-576.748	733.292	0.071	0.191
-575.733	445.253	-0.018	-0.040
-574.719	-71.343	-0.115	-0.043
-573.704	-200.000	0.023	0.271
-572.690	-17.620	-0.156	-0.098
-571.675	-28.380	0.187	0.108
-570.661	622.147	0.115	-0.290
-569.646	-200.000	-0.000	0.013
-568.631	800.000	0.121	-0.349
-567.617	-200.000	0.001	-0.406
-566.602	-56.879	0.102	0.045
-565.588	133.934	0.209	-0.271
-564.573	-123.998	-0.216	0.034
-563.558	-200.000	0.023	0.103
-562.544	-6.784	-0.297	-0.203
-561.529	35.176	-0.226	-0.199
-560.515	-50.254	0.125	0.060
-559.500	244.894	-0.084	-0.142
-558.485	165.518	-0.035	-0.049
-557.471	-131.401	0.235	-0.031
-556.456	-200.000	-0.007	0.130
-555.442	-46.128	0.163	0.080
-554.427	305.324	-0.220	0.410
-553.412	-60.771	-0.071	-0.030
-552.398	800.000	0.058	0.226
-551.383	-153.524	-0.180	0.013
-550.369	-129.025	0.114	-0.016
-549.354	-35.003	0.159	0.087
-548.339	-200.000	-0.002	-0.052
-547.325	-174.580	-0.432	0.012
-546.310	-200.000	0.001	0.041
-545.296	-117.447	-0.075	0.014
-544.281	505.142	-0.045	0.105
-543.266	-4.724	0.061	-0.042
-542.252	-55.631	-0.308	0.138
-541.237	69.446	0.094	-0.097
-540.223	312.997	-0.209	0.394
-539.208	-95.044	-0.353	0.096
-538.193	422.552	0.039	-0.084
-537.179	800.000	-0.049	-0.193
-536.164	54.510	-0.253	0.244
-535.150	-83.793	0.145	-0.046
-534.135	108.975	-0.116	0.140
-533.121	-88.473	-0.112	0.034
-532.106	490.775	-0.101	-0.231
-531.091	206.664	-0.118	-0.184
-530.077	-34.832	0.444	-0.243
-529.062	115.771	0.084	-0.103
-528.048	411.462	-0.032	0.068
-527.033	-123.505	-0.286	-0.046
-526.018	30.437	0.060	0.051
-525.004	-157.738	-0.230	0.014
-523.989	-68.286	-0.162	0.063
-522.975	70.816	0.048	0.050
-521.960	62.609	-0.169	-0.170
-520.945	800.000	0.033	-0.125
-519.931	28.422	0.107	-0.091
-518.916	33.238	-0.117	0.102
-517.902	-166.020	-0.486	-0.021
-516.887	-200.000	0.008	-0.167
-515.872	-2.640	-0.215	-0.151
-514.858	-200.000	0.072	0.459
-513.843	-42.010	0.105	-0.054
-512.829	48.668	0.147	0.138
-511.814	-41.039	0.132	0.068
-510.799	41.576	0.046	0.042
-509.785	-73.894	-0.391	0.142
-508.770	34.123	-0.111	0.097
-507.756	-134.935	-0.103	-0.012
-506.741	-28.937	-0.126	0.073
-505.726	-142.078	0.142	0.014
-504.712	800.000	-0.082	0.266
-503.697	473.306	-0.015	0.033
-502.683	596.184	0.079	-0.196
-501.668	26.932	-0.342	0.287
-500.653	340.789	-0.007	0.013
-499.639	-119.539	0.041	0.007
-498.624	-66.074	0.351	0.140
-497.610	-80.013	0.312	-0.105
-496.595	227.042	0.127	0.206
-495.581	-117.719	0.469	-0.085
-494.566	157.179	-0.037	0.052
-493.551	321.252	-0.086	-0.163
-492.537	202.468	-0.131	-0.203
-491.522	-85.591	0.156	-0.049
-490.508	26.350	-0.214	0.179
-489.493	-165.084	0.287	0.013
-488.478	-157.711	-0.388	-0.023
-487.464	-141.730	-0.165	0.017
-486.449	-200.000	0.015	-0.274
-485.435	-148.831	-0.136	-0.011
-484.420	-116.590	0.323	-0.060
-483.405	-120.268	0.197	-0.034
-482.391	-14.834	0.230	-0.148
-481.376	163.419	-0.121	0.171
-480.362	14.034	-0.076	-0.059
-479.347	-122.743	-0.023	-0.004
-478.332	800.000	0.024	-0.067
-477.318	-64.786	0.200	-0.081
-476.303	-102.320	0.323	0.078
-475.289	167.934	0.186	-0.264
-474.274	371.714	0.105	-0.213
-473.259	-89.262	-0.439	0.130
-472.245	-85.646	-0.143	-0.045
-471.230	741.637	0.052	0.139
-470.216	-200.000	0.015	-0.069
-469.201	-83.175	0.160	0.051
-468.186	-121.613	-0.046	0.008
-467.172	128.236	-0.213	0.272
-466.157	577.871	0.108	-0.265
-465.143	-200.000	-0.001	-0.019
-464.128	-138.933	-0.208	0.023
-463.113	-200.000	0.041	0.228
-462.099	-158.891	-0.092	0.005
-461.084	-24.887	-0.240	-0.143
-460.070	-41.304	-0.468	0.241
-459.055	-0.757	0.220	-0.156
-458.040	48.702	0.065	-0.061
-457.026	-152.422	0.192	0.014
-456.011	59.674	-0.043	0.042
-454.997	-195.765	-0.352	-0.003
-453.982	27.557	-0.174	0.146
-452.968	68.875	-0.129	0.133
-451.953	-36.916	0.324	0.174
-450.938	-200.000	0.010	-0.527
-449.924	46.869	-0.068	-0.063
-448.909	-0.624	-0.083	-0.059
-447.895	800.000	-0.057	-0.170
-446.880	-53.532	0.129	-0.059
-445.865	-176.582	-0.539	0.014
-444.851	115.297	-0.220	0.268
-443.836	13.311	0.153	0.118
-442.822	-91.971	-0.041	-0.012
-441.807	800.000	0.032	-0.138
-440.792	-85.528	-0.259	0.081
-439.778	32.498	-0.152	0.132
-438.763	-77.991	-0.028	0.010
-437.749	-15.312	0.229	0.146
-436.734	-200.000	-0.024	-0.196
-435.719	-19.261	0.146	-0.091
-434.705	376.972	-0.068	-0.140
-433.690	55.729	-0.065	0.063
-432.676	-200.000	0.045	0.227
-431.661	173.936	-0.145	0.210
-430.646	60.370	0.097	0.096
-429.632	-165.988	0.262	0.011
-428.617	-21.788	-0.188	0.114
-427.603	51.201	0.047	0.045
-426.588	180.372	-0.167	0.245
-425.573	800.000	0.036	-0.135
-424.559	18.075	0.136	0.108
-423.544	462.474	-0.075	-0.168
-422.530	-37.119	0.214	-0.114
-421.515	-200.000	0.004	-0.070
-420.500	220.234	-0.137	-0.219
-419.486	445.297	0.090	0.198
-418.471	287.359	0.234	-0.422
-417.457	-13.536	-0.229	-0.148
-416.442	-12.860	0.066	0.043
-415.428	-200.000	-0.020	-0.090
-414.413	7.190	0.106	-0.079
-413.398	-32.345	-0.028	0.015
-412.384	-33.584	-0.425	0.234
-411.369	-30.271	0.305	0.173
-410.355	-153.934	0.421	-0.029
-409.340	688.254	-0.091	-0.239
-408.325	44.734	-0.126	0.116
-407.311	116.740	-0.144	-0.177
-406.296	-88.906	-0.229	-0.068
-405.282	212.994	0.033	-0.052
-404.267	-69.427	-0.158	0.060
-403.252	-51.622	0.505	0.235
-402.238	350.973	0.051	-0.100
-401.223	196.554	0.150	-0.229
-400.209	78.183	-0.058	0.062
-399.194	306.119	-0.096	-0.178
-398.179	613.670	0.130	0.325
-397.165	19.120	0.181	-0.145
-396.150	-49.857	0.010	0.005
-395.136	800.000	-0.102	-0.384
-394.121	-27.213	-0.256	-0.149
-393.106	-127.117	0.252	-0.037
-392.092	-65.737	0.304	0.122
-391.077	164.299	0.091	0.127
-390.063	-200.000	-0.004	-0.063
-389.048	59.593	0.274	-0.269
-388.033	-156.682	0.327	0.020
-387.019	13.208	0.129	-0.100
-386.004	488.956	-0.047	-0.108
-384.990	-200.000	0.060	0.287
-383.975	-7.586	-0.081	0.055
-382.960	-141.659	0.284	-0.028
-381.946	-10.672	0.347	0.229
-380.931	196.089	0.248	0.376
-379.917	633.189	0.059	-0.148
-378.902	167.887	-0.042	0.059
-377.888	519.108	-0.049	-0.115
-376.873	226.478	-0.189	0.306
-375.858	-27.818	0.178	0.103
-374.844	103.798	0.107	0.126
-373.829	204.672	0.089	-0.137
-372.815	-30.374	0.461	-0.261
-371.800	-200.000	-0.007	0.061
-370.785	800.000	-0.056	-0.207
-369.771	349.137	-0.133	-0.261
-368.756	-74.471	-0.426	0.153
-367.742	35.866	-0.173	-0.151
-366.727	283.268	-0.044	0.078
-365.712	-135.219	0.201	0.024
-364.698	-200.000	0.088	-0.431
-363.683	62.506	0.044	-0.044
-362.669	-200.000	0.014	0.162
-361.654	-32.723	-0.143	0.079
-360.639	33.280	-0.174	0.151
-359.625	369.629	0.054	0.109
-358.610	-200.000	0.030	0.272
-357.596	-200.000	0.008	-0.191
-356.581	440.569	0.196	0.427
-355.566	-154.418	-0.258	-0.017
-354.552	-122.636	-0.271	-0.044
-353.537	179.437	0.141	-0.206
-352.523	173.189	0.259	0.371
-351.508	-175.304	0.201	0.005
-350.493	-29.935	-0.364	-0.206
-349.479	173.900	-0.072	-0.103
-348.464	-77.951	0.090	-0.031
-347.450	-15.200	0.214	-0.136
-346.435	-200.000	0.001	-0.213
-345.420	31.490	0.261	-0.223
-344.406	-83.385	0.162	0.052
-343.391	800.000	0.071	0.205
-342.377	-200.000	0.006	0.169
-341.362	501.248	0.138	0.317
-340.348	-79.831	-0.096	-0.032
-339.333	30.360	0.122	-0.104
-338.318	224.954	0.175	0.282
-337.304	449.184	-0.142	-0.312
-336.289	-40.403	0.374	0.193
-335.275	789.704	-0.103	0.283
-334.260	800.000	0.048	0.158
-333.245	424.200	-0.151	0.323
-332.231	110.848	-0.182	0.218
-331.216	148.657	-0.155	0.208
-330.202	10.451	0.218	-0.165
-329.187	-118.907	0.206	-0.036
-328.172	-4.471	-0.283	-0.194
-327.158	128.053	0.072	-0.091
-326.143	634.236	0.110	0.278
-325.129	-66.885	0.212	-0.083
-324.114	18.096	0.361	0.287
-323.099	15.551	-0.111	-0.087
-322.085	-107.670	0.323	-0.070
-321.070	358.339	-0.157	0.312
-320.056	357.948	0.030	-0.060
-319.041	63.376	-0.040	0.040
-318.026	-197.074	0.063	-0.000
-317.012	-30.622	-0.433	0.244
-315.997	4.013	0.071	-0.052
-314.983	800.000	0.121	0.413
-313.968	-157.088	-0.387	-0.023
-312.953	-106.273	0.411	0.092
-311.939	-194.513	-0.032	-0.000
-310.924	245.461	-0.137	-0.229
-309.910	-57.901	-0.239	0.104
-308.895	-149.674	0.165	-0.013
-307.880	-113.352	-0.315	0.062
-306.866	184.163	0.029	-0.043
-305.851	-105.344	0.047	-0.011
-304.837	-36.806	0.083	0.044
-303.822	104.484	-0.149	-0.175
-302.807	-17.664	-0.068	-0.043
-301.793	15.322	0.171	-0.134
-300.778	-29.171	-0.370	0.211
-299.764	-120.308	0.193	-0.033
-298.749	-107.916	0.157	0.034
-297.735	-117.963	0.350	-0.062
-296.720	226.057	-0.088	-0.142
-295.705	-46.244	-0.151	-0.074
-294.691	48.391	-0.228	-0.212
-293.676	-200.000	0.233	0.001
-292.662	533.750	-0.180	-0.424
-291.647	-150.171	0.421	0.032
-290.632	-74.932	0.214	0.076
-289.618	313.671	0.165	-0.309
-288.603	125.949	0.061	0.076
-287.589	157.052	0.191	0.263
-286.574	59.846	0.150	-0.147
-285.559	380.258	0.113	-0.231
-284.545	-117.036	-0.087	0.016
-283.530	683.651	0.084	-0.218
-282.516	-200.000	0.294	-0.001
-281.501	-74.747	-0.349	0.125
-280.486	-17.425	0.205	0.128
-279.472	-200.000	-0.006	-0.071
-278.457	246.675	0.118	-0.198
-277.443	-12.371	0.061	0.040
-276.428	-101.694	-0.120	0.029
-275.413	81.673	-0.079	-0.085
-274.399	-62.065	0.372	-0.154
-273.384	-14.861	0.215	-0.137
-272.370	-167.588	-0.139	-0.006
-271.355	-156.514	0.623	0.039
-270.340	800.000	-0.099	-0.357
-269.326	800.000	-0.040	-0.113
-268.311	-95.093	-0.201	0.054
-267.297	-96.526	0.041	0.011
-266.282	-200.000	0.006	0.085
-265.267	800.000	0.017	0.063
-264.253	142.156	0.242	0.319
-263.238	-92.733	-0.237	-0.066
-262.224	-82.736	-0.329	0.106
-261.209	-161.956	0.030	0.002
-260.195	-200.000	-0.006	-0.108
-259.180	-166.832	-0.205	0.008
-258.165	-18.642	-0.120	0.074
-257.151	530.022	0.043	-0.101
-256.136	518.826	0.073	-0.169
-255.122	-170.785	0.164	-0.006
-254.107	-73.656	0.102	-0.037
-253.092	150.928	-0.231	0.312
-252.078	-126.758	-0.272	-0.040
-251.063	132.022	0.162	0.207
-250.049	152.829	0.161	0.218
-249.034	315.664	0.081	0.152
-248.019	508.889	-0.098	0.226
-247.005	94.457	-0.060	0.067
-245.990	-200.000	-0.034	0.345
-244.976	-11.790	0.055	-0.036
-243.961	181.315	0.205	0.299
-242.946	-47.983	-0.188	0.090
-241.932	-49.260	-0.196	-0.093
-240.917	213.921	-0.066	-0.104
-239.903	-169.268	-0.122	-0.004
-238.888	-200.000	-0.011	0.264
-237.873	-200.000	-0.004	-0.098
-236.859	-122.395	0.035	0.006
-235.844	154.759	-0.160	0.217
-234.830	800.000	0.079	0.234
-233.815	14.182	0.126	0.097
-232.800	-200.000	-0.011	-0.197
-231.786	-93.579	-0.242	-0.066
-230.771	-200.000	-0.034	0.178
-229.757	-60.094	-0.231	0.098
-228.742	-36.673	0.265	0.141
-227.727	-68.422	0.217	-0.083
-226.713	70.272	-0.191	-0.195
-225.698	-100.737	0.175	-0.043
-224.684	362.135	0.139	-0.277
-223.669	43.335	0.312	-0.283
-222.655	-200.000	-0.002	-0.031
-221.640	228.240	-0.104	-0.168
-220.625	-200.000	-0.018	-0.201
-219.611	-200.000	0.038	-0.307
-218.596	-82.548	-0.210	-0.068
-217.582	-200.000	-0.025	0.180
-216.567	-130.861	0.348	-0.046
-215.552	-121.241	0.246	-0.041
-214.538	60.330	0.102	0.100
-213.523	-84.688	0.317	-0.099
-212.509	48.058	0.065	0.061
-211.494	309.387	-0.068	-0.126
-210.479	-66.478	0.156	-0.061
-209.465	-200.000	-0.046	-0.212
-208.450	487.029	-0.072	0.163
-207.436	800.000	0.114	-0.314
-206.421	-200.000	0.002	-0.285
-205.406	43.384	0.233	0.211
-204.392	-173.276	-0.210	-0.006
-203.377	60.123	-0.046	-0.045
-202.363	-12.750	-0.215	-0.139
-201.348	11.327	0.273	-0.207
-200.333	-64.370	-0.501	0.202
-199.319	-200.000	0.003	0.298
-198.304	-200.000	-0.014	0.251
-197.290	27.254	0.189	0.157
-196.275	22.840	-0.177	-0.144
-195.260	630.194	-0.109	-0.272
-194.246	800.000	-0.066	-0.253
-193.231	23.501	0.215	-0.175
-192.217	-26.133	0.106	0.062
-191.202	-97.974	0.290	-0.074
-190.187	-200.000	-0.036	-0.218
-189.173	800.000	0.137	-0.417
-188.158	-124.232	0.032	0.005
-187.144	76.950	0.051	0.054
-186.129	800.000	0.043	-0.162
-185.114	388.975	-0.269	-0.551
-184.100	283.136	0.049	0.087
-183.085	1.547	-0.161	0.115
-182.071	282.012	-0.022	0.040
-181.056	-154.088	0.109	-0.007
-180.042	-200.000	-0.031	-0.161
-179.027	-78.034	0.170	0.058
-178.012	72.048	-0.237	0.244
-176.998	-49.100	-0.099	0.047
-175.983	-137.375	0.224	0.025
-174.969	-74.527	0.216	0.077
-173.954	-200.000	-0.001	0.396
-172.939	-200.000	0.027	0.321
-171.925	0.582	0.111	0.079
-170.910	-200.000	-0.013	-0.165
-169.896	-3.651	0.238	0.164
-168.881	-200.000	0.005	0.340
-167.866	214.971	0.113	-0.177
-166.852	800.000	0.001	0.003
-165.837	-137.763	-0.211	0.023
-164.823	36.451	-0.094	-0.082
-163.808	39.698	-0.211	0.187
-162.793	78.976	-0.296	0.313
-161.779	7.045	-0.202	0.149
-160.764	-152.354	0.192	0.014
-159.750	-31.056	0.070	-0.039
-158.735	-62.595	-0.052	-0.021
-157.720	248.480	0.097	-0.162
-156.706	-64.434	0.182	0.073
-155.691	-167.475	-0.281	-0.011
-154.677	243.709	-0.256	0.425
-153.662	6.997	0.273	0.201
-152.647	-109.219	0.249	0.052
-151.633	89.002	-0.091	0.100
-150.618	-200.000	-0.021	0.175
-149.604	-50.372	-0.115	-0.054
-148.589	163.916	-0.133	-0.186
-147.574	348.722	-0.040	-0.077
-146.560	-13.410	-0.247	-0.158
-145.545	-200.000	0.027	-0.239
-144.531	-200.000	-0.002	0.189
-143.516	-200.000	-0.002	-0.181
-142.502	22.985	0.170	0.138
-141.487	88.385	0.177	0.194
-140.472	59.225	0.196	-0.191
-139.458	-184.922	-0.307	0.005
-138.443	290.719	-0.073	-0.132
-137.429	-46.142	-0.036	-0.018
-136.414	556.652	0.136	0.324
-135.399	299.310	0.099	-0.180
-134.385	-4.656	0.040	0.027
-133.370	800.000	0.080	0.340
-132.356	-99.975	0.380	0.094
-131.341	141.188	-0.227	-0.296
-130.326	-23.978	-0.113	0.067
-129.312	-111.511	-0.043	0.009
-128.297	-108.730	0.414	-0.088
-127.283	306.172	-0.077	-0.141
-126.268	11.237	0.229	-0.173
-125.253	-200.000	-0.018	-0.390
-124.239	800.000	-0.092	-0.277
-123.224	800.000	0.057	-0.189
-122.210	-120.018	0.202	0.034
-121.195	-116.099	-0.122	0.022
