DTS Sentinel unit serial number:	SN413079Multiplexer serial number:	ORYXHardware model number:	OX4-SRSoftware version number:	ORYX F/W v4.00 Oryx Data Collector v3.7.2.0data status	okinstallation	princeton_trtdifferential loss correction	single-endedforward channel	channel 1reverse channel	N/Adate	2019/09/12time	06:52:11forward acquisition time	60.00reverse acquisition time	0.00gamma	496.2192k internal	0.2320k external	0.2320temperature offset calibration	1.0050default loss term (dB/km)	0.3790temperature slope calibration	1.0000multiplexer offset coefficient	1.0000multiplexer slope coefficient	1.0000fibre end	0.00T internal ref (°C)	32.14T ext. ref 1 (°C)	1.60T ext. ref 2 (°C)	27.25length (m)	temperature (°C)	Stokes	anti-Stokes-747.200	-16.158	0.225	0.144
-746.185	-124.163	-0.276	-0.044
-745.171	800.000	-0.081	-0.335
-744.156	800.000	0.115	0.471
-743.142	-149.531	0.403	-0.032
-742.127	113.019	0.038	-0.047
-741.112	-31.245	0.216	-0.123
-740.098	141.346	-0.204	0.273
-739.083	97.700	0.113	0.131
-738.069	-200.000	-0.017	0.211
-737.054	-55.895	-0.253	0.114
-736.039	-200.000	-0.002	-0.109
-735.025	-200.000	-0.018	0.157
-734.010	-200.000	0.036	-0.381
-732.996	-200.000	-0.013	-0.260
-731.981	-200.000	0.009	0.167
-730.966	-200.000	0.090	0.493
-729.952	67.784	0.187	0.193
-728.937	-33.309	0.065	-0.036
-727.923	181.090	-0.128	-0.189
-726.908	-200.000	0.011	0.202
-725.894	-100.114	-0.218	-0.055
-724.879	218.784	0.173	-0.279
-723.864	269.508	-0.073	0.130
-722.850	-62.211	-0.087	-0.037
-721.835	-11.946	0.149	0.099
-720.821	-200.000	0.028	-0.141
-719.806	-200.000	0.028	0.170
-718.791	-41.578	0.060	0.031
-717.777	1.322	0.149	0.108
-716.762	1.046	0.123	-0.089
-715.748	427.510	0.054	-0.119
-714.733	226.930	-0.124	-0.204
-713.718	277.438	-0.219	0.394
-712.704	-18.164	0.062	-0.039
-711.689	169.193	0.107	-0.155
-710.675	-118.344	0.222	0.040
-709.660	-114.951	-0.220	-0.042
-708.645	69.148	0.209	-0.217
-707.631	593.328	0.072	-0.180
-706.616	-86.640	0.295	-0.091
-705.602	612.523	-0.053	-0.135
-704.587	-28.680	0.157	-0.092
-703.572	134.359	-0.053	-0.070
-702.558	-200.000	0.000	0.172
-701.543	-140.043	0.213	0.023
-700.529	23.830	0.057	0.048
-699.514	65.381	-0.088	-0.090
-698.499	-9.625	-0.157	-0.105
-697.485	-49.505	0.228	0.110
-696.470	-2.199	0.032	0.022
-695.456	-200.000	-0.014	-0.094
-694.441	-193.337	0.141	-0.001
-693.426	800.000	-0.068	0.267
-692.412	-90.135	-0.281	0.083
-691.397	-114.914	0.324	0.062
-690.383	-80.302	-0.295	-0.099
-689.368	-200.000	-0.062	0.320
-688.354	-118.679	-0.509	-0.091
-687.339	12.846	0.326	-0.254
-686.324	-38.072	0.077	0.041
-685.310	82.716	0.029	0.031
-684.295	172.574	0.018	0.026
-683.281	-147.247	-0.192	0.016
-682.266	-18.409	0.083	0.052
-681.251	-25.403	0.246	0.147
-680.237	705.901	0.081	-0.215
-679.222	-181.347	-0.297	0.006
-678.208	421.933	-0.146	-0.317
-677.193	785.255	-0.074	-0.204
-676.178	-25.826	0.163	0.097
-675.164	-200.000	-0.009	-0.059
-674.149	51.034	0.096	-0.092
-673.135	115.959	-0.150	0.185
-672.120	-200.000	-0.020	-0.179
-671.105	-200.000	0.023	-0.222
-670.091	106.053	0.057	-0.068
-669.076	-200.000	0.018	0.181
-668.062	-200.000	0.028	-0.168
-667.047	-17.298	0.300	-0.191
-666.032	81.566	-0.394	-0.430
-665.018	539.816	-0.099	-0.236
-664.003	282.030	-0.054	0.097
-662.989	-50.809	-0.352	-0.167
-661.974	-200.000	-0.060	-0.283
-660.959	92.586	0.228	-0.259
-659.945	-183.633	-0.401	0.007
-658.930	182.304	0.072	0.107
-657.916	-128.383	-0.452	-0.065
-656.901	232.110	-0.057	-0.094
-655.886	800.000	0.088	-0.266
-654.872	-200.000	-0.021	-0.191
-653.857	-181.159	-0.491	-0.010
-652.843	-159.797	0.392	-0.022
-651.828	2.311	-0.112	0.082
-650.814	-196.399	0.287	-0.002
-649.799	627.015	-0.104	0.263
-648.784	-68.931	0.261	0.102
-647.770	121.207	-0.116	-0.145
-646.755	-134.657	-0.314	-0.038
-645.741	-69.806	-0.209	-0.081
-644.726	-5.074	0.119	0.082
-643.711	-42.780	-0.285	0.146
-642.697	-200.000	0.003	-0.025
-641.682	48.699	0.160	0.151
-640.668	156.167	0.119	0.166
-639.653	-63.647	-0.159	-0.066
-638.638	800.000	-0.133	-0.429
-637.624	-50.936	0.283	-0.134
-636.609	637.720	-0.084	-0.216
-635.595	165.229	0.120	-0.170
-634.580	198.796	0.144	0.223
-633.565	630.581	0.092	0.235
-632.551	800.000	-0.048	-0.183
-631.536	174.225	0.065	0.095
-630.522	-200.000	-0.024	0.158
-629.507	220.252	-0.217	-0.350
-628.492	153.029	-0.057	-0.078
-627.478	-22.910	0.306	0.186
-626.463	-163.553	-0.298	0.014
-625.449	800.000	-0.068	0.254
-624.434	-200.000	0.001	0.118
-623.419	8.080	0.160	0.121
-622.405	286.818	-0.058	0.106
-621.390	-28.571	-0.110	-0.064
-620.376	-29.395	-0.098	-0.056
-619.361	800.000	0.017	0.075
-618.346	-10.599	0.128	-0.085
-617.332	9.391	0.107	-0.081
-616.317	245.931	-0.127	-0.215
-615.303	-200.000	0.034	-0.169
-614.288	60.119	-0.013	-0.013
-613.273	-134.691	-0.115	0.014
-612.259	-200.000	-0.045	0.392
-611.244	800.000	0.062	0.176
-610.230	-156.286	-0.208	-0.013
-609.215	800.000	-0.110	-0.343
-608.201	800.000	-0.106	0.295
-607.186	-200.000	0.054	0.312
-606.171	-200.000	0.012	-0.160
-605.157	77.337	0.177	-0.189
-604.142	160.542	0.150	-0.210
-603.128	-200.000	-0.024	-0.175
-602.113	800.000	0.077	0.221
-601.098	-200.000	0.008	-0.429
-600.084	23.993	0.018	0.015
-599.069	-112.561	0.334	-0.067
-598.055	652.774	-0.098	0.253
-597.040	-150.138	-0.173	0.013
-596.025	65.414	0.381	-0.387
-595.011	113.078	-0.137	-0.167
-593.996	9.718	-0.222	0.169
-592.982	440.812	0.179	0.394
-591.967	-145.983	0.362	0.032
-590.952	-200.000	0.034	0.288
-589.938	-120.643	0.060	-0.010
-588.923	31.410	0.066	0.057
-587.909	123.971	-0.337	-0.425
-586.894	-84.207	-0.061	-0.020
-585.879	27.396	0.144	0.122
-584.865	-131.007	0.161	0.022
-583.850	-200.000	-0.091	-0.450
-582.836	-63.234	-0.128	0.053
-581.821	-200.000	-0.028	0.209
-580.806	-49.759	-0.131	-0.062
-579.792	-121.760	-0.318	0.053
-578.777	800.000	-0.048	-0.162
-577.763	109.265	0.071	-0.086
-576.748	31.487	-0.255	-0.220
-575.733	236.014	-0.237	-0.394
-574.719	14.700	-0.210	0.165
-573.704	12.011	-0.157	0.121
-572.690	800.000	0.084	-0.261
-571.675	-200.000	-0.016	-0.113
-570.661	47.580	-0.102	0.096
-569.646	145.940	0.109	0.146
-568.631	800.000	0.043	-0.150
-567.617	25.736	-0.182	0.153
-566.602	-173.400	-0.138	-0.004
-565.588	-89.034	-0.111	-0.033
-564.573	-200.000	0.016	0.082
-563.558	-200.000	0.004	-0.027
-562.544	-139.847	0.278	-0.030
-561.529	-200.000	0.009	-0.082
-560.515	-15.274	-0.203	0.130
-559.500	-36.110	0.184	-0.100
-558.485	800.000	0.022	0.074
-557.471	-200.000	0.011	0.111
-556.456	-60.150	0.143	-0.061
-555.442	34.796	0.114	-0.100
-554.427	661.091	0.072	-0.185
-553.412	-118.490	0.293	0.052
-552.398	800.000	0.069	-0.198
-551.383	-200.000	-0.011	0.109
-550.369	-199.188	0.397	-0.002
-549.354	215.642	-0.160	0.256
-548.339	121.167	-0.128	-0.160
-547.325	-200.000	0.001	0.021
-546.310	800.000	0.063	-0.181
-545.296	77.872	-0.254	-0.271
-544.281	88.450	-0.152	-0.169
-543.266	71.456	0.125	-0.131
-542.252	-75.681	-0.108	-0.038
-541.237	47.594	-0.093	-0.087
-540.223	103.153	-0.266	-0.313
-539.208	117.438	-0.064	0.078
-538.193	42.105	-0.126	-0.115
-537.179	-143.272	-0.211	0.020
-536.164	-112.812	-0.371	-0.074
-535.150	-150.343	-0.220	-0.017
-534.135	15.480	0.249	0.196
-533.121	-110.824	0.158	0.033
-532.106	800.000	0.121	-0.530
-531.091	272.215	0.163	0.288
-530.077	504.330	0.042	-0.097
-529.062	47.873	0.088	0.082
-528.048	142.384	-0.292	0.388
-527.033	-200.000	0.308	0.000
-526.018	430.849	0.117	-0.253
-525.004	-6.250	-0.368	-0.252
-523.989	-12.697	0.118	-0.077
-522.975	65.445	-0.144	0.146
-521.960	800.000	-0.054	0.227
-520.945	-166.284	0.185	0.008
-519.931	367.786	-0.042	0.085
-518.916	-200.000	0.044	0.211
-517.902	38.572	-0.112	-0.100
-516.887	234.959	0.111	0.183
-515.872	35.354	-0.192	0.169
-514.858	-27.215	0.300	-0.175
-513.843	27.717	0.287	0.242
-512.829	-43.377	0.127	0.065
-511.814	-96.778	-0.194	-0.051
-510.799	-93.395	0.272	-0.075
-509.785	333.616	-0.065	-0.126
-508.770	25.046	0.163	-0.135
-507.756	308.415	0.152	-0.284
-506.741	-61.604	-0.222	-0.093
-505.726	466.959	0.078	-0.176
-504.712	-97.848	-0.169	0.044
-503.697	-8.043	-0.210	0.142
-502.683	438.367	0.094	-0.205
-501.668	-154.787	-0.339	-0.022
-500.653	389.284	0.119	-0.246
-499.639	8.805	0.247	-0.186
-498.624	167.505	-0.075	-0.107
-497.610	-200.000	0.029	-0.133
-496.595	-85.849	-0.252	-0.078
-495.581	800.000	-0.041	0.170
-494.566	800.000	-0.092	0.368
-493.551	49.711	0.056	-0.053
-492.537	34.909	-0.200	-0.175
-491.522	-200.000	0.044	-0.240
-490.508	38.224	-0.244	-0.217
-489.493	15.192	-0.083	-0.065
-488.478	219.833	-0.237	-0.379
-487.464	800.000	0.029	-0.098
-486.449	-15.358	0.182	0.116
-485.435	10.834	0.279	-0.213
-484.420	306.418	0.099	-0.184
-483.405	-200.000	-0.019	0.100
-482.391	69.047	-0.250	0.257
-481.376	152.820	0.108	0.147
-480.362	-200.000	0.004	0.089
-479.347	54.340	0.082	0.079
-478.332	-26.639	-0.139	-0.082
-477.318	-200.000	-0.041	0.536
-476.303	3.906	0.116	0.085
-475.289	-15.294	-0.151	-0.097
-474.274	-71.534	-0.090	0.034
-473.259	184.090	-0.096	0.142
-472.245	71.770	-0.108	0.112
-471.230	800.000	-0.037	0.112
-470.216	800.000	0.044	0.154
-469.201	-130.615	-0.378	-0.051
-468.186	800.000	0.064	-0.270
-467.172	-200.000	-0.010	0.157
-466.157	42.476	0.234	-0.213
-465.143	-200.000	0.049	-0.457
-464.128	-66.843	-0.236	-0.093
-463.113	675.638	0.260	0.676
-462.099	35.911	0.170	-0.150
-461.084	-12.774	-0.084	-0.055
-460.070	99.775	-0.166	-0.192
-459.055	385.119	-0.175	-0.361
-458.040	800.000	-0.032	-0.133
-457.026	-190.589	0.046	-0.000
-456.011	87.349	0.106	0.117
-454.997	53.263	-0.134	-0.128
-453.982	-5.694	0.232	-0.159
-452.968	800.000	-0.033	-0.141
-451.953	800.000	-0.044	0.153
-450.938	33.703	0.029	-0.025
-449.924	-85.278	-0.057	0.018
-448.909	417.381	0.126	0.269
-447.895	107.708	-0.132	-0.157
-446.880	-37.202	0.163	-0.087
-445.865	-70.044	-0.091	-0.035
-444.851	-23.274	0.535	-0.322
-443.836	800.000	0.027	-0.112
-442.822	-84.807	0.326	0.103
-441.807	-119.711	0.333	-0.057
-440.792	51.396	-0.172	-0.163
-439.778	38.119	0.059	-0.052
-438.763	-67.450	0.046	0.018
-437.749	-200.000	-0.015	-0.400
-436.734	-68.286	-0.233	-0.090
-435.719	-124.816	-0.099	0.015
-434.705	28.791	-0.157	-0.133
-433.690	-7.198	0.201	0.136
-432.676	-200.000	-0.027	0.355
-431.661	17.962	0.075	0.059
-430.646	-44.174	0.068	-0.034
-429.632	416.954	0.231	0.492
-428.617	138.953	0.126	-0.165
-427.603	49.901	0.170	0.160
-426.588	800.000	-0.051	-0.177
-425.573	750.534	0.154	0.415
-424.559	800.000	0.040	0.131
-423.544	-147.417	0.377	0.032
-422.530	-107.763	0.418	0.091
-421.515	-200.000	0.011	0.196
-420.500	218.538	-0.046	0.073
-419.486	800.000	-0.024	-0.083
-418.471	-127.570	0.223	-0.032
-417.457	-89.508	0.327	0.096
-416.442	69.017	-0.081	-0.083
-415.428	800.000	0.029	-0.098
-414.413	102.584	0.067	-0.078
-413.398	29.790	-0.130	-0.111
-412.384	-200.000	-0.015	0.091
-411.369	800.000	0.040	0.163
-410.355	800.000	-0.095	0.272
-409.340	800.000	-0.106	-0.434
-408.325	-40.199	0.291	0.151
-407.311	-35.558	0.156	0.084
-406.296	62.625	-0.230	-0.229
-405.282	-200.000	0.006	0.198
-404.267	24.011	0.267	0.220
-403.252	-168.921	-0.376	0.014
-402.238	800.000	-0.040	-0.162
-401.223	39.050	-0.084	0.075
-400.209	-99.860	-0.116	0.029
-399.194	386.443	0.038	0.078
-398.179	-107.526	0.286	-0.063
-397.165	-34.881	0.167	0.091
-396.150	760.538	-0.048	0.129
-395.136	-200.000	0.012	0.164
-394.121	-75.763	-0.152	0.054
-393.106	-7.579	-0.143	0.096
-392.092	-200.000	0.022	0.354
-391.077	-200.000	-0.000	0.024
-390.063	-200.000	0.014	0.189
-389.048	13.993	0.069	0.053
-388.033	-133.539	-0.245	-0.031
-387.019	38.892	0.213	0.189
-386.004	104.844	-0.257	0.302
-384.990	800.000	0.090	-0.319
-383.975	800.000	-0.077	-0.218
-382.960	109.697	-0.164	-0.196
-381.946	-42.062	0.078	0.040
-380.931	649.272	0.053	0.136
-379.917	-22.479	-0.299	0.180
-378.902	-103.685	-0.097	-0.023
-377.888	800.000	-0.141	-0.417
-376.873	-52.489	0.218	0.100
-375.858	-8.580	-0.304	0.204
-374.844	-200.000	0.050	-0.264
-373.829	-200.000	0.039	-0.264
-372.815	-87.387	0.274	-0.083
-371.800	-54.752	0.149	-0.067
-370.785	-200.000	0.003	0.350
-369.771	-200.000	0.034	-0.229
-368.756	-120.077	-0.133	0.023
-367.742	-200.000	0.001	-0.049
-366.727	10.035	0.051	-0.038
-365.712	-19.854	-0.392	0.241
-364.698	-38.311	0.119	-0.063
-363.683	137.586	0.172	-0.224
-362.669	15.647	0.191	0.149
-361.654	-200.000	0.050	0.266
-360.639	-112.783	-0.199	0.039
-359.625	-200.000	-0.056	0.468
-358.610	-99.206	-0.221	-0.056
-357.596	-129.205	0.200	0.028
-356.581	800.000	0.103	-0.369
-355.566	-123.878	-0.141	0.022
-354.552	-3.323	0.362	-0.251
-353.537	-200.000	0.025	-0.409
-352.523	31.425	0.214	-0.183
-351.508	-160.521	0.197	0.010
-350.493	-32.237	0.220	-0.122
-349.479	-84.798	0.270	0.084
-348.464	-22.493	0.246	-0.148
-347.450	-61.408	0.300	-0.126
-346.435	-83.277	-0.210	-0.067
-345.420	-200.000	-0.024	0.158
-344.406	-200.000	-0.000	0.162
-343.391	628.820	-0.047	-0.118
-342.377	-46.651	0.343	0.167
-341.362	-51.782	-0.141	0.065
-340.348	35.982	-0.221	0.194
-339.333	-200.000	0.035	0.334
-338.318	-82.690	0.292	0.094
-337.304	143.538	0.054	0.072
-336.289	-26.987	-0.176	0.102
-335.275	352.859	-0.030	-0.059
-334.260	70.624	-0.141	0.145
-333.245	800.000	-0.027	0.113
-332.231	-200.000	-0.044	-0.286
-331.216	-200.000	0.012	0.171
-330.202	-57.993	-0.185	0.080
-329.187	-15.419	0.049	0.031
-328.172	-200.000	0.028	-0.132
-327.158	-67.102	0.091	0.036
-326.143	-59.616	0.132	-0.056
-325.129	-200.000	-0.038	0.252
-324.114	-50.478	0.186	0.087
-323.099	-126.673	-0.054	-0.008
-322.085	-200.000	-0.025	0.223
-321.070	8.493	-0.166	-0.124
-320.056	-142.095	0.082	-0.008
-319.041	704.458	0.128	0.336
-318.026	800.000	-0.065	0.197
-317.012	187.735	0.119	0.176
-315.997	80.833	0.124	0.133
-314.983	-123.594	-0.373	-0.059
-313.968	-45.061	-0.296	0.146
-312.953	166.355	-0.057	-0.080
-311.939	126.150	-0.198	0.249
-310.924	392.385	0.034	0.070
-309.910	800.000	0.058	0.227
-308.895	104.366	0.164	0.192
-307.880	-46.597	0.227	0.110
-306.866	-19.200	-0.167	0.103
-305.851	9.826	-0.160	0.121
-304.837	-25.743	0.184	0.108
-303.822	-144.565	-0.136	-0.013
-302.807	-140.371	-0.236	0.024
-301.793	-200.000	-0.005	0.147
-300.778	77.948	-0.041	0.043
-299.764	-200.000	0.019	-0.235
-298.749	277.799	-0.169	0.299
-297.735	-126.696	-0.241	-0.035
-296.720	-2.469	0.146	0.101
-295.705	306.039	0.066	0.122
-294.691	800.000	0.030	0.119
-293.676	85.241	0.015	-0.016
-292.662	587.643	0.040	0.097
-291.647	20.642	-0.048	-0.039
-290.632	62.143	-0.081	-0.080
-289.618	-140.991	-0.095	-0.010
-288.603	-116.300	-0.240	-0.044
-287.589	37.591	-0.071	0.063
-286.574	606.301	0.167	-0.413
-285.559	-43.292	-0.419	-0.211
-284.545	236.796	-0.088	-0.145
-283.530	208.742	-0.049	0.075
-282.516	53.702	-0.013	-0.012
-281.501	560.552	-0.145	0.349
-280.486	-200.000	-0.016	-0.128
-279.472	-95.827	-0.171	0.045
-278.457	800.000	-0.063	-0.214
-277.443	-15.413	0.205	0.130
-276.428	165.591	-0.094	0.132
-275.413	-200.000	0.363	0.002
-274.399	-200.000	-0.011	-0.266
-273.384	175.691	-0.090	0.129
-272.370	-200.000	0.041	0.189
-271.355	-36.897	-0.387	0.206
-270.340	13.264	0.287	0.221
-269.326	-156.278	-0.103	-0.006
-268.311	-200.000	-0.024	0.165
-267.297	136.844	-0.213	-0.276
-266.282	166.536	0.143	-0.202
-265.267	397.876	0.036	0.074
-264.253	271.430	0.082	-0.143
-263.238	800.000	-0.012	-0.039
-262.224	112.620	0.231	0.277
-261.209	301.962	-0.137	-0.252
-260.195	-121.547	0.047	0.008
-259.180	-200.000	0.008	-0.207
-258.165	-200.000	-0.011	-0.191
-257.151	233.850	-0.109	-0.177
-256.136	-122.386	-0.052	0.008
-255.122	99.298	-0.234	0.268
-254.107	-46.597	0.202	0.098
-253.092	101.974	-0.039	0.045
-252.078	-65.364	-0.111	-0.044
-251.063	-56.366	0.212	-0.093
-250.049	-200.000	-0.005	0.059
-249.034	55.253	-0.138	0.132
-248.019	-70.126	0.156	0.059
-247.005	-200.000	-0.013	-0.056
-245.990	-118.566	-0.085	-0.015
-244.976	-73.028	-0.078	-0.028
-243.961	-200.000	-0.013	-0.062
-242.946	222.398	0.183	-0.292
-241.932	168.917	0.045	-0.064
-240.917	-52.792	0.374	0.171
-239.903	-200.000	-0.022	-0.148
-238.888	-200.000	0.019	0.202
-237.873	-15.512	0.326	0.207
-236.859	-81.147	-0.101	0.033
-235.844	446.605	-0.110	0.240
-234.830	763.811	0.079	0.212
-233.815	-109.709	0.143	-0.030
-232.800	-2.499	0.116	-0.080
-231.786	800.000	-0.044	0.170
-230.771	113.819	0.080	0.097
-229.757	-148.386	-0.060	0.005
-228.742	-4.804	-0.217	0.148
-227.727	166.718	0.273	0.384
-226.713	-200.000	0.009	0.256
-225.698	-200.000	-0.018	-0.175
-224.684	-72.492	-0.185	0.068
-223.669	-30.979	0.120	-0.067
-222.655	161.988	-0.199	-0.276
-221.640	-108.037	0.190	0.041
-220.625	-45.945	-0.238	-0.116
-219.611	150.707	-0.080	-0.108
-218.596	-200.000	0.045	-0.311
-217.582	-108.408	-0.054	-0.011
-216.567	-80.140	0.047	-0.015
-215.552	450.982	0.166	-0.363
-214.538	101.289	0.138	-0.159
-213.523	-69.732	-0.339	-0.128
-212.509	800.000	-0.067	-0.241
-211.494	-200.000	0.082	0.525
-210.479	-24.521	0.113	-0.067
-209.465	399.231	0.073	0.151
-208.450	115.380	0.030	-0.037
-207.436	-200.000	-0.051	-0.337
-206.421	-9.857	0.214	-0.141
-205.406	10.068	0.322	0.243
-204.392	800.000	-0.118	0.329
-203.377	-25.229	0.378	-0.221
-202.363	-200.000	-0.027	-0.343
-201.348	-77.009	-0.019	0.006
-200.333	1.864	0.051	0.036
-199.319	-56.762	-0.135	0.059
-198.304	-200.000	-0.009	0.054
-197.290	-122.202	-0.313	-0.051
-196.275	-113.221	0.148	-0.029
-195.260	349.442	0.087	0.169
-194.246	27.900	0.104	-0.087
-193.231	-200.000	-0.021	0.416
-192.217	-200.000	-0.042	-0.205
-191.202	-200.000	-0.009	-0.160
-190.187	800.000	0.052	-0.217
-189.173	381.260	0.106	-0.215
-188.158	-200.000	-0.040	-0.216
-187.144	800.000	-0.069	-0.205
-186.129	-140.074	0.276	-0.029
-185.114	-103.848	-0.262	0.061
-184.100	-39.674	-0.059	-0.030
-183.085	800.000	-0.109	-0.310
-182.071	68.183	-0.104	0.105
-181.056	-61.337	-0.252	0.105
-180.042	457.562	0.039	-0.086
-179.027	-200.000	-0.061	-0.341
-178.012	-200.000	-0.097	0.527
-176.998	-122.528	0.157	0.025
-175.983	-64.038	-0.239	-0.096
-174.969	-148.636	-0.250	0.020
-173.954	-76.754	-0.204	0.071
-172.939	215.528	-0.096	-0.151
-171.925	52.806	0.145	0.137
-170.910	200.190	0.147	-0.224
-169.896	800.000	0.080	0.229
-168.881	170.370	-0.089	0.126
-167.866	-200.000	-0.053	-0.237
-166.852	-70.639	0.121	0.045
-165.837	-103.477	0.354	0.082
-164.823	-200.000	0.014	-0.132
-163.808	-120.434	0.474	-0.080
-162.793	-122.529	-0.062	-0.010
-161.779	8.847	-0.106	0.079
-160.764	-142.969	-0.296	0.028
-159.750	-200.000	-0.031	-0.360
-158.735	-94.053	-0.118	0.032
-157.720	-200.000	0.046	0.323
-156.706	-200.000	0.004	0.265
-155.691	32.920	-0.218	-0.186
-154.677	110.734	0.066	-0.078
-153.662	-200.000	-0.085	0.412
-152.647	-200.000	0.003	0.056
-151.633	16.043	-0.123	0.095
-150.618	-119.428	0.280	-0.048
-149.604	-17.310	0.297	0.185
-148.589	57.863	-0.280	-0.271
-147.574	763.437	0.086	-0.229
-146.560	176.745	0.238	-0.342
-145.545	32.845	0.319	-0.272
-144.531	-1.877	0.396	-0.275
-143.516	117.692	0.143	-0.174
-142.502	622.402	-0.125	-0.312
-141.487	277.531	0.112	0.198
-140.472	-16.231	-0.315	0.198
-139.458	4.052	-0.267	0.193
-138.443	-200.000	0.002	0.241
-137.429	-85.704	-0.256	0.078
-136.414	-35.979	0.269	0.143
-135.399	-200.000	-0.046	0.370
-134.385	800.000	-0.098	0.298
-133.370	686.478	0.040	-0.102
-132.356	104.270	0.052	0.061
-131.341	-200.000	-0.058	-0.477
-130.326	643.697	-0.024	0.061
-129.312	282.355	0.065	-0.115
-128.297	-115.682	-0.199	0.037
-127.283	-58.002	-0.291	0.125
-126.268	-105.288	0.105	0.024
-125.253	207.247	0.103	0.159
-124.239	103.711	-0.069	0.079
-123.224	-200.000	-0.024	-0.338
-122.210	-115.159	-0.158	0.029
-121.195	-106.121	0.416	-0.092
