DTS Sentinel unit serial number:	SN413079Multiplexer serial number:	ORYXHardware model number:	OX4-SRSoftware version number:	ORYX F/W v4.00 Oryx Data Collector v3.7.2.0data status	okinstallation	princeton_trtdifferential loss correction	single-endedforward channel	channel 1reverse channel	N/Adate	2019/09/10time	23:36:11forward acquisition time	60.00reverse acquisition time	0.00gamma	496.2192k internal	0.2331k external	0.2331temperature offset calibration	0.9941default loss term (dB/km)	0.3790temperature slope calibration	1.0000multiplexer offset coefficient	1.0000multiplexer slope coefficient	1.0000fibre end	0.00T internal ref (°C)	29.62T ext. ref 1 (°C)	-0.31T ext. ref 2 (°C)	23.05length (m)	temperature (°C)	Stokes	anti-Stokes-747.200	1.873	-0.216	0.157
-746.185	157.009	0.117	0.163
-745.171	800.000	-0.027	0.084
-744.156	-79.020	-0.219	0.075
-743.142	-58.320	0.223	0.098
-742.127	482.465	-0.135	0.310
-741.112	141.107	0.088	0.117
-740.098	323.863	-0.092	-0.177
-739.083	-34.086	0.107	0.059
-738.069	-18.121	0.146	0.092
-737.054	-86.361	0.426	0.132
-736.039	800.000	-0.052	0.145
-735.025	-46.339	-0.284	0.140
-734.010	-200.000	0.002	-0.014
-732.996	529.644	0.137	0.326
-731.981	224.392	-0.148	0.241
-730.966	46.160	-0.210	0.196
-729.952	751.796	0.018	-0.048
-728.937	104.381	-0.088	-0.104
-727.923	89.020	-0.117	0.131
-726.908	50.119	0.051	-0.049
-725.894	-48.095	-0.335	0.163
-724.879	606.438	-0.157	0.392
-723.864	137.141	0.035	-0.046
-722.850	100.957	0.098	-0.114
-721.835	800.000	-0.045	-0.161
-720.821	213.464	0.123	0.195
-719.806	800.000	0.061	-0.241
-718.791	-1.851	0.303	-0.215
-717.777	-6.030	-0.154	-0.106
-716.762	-99.335	-0.015	0.004
-715.748	-88.532	0.376	0.113
-714.733	-136.423	-0.388	-0.045
-713.718	137.492	0.134	-0.177
-712.704	609.024	-0.186	0.466
-711.689	49.663	-0.130	0.123
-710.675	-160.353	-0.270	-0.015
-709.660	-200.000	0.069	-0.358
-708.645	181.589	0.131	0.194
-707.631	-85.108	0.260	-0.082
-706.616	128.903	0.206	0.264
-705.602	-200.000	-0.022	-0.187
-704.587	-200.000	-0.021	-0.314
-703.572	430.850	-0.097	0.210
-702.558	-200.000	0.075	0.429
-701.543	-15.003	0.250	0.161
-700.529	92.193	0.126	0.143
-699.514	-200.000	-0.002	-0.119
-698.499	-127.524	0.075	-0.011
-697.485	-26.978	-0.306	0.179
-696.470	-50.455	-0.119	-0.057
-695.456	-200.000	-0.064	-0.289
-694.441	22.702	0.063	-0.052
-693.426	141.453	0.199	-0.264
-692.412	628.059	-0.122	-0.309
-691.397	-200.000	-0.056	-0.396
-690.383	-200.000	-0.003	0.035
-689.368	-93.592	0.168	-0.047
-688.354	-200.000	0.022	0.115
-687.339	-200.000	-0.003	0.066
-686.324	-163.212	0.146	0.007
-685.310	-139.728	-0.196	0.021
-684.295	-23.226	-0.154	-0.093
-683.281	402.644	-0.086	-0.182
-682.266	-109.317	-0.027	0.006
-681.251	-1.645	0.084	-0.060
-680.237	57.875	-0.200	0.196
-679.222	18.554	0.123	0.099
-678.208	252.099	0.083	-0.141
-677.193	-17.080	0.113	-0.071
-676.178	32.681	0.054	0.047
-675.164	2.330	0.340	0.247
-674.149	-84.522	-0.140	-0.044
-673.135	-160.823	0.372	-0.020
-672.120	-0.176	0.079	-0.056
-671.105	-130.547	-0.159	-0.022
-670.091	153.996	0.158	-0.217
-669.076	-200.000	-0.220	0.001
-668.062	800.000	-0.082	-0.261
-667.047	-124.251	-0.187	0.029
-666.032	92.899	0.139	-0.157
-665.018	419.035	-0.193	-0.414
-664.003	800.000	-0.080	0.276
-662.989	-17.433	0.275	0.174
-661.974	-72.373	-0.211	-0.078
-660.959	110.328	0.335	-0.403
-659.945	-11.383	-0.223	0.147
-658.930	353.540	-0.142	-0.284
-657.916	261.318	0.244	-0.424
-656.901	6.875	-0.240	0.179
-655.886	785.041	-0.064	-0.176
-654.872	263.126	-0.155	-0.270
-653.857	-200.000	-0.012	-0.111
-652.843	800.000	0.060	0.210
-651.828	104.153	-0.277	0.327
-650.814	-168.587	-0.322	-0.012
-649.799	-92.511	-0.209	0.059
-648.784	124.333	0.198	-0.249
-647.770	318.272	-0.100	-0.189
-646.755	-12.318	0.086	0.056
-645.741	467.299	0.062	-0.139
-644.726	-64.806	-0.397	-0.161
-643.711	-47.594	0.114	0.055
-642.697	43.083	0.212	0.194
-641.682	-161.124	-0.205	0.011
-640.668	225.282	-0.127	0.207
-639.653	-79.746	0.349	0.118
-638.638	86.239	0.045	0.050
-637.624	32.085	0.233	-0.201
-636.609	42.079	-0.263	-0.239
-635.595	-66.907	-0.318	0.126
-634.580	-108.640	-0.141	0.030
-633.565	4.050	-0.079	-0.058
-632.551	251.940	-0.016	-0.028
-631.536	339.811	0.095	-0.186
-630.522	50.837	-0.128	-0.121
-629.507	619.868	0.091	-0.230
-628.492	800.000	-0.143	0.480
-627.478	-41.945	-0.317	0.163
-626.463	-200.000	-0.052	-0.243
-625.449	48.792	0.132	-0.124
-624.434	-129.467	-0.192	0.027
-623.419	-200.000	-0.000	0.236
-622.405	-86.081	0.354	-0.110
-621.390	140.739	0.105	0.139
-620.376	16.950	-0.108	-0.085
-619.361	297.205	-0.237	-0.436
-618.346	-79.615	-0.048	0.016
-617.332	-200.000	0.038	-0.307
-616.317	598.871	-0.081	0.200
-615.303	87.249	0.155	0.172
-614.288	-80.865	-0.176	-0.059
-613.273	17.688	-0.177	-0.141
-612.259	9.041	0.356	0.269
-611.244	-137.174	0.550	-0.063
-610.230	-82.366	-0.290	-0.094
-609.215	-200.000	0.027	-0.187
-608.201	85.033	0.229	-0.251
-607.186	33.033	-0.113	0.098
-606.171	103.100	0.108	-0.126
-605.157	38.956	-0.102	0.091
-604.142	-13.286	-0.195	-0.127
-603.128	800.000	0.024	0.083
-602.113	-67.447	0.187	0.074
-601.098	87.252	0.224	0.248
-600.084	167.601	-0.103	0.147
-599.069	-37.822	-0.112	0.060
-598.055	800.000	0.076	-0.258
-597.040	-45.664	0.346	0.171
-596.025	51.149	0.133	-0.126
-595.011	-49.444	0.130	0.062
-593.996	-94.380	-0.237	-0.065
-592.982	35.053	0.069	-0.060
-591.967	-200.000	0.013	-0.061
-590.952	-90.255	-0.285	-0.083
-589.938	-6.646	0.424	-0.289
-588.923	111.171	0.234	-0.282
-587.909	800.000	-0.079	0.274
-586.894	-98.825	-0.418	-0.106
-585.879	-200.000	0.036	-0.328
-584.865	233.624	-0.127	-0.209
-583.850	-112.091	0.195	0.039
-582.836	-107.722	0.125	0.027
-581.821	-200.000	-0.042	-0.356
-580.806	311.798	-0.144	0.271
-579.792	-10.346	0.090	0.060
-578.777	-200.000	0.019	0.127
-577.763	-22.661	-0.245	-0.148
-576.748	9.621	-0.284	0.215
-575.733	-200.000	0.002	-0.137
-574.719	-35.719	0.198	0.107
-573.704	-200.000	0.014	0.092
-572.690	19.652	-0.027	0.022
-571.675	-200.000	-0.007	0.082
-570.661	-66.049	-0.030	0.012
-569.646	-93.341	0.123	-0.034
-568.631	230.976	0.075	-0.123
-567.617	187.433	-0.162	-0.242
-566.602	-200.000	-0.051	-0.283
-565.588	-200.000	0.054	-0.318
-564.573	800.000	-0.052	0.145
-563.558	278.622	-0.153	0.273
-562.544	52.471	0.320	-0.305
-561.529	-200.000	0.035	-0.247
-560.515	800.000	0.080	-0.247
-559.500	-18.579	-0.159	-0.099
-558.485	800.000	0.088	-0.310
-557.471	-65.416	0.130	-0.052
-556.456	800.000	-0.022	0.085
-555.442	469.154	0.103	0.230
-554.427	231.953	-0.065	0.107
-553.412	247.087	-0.154	-0.260
-552.398	-157.036	0.242	-0.015
-551.383	85.861	0.063	-0.069
-550.369	-0.394	-0.146	-0.104
-549.354	-123.367	-0.278	0.044
-548.339	-23.244	-0.318	0.191
-547.325	-118.802	0.421	-0.074
-546.310	-84.072	-0.293	0.093
-545.296	8.129	0.251	-0.188
-544.281	-170.365	-0.206	-0.007
-543.266	11.570	0.101	-0.077
-542.252	112.963	0.107	-0.129
-541.237	800.000	0.141	-0.543
-540.223	371.705	0.176	-0.356
-539.208	19.882	0.094	0.075
-538.193	784.818	-0.144	-0.395
-537.179	14.083	-0.234	0.182
-536.164	113.667	-0.047	0.057
-535.150	111.735	-0.196	-0.236
-534.135	-65.611	-0.148	0.059
-533.121	-200.000	-0.029	0.271
-532.106	-8.619	-0.030	-0.020
-531.091	737.978	-0.110	0.294
-530.077	-110.372	-0.069	-0.014
-529.062	79.303	-0.294	0.314
-528.048	64.209	0.108	0.108
-527.033	800.000	0.041	0.143
-526.018	-200.000	-0.085	0.437
-525.004	174.253	-0.132	0.191
-523.989	47.883	0.141	-0.131
-522.975	17.328	0.292	0.231
-521.960	800.000	0.037	0.124
-520.945	-15.721	0.148	-0.094
-519.931	124.879	-0.078	0.098
-518.916	-75.415	0.221	-0.078
-517.902	-200.000	0.024	0.272
-516.887	-200.000	0.067	0.431
-515.872	-200.000	-0.031	-0.172
-514.858	-200.000	0.007	0.153
-513.843	-64.454	0.484	-0.196
-512.829	41.481	-0.321	0.290
-511.814	468.972	-0.064	-0.144
-510.799	156.395	-0.175	-0.242
-509.785	-144.613	-0.320	-0.029
-508.770	-200.000	0.035	-0.264
-507.756	425.911	0.050	-0.108
-506.741	-144.438	0.122	-0.011
-505.726	428.817	-0.094	0.204
-504.712	-101.466	-0.339	0.082
-503.697	-200.000	0.004	-0.064
-502.683	-200.000	-0.050	-0.311
-501.668	800.000	0.082	-0.227
-500.653	-162.729	0.222	-0.011
-499.639	-40.726	-0.132	-0.068
-498.624	-200.000	-0.056	0.309
-497.610	196.874	-0.207	0.315
-496.595	-200.000	0.044	-0.393
-495.581	-200.000	0.045	-0.249
-494.566	75.714	-0.152	0.160
-493.551	-200.000	-0.026	0.364
-492.537	-27.933	-0.128	-0.074
-491.522	392.042	-0.185	0.383
-490.508	-57.928	0.245	-0.107
-489.493	-106.379	-0.157	0.035
-488.478	-43.958	-0.092	-0.046
-487.464	-61.288	0.137	0.057
-486.449	800.000	0.052	0.222
-485.435	91.776	0.228	0.255
-484.420	126.038	-0.009	-0.011
-483.405	-163.089	-0.146	0.007
-482.391	227.968	0.016	-0.026
-481.376	-200.000	-0.017	0.194
-480.362	-200.000	0.004	-0.112
-479.347	99.050	-0.181	0.208
-478.332	-125.519	-0.047	-0.007
-477.318	-77.242	-0.313	0.109
-476.303	-83.049	0.049	-0.016
-475.289	-165.041	0.242	0.011
-474.274	-11.430	-0.175	0.115
-473.259	77.982	-0.217	0.230
-472.245	-133.983	0.137	0.017
-471.230	-200.000	-0.029	0.214
-470.216	-166.535	-0.079	0.003
-469.201	-200.000	0.036	-0.322
-468.186	253.203	0.089	0.151
-467.172	-160.978	0.090	-0.005
-466.157	531.248	-0.137	0.322
-465.143	72.683	0.029	-0.030
-464.128	-105.406	-0.392	-0.089
-463.113	800.000	0.075	-0.212
-462.099	480.145	0.059	-0.133
-461.084	177.578	-0.019	-0.027
-460.070	14.035	0.431	0.334
-459.055	98.138	0.123	0.141
-458.040	-60.557	-0.252	0.107
-457.026	64.217	0.108	0.108
-456.011	-30.704	0.151	0.085
-454.997	800.000	0.153	-0.588
-453.982	-13.400	0.134	0.086
-452.968	143.654	0.170	0.225
-451.953	38.523	0.074	-0.066
-450.938	-13.850	-0.208	-0.134
-449.924	-92.370	-0.247	0.069
-448.909	-168.407	0.102	0.004
-447.895	3.890	0.117	0.085
-446.880	319.863	0.136	-0.256
-445.865	53.985	0.062	-0.059
-444.851	622.011	0.077	-0.192
-443.836	71.498	0.053	0.055
-442.822	65.707	-0.162	0.164
-441.807	-90.788	0.154	0.044
-440.792	44.247	-0.262	-0.239
-439.778	-92.483	-0.062	0.017
-438.763	75.128	-0.167	0.175
-437.749	800.000	0.097	0.274
-436.734	134.700	0.226	-0.292
-435.719	34.870	-0.088	-0.076
-434.705	32.922	-0.169	0.146
-433.690	-109.980	0.318	-0.066
-432.676	-118.597	-0.121	0.021
-431.661	26.843	-0.067	0.056
-430.646	309.298	-0.316	0.586
-429.632	-200.000	0.011	0.219
-428.617	-41.898	-0.123	0.063
-427.603	-94.998	0.120	0.032
-426.588	-200.000	0.006	-0.174
-425.573	-125.627	-0.223	-0.034
-424.559	-105.467	-0.200	-0.045
-423.544	-117.268	-0.113	-0.020
-422.530	137.248	-0.082	0.106
-421.515	-101.991	0.106	0.025
-420.500	-99.704	-0.194	0.048
-419.486	574.880	-0.018	-0.043
-418.471	349.120	-0.082	-0.160
-417.457	114.929	-0.219	0.266
-416.442	777.981	0.131	0.357
-415.428	-200.000	0.004	-0.078
-414.413	-200.000	-0.007	-0.286
-413.398	13.275	-0.278	0.214
-412.384	-117.592	0.116	0.021
-411.369	-200.000	-0.001	-0.036
-410.355	-200.000	0.057	0.257
-409.340	139.851	-0.230	-0.301
-408.325	39.959	0.237	-0.212
-407.311	-146.663	-0.107	0.009
-406.296	-8.642	-0.174	0.116
-405.282	-142.858	0.397	0.038
-404.267	-200.000	0.071	0.368
-403.252	224.349	-0.168	-0.270
-402.238	598.922	0.015	0.038
-401.223	627.827	-0.064	-0.160
-400.209	-79.401	0.411	-0.138
-399.194	-139.124	-0.083	-0.009
-398.179	12.432	0.046	0.035
-397.165	-200.000	0.020	0.239
-396.150	-200.000	-0.003	0.114
-395.136	-111.593	0.227	-0.046
-394.121	-165.005	-0.291	-0.013
-393.106	800.000	-0.033	-0.104
-392.092	-3.146	0.222	-0.153
-391.077	-200.000	-0.058	0.324
-390.063	330.131	-0.147	0.281
-389.048	-55.745	-0.173	-0.077
-388.033	-200.000	-0.007	0.217
-387.019	-200.000	0.004	0.129
-386.004	67.000	0.075	-0.075
-384.990	800.000	0.048	-0.140
-383.975	-59.845	0.271	-0.115
-382.960	312.438	-0.160	-0.298
-381.946	34.742	0.273	-0.237
-380.931	71.973	0.040	-0.041
-379.917	-135.488	0.204	0.024
-378.902	62.408	0.133	0.132
-377.888	-59.764	0.137	0.058
-376.873	-67.039	-0.263	0.103
-375.858	800.000	0.058	-0.185
-374.844	107.184	-0.219	-0.258
-373.829	-200.000	-0.005	0.191
-372.815	800.000	-0.078	0.290
-371.800	166.568	0.087	-0.122
-370.785	-108.050	-0.170	-0.037
-369.771	-158.738	0.335	0.019
-368.756	-200.000	0.030	-0.166
-367.742	-106.068	-0.301	0.067
-366.727	-13.994	0.189	0.121
-365.712	-22.763	0.114	0.068
-364.698	-200.000	0.015	-0.140
-363.683	800.000	0.056	0.216
-362.669	408.664	-0.120	-0.252
-361.654	218.889	0.071	0.113
-360.639	-200.000	-0.002	-0.152
-359.625	169.127	-0.116	0.165
-358.610	98.428	-0.229	0.262
-357.596	-133.059	-0.153	-0.019
-356.581	-2.050	0.352	-0.245
-355.566	91.720	0.117	-0.131
-354.552	-200.000	-0.041	0.291
-353.537	800.000	0.083	0.319
-352.523	-200.000	0.000	-0.279
-351.508	235.090	0.060	0.098
-350.493	39.924	0.021	-0.018
-349.479	-200.000	-0.023	0.177
-348.464	800.000	0.029	0.115
-347.450	-163.510	0.258	-0.012
-346.435	-26.273	0.114	-0.066
-345.420	-197.579	-0.324	0.002
-344.406	470.870	-0.059	0.131
-343.391	800.000	-0.085	-0.242
-342.377	-49.999	-0.255	-0.120
-341.362	181.744	-0.171	-0.250
-340.348	-200.000	-0.009	-0.102
-339.333	-102.394	-0.237	0.056
-338.318	800.000	-0.018	0.072
-337.304	-120.021	-0.193	0.033
-336.289	800.000	0.099	0.313
-335.275	-58.541	-0.280	-0.120
-334.260	-200.000	-0.019	0.300
-333.245	84.718	0.093	0.101
-332.231	626.901	0.129	-0.324
-331.216	42.544	0.228	0.205
-330.202	800.000	-0.013	0.045
-329.187	-157.544	-0.262	-0.016
-328.172	-200.000	0.010	-0.157
-327.158	98.164	0.227	0.259
-326.143	800.000	0.079	-0.328
-325.129	-200.000	0.010	0.066
-324.114	71.698	-0.047	-0.049
-323.099	-22.416	0.342	-0.205
-322.085	-200.000	-0.003	0.339
-321.070	-200.000	0.037	0.175
-320.056	-94.848	0.028	0.008
-319.041	273.522	0.185	-0.324
-318.026	56.402	-0.132	-0.127
-317.012	800.000	0.043	0.157
-315.997	192.710	0.195	-0.292
-314.983	47.334	0.124	-0.115
-313.968	-200.000	0.033	0.154
-312.953	800.000	-0.044	0.143
-311.939	147.001	0.186	0.247
-310.924	97.913	-0.137	-0.156
-309.910	-99.513	0.196	0.049
-308.895	-86.576	0.142	-0.043
-307.880	33.775	-0.153	0.132
-306.866	-56.817	0.051	0.022
-305.851	-200.000	0.015	0.126
-304.837	53.514	-0.297	-0.282
-303.822	-200.000	0.037	0.163
-302.807	-200.000	-0.044	-0.348
-301.793	-70.098	0.201	0.076
-300.778	800.000	-0.054	0.200
-299.764	-200.000	-0.031	0.298
-298.749	-83.799	0.222	0.070
-297.735	-157.446	-0.075	-0.004
-296.720	259.709	0.074	-0.127
-295.705	-91.141	-0.223	-0.063
-294.691	317.193	0.055	0.104
-293.676	-86.912	0.202	0.061
-292.662	-92.590	0.295	0.082
-291.647	-200.000	-0.013	0.062
-290.632	307.300	-0.045	0.083
-289.618	-191.036	0.260	0.003
-288.603	800.000	-0.013	-0.044
-287.589	-181.546	0.254	-0.005
-286.574	-16.000	0.084	-0.053
-285.559	-10.793	-0.031	0.020
-284.545	-200.000	-0.023	-0.266
-283.530	-123.361	0.130	0.020
-282.516	-146.125	-0.234	0.020
-281.501	-154.248	0.340	-0.023
-280.486	59.507	0.091	0.089
-279.472	126.714	-0.239	0.300
-278.457	-58.483	-0.025	0.011
-277.443	-200.000	0.009	0.163
-276.428	15.941	-0.093	0.073
-275.413	-29.008	0.149	-0.084
-274.399	-22.508	0.247	0.148
-273.384	204.443	-0.123	-0.189
-272.370	800.000	-0.049	0.152
-271.355	488.554	0.085	-0.192
-270.340	-42.251	-0.069	-0.035
-269.326	800.000	-0.042	-0.141
-268.311	65.574	-0.238	0.238
-267.297	800.000	0.039	0.157
-266.282	-85.348	-0.045	0.014
-265.267	716.118	-0.166	0.435
-264.253	89.847	0.101	0.112
-263.238	-11.363	-0.173	-0.112
-262.224	114.000	-0.252	-0.303
-261.209	-16.312	-0.274	-0.172
-260.195	-48.222	-0.312	-0.149
-259.180	-156.566	0.445	-0.027
-258.165	-125.587	0.080	-0.012
-257.151	-96.229	-0.395	0.104
-256.136	583.344	-0.042	-0.102
-255.122	368.884	0.085	0.170
-254.107	-88.857	0.307	-0.090
-253.092	-114.856	-0.234	-0.044
-252.078	-73.948	0.174	-0.062
-251.063	-103.479	0.185	-0.043
-250.049	-144.748	-0.071	0.006
-249.034	-79.880	0.174	0.058
-248.019	133.908	0.115	-0.147
-247.005	13.172	-0.087	-0.066
-245.990	12.310	-0.117	0.089
-244.976	1.669	-0.039	0.028
-243.961	318.804	-0.187	0.349
-242.946	77.131	0.130	-0.136
-241.932	660.296	0.100	0.254
-240.917	-128.057	0.129	-0.018
-239.903	800.000	-0.027	0.084
-238.888	-128.771	-0.162	-0.023
-237.873	80.880	-0.068	0.072
-236.859	-105.048	0.196	-0.044
-235.844	-200.000	0.022	0.469
-234.830	194.815	-0.157	0.235
-233.815	38.917	-0.158	-0.139
-232.800	2.412	0.386	-0.276
-231.786	667.862	0.063	0.161
-230.771	800.000	-0.056	-0.230
-229.757	-200.000	-0.023	-0.100
-228.742	33.992	-0.114	-0.098
-227.727	175.595	-0.054	-0.077
-226.713	131.256	0.144	0.183
-225.698	513.046	-0.137	0.314
-224.684	-94.089	-0.122	-0.033
-223.669	800.000	0.036	0.135
-222.655	800.000	-0.034	-0.128
-221.640	247.166	0.199	-0.331
-220.625	-71.007	-0.345	-0.128
-219.611	62.174	0.140	-0.138
-218.596	174.221	-0.051	0.073
-217.582	800.000	0.031	0.094
-216.567	120.581	0.159	0.195
-215.552	198.641	0.146	0.220
-214.538	-47.533	0.170	-0.081
-213.523	-200.000	0.029	-0.335
-212.509	-142.292	0.323	-0.031
-211.494	757.219	0.110	0.293
-210.479	-101.809	-0.142	-0.034
-209.465	17.607	0.068	-0.053
-208.450	678.614	0.050	0.127
-207.436	-34.297	-0.188	-0.102
-206.421	147.080	0.145	-0.192
-205.406	-129.876	-0.308	0.042
-204.392	-121.521	-0.451	0.074
-203.377	-200.000	-0.002	-0.103
-202.363	517.809	-0.129	0.299
-201.348	70.979	0.288	-0.294
-200.333	155.543	0.165	-0.223
-199.319	478.952	0.028	-0.064
-198.304	-52.304	-0.101	0.046
-197.290	74.226	0.174	-0.180
-196.275	-55.147	-0.250	-0.111
-195.260	39.037	-0.197	-0.173
-194.246	800.000	0.027	-0.080
-193.231	800.000	0.065	-0.267
-192.217	-200.000	0.023	-0.122
-191.202	117.637	0.374	0.453
-190.187	800.000	-0.041	-0.130
-189.173	150.489	-0.121	-0.162
-188.158	-200.000	-0.008	0.613
-187.144	164.990	0.190	-0.264
-186.129	53.954	0.034	-0.032
-185.114	-200.000	-0.057	0.284
-184.100	-121.118	0.198	-0.033
-183.085	-200.000	-0.054	-0.281
-182.071	-30.490	0.094	0.053
-181.056	179.804	-0.287	0.414
-180.042	83.291	-0.179	-0.192
-179.027	-36.304	-0.086	0.046
-178.012	132.072	0.220	-0.279
-176.998	135.796	0.076	-0.098
-175.983	-200.000	0.008	0.065
-174.969	192.919	-0.012	0.018
-173.954	704.825	0.090	-0.235
-172.939	94.706	-0.244	-0.273
-171.925	-189.531	-0.272	-0.003
-170.910	-64.536	0.311	-0.124
-169.896	800.000	0.102	0.392
-168.881	577.843	-0.085	-0.205
-167.866	408.766	0.091	0.189
-166.852	-30.746	0.147	0.082
-165.837	-200.000	-0.006	-0.074
-164.823	-101.082	-0.342	-0.082
-163.808	148.665	-0.098	0.131
-162.793	147.452	0.259	0.343
-161.779	-44.670	-0.134	-0.066
-160.764	89.967	-0.236	-0.260
-159.750	-2.135	0.212	-0.147
-158.735	272.043	-0.091	-0.158
-157.720	-155.053	0.297	0.019
-156.706	800.000	0.080	-0.240
-155.691	551.289	0.044	0.103
-154.677	-115.391	0.324	0.060
-153.662	-130.896	-0.172	-0.023
-152.647	-119.785	-0.202	0.034
-151.633	-16.064	0.193	-0.121
-150.618	579.500	-0.093	-0.225
-149.604	-200.000	0.065	0.388
-148.589	-152.615	-0.156	-0.011
-147.574	-28.333	-0.193	-0.110
-146.560	-5.886	0.182	-0.122
-145.545	486.938	-0.077	-0.174
-144.531	53.491	0.079	-0.075
-143.516	-113.236	0.370	-0.072
-142.502	-200.000	-0.002	0.173
-141.487	800.000	-0.054	0.180
-140.472	-16.173	0.047	-0.029
-139.458	-3.041	0.211	-0.145
-138.443	-73.200	0.311	-0.112
-137.429	115.080	-0.208	0.250
-136.414	-164.355	0.388	-0.017
-135.399	-200.000	-0.030	0.177
-134.385	-116.012	-0.099	-0.018
-133.370	-149.284	0.329	-0.026
-132.356	-66.843	0.142	-0.055
-131.341	256.927	-0.102	0.172
-130.326	-158.301	-0.147	-0.008
-129.312	116.084	-0.037	0.044
-128.297	800.000	-0.051	-0.150
-127.283	-3.205	0.061	0.042
-126.268	101.974	-0.257	-0.294
-125.253	162.732	-0.101	-0.139
-124.239	-24.169	0.341	-0.200
-123.224	-189.260	-0.231	0.003
-122.210	263.451	-0.142	-0.243
-121.195	-200.000	-0.029	-0.146
