DTS Sentinel unit serial number:	SN413079Multiplexer serial number:	ORYXHardware model number:	OX4-SRSoftware version number:	ORYX F/W v4.00 Oryx Data Collector v3.7.2.0data status	okinstallation	princeton_trtdifferential loss correction	single-endedforward channel	channel 1reverse channel	N/Adate	2019/09/10time	22:56:11forward acquisition time	60.00reverse acquisition time	0.00gamma	496.2192k internal	0.2332k external	0.2332temperature offset calibration	0.9931default loss term (dB/km)	0.3790temperature slope calibration	1.0000multiplexer offset coefficient	1.0000multiplexer slope coefficient	1.0000fibre end	0.00T internal ref (°C)	30.06T ext. ref 1 (°C)	-0.31T ext. ref 2 (°C)	23.42length (m)	temperature (°C)	Stokes	anti-Stokes-747.200	91.027	0.266	-0.300
-746.185	98.968	-0.322	-0.374
-745.171	41.949	0.171	-0.156
-744.156	-176.703	-0.162	-0.004
-743.142	71.710	-0.054	0.056
-742.127	42.804	-0.082	-0.075
-741.112	-69.196	0.064	0.025
-740.098	208.447	0.084	-0.132
-739.083	-24.171	-0.196	-0.118
-738.069	-24.904	0.160	-0.096
-737.054	-200.000	0.011	0.146
-736.039	-200.000	-0.054	-0.283
-735.025	-200.000	0.050	0.314
-734.010	-58.684	-0.424	0.185
-732.996	-200.000	-0.002	0.066
-731.981	11.552	-0.396	0.305
-730.966	-27.697	-0.275	-0.161
-729.952	-200.000	-0.032	-0.411
-728.937	223.808	0.030	-0.049
-727.923	-92.503	-0.165	0.047
-726.908	-133.974	-0.128	0.016
-725.894	-47.317	-0.133	0.065
-724.879	-47.276	-0.066	0.032
-723.864	-200.000	0.011	-0.301
-722.850	-62.049	-0.221	-0.093
-721.835	-53.850	-0.069	0.032
-720.821	800.000	-0.110	-0.321
-719.806	-150.370	0.365	0.028
-718.791	-40.763	-0.295	0.154
-717.777	473.828	-0.048	-0.109
-716.762	-35.567	-0.240	-0.131
-715.748	-81.316	-0.364	0.121
-714.733	-48.292	-0.073	0.036
-713.718	-200.000	0.018	-0.120
-712.704	1.553	0.276	-0.199
-711.689	469.112	0.098	-0.221
-710.675	257.582	0.073	-0.126
-709.660	-159.635	-0.152	-0.008
-708.645	-58.212	-0.234	-0.102
-707.631	-20.253	-0.078	-0.048
-706.616	-71.809	-0.331	0.124
-705.602	800.000	0.044	0.167
-704.587	290.392	0.150	0.273
-703.572	-138.583	0.307	0.034
-702.558	-200.000	0.020	0.323
-701.543	-57.381	0.383	-0.169
-700.529	208.890	-0.043	-0.067
-699.514	-106.532	0.411	0.092
-698.499	-3.404	-0.138	0.096
-697.485	-200.000	-0.013	-0.129
-696.470	-18.585	-0.327	-0.205
-695.456	125.297	-0.249	-0.316
-694.441	800.000	-0.056	-0.228
-693.426	-200.000	0.009	0.285
-692.412	308.699	-0.283	-0.530
-691.397	-200.000	-0.040	-0.254
-690.383	-200.000	0.015	-0.293
-689.368	619.800	0.017	-0.042
-688.354	-101.285	-0.304	0.074
-687.339	-134.523	0.241	0.030
-686.324	-72.550	-0.168	0.062
-685.310	685.844	0.144	0.378
-684.295	243.708	-0.131	-0.221
-683.281	800.000	0.037	0.144
-682.266	-97.021	-0.282	0.074
-681.251	800.000	-0.084	-0.349
-680.237	-76.737	-0.118	-0.042
-679.222	-200.000	-0.032	-0.217
-678.208	800.000	-0.035	0.116
-677.193	466.872	-0.081	-0.182
-676.178	-30.558	-0.180	0.102
-675.164	346.289	-0.211	0.416
-674.149	502.240	0.078	-0.182
-673.135	-65.463	-0.240	0.097
-672.120	-105.989	-0.289	0.065
-671.105	-200.000	0.001	-0.174
-670.091	58.703	-0.199	0.196
-669.076	4.861	-0.086	0.063
-668.062	-31.575	0.229	0.129
-667.047	-17.859	0.049	-0.031
-666.032	800.000	-0.106	-0.351
-665.018	-200.000	-0.072	-0.503
-664.003	-200.000	-0.011	0.334
-662.989	-6.910	0.116	0.079
-661.974	-89.435	-0.220	0.065
-660.959	-71.487	0.157	0.059
-659.945	5.038	0.091	-0.067
-658.930	-64.607	0.245	0.100
-657.916	-22.255	-0.206	0.125
-656.901	-200.000	-0.043	0.211
-655.886	800.000	0.006	-0.020
-654.872	-52.207	0.132	0.061
-653.857	-6.645	0.163	0.111
-652.843	800.000	-0.045	0.149
-651.828	800.000	0.025	-0.080
-650.814	18.567	0.008	-0.007
-649.799	-38.396	0.247	0.131
-648.784	-38.295	0.151	-0.080
-647.770	-124.402	-0.082	-0.013
-646.755	-136.922	0.067	0.008
-645.741	800.000	-0.027	-0.091
-644.726	-8.663	-0.118	-0.079
-643.711	233.458	0.058	0.095
-642.697	-77.424	0.159	-0.055
-641.682	-51.466	-0.267	-0.125
-640.668	602.280	0.080	0.199
-639.653	-15.589	-0.062	-0.040
-638.638	-121.058	0.240	0.040
-637.624	-83.710	-0.231	0.074
-636.609	78.238	0.098	-0.105
-635.595	-61.758	0.171	0.072
-634.580	-31.279	0.178	-0.100
-633.565	115.282	-0.109	0.133
-632.551	55.627	-0.089	-0.087
-631.536	-39.618	0.154	-0.080
-630.522	-200.000	-0.015	-0.215
-629.507	-105.283	0.232	0.053
-628.492	-23.273	-0.092	-0.056
-627.478	-200.000	-0.024	-0.506
-626.463	787.918	-0.061	0.167
-625.449	-29.901	-0.374	-0.214
-624.434	705.911	-0.080	-0.212
-623.419	511.433	0.006	0.013
-622.405	-52.652	-0.096	-0.044
-621.390	164.417	-0.160	0.226
-620.376	220.942	-0.195	0.313
-619.361	-200.000	0.006	0.084
-618.346	-200.000	-0.052	-0.275
-617.332	23.526	-0.361	-0.297
-616.317	-200.000	-0.005	0.077
-615.303	7.420	-0.227	0.170
-614.288	-200.000	-0.055	-0.262
-613.273	189.676	-0.144	-0.217
-612.259	-116.239	-0.146	0.027
-611.244	425.368	0.040	0.086
-610.230	575.422	-0.022	0.053
-609.215	800.000	-0.057	0.179
-608.201	22.349	0.060	0.049
-607.186	-58.200	-0.145	-0.063
-606.171	17.449	0.258	-0.205
-605.157	-86.460	-0.127	-0.039
-604.142	-200.000	-0.011	0.159
-603.128	-132.865	0.266	-0.034
-602.113	-100.179	-0.159	-0.040
-601.098	151.056	0.128	0.175
-600.084	28.254	0.122	0.103
-599.069	-200.000	-0.058	0.369
-598.055	293.807	0.052	-0.094
-597.040	-200.000	0.080	-0.562
-596.025	326.399	0.096	0.183
-595.011	-200.000	-0.017	0.399
-593.996	-135.868	-0.364	-0.043
-592.982	433.413	-0.236	-0.513
-591.967	-200.000	0.010	-0.363
-590.952	-173.652	0.260	0.008
-589.938	-101.179	-0.262	0.064
-588.923	-151.241	0.086	0.006
-587.909	80.796	0.235	-0.253
-586.894	-47.477	0.233	-0.113
-585.879	-95.233	0.263	-0.071
-584.865	800.000	-0.090	-0.324
-583.850	15.723	0.154	-0.121
-582.836	147.826	-0.158	-0.214
-581.821	-161.643	0.122	-0.006
-580.806	375.516	-0.036	-0.074
-579.792	800.000	-0.063	-0.193
-578.777	203.633	-0.175	0.270
-577.763	-88.330	-0.097	0.029
-576.748	76.555	-0.017	-0.019
-575.733	-200.000	-0.020	-0.333
-574.719	-150.008	-0.181	-0.014
-573.704	227.253	-0.172	-0.279
-572.690	659.157	-0.066	0.170
-571.675	60.001	-0.175	-0.173
-570.661	-152.478	-0.230	-0.016
-569.646	122.471	0.198	0.247
-568.631	87.785	-0.131	0.145
-567.617	-173.345	0.118	-0.004
-566.602	-131.837	-0.249	-0.032
-565.588	210.659	-0.068	-0.106
-564.573	618.479	-0.080	-0.200
-563.558	-200.000	-0.035	0.179
-562.544	-200.000	0.015	0.200
-561.529	-134.252	-0.313	0.038
-560.515	265.541	0.005	0.008
-559.500	313.123	-0.024	-0.045
-558.485	-31.241	-0.117	0.066
-557.471	800.000	-0.075	-0.323
-556.456	-52.437	-0.198	0.092
-555.442	694.878	0.019	0.049
-554.427	269.734	-0.087	0.152
-553.412	-26.584	-0.224	-0.131
-552.398	-1.051	-0.144	0.102
-551.383	-73.030	0.252	0.092
-550.369	-57.719	0.319	-0.139
-549.354	-53.386	-0.110	-0.050
-548.339	-49.251	0.141	-0.067
-547.325	20.467	0.059	0.048
-546.310	134.769	-0.218	0.283
-545.296	-144.426	0.234	0.022
-544.281	466.130	-0.071	0.158
-543.266	-21.663	-0.292	0.178
-542.252	-96.314	0.154	-0.041
-541.237	-200.000	0.045	-0.340
-540.223	800.000	0.021	-0.062
-539.208	69.282	0.177	-0.182
-538.193	800.000	0.033	0.133
-537.179	-175.575	-0.176	0.005
-536.164	-157.544	0.193	-0.012
-535.150	6.447	0.329	0.244
-534.135	-9.639	0.090	0.060
-533.121	-200.000	0.045	-0.518
-532.106	93.188	-0.415	-0.468
-531.091	-53.099	-0.263	-0.120
-530.077	485.905	-0.203	-0.461
-529.062	-200.000	0.019	0.362
-528.048	-3.409	-0.208	-0.144
-527.033	-49.632	-0.105	0.050
-526.018	310.459	0.222	0.414
-525.004	-200.000	0.000	-0.289
-523.989	-179.208	-0.313	-0.007
-522.975	-200.000	0.009	-0.083
-521.960	481.914	-0.014	-0.031
-520.945	544.879	0.100	0.239
-519.931	74.645	-0.216	0.227
-518.916	633.124	0.074	-0.187
-517.902	171.308	-0.116	-0.165
-516.887	268.971	-0.071	-0.124
-515.872	199.507	0.040	-0.061
-514.858	-125.512	0.022	-0.003
-513.843	-200.000	0.046	-0.265
-512.829	0.303	0.248	-0.177
-511.814	121.053	-0.126	0.156
-510.799	-49.453	-0.168	0.080
-509.785	-11.023	-0.097	-0.064
-508.770	170.673	-0.057	-0.082
-507.756	-79.462	-0.190	0.064
-506.741	25.459	0.096	-0.079
-505.726	5.147	-0.145	0.106
-504.712	-40.865	0.225	0.116
-503.697	-92.152	0.147	0.041
-502.683	-121.467	-0.104	0.017
-501.668	-143.473	0.451	-0.043
-500.653	-144.049	-0.073	0.007
-499.639	-48.153	-0.357	-0.172
-498.624	-20.745	-0.291	-0.178
-497.610	-192.068	-0.097	0.001
-496.595	50.237	0.203	-0.191
-495.581	784.565	-0.074	0.202
-494.566	294.700	0.182	0.332
-493.551	-200.000	-0.146	0.648
-492.537	-200.000	-0.029	0.144
-491.522	21.511	-0.097	0.078
-490.508	-200.000	-0.039	0.361
-489.493	264.963	0.096	0.167
-488.478	800.000	0.075	0.230
-487.464	800.000	0.039	0.127
-486.449	383.842	0.158	-0.323
-485.435	-81.170	-0.199	0.066
-484.420	53.141	-0.144	0.137
-483.405	-102.439	0.323	0.077
-482.391	-70.226	-0.160	-0.060
-481.376	-20.322	-0.091	-0.056
-480.362	-18.432	-0.075	0.047
-479.347	63.407	-0.056	0.055
-478.332	108.549	0.051	0.061
-477.318	-116.483	0.185	0.034
-476.303	-80.146	-0.496	-0.166
-475.289	-6.562	0.272	0.184
-474.274	-200.000	-0.013	0.140
-473.259	800.000	-0.075	-0.256
-472.245	-151.778	-0.400	-0.029
-471.230	-7.291	-0.077	0.052
-470.216	37.320	0.134	-0.118
-469.201	-200.000	0.035	-0.219
-468.186	-200.000	-0.006	0.224
-467.172	-135.485	-0.209	-0.025
-466.157	-142.591	-0.218	0.021
-465.143	53.690	-0.143	-0.137
-464.128	800.000	-0.087	-0.280
-463.113	-26.537	0.039	-0.023
-462.099	13.027	0.091	0.070
-461.084	0.127	-0.281	0.199
-460.070	-96.510	-0.220	-0.058
-459.055	405.948	-0.069	-0.145
-458.040	-118.515	-0.134	-0.024
-457.026	60.767	-0.054	-0.053
-456.011	-75.754	-0.018	-0.006
-454.997	-177.587	0.323	-0.008
-453.982	-118.133	0.325	-0.058
-452.968	-200.000	-0.040	0.299
-451.953	-119.724	0.074	-0.013
-450.938	683.318	-0.035	0.092
-449.924	294.839	0.057	-0.104
-448.909	129.284	-0.109	-0.138
-447.895	224.183	-0.213	-0.343
-446.880	10.379	-0.109	-0.082
-445.865	41.596	0.168	0.151
-444.851	-200.000	-0.012	0.245
-443.836	439.827	-0.069	-0.150
-442.822	22.857	0.350	0.285
-441.807	-164.556	0.112	-0.005
-440.792	800.000	-0.035	-0.147
-439.778	-11.239	-0.089	0.058
-438.763	-200.000	0.042	0.308
-437.749	169.465	0.121	0.171
-436.734	800.000	0.075	-0.221
-435.719	102.309	0.064	0.075
-434.705	-123.424	0.113	0.018
-433.690	210.788	-0.074	-0.115
-432.676	-30.953	-0.098	-0.055
-431.661	-200.000	-0.010	-0.206
-430.646	-102.341	0.359	-0.086
-429.632	-200.000	-0.022	0.184
-428.617	800.000	-0.076	0.319
-427.603	-117.926	0.224	-0.040
-426.588	-45.234	0.252	0.124
-425.573	10.318	-0.135	-0.102
-424.559	156.854	-0.209	0.287
-423.544	-54.986	0.307	-0.138
-422.530	800.000	-0.090	0.388
-421.515	-57.192	0.272	0.119
-420.500	273.518	-0.072	0.126
-419.486	800.000	-0.057	-0.185
-418.471	-82.941	-0.194	-0.062
-417.457	89.483	-0.123	0.136
-416.442	43.899	-0.110	0.100
-415.428	0.919	-0.133	-0.095
-414.413	210.644	-0.026	-0.041
-413.398	-57.330	-0.382	0.167
-412.384	8.610	-0.344	0.257
-411.369	-181.625	0.108	-0.002
-410.355	-25.622	0.022	-0.013
-409.340	800.000	0.018	0.076
-408.325	-45.648	0.143	-0.070
-407.311	386.949	-0.087	-0.179
-406.296	87.164	-0.114	-0.125
-405.282	625.372	-0.081	0.202
-404.267	-134.965	-0.289	0.035
-403.252	96.289	-0.048	0.055
-402.238	458.352	0.055	-0.120
-401.223	-107.814	0.215	0.047
-400.209	-200.000	0.006	-0.155
-399.194	-33.481	-0.171	-0.094
-398.179	-138.142	-0.290	-0.032
-397.165	800.000	0.063	-0.202
-396.150	-200.000	0.257	0.000
-395.136	94.530	0.202	0.228
-394.121	-200.000	-0.002	0.124
-393.106	270.291	0.102	0.178
-392.092	-139.566	0.516	-0.055
-391.077	290.154	-0.149	-0.268
-390.063	169.191	0.017	0.024
-389.048	-51.702	0.220	-0.102
-388.033	-148.760	0.206	-0.017
-387.019	-53.101	0.192	-0.088
-386.004	-200.000	0.093	0.440
-384.990	-161.402	0.261	-0.013
-383.975	227.148	0.091	-0.147
-382.960	-200.000	0.006	-0.287
-381.946	800.000	0.042	-0.165
-380.931	-25.379	0.292	-0.171
-379.917	-200.000	-0.015	-0.167
-378.902	278.413	-0.059	0.105
-377.888	-200.000	0.013	-0.108
-376.873	285.916	0.177	-0.316
-375.858	95.237	-0.196	-0.221
-374.844	-108.255	-0.081	0.017
-373.829	113.584	-0.071	-0.086
-372.815	47.316	-0.274	-0.253
-371.800	277.303	0.051	-0.090
-370.785	124.381	-0.160	-0.200
-369.771	89.028	-0.301	-0.332
-368.756	297.647	0.009	0.017
-367.742	301.983	0.075	0.138
-366.727	-40.935	-0.358	0.184
-365.712	-76.714	0.062	0.021
-364.698	-108.548	0.256	0.055
-363.683	800.000	0.053	-0.168
-362.669	-200.000	0.012	0.382
-361.654	544.037	0.093	-0.221
-360.639	-2.331	-0.259	0.180
-359.625	24.384	0.477	0.391
-358.610	119.664	-0.102	0.126
-357.596	384.317	0.165	-0.338
-356.581	148.175	-0.134	0.179
-355.566	-141.319	0.352	0.035
-354.552	144.217	-0.168	-0.222
-353.537	-200.000	0.030	0.178
-352.523	739.219	-0.093	0.248
-351.508	-200.000	-0.020	0.241
-350.493	-200.000	0.063	0.314
-349.479	261.888	-0.017	0.029
-348.464	753.194	-0.213	0.571
-347.450	-200.000	0.020	-0.121
-346.435	-49.219	-0.083	0.039
-345.420	-75.564	0.250	0.088
-344.406	-61.313	-0.185	0.077
-343.391	-82.537	-0.119	0.038
-342.377	-78.149	-0.197	-0.067
-341.362	37.723	0.145	0.128
-340.348	-93.341	-0.258	0.071
-339.333	-24.477	-0.100	0.059
-338.318	45.142	-0.301	-0.275
-337.304	-78.605	-0.194	-0.066
-336.289	-200.000	-0.058	0.295
-335.275	-200.000	-0.002	-0.160
-334.260	-200.000	0.029	-0.139
-333.245	-97.831	-0.316	-0.081
-332.231	-60.246	-0.120	0.051
-331.216	336.487	0.101	-0.194
-330.202	-69.970	0.230	0.087
-329.187	430.692	-0.104	-0.223
-328.172	-18.827	-0.093	-0.057
-327.158	63.348	0.171	-0.170
-326.143	174.380	0.195	0.280
-325.129	223.185	0.078	0.125
-324.114	-1.518	-0.183	0.128
-323.099	-200.000	-0.204	0.000
-322.085	-100.848	0.233	-0.057
-321.070	208.031	-0.044	-0.068
-320.056	-34.138	0.146	0.079
-319.041	-115.317	-0.182	-0.034
-318.026	800.000	-0.149	0.461
-317.012	280.220	-0.171	-0.303
-315.997	-200.000	-0.019	0.129
-314.983	800.000	-0.042	-0.145
-313.968	-200.000	0.019	0.159
-312.953	-200.000	0.032	0.193
-311.939	-61.000	0.127	0.053
-310.924	258.153	0.182	0.311
-309.910	-190.133	0.406	-0.004
-308.895	515.395	0.112	-0.258
-307.880	-200.000	-0.013	0.219
-306.866	-200.000	0.037	-0.212
-305.851	-111.399	-0.076	0.015
-304.837	-200.000	0.020	0.202
-303.822	-200.000	0.008	-0.136
-302.807	-187.799	-0.135	-0.002
-301.793	-200.000	-0.017	0.117
-300.778	26.450	0.188	0.155
-299.764	-96.332	-0.212	-0.055
-298.749	17.737	-0.415	-0.326
-297.735	-200.000	-0.039	-0.250
-296.720	-180.737	-0.333	0.007
-295.705	800.000	0.074	-0.228
-294.691	96.870	0.024	-0.027
-293.676	-78.554	0.171	-0.058
-292.662	88.939	0.147	0.162
-291.647	80.255	-0.187	-0.199
-290.632	-200.000	-0.084	0.383
-289.618	61.189	0.205	0.201
-288.603	-66.120	-0.298	0.118
-287.589	-200.000	0.042	0.195
-286.574	91.544	0.127	-0.141
-285.559	-45.426	0.105	0.051
-284.545	-104.539	0.186	0.043
-283.530	22.673	0.317	0.256
-282.516	-129.373	-0.271	-0.037
-281.501	-12.190	0.242	0.157
-280.486	15.970	0.142	-0.110
-279.472	-9.401	0.150	0.099
-278.457	80.951	0.219	-0.234
-277.443	41.409	-0.284	0.254
-276.428	-70.370	0.332	0.124
-275.413	-87.207	0.252	-0.076
-274.399	-12.187	0.051	0.033
-273.384	269.173	0.094	-0.164
-272.370	-34.033	0.229	0.124
-271.355	418.481	0.029	-0.061
-270.340	468.620	0.164	0.363
-269.326	-47.786	0.164	-0.078
-268.311	-57.541	-0.289	-0.125
-267.297	63.512	-0.130	0.128
-266.282	800.000	-0.070	0.216
-265.267	-79.358	-0.113	-0.038
-264.253	632.794	0.083	-0.208
-263.238	67.526	-0.348	0.350
-262.224	600.242	0.117	0.286
-261.209	-200.000	0.039	-0.211
-260.195	-200.000	0.005	0.135
-259.180	-51.380	0.260	-0.120
-258.165	-200.000	0.000	-0.242
-257.151	-105.682	0.132	-0.029
-256.136	64.792	0.211	-0.210
-255.122	-106.022	-0.201	-0.045
-254.107	10.157	0.010	-0.008
-253.092	-122.784	-0.203	-0.032
-252.078	-194.445	-0.193	0.002
-251.063	-200.000	0.000	-0.063
-250.049	-43.447	0.143	-0.071
-249.034	-124.215	0.049	-0.008
-248.019	-123.692	0.176	0.028
-247.005	-27.954	0.334	0.191
-245.990	17.339	0.313	-0.245
-244.976	-200.000	-0.005	-0.201
-243.961	-200.000	-0.023	0.218
-242.946	41.764	0.096	-0.086
-241.932	800.000	0.040	-0.136
-240.917	-130.366	-0.288	-0.038
-239.903	-121.141	-0.224	-0.037
-238.888	166.291	-0.223	0.311
-237.873	417.243	0.113	0.237
-236.859	-42.064	0.153	0.077
-235.844	244.303	-0.157	-0.260
-234.830	28.679	-0.137	0.114
-233.815	-200.000	-0.007	0.166
-232.800	-59.736	0.197	0.083
-231.786	61.075	0.216	-0.212
-230.771	-200.000	-0.022	-0.126
-229.757	800.000	-0.034	0.132
-228.742	11.618	-0.037	0.028
-227.727	-200.000	0.024	-0.333
-226.713	89.103	0.203	-0.223
-225.698	97.819	0.209	0.237
-224.684	-200.000	-0.002	0.036
-223.669	800.000	0.052	-0.212
-222.655	-200.000	-0.076	0.430
-221.640	13.832	0.215	0.165
-220.625	117.202	-0.142	-0.172
-219.611	-128.658	0.417	-0.058
-218.596	-55.726	0.100	-0.044
-217.582	624.155	-0.042	-0.105
-216.567	-43.252	-0.116	0.058
-215.552	-71.767	0.280	0.103
-214.538	521.821	-0.101	0.233
-213.523	153.054	0.144	-0.194
-212.509	-146.320	0.306	0.026
-211.494	584.641	-0.063	0.153
-210.479	-200.000	-0.006	-0.235
-209.465	176.883	0.019	-0.028
-208.450	165.887	0.087	0.122
-207.436	5.484	-0.102	-0.074
-206.421	743.700	0.068	-0.180
-205.406	800.000	-0.031	0.113
-204.392	-200.000	0.011	-0.073
-203.377	800.000	-0.059	-0.242
-202.363	149.001	0.120	0.160
-201.348	661.231	0.085	0.216
-200.333	2.470	-0.278	0.198
-199.319	-92.946	0.341	-0.094
-198.304	34.357	0.086	-0.074
-197.290	-156.894	-0.076	-0.005
-196.275	-200.000	-0.028	0.210
-195.260	-53.856	0.405	-0.182
-194.246	-48.013	-0.189	-0.090
-193.231	59.121	-0.134	-0.130
-192.217	-154.322	0.231	0.015
-191.202	-96.471	-0.137	0.036
-190.187	-59.794	0.016	-0.007
-189.173	92.775	-0.210	-0.234
-188.158	462.947	-0.211	0.463
-187.144	-4.354	0.373	0.254
-186.129	-200.000	0.026	0.155
-185.114	-200.000	-0.002	0.092
-184.100	-63.627	0.476	0.192
-183.085	161.714	0.072	0.099
-182.071	-63.924	-0.269	-0.108
-181.056	800.000	0.031	0.100
-180.042	581.581	0.073	0.177
-179.027	575.070	0.030	-0.071
-178.012	6.327	-0.035	-0.026
-176.998	-200.000	0.042	-0.297
-175.983	800.000	0.073	-0.243
-174.969	191.203	0.060	-0.089
-173.954	-98.364	-0.332	0.084
-172.939	40.809	0.199	-0.176
-171.925	521.705	0.055	-0.127
-170.910	-4.259	0.199	0.135
-169.896	-200.000	0.036	0.372
-168.881	-23.222	-0.098	0.058
-167.866	-65.717	0.232	-0.092
-166.852	150.816	-0.018	-0.024
-165.837	145.040	0.074	-0.098
-164.823	800.000	0.031	0.098
-163.808	-200.000	-0.046	-0.364
-162.793	-40.295	0.033	-0.017
-161.779	11.553	-0.058	-0.044
-160.764	800.000	0.063	-0.215
-159.750	800.000	0.078	-0.316
-158.735	-41.303	0.134	0.068
-157.720	171.310	0.188	-0.265
-156.706	175.273	0.127	0.180
-155.691	-200.000	-0.013	0.073
-154.677	-124.007	-0.350	-0.054
-153.662	87.167	0.267	0.290
-152.647	382.863	0.093	0.189
-151.633	737.266	-0.064	0.170
-150.618	-134.893	-0.308	0.037
-149.604	313.443	0.068	0.126
-148.589	60.459	-0.058	0.056
-147.574	-127.012	-0.058	0.008
-146.560	6.597	0.255	-0.186
-145.545	158.542	0.140	0.191
-144.531	39.626	-0.104	0.092
-143.516	112.642	0.189	0.225
-142.502	127.035	0.156	0.195
-141.487	-92.013	-0.205	-0.057
-140.472	-67.503	-0.339	-0.131
-139.458	-140.446	0.271	0.028
-138.443	-25.235	-0.224	0.130
-137.429	-145.068	-0.080	-0.007
-136.414	-59.605	-0.171	-0.072
-135.399	-200.000	0.013	-0.060
-134.385	158.708	-0.267	0.364
-133.370	-200.000	-0.007	0.135
-132.356	-40.649	0.081	0.041
-131.341	-19.570	-0.125	0.076
-130.326	-161.764	0.308	-0.015
-129.312	-136.069	0.241	0.028
-128.297	-8.870	0.184	-0.121
-127.283	138.995	0.112	-0.144
-126.268	188.101	0.140	0.206
-125.253	-200.000	0.000	0.195
-124.239	296.926	0.042	0.076
-123.224	200.118	-0.135	0.203
-122.210	-113.648	0.252	-0.048
-121.195	3.481	0.167	-0.119
