DTS Sentinel unit serial number:	SN413079Multiplexer serial number:	ORYXHardware model number:	OX4-SRSoftware version number:	ORYX F/W v4.00 Oryx Data Collector v3.7.2.0data status	okinstallation	princeton_trtdifferential loss correction	single-endedforward channel	channel 1reverse channel	N/Adate	2019/09/11time	12:00:11forward acquisition time	60.00reverse acquisition time	0.00gamma	496.2192k internal	0.2291k external	0.2291temperature offset calibration	0.9939default loss term (dB/km)	0.3790temperature slope calibration	1.0000multiplexer offset coefficient	1.0000multiplexer slope coefficient	1.0000fibre end	0.00T internal ref (°C)	39.25T ext. ref 1 (°C)	0.20T ext. ref 2 (°C)	36.97length (m)	temperature (°C)	Stokes	anti-Stokes-747.200	-64.056	-0.117	-0.049
-746.185	9.333	0.268	0.208
-745.171	-200.000	-0.009	-0.069
-744.156	-42.327	-0.284	0.149
-743.142	528.542	0.105	-0.253
-742.127	181.629	-0.169	-0.255
-741.112	77.630	-0.143	0.156
-740.098	-113.389	0.178	-0.036
-739.083	-29.662	-0.184	-0.107
-738.069	800.000	-0.014	0.039
-737.054	800.000	0.038	0.135
-736.039	-200.000	-0.007	-0.476
-735.025	-59.559	0.209	0.092
-734.010	102.704	0.213	-0.255
-732.996	-58.474	-0.239	-0.106
-731.981	-200.000	0.027	0.205
-730.966	300.112	-0.042	-0.080
-729.952	-111.001	-0.154	0.032
-728.937	266.873	-0.137	-0.245
-727.923	-200.000	-0.002	-0.289
-726.908	25.174	-0.125	0.107
-725.894	-122.383	-0.425	0.071
-724.879	-133.115	-0.156	0.020
-723.864	-200.000	-0.003	0.041
-722.850	-109.428	0.434	-0.094
-721.835	85.815	-0.054	-0.061
-720.821	0.226	-0.155	0.113
-719.806	622.729	-0.111	-0.286
-718.791	152.837	-0.038	-0.054
-717.777	-200.000	-0.001	-0.346
-716.762	-10.232	0.165	-0.112
-715.748	532.294	0.085	0.205
-714.733	-200.000	0.004	-0.276
-713.718	-124.471	-0.436	0.069
-712.704	294.919	-0.153	-0.286
-711.689	440.282	0.052	0.117
-710.675	142.412	-0.150	0.204
-709.660	-115.662	0.290	-0.056
-708.645	24.777	-0.103	-0.088
-707.631	255.513	-0.047	-0.082
-706.616	800.000	0.055	0.244
-705.602	507.597	-0.112	-0.265
-704.587	190.773	-0.192	-0.294
-703.572	-86.101	0.181	0.057
-702.558	170.219	0.127	-0.186
-701.543	216.802	-0.281	-0.458
-700.529	193.819	0.189	-0.292
-699.514	-68.823	0.023	-0.009
-698.499	-25.871	-0.254	0.153
-697.485	80.565	0.343	0.377
-696.470	307.844	0.201	0.383
-695.456	187.906	-0.111	0.169
-694.441	675.724	-0.063	0.166
-693.426	248.725	-0.105	0.182
-692.412	167.209	0.169	-0.246
-691.397	-200.000	0.007	0.049
-690.383	-64.281	-0.403	-0.168
-689.368	283.209	-0.082	-0.150
-688.354	800.000	0.021	-0.076
-687.339	31.083	0.157	0.137
-686.324	208.139	0.146	0.233
-685.310	86.440	0.308	0.346
-684.295	-200.000	-0.002	-0.338
-683.281	-200.000	0.060	-0.347
-682.266	-20.524	-0.250	0.157
-681.251	800.000	-0.087	0.260
-680.237	73.810	-0.113	0.121
-679.222	259.598	0.083	0.146
-678.208	547.888	-0.147	-0.360
-677.193	-8.401	-0.107	0.074
-676.178	-20.932	-0.290	-0.181
-675.164	-147.207	-0.240	0.021
-674.149	-46.508	-0.119	0.060
-673.135	47.507	0.163	0.155
-672.120	800.000	-0.070	-0.200
-671.105	-128.659	-0.254	-0.037
-670.091	-23.968	-0.121	0.074
-669.076	78.120	-0.223	-0.243
-668.062	149.052	0.203	0.280
-667.047	-200.000	-0.021	0.382
-666.032	-121.836	0.226	-0.038
-665.018	-136.385	-0.198	0.024
-664.003	9.220	0.070	-0.054
-662.989	-3.023	0.136	-0.097
-661.974	-200.000	-0.041	0.183
-660.959	-91.450	0.400	-0.117
-659.945	-200.000	0.031	-0.287
-658.930	-7.568	0.155	0.107
-657.916	-62.641	-0.181	0.076
-656.901	800.000	-0.108	-0.334
-655.886	-164.262	-0.069	0.003
-654.872	35.473	0.093	-0.083
-653.857	268.623	0.082	-0.146
-652.843	-200.000	-0.005	0.046
-651.828	691.040	0.076	-0.203
-650.814	359.296	0.015	0.030
-649.799	430.782	0.097	0.214
-648.784	-39.756	0.298	0.159
-647.770	-10.604	0.171	0.116
-646.755	800.000	0.035	-0.106
-645.741	27.693	0.102	-0.088
-644.726	-112.752	0.074	0.015
-643.711	-19.667	0.234	0.147
-642.697	-200.000	0.022	-0.143
-641.682	88.775	0.140	-0.158
-640.668	165.084	0.102	-0.147
-639.653	-20.021	0.152	0.096
-638.638	-77.203	-0.089	-0.032
-637.624	-200.000	0.048	-0.220
-636.609	-200.000	-0.000	-0.137
-635.595	-65.474	-0.277	-0.113
-634.580	11.458	-0.109	0.085
-633.565	-200.000	0.030	-0.259
-632.551	800.000	-0.067	-0.295
-631.536	-68.736	-0.121	-0.048
-630.522	93.048	0.119	-0.137
-629.507	-21.402	-0.133	0.083
-628.492	-1.023	-0.099	-0.071
-627.478	14.365	-0.187	0.149
-626.463	418.578	0.021	0.045
-625.449	-122.777	-0.213	0.035
-624.434	800.000	-0.090	-0.279
-623.419	-200.000	-0.001	0.064
-622.405	147.796	-0.232	-0.319
-621.390	-115.084	0.169	-0.033
-620.376	800.000	0.033	-0.127
-619.361	126.404	0.103	-0.132
-618.346	170.903	-0.082	0.119
-617.332	84.512	-0.188	-0.210
-616.317	79.953	-0.300	-0.329
-615.303	-200.000	-0.008	-0.340
-614.288	57.911	-0.058	-0.058
-613.273	321.153	-0.134	-0.259
-612.259	220.039	0.122	-0.199
-611.244	-92.745	0.331	0.094
-610.230	-170.324	0.217	0.008
-609.215	-5.787	0.295	-0.206
-608.201	-131.532	0.085	-0.011
-607.186	-200.000	-0.010	-0.492
-606.171	-200.000	-0.015	-0.189
-605.157	-24.369	0.242	-0.147
-604.142	12.086	0.097	0.076
-603.128	39.585	-0.328	-0.299
-602.113	-200.000	0.043	-0.203
-601.098	111.412	0.353	-0.434
-600.084	239.784	-0.194	-0.329
-599.069	22.103	0.212	0.176
-598.055	65.743	-0.106	0.109
-597.040	-70.248	-0.178	0.069
-596.025	-117.050	-0.031	0.006
-595.011	-200.000	-0.006	-0.187
-593.996	238.009	-0.174	0.294
-592.982	-200.000	-0.038	0.228
-591.967	-140.740	0.042	-0.004
-590.952	-142.864	0.227	-0.022
-589.938	-59.186	0.149	-0.065
-588.923	-200.000	0.033	0.606
-587.909	630.058	0.064	0.165
-586.894	800.000	0.119	0.369
-585.879	198.163	-0.043	0.067
-584.865	109.327	-0.091	0.111
-583.850	182.791	0.095	-0.143
-582.836	-108.570	-0.315	0.069
-581.821	-104.440	0.226	0.053
-580.806	-29.696	0.248	0.144
-579.792	800.000	-0.118	0.361
-578.777	16.003	0.170	0.136
-577.763	-40.589	-0.147	0.078
-576.748	-142.981	0.277	-0.027
-575.733	800.000	0.068	0.252
-574.719	-200.000	-0.008	0.142
-573.704	-110.917	0.133	-0.028
-572.690	296.226	0.076	-0.141
-571.675	58.295	-0.111	-0.111
-570.661	137.226	-0.195	-0.260
-569.646	-200.000	0.073	0.340
-568.631	-200.000	-0.016	0.170
-567.617	800.000	0.059	-0.238
-566.602	42.199	-0.287	-0.265
-565.588	-126.004	-0.161	-0.025
-564.573	373.552	0.068	0.140
-563.558	800.000	0.108	-0.318
-562.544	85.521	0.157	-0.175
-561.529	140.405	0.107	0.144
-560.515	76.837	-0.029	-0.032
-559.500	-6.869	-0.091	0.063
-558.485	44.352	-0.167	0.156
-557.471	28.511	-0.157	0.135
-556.456	-200.000	0.029	0.192
-555.442	-67.956	-0.065	-0.026
-554.427	212.514	0.011	0.018
-553.412	92.118	-0.059	0.068
-552.398	-200.000	0.007	0.062
-551.383	800.000	0.107	0.342
-550.369	42.070	-0.158	-0.145
-549.354	431.615	0.118	-0.260
-548.339	286.350	0.041	0.075
-547.325	-51.882	-0.150	0.071
-546.310	-15.692	-0.222	-0.144
-545.296	243.400	-0.142	-0.241
-544.281	-200.000	-0.015	-0.477
-543.266	-60.908	0.498	0.214
-542.252	-200.000	0.014	0.129
-541.237	-94.629	0.339	-0.094
-540.223	-34.294	0.138	0.077
-539.208	218.949	0.193	-0.313
-538.193	-114.385	0.162	0.032
-537.179	-185.851	-0.170	0.003
-536.164	-152.202	0.128	-0.009
-535.150	264.936	-0.061	-0.108
-534.135	7.841	-0.096	0.073
-533.121	-38.849	0.444	0.238
-532.106	566.112	-0.071	-0.174
-531.091	-12.881	-0.271	0.179
-530.077	99.222	0.101	-0.119
-529.062	-77.928	0.143	-0.050
-528.048	146.706	0.243	-0.331
-527.033	653.190	-0.035	0.091
-526.018	5.525	0.148	-0.111
-525.004	-45.129	-0.245	-0.123
-523.989	800.000	0.020	0.061
-522.975	-200.000	0.020	-0.097
-521.960	-166.321	-0.249	0.011
-520.945	800.000	-0.066	0.205
-519.931	47.029	-0.154	0.146
-518.916	-99.039	-0.272	-0.070
-517.902	287.121	-0.037	0.069
-516.887	-48.919	-0.137	0.066
-515.872	-200.000	-0.003	-0.155
-514.858	-25.174	0.197	0.119
-513.843	219.827	-0.223	-0.363
-512.829	-109.957	0.271	-0.058
-511.814	-77.727	-0.260	0.091
-510.799	-200.000	-0.058	0.373
-509.785	224.107	-0.044	-0.072
-508.770	-11.473	-0.106	0.071
-507.756	596.603	-0.100	0.251
-506.741	240.647	-0.150	0.254
-505.726	37.122	-0.182	0.164
-504.712	148.015	0.087	0.119
-503.697	-200.000	0.048	0.378
-502.683	-200.000	0.082	0.382
-501.668	-60.122	-0.152	-0.066
-500.653	800.000	-0.032	0.139
-499.639	383.293	0.131	0.273
-498.624	191.170	-0.131	-0.199
-497.610	484.590	-0.176	0.406
-496.595	-200.000	0.027	-0.174
-495.581	475.403	0.072	0.166
-494.566	297.147	-0.044	-0.082
-493.551	-116.016	-0.377	0.071
-492.537	-200.000	0.020	-0.191
-491.522	108.449	-0.176	-0.214
-490.508	-39.863	-0.158	-0.084
-489.493	151.504	-0.321	-0.443
-488.478	-99.531	0.131	0.033
-487.464	764.538	0.074	-0.203
-486.449	-200.000	-0.041	0.199
-485.435	190.139	0.150	-0.229
-484.420	-97.961	-0.197	0.051
-483.405	-71.382	0.367	0.139
-482.391	201.875	-0.075	-0.117
-481.376	11.419	0.183	-0.142
-480.362	-122.950	0.255	0.042
-479.347	127.625	-0.082	-0.105
-478.332	107.356	-0.091	-0.110
-477.318	-80.016	-0.165	0.056
-476.303	-147.520	-0.265	0.023
-475.289	-59.219	0.443	0.193
-474.274	-200.000	0.032	0.187
-473.259	344.530	-0.185	-0.367
-472.245	800.000	-0.098	0.399
-471.230	-15.173	0.184	0.119
-470.216	800.000	0.077	-0.226
-469.201	-200.000	-0.039	0.209
-468.186	-160.831	0.110	-0.006
-467.172	53.546	-0.123	-0.119
-466.157	-50.855	-0.337	-0.161
-465.143	3.548	-0.137	-0.101
-464.128	-18.314	-0.088	-0.056
-463.113	191.231	0.041	0.063
-462.099	-98.904	0.337	-0.087
-461.084	373.827	0.123	0.254
-460.070	26.780	0.149	-0.127
-459.055	127.039	-0.083	-0.107
-458.040	324.967	0.059	-0.114
-457.026	-31.692	-0.231	0.131
-456.011	-94.070	0.426	-0.118
-454.997	-200.000	0.018	-0.143
-453.982	-200.000	0.046	0.294
-452.968	-144.995	-0.291	0.027
-451.953	113.772	0.027	0.033
-450.938	47.887	-0.110	-0.104
-449.924	118.490	0.113	0.142
-448.909	-141.717	-0.494	-0.050
-447.895	287.767	0.088	-0.162
-446.880	34.052	-0.247	0.218
-445.865	-68.501	-0.157	0.062
-444.851	-200.000	-0.017	-0.185
-443.836	-159.036	-0.099	0.006
-442.822	-200.000	0.059	0.374
-441.807	800.000	0.061	0.232
-440.792	-157.046	-0.235	0.015
-439.778	-163.555	0.247	-0.012
-438.763	-93.027	0.132	-0.037
-437.749	800.000	0.074	-0.318
-436.734	800.000	0.069	0.211
-435.719	-51.376	0.114	0.054
-434.705	-32.650	0.320	0.180
-433.690	-200.000	0.010	-0.146
-432.676	-200.000	0.001	0.220
-431.661	193.371	0.062	-0.095
-430.646	-79.541	-0.200	0.068
-429.632	-75.940	-0.283	-0.101
-428.617	-103.340	0.074	-0.018
-427.603	-56.802	-0.017	0.008
-426.588	13.212	-0.303	-0.237
-425.573	-200.000	-0.009	0.113
-424.559	800.000	-0.005	0.020
-423.544	-137.097	-0.425	-0.049
-422.530	77.632	-0.095	0.102
-421.515	-41.222	0.434	-0.226
-420.500	800.000	-0.083	-0.298
-419.486	-107.493	0.106	0.023
-418.471	-200.000	-0.055	0.290
-417.457	-125.630	-0.366	0.056
-416.442	213.290	0.130	-0.208
-415.428	425.078	0.205	-0.445
-414.413	-81.597	-0.304	0.101
-413.398	288.203	-0.159	0.291
-412.384	105.672	0.082	-0.098
-411.369	69.596	0.229	0.238
-410.355	290.523	0.164	0.301
-409.340	-49.880	0.362	-0.173
-408.325	78.795	0.069	0.074
-407.311	-11.821	-0.210	-0.139
-406.296	800.000	0.062	-0.223
-405.282	-69.780	-0.410	0.158
-404.267	-36.905	-0.239	-0.130
-403.252	-3.357	0.101	-0.071
-402.238	-118.447	-0.302	0.054
-401.223	78.396	-0.208	-0.225
-400.209	-200.000	0.027	0.124
-399.194	-87.427	-0.237	0.072
-398.179	257.116	0.189	-0.329
-397.165	84.431	-0.164	-0.181
-396.150	-129.589	-0.177	-0.025
-395.136	20.967	0.171	0.140
-394.121	-24.835	0.126	0.075
-393.106	-18.991	-0.129	-0.081
-392.092	-71.391	-0.138	0.052
-391.077	-200.000	-0.001	-0.038
-390.063	-200.000	-0.048	0.329
-389.048	-200.000	-0.014	0.107
-388.033	-41.566	-0.313	0.163
-387.019	-75.658	-0.143	0.051
-386.004	800.000	-0.049	-0.197
-384.990	387.327	-0.136	0.285
-383.975	-200.000	0.015	0.144
-382.960	521.772	-0.092	0.219
-381.946	-10.192	0.105	0.071
-380.931	116.999	-0.435	0.539
-379.917	-54.925	-0.059	0.027
-378.902	14.075	0.410	-0.322
-377.888	3.353	0.158	0.116
-376.873	-131.606	0.077	-0.010
-375.858	800.000	0.091	-0.288
-374.844	-127.941	-0.383	0.056
-373.829	39.451	-0.205	-0.185
-372.815	-74.446	-0.280	-0.102
-371.800	-200.000	-0.020	0.351
-370.785	-200.000	0.013	-0.211
-369.771	-43.021	0.335	0.172
-368.756	271.067	-0.077	0.137
-367.742	207.434	-0.149	-0.234
-366.727	241.074	0.224	-0.378
-365.712	-145.773	-0.419	0.038
-364.698	800.000	-0.092	-0.271
-363.683	201.514	-0.077	-0.119
-362.669	120.625	-0.348	-0.436
-361.654	112.785	0.072	0.088
-360.639	145.614	-0.110	0.148
-359.625	33.178	0.115	-0.100
-358.610	576.572	-0.105	0.259
-357.596	800.000	0.043	-0.157
-356.581	-33.844	0.051	0.029
-355.566	129.866	0.047	0.060
-354.552	-82.526	-0.063	-0.020
-353.537	-200.000	-0.075	-0.378
-352.523	-200.000	0.000	-0.142
-351.508	-162.538	-0.153	-0.008
-350.493	-138.774	-0.222	-0.024
-349.479	-100.015	0.266	0.067
-348.464	233.660	0.135	-0.223
-347.450	221.355	0.135	0.219
-346.435	-200.000	-0.028	0.237
-345.420	-95.477	-0.197	-0.053
-344.406	-1.519	-0.178	0.126
-343.391	-29.875	-0.232	-0.133
-342.377	-90.693	-0.331	0.096
-341.362	20.224	-0.250	0.204
-340.348	-23.629	0.276	0.167
-339.333	70.167	0.250	0.260
-338.318	376.469	-0.083	0.170
-337.304	-200.000	0.015	0.276
-336.289	-200.000	-0.018	0.163
-335.275	800.000	0.053	0.175
-334.260	-200.000	-0.042	0.232
-333.245	-73.475	0.245	-0.090
-332.231	-135.139	0.065	0.008
-331.216	-200.000	0.087	0.392
-330.202	-53.882	-0.128	-0.059
-329.187	800.000	-0.032	0.099
-328.172	-200.000	0.006	-0.308
-327.158	270.331	-0.144	-0.255
-326.143	-200.000	-0.012	0.160
-325.129	-200.000	-0.336	-0.001
-324.114	59.017	0.062	0.061
-323.099	-56.427	0.445	0.199
-322.085	294.447	0.141	0.260
-321.070	249.334	-0.145	0.248
-320.056	37.814	0.062	0.055
-319.041	69.781	0.250	-0.259
-318.026	59.834	0.199	0.197
-317.012	-200.000	-0.002	0.370
-315.997	800.000	-0.030	-0.123
-314.983	800.000	0.064	-0.270
-313.968	169.640	0.101	-0.146
-312.953	621.305	0.122	0.309
-311.939	-200.000	-0.023	0.221
-310.924	-200.000	0.018	0.170
-309.910	91.522	0.080	-0.090
-308.895	569.404	-0.039	0.094
-307.880	54.794	-0.266	0.258
-306.866	29.626	-0.261	-0.224
-305.851	-200.000	0.008	-0.092
-304.837	651.989	0.057	-0.146
-303.822	800.000	-0.024	0.088
-302.807	-34.814	-0.207	0.114
-301.793	-178.421	-0.087	-0.002
-300.778	482.386	0.151	0.346
-299.764	-119.159	-0.383	-0.067
-298.749	421.582	0.046	-0.099
-297.735	-14.961	0.249	0.160
-296.720	-108.781	-0.345	0.074
-295.705	-67.031	0.317	0.126
-294.691	800.000	0.117	-0.424
-293.676	201.562	0.157	0.243
-292.662	191.847	0.073	-0.110
-291.647	-69.692	0.142	0.055
-290.632	132.394	-0.047	-0.061
-289.618	-65.371	-0.281	0.114
-288.603	762.710	-0.026	0.071
-287.589	-200.000	0.046	0.242
-286.574	393.451	0.164	0.344
-285.559	41.226	0.130	-0.118
-284.545	205.234	0.134	-0.209
-283.530	-200.000	-0.015	-0.166
-282.516	-74.108	0.423	0.154
-281.501	-89.096	-0.134	-0.040
-280.486	-117.048	0.124	0.023
-279.472	-200.000	-0.024	0.223
-278.457	180.034	0.082	-0.122
-277.443	800.000	-0.069	-0.243
-276.428	-115.991	-0.310	-0.058
-275.413	-145.259	0.323	-0.029
-274.399	395.898	0.037	0.077
-273.384	-82.094	-0.222	-0.073
-272.370	308.842	0.099	0.186
-271.355	-102.072	0.085	0.021
-270.340	185.470	0.260	-0.389
-269.326	91.137	-0.293	-0.330
-268.311	106.972	-0.202	-0.241
-267.297	-165.271	-0.088	0.004
-266.282	-29.404	0.153	-0.088
-265.267	-200.000	-0.023	-0.190
-264.253	-13.404	0.121	0.079
-263.238	-79.366	-0.191	0.065
-262.224	-200.000	0.032	-0.307
-261.209	195.477	0.143	-0.218
-260.195	800.000	0.041	0.137
-259.180	800.000	0.075	0.301
-258.165	-200.000	-0.066	-0.374
-257.151	-200.000	0.019	-0.126
-256.136	-78.627	-0.179	0.062
-255.122	-48.528	0.197	0.095
-254.107	-9.871	-0.074	0.049
-253.092	372.350	-0.102	0.209
-252.078	-133.925	-0.124	0.015
-251.063	312.897	-0.121	0.229
-250.049	-175.491	0.465	0.013
-249.034	2.801	0.188	-0.137
-248.019	101.556	0.162	-0.190
-247.005	-107.042	-0.246	0.055
-245.990	538.924	-0.013	0.032
-244.976	-200.000	0.047	0.234
-243.961	-120.411	0.082	0.014
-242.946	6.980	-0.145	-0.109
-241.932	-15.569	0.299	0.192
-240.917	-13.330	0.154	0.100
-239.903	58.989	-0.192	-0.190
-238.888	800.000	0.080	-0.309
-237.873	80.620	-0.262	0.283
-236.859	86.255	-0.355	0.392
-235.844	247.853	-0.184	0.311
-234.830	-146.840	0.362	-0.031
-233.815	-96.205	0.329	-0.088
-232.800	-200.000	-0.036	-0.180
-231.786	373.510	0.075	-0.153
-230.771	-173.002	0.227	0.007
-229.757	359.660	0.141	-0.283
-228.742	-97.635	-0.061	-0.016
-227.727	800.000	0.048	-0.166
-226.713	245.060	0.160	0.270
-225.698	-54.512	0.185	-0.084
-224.684	-173.854	0.232	0.007
-223.669	366.672	-0.080	-0.161
-222.655	-11.894	0.328	0.216
-221.640	24.795	0.233	-0.194
-220.625	-75.285	-0.073	0.026
-219.611	194.800	0.032	0.049
-218.596	-108.730	0.082	-0.018
-217.582	-200.000	0.100	0.595
-216.567	-200.000	-0.001	-0.168
-215.552	5.655	0.297	-0.220
-214.538	-200.000	-0.010	-0.111
-213.523	111.092	-0.076	0.091
-212.509	-182.792	0.208	0.004
-211.494	-47.131	-0.271	-0.133
-210.479	-158.199	0.325	0.019
-209.465	-200.000	0.017	0.338
-208.450	3.961	0.249	0.183
-207.436	-200.000	0.019	-0.175
-206.421	-65.989	0.267	0.107
-205.406	800.000	0.036	-0.114
-204.392	-200.000	0.049	-0.229
-203.377	-70.303	0.019	0.007
-202.363	-15.586	-0.089	0.057
-201.348	800.000	0.045	0.159
-200.333	-200.000	-0.048	-0.348
-199.319	3.471	0.293	-0.214
-198.304	371.813	-0.132	0.269
-197.290	10.889	-0.103	0.079
-196.275	-30.284	0.255	0.145
-195.260	-200.000	-0.047	0.363
-194.246	217.050	-0.039	0.062
-193.231	-134.276	0.195	-0.024
-192.217	-74.443	-0.022	0.008
-191.202	30.166	-0.199	0.170
-190.187	-130.488	-0.344	0.047
-189.173	-200.000	-0.017	0.206
-188.158	143.201	0.103	-0.137
-187.144	-58.138	-0.093	-0.040
-186.129	54.379	-0.140	-0.135
-185.114	19.540	0.143	-0.115
-184.100	309.644	-0.204	-0.382
-183.085	-90.996	0.291	0.084
-182.071	-200.000	0.036	0.436
-181.056	-98.235	0.228	-0.059
-180.042	188.258	-0.045	0.067
-179.027	-180.275	0.068	0.001
-178.012	-136.969	-0.119	-0.014
-176.998	-117.227	-0.054	0.010
-175.983	214.755	0.133	-0.212
-174.969	-114.917	-0.230	0.044
-173.954	-75.072	0.347	0.124
-172.939	-179.801	-0.432	0.009
-171.925	72.528	0.143	-0.150
-170.910	-121.206	0.156	-0.026
-169.896	-118.841	-0.173	-0.030
-168.881	186.629	-0.079	0.117
-167.866	-105.840	-0.435	0.098
-166.852	96.632	-0.268	0.307
-165.837	48.292	-0.165	-0.154
-164.823	43.723	0.166	-0.152
-163.808	169.452	0.181	-0.258
-162.793	-200.000	0.003	0.047
-161.779	-117.275	0.411	0.075
-160.764	-98.348	-0.186	-0.048
-159.750	-184.724	0.229	-0.004
-158.735	800.000	-0.079	0.253
-157.720	72.525	-0.157	-0.164
-156.706	388.088	0.171	-0.355
-155.691	2.541	0.215	-0.155
-154.677	-200.000	0.006	-0.298
-153.662	-135.077	-0.137	0.017
-152.647	126.114	0.149	-0.189
-151.633	304.347	0.001	0.002
-150.618	-58.797	-0.095	0.041
-149.604	213.742	0.169	-0.267
-148.589	51.765	0.177	0.169
-147.574	-68.024	0.026	0.010
-146.560	-52.311	-0.136	-0.063
-145.545	800.000	-0.063	0.176
-144.531	60.095	0.138	0.136
-143.516	-51.947	-0.344	0.160
-142.502	800.000	-0.081	-0.233
-141.487	397.995	0.128	-0.268
-140.472	-81.735	-0.217	-0.071
-139.458	87.351	0.142	-0.157
-138.443	-163.226	-0.184	-0.009
-137.429	84.731	0.431	-0.472
-136.414	-138.004	-0.128	-0.014
-135.399	-99.509	-0.048	-0.012
-134.385	198.567	0.121	-0.186
-133.370	494.821	0.109	0.250
-132.356	39.737	0.014	-0.013
-131.341	71.053	0.108	0.112
-130.326	-24.194	0.093	-0.056
-129.312	97.365	-0.044	0.050
-128.297	70.170	-0.231	0.239
-127.283	-97.732	-0.093	-0.024
-126.268	39.486	0.217	-0.195
-125.253	-113.702	0.090	0.018
-124.239	219.886	0.072	0.115
-123.224	240.337	0.055	-0.092
-122.210	30.853	-0.080	0.069
-121.195	-68.802	-0.312	0.120
