DTS Sentinel unit serial number:	SN413079Multiplexer serial number:	ORYXHardware model number:	OX4-SRSoftware version number:	ORYX F/W v4.00 Oryx Data Collector v3.7.2.0data status	okinstallation	princeton_trtdifferential loss correction	single-endedforward channel	channel 1reverse channel	N/Adate	2019/09/11time	04:16:11forward acquisition time	60.00reverse acquisition time	0.00gamma	496.2192k internal	0.2331k external	0.2331temperature offset calibration	0.9921default loss term (dB/km)	0.3790temperature slope calibration	1.0000multiplexer offset coefficient	1.0000multiplexer slope coefficient	1.0000fibre end	0.00T internal ref (°C)	29.56T ext. ref 1 (°C)	-0.30T ext. ref 2 (°C)	23.42length (m)	temperature (°C)	Stokes	anti-Stokes-747.200	-92.698	-0.113	-0.032
-746.185	-200.000	-0.036	0.299
-745.171	-200.000	0.544	-0.002
-744.156	25.541	0.099	0.083
-743.142	-121.417	0.262	-0.044
-742.127	-60.730	0.145	0.062
-741.112	-36.577	-0.347	0.188
-740.098	-169.918	-0.349	-0.013
-739.083	253.931	-0.126	0.216
-738.069	-200.000	-0.007	-0.191
-737.054	-73.436	-0.245	0.090
-736.039	-137.690	-0.047	-0.005
-735.025	-75.419	0.405	-0.145
-734.010	82.361	0.167	-0.182
-732.996	-200.000	-0.036	-0.365
-731.981	-176.315	-0.245	0.006
-730.966	83.669	-0.264	0.290
-729.952	-200.000	-0.075	-0.366
-728.937	8.240	0.131	0.099
-727.923	-200.000	-0.029	-0.143
-726.908	210.571	0.182	-0.287
-725.894	-200.000	-0.032	-0.191
-724.879	-101.269	0.111	0.027
-723.864	209.830	-0.177	-0.279
-722.850	-110.781	-0.397	0.082
-721.835	653.578	0.093	-0.240
-720.821	185.461	-0.056	0.084
-719.806	-102.641	-0.128	0.031
-718.791	104.475	-0.040	0.048
-717.777	115.262	0.097	0.120
-716.762	-200.000	0.006	0.132
-715.748	97.365	0.254	-0.293
-714.733	-141.211	0.205	0.021
-713.718	-0.082	0.216	-0.155
-712.704	-157.759	0.213	-0.013
-711.689	-116.971	-0.090	0.017
-710.675	-59.338	-0.053	-0.023
-709.660	345.747	0.029	0.058
-708.645	-149.315	-0.064	-0.005
-707.631	-33.412	0.213	-0.118
-706.616	103.859	-0.245	0.290
-705.602	166.114	0.160	-0.228
-704.587	-127.078	-0.135	0.020
-703.572	63.942	-0.248	-0.251
-702.558	67.672	0.294	0.302
-701.543	-8.118	0.074	0.050
-700.529	-118.988	0.059	-0.010
-699.514	800.000	-0.040	0.131
-698.499	-200.000	0.002	0.080
-697.485	93.712	-0.094	-0.107
-696.470	-23.266	-0.222	0.134
-695.456	-0.105	0.097	-0.070
-694.441	-31.801	-0.246	-0.139
-693.426	-100.439	-0.193	-0.048
-692.412	56.409	-0.008	0.007
-691.397	-53.401	0.277	-0.128
-690.383	-36.903	-0.295	-0.159
-689.368	214.972	-0.154	0.246
-688.354	-97.667	-0.173	-0.045
-687.339	-123.138	-0.091	-0.015
-686.324	-45.466	-0.074	-0.037
-685.310	-92.614	0.103	0.029
-684.295	34.084	0.100	-0.087
-683.281	243.196	-0.149	-0.251
-682.266	-46.590	0.180	0.089
-681.251	800.000	-0.069	0.270
-680.237	178.098	-0.185	-0.271
-679.222	-63.693	0.381	-0.157
-678.208	12.192	0.195	-0.151
-677.193	-200.000	-0.043	-0.386
-676.178	-121.103	-0.134	0.022
-675.164	104.765	0.135	-0.159
-674.149	46.036	-0.143	0.133
-673.135	297.345	0.102	-0.189
-672.120	-67.039	0.163	0.065
-671.105	-63.430	0.201	0.083
-670.091	35.994	-0.252	0.223
-669.076	319.002	0.078	-0.148
-668.062	-73.664	-0.070	0.026
-667.047	472.522	-0.075	0.169
-666.032	-136.544	-0.066	0.008
-665.018	800.000	0.068	-0.208
-664.003	-143.179	0.066	-0.006
-662.989	-16.213	0.137	0.088
-661.974	407.078	-0.099	-0.209
-660.959	106.576	0.095	0.113
-659.945	-75.228	-0.068	-0.024
-658.930	5.815	0.298	0.221
-657.916	268.590	-0.125	0.220
-656.901	-79.748	-0.175	-0.059
-655.886	-200.000	0.016	0.376
-654.872	-136.825	0.264	0.030
-653.857	-138.358	0.170	0.019
-652.843	-104.693	-0.206	0.048
-651.828	-20.468	-0.182	0.112
-650.814	800.000	0.156	-0.533
-649.799	-28.272	-0.165	-0.095
-648.784	60.733	0.342	-0.340
-647.770	-59.089	0.117	-0.051
-646.755	-14.420	0.175	-0.113
-645.741	-200.000	0.074	0.390
-644.726	-150.458	-0.202	-0.016
-643.711	800.000	-0.043	-0.167
-642.697	-45.046	0.204	0.102
-641.682	-29.425	0.039	0.022
-640.668	-112.384	-0.086	0.017
-639.653	-200.000	-0.036	-0.385
-638.638	-8.558	0.206	0.139
-637.624	-94.662	0.151	-0.041
-636.609	-132.875	-0.161	-0.021
-635.595	-2.014	-0.063	-0.044
-634.580	28.666	0.040	0.034
-633.565	-109.447	-0.222	0.047
-632.551	-101.636	-0.544	0.132
-631.536	-200.000	-0.056	0.293
-630.522	-200.000	-0.029	-0.274
-629.507	146.584	0.024	0.033
-628.492	72.693	0.115	-0.120
-627.478	177.009	0.109	0.159
-626.463	111.925	0.123	0.149
-625.449	244.113	-0.078	-0.131
-624.434	-188.062	0.106	0.001
-623.419	-153.968	0.438	0.030
-622.405	-200.000	-0.015	-0.219
-621.390	-196.188	-0.377	-0.003
-620.376	-81.425	-0.216	-0.071
-619.361	-200.000	0.012	0.052
-618.346	-8.606	0.055	0.037
-617.332	-103.250	-0.414	0.098
-616.317	-28.081	0.258	-0.150
-615.303	-200.000	0.003	-0.063
-614.288	171.159	0.044	0.064
-613.273	-200.000	-0.014	-0.073
-612.259	-200.000	-0.056	-0.657
-611.244	161.308	0.121	0.169
-610.230	-81.750	-0.253	0.083
-609.215	70.536	0.055	-0.057
-608.201	49.620	-0.059	-0.056
-607.186	800.000	0.028	0.093
-606.171	-88.769	-0.332	0.099
-605.157	98.294	0.061	-0.071
-604.142	800.000	-0.051	0.205
-603.128	39.716	-0.070	0.063
-602.113	-102.889	-0.149	0.035
-601.098	-77.852	-0.349	0.121
-600.084	800.000	0.053	0.220
-599.069	-105.467	-0.096	0.022
-598.055	14.410	0.178	0.139
-597.040	304.103	-0.046	0.086
-596.025	-121.011	0.093	-0.016
-595.011	-107.099	0.141	0.031
-593.996	-112.980	-0.048	0.010
-592.982	800.000	-0.010	0.040
-591.967	-200.000	0.001	0.542
-590.952	800.000	0.100	0.335
-589.938	-57.786	-0.183	-0.080
-588.923	-167.813	0.142	-0.006
-587.909	349.531	-0.252	-0.497
-586.894	-22.919	-0.036	0.022
-585.879	172.477	-0.135	0.194
-584.865	-200.000	-0.005	-0.120
-583.850	-176.081	-0.254	0.007
-582.836	-82.986	-0.143	0.046
-581.821	240.830	0.104	-0.174
-580.806	337.738	0.292	-0.569
-579.792	-3.633	-0.099	0.068
-578.777	-200.000	0.009	0.178
-577.763	506.713	0.102	-0.236
-576.748	800.000	0.012	0.045
-575.733	800.000	-0.027	-0.085
-574.719	-200.000	0.013	-0.231
-573.704	-31.544	0.114	-0.064
-572.690	354.245	-0.104	-0.206
-571.675	-38.520	-0.083	0.044
-570.661	-200.000	-0.030	-0.199
-569.646	-59.026	0.232	-0.100
-568.631	800.000	-0.091	0.262
-567.617	800.000	-0.072	-0.269
-566.602	29.751	-0.196	-0.167
-565.588	207.010	0.142	-0.221
-564.573	321.691	-0.141	-0.268
-563.558	23.768	0.279	0.230
-562.544	67.317	0.055	-0.056
-561.529	-195.985	0.395	-0.003
-560.515	-146.812	0.180	0.015
-559.500	-67.659	0.187	-0.073
-558.485	-7.216	0.264	0.179
-557.471	-78.355	0.127	0.043
-556.456	382.683	0.089	-0.184
-555.442	-77.492	0.264	-0.092
-554.427	132.274	0.268	0.345
-553.412	402.571	-0.085	0.178
-552.398	-200.000	0.002	-0.122
-551.383	-19.917	-0.121	-0.075
-550.369	28.813	-0.273	0.231
-549.354	-200.000	-0.082	0.422
-548.339	512.911	-0.159	-0.369
-547.325	114.113	0.068	0.083
-546.310	-41.861	-0.127	-0.065
-545.296	28.887	-0.133	-0.113
-544.281	42.449	-0.373	0.339
-543.266	792.239	-0.042	-0.115
-542.252	-41.877	-0.048	-0.025
-541.237	795.348	-0.125	-0.342
-540.223	39.065	-0.028	0.025
-539.208	-200.000	0.036	0.312
-538.193	-77.009	0.168	-0.058
-537.179	155.954	0.114	-0.157
-536.164	-51.292	-0.265	0.124
-535.150	-200.000	-0.008	0.473
-534.135	50.509	-0.101	-0.095
-533.121	28.511	-0.045	0.038
-532.106	179.974	0.119	-0.174
-531.091	30.068	-0.141	0.120
-530.077	177.428	0.228	0.332
-529.062	-103.555	-0.264	-0.062
-528.048	202.077	0.119	-0.183
-527.033	269.554	0.076	-0.134
-526.018	-200.000	0.043	-0.197
-525.004	22.972	0.177	0.145
-523.989	290.453	-0.079	-0.143
-522.975	-173.181	0.339	-0.010
-521.960	-200.000	0.008	0.384
-520.945	-30.888	-0.360	-0.203
-519.931	-200.000	0.041	0.198
-518.916	800.000	-0.023	-0.087
-517.902	412.840	0.010	-0.020
-516.887	104.091	-0.044	-0.052
-515.872	25.166	-0.299	0.247
-514.858	261.001	0.155	0.268
-513.843	-200.000	0.019	-0.191
-512.829	533.477	0.111	-0.263
-511.814	35.664	0.107	0.094
-510.799	-55.229	-0.111	0.050
-509.785	-130.365	0.265	-0.036
-508.770	800.000	0.017	-0.064
-507.756	11.664	0.086	-0.066
-506.741	323.423	0.136	0.259
-505.726	800.000	-0.093	-0.356
-504.712	647.542	0.118	0.301
-503.697	-12.090	-0.112	0.073
-502.683	716.214	0.045	-0.118
-501.668	-129.073	-0.133	0.019
-500.653	95.187	-0.169	0.192
-499.639	-87.683	0.281	-0.085
-498.624	6.305	0.043	0.032
-497.610	307.661	-0.077	-0.144
-496.595	248.533	0.036	0.061
-495.581	320.693	-0.168	0.317
-494.566	461.602	-0.106	0.236
-493.551	-39.114	0.339	-0.178
-492.537	-68.643	0.042	-0.016
-491.522	-200.000	0.040	0.368
-490.508	145.040	0.079	0.106
-489.493	-127.864	0.168	0.024
-488.478	116.546	-0.195	-0.238
-487.464	628.529	0.126	-0.318
-486.449	800.000	-0.076	0.214
-485.435	-72.356	0.574	-0.212
-484.420	-155.543	0.502	0.032
-483.405	137.871	0.130	0.170
-482.391	723.306	-0.034	-0.090
-481.376	-138.156	0.578	0.064
-480.362	-109.393	0.258	-0.054
-479.347	-153.092	0.179	0.013
-478.332	-200.000	0.036	0.239
-477.318	-200.000	0.016	-0.142
-476.303	-81.293	0.406	0.134
-475.289	55.992	0.114	-0.110
-474.274	800.000	0.087	0.310
-473.259	-24.488	-0.164	-0.097
-472.245	61.617	-0.161	-0.159
-471.230	-9.843	-0.180	0.119
-470.216	17.808	0.123	0.098
-469.201	232.449	0.192	0.314
-468.186	-200.000	0.005	0.078
-467.172	-38.516	0.051	0.027
-466.157	-200.000	-0.015	-0.211
-465.143	47.373	-0.095	0.088
-464.128	10.948	-0.065	0.049
-463.113	543.760	-0.165	0.392
-462.099	800.000	0.043	-0.177
-461.084	-27.140	-0.232	0.135
-460.070	800.000	-0.049	0.174
-459.055	-190.222	0.437	0.005
-458.040	-75.717	0.299	0.105
-457.026	-200.000	0.006	-0.089
-456.011	-176.956	0.386	0.010
-454.997	454.538	0.137	0.301
-453.982	132.623	0.147	0.189
-452.968	-25.201	0.201	-0.118
-451.953	-126.940	-0.191	-0.028
-450.938	800.000	0.058	-0.222
-449.924	64.582	-0.035	0.035
-448.909	-38.341	-0.071	-0.038
-447.895	18.635	0.081	-0.065
-446.880	800.000	-0.021	-0.074
-445.865	151.367	-0.163	-0.221
-444.851	7.921	-0.155	0.116
-443.836	-97.106	0.072	-0.019
-442.822	-200.000	-0.030	-0.362
-441.807	-7.606	0.246	0.165
-440.792	36.677	-0.063	0.055
-439.778	-153.334	0.380	0.026
-438.763	-159.172	0.105	-0.006
-437.749	-111.287	-0.221	0.045
-436.734	-100.970	-0.330	0.081
-435.719	-105.541	-0.302	0.068
-434.705	-79.504	-0.398	-0.134
-433.690	152.338	-0.217	-0.295
-432.676	800.000	0.043	0.138
-431.661	334.378	0.028	-0.054
-430.646	363.763	-0.196	-0.392
-429.632	-13.999	0.099	0.064
-428.617	538.678	0.163	-0.385
-427.603	-19.737	-0.278	0.171
-426.588	800.000	0.063	-0.222
-425.573	-158.491	0.170	-0.010
-424.559	-200.000	0.004	-0.181
-423.544	-14.700	0.130	-0.083
-422.530	-200.000	-0.015	-0.194
-421.515	161.410	0.341	-0.475
-420.500	-41.020	0.059	-0.031
-419.486	525.337	-0.096	0.226
-418.471	-32.827	-0.152	0.084
-417.457	-11.533	0.059	-0.038
-416.442	668.054	0.050	0.130
-415.428	190.072	0.126	0.187
-414.413	-42.484	-0.054	-0.027
-413.398	97.673	0.021	-0.024
-412.384	-90.349	0.222	0.064
-411.369	-200.000	0.001	0.014
-410.355	60.342	0.191	-0.188
-409.340	-200.000	-0.017	-0.169
-408.325	-21.399	0.114	0.069
-407.311	78.901	-0.253	0.269
-406.296	800.000	0.029	0.082
-405.282	-200.000	0.016	-0.124
-404.267	-53.259	-0.134	0.061
-403.252	12.908	-0.091	-0.070
-402.238	-76.122	-0.113	-0.039
-401.223	-114.841	-0.275	0.052
-400.209	800.000	-0.112	0.372
-399.194	-134.545	0.054	0.007
-398.179	-200.000	-0.018	0.252
-397.165	-11.216	-0.114	0.075
-396.150	800.000	0.043	0.151
-395.136	89.387	-0.112	-0.124
-394.121	-59.295	0.351	-0.150
-393.106	-200.000	-0.007	-0.350
-392.092	-200.000	0.004	0.119
-391.077	-61.003	-0.213	0.089
-390.063	-88.995	0.431	-0.127
-389.048	123.852	0.313	-0.390
-388.033	-109.261	-0.097	-0.020
-387.019	-200.000	0.001	0.172
-386.004	4.257	0.066	-0.048
-384.990	55.120	-0.279	-0.267
-383.975	-200.000	-0.002	-0.125
-382.960	204.766	-0.231	-0.356
-381.946	-200.000	-0.026	-0.183
-380.931	-200.000	-0.035	-0.178
-379.917	83.764	-0.231	0.251
-378.902	-14.104	0.076	-0.049
-377.888	-200.000	-0.203	-0.001
-376.873	-200.000	0.057	-0.255
-375.858	-113.757	-0.130	-0.025
-374.844	800.000	-0.074	-0.254
-373.829	6.515	0.295	-0.218
-372.815	-52.004	0.200	-0.092
-371.800	42.367	-0.273	0.246
-370.785	-200.000	0.020	-0.162
-369.771	7.416	-0.261	-0.194
-368.756	-68.376	-0.331	-0.128
-367.742	148.910	0.027	-0.036
-366.727	-92.702	-0.238	0.066
-365.712	130.385	-0.088	0.111
-364.698	70.577	0.059	-0.061
-363.683	-158.140	-0.116	0.007
-362.669	800.000	-0.016	0.055
-361.654	432.991	-0.072	-0.155
-360.639	800.000	-0.091	-0.312
-359.625	-200.000	0.053	0.318
-358.610	-191.526	0.152	0.002
-357.596	800.000	-0.198	-0.543
-356.581	338.442	0.046	0.089
-355.566	120.318	0.148	-0.182
-354.552	437.050	-0.087	-0.188
-353.537	800.000	-0.122	-0.376
-352.523	-54.514	-0.276	-0.124
-351.508	-200.000	0.022	-0.102
-350.493	297.358	0.117	0.213
-349.479	-200.000	0.020	0.091
-348.464	-138.756	0.138	-0.015
-347.450	-173.177	-0.184	-0.006
-346.435	-137.655	0.283	0.032
-345.420	-200.000	-0.028	0.327
-344.406	612.394	0.115	-0.285
-343.391	667.358	-0.088	-0.227
-342.377	-96.289	-0.415	-0.109
-341.362	312.453	0.018	-0.034
-340.348	164.724	0.201	-0.280
-339.333	174.262	-0.207	0.297
-338.318	-78.115	-0.242	-0.082
-337.304	-137.854	-0.416	-0.046
-336.289	-42.132	-0.448	0.227
-335.275	564.367	-0.033	0.079
-334.260	-126.115	0.187	-0.028
-333.245	-200.000	-0.045	0.446
-332.231	256.635	0.124	0.211
-331.216	-200.000	0.043	-0.218
-330.202	-31.486	0.289	-0.161
-329.187	523.975	-0.051	-0.118
-328.172	132.677	0.146	-0.187
-327.158	68.394	0.182	-0.185
-326.143	193.733	0.154	0.231
-325.129	145.230	0.083	-0.110
-324.114	-70.073	0.140	-0.053
-323.099	88.193	0.115	-0.126
-322.085	-200.000	-0.040	0.260
-321.070	102.868	0.205	0.238
-320.056	49.744	-0.234	-0.218
-319.041	-75.994	-0.182	0.064
-318.026	-100.545	0.322	0.079
-317.012	217.720	0.110	0.174
-315.997	-130.623	-0.328	0.044
-314.983	71.367	0.209	-0.214
-313.968	-163.572	0.562	0.026
-312.953	331.815	-0.103	0.197
-311.939	800.000	-0.096	0.332
-310.924	-40.902	0.344	0.176
-309.910	329.064	-0.198	0.377
-308.895	152.717	-0.046	-0.063
-307.880	-200.000	-0.009	-0.139
-306.866	-200.000	0.034	0.208
-305.851	-59.579	0.150	0.064
-304.837	-200.000	-0.054	0.281
-303.822	800.000	-0.073	-0.263
-302.807	38.983	0.083	-0.073
-301.793	-200.000	-0.017	0.305
-300.778	437.794	-0.061	0.131
-299.764	-160.909	0.351	0.018
-298.749	59.059	0.331	-0.322
-297.735	325.984	-0.139	0.262
-296.720	-200.000	0.030	0.306
-295.705	-149.395	-0.131	0.010
-294.691	-11.598	-0.222	0.145
-293.676	800.000	-0.008	-0.028
-292.662	-43.518	0.113	-0.057
-291.647	-157.142	-0.208	0.013
-290.632	800.000	-0.084	0.243
-289.618	510.591	0.044	0.100
-288.603	-46.553	-0.179	-0.087
-287.589	800.000	-0.025	0.079
-286.574	-200.000	0.000	-0.416
-285.559	52.874	-0.153	0.145
-284.545	-56.864	-0.095	0.041
-283.530	-200.000	-0.004	-0.183
-282.516	39.165	0.096	-0.085
-281.501	95.659	0.054	-0.061
-280.486	55.153	0.116	-0.111
-279.472	-200.000	0.020	0.092
-278.457	-101.197	-0.242	0.059
-277.443	-200.000	-0.041	-0.274
-276.428	392.171	0.207	0.426
-275.413	-25.379	0.484	0.283
-274.399	800.000	-0.093	0.356
-273.384	12.108	0.112	0.085
-272.370	16.550	0.036	-0.028
-271.355	312.939	0.067	-0.124
-270.340	-84.892	0.121	0.037
-269.326	712.627	0.139	0.364
-268.311	188.404	-0.232	0.343
-267.297	-46.506	-0.233	-0.113
-266.282	273.638	-0.106	-0.185
-265.267	46.795	0.208	0.191
-264.253	-40.747	0.148	0.075
-263.238	800.000	-0.032	-0.098
-262.224	94.752	-0.250	0.281
-261.209	-148.971	0.205	-0.016
-260.195	-113.447	-0.364	0.070
-259.180	-200.000	-0.007	-0.255
-258.165	92.758	-0.248	0.276
-257.151	-137.585	-0.224	-0.025
-256.136	-122.692	0.210	-0.034
-255.122	-59.904	0.044	0.019
-254.107	-33.012	-0.298	0.163
-253.092	-47.237	0.306	-0.147
-252.078	113.257	-0.104	0.125
-251.063	800.000	-0.025	-0.077
-250.049	136.564	-0.186	-0.239
-249.034	49.532	-0.345	0.321
-248.019	-77.845	0.161	-0.055
-247.005	-200.000	-0.063	-0.316
-245.990	114.119	0.111	-0.133
-244.976	161.577	0.286	0.395
-243.961	134.030	0.140	-0.179
-242.946	800.000	-0.057	0.238
-241.932	-51.041	-0.318	0.147
-240.917	484.718	-0.166	0.372
-239.903	-102.899	-0.163	-0.038
-238.888	271.113	0.097	-0.168
-237.873	-200.000	-0.043	0.297
-236.859	-200.000	0.050	-0.371
-235.844	37.852	0.323	-0.283
-234.830	260.024	-0.116	-0.198
-233.815	44.437	0.104	-0.094
-232.800	-101.965	-0.123	-0.029
-231.786	800.000	-0.082	0.225
-230.771	485.602	0.093	0.209
-229.757	76.422	0.135	-0.141
-228.742	-200.000	-0.046	-0.449
-227.727	-74.729	0.280	0.099
-226.713	-32.301	-0.191	-0.105
-225.698	137.185	-0.235	0.303
-224.684	595.771	-0.166	-0.404
-223.669	-54.599	-0.183	0.082
-222.655	74.927	-0.163	-0.169
-221.640	361.599	-0.016	-0.032
-220.625	160.577	-0.241	0.331
-219.611	-200.000	0.013	0.125
-218.596	46.378	0.259	0.237
-217.582	-200.000	0.053	-0.524
-216.567	-72.724	-0.048	-0.017
-215.552	-200.000	-0.008	-0.186
-214.538	-80.346	-0.178	-0.058
-213.523	800.000	0.030	-0.116
-212.509	-100.061	-0.091	0.022
-211.494	-60.757	0.245	-0.102
-210.479	108.351	-0.186	-0.219
-209.465	-200.000	-0.011	-0.155
-208.450	800.000	-0.152	-0.426
-207.436	-167.881	0.275	-0.011
-206.421	-93.689	0.346	-0.094
-205.406	-60.248	0.179	0.075
-204.392	332.269	-0.035	-0.067
-203.377	800.000	-0.084	-0.293
-202.363	93.572	0.106	0.118
-201.348	100.406	0.069	-0.079
-200.333	24.977	-0.279	0.228
-199.319	-12.821	-0.010	-0.007
-198.304	266.857	0.164	0.282
-197.290	98.210	-0.140	0.159
-196.275	-86.318	0.400	0.121
-195.260	254.148	-0.146	0.246
-194.246	-200.000	-0.057	0.383
-193.231	800.000	0.198	-0.609
-192.217	-15.755	0.142	-0.089
-191.202	-82.766	0.292	-0.093
-190.187	-92.782	0.208	-0.057
-189.173	-67.114	-0.243	0.094
-188.158	-200.000	0.007	-0.046
-187.144	-25.306	0.134	-0.078
-186.129	-200.000	-0.026	0.261
-185.114	800.000	-0.070	-0.254
-184.100	-42.843	-0.245	0.123
-183.085	177.562	-0.139	0.199
-182.071	-27.208	0.116	0.066
-181.056	-200.000	-0.004	-0.285
-180.042	53.817	0.130	0.123
-179.027	48.524	0.396	0.366
-178.012	-141.464	-0.287	0.029
-176.998	-200.000	-0.001	-0.272
-175.983	106.994	-0.224	-0.262
-174.969	-45.899	0.153	-0.074
-173.954	-200.000	-0.013	-0.157
-172.939	-5.172	-0.302	0.205
-171.925	-74.101	-0.208	0.074
-170.910	-81.925	0.171	0.055
-169.896	49.958	0.192	0.178
-168.881	-109.932	-0.294	-0.061
-167.866	-200.000	0.031	0.252
-166.852	277.161	0.207	0.362
-165.837	232.717	-0.216	0.349
-164.823	430.785	0.167	0.355
-163.808	14.177	-0.117	0.090
-162.793	-11.172	-0.275	-0.178
-161.779	-92.125	-0.175	0.049
-160.764	-200.000	-0.043	-0.278
-159.750	-86.708	-0.262	0.079
-158.735	-166.208	0.301	0.013
-157.720	-26.421	0.241	0.139
-156.706	-33.559	0.065	-0.035
-155.691	-159.048	-0.334	0.019
-154.677	-112.055	-0.282	0.056
-153.662	-177.584	-0.156	0.004
-152.647	-154.002	-0.257	-0.017
-151.633	-62.205	-0.107	0.044
-150.618	-200.000	-0.038	0.272
-149.604	-200.000	-0.010	0.217
-148.589	138.972	-0.051	-0.066
-147.574	406.974	0.036	-0.075
-146.560	131.914	0.072	0.091
-145.545	-148.124	0.512	-0.042
-144.531	-34.166	0.124	0.067
-143.516	165.643	0.058	0.080
-142.502	288.013	0.039	0.069
-141.487	410.588	0.073	-0.152
-140.472	536.170	0.022	-0.052
-139.458	226.121	0.182	0.290
-138.443	-200.000	0.360	-0.001
-137.429	172.213	0.083	0.117
-136.414	-35.863	0.227	-0.121
-135.399	-123.168	-0.200	0.032
-134.385	21.072	0.185	-0.148
-133.370	800.000	0.088	-0.375
-132.356	-184.284	-0.208	-0.003
-131.341	27.554	-0.134	-0.111
-130.326	-68.363	-0.048	0.018
-129.312	59.863	0.111	0.108
-128.297	-172.448	0.055	-0.002
-127.283	705.749	-0.083	0.215
-126.268	445.812	0.071	0.154
-125.253	-200.000	0.010	0.131
-124.239	46.353	0.393	0.358
-123.224	-145.700	0.275	0.024
-122.210	25.311	0.163	-0.133
-121.195	82.818	0.119	-0.127
