DTS Sentinel unit serial number:	SN413079Multiplexer serial number:	ORYXHardware model number:	OX4-SRSoftware version number:	ORYX F/W v4.00 Oryx Data Collector v3.7.2.0data status	okinstallation	princeton_trtdifferential loss correction	single-endedforward channel	channel 1reverse channel	N/Adate	2019/09/11time	22:28:11forward acquisition time	60.00reverse acquisition time	0.00gamma	496.2192k internal	0.2315k external	0.2315temperature offset calibration	1.0057default loss term (dB/km)	0.3790temperature slope calibration	1.0000multiplexer offset coefficient	1.0000multiplexer slope coefficient	1.0000fibre end	0.00T internal ref (°C)	35.12T ext. ref 1 (°C)	1.79T ext. ref 2 (°C)	29.57length (m)	temperature (°C)	Stokes	anti-Stokes-747.200	-152.131	0.462	0.034
-746.185	69.882	-0.145	-0.151
-745.171	800.000	0.107	-0.353
-744.156	148.834	-0.043	-0.060
-743.142	-86.148	-0.297	-0.093
-742.127	-56.529	0.366	0.164
-741.112	618.090	-0.031	-0.078
-740.098	21.228	0.074	0.061
-739.083	21.615	-0.176	0.145
-738.069	-169.670	0.215	-0.008
-737.054	-20.978	0.282	0.175
-736.039	147.529	0.082	-0.112
-735.025	-108.799	0.135	-0.029
-734.010	646.951	0.112	-0.289
-732.996	-153.708	0.029	-0.002
-731.981	157.494	-0.117	-0.164
-730.966	-172.153	-0.486	-0.016
-729.952	182.013	0.160	0.239
-728.937	2.123	-0.222	0.162
-727.923	-43.332	0.196	0.100
-726.908	-71.494	-0.164	0.062
-725.894	73.136	0.133	-0.141
-724.879	-200.000	-0.021	-0.161
-723.864	-49.354	-0.255	-0.123
-722.850	2.692	-0.119	0.087
-721.835	-125.469	-0.258	-0.040
-720.821	800.000	0.073	-0.290
-719.806	100.628	-0.141	0.165
-718.791	-47.137	0.117	-0.058
-717.777	-200.000	-0.042	-0.244
-716.762	-71.133	0.200	-0.076
-715.748	141.320	-0.178	0.239
-714.733	75.455	-0.176	-0.188
-713.718	-200.000	0.001	-0.032
-712.704	-169.725	-0.276	0.010
-711.689	10.467	0.101	0.078
-710.675	-42.298	0.180	0.093
-709.660	10.912	-0.229	0.177
-708.645	-110.444	-0.157	-0.033
-707.631	527.613	0.055	0.130
-706.616	-142.843	-0.312	-0.031
-705.602	20.321	0.042	-0.034
-704.587	172.875	-0.025	0.037
-703.572	-46.159	-0.208	0.104
-702.558	-200.000	0.012	0.325
-701.543	-110.833	-0.117	0.024
-700.529	-200.000	-0.007	-0.101
-699.514	5.240	0.332	0.247
-698.499	-28.021	0.167	-0.098
-697.485	62.579	0.105	-0.106
-696.470	-105.745	0.260	0.059
-695.456	-200.000	0.011	-0.411
-694.441	304.442	-0.070	0.132
-693.426	-13.146	-0.287	-0.189
-692.412	800.000	-0.027	-0.105
-691.397	242.063	-0.163	-0.276
-690.383	800.000	-0.066	-0.216
-689.368	23.076	0.082	0.068
-688.354	-200.000	-0.020	-0.388
-687.339	-93.885	0.343	0.096
-686.324	1.901	0.122	0.089
-685.310	-200.000	0.026	-0.154
-684.295	-78.775	0.328	-0.113
-683.281	-118.900	0.438	0.078
-682.266	85.643	0.094	0.105
-681.251	-154.447	0.116	0.008
-680.237	800.000	-0.102	-0.365
-679.222	515.219	-0.105	0.249
-678.208	798.581	-0.072	0.200
-677.193	-140.709	0.283	-0.030
-676.178	148.346	0.192	-0.262
-675.164	800.000	-0.121	-0.348
-674.149	125.505	0.292	-0.373
-673.135	138.576	0.123	-0.163
-672.120	358.843	0.113	-0.229
-671.105	-167.164	0.336	0.014
-670.091	-36.515	0.241	0.131
-669.076	-58.031	0.183	0.081
-668.062	800.000	-0.056	0.198
-667.047	-4.366	0.057	0.040
-666.032	80.635	-0.054	-0.058
-665.018	-46.976	0.144	0.071
-664.003	800.000	-0.065	0.242
-662.989	350.161	-0.080	0.161
-661.974	-83.056	0.317	0.103
-660.959	-200.000	-0.032	0.334
-659.945	800.000	-0.064	0.190
-658.930	759.500	-0.086	0.234
-657.916	189.480	-0.077	-0.116
-656.901	-63.272	0.061	-0.025
-655.886	-81.050	0.253	-0.085
-654.872	24.449	-0.027	-0.022
-653.857	42.681	-0.280	-0.258
-652.843	577.714	0.093	0.229
-651.828	35.518	-0.086	-0.076
-650.814	-32.460	0.271	0.153
-649.799	1.132	0.016	-0.012
-648.784	0.778	0.130	-0.094
-647.770	-4.778	-0.042	-0.029
-646.755	65.354	-0.278	0.284
-645.741	28.728	0.161	-0.138
-644.726	-102.783	0.045	-0.011
-643.711	-66.734	-0.346	-0.138
-642.697	318.113	0.116	-0.222
-641.682	-200.000	-0.037	-0.259
-640.668	383.158	-0.047	0.098
-639.653	800.000	0.093	-0.266
-638.638	33.059	-0.261	0.228
-637.624	-161.647	-0.104	0.005
-636.609	-57.869	-0.240	0.106
-635.595	800.000	0.062	0.241
-634.580	-149.331	0.033	0.003
-633.565	-108.061	-0.261	0.057
-632.551	-114.405	0.149	-0.029
-631.536	-61.433	0.357	-0.151
-630.522	-141.177	0.284	0.029
-629.507	-57.595	0.216	-0.096
-628.492	-121.546	-0.365	0.061
-627.478	800.000	-0.061	0.216
-626.463	-200.000	0.018	-0.138
-625.449	-135.459	0.154	-0.019
-624.434	-107.314	-0.223	0.049
-623.419	131.472	-0.145	-0.188
-622.405	435.293	0.081	-0.177
-621.390	114.259	0.115	-0.141
-620.376	-151.393	-0.138	0.010
-619.361	752.128	-0.112	-0.305
-618.346	-97.300	0.138	-0.036
-617.332	0.632	0.480	0.346
-616.317	-200.000	0.019	-0.218
-615.303	111.257	0.131	-0.159
-614.288	-200.000	0.051	-0.385
-613.273	-200.000	0.024	0.220
-612.259	76.968	-0.235	0.251
-611.244	194.680	0.171	-0.262
-610.230	65.066	0.245	-0.249
-609.215	9.495	0.053	-0.040
-608.201	-200.000	0.021	-0.207
-607.186	-200.000	-0.006	0.203
-606.171	-200.000	0.038	0.293
-605.157	74.720	-0.064	-0.068
-604.142	-124.921	-0.091	0.014
-603.128	-200.000	0.011	0.102
-602.113	48.543	-0.037	0.035
-601.098	-168.602	0.359	-0.014
-600.084	193.545	-0.188	0.287
-599.069	-200.000	-0.035	0.165
-598.055	39.960	-0.034	0.031
-597.040	-200.000	-0.028	-0.363
-596.025	281.218	-0.154	-0.278
-595.011	800.000	-0.036	-0.154
-593.996	-10.011	-0.247	-0.166
-592.982	793.044	-0.070	0.194
-591.967	-134.856	-0.086	-0.011
-590.952	-142.887	-0.088	0.009
-589.938	82.872	0.250	-0.274
-588.923	-71.311	-0.079	0.030
-587.909	-75.470	-0.085	-0.031
-586.894	-83.657	-0.275	-0.088
-585.879	-200.000	-0.038	-0.334
-584.865	-49.678	-0.075	-0.036
-583.850	126.251	0.056	-0.071
-582.836	-67.034	0.212	-0.084
-581.821	-33.236	0.223	0.124
-580.806	-70.098	-0.210	-0.081
-579.792	64.842	0.062	-0.063
-578.777	459.448	-0.030	0.067
-577.763	745.153	0.129	-0.350
-576.748	30.942	-0.163	0.141
-575.733	800.000	-0.048	-0.171
-574.719	-200.000	-0.005	-0.158
-573.704	-200.000	-0.079	-0.392
-572.690	-93.331	0.263	-0.073
-571.675	-72.668	-0.291	-0.108
-570.661	-24.318	0.188	-0.113
-569.646	800.000	-0.022	-0.074
-568.631	800.000	-0.108	0.335
-567.617	71.958	-0.019	0.020
-566.602	-200.000	0.055	-0.313
-565.588	-200.000	0.010	-0.092
-564.573	109.937	-0.134	0.162
-563.558	238.778	0.097	0.163
-562.544	-19.785	0.174	0.108
-561.529	197.528	0.225	0.346
-560.515	-16.065	-0.109	0.069
-559.500	436.964	-0.044	-0.096
-558.485	154.991	0.044	-0.061
-557.471	-170.596	-0.217	-0.008
-556.456	481.218	0.082	0.187
-555.442	800.000	0.035	0.149
-554.427	-200.000	0.004	-0.136
-553.412	-200.000	0.002	0.361
-552.398	800.000	0.104	0.340
-551.383	-200.000	-0.095	0.462
-550.369	75.407	-0.160	-0.169
-549.354	-28.556	-0.247	-0.143
-548.339	63.771	0.152	0.154
-547.325	48.996	-0.384	-0.362
-546.310	-163.981	-0.535	-0.025
-545.296	578.276	-0.056	0.138
-544.281	439.529	-0.082	-0.180
-543.266	-127.491	-0.094	-0.014
-542.252	214.858	0.295	0.470
-541.237	-161.628	0.271	0.014
-540.223	-200.000	-0.020	-0.116
-539.208	-103.211	-0.162	-0.039
-538.193	88.172	0.102	0.114
-537.179	-200.000	0.088	0.447
-536.164	69.495	0.103	-0.107
-535.150	725.453	0.064	0.173
-534.135	-7.246	0.079	-0.054
-533.121	-200.000	0.072	-0.566
-532.106	-116.494	0.127	-0.024
-531.091	103.066	-0.131	-0.154
-530.077	-118.845	0.031	-0.005
-529.062	-90.227	0.151	0.044
-528.048	-200.000	0.011	0.104
-527.033	-14.296	0.319	-0.206
-526.018	491.781	0.177	-0.409
-525.004	-66.816	0.425	-0.169
-523.989	130.594	-0.022	0.028
-522.975	-197.467	0.193	-0.001
-521.960	-48.415	-0.071	0.034
-520.945	-52.409	-0.147	-0.068
-519.931	168.059	0.073	-0.105
-518.916	465.665	0.105	-0.237
-517.902	-126.513	-0.292	0.044
-516.887	800.000	-0.039	0.160
-515.872	4.647	0.126	-0.093
-514.858	-155.344	0.185	-0.012
-513.843	-49.318	0.181	0.087
-512.829	75.997	0.103	0.110
-511.814	-112.442	-0.392	-0.079
-510.799	-21.549	0.069	-0.042
-509.785	-200.000	0.025	-0.427
-508.770	800.000	0.041	0.175
-507.756	145.236	-0.236	-0.317
-506.741	-120.461	0.203	-0.035
-505.726	23.155	0.293	0.242
-504.712	800.000	-0.067	0.218
-503.697	-200.000	-0.003	-0.224
-502.683	-3.187	0.157	-0.110
-501.668	-73.505	0.296	-0.109
-500.653	-200.000	0.003	0.057
-499.639	-174.797	0.368	0.010
-498.624	-135.079	0.274	-0.033
-497.610	-111.295	-0.184	0.038
-496.595	-100.626	-0.175	-0.043
-495.581	-86.306	0.211	-0.065
-494.566	164.068	-0.168	-0.237
-493.551	143.224	-0.109	-0.145
-492.537	-59.946	-0.356	0.153
-491.522	-200.000	0.028	-0.150
-490.508	-93.239	-0.076	-0.021
-489.493	35.442	0.019	0.017
-488.478	242.158	-0.102	-0.172
-487.464	72.393	-0.209	0.218
-486.449	248.507	0.071	-0.120
-485.435	-200.000	-0.000	0.170
-484.420	169.867	0.038	0.055
-483.405	-88.921	0.172	0.051
-482.391	-107.237	-0.151	-0.033
-481.376	167.416	-0.162	-0.231
-480.362	-200.000	-0.026	0.375
-479.347	-96.986	-0.283	0.075
-478.332	-21.248	-0.320	-0.196
-477.318	-119.219	0.314	-0.055
-476.303	-200.000	-0.038	0.174
-475.289	385.155	-0.088	-0.183
-474.274	800.000	-0.116	0.343
-473.259	73.722	-0.060	0.063
-472.245	-200.000	-0.005	0.330
-471.230	46.761	-0.257	0.239
-470.216	-200.000	0.006	0.083
-469.201	252.270	-0.152	-0.260
-468.186	-200.000	-0.000	-0.207
-467.172	-73.510	-0.051	-0.019
-466.157	-63.613	0.241	0.099
-465.143	-146.403	-0.251	0.022
-464.128	-200.000	0.068	0.341
-463.113	800.000	0.040	0.113
-462.099	686.059	0.115	-0.300
-461.084	-137.576	-0.174	0.020
-460.070	50.529	0.156	0.148
-459.055	-133.771	0.272	-0.034
-458.040	-59.915	-0.126	0.054
-457.026	-200.000	-0.033	-0.171
-456.011	800.000	0.050	-0.161
-454.997	218.348	0.142	-0.227
-453.982	800.000	0.011	-0.039
-452.968	-200.000	0.021	-0.218
-451.953	-200.000	-0.056	-0.290
-450.938	-155.786	-0.095	-0.006
-449.924	-16.715	-0.294	-0.187
-448.909	-112.561	0.316	0.063
-447.895	569.636	0.039	-0.094
-446.880	-200.000	-0.023	0.112
-445.865	-3.428	0.090	0.063
-444.851	-149.681	-0.457	0.036
-443.836	-133.484	-0.060	-0.008
-442.822	-37.863	0.130	-0.069
-441.807	-200.000	-0.004	-0.126
-440.792	-200.000	-0.014	-0.218
-439.778	577.985	-0.078	0.192
-438.763	-103.982	0.043	-0.010
-437.749	-123.452	-0.060	0.010
-436.734	-173.882	-0.235	-0.007
-435.719	800.000	-0.047	-0.168
-434.705	-7.494	0.102	0.069
-433.690	-147.527	0.077	0.007
-432.676	-88.691	-0.152	-0.045
-431.661	62.670	0.258	-0.258
-430.646	10.311	-0.067	-0.051
-429.632	132.656	-0.172	-0.222
-428.617	45.461	0.102	0.094
-427.603	62.488	-0.167	0.167
-426.588	-158.968	0.311	0.018
-425.573	16.647	0.233	0.184
-424.559	800.000	-0.101	0.279
-423.544	215.690	0.119	0.189
-422.530	-44.914	0.281	0.140
-421.515	-120.290	-0.056	-0.010
-420.500	-187.694	-0.126	0.002
-419.486	-131.525	0.200	-0.026
-418.471	13.504	0.258	0.200
-417.457	337.219	-0.057	-0.112
-416.442	-200.000	-0.009	-0.048
-415.428	418.062	-0.081	0.173
-414.413	-46.920	-0.276	-0.135
-413.398	-200.000	-0.012	-0.104
-412.384	-136.015	0.115	0.014
-411.369	4.478	-0.204	-0.150
-410.355	-142.118	0.400	0.040
-409.340	800.000	-0.019	0.080
-408.325	-200.000	-0.003	-0.128
-407.311	733.496	0.131	-0.352
-406.296	-200.000	0.037	0.290
-405.282	-17.256	0.093	-0.058
-404.267	12.182	-0.170	-0.131
-403.252	-90.872	-0.382	0.110
-402.238	-62.989	-0.299	-0.123
-401.223	-200.000	-0.001	0.288
-400.209	-76.777	-0.403	0.141
-399.194	60.705	-0.262	-0.259
-398.179	161.647	0.046	0.064
-397.165	272.856	0.051	0.090
-396.150	800.000	0.047	-0.156
-395.136	181.199	0.032	0.047
-394.121	202.253	-0.191	0.294
-393.106	-82.487	0.016	-0.005
-392.092	-174.210	-0.198	-0.006
-391.077	381.994	-0.104	-0.213
-390.063	-136.766	-0.068	-0.008
-389.048	130.045	0.088	-0.112
-388.033	-56.322	0.192	-0.085
-387.019	44.620	0.099	-0.091
-386.004	-106.066	0.057	-0.013
-384.990	5.140	-0.201	0.148
-383.975	-132.783	-0.179	0.023
-382.960	56.920	0.172	0.167
-381.946	119.313	0.203	0.251
-380.931	17.775	-0.344	0.274
-379.917	-123.157	-0.188	0.030
-378.902	499.308	0.094	0.216
-377.888	63.551	0.199	0.199
-376.873	-75.564	0.196	-0.070
-375.858	165.650	0.171	-0.241
-374.844	136.633	0.101	0.131
-373.829	-20.358	0.068	0.042
-372.815	-36.621	-0.128	0.069
-371.800	-120.871	-0.346	-0.058
-370.785	391.943	-0.107	0.222
-369.771	-127.206	-0.031	0.004
-368.756	60.079	0.155	0.153
-367.742	-91.553	0.178	0.051
-366.727	-200.000	0.013	-0.539
-365.712	800.000	-0.042	-0.183
-364.698	29.058	0.200	0.170
-363.683	86.210	-0.148	0.163
-362.669	154.606	-0.201	0.276
-361.654	-200.000	-0.022	-0.469
-360.639	255.180	-0.043	-0.073
-359.625	99.139	-0.074	-0.085
-358.610	3.620	-0.218	0.159
-357.596	-126.914	0.218	-0.032
-356.581	151.903	0.161	0.219
-355.566	-41.697	0.252	0.129
-354.552	-200.000	-0.005	0.197
-353.537	-36.103	-0.208	-0.112
-352.523	-42.637	-0.179	-0.091
-351.508	-200.000	-0.072	0.334
-350.493	-75.299	0.241	-0.086
-349.479	-145.016	-0.069	0.006
-348.464	147.306	0.172	-0.231
-347.450	207.746	0.124	-0.194
-346.435	-35.898	0.201	0.109
-345.420	132.556	0.105	0.136
-344.406	-16.837	-0.153	0.097
-343.391	800.000	0.081	0.296
-342.377	800.000	-0.151	0.654
-341.362	-20.532	0.157	0.096
-340.348	156.998	0.053	-0.073
-339.333	-42.925	0.243	-0.123
-338.318	-19.083	0.294	-0.182
-337.304	193.317	-0.143	-0.216
-336.289	800.000	-0.063	0.218
-335.275	800.000	0.045	-0.146
-334.260	28.402	0.311	0.262
-333.245	-101.164	-0.058	-0.014
-332.231	-90.211	0.320	0.093
-331.216	-125.394	0.070	-0.011
-330.202	800.000	-0.097	-0.319
-329.187	-8.743	-0.263	-0.176
-328.172	800.000	-0.060	0.203
-327.158	-94.832	-0.358	0.097
-326.143	-183.221	0.356	-0.006
-325.129	-177.992	0.174	-0.004
-324.114	32.502	-0.293	-0.253
-323.099	-50.252	0.258	0.122
-322.085	-111.463	-0.055	0.011
-321.070	-170.701	-0.219	-0.008
-320.056	235.374	-0.163	0.268
-319.041	-132.138	0.210	0.027
-318.026	-50.226	-0.093	-0.044
-317.012	-200.000	0.014	0.422
-315.997	-112.253	-0.132	0.026
-314.983	2.563	-0.078	-0.056
-313.968	20.163	0.308	-0.248
-312.953	-39.510	-0.213	0.111
-311.939	-200.000	0.014	-0.161
-310.924	97.415	-0.085	0.097
-309.910	-20.290	0.140	-0.086
-308.895	-42.340	0.105	-0.054
-307.880	69.592	-0.046	0.047
-306.866	675.885	-0.101	0.262
-305.851	-200.000	0.050	-0.322
-304.837	539.815	-0.073	-0.174
-303.822	-9.668	0.394	0.262
-302.807	689.830	-0.040	-0.104
-301.793	-12.014	0.117	0.076
-300.778	83.808	0.141	0.153
-299.764	133.577	0.236	-0.304
-298.749	800.000	-0.043	-0.152
-297.735	29.167	0.292	0.247
-296.720	210.952	-0.138	0.216
-295.705	-123.616	-0.079	0.012
-294.691	-200.000	-0.001	0.060
-293.676	-21.258	-0.115	0.070
-292.662	5.780	-0.368	0.271
-291.647	-200.000	0.039	-0.269
-290.632	800.000	-0.047	-0.134
-289.618	255.987	0.280	0.478
-288.603	124.595	-0.020	0.025
-287.589	-84.638	-0.049	-0.015
-286.574	800.000	-0.053	0.150
-285.559	-58.877	0.180	0.077
-284.545	800.000	0.069	-0.256
-283.530	-139.963	-0.291	0.031
-282.516	-200.000	0.022	0.252
-281.501	592.786	-0.085	0.209
-280.486	94.412	0.152	0.172
-279.472	-200.000	-0.003	-0.026
-278.457	-25.135	0.122	-0.072
-277.443	-200.000	-0.053	-0.304
-276.428	-70.209	-0.068	0.026
-275.413	-200.000	-0.014	-0.092
-274.399	133.856	-0.093	0.120
-273.384	233.652	0.123	0.202
-272.370	-152.720	0.132	0.009
-271.355	-48.925	0.058	-0.027
-270.340	-79.161	-0.067	0.023
-269.326	104.528	-0.062	-0.072
-268.311	-90.059	0.141	0.041
-267.297	-96.861	0.319	-0.083
-266.282	-138.240	-0.141	-0.016
-265.267	-119.554	0.250	0.043
-264.253	373.465	0.092	0.186
-263.238	-84.380	0.313	0.098
-262.224	54.696	0.198	0.190
-261.209	800.000	0.060	0.168
-260.195	-38.743	-0.207	-0.109
-259.180	-109.426	0.135	0.028
-258.165	-47.468	0.045	0.022
-257.151	800.000	0.073	-0.311
-256.136	-154.313	-0.211	0.014
-255.122	47.039	0.102	0.094
-254.107	-39.228	-0.172	0.090
-253.092	-87.657	-0.309	0.093
-252.078	480.183	-0.041	0.092
-251.063	11.230	0.197	-0.150
-250.049	-34.966	-0.118	0.064
-249.034	3.268	-0.257	-0.186
-248.019	42.621	-0.168	-0.152
-247.005	456.225	0.057	0.126
-245.990	800.000	-0.047	0.172
-244.976	-70.506	-0.263	0.099
-243.961	475.111	-0.202	-0.453
-242.946	207.666	-0.180	-0.279
-241.932	-85.111	0.066	0.021
-240.917	504.240	0.170	0.390
-239.903	96.004	-0.176	0.200
-238.888	79.485	0.292	-0.311
-237.873	276.387	-0.097	0.172
-236.859	-200.000	0.008	0.091
-235.844	-200.000	0.021	0.121
-234.830	140.658	-0.053	0.069
-233.815	-147.631	0.263	-0.022
-232.800	-73.798	0.082	-0.030
-231.786	18.996	-0.236	0.188
-230.771	-117.456	-0.142	-0.026
-229.757	-84.293	-0.318	0.100
-228.742	800.000	0.070	0.231
-227.727	94.361	0.218	0.245
-226.713	449.632	0.180	-0.393
-225.698	800.000	0.064	0.278
-224.684	800.000	0.031	0.093
-223.669	263.521	0.132	-0.227
-222.655	800.000	-0.063	-0.256
-221.640	236.264	0.305	0.501
-220.625	-200.000	0.049	0.393
-219.611	-99.092	0.263	0.066
-218.596	-88.440	0.227	-0.067
-217.582	-131.613	-0.201	0.026
-216.567	-200.000	-0.022	0.123
-215.552	302.293	0.224	-0.412
-214.538	-200.000	0.043	0.213
-213.523	-106.857	-0.097	0.021
-212.509	16.845	-0.145	-0.114
-211.494	595.024	-0.057	0.140
-210.479	-84.688	-0.634	-0.198
-209.465	-94.845	-0.349	0.094
-208.450	-62.490	-0.136	-0.056
-207.436	33.053	0.241	-0.208
-206.421	-200.000	0.021	-0.207
-205.406	-71.736	0.417	0.154
-204.392	-79.782	-0.111	-0.037
-203.377	-7.821	-0.179	-0.120
-202.363	-200.000	-0.012	-0.081
-201.348	-60.788	-0.316	0.133
-200.333	-200.000	0.006	0.070
-199.319	579.962	-0.088	0.214
-198.304	-149.025	0.188	-0.015
-197.290	-53.087	0.155	-0.070
-196.275	-200.000	-0.011	0.545
-195.260	-152.298	-0.052	0.004
-194.246	-108.370	0.215	0.046
-193.231	286.339	0.184	-0.329
-192.217	800.000	-0.094	0.389
-191.202	800.000	0.082	0.252
-190.187	-45.692	-0.300	-0.147
-189.173	-59.516	0.301	0.128
-188.158	2.613	0.227	-0.163
-187.144	-53.808	0.290	0.131
-186.129	-42.082	-0.355	-0.180
-185.114	-63.123	-0.167	-0.069
-184.100	800.000	0.047	-0.174
-183.085	25.563	0.189	0.156
-182.071	-200.000	-0.059	0.296
-181.056	-19.864	0.192	0.118
-180.042	280.134	0.178	0.315
-179.027	-80.261	0.114	-0.038
-178.012	88.378	-0.196	-0.216
-176.998	-200.000	0.122	-0.000
-175.983	120.932	-0.150	0.185
-174.969	-21.703	-0.247	-0.149
-173.954	800.000	0.122	-0.437
-172.939	-2.022	0.230	-0.160
-171.925	-200.000	-0.026	0.338
-170.910	-200.000	0.065	-0.401
-169.896	-79.712	-0.054	-0.018
-168.881	76.282	0.101	0.106
-167.866	-52.468	-0.139	0.064
-166.852	-121.964	-0.208	0.034
-165.837	-95.982	-0.059	-0.015
-164.823	-200.000	-0.002	-0.346
-163.808	101.535	0.043	0.049
-162.793	-200.000	0.011	-0.131
-161.779	-129.983	-0.002	-0.000
-160.764	-56.018	-0.160	-0.071
-159.750	185.078	-0.143	-0.210
-158.735	-45.708	-0.089	0.044
-157.720	30.741	-0.295	0.250
-156.706	-60.553	-0.202	-0.085
-155.691	192.766	0.067	-0.101
-154.677	1.818	-0.330	-0.236
-153.662	265.662	-0.105	-0.181
-152.647	-200.000	0.256	-0.000
-151.633	-200.000	-0.045	-0.267
-150.618	259.351	0.082	-0.139
-149.604	-200.000	-0.010	0.288
-148.589	1.978	-0.240	0.172
-147.574	-58.925	-0.242	0.104
-146.560	-47.339	-0.153	0.074
-145.545	85.348	0.094	-0.102
-144.531	139.718	-0.158	0.206
-143.516	800.000	-0.066	-0.282
-142.502	347.386	-0.071	0.139
-141.487	57.686	-0.221	-0.214
-140.472	-89.173	0.146	0.043
-139.458	84.849	-0.128	0.139
-138.443	423.669	0.033	0.070
-137.429	345.026	0.169	-0.328
-136.414	-130.368	0.183	-0.025
-135.399	-108.810	-0.380	0.081
-134.385	92.270	0.172	0.192
-133.370	800.000	0.003	0.012
-132.356	250.471	-0.081	-0.136
-131.341	107.695	0.124	-0.146
-130.326	-74.204	0.163	0.058
-129.312	-200.000	-0.015	-0.098
-128.297	-76.752	-0.075	0.026
-127.283	171.360	0.134	-0.190
-126.268	-200.000	0.014	0.096
-125.253	-200.000	0.003	0.143
-124.239	36.752	0.128	-0.112
-123.224	-183.073	-0.322	-0.006
-122.210	-3.235	0.273	-0.188
-121.195	-88.669	-0.058	0.017
