DTS Sentinel unit serial number:	SN413079Multiplexer serial number:	ORYXHardware model number:	OX4-SRSoftware version number:	ORYX F/W v4.00 Oryx Data Collector v3.7.2.0data status	okinstallation	princeton_trtdifferential loss correction	single-endedforward channel	channel 1reverse channel	N/Adate	2019/09/10time	22:12:12forward acquisition time	60.00reverse acquisition time	0.00gamma	496.2192k internal	0.2331k external	0.2331temperature offset calibration	0.9932default loss term (dB/km)	0.3790temperature slope calibration	1.0000multiplexer offset coefficient	1.0000multiplexer slope coefficient	1.0000fibre end	0.00T internal ref (°C)	30.56T ext. ref 1 (°C)	-0.30T ext. ref 2 (°C)	23.85length (m)	temperature (°C)	Stokes	anti-Stokes-747.200	-200.000	-0.014	0.296
-746.185	74.380	0.199	0.210
-745.171	-120.629	-0.278	-0.047
-744.156	244.272	0.187	-0.315
-743.142	-115.029	-0.465	-0.089
-742.127	-200.000	-0.004	0.111
-741.112	0.688	-0.235	0.170
-740.098	-200.000	-0.019	0.100
-739.083	665.252	-0.073	0.191
-738.069	-93.426	-0.368	0.103
-737.054	800.000	-0.144	-0.447
-736.039	-71.480	-0.335	0.126
-735.025	-200.000	0.033	0.183
-734.010	-106.721	-0.312	0.070
-732.996	-142.088	-0.166	-0.017
-731.981	-148.442	-0.230	0.019
-730.966	185.944	-0.186	0.279
-729.952	-86.175	-0.180	-0.056
-728.937	175.187	-0.196	-0.286
-727.923	-121.255	-0.192	0.032
-726.908	-73.720	-0.129	0.047
-725.894	-200.000	-0.090	0.000
-724.879	-81.463	-0.152	-0.050
-723.864	-200.000	0.001	-0.392
-722.850	102.452	0.220	0.259
-721.835	45.454	0.212	0.197
-720.821	-14.255	0.230	0.149
-719.806	-138.331	0.139	-0.015
-718.791	249.813	0.069	0.117
-717.777	28.594	0.165	-0.140
-716.762	48.120	0.255	-0.240
-715.748	258.356	0.097	-0.168
-714.733	37.015	-0.247	0.220
-713.718	-92.892	0.110	0.031
-712.704	-87.138	-0.506	-0.155
-711.689	-163.893	0.114	-0.005
-710.675	124.857	0.117	-0.148
-709.660	37.842	-0.098	-0.087
-708.645	18.596	-0.027	-0.022
-707.631	21.587	-0.083	-0.068
-706.616	16.107	0.237	-0.188
-705.602	38.648	0.157	-0.141
-704.587	-19.626	-0.281	0.175
-703.572	-149.960	-0.261	-0.020
-702.558	35.876	0.134	-0.119
-701.543	547.724	-0.102	-0.246
-700.529	800.000	0.043	-0.149
-699.514	-200.000	-0.037	-0.275
-698.499	-16.922	-0.125	-0.079
-697.485	287.624	0.091	-0.165
-696.470	800.000	-0.096	0.273
-695.456	106.882	0.179	-0.213
-694.441	-28.489	-0.176	-0.102
-693.426	-107.795	-0.363	0.080
-692.412	-100.668	0.382	0.095
-691.397	-110.552	0.573	0.119
-690.383	-146.867	-0.185	-0.016
-689.368	203.465	-0.030	0.047
-688.354	-19.442	-0.452	-0.281
-687.339	149.355	-0.203	-0.276
-686.324	-200.000	0.052	-0.239
-685.310	13.518	-0.221	0.172
-684.295	-66.947	-0.241	-0.096
-683.281	-34.271	0.040	0.022
-682.266	248.474	0.150	0.254
-681.251	-134.977	-0.184	-0.022
-680.237	-75.109	0.196	0.071
-679.222	57.415	-0.146	-0.143
-678.208	-95.051	-0.252	0.068
-677.193	496.565	-0.095	-0.220
-676.178	-142.878	-0.529	-0.052
-675.164	-18.673	0.059	0.037
-674.149	-119.821	0.177	-0.031
-673.135	800.000	0.042	-0.182
-672.120	-200.000	-0.015	-0.225
-671.105	-200.000	-0.017	0.308
-670.091	-200.000	0.012	-0.065
-669.076	-200.000	-0.038	0.384
-668.062	36.915	-0.052	-0.046
-667.047	132.949	0.034	0.044
-666.032	16.562	0.136	0.108
-665.018	122.255	-0.185	-0.232
-664.003	18.117	0.122	-0.097
-662.989	-28.710	0.338	0.195
-661.974	800.000	-0.156	-0.434
-660.959	800.000	0.031	-0.119
-659.945	105.529	-0.041	-0.049
-658.930	-200.000	0.004	-0.089
-657.916	-109.775	-0.152	0.032
-656.901	163.384	0.132	-0.186
-655.886	-24.779	0.109	-0.065
-654.872	-93.511	-0.179	-0.050
-653.857	-29.437	-0.152	-0.087
-652.843	-11.373	0.116	-0.077
-651.828	-41.133	-0.341	-0.177
-650.814	-66.737	0.124	0.049
-649.799	-116.527	0.440	0.081
-648.784	91.618	0.047	0.053
-647.770	-200.000	-0.035	-0.195
-646.755	5.988	0.015	-0.011
-645.741	5.832	-0.118	-0.087
-644.726	-200.000	0.007	-0.243
-643.711	44.409	0.166	-0.153
-642.697	-102.450	0.463	-0.111
-641.682	479.851	0.138	0.314
-640.668	155.035	-0.046	0.063
-639.653	75.750	-0.088	0.093
-638.638	-67.741	0.305	-0.119
-637.624	-200.000	0.012	-0.158
-636.609	800.000	-0.143	-0.401
-635.595	-143.339	-0.083	-0.008
-634.580	326.940	0.163	-0.314
-633.565	-89.785	-0.201	0.059
-632.551	319.868	-0.129	-0.246
-631.536	38.911	0.215	-0.193
-630.522	197.420	0.171	-0.262
-629.507	-40.205	-0.293	0.153
-628.492	-99.255	0.333	0.084
-627.478	-88.904	0.076	0.023
-626.463	-56.729	-0.076	0.034
-625.449	121.949	0.284	-0.355
-624.434	-96.294	-0.091	-0.024
-623.419	-114.355	0.143	0.027
-622.405	-40.039	-0.132	0.069
-621.390	-39.825	-0.374	-0.196
-620.376	-5.497	0.318	-0.218
-619.361	73.506	-0.308	0.323
-618.346	-144.635	-0.047	-0.004
-617.332	377.575	0.061	-0.125
-616.317	-152.503	-0.091	-0.007
-615.303	-200.000	0.026	0.178
-614.288	-104.902	0.380	0.087
-613.273	-93.949	-0.275	-0.076
-612.259	-127.890	-0.165	0.024
-611.244	-139.889	0.201	-0.021
-610.230	770.694	-0.085	-0.231
-609.215	414.374	-0.114	-0.243
-608.201	80.998	-0.136	-0.147
-607.186	800.000	-0.076	0.331
-606.171	135.962	-0.173	-0.226
-605.157	30.347	-0.149	-0.127
-604.142	35.340	0.135	-0.118
-603.128	733.698	-0.070	0.188
-602.113	88.822	-0.077	0.085
-601.098	749.768	0.150	0.404
-600.084	50.117	-0.149	-0.140
-599.069	-7.552	-0.189	0.128
-598.055	-200.000	0.055	-0.350
-597.040	-90.005	-0.186	-0.054
-596.025	102.206	-0.174	0.203
-595.011	-102.026	-0.134	-0.032
-593.996	-98.814	-0.236	-0.060
-592.982	373.482	-0.058	0.118
-591.967	800.000	-0.029	-0.108
-590.952	155.350	-0.056	-0.077
-589.938	-200.000	-0.017	0.219
-588.923	-200.000	0.025	-0.140
-587.909	142.637	0.216	-0.287
-586.894	-200.000	0.018	0.218
-585.879	23.665	-0.228	-0.188
-584.865	149.335	-0.045	-0.062
-583.850	337.460	0.118	-0.230
-582.836	467.161	-0.106	-0.238
-581.821	-200.000	0.011	0.087
-580.806	-53.170	-0.172	-0.079
-579.792	311.808	0.087	0.163
-578.777	-200.000	-0.039	-0.358
-577.763	140.040	0.271	0.357
-576.748	-143.420	0.114	0.011
-575.733	218.079	-0.216	0.344
-574.719	284.176	-0.124	-0.223
-573.704	-200.000	-0.036	0.214
-572.690	372.252	0.043	0.087
-571.675	-14.097	0.219	0.141
-570.661	800.000	0.035	0.144
-569.646	186.606	0.077	-0.115
-568.631	-27.051	0.154	0.090
-567.617	-200.000	0.044	-0.217
-566.602	-53.699	-0.322	-0.147
-565.588	-168.471	-0.109	0.004
-564.573	-125.432	-0.217	0.033
-563.558	-12.077	0.285	-0.187
-562.544	571.300	0.090	0.218
-561.529	185.050	0.356	-0.528
-560.515	50.359	-0.109	0.103
-559.500	-178.530	-0.282	0.007
-558.485	800.000	-0.090	-0.268
-557.471	-200.000	0.034	-0.425
-556.456	637.630	0.088	-0.223
-555.442	84.420	0.141	0.154
-554.427	181.155	0.140	0.205
-553.412	132.998	-0.194	0.251
-552.398	-51.100	-0.409	-0.191
-551.383	-186.983	-0.258	0.004
-550.369	344.668	0.120	0.236
-549.354	61.716	-0.087	-0.087
-548.339	-49.377	-0.128	0.061
-547.325	2.414	-0.155	-0.112
-546.310	-59.291	-0.178	-0.076
-545.296	-146.932	-0.178	-0.015
-544.281	800.000	-0.034	0.109
-543.266	-33.406	-0.180	-0.099
-542.252	800.000	0.028	-0.089
-541.237	-61.682	0.234	0.098
-540.223	130.263	0.131	-0.168
-539.208	800.000	0.087	-0.313
-538.193	259.543	-0.245	-0.422
-537.179	181.821	-0.253	0.371
-536.164	-200.000	-0.010	0.219
-535.150	53.997	-0.300	0.287
-534.135	248.677	0.147	0.248
-533.121	-71.959	-0.313	-0.116
-532.106	800.000	0.076	-0.325
-531.091	-165.563	0.373	-0.016
-530.077	-95.310	0.119	0.032
-529.062	-48.397	0.137	-0.066
-528.048	-97.245	-0.164	0.043
-527.033	22.714	-0.172	0.140
-526.018	133.367	0.234	-0.302
-525.004	-76.111	-0.545	-0.192
-523.989	188.723	-0.220	-0.329
-522.975	-200.000	0.037	0.274
-521.960	267.689	-0.088	-0.153
-520.945	538.493	-0.042	-0.100
-519.931	338.623	-0.019	0.036
-518.916	180.899	-0.086	-0.126
-517.902	31.166	0.074	0.063
-516.887	72.797	-0.128	-0.133
-515.872	445.633	0.064	0.141
-514.858	337.102	0.085	-0.164
-513.843	-33.686	0.370	0.204
-512.829	-88.873	0.184	-0.054
-511.814	800.000	-0.076	-0.313
-510.799	-62.630	0.162	0.067
-509.785	800.000	0.071	-0.207
-508.770	800.000	0.059	-0.205
-507.756	32.036	-0.074	-0.063
-506.741	-200.000	0.038	0.253
-505.726	800.000	0.044	0.168
-504.712	-77.910	0.284	0.098
-503.697	-104.477	0.261	-0.060
-502.683	-155.464	0.493	0.032
-501.668	-114.507	-0.188	-0.036
-500.653	-5.202	-0.232	0.159
-499.639	-78.955	-0.391	-0.133
-498.624	-83.609	0.288	-0.092
-497.610	115.536	0.266	-0.325
-496.595	-68.678	-0.085	0.033
-495.581	46.936	0.255	-0.236
-494.566	800.000	-0.049	0.160
-493.551	-4.892	-0.057	0.039
-492.537	-200.000	-0.032	0.287
-491.522	200.279	0.297	0.454
-490.508	590.605	-0.214	0.527
-489.493	-101.077	0.120	-0.029
-488.478	-110.321	-0.089	-0.018
-487.464	-15.208	0.227	-0.145
-486.449	-65.614	0.117	0.047
-485.435	-200.000	0.003	0.045
-484.420	52.223	0.127	0.120
-483.405	442.305	-0.035	0.076
-482.391	-122.509	-0.149	0.024
-481.376	21.178	0.142	0.115
-480.362	89.477	0.106	-0.118
-479.347	355.989	-0.016	-0.032
-478.332	-91.146	0.193	0.055
-477.318	-105.655	-0.093	-0.021
-476.303	-118.185	-0.200	0.035
-475.289	-200.000	-0.029	0.275
-474.274	-200.000	0.021	0.184
-473.259	587.538	-0.119	-0.293
-472.245	-16.808	-0.296	-0.187
-471.230	-200.000	0.007	0.332
-470.216	-200.000	0.004	-0.359
-469.201	-58.314	0.138	-0.060
-468.186	-113.984	-0.144	0.028
-467.172	800.000	0.056	0.155
-466.157	-200.000	-0.013	0.276
-465.143	-68.120	-0.338	-0.131
-464.128	489.083	-0.026	0.058
-463.113	800.000	-0.074	0.207
-462.099	-156.974	-0.295	0.018
-461.084	205.080	-0.157	-0.242
-460.070	70.569	-0.129	0.133
-459.055	110.593	-0.129	0.154
-458.040	620.500	-0.040	-0.101
-457.026	-2.955	-0.167	-0.116
-456.011	-165.898	0.299	-0.013
-454.997	404.084	-0.107	0.224
-453.982	62.619	-0.342	0.340
-452.968	-75.862	0.047	0.017
-451.953	-95.828	-0.462	0.123
-450.938	-20.462	0.245	-0.150
-449.924	-157.893	-0.179	0.011
-448.909	19.305	0.042	0.033
-447.895	-200.000	0.023	0.119
-446.880	511.390	0.161	0.372
-445.865	-135.358	-0.280	-0.033
-444.851	289.172	0.044	-0.079
-443.836	39.392	-0.242	-0.216
-442.822	18.983	0.135	-0.107
-441.807	-7.433	0.271	-0.182
-440.792	-108.828	0.271	-0.058
-439.778	231.572	-0.046	-0.074
-438.763	-25.363	-0.131	-0.077
-437.749	-22.876	-0.237	0.142
-436.734	494.400	0.079	0.181
-435.719	158.661	0.083	-0.114
-434.705	80.026	-0.118	0.126
-433.690	47.115	0.101	-0.093
-432.676	-200.000	-0.032	0.151
-431.661	800.000	-0.038	0.143
-430.646	-133.346	0.269	-0.034
-429.632	800.000	0.095	0.354
-428.617	367.624	-0.078	-0.157
-427.603	541.730	-0.173	-0.409
-426.588	-200.000	-0.003	0.028
-425.573	-200.000	-0.049	-0.336
-424.559	-61.829	0.111	-0.046
-423.544	-200.000	-0.027	-0.202
-422.530	125.099	0.115	-0.144
-421.515	31.301	0.079	0.067
-420.500	635.144	-0.176	-0.444
-419.486	-21.053	-0.256	0.156
-418.471	-180.269	-0.098	-0.002
-417.457	-200.000	-0.010	-0.122
-416.442	-84.911	0.260	0.081
-415.428	800.000	0.019	-0.071
-414.413	-74.112	-0.330	-0.119
-413.398	60.773	-0.063	0.062
-412.384	-155.650	-0.422	0.027
-411.369	-87.671	0.168	-0.050
-410.355	-26.756	-0.259	0.150
-409.340	22.571	0.107	0.087
-408.325	-44.899	-0.189	-0.093
-407.311	460.421	0.116	-0.256
-406.296	800.000	-0.091	0.304
-405.282	306.871	-0.073	0.135
-404.267	533.818	-0.109	-0.257
-403.252	-78.474	-0.231	-0.079
-402.238	11.929	-0.082	0.063
-401.223	-106.144	0.215	0.048
-400.209	9.264	-0.261	0.196
-399.194	-159.779	0.130	0.007
-398.179	-175.739	-0.135	0.004
-397.165	35.732	0.021	-0.018
-396.150	296.723	0.164	-0.299
-395.136	392.399	-0.015	0.030
-394.121	-67.162	-0.277	-0.108
-393.106	35.017	0.216	0.188
-392.092	343.650	-0.030	-0.058
-391.077	71.489	0.180	0.186
-390.063	-200.000	0.034	0.489
-389.048	-113.376	-0.172	-0.034
-388.033	307.541	0.192	-0.356
-387.019	206.346	0.081	0.125
-386.004	-4.435	0.132	-0.090
-384.990	112.383	0.132	-0.159
-383.975	113.557	-0.040	-0.048
-382.960	39.907	-0.097	-0.087
-381.946	-60.780	0.169	-0.071
-380.931	-73.404	-0.308	-0.112
-379.917	-200.000	0.008	-0.159
-378.902	-22.079	-0.211	0.127
-377.888	-200.000	0.076	0.544
-376.873	-173.319	-0.241	-0.007
-375.858	-200.000	-0.033	-0.184
-374.844	-85.713	-0.228	-0.070
-373.829	349.146	-0.072	0.140
-372.815	374.267	0.202	0.408
-371.800	268.958	-0.134	0.233
-370.785	-76.553	-0.118	0.041
-369.771	33.426	0.071	-0.061
-368.756	-200.000	-0.012	-0.397
-367.742	26.702	-0.044	-0.037
-366.727	800.000	-0.096	0.347
-365.712	232.494	0.159	-0.259
-364.698	-104.748	0.187	0.043
-363.683	265.828	-0.182	0.315
-362.669	-97.050	0.114	0.030
-361.654	-116.693	0.392	0.071
-360.639	290.367	-0.173	0.312
-359.625	-200.000	0.089	0.390
-358.610	748.736	0.051	0.136
-357.596	-123.623	0.143	-0.023
-356.581	-11.959	0.138	-0.090
-355.566	120.014	0.015	0.019
-354.552	-97.058	-0.377	0.098
-353.537	-200.000	-0.010	0.249
-352.523	-12.274	0.204	0.133
-351.508	800.000	-0.061	0.226
-350.493	169.406	0.073	-0.104
-349.479	142.653	-0.089	0.117
-348.464	223.064	-0.187	0.299
-347.450	133.449	-0.138	0.177
-346.435	276.392	0.104	0.183
-345.420	-114.871	0.190	0.036
-344.406	115.216	0.247	-0.299
-343.391	638.220	0.103	-0.260
-342.377	-40.768	0.279	0.143
-341.362	-45.083	0.074	0.036
-340.348	-43.715	0.256	0.128
-339.333	-118.131	0.395	0.070
-338.318	-98.727	-0.246	0.062
-337.304	28.507	-0.120	0.100
-336.289	362.650	-0.034	0.069
-335.275	-128.929	-0.404	0.056
-334.260	-107.460	-0.148	-0.032
-333.245	-57.612	-0.173	0.075
-332.231	-105.788	-0.196	0.044
-331.216	-200.000	-0.005	0.048
-330.202	-135.399	-0.314	0.037
-329.187	-200.000	0.028	-0.260
-328.172	-94.467	-0.423	0.114
-327.158	-40.413	0.143	0.073
-326.143	402.341	-0.072	0.150
-325.129	311.166	0.188	-0.349
-324.114	78.856	0.163	0.173
-323.099	-0.596	-0.179	0.126
-322.085	800.000	-0.148	-0.423
-321.070	-33.500	0.266	-0.146
-320.056	108.165	0.133	0.157
-319.041	800.000	-0.097	-0.336
-318.026	-72.489	0.187	-0.068
-317.012	-200.000	-0.013	-0.240
-315.997	-173.735	0.297	-0.009
-314.983	168.294	0.200	-0.282
-313.968	377.895	-0.154	-0.312
-312.953	-200.000	0.000	0.259
-311.939	42.637	0.314	0.283
-310.924	-200.000	0.233	-0.001
-309.910	-166.799	-0.535	-0.022
-308.895	-166.263	0.381	0.016
-307.880	183.892	0.127	0.187
-306.866	-200.000	-0.020	0.270
-305.851	-130.575	0.265	0.035
-304.837	249.565	-0.111	0.186
-303.822	-21.712	-0.087	0.053
-302.807	39.536	-0.212	0.188
-301.793	-78.972	0.250	-0.084
-300.778	175.511	-0.179	0.257
-299.764	-200.000	-0.044	0.356
-298.749	-120.635	-0.176	0.029
-297.735	-58.795	-0.030	-0.013
-296.720	-13.497	0.230	-0.147
-295.705	160.835	-0.181	-0.250
-294.691	-114.127	-0.199	-0.038
-293.676	-51.770	-0.313	0.144
-292.662	-2.178	-0.266	-0.184
-291.647	-3.875	-0.090	-0.062
-290.632	800.000	0.124	-0.376
-289.618	95.604	-0.069	0.078
-288.603	-200.000	-0.015	-0.205
-287.589	260.722	-0.043	-0.073
-286.574	-200.000	0.053	0.462
-285.559	275.381	0.055	-0.096
-284.545	800.000	-0.167	-0.483
-283.530	800.000	-0.020	-0.075
-282.516	-200.000	-0.027	0.340
-281.501	387.414	0.136	0.278
-280.486	-85.754	-0.138	0.042
-279.472	491.702	0.052	-0.118
-278.457	176.449	0.134	-0.193
-277.443	-121.125	0.174	0.029
-276.428	-183.371	-0.201	0.003
-275.413	-64.168	-0.405	0.163
-274.399	-80.576	0.172	-0.057
-273.384	-107.529	0.154	0.033
-272.370	800.000	-0.063	0.199
-271.355	369.669	0.187	-0.374
-270.340	-162.378	0.418	0.021
-269.326	800.000	0.106	-0.313
-268.311	19.149	0.106	-0.084
-267.297	144.838	-0.105	-0.139
-266.282	-200.000	0.010	0.130
-265.267	28.304	0.097	0.081
-264.253	-93.675	0.138	-0.038
-263.238	263.072	0.050	0.086
-262.224	-120.363	0.141	-0.024
-261.209	-200.000	0.016	-0.090
-260.195	778.587	-0.058	0.157
-259.180	41.017	0.060	0.053
-258.165	227.955	-0.284	0.456
-257.151	-143.318	0.165	0.016
-256.136	-95.121	0.293	-0.078
-255.122	1.901	-0.201	0.143
-254.107	-127.566	-0.193	0.028
-253.092	276.766	0.176	0.308
-252.078	74.782	0.192	0.199
-251.063	-70.107	0.362	0.136
-250.049	-200.000	0.293	0.001
-249.034	-170.575	0.342	0.012
-248.019	-108.696	0.168	0.036
-247.005	-66.854	0.040	-0.016
-245.990	-14.431	-0.113	0.072
-244.976	178.956	0.066	-0.096
-243.961	-119.482	0.289	0.049
-242.946	464.258	0.082	0.180
-241.932	-200.000	0.008	0.255
-240.917	-145.381	0.155	-0.014
-239.903	-56.047	0.019	0.008
-238.888	39.247	-0.106	-0.093
-237.873	800.000	0.126	0.400
-236.859	-55.843	0.146	-0.064
-235.844	-134.446	-0.140	-0.017
-234.830	105.851	-0.072	0.085
-233.815	-59.378	0.188	-0.080
-232.800	192.148	0.062	0.092
-231.786	-17.200	-0.031	0.019
-230.771	-200.000	0.002	0.010
-229.757	-200.000	0.055	0.289
-228.742	-200.000	-0.004	0.057
-227.727	597.321	0.095	0.233
-226.713	-132.010	0.210	0.027
-225.698	623.422	-0.018	0.045
-224.684	-200.000	0.020	-0.368
-223.669	800.000	-0.074	-0.250
-222.655	18.976	-0.115	-0.091
-221.640	-200.000	0.008	-0.086
-220.625	-147.896	-0.229	0.019
-219.611	-200.000	0.007	-0.203
-218.596	-157.913	-0.354	0.021
-217.582	-115.616	-0.173	0.032
-216.567	-99.641	0.269	0.067
-215.552	-200.000	0.014	-0.214
-214.538	-146.044	-0.239	0.021
-213.523	-0.181	0.176	0.124
-212.509	60.694	0.165	0.162
-211.494	-200.000	-0.013	0.097
-210.479	-200.000	0.031	-0.313
-209.465	-200.000	-0.021	-0.422
-208.450	800.000	-0.162	-0.532
-207.436	42.348	0.078	0.069
-206.421	-96.354	0.197	-0.051
-205.406	268.562	-0.176	-0.304
-204.392	-200.000	0.023	-0.171
-203.377	130.407	0.147	0.186
-202.363	233.668	0.054	0.087
-201.348	193.347	0.104	-0.155
-200.333	28.988	0.356	0.297
-199.319	-110.780	-0.122	0.025
-198.304	490.975	-0.122	0.276
-197.290	124.298	-0.156	0.193
-196.275	59.862	-0.192	-0.187
-195.260	39.843	0.168	-0.149
-194.246	-200.000	0.007	0.035
-193.231	-76.041	-0.046	-0.016
-192.217	-200.000	0.052	-0.441
-191.202	800.000	0.085	-0.240
-190.187	65.541	-0.118	0.118
-189.173	-57.973	-0.136	-0.058
-188.158	-43.389	0.124	0.062
-187.144	-48.198	-0.068	0.032
-186.129	63.679	0.142	-0.141
-185.114	-98.379	-0.255	-0.064
-184.100	142.768	0.009	-0.012
-183.085	441.888	0.072	-0.155
-182.071	-200.000	-0.006	-0.129
-181.056	-97.076	-0.210	0.054
-180.042	-60.502	0.066	0.028
-179.027	-147.964	0.176	0.014
-178.012	-120.855	0.149	0.025
-176.998	36.332	0.177	-0.154
-175.983	-200.000	-0.013	0.386
-174.969	47.652	0.073	-0.067
-173.954	235.984	0.092	-0.150
-172.939	160.790	-0.134	0.184
-171.925	800.000	-0.095	0.339
-170.910	-11.337	0.239	-0.155
-169.896	577.555	-0.062	0.150
-168.881	214.672	-0.095	-0.148
-167.866	4.282	0.232	-0.167
-166.852	11.387	-0.218	-0.164
-165.837	-132.992	0.080	0.010
-164.823	-125.775	-0.122	-0.018
-163.808	156.545	0.030	0.041
-162.793	-112.202	0.133	-0.026
-161.779	-200.000	0.045	0.216
-160.764	-75.862	0.165	-0.057
-159.750	-134.764	0.289	-0.035
-158.735	-53.208	0.369	0.167
-157.720	800.000	-0.020	-0.068
-156.706	800.000	-0.104	0.437
-155.691	-200.000	-0.024	0.275
-154.677	-32.093	-0.159	-0.087
-153.662	-200.000	-0.020	-0.115
-152.647	100.084	0.149	0.170
-151.633	800.000	-0.028	0.098
-150.618	-21.912	0.049	-0.029
-149.604	206.855	0.213	0.326
-148.589	29.102	-0.141	0.118
-147.574	800.000	0.055	0.218
-146.560	-200.000	-0.008	0.190
-145.545	-200.000	-0.008	0.394
-144.531	82.412	-0.154	-0.164
-143.516	-20.824	-0.236	0.142
-142.502	-40.199	-0.071	0.036
-141.487	766.027	0.092	-0.247
-140.472	675.768	-0.137	0.351
-139.458	-1.714	-0.189	-0.131
-138.443	-123.266	0.365	-0.057
-137.429	-15.625	-0.131	0.082
-136.414	-99.986	-0.196	0.048
-135.399	-200.000	-0.007	-0.229
-134.385	132.591	0.008	0.010
-133.370	-79.144	0.071	-0.024
-132.356	-142.824	-0.166	-0.016
-131.341	-200.000	-0.011	-0.125
-130.326	47.266	0.342	-0.313
-129.312	295.367	0.106	0.190
-128.297	643.838	-0.156	0.391
-127.283	300.697	0.068	0.123
-126.268	132.676	-0.078	-0.099
-125.253	564.966	0.100	0.237
-124.239	-158.353	-0.158	-0.009
-123.224	222.908	-0.159	0.251
-122.210	193.736	-0.082	-0.121
