DTS Sentinel unit serial number:	SN413079Multiplexer serial number:	ORYXHardware model number:	OX4-SRSoftware version number:	ORYX F/W v4.00 Oryx Data Collector v3.7.2.0data status	okinstallation	princeton_trtdifferential loss correction	single-endedforward channel	channel 1reverse channel	N/Adate	2019/09/10time	23:08:11forward acquisition time	60.00reverse acquisition time	0.00gamma	496.2192k internal	0.2332k external	0.2332temperature offset calibration	0.9940default loss term (dB/km)	0.3790temperature slope calibration	1.0000multiplexer offset coefficient	1.0000multiplexer slope coefficient	1.0000fibre end	0.00T internal ref (°C)	29.94T ext. ref 1 (°C)	-0.31T ext. ref 2 (°C)	23.33length (m)	temperature (°C)	Stokes	anti-Stokes-747.200	149.532	-0.078	0.106
-746.185	-12.436	-0.267	-0.176
-745.171	-150.563	-0.364	0.028
-744.156	0.125	0.348	0.250
-743.142	800.000	0.128	-0.529
-742.127	273.415	0.071	-0.127
-741.112	255.390	0.133	0.230
-740.098	-119.653	-0.407	-0.071
-739.083	800.000	0.027	0.107
-738.069	-29.160	0.131	-0.076
-737.054	117.326	0.244	0.301
-736.039	744.402	-0.126	-0.340
-735.025	150.443	-0.269	0.368
-734.010	-200.000	0.007	-0.446
-732.996	-172.073	-0.351	0.011
-731.981	-79.352	-0.197	0.067
-730.966	581.868	-0.054	0.134
-729.952	-200.000	-0.070	0.353
-728.937	-24.770	-0.053	0.032
-727.923	259.047	0.251	-0.435
-726.908	-69.412	-0.311	-0.120
-725.894	-12.897	-0.175	-0.114
-724.879	76.866	0.055	-0.059
-723.864	56.942	0.185	-0.181
-722.850	571.714	0.026	0.065
-721.835	-89.199	-0.242	-0.072
-720.821	-17.995	-0.291	0.184
-719.806	165.844	-0.075	-0.107
-718.791	-153.557	0.155	-0.011
-717.777	220.954	-0.167	-0.269
-716.762	800.000	0.098	-0.397
-715.748	701.058	0.012	-0.032
-714.733	51.338	0.210	0.200
-713.718	-84.341	-0.157	0.050
-712.704	-116.785	-0.140	-0.026
-711.689	79.029	-0.364	0.392
-710.675	93.400	-0.189	0.214
-709.660	7.163	-0.091	-0.068
-708.645	37.318	-0.297	-0.265
-707.631	30.233	0.155	-0.133
-706.616	-67.745	0.156	0.061
-705.602	-74.866	-0.173	0.062
-704.587	160.082	0.132	0.184
-703.572	302.606	-0.047	0.087
-702.558	304.847	-0.052	-0.097
-701.543	800.000	0.077	-0.225
-700.529	-27.220	0.298	-0.174
-699.514	3.748	0.194	0.142
-698.499	-200.000	0.020	0.258
-697.485	-122.938	0.164	-0.027
-696.470	219.516	-0.379	0.609
-695.456	168.719	-0.103	0.148
-694.441	-102.470	-0.295	0.071
-693.426	-200.000	-0.008	-0.205
-692.412	-86.150	-0.270	-0.084
-691.397	132.750	0.110	-0.143
-690.383	800.000	0.114	0.459
-689.368	-69.834	-0.329	0.126
-688.354	800.000	-0.086	-0.375
-687.339	532.229	-0.138	-0.327
-686.324	355.995	-0.071	0.141
-685.310	-143.692	0.162	0.015
-684.295	553.481	-0.136	-0.327
-683.281	-74.725	-0.074	-0.027
-682.266	142.766	-0.159	0.213
-681.251	362.917	-0.041	-0.083
-680.237	500.176	-0.066	-0.153
-679.222	408.541	-0.062	-0.131
-678.208	-200.000	0.052	0.278
-677.193	11.770	-0.002	-0.002
-676.178	-42.198	0.265	0.136
-675.164	15.399	-0.049	0.039
-674.149	-200.000	-0.087	-0.461
-673.135	235.394	0.181	-0.300
-672.120	-200.000	-0.028	-0.185
-671.105	27.183	0.198	0.167
-670.091	-53.197	0.165	-0.076
-669.076	193.433	0.081	-0.123
-668.062	115.853	-0.112	-0.138
-667.047	-62.809	0.060	0.025
-666.032	-15.540	-0.257	-0.164
-665.018	138.281	0.128	0.169
-664.003	82.280	-0.287	-0.312
-662.989	128.410	0.103	-0.132
-661.974	3.031	0.114	0.083
-660.959	-158.980	-0.198	-0.011
-659.945	314.951	0.038	-0.073
-658.930	-200.000	0.053	0.575
-657.916	-119.352	0.312	0.054
-656.901	-200.000	-0.106	-0.533
-655.886	-151.814	-0.027	-0.002
-654.872	507.616	0.204	-0.475
-653.857	-75.165	0.245	-0.088
-652.843	-200.000	0.004	0.173
-651.828	-109.840	-0.449	0.095
-650.814	-200.000	-0.022	0.117
-649.799	-15.651	-0.325	0.208
-648.784	800.000	0.036	0.104
-647.770	340.890	-0.063	-0.123
-646.755	-50.043	0.095	0.045
-645.741	800.000	-0.122	-0.384
-644.726	142.311	0.119	0.159
-643.711	-14.955	-0.146	0.094
-642.697	-200.000	-0.027	-0.358
-641.682	-48.171	-0.322	0.156
-640.668	800.000	-0.047	-0.162
-639.653	67.635	-0.126	0.129
-638.638	-121.537	-0.273	-0.045
-637.624	-200.000	-0.000	-0.095
-636.609	299.669	-0.122	-0.226
-635.595	395.128	0.053	0.111
-634.580	-25.770	0.219	0.129
-633.565	-123.583	-0.125	0.020
-632.551	71.629	-0.172	-0.179
-631.536	114.648	0.178	-0.218
-630.522	800.000	0.056	0.240
-629.507	-34.084	0.137	-0.075
-628.492	213.201	-0.066	-0.104
-627.478	-200.000	0.035	0.259
-626.463	-200.000	-0.022	0.309
-625.449	245.275	0.057	-0.096
-624.434	-200.000	0.026	0.155
-623.419	-121.697	0.209	0.035
-622.405	-200.000	0.062	0.276
-621.390	353.950	0.132	0.262
-620.376	-200.000	0.009	0.136
-619.361	-50.556	-0.192	0.091
-618.346	-30.696	0.477	-0.270
-617.332	-163.261	-0.145	0.007
-616.317	-60.661	0.191	0.081
-615.303	-195.248	0.322	-0.002
-614.288	13.642	-0.242	-0.188
-613.273	-103.076	-0.267	0.063
-612.259	-200.000	0.017	-0.145
-611.244	-142.746	-0.122	-0.012
-610.230	-55.320	-0.132	-0.059
-609.215	188.673	-0.187	-0.281
-608.201	1.100	-0.147	-0.106
-607.186	36.459	-0.167	0.148
-606.171	86.734	0.246	0.272
-605.157	-128.960	0.279	-0.039
-604.142	-200.000	0.033	-0.379
-603.128	273.308	-0.110	-0.194
-602.113	-164.285	0.262	0.012
-601.098	28.206	0.394	0.333
-600.084	507.172	0.058	0.134
-599.069	-59.589	-0.246	0.106
-598.055	800.000	-0.053	0.153
-597.040	-71.364	-0.118	0.044
-596.025	163.282	-0.134	-0.188
-595.011	280.113	-0.067	-0.120
-593.996	76.721	0.359	0.381
-592.982	-39.461	-0.272	-0.143
-591.967	-56.775	-0.340	-0.150
-590.952	287.580	0.141	0.254
-589.938	-80.084	-0.200	-0.067
-588.923	-67.597	-0.206	-0.081
-587.909	-200.000	-0.010	0.134
-586.894	-88.995	0.220	-0.065
-585.879	441.069	-0.077	0.168
-584.865	800.000	0.148	-0.553
-583.850	685.679	0.036	0.094
-582.836	-33.022	0.190	-0.106
-581.821	-6.388	-0.174	-0.118
-580.806	-200.000	0.018	0.091
-579.792	21.197	-0.239	-0.194
-578.777	-22.552	-0.251	-0.152
-577.763	-16.367	-0.201	-0.127
-576.748	-131.324	0.210	-0.028
-575.733	717.009	-0.061	-0.162
-574.719	372.699	0.055	-0.112
-573.704	-16.355	0.102	0.065
-572.690	-54.543	0.186	-0.084
-571.675	31.902	-0.097	-0.083
-570.661	-200.000	-0.030	0.272
-569.646	-200.000	-0.038	0.211
-568.631	26.293	0.204	-0.171
-567.617	137.074	-0.071	-0.093
-566.602	-131.535	0.282	0.037
-565.588	-141.931	-0.366	0.037
-564.573	-97.606	0.030	0.008
-563.558	-81.406	0.268	0.088
-562.544	22.480	0.113	0.093
-561.529	-91.201	0.271	-0.078
-560.515	-200.000	0.075	0.520
-559.500	16.941	-0.114	0.090
-558.485	-200.000	0.021	0.308
-557.471	-200.000	0.002	0.414
-556.456	-135.465	0.285	0.034
-555.442	5.935	-0.083	-0.061
-554.427	267.390	-0.036	0.063
-553.412	101.256	-0.175	0.203
-552.398	750.817	-0.106	0.287
-551.383	-33.452	0.044	0.024
-550.369	-41.010	0.125	0.065
-549.354	-91.700	-0.260	0.074
-548.339	57.552	0.172	-0.167
-547.325	-70.033	0.190	-0.072
-546.310	21.253	-0.104	0.085
-545.296	-21.018	-0.178	-0.109
-544.281	-172.988	0.066	0.002
-543.266	-175.593	0.501	0.014
-542.252	232.843	-0.099	-0.162
-541.237	17.107	-0.089	0.070
-540.223	-10.972	-0.086	-0.057
-539.208	-200.000	0.054	-0.380
-538.193	-49.006	-0.192	0.092
-537.179	544.899	-0.032	0.076
-536.164	800.000	0.042	0.120
-535.150	9.474	0.247	0.187
-534.135	-28.890	0.081	-0.047
-533.121	175.451	0.059	-0.086
-532.106	-16.149	0.273	0.173
-531.091	-144.572	-0.111	-0.010
-530.077	757.844	-0.037	0.100
-529.062	-85.811	-0.301	0.093
-528.048	-200.000	-0.004	-0.063
-527.033	-59.483	0.250	0.107
-526.018	-200.000	-0.031	0.205
-525.004	-200.000	0.012	-0.227
-523.989	-4.540	0.270	-0.186
-522.975	800.000	-0.054	0.155
-521.960	260.029	-0.096	0.166
-520.945	39.311	-0.187	0.167
-519.931	-21.294	-0.181	0.110
-518.916	649.318	0.137	-0.350
-517.902	-125.357	0.207	0.031
-516.887	-200.000	0.011	0.063
-515.872	249.855	0.213	0.360
-514.858	800.000	0.060	-0.224
-513.843	-200.000	-0.003	0.105
-512.829	-85.590	0.109	-0.034
-511.814	-200.000	-0.031	0.158
-510.799	-83.216	-0.146	-0.047
-509.785	-136.169	-0.594	-0.069
-508.770	7.555	-0.148	0.110
-507.756	-46.384	0.143	-0.070
-506.741	207.127	-0.157	0.244
-505.726	-73.737	0.082	0.030
-504.712	-35.396	0.053	0.029
-503.697	-200.000	-0.006	-0.451
-502.683	660.796	-0.067	0.171
-501.668	265.024	-0.122	0.212
-500.653	491.690	0.123	-0.282
-499.639	79.257	-0.127	0.135
-498.624	-134.453	-0.335	0.041
-497.610	-116.075	0.185	0.034
-496.595	193.233	-0.098	0.148
-495.581	17.227	0.006	-0.005
-494.566	-144.813	-0.145	0.013
-493.551	29.645	0.129	0.109
-492.537	-70.327	0.080	0.030
-491.522	-43.357	0.144	-0.073
-490.508	-199.611	-0.288	-0.001
-489.493	-200.000	-0.009	0.122
-488.478	-127.107	0.097	-0.014
-487.464	-45.019	0.157	0.078
-486.449	-59.690	-0.151	0.064
-485.435	333.647	-0.113	-0.218
-484.420	614.065	-0.078	0.194
-483.405	-82.943	0.499	-0.160
-482.391	-200.000	-0.046	0.390
-481.376	555.880	-0.115	0.276
-480.362	800.000	0.021	-0.062
-479.347	-4.339	-0.237	0.163
-478.332	694.731	-0.095	0.248
-477.318	-146.928	0.210	0.018
-476.303	649.372	-0.061	0.156
-475.289	-72.875	-0.284	0.104
-474.274	-200.000	-0.003	-0.157
-473.259	-11.801	-0.063	0.041
-472.245	-8.617	0.022	0.015
-471.230	-95.897	0.323	-0.086
-470.216	71.689	-0.238	-0.246
-469.201	174.411	0.104	-0.150
-468.186	-133.226	0.436	-0.055
-467.172	800.000	0.002	-0.006
-466.157	435.838	-0.046	0.100
-465.143	800.000	-0.042	0.181
-464.128	-200.000	-0.012	0.070
-463.113	800.000	-0.020	0.084
-462.099	-159.679	0.213	-0.012
-461.084	-200.000	-0.010	-0.250
-460.070	215.250	0.227	-0.359
-459.055	-103.537	-0.222	0.052
-458.040	344.273	0.167	-0.327
-457.026	-92.587	-0.173	0.048
-456.011	30.391	-0.078	0.066
-454.997	-59.031	-0.293	-0.126
-453.982	165.519	-0.056	0.078
-452.968	277.360	0.182	0.322
-451.953	96.323	0.185	-0.211
-450.938	48.920	0.182	-0.170
-449.924	-200.000	-0.017	0.191
-448.909	-200.000	-0.038	-0.328
-447.895	11.264	0.035	0.027
-446.880	-56.724	0.124	-0.054
-445.865	-200.000	-0.078	-0.565
-444.851	-6.109	-0.253	-0.172
-443.836	-200.000	-0.013	-0.356
-442.822	-174.698	0.188	0.005
-441.807	-63.985	-0.202	0.082
-440.792	16.857	0.090	-0.071
-439.778	-65.562	0.244	0.097
-438.763	-29.200	-0.395	0.225
-437.749	-75.547	0.376	0.133
-436.734	161.564	-0.195	-0.271
-435.719	-77.034	-0.117	-0.041
-434.705	-69.557	0.215	0.082
-433.690	-200.000	-0.061	0.449
-432.676	-200.000	-0.034	-0.159
-431.661	800.000	-0.014	-0.058
-430.646	246.527	-0.226	-0.379
-429.632	-169.239	0.255	0.009
-428.617	-3.107	-0.175	0.121
-427.603	800.000	0.104	-0.318
-426.588	-93.142	-0.273	-0.075
-425.573	48.890	0.205	0.192
-424.559	-119.852	-0.395	0.068
-423.544	-59.394	-0.156	0.067
-422.530	109.302	0.296	-0.352
-421.515	-200.000	0.015	0.083
-420.500	708.411	-0.093	0.244
-419.486	121.616	-0.150	0.185
-418.471	193.128	-0.198	0.298
-417.457	800.000	-0.041	-0.154
-416.442	19.987	0.139	0.111
-415.428	600.863	-0.071	0.175
-414.413	-189.310	0.219	-0.003
-413.398	8.215	0.256	0.191
-412.384	49.237	-0.046	-0.043
-411.369	635.214	-0.075	0.190
-410.355	526.631	-0.160	0.374
-409.340	58.806	0.286	-0.279
-408.325	297.729	-0.144	0.263
-407.311	800.000	0.076	-0.257
-406.296	281.989	-0.156	-0.277
-405.282	-149.067	-0.106	-0.008
-404.267	-120.343	0.074	-0.013
-403.252	58.259	0.174	-0.169
-402.238	79.968	0.153	-0.163
-401.223	353.528	-0.174	0.343
-400.209	-180.025	-0.326	-0.007
-399.194	-200.000	0.062	-0.335
-398.179	2.076	0.026	0.019
-397.165	-200.000	-0.038	0.259
-396.150	-119.710	0.132	0.023
-395.136	127.123	0.128	-0.162
-394.121	-154.346	-0.094	-0.006
-393.106	80.893	-0.061	-0.066
-392.092	-60.384	-0.201	0.085
-391.077	-62.164	0.125	-0.052
-390.063	-115.449	0.337	0.063
-389.048	260.129	-0.169	-0.291
-388.033	-88.995	-0.157	-0.046
-387.019	-30.536	0.373	-0.210
-386.004	99.627	0.217	-0.249
-384.990	-98.029	-0.301	0.077
-383.975	46.931	0.247	-0.228
-382.960	602.649	0.152	-0.374
-381.946	32.604	0.115	-0.099
-380.931	257.410	0.081	0.138
-379.917	-200.000	0.147	0.731
-378.902	-200.000	0.008	-0.335
-377.888	-52.893	0.341	0.156
-376.873	20.910	0.090	-0.072
-375.858	166.383	0.091	-0.127
-374.844	-32.107	-0.141	0.078
-373.829	-55.125	-0.130	-0.058
-372.815	138.018	0.158	-0.205
-371.800	800.000	-0.026	-0.073
-370.785	262.557	0.168	0.289
-369.771	-21.827	0.097	0.059
-368.756	-19.968	0.190	0.116
-367.742	800.000	0.041	-0.171
-366.727	-53.242	-0.232	0.105
-365.712	-200.000	0.044	-0.258
-364.698	800.000	0.017	-0.072
-363.683	800.000	0.037	-0.129
-362.669	800.000	0.061	0.244
-361.654	115.554	-0.257	-0.311
-360.639	-6.873	0.133	0.089
-359.625	122.816	-0.123	0.153
-358.610	229.097	0.144	0.233
-357.596	-200.000	-0.002	0.068
-356.581	-136.828	-0.235	0.027
-355.566	-200.000	0.003	-0.438
-354.552	-200.000	0.034	-0.198
-353.537	800.000	-0.045	-0.167
-352.523	306.224	-0.026	0.048
-351.508	60.129	0.204	-0.199
-350.493	800.000	-0.031	0.134
-349.479	439.476	0.135	0.293
-348.464	-200.000	-0.026	-0.275
-347.450	-59.717	-0.015	-0.006
-346.435	-200.000	-0.093	-0.403
-345.420	546.328	-0.105	-0.249
-344.406	320.529	0.041	0.076
-343.391	-200.000	-0.071	0.339
-342.377	-60.382	0.196	0.083
-341.362	-200.000	-0.016	-0.151
-340.348	45.258	-0.157	0.144
-339.333	800.000	-0.046	0.142
-338.318	800.000	-0.073	-0.229
-337.304	-158.795	0.250	-0.014
-336.289	800.000	-0.016	0.046
-335.275	-200.000	-0.003	-0.173
-334.260	113.545	0.101	0.122
-333.245	-87.336	0.094	-0.028
-332.231	7.314	-0.122	-0.090
-331.216	-97.595	-0.322	-0.083
-330.202	79.832	-0.167	0.177
-329.187	3.200	0.308	-0.222
-328.172	-187.057	-0.405	0.006
-327.158	292.479	-0.160	0.288
-326.143	5.217	0.073	0.053
-325.129	-156.630	0.204	-0.013
-324.114	800.000	-0.031	-0.110
-323.099	133.596	-0.250	-0.320
-322.085	-20.751	0.107	0.065
-321.070	37.518	0.147	-0.129
-320.056	21.705	-0.043	0.034
-319.041	80.506	-0.225	-0.240
-318.026	8.663	0.091	0.067
-317.012	-200.000	0.007	-0.173
-315.997	39.952	0.079	0.070
-314.983	79.546	-0.011	-0.012
-313.968	-50.749	-0.352	-0.164
-312.953	-66.926	0.078	0.031
-311.939	147.430	-0.163	0.218
-310.924	-200.000	-0.048	0.314
-309.910	323.568	-0.161	0.304
-308.895	-200.000	-0.001	0.032
-307.880	405.457	0.118	-0.247
-306.866	-152.844	-0.232	-0.016
-305.851	-200.000	-0.059	-0.294
-304.837	-56.447	-0.154	-0.068
-303.822	-88.439	-0.325	-0.096
-302.807	444.657	0.130	0.282
-301.793	-28.186	0.130	0.074
-300.778	-200.000	-0.061	-0.292
-299.764	800.000	-0.036	0.141
-298.749	111.701	0.084	-0.100
-297.735	-154.138	0.437	-0.029
-296.720	-63.224	0.237	-0.096
-295.705	800.000	-0.072	-0.257
-294.691	-68.248	0.242	-0.093
-293.676	-44.981	0.210	0.104
-292.662	151.130	-0.071	0.096
-291.647	27.477	-0.237	0.197
-290.632	83.351	0.271	-0.292
-289.618	407.932	0.047	-0.098
-288.603	-49.016	-0.300	0.142
-287.589	82.067	-0.103	0.110
-286.574	206.566	0.076	0.118
-285.559	-172.216	0.089	0.003
-284.545	-112.100	-0.223	-0.044
-283.530	-87.709	-0.125	-0.037
-282.516	-17.217	0.125	0.078
-281.501	95.640	-0.142	-0.161
-280.486	26.499	-0.176	0.146
-279.472	-150.381	-0.088	0.007
-278.457	-64.070	-0.198	-0.080
-277.443	-200.000	-0.009	0.223
-276.428	-99.908	0.217	0.054
-275.413	-82.341	0.121	-0.039
-274.399	-67.232	-0.167	-0.065
-273.384	233.559	0.059	0.096
-272.370	461.766	-0.213	-0.469
-271.355	-200.000	-0.013	0.239
-270.340	-200.000	-0.020	0.146
-269.326	-48.166	0.314	0.150
-268.311	-93.192	0.295	0.081
-267.297	303.365	0.171	-0.314
-266.282	-134.094	0.293	-0.036
-265.267	-126.151	0.026	0.004
-264.253	37.758	0.146	-0.128
-263.238	68.227	-0.121	-0.123
-262.224	139.689	-0.156	0.203
-261.209	262.811	0.143	-0.245
-260.195	23.278	-0.123	0.100
-259.180	-133.618	-0.150	-0.019
-258.165	-112.882	0.081	-0.016
-257.151	645.310	0.062	-0.157
-256.136	-200.000	-0.020	0.189
-255.122	-49.393	-0.270	-0.127
-254.107	-84.699	-0.025	0.008
-253.092	345.965	-0.073	0.142
-252.078	756.543	0.070	-0.187
-251.063	324.236	0.101	-0.190
-250.049	-161.088	-0.310	0.016
-249.034	-21.217	0.154	0.093
-248.019	-48.477	0.085	-0.041
-247.005	-62.240	-0.294	-0.121
-245.990	-85.844	0.039	-0.012
-244.976	-60.846	-0.058	-0.024
-243.961	-152.827	0.124	-0.009
-242.946	119.344	0.082	-0.101
-241.932	-149.343	-0.135	-0.011
-240.917	-200.000	-0.005	0.196
-239.903	635.627	0.073	-0.184
-238.888	-117.548	0.517	-0.092
-237.873	800.000	-0.083	0.242
-236.859	-14.712	-0.110	0.070
-235.844	-61.093	-0.256	-0.106
-234.830	800.000	-0.066	-0.259
-233.815	-200.000	-0.031	-0.248
-232.800	-65.331	0.236	0.094
-231.786	-71.272	-0.359	-0.133
-230.771	87.901	-0.080	0.088
-229.757	-11.831	0.348	0.225
-228.742	72.750	-0.352	0.363
-227.727	-200.000	0.027	0.179
-226.713	65.678	0.141	0.141
-225.698	693.006	0.130	-0.337
-224.684	68.086	-0.084	-0.085
-223.669	99.190	0.085	-0.097
-222.655	-200.000	0.028	0.341
-221.640	-81.269	-0.207	0.067
-220.625	242.623	-0.129	0.213
-219.611	-9.175	-0.087	0.057
-218.596	-123.887	0.097	0.015
-217.582	266.458	-0.078	-0.134
-216.567	-200.000	0.002	-0.010
-215.552	185.854	0.211	0.309
-214.538	800.000	0.058	0.207
-213.523	-17.836	-0.144	-0.089
-212.509	-26.957	0.319	0.184
-211.494	411.928	-0.094	0.196
-210.479	134.527	0.135	-0.172
-209.465	-112.402	0.149	0.029
-208.450	-30.255	0.046	0.026
-207.436	-158.245	-0.295	-0.017
-206.421	-93.154	-0.294	0.081
-205.406	-65.727	-0.208	0.082
-204.392	178.468	0.191	-0.275
-203.377	-200.000	0.000	0.153
-202.363	23.125	-0.144	-0.117
-201.348	-193.635	0.164	-0.001
-200.333	289.987	0.178	0.317
-199.319	-164.434	0.144	0.006
-198.304	-87.550	-0.218	0.065
-197.290	-198.113	0.341	-0.002
-196.275	-38.746	0.124	-0.064
-195.260	153.190	0.182	0.245
-194.246	-125.451	0.205	-0.031
-193.231	-56.929	-0.148	-0.064
-192.217	600.562	0.119	-0.291
-191.202	39.111	0.134	0.118
-190.187	-200.000	-0.035	-0.192
-189.173	-141.586	0.113	-0.011
-188.158	8.773	-0.307	-0.228
-187.144	-200.000	-0.019	0.302
-186.129	-102.126	0.221	-0.052
-185.114	-90.562	0.290	-0.083
-184.100	-200.000	-0.005	-0.194
-183.085	-58.524	-0.173	-0.074
-182.071	-177.987	0.171	-0.004
-181.056	800.000	0.038	-0.132
-180.042	-42.612	0.131	0.066
-179.027	-45.742	-0.356	-0.173
-178.012	-177.582	-0.179	-0.004
-176.998	-200.000	-0.003	-0.179
-175.983	-200.000	0.029	-0.262
-174.969	-65.108	0.296	0.117
-173.954	96.445	0.088	0.099
-172.939	92.612	0.271	-0.301
-171.925	-71.577	0.147	0.054
-170.910	-200.000	-0.034	-0.150
-169.896	-111.560	-0.062	-0.012
-168.881	-200.000	0.047	0.211
-167.866	-77.305	-0.167	0.057
-166.852	360.856	0.118	-0.233
-165.837	800.000	-0.074	0.261
-164.823	800.000	0.057	0.184
-163.808	-200.000	0.041	0.205
-162.793	-52.881	-0.188	0.085
-161.779	130.193	0.105	0.133
-160.764	-134.937	-0.278	-0.033
-159.750	-49.894	-0.418	-0.195
-158.735	-200.000	-0.042	0.273
-157.720	-96.766	0.159	-0.041
-156.706	-200.000	-0.020	-0.177
-155.691	-56.412	-0.182	-0.080
-154.677	445.555	0.068	0.146
-153.662	-0.676	-0.272	0.190
-152.647	-37.507	-0.221	0.116
-151.633	-87.568	0.180	-0.053
-150.618	129.685	-0.127	-0.160
-149.604	-200.000	-0.028	-0.180
-148.589	336.818	-0.070	-0.134
-147.574	-30.234	0.207	0.116
-146.560	-200.000	-0.027	-0.203
-145.545	-200.000	0.005	0.261
-144.531	1.871	0.065	0.046
-143.516	-200.000	-0.014	0.287
-142.502	150.193	-0.129	0.172
-141.487	146.151	0.017	-0.023
-140.472	-152.318	-0.322	0.023
-139.458	800.000	-0.017	0.055
-138.443	-150.488	-0.217	-0.016
-137.429	43.787	0.175	0.157
-136.414	-136.646	0.184	-0.021
-135.399	800.000	-0.111	-0.359
-134.385	18.872	-0.128	-0.101
-133.370	20.567	-0.260	-0.207
-132.356	-130.311	-0.150	-0.020
-131.341	800.000	-0.050	0.187
-130.326	51.104	-0.190	-0.177
-129.312	-57.965	-0.265	0.114
-128.297	308.906	0.105	0.193
-127.283	-111.708	0.150	0.030
-126.268	137.446	-0.126	-0.162
-125.253	46.674	0.100	-0.091
-124.239	-65.586	0.174	0.069
-123.224	-28.754	0.167	-0.094
-122.210	-24.552	-0.041	0.024
-121.195	-156.538	-0.080	0.005
