DTS Sentinel unit serial number:	SN413079Multiplexer serial number:	ORYXHardware model number:	OX4-SRSoftware version number:	ORYX F/W v4.00 Oryx Data Collector v3.7.2.0data status	okinstallation	princeton_trtdifferential loss correction	single-endedforward channel	channel 1reverse channel	N/Adate	2019/09/11time	06:44:11forward acquisition time	60.00reverse acquisition time	0.00gamma	496.2192k internal	0.2330k external	0.2330temperature offset calibration	0.9918default loss term (dB/km)	0.3790temperature slope calibration	1.0000multiplexer offset coefficient	1.0000multiplexer slope coefficient	1.0000fibre end	0.00T internal ref (°C)	29.81T ext. ref 1 (°C)	-0.16T ext. ref 2 (°C)	24.80length (m)	temperature (°C)	Stokes	anti-Stokes-747.200	76.105	0.257	0.274
-746.185	-200.000	0.002	-0.129
-745.171	-200.000	0.036	-0.217
-744.156	-200.000	-0.047	0.322
-743.142	192.950	0.078	0.118
-742.127	800.000	-0.054	0.200
-741.112	284.109	-0.226	0.409
-740.098	-200.000	0.004	-0.020
-739.083	-174.525	0.199	-0.006
-738.069	800.000	-0.078	0.317
-737.054	-15.493	-0.173	-0.111
-736.039	-110.407	-0.183	0.038
-735.025	-71.603	0.359	0.135
-734.010	325.848	-0.116	-0.223
-732.996	-43.184	-0.361	-0.184
-731.981	183.678	0.036	-0.054
-730.966	13.727	0.260	0.204
-729.952	193.597	-0.144	-0.219
-728.937	-200.000	-0.037	-0.475
-727.923	239.972	0.075	-0.126
-726.908	800.000	0.039	-0.126
-725.894	-107.693	-0.294	0.065
-724.879	91.663	-0.250	0.283
-723.864	-46.819	0.276	0.136
-722.850	-54.189	-0.116	-0.053
-721.835	800.000	0.058	-0.222
-720.821	120.589	0.162	-0.202
-719.806	27.204	-0.224	0.189
-718.791	88.657	-0.248	0.277
-717.777	800.000	-0.062	-0.214
-716.762	-200.000	0.011	0.162
-715.748	-200.000	-0.017	-0.120
-714.733	9.894	0.053	-0.041
-713.718	273.122	-0.043	-0.076
-712.704	33.552	-0.114	-0.099
-711.689	-77.608	0.279	-0.097
-710.675	240.302	-0.260	0.437
-709.660	0.357	-0.111	0.080
-708.645	412.775	0.090	0.192
-707.631	800.000	-0.044	-0.151
-706.616	800.000	-0.042	0.121
-705.602	-200.000	-0.016	0.243
-704.587	-40.352	0.270	-0.141
-703.572	200.582	0.082	0.126
-702.558	-29.613	0.255	-0.146
-701.543	91.854	-0.126	0.142
-700.529	-114.555	-0.191	0.037
-699.514	-83.624	0.043	0.014
-698.499	214.107	0.066	-0.106
-697.485	-66.926	-0.133	-0.053
-696.470	4.318	0.171	-0.126
-695.456	217.253	0.104	-0.167
-694.441	-71.936	0.336	-0.126
-693.426	-35.405	0.209	0.114
-692.412	168.792	-0.056	-0.081
-691.397	55.427	-0.214	0.208
-690.383	-7.445	0.056	-0.038
-689.368	21.934	0.083	0.068
-688.354	-183.546	-0.269	0.005
-687.339	33.852	0.142	0.124
-686.324	-200.000	0.011	-0.076
-685.310	-77.509	0.015	0.005
-684.295	-200.000	0.011	0.071
-683.281	-25.654	0.068	-0.040
-682.266	-154.160	0.154	0.010
-681.251	-61.607	-0.229	-0.096
-680.237	-81.250	0.156	0.052
-679.222	-175.154	-0.126	0.004
-678.208	-3.499	-0.078	0.055
-677.193	-21.459	0.149	0.092
-676.178	232.236	-0.086	-0.142
-675.164	618.339	-0.088	0.222
-674.149	800.000	0.090	0.262
-673.135	-27.275	-0.207	-0.121
-672.120	34.004	-0.136	0.119
-671.105	394.038	-0.120	-0.250
-670.091	-44.675	-0.309	0.155
-669.076	289.829	0.086	-0.156
-668.062	-76.404	-0.564	-0.199
-667.047	-200.000	0.000	-0.079
-666.032	64.888	-0.091	0.092
-665.018	372.955	-0.039	0.080
-664.003	97.374	0.208	-0.240
-662.989	-84.641	0.285	-0.090
-661.974	-200.000	-0.001	-0.078
-660.959	112.594	0.037	0.045
-659.945	154.791	0.043	-0.059
-658.930	-200.000	0.005	-0.228
-657.916	108.307	-0.065	-0.078
-656.901	323.392	-0.176	0.337
-655.886	-94.893	0.235	-0.064
-654.872	-200.000	-0.086	-0.397
-653.857	245.155	0.137	0.231
-652.843	193.928	0.134	0.203
-651.828	800.000	-0.114	0.428
-650.814	-200.000	0.011	0.137
-649.799	-129.372	0.135	-0.019
-648.784	-200.000	-0.012	0.139
-647.770	-141.190	0.211	-0.022
-646.755	58.492	-0.201	-0.197
-645.741	19.666	-0.081	-0.065
-644.726	-18.635	0.136	-0.085
-643.711	-22.872	0.173	-0.105
-642.697	203.984	-0.021	-0.033
-641.682	-200.000	0.038	0.177
-640.668	172.224	0.214	0.309
-639.653	65.599	-0.274	-0.278
-638.638	292.626	-0.122	0.223
-637.624	-163.915	-0.106	0.005
-636.609	113.243	-0.169	-0.205
-635.595	-128.504	0.521	0.074
-634.580	116.510	0.274	-0.337
-633.565	-55.309	-0.217	0.098
-632.551	-93.966	0.131	-0.036
-631.536	3.787	-0.266	-0.195
-630.522	359.826	0.182	0.365
-629.507	-163.314	0.357	0.017
-628.492	199.618	0.107	-0.165
-627.478	-63.320	-0.273	0.113
-626.463	-19.062	-0.265	0.165
-625.449	-15.453	0.044	-0.028
-624.434	-158.408	0.072	-0.004
-623.419	46.144	0.226	-0.209
-622.405	-74.278	-0.514	-0.186
-621.390	-42.828	0.097	0.049
-620.376	-200.000	0.027	0.224
-619.361	-128.289	0.196	-0.028
-618.346	-77.870	0.109	-0.038
-617.332	800.000	0.011	0.043
-616.317	-124.281	0.151	0.024
-615.303	70.037	0.091	-0.095
-614.288	-105.102	0.060	0.014
-613.273	-102.392	0.192	0.046
-612.259	748.512	0.115	-0.309
-611.244	-93.655	-0.180	-0.050
-610.230	-100.967	-0.110	-0.027
-609.215	-68.042	0.153	0.060
-608.201	-106.370	0.134	0.030
-607.186	206.366	-0.063	0.098
-606.171	47.536	-0.283	-0.264
-605.157	800.000	-0.071	0.266
-604.142	-132.871	-0.217	0.028
-603.128	-40.489	0.102	-0.053
-602.113	457.903	-0.344	-0.766
-601.098	800.000	0.170	-0.718
-600.084	146.076	0.097	0.130
-599.069	-200.000	-0.013	0.113
-598.055	-152.346	-0.211	-0.015
-597.040	55.932	-0.194	0.188
-596.025	-143.893	-0.261	0.025
-595.011	271.512	0.254	-0.447
-593.996	618.266	-0.266	0.669
-592.982	241.432	-0.138	-0.231
-591.967	-200.000	-0.010	-0.235
-590.952	17.280	-0.011	0.009
-589.938	-117.625	0.134	0.024
-588.923	-104.778	0.222	0.051
-587.909	465.535	-0.059	-0.132
-586.894	-144.564	0.296	0.027
-585.879	290.061	-0.215	0.390
-584.865	-47.816	-0.092	-0.045
-583.850	-200.000	0.034	0.213
-582.836	-200.000	-0.012	0.086
-581.821	-24.510	0.342	0.204
-580.806	-64.396	-0.107	-0.043
-579.792	-8.879	0.212	-0.142
-578.777	63.138	-0.144	0.144
-577.763	55.163	-0.116	0.112
-576.748	800.000	0.044	0.178
-575.733	739.929	0.053	0.142
-574.719	-72.736	0.314	-0.116
-573.704	348.688	-0.081	-0.160
-572.690	-200.000	-0.011	0.051
-571.675	-200.000	0.332	0.001
-570.661	-56.292	-0.210	-0.093
-569.646	-45.048	-0.148	-0.074
-568.631	-74.549	-0.105	0.038
-567.617	800.000	-0.088	-0.262
-566.602	800.000	-0.089	-0.336
-565.588	243.853	0.145	0.243
-564.573	800.000	0.067	0.204
-563.558	-200.000	-0.023	-0.115
-562.544	-25.830	-0.180	-0.106
-561.529	81.417	-0.322	-0.348
-560.515	-89.808	-0.236	0.069
-559.500	-57.193	0.384	-0.169
-558.485	-126.995	-0.049	-0.007
-557.471	-170.305	0.200	-0.007
-556.456	-200.000	0.041	-0.215
-555.442	-179.032	0.128	-0.003
-554.427	41.839	0.167	0.151
-553.412	-157.911	0.046	-0.003
-552.398	-111.800	-0.172	0.035
-551.383	-88.826	0.222	0.066
-550.369	-200.000	-0.017	-0.158
-549.354	-200.000	0.007	0.107
-548.339	-123.102	0.070	-0.011
-547.325	96.141	0.144	0.165
-546.310	-11.005	-0.099	-0.065
-545.296	-200.000	0.075	-0.466
-544.281	248.830	0.063	0.107
-543.266	800.000	-0.086	0.311
-542.252	69.984	-0.123	-0.127
-541.237	-200.000	0.015	-0.250
-540.223	626.427	-0.064	-0.163
-539.208	800.000	-0.108	0.317
-538.193	53.669	0.379	0.364
-537.179	-85.872	0.260	-0.081
-536.164	-200.000	0.006	-0.071
-535.150	-65.061	0.179	-0.072
-534.135	-32.105	-0.311	-0.174
-533.121	-200.000	-0.011	-0.230
-532.106	-63.492	-0.033	0.013
-531.091	-200.000	-0.003	-0.180
-530.077	753.105	-0.087	-0.234
-529.062	105.004	-0.141	0.166
-528.048	-200.000	-0.051	0.343
-527.033	-19.118	0.097	-0.060
-526.018	-183.332	0.099	-0.002
-525.004	0.118	0.185	-0.132
-523.989	-65.410	0.150	-0.060
-522.975	-200.000	0.031	-0.164
-521.960	-81.397	-0.067	0.022
-520.945	444.833	0.076	-0.166
-519.931	-25.944	-0.088	0.052
-518.916	77.283	-0.060	-0.064
-517.902	396.184	-0.128	-0.268
-516.887	-200.000	-0.019	-0.128
-515.872	-200.000	-0.036	0.232
-514.858	-22.453	0.243	-0.147
-513.843	-200.000	0.002	-0.041
-512.829	146.622	0.096	0.129
-511.814	37.509	0.056	0.050
-510.799	18.945	0.219	-0.175
-509.785	228.788	-0.154	0.251
-508.770	-139.465	0.247	-0.026
-507.756	521.765	-0.059	0.137
-506.741	-30.985	-0.161	0.091
-505.726	-200.000	-0.059	0.335
-504.712	259.084	-0.098	-0.169
-503.697	364.512	0.100	0.202
-502.683	144.276	-0.205	-0.273
-501.668	254.204	0.112	-0.192
-500.653	-177.214	-0.340	0.008
-499.639	195.040	0.079	-0.119
-498.624	-16.200	0.267	0.169
-497.610	-200.000	0.012	-0.243
-496.595	442.589	-0.058	-0.127
-495.581	-200.000	-0.041	-0.270
-494.566	138.517	-0.010	0.013
-493.551	478.673	0.040	-0.090
-492.537	-68.455	-0.259	0.100
-491.522	-54.052	0.165	0.075
-490.508	-200.000	-0.016	-0.215
-489.493	78.373	0.183	-0.195
-488.478	-147.631	-0.164	0.014
-487.464	-38.438	-0.150	-0.079
-486.449	51.032	-0.218	0.206
-485.435	-106.795	0.092	-0.020
-484.420	10.803	0.104	0.079
-483.405	-99.230	-0.295	-0.074
-482.391	-76.835	0.192	-0.067
-481.376	485.222	-0.090	-0.204
-480.362	-18.888	-0.147	-0.091
-479.347	-161.131	0.399	-0.021
-478.332	-101.098	-0.043	0.010
-477.318	-155.767	-0.197	0.013
-476.303	190.508	0.047	-0.070
-475.289	-92.900	-0.253	-0.070
-474.274	495.597	-0.222	0.507
-473.259	16.225	0.122	0.096
-472.245	118.346	-0.132	0.162
-471.230	-121.356	0.439	-0.073
-470.216	-115.552	-0.093	-0.017
-469.201	-200.000	0.011	0.107
-468.186	70.151	-0.257	0.264
-467.172	184.148	0.050	-0.073
-466.157	368.028	0.086	-0.173
-465.143	-128.914	0.294	-0.041
-464.128	55.278	-0.064	0.061
-463.113	77.487	0.143	0.152
-462.099	-31.677	0.238	0.133
-461.084	21.324	-0.212	-0.171
-460.070	214.938	0.042	-0.066
-459.055	-200.000	-0.051	0.428
-458.040	-138.880	-0.359	0.039
-457.026	-58.940	-0.232	-0.100
-456.011	-35.822	-0.129	0.069
-454.997	-52.040	0.192	0.089
-453.982	-85.745	0.286	0.088
-452.968	348.140	0.183	0.358
-451.953	-180.626	-0.002	0.000
-450.938	-125.634	-0.272	0.041
-449.924	-128.670	-0.169	0.024
-448.909	-94.346	-0.300	-0.081
-447.895	165.344	-0.103	-0.145
-446.880	13.997	0.244	-0.189
-445.865	73.902	-0.089	0.093
-444.851	16.954	0.253	-0.199
-443.836	800.000	-0.052	-0.191
-442.822	425.806	0.068	-0.146
-441.807	2.434	-0.292	-0.210
-440.792	60.530	-0.077	-0.076
-439.778	800.000	0.059	-0.166
-438.763	-200.000	-0.071	0.402
-437.749	319.286	0.096	0.181
-436.734	-7.637	-0.122	-0.082
-435.719	-200.000	-0.005	0.105
-434.705	55.761	0.333	0.321
-433.690	-10.241	0.106	0.070
-432.676	-200.000	0.179	0.000
-431.661	-74.841	-0.137	-0.049
-430.646	-39.267	0.219	-0.114
-429.632	26.836	0.116	0.096
-428.617	-5.903	-0.391	0.266
-427.603	-49.460	0.088	-0.042
-426.588	-200.000	-0.016	0.152
-425.573	90.837	0.198	0.221
-424.559	232.008	0.323	0.527
-423.544	-82.970	0.130	0.042
-422.530	51.045	-0.175	-0.165
-421.515	-149.456	0.525	0.041
-420.500	-128.604	-0.385	0.054
-419.486	-41.697	0.129	-0.066
-418.471	-14.887	-0.074	0.047
-417.457	14.138	-0.174	0.135
-416.442	-33.643	0.131	-0.072
-415.428	-46.223	0.317	-0.155
-414.413	-60.479	-0.335	-0.141
-413.398	590.391	-0.032	0.080
-412.384	-107.614	0.446	0.097
-411.369	-3.275	0.188	-0.130
-410.355	-7.229	-0.283	0.190
-409.340	-86.593	-0.339	0.103
-408.325	800.000	-0.065	0.235
-407.311	558.416	-0.071	-0.170
-406.296	590.271	0.130	-0.319
-405.282	240.746	-0.003	-0.005
-404.267	-182.102	0.170	0.003
-403.252	-22.318	0.046	-0.028
-402.238	-5.092	0.109	0.075
-401.223	-200.000	-0.026	0.291
-400.209	626.838	-0.078	-0.195
-399.194	-200.000	-0.006	-0.248
-398.179	-15.177	-0.343	-0.218
-397.165	164.149	-0.155	-0.216
-396.150	565.063	0.075	0.180
-395.136	-104.829	-0.214	0.049
-394.121	-200.000	-0.041	-0.313
-393.106	-102.815	0.116	0.027
-392.092	-85.061	0.326	0.101
-391.077	-108.723	-0.205	-0.044
-390.063	800.000	-0.023	-0.097
-389.048	299.782	0.147	0.269
-388.033	219.146	-0.294	0.467
-387.019	-139.121	-0.224	0.024
-386.004	606.736	-0.047	-0.116
-384.990	103.489	0.066	0.077
-383.975	-200.000	-0.013	0.371
-382.960	17.859	-0.184	0.146
-381.946	-200.000	-0.009	-0.066
-380.931	490.916	-0.093	-0.211
-379.917	-106.361	-0.396	-0.088
-378.902	-6.829	0.212	0.143
-377.888	-200.000	-0.048	-0.271
-376.873	-200.000	-0.020	0.144
-375.858	101.791	-0.224	-0.259
-374.844	-101.090	0.199	0.048
-373.829	-200.000	-0.006	0.566
-372.815	86.243	-0.177	-0.193
-371.800	6.774	0.152	-0.112
-370.785	-200.000	-0.004	0.171
-369.771	-200.000	-0.030	0.331
-368.756	37.079	-0.123	0.108
-367.742	-14.704	0.385	0.246
-366.727	465.895	-0.036	0.080
-365.712	-63.300	-0.134	0.055
-364.698	20.618	0.226	-0.181
-363.683	-15.438	-0.044	0.028
-362.669	-186.417	-0.431	-0.006
-361.654	-120.830	-0.356	0.059
-360.639	-145.809	-0.230	0.020
-359.625	61.916	-0.163	0.161
-358.610	800.000	0.023	-0.069
-357.596	-40.990	0.406	0.208
-356.581	-176.628	-0.191	0.005
-355.566	17.157	-0.347	-0.273
-354.552	-200.000	-0.004	0.047
-353.537	-180.487	-0.133	0.003
-352.523	-47.806	0.141	0.068
-351.508	-71.810	0.233	0.086
-350.493	-87.038	0.179	-0.054
-349.479	-66.486	-0.111	0.044
-348.464	59.899	-0.127	0.124
-347.450	-143.196	-0.264	0.025
-346.435	331.739	-0.189	-0.362
-345.420	-200.000	0.051	-0.452
-344.406	407.982	0.226	-0.474
-343.391	-200.000	0.052	0.326
-342.377	109.716	-0.302	0.359
-341.362	-102.558	-0.219	-0.052
-340.348	182.225	-0.250	-0.364
-339.333	525.169	0.160	0.373
-338.318	-151.611	-0.153	0.011
-337.304	63.389	0.229	0.228
-336.289	-27.423	-0.149	-0.086
-335.275	107.050	-0.112	0.132
-334.260	800.000	-0.113	0.396
-333.245	422.498	0.062	-0.132
-332.231	100.540	-0.194	0.224
-331.216	45.049	0.045	0.041
-330.202	45.365	0.244	-0.223
-329.187	98.223	-0.057	0.065
-328.172	-141.728	0.632	-0.063
-327.158	800.000	0.102	0.336
-326.143	-129.921	0.141	0.019
-325.129	-200.000	0.012	-0.148
-324.114	-104.376	0.115	0.026
-323.099	-200.000	-0.009	0.242
-322.085	91.681	0.159	-0.177
-321.070	-75.932	0.321	0.112
-320.056	-38.606	-0.200	-0.105
-319.041	229.513	0.251	-0.406
-318.026	204.001	-0.121	0.186
-317.012	163.754	0.164	-0.229
-315.997	181.316	0.118	-0.171
-314.983	-200.000	0.006	-0.158
-313.968	-57.676	0.162	-0.070
-312.953	-57.754	-0.288	0.125
-311.939	-5.533	0.237	0.161
-310.924	-127.903	-0.268	0.038
-309.910	270.069	-0.102	0.177
-308.895	-200.000	-0.069	-0.516
-307.880	36.993	0.319	-0.279
-306.866	-200.000	-0.012	0.185
-305.851	-13.148	0.250	-0.161
-304.837	-33.189	0.170	-0.093
-303.822	95.451	-0.009	0.011
-302.807	-48.446	-0.211	-0.101
-301.793	-86.663	0.065	0.020
-300.778	130.878	0.215	0.272
-299.764	93.564	0.135	0.151
-298.749	-200.000	0.050	0.226
-297.735	-200.000	-0.036	0.230
-296.720	32.525	0.446	0.381
-295.705	-200.000	0.007	-0.173
-294.691	268.020	-0.174	-0.302
-293.676	301.624	0.164	-0.300
-292.662	800.000	-0.038	-0.126
-291.647	689.415	0.068	-0.177
-290.632	800.000	0.058	-0.220
-289.618	132.481	0.200	0.255
-288.603	214.384	0.081	0.127
-287.589	172.326	-0.095	-0.135
-286.574	-89.839	-0.244	0.070
-285.559	800.000	0.073	0.246
-284.545	71.566	-0.041	-0.042
-283.530	-32.165	-0.242	0.134
-282.516	-3.408	0.281	-0.194
-281.501	-27.705	0.198	0.114
-280.486	-6.491	-0.073	-0.049
-279.472	4.997	0.028	-0.021
-278.457	105.382	0.077	0.090
-277.443	-200.000	0.003	-0.066
-276.428	-114.239	-0.042	-0.008
-275.413	-42.667	0.166	0.083
-274.399	-2.100	0.313	0.217
-273.384	154.126	0.075	-0.101
-272.370	30.520	-0.241	-0.204
-271.355	31.635	0.043	0.037
-270.340	466.359	-0.115	0.255
-269.326	422.454	-0.134	0.283
-268.311	-181.907	-0.500	0.009
-267.297	494.814	-0.118	0.267
-266.282	2.535	-0.235	-0.168
-265.267	17.599	0.136	0.107
-264.253	-146.937	0.062	-0.005
-263.238	-108.003	-0.202	0.043
-262.224	43.753	0.319	0.289
-261.209	-130.048	-0.157	0.021
-260.195	800.000	-0.079	0.248
-259.180	800.000	0.074	0.275
-258.165	-45.483	0.178	0.087
-257.151	-164.077	0.150	-0.007
-256.136	-43.430	-0.158	-0.079
-255.122	-106.806	0.442	0.097
-254.107	-200.000	0.009	-0.299
-253.092	800.000	0.093	-0.317
-252.078	-137.806	0.107	-0.012
-251.063	-38.085	-0.056	-0.029
-250.049	-163.266	-0.178	-0.008
-249.034	127.659	-0.250	0.313
-248.019	-108.379	0.185	-0.039
-247.005	-161.173	-0.318	-0.016
-245.990	-141.110	-0.245	0.025
-244.976	354.849	-0.130	0.256
-243.961	110.337	-0.204	-0.242
-242.946	69.880	-0.058	0.059
-241.932	-200.000	-0.005	0.098
-240.917	-200.000	0.013	0.080
-239.903	128.189	-0.092	0.115
-238.888	197.157	0.061	0.092
-237.873	295.536	0.019	0.034
-236.859	93.402	0.042	0.047
-235.844	-200.000	-0.023	-0.142
-234.830	14.481	0.034	-0.026
-233.815	-160.685	0.149	-0.008
-232.800	-89.010	-0.375	0.110
-231.786	23.542	0.189	-0.153
-230.771	-80.166	0.254	0.084
-229.757	-200.000	-0.054	-0.405
-228.742	800.000	-0.024	0.087
-227.727	-66.234	-0.414	0.163
-226.713	72.293	0.405	0.416
-225.698	450.976	-0.114	-0.249
-224.684	-18.674	-0.129	-0.079
-223.669	-44.522	-0.100	-0.049
-222.655	329.324	0.105	-0.198
-221.640	-63.493	-0.310	-0.126
-220.625	-71.824	-0.148	-0.055
-219.611	120.383	-0.228	0.279
-218.596	500.483	-0.073	-0.167
-217.582	520.174	0.062	0.143
-216.567	-85.593	-0.094	-0.029
-215.552	-200.000	0.016	-0.176
-214.538	-116.727	0.320	-0.058
-213.523	41.455	0.180	0.161
-212.509	-25.558	-0.130	0.076
-211.494	-68.128	-0.353	-0.136
-210.479	-120.271	0.055	0.009
-209.465	-21.330	-0.016	0.009
-208.450	412.679	0.016	-0.034
-207.436	-183.992	0.167	-0.003
-206.421	-14.516	0.355	0.225
-205.406	29.014	-0.073	0.061
-204.392	800.000	-0.127	-0.381
-203.377	-10.456	-0.237	-0.155
-202.363	-200.000	0.048	0.279
-201.348	-200.000	0.053	-0.297
-200.333	-200.000	0.012	-0.365
-199.319	-0.559	-0.190	0.133
-198.304	-74.910	-0.105	0.037
-197.290	74.646	-0.243	0.252
-196.275	188.345	-0.050	-0.073
-195.260	573.532	0.188	-0.452
-194.246	-103.256	0.065	-0.015
-193.231	-200.000	0.006	0.110
-192.217	13.861	-0.055	0.042
-191.202	76.840	0.145	-0.152
-190.187	140.651	-0.163	-0.211
-189.173	793.056	-0.092	-0.249
-188.158	749.640	0.085	0.225
-187.144	-101.329	-0.103	0.025
-186.129	-200.000	0.045	0.273
-185.114	53.067	0.125	-0.118
-184.100	-37.585	-0.403	-0.211
-183.085	-132.223	-0.268	0.034
-182.071	668.536	0.029	0.074
-181.056	800.000	0.017	-0.054
-180.042	552.476	-0.045	-0.106
-179.027	255.002	-0.221	0.372
-178.012	-200.000	-0.025	0.176
-176.998	5.505	0.090	-0.066
-175.983	-146.601	-0.344	-0.029
-174.969	127.968	0.059	0.073
-173.954	-8.272	0.087	0.058
-172.939	-110.563	0.376	-0.077
-171.925	94.731	0.232	0.260
-170.910	4.630	0.185	0.133
-169.896	82.920	-0.157	-0.169
-168.881	6.022	0.141	-0.103
-167.866	-21.400	-0.061	0.037
-166.852	-200.000	-0.006	0.238
-165.837	-200.000	-0.059	-0.262
-164.823	10.484	0.201	0.151
-163.808	-200.000	-0.004	-0.137
-162.793	-64.068	-0.311	-0.125
-161.779	237.836	-0.105	0.171
-160.764	8.639	0.268	-0.199
-159.750	-46.982	-0.153	-0.073
-158.735	-87.665	0.320	-0.095
-157.720	800.000	0.023	-0.090
-156.706	-200.000	-0.003	0.029
-155.691	-153.238	0.232	0.016
-154.677	-52.613	0.223	0.101
-153.662	800.000	0.084	-0.315
-152.647	-174.388	0.196	0.006
-151.633	377.316	-0.024	0.049
-150.618	-200.000	-0.014	-0.205
-149.604	-200.000	0.037	0.189
-148.589	148.027	-0.166	-0.220
-147.574	-132.761	0.186	-0.023
-146.560	-118.576	-0.211	-0.037
-145.545	-41.286	-0.215	-0.109
-144.531	-183.117	-0.355	-0.006
-143.516	372.138	-0.126	0.252
-142.502	-53.049	0.300	-0.136
-141.487	800.000	-0.122	0.416
-140.472	-177.851	-0.036	-0.001
-139.458	-5.721	0.189	-0.128
-138.443	-200.000	-0.053	0.265
-137.429	-137.053	0.386	-0.043
-136.414	19.230	-0.026	-0.021
-135.399	121.328	0.019	0.023
-134.385	-52.197	0.273	0.124
-133.370	68.331	-0.167	0.168
-132.356	-35.300	0.219	-0.117
-131.341	-200.000	-0.008	0.159
-130.326	181.213	0.132	-0.191
-129.312	-0.116	0.069	0.048
-128.297	-200.000	-0.008	0.102
-127.283	-83.747	-0.211	-0.066
-126.268	38.294	-0.179	-0.157
-125.253	800.000	0.048	-0.142
-124.239	-88.970	-0.143	-0.042
-123.224	-200.000	-0.016	-0.233
-122.210	449.310	0.040	-0.087
-121.195	311.104	-0.062	0.114
