DTS Sentinel unit serial number:	SN413079Multiplexer serial number:	ORYXHardware model number:	OX4-SRSoftware version number:	ORYX F/W v4.00 Oryx Data Collector v3.7.2.0data status	okinstallation	princeton_trtdifferential loss correction	single-endedforward channel	channel 1reverse channel	N/Adate	2019/09/10time	15:32:11forward acquisition time	60.00reverse acquisition time	0.00gamma	496.2192k internal	0.2298k external	0.2298temperature offset calibration	0.9921default loss term (dB/km)	0.3790temperature slope calibration	1.0000multiplexer offset coefficient	1.0000multiplexer slope coefficient	1.0000fibre end	0.00T internal ref (°C)	37.92T ext. ref 1 (°C)	-0.29T ext. ref 2 (°C)	32.94length (m)	temperature (°C)	Stokes	anti-Stokes-747.200	-75.601	0.136	0.050
-746.185	-200.000	-0.091	0.460
-745.171	-3.421	-0.183	0.130
-744.156	800.000	-0.077	0.225
-743.142	-170.632	-0.133	0.005
-742.127	7.624	0.084	0.064
-741.112	800.000	-0.042	-0.144
-740.098	800.000	0.044	0.196
-739.083	-72.773	0.233	0.088
-738.069	380.438	0.154	0.322
-737.054	33.830	-0.243	-0.216
-736.039	800.000	0.079	0.248
-735.025	-28.688	0.032	0.019
-734.010	106.894	0.057	0.069
-732.996	47.944	0.187	0.178
-731.981	-147.040	-0.241	0.021
-730.966	34.814	-0.097	0.087
-729.952	-156.507	-0.479	0.030
-728.937	-88.215	-0.180	0.055
-727.923	-108.360	-0.268	0.059
-726.908	473.130	0.111	0.255
-725.894	-63.334	-0.026	0.011
-724.879	-10.657	-0.028	-0.019
-723.864	-14.021	-0.285	-0.188
-722.850	800.000	-0.063	-0.212
-721.835	-22.610	-0.544	-0.336
-720.821	-98.022	0.207	-0.054
-719.806	-83.761	-0.152	0.050
-718.791	72.409	-0.235	0.250
-717.777	-35.787	-0.167	-0.092
-716.762	-98.022	-0.091	0.024
-715.748	-98.331	0.472	-0.123
-714.733	-200.000	0.030	-0.182
-713.718	-92.044	0.079	-0.023
-712.704	-33.645	-0.220	-0.124
-711.689	301.906	-0.081	-0.152
-710.675	12.568	0.153	-0.120
-709.660	800.000	0.016	-0.057
-708.645	-125.935	-0.112	0.017
-707.631	-189.202	-0.210	-0.003
-706.616	747.319	0.131	0.360
-705.602	40.417	0.178	-0.163
-704.587	-27.142	0.322	0.191
-703.572	36.292	-0.019	-0.017
-702.558	400.495	-0.177	0.379
-701.543	-111.718	0.227	0.047
-700.529	-50.756	0.156	0.075
-699.514	-200.000	0.022	0.155
-698.499	-12.284	0.124	0.082
-697.485	-194.420	0.165	-0.001
-696.470	-200.000	0.018	-0.086
-695.456	-200.000	0.021	-0.146
-694.441	800.000	-0.057	0.222
-693.426	41.383	-0.115	0.106
-692.412	-200.000	-0.084	-0.390
-691.397	-33.251	-0.180	-0.102
-690.383	-200.000	-0.042	-0.215
-689.368	-67.371	0.190	-0.076
-688.354	-63.802	-0.073	0.031
-687.339	-55.968	-0.103	-0.047
-686.324	-122.203	0.231	-0.039
-685.310	106.432	0.109	-0.132
-684.295	800.000	0.053	0.217
-683.281	46.805	-0.115	0.108
-682.266	-200.000	0.013	0.150
-681.251	-170.330	-0.469	-0.017
-680.237	272.818	0.055	-0.099
-679.222	-74.334	-0.308	0.113
-678.208	-200.000	0.050	-0.428
-677.193	362.193	0.127	-0.259
-676.178	-163.118	-0.165	0.008
-675.164	-43.017	0.064	0.033
-674.149	800.000	-0.062	-0.270
-673.135	-65.255	0.196	-0.080
-672.120	-5.582	0.182	-0.127
-671.105	-102.697	0.275	0.067
-670.091	-71.410	0.168	-0.064
-669.076	348.002	0.083	0.167
-668.062	-172.503	-0.315	-0.010
-667.047	-124.030	-0.203	-0.033
-666.032	38.597	0.099	-0.090
-665.018	647.716	-0.088	0.228
-664.003	-200.000	0.020	0.095
-662.989	-200.000	0.042	0.319
-661.974	-55.307	-0.230	-0.105
-660.959	-32.035	0.204	0.116
-659.945	598.961	0.016	0.041
-658.930	-132.157	-0.131	-0.017
-657.916	243.043	-0.069	-0.118
-656.901	-39.413	0.169	0.090
-655.886	-200.000	0.033	-0.291
-654.872	39.150	-0.299	-0.272
-653.857	84.403	-0.111	-0.124
-652.843	53.659	0.300	-0.293
-651.828	135.075	0.070	-0.093
-650.814	-14.639	0.134	-0.088
-649.799	-57.948	0.209	0.093
-648.784	-25.636	-0.300	-0.180
-647.770	558.017	0.144	0.352
-646.755	-113.045	-0.274	-0.055
-645.741	-200.000	0.031	0.218
-644.726	-37.511	0.105	0.057
-643.711	123.536	-0.168	0.214
-642.697	-200.000	-0.030	0.154
-641.682	-89.620	-0.314	0.094
-640.668	800.000	0.152	-0.465
-639.653	5.715	-0.220	-0.166
-638.638	92.249	0.136	0.156
-637.624	-76.284	-0.078	-0.028
-636.609	146.980	-0.107	0.146
-635.595	800.000	0.057	0.190
-634.580	360.524	-0.160	-0.327
-633.565	8.934	0.148	0.114
-632.551	288.537	-0.099	-0.183
-631.536	123.884	-0.099	0.127
-630.522	800.000	-0.151	0.447
-629.507	5.915	0.183	0.137
-628.492	-200.000	0.023	-0.172
-627.478	-24.939	0.221	0.133
-626.463	350.943	0.137	-0.276
-625.449	-57.771	0.244	-0.109
-624.434	-141.081	0.121	0.013
-623.419	-75.416	0.234	0.085
-622.405	293.282	-0.044	-0.082
-621.390	-58.693	0.181	0.080
-620.376	-116.829	0.254	-0.047
-619.361	84.413	0.046	0.051
-618.346	800.000	-0.079	-0.254
-617.332	800.000	-0.088	0.357
-616.317	446.430	0.084	0.187
-615.303	-25.496	-0.356	-0.214
-614.288	-49.248	-0.128	0.062
-613.273	800.000	0.046	-0.131
-612.259	-7.513	0.238	-0.164
-611.244	276.886	0.051	0.092
-610.230	-200.000	0.023	0.320
-609.215	-38.978	0.062	0.033
-608.201	24.586	-0.143	-0.120
-607.186	-71.341	0.063	-0.024
-606.171	33.290	-0.044	-0.039
-605.157	-87.472	-0.358	0.110
-604.142	-200.000	0.140	0.000
-603.128	-143.899	-0.128	0.012
-602.113	577.255	0.019	0.046
-601.098	-200.000	0.008	-0.174
-600.084	-61.283	-0.101	0.043
-599.069	260.528	-0.137	0.240
-598.055	-143.758	0.184	-0.018
-597.040	-141.020	0.196	-0.020
-596.025	-180.538	-0.263	-0.006
-595.011	295.676	0.110	-0.205
-593.996	-94.613	-0.158	-0.044
-592.982	121.476	0.120	0.152
-591.967	800.000	-0.063	0.228
-590.952	-143.622	-0.202	-0.020
-589.938	800.000	-0.056	-0.162
-588.923	27.488	0.137	0.117
-587.909	-57.199	0.285	0.127
-586.894	263.238	-0.022	0.039
-585.879	547.086	-0.156	-0.378
-584.865	-163.932	-0.124	-0.006
-583.850	-95.486	0.442	-0.120
-582.836	-26.423	-0.056	0.033
-581.821	-49.384	-0.344	0.167
-580.806	593.549	-0.038	-0.096
-579.792	-90.413	0.648	0.191
-578.777	251.913	0.134	0.232
-577.763	-100.633	-0.117	0.029
-576.748	116.958	0.201	-0.251
-575.733	336.590	-0.163	-0.320
-574.719	800.000	-0.094	-0.273
-573.704	24.202	0.055	-0.046
-572.690	-110.567	-0.065	0.014
-571.675	39.630	-0.102	0.093
-570.661	228.083	-0.215	0.355
-569.646	267.293	0.210	0.373
-568.631	-67.246	-0.232	-0.092
-567.617	148.403	-0.235	0.321
-566.602	-108.941	-0.083	0.018
-565.588	-200.000	-0.113	-0.573
-564.573	196.806	0.204	-0.315
-563.558	-20.141	0.170	0.106
-562.544	-200.000	0.033	0.173
-561.529	-160.557	-0.247	-0.013
-560.515	47.994	0.078	0.074
-559.500	303.507	0.068	0.127
-558.485	9.481	0.188	0.144
-557.471	91.726	-0.191	0.217
-556.456	-200.000	0.043	0.202
-555.442	-69.281	0.203	0.079
-554.427	411.807	-0.141	0.303
-553.412	-44.413	0.052	0.027
-552.398	-37.645	0.058	0.031
-551.383	28.333	-0.152	-0.130
-550.369	-200.000	-0.011	-0.258
-549.354	-73.399	0.119	0.044
-548.339	-115.343	0.028	0.005
-547.325	800.000	-0.041	0.154
-546.310	79.906	0.116	0.127
-545.296	203.913	-0.101	0.159
-544.281	321.308	0.126	0.243
-543.266	-75.375	0.229	0.083
-542.252	-66.795	-0.385	-0.154
-541.237	132.250	-0.101	0.131
-540.223	118.936	0.092	0.115
-539.208	800.000	0.045	-0.149
-538.193	-117.080	-0.024	-0.005
-537.179	-200.000	0.013	-0.136
-536.164	43.309	-0.054	-0.050
-535.150	403.269	0.103	-0.220
-534.135	113.823	0.113	0.139
-533.121	71.541	0.081	0.085
-532.106	-200.000	-0.020	-0.129
-531.091	-57.686	-0.217	-0.096
-530.077	-200.000	-0.047	-0.335
-529.062	472.534	-0.035	0.080
-528.048	-200.000	0.030	-0.140
-527.033	800.000	0.028	-0.080
-526.018	-180.620	-0.160	-0.003
-525.004	98.982	-0.079	-0.092
-523.989	769.364	-0.061	-0.167
-522.975	25.911	-0.164	0.138
-521.960	316.461	-0.024	0.045
-520.945	-200.000	0.046	0.351
-519.931	139.468	-0.142	0.189
-518.916	-30.989	-0.202	0.116
-517.902	-200.000	-0.023	0.136
-516.887	670.997	0.110	-0.289
-515.872	165.324	-0.068	-0.098
-514.858	-200.000	-0.013	0.326
-513.843	102.944	0.053	-0.063
-512.829	-11.858	0.092	0.061
-511.814	-200.000	-0.034	-0.152
-510.799	549.737	0.168	-0.408
-509.785	297.578	0.138	-0.256
-508.770	-81.557	-0.223	0.074
-507.756	248.593	-0.091	-0.156
-506.741	-100.356	0.251	-0.063
-505.726	-40.068	-0.500	0.264
-504.712	178.006	-0.136	0.201
-503.697	-103.803	-0.071	0.017
-502.683	429.312	-0.049	0.107
-501.668	-152.229	0.145	0.011
-500.653	743.248	0.022	-0.059
-499.639	-75.712	-0.218	-0.078
-498.624	114.267	0.005	0.007
-497.610	407.066	0.074	-0.159
-496.595	-114.195	-0.106	-0.021
-495.581	800.000	-0.059	0.218
-494.566	-200.000	0.003	-0.196
-493.551	7.205	0.165	-0.124
-492.537	-75.207	0.295	-0.107
-491.522	131.031	-0.195	-0.253
-490.508	-39.923	-0.199	-0.105
-489.493	170.999	0.102	-0.147
-488.478	-109.739	-0.163	0.035
-487.464	-103.474	-0.293	0.070
-486.449	360.044	0.137	-0.276
-485.435	4.136	-0.276	-0.204
-484.420	-82.478	0.417	-0.137
-483.405	104.413	0.132	-0.157
-482.391	-81.964	-0.166	-0.055
-481.376	800.000	-0.030	-0.123
-480.362	-38.495	-0.445	0.238
-479.347	449.196	-0.025	0.055
-478.332	-65.751	-0.224	0.091
-477.318	511.666	-0.111	-0.260
-476.303	-90.424	0.106	0.031
-475.289	-168.170	-0.236	-0.009
-474.274	-24.109	0.349	-0.210
-473.259	-182.891	-0.265	-0.005
-472.245	800.000	-0.042	0.132
-471.230	58.439	0.060	0.059
-470.216	-200.000	0.045	0.213
-469.201	-200.000	0.037	-0.242
-468.186	-130.266	-0.403	-0.055
-467.172	35.980	0.177	0.157
-466.157	-61.886	-0.109	-0.046
-465.143	268.336	-0.184	0.325
-464.128	16.936	0.150	-0.120
-463.113	800.000	0.091	0.337
-462.099	164.006	0.198	0.281
-461.084	-59.755	-0.337	0.146
-460.070	-160.043	0.362	-0.020
-459.055	113.013	-0.122	-0.150
-458.040	29.069	0.273	-0.234
-457.026	-169.893	0.076	-0.003
-456.011	7.365	0.101	-0.076
-454.997	-79.205	0.363	0.124
-453.982	485.427	-0.065	0.150
-452.968	260.740	-0.082	-0.144
-451.953	99.959	-0.057	0.067
-450.938	36.732	0.216	-0.193
-449.924	-200.000	0.012	-0.126
-448.909	35.130	-0.227	0.201
-447.895	-94.034	-0.302	0.084
-446.880	332.782	0.076	-0.148
-445.865	-77.736	0.338	-0.118
-444.851	-63.029	-0.073	0.030
-443.836	110.548	0.074	0.090
-442.822	252.375	-0.180	-0.309
-441.807	-58.661	-0.288	0.126
-440.792	-99.936	0.097	0.024
-439.778	-115.016	0.183	0.035
-438.763	-153.184	0.043	0.003
-437.749	-95.221	-0.392	0.107
-436.734	-2.223	-0.173	0.122
-435.719	-200.000	0.015	-0.259
-434.705	283.049	0.133	0.241
-433.690	-156.797	0.359	-0.022
-432.676	374.456	0.045	0.092
-431.661	800.000	-0.053	-0.203
-430.646	-105.175	-0.357	-0.082
-429.632	663.201	-0.098	0.255
-428.617	-151.509	-0.211	-0.016
-427.603	-157.413	0.233	-0.014
-426.588	-51.918	-0.181	-0.085
-425.573	-98.061	-0.235	-0.061
-424.559	449.198	0.105	-0.234
-423.544	88.001	-0.232	0.259
-422.530	-172.288	-0.255	-0.008
-421.515	77.217	-0.281	0.301
-420.500	-64.276	0.375	0.154
-419.486	39.936	0.258	0.234
-418.471	236.443	0.236	-0.394
-417.457	-200.000	-0.077	0.384
-416.442	-200.000	-0.018	0.295
-415.428	800.000	-0.130	0.497
-414.413	49.477	0.157	0.149
-413.398	-152.057	-0.184	0.013
-412.384	-91.647	-0.212	0.061
-411.369	-127.726	0.157	-0.023
-410.355	154.860	-0.164	0.227
-409.340	91.047	-0.176	-0.199
-408.325	22.323	0.129	-0.106
-407.311	81.663	0.106	0.115
-406.296	-200.000	-0.016	0.112
-405.282	272.874	-0.059	-0.105
-404.267	-91.061	0.401	-0.116
-403.252	-67.226	-0.156	-0.062
-402.238	-190.490	0.008	0.000
-401.223	-46.685	-0.321	0.158
-400.209	800.000	0.085	-0.309
-399.194	21.124	-0.091	0.074
-398.179	-75.568	-0.376	-0.135
-397.165	-132.595	0.207	0.027
-396.150	-2.564	0.218	0.154
-395.136	326.692	-0.092	-0.177
-394.121	-145.138	0.113	-0.010
-393.106	-46.476	0.076	0.037
-392.092	542.717	-0.097	-0.234
-391.077	-96.535	-0.260	-0.069
-390.063	-142.827	-0.343	-0.034
-389.048	57.153	0.063	-0.061
-388.033	800.000	-0.020	-0.060
-387.019	-200.000	-0.027	0.268
-386.004	36.152	0.181	-0.160
-384.990	-199.921	-0.092	-0.000
-383.975	-83.924	0.131	0.042
-382.960	-44.987	-0.186	-0.093
-381.946	-8.445	-0.237	-0.160
-380.931	-200.000	0.008	0.065
-379.917	-200.000	-0.016	0.124
-378.902	-135.788	-0.156	-0.019
-377.888	-200.000	-0.007	0.118
-376.873	-112.522	-0.117	0.024
-375.858	-39.282	0.419	0.222
-374.844	-191.874	-0.243	-0.002
-373.829	314.808	-0.114	0.216
-372.815	-129.060	-0.236	-0.033
-371.800	-136.467	-0.495	-0.058
-370.785	-32.936	-0.310	-0.173
-369.771	-66.183	0.050	0.020
-368.756	-34.945	0.268	0.147
-367.742	-34.301	-0.122	0.067
-366.727	44.445	0.123	0.113
-365.712	-180.363	0.273	0.006
-364.698	759.383	-0.084	0.229
-363.683	123.405	-0.102	0.128
-362.669	-200.000	-0.029	-0.438
-361.654	-91.569	-0.127	-0.036
-360.639	25.601	-0.111	0.093
-359.625	611.182	0.146	-0.367
-358.610	800.000	-0.023	-0.101
-357.596	459.095	-0.049	-0.110
-356.581	-151.849	-0.109	0.008
-355.566	58.436	0.228	-0.225
-354.552	-200.000	0.057	-0.449
-353.537	271.182	0.164	-0.291
-352.523	-131.369	-0.009	0.001
-351.508	178.867	0.145	0.213
-350.493	251.642	-0.019	0.032
-349.479	182.915	-0.090	-0.134
-348.464	-159.881	-0.156	0.009
-347.450	45.971	-0.158	0.147
-346.435	-200.000	0.017	-0.086
-345.420	-200.000	-0.045	-0.221
-344.406	-200.000	0.043	0.258
-343.391	140.416	0.047	-0.062
-342.377	119.228	-0.035	-0.043
-341.362	-5.174	0.141	-0.098
-340.348	168.180	0.065	0.093
-339.333	742.349	0.097	0.261
-338.318	20.016	0.121	-0.098
-337.304	-3.578	0.130	0.091
-336.289	187.545	0.215	-0.323
-335.275	286.732	0.126	-0.228
-334.260	-200.000	-0.004	-0.043
-333.245	-200.000	0.065	-0.344
-332.231	262.055	0.152	0.265
-331.216	-114.504	0.201	0.039
-330.202	-14.328	0.268	-0.173
-329.187	-31.478	0.142	-0.080
-328.172	141.898	-0.071	0.094
-327.158	-45.922	0.140	-0.070
-326.143	-30.887	0.433	-0.245
-325.129	123.851	-0.144	0.181
-324.114	79.513	0.089	0.095
-323.099	-37.858	0.214	0.114
-322.085	800.000	-0.040	-0.125
-321.070	800.000	0.056	-0.177
-320.056	-200.000	0.012	-0.188
-319.041	237.747	-0.188	-0.313
-318.026	-200.000	-0.052	-0.249
-317.012	800.000	0.053	-0.221
-315.997	-52.284	0.268	0.125
-314.983	-89.203	-0.195	-0.058
-313.968	-145.679	0.159	-0.014
-312.953	-66.438	-0.219	0.087
-311.939	-90.664	0.189	0.055
-310.924	-200.000	-0.021	0.101
-309.910	-84.756	0.189	-0.060
-308.895	-200.000	-0.023	0.114
-307.880	-86.967	0.144	-0.044
-306.866	133.858	-0.029	-0.038
-305.851	-160.886	-0.213	0.011
-304.837	800.000	0.125	0.349
-303.822	97.528	-0.109	-0.125
-302.807	-67.302	0.363	0.143
-301.793	11.188	0.194	0.149
-300.778	-69.760	0.192	-0.074
-299.764	-117.645	-0.397	-0.072
-298.749	449.548	0.115	-0.255
-297.735	41.395	-0.208	0.189
-296.720	450.595	0.111	0.246
-295.705	-200.000	-0.034	0.188
-294.691	-34.329	-0.284	0.156
-293.676	11.650	0.143	0.110
-292.662	119.008	-0.166	0.206
-291.647	-49.659	-0.078	-0.037
-290.632	-118.776	0.490	-0.087
-289.618	-118.182	-0.039	0.007
-288.603	-200.000	-0.001	-0.081
-287.589	90.695	-0.097	0.109
-286.574	375.314	-0.050	0.102
-285.559	187.284	-0.228	-0.340
-284.545	800.000	0.021	0.061
-283.530	-200.000	-0.025	0.201
-282.516	800.000	0.050	0.167
-281.501	739.362	-0.068	-0.183
-280.486	-82.799	-0.011	0.004
-279.472	-106.441	0.363	-0.081
-278.457	-40.908	-0.274	0.142
-277.443	59.576	-0.097	0.095
-276.428	-83.049	0.220	0.071
-275.413	800.000	0.044	-0.147
-274.399	-69.446	-0.062	-0.024
-273.384	-200.000	0.023	0.240
-272.370	-145.631	0.016	-0.001
-271.355	522.571	-0.077	-0.182
-270.340	163.655	0.092	-0.130
-269.326	-5.749	-0.184	-0.126
-268.311	351.219	0.007	0.014
-267.297	259.288	-0.086	0.148
-266.282	-200.000	-0.006	0.203
-265.267	-172.162	0.520	0.017
-264.253	15.729	-0.121	0.096
-263.238	-28.511	-0.208	-0.120
-262.224	-200.000	-0.015	-0.173
-261.209	-200.000	-0.019	-0.245
-260.195	-200.000	0.000	0.091
-259.180	-85.661	0.257	-0.080
-258.165	20.501	0.206	-0.167
-257.151	-7.561	-0.363	-0.246
-256.136	-73.142	0.021	0.008
-255.122	-200.000	-0.083	-0.404
-254.107	-55.146	-0.156	0.070
-253.092	-134.487	0.122	0.015
-252.078	79.382	0.105	-0.113
-251.063	-200.000	0.032	-0.242
-250.049	-200.000	-0.001	0.045
-249.034	-200.000	0.002	-0.028
-248.019	-72.416	0.367	0.136
-247.005	360.869	-0.083	0.167
-245.990	-42.411	-0.249	-0.127
-244.976	800.000	-0.073	-0.277
-243.961	-108.822	0.109	-0.023
-242.946	-200.000	-0.037	0.220
-241.932	54.394	-0.047	-0.045
-240.917	-4.469	0.269	-0.186
-239.903	-39.153	-0.199	-0.105
-238.888	242.015	0.124	-0.207
-237.873	-12.607	0.166	-0.109
-236.859	45.625	0.092	-0.085
-235.844	118.102	0.075	-0.093
-234.830	588.866	-0.126	0.310
-233.815	-200.000	0.027	0.327
-232.800	800.000	0.019	-0.059
-231.786	3.277	-0.265	-0.193
-230.771	-66.131	0.389	0.155
-229.757	-200.000	-0.013	0.119
-228.742	130.063	0.132	-0.170
-227.727	800.000	0.061	-0.185
-226.713	-200.000	0.026	-0.273
-225.698	-29.696	0.219	-0.125
-224.684	30.939	0.250	0.215
-223.669	43.446	-0.255	-0.233
-222.655	-80.516	-0.142	0.047
-221.640	-200.000	-0.003	0.262
-220.625	-108.212	-0.167	0.036
-219.611	-4.701	-0.193	-0.133
-218.596	381.899	0.059	-0.122
-217.582	-59.163	0.196	0.085
-216.567	4.497	-0.196	-0.144
-215.552	517.717	-0.082	-0.193
-214.538	21.269	0.209	-0.170
-213.523	73.312	0.072	-0.075
-212.509	-200.000	-0.001	0.398
-211.494	-30.948	-0.233	0.132
-210.479	-200.000	-0.045	0.241
-209.465	45.586	0.127	0.117
-208.450	-4.821	0.279	0.192
-207.436	14.947	0.059	0.046
-206.421	-200.000	0.023	-0.112
-205.406	800.000	0.067	0.245
-204.392	-200.000	0.034	-0.321
-203.377	-46.319	-0.042	-0.021
-202.363	-96.137	0.139	0.037
-201.348	-9.387	-0.146	0.098
-200.333	800.000	-0.066	-0.195
-199.319	800.000	-0.089	-0.262
-198.304	-123.614	0.059	0.009
-197.290	-142.808	0.138	0.013
-196.275	-72.753	-0.096	0.035
-195.260	800.000	0.122	0.354
-194.246	-200.000	-0.093	0.427
-193.231	377.677	-0.052	-0.106
-192.217	78.084	-0.056	-0.060
-191.202	800.000	0.155	-0.509
-190.187	50.530	0.140	0.132
-189.173	327.055	-0.098	0.187
-188.158	-200.000	0.014	-0.208
-187.144	237.929	0.130	-0.215
-186.129	135.925	0.169	0.220
-185.114	440.439	0.157	0.343
-184.100	302.449	0.078	0.143
-183.085	-18.622	0.152	0.095
-182.071	484.067	0.131	0.297
-181.056	-81.400	-0.177	-0.058
-180.042	83.195	-0.163	-0.177
-179.027	-45.720	-0.314	0.155
-178.012	421.251	0.119	-0.254
-176.998	-200.000	-0.013	-0.183
-175.983	313.599	-0.051	0.095
-174.969	120.706	0.075	-0.093
-173.954	188.054	0.189	0.282
-172.939	172.354	0.167	0.239
-171.925	6.408	0.329	-0.244
-170.910	-92.619	0.102	0.028
-169.896	196.269	0.074	0.113
-168.881	623.339	0.093	0.234
-167.866	-200.000	0.038	-0.207
-166.852	-200.000	0.035	-0.176
-165.837	-200.000	0.018	0.134
-164.823	212.637	0.095	-0.149
-163.808	-81.913	-0.250	0.082
-162.793	153.790	-0.037	0.050
-161.779	271.254	0.200	0.351
-160.764	-163.501	-0.231	0.011
-159.750	-145.366	-0.121	-0.011
-158.735	-96.753	0.121	-0.032
-157.720	540.988	-0.135	0.321
-156.706	800.000	-0.050	-0.175
-155.691	-41.427	-0.081	-0.042
-154.677	571.623	-0.075	-0.182
-153.662	-67.438	-0.191	0.075
-152.647	-143.223	0.298	-0.029
-151.633	800.000	-0.019	0.054
-150.618	800.000	0.033	-0.135
-149.604	-38.574	-0.331	0.174
-148.589	176.447	0.146	-0.212
-147.574	800.000	0.092	0.259
-146.560	-80.115	-0.157	0.052
-145.545	-40.805	0.164	0.085
-144.531	295.918	0.052	-0.095
-143.516	-200.000	-0.036	-0.176
-142.502	52.162	-0.367	-0.349
-141.487	-65.976	0.304	-0.121
-140.472	279.053	0.054	-0.095
-139.458	694.322	-0.085	-0.222
-138.443	12.476	-0.190	-0.146
-137.429	800.000	0.115	0.324
-136.414	-62.171	-0.355	-0.148
-135.399	-148.582	-0.174	-0.014
-134.385	166.979	-0.158	-0.223
-133.370	-200.000	0.048	-0.291
-132.356	-200.000	-0.027	-0.171
-131.341	-34.956	-0.151	0.082
-130.326	-95.502	0.082	-0.022
-129.312	14.175	0.303	0.236
-128.297	74.756	-0.218	0.228
-127.283	674.941	-0.072	-0.186
-126.268	-200.000	-0.075	0.349
-125.253	-200.000	0.014	0.363
-124.239	693.470	0.042	0.110
-123.224	109.718	0.221	0.264
-122.210	800.000	-0.059	0.230
-121.195	-132.376	-0.123	0.016
