DTS Sentinel unit serial number:	SN413079Multiplexer serial number:	ORYXHardware model number:	OX4-SRSoftware version number:	ORYX F/W v4.00 Oryx Data Collector v3.7.2.0data status	okinstallation	princeton_trtdifferential loss correction	single-endedforward channel	channel 1reverse channel	N/Adate	2019/09/11time	04:48:11forward acquisition time	60.00reverse acquisition time	0.00gamma	496.2192k internal	0.2331k external	0.2331temperature offset calibration	0.9922default loss term (dB/km)	0.3790temperature slope calibration	1.0000multiplexer offset coefficient	1.0000multiplexer slope coefficient	1.0000fibre end	0.00T internal ref (°C)	29.50T ext. ref 1 (°C)	-0.27T ext. ref 2 (°C)	23.35length (m)	temperature (°C)	Stokes	anti-Stokes-747.200	-137.167	0.330	-0.038
-746.185	-181.011	-0.392	-0.008
-745.171	322.623	-0.137	-0.262
-744.156	44.401	-0.209	0.193
-743.142	-74.774	0.076	0.027
-742.127	43.989	0.136	-0.126
-741.112	800.000	-0.066	-0.208
-740.098	-200.000	-0.027	0.122
-739.083	83.656	-0.122	-0.134
-738.069	-119.172	0.293	0.051
-737.054	58.893	0.068	0.068
-736.039	-5.437	-0.273	-0.189
-735.025	-55.867	0.363	0.163
-734.010	-200.000	-0.044	-0.347
-732.996	-12.411	-0.236	-0.155
-731.981	-200.000	0.004	0.100
-730.966	-200.000	-0.017	-0.398
-729.952	-137.700	0.239	0.027
-728.937	-85.630	-0.148	0.046
-727.923	-46.198	0.281	-0.139
-726.908	-64.050	-0.217	-0.089
-725.894	-84.823	0.099	-0.031
-724.879	12.686	-0.214	-0.166
-723.864	671.460	-0.073	-0.190
-722.850	-124.667	0.107	-0.017
-721.835	110.069	-0.076	0.091
-720.821	800.000	0.045	-0.124
-719.806	-200.000	-0.032	0.169
-718.791	800.000	-0.153	-0.432
-717.777	-200.000	0.001	-0.102
-716.762	-29.127	0.193	-0.111
-715.748	51.786	-0.118	0.113
-714.733	-200.000	-0.010	0.098
-713.718	-200.000	-0.000	0.103
-712.704	-200.000	0.012	-0.324
-711.689	800.000	0.028	-0.107
-710.675	-31.830	-0.170	-0.096
-709.660	-200.000	-0.015	-0.145
-708.645	-15.806	0.126	0.081
-707.631	-13.111	0.036	0.024
-706.616	800.000	-0.045	-0.162
-705.602	194.296	0.168	-0.256
-704.587	463.331	-0.128	-0.287
-703.572	-200.000	-0.064	-0.284
-702.558	-58.728	0.123	-0.054
-701.543	-154.440	-0.041	0.003
-700.529	676.749	-0.045	0.118
-699.514	-71.350	0.191	0.072
-698.499	-34.279	-0.211	-0.116
-697.485	-5.638	-0.114	-0.078
-696.470	-122.010	0.375	-0.062
-695.456	-47.392	-0.088	-0.043
-694.441	68.095	0.227	-0.234
-693.426	590.441	-0.056	0.138
-692.412	-33.649	-0.260	0.144
-691.397	-150.279	-0.426	0.033
-690.383	800.000	-0.087	-0.305
-689.368	-157.310	0.294	-0.018
-688.354	41.212	-0.169	0.153
-687.339	-200.000	-0.016	0.190
-686.324	-128.067	-0.330	-0.048
-685.310	-63.627	-0.209	-0.086
-684.295	-155.977	-0.217	0.014
-683.281	-67.269	0.285	0.113
-682.266	-57.635	-0.202	0.089
-681.251	-11.412	0.144	-0.095
-680.237	-62.913	0.449	-0.186
-679.222	46.964	0.172	0.161
-678.208	18.605	-0.148	0.119
-677.193	-98.710	0.132	0.034
-676.178	127.986	-0.209	-0.267
-675.164	-137.334	0.110	0.013
-674.149	-76.707	-0.145	0.051
-673.135	758.073	0.067	-0.183
-672.120	749.184	-0.081	0.219
-671.105	-200.000	0.023	0.125
-670.091	-77.012	-0.396	0.139
-669.076	-57.045	-0.372	0.165
-668.062	800.000	0.092	0.294
-667.047	543.901	0.054	-0.129
-666.032	-135.111	0.033	-0.004
-665.018	-200.000	-0.011	0.149
-664.003	800.000	-0.056	0.234
-662.989	-64.725	-0.239	-0.097
-661.974	366.960	-0.077	0.156
-660.959	-54.483	-0.054	0.024
-659.945	160.206	-0.095	-0.132
-658.930	613.568	0.059	0.149
-657.916	-200.000	-0.009	0.051
-656.901	-125.959	0.295	0.044
-655.886	800.000	-0.090	-0.258
-654.872	60.210	-0.051	-0.051
-653.857	800.000	0.132	-0.393
-652.843	189.018	-0.094	-0.141
-651.828	-167.971	-0.201	-0.008
-650.814	161.997	0.178	0.250
-649.799	31.636	-0.274	0.237
-648.784	800.000	0.021	-0.070
-647.770	62.780	0.107	-0.107
-646.755	-136.796	0.301	-0.035
-645.741	-200.000	-0.023	-0.476
-644.726	-71.607	0.576	-0.216
-643.711	-200.000	-0.035	0.267
-642.697	23.016	-0.235	0.194
-641.682	31.245	-0.083	-0.071
-640.668	-90.831	-0.240	-0.069
-639.653	-200.000	-0.018	-0.191
-638.638	-76.561	-0.092	0.032
-637.624	-144.676	-0.198	-0.018
-636.609	296.512	0.110	0.202
-635.595	278.189	-0.036	0.064
-634.580	60.858	-0.235	0.234
-633.565	128.203	-0.140	0.179
-632.551	527.306	0.100	0.236
-631.536	-27.340	-0.496	-0.289
-630.522	125.766	-0.061	-0.077
-629.507	154.337	-0.085	0.116
-628.492	231.982	-0.186	0.306
-627.478	-200.000	-0.046	-0.268
-626.463	-200.000	0.061	-0.289
-625.449	-200.000	-0.048	-0.254
-624.434	-85.308	-0.210	0.066
-623.419	-170.272	0.345	-0.012
-622.405	0.121	0.231	-0.165
-621.390	-200.000	0.002	0.096
-620.376	-116.337	-0.240	0.044
-619.361	69.854	-0.072	0.074
-618.346	-97.905	0.363	0.094
-617.332	-57.198	-0.028	-0.012
-616.317	-200.000	0.055	-0.267
-615.303	-79.287	-0.106	0.036
-614.288	800.000	-0.018	-0.075
-613.273	-183.477	-0.223	-0.004
-612.259	52.217	-0.054	0.052
-611.244	68.311	-0.207	-0.213
-610.230	-70.893	-0.173	0.065
-609.215	29.420	-0.152	0.130
-608.201	221.892	0.221	-0.356
-607.186	2.338	-0.114	-0.082
-606.171	-91.956	-0.376	0.107
-605.157	398.410	0.014	0.030
-604.142	-11.683	-0.113	-0.075
-603.128	-200.000	-0.008	-0.073
-602.113	300.093	0.173	0.319
-601.098	-200.000	-0.008	0.042
-600.084	128.008	0.142	-0.181
-599.069	-72.156	-0.309	-0.115
-598.055	-200.000	-0.039	-0.193
-597.040	-42.373	0.169	-0.086
-596.025	-78.911	0.337	-0.115
-595.011	-200.000	0.075	-0.371
-593.996	526.545	0.076	-0.179
-592.982	-8.133	-0.161	-0.108
-591.967	-22.077	0.202	-0.123
-590.952	800.000	-0.026	-0.110
-589.938	-119.174	-0.205	0.036
-588.923	-154.898	0.290	-0.019
-587.909	800.000	0.076	-0.225
-586.894	796.882	0.049	0.136
-585.879	-94.913	0.215	0.058
-584.865	80.721	-0.038	-0.041
-583.850	-58.589	-0.289	0.126
-582.836	-113.518	-0.118	-0.023
-581.821	8.961	0.199	-0.150
-580.806	-56.448	0.153	0.068
-579.792	-148.682	-0.043	0.004
-578.777	800.000	-0.036	-0.122
-577.763	-152.706	0.389	-0.028
-576.748	725.371	0.060	0.161
-575.733	-200.000	-0.001	-0.051
-574.719	-74.981	0.146	-0.052
-573.704	-33.198	-0.162	-0.090
-572.690	209.481	0.181	-0.283
-571.675	143.772	0.066	0.088
-570.661	619.602	0.021	-0.052
-569.646	800.000	-0.028	-0.113
-568.631	-33.119	-0.188	-0.104
-567.617	-145.283	-0.369	0.033
-566.602	-116.805	0.366	-0.067
-565.588	53.494	0.227	0.217
-564.573	-119.091	-0.166	0.029
-563.558	169.773	-0.091	-0.130
-562.544	-35.557	-0.180	0.098
-561.529	800.000	0.062	-0.176
-560.515	36.085	-0.198	-0.174
-559.500	-185.382	0.364	0.006
-558.485	-99.480	-0.020	0.005
-557.471	202.439	-0.139	-0.215
-556.456	800.000	0.043	-0.156
-555.442	103.822	-0.324	-0.380
-554.427	-171.878	0.201	-0.007
-553.412	-59.350	0.007	-0.003
-552.398	378.552	-0.107	0.219
-551.383	37.142	0.379	0.335
-550.369	229.793	0.050	-0.082
-549.354	-130.766	0.175	-0.024
-548.339	800.000	-0.080	0.248
-547.325	-200.000	-0.008	-0.112
-546.310	-200.000	-0.012	0.311
-545.296	214.509	0.170	0.268
-544.281	-113.559	0.332	-0.065
-543.266	-23.435	0.058	0.035
-542.252	-200.000	-0.056	0.337
-541.237	33.358	-0.196	-0.170
-540.223	-97.898	-0.167	-0.043
-539.208	-128.624	-0.031	-0.004
-538.193	800.000	-0.030	0.105
-537.179	-51.886	-0.226	0.105
-536.164	-49.176	0.345	0.165
-535.150	55.277	0.074	0.071
-534.135	800.000	-0.053	0.200
-533.121	28.037	-0.175	-0.147
-532.106	302.215	0.090	0.166
-531.091	25.720	0.064	0.054
-530.077	-200.000	0.001	-0.066
-529.062	-7.580	-0.195	-0.132
-528.048	-10.455	-0.157	-0.104
-527.033	49.922	0.208	-0.196
-526.018	-93.529	-0.231	0.064
-525.004	-200.000	-0.022	0.433
-523.989	403.644	0.129	0.271
-522.975	-90.069	0.323	-0.094
-521.960	-127.138	-0.391	-0.057
-520.945	-200.000	0.021	-0.106
-519.931	-131.561	-0.208	0.027
-518.916	417.374	0.112	0.240
-517.902	-65.819	-0.428	-0.171
-516.887	49.119	0.171	-0.161
-515.872	352.611	-0.121	0.240
-514.858	-200.000	-0.023	-0.158
-513.843	800.000	-0.100	-0.325
-512.829	-187.170	0.268	0.004
-511.814	141.938	-0.130	-0.172
-510.799	242.728	0.033	-0.055
-509.785	180.757	-0.111	-0.162
-508.770	741.329	0.067	-0.178
-507.756	-61.213	-0.349	-0.147
-506.741	665.864	-0.124	-0.320
-505.726	527.495	-0.174	0.409
-504.712	-30.755	-0.242	0.137
-503.697	74.231	-0.224	0.234
-502.683	233.266	0.157	0.257
-501.668	-122.184	-0.226	0.037
-500.653	-17.607	-0.332	-0.208
-499.639	171.106	0.079	0.113
-498.624	-200.000	0.048	0.356
-497.610	-192.471	-0.525	0.005
-496.595	-6.766	-0.120	0.081
-495.581	29.800	0.127	-0.107
-494.566	10.407	0.114	-0.086
-493.551	-200.000	0.036	-0.207
-492.537	65.698	0.136	0.137
-491.522	800.000	0.102	0.347
-490.508	15.559	-0.084	0.066
-489.493	-4.906	0.152	-0.104
-488.478	-200.000	0.003	-0.145
-487.464	225.839	-0.105	0.170
-486.449	45.555	-0.349	-0.321
-485.435	-0.484	0.380	-0.269
-484.420	40.895	0.130	0.117
-483.405	372.532	-0.196	-0.397
-482.391	-200.000	-0.005	-0.123
-481.376	-101.585	0.219	0.053
-480.362	15.249	-0.249	-0.195
-479.347	-200.000	0.016	0.103
-478.332	310.817	0.039	0.072
-477.318	-12.141	-0.273	-0.178
-476.303	-107.957	-0.410	0.089
-475.289	293.635	0.038	0.070
-474.274	-110.403	-0.246	0.051
-473.259	229.430	0.158	0.257
-472.245	-200.000	0.008	-0.299
-471.230	-19.506	-0.159	-0.098
-470.216	800.000	0.119	0.435
-469.201	800.000	0.014	-0.050
-468.186	800.000	-0.055	-0.162
-467.172	800.000	0.050	-0.210
-466.157	341.986	-0.207	0.403
-465.143	100.701	0.049	0.057
-464.128	105.927	0.021	-0.025
-463.113	-69.987	0.130	-0.049
-462.099	-200.000	0.045	-0.297
-461.084	-104.715	0.325	0.074
-460.070	-200.000	-0.067	0.321
-459.055	10.583	-0.140	0.106
-458.040	-200.000	0.020	0.361
-457.026	-114.297	-0.076	-0.015
-456.011	54.345	-0.149	-0.143
-454.997	-200.000	-0.021	-0.122
-453.982	800.000	0.068	-0.231
-452.968	-34.450	0.103	0.056
-451.953	-200.000	-0.036	0.183
-450.938	373.162	0.053	-0.107
-449.924	-200.000	-0.023	-0.125
-448.909	-65.024	0.159	-0.064
-447.895	-122.317	0.135	0.022
-446.880	-200.000	-0.019	-0.180
-445.865	-172.385	-0.111	0.004
-444.851	800.000	0.049	0.170
-443.836	-47.715	0.202	-0.097
-442.822	648.969	-0.064	0.164
-441.807	176.343	-0.187	0.270
-440.792	-200.000	0.012	0.060
-439.778	186.027	-0.040	0.059
-438.763	-127.763	-0.289	-0.041
-437.749	65.944	-0.129	0.130
-436.734	-102.944	-0.314	-0.074
-435.719	-200.000	-0.019	0.438
-434.705	-119.395	-0.089	-0.015
-433.690	800.000	0.048	-0.205
-432.676	51.781	0.195	0.185
-431.661	221.498	0.172	0.275
-430.646	-100.697	-0.286	0.070
-429.632	67.348	-0.160	0.162
-428.617	682.610	0.019	0.049
-427.603	-44.742	0.094	-0.047
-426.588	-118.430	-0.504	0.089
-425.573	-6.469	0.375	0.254
-424.559	-100.619	0.252	0.062
-423.544	-53.956	0.068	0.031
-422.530	-56.698	-0.198	0.087
-421.515	-99.441	0.100	0.025
-420.500	135.100	-0.029	-0.037
-419.486	-128.083	0.209	-0.030
-418.471	17.916	0.268	0.212
-417.457	180.468	0.100	-0.146
-416.442	519.722	-0.104	-0.243
-415.428	99.257	-0.067	-0.077
-414.413	-40.806	-0.150	-0.077
-413.398	-12.316	0.068	-0.044
-412.384	-41.083	0.217	-0.111
-411.369	449.690	-0.057	0.125
-410.355	-75.359	-0.078	0.028
-409.340	-200.000	-0.024	0.321
-408.325	-200.000	0.041	0.354
-407.311	-118.291	-0.008	-0.001
-406.296	-200.000	-0.019	-0.309
-405.282	-200.000	-0.003	-0.198
-404.267	800.000	0.026	-0.077
-403.252	14.932	-0.093	-0.072
-402.238	-152.803	-0.093	-0.007
-401.223	603.971	0.028	0.069
-400.209	800.000	-0.061	-0.210
-399.194	41.324	-0.200	0.180
-398.179	-153.244	0.293	0.020
-397.165	61.897	-0.205	-0.203
-396.150	140.702	-0.019	-0.024
-395.136	-83.967	-0.203	-0.064
-394.121	535.602	0.153	-0.361
-393.106	-45.846	-0.268	-0.131
-392.092	-92.890	0.032	-0.009
-391.077	185.396	-0.079	-0.116
-390.063	74.867	0.092	0.096
-389.048	6.719	0.135	-0.100
-388.033	8.258	0.198	0.148
-387.019	-71.364	0.127	0.047
-386.004	800.000	-0.144	-0.435
-384.990	-200.000	-0.031	-0.619
-383.975	-200.000	0.034	0.282
-382.960	-102.732	0.061	0.014
-381.946	249.124	-0.077	-0.129
-380.931	-200.000	-0.028	-0.241
-379.917	106.209	0.130	-0.153
-378.902	95.854	-0.138	0.156
-377.888	159.933	-0.146	-0.202
-376.873	-17.556	-0.340	0.212
-375.858	-200.000	-0.034	0.270
-374.844	800.000	-0.024	0.096
-373.829	-200.000	0.025	-0.110
-372.815	183.139	0.261	0.382
-371.800	-65.682	-0.107	-0.043
-370.785	376.077	0.174	-0.353
-369.771	-173.375	0.089	-0.003
-368.756	34.310	0.470	-0.406
-367.742	-33.420	0.055	0.030
-366.727	-161.978	-0.087	-0.004
-365.712	800.000	0.108	0.334
-364.698	800.000	-0.047	-0.145
-363.683	800.000	-0.090	0.260
-362.669	-80.790	-0.259	-0.085
-361.654	44.644	0.260	0.237
-360.639	171.360	-0.068	0.096
-359.625	174.842	0.165	-0.237
-358.610	-24.134	-0.219	-0.130
-357.596	-200.000	-0.001	-0.079
-356.581	-75.020	0.300	0.107
-355.566	39.559	0.232	-0.206
-354.552	-115.987	0.161	0.030
-353.537	-177.241	0.387	-0.010
-352.523	-86.884	0.195	-0.059
-351.508	-200.000	0.015	-0.288
-350.493	-107.318	0.160	0.035
-349.479	144.796	-0.025	0.033
-348.464	-200.000	-0.009	0.119
-347.450	800.000	0.155	0.458
-346.435	153.227	0.163	0.222
-345.420	31.599	-0.193	0.164
-344.406	-200.000	-0.057	0.304
-343.391	49.503	0.313	0.292
-342.377	-1.089	0.131	0.092
-341.362	-17.752	-0.247	-0.154
-340.348	-82.602	-0.102	0.033
-339.333	172.633	-0.020	-0.029
-338.318	800.000	-0.084	0.260
-337.304	-65.194	0.308	0.123
-336.289	-200.000	0.050	0.276
-335.275	48.044	0.184	-0.170
-334.260	28.385	-0.017	0.014
-333.245	37.148	0.071	0.062
-332.231	365.751	-0.065	0.129
-331.216	-101.019	0.150	-0.037
-330.202	-124.519	0.225	-0.035
-329.187	800.000	0.023	-0.097
-328.172	143.386	-0.136	-0.180
-327.158	58.423	-0.125	0.122
-326.143	-85.276	0.165	-0.051
-325.129	296.709	-0.083	0.151
-324.114	363.041	0.052	0.103
-323.099	-200.000	-0.060	0.267
-322.085	179.658	0.107	0.155
-321.070	279.364	0.032	-0.057
-320.056	-125.946	0.207	-0.031
-319.041	0.211	0.142	0.100
-318.026	-94.734	0.326	0.088
-317.012	-121.809	0.306	-0.050
-315.997	-179.254	0.186	0.004
-314.983	-200.000	-0.067	-0.380
-313.968	800.000	0.054	0.224
-312.953	800.000	0.098	0.272
-311.939	-50.246	0.076	0.035
-310.924	75.792	-0.087	-0.091
-309.910	134.931	-0.216	0.277
-308.895	26.345	-0.142	0.117
-307.880	-200.000	-0.006	0.031
-306.866	-14.752	0.090	0.057
-305.851	127.861	-0.190	0.239
-304.837	32.477	0.185	0.158
-303.822	-1.203	-0.282	0.197
-302.807	-200.000	-0.023	-0.240
-301.793	-41.192	-0.112	-0.057
-300.778	-97.516	-0.174	0.045
-299.764	734.333	-0.040	0.106
-298.749	252.127	0.057	0.097
-297.735	152.522	-0.074	0.100
-296.720	-200.000	0.144	-0.001
-295.705	-200.000	-0.073	-0.389
-294.691	62.345	0.116	0.115
-293.676	-34.284	0.337	-0.183
-292.662	70.033	-0.130	0.132
-291.647	-50.546	0.480	-0.224
-290.632	-56.484	-0.076	-0.033
-289.618	40.096	-0.087	0.078
-288.603	-104.557	0.229	0.052
-287.589	-78.022	0.112	-0.038
-286.574	-41.142	-0.144	0.073
-285.559	-32.157	-0.042	0.023
-284.545	800.000	-0.102	0.316
-283.530	168.960	-0.065	0.092
-282.516	-200.000	0.023	0.364
-281.501	-200.000	0.023	0.267
-280.486	19.272	0.170	0.135
-279.472	-46.892	-0.107	-0.052
-278.457	-105.524	0.153	-0.034
-277.443	-51.943	0.100	0.046
-276.428	-200.000	-0.006	-0.246
-275.413	-200.000	0.020	-0.411
-274.399	0.111	0.217	-0.153
-273.384	-200.000	0.011	-0.071
-272.370	800.000	0.018	0.057
-271.355	-87.617	-0.196	-0.058
-270.340	800.000	0.034	0.127
-269.326	-200.000	-0.019	-0.418
-268.311	-200.000	-0.032	-0.276
-267.297	-37.691	0.307	-0.162
-266.282	-200.000	0.008	0.180
-265.267	18.087	-0.199	0.157
-264.253	-107.532	-0.286	-0.062
-263.238	-53.068	0.187	-0.085
-262.224	-126.343	0.253	-0.037
-261.209	-129.248	0.073	-0.010
-260.195	-45.037	0.139	0.068
-259.180	-200.000	-0.021	0.294
-258.165	-200.000	0.028	-0.150
-257.151	67.730	-0.133	-0.134
-256.136	-200.000	0.029	-0.354
-255.122	-39.049	-0.296	-0.154
-254.107	79.123	-0.080	-0.084
-253.092	17.320	0.205	0.160
-252.078	-75.629	0.113	0.040
-251.063	-200.000	-0.016	0.175
-250.049	-103.332	0.295	-0.069
-249.034	-5.902	0.180	0.122
-248.019	722.353	0.038	-0.100
-247.005	-45.152	-0.210	-0.103
-245.990	87.186	0.213	-0.233
-244.976	214.660	-0.055	0.087
-243.961	2.509	0.050	0.036
-242.946	120.290	-0.208	0.255
-241.932	4.559	0.227	-0.164
-240.917	32.728	-0.282	0.241
-239.903	-38.938	-0.109	0.057
-238.888	-133.359	-0.169	-0.021
-237.873	-121.438	-0.133	0.022
-236.859	-36.647	0.260	0.138
-235.844	-200.000	0.005	0.023
-234.830	414.028	0.094	0.197
-233.815	73.314	-0.185	-0.190
-232.800	140.063	0.070	0.092
-231.786	57.696	-0.155	-0.150
-230.771	439.283	0.052	-0.112
-229.757	179.869	0.165	-0.239
-228.742	73.580	-0.284	0.294
-227.727	800.000	0.020	0.071
-226.713	261.159	0.168	-0.288
-225.698	135.027	-0.067	0.086
-224.684	281.726	-0.173	0.306
-223.669	133.153	0.172	0.219
-222.655	199.874	0.085	-0.128
-221.640	-16.892	0.228	0.142
-220.625	-200.000	0.056	-0.281
-219.611	324.320	0.102	-0.193
-218.596	85.895	0.133	0.144
-217.582	-9.018	0.127	0.084
-216.567	-22.500	0.256	0.153
-215.552	-200.000	-0.076	0.507
-214.538	78.243	-0.041	0.043
-213.523	-93.924	-0.210	0.057
-212.509	72.171	0.235	0.241
-211.494	53.698	0.166	0.157
-210.479	-108.891	-0.424	-0.089
-209.465	-200.000	0.004	-0.183
-208.450	-92.460	0.549	-0.152
-207.436	233.385	-0.046	0.075
-206.421	10.388	-0.246	-0.185
-205.406	-27.276	0.194	0.111
-204.392	-49.068	-0.357	0.169
-203.377	-69.895	0.066	0.025
-202.363	800.000	-0.173	-0.678
-201.348	-32.946	0.025	0.014
-200.333	-13.256	0.218	0.139
-199.319	13.732	-0.060	-0.046
-198.304	-47.885	-0.446	-0.213
-197.290	-200.000	0.012	-0.329
-196.275	800.000	-0.142	0.415
-195.260	-24.115	-0.290	0.171
-194.246	308.664	-0.110	-0.202
-193.231	185.714	0.100	0.146
-192.217	-200.000	-0.010	0.329
-191.202	-125.233	-0.231	-0.035
-190.187	745.622	0.072	-0.191
-189.173	303.509	0.117	-0.213
-188.158	-21.820	0.081	0.049
-187.144	-200.000	-0.026	0.329
-186.129	-103.925	0.108	0.025
-185.114	-68.909	-0.220	-0.083
-184.100	-130.956	-0.269	-0.035
-183.085	7.243	0.118	-0.087
-182.071	800.000	-0.117	-0.362
-181.056	-98.051	0.394	0.100
-180.042	-155.828	0.294	-0.018
-179.027	-116.092	0.208	0.038
-178.012	-50.393	-0.346	-0.161
-176.998	387.708	0.080	-0.163
-175.983	-57.915	-0.375	-0.161
-174.969	72.320	0.251	-0.257
-173.954	-150.620	0.062	-0.005
-172.939	650.871	0.070	0.175
-171.925	538.871	-0.016	0.038
-170.910	266.096	-0.066	0.113
-169.896	-106.212	-0.159	0.035
-168.881	214.658	-0.058	-0.090
-167.866	-200.000	0.028	-0.360
-166.852	255.867	-0.146	0.246
-165.837	780.317	-0.042	-0.114
-164.823	-200.000	0.054	0.254
-163.808	-19.547	-0.155	-0.095
-162.793	-200.000	0.018	-0.186
-161.779	-9.183	0.215	-0.142
-160.764	-29.570	-0.185	-0.104
-159.750	-71.893	0.255	-0.093
-158.735	-119.345	-0.212	-0.036
-157.720	386.082	-0.079	0.161
-156.706	190.647	-0.066	-0.097
-155.691	800.000	-0.020	-0.080
-154.677	471.957	-0.036	0.080
-153.662	-62.307	-0.114	0.047
-152.647	-103.755	0.263	0.061
-151.633	800.000	-0.059	0.167
-150.618	339.811	-0.089	0.170
-149.604	-117.183	-0.318	-0.057
-148.589	-200.000	0.040	-0.179
-147.574	-200.000	-0.017	0.173
-146.560	-42.931	-0.260	0.130
-145.545	-200.000	0.005	-0.301
-144.531	401.611	0.072	-0.148
-143.516	-83.950	0.244	-0.076
-142.502	-68.615	-0.209	-0.080
-141.487	-63.578	0.189	-0.076
-140.472	-200.000	-0.000	-0.042
-139.458	-193.181	-0.181	0.002
-138.443	243.520	-0.054	-0.090
-137.429	-200.000	0.022	0.382
-136.414	-162.517	-0.288	-0.014
-135.399	111.610	0.035	-0.041
-134.385	-76.270	-0.083	0.029
-133.370	-60.735	-0.284	-0.118
-132.356	-200.000	-0.087	0.000
-131.341	800.000	-0.072	0.204
-130.326	-200.000	0.041	0.298
-129.312	800.000	0.133	0.488
-128.297	-56.433	-0.267	0.117
-127.283	-200.000	0.028	-0.138
-126.268	-200.000	0.008	0.168
-125.253	195.364	-0.094	0.141
-124.239	11.848	0.129	0.097
-123.224	31.569	0.122	-0.103
-122.210	-63.500	-0.166	-0.067
