DTS Sentinel unit serial number:	SN413079Multiplexer serial number:	ORYXHardware model number:	OX4-SRSoftware version number:	ORYX F/W v4.00 Oryx Data Collector v3.7.2.0data status	okinstallation	princeton_trtdifferential loss correction	single-endedforward channel	channel 1reverse channel	N/Adate	2019/09/12time	04:12:11forward acquisition time	60.00reverse acquisition time	0.00gamma	496.2192k internal	0.2322k external	0.2322temperature offset calibration	1.0088default loss term (dB/km)	0.3790temperature slope calibration	1.0000multiplexer offset coefficient	1.0000multiplexer slope coefficient	1.0000fibre end	0.00T internal ref (°C)	31.91T ext. ref 1 (°C)	2.22T ext. ref 2 (°C)	25.34length (m)	temperature (°C)	Stokes	anti-Stokes-747.200	4.421	-0.211	0.157
-746.185	405.617	0.145	0.310
-745.171	-62.156	-0.165	0.069
-744.156	-20.923	-0.339	0.210
-743.142	387.416	-0.011	0.024
-742.127	800.000	0.079	0.292
-741.112	59.776	0.087	-0.087
-740.098	800.000	0.074	0.228
-739.083	-160.972	0.151	0.008
-738.069	53.572	-0.133	-0.129
-737.054	-27.009	-0.036	0.021
-736.039	-89.618	0.123	-0.036
-735.025	153.732	0.183	0.253
-734.010	16.566	-0.279	0.222
-732.996	188.511	-0.252	0.381
-731.981	-18.488	0.229	-0.144
-730.966	378.773	-0.071	0.146
-729.952	-15.874	0.025	-0.016
-728.937	264.565	-0.216	-0.380
-727.923	800.000	0.025	-0.081
-726.908	28.403	-0.201	-0.172
-725.894	195.145	-0.018	-0.027
-724.879	-104.041	-0.399	-0.094
-723.864	-178.803	0.204	0.005
-722.850	-200.000	-0.023	0.176
-721.835	800.000	0.126	0.440
-720.821	401.995	-0.116	0.245
-719.806	-200.000	0.056	0.288
-718.791	-146.419	-0.325	0.029
-717.777	800.000	0.043	-0.185
-716.762	16.863	0.107	-0.085
-715.748	-200.000	-0.038	-0.185
-714.733	-45.215	0.293	0.147
-713.718	64.283	-0.179	-0.182
-712.704	-46.743	-0.425	-0.210
-711.689	-42.639	0.271	-0.139
-710.675	-124.641	-0.449	0.070
-709.660	66.619	-0.132	0.136
-708.645	-31.570	-0.156	-0.088
-707.631	800.000	0.086	-0.314
-706.616	-127.013	-0.283	-0.042
-705.602	800.000	0.107	0.415
-704.587	-200.000	-0.052	0.326
-703.572	99.846	0.083	0.097
-702.558	184.477	0.032	-0.048
-701.543	-178.938	0.531	0.012
-700.529	-67.071	-0.099	-0.040
-699.514	228.713	-0.269	0.442
-698.499	280.016	-0.068	0.122
-697.485	-167.099	0.317	0.013
-696.470	-200.000	-0.002	-0.130
-695.456	-14.653	-0.193	-0.125
-694.441	-88.043	-0.390	0.118
-693.426	-86.144	-0.228	-0.071
-692.412	-62.734	0.160	0.067
-691.397	-200.000	-0.035	0.246
-690.383	581.250	-0.045	0.112
-689.368	-30.338	0.381	-0.218
-688.354	143.507	-0.154	-0.207
-687.339	-200.000	0.012	0.077
-686.324	-200.000	0.019	-0.269
-685.310	800.000	-0.040	-0.158
-684.295	301.771	0.138	0.258
-683.281	378.520	0.027	-0.055
-682.266	-25.636	0.024	-0.014
-681.251	-53.503	-0.121	0.056
-680.237	800.000	0.074	-0.248
-679.222	-200.000	-0.002	-0.101
-678.208	310.883	-0.099	-0.187
-677.193	800.000	-0.062	-0.260
-676.178	13.202	0.068	-0.053
-675.164	-87.254	-0.176	0.054
-674.149	800.000	0.028	0.113
-673.135	-200.000	0.004	0.021
-672.120	-51.451	0.116	-0.055
-671.105	-200.000	-0.001	0.075
-670.091	-19.325	0.067	-0.042
-669.076	97.517	-0.212	-0.245
-668.062	-200.000	-0.069	-0.525
-667.047	51.454	0.248	0.237
-666.032	-31.049	0.330	0.187
-665.018	-8.691	0.394	0.266
-664.003	25.312	0.339	-0.284
-662.989	-113.709	-0.161	-0.032
-661.974	-110.687	-0.116	0.024
-660.959	167.912	-0.058	-0.083
-659.945	21.790	-0.324	-0.266
-658.930	49.135	0.196	-0.185
-657.916	-38.845	-0.148	-0.079
-656.901	-200.000	-0.028	0.549
-655.886	-122.717	0.168	0.027
-654.872	-59.828	0.091	-0.039
-653.857	46.448	-0.164	0.153
-652.843	341.747	-0.112	-0.220
-651.828	-7.220	0.125	0.086
-650.814	-94.292	0.188	-0.052
-649.799	-59.891	0.034	-0.015
-648.784	-98.572	-0.183	0.047
-647.770	-200.000	-0.073	-0.412
-646.755	-200.000	-0.070	-0.359
-645.741	-77.075	0.268	-0.094
-644.726	115.866	0.119	0.147
-643.711	-200.000	0.011	-0.249
-642.697	531.416	-0.067	0.159
-641.682	42.804	-0.088	0.080
-640.668	-48.349	-0.114	0.055
-639.653	-105.985	-0.118	-0.027
-638.638	-91.925	0.256	-0.073
-637.624	307.937	0.073	0.137
-636.609	18.900	-0.076	-0.061
-635.595	374.578	-0.054	0.111
-634.580	-200.000	0.011	-0.187
-633.565	139.498	0.134	-0.178
-632.551	42.157	0.136	-0.124
-631.536	-200.000	-0.012	-0.204
-630.522	-200.000	-0.014	-0.136
-629.507	800.000	0.024	-0.102
-628.492	39.802	-0.353	-0.319
-627.478	-200.000	-0.026	0.143
-626.463	-200.000	0.002	0.190
-625.449	1.868	-0.129	0.094
-624.434	800.000	-0.007	-0.028
-623.419	-119.483	-0.168	-0.029
-622.405	-58.713	-0.020	0.009
-621.390	-75.902	-0.090	-0.032
-620.376	-200.000	-0.023	-0.109
-619.361	116.981	-0.228	0.281
-618.346	461.152	-0.166	-0.371
-617.332	36.259	0.065	0.058
-616.317	-124.894	-0.274	0.042
-615.303	-88.636	0.199	0.059
-614.288	-200.000	-0.005	0.147
-613.273	60.269	0.122	-0.121
-612.259	800.000	-0.031	0.114
-611.244	800.000	0.015	-0.061
-610.230	65.795	-0.211	-0.215
-609.215	148.817	-0.144	-0.196
-608.201	-200.000	-0.005	0.093
-607.186	42.584	0.086	-0.079
-606.171	-200.000	-0.038	0.377
-605.157	-200.000	0.018	0.231
-604.142	-142.445	-0.432	0.043
-603.128	800.000	0.038	-0.113
-602.113	-26.209	-0.100	0.059
-601.098	275.679	-0.133	0.237
-600.084	-72.395	0.120	0.045
-599.069	86.159	-0.154	-0.170
-598.055	-72.224	0.105	0.039
-597.040	-200.000	-0.015	0.078
-596.025	-200.000	0.001	-0.247
-595.011	-28.558	0.064	0.037
-593.996	251.355	0.131	0.223
-592.982	-86.692	0.027	0.008
-591.967	490.009	-0.190	-0.437
-590.952	-54.715	0.268	-0.121
-589.938	-165.229	-0.096	0.004
-588.923	-200.000	-0.028	0.184
-587.909	-122.508	-0.527	0.086
-586.894	-200.000	0.022	0.162
-585.879	-171.101	-0.386	-0.013
-584.865	-88.199	-0.322	0.097
-583.850	352.292	0.109	0.218
-582.836	-200.000	-0.052	0.324
-581.821	-200.000	-0.014	-0.317
-580.806	-111.058	-0.032	-0.007
-579.792	65.118	-0.221	0.224
-578.777	800.000	-0.048	0.202
-577.763	-119.067	0.302	-0.053
-576.748	-200.000	0.039	0.361
-575.733	-176.962	-0.162	0.004
-574.719	800.000	0.120	-0.334
-573.704	800.000	0.028	-0.099
-572.690	127.705	-0.162	-0.207
-571.675	38.088	-0.122	-0.108
-570.661	-110.481	0.068	0.014
-569.646	26.978	-0.203	0.171
-568.631	-91.073	0.291	-0.084
-567.617	-68.995	-0.325	-0.126
-566.602	393.510	-0.096	-0.200
-565.588	-191.704	-0.097	0.001
-564.573	258.073	-0.090	0.156
-563.558	-125.837	-0.157	0.024
-562.544	182.127	0.118	-0.175
-561.529	-98.997	0.063	0.016
-560.515	-200.000	0.009	-0.139
-559.500	418.623	-0.025	-0.055
-558.485	12.284	0.204	0.157
-557.471	143.479	0.048	0.064
-556.456	-109.360	0.420	0.089
-555.442	175.601	-0.110	0.160
-554.427	-63.184	0.209	0.087
-553.412	-94.493	0.098	0.027
-552.398	131.226	-0.152	0.195
-551.383	112.780	0.265	0.321
-550.369	763.872	-0.048	-0.130
-549.354	338.336	-0.122	-0.238
-548.339	-200.000	0.079	0.433
-547.325	9.594	0.209	0.159
-546.310	-115.954	0.072	-0.013
-545.296	309.856	-0.203	-0.381
-544.281	-4.845	-0.345	-0.239
-543.266	800.000	0.049	-0.143
-542.252	-108.802	-0.064	-0.014
-541.237	4.067	0.180	-0.132
-540.223	800.000	-0.130	-0.472
-539.208	-200.000	0.035	-0.317
-538.193	120.077	0.132	0.164
-537.179	-200.000	0.014	0.282
-536.164	-200.000	-0.043	0.195
-535.150	-7.187	-0.451	-0.306
-534.135	-4.672	0.105	-0.072
-533.121	-101.996	-0.073	-0.018
-532.106	31.403	0.241	-0.207
-531.091	-121.877	-0.180	0.030
-530.077	-105.155	0.083	0.019
-529.062	800.000	-0.052	-0.212
-528.048	-77.927	0.156	-0.054
-527.033	377.583	0.114	0.233
-526.018	-200.000	0.003	0.079
-525.004	-200.000	0.000	0.169
-523.989	123.892	-0.120	0.151
-522.975	85.661	0.159	0.175
-521.960	-97.482	0.129	0.034
-520.945	719.729	0.038	-0.100
-519.931	748.974	-0.113	-0.306
-518.916	56.875	-0.078	-0.076
-517.902	146.374	0.069	0.092
-516.887	-85.167	-0.034	0.011
-515.872	326.581	0.169	-0.325
-514.858	-23.468	0.167	0.100
-513.843	-55.338	-0.209	-0.094
-512.829	-200.000	0.032	-0.543
-511.814	-200.000	0.009	0.270
-510.799	-122.245	0.179	-0.029
-509.785	-170.685	0.133	0.005
-508.770	-49.313	0.052	-0.025
-507.756	-8.990	-0.156	-0.105
-506.741	161.865	-0.182	0.256
-505.726	-200.000	-0.001	-0.203
-504.712	-200.000	-0.048	-0.464
-503.697	308.816	0.034	-0.063
-502.683	-137.869	0.282	-0.032
-501.668	-120.224	-0.490	0.084
-500.653	699.616	0.031	-0.082
-499.639	39.312	0.179	0.161
-498.624	-38.872	-0.228	-0.120
-497.610	315.537	0.134	0.252
-496.595	130.689	0.090	0.116
-495.581	-47.165	-0.443	0.216
-494.566	794.064	-0.024	-0.066
-493.551	-200.000	0.024	0.131
-492.537	800.000	0.053	0.229
-491.522	144.614	-0.144	0.192
-490.508	-58.299	0.178	-0.078
-489.493	800.000	0.075	-0.244
-488.478	45.724	0.157	-0.145
-487.464	-44.275	-0.063	-0.032
-486.449	-39.415	-0.292	0.153
-485.435	-60.853	-0.403	-0.171
-484.420	45.862	0.095	-0.088
-483.405	206.162	-0.094	0.146
-482.391	800.000	-0.102	0.391
-481.376	166.625	-0.142	-0.202
-480.362	-131.135	-0.186	0.025
-479.347	-58.865	0.169	-0.073
-478.332	-78.592	0.208	-0.071
-477.318	-107.475	-0.305	0.067
-476.303	-200.000	-0.030	0.269
-475.289	-200.000	-0.033	0.158
-474.274	800.000	0.102	-0.348
-473.259	15.460	0.161	0.127
-472.245	-200.000	-0.026	0.127
-471.230	1.059	-0.122	-0.088
-470.216	800.000	0.071	0.198
-469.201	-63.283	-0.067	0.028
-468.186	799.845	0.081	0.223
-467.172	-31.015	0.138	0.078
-466.157	-200.000	0.009	0.073
-465.143	508.531	0.091	0.211
-464.128	800.000	0.096	0.273
-463.113	-75.509	-0.350	0.124
-462.099	-41.964	-0.061	0.031
-461.084	-116.832	-0.392	0.072
-460.070	-200.000	-0.049	0.218
-459.055	106.565	0.232	0.274
-458.040	41.999	-0.304	0.276
-457.026	800.000	0.099	-0.304
-456.011	-200.000	0.017	0.085
-454.997	-4.086	0.115	0.079
-453.982	-149.591	0.304	0.024
-452.968	-200.000	-0.038	-0.314
-451.953	39.763	-0.118	-0.106
-450.938	-70.061	-0.107	-0.041
-449.924	795.419	-0.054	-0.150
-448.909	-38.379	-0.044	0.023
-447.895	-102.380	-0.315	-0.075
-446.880	311.154	-0.219	-0.410
-445.865	-200.000	0.006	-0.231
-444.851	98.497	0.085	-0.098
-443.836	543.925	-0.021	-0.050
-442.822	800.000	0.052	-0.170
-441.807	-200.000	0.052	-0.275
-440.792	-25.632	0.175	0.103
-439.778	122.375	0.143	-0.179
-438.763	-200.000	0.039	0.269
-437.749	-200.000	-0.055	-0.330
-436.734	-115.802	0.276	-0.052
-435.719	-91.020	0.327	-0.094
-434.705	-80.470	-0.203	-0.068
-433.690	501.703	0.054	-0.124
-432.676	-87.331	0.235	-0.071
-431.661	-1.074	-0.186	0.131
-430.646	-130.690	0.265	0.036
-429.632	68.091	0.236	-0.241
-428.617	491.557	-0.117	0.268
-427.603	74.223	-0.175	0.183
-426.588	-162.709	0.149	-0.007
-425.573	58.656	-0.204	-0.200
-424.559	-28.707	-0.088	0.050
-423.544	-105.960	-0.246	-0.055
-422.530	179.551	-0.114	0.166
-421.515	-178.161	0.419	-0.010
-420.500	-23.678	-0.362	-0.216
-419.486	105.025	0.190	0.223
-418.471	-164.624	-0.230	0.010
-417.457	279.104	0.103	0.184
-416.442	-200.000	0.029	0.161
-415.428	-168.038	0.299	-0.012
-414.413	101.315	-0.300	-0.349
-413.398	-103.507	-0.318	0.075
-412.384	800.000	-0.073	0.286
-411.369	-200.000	0.010	0.295
-410.355	-49.628	-0.038	-0.018
-409.340	-200.000	-0.022	0.095
-408.325	125.648	0.039	0.049
-407.311	-61.159	0.440	-0.185
-406.296	-18.159	-0.082	-0.051
-405.282	612.897	-0.126	-0.314
-404.267	22.395	-0.176	-0.144
-403.252	278.973	-0.120	-0.214
-402.238	114.509	-0.130	0.157
-401.223	800.000	-0.022	0.088
-400.209	33.460	-0.097	0.084
-399.194	17.846	-0.142	0.113
-398.179	-90.841	0.454	-0.130
-397.165	-200.000	-0.045	0.290
-396.150	800.000	0.070	0.301
-395.136	-32.140	-0.150	0.084
-394.121	255.526	0.089	-0.152
-393.106	-200.000	0.054	-0.391
-392.092	58.751	-0.044	0.043
-391.077	-200.000	0.091	0.513
-390.063	-6.311	0.275	0.187
-389.048	119.853	0.214	0.265
-388.033	38.089	-0.175	-0.155
-387.019	800.000	-0.053	0.183
-386.004	326.456	-0.121	0.231
-384.990	-156.972	0.184	-0.011
-383.975	-117.256	-0.094	-0.017
-382.960	112.661	0.130	0.156
-381.946	31.647	-0.147	0.126
-380.931	-153.338	-0.249	-0.017
-379.917	-141.844	0.173	0.017
-378.902	279.921	0.075	0.134
-377.888	800.000	0.056	0.178
-376.873	-63.487	0.243	-0.100
-375.858	10.241	0.119	-0.090
-374.844	93.042	0.179	-0.201
-373.829	-200.000	0.003	0.300
-372.815	-200.000	-0.005	0.196
-371.800	480.828	-0.080	0.180
-370.785	592.111	-0.090	0.221
-369.771	-200.000	-0.016	-0.126
-368.756	46.384	-0.123	-0.114
-367.742	-200.000	-0.014	0.124
-366.727	-62.801	0.288	-0.119
-365.712	33.470	0.090	0.078
-364.698	-36.902	-0.039	0.021
-363.683	-95.075	0.217	-0.058
-362.669	61.150	0.256	0.253
-361.654	800.000	-0.074	0.306
-360.639	800.000	-0.040	0.150
-359.625	403.764	-0.106	0.222
-358.610	79.207	-0.099	-0.106
-357.596	-200.000	0.034	-0.172
-356.581	-129.941	-0.286	-0.039
-355.566	-134.343	-0.226	0.028
-354.552	800.000	0.026	-0.107
-353.537	800.000	-0.017	-0.064
-352.523	41.207	0.083	-0.074
-351.508	181.003	-0.062	-0.091
-350.493	21.291	0.222	-0.179
-349.479	-11.549	0.132	0.086
-348.464	363.841	-0.117	0.233
-347.450	-98.804	-0.128	0.033
-346.435	94.300	0.121	0.136
-345.420	91.242	0.212	0.236
-344.406	37.761	0.107	0.095
-343.391	-105.279	0.252	0.057
-342.377	-43.546	0.094	0.047
-341.362	177.934	-0.197	-0.286
-340.348	-112.823	-0.149	-0.029
-339.333	-4.857	0.219	-0.150
-338.318	-22.286	-0.016	-0.009
-337.304	45.600	0.369	-0.339
-336.289	2.523	-0.121	0.087
-335.275	329.085	0.116	0.222
-334.260	-140.929	0.324	0.033
-333.245	112.880	-0.060	-0.072
-332.231	-172.353	0.532	-0.017
-331.216	-49.171	0.108	0.051
-330.202	-34.110	0.106	0.058
-329.187	-92.299	0.046	-0.013
-328.172	31.943	-0.360	0.309
-327.158	47.666	-0.231	-0.214
-326.143	7.360	0.088	0.065
-325.129	-200.000	-0.046	0.339
-324.114	119.299	0.075	-0.092
-323.099	146.433	0.166	0.221
-322.085	-37.239	-0.158	-0.084
-321.070	5.306	-0.098	-0.072
-320.056	38.696	0.261	0.231
-319.041	800.000	-0.078	-0.277
-318.026	-56.949	0.285	-0.125
-317.012	593.097	-0.089	-0.218
-315.997	1.386	0.324	-0.231
-314.983	-143.471	-0.241	-0.023
-313.968	-31.317	-0.212	0.118
-312.953	21.946	-0.097	0.079
-311.939	160.198	-0.273	-0.377
-310.924	-39.737	0.173	0.090
-309.910	-70.589	-0.272	-0.102
-308.895	18.464	0.037	0.030
-307.880	-46.996	0.043	-0.021
-306.866	-200.000	0.011	-0.145
-305.851	-200.000	-0.037	0.188
-304.837	-144.292	0.333	-0.031
-303.822	-93.877	0.384	-0.105
-302.807	-149.633	0.135	-0.011
-301.793	33.584	-0.270	-0.233
-300.778	-96.899	-0.238	-0.062
-299.764	800.000	0.065	0.230
-298.749	303.678	0.024	0.044
-297.735	-156.046	-0.271	-0.017
-296.720	464.546	0.049	0.110
-295.705	-150.884	0.167	-0.013
-294.691	56.601	-0.105	0.101
-293.676	115.282	-0.138	0.167
-292.662	-41.382	-0.272	0.139
-291.647	768.075	0.130	-0.351
-290.632	-92.423	0.413	0.115
-289.618	-200.000	0.059	-0.404
-288.603	-51.873	0.177	0.082
-287.589	26.543	-0.140	-0.116
-286.574	800.000	-0.075	-0.296
-285.559	-200.000	0.005	0.351
-284.545	-0.707	-0.111	0.078
-283.530	-27.491	-0.308	0.177
-282.516	-14.738	0.140	-0.089
-281.501	699.994	-0.108	-0.283
-280.486	-131.615	0.071	-0.009
-279.472	28.669	0.175	-0.147
-278.457	517.637	-0.110	-0.255
-277.443	-200.000	0.009	0.125
-276.428	390.309	-0.114	-0.235
-275.413	800.000	-0.168	-0.475
-274.399	642.174	0.123	-0.311
-273.384	800.000	0.060	0.242
-272.370	89.859	-0.037	-0.041
-271.355	-59.906	0.025	0.011
-270.340	114.641	0.120	0.145
-269.326	-200.000	-0.055	0.252
-268.311	720.862	0.054	0.143
-267.297	-56.198	-0.144	0.064
-266.282	800.000	-0.135	0.403
-265.267	61.575	-0.031	-0.031
-264.253	35.059	0.073	-0.063
-263.238	247.958	0.175	-0.293
-262.224	194.976	-0.076	-0.114
-261.209	116.227	0.018	0.022
-260.195	177.824	-0.041	0.060
-259.180	-161.893	0.090	0.005
-258.165	-200.000	0.037	-0.172
-257.151	-4.412	0.150	0.103
-256.136	-200.000	0.053	0.236
-255.122	-118.893	-0.096	-0.017
-254.107	26.162	-0.108	0.089
-253.092	139.480	0.115	0.149
-252.078	401.108	-0.137	-0.286
-251.063	66.085	0.023	-0.023
-250.049	800.000	0.101	0.429
-249.034	408.618	0.153	0.320
-248.019	93.578	-0.194	0.217
-247.005	800.000	-0.091	-0.271
-245.990	-200.000	-0.036	0.170
-244.976	800.000	-0.085	0.243
-243.961	78.363	-0.207	0.219
-242.946	800.000	0.065	-0.197
-241.932	-200.000	0.007	-0.135
-240.917	-137.805	-0.106	-0.012
-239.903	800.000	0.076	-0.325
-238.888	-200.000	0.039	-0.190
-237.873	168.903	-0.097	0.137
-236.859	95.317	0.132	0.148
-235.844	-200.000	-0.011	-0.086
-234.830	-165.983	-0.114	0.005
-233.815	-200.000	-0.042	-0.411
-232.800	-22.301	0.154	-0.092
-231.786	85.007	-0.252	-0.274
-230.771	-75.853	0.233	0.082
-229.757	14.067	-0.250	0.193
-228.742	447.596	0.062	0.134
-227.727	800.000	0.064	-0.244
-226.713	558.688	0.089	0.214
-225.698	-200.000	-0.030	-0.132
-224.684	-111.945	-0.179	-0.036
-223.669	191.864	-0.175	-0.261
-222.655	-63.186	-0.095	0.039
-221.640	-128.424	0.110	0.015
-220.625	159.076	-0.110	0.151
-219.611	543.842	0.119	0.281
-218.596	-200.000	-0.042	0.342
-217.582	-138.013	0.013	0.001
-216.567	81.937	0.155	0.166
-215.552	-88.615	0.303	0.089
-214.538	328.969	0.046	0.088
-213.523	242.970	0.136	-0.225
-212.509	597.535	-0.067	-0.165
-211.494	564.285	-0.070	0.168
-210.479	-118.025	0.262	0.046
-209.465	719.577	0.081	-0.212
-208.450	-120.830	-0.182	0.030
-207.436	800.000	-0.068	0.221
-206.421	-58.867	0.187	0.080
-205.406	800.000	0.023	0.085
-204.392	302.789	0.113	-0.207
-203.377	-55.132	-0.084	0.037
-202.363	197.677	0.108	0.163
-201.348	213.351	-0.049	0.077
-200.333	-200.000	-0.048	-0.329
-199.319	-68.134	0.128	-0.049
-198.304	-102.339	0.239	-0.057
-197.290	800.000	0.030	0.094
-196.275	194.707	-0.126	0.189
-195.260	-125.298	0.139	0.021
-194.246	-121.105	-0.137	-0.023
-193.231	800.000	-0.084	-0.345
-192.217	-0.530	0.348	-0.244
-191.202	16.542	0.198	0.155
-190.187	-200.000	-0.034	0.201
-189.173	149.115	0.151	0.203
-188.158	-200.000	0.002	-0.158
-187.144	181.509	-0.039	-0.057
-186.129	-79.545	-0.262	0.088
-185.114	-127.772	-0.125	-0.018
-184.100	580.039	-0.099	0.239
-183.085	-49.922	-0.043	-0.020
-182.071	-111.003	0.280	-0.057
-181.056	638.158	-0.138	-0.345
-180.042	105.429	0.138	0.162
-179.027	-200.000	-0.022	-0.107
-178.012	-100.545	0.237	0.058
-176.998	800.000	-0.039	-0.116
-175.983	-110.722	-0.136	0.028
-174.969	515.322	0.080	-0.186
-173.954	-200.000	-0.000	-0.343
-172.939	542.784	0.063	-0.149
-171.925	189.272	0.182	-0.269
-170.910	195.453	0.108	-0.162
-169.896	-200.000	0.038	-0.290
-168.881	-123.664	0.209	0.033
-167.866	222.266	0.063	0.100
-166.852	800.000	0.034	-0.107
-165.837	-61.389	0.203	0.084
-164.823	-151.723	0.135	0.010
-163.808	800.000	-0.034	-0.101
-162.793	-84.825	0.349	0.108
-161.779	791.540	-0.119	0.324
-160.764	-131.105	0.419	-0.055
-159.750	47.366	-0.226	-0.208
-158.735	-200.000	-0.047	0.261
-157.720	800.000	0.018	0.077
-156.706	50.405	-0.162	-0.151
-155.691	-200.000	-0.069	0.400
-154.677	-200.000	0.024	-0.128
-153.662	-121.129	-0.176	-0.029
-152.647	119.837	-0.068	0.084
-151.633	69.223	0.156	-0.158
-150.618	-200.000	-0.033	0.289
-149.604	-200.000	0.021	0.227
-148.589	-200.000	0.079	-0.479
-147.574	-93.492	0.433	-0.118
-146.560	70.241	-0.185	-0.189
-145.545	-200.000	-0.006	-0.139
-144.531	133.353	-0.105	0.134
-143.516	-94.711	-0.223	0.060
-142.502	-108.275	0.207	0.044
-141.487	800.000	-0.035	0.124
-140.472	-200.000	-0.026	0.221
-139.458	136.349	-0.115	-0.147
-138.443	92.268	0.115	-0.127
-137.429	6.412	0.183	0.134
-136.414	769.742	-0.034	0.091
-135.399	-66.482	0.064	-0.025
-134.385	-156.160	-0.327	-0.020
-133.370	78.755	-0.054	-0.057
-132.356	85.643	0.051	0.056
-131.341	-48.383	0.306	-0.146
-130.326	-200.000	0.005	0.300
-129.312	-200.000	-0.006	0.412
-128.297	215.160	-0.135	0.212
-127.283	-21.727	-0.043	0.026
-126.268	76.061	-0.072	-0.075
-125.253	65.828	0.293	0.292
-124.239	800.000	-0.102	-0.322
-123.224	51.875	-0.263	-0.247
-122.210	-200.000	0.017	-0.109
-121.195	-136.520	-0.195	-0.022
