DTS Sentinel unit serial number:	SN413079Multiplexer serial number:	ORYXHardware model number:	OX4-SRSoftware version number:	ORYX F/W v4.00 Oryx Data Collector v3.7.2.0data status	okinstallation	princeton_trtdifferential loss correction	single-endedforward channel	channel 1reverse channel	N/Adate	2019/09/11time	15:36:11forward acquisition time	60.00reverse acquisition time	0.00gamma	496.2192k internal	0.2291k external	0.2291temperature offset calibration	0.9988default loss term (dB/km)	0.3790temperature slope calibration	1.0000multiplexer offset coefficient	1.0000multiplexer slope coefficient	1.0000fibre end	0.00T internal ref (°C)	42.81T ext. ref 1 (°C)	0.99T ext. ref 2 (°C)	37.10length (m)	temperature (°C)	Stokes	anti-Stokes-747.200	307.034	0.277	0.528
-746.185	-167.074	-0.128	-0.005
-745.171	-35.223	0.154	-0.086
-744.156	462.410	-0.151	0.346
-743.142	429.751	0.173	-0.383
-742.127	-5.081	0.176	-0.124
-741.112	-11.431	-0.260	0.175
-740.098	-133.711	-0.158	0.020
-739.083	260.370	-0.114	-0.202
-738.069	-170.374	-0.140	0.005
-737.054	-86.021	-0.063	-0.020
-736.039	-73.162	-0.227	-0.085
-735.025	-23.588	0.087	0.053
-734.010	-117.254	-0.134	-0.025
-732.996	235.364	-0.127	-0.215
-731.981	-8.647	0.088	-0.060
-730.966	479.741	0.180	-0.419
-729.952	-200.000	0.006	-0.158
-728.937	129.290	-0.093	0.122
-727.923	-16.133	-0.239	-0.155
-726.908	-137.005	0.096	0.011
-725.894	-153.063	-0.259	0.019
-724.879	-161.187	0.302	0.016
-723.864	-111.083	-0.171	0.036
-722.850	-200.000	-0.007	0.245
-721.835	34.549	-0.158	0.141
-720.821	-107.822	-0.341	0.076
-719.806	772.077	0.044	0.124
-718.791	-19.935	0.174	0.110
-717.777	-149.414	0.155	0.013
-716.762	-68.984	-0.248	-0.098
-715.748	8.567	0.168	0.129
-714.733	171.585	0.176	0.258
-713.718	-130.886	-0.038	0.005
-712.704	758.341	0.053	-0.148
-711.689	-73.526	0.038	0.014
-710.675	-87.327	0.119	-0.037
-709.660	-107.693	-0.199	-0.044
-708.645	89.243	-0.182	-0.207
-707.631	375.638	0.191	-0.399
-706.616	3.916	-0.078	-0.058
-705.602	-136.420	-0.292	-0.035
-704.587	800.000	-0.001	0.003
-703.572	-38.351	0.331	-0.179
-702.558	133.737	0.196	-0.260
-701.543	-17.334	-0.209	-0.135
-700.529	76.579	0.070	-0.076
-699.514	235.265	0.258	-0.435
-698.499	-200.000	0.026	-0.244
-697.485	-143.058	0.154	0.015
-696.470	596.930	0.041	0.103
-695.456	-200.000	-0.011	0.354
-694.441	-162.804	-0.304	-0.015
-693.426	-61.705	-0.172	-0.074
-692.412	126.299	0.277	-0.358
-691.397	-200.000	-0.029	0.155
-690.383	158.372	0.120	0.170
-689.368	16.889	-0.123	-0.100
-688.354	-8.883	0.228	0.156
-687.339	440.716	0.112	-0.250
-686.324	130.055	-0.093	-0.122
-685.310	134.806	0.158	-0.209
-684.295	33.619	-0.214	0.190
-683.281	-80.976	0.291	-0.099
-682.266	448.934	-0.101	-0.229
-681.251	68.510	0.168	0.176
-680.237	145.605	-0.152	0.208
-679.222	-184.249	-0.238	-0.004
-678.208	191.744	-0.134	0.206
-677.193	-79.493	0.064	-0.022
-676.178	197.999	0.218	-0.341
-675.164	-109.078	-0.096	-0.021
-674.149	17.724	-0.066	-0.054
-673.135	76.556	0.249	0.270
-672.120	-94.502	0.166	0.046
-671.105	-200.000	0.002	-0.149
-670.091	-124.169	0.170	-0.027
-669.076	-200.000	0.010	-0.119
-668.062	-132.993	-0.233	-0.030
-667.047	71.129	0.109	0.115
-666.032	-55.347	0.194	-0.089
-665.018	22.430	0.153	0.128
-664.003	-187.572	0.128	0.002
-662.989	33.019	-0.098	0.086
-661.974	-67.112	0.099	0.040
-660.959	-146.339	0.174	-0.016
-659.945	-70.330	-0.199	-0.077
-658.930	441.128	-0.103	0.229
-657.916	2.766	0.069	-0.051
-656.901	-200.000	-0.011	0.136
-655.886	277.148	-0.044	0.081
-654.872	352.036	-0.084	-0.169
-653.857	-168.972	-0.207	-0.008
-652.843	287.650	-0.137	0.253
-651.828	-200.000	0.009	-0.156
-650.814	-159.549	0.293	-0.017
-649.799	-35.742	-0.324	0.179
-648.784	-37.571	-0.327	0.178
-647.770	-131.185	0.241	-0.033
-646.755	800.000	0.075	0.211
-645.741	-3.680	0.061	0.044
-644.726	-200.000	-0.067	-0.335
-643.711	-8.763	-0.357	0.244
-642.697	-6.797	-0.243	-0.168
-641.682	-142.461	-0.222	-0.022
-640.668	-39.039	-0.022	0.012
-639.653	-102.080	0.082	0.020
-638.638	800.000	-0.098	-0.313
-637.624	-26.751	0.349	-0.208
-636.609	800.000	0.043	-0.132
-635.595	188.515	0.193	0.294
-634.580	-117.554	0.313	-0.058
-633.565	-131.628	-0.131	0.018
-632.551	98.362	0.109	0.128
-631.536	347.568	-0.054	-0.109
-630.522	58.009	0.256	-0.255
-629.507	-22.960	0.333	0.205
-628.492	25.187	0.115	-0.097
-627.478	122.704	0.229	0.292
-626.463	300.178	-0.215	-0.404
-625.449	-95.075	-0.241	0.066
-624.434	-102.845	-0.123	0.030
-623.419	-200.000	0.026	-0.148
-622.405	77.272	-0.206	0.223
-621.390	629.874	0.101	0.260
-620.376	-27.931	-0.173	0.102
-619.361	-1.329	0.140	-0.100
-618.346	270.285	-0.144	-0.258
-617.332	-6.792	-0.108	-0.075
-616.317	291.601	0.113	-0.209
-615.303	14.442	-0.257	0.205
-614.288	-158.640	0.524	-0.031
-613.273	800.000	-0.012	0.043
-612.259	-200.000	-0.012	-0.119
-611.244	-79.606	0.240	-0.082
-610.230	408.927	-0.089	-0.193
-609.215	-200.000	-0.003	-0.110
-608.201	67.515	0.011	0.011
-607.186	-74.256	0.072	0.026
-606.171	-29.347	-0.342	-0.200
-605.157	-5.825	0.135	0.094
-604.142	6.524	0.409	0.310
-603.128	-85.451	-0.174	-0.055
-602.113	800.000	0.028	0.122
-601.098	52.540	-0.267	0.260
-600.084	688.245	-0.109	0.291
-599.069	-11.429	0.260	0.174
-598.055	-200.000	0.005	-0.121
-597.040	-136.692	0.418	0.049
-596.025	-126.677	0.444	0.067
-595.011	-200.000	-0.002	-0.350
-593.996	800.000	0.090	-0.307
-592.982	800.000	-0.078	-0.295
-591.967	123.880	-0.116	-0.148
-590.952	325.035	0.056	-0.109
-589.938	-59.351	0.482	-0.211
-588.923	109.106	0.205	0.250
-587.909	-1.547	-0.347	0.249
-586.894	-75.131	-0.083	0.030
-585.879	686.633	0.114	0.304
-584.865	56.576	0.195	-0.193
-583.850	800.000	-0.095	0.272
-582.836	-126.694	0.213	0.032
-581.821	800.000	-0.057	0.189
-580.806	768.760	0.138	0.381
-579.792	-117.352	0.377	0.070
-578.777	72.861	-0.231	0.245
-577.763	-99.610	0.133	0.034
-576.748	89.309	-0.084	-0.095
-575.733	-82.979	-0.066	0.022
-574.719	25.149	-0.142	0.120
-573.704	38.787	-0.139	0.126
-572.690	-2.054	0.121	-0.086
-571.675	-98.999	-0.207	-0.053
-570.661	33.107	-0.163	-0.144
-569.646	800.000	0.118	-0.508
-568.631	-200.000	-0.052	-0.303
-567.617	-89.812	-0.093	0.028
-566.602	-42.993	-0.097	0.050
-565.588	-60.628	-0.050	0.021
-564.573	800.000	0.051	-0.159
-563.558	-86.373	-0.125	0.039
-562.544	-52.330	-0.168	-0.079
-561.529	-96.989	-0.067	0.018
-560.515	-180.863	0.052	-0.001
-559.500	-115.781	0.017	-0.003
-558.485	-20.847	-0.354	0.220
-557.471	-67.101	-0.419	-0.168
-556.456	-46.894	0.261	0.130
-555.442	800.000	-0.042	-0.134
-554.427	-200.000	-0.005	0.168
-553.412	41.980	-0.253	-0.234
-552.398	-73.628	-0.249	0.092
-551.383	384.426	-0.064	-0.133
-550.369	-70.344	-0.149	-0.057
-549.354	-57.994	0.030	-0.013
-548.339	435.558	-0.102	0.226
-547.325	309.258	0.028	-0.053
-546.310	-200.000	0.044	-0.369
-545.296	-200.000	0.048	0.296
-544.281	201.427	0.036	-0.056
-543.266	111.606	0.307	0.377
-542.252	109.482	0.122	-0.149
-541.237	800.000	-0.077	0.291
-540.223	194.696	-0.014	0.021
-539.208	64.608	0.280	0.287
-538.193	-143.895	0.336	0.032
-537.179	-54.876	-0.245	-0.112
-536.164	3.407	-0.366	0.271
-535.150	133.965	0.164	0.215
-534.135	-200.000	0.019	0.112
-533.121	661.349	0.031	0.082
-532.106	-17.067	0.117	-0.075
-531.091	-58.356	-0.252	-0.111
-530.077	-175.686	-0.513	0.014
-529.062	53.783	-0.054	0.053
-528.048	-200.000	0.032	0.526
-527.033	-119.948	0.113	0.020
-526.018	-120.707	0.191	-0.033
-525.004	-29.466	-0.078	0.045
-523.989	139.440	0.286	0.382
-522.975	448.571	0.081	-0.181
-521.960	-102.579	-0.157	0.038
-520.945	-139.670	0.247	0.027
-519.931	256.925	0.092	-0.160
-518.916	-129.390	-0.081	-0.011
-517.902	-72.444	0.201	-0.075
-516.887	-10.204	-0.334	0.225
-515.872	800.000	0.043	0.178
-514.858	-119.174	-0.192	0.034
-513.843	-200.000	0.029	-0.252
-512.829	-0.155	-0.293	-0.211
-511.814	130.955	-0.294	-0.382
-510.799	-200.000	-0.075	-0.423
-509.785	-27.003	-0.130	-0.077
-508.770	-164.138	-0.363	0.017
-507.756	-71.761	0.423	-0.160
-506.741	-91.481	0.064	-0.019
-505.726	58.348	-0.230	0.229
-504.712	-13.462	0.197	-0.130
-503.697	60.576	0.119	-0.120
-502.683	69.834	0.116	0.121
-501.668	-149.548	0.090	0.007
-500.653	-84.742	-0.201	-0.064
-499.639	87.660	-0.200	-0.225
-498.624	-200.000	0.017	-0.135
-497.610	12.428	0.275	-0.215
-496.595	-181.901	-0.177	-0.003
-495.581	-200.000	0.035	0.186
-494.566	-200.000	-0.000	-0.199
-493.551	-141.308	0.149	0.015
-492.537	788.666	-0.035	-0.097
-491.522	-21.900	-0.216	0.133
-490.508	-42.724	0.208	-0.107
-489.493	481.584	0.092	0.211
-488.478	148.888	-0.188	0.257
-487.464	-142.430	-0.086	0.009
-486.449	450.144	-0.070	-0.156
-485.435	-60.845	0.085	-0.037
-484.420	-92.979	0.091	0.026
-483.405	-164.232	-0.260	0.012
-482.391	150.328	0.271	0.373
-481.376	51.811	0.134	-0.129
-480.362	-93.722	-0.186	0.052
-479.347	178.520	0.096	-0.142
-478.332	-148.847	0.284	0.023
-477.318	800.000	-0.046	-0.167
-476.303	-9.401	-0.154	0.105
-475.289	-75.000	0.265	-0.096
-474.274	83.083	0.072	0.079
-473.259	163.057	-0.217	-0.308
-472.245	800.000	0.094	0.270
-471.230	-69.561	0.180	0.070
-470.216	-153.058	-0.125	0.009
-469.201	226.678	-0.155	0.256
-468.186	-200.000	-0.034	-0.226
-467.172	6.712	0.170	-0.128
-466.157	115.266	-0.066	0.081
-465.143	-142.626	-0.190	0.019
-464.128	477.675	-0.045	-0.104
-463.113	-93.954	-0.184	0.051
-462.099	-94.211	0.126	-0.035
-461.084	115.373	0.226	0.280
-460.070	55.512	0.197	-0.193
-459.055	39.959	0.159	-0.145
-458.040	-9.554	-0.288	-0.194
-457.026	168.743	-0.232	-0.335
-456.011	555.537	-0.136	-0.332
-454.997	800.000	0.024	0.085
-453.982	-16.018	-0.054	-0.035
-452.968	580.394	0.111	-0.274
-451.953	-28.885	0.172	-0.100
-450.938	-30.544	0.164	-0.094
-449.924	326.371	-0.024	-0.046
-448.909	800.000	-0.071	0.226
-447.895	137.678	0.115	0.153
-446.880	25.184	-0.143	0.120
-445.865	-43.706	-0.110	0.056
-444.851	59.964	-0.237	-0.237
-443.836	-15.687	0.314	0.203
-442.822	-188.849	0.105	0.001
-441.807	34.403	-0.034	-0.030
-440.792	800.000	-0.024	-0.105
-439.778	-70.615	0.153	-0.058
-438.763	119.742	-0.175	-0.219
-437.749	-30.458	-0.232	-0.133
-436.734	-200.000	-0.061	-0.415
-435.719	-172.608	-0.340	-0.011
-434.705	543.206	-0.091	-0.219
-433.690	43.339	-0.226	-0.209
-432.676	-84.378	-0.191	-0.061
-431.661	171.395	-0.059	-0.086
-430.646	-77.145	0.159	-0.056
-429.632	-200.000	0.034	0.167
-428.617	-200.000	-0.052	0.315
-427.603	-171.318	-0.057	-0.002
-426.588	-10.989	0.380	-0.254
-425.573	56.122	-0.155	0.152
-424.559	-200.000	0.003	0.159
-423.544	-158.914	0.051	0.003
-422.530	-200.000	-0.038	-0.234
-421.515	-109.062	0.183	-0.039
-420.500	-131.441	0.147	-0.020
-419.486	-72.498	0.073	-0.027
-418.471	203.330	0.128	-0.199
-417.457	-200.000	-0.032	0.281
-416.442	-200.000	0.030	-0.353
-415.428	-26.411	-0.279	-0.165
-414.413	800.000	-0.071	0.278
-413.398	62.272	0.081	0.082
-412.384	800.000	-0.071	-0.234
-411.369	-111.442	0.325	-0.067
-410.355	-200.000	-0.008	-0.103
-409.340	5.781	0.179	-0.134
-408.325	-171.750	-0.030	0.001
-407.311	-105.612	-0.124	0.028
-406.296	-76.061	0.153	-0.055
-405.282	800.000	-0.097	-0.288
-404.267	-200.000	0.009	0.162
-403.252	-91.447	0.057	-0.016
-402.238	29.775	0.210	-0.181
-401.223	-68.147	-0.264	-0.104
-400.209	6.592	0.128	-0.096
-399.194	232.328	-0.048	0.080
-398.179	-42.847	-0.201	-0.103
-397.165	157.183	0.094	0.131
-396.150	-60.724	0.177	0.076
-395.136	59.021	-0.136	-0.135
-394.121	-61.960	0.044	0.018
-393.106	32.545	-0.099	-0.086
-392.092	-157.342	-0.435	0.026
-391.077	655.812	-0.027	-0.071
-390.063	36.134	-0.244	0.217
-389.048	-130.538	0.261	0.036
-388.033	-200.000	-0.030	-0.194
-387.019	-200.000	-0.080	-0.392
-386.004	-2.659	0.202	-0.143
-384.990	10.219	-0.220	-0.169
-383.975	-88.454	0.023	0.007
-382.960	-49.996	-0.084	0.040
-381.946	166.228	0.193	-0.276
-380.931	-0.295	-0.105	-0.075
-379.917	21.892	-0.146	0.120
-378.902	-65.780	0.162	0.065
-377.888	-110.243	0.130	0.027
-376.873	-11.840	-0.156	0.103
-375.858	800.000	-0.066	0.192
-374.844	40.740	-0.102	0.093
-373.829	-200.000	0.002	0.057
-372.815	93.756	0.059	-0.067
-371.800	-10.391	0.238	0.159
-370.785	-99.387	0.168	0.043
-369.771	800.000	-0.043	-0.130
-368.756	-200.000	-0.012	-0.062
-367.742	-115.706	0.035	-0.007
-366.727	-200.000	-0.055	-0.268
-365.712	-200.000	0.019	-0.218
-364.698	175.589	0.178	-0.261
-363.683	-17.944	0.386	-0.244
-362.669	-31.152	0.291	-0.166
-361.654	-134.410	-0.404	0.050
-360.639	205.041	0.085	0.133
-359.625	-160.256	0.105	0.006
-358.610	-200.000	-0.015	0.353
-357.596	-161.270	-0.180	0.009
-356.581	-125.752	0.179	-0.027
-355.566	-87.877	0.041	-0.012
-354.552	296.949	0.169	0.313
-353.537	800.000	-0.018	0.074
-352.523	800.000	-0.049	0.164
-351.508	-200.000	0.010	-0.156
-350.493	-200.000	0.006	-0.220
-349.479	-159.340	-0.169	-0.010
-348.464	146.233	-0.126	-0.171
-347.450	-14.610	-0.237	0.154
-346.435	-64.611	0.263	-0.108
-345.420	78.470	-0.048	0.052
-344.406	154.576	0.029	-0.040
-343.391	-112.420	0.043	0.009
-342.377	128.631	0.109	0.140
-341.362	-77.162	-0.046	0.016
-340.348	-100.468	-0.269	-0.067
-339.333	-200.000	0.031	0.321
-338.318	-67.834	0.038	-0.015
-337.304	-67.554	-0.078	0.031
-336.289	-200.000	0.021	-0.097
-335.275	-155.629	0.096	0.006
-334.260	-14.175	0.254	0.165
-333.245	334.684	-0.127	0.248
-332.231	-36.080	-0.258	-0.140
-331.216	-200.000	-0.003	0.382
-330.202	-103.573	0.132	-0.031
-329.187	201.785	-0.103	0.160
-328.172	36.078	-0.218	0.193
-327.158	-26.065	-0.174	0.103
-326.143	-12.830	-0.172	-0.113
-325.129	221.017	0.218	-0.353
-324.114	199.443	0.248	-0.383
-323.099	211.475	0.090	-0.143
-322.085	48.499	0.189	0.179
-321.070	-200.000	0.009	0.103
-320.056	800.000	0.095	0.267
-319.041	800.000	-0.050	-0.217
-318.026	64.001	-0.093	0.094
-317.012	-172.109	-0.403	-0.013
-315.997	106.815	-0.209	0.250
-314.983	-200.000	0.066	0.317
-313.968	452.899	-0.188	0.420
-312.953	-17.346	-0.179	0.114
-311.939	-200.000	0.030	-0.227
-310.924	51.398	0.188	0.180
-309.910	-200.000	0.026	-0.192
-308.895	-66.706	0.187	0.074
-307.880	-137.276	-0.079	-0.009
-306.866	56.572	0.187	-0.183
-305.851	290.204	0.029	0.052
-304.837	-135.556	-0.315	-0.038
-303.822	-107.182	0.135	-0.030
-302.807	183.432	0.240	-0.356
-301.793	-200.000	0.034	-0.171
-300.778	800.000	-0.073	0.280
-299.764	-132.891	0.443	-0.057
-298.749	126.738	0.106	-0.135
-297.735	-60.254	-0.190	0.082
-296.720	-66.349	-0.206	-0.083
-295.705	258.327	0.202	0.350
-294.691	-182.405	0.269	0.005
-293.676	396.740	-0.066	0.138
-292.662	32.236	-0.165	-0.143
-291.647	-10.410	0.167	0.111
-290.632	636.918	-0.121	0.310
-289.618	800.000	0.094	-0.352
-288.603	-65.310	0.365	0.148
-287.589	-141.079	0.393	0.040
-286.574	42.823	-0.067	0.062
-285.559	-29.306	0.137	0.079
-284.545	131.952	0.103	-0.133
-283.530	-16.866	0.123	0.078
-282.516	238.696	-0.097	0.162
-281.501	-65.213	0.138	-0.056
-280.486	-1.073	-0.137	-0.098
-279.472	-45.409	0.013	0.007
-278.457	12.485	-0.216	0.167
-277.443	-200.000	0.009	0.060
-276.428	800.000	-0.038	0.136
-275.413	-25.683	0.136	0.081
-274.399	-200.000	0.031	0.143
-273.384	-121.590	0.156	0.026
-272.370	346.775	0.178	0.352
-271.355	173.100	-0.094	0.136
-270.340	-200.000	0.038	0.224
-269.326	-200.000	-0.001	-0.066
-268.311	800.000	0.041	-0.136
-267.297	109.704	0.061	-0.073
-266.282	-129.250	0.047	0.007
-265.267	-3.767	-0.194	0.136
-264.253	800.000	-0.110	-0.313
-263.238	31.242	-0.145	-0.125
-262.224	-27.665	-0.112	0.065
-261.209	-148.451	-0.329	0.027
-260.195	800.000	-0.066	0.208
-259.180	-200.000	-0.033	0.170
-258.165	133.630	0.031	-0.040
-257.151	-121.019	0.250	0.042
-256.136	-76.174	-0.118	0.042
-255.122	-102.252	-0.302	-0.073
-254.107	679.936	0.132	0.346
-253.092	327.780	-0.110	0.212
-252.078	-71.631	0.401	0.150
-251.063	-200.000	0.049	-0.236
-250.049	7.625	0.131	0.098
-249.034	-25.158	-0.179	0.107
-248.019	-200.000	-0.055	-0.367
-247.005	139.394	0.251	0.332
-245.990	-200.000	-0.002	0.215
-244.976	-166.299	0.234	0.010
-243.961	187.625	0.163	0.245
-242.946	77.832	0.127	0.135
-241.932	34.537	-0.042	0.037
-240.917	-77.842	-0.188	0.065
-239.903	5.423	-0.179	0.133
-238.888	-133.197	-0.240	-0.030
-237.873	509.345	0.156	-0.365
-236.859	164.159	0.102	-0.144
-235.844	181.800	-0.254	-0.376
-234.830	-200.000	0.011	0.218
-233.815	65.107	0.092	-0.094
-232.800	-82.078	0.124	0.041
-231.786	-200.000	0.039	0.196
-230.771	752.759	-0.048	0.131
-229.757	-101.731	0.364	0.088
-228.742	-87.102	0.432	0.132
-227.727	-151.369	0.230	0.017
-226.713	800.000	-0.132	-0.466
-225.698	-200.000	-0.018	-0.087
-224.684	85.946	0.056	-0.061
-223.669	6.558	-0.201	-0.150
-222.655	-135.975	0.141	0.017
-221.640	-126.591	-0.300	-0.045
-220.625	48.425	0.111	0.104
-219.611	201.154	-0.099	-0.153
-218.596	-107.911	0.417	-0.091
-217.582	-58.540	0.116	0.050
-216.567	-26.178	0.030	0.017
-215.552	304.587	-0.178	0.331
-214.538	-200.000	0.022	-0.135
-213.523	-200.000	0.357	0.001
-212.509	800.000	-0.080	0.303
-211.494	-2.179	0.183	0.129
-210.479	-200.000	-0.018	0.148
-209.465	-68.315	-0.086	-0.034
-208.450	-84.365	-0.508	0.161
-207.436	800.000	-0.029	0.116
-206.421	42.294	0.065	-0.059
-205.406	-38.534	-0.134	-0.071
-204.392	89.772	-0.316	-0.353
-203.377	-28.384	-0.278	-0.161
-202.363	-67.125	0.107	-0.042
-201.348	-70.268	0.112	-0.043
-200.333	-59.924	-0.208	-0.089
-199.319	267.272	-0.094	-0.164
-198.304	4.456	0.325	0.239
-197.290	-118.536	-0.049	-0.009
-196.275	45.180	-0.051	0.047
-195.260	289.147	0.177	0.321
-194.246	233.942	0.203	0.335
-193.231	-58.019	-0.304	-0.133
-192.217	11.646	-0.164	-0.126
-191.202	-40.143	-0.138	-0.072
-190.187	-63.119	0.056	-0.023
-189.173	189.986	0.066	-0.100
-188.158	-9.774	0.201	-0.134
-187.144	800.000	-0.026	0.078
-186.129	298.130	-0.137	0.252
-185.114	800.000	-0.064	-0.209
-184.100	-200.000	0.060	0.285
-183.085	-184.119	-0.207	-0.003
-182.071	20.071	-0.476	-0.384
-181.056	-200.000	0.078	-0.359
-180.042	68.606	0.113	-0.117
-179.027	800.000	0.023	-0.067
-178.012	86.069	0.153	-0.169
-176.998	-132.013	-0.233	0.030
-175.983	-152.500	0.254	0.018
-174.969	413.301	-0.065	0.138
-173.954	-200.000	0.007	0.321
-172.939	30.176	0.202	-0.173
-171.925	-72.761	-0.210	0.078
-170.910	-0.977	0.235	-0.166
-169.896	-37.161	-0.070	0.038
-168.881	800.000	-0.041	-0.120
-167.866	-94.833	-0.190	-0.051
-166.852	800.000	0.116	0.360
-165.837	722.496	-0.122	0.324
-164.823	-130.381	0.179	0.024
-163.808	94.884	-0.093	0.106
-162.793	-200.000	0.020	0.089
-161.779	396.120	-0.088	-0.184
-160.764	33.111	-0.170	-0.147
-159.750	164.480	0.099	0.139
-158.735	-85.719	-0.071	0.022
-157.720	800.000	0.081	-0.278
-156.706	-94.693	-0.667	0.181
-155.691	-194.398	-0.131	-0.001
-154.677	219.154	0.042	-0.068
-153.662	-200.000	0.003	0.229
-152.647	-42.148	0.319	-0.163
-151.633	-200.000	0.042	0.257
-150.618	17.254	0.208	0.165
-149.604	-200.000	-0.035	-0.246
-148.589	-87.622	0.293	-0.088
-147.574	218.002	-0.257	-0.410
-146.560	-159.365	0.303	-0.017
-145.545	-62.824	-0.067	0.028
-144.531	16.211	0.122	0.096
-143.516	-165.214	0.168	0.007
-142.502	-93.628	0.138	0.038
-141.487	-148.617	-0.060	-0.005
-140.472	-200.000	-0.033	0.168
-139.458	-83.208	0.178	-0.057
-138.443	-107.097	-0.063	-0.014
-137.429	-200.000	0.027	0.363
-136.414	-200.000	-0.029	0.382
-135.399	10.558	-0.156	0.119
-134.385	126.070	0.080	-0.101
-133.370	-111.500	-0.238	-0.048
-132.356	458.540	0.098	-0.218
-131.341	-200.000	-0.008	-0.115
-130.326	4.731	-0.193	0.142
-129.312	-5.486	-0.343	-0.235
-128.297	329.956	-0.020	0.039
-127.283	800.000	-0.048	0.160
-126.268	-59.542	-0.375	0.161
-125.253	-18.770	0.087	0.054
-124.239	-32.242	0.270	-0.151
-123.224	54.886	-0.176	-0.170
-122.210	121.852	-0.197	0.245
-121.195	-128.549	-0.138	-0.020
