DTS Sentinel unit serial number:	SN413079Multiplexer serial number:	ORYXHardware model number:	OX4-SRSoftware version number:	ORYX F/W v4.00 Oryx Data Collector v3.7.2.0data status	okinstallation	princeton_trtdifferential loss correction	single-endedforward channel	channel 1reverse channel	N/Adate	2019/09/11time	01:20:11forward acquisition time	60.00reverse acquisition time	0.00gamma	496.2192k internal	0.2331k external	0.2331temperature offset calibration	0.9929default loss term (dB/km)	0.3790temperature slope calibration	1.0000multiplexer offset coefficient	1.0000multiplexer slope coefficient	1.0000fibre end	0.00T internal ref (°C)	29.12T ext. ref 1 (°C)	-0.30T ext. ref 2 (°C)	23.22length (m)	temperature (°C)	Stokes	anti-Stokes-747.200	800.000	0.010	0.041
-746.185	204.550	-0.251	0.391
-745.171	-200.000	0.057	-0.290
-744.156	-58.180	-0.155	-0.068
-743.142	147.438	-0.112	0.152
-742.127	-169.325	-0.136	-0.005
-741.112	-184.770	-0.318	0.005
-740.098	-200.000	-0.021	-0.125
-739.083	56.904	-0.158	-0.155
-738.069	35.663	-0.234	0.207
-737.054	800.000	0.072	-0.221
-736.039	149.848	0.103	-0.140
-735.025	-154.774	0.242	-0.016
-734.010	27.058	-0.102	-0.086
-732.996	29.693	0.125	-0.107
-731.981	-200.000	0.010	0.262
-730.966	-33.144	0.266	-0.148
-729.952	-18.559	-0.409	0.257
-728.937	176.559	-0.087	-0.127
-727.923	181.015	-0.285	0.421
-726.908	-200.000	0.052	0.243
-725.894	-160.797	0.224	0.012
-724.879	-126.495	-0.253	0.038
-723.864	-178.317	0.304	0.007
-722.850	-20.982	-0.041	0.025
-721.835	800.000	-0.131	-0.458
-720.821	-200.000	0.009	0.126
-719.806	177.780	-0.101	0.148
-718.791	242.001	0.083	-0.139
-717.777	-27.038	-0.178	-0.104
-716.762	45.802	-0.280	-0.260
-715.748	-49.525	0.093	-0.044
-714.733	-29.429	-0.130	-0.075
-713.718	-137.608	-0.311	0.035
-712.704	-2.278	0.030	0.021
-711.689	51.836	0.096	-0.092
-710.675	44.419	-0.245	-0.226
-709.660	330.007	-0.112	0.217
-708.645	-130.012	0.416	-0.057
-707.631	-68.711	-0.192	-0.075
-706.616	-146.649	0.255	0.022
-705.602	800.000	-0.062	0.261
-704.587	800.000	0.110	-0.440
-703.572	-180.502	0.409	0.008
-702.558	-82.389	-0.238	0.078
-701.543	220.669	-0.155	-0.250
-700.529	243.270	-0.228	0.384
-699.514	279.231	-0.059	-0.105
-698.499	-200.000	-0.060	-0.329
-697.485	-71.309	-0.377	0.142
-696.470	-200.000	-0.001	-0.059
-695.456	142.904	0.037	0.049
-694.441	-79.681	0.157	-0.053
-693.426	-164.182	0.078	0.004
-692.412	363.158	-0.076	0.154
-691.397	211.755	0.197	0.312
-690.383	218.344	-0.118	-0.189
-689.368	-54.743	0.094	-0.042
-688.354	-147.914	-0.201	0.017
-687.339	-39.435	-0.060	0.032
-686.324	-85.126	0.268	-0.084
-685.310	331.262	0.127	-0.247
-684.295	5.663	-0.119	-0.088
-683.281	3.190	-0.257	-0.188
-682.266	-200.000	-0.016	0.133
-681.251	-200.000	0.042	0.286
-680.237	-4.610	-0.217	0.150
-679.222	-200.000	-0.007	0.160
-678.208	31.837	-0.183	-0.158
-677.193	440.135	0.126	-0.276
-676.178	-200.000	0.025	0.182
-675.164	52.939	-0.205	-0.197
-674.149	-200.000	-0.033	-0.229
-673.135	-200.000	-0.008	0.128
-672.120	-116.733	0.113	-0.021
-671.105	59.968	0.157	-0.156
-670.091	587.653	-0.132	0.326
-669.076	528.367	-0.102	0.241
-668.062	-103.280	-0.088	0.021
-667.047	197.690	0.141	0.215
-666.032	593.648	0.165	0.410
-665.018	-121.660	0.191	-0.032
-664.003	77.950	-0.063	0.068
-662.989	85.183	0.088	-0.097
-661.974	56.340	-0.196	0.191
-660.959	219.711	-0.264	0.424
-659.945	112.751	-0.225	-0.274
-658.930	-125.793	0.322	0.049
-657.916	-16.667	0.048	0.030
-656.901	-200.000	-0.012	0.175
-655.886	-64.883	-0.436	0.177
-654.872	52.338	-0.034	0.032
-653.857	168.121	0.071	-0.101
-652.843	136.991	0.122	-0.160
-651.828	135.092	-0.177	0.230
-650.814	151.109	0.020	-0.027
-649.799	-200.000	0.264	0.000
-648.784	226.415	0.126	0.206
-647.770	-200.000	0.050	-0.296
-646.755	-200.000	-0.128	0.711
-645.741	530.715	0.066	0.156
-644.726	-37.935	0.194	0.103
-643.711	-46.328	0.112	-0.055
-642.697	-117.951	-0.285	0.051
-641.682	-200.000	-0.024	-0.217
-640.668	787.830	-0.090	-0.248
-639.653	239.427	-0.063	-0.105
-638.638	800.000	0.053	0.204
-637.624	-138.002	-0.437	-0.049
-636.609	-4.417	0.139	0.096
-635.595	-40.989	-0.441	-0.229
-634.580	502.932	0.061	0.140
-633.565	106.067	-0.037	-0.043
-632.551	-168.166	-0.623	0.024
-631.536	-120.913	-0.168	-0.028
-630.522	-200.000	-0.067	0.412
-629.507	27.713	0.256	-0.216
-628.492	-200.000	-0.019	-0.175
-627.478	-6.892	0.247	0.168
-626.463	-13.939	-0.308	-0.199
-625.449	-168.084	0.189	-0.007
-624.434	284.399	0.114	0.205
-623.419	400.259	0.132	-0.276
-622.405	800.000	-0.114	0.333
-621.390	46.205	-0.083	0.077
-620.376	-200.000	0.010	-0.195
-619.361	-158.319	0.164	0.010
-618.346	800.000	0.081	0.267
-617.332	-200.000	0.006	0.051
-616.317	-120.829	-0.138	-0.023
-615.303	-72.607	0.161	0.060
-614.288	-200.000	0.004	0.424
-613.273	153.121	0.129	0.177
-612.259	-69.965	-0.082	-0.031
-611.244	-200.000	-0.005	-0.054
-610.230	16.368	-0.106	-0.083
-609.215	399.416	0.079	-0.166
-608.201	237.494	-0.046	-0.076
-607.186	8.381	-0.121	-0.091
-606.171	800.000	-0.048	0.170
-605.157	-150.821	0.250	-0.019
-604.142	-131.602	0.279	-0.037
-603.128	-200.000	-0.041	0.185
-602.113	62.864	0.192	-0.192
-601.098	-116.201	0.254	-0.047
-600.084	124.067	-0.155	0.195
-599.069	176.535	0.164	-0.238
-598.055	-126.907	0.182	0.027
-597.040	-81.405	-0.061	0.020
-596.025	13.878	-0.175	-0.136
-595.011	-200.000	-0.003	0.068
-593.996	132.698	-0.017	-0.022
-592.982	43.726	0.223	-0.204
-591.967	-200.000	-0.046	-0.351
-590.952	374.323	-0.040	0.082
-589.938	87.468	-0.187	-0.207
-588.923	-200.000	-0.027	0.127
-587.909	-32.448	-0.114	0.063
-586.894	-4.897	-0.120	-0.083
-585.879	-53.329	0.398	-0.182
-584.865	-70.326	-0.159	-0.060
-583.850	28.293	0.247	0.208
-582.836	-89.721	-0.156	0.046
-581.821	-125.691	-0.170	-0.026
-580.806	-147.430	0.168	-0.014
-579.792	800.000	-0.159	-0.518
-578.777	800.000	0.064	-0.207
-577.763	-104.783	0.171	0.039
-576.748	98.169	0.195	0.225
-575.733	64.571	-0.205	-0.207
-574.719	-200.000	-0.031	-0.391
-573.704	-44.789	-0.072	-0.036
-572.690	85.224	0.111	0.121
-571.675	-15.437	0.235	-0.150
-570.661	95.853	-0.053	0.061
-569.646	-200.000	-0.015	0.273
-568.631	-182.639	0.215	0.004
-567.617	-200.000	-0.027	-0.183
-566.602	-200.000	-0.024	-0.197
-565.588	22.253	-0.150	-0.123
-564.573	-200.000	0.005	0.098
-563.558	-25.751	0.284	-0.168
-562.544	383.879	0.046	0.094
-561.529	-127.704	-0.216	-0.031
-560.515	-200.000	-0.026	0.190
-559.500	800.000	0.056	0.235
-558.485	-12.599	-0.097	0.063
-557.471	-134.287	0.218	0.027
-556.456	470.549	0.060	0.135
-555.442	800.000	0.006	0.022
-554.427	365.126	-0.043	-0.086
-553.412	800.000	-0.036	-0.139
-552.398	262.746	-0.156	0.270
-551.383	-100.761	-0.325	-0.080
-550.369	112.116	0.212	-0.256
-549.354	-61.770	-0.285	-0.119
-548.339	266.278	0.030	0.052
-547.325	-55.126	-0.062	-0.028
-546.310	-19.567	-0.208	0.128
-545.296	-66.129	-0.159	0.063
-544.281	86.830	-0.126	-0.139
-543.266	124.509	-0.160	-0.202
-542.252	145.419	0.079	-0.106
-541.237	-119.770	-0.284	-0.049
-540.223	-106.061	0.162	-0.036
-539.208	800.000	-0.120	-0.467
-538.193	-106.758	0.251	0.056
-537.179	800.000	0.079	0.241
-536.164	-32.903	-0.009	-0.005
-535.150	83.255	-0.009	0.010
-534.135	652.263	0.058	-0.149
-533.121	-200.000	0.013	-0.064
-532.106	42.610	-0.188	-0.171
-531.091	-61.650	-0.177	-0.074
-530.077	-49.194	0.208	0.099
-529.062	-71.772	0.122	0.045
-528.048	96.651	-0.140	0.160
-527.033	388.813	-0.185	0.382
-526.018	219.829	-0.137	-0.219
-525.004	171.312	0.084	-0.120
-523.989	-200.000	0.059	-0.315
-522.975	53.329	-0.326	-0.311
-521.960	-114.361	0.473	0.091
-520.945	-200.000	0.029	-0.190
-519.931	43.985	0.074	-0.067
-518.916	109.389	-0.097	0.116
-517.902	28.891	-0.109	0.092
-516.887	34.003	-0.194	-0.168
-515.872	-200.000	-0.030	0.171
-514.858	18.962	-0.089	0.071
-513.843	798.391	-0.070	-0.193
-512.829	-41.171	0.210	0.108
-511.814	800.000	-0.024	0.104
-510.799	136.743	-0.078	0.102
-509.785	-106.242	-0.223	0.050
-508.770	-200.000	0.004	0.194
-507.756	45.430	0.138	0.127
-506.741	577.263	0.098	0.239
-505.726	-48.695	-0.407	0.195
-504.712	209.887	-0.165	-0.258
-503.697	-88.278	0.286	-0.085
-502.683	-200.000	0.034	-0.259
-501.668	790.774	0.075	-0.207
-500.653	-79.551	-0.068	-0.023
-499.639	-10.845	0.133	0.087
-498.624	-44.035	-0.040	0.020
-497.610	-200.000	0.003	0.269
-496.595	-72.430	0.526	-0.194
-495.581	-200.000	-0.033	0.157
-494.566	800.000	0.053	-0.187
-493.551	312.595	0.145	0.271
-492.537	249.143	-0.174	0.294
-491.522	-2.434	0.223	-0.156
-490.508	110.868	0.079	0.095
-489.493	-107.455	-0.219	-0.048
-488.478	91.884	-0.064	0.072
-487.464	-148.067	0.186	-0.015
-486.449	526.633	0.119	-0.280
-485.435	-67.869	-0.047	-0.018
-484.420	-183.935	0.303	0.005
-483.405	746.314	-0.046	0.123
-482.391	704.219	0.133	-0.348
-481.376	-91.218	0.122	0.035
-480.362	125.642	-0.059	0.074
-479.347	-106.041	-0.152	-0.034
-478.332	800.000	-0.099	-0.320
-477.318	-16.218	0.292	-0.185
-476.303	-200.000	-0.009	-0.127
-475.289	128.869	-0.077	0.098
-474.274	-61.080	-0.123	0.052
-473.259	-200.000	-0.036	0.265
-472.245	-24.757	0.271	0.161
-471.230	-54.889	0.153	-0.069
-470.216	-56.766	-0.227	-0.100
-469.201	-27.814	0.189	-0.109
-468.186	-128.402	-0.187	0.026
-467.172	50.471	0.136	-0.128
-466.157	582.503	0.074	0.181
-465.143	316.308	-0.042	-0.078
-464.128	688.810	0.021	0.055
-463.113	3.876	-0.144	0.105
-462.099	-200.000	-0.010	-0.169
-461.084	-164.903	0.075	-0.003
-460.070	-200.000	-0.028	-0.179
-459.055	118.870	-0.219	-0.269
-458.040	800.000	0.057	-0.165
-457.026	35.543	-0.273	0.239
-456.011	800.000	-0.053	0.178
-454.997	-58.659	-0.202	0.087
-453.982	415.525	0.090	0.191
-452.968	63.661	0.107	-0.107
-451.953	-200.000	0.016	0.256
-450.938	180.019	-0.142	-0.207
-449.924	-142.591	-0.250	0.024
-448.909	-173.443	0.299	-0.009
-447.895	253.602	0.075	0.128
-446.880	131.696	-0.096	-0.123
-445.865	800.000	-0.098	-0.408
-444.851	160.785	0.173	-0.241
-443.836	190.817	0.094	0.141
-442.822	-82.556	-0.186	0.060
-441.807	387.056	-0.241	0.495
-440.792	-66.881	0.213	0.084
-439.778	304.811	0.132	-0.243
-438.763	434.363	0.039	-0.084
-437.749	168.487	-0.205	-0.290
-436.734	-9.941	-0.159	0.105
-435.719	405.699	-0.066	0.138
-434.705	-200.000	0.028	0.341
-433.690	-46.294	0.236	0.116
-432.676	-200.000	-0.045	-0.262
-431.661	800.000	0.036	-0.155
-430.646	-103.139	0.213	0.050
-429.632	-200.000	-0.037	0.210
-428.617	800.000	-0.043	-0.133
-427.603	9.715	0.396	-0.298
-426.588	-200.000	-0.034	0.214
-425.573	-128.802	0.178	-0.025
-424.559	-200.000	-0.030	0.150
-423.544	-74.082	0.188	0.068
-422.530	-49.604	-0.293	-0.138
-421.515	485.243	-0.055	-0.124
-420.500	49.955	-0.072	0.067
-419.486	-26.577	-0.261	-0.152
-418.471	215.673	-0.279	-0.440
-417.457	-200.000	-0.084	-0.448
-416.442	800.000	-0.070	-0.191
-415.428	-200.000	0.012	-0.149
-414.413	-102.137	0.040	-0.010
-413.398	-10.787	0.047	0.031
-412.384	-146.228	-0.372	-0.032
-411.369	-137.276	0.126	0.014
-410.355	-43.345	0.163	-0.082
-409.340	-10.417	-0.251	0.166
-408.325	-33.687	-0.115	0.063
-407.311	18.981	-0.143	0.114
-406.296	15.705	-0.508	0.397
-405.282	800.000	0.002	0.007
-404.267	-200.000	-0.011	0.098
-403.252	749.971	-0.178	-0.476
-402.238	-83.233	-0.296	0.094
-401.223	-181.780	0.536	-0.010
-400.209	84.149	0.156	-0.169
-399.194	54.887	-0.147	-0.141
-398.179	800.000	0.131	-0.448
-397.165	-200.000	-0.026	-0.358
-396.150	-200.000	0.028	-0.174
-395.136	-3.246	-0.074	-0.051
-394.121	800.000	0.058	0.235
-393.106	-200.000	-0.023	0.181
-392.092	-70.585	-0.307	0.115
-391.077	633.986	0.061	-0.152
-390.063	-67.688	0.046	0.018
-389.048	-141.397	-0.214	0.022
-388.033	113.949	-0.058	-0.070
-387.019	210.310	-0.243	0.378
-386.004	800.000	-0.049	0.167
-384.990	-19.580	-0.205	0.126
-383.975	-136.272	0.201	-0.023
-382.960	-0.552	0.221	-0.156
-381.946	58.518	-0.244	-0.237
-380.931	-87.077	0.244	-0.074
-379.917	-141.275	0.101	0.010
-378.902	-63.980	0.050	-0.020
-377.888	800.000	-0.057	-0.186
-376.873	73.626	0.266	0.276
-375.858	-25.190	-0.219	0.129
-374.844	-200.000	0.001	0.067
-373.829	-82.999	0.230	0.073
-372.815	800.000	0.045	-0.153
-371.800	-49.256	0.569	0.270
-370.785	800.000	-0.037	-0.107
-369.771	-127.867	0.216	0.031
-368.756	-18.574	0.119	-0.074
-367.742	-158.456	0.156	0.009
-366.727	83.233	0.061	-0.066
-365.712	-168.244	0.044	0.002
-364.698	12.178	-0.182	0.139
-363.683	-155.929	-0.082	-0.005
-362.669	-136.721	-0.140	0.016
-361.654	-200.000	0.040	0.279
-360.639	-88.911	0.358	-0.105
-359.625	-200.000	-0.047	-0.360
-358.610	800.000	0.052	0.165
-357.596	24.920	-0.208	-0.171
-356.581	54.704	0.112	-0.107
-355.566	-200.000	0.015	-0.115
-354.552	123.148	0.096	-0.119
-353.537	-81.987	-0.108	0.035
-352.523	-93.810	-0.071	0.019
-351.508	-200.000	-0.014	0.074
-350.493	114.074	0.135	0.163
-349.479	-153.188	0.147	-0.010
-348.464	136.030	-0.139	0.179
-347.450	-106.891	0.021	0.005
-346.435	157.412	-0.156	-0.214
-345.420	-72.829	0.310	-0.113
-344.406	800.000	0.064	0.253
-343.391	800.000	-0.061	0.168
-342.377	279.374	-0.110	-0.194
-341.362	800.000	-0.019	0.064
-340.348	474.399	0.286	0.639
-339.333	-90.391	-0.178	0.051
-338.318	-200.000	0.039	0.212
-337.304	-200.000	-0.048	-0.279
-336.289	-81.741	0.130	-0.042
-335.275	800.000	0.042	-0.132
-334.260	0.450	-0.038	-0.027
-333.245	-200.000	-0.039	0.210
-332.231	31.218	-0.143	-0.121
-331.216	252.704	-0.139	-0.234
-330.202	325.459	-0.095	0.179
-329.187	56.122	0.068	-0.065
-328.172	-84.212	-0.260	-0.082
-327.158	335.354	-0.042	0.081
-326.143	252.082	0.176	-0.297
-325.129	157.334	-0.073	0.099
-324.114	-187.408	0.043	-0.001
-323.099	-99.166	0.125	-0.031
-322.085	130.822	0.080	0.101
-321.070	-200.000	0.032	0.227
-320.056	17.609	0.149	0.117
-319.041	-200.000	0.022	0.136
-318.026	78.875	0.199	0.211
-317.012	-133.628	0.272	0.034
-315.997	800.000	-0.057	-0.180
-314.983	-131.360	-0.516	0.068
-313.968	25.881	0.181	0.150
-312.953	-115.795	0.327	0.060
-311.939	454.840	-0.110	-0.241
-310.924	-113.431	-0.093	0.018
-309.910	456.779	0.108	0.237
-308.895	-200.000	0.005	-0.296
-307.880	-102.195	-0.189	-0.045
-306.866	138.268	-0.044	0.057
-305.851	800.000	0.033	-0.122
-304.837	-200.000	0.022	0.206
-303.822	-85.944	-0.118	0.036
-302.807	104.205	-0.194	0.226
-301.793	-101.598	-0.014	-0.003
-300.778	-55.000	-0.106	0.047
-299.764	35.762	-0.251	0.218
-298.749	-141.276	0.075	-0.008
-297.735	-200.000	-0.013	0.197
-296.720	-88.270	-0.269	-0.080
-295.705	170.457	-0.189	-0.267
-294.691	-51.456	-0.128	-0.059
-293.676	-117.370	0.211	-0.038
-292.662	-79.246	0.202	-0.068
-291.647	-82.597	-0.393	-0.126
-290.632	71.166	-0.124	-0.127
-289.618	69.950	0.126	-0.128
-288.603	418.221	-0.122	-0.259
-287.589	-13.558	0.137	-0.088
-286.574	-45.378	0.104	0.051
-285.559	-200.000	0.057	0.266
-284.545	800.000	0.071	-0.284
-283.530	-136.382	0.187	0.022
-282.516	-200.000	-0.006	0.232
-281.501	322.824	0.149	0.280
-280.486	-150.564	-0.115	-0.009
-279.472	-200.000	0.017	0.167
-278.457	-44.559	0.185	-0.092
-277.443	-200.000	-0.033	-0.340
-276.428	-22.616	-0.257	-0.154
-275.413	-73.565	0.194	-0.070
-274.399	-200.000	0.045	0.342
-273.384	317.598	-0.073	-0.136
-272.370	-200.000	0.010	-0.290
-271.355	-8.969	0.083	0.055
-270.340	-12.884	0.043	0.028
-269.326	12.908	0.110	0.084
-268.311	-200.000	0.075	0.351
-267.297	-37.469	-0.100	0.053
-266.282	800.000	0.056	0.155
-265.267	197.759	-0.126	-0.190
-264.253	-200.000	-0.003	0.226
-263.238	-13.223	0.210	0.135
-262.224	-178.549	-0.211	0.005
-261.209	453.835	-0.120	0.262
-260.195	-200.000	-0.005	-0.116
-259.180	800.000	-0.083	0.299
-258.165	17.624	-0.266	0.209
-257.151	-200.000	-0.008	0.109
-256.136	800.000	0.074	-0.271
-255.122	-200.000	0.010	0.221
-254.107	-60.148	-0.276	0.116
-253.092	800.000	0.156	0.456
-252.078	800.000	-0.060	0.190
-251.063	54.283	-0.188	-0.179
-250.049	-105.816	-0.193	0.043
-249.034	-181.564	-0.210	0.004
-248.019	106.769	0.108	-0.126
-247.005	-17.833	0.069	-0.043
-245.990	171.898	-0.027	0.038
-244.976	-164.015	0.281	-0.013
-243.961	800.000	-0.034	0.101
-242.946	21.600	0.129	-0.104
-241.932	69.570	-0.225	0.228
-240.917	-53.493	0.291	0.131
-239.903	-200.000	-0.039	0.250
-238.888	-200.000	-0.053	0.325
-237.873	-135.062	0.314	0.037
-236.859	317.222	0.145	0.271
-235.844	137.046	-0.155	-0.200
-234.830	-78.225	0.057	0.019
-233.815	536.737	-0.148	-0.346
-232.800	-165.186	0.231	-0.010
-231.786	4.019	0.213	0.154
-230.771	-200.000	0.009	0.214
-229.757	800.000	-0.050	-0.141
-228.742	-33.761	0.205	-0.111
-227.727	8.135	-0.191	0.142
-226.713	-158.480	0.153	-0.009
-225.698	316.933	-0.101	0.189
-224.684	-83.208	0.346	-0.110
-223.669	-25.618	0.336	-0.195
-222.655	62.332	-0.112	0.110
-221.640	-200.000	-0.036	-0.222
-220.625	-162.536	-0.170	-0.008
-219.611	-55.748	0.132	-0.058
-218.596	-200.000	-0.022	-0.464
-217.582	50.212	-0.099	-0.092
-216.567	52.996	0.343	0.323
-215.552	416.855	-0.034	0.072
-214.538	579.018	0.044	0.106
-213.523	-200.000	0.008	-0.252
-212.509	800.000	0.020	-0.077
-211.494	539.461	0.149	0.350
-210.479	7.288	-0.184	-0.135
-209.465	0.285	-0.245	-0.172
-208.450	187.809	-0.074	-0.108
-207.436	228.722	0.080	0.129
-206.421	391.882	-0.062	-0.128
-205.406	760.598	-0.129	-0.346
-204.392	800.000	-0.047	-0.129
-203.377	302.082	0.013	-0.023
-202.363	-200.000	-0.004	-0.088
-201.348	-42.309	0.084	0.042
-200.333	-168.068	0.113	0.004
-199.319	83.137	-0.150	0.160
-198.304	121.324	0.072	-0.088
-197.290	131.933	0.027	0.034
-196.275	-200.000	-0.056	0.283
-195.260	-134.620	0.320	-0.038
-194.246	261.233	-0.060	-0.102
-193.231	-200.000	-0.041	0.268
-192.217	18.900	-0.105	-0.083
-191.202	53.005	-0.144	-0.136
-190.187	800.000	0.024	-0.086
-189.173	367.481	-0.074	-0.148
-188.158	-94.435	-0.126	-0.034
-187.144	147.517	0.175	0.232
-186.129	177.843	-0.141	-0.202
-185.114	-200.000	-0.092	0.399
-184.100	-40.662	-0.074	0.038
-183.085	14.532	-0.158	0.121
-182.071	-75.280	-0.048	-0.017
-181.056	-200.000	0.066	-0.000
-180.042	-113.288	-0.375	-0.073
-179.027	-200.000	0.003	0.071
-178.012	41.099	-0.247	0.220
-176.998	-173.876	0.451	0.013
-175.983	-0.451	0.128	-0.089
-174.969	-111.957	0.260	-0.052
-173.954	-62.584	0.244	-0.100
-172.939	172.334	0.150	0.213
-171.925	5.502	0.114	0.083
-170.910	224.248	-0.143	0.227
-169.896	158.780	0.152	0.208
-168.881	-200.000	-0.004	0.058
-167.866	-144.149	0.415	0.038
-166.852	109.749	-0.133	0.157
-165.837	-200.000	-0.091	0.401
-164.823	-2.019	-0.122	0.084
-163.808	11.625	0.137	-0.103
-162.793	-35.138	0.211	-0.113
-161.779	-200.000	-0.052	0.262
-160.764	-102.540	0.169	0.040
-159.750	-68.409	0.129	-0.049
-158.735	800.000	-0.040	-0.153
-157.720	800.000	-0.034	0.142
-156.706	-19.955	0.303	-0.184
-155.691	57.116	-0.211	-0.202
-154.677	-110.218	-0.200	-0.041
-153.662	122.825	0.143	-0.176
-152.647	-25.943	-0.420	0.243
-151.633	-200.000	-0.024	-0.440
-150.618	-200.000	-0.035	0.343
-149.604	-141.982	0.338	0.033
-148.589	5.748	0.143	0.104
-147.574	-35.486	-0.093	-0.050
-146.560	91.507	0.079	0.088
-145.545	800.000	-0.027	-0.115
-144.531	-0.454	-0.156	0.109
-143.516	22.930	0.479	0.386
-142.502	-200.000	-0.011	-0.236
-141.487	800.000	0.103	0.400
-140.472	38.973	-0.179	0.157
-139.458	528.621	0.162	-0.375
-138.443	251.969	0.100	-0.168
-137.429	-54.693	0.115	-0.051
-136.414	-46.124	-0.617	-0.298
-135.399	32.755	0.378	0.321
-134.385	92.641	-0.292	0.323
-133.370	-35.820	-0.235	-0.125
-132.356	-163.390	0.224	-0.010
-131.341	252.193	-0.161	0.270
-130.326	-167.031	0.042	0.002
-129.312	175.125	-0.122	0.173
-128.297	-74.225	-0.319	0.113
-127.283	-200.000	0.064	0.342
-126.268	71.670	-0.120	0.122
-125.253	45.036	0.310	0.281
-124.239	800.000	-0.078	0.221
-123.224	-22.081	-0.417	-0.248
-122.210	-64.878	0.313	0.124
