DTS Sentinel unit serial number:	SN413079Multiplexer serial number:	ORYXHardware model number:	OX4-SRSoftware version number:	ORYX F/W v4.00 Oryx Data Collector v3.7.2.0data status	okinstallation	princeton_trtdifferential loss correction	single-endedforward channel	channel 1reverse channel	N/Adate	2019/09/11time	18:48:11forward acquisition time	60.00reverse acquisition time	0.00gamma	496.2192k internal	0.2291k external	0.2291temperature offset calibration	1.0011default loss term (dB/km)	0.3790temperature slope calibration	1.0000multiplexer offset coefficient	1.0000multiplexer slope coefficient	1.0000fibre end	0.00T internal ref (°C)	43.03T ext. ref 1 (°C)	1.24T ext. ref 2 (°C)	35.15length (m)	temperature (°C)	Stokes	anti-Stokes-747.200	-171.678	-0.234	0.008
-746.185	-200.000	0.010	0.205
-745.171	-149.821	0.296	-0.024
-744.156	-200.000	0.012	0.283
-743.142	65.613	-0.133	0.138
-742.127	-200.000	0.049	0.467
-741.112	9.828	-0.112	0.087
-740.098	-113.486	-0.213	0.043
-739.083	162.606	-0.161	0.231
-738.069	-43.354	0.146	0.076
-737.054	-200.000	0.010	0.063
-736.039	215.953	-0.162	0.263
-735.025	-200.000	-0.010	0.078
-734.010	-58.381	-0.229	-0.102
-732.996	-104.180	-0.278	-0.066
-731.981	23.154	0.146	-0.123
-730.966	800.000	-0.061	0.180
-729.952	38.161	-0.168	-0.153
-728.937	54.967	-0.141	-0.140
-727.923	-32.353	-0.101	-0.058
-726.908	-6.791	0.147	-0.102
-725.894	60.280	-0.124	-0.125
-724.879	95.346	-0.106	0.123
-723.864	670.186	0.047	0.124
-722.850	241.590	0.085	-0.145
-721.835	67.229	-0.058	0.060
-720.821	800.000	-0.071	0.229
-719.806	-200.000	-0.030	-0.350
-718.791	-30.326	-0.046	0.027
-717.777	-82.890	-0.260	-0.086
-716.762	-50.732	-0.286	-0.138
-715.748	-33.305	-0.142	0.081
-714.733	800.000	-0.046	0.137
-713.718	415.576	0.044	-0.096
-712.704	-200.000	0.003	0.127
-711.689	-2.451	-0.090	-0.065
-710.675	-29.038	0.218	0.128
-709.660	-132.762	-0.167	0.022
-708.645	800.000	-0.033	-0.125
-707.631	137.998	-0.078	0.105
-706.616	-200.000	0.021	-0.310
-705.602	-36.675	0.181	0.100
-704.587	21.514	-0.320	-0.266
-703.572	800.000	-0.039	-0.110
-702.558	-0.211	0.146	-0.106
-701.543	772.116	-0.040	-0.111
-700.529	-91.522	0.213	-0.062
-699.514	-120.777	-0.375	-0.065
-698.499	-200.000	-0.034	0.312
-697.485	800.000	0.086	-0.328
-696.470	800.000	-0.072	-0.221
-695.456	-200.000	0.023	0.276
-694.441	-82.603	0.350	0.116
-693.426	800.000	0.092	-0.299
-692.412	-153.775	-0.048	-0.003
-691.397	141.899	-0.207	-0.280
-690.383	-106.390	0.189	0.043
-689.368	517.100	0.129	-0.308
-688.354	-7.775	0.135	-0.093
-687.339	70.291	-0.213	0.225
-686.324	242.909	0.125	-0.215
-685.310	-62.798	-0.168	-0.071
-684.295	159.377	-0.127	0.180
-683.281	-9.505	-0.396	0.270
-682.266	-153.770	-0.184	-0.013
-681.251	-200.000	0.012	0.179
-680.237	43.921	0.188	-0.176
-679.222	81.344	-0.216	-0.239
-678.208	800.000	0.080	-0.284
-677.193	-200.000	-0.022	-0.154
-676.178	418.467	-0.149	-0.325
-675.164	800.000	0.008	-0.030
-674.149	321.672	-0.017	0.033
-673.135	-124.842	-0.178	0.028
-672.120	172.632	-0.239	0.351
-671.105	270.875	-0.130	-0.234
-670.091	474.552	0.148	0.342
-669.076	4.246	-0.056	-0.042
-668.062	800.000	-0.163	0.477
-667.047	-200.000	-0.009	0.122
-666.032	0.653	0.197	-0.144
-665.018	-200.000	0.010	-0.119
-664.003	-3.616	-0.312	0.222
-662.989	-99.545	-0.189	-0.049
-661.974	-12.438	-0.307	-0.205
-660.959	128.429	0.119	-0.155
-659.945	-95.740	0.202	-0.055
-658.930	800.000	0.083	0.346
-657.916	-138.823	0.179	0.020
-656.901	-142.539	-0.125	0.013
-655.886	468.758	0.060	-0.137
-654.872	-32.582	-0.252	0.143
-653.857	52.551	-0.226	0.220
-652.843	-200.000	-0.028	-0.000
-651.828	-180.086	-0.077	0.002
-650.814	265.755	-0.047	-0.083
-649.799	163.480	0.113	-0.162
-648.784	-89.608	0.030	-0.009
-647.770	-52.621	0.285	0.134
-646.755	-51.819	0.160	0.076
-645.741	-200.000	-0.033	-0.267
-644.726	-200.000	0.009	-0.076
-643.711	-12.426	0.140	0.093
-642.697	26.729	-0.069	-0.059
-641.682	-46.671	0.106	-0.053
-640.668	-55.646	0.309	-0.141
-639.653	800.000	0.046	0.205
-638.638	19.438	-0.113	-0.093
-637.624	-200.000	-0.023	0.115
-636.609	607.545	-0.038	-0.097
-635.595	40.641	-0.079	-0.073
-634.580	800.000	0.035	0.146
-633.565	9.057	-0.206	0.159
-632.551	52.517	0.148	0.144
-631.536	232.357	-0.055	-0.092
-630.522	18.003	0.109	-0.089
-629.507	800.000	-0.018	0.071
-628.492	109.302	0.133	-0.163
-627.478	-200.000	-0.008	0.104
-626.463	800.000	-0.107	0.358
-625.449	-29.844	0.120	-0.069
-624.434	-142.792	-0.178	-0.018
-623.419	-176.241	0.077	-0.002
-622.405	-148.847	0.164	0.014
-621.390	-64.937	-0.130	-0.054
-620.376	41.642	0.251	-0.232
-619.361	-162.663	0.142	-0.007
-618.346	11.039	0.256	0.200
-617.332	32.531	0.094	-0.083
-616.317	-58.040	0.176	0.078
-615.303	19.388	-0.141	-0.115
-614.288	-33.158	0.193	-0.109
-613.273	-185.037	-0.129	-0.002
-612.259	-31.597	-0.287	0.164
-611.244	621.871	-0.043	-0.111
-610.230	800.000	0.028	0.121
-609.215	10.476	-0.032	-0.025
-608.201	161.480	-0.137	0.195
-607.186	148.174	0.277	0.381
-606.171	-34.519	0.287	-0.160
-605.157	206.540	-0.181	-0.287
-604.142	243.770	-0.197	0.336
-603.128	17.659	0.117	-0.095
-602.113	-83.632	0.319	0.104
-601.098	800.000	-0.039	0.159
-600.084	-160.149	-0.220	-0.012
-599.069	223.132	0.127	-0.208
-598.055	800.000	-0.104	-0.385
-597.040	-200.000	0.003	0.304
-596.025	-150.685	0.253	0.020
-595.011	-47.512	0.138	0.068
-593.996	-172.441	0.059	-0.002
-592.982	-115.323	-0.149	-0.029
-591.967	58.952	0.084	0.084
-590.952	113.931	-0.109	-0.135
-589.938	2.122	-0.492	-0.362
-588.923	-86.066	-0.139	0.044
-587.909	-190.287	-0.216	0.002
-586.894	114.008	-0.239	0.295
-585.879	145.429	-0.059	0.080
-584.865	800.000	0.067	-0.255
-583.850	-82.023	0.129	-0.043
-582.836	-126.591	-0.184	-0.028
-581.821	-115.458	0.414	-0.079
-580.806	343.322	-0.060	0.120
-579.792	-21.330	0.089	0.055
-578.777	-200.000	0.064	-0.356
-577.763	-112.802	-0.074	0.015
-576.748	-66.524	-0.117	0.047
-575.733	-73.043	0.265	-0.099
-574.719	214.634	0.181	0.291
-573.704	-200.000	-0.454	-0.002
-572.690	800.000	-0.037	0.127
-571.675	-200.000	-0.082	0.571
-570.661	11.667	0.181	0.142
-569.646	347.559	0.102	-0.205
-568.631	153.509	0.046	0.065
-567.617	-118.994	0.429	0.077
-566.602	67.674	-0.081	0.084
-565.588	-14.859	0.117	0.077
-564.573	442.727	0.189	0.422
-563.558	-171.585	-0.294	-0.010
-562.544	800.000	-0.130	-0.492
-561.529	-141.638	-0.706	-0.072
-560.515	783.971	0.088	0.246
-559.500	-154.512	0.265	0.018
-558.485	-200.000	-0.025	0.314
-557.471	800.000	-0.059	0.164
-556.456	-143.561	-0.330	-0.032
-555.442	167.554	-0.094	-0.135
-554.427	62.731	-0.154	0.157
-553.412	570.409	-0.141	-0.348
-552.398	800.000	-0.074	-0.246
-551.383	-99.221	-0.231	-0.059
-550.369	800.000	0.053	0.222
-549.354	61.115	-0.094	0.095
-548.339	-171.234	-0.190	-0.007
-547.325	-41.171	0.067	0.035
-546.310	-200.000	-0.009	-0.145
-545.296	-14.467	0.326	-0.213
-544.281	800.000	0.055	-0.234
-543.266	54.463	0.073	0.072
-542.252	-141.192	-0.155	-0.016
-541.237	-12.433	-0.025	-0.017
-540.223	37.741	0.243	0.219
-539.208	18.461	-0.168	-0.136
-538.193	-41.231	-0.349	0.183
-537.179	157.981	0.128	-0.180
-536.164	-132.358	0.198	-0.026
-535.150	-21.275	0.157	0.098
-534.135	138.191	0.113	-0.151
-533.121	452.218	0.069	0.155
-532.106	-200.000	0.014	-0.201
-531.091	-200.000	0.025	-0.339
-530.077	74.366	-0.099	-0.106
-529.062	-97.717	-0.288	-0.076
-528.048	90.742	0.102	0.116
-527.033	800.000	-0.052	0.195
-526.018	-200.000	-0.012	-0.224
-525.004	153.235	-0.078	0.108
-523.989	800.000	-0.086	0.287
-522.975	-136.614	-0.119	0.014
-521.960	120.623	-0.195	0.246
-520.945	66.761	0.280	0.289
-519.931	-156.704	0.651	0.041
-518.916	-74.158	0.385	0.141
-517.902	800.000	0.075	-0.249
-516.887	-200.000	0.003	-0.174
-515.872	-200.000	0.020	-0.173
-514.858	-200.000	0.033	-0.180
-513.843	-105.897	-0.076	0.017
-512.829	80.051	-0.108	-0.118
-511.814	234.722	0.089	-0.149
-510.799	-200.000	-0.027	0.123
-509.785	3.919	0.391	0.290
-508.770	800.000	0.027	0.086
-507.756	-59.743	0.089	-0.039
-506.741	-200.000	-0.010	-0.066
-505.726	-98.545	0.242	-0.063
-504.712	150.328	0.092	0.126
-503.697	800.000	0.045	0.185
-502.683	177.061	-0.166	0.245
-501.668	48.010	-0.092	-0.087
-500.653	782.810	-0.111	0.309
-499.639	-5.776	0.112	-0.077
-498.624	-172.076	0.080	-0.003
-497.610	800.000	-0.066	0.221
-496.595	-200.000	0.021	0.329
-495.581	451.101	0.049	0.111
-494.566	800.000	-0.069	0.285
-493.551	-113.267	-0.277	0.055
-492.537	38.842	0.029	0.026
-491.522	3.584	0.365	-0.270
-490.508	-120.849	-0.253	0.043
-489.493	-163.984	-0.154	-0.007
-488.478	400.132	-0.130	0.277
-487.464	62.963	0.079	0.081
-486.449	-200.000	-0.036	-0.220
-485.435	-200.000	0.009	-0.228
-484.420	54.233	-0.260	-0.254
-483.405	800.000	0.018	-0.065
-482.391	6.132	0.107	0.080
-481.376	-167.087	-0.039	-0.002
-480.362	-160.175	0.272	-0.015
-479.347	90.123	-0.080	-0.091
-478.332	37.514	0.091	-0.082
-477.318	800.000	-0.021	0.085
-476.303	800.000	-0.065	0.220
-475.289	161.751	-0.042	0.060
-474.274	-101.510	-0.164	-0.040
-473.259	76.505	-0.237	0.255
-472.245	-200.000	-0.080	0.387
-471.230	129.566	0.113	0.147
-470.216	-200.000	-0.012	-0.160
-469.201	188.449	0.220	0.334
-468.186	-28.440	0.325	0.190
-467.172	-200.000	0.009	-0.051
-466.157	-119.943	0.258	-0.045
-465.143	-40.140	-0.174	-0.092
-464.128	22.683	0.180	0.149
-463.113	-133.826	0.305	-0.038
-462.099	-115.355	0.264	0.051
-461.084	168.285	-0.165	-0.238
-460.070	17.042	0.121	0.097
-459.055	223.163	0.121	-0.198
-458.040	-141.684	0.275	-0.028
-457.026	-200.000	0.002	-0.026
-456.011	-72.326	-0.143	0.054
-454.997	45.352	-0.138	-0.129
-453.982	-142.311	0.052	-0.005
-452.968	20.617	-0.105	0.086
-451.953	-90.157	0.294	0.087
-450.938	266.554	0.182	0.322
-449.924	20.068	-0.099	-0.080
-448.909	-7.794	-0.218	0.149
-447.895	-200.000	-0.009	-0.075
-446.880	-89.053	-0.058	0.017
-445.865	-168.010	-0.100	-0.004
-444.851	-200.000	0.022	0.297
-443.836	3.722	0.232	0.171
-442.822	-55.907	-0.410	0.185
-441.807	800.000	0.081	0.233
-440.792	773.222	-0.079	0.219
-439.778	-200.000	-0.021	0.119
-438.763	-116.172	0.228	-0.043
-437.749	384.945	-0.143	-0.299
-436.734	144.267	-0.087	-0.117
-435.719	-114.560	-0.160	0.031
-434.705	99.258	-0.132	0.154
-433.690	182.434	-0.069	-0.103
-432.676	366.626	-0.123	-0.252
-431.661	-200.000	-0.048	0.269
-430.646	202.863	0.026	0.040
-429.632	669.325	0.098	-0.258
-428.617	64.202	0.123	0.125
-427.603	121.526	0.276	-0.348
-426.588	578.897	-0.047	-0.118
-425.573	-200.000	0.042	0.247
-424.559	17.421	-0.225	0.181
-423.544	-89.535	-0.186	-0.055
-422.530	118.770	-0.089	0.111
-421.515	21.495	0.044	-0.036
-420.500	800.000	-0.023	0.095
-419.486	225.101	0.178	-0.291
-418.471	-25.362	-0.219	-0.131
-417.457	550.647	-0.145	-0.353
-416.442	645.579	-0.120	-0.309
-415.428	-18.369	0.167	-0.106
-414.413	24.323	0.176	0.147
-413.398	11.510	-0.302	0.234
-412.384	123.250	0.026	-0.033
-411.369	-200.000	-0.033	-0.184
-410.355	-81.764	0.192	0.064
-409.340	-120.783	-0.184	-0.031
-408.325	101.995	-0.336	-0.396
-407.311	75.997	0.104	0.112
-406.296	293.346	0.168	0.310
-405.282	8.923	-0.252	-0.192
-404.267	45.573	-0.013	0.012
-403.252	-82.434	-0.167	-0.055
-402.238	800.000	0.071	0.266
-401.223	-200.000	-0.074	0.406
-400.209	48.694	0.086	-0.081
-399.194	82.491	0.268	-0.294
-398.179	271.251	-0.026	0.046
-397.165	-93.376	0.291	-0.082
-396.150	-43.007	-0.199	0.102
-395.136	68.678	0.153	0.158
-394.121	-7.293	-0.295	-0.202
-393.106	-168.088	0.392	-0.015
-392.092	-167.118	-0.398	0.016
-391.077	800.000	0.044	-0.147
-390.063	-98.002	0.511	0.133
-389.048	554.914	0.102	0.248
-388.033	-49.207	0.059	0.029
-387.019	-63.636	-0.021	-0.009
-386.004	253.352	0.080	-0.138
-384.990	204.051	0.106	-0.166
-383.975	50.747	-0.178	0.171
-382.960	-200.000	0.038	-0.209
-381.946	800.000	-0.017	0.057
-380.931	69.416	-0.013	-0.013
-379.917	-200.000	-0.002	-0.386
-378.902	175.592	0.100	-0.146
-377.888	-35.717	-0.308	-0.169
-376.873	-193.182	-0.279	-0.002
-375.858	170.776	0.145	-0.210
-374.844	-41.622	-0.231	-0.120
-373.829	-200.000	-0.021	-0.203
-372.815	250.812	-0.142	0.243
-371.800	-40.330	-0.031	0.016
-370.785	-200.000	0.012	-0.202
-369.771	507.813	-0.056	-0.132
-368.756	45.481	0.078	-0.073
-367.742	800.000	0.145	-0.466
-366.727	223.856	0.085	-0.139
-365.712	800.000	0.052	0.181
-364.698	800.000	-0.044	-0.136
-363.683	324.077	-0.020	-0.038
-362.669	-65.712	0.254	0.102
-361.654	43.815	0.205	0.189
-360.639	92.061	0.107	-0.122
-359.625	-19.546	-0.077	0.048
-358.610	139.316	-0.105	0.140
-357.596	51.314	0.205	-0.196
-356.581	800.000	-0.125	-0.382
-355.566	42.581	-0.234	-0.214
-354.552	-122.323	-0.109	0.018
-353.537	-6.968	-0.134	-0.092
-352.523	-200.000	0.013	-0.079
-351.508	-44.906	-0.263	-0.132
-350.493	180.067	0.118	-0.174
-349.479	-52.977	-0.149	0.069
-348.464	37.166	-0.318	0.284
-347.450	-200.000	-0.000	0.060
-346.435	22.056	0.251	0.207
-345.420	538.273	0.049	-0.117
-344.406	-200.000	-0.049	-0.434
-343.391	-83.596	-0.361	-0.116
-342.377	416.576	-0.074	0.159
-341.362	103.341	0.103	0.121
-340.348	77.770	-0.010	0.010
-339.333	-108.538	-0.058	0.013
-338.318	733.243	-0.203	0.548
-337.304	800.000	0.012	0.051
-336.289	-40.341	0.311	-0.163
-335.275	666.180	-0.057	0.149
-334.260	181.485	0.091	-0.134
-333.245	297.362	0.075	-0.139
-332.231	406.908	0.035	-0.075
-331.216	800.000	-0.017	-0.062
-330.202	-26.573	-0.386	0.228
-329.187	2.694	0.327	0.239
-328.172	-42.205	-0.214	0.110
-327.158	175.761	0.155	0.227
-326.143	-6.887	0.145	-0.100
-325.129	231.062	-0.059	0.097
-324.114	38.780	0.133	0.120
-323.099	377.940	0.025	0.051
-322.085	800.000	-0.080	0.241
-321.070	193.678	-0.080	0.123
-320.056	743.169	-0.018	0.050
-319.041	118.222	0.191	0.237
-318.026	-152.962	-0.295	0.021
-317.012	-200.000	0.075	-0.399
-315.997	83.538	-0.082	0.090
-314.983	196.176	-0.291	-0.446
-313.968	-92.545	-0.307	-0.087
-312.953	-173.377	-0.142	0.004
-311.939	50.987	-0.033	0.032
-310.924	109.683	-0.197	0.238
-309.910	-69.282	0.051	-0.020
-308.895	168.827	-0.197	0.283
-307.880	-200.000	0.025	-0.434
-306.866	90.056	0.176	-0.198
-305.851	217.678	-0.036	0.057
-304.837	-200.000	0.056	0.248
-303.822	-126.283	0.082	0.012
-302.807	38.819	-0.123	-0.111
-301.793	-91.876	0.206	-0.059
-300.778	-200.000	0.004	0.098
-299.764	-8.736	0.172	0.116
-298.749	-70.760	-0.104	-0.039
-297.735	-66.099	-0.200	0.080
-296.720	293.344	-0.027	0.049
-295.705	93.624	0.112	-0.127
-294.691	800.000	0.045	0.197
-293.676	-170.449	0.155	-0.005
-292.662	104.629	0.247	-0.293
-291.647	-94.200	0.132	-0.036
-290.632	-200.000	0.013	0.146
-289.618	-161.810	-0.187	0.010
-288.603	245.435	0.116	-0.196
-287.589	219.052	-0.076	-0.123
-286.574	-42.833	-0.059	-0.030
-285.559	-83.751	0.035	0.011
-284.545	-46.475	-0.167	-0.082
-283.530	-108.445	0.269	0.058
-282.516	800.000	0.011	-0.043
-281.501	575.547	-0.097	-0.238
-280.486	-2.631	-0.373	-0.262
-279.472	-50.436	0.288	0.137
-278.457	-69.373	0.166	0.064
-277.443	-128.769	-0.171	-0.024
-276.428	-4.386	0.120	-0.083
-275.413	115.519	-0.108	-0.133
-274.399	800.000	0.040	-0.168
-273.384	-200.000	0.029	0.235
-272.370	800.000	-0.027	0.077
-271.355	-200.000	-0.087	-0.536
-270.340	-200.000	0.011	-0.506
-269.326	68.013	0.177	-0.182
-268.311	-200.000	-0.003	0.044
-267.297	-31.549	-0.248	-0.140
-266.282	383.628	-0.115	0.238
-265.267	-103.776	-0.325	0.077
-264.253	-200.000	-0.009	-0.086
-263.238	266.833	-0.078	-0.136
-262.224	-43.037	-0.249	0.127
-261.209	20.969	0.363	-0.296
-260.195	-103.620	0.217	-0.051
-259.180	800.000	-0.100	0.363
-258.165	800.000	-0.083	-0.283
-257.151	343.968	-0.028	0.055
-256.136	565.765	0.108	0.264
-255.122	14.068	-0.154	-0.120
-254.107	226.838	0.170	0.278
-253.092	10.352	-0.118	0.090
-252.078	-138.456	-0.202	0.022
-251.063	56.046	-0.022	-0.021
-250.049	-87.429	-0.167	0.051
-249.034	-84.914	0.093	0.029
-248.019	-60.609	0.210	-0.089
-247.005	357.509	0.224	-0.449
-245.990	-127.124	0.297	0.044
-244.976	153.335	-0.198	-0.273
-243.961	-200.000	0.023	-0.253
-242.946	58.451	0.332	-0.328
-241.932	-141.454	0.238	0.024
-240.917	189.462	-0.304	-0.458
-239.903	-33.439	-0.147	-0.081
-238.888	800.000	0.086	-0.281
-237.873	118.121	-0.063	-0.078
-236.859	-83.032	0.100	0.032
-235.844	524.903	0.128	0.302
-234.830	-86.320	-0.169	-0.052
-233.815	60.678	-0.058	-0.058
-232.800	51.352	-0.151	-0.144
-231.786	-125.039	0.269	-0.042
-230.771	-200.000	-0.025	0.390
-229.757	-78.128	-0.225	0.078
-228.742	36.183	0.161	0.142
-227.727	-200.000	0.014	-0.086
-226.713	127.628	-0.247	0.315
-225.698	-164.609	-0.404	-0.018
-224.684	-200.000	0.011	-0.134
-223.669	-200.000	-0.020	0.145
-222.655	-124.475	0.248	-0.039
-221.640	-200.000	0.039	0.226
-220.625	96.607	0.032	0.036
-219.611	784.084	-0.073	-0.200
-218.596	-21.713	-0.258	-0.157
-217.582	436.482	-0.044	0.096
-216.567	-118.846	0.209	0.037
-215.552	78.215	-0.149	-0.160
-214.538	30.634	0.336	-0.288
-213.523	345.167	0.089	0.176
-212.509	380.621	-0.132	-0.271
-211.494	-34.281	-0.142	-0.078
-210.479	-46.095	0.127	0.063
-209.465	-73.128	0.326	0.120
-208.450	800.000	0.107	0.438
-207.436	-45.232	-0.046	-0.023
-206.421	225.920	-0.179	0.291
-205.406	603.292	0.091	-0.226
-204.392	-131.471	-0.173	0.023
-203.377	80.050	0.081	-0.088
-202.363	-200.000	-0.037	0.244
-201.348	-125.205	0.275	0.042
-200.333	800.000	-0.040	-0.160
-199.319	800.000	0.017	0.059
-198.304	-39.655	-0.167	0.087
-197.290	-200.000	-0.006	0.317
-196.275	-46.192	-0.356	0.175
-195.260	800.000	-0.053	-0.190
-194.246	-200.000	-0.043	0.357
-193.231	-70.166	-0.217	-0.083
-192.217	39.913	-0.172	0.155
-191.202	252.927	-0.092	0.157
-190.187	-200.000	0.002	-0.030
-189.173	-200.000	-0.052	-0.376
-188.158	-7.362	-0.223	-0.151
-187.144	42.926	-0.088	-0.080
-186.129	-152.655	0.387	0.028
-185.114	-59.557	-0.317	-0.136
-184.100	-200.000	0.122	0.583
-183.085	-128.330	0.370	0.053
-182.071	644.307	-0.026	-0.066
-181.056	-200.000	0.036	-0.165
-180.042	-198.379	-0.264	0.002
-179.027	-6.305	0.144	0.098
-178.012	-200.000	-0.020	0.350
-176.998	202.694	-0.148	0.229
-175.983	-92.264	-0.133	-0.038
-174.969	255.447	0.232	-0.398
-173.954	-102.164	0.232	-0.056
-172.939	408.962	0.043	-0.091
-171.925	105.198	-0.265	0.313
-170.910	303.413	0.102	0.189
-169.896	-140.913	-0.269	0.028
-168.881	-39.822	0.272	-0.142
-167.866	-6.928	-0.118	-0.080
-166.852	-44.962	-0.169	-0.084
-165.837	101.134	0.061	0.071
-164.823	199.936	0.134	-0.206
-163.808	8.128	-0.162	-0.122
-162.793	254.638	0.160	-0.273
-161.779	-110.372	-0.158	0.033
-160.764	167.955	0.384	0.547
-159.750	-13.508	-0.294	-0.190
-158.735	49.278	0.230	-0.217
-157.720	216.804	0.164	0.262
-156.706	131.065	0.181	0.232
-155.691	-200.000	-0.009	-0.061
-154.677	-95.469	0.332	0.089
-153.662	800.000	-0.034	-0.105
-152.647	-31.850	-0.337	0.189
-151.633	-43.610	0.265	-0.134
-150.618	800.000	0.056	-0.193
-149.604	228.086	-0.031	0.050
-148.589	198.549	-0.193	0.295
-147.574	800.000	-0.041	0.125
-146.560	107.806	-0.101	0.120
-145.545	-78.729	-0.057	0.019
-144.531	-200.000	-0.027	-0.145
-143.516	45.156	0.223	-0.205
-142.502	-156.092	0.280	0.018
-141.487	800.000	-0.006	0.020
-140.472	22.568	-0.046	0.037
-139.458	40.862	-0.164	-0.148
-138.443	-101.222	-0.358	0.087
-137.429	-200.000	-0.012	-0.357
-136.414	117.126	-0.155	0.191
-135.399	-200.000	0.028	-0.183
-134.385	577.578	-0.050	0.123
-133.370	-17.132	0.194	-0.122
-132.356	-94.464	-0.339	0.093
-131.341	415.973	-0.188	0.401
-130.326	-44.291	-0.125	-0.063
-129.312	218.772	-0.248	-0.396
-128.297	15.056	0.034	-0.026
-127.283	-148.371	0.452	-0.037
-126.268	35.512	-0.229	0.201
-125.253	417.378	-0.221	0.471
-124.239	76.480	0.044	-0.047
-123.224	-103.432	-0.206	0.048
-122.210	118.831	0.212	-0.262
-121.195	138.909	-0.154	0.202
