DTS Sentinel unit serial number:	SN413079Multiplexer serial number:	ORYXHardware model number:	OX4-SRSoftware version number:	ORYX F/W v4.00 Oryx Data Collector v3.7.2.0data status	okinstallation	princeton_trtdifferential loss correction	single-endedforward channel	channel 1reverse channel	N/Adate	2019/09/12time	00:32:11forward acquisition time	60.00reverse acquisition time	0.00gamma	496.2192k internal	0.2318k external	0.2318temperature offset calibration	1.0075default loss term (dB/km)	0.3790temperature slope calibration	1.0000multiplexer offset coefficient	1.0000multiplexer slope coefficient	1.0000fibre end	0.00T internal ref (°C)	33.37T ext. ref 1 (°C)	2.08T ext. ref 2 (°C)	27.96length (m)	temperature (°C)	Stokes	anti-Stokes-747.200	-200.000	0.010	0.193
-746.185	-200.000	0.013	0.341
-745.171	482.575	-0.162	-0.374
-744.156	-200.000	0.018	0.167
-743.142	-106.968	0.366	-0.082
-742.127	800.000	0.092	0.402
-741.112	375.123	0.075	-0.154
-740.098	-110.700	0.048	-0.010
-739.083	-49.037	-0.522	0.253
-738.069	-146.578	0.263	0.023
-737.054	286.672	-0.193	-0.352
-736.039	166.507	0.056	-0.080
-735.025	-13.643	-0.069	0.045
-734.010	-7.150	0.120	-0.082
-732.996	-102.949	0.087	0.021
-731.981	-100.740	0.195	0.049
-730.966	26.314	-0.200	-0.169
-729.952	709.238	-0.116	-0.309
-728.937	10.736	-0.164	0.127
-727.923	397.792	0.056	0.119
-726.908	-200.000	-0.052	0.262
-725.894	-80.592	-0.408	-0.138
-724.879	800.000	0.050	-0.203
-723.864	-76.674	-0.481	0.170
-722.850	800.000	-0.027	0.087
-721.835	11.706	-0.169	0.131
-720.821	793.546	-0.027	0.075
-719.806	800.000	0.098	-0.304
-718.791	87.127	0.228	-0.254
-717.777	63.276	0.209	0.212
-716.762	143.015	-0.100	0.134
-715.748	-200.000	-0.008	-0.066
-714.733	-2.116	0.331	0.235
-713.718	-200.000	0.036	-0.195
-712.704	784.408	-0.121	-0.336
-711.689	-40.763	-0.046	0.024
-710.675	800.000	-0.171	-0.499
-709.660	-123.229	-0.225	-0.036
-708.645	800.000	-0.087	0.258
-707.631	-90.917	-0.235	-0.068
-706.616	-189.657	-0.145	0.002
-705.602	54.378	-0.098	-0.095
-704.587	127.186	0.105	-0.135
-703.572	31.060	0.050	0.043
-702.558	-94.330	-0.323	0.089
-701.543	-81.859	0.199	-0.066
-700.529	71.851	-0.239	-0.251
-699.514	3.680	-0.053	-0.039
-698.499	-109.772	-0.173	0.037
-697.485	24.667	0.293	-0.245
-696.470	-200.000	0.038	-0.295
-695.456	318.399	-0.127	-0.242
-694.441	14.458	-0.176	0.139
-693.426	734.461	0.017	0.046
-692.412	-34.455	-0.253	0.140
-691.397	-200.000	-0.034	0.265
-690.383	-47.846	-0.271	-0.133
-689.368	54.243	0.049	-0.048
-688.354	-200.000	-0.002	0.047
-687.339	-154.745	-0.044	0.003
-686.324	-45.033	-0.503	0.253
-685.310	-146.415	-0.091	-0.008
-684.295	596.650	0.083	0.207
-683.281	-122.161	-0.401	-0.066
-682.266	-200.000	-0.003	0.248
-681.251	52.591	0.084	0.081
-680.237	-145.393	-0.122	-0.011
-679.222	-148.809	-0.332	-0.027
-678.208	664.991	0.093	-0.243
-677.193	-55.315	-0.380	0.172
-676.178	-200.000	-0.056	0.271
-675.164	102.943	0.121	0.142
-674.149	142.177	-0.079	-0.105
-673.135	-32.038	-0.338	-0.191
-672.120	-46.691	-0.033	0.016
-671.105	245.120	-0.127	-0.216
-670.091	800.000	-0.032	-0.116
-669.076	-33.380	-0.045	-0.025
-668.062	-32.363	0.236	-0.133
-667.047	119.354	-0.251	-0.314
-666.032	-200.000	0.002	0.022
-665.018	313.676	0.167	0.317
-664.003	-92.089	-0.123	0.035
-662.989	-200.000	-0.013	-0.129
-661.974	132.869	0.105	0.137
-660.959	337.416	-0.239	-0.469
-659.945	-117.296	-0.451	0.083
-658.930	-18.078	0.242	0.153
-657.916	257.602	-0.146	0.254
-656.901	800.000	0.047	0.172
-655.886	-129.212	-0.528	0.074
-654.872	435.351	-0.031	-0.068
-653.857	-137.365	-0.145	-0.017
-652.843	-150.651	0.121	-0.009
-651.828	-110.858	0.176	-0.037
-650.814	-200.000	-0.025	-0.173
-649.799	800.000	0.055	0.182
-648.784	-55.086	-0.247	-0.112
-647.770	-87.284	-0.404	-0.124
-646.755	-140.738	-0.125	0.013
-645.741	800.000	-0.081	-0.270
-644.726	205.689	-0.172	-0.269
-643.711	89.036	0.202	0.227
-642.697	-99.646	0.191	0.048
-641.682	-44.723	0.355	-0.179
-640.668	408.175	0.083	0.177
-639.653	-102.920	-0.205	-0.049
-638.638	-142.118	0.077	0.008
-637.624	-194.457	-0.067	-0.001
-636.609	39.885	0.110	-0.099
-635.595	32.131	0.171	0.149
-634.580	-147.626	0.145	0.012
-633.565	-118.923	-0.231	0.041
-632.551	28.607	0.184	-0.157
-631.536	800.000	0.027	-0.116
-630.522	145.193	0.108	0.145
-629.507	-136.512	-0.219	0.026
-628.492	-200.000	0.022	0.193
-627.478	26.898	-0.212	0.179
-626.463	-170.839	-0.258	0.009
-625.449	-76.309	0.156	0.055
-624.434	92.517	0.154	-0.175
-623.419	-107.839	0.193	-0.042
-622.405	-18.105	-0.406	-0.256
-621.390	-59.878	0.153	0.066
-620.376	7.128	0.238	-0.179
-619.361	-54.210	-0.248	-0.113
-618.346	249.859	0.061	-0.104
-617.332	800.000	0.004	-0.014
-616.317	-102.497	-0.097	-0.023
-615.303	792.107	-0.068	0.187
-614.288	800.000	-0.121	0.336
-613.273	149.084	0.111	0.152
-612.259	-145.608	-0.283	-0.026
-611.244	304.900	-0.075	-0.140
-610.230	18.560	-0.127	-0.102
-609.215	-71.408	-0.366	-0.138
-608.201	-200.000	-0.061	-0.333
-607.186	800.000	0.052	0.209
-606.171	-200.000	0.065	0.328
-605.157	-200.000	-0.005	-0.081
-604.142	-200.000	-0.008	-0.127
-603.128	533.185	0.077	-0.183
-602.113	-26.779	0.233	0.137
-601.098	251.505	0.146	0.250
-600.084	30.504	-0.255	0.220
-599.069	-54.250	-0.277	-0.127
-598.055	-105.356	-0.140	-0.032
-597.040	-200.000	-0.010	-0.199
-596.025	-200.000	-0.030	0.296
-595.011	-1.828	0.141	0.100
-593.996	-200.000	0.053	-0.272
-592.982	289.430	-0.056	0.102
-591.967	800.000	0.052	0.195
-590.952	-47.433	0.228	-0.112
-589.938	22.021	-0.113	-0.093
-588.923	139.844	0.185	-0.245
-587.909	-60.810	0.431	-0.184
-586.894	-43.036	0.245	0.125
-585.879	-110.142	0.075	0.016
-584.865	395.714	0.195	-0.409
-583.850	75.856	-0.260	0.276
-582.836	-6.260	-0.219	-0.150
-581.821	-126.934	0.238	0.035
-580.806	26.797	-0.126	-0.106
-579.792	-141.538	-0.205	0.021
-578.777	685.493	-0.066	0.173
-577.763	-50.086	-0.039	0.019
-576.748	359.862	-0.105	-0.211
-575.733	-82.248	-0.393	0.129
-574.719	800.000	0.087	0.370
-573.704	-200.000	-0.040	-0.361
-572.690	-200.000	-0.050	-0.304
-571.675	-64.939	-0.317	0.129
-570.661	8.086	0.108	0.081
-569.646	-200.000	-0.024	-0.216
-568.631	-48.611	-0.149	-0.072
-567.617	-122.832	0.321	-0.052
-566.602	-133.968	-0.185	-0.023
-565.588	47.052	-0.193	-0.180
-564.573	404.654	0.116	0.246
-563.558	-82.309	0.151	-0.049
-562.544	169.263	0.052	-0.074
-561.529	-67.243	-0.259	0.103
-560.515	126.281	-0.094	-0.119
-559.500	-28.080	0.097	0.056
-558.485	193.364	0.179	0.272
-557.471	-200.000	0.009	0.051
-556.456	-200.000	0.033	0.244
-555.442	-2.738	-0.166	-0.117
-554.427	-81.115	0.202	-0.067
-553.412	227.966	0.103	0.168
-552.398	83.017	-0.148	-0.162
-551.383	578.737	-0.066	-0.162
-550.369	-200.000	0.025	0.119
-549.354	-83.023	0.312	-0.101
-548.339	250.301	-0.038	-0.064
-547.325	16.977	-0.329	-0.262
-546.310	-2.377	0.034	0.024
-545.296	141.354	-0.100	-0.133
-544.281	-200.000	0.059	-0.394
-543.266	282.765	-0.056	-0.100
-542.252	3.627	0.094	-0.069
-541.237	-85.380	0.264	0.082
-540.223	-47.065	-0.114	0.056
-539.208	-193.149	0.182	-0.002
-538.193	-200.000	0.038	0.201
-537.179	800.000	-0.034	-0.143
-536.164	-41.517	0.229	0.118
-535.150	800.000	0.052	0.190
-534.135	501.000	0.093	0.215
-533.121	-144.730	-0.204	-0.019
-532.106	-79.120	0.154	-0.052
-531.091	-89.311	0.245	-0.073
-530.077	-200.000	-0.025	0.145
-529.062	574.698	0.101	-0.246
-528.048	101.391	0.106	-0.124
-527.033	46.380	-0.181	-0.168
-526.018	800.000	-0.060	0.195
-525.004	183.693	-0.083	-0.123
-523.989	-200.000	0.037	-0.512
-522.975	800.000	-0.042	-0.159
-521.960	-200.000	-0.004	-0.137
-520.945	-54.138	-0.135	-0.061
-519.931	36.026	0.210	-0.186
-518.916	-117.318	0.146	-0.027
-517.902	17.844	0.255	0.204
-516.887	3.047	-0.225	-0.164
-515.872	800.000	-0.104	-0.294
-514.858	-51.094	-0.144	-0.068
-513.843	164.214	-0.144	0.204
-512.829	-78.651	-0.250	-0.086
-511.814	20.837	-0.021	-0.017
-510.799	-88.263	0.136	-0.041
-509.785	-200.000	-0.059	-0.278
-508.770	192.138	0.166	0.251
-507.756	-200.000	0.092	-0.449
-506.741	58.144	0.112	-0.110
-505.726	800.000	-0.065	-0.194
-504.712	-55.710	-0.181	-0.081
-503.697	49.618	-0.004	-0.004
-502.683	-200.000	-0.032	-0.367
-501.668	-140.476	0.260	-0.027
-500.653	377.085	0.032	-0.066
-499.639	-200.000	0.031	0.344
-498.624	-0.164	0.164	0.117
-497.610	176.124	-0.007	0.010
-496.595	-30.198	-0.106	0.060
-495.581	2.863	-0.089	0.065
-494.566	-98.193	0.062	-0.016
-493.551	217.337	-0.169	0.270
-492.537	133.281	-0.058	0.074
-491.522	-200.000	-0.058	-0.304
-490.508	-85.477	0.325	0.101
-489.493	17.310	-0.107	-0.085
-488.478	-200.000	0.041	-0.182
-487.464	-200.000	-0.009	0.182
-486.449	341.265	-0.116	0.226
-485.435	-49.559	-0.365	-0.174
-484.420	-79.906	0.388	0.131
-483.405	253.382	-0.199	-0.341
-482.391	-38.187	0.430	0.228
-481.376	101.431	0.134	0.156
-480.362	-92.373	0.305	0.086
-479.347	590.671	-0.084	-0.207
-478.332	-185.227	0.525	-0.008
-477.318	-61.835	-0.314	0.132
-476.303	-200.000	-0.006	0.036
-475.289	-25.476	-0.057	0.034
-474.274	140.221	0.071	0.094
-473.259	-136.140	-0.195	0.023
-472.245	681.975	0.022	-0.057
-471.230	-178.501	-0.196	-0.005
-470.216	-110.171	0.255	0.053
-469.201	110.556	-0.279	0.335
-468.186	800.000	0.109	0.335
-467.172	36.660	0.243	0.215
-466.157	800.000	0.026	0.093
-465.143	-73.001	0.311	-0.114
-464.128	800.000	-0.050	-0.200
-463.113	-200.000	0.002	0.189
-462.099	92.817	0.076	0.086
-461.084	-165.207	-0.167	-0.007
-460.070	-120.185	0.194	-0.033
-459.055	293.578	0.194	0.355
-458.040	800.000	0.005	0.017
-457.026	717.232	-0.103	0.272
-456.011	-134.798	0.169	0.020
-454.997	-19.808	-0.260	-0.160
-453.982	-29.293	0.131	0.075
-452.968	-21.479	-0.376	-0.229
-451.953	-200.000	0.045	-0.357
-450.938	123.314	-0.068	-0.085
-449.924	-132.892	0.261	-0.033
-448.909	-57.401	0.299	-0.132
-447.895	-113.493	0.164	0.032
-446.880	111.618	-0.167	-0.202
-445.865	22.939	0.196	-0.161
-444.851	475.363	-0.088	-0.200
-443.836	414.519	-0.092	0.197
-442.822	187.636	0.074	0.110
-441.807	-200.000	-0.009	-0.216
-440.792	90.211	0.099	0.110
-439.778	-112.633	0.245	-0.049
-438.763	-79.119	-0.269	0.091
-437.749	-70.015	-0.236	-0.090
-436.734	800.000	-0.112	0.320
-435.719	800.000	-0.027	-0.088
-434.705	800.000	0.108	0.434
-433.690	-9.106	-0.132	0.088
-432.676	-170.146	0.215	0.008
-431.661	800.000	-0.117	-0.388
-430.646	-73.605	-0.194	-0.071
-429.632	-3.174	-0.143	-0.100
-428.617	-200.000	-0.029	-0.167
-427.603	-200.000	0.329	-0.001
-426.588	310.621	-0.069	-0.130
-425.573	-109.336	-0.093	0.020
-424.559	11.407	0.113	0.086
-423.544	-68.219	0.201	-0.078
-422.530	-5.196	0.316	0.217
-421.515	-170.912	-0.213	0.007
-420.500	407.479	-0.016	0.033
-419.486	-68.011	-0.267	-0.104
-418.471	-181.528	-0.247	0.005
-417.457	94.374	-0.077	-0.088
-416.442	-106.067	0.251	0.056
-415.428	-94.562	0.418	-0.114
-414.413	-200.000	0.020	0.270
-413.398	-65.230	0.174	-0.070
-412.384	81.989	0.070	0.076
-411.369	80.218	-0.058	-0.062
-410.355	18.058	0.133	-0.106
-409.340	457.492	0.007	-0.016
-408.325	670.454	-0.167	-0.431
-407.311	146.790	-0.219	-0.294
-406.296	55.076	0.287	-0.277
-405.282	-200.000	-0.034	0.347
-404.267	-141.200	-0.147	-0.015
-403.252	-140.620	0.162	-0.017
-402.238	-102.435	-0.227	0.054
-401.223	800.000	-0.097	0.274
-400.209	-96.365	0.183	0.048
-399.194	800.000	0.045	0.193
-398.179	84.798	-0.224	0.245
-397.165	8.619	0.183	0.138
-396.150	-48.838	-0.110	0.053
-395.136	-200.000	-0.006	0.124
-394.121	425.034	0.053	0.114
-393.106	482.485	-0.060	0.136
-392.092	800.000	0.116	0.496
-391.077	800.000	0.046	0.181
-390.063	-27.494	0.097	-0.056
-389.048	-117.079	0.426	-0.078
-388.033	-200.000	-0.029	0.145
-387.019	-71.149	0.164	-0.061
-386.004	-200.000	-0.012	0.054
-384.990	-125.539	0.323	-0.049
-383.975	-48.690	-0.070	0.033
-382.960	3.176	-0.414	-0.300
-381.946	-35.372	0.047	0.026
-380.931	308.406	-0.131	0.243
-379.917	130.645	-0.204	-0.261
-378.902	28.504	0.182	0.154
-377.888	-105.857	-0.155	-0.035
-376.873	31.384	0.310	-0.266
-375.858	13.201	-0.241	-0.186
-374.844	-200.000	0.013	0.230
-373.829	150.883	0.204	0.277
-372.815	-66.414	-0.267	0.106
-371.800	58.875	0.189	-0.186
-370.785	-41.258	0.171	-0.088
-369.771	-0.767	-0.239	0.169
-368.756	-162.922	-0.144	-0.007
-367.742	283.006	-0.026	-0.047
-366.727	-176.350	0.377	-0.010
-365.712	-144.298	-0.445	-0.041
-364.698	-16.457	-0.212	0.134
-363.683	631.033	-0.107	-0.271
-362.669	-60.372	-0.316	-0.134
-361.654	194.665	-0.133	0.201
-360.639	156.488	-0.129	0.177
-359.625	518.119	0.065	0.151
-358.610	-200.000	-0.004	-0.132
-357.596	-23.672	0.244	0.146
-356.581	-118.501	-0.385	0.068
-355.566	497.402	-0.084	0.193
-354.552	532.716	-0.083	0.197
-353.537	-128.417	-0.603	-0.085
-352.523	-123.267	0.343	-0.055
-351.508	-175.419	-0.407	-0.011
-350.493	-192.848	-0.491	-0.004
-349.479	-145.182	0.272	-0.025
-348.464	148.080	0.159	-0.214
-347.450	-200.000	0.000	-0.080
-346.435	-200.000	-0.043	0.231
-345.420	800.000	-0.065	0.235
-344.406	178.890	0.150	0.219
-343.391	76.934	0.135	0.143
-342.377	-52.830	-0.188	-0.086
-341.362	21.654	0.135	0.110
-340.348	800.000	-0.092	0.380
-339.333	594.027	0.022	-0.055
-338.318	293.359	0.158	-0.288
-337.304	-2.878	-0.089	-0.062
-336.289	800.000	-0.084	0.269
-335.275	11.468	-0.167	-0.128
-334.260	127.214	0.065	-0.082
-333.245	-16.217	-0.069	0.043
-332.231	104.627	-0.130	0.152
-331.216	627.727	-0.088	-0.220
-330.202	-57.894	0.246	0.107
-329.187	-29.136	-0.194	-0.110
-328.172	800.000	-0.040	0.149
-327.158	-132.402	0.215	0.028
-326.143	181.236	0.225	0.329
-325.129	-35.549	-0.289	-0.156
-324.114	54.048	0.119	0.114
-323.099	-64.787	0.281	-0.113
-322.085	-103.264	0.210	0.049
-321.070	-128.839	0.071	-0.010
-320.056	12.173	0.216	0.165
-319.041	-200.000	0.042	-0.214
-318.026	-200.000	-0.005	0.064
-317.012	288.030	-0.076	-0.137
-315.997	-104.846	-0.325	0.074
-314.983	-200.000	-0.039	0.233
-313.968	513.877	-0.109	0.254
-312.953	-34.750	-0.106	0.057
-311.939	98.841	0.047	-0.054
-310.924	103.491	-0.070	0.082
-309.910	-24.507	-0.196	0.116
-308.895	221.768	-0.105	-0.168
-307.880	-200.000	0.050	-0.251
-306.866	211.538	0.118	0.185
-305.851	-62.918	-0.086	0.035
-304.837	259.387	-0.095	-0.163
-303.822	602.513	0.088	0.218
-302.807	158.061	-0.091	0.126
-301.793	-43.897	-0.109	0.054
-300.778	-11.533	0.082	0.054
-299.764	-24.627	-0.209	0.124
-298.749	-142.525	0.134	0.013
-297.735	221.184	0.154	0.246
-296.720	194.339	0.192	0.289
-295.705	-181.484	0.252	-0.005
-294.691	-91.646	-0.026	-0.007
-293.676	800.000	-0.032	0.101
-292.662	215.493	0.175	0.276
-291.647	72.433	-0.271	0.281
-290.632	-63.278	-0.193	-0.079
-289.618	361.550	0.075	0.149
-288.603	94.717	0.177	0.200
-287.589	-40.076	0.102	0.053
-286.574	230.956	0.133	0.216
-285.559	26.440	0.165	0.137
-284.545	-200.000	0.000	0.174
-283.530	124.401	0.052	0.064
-282.516	-97.710	-0.182	-0.047
-281.501	251.742	0.149	-0.251
-280.486	-58.282	-0.223	0.097
-279.472	-38.895	0.147	-0.077
-278.457	-142.810	0.143	0.014
-277.443	-174.732	-0.195	0.005
-276.428	-200.000	-0.024	0.254
-275.413	218.940	-0.093	0.147
-274.399	2.107	0.073	0.052
-273.384	362.173	-0.077	-0.153
-272.370	357.028	0.143	-0.283
-271.355	800.000	0.033	0.143
-270.340	33.722	0.095	-0.082
-269.326	-200.000	0.004	-0.081
-268.311	505.122	-0.056	-0.128
-267.297	-127.760	0.225	-0.032
-266.282	-80.611	0.268	0.088
-265.267	52.441	0.186	-0.176
-264.253	-200.000	-0.008	0.071
-263.238	379.428	-0.041	-0.084
-262.224	-165.877	-0.161	0.007
-261.209	611.432	-0.059	-0.146
-260.195	562.071	0.149	0.358
-259.180	33.511	0.129	-0.111
-258.165	-200.000	-0.011	-0.324
-257.151	-114.203	-0.176	-0.034
-256.136	800.000	0.017	-0.067
-255.122	612.820	-0.073	0.182
-254.107	-59.027	0.434	-0.186
-253.092	127.667	-0.226	0.285
-252.078	-200.000	0.022	0.139
-251.063	-164.867	-0.314	0.014
-250.049	16.545	0.162	-0.127
-249.034	462.496	0.106	0.234
-248.019	288.601	0.166	-0.299
-247.005	-18.386	-0.067	-0.042
-245.990	-4.241	0.277	-0.190
-244.976	-56.340	0.044	0.019
-243.961	46.585	-0.272	0.251
-242.946	-171.495	0.315	0.010
-241.932	676.587	0.046	-0.119
-240.917	521.389	-0.066	-0.154
-239.903	-100.719	0.131	0.032
-238.888	101.395	-0.128	-0.148
-237.873	-23.828	-0.342	-0.203
-236.859	-36.112	0.549	-0.294
-235.844	-2.783	-0.338	-0.234
-234.830	-49.652	-0.361	0.170
-233.815	-165.734	0.119	0.005
-232.800	404.962	-0.094	-0.197
-231.786	-150.446	0.221	0.017
-230.771	241.541	-0.079	0.131
-229.757	184.888	-0.122	0.179
-228.742	-2.997	-0.273	-0.189
-227.727	56.903	0.154	-0.149
-226.713	-165.530	-0.052	0.002
-225.698	-200.000	-0.010	0.233
-224.684	-158.885	-0.037	-0.002
-223.669	20.971	-0.051	0.041
-222.655	109.271	0.061	-0.072
-221.640	-37.756	0.288	-0.152
-220.625	-197.036	-0.279	0.002
-219.611	800.000	-0.072	0.224
-218.596	74.894	-0.173	-0.181
-217.582	248.431	0.063	0.106
-216.567	168.772	-0.265	0.375
-215.552	-200.000	0.011	0.095
-214.538	136.095	-0.137	0.178
-213.523	-86.645	0.132	0.040
-212.509	-37.196	0.110	-0.058
-211.494	-200.000	0.051	-0.480
-210.479	49.403	0.130	-0.121
-209.465	-71.681	-0.460	-0.170
-208.450	800.000	-0.087	-0.239
-207.436	-200.000	0.013	-0.310
-206.421	47.160	-0.162	-0.149
-205.406	253.241	0.057	-0.097
-204.392	1.139	-0.402	0.286
-203.377	142.179	-0.037	-0.049
-202.363	-119.279	-0.376	-0.065
-201.348	-97.859	0.174	0.045
-200.333	-38.975	0.161	-0.084
-199.319	-60.277	0.177	0.075
-198.304	-130.922	-0.236	-0.031
-197.290	126.346	0.057	-0.072
-196.275	800.000	-0.044	-0.161
-195.260	239.128	0.100	0.165
-194.246	300.071	0.138	-0.251
-193.231	-89.901	-0.095	0.027
-192.217	-66.918	0.011	0.004
-191.202	-200.000	0.005	-0.069
-190.187	36.450	0.196	-0.171
-189.173	-73.402	0.117	-0.042
-188.158	530.521	-0.110	0.257
-187.144	-92.940	0.312	-0.086
-186.129	800.000	-0.070	-0.220
-185.114	-79.390	0.123	-0.041
-184.100	111.823	-0.166	-0.198
-183.085	800.000	-0.073	-0.244
-182.071	-117.811	-0.106	0.019
-181.056	-95.848	0.500	0.132
-180.042	92.085	-0.179	-0.199
-179.027	-96.784	-0.179	-0.047
-178.012	72.703	-0.191	0.198
-176.998	163.959	0.077	-0.107
-175.983	30.300	0.061	0.051
-174.969	181.008	0.076	0.111
-173.954	258.659	-0.226	0.386
-172.939	800.000	-0.044	0.125
-171.925	-200.000	0.005	0.246
-170.910	-200.000	0.000	-0.083
-169.896	-53.435	-0.204	-0.092
-168.881	109.720	0.235	-0.279
-167.866	712.344	-0.105	-0.274
-166.852	232.397	0.030	-0.049
-165.837	-64.006	0.094	-0.038
-164.823	-200.000	0.032	-0.236
-163.808	800.000	0.030	-0.125
-162.793	92.776	-0.063	-0.070
-161.779	-200.000	-0.005	0.078
-160.764	-200.000	0.040	0.291
-159.750	-27.436	0.247	-0.142
-158.735	46.771	0.273	0.250
-157.720	-165.422	0.127	-0.005
-156.706	-31.591	-0.151	-0.084
-155.691	-1.070	0.195	0.136
-154.677	94.687	-0.174	0.196
-153.662	-58.870	-0.119	-0.051
-152.647	430.554	0.129	0.276
-151.633	68.989	0.148	0.150
-150.618	-77.101	0.189	0.065
-149.604	204.741	0.084	-0.129
-148.589	-93.124	0.146	0.040
-147.574	-200.000	0.033	0.279
-146.560	746.554	-0.077	-0.204
-145.545	800.000	-0.056	0.161
-144.531	-10.815	-0.032	-0.021
-143.516	-22.344	0.142	0.085
-142.502	680.748	0.031	-0.079
-141.487	-138.608	-0.120	-0.013
-140.472	-176.043	0.248	-0.006
-139.458	171.904	0.092	-0.130
-138.443	-108.345	0.146	0.031
-137.429	284.068	0.076	-0.136
-136.414	-167.811	0.348	0.014
-135.399	30.228	0.264	-0.223
-134.385	-200.000	0.065	-0.331
-133.370	-49.979	-0.371	0.174
-132.356	-134.281	-0.191	0.023
-131.341	-60.078	0.114	-0.048
-130.326	3.020	0.255	0.183
-129.312	-82.535	0.468	0.150
-128.297	-98.296	0.325	0.082
-127.283	-200.000	-0.002	-0.278
-126.268	-200.000	0.005	0.087
-125.253	-111.667	0.285	0.057
-124.239	-200.000	-0.009	0.187
-123.224	-200.000	0.046	0.430
-122.210	-47.886	-0.051	-0.024
-121.195	109.539	-0.125	0.148
