DTS Sentinel unit serial number:	SN413079Multiplexer serial number:	ORYXHardware model number:	OX4-SRSoftware version number:	ORYX F/W v4.00 Oryx Data Collector v3.7.2.0data status	okinstallation	princeton_trtdifferential loss correction	single-endedforward channel	channel 1reverse channel	N/Adate	2019/09/11time	10:24:11forward acquisition time	60.00reverse acquisition time	0.00gamma	496.2192k internal	0.2298k external	0.2298temperature offset calibration	0.9954default loss term (dB/km)	0.3790temperature slope calibration	1.0000multiplexer offset coefficient	1.0000multiplexer slope coefficient	1.0000fibre end	0.00T internal ref (°C)	36.19T ext. ref 1 (°C)	0.14T ext. ref 2 (°C)	32.59length (m)	temperature (°C)	Stokes	anti-Stokes-747.200	189.703	-0.008	0.012
-746.185	404.788	-0.121	0.259
-745.171	800.000	-0.042	0.154
-744.156	-200.000	-0.008	0.174
-743.142	73.606	-0.170	-0.182
-742.127	-200.000	0.052	0.337
-741.112	58.409	0.194	-0.194
-740.098	-30.105	-0.262	0.152
-739.083	216.621	-0.125	-0.203
-738.069	314.954	-0.168	0.323
-737.054	-200.000	0.016	-0.156
-736.039	-62.763	-0.116	-0.049
-735.025	800.000	0.086	-0.318
-734.010	-173.923	-0.285	0.009
-732.996	-200.000	-0.008	0.037
-731.981	-79.283	0.180	-0.062
-730.966	-98.256	-0.236	-0.062
-729.952	-132.742	-0.089	-0.012
-728.937	85.926	-0.260	-0.292
-727.923	-70.447	-0.291	0.113
-726.908	-200.000	-0.025	0.178
-725.894	-200.000	-0.002	-0.204
-724.879	190.527	0.131	-0.201
-723.864	109.409	0.297	-0.363
-722.850	-130.988	-0.223	-0.030
-721.835	-200.000	-0.039	0.253
-720.821	-200.000	-0.017	0.413
-719.806	-200.000	0.001	0.317
-718.791	-59.498	-0.173	-0.076
-717.777	-26.302	0.191	0.114
-716.762	800.000	-0.062	0.274
-715.748	-169.611	0.204	0.008
-714.733	-133.833	-0.261	0.033
-713.718	-41.534	0.199	0.104
-712.704	504.648	0.110	-0.259
-711.689	800.000	0.053	0.188
-710.675	100.676	-0.239	-0.283
-709.660	-98.296	-0.315	0.082
-708.645	-200.000	0.006	0.112
-707.631	-134.546	-0.102	-0.013
-706.616	800.000	0.059	0.172
-705.602	127.011	0.054	-0.069
-704.587	-37.037	-0.113	-0.062
-703.572	-112.450	-0.300	0.061
-702.558	-159.784	-0.365	-0.020
-701.543	94.889	0.126	-0.146
-700.529	-122.868	-0.146	-0.024
-699.514	-76.937	0.177	-0.063
-698.499	800.000	-0.016	0.060
-697.485	-102.996	-0.197	0.048
-696.470	-97.305	0.276	-0.073
-695.456	44.598	0.115	-0.108
-694.441	142.701	-0.034	-0.046
-693.426	800.000	0.044	-0.173
-692.412	96.058	0.179	-0.208
-691.397	-125.844	-0.194	0.030
-690.383	138.602	-0.268	-0.359
-689.368	103.746	-0.235	-0.281
-688.354	566.132	-0.021	0.051
-687.339	42.979	-0.187	0.173
-686.324	-45.077	-0.034	-0.017
-685.310	800.000	-0.005	0.017
-684.295	293.747	-0.112	0.209
-683.281	705.087	-0.103	0.278
-682.266	-200.000	0.009	0.068
-681.251	192.062	0.148	-0.228
-680.237	209.796	0.047	-0.074
-679.222	-79.526	-0.202	-0.069
-678.208	248.335	-0.056	0.096
-677.193	-17.521	0.183	0.117
-676.178	-200.000	0.057	-0.262
-675.164	104.456	-0.137	-0.165
-674.149	-200.000	0.222	-0.000
-673.135	-1.581	-0.197	-0.141
-672.120	800.000	0.019	-0.062
-671.105	695.265	0.112	0.298
-670.091	-118.693	-0.377	-0.068
-669.076	-136.192	-0.134	0.016
-668.062	-10.261	0.217	0.147
-667.047	22.841	-0.074	-0.062
-666.032	-177.722	0.278	0.007
-665.018	178.081	-0.110	-0.164
-664.003	95.364	0.174	0.201
-662.989	111.342	-0.157	-0.193
-661.974	111.841	-0.162	-0.200
-660.959	618.281	0.186	0.476
-659.945	-81.401	-0.241	0.081
-658.930	-123.441	0.111	0.018
-657.916	800.000	-0.071	-0.203
-656.901	-190.404	-0.204	-0.002
-655.886	-180.894	-0.095	0.002
-654.872	-200.000	0.001	0.098
-653.857	-126.115	0.238	-0.036
-652.843	-68.301	-0.089	0.035
-651.828	800.000	0.084	0.326
-650.814	-181.368	-0.365	-0.007
-649.799	-200.000	-0.026	-0.159
-648.784	-200.000	-0.028	-0.364
-647.770	-200.000	0.000	0.291
-646.755	13.660	-0.026	-0.020
-645.741	170.947	-0.136	0.198
-644.726	45.637	-0.104	0.098
-643.711	-102.877	-0.125	0.030
-642.697	287.849	0.077	0.142
-641.682	-135.382	0.502	0.061
-640.668	37.831	-0.147	0.132
-639.653	-200.000	-0.012	-0.251
-638.638	-61.816	-0.234	0.100
-637.624	-74.407	0.156	-0.057
-636.609	-61.679	-0.296	0.126
-635.595	326.666	-0.043	0.083
-634.580	-200.000	0.055	0.264
-633.565	111.652	-0.143	-0.175
-632.551	-178.157	0.174	-0.004
-631.536	110.146	-0.132	0.162
-630.522	-59.207	0.151	-0.066
-629.507	12.659	0.171	0.134
-628.492	800.000	0.082	0.247
-627.478	148.475	0.047	0.065
-626.463	225.704	-0.141	-0.232
-625.449	134.572	-0.174	0.229
-624.434	-159.285	-0.503	-0.029
-623.419	-97.371	0.167	0.044
-622.405	64.159	-0.189	0.193
-621.390	-45.820	-0.283	0.142
-620.376	-200.000	0.050	-0.369
-619.361	-200.000	0.030	-0.160
-618.346	-198.009	-0.079	-0.000
-617.332	-52.525	0.075	0.035
-616.317	-84.831	0.185	0.059
-615.303	111.107	0.165	-0.202
-614.288	41.201	-0.037	0.034
-613.273	-171.996	0.089	-0.003
-612.259	-41.744	-0.231	0.121
-611.244	213.994	-0.116	-0.186
-610.230	-142.955	0.107	-0.011
-609.215	-200.000	0.069	-0.461
-608.201	305.385	0.155	-0.292
-607.186	-74.202	0.314	0.115
-606.171	729.182	-0.112	-0.303
-605.157	-200.000	-0.043	0.244
-604.142	-189.383	-0.322	0.004
-603.128	241.205	0.079	-0.133
-602.113	-200.000	-0.031	-0.177
-601.098	-78.970	-0.090	-0.031
-600.084	-81.023	0.197	0.066
-599.069	41.049	0.293	-0.268
-598.055	24.170	0.072	-0.060
-597.040	-1.650	0.076	-0.054
-596.025	800.000	0.024	0.071
-595.011	-147.850	-0.221	0.019
-593.996	271.713	-0.167	-0.298
-592.982	-97.786	0.185	-0.049
-591.967	61.764	-0.219	0.221
-590.952	-112.577	-0.148	0.030
-589.938	-91.945	0.220	0.063
-588.923	-151.282	0.173	0.013
-587.909	-74.020	0.021	0.008
-586.894	-35.081	-0.285	-0.157
-585.879	800.000	0.041	-0.151
-584.865	231.633	-0.095	-0.159
-583.850	-102.098	0.024	-0.006
-582.836	144.828	0.170	-0.230
-581.821	147.224	-0.212	-0.290
-580.806	563.129	0.077	-0.190
-579.792	-89.470	0.291	-0.087
-578.777	-64.100	-0.248	-0.103
-577.763	233.609	-0.067	0.112
-576.748	507.991	-0.052	-0.122
-575.733	13.112	0.245	-0.192
-574.719	688.905	-0.035	-0.093
-573.704	162.263	0.109	-0.155
-572.690	-93.305	0.121	0.034
-571.675	-200.000	0.046	0.417
-570.661	-21.415	-0.171	-0.106
-569.646	-49.119	-0.363	-0.176
-568.631	75.662	0.217	-0.232
-567.617	149.732	-0.229	0.315
-566.602	-41.828	-0.276	-0.144
-565.588	-200.000	0.002	-0.060
-564.573	-134.717	0.206	-0.025
-563.558	800.000	-0.083	-0.260
-562.544	-73.846	-0.095	-0.035
-561.529	582.043	-0.046	-0.114
-560.515	-148.723	-0.143	0.012
-559.500	-161.883	-0.387	0.020
-558.485	-1.438	0.220	-0.158
-557.471	-82.291	-0.224	0.074
-556.456	-200.000	-0.005	0.105
-555.442	-17.909	0.288	-0.183
-554.427	-134.750	0.243	0.030
-553.412	123.769	-0.111	-0.141
-552.398	374.190	-0.144	-0.296
-551.383	-55.389	0.137	-0.063
-550.369	-55.789	0.143	0.065
-549.354	650.821	-0.156	0.406
-548.339	800.000	0.028	0.108
-547.325	57.444	-0.101	-0.099
-546.310	-29.521	-0.142	-0.082
-545.296	-146.428	-0.329	0.029
-544.281	-145.921	0.301	0.027
-543.266	-200.000	0.040	0.199
-542.252	-113.403	-0.129	0.026
-541.237	-42.271	0.120	-0.062
-540.223	433.537	0.069	0.152
-539.208	-80.817	-0.207	0.070
-538.193	-40.302	0.143	-0.075
-537.179	-20.528	-0.165	-0.103
-536.164	-92.972	-0.243	-0.069
-535.150	-200.000	-0.273	-0.000
-534.135	-65.704	-0.208	0.084
-533.121	-96.758	-0.060	-0.016
-532.106	800.000	0.097	0.287
-531.091	-13.952	-0.292	0.191
-530.077	800.000	-0.035	0.142
-529.062	800.000	0.084	-0.345
-528.048	-112.740	-0.137	0.028
-527.033	800.000	0.049	0.173
-526.018	149.532	0.098	0.134
-525.004	156.503	-0.074	-0.104
-523.989	157.927	-0.139	-0.196
-522.975	-69.350	-0.247	0.096
-521.960	-200.000	-0.003	0.094
-520.945	138.234	-0.215	-0.285
-519.931	41.205	-0.185	-0.170
-518.916	-200.000	0.034	0.182
-517.902	433.141	-0.034	0.075
-516.887	-131.105	-0.295	0.040
-515.872	-100.723	-0.120	0.030
-514.858	425.325	-0.038	0.083
-513.843	-200.000	0.019	-0.185
-512.829	-147.790	-0.162	-0.014
-511.814	-40.503	0.444	-0.233
-510.799	424.519	0.092	-0.200
-509.785	233.486	-0.158	0.263
-508.770	-200.000	-0.006	-0.155
-507.756	-56.608	0.263	0.118
-506.741	8.256	0.146	0.111
-505.726	-200.000	0.003	-0.164
-504.712	-190.525	-0.438	-0.005
-503.697	-4.616	-0.271	0.189
-502.683	-34.992	0.093	-0.052
-501.668	-200.000	-0.003	0.016
-500.653	-200.000	0.032	-0.205
-499.639	-79.301	0.254	0.087
-498.624	800.000	0.143	0.402
-497.610	-200.000	0.021	0.412
-496.595	45.428	-0.209	-0.195
-495.581	50.635	-0.232	-0.222
-494.566	-200.000	-0.025	0.133
-493.551	-107.762	0.091	-0.020
-492.537	-200.000	-0.019	-0.251
-491.522	-121.185	0.119	0.020
-490.508	456.603	0.080	-0.179
-489.493	-200.000	-0.014	0.245
-488.478	-200.000	-0.015	-0.070
-487.464	57.325	0.060	-0.059
-486.449	-129.498	0.167	0.023
-485.435	-18.398	0.372	-0.235
-484.420	92.194	0.059	0.067
-483.405	800.000	-0.069	0.289
-482.391	-200.000	0.022	-0.181
-481.376	307.313	-0.074	-0.140
-480.362	44.789	0.260	0.242
-479.347	18.698	-0.198	0.160
-478.332	-200.000	0.012	0.063
-477.318	-32.190	0.220	0.124
-476.303	-200.000	0.058	-0.341
-475.289	-1.148	0.171	-0.122
-474.274	-200.000	0.007	0.044
-473.259	-81.950	0.283	-0.093
-472.245	-200.000	0.109	-0.501
-471.230	-52.770	-0.173	0.081
-470.216	-7.003	-0.302	0.207
-469.201	-82.736	0.228	-0.074
-468.186	537.414	0.059	-0.141
-467.172	-59.614	-0.321	-0.139
-466.157	-70.695	-0.059	-0.022
-465.143	83.486	0.270	-0.297
-464.128	-130.533	-0.108	-0.015
-463.113	133.048	0.107	-0.139
-462.099	800.000	0.033	0.094
-461.084	621.500	0.057	0.145
-460.070	-37.727	-0.185	0.099
-459.055	80.639	0.126	0.138
-458.040	-52.385	-0.070	-0.033
-457.026	46.635	0.237	-0.222
-456.011	-200.000	-0.031	-0.169
-454.997	-109.031	0.308	-0.066
-453.982	-9.298	0.107	-0.072
-452.968	-200.000	-0.020	-0.244
-451.953	652.595	0.057	-0.147
-450.938	265.877	0.079	-0.139
-449.924	800.000	0.008	0.030
-448.909	342.361	-0.203	0.401
-447.895	-105.044	-0.364	-0.084
-446.880	-200.000	-0.008	0.218
-445.865	111.769	-0.107	-0.130
-444.851	-21.550	0.153	0.094
-443.836	-142.078	0.177	0.018
-442.822	-176.425	0.096	-0.002
-441.807	268.052	-0.145	0.257
-440.792	-39.262	0.256	-0.136
-439.778	-200.000	-0.070	-0.317
-438.763	245.921	-0.061	-0.104
-437.749	-200.000	0.035	-0.333
-436.734	111.571	0.185	-0.225
-435.719	377.511	0.056	-0.116
-434.705	219.077	0.217	0.350
-433.690	227.983	0.093	0.152
-432.676	464.248	0.129	-0.291
-431.661	-200.000	-0.016	0.089
-430.646	215.553	0.162	0.259
-429.632	94.953	-0.252	0.289
-428.617	-8.117	0.274	-0.186
-427.603	16.245	0.175	-0.139
-426.588	-200.000	0.089	0.468
-425.573	81.486	0.303	-0.330
-424.559	800.000	-0.103	-0.319
-423.544	-175.053	-0.274	0.008
-422.530	-120.072	0.057	-0.010
-421.515	142.793	-0.117	0.157
-420.500	-44.446	-0.129	0.065
-419.486	119.625	0.081	0.101
-418.471	-200.000	-0.016	0.145
-417.457	54.687	-0.141	0.137
-416.442	-200.000	-0.012	0.195
-415.428	-200.000	-0.009	0.366
-414.413	154.756	-0.278	-0.385
-413.398	134.491	0.055	-0.072
-412.384	-86.723	0.276	0.085
-411.369	800.000	-0.044	0.152
-410.355	24.419	-0.345	0.288
-409.340	-95.786	-0.143	-0.038
-408.325	-113.866	-0.184	0.036
-407.311	59.338	0.401	0.398
-406.296	800.000	0.048	-0.203
-405.282	800.000	-0.035	0.144
-404.267	170.120	-0.021	0.030
-403.252	-200.000	-0.051	0.245
-402.238	59.812	0.081	0.081
-401.223	648.026	0.118	-0.305
-400.209	99.526	-0.106	0.124
-399.194	-148.094	-0.103	-0.009
-398.179	-23.227	-0.436	-0.264
-397.165	-200.000	0.008	-0.186
-396.150	353.059	0.045	-0.089
-395.136	-24.599	0.314	0.188
-394.121	388.582	-0.116	0.242
-393.106	800.000	-0.060	0.191
-392.092	94.358	-0.160	-0.182
-391.077	59.940	-0.271	-0.269
-390.063	-136.878	-0.247	-0.029
-389.048	12.665	0.251	0.195
-388.033	-200.000	0.004	0.104
-387.019	-200.000	0.007	0.260
-386.004	8.001	-0.292	-0.220
-384.990	-123.738	-0.299	0.048
-383.975	350.629	0.197	-0.391
-382.960	17.819	0.117	0.094
-381.946	-200.000	-0.022	0.104
-380.931	-128.956	0.267	0.038
-379.917	31.835	0.115	0.099
-378.902	-19.197	0.097	-0.061
-377.888	800.000	-0.068	0.203
-376.873	-147.078	0.373	-0.032
-375.858	800.000	-0.086	0.275
-374.844	61.801	-0.100	0.100
-373.829	230.424	0.182	0.300
-372.815	-114.262	0.102	0.020
-371.800	0.281	-0.103	0.074
-370.785	-141.369	-0.292	0.030
-369.771	310.651	0.167	-0.315
-368.756	205.119	0.089	0.139
-367.742	800.000	-0.053	0.210
-366.727	-200.000	0.058	-0.311
-365.712	41.849	-0.041	0.038
-364.698	212.025	-0.040	0.063
-363.683	-134.118	0.136	0.017
-362.669	-92.364	-0.275	0.078
-361.654	243.601	0.104	0.176
-360.639	-114.507	0.130	0.025
-359.625	118.329	0.080	0.099
-358.610	800.000	-0.120	-0.339
-357.596	800.000	0.089	-0.292
-356.581	-200.000	0.068	-0.477
-355.566	366.503	-0.061	-0.124
-354.552	140.348	-0.143	0.189
-353.537	32.984	0.037	-0.032
-352.523	-200.000	-0.002	0.071
-351.508	-2.561	0.178	0.126
-350.493	-39.034	-0.214	0.113
-349.479	-144.732	-0.385	-0.036
-348.464	1.841	0.116	0.084
-347.450	-13.157	-0.166	0.108
-346.435	-43.141	0.267	-0.136
-345.420	-96.181	-0.233	0.062
-344.406	-99.064	0.111	0.028
-343.391	23.497	-0.253	0.209
-342.377	291.759	-0.097	-0.177
-341.362	-200.000	-0.019	-0.089
-340.348	153.796	-0.235	-0.323
-339.333	-29.498	0.470	0.270
-338.318	-67.884	0.192	0.076
-337.304	19.352	0.234	-0.189
-336.289	-200.000	0.018	-0.081
-335.275	-6.150	0.071	0.048
-334.260	-129.156	-0.121	0.017
-333.245	96.735	0.221	0.254
-332.231	-136.841	0.285	0.033
-331.216	-200.000	0.043	0.429
-330.202	-131.039	-0.184	-0.025
-329.187	207.707	-0.184	0.288
-328.172	143.421	0.016	0.022
-327.158	-3.062	0.194	0.136
-326.143	-144.582	0.138	-0.013
-325.129	-200.000	0.025	0.133
-324.114	1.326	-0.159	0.115
-323.099	589.179	-0.066	-0.164
-322.085	361.375	0.115	0.232
-321.070	-38.646	-0.191	0.101
-320.056	-128.981	0.304	0.043
-319.041	19.851	-0.188	-0.152
-318.026	-86.083	0.342	-0.106
-317.012	-3.472	-0.249	0.174
-315.997	-71.693	0.181	0.068
-314.983	-115.410	-0.214	-0.040
-313.968	-77.874	0.415	-0.144
-312.953	-200.000	0.011	0.319
-311.939	-73.987	-0.081	-0.029
-310.924	-17.430	0.174	0.110
-309.910	-15.358	0.172	-0.110
-308.895	-98.586	0.097	0.025
-307.880	157.270	-0.236	0.328
-306.866	800.000	-0.102	-0.357
-305.851	50.207	0.230	-0.218
-304.837	174.203	-0.180	-0.261
-303.822	301.938	0.063	-0.117
-302.807	-27.098	-0.147	-0.086
-301.793	-163.907	0.215	0.010
-300.778	501.893	-0.019	-0.045
-299.764	68.109	-0.207	0.212
-298.749	800.000	0.034	-0.129
-297.735	-53.205	-0.063	0.029
-296.720	-200.000	0.004	0.060
-295.705	800.000	0.082	-0.233
-294.691	155.965	-0.194	0.269
-293.676	13.438	0.367	0.285
-292.662	386.090	-0.098	-0.204
-291.647	290.336	-0.075	0.136
-290.632	428.043	0.113	-0.244
-289.618	-96.058	-0.189	0.050
-288.603	-12.665	0.251	-0.164
-287.589	282.176	-0.103	-0.186
-286.574	800.000	-0.074	0.229
-285.559	-200.000	0.003	0.083
-284.545	265.735	0.188	0.329
-283.530	-200.000	0.010	-0.117
-282.516	-102.657	0.349	-0.083
-281.501	165.896	0.212	0.301
-280.486	-95.773	-0.453	-0.121
-279.472	-59.998	-0.192	0.082
-278.457	-37.700	-0.186	0.099
-277.443	-200.000	0.014	0.123
-276.428	-174.562	-0.416	0.012
-275.413	800.000	0.075	0.287
-274.399	241.126	0.023	-0.039
-273.384	125.287	0.120	0.152
-272.370	717.444	-0.073	-0.195
-271.355	-138.698	-0.167	-0.018
-270.340	-122.403	0.097	0.016
-269.326	-118.060	0.229	0.041
-268.311	-101.344	0.317	-0.078
-267.297	1.474	-0.075	0.054
-266.282	61.407	0.017	-0.017
-265.267	800.000	0.025	0.100
-264.253	241.472	-0.073	-0.122
-263.238	-60.692	-0.247	0.105
-262.224	182.017	-0.185	-0.272
-261.209	-120.177	0.528	0.090
-260.195	131.317	-0.116	0.149
-259.180	-154.544	0.205	-0.014
-258.165	405.140	-0.022	-0.046
-257.151	15.239	0.111	-0.087
-256.136	-200.000	-0.029	0.234
-255.122	-200.000	-0.012	-0.055
-254.107	-200.000	0.030	0.226
-253.092	800.000	0.017	-0.066
-252.078	-200.000	0.051	-0.272
-251.063	-200.000	-0.007	-0.196
-250.049	89.354	0.209	-0.234
-249.034	200.280	0.086	-0.132
-248.019	-133.618	-0.188	-0.024
-247.005	800.000	0.091	0.267
-245.990	382.042	0.083	0.170
-244.976	317.870	0.190	0.359
-243.961	-184.962	-0.290	-0.005
-242.946	-19.177	-0.123	0.077
-241.932	4.506	-0.168	0.124
-240.917	125.741	0.117	-0.148
-239.903	82.580	-0.233	0.253
-238.888	3.483	-0.089	-0.065
-237.873	-67.614	-0.236	0.093
-236.859	-10.807	-0.183	0.121
-235.844	-167.911	0.208	0.008
-234.830	-131.718	-0.334	0.044
-233.815	86.521	0.239	-0.264
-232.800	20.796	0.199	-0.161
-231.786	800.000	-0.071	0.298
-230.771	-8.145	0.193	0.130
-229.757	475.150	0.092	0.208
-228.742	-115.952	0.216	-0.040
-227.727	-137.723	-0.121	-0.014
-226.713	110.444	0.152	-0.182
-225.698	12.042	-0.293	-0.226
-224.684	-200.000	-0.025	0.165
-223.669	-200.000	-0.024	0.275
-222.655	52.126	0.137	-0.131
-221.640	-8.078	0.121	0.081
-220.625	40.159	-0.363	0.326
-219.611	-173.930	0.227	0.007
-218.596	8.703	-0.153	0.115
-217.582	800.000	-0.026	0.096
-216.567	-130.154	-0.080	0.011
-215.552	-200.000	-0.006	-0.030
-214.538	-200.000	-0.001	0.264
-213.523	-107.680	0.434	0.095
-212.509	800.000	0.022	-0.063
-211.494	144.620	-0.061	0.082
-210.479	-200.000	0.014	-0.165
-209.465	800.000	0.077	-0.259
-208.450	402.939	0.110	0.231
-207.436	-96.206	0.297	-0.079
-206.421	41.190	0.055	0.050
-205.406	-200.000	-0.004	0.172
-204.392	-114.097	0.308	-0.060
-203.377	-200.000	-0.066	-0.308
-202.363	-200.000	-0.020	-0.107
-201.348	-33.806	0.091	-0.050
-200.333	-114.384	-0.079	0.015
-199.319	106.952	-0.072	0.085
-198.304	-200.000	0.020	0.139
-197.290	800.000	-0.072	-0.299
-196.275	-123.844	-0.214	0.034
-195.260	161.354	0.081	-0.113
-194.246	203.333	-0.195	-0.301
-193.231	-143.165	-0.158	0.015
-192.217	-146.872	0.373	-0.032
-191.202	-200.000	0.056	0.000
-190.187	-92.574	0.227	0.064
-189.173	147.047	-0.324	0.436
-188.158	125.840	0.105	-0.132
-187.144	-200.000	0.104	-0.496
-186.129	-132.204	0.059	-0.008
-185.114	-133.790	-0.412	0.051
-184.100	-59.943	0.206	0.088
-183.085	-177.840	-0.321	-0.008
-182.071	110.477	-0.060	-0.072
-181.056	712.674	0.076	-0.201
-180.042	-200.000	0.032	0.317
-179.027	-106.256	0.076	0.017
-178.012	-150.115	0.271	0.021
-176.998	227.274	-0.189	0.307
-175.983	-31.778	-0.240	0.134
-174.969	-91.689	-0.138	-0.039
-173.954	164.737	0.193	0.272
-172.939	800.000	0.132	-0.420
-171.925	800.000	0.066	-0.270
-170.910	-132.599	-0.111	0.014
-169.896	114.758	-0.191	0.233
-168.881	-76.728	0.201	0.070
-167.866	185.495	0.054	0.080
-166.852	800.000	0.112	-0.319
-165.837	364.221	-0.059	0.119
-164.823	-188.292	-0.045	-0.001
-163.808	75.140	0.153	0.161
-162.793	-168.117	0.229	-0.009
-161.779	-75.979	0.195	-0.069
-160.764	-200.000	0.001	0.218
-159.750	200.578	0.072	-0.111
-158.735	-19.847	-0.102	-0.063
-157.720	59.013	0.153	-0.150
-156.706	-83.213	-0.067	-0.021
-155.691	40.956	0.074	-0.066
-154.677	123.866	-0.047	-0.058
-153.662	-200.000	-0.091	-0.485
-152.647	123.838	-0.304	0.381
-151.633	-200.000	-0.027	-0.230
-150.618	-44.069	0.261	0.131
-149.604	169.966	0.048	-0.069
-148.589	-72.504	-0.105	-0.039
-147.574	-75.463	0.030	-0.011
-146.560	90.827	0.174	-0.194
-145.545	127.673	-0.098	-0.125
-144.531	-32.812	0.160	0.089
-143.516	-100.812	-0.340	0.083
-142.502	-38.933	-0.296	-0.155
-141.487	69.167	-0.087	-0.090
-140.472	-102.430	0.551	-0.131
-139.458	-144.585	0.279	-0.026
-138.443	-45.992	-0.108	0.053
-137.429	152.524	-0.178	-0.242
-136.414	-189.308	0.015	0.000
-135.399	-200.000	-0.013	-0.157
-134.385	-137.817	0.259	0.029
-133.370	-43.458	0.240	0.121
-132.356	-31.823	0.037	0.021
-131.341	84.913	-0.129	0.141
-130.326	718.746	-0.171	0.452
-129.312	690.805	0.166	0.432
-128.297	448.760	-0.138	-0.302
-127.283	-200.000	-0.022	-0.136
-126.268	-123.757	-0.100	-0.016
-125.253	98.127	-0.197	-0.225
-124.239	-92.946	0.167	0.046
-123.224	-145.815	0.215	-0.019
-122.210	800.000	-0.086	0.246
