DTS Sentinel unit serial number:	SN413079Multiplexer serial number:	ORYXHardware model number:	OX4-SRSoftware version number:	ORYX F/W v4.00 Oryx Data Collector v3.7.2.0data status	okinstallation	princeton_trtdifferential loss correction	single-endedforward channel	channel 1reverse channel	N/Adate	2019/09/11time	02:32:12forward acquisition time	60.00reverse acquisition time	0.00gamma	496.2192k internal	0.2332k external	0.2332temperature offset calibration	0.9930default loss term (dB/km)	0.3790temperature slope calibration	1.0000multiplexer offset coefficient	1.0000multiplexer slope coefficient	1.0000fibre end	0.00T internal ref (°C)	29.25T ext. ref 1 (°C)	-0.29T ext. ref 2 (°C)	23.52length (m)	temperature (°C)	Stokes	anti-Stokes-747.200	-9.856	-0.349	-0.234
-746.185	118.007	-0.064	-0.080
-745.171	-200.000	-0.009	-0.142
-744.156	800.000	0.084	0.310
-743.142	70.323	0.058	0.060
-742.127	193.329	0.038	0.058
-741.112	-200.000	0.070	0.392
-740.098	117.581	0.193	0.239
-739.083	800.000	0.043	-0.155
-738.069	115.409	-0.144	0.177
-737.054	511.802	0.042	-0.099
-736.039	588.479	-0.059	-0.146
-735.025	-200.000	0.025	-0.248
-734.010	88.005	0.042	-0.046
-732.996	-44.336	-0.226	0.114
-731.981	178.179	-0.124	-0.182
-730.966	29.288	-0.086	0.074
-729.952	261.078	-0.164	0.285
-728.937	-52.102	-0.468	0.218
-727.923	-88.556	-0.174	0.052
-726.908	-75.725	0.153	-0.055
-725.894	-73.258	-0.228	-0.084
-724.879	800.000	0.054	-0.195
-723.864	800.000	-0.047	0.175
-722.850	-119.872	-0.341	-0.059
-721.835	-68.536	-0.171	-0.067
-720.821	800.000	0.092	0.393
-719.806	115.404	0.170	0.209
-718.791	-83.152	-0.138	-0.045
-717.777	-62.968	-0.135	0.056
-716.762	-200.000	-0.017	-0.202
-715.748	-102.422	0.060	-0.014
-714.733	-147.530	-0.299	0.025
-713.718	-87.526	0.233	0.071
-712.704	-80.574	-0.318	-0.106
-711.689	79.119	-0.097	-0.104
-710.675	-67.582	-0.097	0.038
-709.660	110.056	-0.076	0.092
-708.645	23.241	-0.031	0.026
-707.631	-200.000	-0.006	-0.142
-706.616	40.847	0.144	-0.131
-705.602	527.170	0.018	0.042
-704.587	-200.000	0.015	-0.491
-703.572	-60.332	-0.179	0.077
-702.558	800.000	0.085	-0.244
-701.543	-200.000	0.084	-0.505
-700.529	-61.908	-0.081	-0.034
-699.514	-44.518	0.158	-0.079
-698.499	800.000	-0.068	-0.272
-697.485	800.000	0.048	0.158
-696.470	8.987	0.185	0.140
-695.456	282.025	-0.181	0.325
-694.441	80.731	-0.150	-0.162
-693.426	-126.371	0.492	-0.074
-692.412	71.389	-0.238	-0.248
-691.397	134.447	0.024	-0.032
-690.383	-8.510	0.138	-0.093
-689.368	-200.000	0.019	-0.233
-688.354	188.282	-0.038	-0.057
-687.339	24.898	0.147	0.122
-686.324	53.186	0.274	-0.263
-685.310	222.850	0.166	-0.269
-684.295	125.392	-0.200	-0.254
-683.281	-5.357	-0.131	-0.090
-682.266	-102.831	0.172	-0.041
-681.251	105.909	-0.086	-0.102
-680.237	14.546	0.253	-0.198
-679.222	-17.277	-0.101	0.064
-678.208	-93.113	0.059	-0.017
-677.193	-12.533	-0.214	0.140
-676.178	-49.927	-0.144	0.069
-675.164	-200.000	-0.030	-0.237
-674.149	-72.364	0.160	0.059
-673.135	-200.000	-0.016	0.127
-672.120	605.900	-0.119	-0.298
-671.105	491.111	0.130	-0.298
-670.091	-147.122	-0.329	-0.028
-669.076	-59.951	0.149	-0.064
-668.062	332.898	0.075	-0.146
-667.047	-200.000	0.009	0.052
-666.032	-88.692	-0.299	0.089
-665.018	-134.857	-0.248	0.030
-664.003	-200.000	-0.002	-0.035
-662.989	-200.000	0.048	-0.234
-661.974	-200.000	0.035	-0.613
-660.959	42.443	-0.235	0.215
-659.945	152.931	-0.093	0.128
-658.930	248.621	0.262	0.444
-657.916	134.013	0.305	0.396
-656.901	107.456	-0.196	-0.234
-655.886	-30.067	-0.115	-0.065
-654.872	222.510	0.140	-0.226
-653.857	140.436	0.131	0.173
-652.843	632.496	0.031	0.078
-651.828	-45.271	0.096	0.048
-650.814	-64.909	0.191	-0.077
-649.799	-126.332	0.239	0.036
-648.784	-200.000	0.088	0.419
-647.770	-200.000	0.062	-0.299
-646.755	331.647	0.165	-0.319
-645.741	277.039	-0.150	0.267
-644.726	-9.911	-0.168	-0.112
-643.711	-60.012	0.244	0.105
-642.697	-200.000	-0.012	0.212
-641.682	800.000	0.024	0.084
-640.668	298.285	0.175	-0.323
-639.653	-200.000	0.004	0.125
-638.638	52.622	-0.081	0.078
-637.624	-200.000	-0.100	-0.642
-636.609	38.607	0.048	-0.043
-635.595	33.795	-0.066	-0.058
-634.580	-146.626	0.192	-0.017
-633.565	218.241	0.094	0.150
-632.551	51.284	-0.177	0.168
-631.536	-200.000	0.017	0.103
-630.522	3.195	0.192	0.140
-629.507	793.347	-0.133	0.366
-628.492	-72.902	0.164	0.060
-627.478	6.661	0.045	0.033
-626.463	-87.803	-0.084	0.025
-625.449	537.692	0.116	-0.276
-624.434	180.528	-0.195	-0.286
-623.419	800.000	-0.010	-0.045
-622.405	-138.741	0.169	-0.018
-621.390	6.805	-0.093	0.069
-620.376	-128.101	0.325	-0.047
-619.361	-157.757	0.258	-0.015
-618.346	131.838	0.132	-0.171
-617.332	120.233	-0.153	-0.190
-616.317	-130.790	0.296	0.040
-615.303	-85.874	0.315	-0.098
-614.288	-200.000	-0.013	0.057
-613.273	60.155	-0.058	0.057
-612.259	800.000	-0.009	-0.034
-611.244	-121.627	0.346	0.057
-610.230	-200.000	-0.011	-0.238
-609.215	-200.000	-0.010	0.178
-608.201	339.552	-0.058	0.113
-607.186	-200.000	0.018	0.154
-606.171	-142.919	0.149	-0.014
-605.157	-193.742	-0.293	0.002
-604.142	596.462	0.031	-0.076
-603.128	-200.000	0.010	0.180
-602.113	-128.833	0.239	-0.034
-601.098	246.610	-0.135	-0.229
-600.084	27.716	-0.257	-0.217
-599.069	246.647	-0.166	-0.281
-598.055	-53.913	-0.129	-0.059
-597.040	34.743	0.146	-0.128
-596.025	-59.558	-0.259	-0.111
-595.011	-95.583	-0.149	0.040
-593.996	-130.621	-0.083	-0.011
-592.982	271.609	0.068	-0.119
-591.967	316.706	0.049	0.092
-590.952	-27.297	0.078	0.045
-589.938	138.042	-0.162	-0.213
-588.923	-65.939	-0.144	0.057
-587.909	181.487	-0.072	-0.106
-586.894	-81.176	-0.094	0.031
-585.879	789.998	-0.067	0.185
-584.865	-105.753	0.270	-0.061
-583.850	-68.808	-0.034	-0.013
-582.836	-53.531	0.308	-0.141
-581.821	-98.836	0.516	-0.131
-580.806	-80.473	-0.382	-0.127
-579.792	-158.352	-0.098	0.006
-578.777	63.120	0.198	-0.198
-577.763	21.818	0.260	0.212
-576.748	329.386	-0.103	0.197
-575.733	-200.000	0.004	0.030
-574.719	17.741	0.025	-0.020
-573.704	-21.105	-0.159	-0.097
-572.690	-200.000	0.030	-0.137
-571.675	402.334	-0.051	0.108
-570.661	-18.457	-0.288	-0.179
-569.646	166.096	0.096	0.136
-568.631	89.962	0.214	-0.239
-567.617	-62.797	-0.065	0.027
-566.602	-200.000	-0.022	0.528
-565.588	664.818	-0.072	0.186
-564.573	-4.165	0.286	0.198
-563.558	10.496	-0.356	0.271
-562.544	293.424	-0.109	-0.199
-561.529	-98.842	-0.218	-0.055
-560.515	-141.465	0.136	0.014
-559.500	46.992	-0.268	-0.249
-558.485	-90.940	0.081	-0.023
-557.471	87.230	0.047	0.052
-556.456	296.086	0.135	0.246
-555.442	-200.000	0.059	0.318
-554.427	0.837	-0.315	0.226
-553.412	-200.000	-0.029	-0.626
-552.398	493.069	-0.116	-0.266
-551.383	342.479	0.237	-0.463
-550.369	450.488	0.067	-0.147
-549.354	800.000	0.106	-0.307
-548.339	800.000	0.072	0.281
-547.325	677.029	-0.060	-0.157
-546.310	66.218	0.107	-0.109
-545.296	353.847	0.033	-0.066
-544.281	-164.907	0.131	-0.006
-543.266	-29.947	0.143	0.082
-542.252	-200.000	-0.017	-0.164
-541.237	390.366	-0.086	-0.179
-540.223	-97.072	0.102	0.027
-539.208	-51.857	-0.166	-0.077
-538.193	-198.877	0.197	-0.001
-537.179	206.393	-0.165	-0.257
-536.164	66.065	-0.035	0.036
-535.150	-62.993	-0.075	0.031
-534.135	-200.000	-0.010	-0.144
-533.121	-200.000	-0.028	-0.174
-532.106	-65.225	0.157	-0.063
-531.091	661.089	-0.105	-0.269
-530.077	800.000	-0.033	-0.105
-529.062	-200.000	0.013	-0.177
-528.048	-55.821	-0.153	0.068
-527.033	110.082	-0.176	-0.211
-526.018	216.226	0.033	-0.053
-525.004	-96.326	-0.322	-0.085
-523.989	-110.979	0.079	0.016
-522.975	130.659	0.205	0.262
-521.960	-200.000	0.142	-0.001
-520.945	68.174	-0.513	0.524
-519.931	-49.245	0.100	-0.048
-518.916	-88.791	-0.102	0.030
-517.902	-48.506	-0.230	-0.110
-516.887	-27.584	-0.055	-0.032
-515.872	-200.000	-0.030	0.196
-514.858	111.517	0.144	-0.173
-513.843	-200.000	-0.055	-0.275
-512.829	-51.203	0.206	0.096
-511.814	396.114	-0.146	0.305
-510.799	-200.000	-0.014	-0.286
-509.785	747.703	-0.079	-0.212
-508.770	-19.968	0.161	-0.099
-507.756	245.541	-0.132	0.222
-506.741	-16.252	0.263	-0.166
-505.726	800.000	-0.078	-0.234
-504.712	-200.000	-0.001	-0.088
-503.697	-97.039	-0.269	-0.070
-502.683	800.000	0.084	-0.315
-501.668	-200.000	-0.069	-0.378
-500.653	-162.727	0.120	-0.006
-499.639	-91.821	0.356	0.101
-498.624	28.352	0.155	0.131
-497.610	-48.342	-0.268	0.129
-496.595	13.837	0.112	0.087
-495.581	-168.759	0.182	-0.007
-494.566	800.000	0.019	0.064
-493.551	800.000	0.013	0.047
-492.537	71.959	-0.116	0.121
-491.522	-200.000	0.006	0.151
-490.508	214.771	0.320	-0.505
-489.493	-49.617	0.367	-0.174
-488.478	-179.782	-0.113	0.002
-487.464	202.984	0.256	-0.393
-486.449	-113.741	0.319	-0.062
-485.435	14.439	0.314	0.244
-484.420	734.015	-0.047	-0.125
-483.405	-200.000	0.022	-0.307
-482.391	84.765	-0.073	-0.080
-481.376	212.127	0.058	0.091
-480.362	-77.274	-0.330	0.114
-479.347	-200.000	0.037	0.187
-478.332	-85.903	-0.295	0.091
-477.318	30.373	-0.175	-0.149
-476.303	373.399	0.064	0.130
-475.289	306.854	-0.070	-0.131
-474.274	-111.301	0.024	0.005
-473.259	-16.345	0.079	-0.050
-472.245	487.570	-0.082	0.187
-471.230	800.000	-0.036	-0.145
-470.216	-105.186	0.162	-0.037
-469.201	67.470	0.376	-0.382
-468.186	800.000	0.097	-0.328
-467.172	183.367	0.037	0.054
-466.157	-73.161	-0.303	0.110
-465.143	-162.766	-0.252	0.012
-464.128	90.928	-0.208	0.232
-463.113	112.152	-0.165	-0.198
-462.099	268.772	-0.054	-0.093
-461.084	-200.000	0.022	0.263
-460.070	131.250	-0.180	0.230
-459.055	616.347	0.086	-0.215
-458.040	800.000	-0.035	-0.096
-457.026	-103.870	-0.130	-0.030
-456.011	196.214	-0.214	-0.324
-454.997	28.267	0.173	0.146
-453.982	-60.179	-0.164	0.070
-452.968	76.765	-0.147	0.155
-451.953	211.713	0.078	-0.122
-450.938	800.000	-0.112	0.323
-449.924	-200.000	-0.051	0.226
-448.909	229.527	-0.112	-0.182
-447.895	800.000	-0.032	0.092
-446.880	251.129	-0.092	0.155
-445.865	629.381	-0.061	0.154
-444.851	-132.586	-0.247	-0.032
-443.836	113.464	0.149	0.180
-442.822	-54.346	0.253	0.114
-441.807	-144.343	0.129	0.012
-440.792	17.291	-0.154	0.122
-439.778	198.880	0.155	-0.237
-438.763	183.621	-0.118	0.174
-437.749	-78.421	-0.310	0.106
-436.734	-34.053	0.299	0.163
-435.719	-99.915	0.584	-0.145
-434.705	800.000	0.112	-0.318
-433.690	-106.863	0.314	-0.069
-432.676	125.377	-0.154	0.193
-431.661	49.972	-0.277	0.260
-430.646	-200.000	-0.021	-0.212
-429.632	11.662	0.176	0.134
-428.617	255.871	-0.105	-0.179
-427.603	-40.757	-0.136	0.070
-426.588	-124.394	-0.134	0.021
-425.573	497.928	-0.128	0.294
-424.559	377.391	-0.186	0.378
-423.544	-200.000	-0.046	-0.215
-422.530	13.935	-0.026	-0.020
-421.515	-16.347	0.136	0.086
-420.500	-120.593	-0.191	-0.032
-419.486	111.849	0.124	-0.148
-418.471	-200.000	-0.022	0.247
-417.457	800.000	0.037	-0.130
-416.442	-98.347	0.085	0.022
-415.428	396.610	-0.224	0.465
-414.413	-36.283	0.100	-0.054
-413.398	-200.000	0.019	0.120
-412.384	253.216	-0.094	-0.159
-411.369	52.059	-0.042	-0.040
-410.355	800.000	0.065	0.201
-409.340	-141.839	-0.146	-0.014
-408.325	-200.000	-0.085	-0.415
-407.311	377.003	0.074	-0.150
-406.296	-25.064	0.175	-0.103
-405.282	-200.000	-0.000	-0.149
-404.267	-45.073	-0.077	0.038
-403.252	66.210	-0.254	-0.256
-402.238	-90.861	-0.234	0.067
-401.223	-44.229	0.071	-0.035
-400.209	27.677	-0.102	-0.085
-399.194	32.994	-0.191	0.165
-398.179	-109.308	0.339	-0.071
-397.165	-22.550	0.218	0.131
-396.150	-200.000	-0.030	0.286
-395.136	-200.000	0.019	0.248
-394.121	-200.000	-0.023	0.195
-393.106	-152.075	0.174	0.013
-392.092	150.929	-0.151	0.204
-391.077	-200.000	-0.074	0.477
-390.063	176.990	-0.123	0.177
-389.048	-6.931	0.373	0.251
-388.033	323.244	0.145	-0.274
-387.019	-39.707	-0.053	-0.027
-386.004	176.329	-0.106	0.153
-384.990	24.155	-0.292	0.239
-383.975	800.000	0.028	-0.087
-382.960	53.774	0.128	0.122
-381.946	-200.000	0.003	0.129
-380.931	110.231	0.341	-0.406
-379.917	-14.757	-0.295	0.188
-378.902	-63.792	0.193	0.079
-377.888	187.316	0.030	-0.044
-376.873	-200.000	0.057	0.690
-375.858	-200.000	0.003	-0.376
-374.844	19.351	-0.294	0.235
-373.829	-200.000	-0.006	-0.046
-372.815	26.750	0.286	0.237
-371.800	35.157	-0.219	0.190
-370.785	-24.513	-0.273	0.161
-369.771	-16.823	0.074	-0.047
-368.756	-200.000	0.023	-0.218
-367.742	-200.000	0.021	0.172
-366.727	154.362	-0.052	-0.070
-365.712	56.664	0.173	-0.167
-364.698	381.442	-0.117	0.238
-363.683	-143.620	-0.238	-0.022
-362.669	-200.000	0.008	0.196
-361.654	-176.874	0.297	-0.007
-360.639	-10.987	-0.133	0.087
-359.625	-160.291	-0.318	0.017
-358.610	-126.690	-0.319	-0.047
-357.596	270.871	0.052	-0.090
-356.581	-88.936	-0.318	0.093
-355.566	-40.495	-0.157	-0.081
-354.552	426.447	0.100	0.214
-353.537	638.849	-0.093	-0.235
-352.523	623.656	-0.088	0.221
-351.508	-139.778	-0.266	0.028
-350.493	7.295	0.230	-0.170
-349.479	-159.126	0.238	0.013
-348.464	26.130	-0.370	0.306
-347.450	217.378	-0.069	-0.110
-346.435	-67.246	0.227	0.089
-345.420	-200.000	0.043	-0.215
-344.406	-146.883	-0.393	-0.033
-343.391	556.209	0.062	-0.147
-342.377	300.970	0.112	-0.204
-341.362	-200.000	-0.003	0.250
-340.348	800.000	0.017	-0.073
-339.333	44.624	0.271	0.247
-338.318	-5.499	-0.278	0.189
-337.304	-84.963	0.059	0.018
-336.289	-79.201	-0.199	0.067
-335.275	240.748	0.079	0.130
-334.260	150.401	-0.081	0.109
-333.245	-125.833	0.244	-0.036
-332.231	-39.389	0.283	0.147
-331.216	-200.000	-0.015	0.160
-330.202	-125.502	-0.304	-0.046
-329.187	54.638	-0.194	-0.185
-328.172	-164.679	0.161	0.007
-327.158	18.512	-0.172	-0.136
-326.143	-134.145	-0.270	0.033
-325.129	-117.129	0.215	-0.039
-324.114	-116.915	0.140	-0.025
-323.099	-26.608	-0.198	0.115
-322.085	-200.000	0.012	0.070
-321.070	-170.813	-0.346	-0.012
-320.056	517.977	-0.068	0.158
-319.041	135.535	-0.243	0.313
-318.026	-177.707	0.257	0.006
-317.012	486.278	0.158	-0.356
-315.997	290.702	0.021	0.038
-314.983	241.149	0.093	-0.154
-313.968	-200.000	-0.025	-0.287
-312.953	199.897	0.090	0.137
-311.939	37.321	0.066	-0.058
-310.924	53.709	0.044	-0.042
-309.910	-200.000	0.014	-0.170
-308.895	800.000	-0.103	-0.331
-307.880	-115.253	0.325	-0.061
-306.866	800.000	-0.043	0.120
-305.851	-88.858	-0.159	-0.047
-304.837	-112.225	0.134	-0.027
-303.822	695.503	0.083	-0.216
-302.807	-146.464	0.247	-0.021
-301.793	-41.118	0.208	0.106
-300.778	-77.492	0.132	0.045
-299.764	-28.374	0.324	0.185
-298.749	-200.000	-0.025	0.354
-297.735	800.000	-0.099	-0.374
-296.720	367.664	-0.060	-0.119
-295.705	116.243	0.153	0.186
-294.691	-46.584	-0.317	-0.154
-293.676	84.553	0.229	-0.248
-292.662	159.382	-0.058	0.080
-291.647	-170.727	0.189	0.006
-290.632	-200.000	0.006	-0.107
-289.618	-200.000	-0.002	-0.264
-288.603	212.465	0.122	-0.190
-287.589	-40.438	-0.284	-0.146
-286.574	27.595	0.089	-0.074
-285.559	48.605	-0.224	0.208
-284.545	89.291	0.156	0.172
-283.530	-29.666	0.123	0.070
-282.516	-200.000	0.033	-0.360
-281.501	-200.000	0.037	0.596
-280.486	96.303	-0.081	0.092
-279.472	92.299	0.133	0.149
-278.457	-91.282	-0.205	0.058
-277.443	-170.795	0.086	-0.003
-276.428	-86.889	-0.354	0.107
-275.413	-65.577	-0.037	0.015
-274.399	172.235	-0.165	0.235
-273.384	-15.401	-0.291	0.184
-272.370	800.000	0.040	-0.114
-271.355	2.391	-0.365	-0.261
-270.340	-200.000	-0.013	0.130
-269.326	10.782	0.057	0.043
-268.311	-94.739	0.073	0.020
-267.297	-96.120	0.076	-0.020
-266.282	-86.507	0.187	-0.057
-265.267	-158.960	-0.184	-0.010
-264.253	8.152	0.221	0.164
-263.238	-130.507	0.196	-0.026
-262.224	-200.000	0.020	-0.254
-261.209	-200.000	0.002	-0.326
-260.195	-200.000	-0.054	-0.371
-259.180	-126.225	-0.409	0.060
-258.165	-98.905	-0.154	0.039
-257.151	800.000	-0.041	0.145
-256.136	566.892	-0.051	0.122
-255.122	-100.538	0.060	0.015
-254.107	-4.711	-0.129	-0.088
-253.092	-38.817	0.257	0.134
-252.078	349.157	-0.035	-0.068
-251.063	800.000	0.026	0.104
-250.049	-83.793	-0.340	0.107
-249.034	-5.756	0.324	-0.219
-248.019	-96.522	-0.115	-0.030
-247.005	43.919	0.182	-0.165
-245.990	-200.000	-0.031	0.158
-244.976	800.000	-0.046	-0.126
-243.961	137.911	0.205	0.266
-242.946	-19.457	0.279	-0.171
-241.932	-75.119	-0.249	-0.088
-240.917	202.923	0.040	0.060
-239.903	80.012	0.055	0.058
-238.888	-20.382	-0.165	-0.100
-237.873	242.210	0.158	0.260
-236.859	-54.539	0.372	-0.166
-235.844	-200.000	-0.002	0.070
-234.830	-106.410	0.055	-0.012
-233.815	18.816	0.151	-0.119
-232.800	87.008	-0.203	0.221
-231.786	14.737	0.127	0.098
-230.771	-12.565	0.170	0.109
-229.757	-200.000	-0.062	0.359
-228.742	-200.000	-0.031	-0.356
-227.727	48.743	-0.118	0.109
-226.713	221.849	0.237	-0.376
-225.698	-200.000	0.021	0.111
-224.684	-200.000	0.059	0.426
-223.669	182.104	0.244	0.355
-222.655	32.464	0.166	-0.141
-221.640	428.823	0.048	0.102
-220.625	-200.000	0.002	0.060
-219.611	140.849	-0.084	-0.110
-218.596	-200.000	0.007	0.067
-217.582	281.221	0.094	0.166
-216.567	-200.000	-0.036	0.214
-215.552	800.000	0.095	0.288
-214.538	-80.431	0.124	0.041
-213.523	-200.000	-0.009	0.149
-212.509	322.137	-0.122	-0.229
-211.494	-90.375	0.182	0.052
-210.479	-200.000	0.031	0.230
-209.465	46.204	-0.060	-0.055
-208.450	91.628	0.171	-0.190
-207.436	307.471	-0.146	-0.269
-206.421	-81.003	-0.394	-0.128
-205.406	772.084	0.034	0.091
-204.392	83.293	-0.105	0.113
-203.377	-133.237	0.393	0.049
-202.363	232.995	0.092	0.149
-201.348	82.835	-0.083	-0.089
-200.333	190.716	-0.070	-0.103
-199.319	-123.723	0.243	0.038
-198.304	-119.492	-0.397	0.068
-197.290	-31.289	0.106	-0.059
-196.275	-22.722	-0.165	-0.098
-195.260	-46.823	-0.334	-0.161
-194.246	-98.909	0.047	-0.012
-193.231	148.309	-0.037	-0.049
-192.217	-106.828	0.289	-0.063
-191.202	56.184	-0.110	-0.105
-190.187	800.000	0.033	-0.117
-189.173	167.709	0.231	-0.323
-188.158	-7.835	-0.057	0.038
-187.144	-200.000	-0.027	-0.195
-186.129	800.000	0.049	0.162
-185.114	34.436	-0.234	-0.201
-184.100	-43.873	-0.110	0.054
-183.085	-185.851	0.175	-0.003
-182.071	308.055	-0.106	-0.195
-181.056	-18.277	-0.118	-0.072
-180.042	-23.050	0.156	0.093
-179.027	-200.000	-0.029	0.384
-178.012	-200.000	-0.009	-0.093
-176.998	-119.542	0.106	-0.018
-175.983	84.542	-0.221	0.238
-174.969	-200.000	-0.027	0.138
-173.954	501.496	-0.025	-0.056
-172.939	297.744	-0.058	-0.105
-171.925	164.395	0.079	-0.110
-170.910	-78.102	0.196	0.066
-169.896	734.491	-0.052	0.137
-168.881	-135.845	0.194	0.023
-167.866	800.000	-0.059	-0.173
-166.852	308.739	-0.202	0.371
-165.837	-200.000	0.037	-0.252
-164.823	32.702	0.138	0.117
-163.808	-65.505	-0.158	0.062
-162.793	-200.000	0.002	0.206
-161.779	-200.000	0.008	0.407
-160.764	-200.000	-0.004	0.035
-159.750	420.469	0.139	-0.292
-158.735	-60.459	-0.144	0.060
-157.720	50.457	0.203	0.189
-156.706	-80.788	0.104	0.034
-155.691	-114.855	0.083	0.016
-154.677	13.042	-0.103	-0.078
-153.662	268.363	-0.096	-0.166
-152.647	58.635	-0.174	-0.168
-151.633	-200.000	0.007	0.111
-150.618	-105.288	0.044	0.010
-149.604	-80.968	0.404	0.132
-148.589	-165.496	0.274	-0.012
-147.574	-82.955	0.088	0.028
-146.560	208.665	-0.040	-0.062
-145.545	172.200	0.067	-0.095
-144.531	603.632	0.109	-0.265
-143.516	-116.634	-0.337	0.061
-142.502	800.000	-0.089	0.250
-141.487	-162.340	0.163	-0.008
-140.472	-122.700	-0.537	0.085
-139.458	23.748	0.157	-0.127
-138.443	800.000	0.061	0.254
-137.429	-200.000	-0.008	0.193
-136.414	-2.936	0.070	0.048
-135.399	212.553	0.152	0.236
-134.385	145.721	0.099	-0.130
-133.370	-86.937	-0.098	-0.029
-132.356	120.149	0.104	-0.127
-131.341	359.683	0.216	-0.424
-130.326	200.739	0.159	0.240
-129.312	60.493	-0.033	-0.032
-128.297	-30.058	-0.570	-0.319
-127.283	800.000	0.078	0.262
-126.268	800.000	0.092	0.306
-125.253	20.126	0.083	0.066
-124.239	-200.000	0.034	-0.206
-123.224	-200.000	0.063	-0.382
-122.210	-200.000	0.003	-0.152
-121.195	-200.000	-0.020	-0.161
