DTS Sentinel unit serial number:	SN413079Multiplexer serial number:	ORYXHardware model number:	OX4-SRSoftware version number:	ORYX F/W v4.00 Oryx Data Collector v3.7.2.0data status	okinstallation	princeton_trtdifferential loss correction	single-endedforward channel	channel 1reverse channel	N/Adate	2019/09/11time	08:24:11forward acquisition time	60.00reverse acquisition time	0.00gamma	496.2192k internal	0.2318k external	0.2318temperature offset calibration	0.9949default loss term (dB/km)	0.3790temperature slope calibration	1.0000multiplexer offset coefficient	1.0000multiplexer slope coefficient	1.0000fibre end	0.00T internal ref (°C)	32.87T ext. ref 1 (°C)	0.07T ext. ref 2 (°C)	30.65length (m)	temperature (°C)	Stokes	anti-Stokes-747.200	-200.000	0.024	0.129
-746.185	51.544	0.167	-0.161
-745.171	62.290	-0.171	0.172
-744.156	-200.000	-0.018	0.296
-743.142	1.731	0.076	0.056
-742.127	-4.363	0.168	0.118
-741.112	-28.161	-0.359	0.210
-740.098	621.476	-0.098	0.248
-739.083	-200.000	-0.036	0.425
-738.069	-141.521	0.295	0.030
-737.054	499.733	-0.086	0.202
-736.039	17.010	-0.178	-0.143
-735.025	187.760	0.025	0.038
-734.010	-200.000	-0.017	-0.186
-732.996	89.414	-0.291	0.328
-731.981	800.000	-0.046	0.169
-730.966	200.341	0.138	-0.214
-729.952	-39.354	-0.171	0.091
-728.937	-26.896	-0.109	0.065
-727.923	-53.711	-0.447	-0.207
-726.908	-156.442	-0.071	-0.004
-725.894	37.642	0.159	-0.143
-724.879	-200.000	-0.022	-0.199
-723.864	-51.788	-0.139	-0.065
-722.850	-113.466	-0.280	0.056
-721.835	192.821	-0.268	-0.410
-720.821	-101.148	0.082	0.020
-719.806	192.979	-0.175	-0.267
-718.791	800.000	-0.038	-0.125
-717.777	-200.000	-0.003	-0.149
-716.762	24.091	0.276	-0.231
-715.748	-98.905	0.166	-0.043
-714.733	-162.517	-0.405	-0.020
-713.718	-121.309	-0.207	0.035
-712.704	-200.000	-0.016	0.077
-711.689	-121.815	-0.212	-0.035
-710.675	-200.000	-0.049	-0.327
-709.660	-129.922	0.548	0.076
-708.645	-200.000	-0.011	-0.269
-707.631	800.000	-0.084	0.255
-706.616	-23.527	0.255	-0.155
-705.602	178.745	0.021	-0.031
-704.587	-34.712	0.081	-0.045
-703.572	127.846	-0.172	0.221
-702.558	-200.000	0.030	-0.213
-701.543	800.000	0.072	0.277
-700.529	-20.361	0.425	-0.264
-699.514	-200.000	-0.035	0.156
-698.499	-159.469	0.248	0.014
-697.485	-6.454	0.100	-0.069
-696.470	-200.000	0.011	0.287
-695.456	20.107	0.081	-0.066
-694.441	-106.321	0.046	-0.010
-693.426	103.540	0.066	0.078
-692.412	-47.675	-0.140	-0.069
-691.397	-200.000	-0.032	-0.176
-690.383	22.260	-0.259	-0.214
-689.368	800.000	-0.145	-0.439
-688.354	800.000	-0.103	-0.345
-687.339	244.110	-0.140	-0.237
-686.324	107.099	0.169	0.203
-685.310	119.954	-0.330	-0.413
-684.295	-126.578	-0.081	-0.012
-683.281	-55.819	0.097	0.044
-682.266	57.524	-0.121	-0.119
-681.251	59.504	0.231	0.230
-680.237	800.000	0.090	-0.311
-679.222	65.587	0.165	0.169
-678.208	223.457	0.081	-0.132
-677.193	346.459	-0.197	-0.392
-676.178	-156.893	0.178	-0.011
-675.164	-149.249	-0.497	-0.040
-674.149	3.643	0.183	0.135
-673.135	581.155	-0.144	0.356
-672.120	228.707	0.076	0.125
-671.105	-104.351	-0.262	-0.061
-670.091	288.240	0.114	0.208
-669.076	67.915	0.135	-0.140
-668.062	316.252	-0.075	0.144
-667.047	341.675	0.161	0.318
-666.032	-200.000	-0.092	-0.642
-665.018	-200.000	0.068	0.339
-664.003	220.702	-0.121	-0.197
-662.989	27.012	-0.089	-0.075
-661.974	378.475	-0.037	-0.077
-660.959	800.000	-0.074	-0.250
-659.945	800.000	-0.059	0.182
-658.930	-200.000	0.012	-0.107
-657.916	-50.250	0.126	-0.060
-656.901	515.356	0.065	0.153
-655.886	17.622	0.140	0.112
-654.872	-200.000	-0.065	0.399
-653.857	800.000	-0.024	0.103
-652.843	-200.000	-0.004	-0.109
-651.828	52.170	0.035	0.034
-650.814	800.000	0.047	0.151
-649.799	-200.000	0.051	0.269
-648.784	-158.785	0.349	-0.020
-647.770	-117.978	0.278	0.050
-646.755	-167.182	0.144	-0.006
-645.741	-160.420	-0.211	-0.011
-644.726	800.000	-0.073	-0.280
-643.711	-200.000	0.050	-0.226
-642.697	-35.772	-0.181	-0.099
-641.682	-36.360	0.258	0.140
-640.668	800.000	-0.062	0.246
-639.653	652.230	-0.153	-0.394
-638.638	800.000	0.088	-0.302
-637.624	800.000	0.079	-0.268
-636.609	-200.000	-0.004	0.382
-635.595	-75.401	0.091	0.033
-634.580	-200.000	-0.014	0.092
-633.565	-200.000	-0.060	-0.330
-632.551	-101.697	-0.308	0.075
-631.536	-200.000	0.040	0.256
-630.522	141.845	-0.159	-0.212
-629.507	330.703	0.089	-0.172
-628.492	470.619	0.146	0.331
-627.478	800.000	-0.061	0.237
-626.463	-68.170	0.150	-0.059
-625.449	800.000	-0.045	-0.173
-624.434	183.928	0.141	-0.211
-623.419	25.172	0.133	0.111
-622.405	-134.970	-0.176	0.021
-621.390	800.000	-0.027	0.075
-620.376	730.486	0.047	-0.128
-619.361	800.000	0.028	-0.078
-618.346	-70.428	0.190	-0.073
-617.332	-200.000	-0.026	-0.213
-616.317	-167.932	-0.136	0.005
-615.303	-100.418	0.205	-0.051
-614.288	-200.000	-0.031	-0.252
-613.273	0.285	-0.138	-0.099
-612.259	-48.018	0.146	0.071
-611.244	-55.954	-0.298	0.134
-610.230	200.369	0.134	-0.208
-609.215	250.865	0.062	0.107
-608.201	188.773	-0.059	-0.089
-607.186	740.272	0.061	0.164
-606.171	63.220	-0.060	0.060
-605.157	-133.764	-0.077	-0.010
-604.142	-200.000	-0.006	0.263
-603.128	19.740	-0.169	-0.137
-602.113	167.484	0.128	0.184
-601.098	311.061	-0.142	0.269
-600.084	-150.784	-0.174	-0.013
-599.069	800.000	-0.061	0.177
-598.055	-200.000	0.002	0.141
-597.040	-40.814	0.286	-0.149
-596.025	120.024	0.075	0.093
-595.011	299.961	0.085	0.158
-593.996	-101.363	0.359	-0.088
-592.982	-11.436	0.286	0.189
-591.967	-104.799	0.206	-0.048
-590.952	705.207	0.084	-0.224
-589.938	-150.551	-0.298	0.023
-588.923	143.507	0.039	-0.052
-587.909	55.878	0.080	0.078
-586.894	138.607	0.066	0.087
-585.879	-7.788	0.165	-0.112
-584.865	-200.000	0.056	-0.348
-583.850	800.000	-0.108	-0.314
-582.836	-31.946	0.200	0.113
-581.821	-105.682	-0.082	0.019
-580.806	-56.376	-0.208	0.093
-579.792	6.906	0.242	0.181
-578.777	168.992	0.089	0.127
-577.763	-26.466	0.271	0.160
-576.748	-35.687	-0.137	-0.075
-575.733	800.000	0.115	-0.431
-574.719	38.937	-0.194	-0.175
-573.704	-200.000	-0.083	-0.494
-572.690	512.972	0.019	-0.046
-571.675	-15.585	0.316	-0.203
-570.661	-90.908	-0.497	-0.144
-569.646	22.805	-0.160	-0.132
-568.631	-200.000	-0.016	0.280
-567.617	800.000	0.034	-0.145
-566.602	-200.000	0.002	-0.105
-565.588	-36.988	-0.094	0.051
-564.573	15.386	0.140	0.110
-563.558	-200.000	-0.035	-0.215
-562.544	800.000	0.033	0.106
-561.529	-121.070	0.156	-0.026
-560.515	69.940	-0.178	-0.185
-559.500	-13.489	0.071	0.046
-558.485	-33.306	-0.324	-0.180
-557.471	51.013	-0.042	0.040
-556.456	800.000	0.102	-0.374
-555.442	800.000	0.047	0.175
-554.427	-121.106	0.321	0.054
-553.412	106.113	-0.045	-0.053
-552.398	221.671	-0.020	-0.032
-551.383	800.000	-0.031	-0.130
-550.369	-200.000	0.003	0.099
-549.354	-72.611	-0.277	0.103
-548.339	-179.969	0.048	0.001
-547.325	370.149	-0.072	0.146
-546.310	33.619	-0.211	0.184
-545.296	800.000	0.084	0.341
-544.281	-92.736	0.390	0.110
-543.266	-78.490	0.204	0.070
-542.252	118.860	0.241	-0.299
-541.237	-110.346	0.210	-0.044
-540.223	-2.159	0.132	-0.093
-539.208	401.098	0.197	-0.415
-538.193	261.251	-0.152	-0.264
-537.179	48.148	-0.119	-0.112
-536.164	-53.294	0.293	-0.135
-535.150	-153.732	-0.389	-0.027
-534.135	800.000	0.024	0.086
-533.121	800.000	0.046	-0.166
-532.106	32.399	0.240	-0.208
-531.091	291.282	0.115	0.209
-530.077	-175.666	-0.302	-0.008
-529.062	-150.320	0.150	0.012
-528.048	-93.290	-0.085	-0.024
-527.033	-142.095	0.252	0.025
-526.018	800.000	-0.046	0.174
-525.004	313.849	0.035	0.066
-523.989	-54.713	0.134	-0.061
-522.975	-129.373	-0.059	-0.008
-521.960	-200.000	0.018	0.408
-520.945	-142.240	-0.179	-0.018
-519.931	695.376	0.079	-0.207
-518.916	-0.372	-0.371	0.264
-517.902	-120.688	-0.096	-0.016
-516.887	-200.000	0.014	-0.280
-515.872	-169.166	0.124	-0.005
-514.858	365.239	0.102	-0.206
-513.843	-139.665	0.111	-0.012
-512.829	-71.768	0.042	-0.016
-511.814	-167.101	-0.171	0.007
-510.799	49.581	0.174	0.164
-509.785	-29.128	0.142	0.082
-508.770	-60.417	0.263	-0.112
-507.756	-138.560	-0.446	0.049
-506.741	-200.000	-0.064	0.333
-505.726	47.796	0.228	-0.214
-504.712	-110.459	0.217	0.045
-503.697	-200.000	-0.099	-0.516
-502.683	-33.092	0.129	-0.072
-501.668	-200.000	0.018	-0.121
-500.653	-180.972	0.032	0.001
-499.639	-200.000	-0.027	0.132
-498.624	-200.000	-0.016	0.094
-497.610	26.455	-0.189	0.159
-496.595	76.297	-0.153	0.162
-495.581	800.000	0.124	0.468
-494.566	8.611	0.207	-0.157
-493.551	27.786	-0.165	-0.139
-492.537	800.000	-0.089	0.340
-491.522	-24.187	-0.160	0.096
-490.508	-165.198	0.256	0.011
-489.493	-200.000	-0.005	0.179
-488.478	105.276	0.311	0.368
-487.464	81.082	-0.067	0.072
-486.449	-59.294	-0.465	0.201
-485.435	-145.757	-0.276	-0.025
-484.420	198.186	-0.096	0.147
-483.405	-67.268	0.214	0.084
-482.391	213.284	-0.057	0.090
-481.376	516.179	0.145	-0.339
-480.362	86.150	-0.148	-0.164
-479.347	-200.000	0.018	0.221
-478.332	-200.000	0.054	-0.278
-477.318	-132.839	0.174	0.022
-476.303	-200.000	0.052	-0.234
-475.289	800.000	-0.030	0.083
-474.274	-200.000	0.033	-0.203
-473.259	-107.825	-0.305	0.067
-472.245	-200.000	-0.035	-0.235
-471.230	-112.534	-0.196	0.039
-470.216	-166.616	0.195	-0.008
-469.201	-85.079	0.280	-0.088
-468.186	-140.461	0.312	0.033
-467.172	800.000	-0.070	0.241
-466.157	-120.703	0.261	0.044
-465.143	-14.074	-0.018	-0.012
-464.128	43.008	0.267	0.244
-463.113	554.859	0.090	-0.217
-462.099	-21.534	-0.064	0.039
-461.084	11.717	0.287	-0.220
-460.070	800.000	0.095	-0.322
-459.055	95.459	0.053	-0.060
-458.040	-35.611	-0.110	0.060
-457.026	-200.000	0.024	-0.304
-456.011	-200.000	-0.003	0.141
-454.997	-200.000	-0.002	0.178
-453.982	-147.794	0.166	-0.014
-452.968	0.746	0.135	-0.096
-451.953	-116.096	-0.071	-0.013
-450.938	65.304	-0.184	0.186
-449.924	-200.000	-0.025	-0.174
-448.909	2.176	-0.343	-0.248
-447.895	214.459	0.049	-0.077
-446.880	-113.851	0.281	-0.055
-445.865	-200.000	-0.051	0.277
-444.851	-21.028	0.170	0.104
-443.836	800.000	-0.073	-0.225
-442.822	168.124	0.153	-0.218
-441.807	-200.000	-0.019	0.164
-440.792	800.000	-0.064	0.267
-439.778	-180.840	-0.214	0.004
-438.763	156.880	0.147	0.203
-437.749	-186.085	0.064	0.001
-436.734	31.801	0.210	-0.181
-435.719	97.619	-0.038	0.044
-434.705	-37.420	0.107	0.057
-433.690	-0.719	-0.203	0.144
-432.676	-200.000	0.011	-0.187
-431.661	177.813	0.089	-0.130
-430.646	-99.903	0.358	0.089
-429.632	-200.000	-0.001	0.156
-428.617	-103.142	0.203	-0.048
-427.603	71.996	-0.114	-0.119
-426.588	319.666	0.184	0.350
-425.573	146.135	-0.132	0.177
-424.559	-200.000	-0.012	-0.145
-423.544	-28.481	0.327	0.188
-422.530	-116.934	-0.070	0.013
-421.515	800.000	0.088	0.242
-420.500	-112.668	0.093	-0.018
-419.486	-194.825	0.273	0.002
-418.471	-41.106	-0.453	0.234
-417.457	397.616	-0.058	0.121
-416.442	128.819	0.151	0.192
-415.428	-200.000	-0.007	-0.079
-414.413	35.111	0.194	-0.170
-413.398	-120.024	-0.211	0.036
-412.384	800.000	0.078	0.229
-411.369	16.421	0.234	0.184
-410.355	-148.701	0.185	-0.015
-409.340	-9.494	-0.339	0.226
-408.325	-13.982	-0.262	-0.169
-407.311	119.402	0.082	-0.102
-406.296	800.000	0.018	-0.061
-405.282	-42.262	-0.244	-0.125
-404.267	-200.000	-0.005	-0.117
-403.252	37.254	0.257	0.227
-402.238	42.192	0.112	0.102
-401.223	21.424	0.242	-0.197
-400.209	295.630	0.178	-0.325
-399.194	800.000	-0.160	-0.445
-398.179	-67.808	-0.141	0.055
-397.165	-60.406	-0.375	-0.159
-396.150	145.135	-0.102	-0.136
-395.136	292.625	0.191	-0.348
-394.121	-200.000	-0.027	0.139
-393.106	21.015	-0.228	-0.185
-392.092	88.280	0.184	-0.204
-391.077	-200.000	0.035	0.262
-390.063	440.159	-0.101	0.219
-389.048	-200.000	-0.060	0.288
-388.033	48.164	0.130	0.121
-387.019	-141.986	-0.464	-0.046
-386.004	246.446	0.098	0.166
-384.990	116.853	-0.097	-0.119
-383.975	-200.000	-0.000	0.206
-382.960	150.876	0.163	0.221
-381.946	-200.000	-0.009	0.259
-380.931	443.232	-0.058	-0.127
-379.917	25.476	0.333	0.276
-378.902	6.956	0.185	0.138
-377.888	-200.000	-0.064	0.283
-376.873	6.114	0.175	-0.130
-375.858	-200.000	0.006	0.143
-374.844	-109.604	-0.181	-0.038
-373.829	702.662	0.051	-0.135
-372.815	458.508	-0.121	-0.267
-371.800	-200.000	-0.013	-0.095
-370.785	-2.930	0.157	0.109
-369.771	268.051	0.215	0.376
-368.756	800.000	0.053	-0.221
-367.742	-32.837	0.044	-0.024
-366.727	-200.000	-0.018	0.224
-365.712	148.076	0.189	0.255
-364.698	6.203	0.227	-0.168
-363.683	61.820	0.222	-0.221
-362.669	22.987	-0.170	-0.139
-361.654	-78.626	0.406	0.138
-360.639	-200.000	-0.017	0.367
-359.625	-200.000	-0.036	0.274
-358.610	-78.305	0.231	0.079
-357.596	-123.088	-0.081	0.013
-356.581	-24.117	-0.152	-0.091
-355.566	-65.044	0.124	0.050
-354.552	-100.860	0.327	-0.080
-353.537	-48.061	0.195	-0.094
-352.523	422.622	-0.121	-0.259
-351.508	46.328	-0.270	0.249
-350.493	53.518	0.195	-0.187
-349.479	-44.020	-0.293	-0.147
-348.464	-200.000	-0.017	0.084
-347.450	97.095	-0.063	-0.072
-346.435	153.580	0.171	0.233
-345.420	-24.342	-0.163	-0.097
-344.406	-100.099	-0.217	0.054
-343.391	-200.000	0.019	0.167
-342.377	192.988	-0.273	-0.411
-341.362	288.679	-0.098	-0.177
-340.348	-83.718	0.133	-0.042
-339.333	-200.000	0.044	-0.494
-338.318	347.524	-0.212	-0.417
-337.304	177.310	-0.069	-0.100
-336.289	93.611	-0.196	0.222
-335.275	299.956	0.091	0.167
-334.260	374.903	-0.097	-0.197
-333.245	-81.137	-0.040	0.013
-332.231	-200.000	-0.044	-0.198
-331.216	22.995	-0.195	-0.160
-330.202	-126.098	0.258	0.039
-329.187	-104.120	-0.313	-0.073
-328.172	149.456	-0.165	0.223
-327.158	331.511	0.067	-0.129
-326.143	-138.384	0.371	-0.041
-325.129	-98.915	0.276	0.070
-324.114	122.703	-0.136	0.170
-323.099	-120.469	0.155	-0.026
-322.085	162.789	-0.128	-0.179
-321.070	51.636	-0.050	-0.047
-320.056	68.512	-0.211	0.215
-319.041	-52.347	0.305	0.141
-318.026	97.351	-0.180	-0.205
-317.012	549.115	-0.150	-0.357
-315.997	45.167	-0.085	0.078
-314.983	2.022	-0.376	-0.270
-313.968	117.824	-0.172	-0.211
-312.953	365.757	-0.152	0.305
-311.939	800.000	0.057	0.220
-310.924	-88.345	0.183	0.054
-309.910	-200.000	-0.060	0.266
-308.895	-135.812	-0.334	-0.039
-307.880	-72.244	-0.180	0.066
-306.866	522.092	-0.028	-0.065
-305.851	-100.755	-0.439	0.108
-304.837	-145.968	-0.308	0.027
-303.822	-164.882	0.239	-0.011
-302.807	415.480	-0.108	0.230
-301.793	800.000	-0.084	0.239
-300.778	600.946	0.036	-0.088
-299.764	147.277	0.056	0.076
-298.749	-125.706	-0.402	0.061
-297.735	49.085	-0.400	0.373
-296.720	-23.198	-0.178	0.106
-295.705	-157.231	0.448	-0.027
-294.691	-153.741	-0.141	0.010
-293.676	16.633	-0.174	0.137
-292.662	51.889	-0.260	0.246
-291.647	-149.191	-0.401	-0.032
-290.632	359.046	0.156	-0.310
-289.618	-33.035	-0.238	-0.131
-288.603	-23.213	-0.167	0.100
-287.589	-200.000	0.061	0.460
-286.574	52.204	-0.080	0.076
-285.559	-174.141	-0.198	-0.006
-284.545	178.896	0.111	-0.162
-283.530	-8.841	0.163	0.109
-282.516	284.335	-0.105	-0.187
-281.501	-200.000	-0.046	-0.369
-280.486	-75.641	-0.093	-0.033
-279.472	56.771	0.192	-0.186
-278.457	800.000	0.069	-0.263
-277.443	157.203	-0.323	0.444
-276.428	-200.000	-0.076	-0.334
-275.413	-145.121	0.300	-0.027
-274.399	-69.781	0.163	0.062
-273.384	93.282	0.266	0.299
-272.370	427.276	0.103	0.221
-271.355	-52.718	0.296	0.136
-270.340	-54.412	-0.316	-0.142
-269.326	-110.563	0.340	0.070
-268.311	8.101	-0.230	0.172
-267.297	800.000	0.051	-0.174
-266.282	320.878	-0.229	-0.433
-265.267	800.000	-0.166	0.551
-264.253	29.851	-0.148	0.125
-263.238	-52.701	-0.312	-0.143
-262.224	144.730	0.049	-0.066
-261.209	-157.271	-0.164	0.010
-260.195	-113.563	0.522	-0.101
-259.180	197.905	-0.161	-0.245
-258.165	113.794	-0.113	-0.136
-257.151	-14.454	-0.088	-0.057
-256.136	-200.000	0.006	0.213
-255.122	-169.019	0.053	0.002
-254.107	800.000	0.067	0.201
-253.092	427.981	0.135	-0.290
-252.078	800.000	0.078	-0.262
-251.063	-200.000	0.055	-0.243
-250.049	-13.325	0.154	0.099
-249.034	-141.984	0.108	0.011
-248.019	-200.000	-0.024	-0.121
-247.005	-179.006	-0.237	-0.005
-245.990	-200.000	-0.003	0.110
-244.976	-0.214	0.212	-0.149
-243.961	-200.000	0.052	-0.268
-242.946	-126.316	0.159	0.024
-241.932	-41.972	-0.096	0.049
-240.917	146.366	0.153	0.203
-239.903	-180.224	-0.156	0.003
-238.888	736.180	-0.050	-0.134
-237.873	-143.131	0.096	-0.009
-236.859	-171.621	-0.327	0.011
-235.844	-200.000	0.011	-0.087
-234.830	800.000	-0.082	-0.325
-233.815	336.620	-0.138	0.266
-232.800	365.700	0.101	0.201
-231.786	800.000	-0.082	0.245
-230.771	-93.204	-0.123	-0.034
-229.757	-164.539	-0.112	0.005
-228.742	-138.770	-0.342	0.037
-227.727	-49.516	0.342	0.162
-226.713	218.180	-0.175	-0.278
-225.698	6.352	-0.148	0.109
-224.684	-200.000	-0.005	-0.219
-223.669	-146.823	0.279	0.024
-222.655	-142.161	0.132	0.013
-221.640	48.038	0.047	0.044
-220.625	-191.496	0.308	-0.003
-219.611	156.020	-0.267	-0.365
-218.596	-61.387	-0.177	-0.074
-217.582	800.000	0.064	0.257
-216.567	551.873	0.046	0.110
-215.552	-46.937	0.049	0.024
-214.538	552.596	0.087	0.207
-213.523	-118.883	-0.153	0.027
-212.509	800.000	-0.080	-0.284
-211.494	-200.000	0.011	-0.130
-210.479	-79.104	0.202	-0.068
-209.465	28.749	0.307	0.258
-208.450	66.991	0.150	0.152
-207.436	-128.906	-0.251	0.035
-206.421	-75.467	-0.267	-0.094
-205.406	-155.219	0.138	-0.009
-204.392	-200.000	0.016	-0.185
-203.377	319.999	-0.072	0.136
-202.363	469.992	-0.042	-0.094
-201.348	-34.151	-0.325	0.177
-200.333	-200.000	-0.036	0.193
-199.319	307.089	0.083	0.154
-198.304	133.435	-0.079	-0.102
-197.290	58.414	0.106	-0.103
-196.275	-49.420	0.204	0.097
-195.260	-200.000	-0.014	-0.186
-194.246	-200.000	0.032	0.162
-193.231	327.637	0.106	-0.201
-192.217	110.306	-0.105	0.125
-191.202	-138.018	-0.148	0.016
-190.187	223.699	-0.134	0.214
-189.173	-200.000	-0.012	0.292
-188.158	-55.410	-0.226	0.100
-187.144	52.458	0.199	0.188
-186.129	-61.524	-0.414	-0.172
-185.114	151.665	0.155	-0.209
-184.100	800.000	-0.094	0.305
-183.085	35.526	-0.216	-0.188
-182.071	31.980	-0.093	0.080
-181.056	800.000	0.011	0.032
-180.042	-17.466	0.101	-0.063
-179.027	-16.511	0.094	-0.059
-178.012	-200.000	-0.011	0.210
-176.998	-32.129	-0.236	0.130
-175.983	293.261	-0.097	-0.175
-174.969	800.000	-0.130	-0.382
-173.954	152.833	0.101	0.137
-172.939	-200.000	-0.009	0.076
-171.925	-22.604	-0.070	0.042
-170.910	-200.000	-0.091	0.486
-169.896	-35.141	0.201	0.109
-168.881	-97.302	-0.373	-0.096
-167.866	-200.000	-0.037	-0.204
-166.852	17.407	0.313	0.246
-165.837	699.080	-0.041	0.108
-164.823	-84.380	-0.341	-0.107
-163.808	800.000	-0.043	-0.166
-162.793	346.814	-0.059	0.115
-161.779	30.627	0.131	-0.111
-160.764	768.034	-0.102	-0.275
-159.750	75.371	0.118	0.123
-158.735	24.174	-0.182	-0.149
-157.720	800.000	-0.045	0.157
-156.706	-56.107	-0.306	0.135
-155.691	-200.000	-0.006	0.026
-154.677	-140.489	0.358	0.037
-153.662	-0.939	0.039	0.027
-152.647	-146.784	0.211	-0.018
-151.633	-58.330	0.052	0.022
-150.618	457.652	-0.112	-0.246
-149.604	-96.365	-0.106	0.028
-148.589	52.767	0.030	-0.028
-147.574	82.963	-0.062	0.067
-146.560	88.758	0.092	0.101
-145.545	-78.025	0.202	-0.069
-144.531	-19.464	0.198	0.121
-143.516	20.698	0.082	-0.066
-142.502	432.814	0.146	-0.314
-141.487	-200.000	0.024	-0.145
-140.472	-200.000	0.015	-0.104
-139.458	-200.000	0.081	-0.414
-138.443	169.681	0.134	-0.189
-137.429	-200.000	0.001	-0.075
-136.414	634.956	0.073	0.182
-135.399	533.758	0.117	0.274
-134.385	-163.491	0.133	0.006
-133.370	58.309	-0.057	-0.056
-132.356	9.528	0.089	-0.066
-131.341	404.506	0.176	-0.366
-130.326	-40.291	0.215	0.111
-129.312	-200.000	0.005	-0.189
-128.297	-121.734	0.206	-0.034
-127.283	800.000	0.069	0.244
-126.268	-165.642	0.034	0.001
-125.253	188.774	-0.148	0.218
-124.239	800.000	0.063	-0.228
-123.224	-200.000	0.009	-0.190
-122.210	-186.311	-0.321	0.005
