DTS Sentinel unit serial number:	SN413079Multiplexer serial number:	ORYXHardware model number:	OX4-SRSoftware version number:	ORYX F/W v4.00 Oryx Data Collector v3.7.2.0data status	okinstallation	princeton_trtdifferential loss correction	single-endedforward channel	channel 1reverse channel	N/Adate	2019/09/10time	21:56:12forward acquisition time	60.00reverse acquisition time	0.00gamma	496.2192k internal	0.2331k external	0.2331temperature offset calibration	0.9934default loss term (dB/km)	0.3790temperature slope calibration	1.0000multiplexer offset coefficient	1.0000multiplexer slope coefficient	1.0000fibre end	0.00T internal ref (°C)	30.77T ext. ref 1 (°C)	-0.31T ext. ref 2 (°C)	24.03length (m)	temperature (°C)	Stokes	anti-Stokes-747.200	-93.763	-0.305	-0.085
-746.185	-200.000	-0.013	0.226
-745.171	108.858	0.239	0.288
-744.156	-156.551	-0.211	-0.013
-743.142	-162.549	-0.088	0.004
-742.127	-135.394	-0.036	0.004
-741.112	800.000	-0.057	-0.173
-740.098	127.408	0.202	0.258
-739.083	-152.346	0.306	0.022
-738.069	-69.063	-0.126	0.049
-737.054	-167.492	-0.396	-0.016
-736.039	-69.223	-0.164	0.064
-735.025	219.724	0.236	0.380
-734.010	112.837	-0.044	0.054
-732.996	800.000	-0.090	-0.260
-731.981	-200.000	-0.022	-0.175
-730.966	85.192	-0.212	-0.235
-729.952	-3.565	-0.209	0.146
-728.937	-79.124	0.080	-0.027
-727.923	-200.000	0.016	0.441
-726.908	-200.000	0.019	0.137
-725.894	-24.096	0.329	-0.198
-724.879	188.975	0.382	0.576
-723.864	43.367	-0.228	0.210
-722.850	-70.835	0.207	-0.079
-721.835	551.696	0.118	0.285
-720.821	-46.775	-0.228	-0.112
-719.806	-200.000	0.021	0.132
-718.791	11.663	0.218	-0.168
-717.777	44.702	0.124	0.115
-716.762	-200.000	0.018	-0.532
-715.748	-63.228	-0.215	0.089
-714.733	-1.871	0.331	0.234
-713.718	137.141	0.103	0.135
-712.704	800.000	0.055	-0.157
-711.689	-200.000	-0.066	-0.416
-710.675	-117.016	0.143	0.026
-709.660	-50.221	0.151	-0.072
-708.645	32.170	-0.052	-0.045
-707.631	-121.535	0.094	0.016
-706.616	-61.541	0.177	-0.075
-705.602	181.038	0.309	-0.456
-704.587	-115.834	-0.237	-0.045
-703.572	-75.004	0.163	0.059
-702.558	92.885	-0.215	-0.244
-701.543	-57.035	0.108	0.048
-700.529	800.000	-0.068	0.199
-699.514	-200.000	-0.011	-0.107
-698.499	800.000	0.069	-0.283
-697.485	-164.792	0.154	-0.007
-696.470	-34.890	0.202	0.111
-695.456	-200.000	-0.014	-0.162
-694.441	231.542	0.163	0.269
-693.426	160.886	0.133	0.187
-692.412	167.120	-0.181	-0.258
-691.397	-30.459	-0.364	-0.208
-690.383	-200.000	0.010	0.062
-689.368	-200.000	-0.032	0.000
-688.354	487.428	-0.121	-0.278
-687.339	32.075	-0.186	0.161
-686.324	-200.000	0.066	-0.298
-685.310	-42.936	-0.264	-0.135
-684.295	-200.000	-0.016	-0.205
-683.281	-200.000	0.393	-0.000
-682.266	101.458	-0.060	-0.070
-681.251	-127.973	-0.260	0.037
-680.237	-134.181	-0.131	0.016
-679.222	-3.402	-0.226	-0.158
-678.208	-41.070	-0.100	-0.052
-677.193	5.527	-0.153	0.113
-676.178	93.520	-0.137	-0.156
-675.164	800.000	-0.021	0.066
-674.149	-200.000	-0.082	0.448
-673.135	-164.686	0.134	-0.006
-672.120	-200.000	0.037	-0.221
-671.105	-200.000	-0.036	-0.335
-670.091	167.904	0.347	-0.495
-669.076	-161.401	-0.094	-0.005
-668.062	800.000	-0.047	0.154
-667.047	538.677	0.075	-0.180
-666.032	-31.450	0.154	0.087
-665.018	-10.293	0.055	-0.036
-664.003	508.878	0.062	-0.145
-662.989	-200.000	0.036	-0.362
-661.974	51.676	-0.177	-0.169
-660.959	-52.175	0.130	-0.061
-659.945	-98.917	0.094	0.024
-658.930	-143.838	-0.272	-0.026
-657.916	272.427	-0.274	-0.484
-656.901	14.967	-0.103	-0.081
-655.886	800.000	-0.086	-0.324
-654.872	357.932	-0.089	-0.179
-653.857	33.880	-0.205	-0.179
-652.843	800.000	-0.039	-0.133
-651.828	-158.978	0.186	-0.011
-650.814	800.000	-0.015	-0.049
-649.799	-139.497	-0.099	0.011
-648.784	-112.487	-0.296	-0.059
-647.770	-200.000	-0.033	0.460
-646.755	-181.322	-0.314	-0.006
-645.741	-146.703	0.266	0.023
-644.726	-200.000	0.044	0.259
-643.711	800.000	0.062	-0.179
-642.697	-152.886	-0.328	-0.023
-641.682	-200.000	0.027	0.518
-640.668	-72.520	0.029	0.011
-639.653	180.717	-0.199	-0.292
-638.638	524.341	-0.055	0.131
-637.624	63.801	0.093	0.094
-636.609	-30.130	0.220	0.125
-635.595	110.466	-0.145	0.174
-634.580	-200.000	0.027	-0.220
-633.565	-98.616	0.284	0.073
-632.551	-165.426	0.209	-0.009
-631.536	358.177	0.066	-0.133
-630.522	141.256	-0.144	0.191
-629.507	-6.766	0.081	0.055
-628.492	29.732	-0.339	0.289
-627.478	164.877	0.172	0.244
-626.463	-173.124	-0.274	-0.008
-625.449	3.313	0.081	0.059
-624.434	85.629	-0.167	0.184
-623.419	-200.000	-0.015	-0.081
-622.405	-200.000	-0.004	-0.306
-621.390	-63.822	-0.087	0.036
-620.376	-129.108	0.253	-0.035
-619.361	202.784	-0.055	-0.085
-618.346	-200.000	0.038	-0.355
-617.332	-76.793	0.228	0.080
-616.317	-200.000	0.002	-0.288
-615.303	-90.801	-0.489	-0.141
-614.288	658.969	-0.086	-0.221
-613.273	-200.000	0.006	0.372
-612.259	-60.851	0.293	-0.124
-611.244	396.410	0.032	-0.066
-610.230	-93.201	0.075	-0.021
-609.215	-34.990	0.244	-0.133
-608.201	185.346	0.011	-0.017
-607.186	79.600	-0.168	0.181
-606.171	-152.482	0.250	-0.018
-605.157	-200.000	-0.041	-0.275
-604.142	-200.000	0.031	0.179
-603.128	548.760	-0.076	-0.182
-602.113	-85.366	-0.062	-0.019
-601.098	-12.889	-0.117	-0.077
-600.084	-141.111	0.051	-0.005
-599.069	-194.916	-0.184	0.001
-598.055	-200.000	0.010	-0.189
-597.040	-200.000	0.004	0.238
-596.025	-144.739	-0.230	0.021
-595.011	800.000	0.035	-0.143
-593.996	800.000	0.157	-0.449
-592.982	-163.513	0.064	-0.003
-591.967	41.168	-0.127	-0.115
-590.952	-200.000	-0.010	0.125
-589.938	176.924	0.064	-0.093
-588.923	-200.000	-0.023	0.358
-587.909	167.269	0.152	0.216
-586.894	431.731	-0.084	-0.183
-585.879	800.000	-0.041	0.127
-584.865	246.653	-0.186	0.314
-583.850	-99.360	-0.508	0.128
-582.836	-62.345	-0.363	0.151
-581.821	800.000	-0.083	-0.247
-580.806	173.901	0.144	-0.208
-579.792	-186.395	-0.415	0.006
-578.777	174.952	-0.114	0.165
-577.763	15.809	-0.158	0.124
-576.748	-200.000	-0.012	0.110
-575.733	97.995	0.181	0.208
-574.719	150.827	-0.146	-0.198
-573.704	128.591	0.091	-0.116
-572.690	228.107	-0.135	0.219
-571.675	800.000	0.108	-0.348
-570.661	-200.000	0.019	-0.109
-569.646	538.959	-0.014	0.032
-568.631	-200.000	-0.023	0.105
-567.617	-105.422	-0.182	0.041
-566.602	800.000	0.079	-0.229
-565.588	800.000	0.161	-0.569
-564.573	-78.377	-0.275	-0.094
-563.558	-7.326	-0.179	0.121
-562.544	-37.655	0.400	0.213
-561.529	221.924	-0.244	-0.393
-560.515	1.421	-0.198	-0.142
-559.500	-106.975	0.208	0.046
-558.485	258.367	-0.066	0.113
-557.471	2.481	-0.098	-0.071
-556.456	14.342	-0.175	0.137
-555.442	584.193	0.063	0.155
-554.427	-200.000	0.004	-0.211
-553.412	429.473	0.135	-0.293
-552.398	-200.000	-0.029	-0.144
-551.383	47.369	-0.108	0.101
-550.369	-123.067	-0.134	0.021
-549.354	-100.957	0.063	-0.015
-548.339	-31.079	0.228	-0.128
-547.325	-127.152	0.126	0.018
-546.310	178.126	0.237	-0.346
-545.296	75.166	0.161	-0.170
-544.281	110.554	0.063	0.075
-543.266	1.320	0.190	0.137
-542.252	5.530	0.318	-0.235
-541.237	39.601	-0.127	0.114
-540.223	-140.897	0.361	0.037
-539.208	-200.000	0.016	0.148
-538.193	33.368	-0.308	-0.267
-537.179	-1.452	0.144	-0.102
-536.164	-200.000	-0.024	-0.190
-535.150	-200.000	0.130	0.633
-534.135	40.592	-0.078	-0.070
-533.121	-68.318	-0.241	-0.093
-532.106	-86.703	-0.147	-0.045
-531.091	-200.000	0.037	-0.396
-530.077	-200.000	0.028	-0.305
-529.062	800.000	-0.049	0.186
-528.048	-17.988	-0.089	0.056
-527.033	-131.837	0.215	-0.028
-526.018	-200.000	-0.023	-0.230
-525.004	800.000	-0.090	-0.285
-523.989	800.000	-0.089	-0.251
-522.975	800.000	0.093	0.293
-521.960	-1.104	0.195	-0.138
-520.945	-109.165	-0.256	-0.054
-519.931	-93.916	-0.299	0.082
-518.916	-200.000	0.037	0.275
-517.902	-116.580	0.320	0.059
-516.887	85.135	-0.142	-0.155
-515.872	-200.000	0.058	-0.297
-514.858	643.461	-0.045	-0.115
-513.843	-29.589	0.351	-0.200
-512.829	6.495	0.326	-0.242
-511.814	386.181	-0.067	-0.137
-510.799	-200.000	-0.001	0.181
-509.785	-53.970	-0.166	-0.075
-508.770	-77.845	0.251	-0.087
-507.756	-200.000	0.011	-0.123
-506.741	689.291	-0.032	0.082
-505.726	-172.812	0.222	0.007
-504.712	-24.886	0.190	-0.112
-503.697	464.296	0.078	-0.174
-502.683	800.000	0.036	-0.124
-501.668	-66.937	-0.239	-0.094
-500.653	-147.061	0.233	0.020
-499.639	-8.869	0.149	0.100
-498.624	30.269	0.212	-0.181
-497.610	-5.557	0.296	0.202
-496.595	-168.869	-0.270	0.010
-495.581	-200.000	0.011	0.121
-494.566	-200.000	0.037	0.163
-493.551	800.000	-0.027	0.093
-492.537	-200.000	0.007	0.275
-491.522	92.043	0.127	0.142
-490.508	-7.909	-0.153	0.103
-489.493	-38.539	-0.089	-0.047
-488.478	-32.264	0.232	-0.129
-487.464	147.304	0.015	0.021
-486.449	-183.000	-0.333	-0.006
-485.435	-10.690	-0.242	-0.159
-484.420	462.464	-0.116	-0.258
-483.405	-200.000	-0.014	-0.168
-482.391	-200.000	-0.005	0.124
-481.376	200.493	-0.038	0.059
-480.362	-76.789	0.248	0.087
-479.347	800.000	0.054	-0.183
-478.332	599.229	-0.087	0.215
-477.318	-51.878	-0.136	-0.063
-476.303	-41.734	-0.137	-0.070
-475.289	-200.000	-0.011	-0.212
-474.274	-200.000	-0.006	0.464
-473.259	128.804	-0.143	0.181
-472.245	-200.000	-0.045	-0.220
-471.230	136.070	-0.210	-0.273
-470.216	-200.000	-0.010	-0.123
-469.201	-200.000	0.007	-0.280
-468.186	19.910	0.298	0.239
-467.172	232.775	-0.163	-0.267
-466.157	-197.589	-0.504	-0.003
-465.143	-49.704	0.056	-0.027
-464.128	-11.133	-0.220	-0.144
-463.113	800.000	-0.022	-0.086
-462.099	146.351	0.118	0.157
-461.084	-131.556	0.107	0.014
-460.070	-44.887	0.244	0.121
-459.055	800.000	0.046	-0.184
-458.040	-186.709	0.199	-0.003
-457.026	14.410	0.279	0.217
-456.011	-6.689	0.199	-0.134
-454.997	-194.344	0.454	0.004
-453.982	-200.000	-0.017	-0.141
-452.968	800.000	0.037	0.125
-451.953	-102.504	-0.102	0.024
-450.938	39.832	-0.154	-0.137
-449.924	15.547	-0.295	0.230
-448.909	622.068	0.045	-0.112
-447.895	17.517	0.102	-0.081
-446.880	-47.808	0.365	-0.176
-445.865	101.122	0.038	0.044
-444.851	229.473	-0.080	0.129
-443.836	-200.000	0.013	0.170
-442.822	-76.630	-0.267	-0.093
-441.807	800.000	-0.035	0.144
-440.792	36.567	0.227	-0.199
-439.778	-138.430	-0.240	-0.026
-438.763	-200.000	-0.008	0.164
-437.749	333.925	0.143	-0.275
-436.734	102.908	-0.163	-0.190
-435.719	482.688	-0.106	0.240
-434.705	-115.828	0.212	0.039
-433.690	57.374	0.156	-0.151
-432.676	-104.112	0.188	-0.043
-431.661	-108.989	0.162	-0.034
-430.646	8.187	0.094	-0.070
-429.632	-11.934	0.210	-0.137
-428.617	-200.000	0.000	0.091
-427.603	-29.723	0.091	0.051
-426.588	-86.539	0.097	0.029
-425.573	-37.217	-0.231	0.123
-424.559	216.347	-0.124	0.195
-423.544	20.584	-0.035	0.028
-422.530	44.094	-0.244	0.222
-421.515	14.398	0.028	0.022
-420.500	418.945	-0.027	0.057
-419.486	143.868	0.132	0.175
-418.471	-14.579	-0.031	-0.020
-417.457	109.031	-0.156	0.186
-416.442	-59.176	-0.094	0.040
-415.428	297.227	-0.064	-0.117
-414.413	12.505	-0.271	-0.208
-413.398	800.000	0.058	-0.223
-412.384	-118.266	0.223	0.039
-411.369	-110.643	-0.344	0.071
-410.355	562.443	-0.099	0.239
-409.340	19.557	0.238	-0.190
-408.325	33.470	0.110	0.095
-407.311	-90.393	-0.054	-0.016
-406.296	63.219	0.184	0.183
-405.282	-48.443	0.249	0.119
-404.267	800.000	0.069	-0.233
-403.252	-200.000	0.000	0.180
-402.238	-45.847	-0.100	0.049
-401.223	-200.000	-0.052	0.235
-400.209	24.048	0.083	-0.068
-399.194	-200.000	0.010	0.094
-398.179	-23.405	-0.244	-0.146
-397.165	15.578	0.127	-0.099
-396.150	-72.197	0.093	0.034
-395.136	-200.000	0.029	-0.262
-394.121	80.120	-0.093	-0.099
-393.106	239.958	0.084	0.139
-392.092	31.637	-0.018	-0.015
-391.077	800.000	-0.063	0.187
-390.063	-200.000	-0.028	-0.310
-389.048	140.446	-0.036	-0.047
-388.033	800.000	0.095	0.287
-387.019	2.136	0.227	0.163
-386.004	36.690	-0.113	0.099
-384.990	-4.869	0.145	0.099
-383.975	-141.606	0.355	-0.036
-382.960	-151.303	0.344	-0.026
-381.946	-33.837	0.352	0.193
-380.931	-55.820	-0.049	0.022
-379.917	76.352	-0.051	0.054
-378.902	157.624	-0.118	0.163
-377.888	697.028	-0.102	0.266
-376.873	241.155	0.042	0.070
-375.858	-200.000	0.107	0.473
-374.844	800.000	0.111	0.346
-373.829	800.000	-0.086	0.299
-372.815	637.430	0.102	-0.258
-371.800	152.265	-0.102	-0.138
-370.785	60.244	-0.118	-0.116
-369.771	-118.312	-0.347	0.061
-368.756	12.666	-0.287	-0.219
-367.742	-200.000	0.137	0.000
-366.727	800.000	-0.052	-0.147
-365.712	-200.000	-0.083	-0.410
-364.698	-83.461	-0.121	-0.038
-363.683	18.309	-0.062	0.049
-362.669	-12.705	0.113	0.073
-361.654	800.000	-0.039	-0.128
-360.639	-46.876	0.208	-0.101
-359.625	800.000	0.075	0.215
-358.610	67.369	0.252	0.255
-357.596	-100.212	-0.188	0.046
-356.581	-84.164	-0.381	-0.120
-355.566	-20.213	-0.062	-0.038
-354.552	520.809	0.145	0.336
-353.537	289.953	0.140	0.251
-352.523	-200.000	0.028	0.144
-351.508	-200.000	-0.042	-0.198
-350.493	128.840	0.072	-0.091
-349.479	121.125	-0.077	0.095
-348.464	5.075	-0.020	-0.015
-347.450	595.130	0.084	0.206
-346.435	-32.058	-0.181	0.100
-345.420	-33.041	0.371	-0.204
-344.406	800.000	0.050	0.140
-343.391	307.454	-0.108	0.200
-342.377	800.000	0.037	-0.152
-341.362	295.881	0.115	-0.209
-340.348	-132.954	0.258	0.033
-339.333	369.402	-0.068	-0.135
-338.318	-52.587	-0.258	0.118
-337.304	-174.702	-0.140	0.004
-336.289	800.000	0.136	-0.426
-335.275	800.000	0.074	-0.256
-334.260	30.655	-0.049	0.042
-333.245	-200.000	-0.032	-0.245
-332.231	-200.000	-0.032	0.203
-331.216	253.027	0.079	0.134
-330.202	-194.619	-0.110	-0.001
-329.187	800.000	0.022	-0.073
-328.172	368.033	0.038	-0.076
-327.158	-200.000	0.022	-0.146
-326.143	-31.033	-0.122	-0.068
-325.129	429.989	-0.017	-0.037
-324.114	288.957	-0.136	-0.245
-323.099	57.024	-0.267	0.257
-322.085	8.671	0.155	-0.116
-321.070	-5.645	-0.080	-0.054
-320.056	800.000	-0.038	-0.116
-319.041	800.000	-0.038	0.110
-318.026	78.285	0.036	0.038
-317.012	-15.395	-0.184	0.116
-315.997	-200.000	-0.015	-0.079
-314.983	641.183	-0.079	-0.200
-313.968	111.431	-0.176	-0.210
-312.953	-200.000	0.012	0.279
-311.939	-103.031	-0.081	-0.019
-310.924	-88.891	-0.228	-0.067
-309.910	-100.908	-0.199	-0.048
-308.895	452.683	0.026	-0.058
-307.880	-21.745	-0.593	0.357
-306.866	-200.000	0.039	-0.238
-305.851	-109.491	0.219	0.046
-304.837	-200.000	-0.006	0.116
-303.822	-134.398	-0.176	0.021
-302.807	-114.520	0.122	-0.023
-301.793	293.165	-0.265	0.478
-300.778	-65.794	-0.123	-0.049
-299.764	800.000	-0.084	0.357
-298.749	428.990	0.084	0.181
-297.735	-200.000	0.069	-0.432
-296.720	-200.000	-0.059	-0.443
-295.705	-63.076	-0.194	0.079
-294.691	-86.665	-0.361	0.109
-293.676	-200.000	0.018	-0.132
-292.662	-170.974	0.196	-0.007
-291.647	-200.000	0.062	-0.300
-290.632	-200.000	-0.075	0.512
-289.618	14.684	0.026	0.020
-288.603	-51.350	0.162	0.075
-287.589	-27.164	0.286	-0.165
-286.574	-175.121	-0.198	0.005
-285.559	142.963	0.123	-0.162
-284.545	800.000	-0.015	0.055
-283.530	-200.000	-0.006	-0.051
-282.516	-170.545	-0.158	0.005
-281.501	-200.000	0.038	0.169
-280.486	-10.225	-0.087	-0.057
-279.472	-200.000	-0.032	-0.385
-278.457	303.393	0.124	-0.227
-277.443	-12.695	0.164	0.106
-276.428	-152.382	-0.022	-0.002
-275.413	-132.855	0.078	0.010
-274.399	90.516	-0.087	0.097
-273.384	200.065	-0.043	0.066
-272.370	-38.280	0.256	0.134
-271.355	-108.185	-0.181	0.039
-270.340	59.078	0.190	0.184
-269.326	-36.869	0.168	0.089
-268.311	-79.452	-0.249	0.083
-267.297	-138.921	-0.304	0.033
-266.282	-200.000	0.007	-0.424
-265.267	800.000	0.062	0.209
-264.253	-142.570	0.521	-0.050
-263.238	41.804	-0.096	0.086
-262.224	-58.815	0.078	0.033
-261.209	-2.184	-0.341	0.237
-260.195	24.942	0.165	0.135
-259.180	-54.726	0.030	-0.013
-258.165	-73.861	-0.240	0.086
-257.151	105.437	0.134	0.156
-256.136	800.000	0.087	0.277
-255.122	-105.057	0.178	-0.040
-254.107	188.644	-0.219	0.324
-253.092	-94.887	0.143	-0.038
-252.078	-77.156	0.072	0.025
-251.063	346.952	0.093	0.180
-250.049	419.560	-0.152	-0.322
-249.034	-155.749	-0.199	-0.013
-248.019	-73.312	-0.258	0.093
-247.005	228.410	0.072	-0.116
-245.990	-200.000	-0.003	0.055
-244.976	6.900	-0.157	-0.115
-243.961	-171.446	0.341	0.011
-242.946	800.000	-0.021	-0.073
-241.932	61.532	0.054	-0.053
-240.917	-1.644	-0.096	-0.067
-239.903	-55.904	0.101	0.044
-238.888	-75.993	0.112	0.039
-237.873	-90.302	-0.020	0.006
-236.859	-59.163	0.180	-0.076
-235.844	-62.601	-0.263	0.108
-234.830	56.825	-0.151	0.145
-233.815	-143.770	0.265	-0.025
-232.800	-200.000	-0.007	-0.148
-231.786	-116.105	-0.132	-0.024
-230.771	-200.000	-0.015	0.223
-229.757	-104.730	0.353	0.080
-228.742	-113.936	0.193	0.037
-227.727	-162.513	-0.193	-0.009
-226.713	800.000	-0.084	0.272
-225.698	800.000	0.006	0.018
-224.684	5.683	-0.155	-0.113
-223.669	401.733	0.119	0.247
-222.655	-68.836	-0.057	0.022
-221.640	800.000	0.087	0.263
-220.625	800.000	-0.022	-0.081
-219.611	-42.509	0.060	0.030
-218.596	-200.000	-0.022	0.181
-217.582	-129.338	-0.129	0.018
-216.567	-200.000	-0.033	-0.178
-215.552	307.436	0.146	0.269
-214.538	-200.000	-0.037	0.166
-213.523	122.350	-0.293	0.361
-212.509	519.558	0.125	0.289
-211.494	-200.000	-0.257	0.000
-210.479	150.185	0.062	-0.083
-209.465	-200.000	0.015	-0.354
-208.450	800.000	-0.087	0.307
-207.436	-143.286	-0.417	-0.039
-206.421	-200.000	0.013	-0.107
-205.406	325.453	0.100	-0.189
-204.392	240.815	-0.041	0.067
-203.377	132.387	0.271	-0.344
-202.363	-104.892	0.327	-0.074
-201.348	-200.000	-0.058	0.444
-200.333	35.096	0.295	-0.254
-199.319	-91.325	0.548	0.154
-198.304	-200.000	-0.010	-0.070
-197.290	-200.000	-0.013	0.124
-196.275	209.252	-0.112	0.172
-195.260	-116.122	0.154	0.028
-194.246	85.354	-0.152	0.164
-193.231	176.144	0.051	0.073
-192.217	-42.636	0.213	0.107
-191.202	190.316	-0.108	0.160
-190.187	-200.000	-0.008	-0.113
-189.173	-10.130	0.141	0.092
-188.158	-15.885	0.106	-0.067
-187.144	-81.707	-0.277	0.090
-186.129	30.568	0.274	0.231
-185.114	-74.600	0.086	0.030
-184.100	51.638	-0.225	0.211
-183.085	-28.620	0.280	0.159
-182.071	800.000	0.097	0.346
-181.056	-200.000	0.033	-0.394
-180.042	122.145	0.210	-0.258
-179.027	-27.813	0.145	0.083
-178.012	31.364	-0.375	-0.317
-176.998	240.390	0.123	-0.202
-175.983	-68.642	0.090	0.034
-174.969	289.037	-0.071	-0.127
-173.954	-28.331	0.177	0.101
-172.939	45.429	0.144	0.130
-171.925	-200.000	-0.006	-0.216
-170.910	-27.532	-0.346	-0.198
-169.896	41.160	0.215	-0.191
-168.881	-144.114	-0.342	-0.032
-167.866	189.145	0.107	0.158
-166.852	-31.841	0.022	0.012
-165.837	-200.000	-0.002	-0.059
-164.823	-159.336	-0.185	0.010
-163.808	186.712	-0.182	-0.267
-162.793	-200.000	0.017	-0.149
-161.779	800.000	0.109	-0.405
-160.764	-200.000	0.022	0.117
-159.750	-67.748	0.462	0.178
-158.735	3.852	0.114	0.082
-157.720	260.539	0.098	-0.167
-156.706	211.886	0.058	-0.090
-155.691	-77.333	-0.246	0.084
-154.677	36.046	-0.271	-0.235
-153.662	-33.483	-0.150	-0.081
-152.647	360.681	0.121	0.238
-151.633	2.804	-0.038	-0.027
-150.618	141.076	-0.169	-0.219
-149.604	-68.179	-0.447	0.171
-148.589	-14.412	-0.156	-0.099
-147.574	91.197	0.017	0.019
-146.560	46.729	0.022	-0.020
-145.545	800.000	0.104	0.306
-144.531	800.000	-0.030	0.111
-143.516	-83.385	-0.346	-0.109
-142.502	-134.731	-0.275	0.033
-141.487	427.976	-0.075	-0.160
-140.472	-53.791	-0.060	0.027
-139.458	-50.565	-0.088	0.041
-138.443	-144.559	0.215	-0.020
-137.429	-95.371	0.141	-0.037
-136.414	-11.443	0.207	-0.134
-135.399	-59.167	-0.225	0.095
-134.385	59.623	-0.187	0.181
-133.370	577.338	0.065	-0.157
-132.356	-99.072	0.220	-0.055
-131.341	180.706	0.139	-0.201
-130.326	60.497	-0.196	-0.191
-129.312	73.338	-0.079	-0.081
-128.297	-70.164	0.457	0.171
-127.283	61.122	0.088	-0.086
-126.268	-38.288	-0.145	0.076
-125.253	-137.299	0.036	-0.004
-124.239	-200.000	-0.019	-0.163
-123.224	221.253	-0.076	0.121
-122.210	-144.936	0.307	0.028
