DTS Sentinel unit serial number:	SN413079Multiplexer serial number:	ORYXHardware model number:	OX4-SRSoftware version number:	ORYX F/W v4.00 Oryx Data Collector v3.7.2.0data status	okinstallation	princeton_trtdifferential loss correction	single-endedforward channel	channel 1reverse channel	N/Adate	2019/09/11time	11:04:11forward acquisition time	60.00reverse acquisition time	0.00gamma	496.2192k internal	0.2297k external	0.2297temperature offset calibration	0.9959default loss term (dB/km)	0.3790temperature slope calibration	1.0000multiplexer offset coefficient	1.0000multiplexer slope coefficient	1.0000fibre end	0.00T internal ref (°C)	37.31T ext. ref 1 (°C)	0.17T ext. ref 2 (°C)	34.72length (m)	temperature (°C)	Stokes	anti-Stokes-747.200	207.958	0.114	0.183
-746.185	-99.546	-0.180	-0.046
-745.171	-200.000	-0.038	-0.307
-744.156	67.927	-0.286	0.299
-743.142	-42.487	-0.130	-0.068
-742.127	117.349	-0.131	-0.165
-741.112	4.612	-0.142	0.107
-740.098	800.000	0.062	0.248
-739.083	-200.000	0.002	0.128
-738.069	-200.000	0.013	0.206
-737.054	517.383	0.087	-0.208
-736.039	577.456	0.059	0.147
-735.025	342.395	0.273	0.545
-734.010	-108.689	-0.238	-0.052
-732.996	-127.587	-0.312	0.046
-731.981	395.067	0.134	0.285
-730.966	-200.000	0.121	0.000
-729.952	-58.705	0.227	0.100
-728.937	321.230	0.178	-0.345
-727.923	800.000	-0.118	-0.398
-726.908	676.622	-0.033	-0.088
-725.894	199.621	-0.115	-0.180
-724.879	282.835	0.134	0.245
-723.864	335.846	0.079	0.156
-722.850	58.120	-0.227	0.227
-721.835	-200.000	-0.003	0.126
-720.821	-69.713	-0.183	-0.071
-719.806	290.877	0.166	-0.308
-718.791	43.621	-0.148	-0.138
-717.777	117.390	-0.067	0.084
-716.762	-146.552	-0.146	0.013
-715.748	-116.881	-0.401	0.075
-714.733	628.852	0.022	0.058
-713.718	-200.000	-0.003	-0.296
-712.704	-55.445	0.190	-0.087
-711.689	723.429	0.033	-0.088
-710.675	-178.327	0.221	0.005
-709.660	4.393	0.064	0.048
-708.645	-107.805	-0.201	0.045
-707.631	-33.753	-0.081	-0.046
-706.616	-47.156	-0.323	0.161
-705.602	800.000	0.027	-0.121
-704.587	-161.982	0.224	0.012
-703.572	-200.000	-0.057	0.266
-702.558	-200.000	0.010	-0.227
-701.543	-163.875	0.116	0.006
-700.529	19.995	0.093	-0.076
-699.514	7.672	0.187	0.143
-698.499	267.584	0.100	0.178
-697.485	-120.446	-0.345	0.060
-696.470	-147.320	-0.273	-0.024
-695.456	11.092	0.150	-0.117
-694.441	-85.853	0.223	0.070
-693.426	-200.000	0.036	0.190
-692.412	39.193	-0.183	-0.167
-691.397	-159.799	-0.045	0.003
-690.383	-200.000	-0.026	0.203
-689.368	-200.000	0.000	0.145
-688.354	346.066	0.093	-0.187
-687.339	60.354	0.164	-0.166
-686.324	248.714	-0.126	0.218
-685.310	-127.666	-0.216	-0.032
-684.295	800.000	-0.062	0.191
-683.281	76.952	-0.087	-0.094
-682.266	642.943	0.037	0.097
-681.251	-30.221	-0.236	0.137
-680.237	-97.127	0.073	-0.020
-679.222	-47.499	0.125	0.062
-678.208	-78.841	-0.312	0.108
-677.193	800.000	-0.082	0.313
-676.178	-85.074	-0.320	-0.102
-675.164	596.102	-0.121	-0.305
-674.149	-81.530	0.174	-0.058
-673.135	-94.332	0.169	0.047
-672.120	-162.898	0.349	0.017
-671.105	-128.565	-0.316	0.046
-670.091	7.809	-0.140	0.107
-669.076	-89.413	0.206	-0.062
-668.062	86.403	-0.138	-0.155
-667.047	-200.000	-0.119	-0.000
-666.032	-200.000	0.002	0.262
-665.018	800.000	0.048	0.141
-664.003	-72.822	-0.099	-0.037
-662.989	141.795	0.103	-0.138
-661.974	-135.066	-0.153	-0.019
-660.959	78.660	-0.119	0.130
-659.945	367.066	-0.028	0.058
-658.930	-64.249	-0.347	0.144
-657.916	-78.926	-0.137	-0.047
-656.901	-79.965	0.104	0.035
-655.886	-200.000	0.021	-0.096
-654.872	-200.000	-0.044	0.244
-653.857	324.528	-0.082	0.159
-652.843	-169.643	0.418	-0.015
-651.828	-200.000	-0.010	0.062
-650.814	-82.879	-0.115	-0.038
-649.799	-200.000	0.064	-0.317
-648.784	-0.754	-0.133	-0.096
-647.770	17.423	0.073	-0.059
-646.755	-153.783	-0.032	-0.002
-645.741	-71.073	0.166	0.063
-644.726	-200.000	-0.002	0.097
-643.711	470.309	0.083	-0.191
-642.697	-124.353	0.169	0.027
-641.682	-164.808	-0.031	-0.001
-640.668	-200.000	0.052	-0.338
-639.653	155.304	-0.149	-0.209
-638.638	-200.000	-0.034	0.197
-637.624	30.363	-0.236	-0.205
-636.609	22.507	-0.078	-0.065
-635.595	20.622	0.101	-0.083
-634.580	-89.150	-0.035	-0.010
-633.565	8.462	0.312	-0.238
-632.551	-89.040	-0.140	0.042
-631.536	-200.000	-0.023	0.289
-630.522	-80.656	0.297	-0.101
-629.507	-50.305	-0.383	0.184
-628.492	-73.228	0.257	0.096
-627.478	513.439	0.045	-0.107
-626.463	-200.000	0.009	-0.216
-625.449	-200.000	-0.034	0.269
-624.434	29.625	0.141	-0.122
-623.419	-130.549	-0.458	-0.063
-622.405	10.481	0.154	0.119
-621.390	800.000	0.189	-0.648
-620.376	103.056	0.122	-0.145
-619.361	800.000	0.092	0.278
-618.346	-66.254	0.081	-0.033
-617.332	-166.195	-0.216	0.009
-616.317	-200.000	0.009	0.125
-615.303	-61.950	0.230	0.098
-614.288	800.000	-0.107	-0.434
-613.273	55.489	0.210	0.207
-612.259	-180.405	-0.442	-0.009
-611.244	-112.856	0.097	-0.020
-610.230	109.172	-0.110	-0.134
-609.215	-82.515	-0.099	-0.033
-608.201	-20.867	-0.197	-0.123
-607.186	-200.000	-0.007	0.097
-606.171	46.487	0.226	0.213
-605.157	800.000	-0.119	0.395
-604.142	-200.000	0.005	-0.068
-603.128	-14.889	-0.145	-0.094
-602.113	-113.431	0.174	0.035
-601.098	208.015	0.226	0.358
-600.084	-70.881	-0.226	0.087
-599.069	-65.290	-0.233	-0.095
-598.055	-27.684	-0.123	0.073
-597.040	800.000	-0.064	-0.234
-596.025	4.901	-0.265	-0.198
-595.011	15.368	-0.287	0.228
-593.996	-200.000	-0.007	-0.362
-592.982	-200.000	0.024	-0.262
-591.967	15.637	-0.163	0.130
-590.952	-43.165	0.200	0.103
-589.938	16.742	0.209	-0.168
-588.923	800.000	0.011	0.047
-587.909	98.095	-0.238	0.278
-586.894	800.000	0.103	0.349
-585.879	-35.426	0.052	-0.029
-584.865	316.884	0.152	0.291
-583.850	800.000	0.044	-0.154
-582.836	35.973	-0.095	0.085
-581.821	88.262	-0.023	-0.025
-580.806	416.539	0.227	0.491
-579.792	88.648	-0.062	-0.069
-578.777	47.831	0.204	0.194
-577.763	261.152	-0.199	0.349
-576.748	-200.000	0.069	-0.341
-575.733	415.212	0.052	-0.113
-574.719	-200.000	0.050	-0.243
-573.704	-74.641	-0.171	0.062
-572.690	-113.459	0.168	0.033
-571.675	571.725	0.081	0.200
-570.661	145.746	-0.262	0.356
-569.646	-1.804	0.263	0.188
-568.631	-70.349	0.189	-0.073
-567.617	-88.908	-0.075	0.023
-566.602	-139.895	0.067	-0.007
-565.588	214.077	0.078	0.125
-564.573	28.945	-0.289	0.249
-563.558	134.116	0.095	-0.125
-562.544	-19.616	0.203	-0.127
-561.529	800.000	0.121	0.496
-560.515	606.771	0.086	0.217
-559.500	-5.350	-0.370	-0.258
-558.485	505.449	-0.085	0.200
-557.471	679.891	0.062	0.163
-556.456	100.259	0.032	-0.038
-555.442	-200.000	-0.142	-0.000
-554.427	-152.873	-0.301	-0.022
-553.412	-200.000	-0.018	-0.409
-552.398	263.893	0.064	0.113
-551.383	4.382	0.113	0.084
-550.369	-160.387	-0.249	-0.014
-549.354	-153.143	0.161	0.011
-548.339	-42.347	-0.142	-0.073
-547.325	74.217	0.248	-0.263
-546.310	-109.482	0.129	-0.028
-545.296	-62.287	0.111	0.047
-544.281	-38.511	0.334	-0.179
-543.266	250.869	0.229	-0.394
-542.252	66.680	0.181	-0.187
-541.237	-171.781	0.089	-0.003
-540.223	157.310	0.122	0.170
-539.208	-200.000	-0.014	-0.201
-538.193	-200.000	-0.252	-0.000
-537.179	118.119	-0.236	-0.295
-536.164	-74.644	0.173	0.063
-535.150	800.000	-0.038	0.148
-534.135	425.912	-0.047	-0.103
-533.121	483.454	0.018	-0.041
-532.106	-158.574	0.225	0.013
-531.091	122.501	0.090	0.113
-530.077	-37.007	-0.151	-0.082
-529.062	-27.841	0.149	0.087
-528.048	281.329	0.097	0.177
-527.033	-200.000	-0.016	-0.081
-526.018	-200.000	-0.053	0.372
-525.004	-40.686	-0.244	-0.128
-523.989	308.991	0.079	0.149
-522.975	109.622	-0.310	-0.376
-521.960	-61.644	-0.242	-0.103
-520.945	446.725	-0.087	-0.193
-519.931	145.740	0.268	0.364
-518.916	-83.874	-0.184	0.059
-517.902	211.790	0.029	-0.046
-516.887	800.000	-0.021	0.079
-515.872	266.463	-0.113	-0.199
-514.858	-73.158	-0.133	0.049
-513.843	1.014	0.208	-0.151
-512.829	311.184	0.224	-0.425
-511.814	-200.000	0.034	-0.220
-510.799	133.421	0.096	-0.126
-509.785	395.488	0.098	0.207
-508.770	800.000	-0.034	-0.147
-507.756	-200.000	0.022	-0.110
-506.741	-200.000	-0.018	0.084
-505.726	313.898	0.117	-0.223
-504.712	800.000	-0.040	0.170
-503.697	113.751	0.034	-0.041
-502.683	800.000	-0.022	-0.096
-501.668	148.637	-0.114	0.156
-500.653	-200.000	0.015	-0.326
-499.639	763.088	-0.069	-0.189
-498.624	-69.514	-0.134	0.052
-497.610	800.000	0.033	-0.110
-496.595	-200.000	-0.006	-0.295
-495.581	-21.399	-0.065	-0.040
-494.566	800.000	0.061	-0.240
-493.551	800.000	-0.196	-0.806
-492.537	243.999	0.214	0.363
-491.522	800.000	-0.028	0.089
-490.508	39.237	0.049	0.044
-489.493	247.496	-0.135	0.231
-488.478	-139.352	-0.287	-0.031
-487.464	800.000	0.028	-0.114
-486.449	-113.083	-0.235	-0.047
-485.435	-80.159	-0.264	-0.089
-484.420	-178.194	0.031	-0.001
-483.405	329.870	0.075	-0.146
-482.391	-2.395	0.050	0.035
-481.376	183.496	-0.157	0.235
-480.362	62.600	0.138	0.139
-479.347	-50.639	-0.162	-0.077
-478.332	-200.000	-0.038	0.293
-477.318	-200.000	0.017	0.085
-476.303	-36.169	-0.051	-0.028
-475.289	800.000	-0.039	0.162
-474.274	78.262	0.044	-0.048
-473.259	319.655	-0.098	0.189
-472.245	78.798	-0.061	-0.066
-471.230	-137.968	0.300	0.034
-470.216	-82.992	0.099	0.032
-469.201	-79.326	0.321	-0.110
-468.186	-145.465	0.129	0.012
-467.172	-200.000	-0.014	0.116
-466.157	800.000	-0.041	-0.138
-465.143	-200.000	-0.013	-0.191
-464.128	-200.000	-0.020	0.388
-463.113	800.000	0.040	0.134
-462.099	144.463	0.039	-0.053
-461.084	-200.000	0.012	0.086
-460.070	-200.000	-0.005	0.297
-459.055	-0.386	-0.381	-0.273
-458.040	146.198	0.119	-0.161
-457.026	33.565	-0.228	0.200
-456.011	139.176	-0.071	-0.094
-454.997	-200.000	0.024	-0.330
-453.982	137.992	-0.147	0.194
-452.968	66.838	-0.210	-0.216
-451.953	486.397	0.050	0.115
-450.938	-23.068	-0.191	0.116
-449.924	-200.000	-0.014	0.207
-448.909	118.261	0.227	-0.283
-447.895	-81.859	-0.161	-0.053
-446.880	-200.000	-0.012	-0.163
-445.865	123.713	0.154	-0.196
-444.851	-200.000	0.051	-0.380
-443.836	-40.081	-0.516	-0.272
-442.822	3.749	-0.133	0.098
-441.807	255.051	0.101	-0.175
-440.792	643.626	-0.106	-0.272
-439.778	-99.810	0.128	0.032
-438.763	115.524	0.079	-0.097
-437.749	601.355	-0.092	-0.231
-436.734	20.742	-0.130	-0.106
-435.719	-200.000	-0.063	-0.298
-434.705	-16.462	0.357	0.228
-433.690	2.654	0.231	0.169
-432.676	-126.363	-0.304	0.046
-431.661	-121.592	0.113	-0.019
-430.646	530.519	0.024	0.057
-429.632	-200.000	-0.025	0.130
-428.617	11.992	0.042	0.032
-427.603	-20.056	-0.330	-0.205
-426.588	71.443	-0.285	0.298
-425.573	-47.539	0.353	0.173
-424.559	-167.791	-0.021	0.001
-423.544	-116.212	0.222	0.042
-422.530	525.347	-0.067	-0.158
-421.515	192.049	-0.059	-0.090
-420.500	-114.697	-0.035	-0.007
-419.486	-41.602	0.276	-0.143
-418.471	115.982	-0.247	-0.305
-417.457	-106.912	0.463	-0.103
-416.442	-9.424	0.051	0.035
-415.428	87.578	-0.111	0.124
-414.413	81.548	0.159	0.173
-413.398	-2.153	-0.189	0.134
-412.384	36.425	-0.040	-0.036
-411.369	-1.640	0.159	0.113
-410.355	118.398	0.111	0.139
-409.340	-82.236	0.126	-0.041
-408.325	-175.080	-0.247	0.007
-407.311	-162.112	0.314	0.016
-406.296	-32.698	-0.025	0.014
-405.282	-53.807	-0.055	0.025
-404.267	-104.194	-0.184	0.043
-403.252	234.070	0.138	0.230
-402.238	182.847	-0.231	0.344
-401.223	-200.000	0.005	0.252
-400.209	-160.463	0.240	-0.013
-399.194	-200.000	0.032	0.160
-398.179	-200.000	-0.089	-0.415
-397.165	225.116	0.077	0.126
-396.150	223.129	-0.085	-0.139
-395.136	-162.935	0.203	-0.010
-394.121	-200.000	0.001	-0.288
-393.106	698.737	0.064	-0.168
-392.092	-8.337	-0.152	-0.103
-391.077	-105.215	0.266	-0.061
-390.063	-200.000	-0.023	-0.199
-389.048	-200.000	0.043	-0.225
-388.033	102.470	-0.085	-0.100
-387.019	-200.000	-0.010	-0.147
-386.004	-74.928	-0.119	-0.043
-384.990	-108.925	-0.164	-0.035
-383.975	800.000	0.071	0.254
-382.960	-45.728	-0.209	-0.104
-381.946	-200.000	0.044	0.319
-380.931	-141.274	0.288	-0.030
-379.917	800.000	0.108	-0.389
-378.902	-200.000	-0.035	-0.255
-377.888	30.487	-0.043	0.037
-376.873	199.045	-0.253	0.390
-375.858	441.158	0.091	0.201
-374.844	158.893	0.261	0.366
-373.829	102.114	-0.127	-0.149
-372.815	-30.054	0.076	0.044
-371.800	-200.000	0.023	-0.153
-370.785	53.130	-0.262	0.253
-369.771	-200.000	0.071	0.363
-368.756	-118.417	0.254	-0.045
-367.742	280.218	0.122	-0.219
-366.727	290.547	-0.055	-0.101
-365.712	238.616	0.070	-0.116
-364.698	-33.911	-0.272	0.151
-363.683	395.580	0.090	0.190
-362.669	800.000	-0.023	-0.076
-361.654	530.730	-0.044	0.106
-360.639	-34.545	0.111	-0.061
-359.625	-65.570	-0.304	-0.123
-358.610	-40.913	-0.102	-0.053
-357.596	59.294	-0.033	0.033
-356.581	-48.110	-0.095	-0.046
-355.566	800.000	-0.017	0.071
-354.552	-200.000	-0.011	0.337
-353.537	-89.181	0.251	0.074
-352.523	-200.000	0.044	0.218
-351.508	-123.466	0.311	0.050
-350.493	2.837	0.230	0.168
-349.479	-52.786	0.326	0.151
-348.464	-111.705	0.309	0.063
-347.450	-200.000	0.037	-0.197
-346.435	790.883	-0.043	0.120
-345.420	-174.396	-0.269	-0.008
-344.406	-20.238	-0.198	-0.122
-343.391	-61.268	-0.290	-0.123
-342.377	-53.546	-0.168	0.077
-341.362	12.570	-0.244	0.190
-340.348	-200.000	-0.009	-0.180
-339.333	-200.000	0.026	-0.243
-338.318	228.365	-0.136	0.223
-337.304	53.280	0.065	-0.062
-336.289	352.449	-0.048	0.095
-335.275	-102.701	-0.224	0.054
-334.260	408.901	0.070	0.149
-333.245	217.289	0.080	-0.128
-332.231	690.856	0.143	-0.375
-331.216	162.308	-0.150	0.212
-330.202	800.000	-0.134	0.376
-329.187	-143.675	-0.477	0.046
-328.172	83.394	0.031	-0.034
-327.158	22.790	-0.285	0.235
-326.143	800.000	-0.119	0.443
-325.129	383.167	-0.160	0.330
-324.114	800.000	0.021	-0.070
-323.099	186.833	-0.015	0.023
-322.085	-48.233	-0.330	0.160
-321.070	125.535	-0.112	-0.142
-320.056	195.137	-0.248	0.378
-319.041	-3.683	-0.249	-0.174
-318.026	160.628	0.119	-0.167
-317.012	800.000	-0.095	-0.303
-315.997	163.305	-0.258	-0.364
-314.983	91.218	0.098	-0.110
-313.968	800.000	-0.092	0.273
-312.953	-182.650	0.126	0.002
-311.939	-200.000	0.006	0.250
-310.924	60.210	0.108	0.107
-309.910	-200.000	0.043	-0.229
-308.895	67.942	0.158	-0.162
-307.880	11.422	-0.016	0.012
-306.866	-150.712	0.302	-0.023
-305.851	800.000	0.053	-0.190
-304.837	-135.216	-0.174	0.021
-303.822	85.669	0.068	-0.075
-302.807	275.005	-0.031	0.055
-301.793	31.966	0.073	-0.063
-300.778	31.863	0.063	0.055
-299.764	-200.000	0.010	-0.174
-298.749	-200.000	0.032	-0.259
-297.735	10.075	0.155	0.118
-296.720	-55.474	0.168	0.076
-295.705	-200.000	-0.047	0.279
-294.691	-27.081	0.061	-0.036
-293.676	174.863	-0.063	0.091
-292.662	24.941	0.320	-0.266
-291.647	-143.133	-0.488	-0.047
-290.632	327.645	-0.148	-0.286
-289.618	557.689	0.154	-0.372
-288.603	-10.734	-0.284	0.189
-287.589	263.451	-0.082	0.143
-286.574	-179.008	0.273	0.006
-285.559	566.688	-0.085	-0.207
-284.545	800.000	-0.037	-0.139
-283.530	-21.464	-0.300	0.184
-282.516	-200.000	0.013	0.081
-281.501	350.643	-0.133	0.264
-280.486	116.461	-0.104	-0.128
-279.472	589.578	-0.102	0.252
-278.457	5.445	0.310	-0.229
-277.443	-44.012	-0.193	0.097
-276.428	205.641	-0.091	-0.142
-275.413	-169.036	0.131	0.005
-274.399	-27.592	0.160	-0.093
-273.384	-39.376	0.113	0.060
-272.370	-2.295	-0.192	0.135
-271.355	-130.835	-0.308	0.041
-270.340	-14.195	0.042	0.027
-269.326	26.741	-0.205	0.172
-268.311	-115.477	0.239	-0.045
-267.297	-200.000	-0.065	-0.296
-266.282	107.492	-0.255	0.304
-265.267	-13.761	0.211	0.137
-264.253	-200.000	-0.004	0.083
-263.238	-200.000	-0.020	0.280
-262.224	150.958	0.076	0.104
-261.209	-110.770	-0.118	-0.024
-260.195	-25.490	0.207	-0.123
-259.180	-200.000	-0.013	0.270
-258.165	36.193	-0.086	0.076
-257.151	90.976	0.177	0.199
-256.136	-113.995	-0.518	0.101
-255.122	-34.964	-0.101	0.055
-254.107	-98.143	0.359	0.093
-253.092	-66.948	0.190	-0.075
-252.078	-21.920	0.164	0.100
-251.063	219.440	0.132	0.212
-250.049	-85.909	-0.152	-0.047
-249.034	42.157	0.159	-0.145
-248.019	800.000	0.098	0.289
-247.005	70.241	0.042	0.043
-245.990	103.173	0.259	-0.304
-244.976	-153.890	0.340	-0.023
-243.961	499.809	-0.029	-0.067
-242.946	800.000	0.065	-0.226
-241.932	797.624	0.056	-0.156
-240.917	-103.970	0.187	-0.044
-239.903	-32.005	0.376	0.211
-238.888	45.734	0.124	0.115
-237.873	321.418	-0.096	0.183
-236.859	-114.075	-0.204	-0.040
-235.844	-148.137	-0.087	-0.007
-234.830	-28.574	0.179	0.103
-233.815	118.273	0.065	-0.080
-232.800	-111.048	0.391	0.080
-231.786	140.384	0.092	0.122
-230.771	578.415	-0.083	-0.204
-229.757	-159.969	0.297	0.016
-228.742	-73.640	-0.326	0.119
-227.727	470.806	0.038	0.085
-226.713	28.086	0.052	-0.044
-225.698	-60.887	-0.048	-0.020
-224.684	-200.000	0.047	-0.363
-223.669	-200.000	0.032	-0.185
-222.655	43.845	-0.212	-0.194
-221.640	-55.947	-0.077	-0.035
-220.625	85.487	0.128	-0.141
-219.611	477.761	-0.173	0.392
-218.596	103.138	0.160	0.188
-217.582	276.860	0.100	0.177
-216.567	-80.194	0.321	0.108
-215.552	-133.994	-0.020	0.002
-214.538	13.520	0.213	0.166
-213.523	800.000	-0.155	0.631
-212.509	-53.952	-0.234	0.107
-211.494	-26.836	0.061	0.036
-210.479	800.000	-0.045	-0.137
-209.465	800.000	0.073	0.221
-208.450	294.961	0.045	0.082
-207.436	-71.558	-0.072	0.027
-206.421	800.000	0.108	-0.314
-205.406	-200.000	0.009	0.107
-204.392	144.402	0.059	-0.079
-203.377	302.150	-0.067	-0.124
-202.363	114.592	-0.179	-0.218
-201.348	783.570	0.070	-0.191
-200.333	-200.000	-0.004	0.151
-199.319	131.713	-0.168	0.216
-198.304	-178.231	-0.214	-0.005
-197.290	37.246	-0.077	0.068
-196.275	-17.799	-0.242	-0.152
-195.260	-120.319	-0.124	0.021
-194.246	-153.821	-0.126	-0.009
-193.231	116.132	0.144	0.176
-192.217	8.042	-0.116	0.087
-191.202	9.312	-0.172	-0.130
-190.187	11.974	0.241	0.185
-189.173	41.669	-0.073	-0.066
-188.158	-22.654	-0.261	0.158
-187.144	-115.576	0.263	0.049
-186.129	800.000	0.063	-0.242
-185.114	-88.628	-0.126	0.037
-184.100	-108.714	-0.217	0.046
-183.085	67.918	-0.127	-0.129
-182.071	-111.151	-0.057	-0.012
-181.056	-189.094	0.353	-0.004
-180.042	-162.810	0.119	0.006
-179.027	800.000	0.038	-0.131
-178.012	-66.647	0.061	0.024
-176.998	118.642	-0.123	-0.152
-175.983	-200.000	0.043	-0.335
-174.969	120.554	0.097	0.120
-173.954	255.674	-0.144	0.246
-172.939	-200.000	0.041	0.372
-171.925	-62.549	0.242	0.100
-170.910	-200.000	-0.005	-0.038
-169.896	-10.665	-0.313	-0.207
-168.881	4.437	0.067	-0.049
-167.866	106.360	-0.136	-0.161
-166.852	798.112	0.041	-0.113
-165.837	6.724	0.122	0.091
-164.823	-103.043	0.074	-0.018
-163.808	1.055	0.198	0.142
-162.793	-63.931	-0.122	-0.050
-161.779	42.220	0.267	0.242
-160.764	-161.181	0.338	0.018
-159.750	-26.422	0.056	0.033
-158.735	-41.653	0.141	-0.072
-157.720	339.933	0.095	-0.185
-156.706	58.281	0.329	-0.322
-155.691	-200.000	-0.030	0.140
-154.677	-165.148	0.334	-0.015
-153.662	800.000	-0.038	-0.151
-152.647	112.799	-0.125	0.151
-151.633	18.499	-0.097	-0.078
-150.618	250.560	-0.152	-0.257
-149.604	11.787	0.139	-0.107
-148.589	172.879	0.185	-0.265
-147.574	88.460	-0.242	0.269
-146.560	219.825	0.055	0.088
-145.545	187.168	0.164	0.243
-144.531	-66.363	-0.399	0.158
-143.516	-12.338	0.341	0.222
-142.502	310.812	-0.076	-0.141
-141.487	14.740	0.172	-0.134
-140.472	800.000	0.059	0.193
-139.458	11.578	0.310	0.237
-138.443	399.929	0.095	-0.199
-137.429	130.598	-0.045	0.057
-136.414	76.908	-0.095	0.101
-135.399	82.615	0.112	0.121
-134.385	-200.000	0.044	0.283
-133.370	-100.710	-0.200	-0.049
-132.356	-2.978	-0.194	0.135
-131.341	-200.000	-0.001	-0.171
-130.326	124.810	0.235	0.295
-129.312	-200.000	0.003	-0.017
-128.297	-135.147	-0.110	0.013
-127.283	498.828	0.039	0.089
-126.268	-45.159	0.094	-0.047
-125.253	18.525	-0.290	-0.231
-124.239	-96.412	-0.173	0.046
-123.224	-133.227	-0.059	0.007
-122.210	-200.000	-0.055	-0.245
-121.195	-32.064	-0.079	0.044
-120.180	800.000	0.093	-0.261
