DTS Sentinel unit serial number:	SN413079Multiplexer serial number:	ORYXHardware model number:	OX4-SRSoftware version number:	ORYX F/W v4.00 Oryx Data Collector v3.7.2.0data status	okinstallation	princeton_trtdifferential loss correction	single-endedforward channel	channel 1reverse channel	N/Adate	2019/09/11time	09:04:11forward acquisition time	60.00reverse acquisition time	0.00gamma	496.2192k internal	0.2309k external	0.2309temperature offset calibration	0.9949default loss term (dB/km)	0.3790temperature slope calibration	1.0000multiplexer offset coefficient	1.0000multiplexer slope coefficient	1.0000fibre end	0.00T internal ref (°C)	34.19T ext. ref 1 (°C)	0.08T ext. ref 2 (°C)	30.41length (m)	temperature (°C)	Stokes	anti-Stokes-747.200	2.218	-0.133	-0.098
-746.185	29.704	-0.223	0.193
-745.171	-200.000	-0.013	-0.189
-744.156	196.937	-0.115	-0.177
-743.142	-200.000	0.027	-0.153
-742.127	569.105	-0.079	0.196
-741.112	294.208	0.037	0.069
-740.098	-40.934	-0.181	0.095
-739.083	800.000	0.032	-0.092
-738.069	15.950	0.226	-0.181
-737.054	164.888	0.092	0.131
-736.039	800.000	0.042	-0.159
-735.025	174.992	-0.072	0.105
-734.010	-200.000	-0.026	-0.186
-732.996	800.000	0.026	0.097
-731.981	123.765	-0.399	-0.509
-730.966	132.263	-0.070	0.092
-729.952	-200.000	0.405	-0.000
-728.937	-88.295	-0.321	-0.097
-727.923	477.450	0.089	0.204
-726.908	-145.228	-0.165	0.015
-725.894	-107.913	0.595	0.131
-724.879	800.000	0.054	-0.227
-723.864	782.780	0.070	-0.194
-722.850	-156.904	0.127	0.008
-721.835	168.951	0.139	0.202
-720.821	339.116	0.118	0.233
-719.806	-11.719	-0.276	0.184
-718.791	133.162	0.339	-0.445
-717.777	733.761	0.099	-0.269
-716.762	-25.099	-0.215	-0.129
-715.748	-146.773	-0.338	-0.030
-714.733	8.529	-0.152	-0.116
-713.718	-200.000	-0.058	-0.332
-712.704	-47.354	-0.319	0.157
-711.689	132.620	-0.070	-0.092
-710.675	-165.891	0.260	0.011
-709.660	-200.000	0.015	-0.151
-708.645	800.000	0.036	-0.132
-707.631	-145.235	-0.261	0.024
-706.616	-96.561	0.290	0.078
-705.602	-146.605	0.077	-0.007
-704.587	-82.734	-0.144	-0.047
-703.572	-105.823	0.116	0.026
-702.558	60.156	-0.103	0.103
-701.543	11.248	0.144	-0.112
-700.529	-200.000	0.034	0.535
-699.514	84.868	-0.051	-0.057
-698.499	7.726	-0.071	-0.054
-697.485	279.290	-0.179	-0.325
-696.470	-132.168	-0.490	-0.064
-695.456	50.187	0.185	-0.177
-694.441	-52.030	0.348	0.164
-693.426	72.830	-0.130	-0.138
-692.412	39.007	-0.101	-0.091
-691.397	209.062	-0.108	-0.171
-690.383	-200.000	-0.017	-0.095
-689.368	-200.000	-0.012	-0.181
-688.354	-134.862	0.079	0.010
-687.339	651.562	-0.107	0.277
-686.324	-130.828	-0.063	0.009
-685.310	8.133	-0.042	0.032
-684.295	19.563	-0.199	-0.162
-683.281	77.833	-0.240	-0.259
-682.266	136.850	0.253	-0.335
-681.251	5.921	-0.073	0.054
-680.237	422.378	-0.067	0.147
-679.222	-131.699	0.276	0.037
-678.208	301.379	-0.175	-0.327
-677.193	800.000	-0.105	-0.368
-676.178	-58.999	0.136	0.059
-675.164	-88.195	-0.327	0.099
-674.149	318.855	-0.124	-0.238
-673.135	-200.000	0.287	0.001
-672.120	92.235	0.201	0.230
-671.105	44.898	0.040	-0.037
-670.091	-148.282	-0.232	0.019
-669.076	181.593	-0.127	-0.189
-668.062	326.979	0.080	-0.154
-667.047	209.516	-0.110	-0.175
-666.032	12.235	0.075	-0.058
-665.018	416.673	-0.114	-0.247
-664.003	-97.234	0.300	-0.079
-662.989	291.102	-0.177	-0.326
-661.974	1.834	-0.343	0.250
-660.959	101.447	0.126	0.149
-659.945	522.868	-0.120	-0.286
-658.930	-200.000	0.009	0.074
-657.916	-144.289	0.508	-0.048
-656.901	486.015	-0.160	-0.369
-655.886	-200.000	-0.001	-0.106
-654.872	-7.978	-0.078	0.053
-653.857	800.000	0.137	-0.501
-652.843	800.000	0.095	0.362
-651.828	-20.553	-0.317	0.197
-650.814	-92.451	0.407	0.116
-649.799	-175.540	-0.147	0.004
-648.784	95.178	-0.137	-0.158
-647.770	800.000	0.028	-0.102
-646.755	-110.642	-0.212	-0.044
-645.741	-159.597	0.369	0.021
-644.726	-130.459	0.204	-0.028
-643.711	289.149	0.061	-0.111
-642.697	24.223	0.080	-0.067
-641.682	-117.415	-0.159	-0.029
-640.668	90.668	-0.153	-0.173
-639.653	212.079	-0.054	-0.086
-638.638	62.724	0.127	-0.129
-637.624	800.000	-0.071	0.238
-636.609	516.736	-0.050	-0.118
-635.595	-72.022	0.183	0.069
-634.580	550.328	0.058	-0.142
-633.565	542.129	-0.079	-0.191
-632.551	-143.389	-0.247	-0.024
-631.536	-200.000	-0.001	0.164
-630.522	800.000	0.082	-0.323
-629.507	800.000	0.086	0.366
-628.492	-12.965	-0.180	-0.118
-627.478	147.179	0.126	-0.172
-626.463	-163.890	-0.375	0.018
-625.449	-82.425	-0.196	-0.064
-624.434	-53.304	0.355	0.165
-623.419	2.728	-0.339	0.249
-622.405	-200.000	-0.062	0.408
-621.390	-30.359	-0.299	0.172
-620.376	-28.780	-0.085	0.050
-619.361	-54.497	-0.102	-0.047
-618.346	-180.524	0.386	0.008
-617.332	-13.165	-0.334	0.219
-616.317	800.000	-0.076	-0.317
-615.303	-138.623	0.138	-0.015
-614.288	27.579	0.150	-0.128
-613.273	-155.685	0.206	-0.013
-612.259	70.505	-0.018	-0.019
-611.244	-200.000	0.101	-0.652
-610.230	471.160	0.059	0.135
-609.215	800.000	0.160	-0.522
-608.201	-124.991	-0.054	0.008
-607.186	-200.000	0.006	-0.096
-606.171	-56.167	0.145	0.065
-605.157	800.000	0.063	0.271
-604.142	402.982	-0.215	0.457
-603.128	381.605	-0.148	0.308
-602.113	32.479	0.335	-0.293
-601.098	-200.000	-0.057	-0.443
-600.084	-200.000	-0.028	0.262
-599.069	-200.000	-0.057	0.289
-598.055	800.000	0.037	0.152
-597.040	-200.000	0.012	-0.261
-596.025	-36.564	0.067	0.036
-595.011	-127.649	-0.210	0.031
-593.996	800.000	-0.059	0.181
-592.982	209.517	0.078	-0.123
-591.967	-200.000	0.041	-0.304
-590.952	800.000	0.057	-0.197
-589.938	-0.699	0.300	0.215
-588.923	-175.855	0.172	0.005
-587.909	368.903	0.144	-0.295
-586.894	-38.732	-0.350	-0.187
-585.879	416.558	0.068	0.147
-584.865	91.730	0.203	-0.231
-583.850	800.000	0.101	0.291
-582.836	329.403	-0.140	0.272
-581.821	659.906	-0.116	-0.301
-580.806	113.976	-0.099	0.121
-579.792	22.813	0.175	0.144
-578.777	-200.000	0.034	0.196
-577.763	-160.513	0.288	-0.016
-576.748	652.381	0.040	0.103
-575.733	-168.984	0.371	0.014
-574.719	132.601	0.115	0.149
-573.704	139.110	-0.170	0.226
-572.690	48.909	-0.033	-0.031
-571.675	63.665	-0.139	-0.141
-570.661	224.836	0.016	0.026
-569.646	72.999	-0.192	0.202
-568.631	-162.095	0.310	-0.016
-567.617	15.825	-0.276	-0.219
-566.602	469.890	-0.070	-0.158
-565.588	-172.138	-0.148	0.005
-564.573	738.488	-0.076	0.205
-563.558	-75.654	-0.170	-0.061
-562.544	-200.000	0.030	0.180
-561.529	602.416	0.112	0.282
-560.515	33.234	-0.260	0.228
-559.500	800.000	-0.100	-0.323
-558.485	-113.809	-0.199	0.039
-557.471	800.000	-0.107	0.377
-556.456	91.809	-0.086	0.098
-555.442	-133.287	-0.376	-0.048
-554.427	363.058	0.132	-0.267
-553.412	-200.000	-0.000	-0.056
-552.398	800.000	-0.037	-0.109
-551.383	-41.276	0.173	0.090
-550.369	336.434	-0.136	-0.265
-549.354	-43.411	0.330	0.168
-548.339	800.000	-0.080	-0.255
-547.325	-119.538	-0.185	-0.032
-546.310	-200.000	0.052	-0.244
-545.296	305.731	-0.090	-0.168
-544.281	-175.091	0.039	0.001
-543.266	136.973	0.096	-0.127
-542.252	-200.000	-0.020	0.127
-541.237	800.000	0.043	0.132
-540.223	800.000	-0.087	0.263
-539.208	173.232	0.200	0.291
-538.193	116.397	-0.166	-0.205
-537.179	-36.291	0.192	0.104
-536.164	-136.391	-0.180	0.021
-535.150	-76.701	0.239	-0.084
-534.135	-200.000	0.011	0.052
-533.121	150.189	0.128	-0.175
-532.106	-100.386	0.070	0.018
-531.091	-35.683	-0.183	-0.100
-530.077	-200.000	-0.050	-0.297
-529.062	18.576	0.202	-0.163
-528.048	180.874	0.060	-0.088
-527.033	50.638	0.058	0.056
-526.018	-200.000	-0.031	-0.206
-525.004	51.472	0.070	0.067
-523.989	24.188	-0.403	-0.335
-522.975	-121.698	-0.207	-0.034
-521.960	800.000	0.057	0.219
-520.945	-43.753	-0.239	0.121
-519.931	-69.946	-0.034	0.013
-518.916	-136.929	0.265	-0.031
-517.902	800.000	0.043	-0.168
-516.887	9.474	0.262	0.200
-515.872	113.967	0.069	0.085
-514.858	580.460	0.194	-0.478
-513.843	97.467	0.174	-0.201
-512.829	30.930	0.086	0.074
-511.814	26.030	0.371	-0.311
-510.799	800.000	0.044	-0.137
-509.785	-64.376	0.217	0.089
-508.770	71.581	-0.194	-0.203
-507.756	160.134	0.318	-0.446
-506.741	33.223	-0.154	0.135
-505.726	703.187	0.053	0.141
-504.712	311.197	-0.175	0.331
-503.697	154.074	-0.061	0.084
-502.683	-22.116	0.208	-0.127
-501.668	14.098	0.154	-0.120
-500.653	37.737	-0.174	0.156
-499.639	-200.000	-0.030	0.166
-498.624	800.000	-0.049	0.209
-497.610	-139.027	-0.157	0.017
-496.595	-30.096	-0.102	0.058
-495.581	-86.572	0.511	0.158
-494.566	-200.000	-0.039	-0.247
-493.551	-80.597	0.036	0.012
-492.537	35.513	0.161	0.142
-491.522	330.842	0.147	-0.286
-490.508	315.968	0.027	-0.052
-489.493	120.445	-0.243	0.303
-488.478	60.084	0.084	0.084
-487.464	34.986	-0.085	-0.075
-486.449	-22.946	0.206	-0.125
-485.435	428.509	0.032	-0.070
-484.420	-84.340	-0.122	-0.039
-483.405	-121.839	-0.179	0.030
-482.391	-200.000	-0.013	0.151
-481.376	166.605	0.075	0.107
-480.362	-200.000	-0.029	-0.198
-479.347	-40.862	0.286	0.149
-478.332	800.000	-0.067	0.244
-477.318	-200.000	-0.002	-0.138
-476.303	800.000	0.069	-0.278
-475.289	-200.000	-0.029	-0.220
-474.274	231.965	-0.133	-0.220
-473.259	-131.211	-0.474	-0.063
-472.245	10.596	0.203	-0.156
-471.230	-156.686	0.052	-0.003
-470.216	-200.000	-0.049	0.218
-469.201	-200.000	0.020	-0.135
-468.186	-200.000	-0.015	0.145
-467.172	313.283	0.135	-0.254
-466.157	-51.741	0.397	0.186
-465.143	113.205	-0.095	0.116
-464.128	-166.687	0.397	0.017
-463.113	-25.638	-0.121	0.072
-462.099	-200.000	-0.005	0.033
-461.084	-153.354	0.241	0.017
-460.070	98.842	0.171	0.198
-459.055	-200.000	0.019	-0.105
-458.040	346.280	0.152	0.301
-457.026	526.592	-0.075	0.177
-456.011	-136.748	-0.459	-0.053
-454.997	118.736	-0.090	0.112
-453.982	91.190	0.238	-0.268
-452.968	-200.000	0.025	-0.217
-451.953	291.554	-0.181	-0.330
-450.938	-200.000	0.025	0.244
-449.924	-59.754	-0.108	-0.047
-448.909	-116.167	-0.270	-0.050
-447.895	-62.006	0.105	0.044
-446.880	647.674	-0.075	-0.193
-445.865	113.104	-0.212	-0.258
-444.851	800.000	0.079	-0.228
-443.836	-95.616	0.185	-0.050
-442.822	-78.459	0.095	0.033
-441.807	-200.000	-0.001	-0.180
-440.792	-5.210	-0.259	-0.179
-439.778	-149.257	-0.408	0.033
-438.763	-22.737	-0.324	-0.197
-437.749	-149.361	-0.287	0.023
-436.734	800.000	-0.111	-0.337
-435.719	-200.000	0.017	-0.135
-434.705	256.681	-0.069	-0.119
-433.690	-200.000	-0.027	0.334
-432.676	53.228	0.170	0.164
-431.661	-134.107	0.301	0.037
-430.646	800.000	-0.071	0.250
-429.632	-200.000	0.009	0.053
-428.617	-25.603	-0.230	0.136
-427.603	59.657	-0.053	-0.052
-426.588	613.645	-0.144	-0.361
-425.573	-200.000	-0.039	0.271
-424.559	45.480	0.258	0.239
-423.544	800.000	0.059	0.173
-422.530	1.242	0.024	0.017
-421.515	800.000	0.084	0.271
-420.500	-200.000	0.045	0.402
-419.486	9.639	-0.071	0.054
-418.471	-200.000	-0.006	0.033
-417.457	-200.000	-0.228	-0.000
-416.442	-200.000	-0.018	-0.217
-415.428	-86.644	-0.163	-0.050
-414.413	-123.159	-0.204	-0.033
-413.398	-52.563	-0.219	-0.101
-412.384	800.000	-0.059	-0.229
-411.369	-31.916	-0.042	-0.024
-410.355	-200.000	0.019	0.358
-409.340	-163.222	0.163	-0.008
-408.325	-151.594	0.183	0.014
-407.311	800.000	0.077	0.221
-406.296	800.000	-0.055	-0.157
-405.282	269.782	-0.014	0.024
-404.267	-49.951	-0.115	0.055
-403.252	673.452	-0.065	-0.169
-402.238	-124.544	0.228	-0.035
-401.223	27.527	0.128	-0.108
-400.209	-200.000	-0.025	0.284
-399.194	-12.738	0.387	0.253
-398.179	123.027	-0.060	-0.076
-397.165	-59.318	0.211	-0.091
-396.150	194.291	0.129	-0.195
-395.136	49.230	-0.114	-0.108
-394.121	598.484	-0.085	-0.210
-393.106	-200.000	0.047	0.262
-392.092	-200.000	-0.009	-0.236
-391.077	-108.989	-0.205	0.044
-390.063	74.938	0.284	0.300
-389.048	-143.781	0.273	0.026
-388.033	800.000	0.080	0.303
-387.019	800.000	0.075	-0.207
-386.004	-113.252	0.316	0.062
-384.990	396.722	0.142	-0.297
-383.975	30.126	0.021	-0.018
-382.960	277.699	-0.069	0.123
-381.946	-200.000	0.014	-0.263
-380.931	-64.764	0.365	-0.148
-379.917	-163.563	-0.148	0.007
-378.902	374.446	0.115	-0.234
-377.888	-42.628	-0.108	0.055
-376.873	13.758	-0.197	-0.154
-375.858	352.163	-0.103	-0.205
-374.844	38.226	-0.134	0.119
-373.829	313.007	-0.070	0.131
-372.815	-43.068	-0.118	-0.060
-371.800	-22.737	-0.173	0.104
-370.785	800.000	0.053	-0.161
-369.771	-194.627	0.126	-0.001
-368.756	53.906	0.226	-0.218
-367.742	99.433	0.221	0.256
-366.727	104.167	0.163	-0.192
-365.712	-0.478	0.019	0.013
-364.698	-124.170	0.143	-0.022
-363.683	120.605	-0.191	0.237
-362.669	74.143	0.229	-0.240
-361.654	59.486	-0.166	0.164
-360.639	-163.487	0.192	0.009
-359.625	58.926	-0.126	-0.124
-358.610	-130.934	-0.122	0.016
-357.596	162.536	-0.179	-0.252
-356.581	65.682	0.449	-0.455
-355.566	-200.000	-0.018	0.077
-354.552	104.412	0.181	0.213
-353.537	-200.000	0.013	-0.074
-352.523	-84.412	-0.467	0.148
-351.508	215.434	0.203	0.322
-350.493	-138.296	-0.234	0.026
-349.479	298.490	-0.044	0.081
-348.464	-112.324	0.447	0.089
-347.450	64.690	0.045	0.045
-346.435	129.997	0.063	-0.080
-345.420	-72.987	0.278	-0.102
-344.406	-200.000	0.008	0.121
-343.391	-70.661	-0.094	-0.036
-342.377	800.000	-0.020	-0.068
-341.362	-8.392	0.086	-0.058
-340.348	200.846	-0.152	0.234
-339.333	152.061	-0.088	0.120
-338.318	-86.303	-0.151	-0.047
-337.304	-200.000	-0.026	0.356
-336.289	800.000	0.073	0.263
-335.275	68.197	0.088	-0.091
-334.260	800.000	-0.067	-0.247
-333.245	-124.689	-0.043	0.007
-332.231	-126.636	0.265	0.039
-331.216	-200.000	-0.005	0.099
-330.202	800.000	0.101	0.302
-329.187	759.751	0.025	-0.068
-328.172	-37.615	-0.216	-0.115
-327.158	-62.503	-0.128	0.053
-326.143	-76.169	-0.202	-0.071
-325.129	106.482	-0.080	-0.095
-324.114	121.515	0.286	0.356
-323.099	176.662	-0.132	-0.191
-322.085	-72.027	0.364	-0.135
-321.070	-160.408	-0.370	-0.020
-320.056	165.467	-0.069	0.097
-319.041	383.441	0.049	-0.101
-318.026	452.780	-0.146	-0.322
-317.012	-39.203	-0.258	0.135
-315.997	-76.248	0.383	0.135
-314.983	618.949	0.167	0.420
-313.968	-80.751	0.235	-0.078
-312.953	-37.516	-0.327	0.174
-311.939	6.055	0.286	0.212
-310.924	-200.000	-0.004	-0.265
-309.910	-200.000	0.030	-0.251
-308.895	-165.834	0.077	0.003
-307.880	-187.551	0.283	0.004
-306.866	-200.000	-0.007	0.324
-305.851	375.092	0.039	-0.080
-304.837	-49.582	0.070	-0.033
-303.822	-45.516	0.211	-0.104
-302.807	-37.698	0.328	0.174
-301.793	800.000	-0.107	-0.336
-300.778	124.091	-0.318	0.398
-299.764	-124.641	-0.043	0.007
-298.749	245.082	-0.057	-0.096
-297.735	800.000	-0.068	0.278
-296.720	-0.860	-0.145	0.103
-295.705	800.000	-0.066	0.245
-294.691	-139.718	-0.177	-0.019
-293.676	6.730	-0.252	0.187
-292.662	-200.000	0.000	-0.384
-291.647	-200.000	-0.029	0.199
-290.632	-45.968	0.296	0.146
-289.618	5.624	0.327	-0.241
-288.603	-26.910	-0.167	-0.097
-287.589	338.202	0.088	-0.172
-286.574	14.124	0.102	0.079
-285.559	288.378	-0.016	-0.029
-284.545	-161.846	-0.445	-0.023
-283.530	273.021	-0.069	-0.121
-282.516	-127.083	0.267	0.039
-281.501	-29.223	0.215	-0.123
-280.486	-200.000	0.008	-0.127
-279.472	-200.000	-0.023	0.489
-278.457	800.000	0.100	-0.295
-277.443	800.000	-0.015	-0.066
-276.428	41.068	0.209	0.188
-275.413	-200.000	-0.014	-0.204
-274.399	-193.440	0.236	-0.002
-273.384	-83.742	-0.396	0.126
-272.370	-42.720	0.102	0.052
-271.355	97.774	-0.032	0.037
-270.340	281.771	-0.114	-0.203
-269.326	-200.000	-0.011	-0.218
-268.311	77.195	0.147	-0.155
-267.297	-15.067	-0.398	0.254
-266.282	8.091	-0.218	0.163
-265.267	-128.502	-0.271	-0.038
-264.253	6.138	0.186	0.137
-263.238	-4.209	-0.209	0.144
-262.224	-126.529	0.251	-0.037
-261.209	549.046	-0.055	-0.132
-260.195	-102.552	-0.455	0.108
-259.180	356.265	-0.256	0.507
-258.165	163.310	-0.175	-0.246
-257.151	17.758	0.045	-0.036
-256.136	-132.918	-0.251	-0.032
-255.122	-113.231	0.087	-0.017
-254.107	686.891	-0.012	-0.031
-253.092	-8.262	-0.078	0.052
-252.078	-51.567	-0.085	0.039
-251.063	800.000	0.077	0.256
-250.049	-80.747	-0.237	0.078
-249.034	-159.447	-0.283	-0.016
-248.019	-151.635	-0.263	0.019
-247.005	368.432	0.093	0.188
-245.990	404.801	-0.082	-0.172
-244.976	195.608	0.131	-0.198
-243.961	142.355	-0.106	0.140
-242.946	-40.155	-0.134	-0.070
-241.932	695.202	-0.112	0.293
-240.917	800.000	0.030	0.099
-239.903	-9.476	0.073	-0.049
-238.888	-87.224	-0.095	0.029
-237.873	-85.504	-0.240	-0.075
-236.859	800.000	0.077	-0.297
-235.844	116.010	0.092	-0.112
-234.830	1.445	0.188	-0.135
-233.815	-64.056	-0.049	-0.020
-232.800	15.042	-0.179	-0.140
-231.786	102.521	0.202	0.235
-230.771	-124.778	-0.592	-0.091
-229.757	256.236	0.231	-0.394
-228.742	3.703	-0.118	-0.086
-227.727	-37.100	-0.086	0.046
-226.713	-200.000	-0.023	0.136
-225.698	50.685	0.194	0.183
-224.684	156.057	-0.076	-0.104
-223.669	800.000	0.045	0.128
-222.655	-200.000	0.013	-0.297
-221.640	800.000	-0.038	0.138
-220.625	800.000	0.096	0.304
-219.611	304.178	0.081	0.150
-218.596	800.000	-0.041	-0.115
-217.582	-184.314	0.429	0.007
-216.567	0.613	-0.146	-0.104
-215.552	280.744	-0.072	-0.129
-214.538	-166.908	0.315	-0.013
-213.523	-89.314	0.294	-0.086
-212.509	-131.488	-0.546	0.072
-211.494	-200.000	0.004	0.113
-210.479	-200.000	-0.007	0.336
-209.465	81.171	0.107	0.115
-208.450	429.108	0.033	-0.071
-207.436	-200.000	0.050	-0.254
-206.421	-200.000	-0.010	0.074
-205.406	-179.555	0.289	0.006
-204.392	124.805	0.105	0.131
-203.377	800.000	0.013	0.053
-202.363	-200.000	-0.028	0.194
-201.348	-29.520	0.315	0.179
-200.333	331.699	-0.066	0.127
-199.319	800.000	0.076	-0.221
-198.304	-200.000	0.008	-0.060
-197.290	800.000	0.053	0.158
-196.275	645.710	-0.098	0.249
-195.260	675.491	0.118	0.305
-194.246	-132.177	-0.236	-0.030
-193.231	585.290	0.044	-0.108
-192.217	-174.973	-0.664	0.018
-191.202	-156.470	0.136	-0.008
-190.187	-200.000	-0.069	-0.309
-189.173	174.862	0.054	-0.077
-188.158	-77.259	0.120	-0.042
-187.144	424.673	0.126	0.270
-186.129	52.905	-0.175	0.166
-185.114	43.026	-0.113	0.102
-184.100	-70.381	-0.222	0.084
-183.085	706.377	-0.112	0.294
-182.071	-158.518	-0.527	-0.030
-181.056	-30.092	0.050	0.028
-180.042	-27.104	-0.123	-0.072
-179.027	-76.627	0.290	0.101
-178.012	-200.000	0.022	-0.131
-176.998	-174.499	0.124	-0.004
-175.983	-200.000	-0.115	-0.626
-174.969	-114.817	0.194	0.037
-173.954	-100.943	-0.216	0.053
-172.939	513.202	0.037	-0.086
-171.925	-200.000	-0.009	-0.074
-170.910	-12.647	-0.199	-0.129
-169.896	-200.000	0.050	-0.373
-168.881	160.936	0.210	-0.292
-167.866	-126.497	-0.158	-0.023
-166.852	93.559	0.093	0.104
-165.837	-21.014	0.191	0.116
-164.823	800.000	0.031	0.103
-163.808	-122.833	-0.075	-0.012
-162.793	273.832	-0.080	0.140
-161.779	532.138	-0.216	0.507
-160.764	14.725	-0.302	-0.235
-159.750	-93.466	0.364	-0.100
-158.735	-55.004	0.495	0.221
-157.720	800.000	0.099	0.349
-156.706	594.632	0.036	0.088
-155.691	-63.026	0.411	-0.168
-154.677	-177.346	0.056	0.001
-153.662	-200.000	0.015	0.213
-152.647	-68.375	-0.086	-0.033
-151.633	-119.777	-0.350	-0.060
-150.618	-200.000	-0.042	-0.244
-149.604	-200.000	0.325	-0.000
-148.589	291.346	-0.148	0.268
-147.574	550.471	0.062	-0.148
-146.560	421.602	-0.067	-0.142
-145.545	-34.082	-0.201	-0.109
-144.531	-62.948	0.233	0.095
-143.516	-29.262	-0.287	-0.163
-142.502	234.494	-0.127	0.207
-141.487	-88.443	0.314	0.093
-140.472	-200.000	-0.030	-0.180
-139.458	-57.315	0.267	0.116
-138.443	-70.944	-0.398	-0.149
-137.429	13.312	0.247	-0.190
-136.414	204.287	0.065	-0.100
-135.399	-57.479	-0.269	0.117
-134.385	-200.000	-0.011	-0.060
-133.370	-200.000	0.027	-0.150
-132.356	-5.042	0.239	0.163
-131.341	-148.482	0.434	0.035
-130.326	53.130	0.110	0.104
-129.312	-143.266	0.346	-0.033
-128.297	-135.092	0.285	-0.034
-127.283	-30.363	0.360	0.202
-126.268	-113.514	0.306	-0.059
-125.253	150.726	-0.167	-0.225
-124.239	-141.684	0.237	0.024
-123.224	-27.600	0.224	-0.129
-122.210	195.721	0.125	-0.188
