DTS Sentinel unit serial number:	SN413079Multiplexer serial number:	ORYXHardware model number:	OX4-SRSoftware version number:	ORYX F/W v4.00 Oryx Data Collector v3.7.2.0data status	okinstallation	princeton_trtdifferential loss correction	single-endedforward channel	channel 1reverse channel	N/Adate	2019/09/11time	10:04:11forward acquisition time	60.00reverse acquisition time	0.00gamma	496.2192k internal	0.2301k external	0.2301temperature offset calibration	0.9954default loss term (dB/km)	0.3790temperature slope calibration	1.0000multiplexer offset coefficient	1.0000multiplexer slope coefficient	1.0000fibre end	0.00T internal ref (°C)	35.50T ext. ref 1 (°C)	0.14T ext. ref 2 (°C)	32.97length (m)	temperature (°C)	Stokes	anti-Stokes-747.200	-200.000	-0.007	0.114
-746.185	-94.694	-0.164	-0.046
-745.171	-69.562	0.129	0.050
-744.156	-37.204	-0.064	-0.035
-743.142	-97.084	0.327	-0.087
-742.127	59.795	-0.157	0.158
-741.112	337.129	0.040	-0.079
-740.098	-62.383	-0.417	-0.177
-739.083	-92.877	0.303	0.086
-738.069	-13.762	-0.059	-0.039
-737.054	263.913	-0.090	0.160
-736.039	-200.000	-0.045	0.475
-735.025	180.090	0.107	-0.161
-734.010	-92.385	-0.408	-0.117
-732.996	614.771	0.058	-0.148
-731.981	-143.147	-0.255	-0.025
-730.966	800.000	-0.061	-0.192
-729.952	-88.871	-0.411	-0.124
-728.937	-135.488	-0.250	-0.030
-727.923	514.866	-0.092	0.219
-726.908	54.351	0.135	-0.133
-725.894	-68.627	-0.303	-0.120
-724.879	-0.382	0.511	0.370
-723.864	800.000	-0.064	0.198
-722.850	-200.000	0.039	-0.183
-721.835	-200.000	-0.032	-0.186
-720.821	21.530	-0.135	-0.112
-719.806	-77.555	-0.339	0.120
-718.791	-22.735	-0.295	-0.182
-717.777	-77.378	-0.210	0.074
-716.762	800.000	-0.080	0.243
-715.748	-51.636	0.063	0.030
-714.733	800.000	-0.081	0.319
-713.718	-200.000	0.035	-0.312
-712.704	180.079	0.171	-0.255
-711.689	130.823	0.312	0.408
-710.675	-73.980	-0.354	-0.131
-709.660	55.227	-0.074	-0.073
-708.645	-16.134	-0.202	-0.131
-707.631	-103.876	0.460	-0.109
-706.616	53.431	-0.295	-0.288
-705.602	34.383	-0.242	-0.215
-704.587	90.767	-0.199	-0.227
-703.572	35.857	-0.194	-0.174
-702.558	10.664	0.069	0.054
-701.543	-61.822	-0.079	-0.034
-700.529	676.983	0.061	-0.162
-699.514	-100.405	0.077	-0.019
-698.499	109.254	-0.159	0.194
-697.485	-122.281	-0.437	-0.073
-696.470	800.000	-0.040	0.119
-695.456	36.394	0.023	-0.020
-694.441	54.967	0.173	-0.170
-693.426	-200.000	-0.022	0.125
-692.412	65.701	0.067	-0.069
-691.397	-69.208	-0.078	-0.031
-690.383	-17.932	0.109	0.069
-689.368	328.171	0.099	-0.194
-688.354	-200.000	0.004	-0.410
-687.339	-57.988	-0.100	-0.044
-686.324	137.049	0.078	0.104
-685.310	133.175	-0.069	-0.091
-684.295	-162.492	-0.469	-0.024
-683.281	169.458	-0.036	0.052
-682.266	-171.460	-0.179	-0.006
-681.251	800.000	-0.080	-0.326
-680.237	0.645	-0.151	0.110
-679.222	116.726	0.191	-0.239
-678.208	95.667	0.195	-0.226
-677.193	6.389	-0.136	-0.103
-676.178	-91.219	0.134	-0.039
-675.164	-32.929	-0.217	0.123
-674.149	36.480	-0.323	0.290
-673.135	-200.000	0.057	0.303
-672.120	800.000	0.107	0.391
-671.105	-6.140	0.042	0.029
-670.091	28.094	0.137	-0.118
-669.076	503.766	0.109	-0.257
-668.062	212.191	-0.171	-0.274
-667.047	-4.188	0.098	0.069
-666.032	-39.546	0.350	-0.186
-665.018	-79.102	-0.008	-0.003
-664.003	-56.896	0.261	0.117
-662.989	-30.697	-0.120	-0.069
-661.974	43.056	-0.242	0.224
-660.959	-200.000	0.017	0.087
-659.945	63.504	-0.298	-0.304
-658.930	800.000	0.115	-0.399
-657.916	-28.633	-0.093	-0.054
-656.901	-200.000	-0.004	0.036
-655.886	-163.912	-0.659	0.031
-654.872	-200.000	-0.007	0.212
-653.857	7.228	0.142	0.108
-652.843	-101.449	0.265	0.066
-651.828	-122.771	-0.217	0.036
-650.814	56.364	0.097	0.096
-649.799	-128.088	0.300	-0.044
-648.784	-148.605	-0.147	-0.012
-647.770	137.622	-0.078	0.103
-646.755	800.000	0.011	0.034
-645.741	-106.292	-0.132	-0.030
-644.726	-200.000	-0.010	0.068
-643.711	-32.586	0.261	-0.148
-642.697	-91.526	-0.069	0.020
-641.682	-200.000	0.013	-0.222
-640.668	-200.000	-0.021	0.107
-639.653	-200.000	-0.009	-0.123
-638.638	44.332	-0.322	0.300
-637.624	-91.835	-0.211	0.061
-636.609	-200.000	-0.009	-0.087
-635.595	-200.000	0.022	-0.207
-634.580	-169.501	-0.265	0.010
-633.565	-49.409	-0.326	-0.158
-632.551	238.209	0.020	-0.034
-631.536	1.142	0.343	-0.250
-630.522	-63.299	-0.030	0.013
-629.507	-112.444	-0.080	-0.016
-628.492	244.210	0.131	-0.224
-627.478	343.196	-0.160	0.319
-626.463	455.838	-0.160	-0.360
-625.449	90.957	0.107	-0.122
-624.434	130.862	0.134	-0.174
-623.419	121.880	-0.126	-0.159
-622.405	-68.755	-0.163	-0.064
-621.390	-113.710	-0.135	0.027
-620.376	-200.000	0.019	-0.253
-619.361	-120.556	0.159	0.027
-618.346	102.587	0.119	-0.142
-617.332	800.000	-0.046	-0.153
-616.317	-132.622	0.158	-0.021
-615.303	-181.310	-0.150	0.003
-614.288	-200.000	-0.046	0.256
-613.273	128.996	0.123	0.160
-612.259	-12.526	0.182	-0.120
-611.244	290.105	-0.316	-0.582
-610.230	72.638	-0.248	-0.263
-609.215	-110.944	0.038	-0.008
-608.201	-113.342	-0.442	0.088
-607.186	-200.000	-0.051	-0.299
-606.171	368.977	-0.078	0.161
-605.157	-200.000	-0.018	-0.102
-604.142	-86.383	-0.135	0.042
-603.128	668.182	0.011	0.028
-602.113	-55.456	0.092	0.042
-601.098	742.182	0.084	-0.228
-600.084	37.391	-0.002	0.002
-599.069	800.000	0.037	0.118
-598.055	104.732	0.119	0.142
-597.040	-200.000	-0.018	-0.352
-596.025	-46.277	-0.095	-0.047
-595.011	-156.262	0.233	-0.015
-593.996	800.000	-0.019	-0.081
-592.982	41.266	0.094	0.086
-591.967	-161.782	0.492	-0.025
-590.952	-122.599	0.127	0.021
-589.938	277.447	-0.192	-0.346
-588.923	-87.335	0.080	0.025
-587.909	-94.041	-0.244	-0.068
-586.894	219.790	-0.160	0.260
-585.879	252.124	-0.152	-0.262
-584.865	-200.000	-0.042	-0.195
-583.850	-141.024	-0.042	0.004
-582.836	-93.332	-0.475	0.134
-581.821	-75.967	0.203	-0.073
-580.806	-200.000	-0.009	-0.184
-579.792	272.342	0.093	-0.166
-578.777	-113.968	0.258	-0.051
-577.763	-51.011	0.230	0.109
-576.748	-74.124	-0.102	-0.038
-575.733	191.292	0.150	0.229
-574.719	1.617	0.068	-0.049
-573.704	-121.906	-0.173	-0.029
-572.690	-125.356	-0.346	-0.053
-571.675	-99.355	0.393	-0.100
-570.661	-77.792	-0.173	-0.061
-569.646	-200.000	-0.020	-0.192
-568.631	-120.117	-0.571	0.099
-567.617	-15.776	-0.152	-0.098
-566.602	-3.770	-0.061	-0.043
-565.588	-66.552	-0.141	0.057
-564.573	86.186	0.205	-0.229
-563.558	-200.000	-0.020	-0.208
-562.544	-118.101	0.214	0.039
-561.529	-168.360	-0.258	-0.010
-560.515	-89.993	0.221	-0.065
-559.500	65.872	0.154	-0.158
-558.485	26.876	0.131	0.111
-557.471	-127.629	0.408	-0.060
-556.456	-73.707	0.278	-0.103
-555.442	-200.000	-0.012	0.147
-554.427	-20.603	-0.199	-0.124
-553.412	-200.000	-0.060	-0.315
-552.398	800.000	-0.107	0.393
-551.383	-24.164	0.375	-0.227
-550.369	800.000	0.060	0.228
-549.354	28.967	-0.272	0.233
-548.339	83.857	0.233	0.257
-547.325	-144.514	-0.174	-0.016
-546.310	-28.230	0.392	0.229
-545.296	20.101	-0.135	-0.111
-544.281	-145.820	0.099	-0.009
-543.266	-81.366	0.123	0.041
-542.252	-29.281	-0.185	-0.107
-541.237	-42.521	-0.303	-0.156
-540.223	28.661	0.288	-0.247
-539.208	38.614	0.201	0.181
-538.193	-66.446	0.309	0.124
-537.179	-68.881	0.174	-0.068
-536.164	253.551	0.153	0.264
-535.150	-139.672	-0.131	-0.014
-534.135	-129.913	-0.365	0.051
-533.121	800.000	0.027	0.107
-532.106	-72.011	-0.144	-0.054
-531.091	195.119	-0.107	-0.164
-530.077	-199.039	-0.115	0.001
-529.062	-173.445	-0.200	0.006
-528.048	-155.219	0.028	0.002
-527.033	-168.185	-0.243	0.010
-526.018	-200.000	0.008	-0.392
-525.004	-141.780	0.383	-0.039
-523.989	-80.232	-0.153	-0.052
-522.975	-16.018	-0.347	0.223
-521.960	103.624	0.089	0.106
-520.945	77.953	-0.097	0.105
-519.931	-63.805	-0.202	0.084
-518.916	-187.731	0.349	0.005
-517.902	-200.000	0.050	0.240
-516.887	68.822	-0.191	-0.198
-515.872	151.537	-0.085	0.116
-514.858	205.057	-0.148	0.233
-513.843	-42.226	-0.480	0.248
-512.829	-50.378	0.163	0.078
-511.814	324.916	-0.051	0.099
-510.799	-200.000	0.031	0.187
-509.785	-200.000	0.002	0.057
-508.770	-200.000	-0.008	-0.230
-507.756	-159.835	-0.188	0.010
-506.741	-46.660	-0.262	-0.129
-505.726	-19.299	0.450	0.282
-504.712	-38.782	0.161	-0.086
-503.697	-106.065	0.115	-0.026
-502.683	769.923	0.085	0.234
-501.668	107.419	-0.019	0.022
-500.653	566.631	-0.035	0.085
-499.639	-39.179	-0.219	0.116
-498.624	380.382	0.158	0.327
-497.610	12.544	-0.135	-0.105
-496.595	-73.137	-0.239	-0.088
-495.581	800.000	-0.033	-0.137
-494.566	-77.478	-0.378	-0.133
-493.551	200.751	0.107	-0.166
-492.537	-200.000	-0.038	0.187
-491.522	-6.316	0.122	0.084
-490.508	800.000	0.065	0.255
-489.493	-117.054	0.145	0.027
-488.478	-71.365	-0.091	-0.035
-487.464	-151.973	-0.192	0.014
-486.449	349.097	0.169	0.337
-485.435	-85.175	-0.202	0.064
-484.420	-42.645	0.081	-0.042
-483.405	-20.149	-0.173	-0.108
-482.391	235.377	-0.069	-0.115
-481.376	341.716	-0.041	-0.080
-480.362	58.310	0.188	0.186
-479.347	-200.000	0.053	0.430
-478.332	-127.550	0.018	0.003
-477.318	-45.393	-0.081	0.041
-476.303	264.836	0.045	0.079
-475.289	-132.084	0.278	0.036
-474.274	535.998	0.030	0.072
-473.259	-185.947	0.266	-0.004
-472.245	-39.068	-0.163	-0.086
-471.230	-57.231	0.215	0.096
-470.216	-59.658	0.487	0.211
-469.201	-67.640	-0.103	0.041
-468.186	247.074	-0.088	-0.150
-467.172	800.000	-0.007	-0.023
-466.157	15.576	0.094	-0.075
-465.143	-82.798	-0.133	-0.043
-464.128	-55.183	0.238	0.108
-463.113	-180.216	-0.131	-0.003
-462.099	74.291	0.152	0.161
-461.084	-77.424	0.172	-0.060
-460.070	513.235	-0.029	0.069
-459.055	217.209	-0.206	-0.330
-458.040	-200.000	0.016	-0.126
-457.026	-55.429	0.335	-0.151
-456.011	-200.000	0.007	-0.193
-454.997	-3.933	0.124	0.087
-453.982	110.315	-0.254	-0.308
-452.968	34.493	-0.065	0.058
-451.953	-148.763	0.301	-0.025
-450.938	-141.649	-0.066	0.007
-449.924	239.125	-0.086	-0.144
-448.909	-37.129	0.441	0.238
-447.895	-107.965	0.219	0.048
-446.880	-15.351	-0.158	0.102
-445.865	701.581	0.034	-0.091
-444.851	97.032	-0.204	-0.236
-443.836	20.335	-0.255	-0.208
-442.822	355.834	0.010	0.020
-441.807	-53.784	-0.076	-0.035
-440.792	-105.095	-0.226	-0.052
-439.778	-141.247	0.367	0.038
-438.763	-57.457	0.159	0.070
-437.749	-87.740	-0.183	-0.056
-436.734	-80.308	0.106	-0.036
-435.719	-95.580	-0.186	0.050
-434.705	-70.110	-0.415	0.159
-433.690	154.340	0.131	0.182
-432.676	-97.536	-0.240	-0.063
-431.661	-107.865	0.293	0.064
-430.646	-39.390	-0.135	0.071
-429.632	458.672	0.135	-0.302
-428.617	-66.030	-0.203	-0.081
-427.603	0.947	0.188	0.136
-426.588	-94.872	-0.286	0.078
-425.573	-86.754	-0.087	0.027
-424.559	253.510	-0.188	-0.323
-423.544	586.348	-0.057	0.142
-422.530	-93.642	0.105	0.029
-421.515	119.645	-0.086	0.108
-420.500	-184.157	-0.149	-0.002
-419.486	20.974	0.108	0.088
-418.471	-59.530	-0.178	0.077
-417.457	24.065	-0.297	0.247
-416.442	-200.000	-0.095	0.474
-415.428	119.581	-0.171	0.214
-414.413	391.362	-0.008	-0.016
-413.398	-91.315	-0.083	0.024
-412.384	67.809	0.105	0.108
-411.369	35.659	0.134	0.118
-410.355	-43.658	-0.125	-0.063
-409.340	-167.849	-0.123	-0.005
-408.325	800.000	-0.052	0.195
-407.311	-200.000	-0.019	0.220
-406.296	800.000	-0.110	-0.325
-405.282	-200.000	-0.066	-0.354
-404.267	13.034	-0.190	-0.148
-403.252	-62.840	-0.100	0.041
-402.238	-200.000	-0.005	0.084
-401.223	-95.263	0.182	0.049
-400.209	-200.000	-0.000	-0.080
-399.194	765.751	-0.031	0.084
-398.179	-130.768	0.177	-0.024
-397.165	-175.691	0.355	-0.010
-396.150	379.634	-0.136	-0.280
-395.136	800.000	-0.163	0.537
-394.121	-3.642	-0.211	0.147
-393.106	9.603	-0.080	-0.061
-392.092	800.000	0.090	0.264
-391.077	800.000	0.011	-0.033
-390.063	441.916	-0.157	0.346
-389.048	-51.504	-0.195	0.092
-388.033	-153.921	-0.332	0.023
-387.019	-200.000	-0.093	-0.416
-386.004	-150.546	0.266	-0.020
-384.990	62.761	0.061	-0.061
-383.975	-200.000	-0.056	-0.254
-382.960	-198.006	0.044	-0.000
-381.946	-200.000	-0.020	0.112
-380.931	-200.000	-0.053	-0.260
-379.917	-88.391	0.299	-0.090
-378.902	-123.262	-0.409	0.066
-377.888	546.075	-0.023	0.055
-376.873	-24.868	-0.152	0.091
-375.858	524.089	0.034	0.080
-374.844	-21.411	0.232	-0.142
-373.829	175.236	0.285	-0.415
-372.815	-197.892	0.290	-0.002
-371.800	52.591	0.144	-0.139
-370.785	-200.000	0.005	0.109
-369.771	-0.771	-0.190	-0.135
-368.756	800.000	-0.014	-0.046
-367.742	-163.856	0.358	0.017
-366.727	19.471	-0.067	0.054
-365.712	90.457	0.111	0.125
-364.698	184.684	0.062	0.092
-363.683	55.402	-0.275	0.267
-362.669	26.909	0.155	0.130
-361.654	-78.179	-0.118	0.041
-360.639	19.162	-0.021	0.017
-359.625	-200.000	0.034	-0.305
-358.610	-98.964	-0.112	-0.028
-357.596	800.000	0.125	0.371
-356.581	-45.111	0.237	-0.118
-355.566	-183.018	0.073	-0.001
-354.552	-120.521	0.153	-0.026
-353.537	108.086	-0.115	0.138
-352.523	-45.560	-0.368	0.183
-351.508	-200.000	-0.015	0.117
-350.493	-72.019	0.342	0.128
-349.479	-136.689	-0.235	0.027
-348.464	200.437	0.104	-0.161
-347.450	-59.376	0.141	0.061
-346.435	-92.405	0.194	-0.055
-345.420	-200.000	-0.075	0.362
-344.406	4.012	0.180	-0.132
-343.391	366.930	-0.134	0.271
-342.377	800.000	0.037	-0.161
-341.362	-14.004	-0.153	0.099
-340.348	-122.570	-0.074	0.012
-339.333	-200.000	0.052	-0.231
-338.318	800.000	-0.052	-0.175
-337.304	139.049	0.174	-0.229
-336.289	-34.066	0.046	-0.025
-335.275	230.089	-0.082	-0.135
-334.260	60.018	-0.168	-0.167
-333.245	468.528	0.124	0.278
-332.231	-67.911	-0.133	0.052
-331.216	11.642	0.198	-0.152
-330.202	301.621	-0.175	0.324
-329.187	128.012	0.210	0.268
-328.172	60.610	-0.126	0.125
-327.158	-45.105	-0.165	-0.082
-326.143	782.733	0.095	0.262
-325.129	78.906	0.008	-0.008
-324.114	-5.242	0.051	0.035
-323.099	-36.497	0.264	0.142
-322.085	-200.000	0.005	0.111
-321.070	-2.507	0.122	-0.086
-320.056	39.389	-0.036	-0.032
-319.041	-67.943	-0.332	0.130
-318.026	73.324	-0.199	0.209
-317.012	-52.341	0.171	0.080
-315.997	-200.000	-0.013	-0.082
-314.983	338.109	0.046	-0.089
-313.968	-200.000	0.008	-0.371
-312.953	-101.296	-0.573	0.140
-311.939	14.703	-0.128	-0.100
-310.924	6.582	0.256	-0.191
-309.910	800.000	0.139	0.468
-308.895	800.000	-0.077	0.243
-307.880	76.646	0.131	0.139
-306.866	-101.149	0.071	-0.017
-305.851	-123.134	-0.195	-0.031
-304.837	-200.000	0.009	-0.185
-303.822	1.621	-0.103	0.074
-302.807	65.396	-0.119	0.121
-301.793	-200.000	-0.007	0.368
-300.778	-61.018	-0.314	0.133
-299.764	12.186	0.042	0.033
-298.749	-26.330	0.400	-0.235
-297.735	-139.126	0.166	-0.018
-296.720	791.440	0.092	0.252
-295.705	-66.136	0.046	0.018
-294.691	8.155	-0.080	-0.061
-293.676	-159.495	0.147	0.008
-292.662	-188.006	-0.394	0.005
-291.647	261.842	0.164	0.284
-290.632	-200.000	0.010	0.197
-289.618	-114.754	0.204	0.039
-288.603	-200.000	-0.050	-0.404
-287.589	-200.000	-0.001	0.178
-286.574	24.967	-0.216	0.180
-285.559	95.275	-0.150	0.171
-284.545	137.628	-0.049	-0.064
-283.530	68.647	-0.210	0.216
-282.516	-129.953	0.290	-0.040
-281.501	-77.672	0.379	0.131
-280.486	-63.914	0.091	-0.037
-279.472	-158.015	0.247	0.015
-278.457	-200.000	0.048	-0.401
-277.443	285.007	-0.273	0.492
-276.428	661.370	-0.090	0.232
-275.413	-135.054	-0.334	-0.040
-274.399	800.000	0.072	-0.225
-273.384	22.800	0.146	-0.120
-272.370	-187.964	0.060	0.001
-271.355	-24.178	0.258	0.154
-270.340	800.000	0.014	0.038
-269.326	-79.342	0.150	-0.051
-268.311	-44.161	0.088	0.044
-267.297	800.000	0.042	-0.133
-266.282	11.494	0.227	0.174
-265.267	398.754	0.082	0.171
-264.253	-106.151	0.127	0.029
-263.238	-84.282	-0.670	-0.212
-262.224	-12.869	0.256	-0.167
-261.209	-128.458	-0.054	-0.008
-260.195	86.369	0.065	-0.072
-259.180	-200.000	-0.064	-0.416
-258.165	-25.921	-0.342	-0.201
-257.151	79.595	-0.120	-0.128
-256.136	273.341	0.028	-0.050
-255.122	18.244	0.127	-0.102
-254.107	-32.760	-0.181	-0.101
-253.092	404.730	-0.040	-0.084
-252.078	-36.491	-0.146	0.079
-251.063	800.000	-0.075	0.309
-250.049	259.160	0.209	0.361
-249.034	800.000	-0.063	-0.224
-248.019	154.546	-0.061	0.084
-247.005	77.947	-0.147	-0.156
-245.990	551.103	0.061	0.147
-244.976	467.017	0.079	-0.178
-243.961	-103.210	0.235	0.056
-242.946	-29.260	0.126	0.072
-241.932	196.878	0.076	0.116
-240.917	247.015	0.139	0.235
-239.903	-200.000	-0.000	0.008
-238.888	-200.000	0.042	0.254
-237.873	800.000	-0.096	0.304
-236.859	40.157	0.054	-0.048
-235.844	659.800	0.092	-0.238
-234.830	738.790	0.067	0.179
-233.815	411.751	0.084	-0.178
-232.800	-200.000	-0.003	-0.161
-231.786	-158.197	0.344	0.020
-230.771	75.351	-0.092	0.097
-229.757	800.000	-0.054	-0.206
-228.742	800.000	0.069	-0.254
-227.727	520.778	0.009	-0.020
-226.713	76.318	0.374	0.396
-225.698	-200.000	-0.010	0.150
-224.684	61.215	-0.143	0.142
-223.669	279.854	0.144	0.256
-222.655	32.364	0.208	0.179
-221.640	560.939	0.048	0.115
-220.625	800.000	0.095	-0.317
-219.611	800.000	0.028	-0.093
-218.596	606.924	0.055	0.136
-217.582	-163.204	0.168	0.008
-216.567	800.000	0.073	-0.285
-215.552	279.552	-0.089	-0.159
-214.538	-90.806	-0.183	0.053
-213.523	-52.674	-0.272	-0.126
-212.509	763.999	0.108	-0.293
-211.494	-141.164	0.027	-0.003
-210.479	-24.284	0.233	-0.139
-209.465	-86.523	0.275	-0.084
-208.450	-200.000	0.006	0.146
-207.436	-51.906	-0.262	-0.122
-206.421	-200.000	0.005	0.212
-205.406	-200.000	-0.052	-0.254
-204.392	800.000	0.112	0.333
-203.377	-108.809	0.358	0.076
-202.363	-6.229	-0.161	-0.110
-201.348	-200.000	-0.022	0.104
-200.333	800.000	0.057	-0.172
-199.319	135.286	-0.085	0.111
-198.304	-63.015	0.234	-0.096
-197.290	542.480	-0.102	0.244
-196.275	-200.000	0.008	0.380
-195.260	800.000	-0.025	0.103
-194.246	-195.549	0.341	-0.002
-193.231	-162.988	-0.082	-0.004
-192.217	79.822	-0.171	0.183
-191.202	-200.000	0.040	0.190
-190.187	257.257	0.110	-0.188
-189.173	-64.801	-0.184	0.074
-188.158	184.132	0.144	-0.213
-187.144	-200.000	-0.010	-0.130
-186.129	-200.000	0.004	0.128
-185.114	26.702	0.571	0.477
-184.100	-148.859	-0.203	0.016
-183.085	800.000	0.061	-0.221
-182.071	-143.977	0.267	-0.025
-181.056	-200.000	-0.022	0.190
-180.042	-71.323	0.158	0.059
-179.027	800.000	0.099	-0.282
-178.012	45.412	0.137	-0.126
-176.998	-64.892	-0.073	0.030
-175.983	652.912	-0.187	-0.479
-174.969	188.033	0.067	-0.100
-173.954	142.020	0.073	0.096
-172.939	513.437	0.073	0.171
-171.925	-126.923	-0.442	0.065
-170.910	390.343	0.113	0.233
-169.896	800.000	0.088	-0.278
-168.881	560.482	-0.065	-0.156
-167.866	106.349	-0.252	-0.298
-166.852	607.375	0.139	-0.345
-165.837	-134.105	-0.378	-0.047
-164.823	231.272	0.114	-0.186
-163.808	483.416	0.052	0.119
-162.793	800.000	-0.142	-0.470
-161.779	800.000	-0.158	-0.499
-160.764	-72.984	0.076	-0.028
-159.750	369.554	-0.075	-0.151
-158.735	369.521	-0.052	0.105
-157.720	414.147	-0.070	-0.148
-156.706	-101.232	-0.127	-0.031
-155.691	10.765	-0.213	0.162
-154.677	8.944	0.358	-0.269
-153.662	-200.000	0.012	-0.284
-152.647	-30.357	0.188	0.106
-151.633	-200.000	0.017	0.212
-150.618	-200.000	0.004	-0.106
-149.604	162.954	0.047	-0.066
-148.589	-9.429	-0.039	0.026
-147.574	128.581	-0.229	0.290
-146.560	-103.111	0.154	0.036
-145.545	-200.000	-0.066	0.363
-144.531	800.000	-0.097	-0.272
-143.516	-200.000	-0.051	0.321
-142.502	34.666	-0.128	-0.111
-141.487	-200.000	0.029	-0.355
-140.472	251.717	-0.048	-0.082
-139.458	-13.464	0.141	0.091
-138.443	-200.000	0.021	-0.098
-137.429	0.728	-0.024	0.017
-136.414	4.888	0.141	-0.104
-135.399	-144.607	0.223	0.021
-134.385	608.543	-0.106	0.263
-133.370	237.533	0.084	0.138
-132.356	-107.757	0.131	0.028
-131.341	-30.253	-0.037	-0.021
-130.326	-200.000	-0.025	0.186
-129.312	78.070	0.247	0.262
-128.297	344.259	0.106	-0.207
-127.283	62.374	0.398	-0.396
-126.268	62.099	-0.245	-0.243
-125.253	800.000	-0.047	0.184
-124.239	-142.695	0.192	-0.019
-123.224	163.609	-0.067	0.093
-122.210	800.000	0.034	0.095
-121.195	-1.863	0.357	0.250
