DTS Sentinel unit serial number:	SN413079Multiplexer serial number:	ORYXHardware model number:	OX4-SRSoftware version number:	ORYX F/W v4.00 Oryx Data Collector v3.7.2.0data status	okinstallation	princeton_trtdifferential loss correction	single-endedforward channel	channel 1reverse channel	N/Adate	2019/09/12time	05:24:11forward acquisition time	60.00reverse acquisition time	0.00gamma	496.2192k internal	0.2322k external	0.2322temperature offset calibration	1.0051default loss term (dB/km)	0.3790temperature slope calibration	1.0000multiplexer offset coefficient	1.0000multiplexer slope coefficient	1.0000fibre end	0.00T internal ref (°C)	31.89T ext. ref 1 (°C)	1.62T ext. ref 2 (°C)	27.30length (m)	temperature (°C)	Stokes	anti-Stokes-747.200	-102.890	-0.226	0.054
-746.185	275.220	-0.048	0.086
-745.171	-85.999	0.101	-0.032
-744.156	120.652	-0.111	-0.139
-743.142	-3.651	-0.301	-0.211
-742.127	38.070	0.123	-0.110
-741.112	43.647	-0.173	0.160
-740.098	177.672	0.120	-0.177
-739.083	-76.776	-0.208	0.074
-738.069	800.000	0.187	0.597
-737.054	-200.000	0.004	-0.119
-736.039	26.481	-0.369	-0.312
-735.025	97.872	-0.015	0.017
-734.010	-142.439	-0.294	-0.029
-732.996	800.000	-0.134	-0.481
-731.981	-9.495	-0.227	-0.153
-730.966	144.069	0.185	0.249
-729.952	800.000	-0.035	-0.144
-728.937	-200.000	-0.014	-0.201
-727.923	-33.895	0.196	-0.109
-726.908	-48.175	-0.329	-0.160
-725.894	800.000	-0.028	0.086
-724.879	-182.338	0.185	0.003
-723.864	299.547	-0.064	-0.118
-722.850	-114.132	-0.241	-0.047
-721.835	218.200	0.229	0.368
-720.821	50.205	-0.051	0.049
-719.806	-56.679	-0.383	0.171
-718.791	-99.133	0.331	-0.085
-717.777	439.008	-0.069	-0.151
-716.762	-29.967	-0.146	-0.084
-715.748	800.000	0.090	-0.255
-714.733	-14.822	-0.329	-0.213
-713.718	800.000	-0.053	0.175
-712.704	13.893	-0.456	-0.358
-711.689	90.455	-0.061	0.069
-710.675	-200.000	0.091	0.614
-709.660	-103.365	0.188	-0.045
-708.645	183.490	0.034	0.051
-707.631	-1.888	-0.182	0.129
-706.616	68.551	-0.226	0.233
-705.602	164.025	-0.047	0.066
-704.587	-101.440	0.087	0.021
-703.572	120.823	-0.229	0.287
-702.558	-88.947	0.174	-0.052
-701.543	624.223	-0.051	0.131
-700.529	115.475	0.159	0.196
-699.514	800.000	0.140	0.394
-698.499	136.515	0.125	0.165
-697.485	241.478	0.182	-0.307
-696.470	32.631	-0.095	-0.083
-695.456	-119.958	-0.265	0.046
-694.441	190.026	-0.045	0.069
-693.426	80.041	0.091	-0.098
-692.412	-116.630	-0.128	0.024
-691.397	52.257	0.200	-0.192
-690.383	515.096	-0.095	-0.225
-689.368	-11.129	0.271	0.180
-688.354	149.750	0.190	-0.259
-687.339	421.774	-0.041	-0.089
-686.324	-39.482	-0.391	0.206
-685.310	-122.910	-0.176	0.029
-684.295	62.447	0.018	0.018
-683.281	-92.716	-0.437	0.123
-682.266	-39.491	-0.243	0.128
-681.251	-200.000	-0.021	-0.346
-680.237	800.000	0.030	-0.113
-679.222	-21.810	0.218	-0.134
-678.208	-81.839	-0.080	0.026
-677.193	800.000	-0.091	-0.260
-676.178	-14.567	-0.271	0.176
-675.164	-200.000	-0.003	-0.232
-674.149	-200.000	0.014	0.303
-673.135	56.928	0.194	-0.190
-672.120	4.872	-0.062	-0.046
-671.105	8.596	0.200	0.152
-670.091	90.067	0.153	-0.172
-669.076	800.000	-0.078	-0.268
-668.062	285.938	-0.128	0.233
-667.047	-65.665	-0.259	-0.105
-666.032	69.481	-0.159	0.165
-665.018	-60.585	0.235	-0.100
-664.003	-1.547	-0.332	-0.236
-662.989	-127.145	-0.209	-0.031
-661.974	-168.097	0.214	-0.008
-660.959	800.000	-0.042	0.146
-659.945	-200.000	0.030	0.322
-658.930	-200.000	0.010	0.149
-657.916	800.000	-0.128	0.468
-656.901	63.438	0.122	-0.123
-655.886	-80.976	0.196	-0.065
-654.872	-109.170	-0.148	0.032
-653.857	-80.324	-0.211	0.071
-652.843	39.206	-0.202	0.182
-651.828	351.466	-0.098	-0.195
-650.814	292.274	0.047	-0.087
-649.799	-159.098	-0.152	0.009
-648.784	208.636	0.038	0.059
-647.770	-17.836	-0.326	0.206
-646.755	-93.500	-0.223	-0.062
-645.741	56.846	-0.075	-0.074
-644.726	-26.831	0.111	0.066
-643.711	-163.835	-0.494	-0.023
-642.697	5.390	0.095	-0.071
-641.682	84.961	0.050	0.055
-640.668	-200.000	0.036	-0.202
-639.653	-59.524	-0.041	-0.018
-638.638	304.737	0.146	-0.274
-637.624	-200.000	0.013	0.256
-636.609	-127.816	-0.104	-0.015
-635.595	748.485	0.050	0.136
-634.580	75.538	0.249	-0.264
-633.565	-4.287	-0.175	-0.122
-632.551	-200.000	0.021	-0.128
-631.536	501.185	-0.094	-0.218
-630.522	-200.000	0.018	-0.225
-629.507	-113.926	-0.156	-0.030
-628.492	186.781	0.167	-0.250
-627.478	-126.053	0.275	0.041
-626.463	-200.000	-0.013	-0.121
-625.449	-200.000	-0.056	-0.290
-624.434	-32.296	0.082	-0.046
-623.419	-62.942	0.122	0.051
-622.405	557.758	0.108	-0.262
-621.390	-172.235	-0.135	0.004
-620.376	124.620	-0.060	0.076
-619.361	-55.553	0.167	-0.075
-618.346	-200.000	-0.023	-0.256
-617.332	152.250	-0.090	-0.124
-616.317	-0.889	0.050	-0.035
-615.303	-200.000	-0.034	0.166
-614.288	309.003	0.064	0.119
-613.273	68.571	-0.109	0.113
-612.259	57.588	-0.047	0.046
-611.244	-200.000	0.017	-0.166
-610.230	-90.303	-0.404	0.118
-609.215	-200.000	0.038	0.389
-608.201	-200.000	-0.029	0.176
-607.186	-94.830	-0.274	0.075
-606.171	-6.126	-0.053	-0.036
-605.157	449.792	-0.076	-0.168
-604.142	-16.378	-0.285	-0.182
-603.128	-84.582	-0.171	-0.054
-602.113	800.000	-0.038	0.108
-601.098	375.740	-0.053	-0.109
-600.084	93.156	0.123	0.140
-599.069	800.000	-0.043	-0.172
-598.055	7.345	-0.058	0.044
-597.040	134.228	-0.160	0.208
-596.025	-30.451	0.576	-0.328
-595.011	-24.391	0.123	-0.074
-593.996	147.970	-0.165	-0.223
-592.982	-200.000	-0.010	-0.127
-591.967	-200.000	-0.047	0.268
-590.952	-200.000	-0.002	-0.204
-589.938	3.854	0.158	-0.116
-588.923	800.000	0.050	-0.187
-587.909	-200.000	-0.030	0.162
-586.894	26.544	-0.069	-0.058
-585.879	139.117	-0.106	0.140
-584.865	-190.378	-0.225	-0.002
-583.850	123.318	-0.200	-0.251
-582.836	-174.025	0.517	-0.015
-581.821	35.873	0.071	0.063
-580.806	67.260	-0.143	-0.146
-579.792	-97.487	-0.256	0.067
-578.777	-57.977	0.168	-0.074
-577.763	130.608	-0.167	0.215
-576.748	-64.656	0.196	0.080
-575.733	-200.000	-0.017	-0.248
-574.719	-53.787	0.181	-0.083
-573.704	184.719	0.093	0.138
-572.690	221.354	0.052	0.083
-571.675	-200.000	0.007	0.089
-570.661	115.094	0.157	-0.192
-569.646	800.000	0.049	0.190
-568.631	31.402	-0.280	-0.241
-567.617	124.041	-0.199	-0.251
-566.602	-130.885	0.027	0.004
-565.588	-110.009	-0.111	-0.023
-564.573	-1.855	0.167	-0.118
-563.558	135.836	-0.127	-0.166
-562.544	114.258	0.179	-0.219
-561.529	174.404	-0.072	-0.105
-560.515	14.928	0.101	-0.079
-559.500	-131.960	-0.219	0.029
-558.485	-50.408	0.474	0.225
-557.471	-31.655	0.271	0.153
-556.456	200.216	-0.151	-0.232
-555.442	-106.476	0.136	0.030
-554.427	-200.000	-0.076	-0.471
-553.412	432.892	-0.229	-0.498
-552.398	540.474	0.074	0.177
-551.383	800.000	0.059	0.251
-550.369	-63.754	-0.049	-0.020
-549.354	-36.066	-0.223	0.121
-548.339	-134.756	-0.153	0.019
-547.325	54.862	-0.229	0.222
-546.310	-42.992	-0.122	0.062
-545.296	800.000	0.109	0.336
-544.281	29.468	0.090	-0.077
-543.266	-108.329	0.211	0.046
-542.252	800.000	0.044	0.161
-541.237	141.589	0.043	-0.057
-540.223	800.000	-0.073	-0.239
-539.208	-178.399	-0.142	0.003
-538.193	-131.572	-0.198	-0.026
-537.179	575.711	-0.099	-0.243
-536.164	-73.015	0.254	0.093
-535.150	60.703	0.057	-0.057
-534.135	47.669	-0.057	0.054
-533.121	154.588	0.282	-0.388
-532.106	-92.534	-0.068	-0.019
-531.091	800.000	-0.111	0.350
-530.077	166.568	0.038	-0.054
-529.062	-200.000	0.012	0.205
-528.048	242.687	0.049	-0.082
-527.033	-200.000	-0.009	0.101
-526.018	-51.234	0.093	0.044
-525.004	62.458	0.220	0.220
-523.989	800.000	-0.050	-0.149
-522.975	-4.517	-0.057	-0.039
-521.960	63.415	0.239	0.240
-520.945	-32.586	0.112	-0.062
-519.931	70.059	0.376	0.389
-518.916	-178.971	-0.153	0.003
-517.902	75.700	0.234	0.248
-516.887	800.000	-0.099	0.286
-515.872	-67.710	0.380	-0.149
-514.858	-200.000	-0.013	-0.142
-513.843	55.264	0.100	0.096
-512.829	-95.194	0.231	0.062
-511.814	-200.000	0.094	-0.417
-510.799	401.555	0.064	-0.134
-509.785	5.753	-0.163	0.121
-508.770	13.133	0.182	0.141
-507.756	-200.000	0.043	-0.241
-506.741	121.776	-0.169	0.211
-505.726	-42.809	0.061	0.031
-504.712	-35.737	0.176	0.095
-503.697	-200.000	0.014	-0.168
-502.683	45.164	0.314	-0.290
-501.668	-200.000	0.047	-0.236
-500.653	-100.004	-0.300	0.075
-499.639	-200.000	-0.011	-0.107
-498.624	-156.658	-0.174	-0.011
-497.610	-200.000	-0.018	0.098
-496.595	22.582	0.281	-0.230
-495.581	-0.781	-0.282	-0.200
-494.566	-200.000	0.011	-0.079
-493.551	-127.478	0.286	0.042
-492.537	-200.000	0.042	0.196
-491.522	261.268	-0.136	0.236
-490.508	-200.000	-0.022	-0.205
-489.493	-122.983	-0.183	0.029
-488.478	-200.000	-0.220	0.001
-487.464	681.415	0.058	-0.152
-486.449	216.514	-0.006	0.009
-485.435	157.113	-0.107	0.148
-484.420	533.353	-0.052	0.123
-483.405	-71.911	0.129	-0.048
-482.391	285.786	-0.145	0.261
-481.376	-99.570	-0.260	0.065
-480.362	-200.000	-0.013	-0.409
-479.347	-110.028	-0.202	0.042
-478.332	800.000	0.096	0.311
-477.318	-66.550	-0.073	0.029
-476.303	-19.912	0.311	-0.192
-475.289	67.190	-0.212	0.216
-474.274	-58.840	-0.268	-0.116
-473.259	480.404	0.055	-0.125
-472.245	-20.935	0.168	-0.103
-471.230	800.000	-0.049	-0.192
-470.216	66.468	-0.160	0.163
-469.201	-29.324	0.136	-0.078
-468.186	-128.060	0.261	0.037
-467.172	-200.000	-0.383	0.000
-466.157	800.000	-0.103	-0.351
-465.143	-28.710	-0.118	0.068
-464.128	41.746	0.141	-0.128
-463.113	-200.000	0.032	-0.317
-462.099	335.849	0.061	0.118
-461.084	414.770	-0.178	0.379
-460.070	-91.838	0.113	0.032
-459.055	-92.914	-0.285	-0.080
-458.040	-90.048	0.364	-0.106
-457.026	25.911	-0.218	0.182
-456.011	-200.000	0.031	0.259
-454.997	230.640	-0.054	-0.088
-453.982	-200.000	-0.097	-0.543
-452.968	-56.829	-0.389	-0.172
-451.953	-198.634	0.062	0.000
-450.938	-200.000	0.002	0.134
-449.924	-64.430	0.257	0.105
-448.909	-51.853	-0.151	0.070
-447.895	363.738	0.091	0.182
-446.880	722.606	-0.134	-0.357
-445.865	-200.000	-0.030	-0.141
-444.851	83.300	0.179	0.195
-443.836	800.000	0.064	-0.188
-442.822	419.418	-0.125	-0.267
-441.807	-111.208	0.276	-0.056
-440.792	-65.843	-0.336	0.134
-439.778	15.701	-0.086	-0.067
-438.763	-27.255	-0.076	-0.044
-437.749	-200.000	-0.015	-0.251
-436.734	283.793	-0.162	0.290
-435.719	-200.000	0.015	0.153
-434.705	21.684	0.233	0.190
-433.690	-136.757	0.196	-0.023
-432.676	-101.126	0.153	0.037
-431.661	12.035	0.096	0.074
-430.646	-151.411	-0.061	0.005
-429.632	81.830	-0.211	-0.228
-428.617	800.000	-0.085	-0.272
-427.603	45.160	-0.182	-0.168
-426.588	-9.721	0.225	-0.150
-425.573	-200.000	-0.012	-0.161
-424.559	800.000	0.090	0.353
-423.544	514.781	0.079	-0.185
-422.530	800.000	-0.111	0.388
-421.515	96.388	-0.232	0.265
-420.500	-167.727	-0.099	0.004
-419.486	-31.635	0.173	0.097
-418.471	-200.000	-0.018	-0.109
-417.457	710.959	0.035	0.092
-416.442	800.000	0.039	-0.160
-415.428	-104.947	-0.102	-0.023
-414.413	731.597	-0.035	0.093
-413.398	800.000	-0.042	-0.177
-412.384	23.538	-0.162	0.133
-411.369	43.725	-0.136	0.124
-410.355	263.549	-0.079	0.137
-409.340	45.006	-0.119	-0.109
-408.325	-200.000	-0.059	-0.493
-407.311	-79.839	-0.282	0.095
-406.296	-93.652	0.066	0.018
-405.282	3.103	0.263	-0.190
-404.267	-200.000	0.008	-0.255
-403.252	41.403	-0.262	0.236
-402.238	-153.784	0.129	-0.009
-401.223	355.245	-0.089	-0.177
-400.209	26.335	-0.149	-0.124
-399.194	198.577	0.087	0.132
-398.179	-200.000	-0.004	-0.076
-397.165	-200.000	-0.010	0.192
-396.150	571.317	0.044	-0.108
-395.136	-79.901	0.140	0.047
-394.121	100.044	0.085	-0.098
-393.106	303.707	-0.265	0.489
-392.092	0.898	-0.158	0.113
-391.077	-144.550	0.199	-0.018
-390.063	-148.595	-0.080	-0.006
-389.048	-82.373	0.208	-0.067
-388.033	-114.591	-0.123	-0.024
-387.019	129.630	-0.072	0.092
-386.004	-95.070	0.450	0.121
-384.990	-101.332	0.079	-0.019
-383.975	-65.600	0.114	0.045
-382.960	-3.696	0.299	-0.207
-381.946	77.847	-0.099	-0.105
-380.931	-38.477	-0.134	-0.071
-379.917	243.952	0.037	-0.062
-378.902	-200.000	-0.021	-0.210
-377.888	1.499	-0.142	-0.102
-376.873	237.449	0.147	0.243
-375.858	129.454	-0.041	-0.053
-374.844	61.007	-0.006	0.006
-373.829	95.904	-0.055	0.063
-372.815	491.800	0.058	-0.133
-371.800	36.378	0.261	-0.229
-370.785	19.899	0.328	0.264
-369.771	-200.000	0.038	0.208
-368.756	26.868	-0.111	-0.092
-367.742	71.153	-0.156	-0.161
-366.727	-200.000	-0.001	0.074
-365.712	782.857	0.045	-0.122
-364.698	-75.559	-0.163	0.058
-363.683	-200.000	0.085	0.396
-362.669	84.430	-0.149	0.163
-361.654	800.000	0.112	0.354
-360.639	200.245	0.097	0.149
-359.625	320.133	-0.157	-0.296
-358.610	-111.364	0.264	-0.054
-357.596	10.613	-0.436	0.331
-356.581	-0.927	0.129	0.091
-355.566	-137.678	-0.108	0.012
-354.552	-33.068	0.218	0.120
-353.537	252.956	0.113	0.192
-352.523	800.000	0.086	0.317
-351.508	140.461	0.204	0.268
-350.493	-200.000	-0.025	0.150
-349.479	-51.509	0.206	0.096
-348.464	385.642	-0.041	0.085
-347.450	-151.357	0.199	-0.015
-346.435	-163.273	0.197	0.009
-345.420	-18.699	0.192	0.119
-344.406	-39.181	0.116	0.060
-343.391	259.719	-0.091	-0.156
-342.377	751.777	0.065	-0.175
-341.362	218.395	-0.247	-0.392
-340.348	-165.847	-0.453	0.019
-339.333	-126.905	0.272	0.040
-338.318	-75.158	0.234	0.083
-337.304	3.508	-0.148	0.107
-336.289	-140.097	-0.240	0.025
-335.275	-108.829	0.034	0.007
-334.260	325.776	0.144	0.274
-333.245	314.820	-0.123	-0.230
-332.231	602.759	-0.100	-0.246
-331.216	-38.648	0.048	0.025
-330.202	-5.288	-0.236	0.161
-329.187	49.543	0.142	0.133
-328.172	78.910	-0.129	0.137
-327.158	69.017	0.109	0.111
-326.143	59.515	-0.270	-0.265
-325.129	800.000	0.129	-0.381
-324.114	82.909	0.159	-0.171
-323.099	-66.906	-0.242	-0.095
-322.085	292.348	0.155	-0.280
-321.070	173.787	0.222	0.319
-320.056	-88.932	0.346	0.102
-319.041	56.864	0.122	0.118
-318.026	800.000	0.132	0.462
-317.012	543.106	-0.131	-0.311
-315.997	-200.000	0.015	0.127
-314.983	-200.000	0.013	-0.160
-313.968	626.910	-0.125	0.313
-312.953	-200.000	-0.010	-0.081
-311.939	-14.829	-0.027	-0.017
-310.924	-200.000	-0.032	-0.233
-309.910	-200.000	0.017	-0.162
-308.895	-38.974	0.288	0.150
-307.880	-200.000	0.007	0.360
-306.866	14.287	0.283	-0.219
-305.851	131.386	-0.239	-0.305
-304.837	-136.641	-0.174	0.020
-303.822	50.495	0.063	-0.059
-302.807	52.056	-0.047	0.045
-301.793	452.857	0.210	-0.461
-300.778	800.000	-0.043	0.155
-299.764	507.826	0.087	0.200
-298.749	-128.081	-0.080	-0.011
-297.735	4.056	0.020	-0.015
-296.720	-39.217	0.334	0.174
-295.705	-200.000	0.019	0.090
-294.691	70.099	-0.119	0.121
-293.676	94.350	-0.428	0.482
-292.662	-185.383	0.092	0.001
-291.647	800.000	0.050	0.140
-290.632	800.000	0.045	0.158
-289.618	800.000	-0.025	-0.105
-288.603	168.195	-0.181	0.256
-287.589	-200.000	-0.026	-0.337
-286.574	-200.000	0.097	0.560
-285.559	59.491	-0.175	0.172
-284.545	-200.000	0.016	0.266
-283.530	-13.783	-0.129	0.083
-282.516	800.000	-0.062	0.216
-281.501	7.104	0.115	0.085
-280.486	85.650	0.103	-0.113
-279.472	-140.087	0.291	0.030
-278.457	528.947	-0.060	-0.141
-277.443	183.493	0.127	0.186
-276.428	104.880	0.224	-0.262
-275.413	-200.000	0.019	-0.099
-274.399	-69.352	-0.094	0.036
-273.384	560.479	0.067	0.159
-272.370	-81.824	-0.055	0.018
-271.355	800.000	0.099	0.272
-270.340	517.868	0.084	0.195
-269.326	121.591	-0.243	0.301
-268.311	-68.912	0.140	0.054
-267.297	-200.000	-0.033	-0.332
-266.282	-70.340	0.053	0.020
-265.267	210.855	-0.129	-0.200
-264.253	-200.000	-0.017	-0.197
-263.238	800.000	0.054	0.190
-262.224	95.442	-0.069	0.078
-261.209	-200.000	-0.044	0.205
-260.195	-200.000	0.001	-0.086
-259.180	80.626	0.210	0.225
-258.165	-59.799	0.298	0.127
-257.151	-73.308	-0.193	0.070
-256.136	800.000	-0.108	-0.446
-255.122	-200.000	0.030	-0.276
-254.107	-200.000	-0.007	-0.163
-253.092	-200.000	0.008	0.059
-252.078	-88.060	0.338	-0.101
-251.063	800.000	-0.049	-0.142
-250.049	540.557	0.095	0.223
-249.034	-200.000	-0.061	-0.561
-248.019	-200.000	-0.031	-0.288
-247.005	212.540	0.080	0.125
-245.990	-128.502	0.127	0.018
-244.976	800.000	0.091	-0.280
-243.961	-15.567	-0.225	0.143
-242.946	-99.177	0.284	-0.071
-241.932	-178.594	-0.230	0.005
-240.917	-39.603	0.125	0.065
-239.903	499.411	-0.133	0.304
-238.888	-53.430	0.102	0.046
-237.873	163.647	0.052	0.073
-236.859	-168.693	-0.092	0.003
-235.844	-152.273	-0.163	0.012
-234.830	800.000	-0.156	0.488
-233.815	557.935	0.096	-0.229
-232.800	800.000	-0.122	-0.377
-231.786	128.194	0.074	0.093
-230.771	-22.249	-0.157	-0.094
-229.757	-54.569	0.348	0.156
-228.742	-36.410	-0.207	-0.111
-227.727	-80.247	-0.262	-0.087
-226.713	800.000	-0.083	0.295
-225.698	139.663	-0.142	0.185
-224.684	21.433	0.071	0.057
-223.669	37.523	-0.174	-0.153
-222.655	93.045	-0.204	-0.229
-221.640	71.733	0.102	-0.105
-220.625	599.189	-0.117	0.288
-219.611	-106.825	0.366	-0.080
-218.596	-128.303	0.197	-0.028
-217.582	-167.079	0.378	-0.015
-216.567	605.469	-0.107	0.264
-215.552	120.427	0.209	-0.256
-214.538	31.392	-0.057	0.048
-213.523	-6.679	-0.459	-0.309
-212.509	-200.000	0.041	-0.218
-211.494	247.977	-0.153	0.257
-210.479	800.000	-0.062	-0.219
-209.465	186.034	-0.101	0.148
-208.450	258.107	-0.190	0.324
-207.436	-71.172	0.327	0.121
-206.421	161.967	0.089	-0.124
-205.406	-60.424	0.087	-0.037
-204.392	-14.723	-0.137	0.087
-203.377	136.530	0.134	-0.173
-202.363	-141.905	-0.263	0.026
-201.348	-123.499	0.301	-0.047
-200.333	221.227	0.058	-0.093
-199.319	42.051	0.374	0.336
-198.304	-104.269	0.360	-0.083
-197.290	800.000	-0.121	0.402
-196.275	-29.380	-0.341	0.193
-195.260	-200.000	-0.040	-0.319
-194.246	82.508	0.117	0.126
-193.231	-200.000	-0.005	-0.129
-192.217	216.144	0.188	-0.296
-191.202	357.757	0.099	0.195
-190.187	782.343	-0.126	0.341
-189.173	143.701	0.126	0.166
-188.158	8.637	0.201	-0.150
-187.144	-14.471	-0.209	0.133
-186.129	330.597	-0.074	-0.142
-185.114	27.699	-0.025	0.021
-184.100	122.314	-0.234	-0.289
-183.085	159.955	0.122	0.168
-182.071	36.177	0.263	0.229
-181.056	80.651	0.263	0.280
-180.042	-69.207	-0.230	0.087
-179.027	-77.493	-0.282	-0.097
-178.012	-68.558	0.356	0.136
-176.998	171.517	-0.077	0.110
-175.983	-30.801	-0.119	-0.067
-174.969	155.274	-0.270	-0.368
-173.954	464.241	-0.022	0.048
-172.939	61.780	-0.206	0.203
-171.925	-200.000	0.004	0.134
-170.910	62.914	-0.203	0.201
-169.896	295.574	-0.046	0.083
-168.881	-200.000	-0.027	0.124
-167.866	-200.000	-0.041	-0.197
-166.852	-75.090	0.240	0.085
-165.837	450.452	0.110	-0.241
-164.823	-47.162	0.163	-0.079
-163.808	-5.407	-0.358	0.243
-162.793	753.877	-0.151	0.403
-161.779	-63.524	-0.122	-0.050
-160.764	46.561	0.203	-0.186
-159.750	38.746	-0.250	0.221
-158.735	800.000	0.029	0.107
-157.720	372.833	-0.122	-0.246
-156.706	124.372	0.047	0.058
-155.691	492.946	-0.041	-0.092
-154.677	-24.608	-0.104	-0.061
-153.662	-200.000	-0.026	-0.176
-152.647	-134.148	-0.109	-0.013
-151.633	-200.000	0.049	-0.248
-150.618	800.000	0.119	-0.396
-149.604	-115.370	0.024	-0.004
-148.589	-107.969	0.202	0.043
-147.574	-79.973	0.113	-0.038
-146.560	25.044	0.054	-0.044
-145.545	478.346	-0.114	-0.256
-144.531	37.280	-0.166	0.145
-143.516	-200.000	0.069	0.313
-142.502	232.538	0.073	-0.118
-141.487	-43.036	0.206	0.103
-140.472	800.000	0.049	-0.152
-139.458	-3.967	-0.255	-0.174
-138.443	-200.000	-0.004	-0.118
-137.429	-4.921	0.107	-0.073
-136.414	-200.000	-0.011	0.176
-135.399	85.361	0.075	0.081
-134.385	-17.644	0.406	0.252
-133.370	76.665	0.075	-0.078
-132.356	-18.552	0.277	0.171
-131.341	-86.358	-0.415	0.126
-130.326	800.000	-0.068	0.273
-129.312	211.637	0.154	0.239
-128.297	143.930	0.165	0.217
-127.283	334.729	-0.049	0.093
-126.268	37.152	0.188	0.164
-125.253	-58.764	0.250	0.107
-124.239	-41.209	-0.257	0.131
-123.224	-87.338	-0.131	-0.039
-122.210	-200.000	0.005	0.102
-121.195	-131.287	-0.222	0.029
-120.180	-82.142	-0.079	-0.025
