DTS Sentinel unit serial number:	SN413079Multiplexer serial number:	ORYXHardware model number:	OX4-SRSoftware version number:	ORYX F/W v4.00 Oryx Data Collector v3.7.2.0data status	okinstallation	princeton_trtdifferential loss correction	single-endedforward channel	channel 1reverse channel	N/Adate	2019/09/12time	07:24:11forward acquisition time	60.00reverse acquisition time	0.00gamma	496.2192k internal	0.2319k external	0.2319temperature offset calibration	1.0048default loss term (dB/km)	0.3790temperature slope calibration	1.0000multiplexer offset coefficient	1.0000multiplexer slope coefficient	1.0000fibre end	0.00T internal ref (°C)	32.37T ext. ref 1 (°C)	1.62T ext. ref 2 (°C)	28.84length (m)	temperature (°C)	Stokes	anti-Stokes-747.200	23.399	-0.302	-0.251
-746.185	-33.997	-0.121	-0.067
-745.171	-200.000	-0.028	0.284
-744.156	800.000	0.178	0.576
-743.142	-33.005	0.121	0.068
-742.127	-155.056	-0.238	0.016
-741.112	-135.570	0.171	-0.021
-740.098	-90.323	-0.099	0.029
-739.083	-200.000	-0.007	-0.259
-738.069	208.475	0.045	0.072
-737.054	-200.000	-0.031	-0.141
-736.039	-139.317	-0.153	-0.017
-735.025	-200.000	0.015	0.365
-734.010	-200.000	-0.011	0.092
-732.996	-123.347	-0.335	-0.054
-731.981	-155.992	-0.212	-0.014
-730.966	-21.315	-0.069	0.043
-729.952	18.546	-0.243	-0.197
-728.937	188.186	-0.062	0.094
-727.923	-150.554	-0.173	0.013
-726.908	-70.404	-0.159	-0.061
-725.894	-200.000	0.008	-0.259
-724.879	78.071	-0.165	-0.178
-723.864	238.344	0.119	0.199
-722.850	65.419	0.065	0.066
-721.835	218.498	-0.062	0.101
-720.821	-116.055	-0.065	-0.012
-719.806	-200.000	-0.020	-0.154
-718.791	-30.748	-0.120	0.068
-717.777	-42.590	-0.452	-0.232
-716.762	333.886	-0.059	-0.115
-715.748	-28.415	0.128	-0.075
-714.733	800.000	0.147	-0.410
-713.718	-164.361	0.102	-0.005
-712.704	46.573	0.200	0.188
-711.689	-200.000	0.024	-0.212
-710.675	-44.691	-0.063	0.032
-709.660	499.119	-0.206	-0.480
-708.645	-53.504	-0.119	-0.055
-707.631	-110.831	0.553	0.115
-706.616	-57.501	0.290	0.129
-705.602	-200.000	0.002	-0.330
-704.587	3.900	-0.265	-0.195
-703.572	392.383	-0.086	0.181
-702.558	52.622	0.101	0.098
-701.543	800.000	-0.121	-0.517
-700.529	-69.190	-0.329	-0.128
-699.514	-200.000	0.009	0.202
-698.499	-48.308	-0.171	-0.083
-697.485	-200.000	-0.008	0.144
-696.470	16.688	0.271	-0.216
-695.456	-105.779	0.139	-0.032
-694.441	-28.246	-0.124	-0.072
-693.426	-107.462	0.174	0.038
-692.412	-102.181	-0.165	-0.040
-691.397	-200.000	-0.022	-0.656
-690.383	50.761	-0.078	-0.074
-689.368	-116.115	0.199	0.037
-688.354	45.421	-0.152	-0.142
-687.339	800.000	0.058	-0.203
-686.324	800.000	-0.088	0.361
-685.310	-200.000	0.026	-0.202
-684.295	142.032	-0.143	0.191
-683.281	-120.445	-0.473	-0.081
-682.266	-48.484	-0.116	-0.056
-681.251	-26.593	0.183	-0.108
-680.237	-8.321	-0.099	-0.067
-679.222	33.726	0.063	-0.055
-678.208	368.280	-0.116	-0.237
-677.193	579.837	-0.127	0.314
-676.178	507.617	-0.167	-0.391
-675.164	100.717	0.186	-0.218
-674.149	-200.000	-0.028	0.228
-673.135	800.000	-0.030	-0.111
-672.120	-70.963	0.360	-0.137
-671.105	-100.898	-0.401	0.099
-670.091	-31.263	-0.137	-0.078
-669.076	26.024	0.066	0.056
-668.062	-200.000	-0.018	-0.316
-667.047	-122.063	0.028	-0.005
-666.032	573.011	0.166	-0.409
-665.018	800.000	0.070	-0.203
-664.003	-153.594	-0.462	-0.032
-662.989	-30.363	-0.109	-0.062
-661.974	800.000	0.120	0.385
-660.959	-1.683	-0.239	-0.170
-659.945	-21.729	-0.065	-0.040
-658.930	147.518	0.110	0.149
-657.916	-200.000	0.020	0.273
-656.901	800.000	-0.069	-0.196
-655.886	162.904	0.077	-0.109
-654.872	-55.514	-0.273	-0.124
-653.857	-37.319	0.263	0.142
-652.843	-200.000	-0.002	-0.178
-651.828	-200.000	-0.028	0.137
-650.814	-200.000	0.019	0.134
-649.799	54.448	0.036	0.035
-648.784	-135.256	0.208	-0.025
-647.770	104.482	0.196	-0.232
-646.755	368.352	0.071	-0.145
-645.741	-200.000	0.004	-0.140
-644.726	-200.000	0.024	-0.184
-643.711	603.473	-0.072	-0.181
-642.697	451.603	0.057	0.126
-641.682	370.883	0.247	-0.505
-640.668	-114.998	-0.158	0.030
-639.653	-200.000	0.013	-0.285
-638.638	-200.000	-0.041	-0.196
-637.624	-47.676	-0.266	-0.130
-636.609	58.899	0.197	0.195
-635.595	100.228	0.287	0.335
-634.580	216.993	0.209	-0.336
-633.565	58.354	-0.271	-0.267
-632.551	800.000	0.024	-0.087
-631.536	-49.446	-0.406	-0.195
-630.522	800.000	0.051	0.161
-629.507	-200.000	-0.021	-0.385
-628.492	-200.000	-0.041	-0.247
-627.478	800.000	0.090	-0.303
-626.463	-200.000	0.002	0.199
-625.449	91.738	0.221	-0.250
-624.434	52.344	-0.162	0.156
-623.419	0.850	0.089	0.064
-622.405	99.515	0.226	0.263
-621.390	-200.000	0.003	0.284
-620.376	68.452	0.057	0.059
-619.361	-58.321	-0.176	-0.077
-618.346	-31.820	-0.234	0.132
-617.332	-200.000	0.019	0.133
-616.317	-76.826	-0.215	-0.076
-615.303	12.082	-0.208	0.161
-614.288	-200.000	0.006	-0.162
-613.273	621.266	0.035	-0.088
-612.259	800.000	-0.036	-0.147
-611.244	59.034	-0.157	0.155
-610.230	16.678	-0.039	0.031
-609.215	310.816	-0.086	0.161
-608.201	224.833	0.035	0.057
-607.186	800.000	0.098	-0.359
-606.171	622.120	-0.074	-0.187
-605.157	-127.986	0.521	0.075
-604.142	39.955	-0.216	0.195
-603.128	221.443	0.069	-0.112
-602.113	-101.619	-0.169	-0.041
-601.098	109.725	-0.226	0.273
-600.084	-200.000	0.039	-0.275
-599.069	-147.379	-0.334	-0.028
-598.055	-112.119	0.108	0.022
-597.040	-200.000	-0.047	-0.262
-596.025	-200.000	-0.041	-0.246
-595.011	328.802	-0.116	-0.224
-593.996	-82.650	0.256	0.083
-592.982	-200.000	0.019	0.129
-591.967	-23.211	0.191	-0.116
-590.952	64.944	0.129	-0.131
-589.938	435.089	-0.050	-0.110
-588.923	526.443	0.139	0.329
-587.909	-200.000	0.009	0.206
-586.894	-21.186	-0.119	-0.073
-585.879	163.385	-0.150	-0.212
-584.865	-200.000	0.013	-0.163
-583.850	-200.000	0.007	0.065
-582.836	-43.806	-0.082	0.041
-581.821	-149.383	0.273	0.022
-580.806	-92.142	0.180	-0.051
-579.792	-86.720	0.148	0.046
-578.777	-66.507	-0.328	-0.131
-577.763	62.708	-0.148	0.149
-576.748	-64.713	-0.422	-0.172
-575.733	-93.408	-0.191	-0.053
-574.719	-200.000	-0.199	-0.000
-573.704	-104.119	-0.224	-0.052
-572.690	-200.000	-0.000	0.016
-571.675	-154.536	-0.155	0.010
-570.661	-44.668	0.090	-0.045
-569.646	26.936	0.238	-0.200
-568.631	-76.740	0.419	-0.148
-567.617	-200.000	-0.051	0.236
-566.602	74.298	0.086	0.090
-565.588	-200.000	-0.010	0.370
-564.573	193.338	-0.131	-0.199
-563.558	161.636	-0.080	-0.112
-562.544	-158.102	-0.207	0.012
-561.529	697.548	-0.056	0.148
-560.515	-128.780	0.325	0.046
-559.500	-55.974	-0.189	-0.085
-558.485	-112.708	-0.006	-0.001
-557.471	-31.734	0.300	-0.169
-556.456	800.000	0.041	-0.171
-555.442	63.166	-0.239	0.241
-554.427	-8.424	-0.185	-0.125
-553.412	-84.682	0.235	0.074
-552.398	-62.076	0.227	0.095
-551.383	-98.397	0.005	0.001
-550.369	383.602	0.155	0.321
-549.354	-200.000	-0.057	-0.395
-548.339	3.937	0.168	-0.123
-547.325	92.737	0.237	-0.268
-546.310	302.751	0.063	-0.116
-545.296	800.000	0.036	-0.119
-544.281	-178.759	0.315	-0.007
-543.266	-57.510	-0.271	0.119
-542.252	-107.200	-0.104	-0.023
-541.237	555.244	-0.049	-0.118
-540.223	-111.016	0.085	-0.017
-539.208	-49.924	0.207	-0.098
-538.193	430.156	-0.085	-0.185
-537.179	78.518	0.117	0.126
-536.164	-200.000	-0.016	-0.208
-535.150	-50.719	-0.107	0.050
-534.135	98.012	0.259	0.299
-533.121	-49.073	-0.223	0.107
-532.106	-200.000	-0.035	0.231
-531.091	-200.000	0.010	0.157
-530.077	-34.519	0.261	0.144
-529.062	72.763	-0.267	0.280
-528.048	-198.335	0.135	0.001
-527.033	-200.000	-0.035	-0.174
-526.018	134.950	-0.103	0.134
-525.004	-59.726	-0.380	0.163
-523.989	-131.532	0.031	0.004
-522.975	111.785	0.033	0.039
-521.960	61.693	-0.233	0.232
-520.945	800.000	-0.018	-0.057
-519.931	-129.649	-0.175	0.024
-518.916	380.915	-0.100	0.206
-517.902	-144.974	0.105	-0.010
-516.887	98.468	-0.178	-0.205
-515.872	-32.526	-0.237	0.133
-514.858	98.852	-0.173	0.200
-513.843	800.000	0.111	-0.484
-512.829	-102.160	-0.284	0.069
-511.814	-160.059	0.262	0.014
-510.799	800.000	0.051	0.202
-509.785	-15.569	-0.167	0.107
-508.770	149.249	-0.342	0.464
-507.756	-155.513	-0.282	-0.018
-506.741	71.164	-0.074	-0.077
-505.726	-97.649	-0.276	0.072
-504.712	-98.744	-0.154	0.039
-503.697	501.075	0.110	0.254
-502.683	-66.725	0.148	-0.059
-501.668	165.664	-0.179	-0.254
-500.653	-15.129	-0.287	-0.184
-499.639	-137.820	0.197	-0.022
-498.624	41.224	-0.247	0.224
-497.610	27.121	-0.134	-0.113
-496.595	800.000	0.104	0.349
-495.581	103.893	0.219	-0.258
-494.566	6.636	0.057	-0.042
-493.551	-113.664	0.291	0.057
-492.537	420.460	-0.038	-0.082
-491.522	-129.429	-0.196	0.027
-490.508	-56.781	0.117	-0.052
-489.493	-200.000	-0.011	0.201
-488.478	19.182	0.114	0.092
-487.464	800.000	-0.119	-0.398
-486.449	-101.118	0.279	-0.069
-485.435	300.374	0.127	0.234
-484.420	800.000	-0.124	0.366
-483.405	-30.971	-0.220	-0.124
-482.391	-20.076	-0.306	-0.189
-481.376	63.322	-0.057	0.057
-480.362	136.411	0.203	-0.265
-479.347	-36.970	0.093	-0.050
-478.332	-135.610	0.152	-0.018
-477.318	-51.496	0.135	0.063
-476.303	800.000	0.049	0.184
-475.289	-179.520	0.300	0.007
-474.274	145.169	-0.199	-0.267
-473.259	-172.813	-0.130	0.004
-472.245	-36.760	0.191	0.103
-471.230	-76.677	-0.256	0.090
-470.216	130.189	-0.386	-0.495
-469.201	98.063	-0.221	-0.255
-468.186	-77.946	0.284	0.098
-467.172	-166.694	0.323	0.013
-466.157	-19.919	0.138	0.085
-465.143	-92.003	-0.118	-0.033
-464.128	37.031	-0.096	-0.085
-463.113	-200.000	0.012	-0.105
-462.099	389.162	-0.073	0.152
-461.084	98.680	0.121	-0.139
-460.070	800.000	-0.072	-0.232
-459.055	-131.395	-0.062	0.008
-458.040	21.317	0.194	0.158
-457.026	240.740	0.137	0.228
-456.011	-200.000	0.061	-0.459
-454.997	185.489	-0.045	-0.067
-453.982	723.193	-0.023	0.060
-452.968	-33.256	-0.257	0.142
-451.953	178.851	0.303	0.443
-450.938	-128.836	-0.498	0.070
-449.924	102.536	-0.064	-0.074
-448.909	-117.006	-0.267	0.049
-447.895	800.000	-0.066	0.240
-446.880	-200.000	0.065	-0.343
-445.865	-200.000	-0.034	-0.351
-444.851	-56.515	0.203	-0.090
-443.836	377.449	0.108	0.220
-442.822	-200.000	-0.024	0.405
-441.807	800.000	-0.049	0.149
-440.792	-107.836	0.221	0.048
-439.778	67.479	0.107	-0.110
-438.763	111.941	-0.115	0.139
-437.749	-80.556	-0.450	0.150
-436.734	-75.086	-0.172	-0.062
-435.719	-78.291	0.219	-0.075
-434.705	100.036	0.091	0.105
-433.690	165.288	-0.266	0.376
-432.676	109.233	-0.079	0.095
-431.661	-1.451	0.176	-0.124
-430.646	51.197	-0.153	0.145
-429.632	-172.163	-0.105	-0.003
-428.617	-146.593	0.270	-0.023
-427.603	800.000	-0.035	-0.123
-426.588	355.411	0.060	-0.120
-425.573	-63.441	-0.293	0.120
-424.559	800.000	0.045	-0.132
-423.544	-111.155	0.310	0.064
-422.530	800.000	0.043	0.132
-421.515	-200.000	-0.035	-0.265
-420.500	-200.000	0.008	-0.222
-419.486	195.222	0.081	-0.124
-418.471	-200.000	-0.030	0.241
-417.457	54.823	-0.129	-0.124
-416.442	5.446	0.263	-0.194
-415.428	800.000	-0.094	-0.327
-414.413	-73.973	-0.310	0.112
-413.398	-13.178	0.186	0.120
-412.384	-200.000	0.053	-0.380
-411.369	45.418	0.082	-0.075
-410.355	-90.415	-0.059	-0.017
-409.340	-114.067	0.266	0.052
-408.325	-148.032	-0.200	-0.017
-407.311	-55.875	-0.093	0.041
-406.296	26.007	0.255	0.212
-405.282	-17.370	-0.133	0.084
-404.267	-200.000	0.014	0.363
-403.252	-4.650	0.368	0.254
-402.238	7.358	0.281	-0.210
-401.223	-200.000	0.035	0.177
-400.209	52.664	-0.058	-0.055
-399.194	-136.934	-0.395	-0.045
-398.179	-76.791	-0.078	-0.027
-397.165	-116.710	-0.233	0.043
-396.150	-58.222	0.215	-0.094
-395.136	800.000	0.081	-0.248
-394.121	-200.000	-0.000	-0.029
-393.106	800.000	0.054	-0.162
-392.092	-200.000	-0.012	0.106
-391.077	43.021	-0.218	0.198
-390.063	-43.984	-0.182	-0.091
-389.048	-69.290	0.097	-0.037
-388.033	-59.801	0.100	0.043
-387.019	70.954	-0.100	-0.103
-386.004	-97.306	-0.341	0.089
-384.990	800.000	-0.026	0.076
-383.975	-91.909	-0.208	-0.059
-382.960	317.251	-0.059	0.111
-381.946	488.593	-0.147	0.335
-380.931	-27.749	-0.226	0.131
-379.917	-6.384	-0.323	-0.220
-378.902	-200.000	0.039	0.187
-377.888	-77.598	0.150	-0.052
-376.873	-119.065	0.207	-0.036
-375.858	433.629	-0.168	-0.364
-374.844	-5.209	-0.040	0.027
-373.829	-67.320	0.157	-0.062
-372.815	-200.000	0.008	-0.075
-371.800	-200.000	0.007	0.264
-370.785	-200.000	0.018	0.094
-369.771	-200.000	0.072	0.434
-368.756	-19.982	0.224	-0.138
-367.742	-73.197	0.181	0.066
-366.727	215.681	0.071	-0.112
-365.712	90.412	0.087	0.097
-364.698	800.000	0.084	-0.286
-363.683	-142.296	-0.107	0.011
-362.669	212.018	0.284	-0.446
-361.654	-200.000	0.036	-0.253
-360.639	29.942	0.132	-0.112
-359.625	389.298	0.114	0.236
-358.610	249.663	-0.064	-0.109
-357.596	97.224	0.174	-0.199
-356.581	-134.292	-0.395	0.048
-355.566	62.608	-0.164	0.163
-354.552	-101.620	-0.078	-0.019
-353.537	-73.108	0.330	-0.121
-352.523	-72.387	0.393	0.145
-351.508	800.000	0.082	0.256
-350.493	-15.336	-0.399	0.254
-349.479	9.373	-0.238	-0.179
-348.464	-109.496	0.344	-0.072
-347.450	-158.222	0.284	0.017
-346.435	-104.559	0.067	0.015
-345.420	61.331	0.104	0.103
-344.406	-94.953	-0.287	0.077
-343.391	-171.430	-0.189	0.006
-342.377	309.832	-0.097	0.182
-341.362	62.115	0.034	-0.034
-340.348	-142.944	-0.152	-0.015
-339.333	-106.887	-0.194	-0.043
-338.318	-200.000	0.026	-0.199
-337.304	293.813	-0.116	0.211
-336.289	-21.551	0.078	0.047
-335.275	437.134	0.180	-0.390
-334.260	86.995	-0.207	-0.228
-333.245	341.309	-0.147	0.286
-332.231	112.270	0.021	-0.025
-331.216	-200.000	-0.029	-0.182
-330.202	50.602	0.035	0.033
-329.187	66.167	0.021	-0.021
-328.172	1.216	0.273	-0.195
-327.158	-200.000	-0.003	0.120
-326.143	-136.276	0.293	-0.034
-325.129	-71.555	0.256	-0.095
-324.114	153.052	-0.151	0.206
-323.099	609.257	-0.129	-0.320
-322.085	101.938	0.245	-0.285
-321.070	-86.696	-0.258	0.079
-320.056	-5.980	-0.226	0.154
-319.041	121.668	0.207	0.256
-318.026	800.000	-0.116	0.402
-317.012	744.122	0.055	-0.146
-315.997	187.850	0.105	0.156
-314.983	-174.773	-0.276	0.008
-313.968	20.491	0.292	-0.235
-312.953	179.674	-0.146	0.213
-311.939	-25.716	0.166	0.097
-310.924	-92.393	-0.123	-0.034
-309.910	422.570	0.055	0.118
-308.895	-200.000	0.305	0.001
-307.880	-51.187	0.243	0.113
-306.866	-96.119	0.273	-0.072
-305.851	800.000	-0.113	-0.429
-304.837	-200.000	-0.014	0.119
-303.822	-39.882	0.068	-0.035
-302.807	-87.599	0.333	0.100
-301.793	10.389	0.145	-0.110
-300.778	-90.773	-0.237	-0.068
-299.764	417.751	0.250	0.531
-298.749	-86.429	-0.280	-0.085
-297.735	-78.039	-0.340	0.116
-296.720	-108.317	0.108	-0.023
-295.705	-200.000	0.020	-0.093
-294.691	-72.130	-0.124	-0.046
-293.676	-200.000	-0.031	0.159
-292.662	432.026	0.044	-0.095
-291.647	149.085	-0.084	0.112
-290.632	-46.335	-0.382	-0.186
-289.618	-200.000	-0.070	-0.353
-288.603	-77.365	0.340	0.118
-287.589	234.085	-0.112	0.183
-286.574	-200.000	-0.001	0.268
-285.559	-144.608	-0.503	-0.046
-284.545	-119.239	0.324	0.056
-283.530	-59.555	0.104	-0.044
-282.516	-158.805	-0.010	-0.001
-281.501	115.040	-0.184	0.223
-280.486	800.000	0.063	0.192
-279.472	800.000	0.041	0.130
-278.457	81.234	-0.182	0.195
-277.443	606.878	0.140	0.346
-276.428	-200.000	-0.021	0.153
-275.413	-143.742	0.243	-0.023
-274.399	-27.817	0.110	0.063
-273.384	95.563	0.063	0.071
-272.370	-200.000	0.017	0.311
-271.355	-196.922	-0.120	0.001
-270.340	-40.847	-0.359	-0.185
-269.326	97.554	0.233	-0.266
-268.311	-72.127	-0.198	-0.073
-267.297	-200.000	0.005	-0.083
-266.282	325.310	0.103	0.196
-265.267	103.411	0.143	0.167
-264.253	95.141	-0.056	0.064
-263.238	-118.006	0.094	0.017
-262.224	800.000	0.016	-0.050
-261.209	800.000	-0.104	0.331
-260.195	236.936	0.165	0.271
-259.180	-10.998	0.100	0.065
-258.165	173.338	0.165	0.236
-257.151	-31.365	-0.121	0.067
-256.136	37.178	-0.183	-0.160
-255.122	19.326	0.300	-0.239
-254.107	101.344	-0.139	0.160
-253.092	138.110	0.132	-0.172
-252.078	-108.220	-0.111	0.024
-251.063	-40.054	0.225	-0.117
-250.049	37.066	-0.143	-0.125
-249.034	-132.208	-0.150	-0.019
-248.019	383.071	-0.106	-0.216
-247.005	-112.942	0.294	-0.058
-245.990	130.803	0.262	0.334
-244.976	517.890	-0.087	-0.201
-243.961	800.000	-0.046	0.180
-242.946	-122.477	0.303	0.049
-241.932	-12.863	0.107	0.069
-240.917	-57.947	0.331	0.143
-239.903	800.000	-0.073	0.263
-238.888	-62.233	-0.102	0.042
-237.873	-200.000	-0.038	0.234
-236.859	2.589	0.146	-0.105
-235.844	-79.781	-0.135	-0.045
-234.830	60.091	-0.281	-0.275
-233.815	800.000	-0.113	0.343
-232.800	150.062	0.104	-0.139
-231.786	800.000	0.040	0.174
-230.771	800.000	0.037	0.133
-229.757	-66.504	0.238	0.094
-228.742	-55.561	-0.027	0.012
-227.727	74.706	0.189	0.197
-226.713	73.437	0.086	-0.089
-225.698	800.000	-0.074	0.229
-224.684	17.626	0.353	-0.279
-223.669	32.063	-0.406	0.347
-222.655	182.482	-0.046	-0.067
-221.640	140.320	-0.083	-0.109
-220.625	-7.541	-0.141	-0.094
-219.611	-116.849	0.276	-0.050
-218.596	-29.504	0.113	0.064
-217.582	165.155	-0.215	-0.301
-216.567	588.073	-0.231	0.565
-215.552	-156.675	-0.140	-0.009
-214.538	-200.000	0.002	-0.076
-213.523	-200.000	0.198	-0.000
-212.509	-200.000	0.024	0.396
-211.494	23.809	-0.247	-0.201
-210.479	292.292	-0.051	-0.091
-209.465	-27.588	-0.205	0.118
-208.450	38.577	-0.081	0.072
-207.436	-71.468	0.267	0.099
-206.421	-113.348	-0.206	0.040
-205.406	-25.091	0.276	-0.162
-204.392	-200.000	0.022	-0.131
-203.377	100.660	0.241	-0.277
-202.363	431.604	0.192	0.412
-201.348	49.698	-0.127	-0.118
-200.333	-166.653	0.214	0.009
-199.319	242.266	0.205	-0.340
-198.304	-10.524	-0.372	-0.244
-197.290	23.473	-0.075	0.061
-196.275	-58.923	-0.030	0.013
-195.260	489.006	0.040	-0.090
-194.246	-200.000	0.136	-0.628
-193.231	0.978	0.175	0.125
-192.217	34.682	-0.027	0.024
-191.202	-200.000	-0.060	-0.397
-190.187	176.715	-0.145	0.208
-189.173	137.301	0.029	-0.038
-188.158	-200.000	-0.018	-0.185
-187.144	-118.253	0.338	-0.060
-186.129	-36.139	0.283	0.151
-185.114	72.287	-0.202	0.209
-184.100	800.000	-0.115	-0.335
-183.085	795.539	0.060	0.163
-182.071	800.000	0.062	-0.255
-181.056	-200.000	-0.006	0.266
-180.042	-200.000	-0.007	0.396
-179.027	339.742	0.101	-0.194
-178.012	45.126	-0.359	-0.328
-176.998	43.233	0.212	0.192
-175.983	174.882	-0.087	0.124
-174.969	-200.000	-0.031	-0.596
-173.954	247.822	0.046	0.077
-172.939	121.319	0.026	0.031
-171.925	-94.859	0.070	0.019
-170.910	-118.221	-0.023	-0.004
-169.896	800.000	-0.046	-0.156
-168.881	28.533	0.222	0.185
-167.866	121.368	-0.068	-0.083
-166.852	-13.122	0.181	-0.117
-165.837	-148.304	0.158	-0.013
-164.823	-101.418	0.182	-0.044
-163.808	-59.330	0.197	0.084
-162.793	800.000	-0.031	-0.111
-161.779	-200.000	-0.025	0.120
-160.764	28.542	0.073	0.061
-159.750	478.982	0.088	0.197
-158.735	-200.000	0.071	0.406
-157.720	126.553	0.153	-0.192
-156.706	102.765	-0.133	0.153
-155.691	-27.933	-0.250	-0.143
-154.677	23.335	-0.058	0.047
-153.662	-146.085	0.100	-0.009
-152.647	-20.606	-0.300	-0.182
-151.633	-119.061	-0.173	0.030
-150.618	-105.662	-0.215	0.048
-149.604	-79.944	-0.131	0.044
-148.589	105.503	-0.179	0.209
-147.574	369.081	-0.045	0.090
-146.560	-200.000	0.028	-0.204
-145.545	-20.495	-0.240	0.146
-144.531	6.056	-0.117	0.086
-143.516	130.977	0.252	0.320
-142.502	499.092	-0.069	-0.156
-141.487	-200.000	0.120	-0.559
-140.472	366.126	-0.079	0.158
-139.458	79.356	-0.197	0.209
-138.443	-200.000	-0.023	0.219
-137.429	89.852	-0.081	-0.090
-136.414	-1.200	-0.061	-0.043
-135.399	-117.581	-0.201	0.036
-134.385	-200.000	0.021	0.124
-133.370	-123.052	0.212	0.034
-132.356	-76.670	-0.200	-0.069
-131.341	800.000	-0.049	0.182
-130.326	-92.214	-0.183	-0.051
-129.312	-70.633	0.150	-0.056
-128.297	800.000	0.024	-0.094
-127.283	635.692	0.147	0.368
-126.268	420.316	-0.120	0.255
-125.253	-13.948	0.126	0.080
-124.239	106.849	-0.086	0.100
-123.224	-62.269	-0.247	-0.102
-122.210	16.898	-0.318	-0.248
