DTS Sentinel unit serial number:	SN413079Multiplexer serial number:	ORYXHardware model number:	OX4-SRSoftware version number:	ORYX F/W v4.00 Oryx Data Collector v3.7.2.0data status	okinstallation	princeton_trtdifferential loss correction	single-endedforward channel	channel 1reverse channel	N/Adate	2019/09/11time	18:04:11forward acquisition time	60.00reverse acquisition time	0.00gamma	496.2192k internal	0.2291k external	0.2291temperature offset calibration	1.0000default loss term (dB/km)	0.3790temperature slope calibration	1.0000multiplexer offset coefficient	1.0000multiplexer slope coefficient	1.0000fibre end	0.00T internal ref (°C)	44.03T ext. ref 1 (°C)	1.15T ext. ref 2 (°C)	39.03length (m)	temperature (°C)	Stokes	anti-Stokes-747.200	79.615	-0.149	-0.164
-746.185	-200.000	0.016	0.340
-745.171	-200.000	-0.009	0.115
-744.156	-183.450	-0.225	0.004
-743.142	155.155	0.192	0.270
-742.127	-61.343	0.286	0.123
-741.112	241.191	0.074	0.126
-740.098	-104.142	0.062	0.015
-739.083	243.643	-0.066	-0.114
-738.069	669.857	0.112	0.297
-737.054	-110.159	-0.253	0.054
-736.039	51.245	-0.137	0.133
-735.025	-28.314	0.505	-0.299
-734.010	642.266	0.051	-0.133
-732.996	-2.955	0.140	0.100
-731.981	800.000	-0.053	-0.167
-730.966	-101.048	0.259	0.065
-729.952	800.000	-0.060	-0.191
-728.937	-200.000	-0.017	-0.295
-727.923	-66.740	-0.170	-0.069
-726.908	-129.635	-0.181	0.026
-725.894	65.851	0.167	0.173
-724.879	-200.000	-0.037	-0.227
-723.864	118.933	0.024	0.031
-722.850	107.577	-0.089	0.108
-721.835	-200.000	-0.033	0.185
-720.821	-200.000	0.035	-0.331
-719.806	105.348	-0.173	-0.209
-718.791	14.110	0.218	-0.174
-717.777	-122.608	-0.328	0.054
-716.762	246.829	-0.059	-0.102
-715.748	800.000	0.078	-0.267
-714.733	-66.073	-0.150	0.061
-713.718	259.916	0.114	0.201
-712.704	-200.000	0.069	-0.317
-711.689	250.063	-0.138	-0.240
-710.675	-23.139	0.046	-0.028
-709.660	113.995	0.104	-0.129
-708.645	800.000	-0.011	0.039
-707.631	-200.000	-0.033	-0.159
-706.616	511.660	-0.076	-0.181
-705.602	-111.257	-0.062	0.013
-704.587	-142.424	-0.273	-0.028
-703.572	800.000	-0.041	-0.134
-702.558	800.000	0.026	-0.096
-701.543	173.160	-0.072	0.106
-700.529	-102.060	-0.079	-0.019
-699.514	-75.490	-0.086	-0.031
-698.499	10.164	0.045	-0.035
-697.485	93.445	0.212	0.245
-696.470	-62.534	-0.076	0.032
-695.456	274.306	-0.220	0.398
-694.441	-200.000	0.092	0.428
-693.426	-9.277	0.173	-0.118
-692.412	-200.000	0.043	0.308
-691.397	-40.767	-0.144	-0.076
-690.383	-200.000	-0.071	0.435
-689.368	644.763	0.108	-0.281
-688.354	-118.153	-0.248	-0.045
-687.339	-153.896	-0.219	0.015
-686.324	-170.474	-0.052	0.002
-685.310	-41.282	0.156	0.082
-684.295	205.478	0.160	0.254
-683.281	723.429	-0.155	-0.423
-682.266	-81.537	-0.112	-0.038
-681.251	-33.168	-0.369	0.209
-680.237	76.533	0.028	-0.031
-679.222	-82.085	0.109	-0.036
-678.208	797.362	-0.069	0.194
-677.193	-200.000	-0.027	0.148
-676.178	239.608	0.040	0.069
-675.164	-53.744	-0.242	0.113
-674.149	-92.312	0.300	0.086
-673.135	141.915	-0.039	0.053
-672.120	34.572	-0.303	-0.270
-671.105	-41.490	-0.166	-0.087
-670.091	-15.911	-0.294	-0.191
-669.076	-63.860	0.160	0.067
-668.062	-97.344	-0.274	-0.073
-667.047	-125.660	0.366	0.057
-666.032	276.620	-0.111	0.202
-665.018	-111.492	0.173	-0.036
-664.003	125.424	-0.109	0.141
-662.989	-3.210	-0.308	0.219
-661.974	-154.026	-0.187	-0.013
-660.959	325.415	-0.228	-0.445
-659.945	171.680	-0.216	-0.317
-658.930	-200.000	-0.007	-0.280
-657.916	-147.793	0.343	0.029
-656.901	303.397	0.110	-0.208
-655.886	-200.000	0.011	-0.200
-654.872	172.215	-0.086	-0.126
-653.857	37.217	-0.111	0.100
-652.843	-45.424	-0.259	0.131
-651.828	157.661	-0.084	-0.119
-650.814	287.248	-0.192	0.354
-649.799	-177.925	-0.337	-0.008
-648.784	491.267	-0.094	-0.220
-647.770	-200.000	-0.056	-0.320
-646.755	-200.000	-0.004	0.237
-645.741	112.028	0.114	-0.141
-644.726	-74.637	-0.400	0.147
-643.711	348.094	-0.036	-0.072
-642.697	124.129	-0.068	0.087
-641.682	272.982	-0.103	-0.185
-640.668	-26.442	-0.174	0.104
-639.653	21.757	0.122	0.101
-638.638	800.000	0.055	0.218
-637.624	-89.202	0.402	-0.121
-636.609	322.681	0.143	0.277
-635.595	-106.519	-0.020	0.005
-634.580	-200.000	0.009	-0.170
-633.565	-23.653	-0.223	-0.136
-632.551	-66.797	-0.222	0.090
-631.536	-73.868	0.143	0.053
-630.522	-200.000	-0.022	-0.259
-629.507	-45.933	-0.213	0.107
-628.492	800.000	0.038	0.161
-627.478	15.529	-0.063	-0.050
-626.463	634.698	0.049	-0.127
-625.449	-30.746	-0.399	-0.230
-624.434	-200.000	-0.002	0.023
-623.419	35.787	-0.047	-0.042
-622.405	-74.374	-0.233	0.086
-621.390	-200.000	0.039	0.230
-620.376	44.447	0.323	0.302
-619.361	67.884	0.182	-0.190
-618.346	128.064	-0.176	-0.228
-617.332	297.733	0.098	-0.184
-616.317	125.894	-0.186	0.239
-615.303	-59.284	0.256	0.112
-614.288	-200.000	-0.022	0.218
-613.273	-126.175	0.469	0.072
-612.259	-33.766	-0.274	-0.154
-611.244	28.133	-0.120	-0.103
-610.230	-71.830	0.609	-0.231
-609.215	-200.000	-0.013	-0.085
-608.201	-120.498	-0.184	0.032
-607.186	-77.925	0.172	-0.060
-606.171	-98.407	-0.095	0.025
-605.157	-58.046	-0.222	0.099
-604.142	12.376	-0.167	-0.131
-603.128	-200.000	-0.002	-0.010
-602.113	74.823	0.039	0.042
-601.098	-148.653	0.126	-0.010
-600.084	235.840	-0.046	-0.077
-599.069	-200.000	0.025	0.213
-598.055	-15.006	-0.082	0.054
-597.040	-3.845	-0.104	-0.074
-596.025	156.579	-0.045	-0.063
-595.011	17.623	-0.133	-0.108
-593.996	705.001	-0.060	0.162
-592.982	331.863	-0.022	-0.044
-591.967	27.363	0.072	-0.061
-590.952	-113.123	0.097	-0.019
-589.938	155.643	0.178	-0.249
-588.923	-42.455	-0.069	0.036
-587.909	800.000	0.024	-0.086
-586.894	-77.771	0.118	0.041
-585.879	800.000	0.087	-0.333
-584.865	-27.052	0.098	-0.058
-583.850	-200.000	0.018	-0.103
-582.836	-200.000	0.083	-0.525
-581.821	85.148	-0.120	-0.134
-580.806	-36.193	0.118	-0.065
-579.792	106.763	0.046	-0.055
-578.777	621.914	0.148	-0.379
-577.763	-27.047	-0.081	-0.048
-576.748	-156.372	-0.111	0.007
-575.733	-181.355	0.193	0.004
-574.719	3.887	-0.239	-0.178
-573.704	386.092	-0.118	0.248
-572.690	-105.731	0.102	-0.024
-571.675	-50.434	-0.068	-0.033
-570.661	29.890	-0.263	-0.228
-569.646	-200.000	0.016	-0.166
-568.631	1.172	0.126	0.092
-567.617	76.998	-0.281	0.303
-566.602	-200.000	0.071	0.400
-565.588	4.287	0.299	0.223
-564.573	-25.831	0.180	-0.108
-563.558	800.000	-0.093	-0.370
-562.544	-100.165	0.156	0.040
-561.529	-160.660	-0.115	0.006
-560.515	647.123	-0.113	-0.293
-559.500	-102.050	-0.091	-0.022
-558.485	-46.680	0.218	-0.109
-557.471	-135.415	-0.243	0.030
-556.456	-163.784	-0.088	-0.004
-555.442	-184.800	-0.192	-0.003
-554.427	-144.325	-0.311	-0.029
-553.412	-81.795	-0.223	-0.074
-552.398	-63.113	-0.376	0.158
-551.383	-158.707	0.392	-0.023
-550.369	66.266	0.101	0.104
-549.354	-200.000	0.007	0.294
-548.339	-154.792	0.111	-0.007
-547.325	800.000	-0.017	-0.057
-546.310	42.364	0.174	-0.161
-545.296	-200.000	0.004	-0.030
-544.281	52.332	-0.179	0.173
-543.266	302.138	0.157	-0.295
-542.252	-134.648	0.424	-0.052
-541.237	171.684	-0.171	0.250
-540.223	-78.339	0.263	0.092
-539.208	-0.468	0.419	-0.302
-538.193	-86.975	-0.156	0.048
-537.179	107.537	-0.226	0.274
-536.164	242.269	-0.211	0.359
-535.150	-200.000	0.002	0.164
-534.135	174.731	-0.111	-0.164
-533.121	82.852	0.168	0.186
-532.106	-200.000	0.020	-0.440
-531.091	800.000	-0.088	0.291
-530.077	-121.316	-0.134	0.023
-529.062	-158.365	-0.221	0.013
-528.048	-63.800	-0.412	0.171
-527.033	-173.546	0.054	-0.002
-526.018	800.000	0.092	-0.391
-525.004	-41.718	0.317	0.165
-523.989	182.275	-0.154	-0.231
-522.975	119.580	0.167	-0.209
-521.960	-200.000	-0.018	-0.332
-520.945	800.000	0.097	-0.302
-519.931	-18.481	0.265	-0.168
-518.916	-65.464	-0.383	0.156
-517.902	488.601	0.141	0.327
-516.887	-17.495	0.075	-0.048
-515.872	800.000	-0.114	0.323
-514.858	178.650	-0.010	-0.015
-513.843	125.430	0.085	0.109
-512.829	346.869	-0.079	0.158
-511.814	-134.334	0.253	0.032
-510.799	-200.000	0.020	0.115
-509.785	-115.053	-0.010	0.002
-508.770	-127.808	0.253	-0.037
-507.756	195.469	-0.176	0.271
-506.741	-200.000	-0.002	0.206
-505.726	732.069	0.107	0.290
-504.712	-32.323	0.143	-0.081
-503.697	-73.721	0.223	0.082
-502.683	792.001	-0.055	-0.154
-501.668	-200.000	-0.045	-0.000
-500.653	800.000	-0.141	-0.405
-499.639	416.212	-0.103	-0.223
-498.624	86.169	0.090	-0.101
-497.610	-200.000	-0.055	-0.329
-496.595	38.633	0.207	-0.187
-495.581	-66.604	-0.306	-0.123
-494.566	800.000	-0.011	-0.035
-493.551	227.375	0.173	0.286
-492.537	-57.725	-0.262	-0.116
-491.522	158.058	0.053	0.075
-490.508	-47.003	0.320	-0.158
-489.493	339.200	-0.051	-0.101
-488.478	800.000	0.030	-0.108
-487.464	188.514	-0.126	0.190
-486.449	264.191	-0.086	-0.151
-485.435	238.284	-0.016	-0.026
-484.420	-144.198	0.014	0.001
-483.405	-200.000	0.004	-0.264
-482.391	250.120	0.170	-0.292
-481.376	14.711	0.141	0.112
-480.362	800.000	-0.066	-0.224
-479.347	90.944	-0.126	-0.143
-478.332	-200.000	-0.067	-0.319
-477.318	399.395	0.118	0.251
-476.303	90.749	-0.227	0.258
-475.289	114.382	-0.148	0.183
-474.274	81.720	0.297	-0.326
-473.259	594.601	0.079	-0.197
-472.245	-9.824	-0.042	0.028
-471.230	101.442	-0.305	0.360
-470.216	-200.000	-0.086	0.425
-469.201	8.170	-0.141	0.107
-468.186	86.317	-0.275	-0.307
-467.172	169.378	0.121	-0.174
-466.157	-64.443	-0.250	0.103
-465.143	130.499	0.031	-0.041
-464.128	-200.000	0.006	0.349
-463.113	-200.000	0.013	0.265
-462.099	-152.664	0.127	-0.009
-461.084	-200.000	-0.000	-0.030
-460.070	-49.264	-0.023	-0.011
-459.055	135.636	-0.096	-0.126
-458.040	342.797	0.135	0.268
-457.026	-65.937	0.162	0.066
-456.011	-200.000	0.021	-0.113
-454.997	-65.740	0.142	0.057
-453.982	-21.558	-0.248	-0.153
-452.968	-187.622	-0.270	-0.004
-451.953	24.669	0.067	0.056
-450.938	-152.157	-0.369	-0.027
-449.924	-200.000	-0.019	-0.086
-448.909	-200.000	-0.010	0.555
-447.895	-200.000	0.005	-0.117
-446.880	19.350	0.177	-0.144
-445.865	27.290	0.323	0.275
-444.851	-200.000	0.012	0.100
-443.836	-34.936	-0.143	-0.079
-442.822	-200.000	-0.013	-0.220
-441.807	-200.000	-0.023	-0.166
-440.792	-64.652	-0.080	0.033
-439.778	-200.000	0.062	0.282
-438.763	160.135	0.228	0.322
-437.749	-200.000	0.003	0.170
-436.734	-46.365	-0.245	0.122
-435.719	-43.410	-0.397	-0.203
-434.705	116.786	0.198	-0.246
-433.690	-168.252	0.470	-0.018
-432.676	-200.000	-0.133	0.000
-431.661	-62.051	0.215	0.091
-430.646	-62.900	0.164	-0.068
-429.632	25.580	0.204	-0.172
-428.617	396.109	0.091	0.192
-427.603	-67.515	0.119	-0.047
-426.588	-200.000	0.011	0.192
-425.573	41.787	0.043	-0.039
-424.559	-17.373	0.056	0.035
-423.544	800.000	-0.022	-0.065
-422.530	65.861	-0.294	0.301
-421.515	-133.291	-0.443	0.057
-420.500	12.367	0.071	-0.055
-419.486	-36.062	0.163	0.089
-418.471	-89.254	-0.183	0.055
-417.457	26.874	0.113	-0.096
-416.442	45.616	-0.243	-0.227
-415.428	-200.000	-0.027	-0.235
-414.413	-200.000	0.016	-0.075
-413.398	-100.439	0.117	-0.029
-412.384	110.208	0.316	0.384
-411.369	482.857	0.175	0.402
-410.355	428.178	-0.078	0.169
-409.340	73.490	-0.086	0.091
-408.325	-91.908	0.312	-0.090
-407.311	48.895	-0.055	0.053
-406.296	108.987	0.029	-0.035
-405.282	260.657	0.130	0.227
-404.267	-200.000	0.066	0.329
-403.252	-114.159	0.157	-0.031
-402.238	800.000	-0.065	0.282
-401.223	1.329	-0.208	-0.151
-400.209	-101.064	0.291	0.072
-399.194	-110.755	0.524	-0.109
-398.179	800.000	0.048	-0.188
-397.165	233.822	0.131	0.218
-396.150	-126.821	-0.200	-0.030
-395.136	194.027	0.114	-0.174
-394.121	-200.000	0.011	-0.078
-393.106	405.430	0.125	-0.267
-392.092	289.429	0.090	0.165
-391.077	599.331	-0.160	0.401
-390.063	-7.382	-0.121	-0.083
-389.048	-83.737	-0.076	-0.025
-388.033	146.294	0.048	-0.065
-387.019	-200.000	0.055	0.346
-386.004	-27.325	0.216	-0.127
-384.990	69.327	-0.371	0.386
-383.975	-48.828	-0.145	-0.070
-382.960	15.252	-0.325	-0.257
-381.946	800.000	-0.056	-0.188
-380.931	159.392	0.286	-0.402
-379.917	-90.707	-0.236	-0.069
-378.902	-200.000	-0.008	0.044
-377.888	-86.851	-0.175	0.054
-376.873	-2.553	-0.393	0.278
-375.858	-200.000	-0.020	0.244
-374.844	24.247	-0.111	-0.092
-373.829	-71.142	-0.348	-0.132
-372.815	-127.329	-0.259	0.038
-371.800	-172.091	-0.198	-0.006
-370.785	49.950	0.157	-0.150
-369.771	88.301	-0.224	0.251
-368.756	-131.381	0.113	0.015
-367.742	-101.381	0.102	-0.025
-366.727	-147.798	-0.230	-0.019
-365.712	-105.529	0.063	0.014
-364.698	-111.101	0.260	-0.054
-363.683	-42.773	0.093	-0.048
-362.669	-48.914	0.248	0.120
-361.654	-41.758	-0.132	0.068
-360.639	345.366	-0.068	0.134
-359.625	385.820	0.138	-0.288
-358.610	546.822	-0.080	-0.194
-357.596	294.271	-0.017	0.032
-356.581	-200.000	-0.069	0.409
-355.566	271.978	-0.098	0.174
-354.552	-200.000	0.076	-0.349
-353.537	-200.000	0.019	-0.088
-352.523	171.947	-0.185	-0.268
-351.508	-169.520	0.155	-0.006
-350.493	-200.000	0.027	0.291
-349.479	800.000	0.092	0.307
-348.464	-103.352	0.157	-0.037
-347.450	-126.245	-0.235	0.035
-346.435	-200.000	0.011	0.063
-345.420	-200.000	-0.029	-0.258
-344.406	-55.177	-0.180	-0.082
-343.391	-189.812	-0.083	-0.001
-342.377	-89.643	0.126	0.037
-341.362	-98.594	0.059	0.015
-340.348	-200.000	0.023	0.209
-339.333	280.601	-0.233	0.421
-338.318	-26.427	0.102	0.060
-337.304	-40.363	-0.277	0.145
-336.289	800.000	-0.039	-0.161
-335.275	800.000	0.093	0.264
-334.260	-200.000	0.016	-0.245
-333.245	-44.086	0.275	0.139
-332.231	800.000	0.062	-0.256
-331.216	151.683	-0.109	-0.150
-330.202	-134.342	-0.177	0.022
-329.187	-149.602	0.094	0.008
-328.172	-200.000	0.045	0.330
-327.158	800.000	0.028	-0.091
-326.143	-85.126	0.493	-0.156
-325.129	458.627	-0.201	0.451
-324.114	134.770	-0.023	0.030
-323.099	-154.795	-0.083	-0.006
-322.085	92.445	0.055	-0.062
-321.070	-200.000	0.015	0.137
-320.056	315.402	0.073	0.139
-319.041	-28.655	-0.249	0.144
-318.026	-200.000	0.034	0.163
-317.012	55.594	-0.108	0.105
-315.997	-200.000	-0.018	0.190
-314.983	-200.000	-0.020	-0.126
-313.968	-88.808	0.273	0.082
-312.953	-200.000	-0.021	-0.180
-311.939	800.000	-0.040	-0.146
-310.924	-48.960	0.364	0.176
-309.910	-200.000	0.031	-0.292
-308.895	-102.674	0.265	0.064
-307.880	800.000	0.078	0.297
-306.866	-60.701	0.080	-0.034
-305.851	-67.990	-0.239	-0.094
-304.837	-95.206	-0.156	-0.042
-303.822	800.000	-0.052	0.160
-302.807	-92.707	-0.237	0.067
-301.793	800.000	0.084	0.252
-300.778	60.372	0.199	-0.199
-299.764	-108.161	-0.245	-0.053
-298.749	693.382	-0.057	0.149
-297.735	11.398	-0.188	0.145
-296.720	-200.000	0.027	0.000
-295.705	-120.780	-0.062	-0.011
-294.691	800.000	-0.123	0.386
-293.676	96.371	0.201	-0.232
-292.662	126.191	0.156	-0.198
-291.647	741.881	0.112	-0.302
-290.632	-68.362	0.124	0.048
-289.618	-162.252	0.278	0.014
-288.603	-200.000	-0.075	-0.371
-287.589	97.699	0.139	0.160
-286.574	12.728	0.107	-0.083
-285.559	20.059	0.215	-0.175
-284.545	24.818	-0.066	-0.055
-283.530	-122.689	-0.230	0.038
-282.516	296.083	0.035	-0.064
-281.501	23.594	0.104	0.086
-280.486	-27.624	0.200	0.117
-279.472	-94.042	0.414	0.114
-278.457	518.277	0.133	0.313
-277.443	63.989	-0.196	0.198
-276.428	800.000	0.048	-0.134
-275.413	-130.812	0.082	0.011
-274.399	195.266	0.123	0.187
-273.384	10.475	-0.157	0.120
-272.370	7.484	0.286	0.215
-271.355	251.674	0.399	0.682
-270.340	5.367	0.091	0.068
-269.326	-107.938	0.360	-0.079
-268.311	40.953	0.036	-0.032
-267.297	71.345	-0.161	0.168
-266.282	-200.000	0.000	-0.053
-265.267	800.000	0.057	-0.183
-264.253	197.013	-0.124	-0.189
-263.238	-110.296	-0.135	-0.028
-262.224	-200.000	0.016	-0.101
-261.209	311.576	-0.038	0.071
-260.195	154.347	0.118	0.163
-259.180	95.309	-0.252	-0.289
-258.165	-200.000	-0.033	-0.216
-257.151	242.411	-0.143	-0.241
-256.136	750.007	0.087	-0.235
-255.122	-178.569	0.102	-0.002
-254.107	-112.905	-0.065	-0.013
-253.092	472.580	0.064	-0.145
-252.078	-200.000	0.011	-0.322
-251.063	800.000	0.049	-0.212
-250.049	38.357	-0.117	0.105
-249.034	-99.259	0.345	-0.088
-248.019	-127.793	0.162	-0.024
-247.005	-200.000	-0.037	0.186
-245.990	660.350	-0.081	0.209
-244.976	250.520	-0.074	0.127
-243.961	-1.129	0.085	0.060
-242.946	3.198	-0.230	-0.168
-241.932	162.875	-0.149	-0.211
-240.917	800.000	-0.051	-0.202
-239.903	-200.000	0.010	0.202
-238.888	-158.370	-0.219	0.013
-237.873	800.000	0.090	-0.303
-236.859	-179.013	-0.289	0.007
-235.844	-103.932	0.226	0.053
-234.830	-200.000	-0.004	-0.066
-233.815	-91.285	-0.135	-0.039
-232.800	-117.535	0.206	-0.037
-231.786	-200.000	-0.018	-0.114
-230.771	68.812	-0.251	0.259
-229.757	-97.945	-0.113	-0.029
-228.742	800.000	-0.032	-0.101
-227.727	32.033	0.176	-0.152
-226.713	-200.000	0.013	0.209
-225.698	95.115	0.040	0.046
-224.684	353.012	0.075	-0.150
-223.669	46.449	0.212	0.198
-222.655	-41.612	-0.401	-0.207
-221.640	529.422	0.178	-0.421
-220.625	-123.921	0.211	0.033
-219.611	140.712	-0.058	-0.077
-218.596	-140.445	0.241	-0.025
-217.582	-153.571	-0.138	0.010
-216.567	-134.898	-0.043	0.005
-215.552	800.000	-0.083	-0.237
-214.538	433.567	-0.220	-0.479
-213.523	340.667	0.078	-0.152
-212.509	-200.000	0.060	0.355
-211.494	248.142	-0.160	0.272
-210.479	753.628	0.031	0.083
-209.465	337.155	-0.100	-0.195
-208.450	-21.211	-0.076	0.047
-207.436	132.381	-0.112	-0.145
-206.421	800.000	-0.054	-0.164
-205.406	155.553	0.072	-0.099
-204.392	-156.266	0.078	0.005
-203.377	121.693	0.143	0.179
-202.363	340.270	-0.042	-0.082
-201.348	-200.000	-0.036	0.328
-200.333	-34.763	0.159	0.087
-199.319	-200.000	0.021	-0.174
-198.304	-121.199	0.470	-0.079
-197.290	-22.866	-0.180	0.109
-196.275	-35.523	-0.189	0.103
-195.260	62.696	0.061	0.061
-194.246	-52.545	0.082	-0.038
-193.231	-200.000	-0.054	-0.398
-192.217	800.000	-0.022	0.074
-191.202	-85.741	0.162	-0.050
-190.187	-73.234	0.291	-0.107
-189.173	328.249	-0.042	-0.080
-188.158	-41.697	-0.152	0.078
-187.144	-200.000	0.002	-0.289
-186.129	-75.372	-0.130	-0.047
-185.114	-118.747	-0.254	-0.045
-184.100	-150.974	-0.026	-0.002
-183.085	27.665	-0.143	-0.121
-182.071	109.545	0.127	0.152
-181.056	325.313	-0.092	-0.177
-180.042	158.448	-0.158	-0.220
-179.027	-135.434	0.368	-0.044
-178.012	508.577	0.036	-0.084
-176.998	-19.568	0.222	0.138
-175.983	-95.099	-0.096	0.026
-174.969	63.013	0.042	-0.042
-173.954	800.000	0.029	0.097
-172.939	218.030	-0.075	0.120
-171.925	-7.082	-0.382	0.259
-170.910	108.921	-0.375	0.449
-169.896	-28.161	-0.169	-0.098
-168.881	216.710	-0.115	-0.183
-167.866	-70.931	-0.291	-0.110
-166.852	389.666	-0.181	0.376
-165.837	-200.000	-0.023	0.214
-164.823	-84.917	-0.196	0.062
-163.808	64.689	-0.028	0.028
-162.793	-104.117	0.121	-0.028
-161.779	-47.774	0.490	0.238
-160.764	-11.061	0.282	0.186
-159.750	16.645	0.210	-0.166
-158.735	33.622	0.071	-0.062
-157.720	168.257	-0.069	0.098
-156.706	41.445	0.104	0.094
-155.691	160.805	-0.265	-0.370
-154.677	-74.725	0.268	-0.096
-153.662	25.258	-0.085	0.071
-152.647	63.311	0.087	0.087
-151.633	524.592	-0.105	0.248
-150.618	-16.497	0.101	0.064
-149.604	423.712	0.124	0.267
-148.589	76.082	0.068	0.072
-147.574	-139.583	0.276	0.030
-146.560	-200.000	-0.009	0.384
-145.545	-200.000	0.039	-0.205
-144.531	-134.217	0.168	-0.021
-143.516	-30.909	-0.347	0.196
-142.502	215.802	0.138	-0.219
-141.487	-66.750	0.241	0.095
-140.472	-79.124	0.423	0.144
-139.458	541.238	0.178	-0.423
-138.443	-200.000	0.029	-0.186
-137.429	-62.256	0.146	0.061
-136.414	-39.136	-0.036	-0.019
-135.399	-70.773	0.213	-0.081
-134.385	18.655	-0.136	0.109
-133.370	-60.252	-0.404	0.172
-132.356	-10.450	0.507	0.336
-131.341	-130.996	0.074	-0.010
-130.326	-183.029	-0.295	-0.005
-129.312	-37.966	-0.109	-0.058
-128.297	28.489	0.088	0.075
-127.283	634.490	0.120	0.304
-126.268	-200.000	0.018	-0.129
-125.253	358.779	-0.129	-0.258
-124.239	-19.622	-0.182	0.113
-123.224	-153.605	0.232	-0.016
-122.210	558.862	0.080	-0.192
