DTS Sentinel unit serial number:	SN413079Multiplexer serial number:	ORYXHardware model number:	OX4-SRSoftware version number:	ORYX F/W v4.00 Oryx Data Collector v3.7.2.0data status	okinstallation	princeton_trtdifferential loss correction	single-endedforward channel	channel 1reverse channel	N/Adate	2019/09/12time	05:32:11forward acquisition time	60.00reverse acquisition time	0.00gamma	496.2192k internal	0.2321k external	0.2321temperature offset calibration	1.0049default loss term (dB/km)	0.3790temperature slope calibration	1.0000multiplexer offset coefficient	1.0000multiplexer slope coefficient	1.0000fibre end	0.00T internal ref (°C)	31.94T ext. ref 1 (°C)	1.60T ext. ref 2 (°C)	27.41length (m)	temperature (°C)	Stokes	anti-Stokes-747.200	20.922	0.079	-0.064
-746.185	-6.920	-0.328	0.225
-745.171	-98.375	-0.260	-0.067
-744.156	22.015	-0.196	0.161
-743.142	269.037	0.055	0.097
-742.127	-200.000	0.003	0.136
-741.112	180.383	0.240	0.355
-740.098	800.000	-0.160	0.515
-739.083	-200.000	0.041	0.201
-738.069	90.322	-0.244	0.276
-737.054	-200.000	0.001	-0.066
-736.039	800.000	-0.080	-0.246
-735.025	581.950	0.121	0.299
-734.010	-108.027	0.107	0.023
-732.996	74.038	0.065	-0.069
-731.981	-28.644	0.133	0.077
-730.966	-80.036	0.124	0.042
-729.952	92.506	0.241	-0.275
-728.937	-42.543	0.334	0.172
-727.923	-101.826	0.334	0.082
-726.908	-200.000	0.009	0.049
-725.894	-200.000	-0.017	-0.201
-724.879	-200.000	0.016	-0.117
-723.864	23.399	0.098	-0.082
-722.850	-181.160	-0.390	-0.008
-721.835	800.000	0.039	0.140
-720.821	-21.077	-0.102	-0.063
-719.806	-200.000	-0.007	-0.155
-718.791	-40.483	-0.350	0.184
-717.777	240.839	0.073	-0.122
-716.762	-76.436	0.315	-0.112
-715.748	405.065	-0.097	-0.207
-714.733	-200.000	-0.016	0.149
-713.718	119.325	-0.031	-0.039
-712.704	106.073	-0.181	0.217
-711.689	-200.000	-0.010	-0.255
-710.675	-8.837	0.107	0.072
-709.660	-82.783	0.211	0.069
-708.645	800.000	0.082	0.262
-707.631	25.207	0.096	-0.080
-706.616	-112.898	-0.218	0.044
-705.602	-114.282	0.125	0.024
-704.587	145.312	-0.197	0.265
-703.572	174.387	0.143	-0.209
-702.558	-120.406	-0.201	0.034
-701.543	15.117	0.227	0.179
-700.529	-200.000	-0.040	-0.560
-699.514	-14.632	-0.063	-0.041
-698.499	800.000	-0.077	-0.238
-697.485	69.987	0.292	-0.304
-696.470	52.940	-0.139	-0.134
-695.456	800.000	0.050	-0.216
-694.441	108.491	0.332	0.399
-693.426	-89.535	-0.035	-0.010
-692.412	-61.221	-0.352	0.150
-691.397	-140.027	-0.115	-0.012
-690.383	-2.135	-0.099	0.070
-689.368	-123.075	0.330	0.054
-688.354	12.365	-0.166	-0.129
-687.339	-200.000	-0.039	-0.234
-686.324	-110.472	0.228	-0.048
-685.310	77.152	-0.311	-0.333
-684.295	327.495	-0.113	-0.218
-683.281	24.568	0.161	0.134
-682.266	-200.000	-0.009	-0.262
-681.251	-60.278	-0.164	-0.071
-680.237	-200.000	-0.086	-0.435
-679.222	-117.502	-0.474	0.086
-678.208	101.494	0.061	0.072
-677.193	133.375	0.197	0.257
-676.178	473.857	-0.153	0.347
-675.164	9.418	0.183	-0.140
-674.149	-112.882	-0.281	0.056
-673.135	-145.727	0.017	-0.002
-672.120	138.069	-0.186	-0.246
-671.105	-73.762	-0.190	0.070
-670.091	204.380	-0.079	0.123
-669.076	800.000	0.013	-0.053
-668.062	74.053	-0.030	0.032
-667.047	198.915	0.123	-0.190
-666.032	-80.113	-0.158	-0.053
-665.018	-200.000	-0.086	0.654
-664.003	211.670	-0.174	0.276
-662.989	-58.695	0.339	-0.148
-661.974	-35.652	0.411	0.225
-660.959	-200.000	0.002	0.046
-659.945	-28.749	-0.099	-0.057
-658.930	-128.107	0.319	0.046
-657.916	800.000	-0.025	0.075
-656.901	-200.000	0.019	0.157
-655.886	-169.245	-0.155	-0.006
-654.872	-5.683	-0.382	0.264
-653.857	24.375	0.226	-0.188
-652.843	576.545	-0.060	-0.147
-651.828	-200.000	0.030	0.275
-650.814	215.104	0.097	-0.155
-649.799	-162.352	0.383	0.019
-648.784	12.529	-0.255	-0.198
-647.770	-165.879	0.106	-0.005
-646.755	358.783	0.138	-0.277
-645.741	800.000	0.055	-0.209
-644.726	261.173	-0.124	-0.216
-643.711	-69.867	0.119	-0.046
-642.697	196.589	-0.049	0.076
-641.682	-78.109	-0.234	0.081
-640.668	61.628	-0.112	0.112
-639.653	-31.035	-0.115	-0.065
-638.638	68.145	-0.084	-0.086
-637.624	-65.139	-0.059	0.024
-636.609	800.000	-0.131	-0.396
-635.595	-36.416	-0.270	-0.146
-634.580	-141.835	0.161	0.016
-633.565	-200.000	0.138	-0.686
-632.551	420.434	-0.224	-0.484
-631.536	-200.000	-0.006	-0.248
-630.522	80.221	-0.058	-0.063
-629.507	-190.509	-0.025	-0.000
-628.492	-200.000	0.002	-0.057
-627.478	-58.199	0.218	-0.096
-626.463	65.442	0.114	0.116
-625.449	-200.000	0.023	-0.294
-624.434	320.003	-0.134	0.256
-623.419	117.144	-0.144	0.178
-622.405	676.024	-0.081	0.213
-621.390	-93.785	0.170	0.047
-620.376	-121.824	0.436	0.072
-619.361	152.017	-0.098	0.135
-618.346	173.797	-0.184	-0.267
-617.332	-200.000	0.013	0.304
-616.317	541.992	0.202	0.485
-615.303	-200.000	0.018	0.189
-614.288	634.485	0.115	0.294
-613.273	-200.000	0.016	0.320
-612.259	601.249	0.031	-0.077
-611.244	800.000	0.043	-0.146
-610.230	-200.000	0.006	-0.275
-609.215	101.648	0.316	-0.370
-608.201	-200.000	0.032	-0.234
-607.186	22.892	-0.216	-0.178
-606.171	-35.420	0.335	-0.183
-605.157	-200.000	0.065	0.356
-604.142	-10.211	-0.112	0.075
-603.128	67.497	-0.313	-0.322
-602.113	-61.560	-0.262	-0.111
-601.098	79.450	0.117	0.126
-600.084	15.264	-0.192	-0.152
-599.069	-160.935	-0.174	0.009
-598.055	-77.960	0.115	-0.040
-597.040	-30.131	0.357	0.204
-596.025	-200.000	-0.012	0.274
-595.011	2.369	-0.159	-0.115
-593.996	409.365	0.080	-0.170
-592.982	-200.000	-0.042	0.231
-591.967	39.263	-0.154	-0.139
-590.952	71.751	0.125	-0.131
-589.938	-148.451	-0.279	0.023
-588.923	-10.038	-0.172	0.115
-587.909	-200.000	-0.009	-0.146
-586.894	-115.492	0.165	0.031
-585.879	-69.285	0.157	-0.060
-584.865	800.000	-0.083	0.340
-583.850	126.412	-0.165	0.210
-582.836	412.496	0.114	-0.243
-581.821	-162.235	-0.285	-0.014
-580.806	218.788	0.109	-0.174
-579.792	420.076	0.069	-0.148
-578.777	12.220	0.245	0.190
-577.763	800.000	-0.132	-0.400
-576.748	-122.664	0.146	-0.024
-575.733	-76.615	0.098	-0.034
-574.719	-200.000	0.018	-0.208
-573.704	-200.000	0.015	-0.341
-572.690	16.074	0.399	-0.316
-571.675	7.860	-0.123	-0.093
-570.661	178.570	-0.059	-0.087
-569.646	-141.092	0.158	-0.016
-568.631	-200.000	0.030	0.132
-567.617	-200.000	-0.042	-0.341
-566.602	48.748	0.198	0.187
-565.588	-200.000	-0.016	0.137
-564.573	-60.639	-0.169	-0.072
-563.558	-200.000	-0.044	0.231
-562.544	-144.939	-0.081	-0.007
-561.529	-99.598	-0.223	0.056
-560.515	595.311	-0.039	-0.097
-559.500	-133.610	0.319	0.040
-558.485	17.577	-0.244	-0.195
-557.471	-170.376	0.256	0.009
-556.456	-113.873	0.396	0.077
-555.442	-96.141	-0.326	0.087
-554.427	84.383	-0.155	-0.170
-553.412	310.927	-0.133	-0.250
-552.398	-77.378	0.206	-0.072
-551.383	-184.506	0.333	0.005
-550.369	-156.720	-0.249	0.015
-549.354	544.868	-0.075	-0.180
-548.339	32.531	-0.243	-0.210
-547.325	399.217	-0.101	-0.213
-546.310	562.187	-0.069	-0.168
-545.296	45.324	0.066	0.061
-544.281	-61.851	-0.456	0.191
-543.266	308.133	-0.093	-0.175
-542.252	-104.683	0.168	-0.039
-541.237	-30.142	0.080	0.045
-540.223	-93.296	-0.347	0.097
-539.208	-58.109	-0.285	-0.125
-538.193	-200.000	0.004	0.520
-537.179	-65.755	0.255	0.102
-536.164	-9.883	0.076	0.051
-535.150	-184.791	-0.191	0.003
-534.135	186.487	0.115	0.172
-533.121	407.460	-0.077	-0.164
-532.106	366.693	0.061	0.124
-531.091	107.669	0.240	0.287
-530.077	-200.000	-0.010	0.053
-529.062	335.022	-0.102	0.198
-528.048	77.848	0.104	0.111
-527.033	366.820	0.047	0.096
-526.018	-200.000	0.015	0.106
-525.004	-114.264	0.440	0.085
-523.989	-141.801	0.185	0.019
-522.975	45.901	-0.032	0.029
-521.960	-93.465	0.372	0.103
-520.945	60.112	-0.118	0.117
-519.931	293.421	0.168	0.306
-518.916	49.676	-0.234	-0.221
-517.902	551.336	-0.030	0.072
-516.887	-6.231	0.239	0.163
-515.872	-62.273	-0.108	-0.045
-514.858	-125.675	-0.238	-0.036
-513.843	-28.844	-0.141	-0.081
-512.829	-98.003	0.213	-0.055
-511.814	412.527	-0.014	0.030
-510.799	-156.371	0.241	0.015
-509.785	-32.334	0.122	0.068
-508.770	-100.850	-0.090	0.022
-507.756	800.000	0.047	-0.192
-506.741	-200.000	-0.029	-0.202
-505.726	-200.000	-0.008	-0.091
-504.712	-200.000	-0.053	-0.325
-503.697	800.000	0.030	-0.118
-502.683	-67.277	-0.288	-0.114
-501.668	62.713	-0.172	-0.173
-500.653	101.404	0.085	-0.100
-499.639	-200.000	0.006	-0.084
-498.624	84.459	-0.117	-0.128
-497.610	800.000	-0.079	0.228
-496.595	-200.000	-0.013	0.123
-495.581	-34.383	0.315	-0.173
-494.566	-54.338	-0.165	-0.075
-493.551	-200.000	0.022	-0.196
-492.537	-11.587	0.318	-0.209
-491.522	-46.365	-0.109	0.054
-490.508	-1.382	-0.133	-0.094
-489.493	-83.346	-0.165	0.053
-488.478	-10.136	-0.253	0.168
-487.464	-200.000	0.048	0.219
-486.449	211.601	0.098	0.154
-485.435	-94.269	0.135	-0.037
-484.420	800.000	-0.088	-0.290
-483.405	33.379	0.029	0.025
-482.391	2.568	0.169	0.122
-481.376	258.796	0.243	-0.419
-480.362	25.080	0.111	-0.092
-479.347	-14.047	0.140	-0.090
-478.332	-48.454	-0.464	-0.224
-477.318	-19.049	0.040	0.025
-476.303	31.237	-0.076	0.065
-475.289	106.034	0.159	0.189
-474.274	350.389	0.228	-0.452
-473.259	800.000	-0.097	-0.337
-472.245	347.808	-0.120	0.237
-471.230	590.454	0.055	0.137
-470.216	101.310	0.138	-0.160
-469.201	286.195	-0.135	-0.244
-468.186	-76.849	-0.303	0.106
-467.172	-82.754	-0.317	0.103
-466.157	800.000	0.189	0.522
-465.143	-8.455	-0.125	0.084
-464.128	745.765	0.040	-0.109
-463.113	13.131	-0.155	0.120
-462.099	115.797	-0.161	0.197
-461.084	50.057	0.099	-0.093
-460.070	398.495	0.113	0.236
-459.055	800.000	-0.079	-0.280
-458.040	800.000	-0.126	-0.350
-457.026	-83.463	0.164	0.053
-456.011	96.232	-0.130	0.149
-454.997	-200.000	0.048	0.243
-453.982	-45.024	-0.486	-0.241
-452.968	-60.442	0.253	0.107
-451.953	-58.227	-0.417	0.182
-450.938	516.647	0.067	-0.157
-449.924	-200.000	0.008	-0.095
-448.909	116.505	-0.188	0.230
-447.895	800.000	-0.111	-0.324
-446.880	-173.189	0.151	0.005
-445.865	135.725	0.119	0.155
-444.851	-21.215	0.188	0.115
-443.836	-21.721	-0.248	0.151
-442.822	-145.175	-0.106	-0.010
-441.807	-45.131	0.107	-0.053
-440.792	-200.000	-0.016	-0.070
-439.778	-5.873	0.176	0.121
-438.763	-14.335	-0.113	0.073
-437.749	179.408	-0.220	0.321
-436.734	-200.000	0.035	-0.240
-435.719	800.000	-0.062	0.215
-434.705	-61.927	0.091	0.038
-433.690	51.690	-0.117	-0.111
-432.676	428.291	-0.065	0.139
-431.661	-35.810	0.028	0.015
-430.646	40.795	0.268	-0.241
-429.632	800.000	-0.102	-0.349
-428.617	85.754	-0.218	-0.239
-427.603	-2.764	0.252	-0.176
-426.588	213.406	0.087	-0.138
-425.573	-175.810	-0.414	0.011
-424.559	85.199	0.185	0.203
-423.544	13.701	-0.244	-0.189
-422.530	-200.000	-0.018	0.340
-421.515	-101.266	0.062	0.015
-420.500	-100.086	-0.290	0.072
-419.486	-172.009	0.277	-0.009
-418.471	-54.335	-0.237	0.107
-417.457	-40.724	0.192	-0.099
-416.442	190.279	0.139	-0.208
-415.428	-93.996	-0.135	0.037
-414.413	564.194	-0.125	0.301
-413.398	-200.000	-0.029	0.155
-412.384	-127.107	-0.206	0.030
-411.369	-40.066	0.035	0.018
-410.355	-200.000	-0.029	-0.251
-409.340	800.000	-0.112	-0.433
-408.325	57.340	0.092	0.090
-407.311	59.513	0.119	-0.117
-406.296	606.654	-0.040	0.099
-405.282	800.000	-0.021	-0.090
-404.267	-200.000	-0.035	-0.218
-403.252	-200.000	0.001	-0.089
-402.238	466.351	-0.159	0.356
-401.223	-200.000	0.041	-0.344
-400.209	-4.160	-0.317	0.219
-399.194	-29.889	0.228	0.129
-398.179	343.274	-0.099	-0.194
-397.165	-16.405	-0.171	-0.108
-396.150	800.000	-0.090	0.299
-395.136	-72.021	0.288	-0.107
-394.121	800.000	-0.011	-0.048
-393.106	-79.911	-0.045	0.015
-392.092	-140.848	-0.185	0.019
-391.077	-200.000	-0.005	-0.180
-390.063	-98.403	0.224	-0.057
-389.048	-54.927	0.239	0.107
-388.033	-43.549	-0.044	0.022
-387.019	-200.000	-0.002	-0.284
-386.004	159.166	0.023	-0.032
-384.990	62.826	0.109	0.108
-383.975	194.867	0.089	0.135
-382.960	214.160	-0.114	-0.180
-381.946	-200.000	-0.031	0.288
-380.931	176.088	-0.075	0.108
-379.917	-81.550	-0.420	0.138
-378.902	-77.701	-0.139	-0.048
-377.888	-200.000	0.025	0.187
-376.873	113.377	0.145	0.175
-375.858	83.560	0.136	0.147
-374.844	-200.000	-0.043	0.254
-373.829	448.443	0.032	-0.070
-372.815	-157.316	0.277	-0.017
-371.800	133.970	-0.045	-0.058
-370.785	-104.356	-0.204	0.047
-369.771	110.554	0.046	0.056
-368.756	-13.655	-0.173	0.112
-367.742	-111.368	0.281	-0.057
-366.727	32.107	0.128	0.110
-365.712	-200.000	0.012	0.184
-364.698	-65.173	0.094	-0.038
-363.683	22.097	0.213	-0.173
-362.669	400.710	0.088	0.185
-361.654	-96.330	-0.333	0.088
-360.639	242.811	0.185	0.309
-359.625	268.410	0.125	-0.218
-358.610	99.594	-0.043	0.050
-357.596	53.757	0.117	-0.112
-356.581	-47.853	0.273	-0.132
-355.566	-144.388	0.332	0.031
-354.552	-200.000	-0.035	-0.156
-353.537	126.359	-0.237	-0.299
-352.523	86.756	0.278	0.306
-351.508	11.181	0.064	-0.049
-350.493	-20.990	0.307	0.187
-349.479	471.577	-0.064	0.144
-348.464	175.234	-0.174	0.251
-347.450	-76.142	0.166	0.058
-346.435	159.563	0.060	0.083
-345.420	69.716	0.155	0.159
-344.406	-103.848	0.269	0.063
-343.391	-114.133	0.138	-0.027
-342.377	-92.114	0.303	0.085
-341.362	78.481	0.041	-0.043
-340.348	-200.000	0.070	0.374
-339.333	539.769	0.028	-0.066
-338.318	79.171	-0.199	-0.212
-337.304	-200.000	0.045	0.420
-336.289	-150.457	-0.405	-0.031
-335.275	194.108	-0.179	0.270
-334.260	207.776	0.211	0.328
-333.245	-200.000	0.017	0.138
-332.231	-41.767	0.125	0.064
-331.216	800.000	0.050	-0.145
-330.202	-200.000	-0.027	0.257
-329.187	565.772	0.171	0.411
-328.172	-46.192	-0.206	-0.101
-327.158	800.000	-0.024	0.068
-326.143	-57.508	-0.188	0.082
-325.129	-28.049	0.205	0.118
-324.114	5.838	0.167	-0.123
-323.099	163.117	-0.106	-0.147
-322.085	-105.158	0.249	0.056
-321.070	22.674	0.199	-0.162
-320.056	-51.947	-0.130	0.060
-319.041	104.153	-0.074	-0.086
-318.026	99.164	-0.245	-0.281
-317.012	-200.000	0.070	0.349
-315.997	-91.075	0.269	-0.077
-314.983	-177.006	0.256	0.006
-313.968	172.793	-0.142	-0.203
-312.953	-200.000	0.013	-0.326
-311.939	203.193	0.061	0.094
-310.924	27.834	0.097	0.081
-309.910	200.482	-0.138	0.211
-308.895	42.467	0.179	0.162
-307.880	122.664	0.082	-0.102
-306.866	101.630	-0.114	-0.132
-305.851	-109.611	-0.112	0.024
-304.837	182.458	0.288	-0.422
-303.822	-103.047	0.123	-0.029
-302.807	64.342	-0.201	0.201
-301.793	734.775	0.052	-0.139
-300.778	-51.812	0.228	0.105
-299.764	800.000	0.040	0.161
-298.749	648.213	-0.131	-0.332
-297.735	401.798	-0.162	0.337
-296.720	800.000	0.034	-0.147
-295.705	800.000	0.069	-0.232
-294.691	37.451	-0.201	0.177
-293.676	-9.727	-0.041	-0.027
-292.662	-47.354	-0.384	-0.186
-291.647	293.572	0.088	0.159
-290.632	-200.000	-0.042	0.481
-289.618	19.847	0.208	0.167
-288.603	414.945	-0.090	-0.190
-287.589	-124.593	-0.161	-0.025
-286.574	-86.301	0.194	-0.059
-285.559	542.761	-0.069	0.163
-284.545	800.000	0.075	-0.312
-283.530	-134.483	0.158	-0.019
-282.516	800.000	0.044	-0.172
-281.501	23.135	-0.066	-0.054
-280.486	-78.718	0.162	-0.055
-279.472	-11.390	-0.218	-0.142
-278.457	-98.920	0.181	-0.046
-277.443	-168.451	-0.268	0.010
-276.428	467.063	-0.068	-0.151
-275.413	-17.753	0.213	0.132
-274.399	342.880	-0.096	0.186
-273.384	-200.000	-0.019	-0.124
-272.370	-95.058	0.195	-0.052
-271.355	-200.000	0.039	-0.229
-270.340	35.144	0.293	-0.254
-269.326	407.593	-0.102	-0.214
-268.311	779.736	-0.117	0.318
-267.297	276.567	0.060	0.106
-266.282	800.000	-0.083	0.236
-265.267	800.000	0.118	0.330
-264.253	82.794	0.182	0.196
-263.238	98.701	-0.225	0.257
-262.224	156.418	-0.316	-0.432
-261.209	-200.000	-0.012	0.193
-260.195	8.748	-0.331	-0.247
-259.180	691.150	0.075	-0.194
-258.165	-54.157	-0.198	0.089
-257.151	9.820	-0.335	-0.252
-256.136	28.276	-0.208	0.174
-255.122	-200.000	-0.033	0.477
-254.107	800.000	0.027	-0.087
-253.092	157.382	-0.124	0.170
-252.078	-6.031	-0.108	0.073
-251.063	800.000	-0.091	0.296
-250.049	123.980	-0.153	-0.191
-249.034	-7.144	0.367	0.247
-248.019	-65.679	-0.275	0.109
-247.005	7.768	0.405	-0.301
-245.990	-72.166	-0.154	0.057
-244.976	-109.976	0.273	-0.057
-243.961	-86.633	-0.221	0.067
-242.946	800.000	-0.031	-0.104
-241.932	27.440	-0.201	-0.167
-240.917	-200.000	0.000	0.176
-239.903	243.948	0.250	0.416
-238.888	63.477	-0.222	0.221
-237.873	-61.442	0.236	0.098
-236.859	437.506	-0.031	0.066
-235.844	113.725	-0.105	0.127
-234.830	-55.573	0.262	-0.116
-233.815	614.914	0.017	0.043
-232.800	-79.754	0.083	-0.028
-231.786	70.968	0.111	0.114
-230.771	-110.821	0.431	0.088
-229.757	-28.347	-0.121	-0.069
-228.742	-200.000	-0.016	0.170
-227.727	-200.000	-0.001	-0.217
-226.713	184.063	-0.074	-0.108
-225.698	327.939	0.150	-0.284
-224.684	-187.104	-0.203	0.003
-223.669	-64.603	-0.051	-0.020
-222.655	167.430	0.267	-0.376
-221.640	552.588	0.040	-0.096
-220.625	-92.741	0.154	-0.043
-219.611	-200.000	-0.045	0.241
-218.596	128.233	-0.085	0.107
-217.582	800.000	0.067	-0.242
-216.567	-200.000	0.049	-0.244
-215.552	244.548	-0.108	-0.179
-214.538	-200.000	0.021	-0.340
-213.523	8.428	-0.137	-0.102
-212.509	-94.581	-0.251	-0.068
-211.494	372.002	0.104	-0.208
-210.479	-200.000	-0.015	0.090
-209.465	-7.709	-0.057	0.038
-208.450	-67.207	0.200	0.078
-207.436	-200.000	-0.018	0.171
-206.421	-143.290	-0.319	-0.030
-205.406	-36.962	0.147	-0.078
-204.392	321.866	0.094	0.177
-203.377	800.000	0.062	-0.201
-202.363	-200.000	0.071	0.364
-201.348	800.000	-0.016	-0.065
-200.333	387.903	0.198	0.406
-199.319	-39.824	0.133	-0.069
-198.304	-200.000	-0.069	0.335
-197.290	800.000	-0.016	-0.059
-196.275	-122.197	0.361	-0.059
-195.260	47.359	-0.078	0.072
-194.246	-200.000	-0.004	0.083
-193.231	-64.995	-0.149	0.059
-192.217	-6.692	0.289	-0.194
-191.202	-133.677	0.339	0.042
-190.187	-94.331	-0.300	-0.081
-189.173	737.760	-0.107	-0.283
-188.158	-200.000	0.009	0.115
-187.144	-200.000	0.037	0.269
-186.129	-131.122	0.255	-0.034
-185.114	-14.908	0.249	0.158
-184.100	181.784	0.219	-0.319
-183.085	609.413	-0.159	0.393
-182.071	-155.800	-0.077	0.005
-181.056	6.995	-0.239	-0.176
-180.042	800.000	-0.017	-0.059
-179.027	136.915	-0.171	-0.221
-178.012	37.986	-0.250	0.220
-176.998	397.785	-0.061	-0.127
-175.983	-27.271	-0.345	0.199
-174.969	314.627	-0.064	-0.118
-173.954	-165.961	0.184	-0.008
-172.939	72.854	-0.048	-0.049
-171.925	434.620	-0.034	0.073
-170.910	92.064	0.121	-0.135
-169.896	-80.975	0.217	0.071
-168.881	-72.374	-0.248	0.091
-167.866	47.371	-0.063	0.058
-166.852	-83.413	-0.235	0.074
-165.837	53.333	0.045	0.043
-164.823	800.000	-0.060	-0.196
-163.808	348.580	0.095	0.186
-162.793	584.813	-0.097	-0.236
-161.779	-101.560	0.083	-0.020
-160.764	-200.000	-0.026	0.225
-159.750	-143.822	-0.321	0.030
-158.735	-59.887	-0.237	0.100
-157.720	-200.000	0.073	0.322
-156.706	244.048	0.097	0.160
-155.691	384.281	0.142	0.290
-154.677	-163.898	0.065	0.003
-153.662	-23.071	-0.286	-0.170
-152.647	800.000	-0.093	0.271
-151.633	-199.874	0.282	-0.001
-150.618	41.475	-0.110	-0.098
-149.604	-143.532	0.024	-0.002
-148.589	-179.692	-0.341	0.007
-147.574	-131.529	0.231	0.030
-146.560	130.147	0.109	-0.137
-145.545	800.000	-0.117	0.385
-144.531	338.250	-0.064	-0.124
-143.516	13.384	-0.289	0.221
-142.502	800.000	-0.057	0.192
-141.487	-200.000	0.011	-0.096
-140.472	-90.121	-0.161	0.046
-139.458	5.225	-0.219	-0.160
-138.443	155.824	0.066	-0.089
-137.429	800.000	0.109	-0.297
-136.414	-31.230	-0.163	-0.091
-135.399	-200.000	-0.012	0.212
-134.385	7.041	-0.063	-0.047
-133.370	-200.000	0.021	0.170
-132.356	-116.753	0.265	0.048
-131.341	-122.892	0.082	-0.013
-130.326	102.340	0.067	0.077
-129.312	14.109	-0.100	-0.077
-128.297	281.455	0.202	-0.357
-127.283	80.879	0.099	0.105
-126.268	203.876	-0.202	0.308
-125.253	261.089	0.052	0.089
-124.239	-114.586	-0.093	-0.018
-123.224	-40.346	0.014	0.007
-122.210	81.427	-0.189	-0.201
-121.195	-62.581	-0.205	-0.084
-120.180	119.902	-0.213	0.260
